timestamps,TP9,AF7,AF8,TP10,Right AUX
1709298973.947,-65.918,-49.805,-31.738,-45.898,0.000
1709298973.951,-47.852,-66.406,-30.273,-27.832,0.000
1709298973.955,-40.039,-67.871,-35.645,-23.438,0.000
1709298973.959,-61.523,-54.688,-36.621,-29.785,0.000
1709298973.963,-62.988,-44.922,-36.621,-31.738,0.000
1709298973.967,-54.688,-45.410,-34.668,-28.320,0.000
1709298973.971,-47.363,-50.293,-29.297,-14.160,0.000
1709298973.975,-47.363,-43.945,-37.109,-17.578,0.000
1709298973.979,-46.387,-45.410,-40.527,-27.344,0.000
1709298973.983,-48.340,-47.852,-40.039,-25.391,0.000
1709298973.987,-56.152,-47.852,-37.598,-41.992,0.000
1709298973.990,-48.828,-59.082,-28.809,-46.387,0.000
1709298973.994,-41.504,-60.547,-41.992,-26.367,0.000
1709298973.998,-31.738,-42.480,-34.668,-29.785,0.000
1709298974.002,-32.715,-27.832,-30.273,-40.527,0.000
1709298974.006,-45.898,-40.527,-41.992,-38.574,0.000
1709298974.010,-31.738,-38.086,-26.855,-27.344,0.000
1709298974.014,-21.973,-30.762,-18.555,-20.020,0.000
1709298974.018,-29.297,-41.504,-21.973,-33.691,0.000
1709298974.022,-28.809,-42.969,-29.297,-50.781,0.000
1709298974.026,-28.809,-48.828,-41.504,-51.270,0.000
1709298974.030,-37.109,-54.688,-45.898,-40.039,0.000
1709298974.033,-45.410,-43.457,-46.875,-38.574,0.000
1709298974.037,-40.527,-35.156,-44.922,-40.039,0.000
1709298974.041,-35.156,-36.133,-42.480,-44.434,0.000
1709298974.045,-34.668,-49.805,-40.527,-45.410,0.000
1709298974.049,-39.062,-48.828,-42.969,-33.691,0.000
1709298974.053,-36.621,-39.062,-50.781,-29.297,0.000
1709298974.057,-33.691,-39.062,-40.527,-25.879,0.000
1709298974.061,-28.320,-30.762,-39.062,-26.855,0.000
1709298974.065,-20.508,-22.461,-43.457,-35.156,0.000
1709298974.069,-12.207,-24.902,-29.297,-21.973,0.000
1709298974.072,-9.277,-34.180,-23.438,-12.207,0.000
1709298974.076,-10.742,-33.203,-33.691,-19.531,0.000
1709298974.080,-16.113,-34.180,-29.297,-33.203,0.000
1709298974.084,-30.273,-37.598,-27.832,-32.715,0.000
1709298974.088,-30.273,-32.715,-35.645,-20.996,0.000
1709298974.092,-20.508,-27.344,-34.668,-24.902,0.000
1709298974.096,-26.855,-30.273,-37.598,-25.391,0.000
1709298974.100,-32.715,-23.438,-30.273,-28.320,0.000
1709298974.104,-33.203,-34.180,-16.113,-34.180,0.000
1709298974.108,-32.715,-56.641,-18.555,-34.668,0.000
1709298974.112,-38.086,-43.457,-25.879,-33.691,0.000
1709298974.115,-44.434,-25.879,-34.180,-34.180,0.000
1709298974.119,-42.969,-32.715,-40.039,-37.598,0.000
1709298974.123,-41.016,-43.457,-32.715,-41.016,0.000
1709298974.127,-39.062,-41.992,-21.484,-42.480,0.000
1709298974.131,-34.668,-25.391,-29.297,-37.109,0.000
1709298974.135,-32.715,-32.715,-27.832,-33.691,0.000
1709298974.139,-37.598,-39.062,-24.414,-38.086,0.000
1709298974.143,-42.480,-20.020,-29.785,-41.016,0.000
1709298974.147,-43.457,-21.484,-30.762,-46.387,0.000
1709298974.151,-35.156,-38.574,-28.320,-39.551,0.000
1709298974.154,-23.438,-41.992,-25.391,-36.133,0.000
1709298974.158,-21.484,-34.668,-38.086,-41.016,0.000
1709298974.162,-22.461,-41.504,-41.016,-43.945,0.000
1709298974.166,-12.207,-30.762,-32.227,-49.316,0.000
1709298974.170,-17.090,-16.602,-20.020,-35.156,0.000
1709298974.174,-21.484,-22.949,-22.461,-11.719,0.000
1709298974.178,-17.090,-24.414,-32.715,-24.414,0.000
1709298974.182,-17.578,-24.902,-31.250,-43.457,0.000
1709298974.186,-23.926,-27.344,-29.785,-41.992,0.000
1709298974.190,-21.973,-33.203,-31.738,-36.621,0.000
1709298974.193,-13.672,-29.785,-32.715,-19.043,0.000
1709298974.197,-13.672,-30.273,-27.344,-15.137,0.000
1709298974.201,-19.043,-35.156,-23.438,-30.273,0.000
1709298974.205,-26.855,-28.320,-34.180,-36.621,0.000
1709298974.209,-28.320,-33.691,-42.480,-34.180,0.000
1709298974.213,-31.250,-31.250,-42.480,-41.992,0.000
1709298974.217,-41.016,-18.555,-49.805,-52.734,0.000
1709298974.221,-39.551,-21.973,-39.551,-47.363,0.000
1709298974.225,-36.133,-23.438,-33.203,-51.758,0.000
1709298974.229,-38.086,-21.973,-39.062,-64.453,0.000
1709298974.232,-50.781,-33.203,-33.691,-52.734,0.000
1709298974.236,-53.711,-28.809,-28.320,-36.621,0.000
1709298974.240,-49.805,-23.438,-26.367,-37.109,0.000
1709298974.244,-50.293,-41.504,-34.668,-45.898,0.000
1709298974.248,-50.781,-43.945,-30.762,-41.016,0.000
1709298974.252,-47.852,-38.086,-22.949,-27.344,0.000
1709298974.256,-43.945,-33.203,-23.926,-29.785,0.000
1709298974.260,-47.852,-36.133,-27.344,-39.062,0.000
1709298974.264,-48.340,-46.875,-29.297,-39.062,0.000
1709298974.268,-49.805,-37.598,-34.180,-33.691,0.000
1709298974.272,-41.992,-36.621,-28.320,-23.926,0.000
1709298974.275,-25.879,-50.293,-16.113,-17.578,0.000
1709298974.279,-32.715,-49.805,-30.273,-33.691,0.000
1709298974.283,-35.645,-50.293,-45.410,-47.852,0.000
1709298974.287,-41.992,-41.504,-48.828,-40.527,0.000
1709298974.291,-52.734,-30.762,-40.039,-26.367,0.000
1709298974.295,-40.039,-35.645,-35.156,-32.227,0.000
1709298974.299,-36.621,-32.715,-34.668,-40.527,0.000
1709298974.303,-43.945,-30.762,-35.645,-41.992,0.000
1709298974.307,-41.016,-30.762,-38.086,-34.180,0.000
1709298974.311,-30.762,-29.785,-30.273,-20.508,0.000
1709298974.315,-30.273,-33.691,-39.062,-32.715,0.000
1709298974.318,-35.156,-41.504,-46.875,-45.410,0.000
1709298974.322,-38.574,-30.273,-36.621,-39.062,0.000
1709298974.326,-36.621,-20.508,-32.227,-37.598,0.000
1709298974.330,-28.320,-32.227,-35.645,-37.598,0.000
1709298974.334,-15.137,-33.691,-30.273,-25.391,0.000
1709298974.338,-10.254,-35.645,-39.062,-20.020,0.000
1709298974.342,-2.930,-37.109,-42.480,-14.648,0.000
1709298974.346,5.371,-32.715,-37.109,-15.137,0.000
1709298974.350,-22.949,-29.785,-48.340,-24.414,0.000
1709298974.354,-25.879,-23.926,-41.504,-18.066,0.000
1709298974.358,-17.090,-22.949,-35.645,-11.230,0.000
1709298974.361,-21.973,-30.762,-41.504,-21.484,0.000
1709298974.365,-18.066,-36.621,-43.457,-39.551,0.000
1709298974.369,-21.973,-29.297,-38.574,-30.762,0.000
1709298974.373,-34.180,-31.250,-29.297,-23.438,0.000
1709298974.377,-41.992,-29.297,-24.414,-30.273,0.000
1709298974.381,-42.969,-27.344,-25.879,-39.551,0.000
1709298974.385,-48.340,-39.551,-28.809,-54.199,0.000
1709298974.389,-53.223,-37.109,-30.762,-48.340,0.000
1709298974.393,-52.734,-35.156,-33.691,-43.945,0.000
1709298974.397,-52.734,-47.363,-44.922,-46.875,0.000
1709298974.400,-54.199,-53.223,-54.688,-42.480,0.000
1709298974.404,-57.129,-49.805,-50.781,-48.828,0.000
1709298974.408,-57.617,-33.203,-44.922,-52.734,0.000
1709298974.412,-37.109,-31.250,-50.293,-39.551,0.000
1709298974.416,-37.109,-47.363,-60.059,-31.738,0.000
1709298974.420,-52.246,-43.457,-46.387,-34.668,0.000
1709298974.424,-44.434,-41.504,-41.016,-40.527,0.000
1709298974.428,-38.086,-43.945,-43.945,-37.598,0.000
1709298974.432,-38.574,-37.109,-39.551,-32.715,0.000
1709298974.436,-40.039,-42.480,-41.504,-33.203,0.000
1709298974.440,-40.527,-56.152,-41.992,-32.715,0.000
1709298974.443,-40.527,-47.363,-51.758,-45.410,0.000
1709298974.447,-44.922,-36.621,-57.129,-48.828,0.000
1709298974.451,-42.969,-27.832,-40.527,-30.762,0.000
1709298974.455,-33.203,-29.297,-31.738,-29.297,0.000
1709298974.459,-36.133,-40.039,-31.738,-50.293,0.000
1709298974.463,-43.945,-33.203,-34.180,-56.152,0.000
1709298974.467,-45.898,-35.645,-46.387,-56.152,0.000
1709298974.471,-38.574,-28.809,-51.270,-51.270,0.000
1709298974.475,-41.992,-24.414,-50.293,-43.457,0.000
1709298974.479,-36.133,-52.734,-45.410,-43.457,0.000
1709298974.482,-37.598,-56.641,-37.109,-37.109,0.000
1709298974.486,-50.293,-36.621,-37.109,-32.715,0.000
1709298974.490,-49.805,-34.180,-40.039,-26.367,0.000
1709298974.494,-50.293,-42.480,-49.316,-19.043,0.000
1709298974.498,-46.387,-41.504,-54.199,-29.785,0.000
1709298974.502,-52.246,-26.367,-43.945,-45.898,0.000
1709298974.506,-61.035,-34.180,-42.480,-47.363,0.000
1709298974.510,-59.570,-46.875,-44.434,-44.434,0.000
1709298974.514,-59.570,-39.551,-40.527,-51.758,0.000
1709298974.518,-52.734,-35.156,-36.621,-46.875,0.000
1709298974.522,-41.504,-41.992,-34.668,-49.805,0.000
1709298974.525,-47.852,-42.480,-41.016,-63.477,0.000
1709298974.529,-61.523,-49.316,-45.898,-54.199,0.000
1709298974.533,-65.430,-49.805,-39.551,-42.480,0.000
1709298974.537,-52.246,-47.852,-41.992,-47.852,0.000
1709298974.541,-51.270,-47.363,-43.457,-54.688,0.000
1709298974.545,-64.453,-28.320,-32.227,-51.758,0.000
1709298974.549,-58.594,-19.043,-34.668,-40.527,0.000
1709298974.553,-55.664,-32.227,-43.457,-35.156,0.000
1709298974.557,-49.316,-35.645,-32.227,-48.340,0.000
1709298974.561,-42.480,-39.062,-21.484,-47.852,0.000
1709298974.564,-48.340,-50.781,-25.391,-42.480,0.000
1709298974.568,-48.828,-42.480,-34.180,-37.109,0.000
1709298974.572,-47.852,-37.109,-42.969,-33.691,0.000
1709298974.576,-47.852,-42.480,-45.410,-44.434,0.000
1709298974.580,-47.363,-46.875,-40.527,-43.945,0.000
1709298974.584,-51.758,-34.668,-49.805,-42.480,0.000
1709298974.588,-54.688,-29.297,-51.758,-50.293,0.000
1709298974.592,-47.852,-32.227,-44.922,-39.551,0.000
1709298974.596,-39.062,-39.551,-42.480,-21.973,0.000
1709298974.600,-38.086,-52.734,-30.762,-35.156,0.000
1709298974.603,-32.715,-45.410,-41.016,-60.547,0.000
1709298974.607,-44.922,-33.203,-53.223,-65.430,0.000
1709298974.611,-53.711,-26.855,-49.805,-45.410,0.000
1709298974.615,-41.992,-22.461,-45.410,-26.855,0.000
1709298974.619,-40.527,-31.250,-41.016,-31.738,0.000
1709298974.623,-44.434,-44.434,-47.363,-41.016,0.000
1709298974.627,-51.270,-43.457,-41.016,-43.945,0.000
1709298974.631,-49.316,-19.531,-35.156,-41.992,0.000
1709298974.635,-46.875,-18.066,-40.039,-43.945,0.000
1709298974.639,-46.875,-32.715,-35.156,-50.781,0.000
1709298974.642,-50.293,-31.738,-47.363,-62.500,0.000
1709298974.646,-53.223,-40.039,-46.387,-51.270,0.000
1709298974.650,-40.527,-42.969,-25.391,-27.344,0.000
1709298974.654,-31.250,-42.969,-34.180,-30.273,0.000
1709298974.658,-39.551,-38.574,-27.344,-39.551,0.000
1709298974.662,-38.574,-34.180,-15.625,-54.199,0.000
1709298974.666,-32.227,-39.551,-26.855,-53.711,0.000
1709298974.670,-34.180,-40.039,-35.645,-32.227,0.000
1709298974.674,-25.391,-66.406,-25.391,-19.531,0.000
1709298974.678,-25.879,-73.730,-16.113,-16.113,0.000
1709298974.682,-44.922,-40.039,-22.949,-28.809,0.000
1709298974.685,-47.363,-30.273,-22.461,-39.551,0.000
1709298974.689,-40.527,-43.457,-19.531,-33.203,0.000
1709298974.693,-37.598,-54.199,-23.926,-24.414,0.000
1709298974.697,-42.480,-56.152,-15.137,-19.531,0.000
1709298974.701,-51.270,-62.500,0.000,-20.996,0.000
1709298974.705,-49.316,-66.895,-2.930,-20.996,0.000
1709298974.709,-47.852,-70.312,-8.789,-12.695,0.000
1709298974.713,-46.875,-74.707,-9.766,-9.766,0.000
1709298974.717,-42.969,-75.195,-5.371,-8.789,0.000
1709298974.721,-34.180,-75.684,-0.488,-6.348,0.000
1709298974.725,-31.738,-75.684,0.000,-4.395,0.000
1709298974.728,-44.922,-82.031,6.348,19.043,0.000
1709298974.732,-44.922,-94.727,14.160,26.855,0.000
1709298974.736,-38.574,-102.051,-2.930,14.160,0.000
1709298974.740,-40.527,-93.262,-15.137,2.441,0.000
1709298974.744,-43.457,-76.660,-9.766,-9.766,0.000
1709298974.748,-39.062,-71.777,-8.789,-6.348,0.000
1709298974.752,-24.902,-74.219,-14.160,15.625,0.000
1709298974.756,-12.207,-84.961,-11.719,16.113,0.000
1709298974.760,-4.395,-93.750,-11.719,2.441,0.000
1709298974.764,-2.930,-97.656,-18.555,5.371,0.000
1709298974.768,-9.277,-99.121,-9.277,7.812,0.000
1709298974.771,-4.395,-93.750,-10.742,8.789,0.000
1709298974.775,-4.883,-86.426,-13.184,17.090,0.000
1709298974.779,-15.137,-88.867,-5.371,12.695,0.000
1709298974.783,-12.207,-95.215,-7.812,-2.441,0.000
1709298974.787,-5.859,-108.398,-10.742,1.465,0.000
1709298974.791,-9.766,-119.141,-12.695,6.348,0.000
1709298974.795,-28.809,-112.305,-8.789,-1.953,0.000
1709298974.799,-34.180,-100.586,-10.254,-3.418,0.000
1709298974.803,-28.320,-96.680,-10.742,-4.395,0.000
1709298974.807,-31.250,-105.469,-2.441,-20.020,0.000
1709298974.811,-35.156,-120.117,-2.441,-9.277,0.000
1709298974.814,-35.645,-109.863,-2.441,6.836,0.000
1709298974.818,-45.898,-103.027,-4.883,-6.348,0.000
1709298974.822,-55.176,-104.492,1.953,-15.137,0.000
1709298974.826,-60.547,-97.168,7.324,-16.113,0.000
1709298974.830,-57.617,-99.121,5.859,-7.324,0.000
1709298974.834,-43.945,-101.074,8.789,4.395,0.000
1709298974.838,-27.344,-95.215,15.137,20.996,0.000
1709298974.842,-15.137,-91.309,13.184,19.043,0.000
1709298974.846,-19.043,-96.680,13.672,11.230,0.000
1709298974.850,-27.832,-94.727,16.113,20.996,0.000
1709298974.853,-25.391,-84.473,4.883,25.879,0.000
1709298974.857,-13.672,-64.453,2.930,28.320,0.000
1709298974.861,0.977,-58.594,0.977,30.273,0.000
1709298974.865,-4.883,-77.637,-20.020,20.020,0.000
1709298974.869,-3.906,-59.570,-20.020,8.301,0.000
1709298974.873,5.859,-39.551,-10.742,7.324,0.000
1709298974.877,5.371,-48.828,-8.301,2.441,0.000
1709298974.881,3.906,-60.059,-12.695,3.418,0.000
1709298974.885,9.277,-58.105,-20.996,0.000,0.000
1709298974.889,17.090,-50.781,-25.391,2.441,0.000
1709298974.893,24.414,-48.828,-26.367,15.625,0.000
1709298974.896,23.926,-48.828,-19.043,9.766,0.000
1709298974.900,25.391,-49.805,-21.973,-4.395,0.000
1709298974.904,8.301,-46.387,-23.926,-11.719,0.000
1709298974.908,-14.648,-47.363,-19.043,-9.766,0.000
1709298974.912,3.418,-45.410,-20.996,-2.441,0.000
1709298974.916,3.906,-44.922,-18.555,-11.719,0.000
1709298974.920,-13.184,-50.781,-14.160,-24.902,0.000
1709298974.924,-24.902,-49.316,-15.137,-31.250,0.000
1709298974.928,-21.973,-62.500,-21.973,-29.297,0.000
1709298974.932,-17.090,-64.453,-28.320,-19.531,0.000
1709298974.936,-23.926,-46.387,-33.203,-19.043,0.000
1709298974.939,-33.203,-54.199,-36.621,-33.691,0.000
1709298974.943,-41.992,-55.664,-31.738,-41.992,0.000
1709298974.947,-34.180,-50.293,-31.738,-27.832,0.000
1709298974.951,-36.621,-70.801,-33.691,-21.484,0.000
1709298974.955,-55.664,-67.383,-31.250,-25.391,0.000
1709298974.959,-66.406,-49.316,-26.855,-34.180,0.000
1709298974.963,-74.707,-43.945,-23.926,-43.945,0.000
1709298974.967,-69.336,-44.922,-19.043,-39.062,0.000
1709298974.971,-55.176,-48.340,-18.555,-17.578,0.000
1709298974.975,-47.852,-41.504,-29.785,-4.395,0.000
1709298974.978,-56.641,-52.246,-26.367,-15.625,0.000
1709298974.982,-58.594,-60.059,-20.508,-22.461,0.000
1709298974.986,-53.711,-46.387,-22.461,-13.672,0.000
1709298974.990,-45.898,-50.293,-24.902,-0.977,0.000
1709298974.994,-45.410,-62.012,-30.762,-7.324,0.000
1709298974.998,-46.387,-49.805,-27.832,-18.066,0.000
1709298975.002,-35.645,-42.480,-21.973,-20.508,0.000
1709298975.006,-38.574,-57.129,-22.949,-24.414,0.000
1709298975.010,-37.598,-47.852,-24.902,-16.602,0.000
1709298975.014,-33.691,-39.062,-22.461,-19.531,0.000
1709298975.017,-37.598,-43.945,-24.902,-30.273,0.000
1709298975.021,-41.504,-43.457,-34.668,-40.527,0.000
1709298975.025,-42.969,-31.738,-35.156,-47.852,0.000
1709298975.029,-40.039,-26.855,-34.668,-36.621,0.000
1709298975.033,-35.156,-41.992,-45.898,-29.297,0.000
1709298975.037,-38.574,-40.039,-50.293,-38.086,0.000
1709298975.041,-40.039,-29.297,-43.945,-54.688,0.000
1709298975.045,-44.434,-37.109,-37.109,-62.500,0.000
1709298975.049,-48.340,-45.898,-37.598,-56.641,0.000
1709298975.053,-32.715,-41.016,-41.016,-51.270,0.000
1709298975.057,-39.062,-38.574,-46.387,-45.410,0.000
1709298975.060,-49.316,-43.945,-40.527,-46.875,0.000
1709298975.064,-47.852,-39.551,-36.133,-65.430,0.000
1709298975.068,-52.734,-36.133,-30.273,-62.500,0.000
1709298975.072,-43.945,-43.945,-25.879,-43.457,0.000
1709298975.076,-41.504,-40.039,-44.922,-46.387,0.000
1709298975.080,-39.062,-30.273,-43.457,-52.246,0.000
1709298975.084,-41.504,-36.621,-24.902,-50.781,0.000
1709298975.088,-49.805,-43.457,-36.621,-45.898,0.000
1709298975.092,-43.945,-36.133,-37.109,-36.621,0.000
1709298975.096,-42.480,-35.645,-25.879,-35.645,0.000
1709298975.100,-44.434,-39.062,-29.297,-43.457,0.000
1709298975.103,-33.691,-32.715,-22.949,-35.645,0.000
1709298975.107,-36.133,-34.180,-23.438,-33.203,0.000
1709298975.111,-28.320,-35.156,-31.250,-30.762,0.000
1709298975.115,-22.949,-46.387,-30.762,-17.578,0.000
1709298975.119,-39.551,-52.734,-20.508,-21.973,0.000
1709298975.123,-42.969,-43.457,-15.137,-30.273,0.000
1709298975.127,-47.363,-56.152,-19.531,-36.133,0.000
1709298975.131,-43.457,-63.965,-27.344,-31.738,0.000
1709298975.135,-38.086,-48.828,-31.250,-25.879,0.000
1709298975.139,-42.480,-38.086,-29.785,-25.391,0.000
1709298975.143,-44.922,-39.062,-26.855,-22.461,0.000
1709298975.146,-35.156,-48.340,-29.785,-24.414,0.000
1709298975.150,-35.645,-53.223,-37.109,-11.230,0.000
1709298975.154,-38.086,-46.875,-42.969,2.930,0.000
1709298975.158,-21.484,-38.574,-45.410,-16.113,0.000
1709298975.162,-22.461,-41.992,-43.945,-24.414,0.000
1709298975.166,-41.504,-43.945,-37.598,-22.949,0.000
1709298975.170,-49.316,-39.551,-33.203,-27.832,0.000
1709298975.174,-38.574,-43.945,-30.762,-20.020,0.000
1709298975.178,-32.227,-49.805,-29.785,-21.484,0.000
1709298975.182,-40.527,-50.293,-35.645,-32.227,0.000
1709298975.185,-44.434,-41.992,-39.551,-42.480,0.000
1709298975.189,-38.574,-33.203,-33.203,-42.969,0.000
1709298975.193,-33.203,-41.504,-29.297,-29.297,0.000
1709298975.197,-29.297,-48.340,-27.832,-20.996,0.000
1709298975.201,-34.180,-32.227,-30.762,-28.809,0.000
1709298975.205,-35.156,-26.855,-36.133,-45.410,0.000
1709298975.209,-44.434,-44.434,-38.574,-51.758,0.000
1709298975.213,-59.082,-43.457,-37.598,-41.016,0.000
1709298975.217,-43.945,-31.738,-33.691,-38.574,0.000
1709298975.221,-35.645,-30.273,-32.227,-36.621,0.000
1709298975.225,-37.109,-28.320,-28.320,-19.043,0.000
1709298975.228,-39.062,-31.738,-28.320,-24.902,0.000
1709298975.232,-38.086,-32.715,-29.297,-37.598,0.000
1709298975.236,-35.645,-25.879,-25.391,-34.668,0.000
1709298975.240,-40.527,-29.297,-31.250,-33.691,0.000
1709298975.244,-47.852,-37.109,-27.832,-33.203,0.000
1709298975.248,-53.223,-29.785,-20.996,-29.297,0.000
1709298975.252,-47.363,-30.273,-29.297,-23.926,0.000
1709298975.256,-33.203,-41.016,-28.320,-25.391,0.000
1709298975.260,-45.898,-34.180,-21.973,-35.645,0.000
1709298975.264,-53.711,-21.484,-18.066,-45.410,0.000
1709298975.267,-50.293,-25.879,-20.996,-41.016,0.000
1709298975.271,-42.480,-40.039,-15.625,-29.785,0.000
1709298975.275,-41.992,-35.645,-22.949,-23.926,0.000
1709298975.279,-43.457,-32.227,-37.109,-28.809,0.000
1709298975.283,-47.363,-42.969,-31.250,-29.297,0.000
1709298975.287,-53.223,-49.805,-24.902,-30.273,0.000
1709298975.291,-41.504,-41.504,-25.879,-28.809,0.000
1709298975.295,-41.016,-42.480,-36.621,-20.020,0.000
1709298975.299,-50.781,-40.039,-28.320,-22.461,0.000
1709298975.303,-36.133,-28.809,-28.320,-24.902,0.000
1709298975.306,-40.527,-36.621,-32.227,-25.879,0.000
1709298975.310,-46.875,-45.898,-20.996,-23.926,0.000
1709298975.314,-41.992,-43.945,-31.738,-21.973,0.000
1709298975.318,-46.387,-49.316,-38.086,-33.691,0.000
1709298975.322,-42.969,-48.340,-27.344,-46.875,0.000
1709298975.326,-42.969,-29.785,-20.508,-46.875,0.000
1709298975.330,-41.504,-36.621,-17.578,-25.391,0.000
1709298975.334,-31.738,-35.156,-25.391,-9.277,0.000
1709298975.338,-31.250,-20.020,-32.227,-20.020,0.000
1709298975.342,-39.551,-21.973,-35.645,-41.504,0.000
1709298975.346,-37.598,-26.855,-33.203,-47.852,0.000
1709298975.349,-35.156,-37.109,-37.598,-35.645,0.000
1709298975.353,-29.297,-40.039,-46.387,-32.227,0.000
1709298975.357,-19.043,-38.086,-41.504,-29.785,0.000
1709298975.361,-24.414,-41.992,-40.039,-31.250,0.000
1709298975.365,-22.461,-41.992,-44.922,-39.551,0.000
1709298975.369,-12.207,-35.156,-42.969,-42.969,0.000
1709298975.373,-29.297,-41.504,-43.945,-26.367,0.000
1709298975.377,-32.715,-51.758,-49.316,-19.531,0.000
1709298975.381,-25.879,-47.363,-47.852,-34.180,0.000
1709298975.385,-32.227,-29.297,-46.875,-38.574,0.000
1709298975.388,-43.457,-23.438,-49.805,-40.527,0.000
1709298975.392,-52.734,-32.715,-45.898,-43.457,0.000
1709298975.396,-49.316,-42.969,-28.320,-41.504,0.000
1709298975.400,-41.504,-64.453,-27.344,-45.898,0.000
1709298975.404,-49.316,-59.570,-30.762,-52.246,0.000
1709298975.408,-58.105,-26.855,-29.297,-49.316,0.000
1709298975.412,-41.504,-23.438,-30.273,-37.598,0.000
1709298975.416,-38.086,-31.738,-30.762,-20.020,0.000
1709298975.420,-51.270,-39.062,-30.273,-16.113,0.000
1709298975.424,-50.781,-41.016,-38.574,-31.250,0.000
1709298975.428,-43.457,-35.645,-35.156,-36.621,0.000
1709298975.432,-32.227,-36.621,-28.809,-22.461,0.000
1709298975.435,-27.344,-36.133,-38.086,-14.648,0.000
1709298975.439,-23.926,-37.109,-35.156,-15.137,0.000
1709298975.443,-22.949,-41.016,-28.320,-22.949,0.000
1709298975.447,-24.414,-33.203,-32.715,-21.484,0.000
1709298975.451,-18.555,-35.156,-35.156,-12.207,0.000
1709298975.455,-18.066,-37.598,-37.109,-15.625,0.000
1709298975.459,-22.461,-30.273,-39.062,-25.391,0.000
1709298975.463,-13.672,-38.574,-20.996,-32.715,0.000
1709298975.467,-0.977,-39.062,-20.508,-22.949,0.000
1709298975.471,-26.367,-30.762,-43.457,-15.625,0.000
1709298975.475,-41.016,-41.016,-35.645,-14.160,0.000
1709298975.478,-28.320,-42.480,-23.438,-7.812,0.000
1709298975.482,-25.391,-37.598,-29.297,-15.137,0.000
1709298975.486,-24.902,-29.297,-31.250,-27.832,0.000
1709298975.490,-24.902,-26.855,-37.598,-35.156,0.000
1709298975.494,-20.996,-28.320,-34.668,-18.066,0.000
1709298975.498,-16.602,-21.973,-30.273,-9.277,0.000
1709298975.502,-26.855,-32.227,-45.898,-41.992,0.000
1709298975.506,-35.156,-42.969,-49.805,-49.316,0.000
1709298975.510,-25.391,-43.945,-32.227,-24.414,0.000
1709298975.514,-26.855,-37.598,-34.180,-26.855,0.000
1709298975.518,-38.574,-29.297,-34.180,-38.574,0.000
1709298975.521,-38.086,-37.598,-24.902,-40.527,0.000
1709298975.525,-31.738,-47.363,-20.508,-42.969,0.000
1709298975.529,-42.480,-40.039,-24.902,-38.574,0.000
1709298975.533,-40.527,-24.902,-33.203,-34.668,0.000
1709298975.537,-32.227,-31.738,-25.391,-29.297,0.000
1709298975.541,-40.527,-38.574,-28.809,-38.086,0.000
1709298975.545,-45.898,-39.062,-34.180,-46.387,0.000
1709298975.549,-43.457,-42.969,-36.621,-42.969,0.000
1709298975.553,-37.598,-36.133,-49.805,-31.250,0.000
1709298975.557,-29.785,-35.156,-40.039,-24.414,0.000
1709298975.561,-27.344,-46.387,-20.020,-22.461,0.000
1709298975.564,-34.668,-44.922,-16.113,-25.391,0.000
1709298975.568,-33.691,-22.949,-19.043,-23.926,0.000
1709298975.572,-31.738,-19.043,-30.273,-14.160,0.000
1709298975.576,-24.902,-27.832,-34.668,-8.301,0.000
1709298975.580,-19.531,-38.574,-36.133,-21.484,0.000
1709298975.584,-32.715,-43.457,-41.016,-37.598,0.000
1709298975.588,-36.133,-41.016,-28.809,-29.297,0.000
1709298975.592,-24.902,-39.551,-20.020,-20.020,0.000
1709298975.596,-21.484,-31.738,-24.414,-22.949,0.000
1709298975.600,-38.574,-33.691,-30.762,-41.992,0.000
1709298975.603,-51.758,-32.715,-36.133,-59.570,0.000
1709298975.607,-51.758,-28.320,-29.785,-59.570,0.000
1709298975.611,-49.316,-35.156,-28.809,-48.828,0.000
1709298975.615,-46.875,-35.156,-39.062,-41.016,0.000
1709298975.619,-44.434,-33.203,-29.297,-43.457,0.000
1709298975.623,-42.969,-36.621,-33.691,-55.664,0.000
1709298975.627,-37.109,-40.527,-47.363,-58.105,0.000
1709298975.631,-50.781,-40.527,-42.969,-41.016,0.000
1709298975.635,-51.758,-44.434,-35.156,-25.879,0.000
1709298975.639,-43.945,-41.016,-20.020,-30.762,0.000
1709298975.642,-51.758,-45.410,-23.926,-45.898,0.000
1709298975.646,-45.898,-47.363,-32.715,-48.828,0.000
1709298975.650,-41.992,-27.344,-34.668,-41.992,0.000
1709298975.654,-44.434,-20.996,-36.621,-37.598,0.000
1709298975.658,-35.645,-25.879,-33.203,-29.297,0.000
1709298975.662,-30.273,-33.203,-34.180,-29.785,0.000
1709298975.666,-37.598,-36.133,-32.227,-39.551,0.000
1709298975.670,-31.738,-33.203,-26.855,-31.250,0.000
1709298975.674,-24.414,-41.016,-31.250,-29.297,0.000
1709298975.678,-21.484,-38.574,-37.598,-28.320,0.000
1709298975.682,-15.137,-36.133,-37.598,-23.926,0.000
1709298975.685,-25.879,-41.016,-33.691,-29.785,0.000
1709298975.689,-30.762,-37.109,-39.062,-34.668,0.000
1709298975.693,-20.020,-36.133,-41.016,-33.691,0.000
1709298975.697,-19.043,-43.457,-25.879,-39.062,0.000
1709298975.701,-22.461,-41.016,-39.062,-46.387,0.000
1709298975.705,-29.785,-36.133,-41.992,-46.875,0.000
1709298975.709,-32.227,-34.180,-25.391,-39.551,0.000
1709298975.713,-25.391,-29.785,-28.809,-35.645,0.000
1709298975.717,-21.484,-37.109,-37.109,-20.996,0.000
1709298975.721,-28.320,-41.992,-45.410,-26.367,0.000
1709298975.724,-32.715,-34.180,-42.480,-54.199,0.000
1709298975.728,-52.246,-35.156,-41.992,-57.129,0.000
1709298975.732,-66.895,-45.410,-47.852,-46.387,0.000
1709298975.736,-59.082,-48.340,-40.039,-41.992,0.000
1709298975.740,-61.523,-41.992,-35.156,-47.363,0.000
1709298975.744,-67.871,-41.016,-37.109,-57.617,0.000
1709298975.748,-62.500,-53.223,-31.738,-42.969,0.000
1709298975.752,-56.641,-45.898,-20.508,-24.902,0.000
1709298975.756,-52.246,-34.668,-21.484,-20.020,0.000
1709298975.760,-42.969,-44.922,-24.414,-28.320,0.000
1709298975.763,-42.480,-52.734,-28.320,-38.086,0.000
1709298975.767,-41.504,-49.316,-29.297,-34.668,0.000
1709298975.771,-35.156,-47.852,-32.715,-29.785,0.000
1709298975.775,-27.832,-53.711,-45.410,-23.926,0.000
1709298975.779,-32.227,-40.527,-37.598,-23.438,0.000
1709298975.783,-35.156,-37.109,-19.531,-30.762,0.000
1709298975.787,-22.461,-48.340,-18.555,-32.715,0.000
1709298975.791,-27.832,-45.410,-28.320,-20.020,0.000
1709298975.795,-30.762,-50.293,-32.715,-8.789,0.000
1709298975.799,-19.531,-45.410,-37.598,-18.066,0.000
1709298975.803,-27.832,-39.551,-48.340,-40.527,0.000
1709298975.806,-36.133,-44.434,-52.246,-47.852,0.000
1709298975.810,-38.086,-48.828,-48.828,-38.574,0.000
1709298975.814,-26.855,-51.758,-52.734,-28.809,0.000
1709298975.818,-20.020,-59.082,-55.664,-19.531,0.000
1709298975.822,-30.273,-46.387,-49.805,-18.555,0.000
1709298975.826,-28.809,-28.320,-41.016,-33.691,0.000
1709298975.830,-23.438,-29.297,-34.180,-41.504,0.000
1709298975.834,-21.484,-36.621,-36.621,-28.809,0.000
1709298975.838,-24.414,-43.457,-37.598,-24.902,0.000
1709298975.842,-29.297,-38.086,-40.527,-32.715,0.000
1709298975.846,-17.090,-38.574,-39.062,-34.668,0.000
1709298975.849,-19.043,-41.016,-32.227,-40.527,0.000
1709298975.853,-35.645,-39.062,-42.969,-30.762,0.000
1709298975.857,-34.180,-34.180,-51.270,-20.508,0.000
1709298975.861,-39.551,-27.832,-31.250,-39.062,0.000
1709298975.865,-36.621,-30.762,-13.672,-31.738,0.000
1709298975.869,-36.133,-40.527,-20.996,-20.508,0.000
1709298975.873,-39.062,-47.363,-35.156,-22.461,0.000
1709298975.877,-31.738,-44.922,-35.156,-23.438,0.000
1709298975.881,-27.344,-36.621,-32.227,-38.086,0.000
1709298975.885,-30.273,-30.273,-31.738,-41.992,0.000
1709298975.889,-27.344,-40.039,-38.086,-39.062,0.000
1709298975.892,-18.066,-40.039,-33.203,-24.902,0.000
1709298975.896,-18.066,-34.668,-28.320,-18.066,0.000
1709298975.900,-19.531,-42.969,-31.250,-30.273,0.000
1709298975.904,-25.391,-38.086,-30.273,-41.016,0.000
1709298975.908,-30.762,-33.203,-32.715,-42.480,0.000
1709298975.912,-17.578,-52.734,-39.062,-30.273,0.000
1709298975.916,-14.160,-57.129,-48.828,-22.461,0.000
1709298975.920,-27.832,-41.992,-51.758,-28.320,0.000
1709298975.924,-27.832,-31.738,-42.480,-37.109,0.000
1709298975.928,-32.715,-39.062,-33.691,-40.527,0.000
1709298975.932,-38.574,-43.945,-28.809,-33.203,0.000
1709298975.935,-28.809,-32.715,-24.902,-16.602,0.000
1709298975.939,-24.414,-41.016,-28.809,-25.391,0.000
1709298975.943,-27.344,-48.828,-28.809,-39.062,0.000
1709298975.947,-30.762,-36.621,-31.738,-34.668,0.000
1709298975.951,-40.039,-28.320,-35.645,-39.551,0.000
1709298975.955,-38.086,-29.297,-34.668,-40.039,0.000
1709298975.959,-35.645,-30.762,-45.410,-41.016,0.000
1709298975.963,-44.922,-30.762,-42.480,-53.223,0.000
1709298975.967,-43.945,-38.086,-39.062,-56.152,0.000
1709298975.971,-45.898,-42.480,-45.898,-40.039,0.000
1709298975.974,-54.688,-52.734,-44.434,-43.945,0.000
1709298975.978,-47.852,-50.293,-40.039,-54.199,0.000
1709298975.982,-42.969,-36.621,-41.016,-47.852,0.000
1709298975.986,-45.410,-36.133,-37.109,-45.410,0.000
1709298975.990,-47.852,-27.832,-25.879,-45.898,0.000
1709298975.994,-47.363,-24.414,-22.461,-40.039,0.000
1709298975.998,-53.223,-35.156,-32.715,-44.922,0.000
1709298976.002,-62.500,-52.246,-36.621,-55.176,0.000
1709298976.006,-64.941,-49.316,-26.855,-57.617,0.000
1709298976.010,-62.500,-40.039,-24.414,-47.363,0.000
1709298976.013,-54.688,-38.574,-31.738,-33.691,0.000
1709298976.017,-44.922,-39.062,-39.062,-25.879,0.000
1709298976.021,-40.039,-43.457,-25.879,-32.227,0.000
1709298976.025,-46.875,-29.785,-16.113,-36.133,0.000
1709298976.029,-31.250,-19.531,-17.578,-33.203,0.000
1709298976.033,-19.043,-26.367,-19.531,-21.973,0.000
1709298976.037,-31.738,-33.203,-19.043,-7.812,0.000
1709298976.041,-26.367,-30.273,-20.508,-21.484,0.000
1709298976.045,-25.879,-24.414,-31.738,-23.926,0.000
1709298976.049,-31.250,-29.785,-40.039,-29.785,0.000
1709298976.053,-24.902,-29.297,-28.809,-30.273,0.000
1709298976.056,-24.902,-27.344,-26.855,-29.785,0.000
1709298976.060,-30.762,-26.855,-32.227,-35.156,0.000
1709298976.064,-32.715,-21.484,-27.832,-34.180,0.000
1709298976.068,-32.227,-20.508,-33.691,-28.320,0.000
1709298976.072,-31.250,-29.297,-34.180,-23.926,0.000
1709298976.076,-35.645,-37.109,-34.180,-32.227,0.000
1709298976.080,-28.320,-35.156,-50.781,-20.508,0.000
1709298976.084,-16.113,-41.992,-35.645,-9.277,0.000
1709298976.088,-30.273,-35.156,-21.973,-25.879,0.000
1709298976.092,-41.016,-24.414,-38.086,-36.621,0.000
1709298976.095,-46.875,-21.973,-39.062,-28.320,0.000
1709298976.099,-58.105,-16.113,-34.668,-32.227,0.000
1709298976.103,-57.617,-31.250,-42.480,-53.223,0.000
1709298976.107,-59.082,-51.270,-50.293,-51.270,0.000
1709298976.111,-50.781,-42.480,-46.387,-34.668,0.000
1709298976.115,-42.969,-36.621,-36.621,-33.691,0.000
1709298976.119,-41.016,-38.574,-33.691,-32.715,0.000
1709298976.123,-39.551,-32.715,-32.227,-26.855,0.000
1709298976.127,-34.180,-32.715,-27.344,-27.344,0.000
1709298976.131,-38.574,-29.785,-29.785,-26.855,0.000
1709298976.134,-44.922,-26.367,-35.645,-27.832,0.000
1709298976.138,-34.180,-32.715,-35.156,-22.461,0.000
1709298976.142,-46.387,-36.133,-29.785,-27.344,0.000
1709298976.146,-61.523,-35.156,-31.250,-45.898,0.000
1709298976.150,-49.805,-30.273,-33.203,-35.156,0.000
1709298976.154,-38.574,-25.879,-27.832,-19.531,0.000
1709298976.158,-31.738,-30.273,-33.691,-26.855,0.000
1709298976.162,-29.785,-27.344,-31.738,-35.156,0.000
1709298976.166,-26.367,-22.949,-36.133,-22.949,0.000
1709298976.170,-20.020,-34.180,-36.133,-13.672,0.000
1709298976.174,-18.555,-26.367,-31.250,-20.020,0.000
1709298976.177,-14.648,-18.066,-31.250,-28.809,0.000
1709298976.181,-26.855,-25.391,-27.344,-39.551,0.000
1709298976.185,-40.527,-27.344,-34.180,-38.574,0.000
1709298976.189,-29.297,-27.344,-38.574,-35.645,0.000
1709298976.193,-38.574,-33.203,-38.574,-35.645,0.000
1709298976.197,-42.969,-30.273,-41.016,-30.273,0.000
1709298976.201,-34.180,-21.973,-38.086,-33.203,0.000
1709298976.205,-37.598,-15.625,-31.250,-42.969,0.000
1709298976.209,-32.715,-28.809,-33.691,-41.992,0.000
1709298976.213,-33.203,-40.527,-36.133,-35.156,0.000
1709298976.217,-40.527,-34.180,-34.668,-41.992,0.000
1709298976.220,-42.480,-36.133,-28.809,-52.734,0.000
1709298976.224,-48.828,-30.273,-31.738,-57.129,0.000
1709298976.228,-51.270,-27.832,-34.668,-44.922,0.000
1709298976.232,-47.852,-38.574,-38.086,-33.203,0.000
1709298976.236,-46.387,-45.410,-44.434,-43.945,0.000
1709298976.240,-38.086,-44.434,-35.645,-43.945,0.000
1709298976.244,0.000,-41.992,0.000,-41.992,0.000
1709298976.248,0.000,-34.180,0.000,-49.805,0.000
1709298976.252,0.000,-30.762,0.000,-44.922,0.000
1709298976.256,0.000,-32.227,0.000,-33.691,0.000
1709298976.260,0.000,-38.574,0.000,-39.062,0.000
1709298976.263,0.000,-47.363,0.000,-47.852,0.000
1709298976.267,0.000,-37.598,0.000,-40.527,0.000
1709298976.271,0.000,-51.270,0.000,-27.344,0.000
1709298976.275,0.000,-58.594,0.000,-19.043,0.000
1709298976.279,0.000,-45.898,0.000,-22.461,0.000
1709298976.283,0.000,-40.039,0.000,-33.203,0.000
1709298976.287,0.000,-30.273,0.000,-39.551,0.000
1709298976.291,-42.969,-32.715,-34.180,-32.227,0.000
1709298976.294,-58.105,-37.109,-40.527,-25.879,0.000
1709298976.298,-58.105,-40.527,-43.945,-26.367,0.000
1709298976.302,-58.105,-44.922,-35.156,-23.926,0.000
1709298976.306,-45.410,-50.781,-23.438,-25.879,0.000
1709298976.310,-38.086,-43.457,-21.484,-21.484,0.000
1709298976.314,-37.598,-24.902,-28.320,-17.090,0.000
1709298976.318,-41.992,-30.762,-28.809,-22.461,0.000
1709298976.322,-48.340,-47.363,-26.855,-28.809,0.000
1709298976.326,-38.574,-33.691,-39.551,-43.457,0.000
1709298976.330,-39.062,-25.879,-36.621,-39.062,0.000
1709298976.334,-36.133,-35.156,-25.391,-20.508,0.000
1709298976.337,-28.809,-38.574,-32.715,-24.902,0.000
1709298976.341,-30.273,-39.062,-30.762,-31.738,0.000
1709298976.345,-23.926,-34.668,-29.297,-30.762,0.000
1709298976.349,-33.203,-35.645,-36.133,-25.879,0.000
1709298976.353,-33.691,-38.574,-38.086,-21.973,0.000
1709298976.357,-29.785,-32.715,-34.180,-32.227,0.000
1709298976.361,-41.016,-27.344,-29.785,-37.109,0.000
1709298976.365,-43.457,-36.621,-30.762,-29.785,0.000
1709298976.369,-45.898,-48.828,-36.621,-33.203,0.000
1709298976.373,-49.316,-36.133,-36.621,-27.344,0.000
1709298976.376,-39.062,-30.273,-38.086,-23.438,0.000
1709298976.380,-40.039,-42.480,-44.434,-48.828,0.000
1709298976.384,-49.805,-45.410,-43.457,-51.270,0.000
1709298976.388,-51.270,-46.875,-44.434,-48.340,0.000
1709298976.392,-53.223,-45.410,-43.945,-48.340,0.000
1709298976.396,-51.758,-40.039,-41.504,-39.551,0.000
1709298976.400,-48.340,-36.133,-43.457,-38.574,0.000
1709298976.404,-48.340,-41.016,-35.645,-38.086,0.000
1709298976.408,-46.875,-45.898,-45.898,-27.832,0.000
1709298976.412,-45.898,-41.992,-48.340,-20.508,0.000
1709298976.415,-44.922,-42.969,-33.691,-32.227,0.000
1709298976.419,-44.434,-53.711,-33.691,-36.133,0.000
1709298976.423,-46.387,-43.945,-31.250,-39.062,0.000
1709298976.427,-46.387,-34.180,-28.320,-41.016,0.000
1709298976.431,-37.598,-32.715,-24.414,-28.320,0.000
1709298976.435,-19.043,-31.738,-19.043,-17.578,0.000
1709298976.439,-30.273,-42.969,-24.414,-25.391,0.000
1709298976.443,-49.805,-58.594,-34.180,-41.992,0.000
1709298976.447,-38.574,-43.457,-34.180,-39.062,0.000
1709298976.451,-38.574,-24.414,-40.527,-38.086,0.000
1709298976.455,-46.387,-30.273,-45.410,-41.016,0.000
1709298976.458,-41.016,-36.133,-47.363,-50.781,0.000
1709298976.462,-38.086,-35.645,-52.734,-62.012,0.000
1709298976.466,-46.875,-36.621,-42.480,-66.895,0.000
1709298976.470,-49.316,-39.551,-36.621,-53.711,0.000
1709298976.474,-36.133,-40.039,-37.109,-42.969,0.000
1709298976.478,-33.203,-42.480,-44.922,-55.176,0.000
1709298976.482,-40.527,-41.992,-53.223,-63.965,0.000
1709298976.486,-48.340,-39.062,-51.270,-66.406,0.000
1709298976.490,-39.551,-46.387,-40.039,-60.547,0.000
1709298976.494,-28.320,-51.270,-34.180,-52.246,0.000
1709298976.497,-32.227,-57.129,-43.945,-43.457,0.000
1709298976.501,-26.855,-66.406,-41.016,-37.598,0.000
1709298976.505,-32.715,-53.711,-34.668,-42.969,0.000
1709298976.509,-34.668,-41.016,-39.062,-40.527,0.000
1709298976.513,-34.180,-44.434,-38.574,-21.973,0.000
1709298976.517,-36.621,-58.594,-31.250,-18.066,0.000
1709298976.521,-35.156,-63.477,-36.133,-31.250,0.000
1709298976.525,0.000,-41.992,0.000,0.000,0.000
1709298976.529,0.000,-30.273,0.000,0.000,0.000
1709298976.533,0.000,-34.668,0.000,0.000,0.000
1709298976.537,0.000,-44.434,0.000,0.000,0.000
1709298976.540,0.000,-58.105,0.000,0.000,0.000
1709298976.544,0.000,-59.082,0.000,0.000,0.000
1709298976.548,0.000,-49.316,0.000,0.000,0.000
1709298976.552,0.000,-33.203,0.000,0.000,0.000
1709298976.556,0.000,-23.438,0.000,0.000,0.000
1709298976.560,0.000,-32.715,0.000,0.000,0.000
1709298976.564,0.000,-38.574,0.000,0.000,0.000
1709298976.568,0.000,-35.645,0.000,0.000,0.000
1709298976.572,-31.250,-33.691,-42.480,-40.039,0.000
1709298976.576,-25.391,-47.363,-42.480,-23.926,0.000
1709298976.580,-30.273,-45.898,-30.762,-41.992,0.000
1709298976.583,-47.852,-29.297,-35.645,-66.895,0.000
1709298976.587,-46.875,-29.297,-36.133,-62.988,0.000
1709298976.591,-52.246,-32.715,-35.645,-57.129,0.000
1709298976.595,-68.848,-36.133,-42.969,-53.223,0.000
1709298976.599,-53.223,-40.527,-43.945,-50.781,0.000
1709298976.603,-42.480,-40.527,-41.504,-49.805,0.000
1709298976.607,-37.598,-41.504,-37.598,-45.410,0.000
1709298976.611,-41.504,-51.758,-33.691,-45.410,0.000
1709298976.615,-41.504,-38.086,-33.203,-36.133,0.000
1709298976.619,-32.715,-30.762,-30.762,-35.645,0.000
1709298976.622,-43.945,-41.504,-32.227,-54.199,0.000
1709298976.626,-52.246,-50.781,-35.645,-56.152,0.000
1709298976.630,-40.527,-58.105,-30.762,-40.039,0.000
1709298976.634,-38.574,-46.387,-36.133,-36.133,0.000
1709298976.638,-40.527,-43.457,-43.945,-28.320,0.000
1709298976.642,-46.875,-47.363,-44.434,-32.227,0.000
1709298976.646,-35.156,-39.551,-31.250,-36.133,0.000
1709298976.650,-35.645,-36.621,-32.227,-18.066,0.000
1709298976.654,-50.293,-38.574,-41.504,-14.648,0.000
1709298976.658,-34.668,-40.527,-37.598,-29.297,0.000
1709298976.662,-26.367,-43.457,-32.227,-36.133,0.000
1709298976.665,-24.902,-40.039,-31.738,-28.809,0.000
1709298976.669,-26.855,-33.691,-35.645,-21.484,0.000
1709298976.673,-28.809,-31.738,-30.762,-26.855,0.000
1709298976.677,-23.926,-33.691,-34.668,-24.902,0.000
1709298976.681,-23.926,-36.621,-43.457,-31.250,0.000
1709298976.685,-18.555,-32.227,-29.297,-40.039,0.000
1709298976.689,-11.230,-40.039,-25.879,-30.273,0.000
1709298976.693,-11.719,-45.410,-31.250,-20.996,0.000
1709298976.697,-13.184,-36.621,-23.926,-20.508,0.000
1709298976.701,-24.902,-34.668,-29.785,-31.250,0.000
1709298976.705,-29.785,-29.785,-37.109,-31.250,0.000
1709298976.708,-32.227,-27.832,-40.039,-31.738,0.000
1709298976.712,-37.109,-32.715,-44.434,-39.551,0.000
1709298976.716,-34.668,-42.480,-56.152,-46.387,0.000
1709298976.720,-28.809,-47.363,-54.688,-36.621,0.000
1709298976.724,-30.762,-42.480,-32.227,-35.156,0.000
1709298976.728,-29.297,-36.621,-34.180,-34.180,0.000
1709298976.732,-28.809,-39.551,-38.086,-27.344,0.000
1709298976.736,-28.320,-39.062,-29.297,-33.203,0.000
1709298976.740,-27.832,-42.969,-31.738,-26.367,0.000
1709298976.744,-31.250,-45.410,-32.715,-37.109,0.000
1709298976.748,-23.438,-35.645,-27.344,-50.293,0.000
1709298976.752,-40.039,-33.691,-31.738,-43.457,0.000
1709298976.755,-47.852,-37.109,-37.598,-39.551,0.000
1709298976.759,-41.504,-42.969,-40.527,-42.969,0.000
1709298976.763,-45.410,-47.363,-42.480,-49.805,0.000
1709298976.767,-41.016,-48.340,-36.621,-46.875,0.000
1709298976.771,-39.062,-39.062,-29.785,-42.480,0.000
1709298976.775,-40.039,-32.715,-35.156,-38.574,0.000
1709298976.779,-41.504,-37.598,-48.828,-34.180,0.000
1709298976.783,-39.551,-43.457,-44.922,-30.273,0.000
1709298976.787,-38.574,-47.363,-34.180,-30.273,0.000
1709298976.791,-47.852,-35.645,-36.133,-41.016,0.000
1709298976.794,-49.805,-29.297,-45.898,-38.086,0.000
1709298976.798,-42.969,-38.086,-39.062,-35.645,0.000
1709298976.802,-36.133,-44.922,-33.691,-40.527,0.000
1709298976.806,-36.133,-46.875,-41.504,-41.992,0.000
1709298976.810,-42.969,-44.434,-39.551,-46.387,0.000
1709298976.814,-45.898,-52.734,-55.176,-38.574,0.000
1709298976.818,-44.922,-61.035,-49.805,-33.691,0.000
1709298976.822,-48.828,-42.969,-35.645,-48.340,0.000
1709298976.826,-61.035,-38.086,-41.992,-50.781,0.000
1709298976.830,-60.059,-49.316,-29.785,-37.598,0.000
1709298976.833,-54.199,-47.363,-30.273,-30.273,0.000
1709298976.837,-57.617,-44.434,-35.156,-39.551,0.000
1709298976.841,-60.547,-44.434,-34.180,-44.434,0.000
1709298976.845,-61.035,-39.551,-40.039,-51.270,0.000
1709298976.849,-50.293,-41.992,-36.621,-60.547,0.000
1709298976.853,-53.711,-49.805,-25.879,-57.617,0.000
1709298976.857,-69.336,-59.082,-30.762,-50.293,0.000
1709298976.861,-70.312,-62.988,-41.016,-52.734,0.000
1709298976.865,-77.637,-49.805,-43.945,-66.406,0.000
1709298976.869,-83.984,-37.598,-49.805,-71.777,0.000
1709298976.872,-78.125,-42.480,-40.039,-56.641,0.000
1709298976.876,-66.406,-48.340,-32.227,-42.969,0.000
1709298976.880,-63.477,-44.922,-37.109,-43.945,0.000
1709298976.884,-68.359,-48.340,-35.645,-54.199,0.000
1709298976.888,-64.453,-58.594,-40.527,-55.176,0.000
1709298976.892,-63.965,-54.199,-45.410,-36.133,0.000
1709298976.896,-60.059,-43.945,-41.504,-30.273,0.000
1709298976.900,-57.617,-47.363,-36.133,-43.945,0.000
1709298976.904,-51.758,-68.359,-36.133,-47.363,0.000
1709298976.908,-45.410,-77.637,-35.156,-39.062,0.000
1709298976.912,-59.082,-53.223,-37.598,-40.039,0.000
1709298976.915,-55.176,-39.062,-31.250,-32.227,0.000
1709298976.919,-54.199,-43.457,-31.738,-29.297,0.000
1709298976.923,-47.852,-46.387,-39.551,-33.203,0.000
1709298976.927,-34.180,-35.156,-34.180,-27.832,0.000
1709298976.931,-26.367,-31.738,-32.715,-20.508,0.000
1709298976.935,-21.973,-43.457,-26.855,-12.207,0.000
1709298976.939,-27.832,-41.992,-22.949,-19.043,0.000
1709298976.943,-31.738,-36.621,-31.250,-27.832,0.000
1709298976.947,-38.574,-38.574,-35.645,-20.996,0.000
1709298976.951,-20.020,-39.551,-31.738,-11.230,0.000
1709298976.955,-11.230,-42.480,-33.203,-10.742,0.000
1709298976.958,-41.504,-46.875,-36.621,-27.832,0.000
1709298976.962,-41.992,-41.992,-32.715,-40.039,0.000
1709298976.966,-37.109,-39.551,-30.762,-32.715,0.000
1709298976.970,-40.039,-41.992,-28.809,-26.855,0.000
1709298976.974,-37.598,-45.410,-33.203,-26.855,0.000
1709298976.978,-36.133,-44.922,-28.809,-28.809,0.000
1709298976.982,-41.504,-38.574,-32.715,-34.668,0.000
1709298976.986,-42.969,-33.203,-31.250,-45.898,0.000
1709298976.990,-38.574,-38.574,-32.227,-45.410,0.000
1709298976.994,-41.504,-33.203,-36.621,-39.062,0.000
1709298976.998,-45.410,-22.461,-32.715,-41.504,0.000
1709298977.001,-38.086,-39.551,-40.527,-41.992,0.000
1709298977.005,-47.852,-51.758,-52.734,-51.758,0.000
1709298977.009,-56.152,-36.621,-44.434,-59.082,0.000
1709298977.013,-53.223,-34.180,-42.969,-57.617,0.000
1709298977.017,-52.246,-35.156,-45.410,-54.688,0.000
1709298977.021,-48.340,-46.875,-35.156,-48.340,0.000
1709298977.025,-49.316,-60.059,-40.527,-42.480,0.000
1709298977.029,-50.293,-46.387,-44.434,-42.969,0.000
1709298977.033,-45.898,-36.133,-41.504,-44.922,0.000
1709298977.037,-40.527,-39.062,-46.387,-33.691,0.000
1709298977.041,-41.992,-42.480,-53.711,-41.504,0.000
1709298977.044,-48.828,-49.805,-45.898,-54.688,0.000
1709298977.048,-47.363,-49.805,-41.992,-55.664,0.000
1709298977.052,-35.156,-48.340,-51.270,-48.340,0.000
1709298977.056,-28.809,-51.270,-41.504,-28.809,0.000
1709298977.060,-41.992,-47.852,-36.133,-26.367,0.000
1709298977.064,-46.875,-41.992,-43.945,-41.992,0.000
1709298977.068,-48.340,-42.969,-45.410,-36.133,0.000
1709298977.072,-49.316,-47.852,-45.410,-20.020,0.000
1709298977.076,-36.621,-38.086,-45.898,-29.297,0.000
1709298977.080,-26.367,-36.133,-49.316,-32.227,0.000
1709298977.083,-27.344,-44.434,-42.480,-29.297,0.000
1709298977.087,-34.180,-44.922,-33.203,-20.020,0.000
1709298977.091,-26.855,-37.109,-39.062,-12.207,0.000
1709298977.095,-20.996,-31.738,-35.156,-21.973,0.000
1709298977.099,-29.297,-27.832,-34.668,-35.645,0.000
1709298977.103,-39.062,-29.785,-47.363,-46.387,0.000
1709298977.107,-36.621,-34.668,-47.363,-44.434,0.000
1709298977.111,-26.855,-36.133,-44.922,-39.062,0.000
1709298977.115,-35.156,-43.945,-37.598,-36.133,0.000
1709298977.119,-35.156,-40.527,-36.133,-35.156,0.000
1709298977.123,-39.062,-31.250,-47.363,-51.270,0.000
1709298977.126,-52.246,-35.156,-47.363,-57.617,0.000
1709298977.130,-49.316,-46.387,-27.344,-43.457,0.000
1709298977.134,-47.852,-57.617,-15.625,-41.504,0.000
1709298977.138,-38.086,-37.109,-26.855,-41.504,0.000
1709298977.142,-44.434,-23.926,-40.527,-46.387,0.000
1709298977.146,-57.617,-40.039,-44.434,-49.316,0.000
1709298977.150,-48.828,-44.434,-36.621,-50.293,0.000
1709298977.154,-41.992,-37.598,-36.133,-49.316,0.000
1709298977.158,-36.133,-25.391,-41.016,-41.992,0.000
1709298977.162,-36.133,-22.461,-38.086,-39.062,0.000
1709298977.166,-21.484,-30.762,-39.062,-48.828,0.000
1709298977.169,-14.648,-30.273,-34.180,-36.621,0.000
1709298977.173,-27.344,-24.414,-34.180,-21.484,0.000
1709298977.177,-23.438,-27.344,-40.039,-27.832,0.000
1709298977.181,-20.996,-33.691,-38.574,-29.297,0.000
1709298977.185,-13.672,-29.785,-31.738,-20.020,0.000
1709298977.189,-11.719,-40.039,-32.715,-15.625,0.000
1709298977.193,-25.879,-47.363,-49.316,-28.320,0.000
1709298977.197,-28.809,-47.363,-46.875,-21.973,0.000
1709298977.201,-21.973,-47.363,-32.715,-7.324,0.000
1709298977.205,-32.715,-32.715,-35.156,-14.160,0.000
1709298977.208,-40.039,-33.203,-53.223,-14.648,0.000
1709298977.212,-30.273,-24.902,-58.105,-13.184,0.000
1709298977.216,-13.184,-15.137,-40.527,-16.602,0.000
1709298977.220,-17.090,-22.949,-23.926,-25.391,0.000
1709298977.224,-41.992,-17.090,-18.555,-40.527,0.000
1709298977.228,-40.527,-21.973,-30.762,-34.180,0.000
1709298977.232,-39.062,-32.715,-37.109,-16.602,0.000
1709298977.236,-44.434,-26.855,-32.227,-20.508,0.000
1709298977.240,-37.598,-29.297,-35.156,-31.250,0.000
1709298977.244,-41.504,-33.691,-32.227,-40.039,0.000
1709298977.247,-44.922,-40.039,-24.414,-41.504,0.000
1709298977.251,-47.363,-52.734,-28.320,-24.902,0.000
1709298977.255,-41.016,-45.898,-31.738,-27.832,0.000
1709298977.259,-28.809,-36.133,-37.109,-44.434,0.000
1709298977.263,-34.668,-35.645,-36.133,-49.805,0.000
1709298977.267,-32.227,-36.133,-32.715,-55.664,0.000
1709298977.271,-18.066,-42.480,-37.109,-48.340,0.000
1709298977.275,-32.715,-40.527,-39.551,-37.109,0.000
1709298977.279,-37.598,-32.227,-39.062,-42.480,0.000
1709298977.283,-36.133,-38.574,-31.738,-46.875,0.000
1709298977.287,-49.316,-49.805,-34.668,-44.922,0.000
1709298977.290,-43.945,-48.828,-52.734,-33.691,0.000
1709298977.294,-29.785,-40.527,-40.039,-22.949,0.000
1709298977.298,-28.809,-40.527,-28.809,-29.785,0.000
1709298977.302,-31.738,-41.504,-36.133,-38.574,0.000
1709298977.306,-28.809,-42.969,-33.203,-33.691,0.000
1709298977.310,-23.926,-36.621,-43.457,-25.391,0.000
1709298977.314,-20.508,-28.809,-51.270,-19.531,0.000
1709298977.318,-30.762,-32.227,-41.016,-20.996,0.000
1709298977.322,0.000,-34.668,0.000,-23.926,0.000
1709298977.326,0.000,-29.785,0.000,-16.602,0.000
1709298977.330,0.000,-34.180,0.000,-7.324,0.000
1709298977.333,0.000,-36.621,0.000,-6.348,0.000
1709298977.337,0.000,-32.715,0.000,-7.324,0.000
1709298977.341,0.000,-29.297,0.000,-17.090,0.000
1709298977.345,0.000,-25.879,0.000,-31.250,0.000
1709298977.349,0.000,-22.949,0.000,-36.133,0.000
1709298977.353,0.000,-27.344,0.000,-24.414,0.000
1709298977.357,0.000,-27.344,0.000,-18.555,0.000
1709298977.361,0.000,-24.902,0.000,-36.133,0.000
1709298977.365,0.000,-21.484,0.000,-49.316,0.000
1709298977.369,-45.410,-24.414,-25.879,-54.199,0.000
1709298977.373,-49.316,-42.969,-25.391,-46.875,0.000
1709298977.376,-38.086,-32.715,-30.273,-34.668,0.000
1709298977.380,-31.738,-21.484,-34.668,-39.551,0.000
1709298977.384,-37.109,-40.527,-25.879,-53.711,0.000
1709298977.388,-43.945,-47.363,-24.414,-49.805,0.000
1709298977.392,-44.922,-41.016,-34.180,-49.805,0.000
1709298977.396,-50.781,-37.109,-35.645,-52.734,0.000
1709298977.400,-46.875,-31.738,-32.227,-37.598,0.000
1709298977.404,-50.293,-38.574,-36.621,-43.457,0.000
1709298977.408,-51.758,-46.387,-41.504,-51.270,0.000
1709298977.412,-28.320,-33.203,-32.715,-29.297,0.000
1709298977.415,-33.691,-29.785,-28.320,-17.578,0.000
1709298977.419,-40.039,-45.898,-24.902,-20.996,0.000
1709298977.423,-34.668,-42.480,-35.156,-30.762,0.000
1709298977.427,-36.133,-36.133,-45.898,-23.438,0.000
1709298977.431,-38.574,-38.086,-34.668,-17.578,0.000
1709298977.435,-30.762,-31.738,-22.461,-12.695,0.000
1709298977.439,-23.926,-34.668,-20.996,-5.859,0.000
1709298977.443,-20.996,-41.992,-41.016,-12.695,0.000
1709298977.447,-20.020,-33.691,-43.945,-22.949,0.000
1709298977.451,-24.414,-26.855,-36.133,-33.203,0.000
1709298977.455,-20.508,-30.762,-35.156,-27.344,0.000
1709298977.458,-4.395,-37.109,-27.832,-26.367,0.000
1709298977.462,-7.812,-41.016,-31.738,-20.508,0.000
1709298977.466,-15.625,-42.969,-40.039,-7.324,0.000
1709298977.470,-13.184,-38.574,-37.109,-20.508,0.000
1709298977.474,-9.766,-28.809,-35.156,-31.250,0.000
1709298977.478,-11.230,-27.344,-28.320,-29.785,0.000
1709298977.482,-15.137,-41.992,-28.320,-41.504,0.000
1709298977.486,-25.879,-41.504,-33.203,-59.082,0.000
1709298977.490,-28.320,-27.832,-27.832,-41.992,0.000
1709298977.494,-20.508,-27.344,-35.645,-25.391,0.000
1709298977.497,-20.020,-38.574,-46.875,-46.875,0.000
1709298977.501,-26.367,-46.875,-43.945,-55.664,0.000
1709298977.505,-22.461,-41.992,-40.039,-59.570,0.000
1709298977.509,-32.715,-35.645,-48.340,-50.293,0.000
1709298977.513,-55.176,-37.598,-38.086,-36.621,0.000
1709298977.517,-52.734,-27.344,-25.879,-39.062,0.000
1709298977.521,-46.875,-28.809,-28.809,-41.016,0.000
1709298977.525,-46.387,-44.922,-24.414,-45.898,0.000
1709298977.529,-48.828,-48.340,-23.926,-53.223,0.000
1709298977.533,-44.434,-44.434,-22.949,-41.016,0.000
1709298977.537,-47.852,-27.832,-31.250,-25.391,0.000
1709298977.541,-49.316,-18.066,-40.039,-36.621,0.000
1709298977.544,-46.875,-28.320,-37.598,-44.922,0.000
1709298977.548,-39.551,-34.668,-36.133,-32.227,0.000
1709298977.552,-40.039,-31.738,-36.133,-16.113,0.000
1709298977.556,-30.762,-36.133,-36.133,-14.648,0.000
1709298977.560,-28.320,-37.109,-31.250,-24.902,0.000
1709298977.564,-45.410,-28.320,-31.738,-29.297,0.000
1709298977.568,-38.574,-24.902,-33.203,-27.832,0.000
1709298977.572,-30.762,-26.367,-35.156,-20.996,0.000
1709298977.576,-28.809,-27.344,-41.504,-13.184,0.000
1709298977.580,-29.785,-31.738,-33.203,-21.973,0.000
1709298977.583,-32.227,-41.992,-19.531,-20.996,0.000
1709298977.587,-37.109,-53.711,-20.996,-25.879,0.000
1709298977.591,-38.574,-43.457,-28.809,-45.410,0.000
1709298977.595,-41.504,-41.504,-32.715,-37.109,0.000
1709298977.599,-41.504,-39.062,-36.133,-35.156,0.000
1709298977.603,-36.133,-29.297,-38.574,-43.945,0.000
1709298977.607,-25.879,-34.180,-40.527,-42.969,0.000
1709298977.611,-34.668,-35.645,-34.180,-49.805,0.000
1709298977.615,-43.945,-26.855,-25.879,-45.410,0.000
1709298977.619,-37.598,-30.762,-29.785,-42.480,0.000
1709298977.622,-47.363,-39.551,-31.250,-46.387,0.000
1709298977.626,-45.898,-35.645,-31.250,-44.434,0.000
1709298977.630,-40.527,-31.250,-42.480,-49.805,0.000
1709298977.634,-47.363,-33.691,-43.945,-49.805,0.000
1709298977.638,-52.734,-39.062,-35.645,-47.363,0.000
1709298977.642,-53.223,-39.551,-28.320,-54.199,0.000
1709298977.646,-50.293,-38.086,-36.621,-59.082,0.000
1709298977.650,-51.758,-39.551,-44.434,-58.594,0.000
1709298977.654,-50.293,-45.410,-38.086,-52.246,0.000
1709298977.658,-49.316,-51.270,-37.109,-45.410,0.000
1709298977.662,-35.645,-46.875,-31.738,-49.805,0.000
1709298977.665,-36.133,-45.898,-29.785,-48.828,0.000
1709298977.669,-53.711,-48.340,-35.156,-27.832,0.000
1709298977.673,-43.945,-43.457,-40.039,-20.020,0.000
1709298977.677,-29.785,-34.180,-37.109,-29.785,0.000
1709298977.681,-27.344,-41.016,-30.762,-40.039,0.000
1709298977.685,-39.062,-49.316,-37.109,-35.156,0.000
1709298977.689,-45.410,-47.852,-41.504,-28.320,0.000
1709298977.693,-39.062,-46.387,-44.922,-29.785,0.000
1709298977.697,-40.527,-41.016,-45.898,-24.902,0.000
1709298977.701,-43.457,-42.480,-33.691,-21.973,0.000
1709298977.705,-38.086,-39.551,-30.762,-33.203,0.000
1709298977.708,-40.527,-38.086,-47.363,-46.875,0.000
1709298977.712,-34.668,-49.805,-44.434,-39.062,0.000
1709298977.716,-35.156,-45.898,-30.273,-26.367,0.000
1709298977.720,-48.340,-44.922,-32.715,-30.273,0.000
1709298977.724,-41.016,-45.410,-52.246,-48.340,0.000
1709298977.728,-42.480,-45.898,-48.340,-37.109,0.000
1709298977.732,-52.734,-47.852,-29.297,-24.902,0.000
1709298977.736,-63.965,-46.875,-30.762,-47.363,0.000
1709298977.740,-60.059,-56.641,-33.691,-50.781,0.000
1709298977.744,-59.082,-52.246,-34.668,-54.688,0.000
1709298977.748,-58.105,-43.945,-30.762,-48.340,0.000
1709298977.751,-56.152,-49.316,-31.250,-34.180,0.000
1709298977.755,-59.570,-54.688,-43.457,-30.762,0.000
1709298977.759,-56.641,-58.594,-40.527,-37.109,0.000
1709298977.763,-59.082,-55.176,-33.203,-55.176,0.000
1709298977.767,-51.270,-51.758,-34.180,-58.105,0.000
1709298977.771,-57.129,-62.012,-34.180,-47.852,0.000
1709298977.775,-63.965,-70.801,-34.180,-26.855,0.000
1709298977.779,-53.711,-60.059,-41.504,-25.879,0.000
1709298977.783,-59.082,-48.340,-46.875,-46.387,0.000
1709298977.787,-67.383,-55.176,-45.410,-46.875,0.000
1709298977.790,-58.105,-63.965,-56.641,-37.109,0.000
1709298977.794,-46.387,-63.477,-56.641,-31.250,0.000
1709298977.798,-43.945,-53.223,-33.203,-32.715,0.000
1709298977.802,-44.922,-50.293,-26.367,-35.156,0.000
1709298977.806,-42.969,-57.129,-32.227,-31.738,0.000
1709298977.810,-40.039,-63.477,-28.809,-34.180,0.000
1709298977.814,-38.086,-59.082,-25.879,-32.227,0.000
1709298977.818,-38.574,-43.945,-27.832,-23.926,0.000
1709298977.822,-49.805,-36.621,-39.551,-27.344,0.000
1709298977.826,-46.875,-42.480,-41.992,-50.781,0.000
1709298977.830,-43.945,-54.199,-33.203,-46.387,0.000
1709298977.833,-43.457,-50.293,-46.875,-28.320,0.000
1709298977.837,-31.250,-39.551,-52.734,-29.785,0.000
1709298977.841,-41.504,-42.480,-44.922,-44.434,0.000
1709298977.845,-50.293,-45.898,-41.016,-60.059,0.000
1709298977.849,-46.875,-48.340,-32.227,-48.828,0.000
1709298977.853,-44.434,-56.641,-42.969,-31.250,0.000
1709298977.857,-39.062,-43.457,-45.898,-35.156,0.000
1709298977.861,-44.922,-29.785,-35.645,-50.293,0.000
1709298977.865,-47.852,-40.039,-32.715,-54.688,0.000
1709298977.869,-44.434,-45.898,-39.551,-50.781,0.000
1709298977.872,-51.270,-34.180,-50.781,-57.129,0.000
1709298977.876,-47.852,-32.715,-50.293,-52.734,0.000
1709298977.880,-35.645,-40.527,-41.992,-41.504,0.000
1709298977.884,-48.340,-46.387,-35.645,-38.086,0.000
1709298977.888,-56.152,-45.410,-40.527,-47.852,0.000
1709298977.892,-44.434,-31.738,-37.109,-43.457,0.000
1709298977.896,-40.039,-26.855,-31.250,-27.832,0.000
1709298977.900,-40.039,-35.156,-40.039,-41.016,0.000
1709298977.904,-37.109,-47.852,-46.875,-50.293,0.000
1709298977.908,-37.598,-44.434,-47.852,-40.039,0.000
1709298977.912,-38.574,-29.785,-43.457,-36.133,0.000
1709298977.915,-24.414,-34.180,-42.480,-26.367,0.000
1709298977.919,-20.508,-54.688,-36.621,-27.832,0.000
1709298977.923,-36.621,-45.898,-27.832,-37.598,0.000
1709298977.927,-45.898,-29.785,-30.762,-33.691,0.000
1709298977.931,-36.133,-32.227,-42.480,-27.344,0.000
1709298977.935,-22.949,-41.016,-47.363,-23.926,0.000
1709298977.939,-33.203,-50.293,-40.527,-25.879,0.000
1709298977.943,-34.180,-38.574,-35.645,-34.180,0.000
1709298977.947,-23.926,-31.738,-34.668,-41.016,0.000
1709298977.951,-21.484,-26.367,-37.598,-41.504,0.000
1709298977.955,-23.438,-33.691,-37.598,-25.391,0.000
1709298977.958,-26.855,-46.875,-32.715,-19.531,0.000
1709298977.962,-23.926,-45.410,-32.715,-36.133,0.000
1709298977.966,-25.879,-44.434,-33.691,-41.016,0.000
1709298977.970,-34.180,-44.434,-34.180,-28.320,0.000
1709298977.974,-29.785,-38.086,-37.598,-20.508,0.000
1709298977.978,-24.902,-37.109,-31.250,-24.902,0.000
1709298977.982,-31.250,-38.574,-33.691,-28.320,0.000
1709298977.986,-22.461,-36.621,-36.133,-36.133,0.000
1709298977.990,-25.391,-38.086,-23.438,-41.992,0.000
1709298977.994,-44.434,-31.250,-32.227,-32.715,0.000
1709298977.997,-39.062,-32.715,-36.621,-26.367,0.000
1709298978.001,-34.180,-46.387,-29.297,-43.457,0.000
1709298978.005,-42.480,-46.387,-29.785,-61.523,0.000
1709298978.009,-47.852,-38.086,-41.016,-54.688,0.000
1709298978.013,-42.969,-49.316,-49.805,-37.598,0.000
1709298978.017,-42.480,-55.176,-50.293,-33.203,0.000
1709298978.021,-41.992,-48.828,-53.223,-37.109,0.000
1709298978.025,-33.203,-53.223,-36.621,-38.086,0.000
1709298978.029,-30.762,-45.410,-22.949,-38.086,0.000
1709298978.033,-37.598,-34.668,-23.438,-27.344,0.000
1709298978.037,-37.109,-40.039,-27.344,-25.879,0.000
1709298978.040,-38.086,-52.734,-39.551,-28.809,0.000
1709298978.044,-48.828,-58.105,-29.785,-28.809,0.000
1709298978.048,-57.617,-46.387,-21.484,-23.926,0.000
1709298978.052,-59.082,-37.109,-30.762,-15.137,0.000
1709298978.056,-54.199,-30.762,-32.715,-10.254,0.000
1709298978.060,-36.621,-25.879,-30.273,-10.254,0.000
1709298978.064,-37.598,-39.062,-36.621,-17.090,0.000
1709298978.068,-47.852,-38.086,-34.180,-23.438,0.000
1709298978.072,-39.551,-28.809,-19.043,-18.555,0.000
1709298978.076,-34.668,-37.109,-37.109,-11.230,0.000
1709298978.080,-32.227,-46.875,-49.805,-20.996,0.000
1709298978.083,-39.551,-53.711,-33.691,-36.621,0.000
1709298978.087,-38.086,-49.316,-28.809,-35.645,0.000
1709298978.091,-33.691,-41.504,-28.320,-31.738,0.000
1709298978.095,-37.109,-38.574,-36.133,-36.133,0.000
1709298978.099,-38.086,-33.691,-42.480,-41.016,0.000
1709298978.103,-39.551,-29.785,-34.668,-47.852,0.000
1709298978.107,-45.898,-36.621,-35.156,-51.270,0.000
1709298978.111,-49.316,-35.156,-36.621,-56.152,0.000
1709298978.115,-33.691,-31.738,-34.180,-54.199,0.000
1709298978.119,-34.668,-48.340,-41.992,-67.871,0.000
1709298978.123,-51.758,-44.922,-47.852,-67.871,0.000
1709298978.127,-54.688,-31.738,-55.176,-58.594,0.000
1709298978.130,-53.711,-47.852,-51.758,-70.801,0.000
1709298978.134,-56.152,-50.781,-36.133,-57.129,0.000
1709298978.138,-48.340,-45.410,-23.438,-46.875,0.000
1709298978.142,-46.387,-48.828,-20.996,-61.523,0.000
1709298978.146,-48.828,-36.133,-27.344,-67.383,0.000
1709298978.150,-48.340,-29.297,-29.785,-53.711,0.000
1709298978.154,-46.875,-31.250,-29.297,-42.969,0.000
1709298978.158,-37.109,-29.785,-39.551,-43.945,0.000
1709298978.162,-34.180,-23.438,-44.922,-38.574,0.000
1709298978.166,-35.645,-29.297,-36.133,-35.645,0.000
1709298978.169,-38.086,-35.156,-28.809,-30.273,0.000
1709298978.173,-28.320,-39.062,-34.668,-27.344,0.000
1709298978.177,-23.438,-44.434,-34.180,-20.508,0.000
1709298978.181,-42.969,-36.133,-31.738,-15.137,0.000
1709298978.185,-45.898,-40.527,-38.086,-16.602,0.000
1709298978.189,-41.016,-53.711,-43.457,-26.855,0.000
1709298978.193,-28.809,-39.551,-40.039,-22.949,0.000
1709298978.197,-19.531,-23.438,-32.715,-18.066,0.000
1709298978.201,-21.973,-15.137,-44.434,-24.414,0.000
1709298978.205,-13.184,-16.602,-55.176,-29.785,0.000
1709298978.209,-13.672,-28.320,-47.363,-27.832,0.000
1709298978.213,-18.066,-37.598,-42.969,-18.066,0.000
1709298978.216,-10.254,-47.852,-46.875,-19.531,0.000
1709298978.220,-3.418,-50.781,-48.340,-21.484,0.000
1709298978.224,-14.648,-41.504,-54.199,-32.715,0.000
1709298978.228,-31.738,-34.180,-50.781,-31.738,0.000
1709298978.232,-21.973,-47.852,-42.480,-21.484,0.000
1709298978.236,-18.066,-42.480,-41.992,-36.133,0.000
1709298978.240,-34.180,-23.926,-41.016,-40.527,0.000
1709298978.244,-31.250,-22.461,-39.551,-37.109,0.000
1709298978.248,-33.691,-28.320,-32.227,-42.480,0.000
1709298978.252,-39.551,-39.062,-33.203,-43.457,0.000
1709298978.255,-37.109,-32.715,-37.109,-38.574,0.000
1709298978.259,-32.227,-21.484,-33.203,-37.598,0.000
1709298978.263,-22.461,-23.438,-41.992,-40.527,0.000
1709298978.267,-17.578,-36.133,-34.668,-34.668,0.000
1709298978.271,-23.438,-60.547,-25.391,-36.133,0.000
1709298978.275,-30.273,-46.875,-35.156,-21.973,0.000
1709298978.279,-35.645,-26.855,-36.621,-22.949,0.000
1709298978.283,-31.738,-41.016,-35.645,-46.875,0.000
1709298978.287,-36.621,-28.320,-44.922,-46.387,0.000
1709298978.291,-37.109,-25.879,-41.016,-35.156,0.000
1709298978.295,-34.180,-42.969,-36.133,-21.973,0.000
1709298978.298,-30.273,-31.738,-29.297,-24.902,0.000
1709298978.302,-20.508,-21.484,-21.484,-26.855,0.000
1709298978.306,-41.504,-28.809,-26.855,-39.062,0.000
1709298978.310,-42.969,-40.039,-34.668,-37.109,0.000
1709298978.314,-24.902,-40.039,-30.762,-19.043,0.000
1709298978.318,-23.926,-36.133,-29.785,-12.695,0.000
1709298978.322,-33.691,-39.551,-46.875,-15.625,0.000
1709298978.326,-31.738,-44.434,-41.016,-28.320,0.000
1709298978.330,-24.902,-41.992,-25.879,-27.344,0.000
1709298978.334,-27.832,-34.180,-38.086,-20.508,0.000
1709298978.337,-35.156,-36.621,-41.016,-32.227,0.000
1709298978.341,-41.992,-41.504,-32.715,-33.691,0.000
1709298978.345,-41.992,-35.156,-29.785,-36.621,0.000
1709298978.349,-41.016,-32.715,-33.203,-46.387,0.000
1709298978.353,-30.762,-37.598,-30.762,-41.992,0.000
1709298978.357,-31.738,-38.086,-35.156,-36.133,0.000
1709298978.361,-54.199,-45.898,-39.551,-47.852,0.000
1709298978.365,-61.035,-35.645,-24.902,-55.664,0.000
1709298978.369,-55.664,-23.438,-22.949,-42.480,0.000
1709298978.373,-45.898,-28.809,-30.273,-26.855,0.000
1709298978.376,-38.574,-35.645,-36.621,-22.461,0.000
1709298978.380,-42.480,-41.992,-37.598,-35.156,0.000
1709298978.384,-39.551,-43.945,-28.809,-50.781,0.000
1709298978.388,-38.086,-46.875,-35.645,-42.969,0.000
1709298978.392,-46.875,-36.621,-43.457,-33.203,0.000
1709298978.396,-43.945,-31.738,-25.391,-39.062,0.000
1709298978.400,-37.109,-33.691,-31.738,-39.062,0.000
1709298978.404,-27.832,-36.621,-50.293,-39.551,0.000
1709298978.408,-42.480,-40.039,-31.250,-39.062,0.000
1709298978.412,-55.176,-26.855,-19.531,-27.344,0.000
1709298978.416,-41.016,-24.902,-37.109,-6.348,0.000
1709298978.419,-30.762,-34.668,-36.133,-8.789,0.000
1709298978.423,-31.738,-41.016,-32.715,-32.227,0.000
1709298978.427,-34.180,-44.922,-37.598,-33.691,0.000
1709298978.431,-31.738,-40.527,-38.574,-20.020,0.000
1709298978.435,-26.367,-37.109,-31.250,-13.672,0.000
1709298978.439,-31.250,-36.621,-30.762,-14.648,0.000
1709298978.443,-41.016,-42.969,-31.250,-25.391,0.000
1709298978.447,-41.504,-51.758,-26.855,-27.832,0.000
1709298978.451,-44.922,-41.016,-28.320,-22.949,0.000
1709298978.455,-52.246,-25.879,-29.785,-26.855,0.000
1709298978.459,-49.805,-26.367,-30.762,-31.738,0.000
1709298978.462,-40.527,-28.320,-30.273,-38.086,0.000
1709298978.466,-32.227,-28.320,-35.156,-30.273,0.000
1709298978.470,-47.852,-38.086,-40.039,-33.691,0.000
1709298978.474,-49.805,-47.363,-37.598,-43.457,0.000
1709298978.478,-34.668,-65.430,-30.273,-38.574,0.000
1709298978.482,-30.762,-62.012,-42.969,-32.227,0.000
1709298978.486,-41.016,-32.227,-50.293,-44.434,0.000
1709298978.490,-42.969,-24.902,-34.668,-52.734,0.000
1709298978.494,-35.645,-35.156,-27.344,-40.039,0.000
1709298978.498,-35.156,-37.598,-40.039,-32.715,0.000
1709298978.502,-45.410,-37.598,-41.016,-42.480,0.000
1709298978.505,-47.852,-37.598,-27.344,-51.270,0.000
1709298978.509,-43.457,-27.344,-27.832,-47.363,0.000
1709298978.513,-46.875,-36.133,-29.785,-38.086,0.000
1709298978.517,-50.781,-42.969,-31.250,-28.320,0.000
1709298978.521,-39.551,-25.391,-28.809,-28.320,0.000
1709298978.525,-24.414,-34.180,-27.832,-37.598,0.000
1709298978.529,-35.156,-49.316,-33.691,-39.062,0.000
1709298978.533,-43.457,-40.527,-39.062,-27.832,0.000
1709298978.537,-39.062,-41.016,-42.480,-20.508,0.000
1709298978.541,-37.598,-44.922,-35.645,-27.832,0.000
1709298978.544,-29.785,-42.969,-32.715,-34.180,0.000
1709298978.548,-41.016,-43.945,-36.133,-28.320,0.000
1709298978.552,-45.898,-47.363,-33.691,-24.902,0.000
1709298978.556,-40.039,-43.945,-29.785,-34.180,0.000
1709298978.560,-42.969,-26.367,-42.480,-43.457,0.000
1709298978.564,-48.828,-21.973,-54.688,-56.152,0.000
1709298978.568,-51.758,-35.645,-48.340,-50.781,0.000
1709298978.572,-48.828,-38.086,-42.480,-35.156,0.000
1709298978.576,-28.320,-27.832,-39.551,-39.062,0.000
1709298978.580,-31.738,-29.297,-32.227,-43.457,0.000
1709298978.584,-55.176,-37.109,-36.621,-57.129,0.000
1709298978.587,-55.176,-39.551,-33.691,-58.105,0.000
1709298978.591,-50.781,-41.016,-26.855,-44.922,0.000
1709298978.595,-45.898,-49.316,-35.645,-36.133,0.000
1709298978.599,-39.551,-52.246,-36.133,-31.738,0.000
1709298978.603,-45.898,-53.223,-30.762,-44.434,0.000
1709298978.607,-58.105,-48.340,-27.832,-57.129,0.000
1709298978.611,-52.734,-37.598,-27.344,-53.223,0.000
1709298978.615,-52.734,-38.574,-26.367,-45.898,0.000
1709298978.619,-51.758,-47.852,-30.762,-41.016,0.000
1709298978.623,-54.688,-61.035,-38.574,-46.387,0.000
1709298978.626,-53.711,-46.387,-44.434,-47.363,0.000
1709298978.630,-38.086,-26.367,-48.340,-40.039,0.000
1709298978.634,-41.504,-29.785,-49.316,-22.949,0.000
1709298978.638,-36.133,-34.668,-49.805,-19.531,0.000
1709298978.642,-29.297,-36.133,-33.203,-24.902,0.000
1709298978.646,-41.992,-43.945,-29.785,-31.250,0.000
1709298978.650,-43.945,-43.945,-34.668,-40.527,0.000
1709298978.654,-41.992,-37.109,-26.855,-31.738,0.000
1709298978.658,-37.109,-30.762,-35.156,-15.625,0.000
1709298978.662,-25.391,-45.898,-41.992,-13.672,0.000
1709298978.666,-25.391,-52.246,-31.738,-20.996,0.000
1709298978.669,-30.762,-38.086,-28.809,-22.461,0.000
1709298978.673,-36.621,-31.250,-34.668,-31.738,0.000
1709298978.677,-27.344,-22.461,-35.156,-32.715,0.000
1709298978.681,-17.090,-23.438,-33.691,-27.832,0.000
1709298978.685,-11.719,-27.832,-44.434,-35.645,0.000
1709298978.689,-27.832,-41.016,-49.805,-44.434,0.000
1709298978.693,-42.969,-39.551,-39.062,-34.668,0.000
1709298978.697,-35.645,-26.855,-34.180,-34.180,0.000
1709298978.701,-39.062,-25.391,-23.438,-42.480,0.000
1709298978.705,-44.434,-26.855,-24.902,-34.668,0.000
1709298978.708,-49.805,-28.809,-37.598,-45.410,0.000
1709298978.712,-36.621,-25.391,-43.945,-49.805,0.000
1709298978.716,-29.297,-47.363,-35.645,-41.992,0.000
1709298978.720,-38.086,-50.293,-25.879,-55.664,0.000
1709298978.724,-38.086,-23.926,-37.598,-58.105,0.000
1709298978.728,-41.992,-22.461,-44.434,-58.105,0.000
1709298978.732,-44.434,-28.809,-31.250,-49.316,0.000
1709298978.736,-38.574,-36.133,-24.902,-44.434,0.000
1709298978.740,-35.156,-37.109,-28.320,-40.527,0.000
1709298978.744,-31.738,-36.621,-43.945,-52.734,0.000
1709298978.747,-39.062,-36.621,-50.293,-56.641,0.000
1709298978.751,-43.945,-38.574,-33.203,-36.133,0.000
1709298978.755,-42.480,-36.133,-40.039,-31.738,0.000
1709298978.759,-36.621,-35.156,-52.734,-29.785,0.000
1709298978.763,-41.016,-42.480,-38.086,-34.180,0.000
1709298978.767,-52.246,-51.758,-26.855,-38.086,0.000
1709298978.771,-46.387,-45.898,-36.133,-40.527,0.000
1709298978.775,-38.086,-45.410,-45.410,-40.527,0.000
1709298978.779,-36.621,-53.223,-43.945,-31.738,0.000
1709298978.783,-40.527,-42.480,-46.387,-25.391,0.000
1709298978.787,-40.527,-41.504,-49.316,-38.574,0.000
1709298978.790,-48.828,-49.805,-45.898,-52.734,0.000
1709298978.794,-53.711,-46.875,-41.992,-38.574,0.000
1709298978.798,-43.457,-37.109,-38.574,-30.762,0.000
1709298978.802,-39.062,-44.434,-34.668,-46.387,0.000
1709298978.806,-52.734,-51.270,-41.016,-49.805,0.000
1709298978.810,-53.223,-44.434,-35.645,-29.297,0.000
1709298978.814,-41.016,-47.852,-33.203,-25.879,0.000
1709298978.818,-36.133,-51.758,-38.574,-33.691,0.000
1709298978.822,-36.133,-55.664,-43.457,-34.180,0.000
1709298978.826,-38.574,-56.641,-41.992,-40.527,0.000
1709298978.830,-36.621,-46.875,-30.762,-44.922,0.000
1709298978.833,-34.668,-42.969,-30.273,-36.133,0.000
1709298978.837,-30.762,-26.855,-35.645,-19.043,0.000
1709298978.841,-27.344,-20.996,-38.086,-31.738,0.000
1709298978.845,-27.344,-26.855,-29.297,-54.199,0.000
1709298978.849,-29.297,-20.996,-21.484,-50.293,0.000
1709298978.853,-36.133,-28.320,-28.809,-26.855,0.000
1709298978.857,-34.668,-35.156,-25.879,-12.695,0.000
1709298978.861,-32.715,-27.344,-17.090,-25.879,0.000
1709298978.865,-45.898,-29.297,-24.902,-29.785,0.000
1709298978.869,-41.504,-34.180,-32.227,-31.738,0.000
1709298978.873,-31.738,-35.645,-28.320,-31.250,0.000
1709298978.876,-19.043,-46.387,-25.391,-17.578,0.000
1709298978.880,-17.578,-52.246,-28.320,-19.531,0.000
1709298978.884,-21.484,-37.109,-29.297,-29.297,0.000
1709298978.888,-24.414,-22.949,-30.762,-25.391,0.000
1709298978.892,-25.879,-21.973,-29.297,-18.066,0.000
1709298978.896,-17.578,-23.926,-21.484,-15.137,0.000
1709298978.900,-14.648,-20.508,-20.996,-16.602,0.000
1709298978.904,-7.812,-26.367,-20.996,-30.273,0.000
1709298978.908,-17.578,-32.715,-21.484,-38.574,0.000
1709298978.912,-32.227,-28.320,-28.809,-25.879,0.000
1709298978.915,-29.785,-31.738,-32.715,-21.973,0.000
1709298978.919,-33.691,-40.039,-32.227,-26.855,0.000
1709298978.923,-35.645,-36.133,-32.715,-26.855,0.000
1709298978.927,-35.156,-35.156,-38.574,-33.691,0.000
1709298978.931,-46.387,-42.480,-27.344,-46.387,0.000
1709298978.935,-54.199,-32.715,-18.066,-48.828,0.000
1709298978.939,-47.363,-20.020,-28.809,-47.852,0.000
1709298978.943,-41.504,-26.855,-29.297,-39.062,0.000
1709298978.947,-41.504,-29.785,-35.156,-28.809,0.000
1709298978.951,-39.062,-36.133,-40.039,-29.785,0.000
1709298978.955,-39.062,-41.504,-29.785,-26.855,0.000
1709298978.958,-40.527,-23.926,-29.297,-18.066,0.000
1709298978.962,-27.832,-33.203,-25.879,-25.879,0.000
1709298978.966,-32.227,-39.062,-29.297,-48.340,0.000
1709298978.970,-51.758,-26.367,-26.367,-52.734,0.000
1709298978.974,-51.758,-33.203,-24.414,-45.410,0.000
1709298978.978,-41.016,-33.203,-36.621,-37.109,0.000
1709298978.982,-39.551,-28.809,-37.598,-42.480,0.000
1709298978.986,-40.527,-31.738,-36.621,-62.012,0.000
1709298978.990,-41.016,-43.457,-34.180,-51.270,0.000
1709298978.994,-34.180,-51.758,-36.621,-36.621,0.000
1709298978.998,-21.484,-45.898,-36.133,-43.945,0.000
1709298979.001,-31.250,-40.039,-31.738,-46.387,0.000
1709298979.005,-27.344,-43.945,-46.875,-41.016,0.000
