timestamps,TP9,AF7,AF8,TP10,Right AUX
1709375787.645,-127.441,-42.969,-40.039,-72.754,0.000
1709375787.649,-124.512,-42.480,-41.016,-75.684,0.000
1709375787.653,-37.109,-38.086,-35.156,-45.898,0.000
1709375787.657,82.031,-29.785,-37.598,-4.883,0.000
1709375787.661,9.766,-35.156,-42.480,-24.902,0.000
1709375787.665,-113.770,-45.410,-44.922,-72.754,0.000
1709375787.669,-114.746,-46.387,-42.480,-79.590,0.000
1709375787.673,-41.016,-40.039,-42.480,-42.969,0.000
1709375787.677,72.754,-24.902,-40.039,5.371,0.000
1709375787.681,24.414,-30.762,-40.527,-16.602,0.000
1709375787.684,-108.887,-44.434,-48.828,-68.848,0.000
1709375787.688,-138.184,-43.457,-44.922,-81.543,0.000
1709375787.692,-67.383,-38.086,-35.645,-60.547,0.000
1709375787.696,64.941,-34.668,-34.668,-9.766,0.000
1709375787.700,40.039,-38.086,-37.598,-13.672,0.000
1709375787.704,-93.750,-42.969,-35.645,-62.988,0.000
1709375787.708,-123.047,-40.039,-34.668,-77.148,0.000
1709375787.711,-72.754,-40.527,-36.133,-56.641,0.000
1709375787.715,53.711,-42.969,-37.109,8.301,0.000
1709375787.719,59.082,-33.203,-37.598,13.184,0.000
1709375787.723,-75.684,-34.668,-36.621,-46.387,0.000
1709375787.727,-129.395,-44.434,-38.574,-65.430,0.000
1709375787.731,-90.820,-42.480,-36.133,-51.758,0.000
1709375787.735,36.621,-33.203,-34.180,-4.395,0.000
1709375787.738,67.383,-32.715,-38.086,2.930,0.000
1709375787.742,-70.801,-43.945,-37.109,-48.828,0.000
1709375787.746,-139.648,-48.340,-37.598,-75.684,0.000
1709375787.750,-109.863,-45.898,-35.645,-74.219,0.000
1709375787.754,9.277,-38.086,-32.227,-26.855,0.000
1709375787.758,61.035,-36.133,-33.203,-0.488,0.000
1709375787.762,-76.172,-41.992,-35.156,-51.270,0.000
1709375787.766,-152.344,-44.922,-38.086,-94.238,0.000
1709375787.770,-123.535,-49.316,-36.621,-93.750,0.000
1709375787.774,-2.930,-41.504,-38.086,-44.434,0.000
1709375787.777,70.801,-32.715,-40.039,-12.207,0.000
1709375787.781,-50.293,-39.062,-39.551,-58.105,0.000
1709375787.786,-129.395,-49.316,-38.086,-93.750,0.000
1709375787.790,-104.980,-49.316,-36.621,-86.426,0.000
1709375787.794,-10.254,-40.039,-41.504,-49.805,0.000
1709375787.797,74.219,-36.621,-46.387,-7.812,0.000
1709375787.801,-29.297,-47.852,-47.363,-40.039,0.000
1709375787.805,-131.836,-54.199,-41.992,-71.777,0.000
1709375787.809,-126.465,-47.852,-40.039,-68.848,0.000
1709375787.813,-27.344,-35.645,-39.062,-38.086,0.000
1709375787.817,86.426,-32.227,-38.086,15.137,0.000
1709375787.821,6.348,-43.945,-39.551,-0.977,0.000
1709375787.825,-109.863,-44.922,-41.992,-57.129,0.000
1709375787.829,-115.234,-42.969,-42.969,-75.195,0.000
1709375787.833,-33.203,-43.457,-43.457,-43.457,0.000
1709375787.837,83.984,-39.551,-43.945,10.742,0.000
1709375787.841,19.531,-35.645,-43.457,-7.324,0.000
1709375787.845,-103.027,-40.039,-41.504,-54.688,0.000
1709375787.849,-115.234,-47.363,-39.551,-62.500,0.000
1709375787.853,-52.246,-45.898,-38.574,-39.062,0.000
1709375787.856,77.148,-32.227,-34.180,9.766,0.000
1709375787.860,55.176,-32.227,-32.715,-2.930,0.000
1709375787.864,-81.055,-48.340,-35.645,-51.758,0.000
1709375787.868,-123.047,-47.363,-36.621,-67.383,0.000
1709375787.872,-66.895,-40.039,-38.574,-62.500,0.000
1709375787.876,62.500,-33.691,-37.598,-10.254,0.000
1709375787.880,50.293,-34.668,-32.227,2.930,0.000
1709375787.884,-89.844,-40.039,-32.715,-56.152,0.000
1709375787.888,-136.230,-45.410,-37.109,-83.984,0.000
1709375787.892,-90.820,-46.875,-36.621,-64.453,0.000
1709375787.896,40.527,-33.203,-34.180,-8.301,0.000
1709375787.900,62.012,-26.367,-29.785,5.859,0.000
1709375787.903,-78.613,-40.527,-31.738,-51.270,0.000
1709375787.907,-137.207,-49.805,-39.551,-74.219,0.000
1709375787.911,-90.332,-49.316,-39.551,-57.129,0.000
1709375787.915,35.645,-31.738,-35.645,-19.531,0.000
1709375787.919,74.707,-27.344,-36.621,5.371,0.000
1709375787.923,-60.547,-41.992,-38.086,-35.645,0.000
1709375787.927,-135.254,-51.758,-38.574,-71.289,0.000
1709375787.931,-110.840,-49.316,-40.527,-67.383,0.000
1709375787.935,11.230,-39.551,-44.434,-26.367,0.000
1709375787.939,83.496,-36.621,-40.527,10.254,0.000
1709375787.943,-43.457,-43.457,-42.480,-40.039,0.000
1709375787.946,-131.348,-50.781,-41.992,-82.031,0.000
1709375787.950,-116.211,-51.270,-38.574,-79.590,0.000
1709375787.954,-9.277,-47.852,-39.551,-23.438,0.000
1709375787.958,72.754,-39.551,-38.086,24.414,0.000
1709375787.962,-40.527,-36.621,-39.551,-39.551,0.000
1709375787.966,-140.137,-45.410,-42.480,-81.543,0.000
1709375787.970,-127.441,-43.945,-38.086,-73.242,0.000
1709375787.974,-28.320,-33.691,-36.133,-41.016,0.000
1709375787.978,78.613,-28.320,-35.156,5.859,0.000
1709375787.982,-5.371,-37.598,-36.133,-20.996,0.000
1709375787.985,-114.746,-48.340,-37.109,-65.918,0.000
1709375787.989,-121.094,-46.875,-38.574,-67.383,0.000
1709375787.993,-40.039,-41.504,-41.504,-37.109,0.000
1709375787.997,75.195,-39.551,-36.133,9.766,0.000
1709375788.001,10.254,-46.875,-34.180,-6.348,0.000
1709375788.005,-104.492,-41.504,-33.203,-59.570,0.000
1709375788.009,-118.652,-42.969,-32.227,-68.848,0.000
1709375788.013,-50.293,-40.527,-34.668,-35.156,0.000
1709375788.017,72.266,-31.250,-31.250,13.672,0.000
1709375788.020,27.832,-37.598,-34.668,-1.953,0.000
1709375788.024,-93.750,-41.992,-36.133,-47.363,0.000
1709375788.028,-121.582,-41.016,-32.227,-56.641,0.000
1709375788.032,-67.383,-35.645,-31.738,-41.504,0.000
1709375788.036,61.035,-30.762,-34.180,9.277,0.000
1709375788.040,44.922,-38.086,-39.551,0.488,0.000
1709375788.044,-87.891,-48.828,-37.598,-48.340,0.000
1709375788.048,-122.070,-50.781,-32.227,-55.664,0.000
1709375788.052,-76.660,-44.434,-42.480,-53.223,0.000
1709375788.056,43.945,-38.086,-46.875,-9.277,0.000
1709375788.059,53.711,-39.062,-39.062,1.953,0.000
1709375788.063,-72.754,-47.852,-42.969,-52.246,0.000
1709375788.067,-123.047,-49.316,-39.551,-77.637,0.000
1709375788.071,-89.844,-45.898,-35.645,-60.059,0.000
1709375788.075,33.203,-40.527,-36.133,-5.371,0.000
1709375788.079,63.965,-38.086,-36.133,9.277,0.000
1709375788.083,-76.172,-45.898,-42.480,-46.387,0.000
1709375788.087,-137.207,-56.641,-43.457,-80.566,0.000
1709375788.090,-97.168,-60.547,-41.016,-62.500,0.000
1709375788.094,22.461,-37.598,-37.598,-11.719,0.000
1709375788.098,75.195,-27.344,-34.668,4.395,0.000
1709375788.102,-41.504,-41.992,-40.039,-41.016,0.000
1709375788.106,-113.770,-41.504,-41.992,-68.359,0.000
1709375788.110,-97.656,-39.551,-40.039,-65.430,0.000
1709375788.113,11.230,-39.062,-40.039,-22.461,0.000
1709375788.117,91.309,-38.086,-39.062,16.602,0.000
1709375788.121,-30.273,-44.922,-42.969,-27.344,0.000
1709375788.125,-126.953,-47.852,-42.480,-66.895,0.000
1709375788.129,-112.793,-48.828,-41.992,-63.965,0.000
1709375788.133,-13.184,-47.363,-39.062,-19.531,0.000
1709375788.137,89.355,-38.086,-31.738,20.996,0.000
1709375788.141,-1.953,-38.086,-34.180,-27.832,0.000
1709375788.145,-101.074,-44.434,-38.574,-64.453,0.000
1709375788.149,-98.145,-42.480,-38.574,-61.035,0.000
1709375788.153,-22.461,-31.738,-38.574,-39.062,0.000
1709375788.156,75.684,-22.461,-34.668,4.883,0.000
1709375788.161,2.930,-34.180,-31.738,-12.695,0.000
1709375788.165,-112.793,-46.387,-38.086,-63.965,0.000
1709375788.169,-118.652,-40.527,-38.086,-75.684,0.000
1709375788.173,-42.969,-31.738,-35.156,-43.457,0.000
1709375788.176,73.730,-25.879,-36.133,9.277,0.000
1709375788.180,25.879,-31.250,-35.156,-7.812,0.000
1709375788.184,-103.027,-39.551,-34.180,-59.570,0.000
1709375788.188,-115.723,-35.645,-34.180,-69.824,0.000
1709375788.192,-53.711,-36.133,-33.691,-45.410,0.000
1709375788.196,63.965,-34.180,-33.203,15.137,0.000
1709375788.200,41.504,-24.902,-35.156,4.395,0.000
1709375788.204,-81.055,-34.180,-30.762,-48.340,0.000
1709375788.208,-108.398,-41.992,-27.832,-63.965,0.000
1709375788.212,-65.918,-37.598,-27.832,-48.340,0.000
1709375788.216,60.059,-29.785,-23.438,9.277,0.000
1709375788.220,62.988,-29.785,-27.344,10.742,0.000
1709375788.224,-76.172,-41.504,-30.273,-51.270,0.000
1709375788.228,-125.977,-48.828,-29.297,-77.148,0.000
1709375788.231,-88.867,-43.945,-33.691,-66.406,0.000
1709375788.235,43.457,-36.621,-35.156,-18.066,0.000
1709375788.239,68.848,-42.480,-35.156,6.348,0.000
1709375788.243,-84.473,-48.340,-36.133,-35.645,0.000
1709375788.247,-146.484,-44.434,-37.598,-67.383,0.000
1709375788.251,-105.957,-49.316,-38.574,-65.918,0.000
1709375788.255,18.555,-44.434,-36.621,-8.789,0.000
1709375788.259,70.801,-37.598,-35.645,21.484,0.000
1709375788.263,-58.105,-47.852,-38.574,-40.527,0.000
1709375788.267,-130.859,-51.758,-39.062,-75.684,0.000
1709375788.271,-110.352,-47.852,-38.086,-69.336,0.000
1709375788.275,3.906,-40.039,-33.691,-26.367,0.000
1709375788.279,85.938,-25.879,-24.902,12.207,0.000
1709375788.282,-31.250,-31.250,-26.367,-28.809,0.000
1709375788.286,-118.164,-46.387,-32.227,-58.594,0.000
1709375788.290,-95.703,-37.109,-35.156,-58.594,0.000
1709375788.294,12.207,-27.344,-35.156,-18.555,0.000
1709375788.298,105.469,-23.926,-30.273,31.250,0.000
1709375788.302,-11.719,-30.762,-33.691,-20.996,0.000
1709375788.306,-113.281,-32.227,-34.180,-69.336,0.000
1709375788.310,-107.910,-36.133,-34.180,-71.289,0.000
1709375788.314,-24.414,-41.992,-36.133,-35.156,0.000
1709375788.318,83.496,-29.785,-28.809,16.113,0.000
1709375788.322,-9.766,-33.691,-28.809,-16.113,0.000
1709375788.326,-120.117,-44.434,-37.598,-68.848,0.000
1709375788.329,-113.770,-47.363,-36.621,-76.172,0.000
1709375788.333,-38.574,-42.969,-33.203,-41.992,0.000
1709375788.337,73.730,-29.297,-36.133,1.465,0.000
1709375788.341,11.719,-37.109,-37.109,-21.484,0.000
1709375788.345,-110.352,-48.340,-32.227,-74.707,0.000
1709375788.349,-127.930,-48.828,-35.645,-83.984,0.000
1709375788.353,-69.336,-47.363,-37.598,-60.059,0.000
1709375788.357,52.734,-36.621,-35.645,-10.254,0.000
1709375788.361,22.461,-40.039,-37.598,-15.137,0.000
1709375788.365,-104.980,-49.316,-40.039,-63.965,0.000
1709375788.368,-127.930,-52.734,-41.504,-75.684,0.000
1709375788.372,-71.289,-52.734,-42.969,-51.758,0.000
1709375788.376,52.246,-49.316,-41.016,10.254,0.000
1709375788.380,43.457,-41.016,-41.016,5.371,0.000
1709375788.384,-89.355,-42.969,-40.527,-48.340,0.000
1709375788.388,-126.953,-50.781,-35.645,-59.570,0.000
1709375788.392,-80.078,-45.410,-33.203,-41.016,0.000
1709375788.396,46.875,-35.645,-32.715,15.625,0.000
1709375788.399,64.941,-36.133,-32.227,22.461,0.000
1709375788.403,-70.312,-47.363,-34.668,-35.645,0.000
1709375788.407,-121.094,-46.875,-37.109,-56.641,0.000
1709375788.411,-82.031,-45.410,-40.039,-45.410,0.000
1709375788.415,38.086,-39.062,-37.109,1.953,0.000
1709375788.419,76.172,-31.738,-34.180,24.414,0.000
1709375788.423,-61.035,-42.480,-40.039,-35.645,0.000
1709375788.427,-130.859,-43.457,-41.992,-74.219,0.000
1709375788.431,-103.516,-38.574,-40.527,-62.500,0.000
1709375788.435,11.230,-39.551,-40.527,-12.695,0.000
1709375788.438,74.707,-37.109,-44.434,11.230,0.000
1709375788.442,-49.316,-39.062,-46.875,-42.480,0.000
1709375788.446,-129.395,-40.527,-43.945,-73.242,0.000
1709375788.450,-96.680,-43.945,-43.457,-62.988,0.000
1709375788.454,14.160,-36.621,-41.504,-16.602,0.000
1709375788.458,83.984,-29.785,-34.668,13.672,0.000
1709375788.462,-27.344,-39.062,-28.809,-30.273,0.000
1709375788.466,-122.559,-57.129,-26.367,-54.688,0.000
1709375788.469,-111.328,-60.059,-27.832,-49.805,0.000
1709375788.473,-15.625,-50.781,-26.367,-24.414,0.000
1709375788.477,79.102,-55.664,-22.949,14.160,0.000
1709375788.481,-8.789,-76.660,-22.461,3.418,0.000
1709375788.485,-106.934,-87.891,-21.973,-33.691,0.000
1709375788.488,-106.445,-86.914,-12.207,-53.711,0.000
1709375788.492,-25.879,-83.008,-4.883,-24.414,0.000
1709375788.496,83.984,-80.566,-1.953,40.039,0.000
1709375788.500,11.230,-89.844,0.977,24.902,0.000
1709375788.504,-113.770,-103.027,-1.953,-26.855,0.000
1709375788.508,-128.906,-114.746,1.465,-37.109,0.000
1709375788.512,-51.270,-115.723,7.812,-2.930,0.000
1709375788.516,83.496,-104.492,14.648,55.664,0.000
1709375788.520,39.551,-111.328,17.578,40.527,0.000
1709375788.524,-92.773,-124.512,19.043,-4.395,0.000
1709375788.528,-120.117,-123.535,20.996,-11.230,0.000
1709375788.531,-53.223,-114.746,20.508,12.207,0.000
1709375788.536,90.820,-107.422,21.484,72.266,0.000
1709375788.540,83.496,-108.398,23.438,80.566,0.000
1709375788.544,-44.434,-114.746,20.508,33.203,0.000
1709375788.548,-76.172,-114.746,23.438,13.672,0.000
1709375788.551,-23.438,-109.863,21.973,27.832,0.000
1709375788.555,103.516,-103.027,15.625,84.961,0.000
1709375788.559,104.980,-96.680,17.578,94.238,0.000
1709375788.563,-42.480,-98.633,13.672,26.367,0.000
1709375788.567,-90.820,-103.516,12.695,8.789,0.000
1709375788.571,-39.551,-102.051,16.602,32.227,0.000
1709375788.575,81.055,-83.008,8.789,72.266,0.000
1709375788.579,101.562,-78.613,1.953,81.055,0.000
1709375788.583,-33.691,-91.309,-0.977,20.508,0.000
1709375788.587,-96.191,-90.332,-5.371,-8.301,0.000
1709375788.591,-66.406,-82.520,-5.371,1.953,0.000
1709375788.595,62.988,-67.383,-3.906,50.293,0.000
1709375788.599,122.070,-61.035,-4.395,82.031,0.000
1709375788.603,-8.789,-65.918,-5.859,31.738,0.000
1709375788.606,-89.844,-66.406,-10.254,-11.230,0.000
1709375788.610,-72.266,-68.359,-15.137,-14.160,0.000
1709375788.614,39.062,-67.383,-18.555,31.250,0.000
1709375788.618,102.539,-59.082,-23.438,59.082,0.000
1709375788.622,-20.508,-61.035,-30.762,-9.277,0.000
1709375788.626,-100.586,-65.918,-29.785,-48.340,0.000
1709375788.630,-87.891,-64.453,-30.273,-43.457,0.000
1709375788.634,4.883,-59.082,-32.715,-12.695,0.000
1709375788.638,93.262,-57.129,-30.762,27.344,0.000
1709375788.642,-10.742,-64.453,-30.762,-8.301,0.000
1709375788.646,-106.934,-66.895,-31.738,-49.316,0.000
1709375788.650,-89.355,-61.523,-26.367,-42.969,0.000
1709375788.654,0.000,-49.316,-25.879,-4.395,0.000
1709375788.657,104.492,-39.551,-25.391,52.246,0.000
1709375788.661,27.344,-47.363,-22.949,37.598,0.000
1709375788.665,-87.402,-45.898,-24.414,-14.648,0.000
1709375788.669,-94.238,-48.828,-25.879,-35.645,0.000
1709375788.673,-17.090,-49.316,-26.855,-14.648,0.000
1709375788.677,98.145,-38.086,-26.855,36.621,0.000
1709375788.681,38.086,-41.992,-32.715,14.160,0.000
1709375788.685,-82.031,-47.852,-27.832,-33.203,0.000
1709375788.689,-100.098,-50.781,-28.320,-44.922,0.000
1709375788.693,-37.109,-51.270,-35.156,-29.785,0.000
1709375788.697,96.191,-37.109,-30.762,24.902,0.000
1709375788.700,60.547,-36.621,-32.227,11.230,0.000
1709375788.704,-74.707,-49.805,-36.621,-41.992,0.000
1709375788.708,-108.398,-53.711,-38.086,-48.828,0.000
1709375788.712,-55.176,-41.992,-37.109,-40.039,0.000
1709375788.716,76.660,-33.691,-31.738,15.625,0.000
1709375788.720,70.801,-39.062,-29.297,22.461,0.000
1709375788.724,-67.383,-45.898,-34.180,-32.715,0.000
1709375788.728,-107.422,-45.898,-30.273,-53.711,0.000
1709375788.732,-59.082,-42.969,-26.855,-40.039,0.000
1709375788.735,62.012,-37.598,-30.762,10.742,0.000
1709375788.739,75.684,-35.156,-32.227,21.484,0.000
1709375788.743,-61.523,-49.805,-33.691,-40.039,0.000
1709375788.747,-118.652,-53.711,-33.691,-60.059,0.000
1709375788.751,-85.938,-52.246,-29.785,-34.668,0.000
1709375788.755,37.598,-38.086,-28.809,6.836,0.000
1709375788.759,88.867,-28.809,-32.227,21.484,0.000
1709375788.763,-38.086,-38.574,-35.156,-28.809,0.000
1709375788.767,-102.539,-38.086,-35.156,-59.082,0.000
1709375788.770,-72.266,-39.062,-36.621,-47.852,0.000
1709375788.774,46.875,-31.250,-34.180,0.977,0.000
1709375788.778,109.375,-27.344,-30.762,26.855,0.000
1709375788.782,-26.367,-40.039,-32.227,-31.738,0.000
1709375788.786,-109.863,-51.758,-31.250,-61.035,0.000
1709375788.790,-93.262,-54.199,-28.320,-53.711,0.000
1709375788.794,4.395,-40.527,-33.203,-10.254,0.000
1709375788.798,91.797,-36.621,-38.086,37.109,0.000
1709375788.802,-22.949,-41.016,-37.109,-9.277,0.000
1709375788.806,-125.488,-43.945,-38.574,-51.758,0.000
1709375788.809,-111.328,-52.734,-36.621,-55.176,0.000
1709375788.813,-18.555,-44.922,-38.086,-26.367,0.000
1709375788.818,81.543,-33.203,-40.039,17.578,0.000
1709375788.822,-4.883,-43.945,-40.039,-12.207,0.000
1709375788.826,-112.305,-56.152,-40.039,-59.570,0.000
1709375788.830,-117.188,-54.199,-39.551,-57.129,0.000
1709375788.833,-39.062,-45.898,-40.039,-23.926,0.000
1709375788.837,77.637,-42.969,-37.109,25.879,0.000
1709375788.841,13.184,-52.246,-36.621,6.836,0.000
1709375788.845,-107.422,-52.734,-38.086,-45.898,0.000
1709375788.849,-124.023,-49.316,-35.645,-64.941,0.000
1709375788.853,-53.711,-52.246,-35.645,-48.340,0.000
1709375788.857,73.242,-45.410,-36.621,10.254,0.000
1709375788.861,32.227,-46.875,-32.227,-3.418,0.000
1709375788.864,-98.145,-50.781,-31.738,-53.711,0.000
1709375788.868,-121.094,-49.805,-32.715,-59.082,0.000
1709375788.872,-62.500,-41.504,-30.273,-46.875,0.000
1709375788.876,72.266,-30.273,-28.809,13.184,0.000
1709375788.880,59.082,-40.527,-31.250,15.137,0.000
1709375788.884,-82.031,-53.223,-32.715,-41.504,0.000
1709375788.888,-119.629,-53.711,-28.320,-51.758,0.000
1709375788.892,-70.312,-49.805,-26.367,-39.062,0.000
1709375788.895,56.641,-42.480,-26.855,9.277,0.000
1709375788.899,72.266,-44.434,-28.320,20.020,0.000
1709375788.903,-58.594,-51.758,-31.250,-34.180,0.000
1709375788.907,-116.211,-48.828,-34.180,-60.059,0.000
1709375788.912,-87.891,-48.340,-35.645,-51.758,0.000
1709375788.915,41.504,-42.969,-32.715,-5.371,0.000
1709375788.919,78.125,-39.551,-35.156,10.742,0.000
1709375788.923,-59.570,-55.664,-40.527,-45.410,0.000
1709375788.927,-124.512,-65.430,-43.945,-76.660,0.000
1709375788.931,-96.680,-60.547,-43.945,-68.359,0.000
1709375788.935,16.113,-47.363,-42.480,-22.949,0.000
1709375788.939,70.801,-36.621,-36.621,8.301,0.000
1709375788.943,-48.340,-46.387,-33.691,-39.062,0.000
1709375788.947,-125.977,-55.176,-36.621,-61.035,0.000
1709375788.951,-111.816,-42.969,-32.227,-53.223,0.000
1709375788.955,3.418,-34.180,-31.738,-20.508,0.000
1709375788.959,88.867,-34.668,-30.762,17.578,0.000
1709375788.963,-28.809,-41.016,-29.785,-27.832,0.000
1709375788.967,-116.699,-45.898,-32.227,-64.941,0.000
1709375788.970,-97.168,-49.805,-34.180,-60.547,0.000
1709375788.974,3.906,-45.410,-36.133,-17.578,0.000
1709375788.978,97.168,-38.086,-36.133,25.879,0.000
1709375788.982,0.000,-40.039,-30.762,-9.766,0.000
1709375788.986,-99.121,-41.016,-31.250,-50.293,0.000
1709375788.990,-94.238,-43.457,-36.133,-52.734,0.000
1709375788.994,-4.395,-32.227,-31.250,-6.348,0.000
1709375788.998,112.305,-19.043,-27.832,41.016,0.000
1709375789.002,25.879,-28.320,-35.645,-1.953,0.000
1709375789.006,-84.473,-38.086,-35.645,-52.734,0.000
1709375789.010,-81.543,-39.062,-35.645,-59.570,0.000
1709375789.014,-16.113,-35.156,-41.992,-37.109,0.000
1709375789.017,91.309,-33.691,-43.457,13.672,0.000
1709375789.021,26.367,-42.480,-40.527,-2.441,0.000
1709375789.025,-96.680,-48.340,-37.598,-48.340,0.000
1709375789.029,-109.375,-42.969,-33.691,-59.082,0.000
1709375789.033,-49.805,-39.062,-35.645,-38.086,0.000
1709375789.037,76.172,-37.598,-35.156,23.926,0.000
1709375789.041,48.340,-32.227,-31.738,12.207,0.000
1709375789.045,-92.773,-40.039,-34.668,-47.363,0.000
1709375789.049,-134.766,-49.805,-36.621,-61.035,0.000
1709375789.053,-80.078,-43.945,-30.273,-41.504,0.000
1709375789.057,55.176,-29.297,-26.367,17.578,0.000
1709375789.060,51.270,-29.785,-29.785,13.672,0.000
1709375789.064,-85.449,-43.945,-31.250,-43.457,0.000
1709375789.068,-130.371,-45.410,-32.227,-68.359,0.000
1709375789.072,-92.773,-45.410,-35.645,-62.012,0.000
1709375789.076,33.691,-40.527,-36.133,-9.277,0.000
1709375789.080,65.430,-38.574,-33.691,6.348,0.000
1709375789.084,-67.871,-46.387,-32.227,-47.363,0.000
1709375789.088,-130.371,-40.527,-34.668,-82.520,0.000
1709375789.092,-94.238,-40.039,-33.203,-71.289,0.000
1709375789.096,27.344,-36.621,-31.250,-16.602,0.000
1709375789.099,78.125,-32.227,-37.109,3.906,0.000
1709375789.103,-44.434,-42.969,-41.992,-44.922,0.000
1709375789.107,-114.258,-47.363,-34.668,-71.289,0.000
1709375789.111,-106.445,-47.363,-33.203,-74.219,0.000
1709375789.115,-2.930,-38.574,-39.062,-30.273,0.000
1709375789.119,76.660,-31.250,-34.180,13.184,0.000
1709375789.123,-49.805,-48.340,-34.180,-36.133,0.000
1709375789.127,-138.672,-59.570,-34.668,-69.824,0.000
1709375789.131,-115.234,-44.922,-29.297,-67.871,0.000
1709375789.134,-12.207,-31.738,-34.668,-33.691,0.000
1709375789.138,85.449,-29.785,-36.621,13.672,0.000
1709375789.142,-14.648,-41.992,-39.551,-19.043,0.000
1709375789.146,-120.117,-48.340,-41.504,-58.105,0.000
1709375789.150,-114.258,-45.898,-39.062,-53.711,0.000
1709375789.154,-22.461,-42.480,-37.598,-19.531,0.000
1709375789.158,88.867,-35.156,-34.668,30.762,0.000
1709375789.162,8.789,-37.598,-34.668,2.441,0.000
1709375789.165,-105.469,-45.898,-34.180,-46.875,0.000
1709375789.169,-113.281,-45.898,-38.086,-51.758,0.000
1709375789.173,-31.738,-41.504,-40.527,-23.438,0.000
1709375789.177,86.914,-25.879,-36.621,17.578,0.000
1709375789.181,24.414,-23.926,-39.551,-9.766,0.000
1709375789.185,-100.098,-41.504,-41.992,-59.570,0.000
1709375789.189,-112.793,-41.016,-40.039,-65.918,0.000
1709375789.192,0.000,-33.691,-38.086,-41.504,0.000
1709375789.196,0.000,-30.762,-32.715,12.695,0.000
1709375789.200,0.000,-40.039,-32.227,7.812,0.000
1709375789.204,0.000,-47.363,-31.738,-43.457,0.000
1709375789.208,0.000,-49.316,-33.691,-61.035,0.000
1709375789.212,0.000,-48.828,-36.621,-41.992,0.000
1709375789.216,0.000,-41.992,-34.668,6.348,0.000
1709375789.220,0.000,-39.551,-40.527,-2.441,0.000
1709375789.224,0.000,-44.434,-39.062,-52.734,0.000
1709375789.228,0.000,-51.758,-35.645,-68.359,0.000
1709375789.232,0.000,-53.223,-36.621,-51.758,0.000
1709375789.235,0.000,-40.527,-35.156,-5.859,0.000
1709375789.239,56.641,-36.621,-32.715,0.000,0.000
1709375789.243,-78.613,-49.316,-35.645,-56.641,0.000
1709375789.247,-130.859,-54.199,-36.133,-82.520,0.000
1709375789.251,-97.168,-45.898,-30.273,-69.336,0.000
1709375789.255,31.738,-36.621,-34.180,-21.973,0.000
1709375789.258,81.543,-40.039,-38.574,1.465,0.000
1709375789.262,-56.152,-48.828,-38.574,-45.410,0.000
1709375789.266,-130.859,-48.828,-39.551,-77.148,0.000
1709375789.270,-103.027,-45.898,-35.156,-68.848,0.000
1709375789.274,16.113,-39.062,-35.156,-18.555,0.000
1709375789.278,80.078,-32.227,-36.621,13.672,0.000
1709375789.282,-44.922,-35.156,-32.227,-31.250,0.000
1709375789.286,-125.000,-41.016,-34.180,-60.547,0.000
1709375789.290,-104.980,-42.969,-33.203,-55.176,0.000
1709375789.294,-2.441,-34.180,-27.832,-24.902,0.000
1709375789.298,76.172,-29.785,-30.273,3.906,0.000
1709375789.302,-43.457,-43.945,-32.715,-40.039,0.000
1709375789.306,-128.906,-54.199,-33.203,-73.242,0.000
1709375789.310,-110.352,-51.758,-38.574,-76.660,0.000
1709375789.314,-20.508,-41.016,-38.086,-46.875,0.000
1709375789.317,76.172,-38.086,-36.621,9.277,0.000
1709375789.321,-9.766,-49.805,-38.574,-17.090,0.000
1709375789.325,-114.746,-51.270,-38.574,-73.242,0.000
1709375789.329,-116.699,-44.922,-38.574,-79.590,0.000
1709375789.333,-32.715,-40.039,-37.598,-46.875,0.000
1709375789.337,84.473,-32.227,-36.621,4.395,0.000
1709375789.341,16.602,-37.109,-39.551,-16.602,0.000
1709375789.345,-106.934,-45.898,-42.969,-64.453,0.000
1709375789.349,-120.117,-49.316,-42.969,-72.754,0.000
1709375789.353,-46.387,-45.898,-41.016,-45.410,0.000
1709375789.357,67.383,-36.133,-42.480,5.859,0.000
1709375789.361,13.672,-37.109,-46.387,-11.719,0.000
1709375789.365,-113.281,-47.363,-43.457,-61.523,0.000
1709375789.369,-137.207,-48.828,-41.992,-68.359,0.000
1709375789.372,-77.148,-38.086,-43.457,-54.199,0.000
1709375789.376,56.641,-31.250,-41.504,-7.812,0.000
1709375789.380,37.109,-41.504,-41.016,-13.672,0.000
1709375789.384,-99.609,-46.875,-40.527,-66.895,0.000
1709375789.388,-135.254,-42.969,-34.668,-73.242,0.000
1709375789.392,-84.961,-39.551,-31.738,-53.223,0.000
1709375789.396,43.457,-34.668,-35.156,-10.742,0.000
1709375789.400,41.504,-36.621,-38.086,-5.859,0.000
1709375789.404,-85.449,-41.016,-37.598,-52.734,0.000
1709375789.408,-130.859,-47.363,-37.598,-72.754,0.000
1709375789.412,-97.168,-51.758,-34.180,-47.852,0.000
1709375789.416,34.180,-32.715,-27.344,7.324,0.000
1709375789.419,70.801,-29.785,-28.320,17.578,0.000
1709375789.423,-61.523,-46.875,-31.738,-44.434,0.000
1709375789.427,-125.000,-51.758,-34.180,-75.684,0.000
1709375789.431,-97.168,-45.410,-37.109,-66.406,0.000
1709375789.435,24.902,-38.086,-34.668,-26.855,0.000
1709375789.439,82.520,-37.109,-36.621,0.977,0.000
1709375789.443,-46.875,-43.457,-40.527,-45.410,0.000
1709375789.447,-132.324,-51.758,-39.551,-74.219,0.000
1709375789.451,-112.305,-47.363,-34.668,-71.289,0.000
1709375789.455,3.906,-41.016,-30.762,-24.902,0.000
1709375789.459,81.055,-37.598,-33.691,21.973,0.000
1709375789.462,-44.434,-41.016,-34.668,-29.785,0.000
1709375789.466,-135.254,-48.340,-34.180,-75.684,0.000
1709375789.470,-116.699,-52.246,-33.691,-73.730,0.000
1709375789.474,-16.602,-46.387,-30.762,-31.738,0.000
1709375789.478,82.031,-36.621,-26.367,18.066,0.000
1709375789.482,-16.602,-41.504,-28.320,-12.695,0.000
1709375789.486,-126.465,-50.781,-33.203,-61.035,0.000
1709375789.490,-118.652,-46.387,-38.574,-67.871,0.000
1709375789.494,-27.832,-42.480,-39.062,-35.645,0.000
1709375789.497,80.078,-36.621,-40.039,11.230,0.000
1709375789.501,8.301,-43.945,-41.504,-8.789,0.000
1709375789.505,-113.281,-46.875,-42.480,-59.082,0.000
1709375789.509,-130.859,-43.457,-45.898,-73.730,0.000
1709375789.513,-51.758,-42.480,-45.410,-45.410,0.000
1709375789.517,70.801,-38.086,-42.969,7.324,0.000
1709375789.521,24.414,-42.480,-41.016,-11.719,0.000
1709375789.525,-95.215,-49.316,-41.016,-62.500,0.000
1709375789.528,-119.141,-53.223,-42.480,-69.336,0.000
1709375789.532,-60.547,-51.758,-42.480,-45.410,0.000
1709375789.536,67.383,-41.504,-41.504,9.277,0.000
1709375789.540,43.457,-41.992,-41.016,0.000,0.000
1709375789.544,-93.262,-51.758,-38.086,-57.129,0.000
1709375789.548,-122.070,-57.129,-37.109,-61.035,0.000
1709375789.552,-45.898,-46.875,-35.645,-34.180,0.000
1709375789.556,74.219,-33.691,-30.762,15.137,0.000
1709375789.560,63.477,-32.227,-34.180,19.043,0.000
1709375789.564,-74.219,-40.039,-36.621,-31.738,0.000
1709375789.567,0.000,-46.387,-36.621,-59.570,0.000
1709375789.571,0.000,-43.945,-36.133,-48.828,0.000
1709375789.575,0.000,-33.691,-31.738,4.883,0.000
1709375789.579,0.000,-28.320,-33.203,16.602,0.000
1709375789.583,0.000,-38.086,-38.574,-41.504,0.000
1709375789.587,0.000,-48.828,-40.527,-72.266,0.000
1709375789.591,0.000,-50.293,-34.180,-53.223,0.000
1709375789.595,0.000,-33.691,-25.879,5.859,0.000
1709375789.599,0.000,-24.902,-25.391,22.461,0.000
1709375789.602,0.000,-41.016,-27.344,-30.273,0.000
1709375789.606,0.000,-48.340,-29.785,-66.895,0.000
1709375789.610,0.000,-42.480,-35.156,-71.289,0.000
1709375789.614,19.043,-31.738,-41.992,-27.832,0.000
1709375789.618,98.633,-27.344,-37.598,11.230,0.000
1709375789.621,-22.461,-36.133,-36.133,-39.551,0.000
1709375789.625,-117.188,-42.480,-43.945,-87.891,0.000
1709375789.629,-101.074,-41.504,-44.434,-86.914,0.000
1709375789.633,8.789,-40.039,-41.992,-44.434,0.000
1709375789.637,94.727,-37.598,-40.527,5.371,0.000
1709375789.641,-20.508,-39.062,-37.598,-26.367,0.000
1709375789.645,-113.281,-44.434,-34.668,-62.988,0.000
1709375789.649,-104.980,-45.410,-37.109,-57.617,0.000
1709375789.653,-22.461,-37.598,-39.062,-20.996,0.000
1709375789.657,81.543,-24.414,-38.574,16.602,0.000
1709375789.661,-4.883,-30.273,-38.086,-16.602,0.000
1709375789.665,-118.164,-41.504,-35.156,-57.129,0.000
1709375789.669,-117.676,-41.504,-39.062,-60.059,0.000
1709375789.673,-41.016,-34.668,-39.062,-37.598,0.000
1709375789.677,68.359,-28.809,-35.156,6.348,0.000
1709375789.681,12.207,-36.133,-31.738,-2.930,0.000
1709375789.685,-106.934,-38.574,-31.738,-58.105,0.000
1709375789.688,-125.000,-33.203,-37.598,-81.055,0.000
1709375789.692,-54.688,-33.691,-37.109,-50.293,0.000
1709375789.696,76.660,-27.832,-38.086,13.184,0.000
1709375789.700,42.480,-16.602,-34.180,-9.277,0.000
1709375789.704,-87.402,-26.855,-34.668,-73.730,0.000
1709375789.708,-118.652,-34.668,-37.598,-82.031,0.000
1709375789.712,-66.406,-30.273,-40.527,-56.641,0.000
1709375789.716,66.895,-20.996,-36.621,-1.953,0.000
1709375789.720,55.664,-21.484,-34.180,-0.488,0.000
1709375789.724,-86.914,-35.156,-38.086,-51.270,0.000
1709375789.728,-127.441,-42.969,-35.645,-63.965,0.000
1709375789.732,-81.543,-39.551,-36.133,-47.852,0.000
1709375789.736,55.664,-25.879,-35.645,4.395,0.000
1709375789.740,79.102,-30.762,-33.691,20.020,0.000
1709375789.743,-65.918,-37.598,-37.109,-35.156,0.000
1709375789.747,-122.559,-32.715,-39.551,-71.289,0.000
1709375789.751,-88.379,-33.203,-36.621,-58.594,0.000
1709375789.755,34.180,-37.109,-33.203,-0.488,0.000
1709375789.759,77.148,-34.180,-29.785,20.508,0.000
1709375789.763,-62.012,-42.969,-30.273,-42.480,0.000
1709375789.767,-129.883,-49.805,-34.180,-76.660,0.000
1709375789.771,-94.727,-45.410,-33.203,-59.082,0.000
1709375789.775,18.066,-41.504,-29.785,-12.695,0.000
1709375789.779,74.219,-37.598,-29.297,11.230,0.000
1709375789.783,-46.387,-45.898,-30.273,-31.738,0.000
1709375789.787,-117.188,-56.641,-31.250,-54.199,0.000
1709375789.790,-97.656,-43.945,-30.273,-54.688,0.000
1709375789.794,6.348,-34.668,-31.250,-25.879,0.000
1709375789.798,92.773,-35.156,-29.297,17.578,0.000
1709375789.802,-23.438,-41.504,-30.762,-28.320,0.000
1709375789.806,-125.977,-48.340,-33.691,-71.289,0.000
1709375789.810,-108.887,-48.828,-28.809,-67.383,0.000
1709375789.814,-7.812,-44.434,-30.762,-37.109,0.000
1709375789.818,82.520,-38.086,-32.715,5.859,0.000
1709375789.822,-17.578,-47.852,-30.762,-21.973,0.000
1709375789.826,-129.883,-60.059,-34.668,-66.895,0.000
1709375789.830,-122.559,-59.570,-33.691,-69.824,0.000
1709375789.833,-29.297,-46.875,-32.715,-30.273,0.000
1709375789.837,81.543,-30.762,-34.668,12.207,0.000
1709375789.841,1.465,-39.551,-38.086,-17.578,0.000
1709375789.845,-116.211,-49.805,-41.504,-59.570,0.000
1709375789.849,-121.094,-43.945,-42.480,-69.336,0.000
1709375789.853,-49.316,-36.133,-40.039,-39.551,0.000
1709375789.857,74.707,-35.156,-38.086,9.277,0.000
1709375789.861,32.227,-41.992,-39.551,-12.207,0.000
1709375789.865,-95.215,-49.805,-42.969,-65.430,0.000
1709375789.868,-125.000,-51.758,-44.434,-76.660,0.000
1709375789.872,-66.406,-50.781,-44.922,-58.105,0.000
1709375789.876,62.500,-47.852,-47.363,3.906,0.000
1709375789.880,33.203,-41.016,-49.805,-0.977,0.000
1709375789.884,-106.445,-42.969,-47.363,-58.105,0.000
1709375789.888,-141.113,-51.270,-47.363,-76.172,0.000
1709375789.892,-91.309,-46.387,-48.340,-65.918,0.000
1709375789.896,41.016,-34.668,-42.969,-12.207,0.000
1709375789.899,50.781,-36.621,-39.551,-1.953,0.000
1709375789.903,-74.219,-46.875,-41.016,-50.293,0.000
1709375789.907,-118.652,-51.758,-38.574,-70.312,0.000
1709375789.911,-85.449,-46.387,-43.945,-58.594,0.000
1709375789.915,40.039,-37.109,-42.480,-5.859,0.000
1709375789.919,69.336,-40.527,-35.156,17.090,0.000
1709375789.923,-68.848,-53.711,-38.574,-30.762,0.000
1709375789.927,-128.418,-52.246,-38.574,-62.988,0.000
1709375789.931,-99.121,-50.293,-36.133,-56.641,0.000
1709375789.935,22.461,-45.898,-36.621,-8.789,0.000
1709375789.939,73.242,-40.039,-36.133,13.672,0.000
1709375789.942,-59.570,-44.922,-31.738,-37.109,0.000
1709375789.946,-130.859,-49.805,-29.785,-67.383,0.000
1709375789.950,-103.027,-54.688,-35.156,-62.012,0.000
1709375789.954,0.488,-46.875,-37.109,-27.344,0.000
1709375789.958,76.172,-36.133,-30.762,3.418,0.000
1709375789.962,-42.969,-48.828,-32.715,-38.086,0.000
1709375789.965,-138.184,-55.664,-33.203,-68.848,0.000
1709375789.969,-121.582,-41.504,-32.715,-65.430,0.000
1709375789.973,-5.859,-28.809,-33.691,-28.320,0.000
1709375789.977,94.238,-29.785,-33.691,16.113,0.000
1709375789.981,-10.254,-41.016,-34.668,-23.438,0.000
1709375789.985,-114.746,-45.898,-36.133,-66.895,0.000
1709375789.989,-115.234,-48.828,-37.598,-71.777,0.000
1709375789.993,-26.855,-44.434,-37.598,-37.109,0.000
1709375789.997,82.520,-33.691,-36.621,12.207,0.000
1709375790.001,-0.977,-39.551,-39.062,-26.367,0.000
1709375790.005,-112.793,-47.852,-35.156,-75.195,0.000
1709375790.009,-119.629,-50.293,-35.645,-73.242,0.000
1709375790.013,-45.898,-45.410,-40.039,-43.457,0.000
1709375790.017,73.730,-36.621,-39.551,0.000,0.000
1709375790.021,12.207,-42.969,-39.062,-16.602,0.000
1709375790.024,-114.258,-51.270,-35.645,-54.688,0.000
1709375790.028,-132.812,-51.758,-33.203,-65.430,0.000
1709375790.032,-64.453,-46.875,-30.762,-47.363,0.000
1709375790.037,65.918,-40.527,-34.180,4.395,0.000
1709375790.041,31.250,-46.387,-41.016,0.000,0.000
1709375790.044,-103.027,-54.688,-44.434,-55.176,0.000
1709375790.048,-136.230,-54.199,-46.875,-76.660,0.000
1709375790.052,-71.289,-52.246,-44.922,-55.664,0.000
1709375790.056,56.152,-45.898,-36.621,6.348,0.000
1709375790.060,46.875,-37.598,-35.156,14.648,0.000
1709375790.064,-84.961,-46.387,-43.457,-49.805,0.000
1709375790.068,-122.559,-56.152,-41.504,-68.359,0.000
1709375790.072,-80.078,-52.246,-37.109,-41.504,0.000
1709375790.076,43.457,-36.133,-39.551,2.441,0.000
1709375790.080,76.172,-28.809,-36.133,8.789,0.000
1709375790.084,-62.988,-40.527,-36.133,-45.898,0.000
1709375790.088,-130.859,-50.781,-42.969,-78.125,0.000
1709375790.092,-88.867,-47.363,-45.410,-71.289,0.000
1709375790.096,40.527,-33.203,-41.016,-18.066,0.000
1709375790.099,85.449,-35.645,-44.922,4.395,0.000
1709375790.103,-51.758,-47.363,-46.875,-45.898,0.000
1709375790.107,-124.023,-43.945,-42.480,-73.242,0.000
1709375790.111,-97.168,-41.992,-41.504,-63.477,0.000
1709375790.115,22.949,-40.527,-40.039,-8.301,0.000
1709375790.119,87.402,-29.785,-37.109,29.297,0.000
1709375790.123,-41.016,-31.250,-41.992,-27.832,0.000
1709375790.127,-124.023,-46.875,-42.480,-69.824,0.000
1709375790.131,-113.281,-45.898,-35.156,-60.059,0.000
1709375790.135,-16.113,-32.227,-33.691,-21.973,0.000
1709375790.139,75.684,-25.879,-32.715,7.324,0.000
1709375790.143,-29.297,-41.504,-33.691,-29.297,0.000
1709375790.147,-132.812,-57.129,-37.598,-65.430,0.000
1709375790.150,-127.930,-55.176,-42.969,-73.242,0.000
1709375790.154,-33.691,-41.504,-41.504,-40.527,0.000
1709375790.158,71.289,-38.086,-39.551,9.766,0.000
1709375790.162,-11.230,-56.152,-38.574,-10.254,0.000
1709375790.166,-115.234,-50.293,-35.156,-55.664,0.000
1709375790.170,-113.770,-44.434,-34.180,-64.453,0.000
1709375790.174,-28.320,-46.387,-34.668,-36.621,0.000
1709375790.178,93.262,-36.621,-34.668,9.277,0.000
1709375790.182,33.203,-36.133,-36.621,-12.207,0.000
1709375790.186,-87.891,-39.551,-34.668,-56.641,0.000
1709375790.190,-98.145,-40.039,-34.668,-56.641,0.000
1709375790.193,-25.391,-34.668,-36.133,-33.691,0.000
1709375790.197,91.309,-31.738,-35.156,12.207,0.000
1709375790.201,38.086,-39.062,-37.598,-1.953,0.000
1709375790.205,-96.680,-51.270,-41.016,-50.781,0.000
1709375790.209,-128.418,-52.246,-40.527,-62.012,0.000
1709375790.213,-74.707,-38.574,-41.504,-55.176,0.000
1709375790.217,51.758,-35.156,-41.504,-3.418,0.000
1709375790.221,38.086,-37.109,-37.109,0.977,0.000
1709375790.225,-100.586,-40.527,-36.621,-57.617,0.000
1709375790.229,-145.996,-42.969,-38.574,-83.984,0.000
1709375790.232,-98.145,-42.969,-36.621,-66.895,0.000
1709375790.236,30.273,-40.527,-34.180,-12.695,0.000
1709375790.240,43.457,-40.039,-35.156,-3.906,0.000
1709375790.244,-89.844,-49.316,-36.133,-57.129,0.000
1709375790.248,-141.113,-52.246,-40.039,-83.008,0.000
1709375790.252,-101.074,-54.199,-44.434,-61.523,0.000
1709375790.256,27.832,-39.062,-44.434,-8.301,0.000
1709375790.260,65.918,-31.250,-45.410,-1.953,0.000
1709375790.264,-65.430,-41.992,-46.387,-56.641,0.000
1709375790.268,-124.512,-48.340,-40.039,-80.566,0.000
1709375790.271,-90.332,-43.457,-35.156,-66.406,0.000
1709375790.275,32.715,-34.180,-38.086,-18.066,0.000
1709375790.279,97.168,-30.273,-38.086,13.672,0.000
1709375790.283,-29.297,-36.133,-34.180,-33.203,0.000
1709375790.287,-116.699,-43.945,-36.621,-71.289,0.000
1709375790.291,-97.656,-45.898,-35.156,-74.707,0.000
1709375790.295,11.719,-40.527,-33.691,-29.785,0.000
1709375790.299,80.566,-41.504,-37.598,12.695,0.000
1709375790.302,-36.133,-43.457,-38.086,-37.109,0.000
1709375790.306,-129.395,-47.852,-40.527,-78.613,0.000
1709375790.310,-118.164,-48.828,-39.551,-73.242,0.000
1709375790.314,-16.602,-41.016,-35.156,-33.691,0.000
1709375790.318,83.008,-34.668,-36.133,4.395,0.000
1709375790.322,-22.461,-44.434,-39.062,-29.297,0.000
1709375790.325,-137.695,-56.641,-37.109,-67.871,0.000
1709375790.329,-129.395,-54.199,-32.227,-66.406,0.000
1709375790.333,-46.875,-43.945,-30.762,-38.086,0.000
1709375790.337,58.105,-41.504,-31.738,6.348,0.000
1709375790.341,-7.812,-54.199,-33.691,-7.324,0.000
1709375790.345,-125.000,-55.664,-33.203,-59.570,0.000
1709375790.349,-132.812,-48.340,-37.109,-69.336,0.000
1709375790.353,-52.246,-45.410,-39.062,-39.551,0.000
1709375790.357,72.754,-34.180,-31.738,3.418,0.000
1709375790.361,21.973,-33.691,-31.250,-11.230,0.000
1709375790.364,-103.027,-43.945,-33.203,-57.129,0.000
1709375790.368,-123.535,-48.340,-36.133,-71.777,0.000
1709375790.372,-61.035,-45.410,-39.551,-53.223,0.000
1709375790.376,67.383,-30.762,-32.715,6.836,0.000
1709375790.380,45.898,-28.320,-31.250,-4.395,0.000
1709375790.384,-91.797,-43.945,-42.480,-62.988,0.000
1709375790.387,-129.883,-41.504,-43.457,-65.430,0.000
1709375790.391,-75.195,-36.133,-41.504,-51.758,0.000
1709375790.395,68.848,-29.297,-42.969,-3.418,0.000
1709375790.399,76.172,-24.414,-38.086,6.836,0.000
1709375790.403,-62.988,-34.180,-39.062,-54.688,0.000
1709375790.407,-104.980,-39.062,-41.504,-78.125,0.000
1709375790.411,-67.383,-41.504,-39.551,-58.594,0.000
1709375790.415,52.246,-39.551,-40.527,-1.465,0.000
1709375790.419,73.242,-33.691,-37.598,14.648,0.000
1709375790.423,-69.336,-41.016,-38.086,-39.062,0.000
1709375790.427,-128.906,-50.781,-41.992,-63.965,0.000
1709375790.431,-96.191,-50.781,-36.133,-45.898,0.000
1709375790.435,24.902,-36.621,-32.715,-1.465,0.000
1709375790.439,77.637,-25.879,-37.598,7.324,0.000
1709375790.443,-48.340,-39.551,-39.062,-38.086,0.000
1709375790.447,-117.676,-48.828,-37.109,-53.711,0.000
1709375790.450,-97.168,-38.574,-38.574,-59.082,0.000
1709375790.454,20.020,-29.785,-38.086,-15.625,0.000
1709375790.459,95.215,-27.344,-38.086,20.996,0.000
1709375790.463,-23.438,-36.621,-39.062,-31.738,0.000
1709375790.466,-113.770,-39.062,-35.156,-64.941,0.000
1709375790.470,-103.516,-37.598,-27.344,-50.293,0.000
1709375790.474,-3.418,-38.574,-25.391,-16.113,0.000
1709375790.478,89.844,-36.133,-23.926,20.020,0.000
1709375790.482,-10.254,-41.504,-23.926,-10.254,0.000
1709375790.486,-116.699,-49.316,-26.855,-57.129,0.000
1709375790.490,-116.211,-51.758,-22.949,-55.176,0.000
1709375790.494,-23.926,-41.504,-20.508,-14.648,0.000
1709375790.498,82.520,-25.879,-21.973,18.555,0.000
1709375790.502,-1.465,-35.645,-27.344,-19.043,0.000
1709375790.506,-115.723,-44.922,-30.273,-68.848,0.000
1709375790.510,-127.441,-44.434,-34.668,-77.148,0.000
1709375790.513,-47.852,-43.945,-33.203,-43.945,0.000
1709375790.517,76.172,-38.086,-27.344,6.836,0.000
1709375790.521,18.555,-42.969,-31.738,-18.066,0.000
1709375790.525,-108.887,-47.852,-34.668,-61.035,0.000
1709375790.529,-123.047,-42.480,-28.809,-66.406,0.000
1709375790.533,-61.035,-45.410,-32.715,-51.758,0.000
1709375790.537,66.895,-48.340,-37.598,12.207,0.000
1709375790.541,35.156,-41.016,-35.645,10.742,0.000
1709375790.545,-93.750,-35.156,-35.156,-47.852,0.000
1709375790.549,-116.211,-39.551,-37.598,-66.406,0.000
1709375790.553,-61.523,-42.480,-37.598,-54.199,0.000
1709375790.556,73.730,-32.715,-38.086,0.977,0.000
1709375790.560,64.453,-36.621,-44.434,2.441,0.000
1709375790.564,-80.078,-51.270,-41.992,-47.852,0.000
1709375790.568,-124.512,-48.828,-35.156,-64.941,0.000
1709375790.572,-75.195,-44.434,-36.621,-49.316,0.000
1709375790.576,51.758,-38.086,-40.527,-0.977,0.000
1709375790.580,64.453,-37.598,-39.551,13.672,0.000
1709375790.584,-73.730,-45.898,-34.180,-34.668,0.000
1709375790.588,-133.789,-42.969,-35.645,-73.242,0.000
1709375790.592,-99.121,-43.457,-42.480,-66.406,0.000
1709375790.595,23.438,-41.016,-47.363,-16.113,0.000
1709375790.599,65.918,-36.133,-45.898,2.930,0.000
1709375790.603,-65.918,-41.504,-42.969,-53.223,0.000
1709375790.607,-141.602,-49.805,-45.410,-89.844,0.000
1709375790.611,-106.445,-47.852,-42.969,-76.660,0.000
1709375790.615,12.695,-37.598,-36.621,-27.344,0.000
1709375790.619,70.312,-40.039,-35.645,0.977,0.000
1709375790.623,-51.270,-50.293,-41.992,-42.969,0.000
1709375790.627,-134.766,-54.199,-44.922,-65.918,0.000
1709375790.630,-106.445,-42.969,-42.480,-60.547,0.000
1709375790.634,8.789,-26.855,-43.945,-29.297,0.000
1709375790.638,91.797,-31.250,-46.875,4.883,0.000
1709375790.642,-14.648,-44.922,-47.363,-41.504,0.000
1709375790.646,-108.887,-46.875,-41.504,-84.473,0.000
1709375790.650,-108.887,-41.504,-35.645,-80.566,0.000
1709375790.654,-20.996,-36.621,-38.086,-43.457,0.000
1709375790.658,85.938,-26.855,-36.621,-0.977,0.000
1709375790.661,-1.465,-29.297,-34.668,-28.320,0.000
1709375790.665,-117.676,-43.945,-34.668,-78.125,0.000
1709375790.669,-123.047,-49.316,-35.645,-79.102,0.000
1709375790.673,-48.340,-50.293,-39.551,-44.922,0.000
1709375790.677,67.383,-36.621,-37.598,-8.301,0.000
1709375790.681,3.418,-30.762,-33.691,-28.809,0.000
1709375790.685,-123.535,-41.992,-34.668,-80.078,0.000
1709375790.689,-139.648,-44.922,-39.062,-88.867,0.000
1709375790.692,-77.637,-45.898,-41.504,-60.059,0.000
1709375790.696,46.387,-45.410,-38.574,-10.742,0.000
1709375790.700,12.207,-48.828,-38.086,-20.020,0.000
1709375790.704,-116.211,-48.340,-36.133,-66.406,0.000
1709375790.708,-146.973,-48.828,-31.738,-86.426,0.000
1709375790.712,-83.008,-52.734,-34.180,-67.871,0.000
1709375790.716,49.316,-50.293,-34.668,-2.441,0.000
1709375790.720,24.902,-41.992,-32.715,-3.906,0.000
1709375790.724,-114.258,-45.898,-34.668,-66.406,0.000
1709375790.728,-150.391,-56.152,-35.156,-83.008,0.000
1709375790.731,-101.562,-56.641,-31.250,-68.359,0.000
1709375790.735,26.367,-44.434,-26.855,-20.508,0.000
1709375790.741,37.598,-46.387,-26.367,-13.184,0.000
1709375790.745,-105.957,-62.012,-26.855,-67.871,0.000
1709375790.748,-171.875,-66.895,-23.438,-99.609,0.000
1709375790.752,-149.902,-73.242,-20.996,-98.145,0.000
1709375790.756,-24.414,-71.777,-21.484,-53.223,0.000
1709375790.760,17.578,-73.730,-16.113,-30.762,0.000
1709375790.764,-120.605,-79.102,-11.719,-82.520,0.000
1709375790.768,-199.707,-81.055,-7.324,-131.836,0.000
1709375790.772,-177.734,-83.008,-8.301,-137.207,0.000
1709375790.776,-67.871,-74.219,-8.789,-100.586,0.000
1709375790.780,-11.719,-71.777,-9.277,-79.590,0.000
1709375790.784,-138.672,-78.613,-12.695,-125.000,0.000
1709375790.788,-230.469,-88.867,-11.719,-155.762,0.000
1709375790.792,-204.590,-91.797,-15.137,-137.695,0.000
1709375790.796,-80.078,-77.148,-13.184,-85.938,0.000
1709375790.800,3.906,-66.406,-13.184,-58.594,0.000
1709375790.803,-100.098,-72.266,-19.531,-95.703,0.000
1709375790.807,-177.246,-83.496,-20.020,-118.652,0.000
1709375790.811,-157.227,-79.102,-20.996,-107.422,0.000
1709375790.815,-46.875,-60.547,-22.461,-54.199,0.000
1709375790.819,67.383,-49.316,-26.855,0.977,0.000
1709375790.823,-16.602,-56.152,-25.879,-30.273,0.000
1709375790.827,-127.441,-60.059,-21.973,-67.383,0.000
1709375790.831,-130.859,-56.152,-25.391,-66.406,0.000
1709375790.835,-40.527,-49.805,-30.273,-32.715,0.000
1709375790.839,77.637,-42.969,-32.715,19.531,0.000
1709375790.843,16.602,-40.527,-33.691,-5.371,0.000
1709375790.847,-97.168,-38.574,-37.109,-56.152,0.000
1709375790.850,-113.770,-41.504,-41.504,-64.453,0.000
1709375790.854,-38.086,-42.480,-45.410,-33.203,0.000
1709375790.858,83.008,-34.180,-44.434,21.484,0.000
1709375790.862,31.250,-33.203,-40.527,11.719,0.000
1709375790.866,-94.727,-46.875,-46.387,-41.504,0.000
1709375790.870,-108.887,-50.781,-52.246,-44.434,0.000
1709375790.874,-37.109,-37.598,-47.852,-27.344,0.000
1709375790.878,98.145,-24.414,-45.898,20.020,0.000
1709375790.882,77.637,-27.832,-44.434,15.625,0.000
1709375790.886,-52.246,-31.250,-42.969,-31.738,0.000
1709375790.890,-86.426,-29.297,-46.875,-46.875,0.000
1709375790.893,-38.574,-33.203,-49.805,-31.738,0.000
1709375790.897,95.215,-31.738,-45.898,27.832,0.000
1709375790.901,97.656,-29.785,-43.945,34.668,0.000
1709375790.905,-45.898,-35.156,-49.316,-24.902,0.000
1709375790.909,-103.027,-43.457,-48.340,-45.410,0.000
1709375790.913,-66.406,-53.711,-51.270,-19.531,0.000
1709375790.917,62.500,-38.086,-50.293,26.367,0.000
1709375790.921,89.355,-32.715,-41.992,30.762,0.000
1709375790.925,-45.410,-47.852,-34.668,-18.066,0.000
1709375790.929,-104.492,-51.270,-29.297,-38.086,0.000
1709375790.932,-65.918,-43.457,-31.250,-27.832,0.000
1709375790.936,51.758,-32.715,-31.738,15.625,0.000
1709375790.940,99.121,-28.809,-25.391,42.480,0.000
1709375790.944,-30.762,-32.227,-33.203,-5.859,0.000
1709375790.948,-105.469,-40.527,-37.109,-36.133,0.000
1709375790.952,-85.449,-40.039,-33.691,-35.645,0.000
1709375790.956,29.297,-28.809,-35.156,8.301,0.000
1709375790.960,108.887,-20.508,-33.203,48.340,0.000
1709375790.964,-9.766,-23.438,-37.598,-5.371,0.000
1709375790.968,-98.145,-31.250,-43.457,-47.852,0.000
1709375790.971,-85.449,-34.668,-39.551,-47.852,0.000
1709375790.975,16.113,-23.926,-37.598,-9.766,0.000
1709375790.979,109.863,-14.648,-41.016,32.715,0.000
1709375790.983,8.789,-29.297,-42.480,-10.742,0.000
1709375790.987,-96.191,-45.898,-44.922,-59.570,0.000
1709375790.991,-93.750,-42.969,-44.922,-54.688,0.000
1709375790.995,-6.836,-38.574,-40.527,-17.578,0.000
1709375790.999,97.168,-36.621,-35.156,21.973,0.000
1709375791.003,8.301,-47.363,-36.133,-2.930,0.000
1709375791.006,-112.793,-50.293,-36.621,-53.223,0.000
1709375791.010,-125.488,-50.293,-35.156,-61.523,0.000
1709375791.014,-49.805,-51.758,-37.598,-29.297,0.000
1709375791.018,77.637,-44.922,-36.133,25.879,0.000
1709375791.022,24.902,-46.387,-30.762,15.137,0.000
1709375791.026,-96.680,-52.734,-33.203,-40.527,0.000
1709375791.030,-112.305,-55.664,-31.738,-49.805,0.000
1709375791.033,-46.875,-47.363,-25.391,-17.578,0.000
1709375791.037,79.590,-36.133,-26.855,30.273,0.000
1709375791.041,47.852,-38.086,-34.668,14.648,0.000
1709375791.045,-90.820,-53.711,-36.621,-33.203,0.000
1709375791.049,-121.582,-58.594,-35.645,-44.434,0.000
1709375791.053,-55.176,-43.457,-39.062,-41.504,0.000
1709375791.057,79.590,-27.344,-41.016,-0.488,0.000
1709375791.061,67.383,-26.367,-38.574,2.441,0.000
1709375791.065,-72.266,-36.133,-42.969,-54.199,0.000
1709375791.068,-120.117,-39.551,-52.734,-83.496,0.000
1709375791.072,-75.195,-36.133,-51.270,-65.918,0.000
1709375791.076,58.105,-28.320,-50.781,-11.230,0.000
1709375791.080,78.125,-24.414,-48.828,-4.395,0.000
1709375791.084,-54.199,-29.785,-49.805,-57.617,0.000
1709375791.088,-111.816,-37.109,-53.223,-82.520,0.000
1709375791.092,-79.102,-37.109,-56.641,-67.871,0.000
1709375791.095,47.852,-18.555,-52.734,-20.020,0.000
1709375791.099,91.797,-13.184,-46.875,0.977,0.000
1709375791.103,-45.898,-27.832,-47.363,-50.781,0.000
1709375791.107,-117.188,-31.738,-48.340,-78.125,0.000
1709375791.111,-95.703,-30.273,-52.734,-68.359,0.000
1709375791.114,18.066,-24.414,-51.270,-22.461,0.000
1709375791.118,87.402,-24.414,-50.293,9.766,0.000
1709375791.122,-39.062,-34.180,-51.270,-35.156,0.000
1709375791.126,-122.559,-36.133,-52.246,-63.965,0.000
1709375791.130,-104.004,-41.992,-56.641,-65.430,0.000
1709375791.134,-0.977,-41.016,-53.711,-24.414,0.000
1709375791.138,80.078,-30.273,-54.688,16.602,0.000
1709375791.142,-34.668,-34.668,-57.129,-32.227,0.000
1709375791.146,-130.859,-41.504,-53.711,-73.242,0.000
1709375791.150,-126.465,-37.598,-57.129,-72.266,0.000
1709375791.153,-31.250,-30.762,-58.105,-44.922,0.000
1709375791.157,75.195,-22.949,-55.176,-6.836,0.000
1709375791.162,-9.277,-24.414,-50.293,-29.785,0.000
1709375791.166,-111.328,-30.762,-47.363,-61.035,0.000
1709375791.170,-115.723,-26.855,-44.922,-63.965,0.000
1709375791.173,-28.320,-23.438,-42.480,-35.156,0.000
1709375791.177,92.773,-22.949,-44.434,17.090,0.000
1709375791.181,20.508,-34.668,-47.852,-7.324,0.000
1709375791.185,-103.027,-42.480,-44.434,-63.965,0.000
1709375791.189,-117.676,-41.992,-42.480,-76.660,0.000
1709375791.193,-45.410,-39.062,-39.551,-50.781,0.000
1709375791.197,83.984,-36.133,-36.133,13.672,0.000
1709375791.201,26.855,-36.133,-31.738,-0.977,0.000
1709375791.205,-107.910,-43.457,-26.367,-55.176,0.000
1709375791.209,-125.977,-49.316,-25.391,-62.012,0.000
1709375791.213,-68.359,-44.434,-22.949,-43.457,0.000
1709375791.217,55.664,-35.645,-25.879,3.906,0.000
1709375791.221,38.574,-32.715,-29.297,7.324,0.000
1709375791.225,-89.355,-41.016,-30.273,-45.898,0.000
1709375791.228,-127.930,-51.270,-32.227,-72.754,0.000
1709375791.232,-86.914,-45.898,-37.598,-64.941,0.000
1709375791.236,43.945,-32.227,-41.992,-5.371,0.000
1709375791.240,61.035,-34.668,-41.992,15.625,0.000
1709375791.244,-79.590,-44.922,-42.969,-48.828,0.000
1709375791.248,-140.137,-41.504,-41.016,-88.379,0.000
1709375791.252,-98.145,-42.480,-41.016,-75.684,0.000
1709375791.256,39.551,-39.062,-38.086,-13.184,0.000
1709375791.260,79.102,-36.621,-35.156,14.648,0.000
1709375791.264,-62.988,-41.504,-42.480,-40.039,0.000
1709375791.268,-126.953,-46.875,-43.945,-71.289,0.000
1709375791.272,-83.008,-49.316,-38.574,-54.688,0.000
1709375791.275,31.738,-40.527,-33.203,1.953,0.000
1709375791.279,80.566,-30.273,-30.273,28.320,0.000
1709375791.283,-43.945,-36.133,-30.762,-19.043,0.000
1709375791.287,-121.582,-52.246,-34.180,-44.922,0.000
1709375791.291,-102.539,-41.992,-35.156,-47.852,0.000
1709375791.295,10.254,-23.926,-32.227,-15.625,0.000
1709375791.299,90.332,-21.484,-31.250,22.949,0.000
1709375791.303,-32.227,-31.250,-31.250,-18.066,0.000
1709375791.307,-132.324,-36.133,-26.855,-62.500,0.000
1709375791.311,-116.699,-36.133,-25.879,-61.035,0.000
1709375791.315,-10.254,-34.180,-26.855,-21.973,0.000
1709375791.318,87.891,-26.855,-26.855,14.648,0.000
1709375791.322,-6.348,-34.180,-29.297,-20.508,0.000
1709375791.326,-112.305,-37.598,-30.273,-66.895,0.000
1709375791.330,-113.770,-40.527,-32.715,-70.312,0.000
1709375791.334,-22.949,-38.086,-31.250,-29.297,0.000
1709375791.338,83.496,-19.531,-25.879,9.766,0.000
1709375791.342,3.418,-33.203,-29.297,-29.297,0.000
1709375791.346,-109.375,-52.734,-27.832,-75.195,0.000
1709375791.349,-120.117,-45.410,-23.438,-75.684,0.000
1709375791.353,-53.711,-41.504,-27.344,-52.246,0.000
1709375791.357,68.848,-38.574,-28.320,-5.859,0.000
1709375791.361,26.367,-38.574,-23.926,-15.137,0.000
1709375791.365,-105.469,-47.852,-24.902,-67.871,0.000
1709375791.369,-135.742,-52.734,-27.344,-78.125,0.000
1709375791.373,-76.172,-54.199,-34.180,-51.270,0.000
1709375791.377,62.988,-49.805,-33.691,16.113,0.000
1709375791.381,40.039,-44.922,-29.297,14.160,0.000
1709375791.385,-100.586,-53.711,-32.227,-55.176,0.000
1709375791.389,-130.859,-56.641,-33.691,-69.824,0.000
1709375791.392,-77.637,-45.898,-30.273,-46.387,0.000
1709375791.396,59.570,-31.250,-20.020,15.625,0.000
1709375791.400,60.059,-28.809,-22.461,20.996,0.000
1709375791.404,-83.984,-39.551,-33.691,-41.992,0.000
1709375791.408,-134.277,-42.969,-35.156,-66.406,0.000
1709375791.412,-87.402,-43.945,-35.156,-62.500,0.000
1709375791.416,51.758,-41.016,-34.668,-13.672,0.000
1709375791.419,81.055,-41.992,-38.086,12.207,0.000
1709375791.423,-64.453,-52.734,-41.992,-38.574,0.000
1709375791.427,-124.023,-50.781,-37.598,-75.195,0.000
1709375791.431,-90.820,-45.410,-34.668,-69.336,0.000
1709375791.435,29.297,-42.480,-38.086,-15.137,0.000
1709375791.439,78.125,-41.016,-35.156,4.395,0.000
1709375791.443,-49.316,-47.363,-35.156,-49.805,0.000
1709375791.446,-115.723,-46.387,-37.109,-75.684,0.000
1709375791.450,-105.957,-53.223,-40.039,-81.543,0.000
1709375791.454,-3.418,-48.340,-45.898,-60.059,0.000
1709375791.458,71.777,-40.039,-47.852,-26.855,0.000
1709375791.462,-51.758,-52.734,-46.387,-60.059,0.000
1709375791.466,-146.973,-64.453,-44.434,-87.891,0.000
1709375791.470,-131.836,-54.688,-38.086,-80.078,0.000
1709375791.474,-31.250,-42.480,-34.180,-44.434,0.000
1709375791.478,65.918,-43.945,-34.668,0.488,0.000
1709375791.482,-37.109,-46.875,-32.227,-28.320,0.000
1709375791.486,-140.137,-50.293,-31.250,-66.895,0.000
1709375791.489,-128.906,-52.734,-32.227,-65.918,0.000
1709375791.493,-35.645,-43.945,-30.762,-27.832,0.000
1709375791.497,69.336,-32.715,-28.320,21.484,0.000
1709375791.501,-14.648,-38.574,-27.832,-7.324,0.000
1709375791.505,-127.441,-41.504,-25.391,-59.082,0.000
1709375791.508,-125.488,-47.363,-27.344,-61.035,0.000
1709375791.512,-41.504,-47.363,-33.691,-23.438,0.000
1709375791.516,76.660,-38.086,-30.273,20.508,0.000
1709375791.520,14.160,-43.457,-26.855,-7.324,0.000
1709375791.524,-110.352,-53.223,-32.715,-57.129,0.000
1709375791.528,-125.488,-55.664,-35.645,-66.406,0.000
1709375791.532,-56.641,-48.828,-36.133,-49.805,0.000
1709375791.536,76.172,-38.086,-37.598,-2.441,0.000
1709375791.540,46.387,-34.668,-38.574,-6.836,0.000
1709375791.544,-83.496,-36.133,-35.645,-56.152,0.000
1709375791.548,-113.281,-39.062,-39.551,-80.078,0.000
1709375791.552,-59.570,-38.574,-43.457,-60.547,0.000
1709375791.556,71.289,-31.738,-41.992,-2.441,0.000
1709375791.560,52.734,-34.180,-44.922,-5.859,0.000
1709375791.564,-89.844,-37.109,-42.480,-61.035,0.000
1709375791.568,-132.324,-39.551,-39.062,-81.543,0.000
1709375791.571,-86.914,-46.875,-39.062,-57.617,0.000
1709375791.575,41.504,-33.691,-37.109,-2.930,0.000
1709375791.579,52.734,-34.668,-36.133,-2.930,0.000
1709375791.584,-79.102,-49.805,-36.133,-49.805,0.000
1709375791.587,-136.230,-48.340,-37.598,-75.684,0.000
1709375791.591,-104.980,-43.457,-37.109,-56.641,0.000
1709375791.595,26.367,-38.086,-34.180,7.324,0.000
1709375791.599,75.684,-35.645,-32.227,18.555,0.000
1709375791.603,-49.805,-44.922,-33.203,-32.227,0.000
1709375791.607,-113.281,-45.898,-32.715,-50.293,0.000
1709375791.611,-90.332,-42.480,-32.715,-49.316,0.000
1709375791.615,20.020,-43.945,-34.180,-9.766,0.000
1709375791.619,81.543,-40.039,-38.574,25.879,0.000
1709375791.623,-48.828,-36.133,-41.504,-31.738,0.000
1709375791.627,-133.789,-40.039,-37.598,-68.359,0.000
1709375791.631,-115.723,-44.434,-36.621,-59.570,0.000
1709375791.634,-10.254,-36.621,-39.551,-27.832,0.000
1709375791.638,72.266,-31.250,-42.480,3.906,0.000
1709375791.642,-38.574,-41.504,-42.480,-28.809,0.000
1709375791.646,-127.441,-46.875,-38.574,-62.500,0.000
1709375791.650,-111.328,-47.363,-37.598,-60.547,0.000
1709375791.654,-20.508,-40.527,-35.645,-30.273,0.000
1709375791.658,80.566,-29.297,-30.762,9.277,0.000
1709375791.662,-7.812,-43.457,-29.785,-11.230,0.000
1709375791.666,-122.070,-43.457,-31.738,-52.734,0.000
1709375791.670,-131.348,-42.969,-39.062,-73.730,0.000
1709375791.674,-48.340,-44.922,-38.574,-51.270,0.000
1709375791.677,81.055,-29.785,-35.156,8.789,0.000
1709375791.681,19.531,-25.879,-37.598,-12.695,0.000
1709375791.685,-102.051,-39.062,-37.598,-67.383,0.000
1709375791.689,-107.422,-44.434,-35.645,-72.266,0.000
1709375791.693,-33.203,-31.250,-35.645,-43.457,0.000
1709375791.697,90.820,-23.926,-32.715,17.090,0.000
1709375791.701,46.875,-24.902,-28.320,6.348,0.000
1709375791.705,-91.797,-37.598,-27.832,-43.457,0.000
1709375791.709,-118.164,-44.434,-26.855,-48.828,0.000
1709375791.713,-59.570,-31.738,-30.762,-41.016,0.000
1709375791.717,57.129,-26.367,-34.668,-1.465,0.000
1709375791.720,38.086,-33.203,-36.133,-7.324,0.000
1709375791.724,-94.238,-39.551,-37.598,-63.477,0.000
1709375791.728,-131.348,-36.621,-35.645,-79.590,0.000
1709375791.732,-86.426,-31.738,-38.574,-62.500,0.000
1709375791.736,42.480,-26.367,-43.457,-11.719,0.000
1709375791.740,48.340,-25.879,-42.969,-6.348,0.000
1709375791.744,-84.473,-40.039,-40.527,-54.688,0.000
1709375791.748,-125.488,-43.457,-37.109,-73.730,0.000
1709375791.752,-87.891,-43.945,-36.621,-53.223,0.000
1709375791.755,38.086,-32.715,-41.504,-1.465,0.000
1709375791.759,75.684,-25.879,-36.621,7.812,0.000
1709375791.763,-57.617,-44.434,-37.598,-47.363,0.000
1709375791.767,-128.418,-52.246,-42.480,-79.590,0.000
1709375791.771,-96.680,-42.969,-39.551,-70.801,0.000
1709375791.775,30.762,-30.762,-34.180,-19.531,0.000
1709375791.779,91.309,-28.809,-28.320,11.719,0.000
1709375791.783,-32.227,-41.992,-30.273,-31.738,0.000
1709375791.786,-107.422,-43.945,-35.156,-63.477,0.000
1709375791.790,-89.844,-38.574,-33.691,-58.105,0.000
1709375791.794,12.207,-34.668,-30.762,-17.578,0.000
1709375791.798,81.055,-39.062,-34.180,18.555,0.000
1709375791.802,-34.668,-44.922,-39.551,-33.203,0.000
1709375791.806,-118.652,-47.363,-41.504,-76.172,0.000
1709375791.810,-115.723,-50.781,-38.086,-72.754,0.000
1709375791.814,-27.832,-41.504,-37.109,-35.645,0.000
1709375791.817,67.871,-34.668,-37.598,1.953,0.000
1709375791.821,-32.715,-42.969,-41.504,-34.668,0.000
1709375791.825,-140.625,-54.199,-44.434,-81.055,0.000
1709375791.829,-132.812,-51.270,-34.180,-82.520,0.000
1709375791.833,-47.363,-44.434,-31.738,-50.293,0.000
1709375791.837,64.941,-41.504,-33.203,-6.348,0.000
1709375791.841,-2.930,-51.758,-31.250,-22.461,0.000
1709375791.845,-125.488,-49.805,-33.691,-63.477,0.000
1709375791.849,-138.672,-40.527,-31.738,-73.730,0.000
1709375791.853,-58.105,-38.574,-27.344,-45.898,0.000
1709375791.857,62.012,-31.738,-29.297,7.324,0.000
1709375791.860,10.254,-31.250,-28.320,-7.812,0.000
1709375791.864,-111.816,-37.598,-28.320,-60.547,0.000
1709375791.868,-131.836,-44.434,-29.785,-77.637,0.000
1709375791.872,-64.941,-40.527,-29.297,-57.129,0.000
1709375791.876,66.895,-30.273,-28.809,-4.883,0.000
1709375791.879,41.016,-31.250,-27.344,-9.766,0.000
1709375791.883,-91.797,-46.875,-27.832,-48.828,0.000
1709375791.887,-123.047,-50.293,-25.391,-57.617,0.000
1709375791.891,-72.266,-39.062,-28.320,-53.711,0.000
1709375791.895,59.570,-29.297,-29.297,-3.906,0.000
1709375791.899,61.523,-31.738,-27.344,1.465,0.000
1709375791.903,-76.172,-42.480,-34.668,-51.758,0.000
1709375791.907,-124.512,-47.852,-38.086,-73.242,0.000
1709375791.911,-80.566,-42.480,-36.621,-67.383,0.000
1709375791.915,49.805,-34.180,-37.109,-15.625,0.000
1709375791.919,69.336,-29.785,-38.086,4.395,0.000
1709375791.923,-73.730,-37.598,-41.016,-47.852,0.000
1709375791.927,-136.230,-44.922,-41.016,-74.219,0.000
1709375791.931,-104.492,-51.270,-42.969,-67.871,0.000
1709375791.935,19.531,-40.527,-45.410,-24.414,0.000
1709375791.939,71.777,-31.250,-42.480,-3.418,0.000
1709375791.942,-62.500,-47.852,-45.410,-53.223,0.000
1709375791.946,-142.578,-57.129,-44.434,-75.684,0.000
1709375791.950,-114.746,-41.016,-42.480,-68.359,0.000
1709375791.954,3.906,-34.668,-43.945,-23.438,0.000
1709375791.958,78.125,-37.598,-40.527,14.648,0.000
1709375791.962,-39.062,-38.574,-41.016,-25.391,0.000
1709375791.966,-126.953,-43.457,-39.062,-66.406,0.000
1709375791.970,-112.305,-49.316,-41.016,-66.406,0.000
1709375791.974,-10.742,-44.922,-44.434,-23.438,0.000
1709375791.978,76.172,-40.527,-42.480,20.020,0.000
1709375791.982,-25.879,-44.434,-43.945,-16.602,0.000
1709375791.986,-123.535,-51.758,-47.852,-71.289,0.000
1709375791.990,-111.816,-54.199,-44.434,-71.777,0.000
1709375791.994,-19.043,-41.504,-38.086,-29.785,0.000
1709375791.998,75.195,-27.832,-37.598,8.789,0.000
1709375792.001,-11.719,-34.668,-38.086,-18.555,0.000
1709375792.005,-120.605,-47.363,-37.598,-58.594,0.000
1709375792.009,-122.559,-46.387,-35.645,-68.359,0.000
1709375792.013,-45.410,-42.969,-39.062,-44.922,0.000
1709375792.017,83.008,-32.715,-37.598,13.184,0.000
1709375792.021,25.879,-35.156,-37.598,-7.812,0.000
1709375792.025,-95.703,-50.293,-38.574,-52.734,0.000
1709375792.029,-96.191,-47.363,-35.156,-50.293,0.000
1709375792.033,-40.039,-34.668,-30.762,-32.227,0.000
1709375792.037,72.266,-37.109,-27.344,18.066,0.000
1709375792.041,38.574,-35.645,-24.414,7.812,0.000
1709375792.045,-92.285,-39.062,-27.344,-51.270,0.000
1709375792.048,-129.395,-45.410,-30.273,-72.266,0.000
1709375792.052,-83.008,-43.945,-33.691,-51.758,0.000
1709375792.056,47.852,-33.691,-43.457,-5.859,0.000
1709375792.060,47.852,-32.227,-44.434,-4.395,0.000
1709375792.064,-91.309,-43.457,-41.992,-52.734,0.000
1709375792.068,-140.137,-41.992,-40.527,-79.590,0.000
1709375792.072,-96.680,-40.527,-45.410,-65.918,0.000
1709375792.076,36.133,-30.273,-46.387,-4.883,0.000
1709375792.080,54.688,-28.809,-41.504,7.812,0.000
1709375792.084,-81.055,-36.621,-40.039,-38.086,0.000
1709375792.087,-133.301,-36.621,-40.039,-70.801,0.000
1709375792.091,-89.355,-35.645,-38.574,-64.453,0.000
1709375792.095,39.551,-27.832,-41.992,-7.324,0.000
1709375792.099,79.102,-26.855,-38.574,11.719,0.000
1709375792.103,-51.270,-35.645,-36.133,-43.945,0.000
1709375792.107,-128.906,-45.898,-40.039,-80.078,0.000
1709375792.111,-110.840,-46.387,-38.086,-69.824,0.000
1709375792.115,8.789,-38.574,-38.574,-25.879,0.000
1709375792.119,67.871,-41.504,-40.527,-4.883,0.000
1709375792.123,-58.105,-53.711,-36.621,-52.246,0.000
1709375792.126,-132.324,-60.547,-34.180,-68.848,0.000
1709375792.130,-113.770,-47.363,-37.598,-67.871,0.000
1709375792.134,-0.977,-35.645,-38.574,-32.227,0.000
1709375792.138,88.379,-40.039,-38.574,15.137,0.000
1709375792.142,-26.367,-48.340,-38.574,-28.809,0.000
1709375792.146,-127.930,-46.387,-36.133,-70.801,0.000
1709375792.150,-112.305,-48.828,-40.039,-71.289,0.000
1709375792.153,-14.160,-48.340,-40.039,-32.227,0.000
1709375792.157,80.566,-40.527,-30.273,18.066,0.000
1709375792.161,-7.324,-46.387,-34.180,-19.531,0.000
1709375792.165,-118.652,-54.199,-42.480,-63.477,0.000
1709375792.169,-120.605,-58.105,-42.969,-59.570,0.000
1709375792.173,-29.297,-49.805,-39.551,-26.855,0.000
1709375792.177,95.703,-30.273,-33.691,15.625,0.000
1709375792.181,26.367,-33.691,-33.691,-12.695,0.000
1709375792.185,-99.609,-47.363,-40.039,-66.895,0.000
1709375792.189,-103.027,-44.922,-38.574,-80.078,0.000
1709375792.192,-27.344,-41.016,-35.156,-51.270,0.000
1709375792.196,94.238,-32.715,-38.086,4.883,0.000
1709375792.200,46.387,-37.598,-37.598,0.977,0.000
1709375792.204,-94.238,-44.434,-39.062,-53.711,0.000
1709375792.208,-128.906,-39.062,-40.527,-68.848,0.000
1709375792.212,-73.242,-40.039,-37.598,-45.410,0.000
1709375792.216,61.035,-38.086,-32.715,8.789,0.000
1709375792.220,41.016,-31.738,-36.133,4.883,0.000
1709375792.223,-101.562,-37.598,-42.969,-58.105,0.000
1709375792.227,-133.789,-42.480,-37.109,-72.754,0.000
1709375792.231,-80.566,-44.434,-39.062,-51.758,0.000
1709375792.235,47.363,-36.133,-43.945,-2.441,0.000
1709375792.239,55.664,-33.203,-41.504,1.465,0.000
1709375792.242,-84.961,-43.457,-43.457,-51.758,0.000
1709375792.246,-140.137,-42.969,-42.969,-70.312,0.000
1709375792.250,-104.004,-39.551,-41.504,-64.941,0.000
1709375792.254,25.879,-30.762,-38.574,-17.090,0.000
1709375792.258,67.871,-33.691,-32.715,4.395,0.000
1709375792.262,-67.871,-45.410,-32.715,-47.363,0.000
1709375792.266,-137.695,-47.852,-33.203,-76.660,0.000
1709375792.270,-115.234,-50.293,-33.203,-69.336,0.000
1709375792.274,0.488,-40.527,-34.668,-25.391,0.000
1709375792.278,62.500,-36.133,-39.551,0.488,0.000
1709375792.282,-59.570,-45.898,-41.504,-49.805,0.000
1709375792.286,-137.207,-51.758,-41.504,-87.402,0.000
1709375792.290,-123.535,-61.035,-42.480,-81.543,0.000
1709375792.294,-10.742,-48.828,-37.109,-32.715,0.000
1709375792.298,71.289,-40.039,-37.598,5.859,0.000
1709375792.302,-48.340,-52.734,-37.598,-33.691,0.000
1709375792.306,-135.742,-58.105,-34.668,-62.500,0.000
1709375792.310,-115.234,-51.270,-36.133,-62.500,0.000
1709375792.313,-12.695,-36.133,-32.227,-31.738,0.000
1709375792.317,79.102,-26.855,-29.297,13.184,0.000
1709375792.321,-14.648,-38.574,-32.715,-13.672,0.000
1709375792.325,-118.652,-42.480,-35.156,-56.152,0.000
1709375792.329,-121.582,-43.945,-38.086,-63.477,0.000
1709375792.333,-26.855,-42.480,-40.039,-35.156,0.000
1709375792.337,82.031,-33.691,-40.527,8.301,0.000
1709375792.341,-0.488,-33.203,-37.109,-20.996,0.000
1709375792.345,-117.188,-39.551,-39.551,-71.289,0.000
1709375792.349,-123.047,-43.945,-39.551,-80.566,0.000
1709375792.353,-39.551,-41.016,-34.668,-51.270,0.000
1709375792.357,74.219,-35.645,-35.156,-4.883,0.000
1709375792.361,18.555,-37.109,-32.715,-23.438,0.000
1709375792.365,-104.492,-47.363,-31.738,-66.895,0.000
1709375792.369,-129.395,-53.711,-31.250,-72.266,0.000
1709375792.372,-70.312,-41.504,-29.785,-57.617,0.000
1709375792.376,54.199,-31.738,-31.738,-10.254,0.000
1709375792.380,32.227,-35.156,-32.227,-8.301,0.000
1709375792.384,-99.609,-38.574,-33.203,-62.500,0.000
1709375792.388,-139.648,-38.574,-33.203,-89.355,0.000
1709375792.392,-85.449,-34.668,-31.250,-67.871,0.000
1709375792.396,52.734,-29.785,-33.203,-11.230,0.000
1709375792.400,59.570,-29.297,-34.180,-2.930,0.000
1709375792.404,-74.707,-33.691,-34.668,-50.781,0.000
1709375792.408,-124.023,-39.062,-36.133,-76.172,0.000
1709375792.412,-80.566,-45.898,-32.227,-53.711,0.000
1709375792.416,50.781,-31.738,-33.691,0.977,0.000
1709375792.420,83.496,-23.438,-37.598,5.859,0.000
1709375792.423,-53.223,-35.156,-39.062,-38.086,0.000
1709375792.427,-113.770,-38.574,-42.480,-62.012,0.000
1709375792.431,-74.219,-35.156,-42.969,-60.059,0.000
1709375792.435,47.363,-24.902,-38.574,-8.789,0.000
1709375792.439,91.797,-25.391,-36.621,19.531,0.000
1709375792.443,-37.598,-32.227,-33.691,-27.832,0.000
1709375792.447,-107.422,-37.109,-33.203,-61.523,0.000
1709375792.451,-81.055,-37.598,-31.738,-59.570,0.000
1709375792.455,21.973,-39.062,-33.691,-10.742,0.000
1709375792.459,87.891,-37.598,-36.133,31.250,0.000
1709375792.463,-33.203,-31.738,-39.551,-12.207,0.000
1709375792.466,-123.535,-39.062,-44.434,-51.758,0.000
1709375792.470,-107.422,-42.480,-39.551,-47.852,0.000
1709375792.474,0.488,-31.250,-37.109,-12.207,0.000
1709375792.478,89.844,-18.555,-37.109,20.996,0.000
1709375792.482,-19.043,-26.855,-39.062,-14.648,0.000
1709375792.486,-120.117,-42.969,-38.574,-54.199,0.000
1709375792.490,-115.723,-42.969,-39.551,-62.012,0.000
1709375792.494,-26.367,-41.016,-45.898,-39.551,0.000
1709375792.498,75.684,-33.691,-45.410,5.371,0.000
1709375792.501,-7.812,-41.016,-38.574,-8.789,0.000
1709375792.505,-114.746,-39.062,-34.668,-57.617,0.000
1709375792.509,-117.188,-35.645,-42.969,-83.008,0.000
1709375792.513,-42.480,-41.016,-44.434,-53.223,0.000
1709375792.517,72.266,-33.691,-37.109,0.488,0.000
1709375792.521,9.766,-35.645,-36.621,-22.461,0.000
1709375792.525,-106.934,-45.898,-39.551,-65.918,0.000
1709375792.528,-113.770,-53.711,-38.086,-73.242,0.000
1709375792.532,-51.758,-52.734,-41.016,-55.176,0.000
1709375792.536,73.730,-40.527,-41.504,-3.418,0.000
1709375792.540,44.434,-40.527,-35.645,-8.301,0.000
1709375792.544,-94.238,-48.828,-35.645,-63.965,0.000
1709375792.548,-129.395,-53.223,-37.598,-77.148,0.000
1709375792.552,-77.148,-46.387,-39.551,-62.012,0.000
1709375792.556,45.410,-35.156,-40.527,-9.766,0.000
1709375792.560,37.109,-39.551,-37.598,-3.418,0.000
1709375792.564,-101.074,-53.223,-38.086,-61.523,0.000
1709375792.567,-145.996,-55.664,-36.621,-76.172,0.000
1709375792.571,-94.238,-48.340,-31.738,-58.105,0.000
1709375792.575,35.645,-42.969,-35.645,-13.184,0.000
1709375792.579,50.293,-42.969,-41.504,-4.883,0.000
1709375792.583,-83.496,-47.852,-41.016,-57.129,0.000
1709375792.587,-138.672,-53.711,-41.504,-78.125,0.000
1709375792.591,-101.074,-53.711,-44.434,-59.082,0.000
1709375792.595,25.391,-35.156,-43.457,-19.043,0.000
1709375792.598,72.754,-30.273,-43.457,-6.836,0.000
1709375792.602,-48.828,-48.340,-47.363,-44.922,0.000
1709375792.606,-112.793,-59.082,-46.387,-70.312,0.000
1709375792.610,-87.402,-46.387,-43.457,-72.266,0.000
1709375792.614,26.855,-33.691,-41.016,-23.438,0.000
1709375792.617,88.867,-31.738,-34.668,11.719,0.000
1709375792.621,-34.180,-38.086,-29.785,-36.133,0.000
1709375792.625,-114.746,-44.922,-29.785,-69.336,0.000
1709375792.629,-95.215,-48.340,-31.738,-64.941,0.000
1709375792.633,17.578,-42.969,-35.645,-14.648,0.000
1709375792.637,97.168,-34.668,-33.691,33.691,0.000
1709375792.641,-23.926,-39.551,-30.762,-17.090,0.000
1709375792.645,-118.164,-52.246,-35.156,-62.988,0.000
1709375792.649,-110.352,-54.688,-34.180,-62.012,0.000
1709375792.653,-22.461,-44.922,-32.227,-28.320,0.000
1709375792.657,74.707,-34.668,-35.645,20.996,0.000
1709375792.661,-16.602,-42.480,-39.062,-14.160,0.000
1709375792.665,-123.535,-58.594,-38.574,-60.059,0.000
1709375792.669,-117.188,-52.246,-37.598,-58.594,0.000
1709375792.673,-34.668,-42.480,-38.086,-28.320,0.000
1709375792.677,65.430,-43.457,-33.691,16.602,0.000
1709375792.681,2.441,-54.688,-31.738,-6.836,0.000
1709375792.684,-104.492,-57.129,-29.297,-58.105,0.000
1709375792.688,-119.629,-43.457,-32.715,-66.406,0.000
1709375792.692,-48.340,-39.551,-34.180,-38.086,0.000
1709375792.696,79.102,-43.457,-32.227,21.973,0.000
1709375792.700,36.133,-41.992,-35.156,6.348,0.000
1709375792.704,-94.727,-41.992,-38.574,-45.898,0.000
