timestamps,TP9,AF7,AF8,TP10,Right AUX
1709141785.485,-36.133,-58.105,-42.969,-50.293,0.000
1709141785.489,-37.109,-46.875,-39.551,-48.340,0.000
1709141785.493,-28.320,-43.945,-40.527,-44.434,0.000
1709141785.497,-27.832,-55.664,-39.551,-40.527,0.000
1709141785.501,-40.039,-47.852,-48.828,-46.387,0.000
1709141785.505,-45.898,-40.039,-46.875,-47.363,0.000
1709141785.509,-47.363,-43.457,-34.180,-37.109,0.000
1709141785.513,-44.922,-39.062,-37.598,-30.273,0.000
1709141785.516,-38.574,-39.062,-32.227,-38.574,0.000
1709141785.520,-41.016,-40.039,-25.879,-47.363,0.000
1709141785.524,-48.828,-38.086,-33.691,-53.711,0.000
1709141785.528,-48.828,-35.645,-38.574,-51.270,0.000
1709141785.532,-48.828,-39.551,-39.062,-46.875,0.000
1709141785.536,-42.480,-50.781,-36.133,-41.504,0.000
1709141785.540,-34.180,-44.922,-39.062,-49.805,0.000
1709141785.544,-40.039,-32.227,-41.504,-60.547,0.000
1709141785.548,-45.410,-35.156,-42.969,-56.641,0.000
1709141785.552,-37.598,-44.922,-38.574,-42.969,0.000
1709141785.556,-31.738,-50.781,-32.715,-31.738,0.000
1709141785.559,-29.785,-44.434,-36.133,-39.551,0.000
1709141785.563,-31.738,-38.086,-33.691,-44.434,0.000
1709141785.567,-33.691,-42.480,-32.715,-42.969,0.000
1709141785.571,-33.691,-38.086,-38.086,-39.062,0.000
1709141785.575,-28.809,-36.621,-41.992,-35.156,0.000
1709141785.579,-32.715,-41.992,-46.387,-41.504,0.000
1709141785.583,-34.668,-47.363,-44.922,-40.527,0.000
1709141785.587,-30.273,-43.945,-41.016,-36.621,0.000
1709141785.591,-21.973,-29.785,-38.086,-35.645,0.000
1709141785.595,-14.160,-20.020,-39.551,-31.250,0.000
1709141785.599,-12.207,-34.668,-39.551,-32.227,0.000
1709141785.602,-10.742,-36.133,-35.156,-27.832,0.000
1709141785.606,-18.066,-34.180,-37.109,-24.414,0.000
1709141785.610,-25.879,-42.969,-36.133,-24.414,0.000
1709141785.614,-26.855,-51.758,-38.086,-21.484,0.000
1709141785.618,-33.691,-49.316,-41.992,-31.738,0.000
1709141785.622,-41.504,-33.203,-45.410,-42.480,0.000
1709141785.626,-45.898,-33.203,-42.480,-36.621,0.000
1709141785.630,-45.898,-31.738,-34.668,-38.574,0.000
1709141785.634,-46.875,-27.832,-33.691,-47.852,0.000
1709141785.638,-47.363,-33.691,-36.621,-50.293,0.000
1709141785.642,-50.781,-38.574,-45.410,-53.223,0.000
1709141785.645,-59.082,-47.363,-52.246,-57.617,0.000
1709141785.649,-60.059,-48.828,-50.293,-49.316,0.000
1709141785.653,-54.688,-42.969,-42.969,-45.898,0.000
1709141785.657,-48.828,-42.969,-34.668,-48.340,0.000
1709141785.661,-47.363,-56.152,-32.715,-43.457,0.000
1709141785.665,-45.410,-40.039,-34.180,-52.246,0.000
1709141785.669,-42.969,-25.391,-43.945,-53.711,0.000
1709141785.673,-43.457,-41.016,-43.457,-48.340,0.000
1709141785.677,-41.016,-44.434,-32.227,-51.270,0.000
1709141785.681,-39.062,-41.992,-28.809,-51.270,0.000
1709141785.685,-43.457,-41.504,-34.668,-50.293,0.000
1709141785.689,-45.410,-50.293,-39.551,-49.805,0.000
1709141785.692,-41.504,-61.523,-36.621,-49.316,0.000
1709141785.696,-35.156,-53.223,-38.574,-47.363,0.000
1709141785.700,-33.203,-43.457,-32.227,-50.781,0.000
1709141785.704,-33.203,-40.527,-32.715,-44.922,0.000
1709141785.708,-36.621,-31.250,-42.480,-34.668,0.000
1709141785.712,-35.156,-24.414,-39.551,-28.320,0.000
1709141785.716,-27.832,-31.250,-33.691,-29.297,0.000
1709141785.720,-25.879,-45.898,-27.832,-33.691,0.000
1709141785.724,-30.762,-47.363,-28.809,-36.621,0.000
1709141785.728,-37.109,-43.945,-40.039,-36.621,0.000
1709141785.732,-32.227,-42.969,-45.898,-36.133,0.000
1709141785.735,-29.297,-45.898,-40.527,-33.203,0.000
1709141785.739,-30.273,-40.039,-38.086,-35.645,0.000
1709141785.743,-30.762,-30.762,-41.504,-41.992,0.000
1709141785.747,-32.715,-33.203,-37.598,-38.086,0.000
1709141785.751,-24.902,-32.227,-26.855,-24.902,0.000
1709141785.755,-23.926,-33.691,-26.367,-30.762,0.000
1709141785.759,-28.809,-40.039,-34.180,-47.852,0.000
1709141785.763,-32.715,-43.457,-38.574,-54.199,0.000
1709141785.767,-36.621,-48.828,-35.645,-51.270,0.000
1709141785.771,-40.039,-49.805,-35.156,-47.852,0.000
1709141785.775,-45.898,-45.898,-38.086,-51.758,0.000
1709141785.778,-45.898,-41.992,-38.086,-54.688,0.000
1709141785.782,-49.805,-38.574,-47.363,-61.523,0.000
1709141785.786,-53.223,-53.711,-52.246,-62.500,0.000
1709141785.790,-53.711,-54.199,-38.086,-57.617,0.000
1709141785.794,-54.688,-44.922,-26.855,-59.570,0.000
1709141785.798,-51.270,-45.898,-28.809,-59.570,0.000
1709141785.802,-49.316,-44.434,-36.133,-60.059,0.000
1709141785.806,-48.828,-39.062,-43.945,-57.617,0.000
1709141785.810,-46.875,-37.598,-40.527,-45.898,0.000
1709141785.814,-44.434,-41.992,-41.016,-39.551,0.000
1709141785.818,-40.527,-40.039,-46.875,-46.387,0.000
1709141785.821,-41.992,-30.273,-53.223,-46.875,0.000
1709141785.825,-40.039,-40.527,-50.293,-40.039,0.000
1709141785.829,-36.133,-45.410,-42.480,-33.203,0.000
1709141785.833,-38.086,-44.922,-41.016,-27.832,0.000
1709141785.837,-38.574,-42.480,-48.828,-27.832,0.000
1709141785.841,-31.738,-35.645,-53.223,-21.484,0.000
1709141785.845,-32.227,-30.273,-49.805,-34.668,0.000
1709141785.849,-34.180,-31.250,-37.109,-32.715,0.000
1709141785.853,-30.762,-45.410,-30.762,-27.344,0.000
1709141785.857,-34.668,-44.922,-32.227,-39.551,0.000
1709141785.861,-38.574,-33.691,-30.762,-48.340,0.000
1709141785.864,-37.109,-36.133,-34.180,-48.340,0.000
1709141785.868,-37.598,-35.156,-35.156,-43.457,0.000
1709141785.872,-44.922,-36.621,-39.551,-36.621,0.000
1709141785.876,-38.574,-37.109,-35.645,-32.227,0.000
1709141785.880,-28.320,-25.391,-31.250,-33.203,0.000
1709141785.884,-36.133,-32.227,-32.715,-32.227,0.000
1709141785.888,-34.180,-46.387,-35.156,-28.320,0.000
1709141785.892,-27.832,-43.945,-31.250,-29.785,0.000
1709141785.896,-28.320,-31.738,-31.250,-31.250,0.000
1709141785.899,-31.738,-38.574,-40.527,-34.668,0.000
1709141785.903,-38.086,-45.410,-38.574,-37.598,0.000
1709141785.907,-45.410,-45.410,-41.504,-43.457,0.000
1709141785.911,-49.316,-39.551,-45.410,-47.363,0.000
1709141785.915,-43.945,-37.109,-48.340,-41.016,0.000
1709141785.919,-42.480,-40.039,-48.828,-43.945,0.000
1709141785.923,-41.992,-43.457,-37.109,-44.922,0.000
1709141785.927,-38.086,-50.781,-29.297,-33.691,0.000
1709141785.931,-36.621,-49.316,-33.691,-24.414,0.000
1709141785.935,-36.621,-44.922,-47.363,-25.391,0.000
1709141785.939,-35.645,-45.898,-46.875,-34.180,0.000
1709141785.942,-30.762,-52.734,-37.598,-32.715,0.000
1709141785.946,-27.832,-51.270,-33.691,-29.785,0.000
1709141785.950,-27.832,-41.504,-41.992,-32.715,0.000
1709141785.954,-31.738,-35.156,-59.082,-36.621,0.000
1709141785.958,-37.598,-33.203,-53.223,-41.992,0.000
1709141785.962,-38.574,-38.086,-36.133,-45.410,0.000
1709141785.966,-45.898,-43.457,-35.645,-47.363,0.000
1709141785.970,-45.898,-35.156,-44.922,-46.387,0.000
1709141785.974,-41.016,-27.344,-48.828,-36.133,0.000
1709141785.978,-44.434,-31.250,-47.852,-41.992,0.000
1709141785.982,-44.434,-41.016,-42.969,-58.105,0.000
1709141785.985,-42.480,-47.852,-39.551,-55.664,0.000
1709141785.989,-38.574,-44.922,-36.621,-49.316,0.000
1709141785.993,-37.598,-41.016,-38.574,-43.945,0.000
1709141785.997,-35.645,-44.434,-39.062,-40.527,0.000
1709141786.001,-30.762,-53.711,-37.598,-44.434,0.000
1709141786.005,-30.273,-55.176,-43.945,-45.410,0.000
1709141786.009,-37.109,-50.293,-46.387,-42.969,0.000
1709141786.013,-37.109,-43.945,-44.922,-41.504,0.000
1709141786.017,-34.668,-40.039,-42.480,-39.551,0.000
1709141786.021,-37.109,-49.805,-32.227,-39.551,0.000
1709141786.025,-41.016,-54.688,-35.645,-41.992,0.000
1709141786.028,-41.016,-46.387,-41.992,-41.504,0.000
1709141786.032,-38.086,-36.133,-35.645,-41.992,0.000
1709141786.036,-35.645,-41.504,-32.715,-30.273,0.000
1709141786.040,-35.156,-48.828,-29.297,-34.668,0.000
1709141786.044,-41.504,-40.527,-37.598,-49.805,0.000
1709141786.048,-40.527,-45.898,-44.434,-38.574,0.000
1709141786.052,-39.551,-47.852,-35.645,-37.109,0.000
1709141786.056,-41.016,-43.457,-32.715,-48.340,0.000
1709141786.060,-37.598,-45.410,-36.133,-49.805,0.000
1709141786.064,-37.109,-36.621,-41.016,-45.410,0.000
1709141786.068,-39.062,-32.715,-36.621,-36.621,0.000
1709141786.071,-35.156,-43.457,-33.203,-36.621,0.000
1709141786.075,-35.156,-43.945,-40.527,-46.387,0.000
1709141786.079,-34.180,-40.039,-36.621,-47.363,0.000
1709141786.083,-28.809,-41.016,-32.715,-43.945,0.000
1709141786.087,-29.785,-38.574,-37.598,-44.922,0.000
1709141786.091,-32.227,-33.691,-45.410,-45.410,0.000
1709141786.095,-32.227,-32.227,-40.527,-43.945,0.000
1709141786.099,-29.297,-28.809,-32.227,-39.062,0.000
1709141786.103,-24.902,-26.855,-33.203,-36.133,0.000
1709141786.107,-24.414,-35.645,-32.227,-33.203,0.000
1709141786.111,-19.531,-48.340,-31.250,-25.879,0.000
1709141786.114,-20.508,-52.734,-32.227,-23.438,0.000
1709141786.118,-30.762,-38.574,-30.762,-31.738,0.000
1709141786.122,-40.039,-29.297,-41.992,-41.504,0.000
1709141786.126,-42.480,-42.480,-48.828,-36.133,0.000
1709141786.130,-45.410,-43.945,-38.574,-37.598,0.000
1709141786.134,-42.480,-25.391,-36.621,-44.434,0.000
1709141786.138,-36.133,-18.555,-43.457,-42.480,0.000
1709141786.142,-37.598,-31.738,-42.969,-47.852,0.000
1709141786.146,-35.645,-39.062,-36.133,-53.223,0.000
1709141786.150,-31.738,-37.109,-28.809,-45.410,0.000
1709141786.154,-26.367,-45.410,-29.785,-30.273,0.000
1709141786.158,-26.855,-44.922,-41.504,-33.691,0.000
1709141786.161,-28.320,-37.598,-50.293,-43.945,0.000
1709141786.165,-30.762,-28.809,-42.480,-42.969,0.000
1709141786.169,-32.715,-25.879,-30.762,-26.367,0.000
1709141786.173,-32.227,-32.227,-34.180,-19.043,0.000
1709141786.177,-27.344,-31.250,-35.156,-22.461,0.000
1709141786.181,-17.578,-30.273,-38.086,-17.578,0.000
1709141786.185,-18.066,-31.738,-47.363,-14.648,0.000
1709141786.189,-23.926,-42.969,-38.086,-13.184,0.000
1709141786.193,-21.973,-45.410,-19.531,-15.137,0.000
1709141786.197,-13.672,-39.551,-18.066,-17.090,0.000
1709141786.200,-16.113,-40.527,-24.902,-19.043,0.000
1709141786.204,-22.949,-36.621,-30.762,-21.484,0.000
1709141786.208,-21.973,-38.574,-34.668,-16.113,0.000
1709141786.212,-17.090,-41.016,-28.320,-16.602,0.000
1709141786.216,-16.602,-42.480,-26.367,-10.742,0.000
1709141786.220,-14.648,-39.062,-31.738,-12.695,0.000
1709141786.224,-15.625,-39.551,-37.109,-19.043,0.000
1709141786.228,-20.020,-45.410,-36.621,-12.695,0.000
1709141786.232,-16.602,-48.828,-24.414,-7.324,0.000
1709141786.236,-18.066,-48.828,-30.273,-13.672,0.000
1709141786.240,-18.555,-36.133,-41.016,-21.973,0.000
1709141786.243,-21.484,-41.504,-31.738,-26.855,0.000
1709141786.247,-20.508,-44.922,-34.668,-24.414,0.000
1709141786.251,-19.043,-43.945,-41.504,-17.090,0.000
1709141786.255,-25.391,-42.480,-25.879,-22.461,0.000
1709141786.259,-28.809,-43.457,-17.090,-28.320,0.000
1709141786.263,-31.738,-57.617,-24.414,-27.832,0.000
1709141786.267,-36.621,-53.223,-30.762,-35.156,0.000
1709141786.271,-37.598,-47.363,-29.297,-31.250,0.000
1709141786.275,-24.902,-45.898,-31.250,-23.926,0.000
1709141786.279,-25.879,-43.945,-38.086,-30.273,0.000
1709141786.283,-32.227,-56.152,-41.992,-30.762,0.000
1709141786.286,-28.320,-57.617,-34.668,-23.438,0.000
1709141786.290,-26.855,-48.828,-24.414,-18.555,0.000
1709141786.294,-26.367,-57.617,-22.949,-20.996,0.000
1709141786.298,-20.996,-59.570,-33.203,-26.855,0.000
1709141786.302,-10.254,-46.875,-41.016,-20.508,0.000
1709141786.306,-8.301,-40.527,-30.762,-10.254,0.000
1709141786.310,-17.090,-36.621,-32.227,-20.996,0.000
1709141786.314,-27.832,-34.668,-33.691,-26.367,0.000
1709141786.318,-37.109,-36.621,-41.992,-29.297,0.000
1709141786.322,-42.969,-48.828,-50.293,-43.457,0.000
1709141786.325,-47.852,-45.410,-39.551,-48.340,0.000
1709141786.329,-45.898,-40.527,-32.715,-41.504,0.000
1709141786.333,-37.109,-46.387,-34.180,-39.062,0.000
1709141786.337,-38.574,-40.527,-38.574,-47.363,0.000
1709141786.341,-41.504,-31.250,-33.203,-46.875,0.000
1709141786.345,-38.574,-36.621,-36.621,-46.387,0.000
1709141786.349,-41.016,-38.574,-43.945,-45.410,0.000
1709141786.353,-42.969,-44.434,-41.016,-44.922,0.000
1709141786.357,-36.133,-44.434,-47.852,-48.340,0.000
1709141786.361,-34.180,-45.410,-40.039,-49.316,0.000
1709141786.365,-39.551,-46.387,-39.551,-47.363,0.000
1709141786.368,-47.363,-41.016,-46.387,-46.387,0.000
1709141786.372,-46.875,-44.434,-38.574,-49.316,0.000
1709141786.376,-34.668,-46.387,-39.062,-42.480,0.000
1709141786.380,-28.320,-48.340,-40.039,-38.574,0.000
1709141786.384,-35.156,-50.781,-39.551,-46.387,0.000
1709141786.388,-36.133,-45.898,-34.180,-37.598,0.000
1709141786.392,-31.250,-44.434,-23.438,-28.320,0.000
1709141786.396,-35.156,-52.734,-26.367,-41.016,0.000
1709141786.400,-40.039,-42.480,-32.715,-48.828,0.000
1709141786.404,-41.016,-33.203,-44.922,-49.316,0.000
1709141786.408,-47.852,-40.039,-47.363,-50.781,0.000
1709141786.411,-50.293,-40.527,-36.621,-43.457,0.000
1709141786.415,-43.945,-41.504,-34.180,-36.133,0.000
1709141786.419,-40.527,-47.363,-35.645,-36.133,0.000
1709141786.423,0.000,-48.340,-39.551,-41.992,0.000
1709141786.427,0.000,-49.805,-44.922,-47.852,0.000
1709141786.431,0.000,-57.129,-47.852,-47.363,0.000
1709141786.435,0.000,-46.387,-46.387,-46.387,0.000
1709141786.439,0.000,-43.457,-41.504,-49.805,0.000
1709141786.443,0.000,-46.387,-42.480,-54.199,0.000
1709141786.447,0.000,-39.551,-47.852,-49.316,0.000
1709141786.451,0.000,-33.691,-41.504,-40.527,0.000
1709141786.454,0.000,-30.762,-38.574,-33.203,0.000
1709141786.458,0.000,-39.551,-44.434,-31.738,0.000
1709141786.462,0.000,-46.387,-36.133,-38.574,0.000
1709141786.466,0.000,-49.805,-30.273,-39.551,0.000
1709141786.470,-26.855,-46.875,-27.344,-38.574,0.000
1709141786.474,-27.344,-28.320,-27.344,-40.039,0.000
1709141786.478,-30.273,-20.996,-29.785,-41.504,0.000
1709141786.482,-27.832,-33.691,-29.785,-50.293,0.000
1709141786.486,-30.273,-41.504,-28.809,-56.641,0.000
1709141786.490,-36.621,-31.250,-29.785,-56.641,0.000
1709141786.494,-37.109,-23.926,-35.156,-55.664,0.000
1709141786.497,-40.527,-33.691,-46.387,-64.453,0.000
1709141786.501,-41.016,-40.527,-48.828,-62.500,0.000
1709141786.505,-39.551,-39.062,-44.434,-61.035,0.000
1709141786.509,-41.992,-47.363,-41.504,-62.500,0.000
1709141786.513,-42.480,-49.805,-37.109,-60.059,0.000
1709141786.517,-47.363,-41.016,-41.504,-64.941,0.000
1709141786.521,-55.664,-41.992,-53.223,-66.406,0.000
1709141786.525,-61.035,-50.293,-51.758,-69.824,0.000
1709141786.529,-55.664,-62.988,-38.086,-66.406,0.000
1709141786.533,-45.898,-60.059,-34.668,-54.199,0.000
1709141786.537,-45.898,-44.922,-43.457,-54.688,0.000
1709141786.540,-52.246,-49.316,-37.109,-58.594,0.000
1709141786.544,-51.270,-53.711,-31.738,-45.410,0.000
1709141786.548,-49.805,-49.316,-36.133,-34.668,0.000
1709141786.552,-52.246,-54.688,-38.086,-36.133,0.000
1709141786.556,-51.758,-57.617,-41.016,-35.156,0.000
1709141786.560,-43.945,-50.781,-40.039,-32.227,0.000
1709141786.564,-47.852,-53.711,-41.504,-37.598,0.000
1709141786.568,-55.664,-46.387,-39.551,-40.527,0.000
1709141786.572,-47.363,-39.551,-36.621,-36.621,0.000
1709141786.576,-47.363,-50.293,-37.598,-39.062,0.000
1709141786.580,-54.688,-44.922,-44.922,-47.363,0.000
1709141786.583,-54.199,-32.227,-50.293,-56.641,0.000
1709141786.587,-58.105,-44.922,-54.199,-67.383,0.000
1709141786.591,-65.430,-53.223,-58.594,-70.312,0.000
1709141786.595,-53.711,-40.527,-49.805,-67.871,0.000
1709141786.599,-43.945,-46.875,-40.039,-61.035,0.000
1709141786.603,-55.664,-52.734,-34.668,-62.988,0.000
1709141786.607,-60.059,-46.387,-31.250,-62.012,0.000
1709141786.611,-49.316,-53.223,-27.344,-54.199,0.000
1709141786.615,-37.109,-59.082,-20.996,-42.480,0.000
1709141786.619,-40.527,-64.453,-20.020,-43.945,0.000
1709141786.623,-43.457,-63.477,-19.531,-45.410,0.000
1709141786.626,-40.527,-67.871,-17.578,-39.551,0.000
1709141786.630,-44.434,-82.520,-18.066,-35.156,0.000
1709141786.634,-49.316,-85.449,-20.508,-30.762,0.000
1709141786.638,-42.969,-78.125,-18.555,-20.508,0.000
1709141786.642,-45.898,-71.777,-13.184,-25.879,0.000
1709141786.646,-52.246,-81.543,-9.277,-28.809,0.000
1709141786.650,-50.781,-85.938,-6.348,-20.020,0.000
1709141786.654,-48.828,-79.102,-7.812,-20.508,0.000
1709141786.658,-42.969,-79.590,-8.789,-18.555,0.000
1709141786.662,-45.898,-83.008,-18.066,-10.742,0.000
1709141786.666,-47.852,-83.984,-16.602,-4.883,0.000
1709141786.669,-45.898,-89.844,-10.254,-7.812,0.000
1709141786.673,-45.898,-94.727,-11.230,-7.324,0.000
1709141786.677,-46.387,-96.680,-12.695,-4.395,0.000
1709141786.681,-41.504,-104.492,-15.625,0.488,0.000
1709141786.685,-39.551,-103.027,-11.230,0.488,0.000
1709141786.689,-41.016,-101.074,-9.277,-6.836,0.000
1709141786.693,-34.180,-105.957,-9.766,-0.488,0.000
1709141786.697,-29.785,-106.934,-8.301,2.441,0.000
1709141786.701,-34.180,-107.910,-9.766,-2.441,0.000
1709141786.705,-28.809,-106.445,-5.859,2.930,0.000
1709141786.709,-20.020,-113.281,-1.953,12.695,0.000
1709141786.712,-20.508,-119.141,-2.930,18.066,0.000
1709141786.716,-23.438,-107.910,-7.812,12.695,0.000
1709141786.720,-20.996,-100.098,-5.371,7.812,0.000
1709141786.724,-20.508,-104.492,1.953,9.277,0.000
1709141786.728,-14.648,-108.398,8.789,20.020,0.000
1709141786.732,-13.672,-102.051,13.184,27.832,0.000
1709141786.736,-16.602,-103.027,9.766,22.461,0.000
1709141786.740,-16.602,-110.352,4.395,21.973,0.000
1709141786.744,-19.043,-104.492,9.277,23.438,0.000
1709141786.748,-21.973,-101.562,11.719,21.484,0.000
1709141786.752,-20.508,-101.074,9.766,18.555,0.000
1709141786.755,-21.484,-101.562,5.371,7.812,0.000
1709141786.759,-20.996,-100.098,4.395,-0.488,0.000
1709141786.763,-21.973,-94.727,2.441,-2.930,0.000
1709141786.767,-30.762,-97.168,2.930,0.000,0.000
1709141786.771,-32.227,-106.445,4.883,2.441,0.000
1709141786.775,-33.691,-104.492,-5.859,-3.418,0.000
1709141786.779,-41.504,-97.656,-8.789,-10.254,0.000
1709141786.783,-37.109,-108.398,-3.418,-5.371,0.000
1709141786.787,-34.668,-104.980,-2.441,3.906,0.000
1709141786.791,-36.133,-93.750,5.371,-2.930,0.000
1709141786.794,-31.738,-99.121,6.836,-10.254,0.000
1709141786.798,-31.250,-96.191,-0.488,-17.578,0.000
1709141786.802,-31.738,-87.891,-2.441,-21.973,0.000
1709141786.806,-28.320,-78.613,-9.766,-16.113,0.000
1709141786.810,-32.227,-77.637,-10.742,-16.113,0.000
1709141786.814,-35.156,-85.449,-7.812,-11.719,0.000
1709141786.818,-37.109,-79.590,-17.578,-13.672,0.000
1709141786.822,-38.574,-71.777,-23.438,-25.391,0.000
1709141786.826,-41.504,-73.730,-26.855,-28.809,0.000
1709141786.830,-37.598,-74.707,-26.855,-20.020,0.000
1709141786.834,-29.785,-73.242,-22.461,-12.695,0.000
1709141786.837,-31.250,-70.801,-29.785,-19.531,0.000
1709141786.841,-41.992,-78.613,-28.809,-34.668,0.000
1709141786.845,-47.363,-70.801,-30.273,-43.457,0.000
1709141786.849,-52.246,-62.988,-31.738,-48.340,0.000
1709141786.853,-53.711,-65.918,-22.461,-49.805,0.000
1709141786.857,-51.270,-64.941,-24.902,-48.340,0.000
1709141786.861,-56.152,-63.477,-29.785,-53.223,0.000
1709141786.865,-50.781,-60.547,-27.344,-49.805,0.000
1709141786.869,-46.875,-59.570,-35.156,-43.457,0.000
1709141786.873,-52.246,-61.523,-47.852,-44.922,0.000
1709141786.877,-49.805,-64.941,-41.992,-31.738,0.000
1709141786.880,-42.969,-55.176,-23.926,-29.297,0.000
1709141786.884,-42.480,-45.410,-20.996,-39.062,0.000
1709141786.888,-53.223,-51.270,-29.785,-37.109,0.000
1709141786.892,-48.828,-66.895,-30.273,-30.273,0.000
1709141786.896,-36.133,-68.848,-27.832,-27.832,0.000
1709141786.900,-35.645,-46.875,-30.762,-30.762,0.000
1709141786.904,-31.738,-40.039,-28.809,-26.855,0.000
1709141786.908,-35.156,-46.387,-30.762,-27.344,0.000
1709141786.912,-41.504,-49.805,-39.551,-34.180,0.000
1709141786.916,-39.062,-43.945,-38.574,-41.016,0.000
1709141786.920,-34.180,-46.875,-33.203,-45.410,0.000
1709141786.923,-37.109,-54.199,-27.344,-40.527,0.000
1709141786.927,-39.062,-52.246,-25.879,-44.434,0.000
1709141786.931,-37.598,-53.711,-28.809,-48.828,0.000
1709141786.935,-32.715,-52.734,-29.785,-39.062,0.000
1709141786.939,-27.832,-42.480,-30.273,-40.527,0.000
1709141786.943,-28.809,-48.828,-41.504,-46.387,0.000
1709141786.947,-32.227,-54.199,-38.086,-41.992,0.000
1709141786.951,-37.598,-52.734,-31.738,-36.133,0.000
1709141786.955,-43.945,-52.246,-37.598,-34.668,0.000
1709141786.959,-40.039,-52.246,-35.156,-33.691,0.000
1709141786.963,-34.180,-49.805,-38.086,-38.574,0.000
1709141786.966,-35.645,-46.875,-45.410,-35.156,0.000
1709141786.970,-42.480,-49.316,-45.410,-34.180,0.000
1709141786.974,-45.898,-51.758,-39.551,-41.016,0.000
1709141786.978,-44.922,-57.129,-43.945,-45.898,0.000
1709141786.982,-37.598,-57.129,-42.480,-50.293,0.000
1709141786.986,-43.457,-40.039,-33.691,-57.129,0.000
1709141786.990,-44.922,-30.762,-41.016,-58.594,0.000
1709141786.994,-37.598,-41.504,-45.898,-58.105,0.000
1709141786.998,-37.598,-42.480,-43.945,-60.547,0.000
1709141787.002,-38.086,-36.133,-47.363,-61.523,0.000
1709141787.006,-41.992,-40.527,-50.781,-57.129,0.000
1709141787.009,-50.781,-48.340,-51.270,-45.410,0.000
1709141787.013,-45.898,-44.922,-52.246,-43.457,0.000
1709141787.017,-28.809,-41.992,-41.504,-46.875,0.000
1709141787.021,-26.367,-53.711,-43.457,-43.457,0.000
1709141787.025,-29.785,-44.434,-43.457,-42.969,0.000
1709141787.029,-31.738,-39.062,-38.574,-49.316,0.000
1709141787.033,-34.668,-48.828,-43.457,-48.828,0.000
1709141787.037,-29.297,-43.945,-41.504,-41.992,0.000
1709141787.041,-26.367,-39.551,-42.969,-40.039,0.000
1709141787.045,-35.645,-38.574,-48.828,-44.434,0.000
1709141787.049,-40.527,-37.109,-44.434,-44.434,0.000
1709141787.052,-41.504,-34.668,-35.156,-39.062,0.000
1709141787.056,-43.457,-40.527,-45.410,-30.273,0.000
1709141787.060,-46.875,-39.062,-39.062,-37.598,0.000
1709141787.064,-52.246,-35.645,-30.273,-51.758,0.000
1709141787.068,-52.734,-46.387,-36.621,-54.688,0.000
1709141787.072,-52.246,-50.781,-40.039,-51.270,0.000
1709141787.076,-50.293,-35.645,-39.551,-48.340,0.000
1709141787.080,-45.898,-25.391,-33.691,-52.246,0.000
1709141787.084,-45.898,-35.645,-31.738,-46.875,0.000
1709141787.088,-45.410,-45.898,-35.645,-39.062,0.000
1709141787.091,-46.387,-48.340,-45.410,-46.875,0.000
1709141787.095,-45.410,-53.711,-44.434,-48.340,0.000
1709141787.099,-42.480,-49.805,-42.480,-45.410,0.000
1709141787.103,-42.969,-33.691,-43.457,-46.875,0.000
1709141787.107,-43.457,-31.250,-40.527,-53.223,0.000
1709141787.111,-46.387,-36.133,-36.133,-56.152,0.000
1709141787.115,-38.574,-38.086,-41.016,-48.828,0.000
1709141787.119,-34.180,-42.480,-44.434,-51.758,0.000
1709141787.123,-45.898,-40.527,-38.086,-68.359,0.000
1709141787.127,-52.246,-42.480,-33.691,-73.730,0.000
1709141787.131,-39.551,-44.922,-31.250,-58.594,0.000
1709141787.135,-42.480,-43.457,-38.086,-56.641,0.000
1709141787.138,-43.945,-41.504,-37.109,-59.570,0.000
1709141787.142,-32.715,-43.945,-31.250,-54.199,0.000
1709141787.146,-36.621,-45.898,-30.762,-55.176,0.000
1709141787.150,-36.133,-43.945,-31.738,-48.828,0.000
1709141787.154,-29.785,-37.109,-35.156,-39.062,0.000
1709141787.158,-24.414,-37.109,-36.133,-37.598,0.000
1709141787.162,-25.879,-41.504,-29.785,-36.133,0.000
1709141787.166,-30.273,-37.598,-30.273,-32.715,0.000
1709141787.170,-29.297,-46.387,-33.691,-27.832,0.000
1709141787.174,0.000,-54.688,-36.133,-20.996,0.000
1709141787.178,0.000,-43.457,-41.016,-17.578,0.000
1709141787.181,0.000,-38.574,-36.621,-19.043,0.000
1709141787.185,0.000,-47.852,-31.250,-31.250,0.000
1709141787.189,0.000,-55.176,-33.203,-35.645,0.000
1709141787.193,0.000,-61.523,-37.598,-29.297,0.000
1709141787.197,0.000,-59.082,-31.250,-41.504,0.000
1709141787.201,0.000,-48.340,-26.367,-53.223,0.000
1709141787.205,0.000,-47.363,-27.344,-42.969,0.000
1709141787.209,0.000,-49.316,-30.762,-31.250,0.000
1709141787.213,0.000,-43.945,-39.551,-37.109,0.000
1709141787.217,0.000,-45.410,-37.109,-44.434,0.000
1709141787.221,-30.762,-50.293,-31.738,-42.480,0.000
1709141787.224,-37.598,-51.758,-37.598,-45.898,0.000
1709141787.228,-34.180,-54.199,-42.480,-42.969,0.000
1709141787.232,-26.855,-50.293,-36.621,-36.133,0.000
1709141787.236,-27.832,-48.340,-37.109,-39.551,0.000
1709141787.240,-31.738,-50.781,-40.527,-39.062,0.000
1709141787.244,-33.691,-48.828,-38.086,-38.574,0.000
1709141787.248,-38.086,-49.316,-36.133,-36.133,0.000
1709141787.252,-37.598,-48.828,-38.574,-20.996,0.000
1709141787.256,-33.203,-44.922,-42.480,-29.297,0.000
1709141787.260,-37.109,-42.480,-41.504,-53.223,0.000
1709141787.263,-41.992,-56.152,-56.641,-59.082,0.000
1709141787.267,-41.016,-51.758,-62.012,-57.617,0.000
1709141787.271,-44.922,-39.062,-43.945,-52.734,0.000
1709141787.275,-50.293,-46.387,-37.598,-53.223,0.000
1709141787.279,-47.852,-47.852,-35.645,-57.617,0.000
1709141787.283,-42.969,-41.992,-34.668,-56.152,0.000
1709141787.287,-43.457,-39.551,-37.109,-51.270,0.000
1709141787.291,-48.340,-37.109,-37.109,-53.711,0.000
1709141787.295,-51.270,-41.016,-40.527,-49.805,0.000
1709141787.299,-52.246,-40.039,-37.598,-43.945,0.000
1709141787.303,-53.223,-39.062,-40.039,-55.176,0.000
1709141787.306,-49.316,-46.875,-46.387,-58.105,0.000
1709141787.310,-46.875,-50.781,-43.457,-43.457,0.000
1709141787.314,-53.223,-41.504,-49.805,-43.945,0.000
1709141787.318,-54.688,-41.992,-46.387,-50.293,0.000
1709141787.322,-52.734,-44.922,-46.387,-55.664,0.000
1709141787.326,-56.641,-50.293,-47.852,-53.711,0.000
1709141787.330,-53.223,-48.828,-48.828,-47.852,0.000
1709141787.334,-46.387,-38.574,-46.387,-50.293,0.000
1709141787.338,-39.062,-47.363,-41.504,-47.363,0.000
1709141787.342,-41.016,-54.199,-41.504,-42.480,0.000
1709141787.346,-52.246,-41.016,-36.621,-48.340,0.000
1709141787.349,-52.246,-34.668,-32.715,-42.480,0.000
1709141787.353,-43.457,-47.852,-38.574,-31.738,0.000
1709141787.357,-44.434,-53.223,-41.992,-32.227,0.000
1709141787.361,-44.922,-46.875,-36.621,-37.109,0.000
1709141787.365,-44.922,-47.852,-37.109,-44.922,0.000
1709141787.369,-50.293,-56.641,-40.527,-41.992,0.000
1709141787.373,-49.316,-52.734,-37.109,-37.109,0.000
1709141787.377,-45.410,-46.387,-36.621,-38.574,0.000
1709141787.381,-43.457,-43.457,-32.715,-43.945,0.000
1709141787.385,-47.852,-46.875,-33.203,-41.016,0.000
1709141787.389,-45.898,-50.293,-35.156,-34.668,0.000
1709141787.392,-40.527,-46.387,-27.344,-37.598,0.000
1709141787.396,-41.016,-43.945,-25.879,-43.457,0.000
1709141787.400,-40.527,-48.340,-38.086,-45.410,0.000
1709141787.404,-44.922,-39.551,-38.086,-52.246,0.000
1709141787.408,-49.805,-33.203,-28.320,-57.617,0.000
1709141787.412,-48.828,-35.645,-33.691,-54.688,0.000
1709141787.416,-46.387,-39.062,-37.109,-50.293,0.000
1709141787.420,-44.434,-41.504,-38.574,-56.152,0.000
1709141787.424,-50.293,-37.598,-47.363,-65.430,0.000
1709141787.428,-55.664,-42.480,-49.805,-64.453,0.000
1709141787.431,-48.828,-49.805,-43.945,-49.805,0.000
1709141787.435,-42.969,-42.969,-39.062,-52.734,0.000
1709141787.439,-37.109,-37.598,-37.598,-63.477,0.000
1709141787.443,-35.645,-47.852,-38.574,-57.617,0.000
1709141787.447,-32.715,-55.664,-39.551,-55.176,0.000
1709141787.451,-21.484,-48.340,-41.016,-50.293,0.000
1709141787.455,-17.578,-43.457,-38.574,-38.574,0.000
1709141787.459,-21.484,-44.922,-37.598,-41.016,0.000
1709141787.463,-17.578,-39.551,-34.180,-35.645,0.000
1709141787.467,-17.578,-41.504,-35.156,-26.367,0.000
1709141787.471,-22.949,-45.898,-33.203,-30.762,0.000
1709141787.475,-29.785,-46.875,-23.926,-31.250,0.000
1709141787.478,-29.785,-41.016,-32.715,-34.668,0.000
1709141787.482,-25.879,-37.598,-41.992,-41.016,0.000
1709141787.486,-28.809,-38.574,-40.527,-43.457,0.000
1709141787.490,-33.691,-42.480,-39.062,-39.551,0.000
1709141787.494,-33.691,-43.945,-37.598,-43.945,0.000
1709141787.498,-34.668,-41.016,-43.945,-53.711,0.000
1709141787.502,-35.645,-50.293,-48.340,-48.828,0.000
1709141787.506,-33.691,-51.758,-44.434,-45.898,0.000
1709141787.510,-39.551,-38.086,-45.410,-47.363,0.000
1709141787.514,-40.527,-30.762,-49.316,-42.480,0.000
1709141787.518,-35.645,-41.504,-46.387,-45.898,0.000
1709141787.521,-43.457,-46.387,-47.852,-50.781,0.000
1709141787.525,-48.340,-37.109,-50.293,-49.316,0.000
1709141787.529,-42.480,-42.969,-43.945,-51.758,0.000
1709141787.533,-45.410,-51.758,-45.410,-45.410,0.000
1709141787.537,-44.434,-54.199,-44.434,-30.273,0.000
1709141787.541,-39.062,-48.340,-41.992,-37.598,0.000
1709141787.545,-37.598,-43.945,-39.551,-43.457,0.000
1709141787.549,-35.645,-43.457,-34.180,-37.109,0.000
1709141787.553,-38.574,-40.527,-41.992,-39.062,0.000
1709141787.557,-36.621,-42.969,-45.410,-41.504,0.000
1709141787.561,-34.668,-41.504,-41.992,-40.527,0.000
1709141787.564,-35.645,-42.480,-42.480,-42.969,0.000
1709141787.568,-31.738,-50.781,-49.316,-42.969,0.000
1709141787.572,-25.879,-50.781,-54.199,-41.504,0.000
1709141787.576,-20.020,-41.992,-43.457,-40.039,0.000
1709141787.580,-22.949,-43.945,-40.039,-36.133,0.000
1709141787.584,-22.461,-36.133,-34.668,-27.344,0.000
1709141787.588,-18.066,-26.367,-28.809,-31.250,0.000
1709141787.592,-16.602,-30.273,-28.809,-36.133,0.000
1709141787.596,-13.672,-30.762,-36.621,-35.156,0.000
1709141787.600,-13.184,-30.762,-37.109,-37.109,0.000
1709141787.604,-19.531,-37.109,-32.715,-42.969,0.000
1709141787.607,-29.785,-40.527,-33.203,-43.457,0.000
1709141787.611,-36.133,-42.969,-37.109,-38.574,0.000
1709141787.615,-32.227,-43.945,-40.039,-38.086,0.000
1709141787.619,-38.574,-40.527,-43.945,-51.270,0.000
1709141787.623,-49.316,-45.898,-45.410,-50.781,0.000
1709141787.627,-52.734,-53.223,-40.527,-36.133,0.000
1709141787.631,-49.805,-43.457,-40.039,-41.016,0.000
1709141787.635,-43.945,-46.387,-38.086,-40.527,0.000
1709141787.639,-44.922,-53.711,-37.598,-47.363,0.000
1709141787.643,-44.922,-50.781,-49.316,-49.316,0.000
1709141787.647,-50.293,-47.852,-44.434,-45.410,0.000
1709141787.650,-54.688,-47.363,-36.621,-46.875,0.000
1709141787.654,-52.246,-45.410,-38.574,-50.293,0.000
1709141787.658,-47.363,-42.969,-44.434,-53.711,0.000
1709141787.662,-45.898,-46.875,-50.781,-57.129,0.000
1709141787.666,-48.828,-54.199,-46.875,-59.082,0.000
1709141787.670,-45.898,-58.105,-46.387,-47.363,0.000
1709141787.674,-48.340,-49.316,-46.387,-41.992,0.000
1709141787.678,-46.387,-41.992,-42.480,-46.875,0.000
1709141787.682,-41.992,-46.875,-38.086,-44.434,0.000
1709141787.686,-36.621,-43.457,-33.203,-44.434,0.000
1709141787.690,-28.809,-41.016,-35.156,-38.574,0.000
1709141787.693,-28.320,-43.945,-37.598,-37.109,0.000
1709141787.697,-26.367,-39.551,-31.250,-37.598,0.000
1709141787.701,-33.203,-38.574,-29.297,-35.156,0.000
1709141787.705,-43.945,-43.457,-28.320,-32.227,0.000
1709141787.709,-47.363,-50.293,-39.551,-32.715,0.000
1709141787.713,-48.340,-55.176,-43.457,-34.180,0.000
1709141787.717,-50.781,-52.734,-26.855,-29.297,0.000
1709141787.721,-47.852,-41.016,-24.902,-33.691,0.000
1709141787.725,-47.852,-45.898,-29.785,-45.410,0.000
1709141787.729,-49.316,-53.711,-37.109,-48.828,0.000
1709141787.732,-43.945,-53.711,-39.062,-36.133,0.000
1709141787.736,-43.945,-50.781,-39.551,-33.203,0.000
1709141787.740,-39.551,-40.527,-41.504,-39.551,0.000
1709141787.744,-29.785,-43.457,-32.227,-36.133,0.000
1709141787.748,-31.250,-45.898,-26.855,-37.109,0.000
1709141787.752,-32.715,-44.922,-33.691,-32.715,0.000
1709141787.756,-27.832,-55.664,-38.574,-32.227,0.000
1709141787.760,-22.461,-47.852,-32.227,-24.902,0.000
1709141787.764,-21.973,-41.016,-33.203,-20.996,0.000
1709141787.768,-30.762,-46.387,-44.922,-35.645,0.000
1709141787.772,-32.715,-42.969,-44.434,-33.691,0.000
1709141787.775,-31.250,-41.016,-35.156,-29.785,0.000
1709141787.779,-24.902,-48.340,-31.250,-32.715,0.000
1709141787.783,-28.809,-47.363,-32.715,-38.574,0.000
1709141787.787,-34.180,-41.992,-34.180,-39.062,0.000
1709141787.791,-34.180,-34.668,-32.227,-31.738,0.000
1709141787.795,-31.738,-32.715,-35.645,-31.250,0.000
1709141787.799,-25.391,-36.133,-40.527,-37.598,0.000
1709141787.803,-25.879,-41.504,-46.875,-41.992,0.000
1709141787.807,-25.879,-40.527,-47.852,-31.738,0.000
1709141787.811,-25.391,-36.621,-41.504,-25.879,0.000
1709141787.815,-30.273,-40.039,-41.016,-29.785,0.000
1709141787.818,-27.344,-40.039,-46.875,-34.668,0.000
1709141787.822,-26.367,-42.480,-47.852,-41.504,0.000
1709141787.826,-34.668,-43.945,-50.293,-50.781,0.000
1709141787.830,-31.738,-37.109,-51.758,-47.852,0.000
1709141787.834,-28.809,-35.156,-53.711,-45.410,0.000
1709141787.838,-33.203,-41.992,-54.199,-48.340,0.000
1709141787.842,-37.598,-40.039,-48.828,-57.617,0.000
1709141787.846,-45.410,-40.527,-46.387,-64.941,0.000
1709141787.850,-47.363,-39.062,-53.711,-54.199,0.000
1709141787.854,-46.875,-36.621,-56.641,-47.363,0.000
1709141787.858,-43.945,-45.898,-42.969,-53.711,0.000
1709141787.861,-40.527,-48.340,-39.551,-53.223,0.000
1709141787.865,-48.828,-40.039,-38.574,-56.152,0.000
1709141787.869,-50.293,-44.922,-38.086,-52.734,0.000
1709141787.873,-48.828,-38.574,-45.898,-52.246,0.000
1709141787.877,-48.340,-30.273,-41.992,-56.641,0.000
1709141787.881,-43.945,-37.598,-42.969,-61.035,0.000
1709141787.885,-48.340,-39.551,-48.340,-64.453,0.000
1709141787.889,-51.758,-40.527,-45.898,-61.523,0.000
1709141787.893,-47.852,-45.898,-44.922,-54.688,0.000
1709141787.897,-42.480,-48.340,-41.504,-43.457,0.000
1709141787.901,-46.387,-48.828,-40.527,-41.992,0.000
1709141787.904,-49.805,-41.016,-41.992,-57.617,0.000
1709141787.908,-47.852,-37.109,-38.574,-55.664,0.000
1709141787.912,-51.758,-41.992,-38.574,-43.457,0.000
1709141787.916,-52.246,-41.992,-38.574,-51.270,0.000
1709141787.920,-47.852,-42.969,-35.156,-55.664,0.000
1709141787.924,-50.781,-48.340,-39.551,-54.199,0.000
1709141787.928,-46.387,-46.387,-44.922,-57.129,0.000
1709141787.932,-52.246,-48.828,-45.410,-53.711,0.000
1709141787.936,-51.758,-47.852,-47.363,-53.711,0.000
1709141787.940,-49.316,-45.410,-45.410,-59.570,0.000
1709141787.944,-45.898,-46.387,-35.645,-60.059,0.000
1709141787.947,-40.039,-41.504,-32.227,-53.223,0.000
1709141787.951,-46.875,-48.340,-33.203,-56.152,0.000
1709141787.955,-45.898,-48.340,-43.457,-54.688,0.000
1709141787.959,-36.133,-34.180,-49.805,-44.434,0.000
1709141787.963,-34.180,-39.062,-41.016,-47.852,0.000
1709141787.967,-40.039,-39.551,-32.715,-48.828,0.000
1709141787.971,-50.293,-31.250,-32.715,-50.781,0.000
1709141787.975,-45.410,-31.738,-42.480,-55.664,0.000
1709141787.979,-37.109,-44.434,-42.969,-51.270,0.000
1709141787.983,-33.203,-50.293,-44.434,-51.270,0.000
1709141787.987,-34.668,-45.898,-44.434,-48.828,0.000
1709141787.990,-39.062,-41.016,-38.086,-34.668,0.000
1709141787.994,-33.691,-35.156,-38.086,-31.250,0.000
1709141787.998,-23.926,-30.273,-41.016,-31.738,0.000
1709141788.002,-15.137,-33.203,-39.062,-14.648,0.000
1709141788.006,-13.672,-30.273,-39.551,-16.113,0.000
1709141788.010,-10.254,-21.973,-40.039,-19.043,0.000
1709141788.014,-7.812,-21.973,-40.527,-8.301,0.000
1709141788.018,-12.695,-25.879,-44.922,-2.930,0.000
1709141788.022,-13.184,-22.461,-47.363,-4.883,0.000
1709141788.026,-13.184,-32.227,-40.527,-9.277,0.000
1709141788.030,-17.090,-48.340,-29.785,-9.766,0.000
1709141788.034,-16.113,-32.715,-35.645,-11.230,0.000
1709141788.037,-15.137,-18.066,-39.551,-14.160,0.000
1709141788.041,-18.555,-25.391,-39.062,-24.902,0.000
1709141788.045,-19.531,-31.250,-43.457,-20.020,0.000
1709141788.049,-23.438,-27.344,-48.828,-8.301,0.000
1709141788.053,-27.344,-21.973,-48.828,-11.230,0.000
1709141788.057,-24.902,-31.250,-43.457,-22.461,0.000
1709141788.061,-18.066,-41.016,-39.062,-24.902,0.000
1709141788.065,-17.090,-37.598,-28.809,-18.066,0.000
1709141788.069,-23.438,-32.715,-22.461,-20.508,0.000
1709141788.073,-22.461,-34.180,-26.855,-20.508,0.000
1709141788.077,-18.066,-44.922,-26.855,-20.508,0.000
1709141788.080,-15.625,-49.805,-26.855,-24.414,0.000
1709141788.084,-21.973,-43.945,-36.621,-31.738,0.000
1709141788.088,-24.414,-28.809,-35.645,-33.691,0.000
1709141788.092,-26.367,-27.832,-30.273,-27.832,0.000
1709141788.096,-30.273,-34.668,-35.156,-30.273,0.000
1709141788.100,-29.297,-35.156,-37.598,-33.203,0.000
1709141788.104,-26.855,-35.645,-27.344,-28.809,0.000
1709141788.108,-32.715,-37.598,-27.832,-19.043,0.000
1709141788.112,-33.203,-41.504,-31.250,-20.020,0.000
1709141788.116,-23.438,-43.457,-33.203,-19.043,0.000
1709141788.119,-20.996,-39.551,-38.086,-21.973,0.000
1709141788.123,-26.367,-48.340,-42.480,-35.156,0.000
1709141788.127,-24.902,-48.828,-45.410,-32.227,0.000
1709141788.131,-16.602,-45.898,-43.457,-26.855,0.000
1709141788.135,-17.090,-45.410,-40.039,-24.902,0.000
1709141788.139,-19.531,-40.039,-40.039,-17.090,0.000
1709141788.143,-14.648,-34.668,-36.133,-20.020,0.000
1709141788.147,-16.113,-37.109,-39.062,-27.344,0.000
1709141788.151,-21.484,-34.668,-41.504,-28.320,0.000
1709141788.155,-19.531,-30.273,-32.715,-29.297,0.000
1709141788.159,-20.508,-34.180,-35.156,-31.738,0.000
1709141788.162,-24.414,-35.645,-39.551,-36.621,0.000
1709141788.166,-25.879,-37.109,-37.109,-41.016,0.000
1709141788.170,-27.344,-36.621,-38.086,-38.086,0.000
1709141788.174,-27.832,-34.180,-40.527,-38.574,0.000
1709141788.178,-19.043,-42.480,-39.551,-40.039,0.000
1709141788.182,-20.996,-49.805,-37.109,-34.180,0.000
1709141788.186,-32.227,-45.410,-38.086,-37.109,0.000
1709141788.190,-36.133,-48.340,-43.945,-47.363,0.000
1709141788.194,-39.062,-43.945,-41.992,-43.945,0.000
1709141788.198,-37.109,-35.645,-33.691,-42.480,0.000
1709141788.201,-40.527,-45.410,-36.621,-51.270,0.000
1709141788.205,-43.945,-47.852,-37.109,-49.805,0.000
1709141788.209,-44.434,-46.875,-38.574,-41.504,0.000
1709141788.213,-52.246,-53.711,-35.645,-40.527,0.000
1709141788.217,-54.688,-55.176,-36.133,-51.270,0.000
1709141788.221,-51.758,-45.410,-42.480,-63.965,0.000
1709141788.225,-43.945,-48.828,-37.109,-56.152,0.000
1709141788.229,-40.039,-58.594,-37.598,-43.945,0.000
1709141788.233,-42.480,-45.898,-41.504,-41.016,0.000
1709141788.237,-42.480,-41.992,-36.621,-44.922,0.000
1709141788.241,-39.062,-45.898,-34.180,-43.945,0.000
1709141788.244,-40.527,-47.852,-57.617,-37.109,0.000
1709141788.248,-38.086,-43.945,-57.617,-37.598,0.000
1709141788.252,-28.809,-40.039,-27.344,-32.227,0.000
1709141788.256,-27.832,-42.480,-24.902,-33.691,0.000
1709141788.260,-33.203,-42.480,-33.203,-41.016,0.000
1709141788.264,-37.109,-41.016,-37.109,-46.387,0.000
1709141788.268,-38.574,-42.480,-38.086,-50.293,0.000
1709141788.272,-41.992,-41.992,-36.133,-46.875,0.000
1709141788.276,-42.969,-39.551,-41.016,-52.734,0.000
1709141788.280,-46.875,-40.039,-43.457,-63.477,0.000
1709141788.284,-51.270,-43.457,-40.039,-58.594,0.000
1709141788.287,-51.758,-50.293,-35.645,-51.758,0.000
1709141788.291,-54.199,-52.246,-40.527,-54.688,0.000
1709141788.295,-47.363,-45.410,-41.016,-53.711,0.000
1709141788.299,-37.109,-49.805,-33.691,-46.875,0.000
1709141788.303,-36.621,-53.711,-41.504,-46.387,0.000
1709141788.307,-36.621,-48.828,-48.340,-44.434,0.000
1709141788.311,-30.762,-44.434,-42.969,-35.645,0.000
1709141788.315,-29.785,-40.527,-37.598,-30.273,0.000
1709141788.319,-36.133,-41.992,-45.898,-32.715,0.000
1709141788.323,-39.551,-49.316,-54.688,-44.434,0.000
1709141788.327,-45.410,-48.828,-47.363,-48.340,0.000
1709141788.330,-42.969,-52.246,-36.621,-31.250,0.000
1709141788.334,-41.992,-54.688,-35.645,-27.344,0.000
1709141788.338,-43.945,-42.480,-32.227,-40.527,0.000
1709141788.342,-40.039,-38.574,-27.832,-43.457,0.000
1709141788.346,-49.316,-42.969,-31.738,-52.734,0.000
1709141788.350,-56.641,-45.898,-34.668,-55.664,0.000
1709141788.354,-43.457,-55.176,-33.203,-49.316,0.000
1709141788.358,-45.410,-49.316,-38.574,-47.852,0.000
1709141788.362,-52.246,-42.969,-38.574,-49.316,0.000
1709141788.366,-51.270,-45.410,-33.691,-55.176,0.000
1709141788.370,-55.664,-39.062,-39.062,-51.758,0.000
1709141788.373,-56.641,-41.016,-47.363,-44.434,0.000
1709141788.377,-54.199,-46.875,-34.668,-37.109,0.000
1709141788.381,-51.270,-46.387,-28.320,-41.016,0.000
1709141788.385,-49.316,-45.410,-35.645,-44.922,0.000
1709141788.389,-52.734,-46.875,-46.387,-40.527,0.000
1709141788.393,-48.828,-52.246,-48.828,-36.621,0.000
1709141788.397,-44.922,-41.504,-34.180,-38.086,0.000
1709141788.401,-41.016,-33.203,-32.227,-47.852,0.000
1709141788.405,-40.039,-39.551,-36.621,-50.293,0.000
1709141788.409,-42.480,-34.668,-31.738,-47.363,0.000
1709141788.413,-43.457,-36.621,-32.715,-43.945,0.000
1709141788.416,-45.410,-55.176,-31.738,-39.062,0.000
1709141788.420,-48.340,-54.199,-28.320,-39.062,0.000
1709141788.424,-54.199,-48.828,-34.180,-44.922,0.000
1709141788.428,-55.664,-52.246,-38.086,-41.992,0.000
1709141788.432,-50.293,-44.434,-37.109,-30.762,0.000
1709141788.436,-41.504,-36.621,-39.062,-24.414,0.000
1709141788.440,-40.039,-41.992,-41.504,-31.738,0.000
1709141788.444,-48.828,-48.340,-40.527,-48.340,0.000
1709141788.448,-46.387,-52.734,-40.527,-53.223,0.000
1709141788.452,-35.645,-52.246,-41.016,-45.410,0.000
1709141788.456,-29.297,-46.387,-39.551,-40.527,0.000
1709141788.459,-29.297,-42.480,-45.898,-40.039,0.000
1709141788.463,-36.133,-41.016,-43.457,-47.363,0.000
1709141788.467,-43.945,-46.875,-40.039,-41.016,0.000
1709141788.471,-42.480,-43.457,-31.738,-41.504,0.000
1709141788.475,-35.645,-39.062,-25.879,-43.457,0.000
1709141788.479,-35.156,-44.922,-32.715,-40.527,0.000
1709141788.483,-38.086,-42.969,-36.621,-47.852,0.000
1709141788.487,-36.133,-40.039,-44.434,-50.293,0.000
1709141788.491,-39.062,-42.480,-44.922,-48.340,0.000
1709141788.495,-41.992,-42.480,-35.156,-47.852,0.000
1709141788.499,-40.527,-45.898,-36.133,-53.223,0.000
1709141788.502,-39.062,-46.875,-36.621,-51.270,0.000
1709141788.506,-38.574,-45.410,-41.504,-49.316,0.000
1709141788.510,-36.133,-47.852,-45.898,-44.434,0.000
1709141788.514,-38.574,-48.340,-40.527,-35.156,0.000
1709141788.518,-46.387,-53.223,-38.574,-46.875,0.000
1709141788.522,-45.410,-49.316,-41.016,-53.223,0.000
1709141788.526,-45.898,-39.062,-46.387,-49.805,0.000
1709141788.530,-47.363,-35.645,-49.805,-46.875,0.000
1709141788.534,-47.363,-34.180,-43.945,-41.504,0.000
1709141788.538,-50.293,-37.598,-41.992,-38.086,0.000
1709141788.542,-52.734,-49.805,-41.016,-40.527,0.000
1709141788.545,-49.316,-59.570,-37.598,-46.387,0.000
1709141788.549,-47.852,-54.199,-43.945,-45.898,0.000
1709141788.553,-45.410,-45.410,-38.086,-34.668,0.000
1709141788.557,-47.852,-45.410,-42.480,-35.156,0.000
1709141788.561,-48.828,-39.551,-43.945,-47.852,0.000
1709141788.565,-46.875,-39.062,-36.621,-47.363,0.000
1709141788.569,-51.270,-49.805,-41.016,-47.852,0.000
1709141788.573,-40.039,-52.734,-40.039,-37.109,0.000
1709141788.577,-34.668,-48.340,-41.016,-30.762,0.000
1709141788.581,-37.598,-44.922,-36.621,-33.691,0.000
1709141788.585,-30.273,-45.898,-36.621,-35.156,0.000
1709141788.588,-23.926,-47.363,-44.434,-40.527,0.000
1709141788.592,-28.809,-47.363,-46.875,-48.340,0.000
1709141788.596,-29.297,-41.992,-41.992,-49.316,0.000
1709141788.600,-22.949,-49.316,-38.086,-48.828,0.000
1709141788.604,-20.996,-52.734,-37.598,-46.875,0.000
1709141788.608,-20.020,-42.969,-39.551,-44.922,0.000
1709141788.612,-21.973,-41.016,-43.457,-44.434,0.000
1709141788.616,-13.184,-41.504,-43.945,-41.016,0.000
1709141788.620,-8.301,-43.457,-41.016,-37.598,0.000
1709141788.623,-11.719,-44.922,-40.039,-39.062,0.000
1709141788.628,-17.090,-43.457,-41.016,-39.551,0.000
1709141788.631,-21.973,-39.551,-36.621,-36.133,0.000
1709141788.635,-10.254,-30.273,-30.273,-22.461,0.000
1709141788.639,-8.789,-30.273,-30.762,-24.414,0.000
1709141788.643,-12.695,-37.598,-34.180,-33.203,0.000
1709141788.647,-18.066,-41.016,-40.039,-32.227,0.000
1709141788.651,-31.738,-44.922,-49.316,-32.227,0.000
1709141788.655,-32.227,-49.316,-41.016,-36.621,0.000
1709141788.659,-33.691,-35.156,-38.574,-43.457,0.000
1709141788.663,-41.504,-29.785,-37.109,-39.062,0.000
1709141788.667,-46.387,-30.762,-34.180,-43.945,0.000
1709141788.670,-48.828,-41.016,-43.457,-44.434,0.000
1709141788.674,-50.781,-49.316,-40.039,-43.945,0.000
1709141788.678,-45.898,-34.180,-29.297,-46.875,0.000
1709141788.682,-34.180,-30.273,-30.273,-36.621,0.000
1709141788.686,-38.086,-42.969,-38.086,-37.109,0.000
1709141788.690,-47.852,-45.898,-39.062,-43.457,0.000
1709141788.694,-40.527,-42.480,-36.621,-35.156,0.000
1709141788.698,-38.574,-47.852,-35.156,-40.039,0.000
1709141788.702,-38.086,-40.039,-31.738,-48.340,0.000
1709141788.706,-33.691,-36.133,-36.621,-41.504,0.000
1709141788.710,-33.691,-45.898,-34.180,-32.715,0.000
1709141788.713,-34.180,-45.410,-36.133,-40.527,0.000
1709141788.717,-26.855,-54.199,-37.598,-41.504,0.000
1709141788.721,0.000,-51.270,0.000,-39.551,0.000
1709141788.725,0.000,-33.691,0.000,-46.875,0.000
1709141788.729,0.000,-40.039,0.000,-33.691,0.000
1709141788.733,0.000,-41.504,0.000,-31.738,0.000
1709141788.737,0.000,-34.668,0.000,-36.621,0.000
1709141788.741,0.000,-27.344,0.000,-33.203,0.000
1709141788.745,0.000,-25.879,0.000,-43.945,0.000
1709141788.749,0.000,-31.250,0.000,-43.945,0.000
1709141788.753,0.000,-33.203,0.000,-32.715,0.000
1709141788.756,0.000,-31.250,0.000,-35.645,0.000
1709141788.760,0.000,-37.598,0.000,-46.875,0.000
1709141788.764,0.000,-44.434,0.000,-44.434,0.000
1709141788.768,-35.156,-45.410,-36.621,-46.387,0.000
1709141788.772,-33.203,-51.270,-35.645,-52.246,0.000
1709141788.776,-32.715,-41.504,-41.016,-51.270,0.000
1709141788.780,-36.133,-33.203,-41.016,-51.758,0.000
1709141788.784,-38.086,-35.645,-40.527,-50.781,0.000
1709141788.788,-43.457,-41.504,-39.062,-48.340,0.000
1709141788.792,-44.434,-46.387,-39.062,-39.551,0.000
1709141788.796,-41.016,-41.016,-41.016,-35.156,0.000
1709141788.799,-42.969,-36.133,-39.062,-34.180,0.000
1709141788.803,-42.480,-35.156,-37.598,-39.551,0.000
1709141788.807,-45.898,-33.691,-39.551,-46.387,0.000
1709141788.811,-47.852,-37.109,-48.828,-35.645,0.000
1709141788.815,-45.410,-39.551,-45.410,-29.297,0.000
1709141788.819,-46.387,-37.598,-33.691,-43.457,0.000
1709141788.823,-46.875,-43.945,-40.039,-46.387,0.000
1709141788.827,-59.082,-52.246,-52.246,-52.734,0.000
1709141788.831,-63.477,-48.828,-46.875,-56.641,0.000
1709141788.835,-57.129,-38.574,-38.574,-50.781,0.000
1709141788.839,-54.199,-41.016,-37.598,-44.922,0.000
1709141788.842,-47.852,-47.852,-40.039,-38.574,0.000
1709141788.846,-46.387,-36.621,-43.457,-46.387,0.000
1709141788.850,-47.363,-38.086,-43.457,-51.270,0.000
1709141788.854,-45.410,-45.898,-42.480,-49.316,0.000
1709141788.858,-42.969,-41.504,-41.016,-50.293,0.000
1709141788.862,-46.875,-34.180,-44.434,-54.688,0.000
1709141788.866,-45.410,-31.738,-47.852,-57.617,0.000
1709141788.870,-33.691,-34.668,-43.457,-56.641,0.000
1709141788.874,-29.785,-37.598,-39.551,-49.805,0.000
1709141788.878,-35.645,-40.039,-40.039,-49.316,0.000
1709141788.882,-35.645,-43.457,-41.992,-56.641,0.000
1709141788.885,-36.621,-38.574,-57.129,-51.758,0.000
1709141788.889,-41.992,-37.598,-52.246,-41.992,0.000
1709141788.893,-43.945,-36.621,-34.668,-47.852,0.000
1709141788.897,-48.340,-38.086,-35.645,-52.246,0.000
1709141788.901,-43.457,-41.992,-44.922,-50.293,0.000
1709141788.905,-38.086,-38.574,-43.457,-44.434,0.000
1709141788.909,-45.410,-39.551,-41.992,-48.340,0.000
1709141788.913,-45.898,-41.504,-41.992,-42.969,0.000
1709141788.917,-37.598,-40.039,-38.086,-36.621,0.000
1709141788.921,-35.156,-41.992,-40.039,-35.156,0.000
1709141788.924,-41.016,-49.316,-40.039,-45.898,0.000
1709141788.928,-47.363,-50.781,-35.645,-57.617,0.000
1709141788.932,-51.270,-41.016,-37.598,-42.969,0.000
1709141788.936,-47.852,-30.273,-45.410,-42.480,0.000
1709141788.940,-39.551,-32.715,-41.016,-48.828,0.000
1709141788.944,-37.598,-29.297,-38.086,-46.387,0.000
1709141788.948,-42.480,-26.855,-51.270,-49.316,0.000
1709141788.952,-46.387,-32.715,-56.152,-49.316,0.000
1709141788.956,-43.457,-42.969,-36.621,-44.922,0.000
1709141788.960,-34.668,-52.246,-33.691,-44.922,0.000
1709141788.964,-33.203,-42.480,-41.504,-45.898,0.000
1709141788.967,-36.621,-28.320,-34.668,-43.457,0.000
1709141788.971,-32.715,-34.180,-32.227,-35.645,0.000
1709141788.975,-28.809,-44.922,-30.762,-25.391,0.000
1709141788.979,-20.020,-40.039,-33.203,-27.344,0.000
1709141788.983,-17.090,-33.691,-35.156,-48.340,0.000
1709141788.987,-22.461,-36.621,-34.180,-42.969,0.000
1709141788.991,-26.367,-41.504,-43.457,-27.832,0.000
1709141788.995,-27.344,-46.387,-40.039,-20.508,0.000
1709141788.999,-19.531,-52.246,-31.738,-18.555,0.000
1709141789.003,-15.137,-45.898,-37.109,-27.832,0.000
1709141789.007,-19.531,-47.852,-36.621,-39.062,0.000
1709141789.010,-29.297,-41.992,-41.504,-47.852,0.000
1709141789.014,-31.250,-24.902,-47.363,-42.969,0.000
1709141789.018,-25.879,-26.367,-48.340,-34.668,0.000
1709141789.022,-29.297,-39.551,-45.898,-44.922,0.000
1709141789.026,-33.691,-45.898,-36.621,-48.828,0.000
1709141789.030,-36.133,-41.504,-30.273,-41.504,0.000
1709141789.034,-38.086,-42.480,-29.297,-39.551,0.000
1709141789.038,-38.086,-43.945,-34.180,-40.039,0.000
1709141789.042,-42.969,-38.574,-35.156,-47.852,0.000
1709141789.046,-42.480,-42.969,-32.715,-50.781,0.000
1709141789.050,-48.340,-49.316,-41.992,-46.875,0.000
1709141789.053,-52.246,-51.758,-38.086,-43.457,0.000
1709141789.057,-48.340,-53.711,-26.855,-39.551,0.000
1709141789.061,-46.875,-45.410,-25.879,-43.945,0.000
1709141789.065,-42.480,-39.062,-39.551,-44.922,0.000
1709141789.069,-51.758,-46.875,-36.621,-41.992,0.000
1709141789.073,-56.152,-39.062,-22.949,-41.504,0.000
1709141789.077,-39.551,-25.879,-28.320,-38.574,0.000
1709141789.081,-31.250,-31.250,-31.738,-34.668,0.000
1709141789.085,-31.738,-37.598,-28.320,-27.832,0.000
1709141789.089,-31.250,-36.621,-37.109,-30.762,0.000
1709141789.092,-33.691,-37.598,-42.969,-34.668,0.000
1709141789.096,-32.715,-38.086,-34.180,-32.227,0.000
1709141789.100,-33.691,-34.180,-35.645,-33.691,0.000
1709141789.104,-34.668,-35.156,-36.621,-37.598,0.000
1709141789.108,-33.203,-39.062,-34.180,-41.504,0.000
1709141789.112,-30.273,-39.551,-38.086,-43.457,0.000
1709141789.116,-32.227,-42.969,-39.551,-45.898,0.000
1709141789.120,-35.156,-48.828,-34.180,-43.457,0.000
1709141789.124,-32.715,-49.805,-46.875,-47.852,0.000
1709141789.128,-36.621,-49.316,-46.387,-42.480,0.000
1709141789.132,-39.551,-46.387,-28.320,-36.621,0.000
1709141789.135,-37.109,-42.480,-30.762,-44.434,0.000
1709141789.139,-33.203,-46.875,-34.180,-43.457,0.000
1709141789.143,-25.391,-54.199,-29.297,-44.922,0.000
1709141789.147,-28.809,-43.945,-25.391,-53.711,0.000
1709141789.151,-32.715,-31.738,-23.438,-46.387,0.000
1709141789.155,-33.691,-40.527,-36.621,-39.551,0.000
1709141789.159,-37.598,-40.039,-42.480,-43.945,0.000
1709141789.163,-42.969,-40.039,-36.621,-41.992,0.000
1709141789.167,-40.039,-46.387,-30.762,-33.203,0.000
1709141789.171,-38.086,-41.016,-30.762,-30.273,0.000
1709141789.175,-42.480,-31.738,-37.109,-26.367,0.000
1709141789.178,-38.086,-27.344,-30.762,-28.320,0.000
1709141789.182,-34.180,-33.203,-32.227,-31.738,0.000
1709141789.186,-36.133,-38.574,-34.180,-34.668,0.000
1709141789.190,-36.621,-41.504,-31.250,-35.156,0.000
1709141789.194,-39.551,-38.574,-34.180,-33.691,0.000
1709141789.198,-39.062,-38.086,-36.621,-38.086,0.000
1709141789.202,-41.992,-38.086,-36.621,-48.340,0.000
1709141789.206,-41.992,-36.621,-32.715,-51.758,0.000
1709141789.210,-34.668,-41.016,-33.203,-45.898,0.000
1709141789.214,-36.621,-40.527,-39.551,-44.434,0.000
1709141789.218,-37.598,-38.086,-34.668,-30.762,0.000
1709141789.222,-34.668,-34.668,-31.738,-32.227,0.000
1709141789.225,-29.785,-31.738,-40.527,-47.363,0.000
1709141789.229,-37.598,-30.762,-44.434,-46.875,0.000
1709141789.233,-39.062,-37.598,-41.992,-47.363,0.000
1709141789.237,-30.762,-41.016,-40.527,-39.062,0.000
1709141789.241,-28.809,-32.715,-37.109,-37.598,0.000
1709141789.245,-34.180,-35.645,-29.785,-41.992,0.000
1709141789.249,-29.297,-22.461,-21.484,-39.062,0.000
1709141789.253,-25.879,-13.672,-24.414,-34.668,0.000
1709141789.257,-22.949,-31.738,-28.809,-27.832,0.000
1709141789.261,-21.484,-36.621,-33.691,-24.414,0.000
1709141789.265,-30.273,-30.273,-43.945,-35.645,0.000
1709141789.268,-36.133,-34.180,-45.410,-40.527,0.000
1709141789.272,-36.621,-37.598,-48.828,-37.109,0.000
1709141789.276,-22.461,-34.180,-47.363,-23.926,0.000
1709141789.280,-16.602,-32.227,-40.039,-20.996,0.000
1709141789.284,-25.879,-36.133,-40.527,-35.156,0.000
1709141789.288,-28.809,-35.156,-39.551,-40.527,0.000
1709141789.292,-26.367,-30.762,-29.785,-31.738,0.000
1709141789.296,-28.320,-36.133,-30.762,-26.367,0.000
1709141789.300,-29.785,-41.504,-34.668,-30.762,0.000
1709141789.304,-34.180,-39.551,-30.762,-37.109,0.000
1709141789.308,-41.504,-44.434,-29.785,-33.203,0.000
1709141789.311,-42.969,-43.945,-31.738,-27.344,0.000
1709141789.315,-41.992,-40.039,-30.273,-28.809,0.000
1709141789.319,-39.551,-43.457,-27.344,-37.598,0.000
1709141789.323,-36.133,-43.457,-33.691,-44.922,0.000
1709141789.327,-37.598,-40.039,-39.551,-40.039,0.000
1709141789.331,-36.621,-41.992,-30.273,-37.598,0.000
1709141789.335,-35.156,-43.457,-34.668,-38.574,0.000
1709141789.339,-30.762,-44.434,-41.016,-38.086,0.000
1709141789.343,-30.762,-41.016,-41.016,-44.434,0.000
1709141789.347,-26.367,-32.227,-34.668,-51.270,0.000
1709141789.351,-24.414,-31.738,-31.250,-48.340,0.000
1709141789.354,-25.879,-34.668,-33.691,-43.945,0.000
1709141789.358,-25.879,-35.156,-38.086,-44.434,0.000
1709141789.362,-28.809,-44.922,-45.898,-44.922,0.000
1709141789.366,-27.344,-47.363,-48.828,-42.480,0.000
1709141789.370,-26.855,-40.039,-47.363,-40.527,0.000
1709141789.374,-27.832,-38.086,-43.945,-38.574,0.000
1709141789.378,-23.926,-38.574,-43.457,-40.039,0.000
1709141789.382,-15.137,-33.203,-45.410,-49.805,0.000
1709141789.386,-20.508,-29.785,-47.852,-50.293,0.000
1709141789.390,-23.926,-33.691,-46.875,-45.898,0.000
1709141789.394,-32.227,-44.434,-50.293,-47.363,0.000
1709141789.397,-41.016,-51.758,-43.457,-41.016,0.000
1709141789.401,-36.621,-45.410,-31.738,-40.039,0.000
1709141789.405,-39.551,-31.250,-35.156,-55.176,0.000
1709141789.409,-41.992,-33.691,-43.457,-55.176,0.000
1709141789.413,-43.457,-47.852,-47.852,-40.527,0.000
1709141789.417,-42.969,-42.480,-51.270,-41.992,0.000
1709141789.421,-44.922,-39.062,-57.129,-49.805,0.000
1709141789.425,-47.363,-38.574,-43.945,-45.410,0.000
1709141789.429,-45.898,-31.738,-34.668,-40.527,0.000
1709141789.433,-45.898,-34.668,-41.992,-46.387,0.000
1709141789.437,-45.410,-39.551,-46.875,-51.270,0.000
1709141789.440,-46.875,-41.016,-48.340,-49.805,0.000
1709141789.444,-42.480,-41.992,-45.898,-44.922,0.000
1709141789.448,-32.227,-33.203,-46.387,-37.109,0.000
1709141789.452,-31.250,-25.879,-41.504,-36.133,0.000
1709141789.456,-36.621,-35.645,-32.715,-32.227,0.000
1709141789.460,-37.109,-37.109,-31.738,-26.367,0.000
1709141789.464,-35.645,-32.715,-30.762,-37.598,0.000
1709141789.468,-36.133,-41.504,-40.527,-39.062,0.000
1709141789.472,-41.992,-43.945,-51.270,-42.969,0.000
1709141789.476,-42.480,-49.316,-42.969,-41.016,0.000
1709141789.480,-43.945,-61.035,-36.621,-37.598,0.000
1709141789.483,-42.480,-41.504,-43.457,-41.992,0.000
1709141789.487,-47.852,-27.344,-44.922,-53.711,0.000
1709141789.491,-51.270,-32.227,-36.621,-51.270,0.000
1709141789.495,-41.992,-35.156,-34.180,-43.945,0.000
1709141789.499,-38.574,-36.621,-43.457,-43.457,0.000
1709141789.503,-40.527,-41.504,-43.945,-30.762,0.000
1709141789.507,-46.387,-44.434,-31.250,-38.086,0.000
1709141789.511,-50.293,-46.387,-28.809,-54.199,0.000
1709141789.515,-53.711,-47.363,-31.250,-53.711,0.000
1709141789.519,-58.594,-44.434,-38.574,0.000,0.000
1709141789.523,-54.688,-40.527,-48.340,0.000,0.000
1709141789.526,-52.246,-40.527,-52.734,0.000,0.000
1709141789.530,-57.129,-53.223,-44.434,0.000,0.000
1709141789.534,-54.688,-54.199,-43.945,0.000,0.000
1709141789.538,-43.457,-36.621,-41.504,0.000,0.000
1709141789.542,-35.156,-39.062,-37.109,0.000,0.000
1709141789.546,-30.762,-48.340,-41.504,0.000,0.000
1709141789.550,-27.344,-39.551,-48.340,0.000,0.000
1709141789.554,-23.438,-44.922,-51.270,0.000,0.000
1709141789.558,-20.996,-47.363,-38.086,0.000,0.000
1709141789.562,-26.855,-36.133,-34.668,0.000,0.000
1709141789.566,-25.879,-44.434,-41.504,-35.156,0.000
1709141789.569,-26.367,-47.852,-40.527,-35.156,0.000
1709141789.573,-28.320,-39.551,-37.598,-32.227,0.000
1709141789.577,-27.344,-39.062,-36.133,-33.203,0.000
1709141789.581,-25.879,-30.273,-32.715,-34.668,0.000
1709141789.585,-33.691,-34.180,-37.109,-42.969,0.000
1709141789.589,-42.480,-45.410,-43.457,-57.129,0.000
1709141789.593,-42.969,-43.945,-37.598,-44.434,0.000
1709141789.597,-43.457,-36.133,-45.410,-41.504,0.000
1709141789.601,-38.574,-35.645,-46.875,-45.898,0.000
1709141789.605,-42.480,-49.805,-35.156,-46.387,0.000
1709141789.608,-48.828,-48.828,-42.480,-55.664,0.000
1709141789.612,-45.410,-37.598,-46.875,-53.711,0.000
1709141789.616,-41.016,-35.645,-39.062,-51.270,0.000
1709141789.620,-41.504,-38.574,-36.133,-51.758,0.000
1709141789.624,-45.410,-43.457,-41.992,-50.781,0.000
1709141789.628,-40.527,-39.062,-46.875,-42.480,0.000
1709141789.632,-34.180,-25.879,-49.805,-34.180,0.000
1709141789.636,-29.785,-37.598,-39.551,-22.949,0.000
1709141789.640,-35.645,-47.852,-29.785,-18.555,0.000
1709141789.644,-42.969,-44.434,-30.273,-41.016,0.000
1709141789.648,-38.086,-42.480,-36.621,-45.410,0.000
1709141789.651,-35.156,-32.227,-39.062,-42.969,0.000
1709141789.655,-33.691,-31.738,-30.762,-41.016,0.000
1709141789.659,-32.227,-33.691,-30.273,-38.086,0.000
1709141789.663,-33.203,-36.621,-35.156,-46.875,0.000
1709141789.667,-32.227,-43.945,-39.062,-49.316,0.000
1709141789.671,-28.809,-37.109,-35.645,-43.945,0.000
1709141789.675,-32.715,-35.645,-36.133,-42.969,0.000
1709141789.679,-37.598,-40.039,-50.781,-41.504,0.000
1709141789.683,-39.062,-38.574,-43.457,-33.691,0.000
1709141789.687,-42.969,-41.504,-29.785,-41.992,0.000
1709141789.690,-42.969,-37.109,-34.180,-55.664,0.000
1709141789.694,-38.086,-29.785,-34.668,-50.781,0.000
1709141789.698,-39.551,-37.598,-35.156,-53.711,0.000
1709141789.702,-42.969,-31.250,-34.180,-60.059,0.000
1709141789.706,-42.969,-24.902,-33.203,-58.594,0.000
1709141789.710,-41.016,-36.621,-39.062,-51.758,0.000
1709141789.714,-43.945,-41.016,-45.898,-48.340,0.000
1709141789.718,-43.945,-47.852,-45.898,-57.129,0.000
1709141789.722,-39.062,-59.082,-48.828,-54.688,0.000
1709141789.726,-41.504,-54.688,-52.734,-50.781,0.000
1709141789.730,-42.480,-41.992,-40.039,-46.875,0.000
1709141789.733,-41.992,-33.203,-47.852,-44.434,0.000
1709141789.737,-37.598,-38.086,-47.852,-45.410,0.000
1709141789.741,-36.133,-51.270,-33.691,-46.387,0.000
1709141789.745,-39.062,-44.434,-30.762,-48.340,0.000
1709141789.749,-40.527,-33.203,-31.738,-46.875,0.000
1709141789.753,-38.086,-42.969,-29.297,-36.133,0.000
1709141789.757,-28.809,-42.480,-32.715,-29.297,0.000
1709141789.761,-29.785,-42.480,-38.574,-43.945,0.000
1709141789.765,-36.621,-48.828,-42.969,-42.480,0.000
1709141789.769,-38.086,-41.016,-39.062,-33.203,0.000
1709141789.773,-34.180,-31.250,-35.156,-36.133,0.000
1709141789.777,-24.414,-27.832,-36.133,-32.227,0.000
1709141789.780,-33.203,-32.227,-31.738,-38.574,0.000
1709141789.784,-38.086,-42.480,-28.809,-46.875,0.000
1709141789.788,-37.109,-41.992,-28.320,-41.016,0.000
1709141789.792,-37.109,-30.762,-40.527,-41.504,0.000
1709141789.796,-32.227,-31.250,-41.992,-42.480,0.000
1709141789.800,-35.645,-38.086,-37.109,-49.316,0.000
1709141789.804,-36.621,-44.922,-45.410,-55.664,0.000
1709141789.808,-36.621,-41.992,-47.852,-53.711,0.000
1709141789.812,-45.410,-33.691,-36.133,-52.734,0.000
1709141789.816,-52.734,-36.133,-29.785,-52.734,0.000
1709141789.820,-45.410,-42.969,-32.715,-54.199,0.000
1709141789.823,-43.457,-41.016,-33.691,-52.734,0.000
1709141789.827,-45.410,-36.133,-28.320,-49.316,0.000
1709141789.831,-48.340,-38.086,-29.785,-44.434,0.000
1709141789.835,-45.410,-41.016,-37.598,-45.898,0.000
1709141789.839,-35.645,-38.574,-41.016,-49.316,0.000
1709141789.843,-35.156,-43.457,-36.133,-54.199,0.000
1709141789.847,-32.715,-48.340,-39.551,-49.805,0.000
1709141789.851,-25.879,-52.734,-47.852,-37.598,0.000
1709141789.855,-27.832,-41.016,-44.434,-32.227,0.000
1709141789.859,-27.344,-29.785,-47.363,-29.785,0.000
1709141789.863,-28.809,-42.969,-45.410,-35.645,0.000
1709141789.866,-32.715,-53.711,-39.062,-41.016,0.000
1709141789.870,-33.691,-50.293,-36.133,-37.598,0.000
1709141789.874,-37.109,-41.504,-34.180,-38.086,0.000
1709141789.878,-39.062,-48.828,-34.668,-25.879,0.000
1709141789.882,-33.691,-44.922,-31.738,-26.367,0.000
1709141789.886,-34.180,-34.180,-32.715,-32.715,0.000
1709141789.890,-37.109,-38.086,-38.574,-36.621,0.000
1709141789.894,-41.016,-41.992,-36.133,-42.969,0.000
1709141789.898,-38.086,-42.480,-31.738,-42.969,0.000
1709141789.902,-32.715,-43.457,-37.598,-41.016,0.000
1709141789.906,-32.715,-50.781,-36.621,-44.922,0.000
1709141789.909,-33.691,-41.504,-38.086,-44.434,0.000
1709141789.913,-34.668,-37.109,-33.691,-43.945,0.000
1709141789.917,-29.297,-46.875,-28.809,-48.828,0.000
1709141789.921,-27.832,-45.898,-33.691,-41.992,0.000
1709141789.925,-34.668,-40.527,-34.668,-34.668,0.000
1709141789.929,-34.180,-35.645,-39.551,-41.992,0.000
1709141789.933,-36.621,-41.016,-44.434,-42.969,0.000
1709141789.937,-35.156,-41.992,-39.062,-41.992,0.000
1709141789.941,-30.762,-33.691,-37.598,-39.062,0.000
1709141789.945,-33.691,-34.180,-36.133,-41.992,0.000
1709141789.948,-37.109,-36.133,-40.039,-45.898,0.000
1709141789.952,-41.992,-39.062,-41.992,-46.875,0.000
1709141789.956,-40.527,-48.828,-35.156,-48.340,0.000
1709141789.960,-34.668,-40.039,-36.133,-41.504,0.000
1709141789.964,-35.156,-38.574,-42.480,-46.387,0.000
1709141789.968,-34.668,-45.898,-46.387,-46.387,0.000
1709141789.972,-38.574,-39.062,-41.992,-47.363,0.000
1709141789.976,-35.156,-28.809,-41.016,-49.805,0.000
1709141789.980,-33.203,-25.391,-39.062,-45.410,0.000
1709141789.984,-36.621,-36.621,-29.297,-45.410,0.000
1709141789.988,-42.969,-41.504,-28.809,-50.781,0.000
1709141789.991,-42.480,-38.086,-42.480,-48.340,0.000
1709141789.995,-35.156,-37.109,-45.898,-30.273,0.000
1709141789.999,-31.738,-41.992,-36.621,-23.438,0.000
1709141790.003,-26.855,-39.551,-32.715,-29.297,0.000
1709141790.007,-23.926,-34.668,-32.715,-39.551,0.000
1709141790.011,-26.855,-41.992,-37.598,-45.410,0.000
1709141790.015,-26.367,-46.387,-41.016,-35.645,0.000
1709141790.019,-25.879,-35.156,-35.645,-32.227,0.000
1709141790.023,-28.320,-34.180,-31.250,-24.414,0.000
1709141790.027,-37.109,-48.828,-31.250,-27.832,0.000
1709141790.030,-41.504,-44.922,-29.785,-35.645,0.000
1709141790.034,-37.598,-32.715,-28.320,-38.086,0.000
1709141790.038,-26.367,-32.227,-31.738,-30.762,0.000
1709141790.042,-26.855,-35.156,-34.180,-32.715,0.000
1709141790.046,-35.156,-41.016,-29.785,-42.969,0.000
1709141790.050,-37.109,-42.969,-31.250,-47.363,0.000
1709141790.054,-40.039,-36.621,-33.691,-43.457,0.000
1709141790.058,-37.109,-35.156,-31.250,-33.203,0.000
1709141790.062,-35.645,-36.133,-34.668,-39.551,0.000
1709141790.066,-34.180,-37.598,-40.527,-47.363,0.000
1709141790.070,-37.598,-35.156,-37.109,-46.387,0.000
1709141790.073,-38.086,-32.227,-39.062,-46.875,0.000
1709141790.077,-37.109,-41.504,-39.062,-45.898,0.000
1709141790.081,-40.039,-35.156,-39.062,-50.781,0.000
1709141790.085,-41.504,-27.344,-41.016,-59.082,0.000
1709141790.089,-41.016,-32.715,-38.086,-54.199,0.000
1709141790.093,-40.527,-36.621,-39.551,-48.828,0.000
1709141790.097,-33.691,-32.227,-43.457,-47.363,0.000
1709141790.101,-30.273,-30.762,-45.410,-43.457,0.000
1709141790.105,-38.574,-39.551,-42.969,-43.457,0.000
1709141790.109,-39.062,-39.551,-43.945,-50.781,0.000
1709141790.113,-36.621,-36.621,-46.387,-49.805,0.000
1709141790.116,-38.574,-31.738,-38.574,-40.527,0.000
1709141790.120,-33.203,-28.320,-35.156,-41.016,0.000
1709141790.124,-36.621,-34.668,-35.156,-41.504,0.000
1709141790.128,-39.062,-39.062,-33.691,-40.039,0.000
1709141790.132,-44.922,-41.992,-32.227,-40.039,0.000
1709141790.136,-54.199,-41.992,-38.574,-39.062,0.000
1709141790.140,-48.340,-45.898,-37.109,-40.527,0.000
1709141790.144,-48.340,-41.992,-35.645,-46.875,0.000
1709141790.148,-57.129,-39.551,-35.645,-40.039,0.000
1709141790.152,-61.523,-40.527,-35.645,-40.527,0.000
1709141790.156,-61.035,-38.086,-40.527,-46.875,0.000
1709141790.159,-51.758,-40.527,-34.668,-42.480,0.000
1709141790.163,-46.387,-40.527,-36.621,-40.527,0.000
1709141790.167,-53.711,-36.621,-46.875,-42.969,0.000
1709141790.171,-54.688,-38.086,-44.434,-38.574,0.000
1709141790.175,-53.223,-43.945,-47.852,-41.504,0.000
1709141790.179,-44.922,-41.504,-49.316,-49.316,0.000
1709141790.183,-42.480,-37.598,-41.992,-56.152,0.000
1709141790.187,-46.387,-43.945,-47.852,-58.105,0.000
1709141790.191,-52.734,-44.922,-47.363,-57.617,0.000
1709141790.195,-56.152,-42.480,-33.203,-48.340,0.000
1709141790.199,-43.457,-46.875,-29.785,-43.457,0.000
1709141790.202,-32.227,-45.898,-39.062,-52.734,0.000
1709141790.206,-31.250,-39.062,-41.016,-49.316,0.000
1709141790.210,-26.367,-33.203,-35.645,-38.086,0.000
1709141790.214,-22.949,-28.809,-31.738,-37.109,0.000
1709141790.218,-22.461,-29.785,-29.785,-36.133,0.000
1709141790.222,-31.250,-34.180,-34.668,-41.992,0.000
1709141790.226,-28.809,-35.156,-36.133,-42.969,0.000
1709141790.230,-29.297,-33.203,-30.273,-42.969,0.000
1709141790.234,-38.574,-34.668,-32.715,-41.992,0.000
1709141790.238,-41.504,-41.992,-34.668,-39.062,0.000
1709141790.242,-42.480,-42.480,-27.832,-40.527,0.000
1709141790.245,-49.805,-45.898,-25.391,-50.293,0.000
1709141790.249,-50.293,-50.781,-29.297,-53.223,0.000
1709141790.253,-45.410,-43.945,-38.086,-35.645,0.000
1709141790.257,-41.504,-39.551,-41.992,-26.367,0.000
1709141790.261,-33.691,-46.387,-31.738,-33.691,0.000
1709141790.265,-33.203,-42.480,-31.250,-39.551,0.000
1709141790.269,-41.992,-39.551,-38.086,-36.133,0.000
1709141790.273,-44.434,-44.434,-36.621,-37.109,0.000
1709141790.277,-46.387,-42.480,-35.645,-38.086,0.000
1709141790.281,-43.945,-38.574,-33.203,-36.621,0.000
1709141790.285,-41.504,-31.738,-30.762,-41.504,0.000
1709141790.288,-45.410,-37.109,-38.086,-42.969,0.000
1709141790.292,-47.363,-47.363,-41.504,-43.457,0.000
1709141790.296,-47.363,-48.340,-42.480,-45.410,0.000
1709141790.300,-44.922,-49.316,-43.945,-36.133,0.000
1709141790.304,-40.527,-49.316,-42.969,-48.828,0.000
1709141790.308,-39.062,-47.852,-45.898,-52.734,0.000
1709141790.312,-39.062,-42.480,-42.480,-36.133,0.000
1709141790.316,-31.250,-41.504,-37.109,-30.273,0.000
1709141790.320,-29.785,-41.016,-40.039,-26.855,0.000
1709141790.324,-29.297,-37.598,-39.062,-31.738,0.000
1709141790.328,-27.832,-41.504,-41.504,-36.133,0.000
1709141790.331,-34.668,-44.922,-36.133,-33.203,0.000
1709141790.335,-35.645,-48.340,-30.762,-31.738,0.000
1709141790.339,-25.391,-41.016,-28.320,-29.785,0.000
1709141790.343,-28.809,-43.945,-28.809,-26.855,0.000
1709141790.347,-37.598,-53.711,-31.250,-31.738,0.000
1709141790.351,-40.527,-40.527,-37.109,-38.574,0.000
1709141790.355,-38.086,-28.320,-43.945,-38.086,0.000
1709141790.359,-35.645,-28.320,-37.598,-32.715,0.000
1709141790.363,-35.156,-29.297,-34.668,-32.227,0.000
1709141790.367,-31.250,-30.762,-39.062,-38.086,0.000
1709141790.371,-27.344,-29.297,-32.715,-32.227,0.000
1709141790.374,-23.926,-28.320,-32.715,-25.391,0.000
1709141790.378,-18.066,-30.273,-37.109,-20.508,0.000
1709141790.382,-18.066,-43.945,-34.180,-23.926,0.000
1709141790.386,-25.391,-52.246,-36.621,-27.832,0.000
1709141790.390,-28.809,-38.086,-31.250,-29.297,0.000
1709141790.394,-27.344,-25.879,-32.715,-33.691,0.000
1709141790.398,-27.344,-27.344,-42.969,-35.156,0.000
1709141790.402,-31.738,-30.762,-34.668,-35.156,0.000
1709141790.406,-34.668,-32.715,-31.250,-37.109,0.000
1709141790.410,-31.738,-37.109,-31.738,-37.598,0.000
1709141790.413,-27.832,-43.457,-31.738,-38.574,0.000
1709141790.417,-22.461,-40.039,-32.715,-38.574,0.000
1709141790.421,-15.137,-42.969,-26.855,-35.156,0.000
1709141790.425,-19.043,-40.527,-25.879,-39.062,0.000
1709141790.429,-27.832,-32.715,-24.902,-42.480,0.000
1709141790.433,-30.762,-36.621,-28.320,-29.297,0.000
1709141790.437,-27.832,-30.273,-34.180,-24.414,0.000
1709141790.441,-26.367,-26.855,-26.855,-29.297,0.000
1709141790.445,-28.809,-34.180,-24.414,-36.621,0.000
1709141790.449,-29.785,-38.574,-36.621,-43.945,0.000
1709141790.452,-25.879,-39.551,-42.969,-44.922,0.000
1709141790.456,-21.484,-36.133,-41.992,-35.156,0.000
1709141790.460,-19.043,-37.109,-35.645,-25.391,0.000
1709141790.464,-19.531,-43.945,-24.902,-34.180,0.000
1709141790.468,-29.785,-42.480,-22.949,-47.852,0.000
1709141790.472,-36.621,-43.457,-26.855,-42.480,0.000
1709141790.476,-34.668,-41.016,-25.391,-39.062,0.000
1709141790.480,-33.691,-41.992,-29.297,-41.992,0.000
1709141790.484,-38.574,-39.551,-31.738,-46.875,0.000
1709141790.488,-42.969,-32.227,-27.832,-50.293,0.000
1709141790.492,-45.410,-37.109,-31.250,-50.293,0.000
1709141790.495,-41.504,-44.434,-33.203,-37.598,0.000
1709141790.499,-39.551,-37.598,-38.574,-36.133,0.000
1709141790.503,-42.480,-35.645,-42.480,-44.434,0.000
1709141790.507,-40.039,-40.039,-32.715,-43.945,0.000
1709141790.511,-38.574,-28.320,-28.320,-50.293,0.000
1709141790.515,-40.527,-28.320,-36.621,-51.270,0.000
1709141790.519,-43.945,-39.551,-37.109,-52.246,0.000
1709141790.523,-40.527,-42.480,-31.250,-55.664,0.000
1709141790.527,-45.410,-43.945,-31.738,-58.594,0.000
1709141790.531,-52.734,-39.062,-39.062,-63.477,0.000
1709141790.535,-45.898,-39.062,-39.551,-50.781,0.000
1709141790.538,-43.945,-47.363,-39.062,-42.969,0.000
1709141790.542,-41.992,-42.480,-35.645,-52.246,0.000
1709141790.546,-38.086,-38.574,-38.574,-46.875,0.000
1709141790.550,-38.574,-39.062,-44.922,-43.457,0.000
1709141790.554,-43.457,-30.762,-37.598,-47.363,0.000
1709141790.558,-40.039,-25.879,-36.133,-48.340,0.000
1709141790.562,-27.344,-27.832,-33.691,-41.992,0.000
1709141790.566,-21.484,-35.156,-34.180,-39.062,0.000
1709141790.570,-21.484,-38.086,-37.598,-37.598,0.000
1709141790.574,-19.043,-33.203,-41.504,-29.785,0.000
1709141790.578,-15.625,-41.016,-50.781,-25.879,0.000
1709141790.581,-20.996,-45.898,-41.992,-23.926,0.000
1709141790.585,-36.133,-37.598,-41.016,-27.832,0.000
1709141790.589,-35.645,-35.156,-43.457,-33.691,0.000
1709141790.593,-34.668,-37.598,-42.480,-30.273,0.000
1709141790.597,-37.598,-36.133,-44.922,-30.762,0.000
1709141790.601,-40.039,-34.668,-41.016,-40.527,0.000
1709141790.605,-42.969,-39.551,-37.109,-45.898,0.000
1709141790.609,-48.828,-42.480,-40.527,-46.387,0.000
1709141790.613,-46.875,-36.133,-42.969,-49.316,0.000
1709141790.617,-46.875,-30.762,-38.574,-52.246,0.000
1709141790.621,-55.664,-33.203,-34.668,-50.293,0.000
1709141790.624,-54.199,-41.016,-29.297,-55.664,0.000
1709141790.628,-49.805,-39.551,-31.250,-51.758,0.000
1709141790.632,-52.246,-32.715,-43.457,-56.641,0.000
1709141790.636,-54.199,-32.715,-51.270,-61.523,0.000
1709141790.640,-54.199,-37.598,-54.688,-52.734,0.000
1709141790.644,-52.734,-39.062,-49.316,-58.105,0.000
1709141790.648,-50.293,-43.945,-35.156,-57.617,0.000
1709141790.652,-51.758,-47.852,-29.297,-47.852,0.000
1709141790.656,-41.504,-40.039,-30.762,-45.410,0.000
1709141790.660,-41.992,-37.598,-32.715,-55.664,0.000
1709141790.664,-52.734,-42.969,-34.668,-51.270,0.000
1709141790.667,-51.758,-34.180,-45.410,-46.387,0.000
1709141790.671,-44.922,-25.391,-45.410,-48.828,0.000
1709141790.675,-41.992,-30.273,-31.738,-33.691,0.000
1709141790.679,-41.504,-36.133,-28.320,-41.016,0.000
1709141790.683,-41.992,-38.086,-34.668,-55.176,0.000
1709141790.687,-46.387,-41.992,-41.016,-48.340,0.000
1709141790.691,-46.387,-45.898,-45.898,-46.387,0.000
1709141790.695,-44.434,-41.992,-46.875,-48.340,0.000
1709141790.699,-35.645,-41.992,-44.434,-49.316,0.000
1709141790.703,-27.832,-44.434,-38.574,-47.852,0.000
1709141790.707,-29.297,-37.109,-31.738,-44.434,0.000
1709141790.710,-34.180,-34.180,-31.250,-40.039,0.000
1709141790.714,-37.109,-40.527,-39.062,-36.133,0.000
1709141790.718,-33.203,-46.387,-43.945,-37.598,0.000
1709141790.722,-27.832,-41.016,-46.387,-38.574,0.000
1709141790.726,-26.855,-29.297,-37.109,-38.574,0.000
1709141790.730,-34.668,-30.762,-31.738,-40.527,0.000
1709141790.734,-35.156,-31.250,-29.785,-37.109,0.000
1709141790.738,-29.297,-27.344,-30.273,-32.715,0.000
1709141790.742,-33.691,-35.645,-41.016,-39.062,0.000
1709141790.746,-37.598,-43.457,-38.086,-39.062,0.000
1709141790.750,-37.598,-43.945,-36.133,-33.691,0.000
1709141790.753,-35.645,-39.062,-39.062,-31.738,0.000
1709141790.757,-29.297,-40.527,-37.598,-33.203,0.000
1709141790.761,-22.949,-36.621,-33.691,-32.227,0.000
1709141790.765,-19.043,-37.109,-27.832,-27.832,0.000
1709141790.769,-25.391,-37.598,-30.762,-34.180,0.000
1709141790.773,-35.156,-32.715,-40.039,-32.227,0.000
1709141790.777,-29.297,-30.273,-36.133,-26.855,0.000
1709141790.781,-20.508,-30.762,-35.645,-33.691,0.000
1709141790.785,-21.484,-34.668,-45.410,-39.551,0.000
1709141790.789,-23.926,-34.180,-44.434,-40.039,0.000
1709141790.792,-25.879,-42.480,-35.645,-44.434,0.000
1709141790.796,-32.715,-45.898,-36.621,-43.945,0.000
1709141790.800,-41.504,-35.645,-45.410,-46.387,0.000
1709141790.804,-38.574,-35.156,-32.715,-53.711,0.000
1709141790.808,-28.320,-39.062,-17.578,-41.992,0.000
1709141790.812,-29.297,-27.344,-22.461,-28.809,0.000
1709141790.816,-36.621,-22.461,-39.551,-32.227,0.000
1709141790.820,-32.715,-30.273,-42.480,-34.668,0.000
1709141790.824,-30.762,-31.738,-28.809,-39.062,0.000
1709141790.828,-32.227,-30.762,-24.902,-38.574,0.000
1709141790.832,-29.297,-33.203,-30.762,-32.715,0.000
1709141790.835,-28.320,-34.180,-32.715,-23.926,0.000
1709141790.839,-32.227,-35.156,-33.203,-25.391,0.000
1709141790.843,-31.250,-35.645,-36.621,-35.156,0.000
1709141790.847,-32.227,-34.180,-32.227,-33.691,0.000
1709141790.851,-36.133,-29.297,-35.645,-25.879,0.000
1709141790.855,-35.645,-20.996,-31.738,-18.066,0.000
1709141790.859,-33.203,-24.414,-16.602,-22.461,0.000
1709141790.863,-29.297,-32.227,-19.531,-30.762,0.000
1709141790.867,-35.645,-30.273,-20.020,-31.738,0.000
1709141790.871,-37.598,-25.391,-21.973,-28.320,0.000
1709141790.874,-36.621,-23.438,-27.832,-30.273,0.000
1709141790.878,-32.227,-30.273,-29.785,-34.668,0.000
1709141790.882,-28.809,-39.551,-33.691,-33.203,0.000
1709141790.886,-34.668,-36.621,-31.738,-32.715,0.000
1709141790.890,-32.715,-28.320,-28.320,-32.227,0.000
1709141790.894,-27.832,-33.691,-34.180,-30.273,0.000
1709141790.898,-30.273,-30.273,-35.156,-28.809,0.000
1709141790.902,-28.809,-22.949,-31.738,-29.297,0.000
1709141790.906,-27.832,-30.762,-32.227,-35.156,0.000
1709141790.910,-30.762,-35.156,-28.809,-40.527,0.000
1709141790.914,-34.180,-44.434,-25.391,-34.668,0.000
1709141790.917,-34.668,-47.363,-24.902,-45.898,0.000
1709141790.921,-36.621,-44.434,-27.832,-55.664,0.000
1709141790.925,-39.062,-37.598,-34.668,-55.664,0.000
1709141790.929,-46.875,-30.762,-39.062,-60.059,0.000
1709141790.933,-50.781,-24.902,-35.645,-53.223,0.000
1709141790.937,-38.574,-24.902,-39.062,-48.340,0.000
1709141790.941,-28.320,-29.785,-42.480,-47.363,0.000
1709141790.945,-34.180,-39.551,-34.668,-43.457,0.000
1709141790.949,-40.039,-49.805,-31.250,-39.551,0.000
1709141790.953,-39.062,-44.434,-39.062,-38.574,0.000
1709141790.957,-43.457,-37.109,-36.621,-31.250,0.000
1709141790.960,-44.434,-35.645,-30.762,-23.926,0.000
1709141790.964,-35.645,-31.738,-30.762,-31.738,0.000
1709141790.968,-31.738,-28.809,-37.109,-33.691,0.000
1709141790.972,-36.133,-32.715,-36.621,-34.668,0.000
1709141790.976,-34.180,-44.434,-30.762,-30.762,0.000
1709141790.980,-37.598,-41.504,-32.715,-34.180,0.000
1709141790.984,-41.016,-29.297,-31.250,-39.551,0.000
1709141790.988,-41.016,-34.668,-31.738,-36.133,0.000
1709141790.992,-43.457,-39.551,-43.945,-40.039,0.000
1709141790.996,-35.645,-36.133,-41.992,-39.551,0.000
1709141791.000,-39.062,-44.434,-41.016,-40.527,0.000
1709141791.003,-39.062,-51.270,-45.898,-32.227,0.000
1709141791.007,-38.086,-48.340,-37.598,-37.109,0.000
1709141791.011,-37.109,-47.363,-30.273,-36.133,0.000
1709141791.015,-32.715,-41.992,-33.691,-26.367,0.000
1709141791.019,-31.250,-42.969,-34.180,-28.809,0.000
1709141791.023,-27.832,-39.062,-32.715,-34.668,0.000
1709141791.027,-37.598,-33.203,-44.922,-42.969,0.000
1709141791.031,-51.758,-46.387,-42.969,-49.316,0.000
1709141791.035,-53.711,-47.852,-37.598,-54.688,0.000
1709141791.039,-52.246,-44.434,-46.875,-53.711,0.000
1709141791.043,-48.340,-42.480,-45.898,-48.828,0.000
1709141791.046,-46.875,-44.434,-45.898,-46.387,0.000
1709141791.050,-51.270,-50.293,-45.898,-38.574,0.000
1709141791.054,-53.711,-44.922,-34.668,-37.109,0.000
1709141791.058,-45.410,-38.086,-30.273,-37.109,0.000
1709141791.062,-44.922,-40.527,-42.969,-38.086,0.000
1709141791.066,-52.246,-47.363,-42.969,-48.340,0.000
1709141791.070,-47.363,-39.062,-34.668,-49.805,0.000
1709141791.074,-49.805,-33.203,-37.109,-46.387,0.000
1709141791.078,-57.129,-35.156,-37.598,-45.898,0.000
1709141791.082,-55.664,-29.297,-39.062,-53.711,0.000
1709141791.086,-52.246,-36.133,-43.457,-64.941,0.000
1709141791.089,-47.363,-39.062,-48.828,-63.965,0.000
1709141791.093,-45.898,-29.785,-54.199,-55.176,0.000
1709141791.097,-49.316,-25.879,-49.316,-53.711,0.000
1709141791.101,-41.992,-27.344,-41.016,-53.223,0.000
1709141791.105,-37.109,-28.320,-46.875,-53.223,0.000
1709141791.109,-40.039,-27.832,-51.270,-57.129,0.000
1709141791.113,-40.039,-28.320,-37.109,-54.688,0.000
1709141791.117,-34.668,-36.133,-30.273,-45.898,0.000
1709141791.121,-22.949,-39.551,-34.668,-47.852,0.000
1709141791.125,-26.855,-33.691,-40.527,-54.688,0.000
1709141791.129,-29.297,-35.156,-41.504,-46.387,0.000
1709141791.132,-22.949,-41.016,-39.062,-38.574,0.000
1709141791.136,-20.020,-25.879,-44.434,-28.809,0.000
1709141791.140,-22.949,-15.625,-52.246,-26.855,0.000
1709141791.144,-24.414,-26.855,-40.527,-38.574,0.000
1709141791.148,-25.879,-28.809,-33.203,-40.039,0.000
1709141791.152,-29.297,-25.391,-37.598,-45.898,0.000
1709141791.156,-31.738,-29.297,-35.156,-50.781,0.000
1709141791.160,-36.621,-33.203,-34.180,-52.734,0.000
1709141791.164,-39.551,-30.762,-35.645,-58.105,0.000
1709141791.168,-39.062,-31.738,-39.551,-62.988,0.000
1709141791.172,-42.969,-33.203,-50.293,-65.430,0.000
1709141791.175,-44.922,-36.621,-39.551,-56.641,0.000
1709141791.179,-44.434,-40.527,-31.250,-52.734,0.000
1709141791.183,-43.945,-36.621,-36.133,-49.805,0.000
1709141791.187,-44.434,-38.574,-29.297,-48.340,0.000
1709141791.191,-37.598,-48.828,-26.367,-52.246,0.000
1709141791.195,-36.621,-43.945,-27.344,-44.434,0.000
1709141791.199,-36.133,-29.297,-25.391,-41.016,0.000
1709141791.203,-28.809,-19.043,-20.996,-41.504,0.000
1709141791.207,-35.156,-20.020,-28.320,-50.781,0.000
1709141791.211,-42.480,-29.297,-36.621,-48.340,0.000
1709141791.215,-44.434,-30.273,-40.039,-40.527,0.000
1709141791.218,-34.180,-34.180,-41.504,-42.969,0.000
1709141791.222,-32.227,-40.527,-40.039,-44.434,0.000
1709141791.226,-37.598,-45.410,-43.457,-44.434,0.000
1709141791.230,-35.645,-42.969,-41.992,-31.738,0.000
1709141791.234,-31.738,-28.320,-36.621,-34.180,0.000
1709141791.238,-31.250,-29.785,-41.016,-43.457,0.000
1709141791.242,-34.180,-33.691,-36.133,-41.504,0.000
1709141791.246,-37.109,-31.250,-29.297,-43.457,0.000
1709141791.250,-30.762,-32.715,-26.855,-41.016,0.000
1709141791.254,-20.996,-38.086,-36.621,-33.691,0.000
1709141791.258,-22.949,-41.504,-40.039,-34.180,0.000
1709141791.261,-23.926,-41.016,-38.574,-44.434,0.000
1709141791.265,-29.785,-48.340,-43.457,-47.852,0.000
1709141791.269,-38.574,-46.387,-44.434,-49.805,0.000
1709141791.273,-32.715,-39.551,-34.668,-49.316,0.000
1709141791.277,-29.297,-34.180,-26.855,-37.598,0.000
1709141791.281,-36.621,-31.250,-37.598,-36.133,0.000
1709141791.285,-41.504,-38.574,-46.875,-49.805,0.000
1709141791.289,-46.875,-45.898,-37.598,-49.316,0.000
1709141791.293,-46.387,-41.504,-30.273,-45.898,0.000
1709141791.297,-38.086,-37.109,-36.621,-48.828,0.000
1709141791.301,-38.086,-35.156,-38.086,-49.805,0.000
1709141791.304,-29.297,-32.227,-32.227,-46.387,0.000
1709141791.308,-20.508,-37.109,-32.715,-41.016,0.000
1709141791.312,-21.484,-41.016,-43.457,-38.086,0.000
1709141791.316,-24.414,-31.250,-39.551,-33.691,0.000
1709141791.320,-22.949,-29.785,-32.227,-34.668,0.000
1709141791.324,-28.320,-34.180,-38.574,-38.086,0.000
1709141791.328,-38.086,-33.203,-39.551,-36.621,0.000
1709141791.332,-31.250,-38.086,-38.086,-26.367,0.000
1709141791.336,-22.949,-44.434,-35.156,-17.090,0.000
1709141791.340,-33.203,-39.551,-37.598,-25.879,0.000
1709141791.343,-36.621,-44.434,-39.551,-38.086,0.000
1709141791.347,-28.809,-41.992,-32.715,-33.203,0.000
1709141791.351,-31.250,-35.645,-42.969,-20.996,0.000
1709141791.355,-31.250,-34.180,-44.922,-23.438,0.000
1709141791.359,-26.367,-35.156,-37.598,-27.832,0.000
1709141791.363,-25.879,-41.016,-37.109,-29.785,0.000
1709141791.367,-25.391,-42.969,-43.945,-31.250,0.000
1709141791.371,-23.438,-46.387,-42.480,-32.227,0.000
1709141791.375,-20.020,-39.551,-36.133,-25.879,0.000
1709141791.379,-21.973,-35.645,-40.527,-22.949,0.000
1709141791.383,-24.902,-34.180,-50.293,-29.785,0.000
1709141791.386,-30.762,-40.039,-48.828,-33.203,0.000
1709141791.390,-28.809,-40.527,-40.039,-30.273,0.000
1709141791.394,-32.227,-33.691,-37.598,-31.738,0.000
1709141791.398,-33.203,-35.156,-47.852,-36.621,0.000
1709141791.402,-29.297,-35.156,-48.828,-43.457,0.000
1709141791.406,-38.574,-26.855,-48.340,-52.246,0.000
1709141791.410,-40.039,-28.809,-52.246,-54.688,0.000
1709141791.414,-45.410,-37.109,-47.852,-55.664,0.000
1709141791.418,-42.480,-35.645,-51.758,-48.828,0.000
1709141791.422,-37.598,-41.504,-44.434,-43.945,0.000
1709141791.426,-49.316,-53.711,-41.992,-49.805,0.000
1709141791.429,-49.805,-49.805,-47.363,-57.129,0.000
1709141791.433,-38.574,-46.387,-45.898,-43.457,0.000
1709141791.437,-33.691,-44.434,-41.504,-31.250,0.000
1709141791.441,-34.180,-40.527,-41.016,-44.434,0.000
1709141791.445,-42.480,-42.480,-40.039,-53.711,0.000
1709141791.449,-45.410,-37.598,-41.016,-47.852,0.000
1709141791.453,-42.480,-39.551,-49.316,-44.922,0.000
1709141791.457,-40.039,-44.922,-43.945,-42.480,0.000
1709141791.461,-46.387,-48.828,-39.062,-53.223,0.000
1709141791.465,-40.039,-47.363,-46.387,-62.988,0.000
1709141791.469,-41.504,-50.781,-48.828,-52.734,0.000
1709141791.472,-50.293,-59.082,-44.434,-44.434,0.000
1709141791.476,-40.039,-48.828,-53.223,-41.504,0.000
1709141791.480,-38.086,-39.062,-46.387,-42.480,0.000
1709141791.484,-41.992,-32.227,-37.598,-45.410,0.000
1709141791.488,-45.410,-28.809,-38.086,-50.293,0.000
1709141791.492,-43.457,-28.320,-31.738,-54.688,0.000
1709141791.496,-39.062,-24.902,-29.297,-49.805,0.000
1709141791.500,-40.039,-30.762,-31.738,-44.922,0.000
1709141791.504,-36.133,-35.645,-37.598,-51.270,0.000
1709141791.508,-37.109,-35.156,-46.387,-54.688,0.000
1709141791.512,-39.062,-37.109,-44.434,-43.945,0.000
1709141791.515,-29.297,-37.109,-38.574,-26.855,0.000
1709141791.519,-26.367,-34.180,-41.992,-24.414,0.000
1709141791.523,-27.344,-35.645,-46.875,-38.086,0.000
1709141791.527,-29.785,-36.133,-46.875,-45.898,0.000
1709141791.531,-34.668,-35.156,-45.898,-34.668,0.000
1709141791.535,-35.645,-40.527,-41.992,-30.762,0.000
1709141791.539,-35.156,-32.227,-38.086,-39.062,0.000
1709141791.543,-31.250,-33.203,-32.227,-36.133,0.000
1709141791.547,-31.250,-43.457,-32.227,-32.715,0.000
1709141791.551,-40.039,-43.457,-36.621,-43.945,0.000
1709141791.554,-42.480,-41.992,-30.273,-50.293,0.000
1709141791.558,-40.527,-43.457,-36.133,-43.945,0.000
1709141791.562,-42.480,-41.504,-45.410,-46.875,0.000
1709141791.566,-48.340,-32.715,-45.898,-61.035,0.000
1709141791.570,-51.270,-30.273,-43.945,-58.105,0.000
1709141791.574,-52.734,-39.062,-39.062,-46.875,0.000
1709141791.578,-54.199,-40.039,-36.133,-42.480,0.000
1709141791.582,-51.270,-37.598,-29.785,-42.480,0.000
1709141791.586,-47.852,-43.457,-36.621,-48.828,0.000
1709141791.590,-43.945,-47.363,-47.363,-46.387,0.000
1709141791.594,-41.992,-40.039,-34.180,-36.133,0.000
1709141791.597,-37.598,-31.738,-27.832,-34.668,0.000
1709141791.601,-32.227,-40.039,-31.738,-39.551,0.000
1709141791.605,-38.086,-37.109,-39.551,-45.898,0.000
1709141791.609,-38.086,-29.297,-42.480,-45.898,0.000
1709141791.613,-27.344,-29.297,-36.133,-42.480,0.000
1709141791.617,-29.785,-28.320,-39.062,-41.016,0.000
1709141791.621,-33.203,-26.855,-43.945,-43.457,0.000
1709141791.625,-30.273,-28.320,-40.039,-43.945,0.000
1709141791.629,-36.621,-38.574,-38.574,-50.781,0.000
1709141791.633,-40.039,-38.574,-47.852,-53.711,0.000
1709141791.637,-44.922,-30.762,-45.898,-55.176,0.000
1709141791.640,-50.293,-40.039,-46.387,-61.035,0.000
1709141791.644,-48.340,-47.852,-57.617,-57.617,0.000
1709141791.648,-46.875,-41.992,-51.270,-51.758,0.000
1709141791.652,-47.363,-38.086,-38.574,-51.758,0.000
1709141791.656,-48.828,-38.086,-37.109,-55.664,0.000
1709141791.660,-41.504,-37.109,-44.922,-47.852,0.000
1709141791.664,-37.598,-56.152,-46.875,-36.133,0.000
1709141791.668,-38.086,-52.246,-38.086,-45.410,0.000
1709141791.672,-42.480,-31.738,-35.156,-54.688,0.000
1709141791.676,-40.039,-32.227,-35.645,-51.758,0.000
1709141791.680,-28.809,-36.133,-38.574,-47.363,0.000
1709141791.683,-33.691,-41.992,-37.598,-43.945,0.000
1709141791.687,-37.598,-42.480,-38.086,-41.992,0.000
1709141791.691,-37.109,-46.875,-39.062,-36.133,0.000
1709141791.695,-44.922,-51.758,-39.551,-34.180,0.000
1709141791.699,-42.969,-49.805,-43.945,-34.668,0.000
1709141791.703,-42.969,-40.039,-44.922,-38.574,0.000
1709141791.707,-42.969,-33.691,-38.086,-44.922,0.000
1709141791.711,-46.875,-37.598,-40.039,-42.480,0.000
1709141791.715,-50.781,-39.551,-41.016,-41.016,0.000
1709141791.719,-48.828,-38.574,-39.062,-47.363,0.000
1709141791.723,-41.992,-37.109,-37.109,-44.434,0.000
1709141791.726,-38.086,-43.457,-33.691,-42.480,0.000
1709141791.730,-40.527,-37.598,-35.645,-46.387,0.000
1709141791.734,-35.645,-38.574,-29.785,-36.133,0.000
1709141791.738,-34.668,-51.758,-31.250,-30.273,0.000
1709141791.742,-37.109,-40.039,-41.992,-41.016,0.000
1709141791.746,-36.621,-19.531,-29.297,-41.504,0.000
1709141791.750,-38.574,-19.531,-19.531,-38.574,0.000
1709141791.754,-40.039,-27.832,-30.762,-26.367,0.000
1709141791.758,-36.621,-30.273,-39.551,-24.902,0.000
1709141791.762,-38.086,-29.785,-42.969,-37.598,0.000
1709141791.765,-42.480,-34.180,-49.316,-45.410,0.000
1709141791.769,-45.410,-35.645,-46.875,-46.387,0.000
1709141791.773,-47.852,-33.203,-34.668,-44.922,0.000
1709141791.777,-45.410,-42.480,-29.785,-41.016,0.000
1709141791.781,-39.551,-51.270,-28.320,-38.574,0.000
1709141791.785,-37.109,-45.410,-31.738,-43.945,0.000
1709141791.789,-40.039,-41.016,-40.527,-42.480,0.000
1709141791.793,-43.945,-41.992,-43.945,-47.363,0.000
1709141791.797,-40.039,-45.410,-43.945,-41.016,0.000
1709141791.801,-40.039,-52.246,-43.457,-28.809,0.000
1709141791.805,-44.922,-49.316,-44.922,-43.945,0.000
1709141791.808,-43.457,-40.527,-45.898,-43.457,0.000
1709141791.812,-44.434,-33.203,-48.340,-38.574,0.000
1709141791.816,0.000,-30.273,0.000,-39.551,0.000
1709141791.820,0.000,-35.645,0.000,-39.551,0.000
1709141791.824,0.000,-39.551,0.000,-47.852,0.000
1709141791.828,0.000,-43.457,0.000,-43.457,0.000
1709141791.832,0.000,-41.016,0.000,-41.992,0.000
1709141791.836,0.000,-37.109,0.000,-48.828,0.000
1709141791.840,0.000,-43.457,0.000,-51.758,0.000
1709141791.844,0.000,-44.922,0.000,-42.480,0.000
1709141791.848,0.000,-30.762,0.000,-35.645,0.000
1709141791.851,0.000,-33.691,0.000,-37.109,0.000
1709141791.855,0.000,-44.434,0.000,-42.969,0.000
1709141791.859,0.000,-38.086,0.000,-41.016,0.000
1709141791.863,-30.273,-34.180,-31.738,-41.016,0.000
1709141791.867,-34.180,-34.668,-40.039,-43.945,0.000
1709141791.871,-37.109,-35.156,-42.969,-44.922,0.000
1709141791.875,-45.898,-35.156,-40.039,-48.340,0.000
1709141791.879,-43.457,-33.691,-31.738,-43.945,0.000
1709141791.883,-31.738,-33.203,-34.668,-48.828,0.000
1709141791.887,-30.273,-35.156,-44.434,-54.688,0.000
1709141791.891,-32.715,-46.387,-54.688,-39.062,0.000
1709141791.894,-34.668,-49.805,-56.641,-36.133,0.000
1709141791.898,-31.250,-45.410,-47.363,-43.945,0.000
1709141791.902,-28.320,-43.457,-37.109,-43.457,0.000
1709141791.906,-37.598,-50.781,-39.551,-46.875,0.000
1709141791.910,-43.457,-50.293,-43.945,-52.246,0.000
1709141791.914,-41.016,-41.016,-38.086,-45.410,0.000
1709141791.918,-35.156,-44.922,-42.969,-42.480,0.000
1709141791.922,-35.156,-43.945,-50.781,-46.875,0.000
1709141791.926,-38.086,-40.039,-44.434,-49.316,0.000
1709141791.930,-40.039,-41.504,-41.016,-52.246,0.000
1709141791.934,-47.363,-37.598,-45.410,-48.828,0.000
1709141791.937,-51.758,-34.668,-44.434,-47.852,0.000
1709141791.941,-44.922,-34.180,-40.039,-52.734,0.000
1709141791.945,-36.133,-42.969,-33.691,-54.199,0.000
1709141791.949,-42.969,-49.316,-32.715,-57.129,0.000
1709141791.953,-48.828,-37.598,-39.062,-52.734,0.000
1709141791.957,-41.504,-33.691,-33.691,-50.781,0.000
1709141791.961,-40.039,-43.945,-31.738,-53.223,0.000
1709141791.965,-40.527,-50.781,-49.316,-55.176,0.000
1709141791.969,-40.527,-51.270,-44.434,-51.270,0.000
1709141791.973,-41.016,-52.246,-33.691,-52.246,0.000
1709141791.976,-41.992,-54.688,-38.086,-58.105,0.000
1709141791.980,-44.434,-42.480,-50.781,-54.688,0.000
1709141791.984,-42.969,-34.180,-48.828,-50.781,0.000
1709141791.988,-42.480,-33.691,-35.645,-55.664,0.000
1709141791.992,-42.969,-37.109,-32.715,-46.387,0.000
1709141791.996,-43.945,-40.527,-33.691,-43.945,0.000
1709141792.000,-41.992,-42.480,-34.180,-43.457,0.000
1709141792.004,-37.598,-42.969,-33.203,-41.016,0.000
1709141792.008,-37.598,-48.340,-39.062,-47.852,0.000
1709141792.012,-41.504,-44.922,-36.133,-47.363,0.000
1709141792.016,-40.527,-41.504,-33.691,-41.016,0.000
1709141792.020,-35.645,-52.734,-40.039,-42.480,0.000
1709141792.023,-28.320,-45.898,-35.645,-41.016,0.000
1709141792.027,-23.926,-39.062,-33.203,-39.551,0.000
1709141792.031,-22.461,-38.086,-37.109,-38.086,0.000
1709141792.035,-31.250,-42.969,-38.086,-41.504,0.000
1709141792.039,-37.109,-44.922,-41.992,-43.457,0.000
1709141792.043,-31.738,-33.203,-44.434,-42.969,0.000
1709141792.047,-32.715,-28.320,-34.668,-47.363,0.000
1709141792.051,-36.133,-32.227,-34.180,-44.922,0.000
1709141792.055,-34.668,-28.320,-36.621,-41.992,0.000
1709141792.059,-32.227,-26.367,-32.715,-43.945,0.000
1709141792.063,-26.367,-32.715,-26.855,-31.250,0.000
1709141792.066,-28.320,-42.480,-31.250,-28.809,0.000
1709141792.070,-30.762,-41.992,-35.156,-37.109,0.000
1709141792.074,-35.645,-40.527,-35.156,-37.598,0.000
1709141792.078,-40.039,-37.598,-47.363,-37.109,0.000
1709141792.082,-27.832,-31.738,-45.898,-32.715,0.000
1709141792.086,-29.297,-32.227,-38.574,-36.133,0.000
1709141792.090,-42.480,-39.062,-38.086,-41.504,0.000
1709141792.094,-42.969,-44.434,-34.668,-44.434,0.000
1709141792.098,-33.691,-42.969,-36.133,-35.156,0.000
1709141792.102,-31.738,-37.598,-48.828,-31.250,0.000
1709141792.106,-35.156,-31.738,-47.363,-44.922,0.000
1709141792.109,-36.621,-39.551,-35.645,-40.527,0.000
1709141792.113,-33.203,-44.434,-31.250,-29.785,0.000
1709141792.117,-29.785,-38.086,-33.203,-26.367,0.000
1709141792.121,-29.297,-34.668,-41.992,-31.250,0.000
1709141792.125,-28.320,-34.180,-37.598,-42.480,0.000
1709141792.129,-29.297,-38.574,-34.668,-48.828,0.000
1709141792.133,-34.180,-36.621,-44.922,-54.199,0.000
1709141792.137,-37.598,-38.086,-49.805,-52.734,0.000
1709141792.141,-31.250,-40.039,-39.062,-42.969,0.000
1709141792.145,-36.621,-37.598,-25.879,-44.922,0.000
1709141792.149,-41.992,-51.758,-26.367,-45.898,0.000
1709141792.152,-41.016,-49.316,-35.156,-46.875,0.000
1709141792.156,-36.621,-39.551,-38.086,-43.457,0.000
1709141792.160,-30.762,-41.504,-32.227,-39.551,0.000
1709141792.164,-27.344,-31.738,-28.809,-42.480,0.000
1709141792.168,-28.320,-30.273,-30.762,-44.922,0.000
1709141792.172,-33.691,-41.504,-26.855,-40.039,0.000
1709141792.176,-41.016,-46.387,-32.227,-30.762,0.000
1709141792.180,-40.527,-43.457,-42.480,-37.598,0.000
1709141792.184,-35.156,-39.062,-34.668,-47.363,0.000
1709141792.188,-35.156,-31.250,-26.855,-46.875,0.000
1709141792.192,-37.598,-32.715,-39.551,-44.922,0.000
1709141792.195,-31.738,-39.062,-43.945,-47.852,0.000
1709141792.199,-26.367,-42.480,-35.156,-47.363,0.000
1709141792.203,-28.320,-43.457,-39.551,-43.457,0.000
1709141792.207,-27.344,-40.039,-43.457,-44.922,0.000
1709141792.211,-27.832,-37.598,-35.645,-46.875,0.000
1709141792.215,-25.879,-39.062,-42.480,-37.598,0.000
1709141792.219,-21.973,-40.527,-42.480,-28.320,0.000
1709141792.223,-21.973,-41.992,-36.133,-39.551,0.000
1709141792.227,-19.043,-35.156,-34.668,-55.664,0.000
1709141792.231,-26.855,-35.645,-40.527,-48.828,0.000
1709141792.234,-32.715,-37.109,-46.387,-39.062,0.000
1709141792.238,-22.949,-39.551,-38.574,-36.621,0.000
1709141792.242,-23.438,-39.551,-38.086,-46.875,0.000
1709141792.246,-28.320,-40.527,-48.340,-50.293,0.000
1709141792.250,-34.180,-40.039,-46.875,-50.781,0.000
1709141792.254,-32.227,-33.203,-29.297,-44.434,0.000
1709141792.258,-30.273,-37.598,-31.738,-35.645,0.000
1709141792.262,-36.133,-49.316,-33.203,-33.203,0.000
1709141792.266,-29.785,-46.875,-30.762,-28.320,0.000
1709141792.270,-23.438,-46.387,-36.621,-33.203,0.000
1709141792.273,-24.902,-41.016,-33.691,-26.855,0.000
1709141792.277,-28.809,-25.879,-28.320,-27.832,0.000
1709141792.281,-27.344,-17.090,-27.344,-35.645,0.000
1709141792.285,-24.414,-22.461,-38.574,-32.227,0.000
1709141792.289,-34.668,-34.668,-44.922,-36.621,0.000
1709141792.293,-41.992,-39.551,-38.574,-39.062,0.000
1709141792.297,-46.387,-41.992,-37.598,-41.016,0.000
1709141792.301,-44.434,-42.969,-35.645,-46.875,0.000
1709141792.305,-39.062,-47.852,-40.039,-48.340,0.000
1709141792.309,-39.062,-41.016,-40.039,-44.434,0.000
1709141792.313,-41.016,-20.996,-33.203,-33.691,0.000
1709141792.316,-40.527,-24.414,-33.203,-37.598,0.000
1709141792.320,-37.598,-36.133,-35.645,-46.875,0.000
1709141792.324,-42.480,-46.875,-41.504,-47.363,0.000
1709141792.328,-41.504,-50.293,-44.922,-43.945,0.000
1709141792.332,-41.016,-43.945,-43.945,-39.551,0.000
1709141792.336,-40.527,-47.363,-27.832,-39.062,0.000
1709141792.340,-36.621,-38.086,-29.297,-41.992,0.000
1709141792.344,-41.016,-31.250,-41.016,-45.898,0.000
1709141792.348,-43.945,-37.598,-38.086,-47.852,0.000
1709141792.352,-40.039,-39.062,-33.203,-39.062,0.000
1709141792.356,-43.457,-38.086,-34.668,-39.062,0.000
1709141792.359,-42.969,-30.273,-41.504,-45.898,0.000
1709141792.363,-38.574,-36.621,-41.016,-53.711,0.000
1709141792.367,-39.062,-45.410,-35.156,-58.105,0.000
1709141792.371,-39.062,-39.062,-40.039,-56.641,0.000
1709141792.375,-40.039,-35.645,-50.293,-54.199,0.000
1709141792.379,-33.691,-35.156,-49.805,-49.316,0.000
1709141792.383,-26.855,-40.039,-35.645,-46.387,0.000
1709141792.387,-30.762,-36.133,-27.344,-46.875,0.000
1709141792.391,-35.156,-26.855,-31.250,-54.688,0.000
1709141792.395,-38.086,-39.551,-35.645,-54.199,0.000
1709141792.399,-37.598,-46.387,-36.621,-45.898,0.000
1709141792.402,-36.133,-33.203,-26.367,-44.922,0.000
1709141792.406,-35.156,-27.344,-27.344,-47.363,0.000
1709141792.410,-32.715,-34.180,-31.738,-43.945,0.000
1709141792.414,-27.832,-38.574,-38.574,-30.762,0.000
1709141792.418,-18.066,-29.785,-44.434,-33.691,0.000
1709141792.422,-14.648,-24.414,-45.410,-46.387,0.000
1709141792.426,-17.090,-36.133,-44.434,-41.504,0.000
1709141792.430,-24.902,-39.062,-46.387,-38.574,0.000
1709141792.434,-31.738,-32.715,-40.527,-41.016,0.000
1709141792.438,-33.691,-31.250,-38.086,-36.621,0.000
1709141792.442,-36.621,-31.738,-40.039,-40.039,0.000
1709141792.445,-35.156,-32.227,-44.434,-40.527,0.000
1709141792.449,-40.527,-31.250,-46.387,-37.598,0.000
1709141792.453,-43.945,-36.133,-44.434,-44.434,0.000
1709141792.457,-38.574,-47.852,-43.457,-41.504,0.000
1709141792.461,-31.250,-44.434,-37.109,-27.344,0.000
1709141792.465,-33.691,-32.227,-36.133,-37.598,0.000
1709141792.469,-41.016,-31.250,-39.551,-47.363,0.000
1709141792.473,-45.410,-33.203,-39.062,-48.340,0.000
1709141792.477,-43.945,-40.039,-40.527,-46.387,0.000
1709141792.481,-41.504,-41.992,-41.016,-42.480,0.000
1709141792.485,-42.969,-42.969,-45.898,-39.551,0.000
1709141792.488,-44.922,-41.992,-42.969,-42.480,0.000
1709141792.492,-47.363,-44.434,-30.762,-45.898,0.000
1709141792.496,-48.828,-41.992,-28.320,-38.574,0.000
1709141792.500,-48.828,-34.668,-29.785,-42.969,0.000
1709141792.504,-44.434,-44.922,-38.574,-45.410,0.000
1709141792.508,-48.340,-54.688,-44.434,-52.734,0.000
1709141792.512,-48.828,-45.898,-34.668,-62.012,0.000
1709141792.516,-39.551,-46.387,-30.273,-53.223,0.000
1709141792.520,-39.062,-41.992,-39.062,-50.293,0.000
1709141792.524,-40.039,-27.832,-48.828,-54.688,0.000
1709141792.528,-39.062,-41.504,-38.574,-52.734,0.000
1709141792.531,-35.156,-47.852,-33.203,-45.410,0.000
1709141792.535,-31.738,-31.738,-38.574,-45.898,0.000
1709141792.539,-30.762,-31.250,-37.598,-47.852,0.000
1709141792.543,-28.320,-40.527,-44.922,-43.945,0.000
1709141792.547,-28.809,-56.152,-41.992,-27.344,0.000
1709141792.551,-26.855,-49.316,-35.645,-23.438,0.000
1709141792.555,-29.297,-31.250,-32.715,-39.062,0.000
1709141792.559,-38.086,-23.438,-29.785,-38.574,0.000
1709141792.563,-34.668,-28.320,-39.551,-36.133,0.000
1709141792.567,-34.180,-34.180,-33.203,-34.668,0.000
1709141792.571,-41.992,-33.203,-29.297,-37.598,0.000
1709141792.574,-30.762,-40.527,-30.273,-30.762,0.000
1709141792.578,-30.273,-37.598,-36.621,-29.297,0.000
1709141792.582,-41.992,-37.109,-47.363,-42.480,0.000
1709141792.586,-43.457,-40.527,-43.945,-51.758,0.000
1709141792.590,-45.898,-44.922,-43.457,-47.363,0.000
1709141792.594,-47.363,-47.363,-42.480,-41.992,0.000
1709141792.598,-45.410,-32.227,-39.062,-39.551,0.000
1709141792.602,-41.992,-34.668,-39.551,-34.668,0.000
1709141792.606,-42.480,-40.527,-38.086,-38.086,0.000
1709141792.610,-41.016,-34.180,-40.527,-42.969,0.000
1709141792.614,-39.551,-36.621,-39.551,-45.410,0.000
1709141792.617,-43.945,-44.434,-36.621,-45.898,0.000
1709141792.621,-51.758,-48.340,-47.852,-48.828,0.000
1709141792.625,-49.316,-41.504,-43.945,-51.270,0.000
1709141792.629,-41.992,-44.434,-30.273,-47.363,0.000
1709141792.633,-49.316,-54.199,-36.621,-48.828,0.000
1709141792.637,-54.199,-50.781,-42.480,-48.340,0.000
1709141792.641,-49.316,-37.598,-38.574,-42.969,0.000
1709141792.645,-50.781,-29.785,-39.551,-51.270,0.000
1709141792.649,-50.293,-29.297,-48.828,-55.664,0.000
1709141792.653,-38.574,-30.273,-44.434,-45.898,0.000
1709141792.656,-31.250,-32.227,-40.527,-32.227,0.000
1709141792.660,-31.250,-38.086,-41.504,-36.133,0.000
1709141792.664,-27.832,-34.180,-41.504,-45.410,0.000
1709141792.668,-25.879,-25.391,-37.598,-42.969,0.000
1709141792.672,-34.180,-26.855,-28.809,-44.434,0.000
1709141792.676,-39.062,-34.668,-32.227,-39.551,0.000
1709141792.680,-35.645,-33.203,-33.203,-36.621,0.000
1709141792.684,-37.598,-35.156,-30.273,-34.668,0.000
1709141792.688,-42.969,-40.039,-28.320,-38.086,0.000
1709141792.692,-42.969,-38.574,-31.250,-46.387,0.000
1709141792.695,-41.016,-38.086,-44.434,-47.363,0.000
1709141792.699,-31.738,-37.109,-49.805,-43.457,0.000
1709141792.703,-29.785,-48.340,-43.945,-44.434,0.000
1709141792.707,-36.621,-50.293,-57.617,-50.781,0.000
1709141792.711,-38.086,-33.691,-56.152,-47.363,0.000
1709141792.715,-38.086,-30.273,-31.250,-36.621,0.000
1709141792.719,-35.645,-38.574,-30.273,-38.086,0.000
1709141792.723,-37.598,-39.551,-41.016,-46.875,0.000
1709141792.727,-37.598,-40.527,-42.969,-42.480,0.000
1709141792.731,-29.297,-42.480,-39.551,-28.320,0.000
1709141792.735,-23.926,-41.016,-30.762,-27.344,0.000
1709141792.738,-24.414,-38.086,-32.227,-32.227,0.000
1709141792.742,-26.855,-29.297,-41.992,-29.297,0.000
1709141792.746,-31.250,-29.297,-42.480,-32.715,0.000
1709141792.750,-27.832,-31.250,-34.668,-31.250,0.000
1709141792.754,0.000,-32.227,-34.668,-35.645,0.000
1709141792.758,0.000,-36.133,-34.180,-38.574,0.000
1709141792.762,0.000,-37.109,-32.227,-34.180,0.000
1709141792.766,0.000,-39.551,-34.668,-45.898,0.000
1709141792.770,0.000,-46.875,-28.320,-47.852,0.000
1709141792.774,0.000,-49.316,-28.809,-41.992,0.000
1709141792.778,0.000,-42.480,-32.715,-48.340,0.000
1709141792.782,0.000,-36.133,-33.691,-46.387,0.000
1709141792.785,0.000,-40.039,-43.457,-45.410,0.000
1709141792.789,0.000,-47.852,-51.758,-40.527,0.000
1709141792.793,0.000,-43.457,-40.527,-44.922,0.000
1709141792.797,0.000,-37.598,-31.738,-52.734,0.000
1709141792.801,-39.551,-40.527,-25.391,-54.199,0.000
1709141792.805,-40.527,-38.086,-22.461,-53.223,0.000
1709141792.809,-40.039,-36.133,-22.461,-46.387,0.000
1709141792.813,-38.086,-36.133,-30.273,-44.922,0.000
1709141792.817,-32.715,-39.062,-33.691,-42.480,0.000
1709141792.821,-34.180,-43.457,-32.227,-46.875,0.000
1709141792.825,-36.621,-41.504,-38.574,-48.340,0.000
1709141792.828,-32.715,-42.480,-33.691,-38.574,0.000
1709141792.832,-43.457,-45.410,-33.691,-37.598,0.000
1709141792.836,-49.805,-36.133,-31.738,-27.344,0.000
1709141792.840,-41.016,-34.180,-32.227,-25.391,0.000
1709141792.844,-41.504,-43.457,-33.691,-31.738,0.000
1709141792.848,-42.480,-33.203,-31.250,-32.715,0.000
1709141792.852,-43.457,-32.227,-34.180,-28.320,0.000
1709141792.856,-43.457,-37.109,-31.738,-32.227,0.000
1709141792.860,-37.109,-40.527,-29.785,-32.715,0.000
1709141792.864,-33.203,-47.852,-43.945,-35.645,0.000
1709141792.868,-34.668,-37.109,-36.133,-44.922,0.000
1709141792.871,-40.039,-36.133,-29.785,-41.992,0.000
1709141792.875,-35.645,-54.199,-38.086,-42.969,0.000
1709141792.879,-37.598,-51.758,-33.691,-41.016,0.000
1709141792.883,-40.527,-32.715,-40.039,-41.992,0.000
1709141792.887,-35.645,-21.484,-40.039,-52.734,0.000
1709141792.891,-39.062,-24.414,-33.691,-44.434,0.000
1709141792.895,-44.434,-31.250,-32.227,-39.062,0.000
1709141792.899,-42.969,-36.621,-35.156,-44.922,0.000
1709141792.903,-34.668,-38.574,-40.527,-47.852,0.000
1709141792.907,-35.645,-39.062,-42.969,-46.387,0.000
1709141792.911,-39.551,-42.480,-36.621,-46.387,0.000
1709141792.914,-35.645,-48.340,-37.598,-42.969,0.000
1709141792.918,-27.832,-43.945,-39.551,-37.109,0.000
1709141792.922,-28.809,-40.527,-32.227,-36.621,0.000
1709141792.926,-36.621,-43.457,-31.250,-32.715,0.000
1709141792.930,-32.227,-39.062,-33.691,-36.621,0.000
1709141792.934,-29.297,-43.945,-35.645,-44.434,0.000
1709141792.938,-36.133,-41.016,-45.410,-46.875,0.000
1709141792.942,-37.598,-37.109,-52.246,-44.922,0.000
1709141792.946,-34.668,-34.180,-35.645,-40.527,0.000
1709141792.950,-38.086,-35.645,-27.344,-40.039,0.000
1709141792.953,-33.691,-35.645,-42.969,-42.969,0.000
1709141792.957,-21.484,-33.691,-43.945,-39.062,0.000
1709141792.961,-20.508,-37.598,-35.645,-43.457,0.000
1709141792.965,-18.066,-40.039,-34.180,-46.387,0.000
1709141792.969,-20.508,-40.039,-35.645,-31.738,0.000
1709141792.973,-28.320,-36.133,-41.016,-31.250,0.000
1709141792.977,-26.855,-36.621,-41.992,-35.645,0.000
1709141792.981,-21.484,-37.109,-43.457,-36.133,0.000
1709141792.985,-24.902,-36.133,-34.668,-38.574,0.000
1709141792.989,-33.203,-37.109,-33.203,-42.480,0.000
1709141792.993,-34.180,-39.551,-47.852,-44.922,0.000
1709141792.996,-31.250,-47.363,-46.387,-34.180,0.000
1709141793.000,-33.203,-48.828,-32.715,-31.738,0.000
1709141793.004,-33.203,-40.527,-31.738,-33.691,0.000
1709141793.008,-35.645,-35.645,-38.086,-36.133,0.000
1709141793.012,-33.691,-37.109,-36.621,-30.762,0.000
1709141793.016,-26.855,-33.691,-27.344,-16.113,0.000
1709141793.020,-36.133,-35.156,-32.715,-30.762,0.000
1709141793.024,-38.574,-39.551,-37.598,-43.945,0.000
1709141793.028,-39.551,-37.109,-31.738,-47.852,0.000
1709141793.032,-42.480,-33.203,-34.668,-46.875,0.000
1709141793.036,-49.805,-39.062,-35.156,-41.992,0.000
1709141793.039,-49.805,-41.016,-34.668,-39.062,0.000
1709141793.043,-38.574,-34.668,-40.039,-32.715,0.000
1709141793.047,-41.504,-35.156,-45.898,-34.180,0.000
1709141793.051,-52.246,-35.645,-44.434,-37.109,0.000
1709141793.055,-56.152,-39.551,-40.039,-45.410,0.000
1709141793.059,-52.734,-44.922,-39.062,-39.062,0.000
1709141793.063,-51.270,-43.457,-42.480,-37.598,0.000
1709141793.067,-43.945,-39.062,-39.062,-49.316,0.000
1709141793.071,-40.039,-39.062,-38.086,-47.852,0.000
1709141793.075,-48.828,-49.805,-44.922,-51.270,0.000
1709141793.078,-49.805,-54.199,-47.363,-56.641,0.000
1709141793.082,-44.434,-46.387,-45.410,-54.199,0.000
1709141793.086,-47.363,-42.480,-48.828,-59.570,0.000
1709141793.090,-53.711,-40.527,-53.223,-61.035,0.000
1709141793.094,-52.246,-39.062,-54.199,-62.500,0.000
1709141793.098,-51.270,-40.039,-46.875,-63.965,0.000
1709141793.102,-43.945,-36.133,-46.387,-55.176,0.000
1709141793.106,-43.457,-40.039,-45.410,-51.270,0.000
1709141793.110,-46.875,-40.527,-37.598,-51.758,0.000
1709141793.114,-40.527,-38.574,-38.086,-51.758,0.000
1709141793.118,-42.480,-45.410,-38.086,-40.527,0.000
1709141793.121,-44.434,-47.363,-42.969,-43.945,0.000
1709141793.125,-39.551,-43.457,-45.410,-49.805,0.000
1709141793.129,-41.992,-41.504,-40.039,-43.457,0.000
1709141793.133,-40.039,-39.062,-35.156,-38.086,0.000
1709141793.137,-40.527,-41.504,-39.062,-40.039,0.000
1709141793.141,-39.551,-48.828,-42.969,-46.387,0.000
1709141793.145,-28.809,-42.969,-42.969,-41.016,0.000
1709141793.149,-33.691,-40.039,-39.062,-39.551,0.000
1709141793.153,-37.598,-40.527,-29.785,-40.039,0.000
1709141793.157,-37.109,-38.086,-29.785,-36.133,0.000
1709141793.161,-40.039,-36.621,-34.180,-35.156,0.000
1709141793.164,-34.668,-37.598,-33.691,-28.320,0.000
1709141793.168,-30.273,-36.621,-34.180,-32.227,0.000
1709141793.172,-33.691,-39.062,-35.156,-33.691,0.000
1709141793.176,-32.715,-38.086,-42.480,-21.484,0.000
1709141793.180,-20.020,-42.969,-37.109,-24.414,0.000
1709141793.184,-18.555,-42.969,-30.762,-37.598,0.000
1709141793.188,-20.508,-31.250,-33.691,-40.527,0.000
1709141793.192,-26.367,-31.738,-43.457,-35.156,0.000
1709141793.196,-33.203,-35.156,-38.574,-38.574,0.000
1709141793.200,-33.203,-34.180,-29.297,-44.922,0.000
1709141793.204,-32.715,-32.715,-33.691,-48.828,0.000
1709141793.207,-33.691,-34.180,-38.086,-51.758,0.000
1709141793.211,-37.109,-30.762,-37.109,-48.828,0.000
1709141793.215,-43.457,-34.668,-40.039,-63.965,0.000
1709141793.219,-40.527,-40.527,-37.598,-71.777,0.000
1709141793.223,-38.086,-38.574,-34.668,-59.082,0.000
1709141793.227,-44.434,-40.039,-40.039,-57.617,0.000
1709141793.231,-46.387,-40.527,-40.527,-63.965,0.000
1709141793.235,-40.039,-41.016,-38.574,-48.828,0.000
1709141793.239,-35.156,-45.898,-42.969,-41.992,0.000
1709141793.243,-29.297,-46.387,-44.434,-41.992,0.000
1709141793.247,-25.391,-43.945,-37.598,-37.109,0.000
1709141793.250,-20.020,-39.551,-32.715,-31.738,0.000
1709141793.254,-16.113,-32.227,-22.461,-9.277,0.000
1709141793.258,-20.020,-28.320,-22.461,-8.789,0.000
1709141793.262,-16.113,-32.227,-29.785,-27.344,0.000
1709141793.266,-20.020,-40.039,-31.738,-29.785,0.000
1709141793.270,-30.762,-38.574,-28.809,-26.367,0.000
1709141793.274,-34.668,-39.062,-31.738,-26.367,0.000
1709141793.278,-36.133,-42.969,-36.133,-30.273,0.000
1709141793.282,-37.109,-40.039,-39.062,-38.574,0.000
1709141793.286,-39.551,-40.527,-40.527,-50.781,0.000
1709141793.290,-43.945,-40.527,-42.969,-52.734,0.000
1709141793.293,-43.457,-41.504,-45.410,-43.945,0.000
1709141793.297,-33.203,-45.410,-44.434,-31.250,0.000
1709141793.301,-26.367,-41.504,-35.156,-20.020,0.000
1709141793.305,-25.879,-28.809,-28.320,-30.762,0.000
1709141793.309,-25.391,-25.391,-31.250,-39.062,0.000
1709141793.313,-30.762,-32.715,-40.527,-46.875,0.000
1709141793.317,-34.668,-30.762,-44.434,-47.852,0.000
1709141793.321,-34.180,-30.762,-33.691,-44.434,0.000
1709141793.325,-34.668,-39.551,-27.344,-47.852,0.000
1709141793.329,-32.227,-36.621,-38.574,-48.340,0.000
1709141793.332,-37.598,-34.668,-48.340,-51.270,0.000
1709141793.336,-41.992,-34.668,-45.898,-51.758,0.000
1709141793.340,-40.527,-33.691,-40.039,-43.945,0.000
1709141793.344,-41.016,-43.457,-49.316,-36.621,0.000
1709141793.348,-41.016,-39.062,-45.410,-38.574,0.000
1709141793.352,-36.133,-35.156,-30.762,-40.527,0.000
1709141793.356,-35.645,-39.062,-30.762,-41.992,0.000
1709141793.360,-40.039,-37.598,-36.133,-44.434,0.000
1709141793.364,-35.645,-38.574,-44.434,-42.969,0.000
1709141793.368,-41.016,-42.480,-43.457,-49.316,0.000
1709141793.372,-52.734,-47.363,-32.715,-43.457,0.000
1709141793.375,-46.875,-46.387,-38.574,-34.180,0.000
1709141793.379,-41.016,-42.480,-39.062,-32.715,0.000
1709141793.383,-39.062,-41.504,-33.691,-38.574,0.000
1709141793.387,-30.762,-40.039,-42.480,-30.762,0.000
1709141793.391,-34.180,-42.969,-46.875,-22.949,0.000
1709141793.395,-35.156,-37.598,-39.062,-26.367,0.000
1709141793.399,-27.832,-36.133,-38.086,-21.484,0.000
1709141793.403,-33.691,-45.410,-42.969,-33.691,0.000
1709141793.407,-44.434,-44.922,-44.434,-49.805,0.000
1709141793.411,-49.316,-37.598,-41.016,-55.176,0.000
1709141793.415,-43.945,-36.133,-41.992,-51.270,0.000
1709141793.418,-42.480,-41.504,-49.805,-47.363,0.000
1709141793.422,-46.875,-39.062,-46.875,-51.270,0.000
1709141793.426,-40.039,-33.691,-37.109,-51.270,0.000
1709141793.430,-38.086,-41.992,-40.039,-50.781,0.000
1709141793.434,-40.527,-47.852,-45.898,-42.480,0.000
1709141793.438,-30.762,-44.434,-41.016,-35.645,0.000
1709141793.442,-33.691,-42.969,-39.062,-41.504,0.000
1709141793.446,-40.527,-42.480,-35.645,-47.363,0.000
1709141793.450,-37.598,-34.668,-30.762,-46.387,0.000
1709141793.454,-39.062,-36.621,-39.551,-45.898,0.000
1709141793.458,-34.668,-38.574,-44.434,-49.805,0.000
1709141793.461,-24.902,-41.016,-42.969,-51.758,0.000
1709141793.465,-30.762,-40.039,-43.457,-51.270,0.000
1709141793.469,-36.621,-34.668,-39.551,-55.176,0.000
1709141793.473,-30.762,-34.180,-47.363,-56.641,0.000
1709141793.477,-27.344,-40.527,-47.852,-43.945,0.000
1709141793.481,-28.320,-42.480,-43.457,-41.504,0.000
1709141793.485,-31.250,-39.062,-41.992,-50.781,0.000
1709141793.489,-29.785,-42.969,-38.086,-40.527,0.000
1709141793.493,-30.762,-42.480,-37.109,-34.668,0.000
1709141793.497,-34.668,-38.086,-36.133,-38.086,0.000
1709141793.500,-31.250,-36.621,-45.410,-37.598,0.000
1709141793.504,-32.715,-41.016,-47.363,-37.598,0.000
1709141793.508,-45.898,-41.504,-42.480,-39.551,0.000
1709141793.512,-46.387,-32.227,-37.598,-32.227,0.000
1709141793.516,-41.504,-31.250,-34.668,-23.926,0.000
1709141793.520,-44.434,-36.621,-36.133,-32.227,0.000
1709141793.524,-43.945,-45.410,-39.551,-47.363,0.000
1709141793.528,-40.527,-54.199,-41.504,-58.105,0.000
1709141793.532,-45.898,-47.363,-48.828,-55.176,0.000
1709141793.536,-43.457,-42.480,-43.457,-45.898,0.000
1709141793.540,-31.250,-47.363,-36.621,-25.879,0.000
1709141793.543,-36.621,-47.852,-46.875,-27.344,0.000
1709141793.547,-40.039,-40.039,-45.410,-39.551,0.000
1709141793.551,-41.504,-39.062,-31.738,-41.016,0.000
1709141793.555,-47.852,-47.852,-37.598,-46.387,0.000
1709141793.559,-45.410,-51.758,-45.898,-47.363,0.000
1709141793.563,-41.992,-54.688,-41.504,-48.828,0.000
1709141793.567,-46.387,-51.270,-36.133,-58.105,0.000
1709141793.571,-45.410,-51.270,-33.691,-53.711,0.000
1709141793.575,-50.781,-54.688,-36.621,-50.781,0.000
1709141793.579,-50.293,-52.246,-36.621,-52.246,0.000
1709141793.583,-37.598,-41.016,-39.062,-45.410,0.000
1709141793.586,-40.039,-43.945,-44.434,-43.457,0.000
1709141793.590,-47.363,-45.410,-43.457,-52.246,0.000
1709141793.594,-44.434,-37.109,-39.062,-47.852,0.000
1709141793.598,-41.016,-42.480,-49.316,-44.922,0.000
1709141793.602,-42.480,-50.781,-60.059,-47.363,0.000
1709141793.606,-42.480,-53.711,-51.758,-53.223,0.000
1709141793.610,-41.504,-53.711,-37.109,-65.430,0.000
1709141793.614,-58.594,-50.293,-32.715,-63.477,0.000
1709141793.618,-65.918,-44.434,-39.062,-56.641,0.000
1709141793.622,-53.223,-41.992,-43.945,-54.688,0.000
1709141793.626,-44.434,-40.527,-42.480,-51.758,0.000
1709141793.629,-41.016,-38.574,-36.621,-39.062,0.000
1709141793.633,-38.574,-35.156,-31.250,-28.320,0.000
1709141793.637,-37.598,-36.133,-31.250,-26.367,0.000
1709141793.641,-36.621,-42.969,-40.527,-26.855,0.000
1709141793.645,-30.273,-41.992,-35.156,-34.668,0.000
1709141793.649,-33.203,-36.133,-26.367,-39.551,0.000
1709141793.653,-34.668,-38.086,-27.832,-34.180,0.000
1709141793.657,-29.785,-44.434,-23.926,-28.809,0.000
1709141793.661,-21.973,-43.457,-23.926,-28.320,0.000
1709141793.665,-17.090,-41.016,-27.344,-26.367,0.000
1709141793.669,-16.602,-35.156,-28.809,-23.438,0.000
1709141793.672,-18.066,-35.156,-29.297,-19.043,0.000
1709141793.676,-21.973,-35.645,-23.438,-12.207,0.000
1709141793.680,-32.227,-32.227,-31.250,-32.227,0.000
1709141793.684,-30.273,-33.691,-39.551,-32.715,0.000
1709141793.688,-23.926,-34.668,-39.062,-30.762,0.000
1709141793.692,-22.949,-28.320,-34.668,-35.156,0.000
1709141793.696,-25.391,-30.273,-31.738,-36.133,0.000
1709141793.700,-26.367,-31.738,-32.227,-43.945,0.000
1709141793.704,-24.414,-29.785,-27.832,-45.410,0.000
1709141793.708,-27.344,-28.320,-29.297,-45.410,0.000
1709141793.711,-33.203,-29.785,-41.992,-47.363,0.000
1709141793.715,-36.621,-33.203,-37.598,-46.387,0.000
1709141793.719,-28.320,-31.738,-25.391,-31.250,0.000
1709141793.723,-26.367,-30.273,-38.574,-30.273,0.000
1709141793.727,-35.156,-33.691,-47.363,-44.922,0.000
1709141793.731,-38.574,-42.480,-42.969,-44.922,0.000
1709141793.735,-32.715,-36.133,-41.016,-43.945,0.000
1709141793.739,-31.738,-20.020,-39.062,-43.945,0.000
1709141793.743,-36.133,-18.555,-43.457,-48.828,0.000
1709141793.747,-33.691,-31.250,-41.016,-53.223,0.000
1709141793.751,-29.297,-38.574,-40.527,-46.875,0.000
1709141793.754,-36.133,-37.109,-47.363,-39.551,0.000
1709141793.758,-40.527,-35.645,-41.992,-40.039,0.000
1709141793.762,-37.598,-34.668,-32.715,-34.668,0.000
1709141793.766,-31.250,-36.133,-30.762,-18.555,0.000
1709141793.770,-32.715,-35.156,-34.668,-24.902,0.000
1709141793.774,-34.668,-35.156,-36.133,-23.926,0.000
1709141793.778,-32.715,-34.668,-31.250,-22.949,0.000
1709141793.782,-36.621,-34.180,-37.109,-29.785,0.000
1709141793.786,-37.109,-29.785,-38.086,-27.344,0.000
1709141793.790,-39.551,-34.668,-30.273,-34.180,0.000
1709141793.794,-41.504,-48.340,-34.180,-36.621,0.000
1709141793.797,-43.945,-42.969,-34.668,-27.344,0.000
1709141793.801,-48.828,-46.387,-33.203,-37.598,0.000
1709141793.805,-46.875,-43.457,-38.086,-47.852,0.000
1709141793.809,-44.922,-38.086,-42.480,-43.945,0.000
1709141793.813,-51.270,-37.598,-41.504,-46.875,0.000
1709141793.817,-50.293,-33.691,-32.715,-46.875,0.000
1709141793.821,-45.410,-35.156,-34.180,-44.922,0.000
1709141793.825,-45.898,-35.156,-35.156,-50.781,0.000
1709141793.829,-49.805,-32.227,-37.109,-52.734,0.000
1709141793.833,-50.781,-36.133,-42.969,-52.246,0.000
1709141793.837,-48.828,-41.504,-42.480,-56.641,0.000
1709141793.840,-41.504,-43.457,-42.480,-47.363,0.000
1709141793.844,-37.598,-44.434,-45.410,-41.016,0.000
1709141793.848,-47.363,-36.621,-40.527,-47.852,0.000
1709141793.852,-46.875,-33.203,-26.855,-35.645,0.000
1709141793.856,-42.969,-38.086,-25.879,-25.391,0.000
1709141793.860,-44.922,-38.086,-32.715,-40.527,0.000
1709141793.864,-38.574,-39.062,-37.598,-49.805,0.000
1709141793.868,-35.156,-35.645,-50.781,-50.781,0.000
1709141793.872,-41.504,-30.762,-50.293,-50.293,0.000
1709141793.876,-47.363,-36.621,-37.598,-44.434,0.000
1709141793.880,-47.363,-39.551,-34.180,-41.016,0.000
1709141793.883,-43.945,-38.574,-30.273,-41.992,0.000
1709141793.887,-45.410,-35.156,-35.645,-47.852,0.000
1709141793.891,-54.199,-39.062,-45.898,-51.758,0.000
1709141793.895,-61.523,-43.945,-41.992,-49.316,0.000
1709141793.899,-59.082,-40.527,-43.945,-48.340,0.000
1709141793.903,-48.340,-42.480,-49.805,-49.316,0.000
1709141793.907,-43.945,-43.945,-44.434,-43.457,0.000
1709141793.911,-43.457,-43.945,-40.527,-35.156,0.000
1709141793.915,-40.039,-49.805,-33.691,-20.996,0.000
1709141793.919,-35.645,-41.504,-30.273,-24.414,0.000
1709141793.922,-31.738,-34.668,-32.715,-35.645,0.000
1709141793.926,-36.133,-37.109,-31.738,-38.086,0.000
1709141793.930,-40.039,-36.621,-40.527,-46.387,0.000
1709141793.934,-45.410,-35.645,-46.387,-48.340,0.000
1709141793.938,-43.945,-35.645,-40.039,-44.434,0.000
1709141793.942,-39.551,-39.062,-42.480,-45.410,0.000
1709141793.946,-36.621,-36.133,-39.551,-42.969,0.000
1709141793.950,-36.133,-33.203,-36.133,-44.922,0.000
1709141793.954,-37.598,-35.156,-39.551,-42.969,0.000
1709141793.958,-36.133,-40.527,-40.527,-37.109,0.000
1709141793.962,-31.738,-37.598,-40.527,-32.715,0.000
1709141793.965,-29.297,-22.461,-45.410,-40.527,0.000
1709141793.969,-27.832,-22.461,-40.039,-39.551,0.000
1709141793.973,-29.785,-38.574,-29.785,-40.039,0.000
1709141793.977,-32.715,-41.504,-33.691,-43.945,0.000
1709141793.981,-27.832,-34.180,-41.992,-46.875,0.000
1709141793.985,-27.832,-32.715,-42.480,-55.176,0.000
1709141793.989,-29.297,-37.109,-30.273,-55.176,0.000
1709141793.993,-33.691,-41.504,-26.855,-46.875,0.000
1709141793.997,-37.109,-36.133,-31.738,-41.016,0.000
1709141794.001,-29.785,-25.879,-36.133,-33.203,0.000
1709141794.005,-34.180,-31.738,-49.316,-33.203,0.000
1709141794.008,-42.969,-38.086,-43.457,-40.527,0.000
1709141794.012,-42.480,-36.133,-36.621,-43.457,0.000
1709141794.016,-40.527,-35.645,-44.434,-39.062,0.000
1709141794.020,-37.598,-32.715,-41.992,-33.203,0.000
1709141794.024,-34.668,-35.156,-28.809,-33.203,0.000
1709141794.028,-30.273,-45.898,-23.926,-36.621,0.000
1709141794.032,-31.250,-40.039,-26.367,-31.738,0.000
1709141794.036,-35.645,-23.926,-27.344,-31.738,0.000
1709141794.040,-35.645,-31.738,-28.809,-36.133,0.000
1709141794.044,-41.016,-41.016,-34.668,-43.945,0.000
1709141794.048,-38.574,-34.668,-39.062,-44.434,0.000
1709141794.051,-33.203,-38.574,-36.133,-33.691,0.000
1709141794.055,-32.227,-41.016,-38.086,-41.016,0.000
1709141794.059,-38.574,-37.598,-39.551,-47.852,0.000
1709141794.063,-40.039,-41.504,-36.133,-47.363,0.000
1709141794.067,0.000,-37.598,-36.133,-52.734,0.000
1709141794.071,0.000,-37.598,-35.645,-58.594,0.000
1709141794.075,0.000,-54.688,-37.598,-52.246,0.000
1709141794.079,0.000,-53.223,-35.645,-44.922,0.000
1709141794.083,0.000,-38.086,-36.621,-45.410,0.000
1709141794.087,0.000,-36.133,-38.574,-51.758,0.000
1709141794.091,0.000,-41.992,-40.039,-54.199,0.000
1709141794.094,0.000,-45.410,-41.504,-34.668,0.000
1709141794.098,0.000,-45.410,-38.574,-24.414,0.000
1709141794.102,0.000,-45.410,-35.156,-32.227,0.000
1709141794.106,0.000,-42.969,-34.668,-37.109,0.000
1709141794.110,0.000,-44.434,-38.086,-41.504,0.000
1709141794.114,-36.621,-42.969,-36.621,-39.062,0.000
1709141794.118,-29.785,-33.203,-37.109,-35.645,0.000
1709141794.122,-23.926,-34.668,-33.691,-35.645,0.000
1709141794.126,-31.738,-42.480,-36.621,-39.551,0.000
1709141794.130,-32.715,-44.434,-40.039,-38.086,0.000
1709141794.134,-37.598,-52.246,-34.180,-40.527,0.000
1709141794.137,-48.340,-48.340,-31.738,-44.434,0.000
1709141794.141,-46.387,-32.715,-28.320,-34.668,0.000
1709141794.145,-45.410,-29.297,-25.879,-43.945,0.000
1709141794.149,-50.781,-38.574,-37.109,-57.129,0.000
1709141794.153,-52.246,-41.016,-40.527,-54.199,0.000
1709141794.157,-47.852,-36.133,-32.715,-46.387,0.000
1709141794.161,-42.480,-35.156,-33.691,-37.109,0.000
1709141794.165,-41.504,-44.434,-37.598,-40.527,0.000
1709141794.169,-41.504,-48.340,-42.969,-51.270,0.000
1709141794.173,-42.480,-43.457,-39.062,-51.270,0.000
1709141794.176,-41.504,-37.598,-31.250,-47.852,0.000
1709141794.180,-38.574,-36.133,-34.668,-45.898,0.000
1709141794.184,-40.039,-37.109,-36.133,-42.480,0.000
1709141794.188,-43.457,-33.691,-29.785,-38.574,0.000
1709141794.192,-43.457,-36.621,-33.203,-45.410,0.000
1709141794.196,-40.039,-40.527,-39.062,-54.688,0.000
1709141794.200,-41.992,-42.480,-33.203,-48.828,0.000
1709141794.204,-41.016,-45.898,-28.320,-41.016,0.000
1709141794.208,-41.992,-45.410,-30.273,-40.039,0.000
1709141794.212,-38.086,-37.598,-29.297,-35.645,0.000
1709141794.216,-31.738,-37.598,-30.762,-31.738,0.000
1709141794.219,-30.273,-39.062,-34.180,-36.133,0.000
1709141794.223,-29.297,-36.133,-36.133,-39.062,0.000
1709141794.227,-33.691,-41.992,-38.574,-41.992,0.000
1709141794.231,-32.227,-45.410,-30.762,-38.086,0.000
1709141794.235,-27.832,-38.086,-28.320,-39.551,0.000
1709141794.239,-30.762,-38.086,-31.738,-40.039,0.000
1709141794.243,-31.738,-41.504,-29.297,-37.109,0.000
1709141794.247,-39.062,-45.898,-36.621,-49.316,0.000
1709141794.251,-44.434,-35.156,-39.062,-57.129,0.000
1709141794.255,-48.340,-27.832,-38.086,-53.711,0.000
1709141794.259,-41.992,-33.691,-45.410,-53.223,0.000
1709141794.262,-30.762,-34.180,-49.805,-51.758,0.000
1709141794.266,-26.855,-30.762,-47.363,-53.223,0.000
1709141794.270,-28.320,-29.297,-46.875,-50.781,0.000
1709141794.274,-26.367,-32.227,-41.504,-47.852,0.000
1709141794.278,-20.508,-32.715,-36.621,-42.969,0.000
1709141794.282,-14.648,-33.691,-44.922,-35.645,0.000
1709141794.286,-19.043,-38.574,-46.875,-38.086,0.000
1709141794.290,-26.367,-40.527,-31.738,-28.809,0.000
1709141794.294,-32.715,-38.086,-29.785,-26.367,0.000
1709141794.298,-36.621,-41.504,-33.203,-34.180,0.000
1709141794.302,-35.645,-41.992,-32.227,-26.367,0.000
1709141794.305,-34.180,-40.039,-37.598,-21.484,0.000
1709141794.309,-36.133,-39.551,-39.551,-28.320,0.000
1709141794.313,-40.527,-45.898,-37.598,-27.832,0.000
1709141794.317,-35.156,-49.805,-41.016,-13.672,0.000
1709141794.321,-33.691,-51.758,-39.551,-13.184,0.000
1709141794.325,-34.180,-47.852,-41.504,-27.832,0.000
1709141794.329,-40.527,-37.598,-41.504,-43.945,0.000
1709141794.333,-50.781,-41.016,-28.809,-45.410,0.000
1709141794.337,-55.664,-43.457,-31.250,-31.250,0.000
1709141794.341,-54.688,-43.945,-36.621,-35.645,0.000
1709141794.344,-47.363,-48.828,-27.832,-41.992,0.000
1709141794.348,-45.898,-42.480,-27.832,-50.293,0.000
