timestamps,TP9,AF7,AF8,TP10,Right AUX
1709206202.574,-51.758,-34.668,-38.086,-44.922,0.000
1709206202.578,-52.734,-25.879,-35.156,-44.922,0.000
1709206202.582,-55.664,-26.855,-40.527,-52.734,0.000
1709206202.586,-57.617,-39.062,-47.852,-49.805,0.000
1709206202.590,-45.410,-39.062,-41.992,-36.621,0.000
1709206202.594,-40.039,-33.203,-34.668,-38.086,0.000
1709206202.597,-58.105,-21.484,-43.945,-47.363,0.000
1709206202.601,-64.941,-26.367,-46.387,-54.199,0.000
1709206202.605,-62.500,-57.129,-37.109,-35.645,0.000
1709206202.609,-58.105,-24.414,-33.203,-22.461,0.000
1709206202.613,-52.734,-5.859,-32.227,-26.367,0.000
1709206202.617,-42.480,-32.715,-34.180,-25.879,0.000
1709206202.621,-32.715,-37.109,-31.738,-24.414,0.000
1709206202.625,-39.062,-24.414,-32.227,-30.762,0.000
1709206202.629,-40.039,-19.531,-33.203,-29.297,0.000
1709206202.633,-38.574,-27.832,-33.203,-21.484,0.000
1709206202.637,-33.203,-32.227,-33.691,-21.484,0.000
1709206202.640,-27.344,-31.250,-32.227,-27.832,0.000
1709206202.644,-35.645,-26.367,-34.668,-33.691,0.000
1709206202.648,-39.062,-50.781,-36.133,-26.855,0.000
1709206202.652,-36.133,-54.199,-37.109,-21.973,0.000
1709206202.656,-26.855,-28.809,-44.922,-44.434,0.000
1709206202.660,-37.109,-44.434,-46.875,-60.547,0.000
1709206202.664,-55.176,-36.621,-41.504,-53.223,0.000
1709206202.668,-50.781,-23.438,-39.551,-49.316,0.000
1709206202.672,-46.875,-30.273,-46.875,-54.199,0.000
1709206202.676,-42.969,-43.457,-46.875,-51.270,0.000
1709206202.679,-37.109,-39.062,-42.480,-54.199,0.000
1709206202.683,-35.645,-28.320,-47.363,-60.059,0.000
1709206202.687,-49.316,-43.945,-44.922,-62.988,0.000
1709206202.691,-49.316,-41.992,-37.598,-59.082,0.000
1709206202.695,-38.574,-49.316,-35.156,-42.480,0.000
1709206202.699,-39.062,-31.738,-38.086,-44.434,0.000
1709206202.703,-38.574,-20.020,-38.574,-47.363,0.000
1709206202.707,-38.574,-46.875,-40.039,-47.852,0.000
1709206202.711,-41.016,-44.434,-43.457,-56.152,0.000
1709206202.715,-36.621,-26.367,-37.109,-50.293,0.000
1709206202.719,-34.668,-36.621,-35.645,-51.270,0.000
1709206202.722,-35.645,-47.363,-37.598,-52.246,0.000
1709206202.726,-41.992,-30.273,-38.086,-45.410,0.000
1709206202.730,-52.246,-26.855,-42.969,-41.016,0.000
1709206202.734,-41.016,-27.832,-41.504,-39.551,0.000
1709206202.738,-39.551,-48.340,-38.086,-34.668,0.000
1709206202.742,-40.039,-50.293,-41.504,-31.738,0.000
1709206202.746,-34.668,-14.648,-43.457,-37.109,0.000
1709206202.750,-52.246,-35.156,-44.922,-36.133,0.000
1709206202.754,-43.945,-36.133,-43.457,-40.039,0.000
1709206202.758,-31.250,-19.043,-42.969,-41.992,0.000
1709206202.761,-30.273,-14.648,-41.016,-38.086,0.000
1709206202.765,-36.621,-25.391,-37.598,-39.062,0.000
1709206202.769,-39.551,-39.062,-40.039,-35.156,0.000
1709206202.773,-36.133,-23.438,-41.016,-30.273,0.000
1709206202.777,-30.762,-19.531,-41.504,-38.574,0.000
1709206202.781,-39.551,-38.574,-41.992,-45.410,0.000
1709206202.785,-45.410,-52.734,-42.969,-34.180,0.000
1709206202.789,-41.016,-28.809,-42.480,-32.715,0.000
1709206202.793,-41.992,-14.160,-40.527,-44.434,0.000
1709206202.797,-38.574,-38.574,-41.504,-40.039,0.000
1709206202.801,-40.039,-49.805,-41.016,-31.738,0.000
1709206202.804,-43.945,-34.180,-38.086,-48.828,0.000
1709206202.808,-44.434,-31.250,0.000,-64.453,0.000
1709206202.812,-48.828,-42.969,0.000,-62.500,0.000
1709206202.816,-53.711,-46.387,0.000,-61.523,0.000
1709206202.820,-54.199,-36.133,0.000,-53.711,0.000
1709206202.824,-51.758,-30.762,0.000,-50.293,0.000
1709206202.828,-52.246,-61.035,0.000,-41.992,0.000
1709206202.832,-50.781,-60.547,0.000,-30.762,0.000
1709206202.836,-48.828,-21.484,0.000,-40.039,0.000
1709206202.840,-52.246,-22.949,0.000,-49.805,0.000
1709206202.843,-61.523,-50.293,0.000,-50.293,0.000
1709206202.847,-60.547,-47.363,0.000,-45.410,0.000
1709206202.851,-53.223,-28.809,0.000,-45.410,0.000
1709206202.855,-54.688,-32.715,-40.039,-44.922,0.000
1709206202.859,-33.691,-38.574,-40.039,-39.062,0.000
1709206202.863,-33.691,-31.738,-40.039,-45.898,0.000
1709206202.867,-57.129,-22.949,-44.434,-42.480,0.000
1709206202.871,-54.199,-41.504,-43.945,-35.156,0.000
1709206202.875,-53.711,-57.617,-45.410,-45.410,0.000
1709206202.879,-56.152,-31.738,-45.410,-49.316,0.000
1709206202.883,-47.363,-20.020,-41.016,-48.828,0.000
1709206202.886,-41.992,-35.645,-40.527,-47.852,0.000
1709206202.890,-46.875,-48.340,-40.039,-34.668,0.000
1709206202.894,-49.805,-22.461,-41.992,-35.645,0.000
1709206202.898,-40.527,-10.742,-40.527,-42.480,0.000
1709206202.902,-35.645,-40.527,-43.457,-41.504,0.000
1709206202.906,-43.945,-46.387,-48.828,-38.574,0.000
1709206202.910,-41.992,-25.879,-42.480,-38.086,0.000
1709206202.914,-41.504,-28.809,-38.574,-54.199,0.000
1709206202.918,-39.062,-48.340,-35.156,-53.223,0.000
1709206202.922,-39.551,-55.664,-34.180,-42.969,0.000
1709206202.926,-52.734,-43.457,-41.016,-49.316,0.000
1709206202.929,-36.621,-32.715,-44.922,-49.805,0.000
1709206202.933,-21.973,-57.129,-43.457,-38.086,0.000
1709206202.937,-38.086,-61.523,-40.527,-37.109,0.000
1709206202.941,-41.016,-21.484,-41.992,-43.945,0.000
1709206202.945,-34.668,-24.414,-39.551,-38.574,0.000
1709206202.949,-31.738,-39.551,-36.133,-29.297,0.000
1709206202.953,-29.297,-21.973,-31.738,-31.738,0.000
1709206202.957,-23.438,-14.160,-30.762,-44.434,0.000
1709206202.961,-21.973,-33.691,-34.180,-40.039,0.000
1709206202.965,-28.809,-39.062,-34.180,-28.809,0.000
1709206202.969,-36.621,-38.574,-33.203,-25.391,0.000
1709206202.972,-39.551,-37.598,-37.109,-22.949,0.000
1709206202.976,-41.016,-35.645,-44.434,-24.902,0.000
1709206202.980,-41.504,-59.570,-43.945,-22.461,0.000
1709206202.984,-48.828,-37.109,-43.457,-27.832,0.000
1709206202.988,-55.664,-20.020,-50.293,-39.551,0.000
1709206202.992,-42.969,-39.551,-44.434,-24.414,0.000
1709206202.996,-30.273,-39.551,-34.180,-16.113,0.000
1709206203.000,-20.996,-21.973,-28.809,-24.414,0.000
1709206203.004,-27.832,-31.738,-28.809,-21.973,0.000
1709206203.008,-37.109,-50.293,-36.133,-26.855,0.000
1709206203.012,-33.203,-40.527,-31.738,-27.832,0.000
1709206203.015,-33.691,-45.410,-37.109,-22.461,0.000
1709206203.019,-45.410,-46.387,-42.969,-30.762,0.000
1709206203.023,-49.316,-60.547,-38.086,-28.809,0.000
1709206203.027,-43.457,-54.688,-35.156,-13.672,0.000
1709206203.031,-40.527,-21.484,-33.203,-18.066,0.000
1709206203.035,-32.227,-32.227,-33.691,-21.973,0.000
1709206203.039,-31.250,-30.762,-34.668,-24.902,0.000
1709206203.043,-39.062,-25.391,-37.598,-31.738,0.000
1709206203.047,-45.410,-30.762,-41.504,-27.832,0.000
1709206203.051,-47.852,-43.945,-44.434,-24.902,0.000
1709206203.054,-45.410,-42.969,-38.086,-27.832,0.000
1709206203.058,-36.621,-33.691,-32.715,-26.367,0.000
1709206203.062,-35.645,-42.480,-38.574,-22.949,0.000
1709206203.066,-40.039,-42.969,-39.551,-20.996,0.000
1709206203.070,-40.527,-48.340,-38.086,-22.461,0.000
1709206203.074,-36.621,-20.996,-44.922,-35.645,0.000
1709206203.078,-24.902,-5.859,-44.922,-41.992,0.000
1709206203.082,-35.645,-31.250,-40.527,-39.062,0.000
1709206203.086,-51.758,-31.250,-40.039,-42.480,0.000
1709206203.090,-48.340,-20.020,-40.039,-42.969,0.000
1709206203.094,-39.062,-19.043,-35.645,-32.227,0.000
1709206203.097,-44.922,-44.434,-42.480,-32.227,0.000
1709206203.101,-46.875,-46.387,-45.410,-33.203,0.000
1709206203.105,-36.621,-30.273,-39.551,-24.414,0.000
1709206203.109,-32.715,-37.109,-38.574,-21.484,0.000
1709206203.113,-29.785,-51.270,-38.574,-18.066,0.000
1709206203.117,-28.320,-38.574,-37.598,-22.461,0.000
1709206203.121,-24.902,-7.812,-35.156,-43.945,0.000
1709206203.125,-32.227,-25.391,-33.203,-45.898,0.000
1709206203.129,-38.574,-23.438,-35.645,-39.551,0.000
1709206203.133,-40.039,-9.766,-38.086,-30.762,0.000
1709206203.136,-35.156,-6.348,-34.668,-32.715,0.000
1709206203.140,-16.602,-18.066,-35.645,-43.945,0.000
1709206203.144,-39.062,-30.762,-42.480,-46.387,0.000
1709206203.148,-57.129,-23.926,-46.387,-38.086,0.000
1709206203.152,-41.992,-22.949,-47.363,-30.273,0.000
1709206203.156,-40.039,-37.109,-45.410,-28.809,0.000
1709206203.160,-40.527,-57.129,-45.898,-29.785,0.000
1709206203.164,-39.551,-28.320,-50.781,-34.668,0.000
1709206203.168,-27.832,-5.859,-51.758,-27.832,0.000
1709206203.172,-24.902,-32.227,-40.527,-25.879,0.000
1709206203.176,-24.414,-46.387,-28.809,-32.715,0.000
1709206203.179,-17.090,-41.016,-21.973,-27.344,0.000
1709206203.183,-22.949,-37.109,-16.602,-22.461,0.000
1709206203.187,-25.879,-54.688,-11.230,-17.578,0.000
1709206203.191,-29.785,-67.383,-12.207,-25.879,0.000
1709206203.195,-50.293,-62.012,-13.184,-40.039,0.000
1709206203.199,-59.082,-70.801,-9.277,-40.527,0.000
1709206203.203,-63.965,-114.746,-7.812,-37.598,0.000
1709206203.207,-69.336,-116.211,-7.324,-25.879,0.000
1709206203.211,-72.266,-75.684,-11.230,-25.879,0.000
1709206203.215,-67.383,-94.727,-20.996,-37.598,0.000
1709206203.218,-55.664,-125.488,-20.508,-46.387,0.000
1709206203.222,-68.848,-116.211,-19.531,-41.992,0.000
1709206203.226,-81.543,-107.910,-20.996,-30.273,0.000
1709206203.230,-73.730,-127.441,-11.230,-19.043,0.000
1709206203.234,-60.059,-141.602,-5.371,-5.371,0.000
1709206203.238,-54.688,-130.371,-6.836,-4.395,0.000
1709206203.242,-53.711,-120.605,-15.625,-9.277,0.000
1709206203.246,-60.059,-140.625,-18.555,-7.324,0.000
1709206203.250,-59.570,-158.203,-12.695,2.930,0.000
1709206203.254,-54.199,-139.648,-10.742,5.371,0.000
1709206203.258,-53.223,-125.000,-14.160,4.883,0.000
1709206203.261,-48.828,-146.973,-17.090,4.395,0.000
1709206203.265,-52.246,-157.227,-15.625,0.000,0.000
1709206203.269,-59.082,-135.254,-16.113,4.395,0.000
1709206203.273,-53.223,-130.371,-13.672,6.348,0.000
1709206203.277,-35.645,-149.414,-14.648,0.000,0.000
1709206203.281,-41.992,-141.113,-14.160,0.000,0.000
1709206203.285,-61.523,-118.164,-12.207,0.000,0.000
1709206203.289,-61.035,-121.582,-16.602,0.000,0.000
1709206203.293,-49.805,-126.953,-16.113,0.000,0.000
1709206203.297,-42.969,-123.047,-15.137,0.000,0.000
1709206203.301,-41.504,-104.980,-23.926,0.000,0.000
1709206203.304,-41.504,-101.074,-27.344,0.000,0.000
1709206203.308,-34.180,-132.324,-21.484,0.000,0.000
1709206203.312,-32.227,-129.883,-19.531,0.000,0.000
1709206203.316,-38.574,-84.961,-21.973,0.000,0.000
1709206203.320,-46.875,-83.984,-21.484,0.000,0.000
1709206203.324,-43.457,-91.309,-25.391,-0.977,0.000
1709206203.328,-39.062,-83.984,-29.297,-6.348,0.000
1709206203.332,-37.109,-80.078,-25.879,-14.160,0.000
1709206203.336,-28.809,-76.660,-18.555,-2.930,0.000
1709206203.340,-37.598,-85.938,-20.996,-4.883,0.000
1709206203.344,-42.969,-96.191,-29.785,-11.719,0.000
1709206203.347,-47.852,-87.891,-39.062,-16.602,0.000
1709206203.351,-50.781,-82.031,-41.504,-22.461,0.000
1709206203.355,-40.039,-87.402,-33.691,-9.766,0.000
1709206203.359,-37.109,-55.664,-30.273,-14.160,0.000
1709206203.363,-30.273,-41.504,-34.180,-14.648,0.000
1709206203.367,-20.020,-65.430,-38.086,-8.301,0.000
1709206203.371,-20.996,-59.570,-32.227,-8.789,0.000
1709206203.375,-27.344,-47.363,-34.180,-7.812,0.000
1709206203.379,-22.949,-53.223,-34.668,-14.160,0.000
1709206203.383,-20.020,-64.453,-30.273,-12.695,0.000
1709206203.387,-29.297,-60.059,-32.227,-16.113,0.000
1709206203.390,-32.715,-63.965,-37.109,-16.602,0.000
1709206203.394,-12.695,-53.711,-33.203,-10.254,0.000
1709206203.398,-11.719,-62.988,-32.227,-6.348,0.000
1709206203.402,-35.645,-72.266,-40.039,-4.883,0.000
1709206203.406,-38.574,-34.668,-41.504,-21.484,0.000
1709206203.410,-38.086,-47.852,-40.527,-38.574,0.000
1709206203.414,-44.434,-52.734,-38.574,-49.316,0.000
1709206203.418,-47.852,-38.086,-36.133,-50.293,0.000
1709206203.422,-46.387,-37.109,-40.039,-55.176,0.000
1709206203.426,-45.410,-49.316,-40.527,-52.734,0.000
1709206203.429,-40.039,-51.758,-40.039,-43.945,0.000
1709206203.433,-35.645,-39.062,-44.434,-37.109,0.000
1709206203.437,-35.645,-41.504,-45.410,-33.203,0.000
1709206203.441,-30.273,-50.293,-42.969,-39.062,0.000
1709206203.445,-33.691,-68.359,-43.945,-38.574,0.000
1709206203.449,-41.016,-41.992,-47.363,-42.969,0.000
1709206203.453,-35.156,-16.113,-42.969,-48.340,0.000
1709206203.457,-21.484,-40.039,-37.598,-42.480,0.000
1709206203.461,-28.809,-44.922,-41.016,-35.156,0.000
1709206203.465,-45.898,-33.691,-43.457,-31.738,0.000
1709206203.469,-47.852,-29.297,-44.922,-41.992,0.000
1709206203.472,-43.457,-44.922,-41.504,-47.852,0.000
1709206203.476,-36.133,-43.945,-36.133,-48.828,0.000
1709206203.480,-30.273,-28.809,-38.574,-48.340,0.000
1709206203.484,-41.504,-37.109,-39.551,-47.363,0.000
1709206203.488,-56.152,-68.359,-37.109,-31.738,0.000
1709206203.492,-51.758,-60.059,-37.598,-22.949,0.000
1709206203.496,-49.316,-17.578,-42.480,-46.387,0.000
1709206203.500,-50.293,-44.434,-41.504,-52.734,0.000
1709206203.504,-52.246,-54.688,-41.992,-44.922,0.000
1709206203.508,-43.945,-36.621,-40.527,-35.645,0.000
1709206203.511,-32.715,-37.109,-34.668,-28.809,0.000
1709206203.515,-46.875,-43.457,-38.086,-26.367,0.000
1709206203.519,-48.828,-54.199,-37.598,-25.391,0.000
1709206203.523,-37.598,-39.062,-35.156,-27.832,0.000
1709206203.527,-39.551,-33.203,-38.574,-35.156,0.000
1709206203.531,-41.504,-54.688,-35.156,-33.203,0.000
1709206203.535,-42.969,-67.871,-30.762,-28.809,0.000
1709206203.539,-41.504,-38.574,-30.273,-32.227,0.000
1709206203.543,-47.363,-21.484,-29.297,-43.457,0.000
1709206203.547,-63.477,-54.199,-31.250,-48.828,0.000
1709206203.551,-62.988,-57.617,-34.180,-52.734,0.000
1709206203.554,-59.082,-43.945,-32.227,-54.688,0.000
1709206203.558,-59.570,-47.363,-27.832,-50.293,0.000
1709206203.562,-56.152,-60.547,-31.250,-55.664,0.000
1709206203.566,-56.641,-56.641,-33.691,-53.711,0.000
1709206203.570,-63.965,-43.457,-37.598,-41.016,0.000
1709206203.574,-52.734,-46.387,-41.016,-37.598,0.000
1709206203.578,-34.180,-74.219,-38.574,-47.852,0.000
1709206203.582,-60.059,-84.473,-41.504,-54.199,0.000
1709206203.586,-73.242,-45.410,-42.969,-55.176,0.000
1709206203.590,-63.965,-33.203,-41.992,-56.152,0.000
1709206203.593,-56.641,-65.918,-41.992,-49.316,0.000
1709206203.597,-53.223,-52.734,-41.016,-49.805,0.000
1709206203.601,-54.199,-19.043,-43.457,-51.270,0.000
1709206203.605,-51.270,-45.410,-42.969,-45.410,0.000
1709206203.609,-54.199,-53.711,-39.062,-42.969,0.000
1709206203.613,-54.199,-38.574,-39.062,-48.340,0.000
1709206203.617,-52.246,-36.621,-41.016,-60.547,0.000
1709206203.621,-49.805,-50.293,-42.480,-66.406,0.000
1709206203.625,-54.199,-60.547,-40.039,-57.129,0.000
1709206203.629,-57.129,-40.039,-40.039,-50.293,0.000
1709206203.633,-51.758,-28.809,-40.527,-49.805,0.000
1709206203.636,-52.246,-52.246,-42.969,-45.898,0.000
1709206203.640,-40.039,-58.594,-48.828,-45.898,0.000
1709206203.644,-50.781,-27.832,-47.363,-45.898,0.000
1709206203.648,-61.523,-25.391,-40.039,-48.340,0.000
1709206203.652,-50.781,-47.852,-36.133,-45.898,0.000
1709206203.656,-46.387,-56.641,-38.574,-41.992,0.000
1709206203.660,-44.922,-43.457,-41.992,-46.875,0.000
1709206203.664,-45.898,-32.715,-37.109,-45.410,0.000
1709206203.668,-53.223,-48.340,-34.668,-35.645,0.000
1709206203.672,-50.293,-59.082,-38.574,-31.250,0.000
1709206203.676,-35.156,-32.715,-39.062,-32.227,0.000
1709206203.679,-32.715,-18.555,-38.086,-41.992,0.000
1709206203.683,-38.574,-63.477,-38.086,-42.480,0.000
1709206203.687,-43.457,-75.195,-40.527,-34.180,0.000
1709206203.691,-35.645,-28.320,-42.969,-38.574,0.000
1709206203.695,-30.273,-33.203,-37.598,-37.109,0.000
1709206203.699,-44.922,-32.227,-33.203,-38.574,0.000
1709206203.703,-47.852,-30.273,-36.133,-49.805,0.000
1709206203.707,-50.293,-41.016,-40.527,-58.105,0.000
1709206203.711,-48.828,-47.852,-39.551,-52.246,0.000
1709206203.715,-41.992,-50.781,-34.668,-47.363,0.000
1709206203.719,-36.133,-42.480,-34.180,-41.016,0.000
1709206203.722,-31.738,-25.879,-37.598,-36.621,0.000
1709206203.726,-30.762,-27.832,-43.945,-44.434,0.000
1709206203.730,-27.832,-52.246,-39.551,-38.574,0.000
1709206203.734,-23.926,-26.855,-36.621,-35.156,0.000
1709206203.738,-21.973,-6.348,-37.109,-37.598,0.000
1709206203.742,-24.902,-29.297,-34.668,-33.203,0.000
1709206203.746,-33.691,-38.086,-32.715,-37.598,0.000
1709206203.750,-36.621,-29.297,-35.156,-28.320,0.000
1709206203.754,-34.668,-27.344,-39.551,-25.391,0.000
1709206203.758,-28.809,-31.738,-36.133,-34.668,0.000
1709206203.762,-38.086,-33.691,-33.203,-40.039,0.000
1709206203.765,-48.340,-33.691,-36.621,-49.805,0.000
1709206203.769,-52.246,-33.203,-38.574,-49.316,0.000
1709206203.773,-53.711,-54.688,-38.574,-40.039,0.000
1709206203.777,-48.340,-55.664,-38.574,-33.203,0.000
1709206203.781,-41.016,-20.996,-39.551,-38.574,0.000
1709206203.785,-41.504,-31.250,-40.039,-37.109,0.000
1709206203.789,-36.133,-33.203,-38.574,-31.738,0.000
1709206203.793,0.000,-20.508,-38.086,-35.645,0.000
1709206203.797,0.000,-19.043,-47.363,-43.457,0.000
1709206203.801,0.000,-30.762,-49.316,-47.852,0.000
1709206203.804,0.000,-31.250,-40.527,-39.062,0.000
1709206203.808,0.000,-32.715,-43.945,-31.250,0.000
1709206203.812,0.000,-35.156,-45.898,-35.645,0.000
1709206203.816,0.000,-25.391,-48.828,-46.387,0.000
1709206203.820,0.000,-45.410,-48.340,-48.340,0.000
1709206203.824,0.000,-31.738,-37.598,-41.016,0.000
1709206203.828,0.000,-2.930,-30.762,-36.133,0.000
1709206203.832,0.000,-24.414,-33.691,-31.250,0.000
1709206203.836,0.000,-29.297,-30.762,-30.762,0.000
1709206203.840,-36.133,-18.066,-29.297,-42.480,0.000
1709206203.844,-41.016,-25.879,-29.785,-47.852,0.000
1709206203.847,-46.875,-42.480,-27.344,-38.086,0.000
1709206203.851,-44.922,-39.062,-33.691,-31.250,0.000
1709206203.855,-25.879,-24.902,-37.109,-39.062,0.000
1709206203.859,-31.738,-26.367,-32.715,-54.199,0.000
1709206203.863,-43.457,-47.852,-29.785,-52.246,0.000
1709206203.867,-42.480,-41.992,-31.738,-34.180,0.000
1709206203.871,-43.945,2.930,-38.574,-38.086,0.000
1709206203.875,-46.387,-16.113,-42.969,-51.270,0.000
1709206203.879,-52.246,-28.320,-41.016,-49.316,0.000
1709206203.883,-49.805,-18.066,-35.645,-39.551,0.000
1709206203.886,-53.223,-21.973,-32.715,-32.715,0.000
1709206203.890,-57.617,-31.738,-32.715,-29.785,0.000
1709206203.894,-49.805,-35.645,-32.227,-26.855,0.000
1709206203.898,-52.734,-23.926,-38.086,-34.180,0.000
1709206203.902,-46.387,-30.273,-39.062,-38.574,0.000
1709206203.906,-41.992,-47.852,-43.457,-31.250,0.000
1709206203.910,-51.758,-57.129,-43.457,-20.020,0.000
1709206203.914,-45.898,-20.996,-40.039,-20.996,0.000
1709206203.918,-47.363,0.000,-40.039,-36.133,0.000
1709206203.922,-38.086,-32.227,-37.109,-34.668,0.000
1709206203.926,-45.898,-35.156,-37.109,-35.156,0.000
1709206203.929,-59.570,-21.973,-40.527,-37.598,0.000
1709206203.933,-56.152,-27.344,-43.945,-39.551,0.000
1709206203.937,-53.711,-41.992,-45.898,-42.969,0.000
1709206203.941,-49.316,-43.945,-43.945,-41.016,0.000
1709206203.945,-55.664,-31.738,-38.574,-44.434,0.000
1709206203.949,-47.363,-34.668,-39.551,-38.574,0.000
1709206203.953,-43.457,-64.453,-39.551,-21.484,0.000
1709206203.957,-63.965,-62.500,-41.504,-25.391,0.000
1709206203.961,-52.734,-20.020,-41.016,-39.062,0.000
1709206203.965,-40.527,-30.273,-36.621,-37.598,0.000
1709206203.968,-47.363,-60.547,-41.992,-40.527,0.000
1709206203.972,-54.199,-40.527,-48.828,-40.039,0.000
1709206203.976,-47.852,-24.414,-44.922,-43.457,0.000
1709206203.980,-40.527,-44.922,-40.527,-54.199,0.000
1709206203.984,-50.781,-30.762,-38.574,-55.664,0.000
1709206203.988,-51.758,-18.066,-37.109,-50.781,0.000
1709206203.992,-42.969,-27.344,-42.969,-54.199,0.000
1709206203.996,-41.504,-31.250,-39.551,-50.781,0.000
1709206204.000,-26.367,-41.016,-40.527,-46.387,0.000
1709206204.004,-29.297,-34.180,-49.316,-58.105,0.000
1709206204.008,-54.199,-16.602,-47.363,-51.270,0.000
1709206204.011,-57.617,-30.762,-45.410,-44.434,0.000
1709206204.015,-45.410,-40.039,-40.527,-42.969,0.000
1709206204.019,-42.969,-12.695,-44.922,-52.246,0.000
1709206204.023,-44.922,-9.766,-50.293,-61.035,0.000
1709206204.027,-44.922,-30.762,-46.387,-49.316,0.000
1709206204.031,-48.340,-32.715,-45.410,-35.156,0.000
1709206204.035,-45.898,-30.762,-42.480,-30.762,0.000
1709206204.039,-40.039,-31.738,-45.410,-29.297,0.000
1709206204.043,-42.969,-30.273,-45.898,-32.715,0.000
1709206204.047,-41.016,-38.574,-44.434,-37.598,0.000
1709206204.051,-30.762,-27.344,-47.363,-34.668,0.000
1709206204.054,-47.852,-10.742,-44.922,-35.156,0.000
1709206204.058,-45.410,-47.852,-40.039,-27.832,0.000
1709206204.062,-34.180,-70.312,-39.062,-21.484,0.000
1709206204.066,-36.621,-24.414,-40.039,-35.645,0.000
1709206204.070,-41.504,-28.320,-40.039,-41.992,0.000
1709206204.074,-48.340,-44.434,-48.340,-37.109,0.000
1709206204.078,-46.387,-30.273,-48.828,-38.086,0.000
1709206204.082,-51.270,-28.320,-41.016,-45.410,0.000
1709206204.086,-51.270,-38.086,-41.504,-45.410,0.000
1709206204.090,-43.457,-43.457,-39.062,-39.062,0.000
1709206204.094,-43.457,-34.668,-34.668,-37.109,0.000
1709206204.097,-42.969,-36.133,-35.156,-43.945,0.000
1709206204.101,-44.922,-46.387,-35.156,-39.551,0.000
1709206204.105,-35.645,-53.223,-33.203,-24.902,0.000
1709206204.109,-26.367,-28.320,-34.180,-29.785,0.000
1709206204.113,-34.180,-10.254,-35.645,-38.574,0.000
1709206204.117,-32.715,-33.203,-31.250,-37.598,0.000
1709206204.121,0.000,-36.621,-32.715,0.000,0.000
1709206204.125,0.000,-23.926,-30.762,0.000,0.000
1709206204.129,0.000,-26.367,-26.367,0.000,0.000
1709206204.133,0.000,-31.250,-29.297,0.000,0.000
1709206204.137,0.000,-33.691,-32.715,0.000,0.000
1709206204.140,0.000,-39.551,-35.156,0.000,0.000
1709206204.144,0.000,-28.809,-36.133,0.000,0.000
1709206204.148,0.000,-46.387,-36.133,0.000,0.000
1709206204.152,0.000,-53.711,-38.574,0.000,0.000
1709206204.156,0.000,-14.160,-41.504,0.000,0.000
1709206204.160,0.000,-16.602,-46.875,0.000,0.000
1709206204.164,0.000,-26.855,-51.270,0.000,0.000
1709206204.168,-44.434,-32.227,-48.340,-46.387,0.000
1709206204.172,-59.082,-29.785,-43.457,-51.270,0.000
1709206204.176,-47.363,-28.320,-39.551,-47.852,0.000
1709206204.179,-41.016,-31.250,-42.480,-45.410,0.000
1709206204.183,-41.504,-37.109,-40.039,-42.969,0.000
1709206204.187,-42.480,-41.016,-37.109,-36.133,0.000
1709206204.191,-43.457,-36.621,-43.457,-31.738,0.000
1709206204.195,-51.270,-53.711,-45.410,-23.438,0.000
1709206204.199,-50.293,-31.250,-43.945,-29.297,0.000
1709206204.203,-46.875,-10.742,-41.504,-35.645,0.000
1709206204.207,-48.340,-41.016,-39.062,-25.879,0.000
1709206204.211,-44.434,-36.133,-39.551,-30.762,0.000
1709206204.215,-40.039,-13.184,-38.086,-40.527,0.000
1709206204.219,-40.527,-22.461,-40.527,-37.109,0.000
1709206204.222,-38.086,-45.410,-36.621,-30.273,0.000
1709206204.226,-28.320,-42.480,-37.598,-41.504,0.000
1709206204.230,-33.691,-29.297,-40.039,-33.691,0.000
1709206204.234,-38.086,-37.109,-37.598,-25.879,0.000
1709206204.238,-41.992,-59.570,-45.898,-41.992,0.000
1709206204.242,-44.922,-52.734,-42.480,-38.574,0.000
1709206204.246,-49.316,-17.090,-41.504,-41.016,0.000
1709206204.250,-51.270,-33.691,-42.480,-49.316,0.000
1709206204.254,-48.828,-40.039,-39.062,-43.945,0.000
1709206204.258,-43.945,-21.484,-37.109,-39.062,0.000
1709206204.261,-33.691,-22.949,-31.250,-48.340,0.000
1709206204.265,-33.203,-38.086,-33.691,-46.875,0.000
1709206204.269,-42.480,-37.598,-34.668,-33.691,0.000
1709206204.273,-34.180,-25.879,-34.180,-31.738,0.000
1709206204.277,-33.203,-34.668,-39.062,-36.133,0.000
1709206204.281,-41.504,-46.387,-38.574,-39.551,0.000
1709206204.285,-41.504,-60.059,-40.039,-34.180,0.000
1709206204.289,-49.805,-36.133,-45.410,-30.273,0.000
1709206204.293,-44.434,-5.859,-42.480,-31.250,0.000
1709206204.297,-43.457,-26.367,-33.203,-25.879,0.000
1709206204.301,-38.574,-33.203,-30.762,-26.367,0.000
1709206204.304,-29.785,-19.043,-33.691,-38.086,0.000
1709206204.308,-35.645,-20.996,-35.156,-44.922,0.000
1709206204.312,-45.898,-35.156,-37.598,-44.434,0.000
1709206204.316,-48.340,-32.715,-38.086,-39.062,0.000
1709206204.320,-35.156,-29.297,-41.992,-38.574,0.000
1709206204.324,-41.016,-33.691,-46.387,-47.852,0.000
1709206204.328,-49.316,-47.363,-45.898,-38.574,0.000
1709206204.332,-41.504,-43.945,-45.410,-34.180,0.000
1709206204.336,-43.457,0.977,-44.922,-52.734,0.000
1709206204.340,-48.828,-7.812,-39.551,-49.805,0.000
1709206204.343,-46.875,-38.574,-35.645,-42.969,0.000
1709206204.347,-43.945,-32.227,-36.621,-47.363,0.000
1709206204.351,-41.504,-19.043,-38.574,-40.527,0.000
1709206204.355,0.000,-32.227,-41.504,-35.156,0.000
1709206204.359,0.000,-37.109,-39.062,-44.922,0.000
1709206204.363,0.000,-29.297,-34.180,-57.617,0.000
1709206204.367,0.000,-28.320,-33.691,-47.363,0.000
1709206204.371,0.000,-38.574,-33.203,-37.109,0.000
1709206204.375,0.000,-54.688,-38.086,-43.457,0.000
1709206204.379,0.000,-48.828,-44.922,-46.875,0.000
1709206204.383,0.000,-26.367,-43.457,-49.805,0.000
1709206204.386,0.000,-27.832,-39.062,-44.922,0.000
1709206204.390,0.000,-39.551,-38.574,-34.180,0.000
1709206204.394,0.000,-14.648,-31.738,-28.809,0.000
1709206204.398,0.000,-5.371,-33.691,-31.738,0.000
1709206204.402,-39.551,-26.855,-39.062,-37.109,0.000
1709206204.406,-42.480,-35.645,-36.621,-36.133,0.000
1709206204.410,-35.156,-20.508,-36.621,-38.086,0.000
1709206204.414,-24.902,-20.508,-32.227,-39.062,0.000
1709206204.418,-47.363,-32.715,-33.203,-38.086,0.000
1709206204.421,-59.082,-46.875,-34.180,-43.457,0.000
1709206204.425,-52.734,-31.738,-27.832,-41.016,0.000
1709206204.429,-51.270,-12.207,-31.250,-36.133,0.000
1709206204.433,-50.781,-48.828,-34.180,-31.250,0.000
1709206204.437,-50.781,-64.453,-29.785,-30.762,0.000
1709206204.441,-42.480,-24.902,-33.203,-41.992,0.000
1709206204.445,-43.945,-19.531,-36.133,-38.574,0.000
1709206204.449,-36.621,-26.367,-33.203,-24.414,0.000
1709206204.453,-45.410,-20.508,-32.227,-13.672,0.000
1709206204.457,-40.527,-21.484,-35.645,-19.531,0.000
1709206204.461,-39.062,-27.832,-34.668,-43.457,0.000
1709206204.464,-38.086,-35.645,-33.691,-52.246,0.000
1709206204.468,-29.297,-38.574,-31.250,-42.969,0.000
1709206204.472,-34.668,-20.508,-34.180,-46.875,0.000
1709206204.476,-42.969,-22.461,-40.527,-51.270,0.000
1709206204.480,-35.645,-53.223,-40.039,-40.039,0.000
1709206204.484,-42.969,-31.250,-35.645,-31.738,0.000
1709206204.488,-53.223,-9.766,-29.297,-37.109,0.000
1709206204.492,-44.434,-34.180,-26.367,-29.785,0.000
1709206204.496,0.000,-41.504,-27.344,-29.785,0.000
1709206204.500,0.000,-25.391,-32.227,-47.852,0.000
1709206204.504,0.000,-27.344,-37.598,-55.176,0.000
1709206204.507,0.000,-48.340,-36.621,-47.852,0.000
1709206204.511,0.000,-48.828,-34.668,-37.598,0.000
1709206204.515,0.000,-42.480,-41.992,-39.551,0.000
1709206204.519,0.000,-27.832,-48.828,-48.828,0.000
1709206204.523,0.000,-48.340,-42.969,-46.875,0.000
1709206204.527,0.000,-59.082,-37.598,-30.273,0.000
1709206204.531,0.000,-17.578,-37.598,-30.762,0.000
1709206204.535,0.000,-25.879,-42.480,-44.434,0.000
1709206204.539,0.000,-26.855,-44.922,-42.480,0.000
1709206204.543,-36.133,-16.602,-40.039,-39.551,0.000
1709206204.546,-59.082,-16.113,-37.109,-41.992,0.000
1709206204.550,-47.363,-30.762,-37.598,-33.203,0.000
1709206204.554,-39.551,-34.668,-37.598,-36.133,0.000
1709206204.558,-31.250,-30.273,-35.645,-45.898,0.000
1709206204.562,-22.949,-36.133,-27.344,-47.363,0.000
1709206204.566,-33.203,-34.668,-28.320,-42.969,0.000
1709206204.570,-42.969,-48.828,-39.062,-33.203,0.000
1709206204.574,-32.227,-23.438,-38.574,-34.668,0.000
1709206204.578,-19.043,-3.906,-36.133,-40.527,0.000
1709206204.582,-28.809,-33.203,-33.691,-36.133,0.000
1709206204.586,-36.133,-37.598,-32.715,-32.227,0.000
1709206204.589,-30.273,-26.367,-39.062,-37.598,0.000
1709206204.593,-29.297,-25.879,-41.504,-40.039,0.000
1709206204.597,-30.762,-36.621,-40.527,-42.969,0.000
1709206204.601,-16.113,-34.668,-42.969,-49.805,0.000
1709206204.605,-29.297,-29.297,-46.387,-46.875,0.000
1709206204.609,-49.805,-33.691,-42.969,-38.086,0.000
1709206204.613,-48.340,-53.223,-41.016,-32.715,0.000
1709206204.617,-41.016,-47.363,-39.551,-33.691,0.000
1709206204.621,-30.273,-3.418,-37.598,-40.039,0.000
1709206204.625,-37.109,-21.973,-40.527,-51.270,0.000
1709206204.628,-44.922,-33.203,-40.527,-55.664,0.000
1709206204.632,-39.062,-14.648,-40.039,-53.223,0.000
1709206204.636,-41.992,-9.277,-44.922,-56.641,0.000
1709206204.640,-59.082,-22.949,-46.387,-63.477,0.000
1709206204.644,-64.453,-37.598,-44.434,-61.523,0.000
1709206204.648,-53.711,-20.020,-43.457,-48.828,0.000
1709206204.652,-47.363,-17.578,-38.086,-44.434,0.000
1709206204.656,-49.805,-44.434,-37.109,-59.082,0.000
1709206204.660,-50.781,-59.570,-40.039,-50.293,0.000
1709206204.664,-46.387,-35.645,-39.551,-33.203,0.000
1709206204.668,-42.969,-16.602,-37.109,-43.457,0.000
1709206204.671,-36.621,-32.715,-40.039,-50.781,0.000
1709206204.675,-42.480,-35.645,-43.457,-42.480,0.000
1709206204.679,-60.059,-17.578,-41.504,-41.992,0.000
1709206204.683,-53.223,-11.719,-38.574,-54.688,0.000
1709206204.687,-47.363,-32.227,-40.527,-57.617,0.000
1709206204.691,-45.898,-34.180,-41.992,-52.734,0.000
1709206204.695,-38.086,-15.137,-38.574,-50.781,0.000
1709206204.699,-34.668,-21.484,-33.691,-50.293,0.000
1709206204.703,-38.574,-49.805,-33.203,-46.387,0.000
1709206204.707,-42.480,-42.969,-36.133,-44.434,0.000
1709206204.710,-43.945,-5.371,-38.086,-47.363,0.000
1709206204.714,-39.062,-13.184,-38.086,-53.711,0.000
1709206204.718,-43.457,-50.293,-34.180,-45.898,0.000
1709206204.722,-41.504,-48.828,-36.133,-43.945,0.000
1709206204.726,-43.457,-18.555,-41.992,-50.293,0.000
1709206204.730,-58.105,-25.879,-44.434,-46.875,0.000
1709206204.734,-52.246,-34.180,-51.270,-54.688,0.000
1709206204.738,-41.504,-18.555,-49.316,-55.664,0.000
1709206204.742,-34.668,-14.160,-40.039,-47.363,0.000
1709206204.746,-34.180,-32.227,-40.039,-40.527,0.000
1709206204.750,-40.039,-52.734,-45.410,-41.992,0.000
1709206204.753,-54.688,-41.504,-40.527,-40.527,0.000
1709206204.757,-54.199,-33.203,-41.992,-34.668,0.000
1709206204.761,-45.410,-50.293,-46.875,-37.598,0.000
1709206204.765,-50.781,-57.129,-44.434,-36.133,0.000
1709206204.769,-61.523,-28.809,-42.480,-39.062,0.000
1709206204.773,-59.082,-20.508,-41.992,-48.340,0.000
1709206204.777,-46.387,-40.039,-38.086,-43.945,0.000
1709206204.781,-48.828,-49.316,-44.922,-40.527,0.000
1709206204.785,-44.434,-34.668,-47.363,-45.410,0.000
1709206204.789,-51.270,-29.785,-44.434,-41.992,0.000
1709206204.793,-61.523,-38.574,-44.922,-36.621,0.000
1709206204.796,-45.898,-40.039,-42.480,-41.016,0.000
1709206204.800,-41.016,-25.879,-44.922,-41.016,0.000
1709206204.804,-41.992,-11.230,-47.852,-44.434,0.000
1709206204.808,-41.016,-45.898,-46.875,-42.969,0.000
1709206204.812,-41.016,-56.641,-45.410,-33.691,0.000
1709206204.816,-47.852,-11.719,-44.922,-41.016,0.000
1709206204.820,-46.875,-15.137,-43.945,-43.457,0.000
1709206204.824,-46.387,-29.785,-39.062,-39.551,0.000
1709206204.828,-48.828,-15.137,-33.691,-38.086,0.000
1709206204.832,-39.062,-16.602,-39.062,-42.480,0.000
1709206204.836,-25.391,-36.133,-41.992,-46.875,0.000
1709206204.839,-27.832,-32.715,-36.621,-49.805,0.000
1709206204.843,-44.922,-33.203,-31.738,-47.852,0.000
1709206204.847,-49.805,-26.855,-31.250,-45.410,0.000
1709206204.851,-44.434,-21.973,-29.785,-38.086,0.000
1709206204.855,-38.086,-52.246,-29.785,-22.461,0.000
1709206204.859,-43.945,-29.297,-31.250,-28.320,0.000
1709206204.863,-49.316,-6.348,-35.156,-47.363,0.000
1709206204.867,-45.410,-35.156,-32.227,-48.828,0.000
1709206204.871,-43.945,-37.598,-30.273,-42.969,0.000
1709206204.875,-44.922,-17.090,-35.645,-46.875,0.000
1709206204.879,-44.434,-29.785,-35.645,-44.922,0.000
1709206204.882,-32.715,-45.898,-31.738,-35.645,0.000
1709206204.886,-32.227,-38.086,-32.715,-31.250,0.000
1709206204.890,-49.805,-41.992,-40.527,-34.180,0.000
1709206204.894,-50.293,-36.133,-38.086,-33.691,0.000
1709206204.898,-45.898,-48.340,-35.156,-27.344,0.000
1709206204.902,-47.363,-50.781,-40.039,-26.855,0.000
1709206204.906,-49.805,-14.160,-39.062,-31.250,0.000
1709206204.910,-50.781,-18.555,-39.062,-29.297,0.000
1709206204.914,-38.574,-23.926,-41.504,-24.902,0.000
1709206204.918,-33.691,-20.020,-44.434,-40.527,0.000
1709206204.921,-35.645,-12.695,-42.480,-53.711,0.000
1709206204.925,-29.785,-22.461,-40.039,-40.527,0.000
1709206204.929,-34.180,-33.203,-42.969,-28.809,0.000
1709206204.933,-36.133,-27.832,-50.293,-28.809,0.000
1709206204.937,-28.809,-27.344,-51.270,-34.180,0.000
1709206204.941,-37.598,-28.809,-46.387,-42.480,0.000
1709206204.945,-42.969,-43.945,-45.410,-32.227,0.000
1709206204.949,-39.551,-27.832,-43.457,-22.461,0.000
1709206204.953,-42.969,-9.766,-41.992,-34.668,0.000
1709206204.957,-35.645,-19.531,-40.039,-41.992,0.000
1709206204.961,-31.738,-21.484,-37.598,-50.781,0.000
1709206204.964,0.000,-21.484,0.000,-65.430,0.000
1709206204.968,0.000,-20.996,0.000,-52.734,0.000
1709206204.972,0.000,-31.738,0.000,-40.527,0.000
1709206204.976,0.000,-30.273,0.000,-46.875,0.000
1709206204.980,0.000,-10.254,0.000,-39.062,0.000
1709206204.984,0.000,-17.090,0.000,-35.156,0.000
1709206204.988,0.000,-45.410,0.000,-34.180,0.000
1709206204.992,0.000,-40.527,0.000,-29.297,0.000
1709206204.996,0.000,-3.906,0.000,-34.668,0.000
1709206205.000,0.000,-25.879,0.000,-40.527,0.000
1709206205.004,0.000,-36.621,0.000,-35.156,0.000
1709206205.007,0.000,-29.785,0.000,-27.344,0.000
1709206205.011,-50.781,-20.508,-33.203,-31.250,0.000
1709206205.015,-42.969,-20.508,-38.086,-41.016,0.000
1709206205.019,-29.297,-31.250,-34.668,-46.875,0.000
1709206205.023,-30.762,-23.438,-28.809,-38.574,0.000
1709206205.027,-37.598,-29.297,-35.645,-34.180,0.000
1709206205.031,-42.480,-44.922,-37.109,-41.016,0.000
1709206205.035,-30.762,-58.594,-28.809,-34.668,0.000
1709206205.039,-32.227,-36.621,-28.320,-35.645,0.000
1709206205.043,-58.105,-16.602,-31.250,-48.340,0.000
1709206205.046,-55.664,-39.062,-32.227,-41.504,0.000
1709206205.050,-41.504,-41.504,-27.344,-31.250,0.000
1709206205.054,-37.109,-28.809,-32.715,-35.156,0.000
1709206205.058,-32.227,-29.785,-38.574,-41.992,0.000
1709206205.062,-36.133,-47.852,-33.691,-45.898,0.000
1709206205.066,-41.016,-54.199,-35.156,-45.410,0.000
1709206205.070,-42.480,-26.367,-39.062,-39.062,0.000
1709206205.074,-42.480,-20.020,-41.016,-46.875,0.000
1709206205.078,-43.945,-55.664,-42.480,-41.992,0.000
1709206205.082,-35.645,-54.688,-43.457,-33.203,0.000
1709206205.086,-38.086,-10.254,-41.504,-41.504,0.000
1709206205.089,-58.105,-25.879,-41.992,-46.875,0.000
1709206205.093,-57.129,-48.340,-43.945,-41.992,0.000
1709206205.097,-57.129,-24.902,-42.480,-41.504,0.000
1709206205.101,-55.176,-11.719,-43.457,-41.504,0.000
1709206205.105,-56.152,-36.133,-44.434,-40.039,0.000
1709206205.109,-58.105,-43.457,-39.551,-43.457,0.000
1709206205.113,-47.852,-30.273,-36.133,-29.785,0.000
1709206205.117,-49.316,-25.391,-40.527,-31.738,0.000
1709206205.121,-58.105,-33.691,-41.504,-41.992,0.000
1709206205.125,-57.129,-50.781,-39.551,-40.039,0.000
1709206205.129,-50.293,-51.270,-41.016,-36.621,0.000
1709206205.132,-59.082,-27.344,-39.062,-34.180,0.000
1709206205.136,-51.758,-26.367,-33.691,-38.086,0.000
1709206205.140,-39.551,-60.059,-34.668,-36.621,0.000
1709206205.144,-52.246,-38.574,-35.645,-36.133,0.000
1709206205.148,-51.758,-16.113,-34.668,-43.457,0.000
1709206205.152,-39.551,-37.598,-39.551,-41.016,0.000
1709206205.156,-37.109,-34.668,-42.969,-39.551,0.000
1709206205.160,-34.668,-18.555,-42.480,-41.504,0.000
1709206205.164,-25.879,-21.484,-46.387,-39.062,0.000
1709206205.168,-32.715,-38.086,-42.969,-35.645,0.000
1709206205.172,-39.551,-47.363,-38.086,-29.297,0.000
1709206205.175,-31.738,-25.879,-38.574,-18.066,0.000
1709206205.179,-26.367,-14.648,-36.621,-19.531,0.000
1709206205.183,-19.043,-46.387,-39.551,-29.785,0.000
1709206205.187,-20.508,-54.688,-41.504,-34.180,0.000
1709206205.191,-32.227,-6.836,-32.715,-29.785,0.000
1709206205.195,-31.250,-11.719,-37.598,-23.438,0.000
1709206205.199,-28.809,-33.691,-42.480,-27.344,0.000
1709206205.203,-35.156,-28.809,-42.480,-35.645,0.000
1709206205.207,-39.062,-24.902,-43.945,-43.457,0.000
1709206205.211,-43.945,-40.527,-45.410,-39.062,0.000
1709206205.215,-51.758,-48.828,-50.781,-31.250,0.000
1709206205.218,-50.293,-40.527,-45.410,-31.250,0.000
1709206205.222,-51.270,-25.391,-39.551,-41.016,0.000
1709206205.226,-49.316,-22.461,-42.969,-52.734,0.000
1709206205.230,-57.129,-51.270,-46.387,-36.621,0.000
1709206205.234,-57.129,-29.785,-45.410,-29.297,0.000
1709206205.238,-43.457,-14.648,-39.062,-37.109,0.000
1709206205.242,-39.062,-45.410,-38.574,-33.691,0.000
1709206205.246,-42.480,-44.434,-38.574,-34.180,0.000
1709206205.250,-43.457,-24.414,-38.574,-29.785,0.000
1709206205.254,-41.504,-25.391,-41.504,-33.691,0.000
1709206205.258,-41.992,-46.875,-35.645,-33.203,0.000
1709206205.261,-39.062,-54.199,-36.133,-28.809,0.000
1709206205.265,-48.828,-46.875,-39.551,-35.156,0.000
1709206205.269,-50.781,-39.551,-35.645,-34.180,0.000
1709206205.273,-43.945,-62.988,-38.574,-27.832,0.000
1709206205.277,-31.738,-59.082,-45.410,-27.344,0.000
1709206205.281,-27.832,-19.531,-49.805,-37.109,0.000
1709206205.285,-52.246,-36.621,-49.805,-51.758,0.000
1709206205.289,-53.711,-37.598,-51.758,-53.711,0.000
1709206205.293,-42.969,-30.762,-52.734,-61.035,0.000
1709206205.297,-47.852,-22.949,-51.758,-62.500,0.000
1709206205.300,-52.246,-33.203,-47.852,-52.246,0.000
1709206205.304,-48.340,-37.109,-41.504,-45.410,0.000
1709206205.308,-53.223,-30.273,-38.574,-42.480,0.000
1709206205.312,-60.059,-44.922,-43.945,-45.898,0.000
1709206205.316,-57.617,-37.109,-43.457,-46.875,0.000
1709206205.320,-40.527,-48.828,-36.133,-33.691,0.000
1709206205.324,-46.875,-30.762,-35.645,-40.527,0.000
1709206205.328,-58.594,-8.301,-44.922,-51.270,0.000
1709206205.332,-37.109,-27.832,-48.828,-49.316,0.000
1709206205.336,-27.344,-32.715,-42.969,-51.758,0.000
1709206205.340,-37.598,-24.902,-41.504,-52.734,0.000
1709206205.343,-43.945,-21.484,-42.480,-48.340,0.000
1709206205.347,-51.758,-39.551,-41.504,-43.457,0.000
1709206205.351,-47.852,-46.387,-40.039,-47.363,0.000
1709206205.355,-47.363,-37.598,-37.109,-45.410,0.000
1709206205.359,-56.641,-34.180,-40.039,-51.758,0.000
1709206205.363,-57.129,-51.270,-40.527,-48.340,0.000
1709206205.367,-50.293,-51.758,-40.039,-36.621,0.000
1709206205.371,-57.129,-17.090,-43.457,-52.246,0.000
1709206205.375,-43.945,-33.203,-49.805,-55.176,0.000
1709206205.379,-26.367,-37.109,-47.852,-49.805,0.000
1709206205.382,-50.781,-33.203,-41.992,-48.340,0.000
1709206205.386,-60.059,-35.156,-41.992,-44.922,0.000
1709206205.390,-53.223,-36.621,-41.992,-42.480,0.000
1709206205.394,-42.969,-35.156,-40.527,-45.410,0.000
1709206205.398,-39.551,-22.461,-41.992,-52.734,0.000
1709206205.402,-40.527,-27.832,-44.434,-54.688,0.000
1709206205.406,-45.898,-40.039,-49.805,-66.895,0.000
1709206205.410,-43.945,-58.105,-51.270,-59.082,0.000
1709206205.414,-31.250,-31.738,-49.805,-54.199,0.000
1709206205.418,-29.297,5.371,-46.875,-67.871,0.000
1709206205.422,-30.762,-17.578,-39.551,-64.941,0.000
1709206205.425,-37.598,-36.621,-40.527,-56.641,0.000
1709206205.429,-35.156,-27.344,-44.922,-58.594,0.000
1709206205.433,-28.809,-17.090,-47.852,-59.570,0.000
1709206205.437,-37.598,-30.273,-42.969,-50.293,0.000
1709206205.441,-41.016,-39.551,-40.039,-51.758,0.000
1709206205.445,-37.109,-25.391,-44.922,-49.805,0.000
1709206205.449,-39.062,-20.020,-44.434,-42.480,0.000
1709206205.453,-41.016,-48.340,-40.527,-38.086,0.000
1709206205.457,-38.086,-47.363,-38.574,-31.738,0.000
1709206205.461,-30.273,-14.648,-40.527,-35.645,0.000
1709206205.464,-26.855,-27.832,-43.457,-39.551,0.000
1709206205.468,-33.691,-56.641,-44.434,-33.203,0.000
1709206205.472,-42.480,-43.457,-46.875,-26.367,0.000
1709206205.476,-44.922,-13.672,-46.387,-36.621,0.000
1709206205.480,-33.203,-27.832,-37.109,-39.062,0.000
1709206205.484,-21.973,-36.621,-35.156,-36.621,0.000
1709206205.488,-41.992,-27.344,-39.062,-29.297,0.000
1709206205.492,-48.340,-20.508,-37.109,-24.414,0.000
1709206205.496,-31.250,-27.832,-33.691,-29.297,0.000
1709206205.500,-28.320,-44.434,-34.668,-35.156,0.000
1709206205.504,-32.715,-38.086,-39.062,-39.551,0.000
1709206205.507,-32.715,-25.879,-35.645,-35.645,0.000
1709206205.511,-24.414,-38.574,-35.156,-35.156,0.000
1709206205.515,-29.297,-49.805,-41.992,-37.598,0.000
1709206205.519,-37.109,-21.973,-42.480,-45.410,0.000
1709206205.523,-28.809,-21.973,-38.574,-52.246,0.000
1709206205.527,-37.109,-42.480,-38.574,-51.270,0.000
1709206205.531,-46.387,-33.203,-37.598,-47.852,0.000
1709206205.535,-46.875,-19.043,-37.109,-41.016,0.000
1709206205.539,-45.410,-25.879,-36.133,-39.062,0.000
1709206205.543,-49.316,-42.480,-35.156,-43.945,0.000
1709206205.547,-53.711,-43.457,-35.645,-45.410,0.000
1709206205.550,-44.922,-23.926,-42.480,-55.664,0.000
1709206205.554,-39.062,-5.859,-41.504,-58.105,0.000
1709206205.558,-47.363,-42.969,-36.621,-46.387,0.000
1709206205.562,-57.129,-60.547,-41.016,-35.645,0.000
1709206205.566,-60.547,-9.277,-39.062,-43.945,0.000
1709206205.570,-59.082,-12.695,-39.551,-51.758,0.000
1709206205.574,-51.270,-24.414,-39.062,-44.922,0.000
1709206205.578,-50.781,-20.020,-39.062,-41.016,0.000
1709206205.582,-48.828,-36.621,-41.992,-48.828,0.000
1709206205.586,-54.688,-36.621,-37.598,-46.875,0.000
1709206205.590,-47.363,-36.621,-36.133,-42.480,0.000
1709206205.593,-37.598,-39.551,-34.668,-39.551,0.000
1709206205.597,-57.129,-28.320,-31.250,-35.645,0.000
1709206205.601,-52.734,-24.414,-34.180,-29.785,0.000
1709206205.605,-45.410,-55.176,-35.645,-8.301,0.000
1709206205.609,-47.852,-34.180,-31.250,-2.441,0.000
1709206205.613,-35.156,-9.766,-30.762,-10.254,0.000
1709206205.617,-24.902,-35.645,-34.668,-12.207,0.000
1709206205.621,-26.855,-41.504,-35.645,-16.113,0.000
1709206205.625,-37.109,-22.949,-32.715,-18.555,0.000
1709206205.629,-26.855,-14.160,-34.180,-23.438,0.000
1709206205.633,-24.414,-24.414,-37.598,-29.297,0.000
1709206205.636,-40.039,-32.715,-36.621,-29.297,0.000
1709206205.640,-35.645,-30.273,-36.133,-32.715,0.000
1709206205.644,-43.945,-25.879,-38.574,-36.621,0.000
1709206205.648,-49.805,-43.945,-40.039,-32.715,0.000
1709206205.652,-44.922,-49.316,-38.574,-31.738,0.000
1709206205.656,-36.133,-16.602,-42.969,-38.574,0.000
1709206205.660,-37.109,-20.996,-43.945,-40.527,0.000
1709206205.664,-36.621,-32.715,-40.039,-47.852,0.000
1709206205.668,-24.414,-23.438,-41.504,-53.711,0.000
1709206205.672,-33.691,-20.020,-41.504,-58.594,0.000
1709206205.676,-50.293,-30.762,-41.504,-58.105,0.000
1709206205.679,-57.617,-34.668,-43.945,-55.176,0.000
1709206205.683,-58.594,-31.738,-41.016,-56.152,0.000
1709206205.687,-53.711,-39.551,-36.133,-51.758,0.000
1709206205.691,-49.316,-40.527,-33.691,-39.062,0.000
1709206205.695,-48.340,-45.410,-32.227,-27.832,0.000
1709206205.699,-54.688,-20.996,-35.156,-31.250,0.000
1709206205.703,-55.664,-4.395,-37.598,-49.805,0.000
1709206205.707,-50.781,-25.879,-35.645,-50.293,0.000
1709206205.711,-53.711,-27.344,-38.574,-41.504,0.000
1709206205.715,-40.527,-10.254,-45.410,-50.781,0.000
1709206205.719,-36.621,-6.836,-45.898,-52.246,0.000
1709206205.722,-52.734,-26.367,-41.504,-38.086,0.000
1709206205.726,-53.223,-27.832,-37.598,-41.016,0.000
1709206205.730,-54.688,-22.461,-38.574,-41.016,0.000
1709206205.734,-52.246,-31.738,-42.969,-40.039,0.000
1709206205.738,-40.039,-47.363,-38.086,-39.062,0.000
1709206205.742,-38.086,-47.363,-33.203,-28.320,0.000
1709206205.746,-47.363,-9.766,-37.109,-41.992,0.000
1709206205.750,-45.410,-19.043,-38.574,-46.875,0.000
1709206205.754,-38.086,-26.367,-37.109,-32.715,0.000
1709206205.758,-34.668,-11.230,-37.598,-36.133,0.000
1709206205.761,-20.996,-6.348,-34.668,-50.781,0.000
1709206205.765,-34.180,-16.602,-31.738,-59.570,0.000
1709206205.769,-55.176,-27.832,-34.668,-49.316,0.000
1709206205.773,-44.434,-13.184,-35.645,-39.551,0.000
1709206205.777,-39.062,-20.020,-37.109,-46.875,0.000
1709206205.781,-42.969,-39.551,-36.133,-55.664,0.000
1709206205.785,-53.223,-59.082,-37.598,-61.523,0.000
1709206205.789,-44.434,-25.391,-34.668,-53.711,0.000
1709206205.793,-45.410,1.953,-36.621,-54.199,0.000
1709206205.797,-59.082,-26.367,-40.527,-58.105,0.000
1709206205.801,-44.922,-27.344,-34.180,-54.688,0.000
1709206205.804,-50.781,-21.973,-33.691,-54.688,0.000
1709206205.808,-66.406,-33.203,-33.691,-43.945,0.000
1709206205.812,-57.129,-43.457,-38.574,-28.320,0.000
1709206205.816,-51.758,-36.133,-40.039,-28.320,0.000
1709206205.820,-45.898,-19.043,-31.250,-45.410,0.000
1709206205.824,-52.734,-29.297,-26.367,-50.781,0.000
1709206205.828,-56.152,-60.059,-29.297,-35.156,0.000
1709206205.832,-53.223,-55.664,-33.691,-34.180,0.000
1709206205.836,-55.664,-20.020,-37.109,-46.875,0.000
1709206205.840,-52.734,-16.602,-36.133,-41.504,0.000
1709206205.843,-62.500,-51.758,-36.133,-37.598,0.000
1709206205.847,-63.965,-50.781,-41.504,-41.992,0.000
1709206205.851,-53.711,-23.438,-40.527,-42.969,0.000
1709206205.855,-61.035,-36.621,-38.574,-34.180,0.000
1709206205.859,-58.105,-38.574,-41.504,-27.832,0.000
1709206205.863,-47.852,-25.391,-39.551,-42.480,0.000
1709206205.867,-33.691,-30.273,-40.039,-47.363,0.000
1709206205.871,-23.438,-35.156,-41.504,-40.039,0.000
1709206205.875,-13.184,-36.621,-36.133,-29.785,0.000
1709206205.879,-8.789,-32.227,-40.039,-34.180,0.000
1709206205.883,-19.531,-23.438,-42.480,-46.387,0.000
1709206205.886,-25.879,-36.621,-39.551,-35.645,0.000
1709206205.890,-19.043,-49.805,-43.457,-28.809,0.000
1709206205.894,-18.066,-26.367,-44.434,-35.156,0.000
1709206205.898,-37.598,-18.066,-42.480,-42.480,0.000
1709206205.902,-40.039,-38.574,-43.945,-35.645,0.000
1709206205.906,-36.621,-39.551,-40.527,-24.902,0.000
1709206205.910,-38.086,-21.484,-43.457,-32.715,0.000
1709206205.914,-30.273,-15.137,-41.016,-41.016,0.000
1709206205.918,-28.809,-34.180,-33.203,-35.645,0.000
1709206205.922,-32.227,-45.898,-30.273,-34.668,0.000
1709206205.926,-31.250,-36.621,-28.320,-30.273,0.000
1709206205.929,-32.227,-28.809,-25.391,-26.367,0.000
1709206205.933,-26.367,-44.922,-20.508,-18.066,0.000
1709206205.937,-29.785,-56.152,-24.414,-6.348,0.000
1709206205.941,-27.832,-16.113,-34.668,-17.578,0.000
1709206205.945,-34.180,-17.090,-37.109,-25.879,0.000
1709206205.949,-53.223,-34.668,-30.273,-14.648,0.000
1709206205.953,-51.758,-25.879,-31.738,-11.230,0.000
1709206205.957,-41.504,-22.949,-40.527,-21.973,0.000
1709206205.961,-32.715,-38.574,-35.645,-20.020,0.000
1709206205.965,-36.133,-49.805,-31.250,-17.090,0.000
1709206205.969,-41.016,-49.316,-34.180,-15.625,0.000
1709206205.972,-47.363,-36.133,-37.598,-16.113,0.000
1709206205.976,-47.852,-27.832,-40.039,-32.715,0.000
1709206205.980,-37.598,-60.547,-36.621,-41.016,0.000
1709206205.984,-38.086,-40.039,-41.016,-47.363,0.000
1709206205.988,-40.039,-9.277,-49.316,-48.828,0.000
1709206205.992,-38.574,-30.273,-43.457,-36.621,0.000
1709206205.996,-22.461,-29.297,-41.992,-38.086,0.000
1709206206.000,-19.043,-13.184,-39.551,-38.574,0.000
1709206206.004,-40.039,-16.602,-38.574,-34.668,0.000
1709206206.008,-38.574,-30.273,-44.922,-39.551,0.000
1709206206.011,-30.273,-32.715,-45.898,-37.598,0.000
1709206206.015,-27.344,-30.762,-44.434,-33.203,0.000
1709206206.019,-28.809,-29.785,-43.945,-35.156,0.000
1709206206.023,-32.227,-45.410,-40.527,-34.668,0.000
1709206206.027,-37.109,-43.945,-40.039,-36.133,0.000
1709206206.031,-28.320,-14.160,-43.945,-39.551,0.000
1709206206.035,-22.949,-21.973,-44.434,-47.363,0.000
1709206206.039,-42.969,-30.273,-36.621,-52.246,0.000
1709206206.043,-51.758,-23.926,-33.203,-47.852,0.000
1709206206.047,-47.852,-17.578,-32.227,-51.758,0.000
1709206206.051,-41.016,-29.297,-29.785,-54.199,0.000
1709206206.054,-36.133,-33.691,-35.156,-52.246,0.000
1709206206.058,-31.738,-22.461,-35.156,-48.340,0.000
1709206206.062,-30.762,-31.250,-32.715,-41.016,0.000
1709206206.066,-39.062,-31.250,-35.645,-47.852,0.000
1709206206.070,-37.598,-47.363,-32.715,-42.969,0.000
1709206206.074,-28.320,-30.762,-34.668,-27.344,0.000
1709206206.078,-35.645,-3.906,-38.086,-37.109,0.000
1709206206.082,-47.363,-31.738,-38.086,-47.852,0.000
1709206206.086,-48.340,-42.969,-37.598,-41.504,0.000
1709206206.090,-46.875,-26.367,-35.645,-38.086,0.000
1709206206.094,-41.504,-27.832,-36.133,-36.621,0.000
1709206206.097,-30.762,-41.992,-32.715,-37.109,0.000
1709206206.101,-29.785,-26.855,-36.133,-39.551,0.000
1709206206.105,-35.156,-13.184,-41.504,-33.203,0.000
1709206206.109,-36.133,-23.438,-38.574,-25.879,0.000
1709206206.113,-22.949,-39.551,-40.039,-25.879,0.000
1709206206.117,-11.230,-32.715,-41.992,-21.973,0.000
1709206206.121,-23.926,1.953,-43.945,-26.855,0.000
1709206206.125,-31.738,-20.508,-40.527,-38.574,0.000
1709206206.129,-28.809,-37.598,-37.598,-33.691,0.000
1709206206.133,-30.762,-23.438,-47.363,-34.668,0.000
1709206206.136,-27.344,-16.602,-45.410,-45.898,0.000
1709206206.140,-24.902,-21.484,-39.551,-41.504,0.000
1709206206.144,-24.902,-27.344,-44.922,-37.109,0.000
1709206206.148,-23.926,-25.879,-50.293,-46.875,0.000
1709206206.152,-31.250,-29.785,-45.898,-47.363,0.000
1709206206.156,-47.852,-32.715,-39.551,-51.758,0.000
1709206206.160,-48.340,-51.758,-42.969,-55.176,0.000
1709206206.164,-53.223,-37.598,-42.969,-49.316,0.000
1709206206.168,-48.828,-2.930,-40.039,-60.547,0.000
1709206206.172,-47.363,-19.043,-39.551,-65.918,0.000
1709206206.176,-57.129,-32.715,-42.969,-66.895,0.000
1709206206.179,-58.105,-23.438,-42.969,-73.730,0.000
1709206206.183,-62.988,-25.391,-39.551,-70.312,0.000
1709206206.187,-62.012,-44.922,-45.410,-64.941,0.000
1709206206.191,-52.246,-51.758,-46.387,-54.199,0.000
1709206206.195,-63.477,-27.832,-45.410,-44.922,0.000
1709206206.199,-70.801,-22.949,-47.363,-49.316,0.000
1709206206.203,-57.617,-55.176,-43.457,-31.738,0.000
1709206206.207,-46.387,-52.734,-40.039,-13.672,0.000
1709206206.211,-47.363,-19.043,-42.480,-37.109,0.000
1709206206.215,-44.434,-16.113,-38.574,-43.457,0.000
1709206206.218,-38.574,-38.574,-36.621,-28.809,0.000
1709206206.222,-34.668,-31.250,-38.574,-31.738,0.000
1709206206.226,-27.832,-17.578,-34.180,-33.203,0.000
1709206206.230,0.000,-32.227,0.000,0.000,0.000
1709206206.234,0.000,-38.086,0.000,0.000,0.000
1709206206.238,0.000,-34.180,0.000,0.000,0.000
1709206206.242,0.000,-28.809,0.000,0.000,0.000
1709206206.246,0.000,-34.668,0.000,0.000,0.000
1709206206.250,0.000,-51.270,0.000,0.000,0.000
1709206206.254,0.000,-38.086,0.000,0.000,0.000
1709206206.258,0.000,-21.973,0.000,0.000,0.000
1709206206.261,0.000,-31.250,0.000,0.000,0.000
1709206206.265,0.000,-53.711,0.000,0.000,0.000
1709206206.269,0.000,-35.645,0.000,0.000,0.000
1709206206.273,0.000,-10.254,0.000,0.000,0.000
1709206206.277,-24.902,-25.391,-29.297,-28.809,0.000
1709206206.281,-27.832,-28.809,-25.879,-35.645,0.000
1709206206.285,-38.086,-17.578,-28.809,-48.340,0.000
1709206206.289,-39.551,-14.648,-36.621,-48.340,0.000
1709206206.293,-38.574,-33.203,-39.551,-42.480,0.000
1709206206.297,-40.039,-50.781,-36.133,-45.898,0.000
1709206206.301,-40.039,-33.691,-37.109,-53.711,0.000
1709206206.304,-31.250,-16.113,-38.574,-57.129,0.000
1709206206.308,-35.156,-46.875,-40.527,-56.152,0.000
1709206206.312,-60.059,-63.477,-44.922,-47.852,0.000
1709206206.316,-57.617,-10.254,-39.551,-53.711,0.000
1709206206.320,-50.293,-1.953,-38.574,-62.012,0.000
1709206206.324,-40.039,-25.879,-43.457,-54.688,0.000
1709206206.328,-35.645,-16.602,-37.598,-49.805,0.000
1709206206.332,-47.852,-14.160,-44.434,-47.363,0.000
1709206206.336,-41.504,-30.273,-47.363,-45.410,0.000
1709206206.340,-28.809,-40.039,-41.016,-43.457,0.000
1709206206.344,-33.691,-45.898,-42.480,-39.551,0.000
1709206206.347,-34.180,-35.645,-41.992,-37.109,0.000
1709206206.351,-27.344,-23.926,-41.016,-40.527,0.000
1709206206.355,-37.598,-46.875,-36.133,-26.367,0.000
1709206206.359,-42.480,-28.809,-36.133,-16.602,0.000
1709206206.363,-44.434,-9.766,-41.016,-36.621,0.000
1709206206.367,-45.898,-34.180,-39.551,-43.457,0.000
1709206206.371,-47.363,-36.621,-38.086,-39.062,0.000
1709206206.375,-50.293,-20.996,-41.992,-36.133,0.000
1709206206.379,-50.781,-31.250,-43.945,-44.922,0.000
1709206206.383,-58.105,-49.805,-36.621,-44.922,0.000
1709206206.386,-49.805,-41.504,-33.203,-30.273,0.000
1709206206.390,-47.852,-41.016,-34.180,-24.902,0.000
1709206206.394,-64.941,-29.785,-34.668,-35.645,0.000
1709206206.398,-65.918,-39.062,-35.156,-36.621,0.000
1709206206.402,-62.500,-48.828,-41.504,-37.598,0.000
1709206206.406,-59.570,-20.020,-47.363,-58.594,0.000
1709206206.410,-61.035,-24.414,-45.898,-61.523,0.000
1709206206.414,-57.617,-37.109,-41.504,-48.340,0.000
1709206206.418,-57.129,-31.250,-46.875,-47.363,0.000
1709206206.422,-60.547,-25.879,-47.852,-56.641,0.000
1709206206.426,-65.430,-44.434,-42.480,-59.082,0.000
1709206206.429,-59.570,-40.039,-42.480,-55.664,0.000
1709206206.433,-50.293,-26.855,-39.551,-44.434,0.000
1709206206.437,-37.598,-41.992,-39.062,-39.062,0.000
1709206206.441,-33.203,-35.645,-41.992,-35.645,0.000
1709206206.445,-44.922,-49.316,-33.691,-20.996,0.000
1709206206.449,-43.945,-41.504,-29.785,-15.137,0.000
1709206206.453,-41.992,-12.207,-35.156,-20.996,0.000
1709206206.457,-39.062,-33.203,-39.062,-27.344,0.000
1709206206.461,-31.250,-40.039,-39.062,-31.738,0.000
1709206206.465,-29.297,-22.949,-38.574,-28.320,0.000
1709206206.469,-35.156,-22.461,-41.504,-22.949,0.000
1709206206.472,-25.879,-39.551,-46.875,-23.438,0.000
1709206206.476,-35.156,-32.715,-43.945,-26.367,0.000
1709206206.480,-42.480,-18.066,-36.621,-25.391,0.000
1709206206.484,-38.086,-26.855,-39.062,-24.902,0.000
1709206206.488,-38.086,-42.969,-43.945,-27.832,0.000
1709206206.492,-26.855,-36.621,-42.480,-18.555,0.000
1709206206.496,-28.809,-6.836,-40.039,-17.090,0.000
1709206206.500,-41.504,-21.484,-41.992,-34.668,0.000
1709206206.504,-47.363,-32.715,-41.016,-43.945,0.000
1709206206.508,-48.828,-17.090,-40.039,-37.109,0.000
1709206206.511,-49.805,-10.254,-39.062,-37.109,0.000
1709206206.515,-36.133,-20.020,-34.180,-48.828,0.000
1709206206.519,-34.668,-28.809,-36.621,-56.641,0.000
1709206206.523,-52.734,-22.461,-39.062,-57.617,0.000
1709206206.527,-57.617,-25.879,-36.621,-58.105,0.000
1709206206.531,-63.477,-39.551,-33.203,-53.711,0.000
1709206206.535,-56.641,-57.129,-30.273,-41.504,0.000
1709206206.539,-55.176,-36.621,-32.227,-43.945,0.000
1709206206.543,-58.594,-11.230,-33.691,-59.570,0.000
1709206206.547,-65.918,-27.344,-37.598,-71.289,0.000
1709206206.551,-78.125,-40.527,-37.598,-74.707,0.000
1709206206.554,-74.707,-38.574,-38.574,-63.965,0.000
1709206206.558,-62.988,-27.832,-37.598,-62.988,0.000
1709206206.562,-64.941,-41.504,-38.086,-70.312,0.000
1709206206.566,-64.453,-45.898,-40.527,-72.754,0.000
1709206206.570,-47.363,-21.973,-33.691,-59.570,0.000
1709206206.574,-52.246,-19.043,-35.156,-48.828,0.000
1709206206.578,-48.340,-50.293,-39.062,-49.805,0.000
1709206206.582,-30.273,-44.922,-36.133,-43.457,0.000
1709206206.586,-33.691,-21.973,-37.598,-47.363,0.000
1709206206.590,-32.227,-24.902,-39.062,-58.105,0.000
1709206206.593,-27.832,-54.688,-40.527,-43.945,0.000
1709206206.597,-35.645,-53.711,-47.852,-35.645,0.000
1709206206.601,-29.297,-13.672,-45.898,-41.504,0.000
1709206206.605,-25.391,-25.879,-39.551,-38.086,0.000
1709206206.609,-28.320,-38.574,-40.527,-33.203,0.000
1709206206.613,-32.227,-30.762,-44.434,-39.062,0.000
1709206206.617,-45.410,-17.090,-42.480,-38.574,0.000
1709206206.621,-47.363,-23.926,-38.574,-30.273,0.000
1709206206.625,-47.852,-45.410,-31.738,-27.344,0.000
1709206206.629,-48.828,-40.039,-35.645,-24.414,0.000
1709206206.633,-44.922,-20.020,-44.434,-25.879,0.000
1709206206.636,-41.504,-36.133,-39.062,-37.598,0.000
1709206206.640,-46.387,-52.734,-38.574,-37.598,0.000
1709206206.644,-48.340,-33.203,-37.598,-32.715,0.000
1709206206.648,-46.875,-27.344,-34.180,-42.480,0.000
1709206206.652,-40.527,-44.922,-35.156,-44.434,0.000
1709206206.656,-46.875,-44.434,-44.922,-47.852,0.000
1709206206.660,-49.805,-22.949,-40.527,-47.852,0.000
1709206206.664,-43.945,-31.250,-28.809,-42.480,0.000
1709206206.668,-55.664,-56.641,-33.691,-47.852,0.000
1709206206.672,-55.664,-62.012,-31.738,-53.711,0.000
1709206206.676,-47.852,-41.016,-33.203,-46.387,0.000
1709206206.679,-55.664,-19.043,-36.133,-40.527,0.000
1709206206.683,-51.758,-46.875,-34.180,-35.645,0.000
1709206206.687,-45.898,-68.848,-39.062,-32.715,0.000
1709206206.691,-46.875,-24.902,-43.457,-47.852,0.000
1709206206.695,-40.527,-15.625,-40.527,-54.688,0.000
1709206206.699,-54.199,-35.645,-36.621,-51.270,0.000
1709206206.703,-55.176,-36.133,-36.621,-50.781,0.000
1709206206.707,-43.945,-35.156,-39.062,-43.945,0.000
1709206206.711,-37.109,-37.109,-39.062,-40.039,0.000
1709206206.715,-28.320,-39.062,-39.062,-38.086,0.000
1709206206.719,-25.879,-44.434,-39.062,-38.086,0.000
1709206206.722,-31.738,-35.645,-43.945,-41.016,0.000
1709206206.726,-31.250,-28.809,-47.363,-35.645,0.000
1709206206.730,-30.273,-50.293,-48.828,-17.578,0.000
1709206206.734,-32.227,-23.926,-50.293,-20.508,0.000
1709206206.738,-30.273,2.930,-46.387,-36.133,0.000
1709206206.742,-16.602,-23.926,-43.457,-40.527,0.000
1709206206.746,-11.230,-25.391,-43.945,-42.969,0.000
1709206206.750,-30.762,-16.113,-41.504,-33.203,0.000
1709206206.754,-30.762,-20.020,-45.898,-29.785,0.000
1709206206.758,-20.508,-29.297,-47.363,-31.250,0.000
1709206206.762,-28.320,-32.715,-42.969,-35.156,0.000
1709206206.765,-39.062,-32.715,-44.922,-46.387,0.000
1709206206.769,-40.039,-17.578,-41.504,-40.039,0.000
1709206206.773,-38.086,-31.250,-35.156,-27.832,0.000
1709206206.777,-39.062,-49.805,-36.133,-31.738,0.000
1709206206.781,-42.480,-17.578,-40.527,-46.875,0.000
1709206206.785,-47.852,-20.020,-32.715,-58.105,0.000
1709206206.789,-52.246,-24.414,-32.715,-56.641,0.000
1709206206.793,-48.828,-22.949,-46.387,-63.477,0.000
1709206206.797,-55.664,-25.879,-49.805,-62.012,0.000
1709206206.801,-63.965,-36.621,-48.340,-53.223,0.000
1709206206.804,-69.336,-44.434,-49.316,-61.523,0.000
1709206206.808,-65.430,-36.133,-47.363,-60.059,0.000
1709206206.812,-52.246,-38.086,-46.875,-61.523,0.000
1709206206.816,-47.363,-34.180,-44.922,-63.477,0.000
1709206206.820,-45.898,-48.828,-38.086,-35.645,0.000
1709206206.824,-44.922,-28.320,-34.668,-40.527,0.000
1709206206.828,-44.434,-2.441,-33.203,-60.547,0.000
1709206206.832,-40.039,-25.391,-37.598,-45.410,0.000
1709206206.836,-40.039,-27.344,-42.969,-41.504,0.000
1709206206.840,-41.016,-24.414,-38.086,-44.434,0.000
1709206206.844,-41.016,-15.137,-38.086,-43.457,0.000
1709206206.847,-39.062,-26.367,-39.551,-43.457,0.000
1709206206.851,-43.457,-33.691,-38.574,-43.945,0.000
1709206206.855,-22.949,-17.090,-39.551,-44.922,0.000
1709206206.859,-13.672,-28.320,-43.457,-44.922,0.000
1709206206.863,-34.180,-59.082,-38.086,-38.086,0.000
1709206206.867,-37.109,-49.316,-40.039,-26.367,0.000
1709206206.871,-37.109,5.371,-50.293,-33.203,0.000
1709206206.875,-29.785,-13.184,-50.781,-36.621,0.000
1709206206.879,-30.273,-25.879,-48.340,-33.691,0.000
1709206206.883,-43.457,-8.789,-46.875,-39.062,0.000
1709206206.886,-53.711,-15.137,-51.270,-40.527,0.000
1709206206.890,-49.805,-24.414,-49.316,-42.969,0.000
1709206206.894,-46.875,-28.809,-44.434,-42.969,0.000
1709206206.898,-44.922,-15.625,-38.086,-42.480,0.000
1709206206.902,-50.293,-6.836,-32.715,-40.527,0.000
1709206206.906,-56.641,-31.250,-35.156,-40.039,0.000
1709206206.910,-44.434,-56.641,-32.227,-35.156,0.000
1709206206.914,-52.246,-28.320,-32.227,-38.086,0.000
1709206206.918,-70.801,0.000,-35.645,-58.594,0.000
1709206206.922,-60.547,-26.367,-36.621,-53.223,0.000
1709206206.926,-69.824,-32.715,-43.945,-53.223,0.000
1709206206.929,-79.102,-29.297,-44.434,-56.641,0.000
1709206206.933,-66.406,-28.809,-39.551,-56.152,0.000
1709206206.937,-56.152,-40.039,-44.434,-60.547,0.000
1709206206.941,-46.387,-43.457,-39.062,-52.734,0.000
1709206206.945,-48.340,-24.414,-34.668,-54.199,0.000
1709206206.949,-41.504,-30.762,-41.992,-51.758,0.000
1709206206.953,-43.457,-54.199,-39.551,-36.621,0.000
1709206206.957,-56.152,-59.082,-34.180,-35.645,0.000
1709206206.961,-43.457,-22.949,-34.668,-46.875,0.000
1709206206.965,-37.598,-8.789,-37.598,-42.969,0.000
1709206206.968,-38.574,-27.344,-37.598,-29.785,0.000
1709206206.972,-37.598,-21.484,-38.574,-28.809,0.000
1709206206.976,-32.227,-7.812,-42.480,-38.574,0.000
1709206206.980,-21.484,-20.020,-39.551,-38.574,0.000
1709206206.984,-26.367,-32.227,-40.039,-40.039,0.000
1709206206.988,-20.996,-31.738,-40.527,-35.156,0.000
1709206206.992,-19.531,-21.484,-41.016,-35.645,0.000
1709206206.996,-36.621,-27.344,-42.969,-38.086,0.000
1709206207.000,-43.457,-49.805,-44.922,-35.156,0.000
1709206207.004,-46.387,-36.133,-43.945,-40.039,0.000
1709206207.008,-39.551,-20.508,-41.504,-35.156,0.000
1709206207.011,-41.504,-37.109,-41.016,-31.250,0.000
1709206207.015,-43.945,-42.480,-42.969,-27.832,0.000
1709206207.019,-39.062,-21.973,-43.945,-26.855,0.000
1709206207.023,-46.875,-15.137,-42.480,-41.016,0.000
1709206207.027,-36.133,-28.809,-43.457,-40.039,0.000
1709206207.031,-34.180,-28.809,-40.039,-30.762,0.000
1709206207.035,-47.363,-18.555,-34.180,-34.180,0.000
1709206207.039,-39.062,-19.043,-38.574,-43.457,0.000
1709206207.043,-41.992,-39.551,-44.922,-43.945,0.000
1709206207.047,-49.316,-47.852,-43.945,-31.250,0.000
1709206207.051,-46.875,-26.855,-44.434,-27.832,0.000
1709206207.054,-37.109,-16.602,-45.898,-30.762,0.000
1709206207.058,-38.086,-49.805,-41.016,-26.855,0.000
1709206207.062,-38.574,-61.035,-39.551,-32.715,0.000
1709206207.066,-40.039,-25.879,-42.969,-49.316,0.000
1709206207.070,-41.016,-36.133,-45.898,-46.387,0.000
1709206207.074,-38.086,-33.691,-41.504,-31.738,0.000
1709206207.078,-29.297,-20.020,-36.621,-28.320,0.000
1709206207.082,-17.578,-18.066,-36.621,-34.180,0.000
1709206207.086,-28.809,-25.879,-38.086,-30.762,0.000
1709206207.090,-29.297,-28.320,-40.039,-24.414,0.000
1709206207.094,-17.578,-27.344,-37.598,-25.391,0.000
1709206207.097,-13.672,-20.020,-40.039,-27.832,0.000
1709206207.101,-20.020,-17.090,-43.457,-33.691,0.000
1709206207.105,-27.832,-48.340,-37.598,-16.602,0.000
1709206207.109,-29.297,-28.809,-35.156,-13.672,0.000
1709206207.113,-27.344,-4.395,-35.645,-33.203,0.000
1709206207.117,-22.461,-23.438,-33.203,-37.109,0.000
1709206207.121,-19.531,-29.785,-35.645,-43.457,0.000
1709206207.125,-31.738,-27.832,-33.691,-40.527,0.000
1709206207.129,-38.574,-20.020,-33.203,-41.504,0.000
1709206207.133,-39.062,-24.414,-36.621,-43.945,0.000
1709206207.137,-37.598,-35.156,-35.645,-43.457,0.000
1709206207.140,-29.785,-34.180,-36.133,-45.898,0.000
1709206207.144,-34.668,-34.668,-41.016,-43.945,0.000
1709206207.148,-37.109,-51.758,-41.992,-35.645,0.000
1709206207.152,-39.062,-45.898,-38.574,-35.645,0.000
1709206207.156,-52.246,-18.066,-33.691,-48.828,0.000
1709206207.160,-52.246,-26.367,-25.391,-47.363,0.000
1709206207.164,-42.480,-25.391,-23.926,-39.062,0.000
1709206207.168,-35.645,-21.973,-30.762,-40.039,0.000
1709206207.172,-49.316,-25.391,-34.180,-47.852,0.000
1709206207.176,-60.547,-39.062,-34.180,-49.316,0.000
1709206207.179,-57.129,-46.387,-36.133,-42.480,0.000
1709206207.183,-60.547,-40.039,-38.086,-41.016,0.000
1709206207.187,-58.105,-35.645,-41.016,-46.875,0.000
1709206207.191,-58.594,-37.109,-46.387,-53.711,0.000
1709206207.195,-55.664,-61.035,-42.969,-43.945,0.000
1709206207.199,-36.133,-38.574,-35.645,-31.738,0.000
1709206207.203,-38.574,-6.348,-37.109,-40.039,0.000
1709206207.207,-43.457,-35.156,-42.969,-41.016,0.000
1709206207.211,-37.598,-41.504,-40.039,-29.297,0.000
1709206207.215,-47.852,-28.320,-40.527,-23.926,0.000
1709206207.219,-45.410,-28.809,-43.457,-27.832,0.000
1709206207.222,-37.109,-38.574,-39.062,-20.996,0.000
1709206207.226,-36.133,-40.039,-31.738,-15.625,0.000
1709206207.230,-42.480,-30.273,-36.133,-24.414,0.000
1709206207.234,-44.434,-35.156,-45.898,-27.832,0.000
1709206207.238,-41.016,-50.781,-45.898,-30.762,0.000
1709206207.242,-41.992,-46.387,-40.039,-38.574,0.000
1709206207.246,-49.316,-9.766,-38.574,-45.898,0.000
1709206207.250,-55.176,-26.855,-40.039,-40.039,0.000
1709206207.254,-49.316,-37.109,-40.039,-44.434,0.000
1709206207.258,-35.645,-20.020,-39.551,-58.105,0.000
1709206207.261,-45.410,-19.043,-41.504,-53.711,0.000
1709206207.265,-56.152,-30.762,-43.945,-45.898,0.000
1709206207.269,-54.688,-38.086,-43.457,-45.410,0.000
1709206207.273,-53.711,-30.273,-41.016,-47.363,0.000
1709206207.277,-43.945,-22.949,-34.668,-46.875,0.000
1709206207.281,-38.574,-31.250,-30.762,-50.781,0.000
1709206207.285,-43.945,-52.246,-31.250,-33.691,0.000
1709206207.289,-51.270,-33.203,-35.156,-31.250,0.000
1709206207.293,-48.828,-5.371,-33.691,-58.105,0.000
1709206207.297,-38.086,-22.949,-31.738,-54.199,0.000
1709206207.301,-28.809,-32.227,-39.551,-55.176,0.000
1709206207.304,-34.668,-27.832,-39.551,-57.617,0.000
1709206207.308,-55.176,-32.227,-37.109,-53.223,0.000
1709206207.312,-54.688,-44.922,-39.062,-48.340,0.000
1709206207.316,-47.363,-46.387,-39.551,-44.922,0.000
1709206207.320,-42.969,-38.574,-43.457,-44.434,0.000
1709206207.324,-44.434,-43.945,-47.852,-51.758,0.000
1709206207.328,-53.711,-67.871,-52.734,-62.012,0.000
1709206207.332,-49.805,-60.059,-50.781,-56.641,0.000
1709206207.336,-44.922,-22.461,-41.504,-61.035,0.000
1709206207.340,-49.316,-24.414,-37.598,-57.129,0.000
1709206207.344,-32.227,-46.875,-37.598,-46.875,0.000
1709206207.347,-36.133,-42.969,-40.039,-45.410,0.000
1709206207.351,-55.176,-21.973,-42.969,-41.992,0.000
1709206207.355,-41.992,-34.668,-43.457,-33.691,0.000
1709206207.359,-36.133,-37.109,-43.945,-35.156,0.000
1709206207.363,-37.109,-28.809,-47.852,-39.551,0.000
1709206207.367,-44.434,-26.367,-45.898,-31.738,0.000
1709206207.371,-47.852,-30.273,-36.621,-27.832,0.000
1709206207.375,-41.504,-41.992,-34.668,-30.273,0.000
1709206207.379,-40.527,-33.691,-36.621,-32.715,0.000
1709206207.383,-31.738,-14.160,-38.086,-36.133,0.000
1709206207.387,-35.645,-32.227,-38.574,-36.133,0.000
1709206207.390,-46.875,-52.246,-41.504,-25.879,0.000
1709206207.394,-41.016,-25.391,-45.410,-27.832,0.000
1709206207.398,-24.902,-13.672,-41.504,-32.715,0.000
1709206207.402,-30.762,-37.598,-36.133,-24.414,0.000
1709206207.406,-42.480,-37.598,-38.574,-22.461,0.000
1709206207.410,-42.480,-23.438,-38.574,-23.438,0.000
1709206207.414,-40.039,-29.297,-39.551,-21.484,0.000
1709206207.418,-38.574,-30.762,-39.551,-22.949,0.000
1709206207.422,-42.969,-26.855,-36.133,-33.691,0.000
1709206207.426,-40.039,-15.137,-34.668,-51.758,0.000
1709206207.429,-36.133,-7.812,-30.762,-59.082,0.000
1709206207.433,-32.227,-35.645,-29.785,-48.340,0.000
1709206207.437,-18.066,-51.758,-40.527,-42.480,0.000
1709206207.441,-23.926,-13.184,-42.480,-41.016,0.000
1709206207.445,-37.109,-16.602,-34.180,-41.016,0.000
1709206207.449,-39.062,-35.156,-33.691,-39.062,0.000
1709206207.453,-38.086,-20.020,-32.715,-28.320,0.000
1709206207.457,-32.227,-13.184,-33.691,-33.691,0.000
1709206207.461,-40.039,-32.715,-37.109,-42.969,0.000
1709206207.465,-41.016,-39.551,-33.203,-41.504,0.000
1709206207.469,-42.969,-33.203,-30.273,-42.480,0.000
1709206207.472,-47.363,-27.832,-33.203,-41.992,0.000
1709206207.476,-27.344,-23.438,-35.156,-37.598,0.000
1709206207.480,-17.090,-42.480,-20.508,-30.762,0.000
1709206207.484,-37.109,-20.508,-12.695,-30.273,0.000
1709206207.488,-40.039,0.000,-24.902,-30.762,0.000
1709206207.492,-35.156,-21.484,-28.809,-24.902,0.000
1709206207.496,-32.715,-18.066,-26.367,-34.180,0.000
1709206207.500,-29.297,-11.230,-30.273,-39.551,0.000
1709206207.504,-38.574,-16.113,-32.715,-34.668,0.000
1709206207.508,-47.363,-25.879,-31.738,-28.809,0.000
1709206207.512,-40.039,-27.832,-25.391,-29.297,0.000
1709206207.515,-33.691,-23.438,-27.344,-37.109,0.000
1709206207.519,-28.809,-24.414,-31.738,-40.527,0.000
1709206207.523,-37.109,-42.480,-30.762,-30.762,0.000
1709206207.527,-39.062,-42.480,-35.645,-20.020,0.000
1709206207.531,-39.062,-14.648,-37.109,-22.461,0.000
1709206207.535,-38.086,-23.926,-32.715,-28.320,0.000
1709206207.539,-41.504,-29.297,-31.250,-38.086,0.000
1709206207.543,-46.387,-19.043,-31.250,-44.434,0.000
1709206207.547,-40.527,-15.137,-27.344,-48.828,0.000
1709206207.551,-46.875,-31.250,-29.297,-51.270,0.000
1709206207.555,-42.480,-38.086,-33.203,-37.109,0.000
1709206207.558,-31.250,-27.344,-27.832,-29.785,0.000
1709206207.562,-38.574,-38.086,-27.344,-39.551,0.000
1709206207.566,-38.086,-41.016,-28.809,-46.387,0.000
1709206207.570,-41.504,-54.688,-29.297,-32.715,0.000
1709206207.574,-45.898,-32.715,-31.738,-18.555,0.000
1709206207.578,-25.879,5.371,-29.297,-28.809,0.000
1709206207.582,-26.367,-25.879,-28.320,-31.250,0.000
1709206207.586,-38.086,-35.645,-27.832,-33.203,0.000
1709206207.590,-33.691,-15.625,-34.180,-35.645,0.000
1709206207.594,-31.250,-12.207,-38.086,-30.273,0.000
1709206207.597,-30.762,-28.809,-35.156,-26.855,0.000
1709206207.601,-34.668,-31.250,-36.621,-24.902,0.000
1709206207.605,-42.480,-20.020,-38.574,-20.996,0.000
1709206207.609,-31.738,-32.715,-34.180,-19.531,0.000
1709206207.613,-20.508,-45.410,-32.227,-28.809,0.000
1709206207.617,-32.715,-41.992,-29.785,-22.461,0.000
1709206207.621,-38.574,-7.812,-28.320,-29.297,0.000
1709206207.625,-38.086,-13.672,-30.762,-47.363,0.000
1709206207.629,-34.668,-27.832,-37.598,-42.969,0.000
1709206207.633,-39.551,-14.648,-42.480,-43.457,0.000
