timestamps,TP9,AF7,AF8,TP10,Right AUX
1709291499.863,-8.789,-15.625,-22.949,-19.531,0.000
1709291499.867,-38.574,-32.715,-33.691,-45.898,0.000
1709291499.870,-51.758,-52.246,-41.992,-51.758,0.000
1709291499.874,-39.062,-51.270,-40.039,-38.086,0.000
1709291499.878,-41.016,-37.598,-40.527,-29.785,0.000
1709291499.882,-37.109,-31.738,-38.574,-35.645,0.000
1709291499.886,-37.598,-29.297,-33.203,-53.223,0.000
1709291499.890,-46.387,-47.363,-34.668,-43.945,0.000
1709291499.894,-36.621,-33.203,-36.133,-28.809,0.000
1709291499.898,-38.086,-14.648,-36.621,-36.133,0.000
1709291499.902,-43.457,-36.133,-35.156,-32.715,0.000
1709291499.906,-39.062,-46.875,-38.086,-37.598,0.000
1709291499.909,-24.414,-25.391,-35.156,-40.039,0.000
1709291499.913,-26.855,-21.484,-31.250,-28.320,0.000
1709291499.917,-31.738,-36.133,-33.691,-13.184,0.000
1709291499.921,-33.203,-29.785,-28.809,-9.277,0.000
1709291499.925,-28.809,-22.461,-26.367,-16.113,0.000
1709291499.929,-23.438,-26.367,-33.203,-16.602,0.000
1709291499.933,-24.414,-38.574,-35.645,-22.949,0.000
1709291499.937,-13.672,-46.875,-28.320,-8.789,0.000
1709291499.941,-11.230,-20.508,-29.297,-3.906,0.000
1709291499.945,-16.602,-10.254,-28.320,-21.973,0.000
1709291499.948,-28.320,-27.344,-33.691,-40.039,0.000
1709291499.952,-34.180,-32.715,-37.109,-31.250,0.000
1709291499.956,-21.973,-22.461,-28.809,-19.043,0.000
1709291499.960,-19.531,-20.508,-29.297,-13.672,0.000
1709291499.964,-31.738,-27.344,-36.133,-10.742,0.000
1709291499.968,-35.645,-23.926,-39.551,-33.691,0.000
1709291499.972,-32.715,-26.855,-41.504,-41.992,0.000
1709291499.976,-42.969,-35.645,-38.574,-29.297,0.000
1709291499.979,-41.992,-47.852,-29.785,-20.996,0.000
1709291499.983,-49.316,-29.297,-35.156,-20.996,0.000
1709291499.987,-68.359,-28.320,-45.410,-47.363,0.000
1709291499.991,-55.176,-45.898,-42.480,-61.523,0.000
1709291499.995,-49.316,-35.645,-34.668,-38.086,0.000
1709291499.999,-54.688,-29.785,-30.762,-26.367,0.000
1709291500.003,-41.016,-25.391,-28.809,-31.250,0.000
1709291500.006,-38.086,-37.598,-32.227,-31.738,0.000
1709291500.010,-27.832,-38.086,-22.949,-22.949,0.000
1709291500.014,-24.902,-21.973,-21.973,-11.719,0.000
1709291500.018,-25.879,-20.996,-25.391,4.395,0.000
1709291500.022,-25.391,-39.551,-28.809,3.906,0.000
1709291500.026,-30.273,-46.875,-33.691,-15.137,0.000
1709291500.030,-12.695,-18.066,-33.203,-29.785,0.000
1709291500.034,-17.578,-15.625,-31.250,-17.578,0.000
1709291500.038,-30.273,-31.738,-28.809,-7.324,0.000
1709291500.042,-31.738,-29.297,-30.762,-18.555,0.000
1709291500.045,-29.785,-29.785,-30.273,-31.738,0.000
1709291500.050,-29.297,-31.250,-34.668,-38.086,0.000
1709291500.054,-24.414,-38.086,-36.133,-36.133,0.000
1709291500.058,-28.320,-31.250,-37.598,-22.949,0.000
1709291500.061,-43.945,-27.832,-34.180,-17.090,0.000
1709291500.065,-44.434,-33.691,-31.250,-35.645,0.000
1709291500.069,-33.691,-41.992,-33.691,-36.133,0.000
1709291500.073,-28.809,-39.062,-34.180,-30.762,0.000
1709291500.077,-33.691,-25.879,-35.645,-27.832,0.000
1709291500.081,-31.738,-35.156,-38.574,-19.043,0.000
1709291500.085,-39.551,-61.035,-41.016,-20.996,0.000
1709291500.089,-50.293,-43.945,-46.387,-40.527,0.000
1709291500.093,-49.316,-31.250,-46.875,-44.434,0.000
1709291500.097,-39.551,-41.504,-35.156,-33.203,0.000
1709291500.101,-41.016,-45.410,-34.668,-37.598,0.000
1709291500.105,-47.852,-48.340,-41.992,-39.551,0.000
1709291500.109,-44.434,-45.410,-39.062,-50.781,0.000
1709291500.112,-46.387,-35.645,-33.691,-48.828,0.000
1709291500.116,-31.738,-30.762,-33.691,-34.180,0.000
1709291500.120,-10.742,-35.156,-29.785,-27.832,0.000
1709291500.124,-21.484,-22.949,-29.297,-30.273,0.000
1709291500.128,-21.484,-27.832,-31.250,-35.156,0.000
1709291500.132,-13.672,-38.574,-35.645,-33.203,0.000
1709291500.136,-20.508,-18.066,-41.504,-33.203,0.000
1709291500.140,-38.574,-19.043,-44.922,-33.691,0.000
1709291500.144,-48.340,-30.762,-41.504,-38.574,0.000
1709291500.148,-40.527,-26.367,-36.133,-43.457,0.000
1709291500.152,-37.109,-25.391,-34.668,-38.574,0.000
1709291500.156,-23.926,-28.320,-35.156,-21.973,0.000
1709291500.159,-12.207,-30.762,-32.227,-16.113,0.000
1709291500.163,-21.484,-37.109,-27.344,-17.578,0.000
1709291500.167,-30.273,-28.809,-30.762,-22.461,0.000
1709291500.171,-32.715,-18.555,-29.785,-33.691,0.000
1709291500.175,-20.020,-37.109,-29.785,-24.902,0.000
1709291500.179,-20.020,-15.137,-27.832,-13.184,0.000
1709291500.183,-33.691,-6.348,-32.715,-26.367,0.000
1709291500.187,-30.273,-28.809,-30.762,-37.598,0.000
1709291500.191,-26.855,-27.832,-25.879,-34.668,0.000
1709291500.195,-20.508,-24.414,-27.832,-27.832,0.000
1709291500.199,-11.230,-29.297,-34.180,-18.066,0.000
1709291500.202,-24.414,-29.297,-36.621,-18.555,0.000
1709291500.206,-29.785,-22.949,-31.738,-29.297,0.000
1709291500.210,-19.531,-24.414,-30.273,-29.785,0.000
1709291500.214,-20.508,-20.508,-34.668,-17.578,0.000
1709291500.218,-25.391,-24.902,-40.039,-13.184,0.000
1709291500.222,-34.668,-36.133,-38.574,-15.625,0.000
1709291500.226,-43.945,-16.602,-37.109,-32.715,0.000
1709291500.230,-30.273,-20.508,-34.668,-51.270,0.000
1709291500.234,-23.438,-32.715,-33.691,-35.645,0.000
1709291500.238,-23.926,-22.949,-32.227,-10.254,0.000
1709291500.241,-20.508,-27.344,-34.180,-8.301,0.000
1709291500.245,-29.785,-36.621,-35.156,-27.832,0.000
1709291500.249,-35.156,-43.945,-39.062,-31.738,0.000
1709291500.253,-33.691,-29.785,-40.039,-23.926,0.000
1709291500.257,-33.691,-27.832,-37.109,-20.508,0.000
1709291500.261,-31.738,-40.527,-40.527,-17.578,0.000
1709291500.265,-35.156,-59.082,-39.062,-18.066,0.000
1709291500.269,-37.598,-38.086,-41.016,-39.551,0.000
1709291500.273,-39.551,-28.320,-43.945,-55.176,0.000
1709291500.277,-32.715,-50.293,-35.156,-37.109,0.000
1709291500.281,-30.762,-45.898,-31.250,-20.996,0.000
1709291500.284,-32.715,-32.227,-35.645,-34.180,0.000
1709291500.288,-30.273,-30.762,-35.645,-38.086,0.000
1709291500.292,-32.227,-45.410,-40.527,-35.645,0.000
1709291500.296,-31.738,-46.875,-43.457,-25.391,0.000
1709291500.300,-25.879,-37.598,-37.109,-14.160,0.000
1709291500.304,-30.762,-41.992,-37.109,-22.461,0.000
1709291500.308,-38.574,-52.734,-41.504,-35.645,0.000
1709291500.312,-34.668,-48.340,-34.668,-30.273,0.000
1709291500.316,-22.461,-19.043,-30.273,-19.043,0.000
1709291500.319,-38.086,-36.133,-41.504,-26.367,0.000
1709291500.323,-38.086,-45.410,-39.062,-35.156,0.000
1709291500.327,-26.855,-27.832,-37.109,-52.246,0.000
1709291500.331,-23.926,-33.203,-39.062,-48.828,0.000
1709291500.335,-14.160,-40.039,-38.086,-25.879,0.000
1709291500.339,-17.090,-36.621,-39.551,-14.648,0.000
1709291500.343,-24.902,-29.785,-35.645,-6.348,0.000
1709291500.347,-28.809,-26.855,-35.645,-22.949,0.000
1709291500.350,-28.809,-36.621,-43.457,-41.992,0.000
1709291500.354,-25.391,-52.734,-36.621,-30.762,0.000
1709291500.358,-21.484,-33.203,-30.762,-23.438,0.000
1709291500.362,-28.320,-16.113,-34.180,-23.438,0.000
1709291500.366,-32.227,-25.879,-36.621,-38.574,0.000
1709291500.370,-40.039,-45.898,-41.504,-48.340,0.000
1709291500.374,-41.504,-22.949,-39.551,-45.898,0.000
1709291500.377,-40.039,-8.789,-39.062,-35.156,0.000
1709291500.381,-36.133,-20.508,-36.621,-25.879,0.000
1709291500.385,-35.156,-30.273,-37.109,-29.297,0.000
1709291500.389,-41.504,-28.809,-43.945,-38.574,0.000
1709291500.393,-38.574,-17.578,-46.387,-38.086,0.000
1709291500.397,-28.809,-35.645,-47.363,-41.504,0.000
1709291500.401,-21.484,-43.945,-39.551,-20.508,0.000
1709291500.405,-30.273,-19.043,-36.133,-24.414,0.000
1709291500.409,-39.062,-23.926,-36.621,-45.410,0.000
1709291500.413,-29.785,-29.785,-32.227,-41.504,0.000
1709291500.416,-13.184,-20.996,-37.109,-20.020,0.000
1709291500.420,-16.113,-14.648,-38.086,-16.602,0.000
1709291500.425,-40.527,-28.320,-31.738,-33.203,0.000
1709291500.429,-41.992,-39.551,-28.809,-31.738,0.000
1709291500.432,-27.344,-28.809,-29.297,-24.414,0.000
1709291500.436,-29.785,-24.902,-26.855,-18.555,0.000
1709291500.440,-36.621,-29.785,-27.832,-16.602,0.000
1709291500.444,-39.062,-44.434,-32.227,-22.461,0.000
1709291500.448,-42.480,-44.922,-32.715,-39.062,0.000
1709291500.452,-38.086,-35.645,-37.109,-38.574,0.000
1709291500.456,-26.855,-35.645,-33.691,-10.742,0.000
1709291500.460,-35.645,-55.664,-28.809,-0.977,0.000
1709291500.464,-45.410,-35.645,-34.180,-22.461,0.000
1709291500.468,-40.039,-23.438,-37.109,-37.109,0.000
1709291500.472,-35.645,-46.387,-32.715,-34.668,0.000
1709291500.476,-26.855,-44.922,-34.668,-16.602,0.000
1709291500.480,-30.273,-33.203,-30.273,-8.789,0.000
1709291500.483,-42.480,-26.367,-29.785,-21.973,0.000
1709291500.487,-45.410,-33.691,-37.109,-41.504,0.000
1709291500.491,-40.527,-46.875,-39.062,-40.039,0.000
1709291500.495,-34.180,-44.922,-32.227,-28.809,0.000
1709291500.499,-22.461,-32.715,-34.668,-19.531,0.000
1709291500.503,-26.855,-48.828,-38.574,-22.949,0.000
1709291500.507,-49.316,-55.664,-39.062,-36.621,0.000
1709291500.511,-59.082,-24.902,-37.109,-48.828,0.000
1709291500.515,-47.363,-28.809,-30.762,-37.109,0.000
1709291500.519,-45.410,-50.781,-30.762,-25.879,0.000
1709291500.523,-50.293,-35.156,-33.203,-40.527,0.000
1709291500.526,-59.082,-29.785,-37.598,-62.500,0.000
1709291500.530,-64.453,-46.387,-39.551,-66.406,0.000
1709291500.534,-56.152,-48.340,-41.016,-46.875,0.000
1709291500.538,-42.480,-45.898,-42.969,-34.668,0.000
1709291500.542,-35.156,-42.969,-41.504,-32.715,0.000
1709291500.546,-33.691,-29.785,-37.109,-47.852,0.000
1709291500.550,-37.598,-41.016,-40.039,-56.152,0.000
1709291500.554,-32.715,-29.785,-45.410,-42.969,0.000
1709291500.558,-33.691,-19.531,-38.086,-31.738,0.000
1709291500.562,-34.668,-37.598,-31.738,-22.949,0.000
1709291500.566,-25.879,-20.020,-20.508,-21.973,0.000
1709291500.569,-39.551,-23.926,-33.203,-36.133,0.000
1709291500.573,-46.387,-39.062,-49.316,-45.410,0.000
1709291500.577,-30.273,-31.738,-41.016,-40.527,0.000
1709291500.581,-36.133,-32.715,-38.086,-34.180,0.000
1709291500.585,-37.109,-31.250,-28.809,-28.809,0.000
1709291500.589,-45.898,-27.832,-27.832,-43.945,0.000
1709291500.593,-57.129,-40.039,-42.969,-44.922,0.000
1709291500.597,-43.457,-50.781,-41.016,-19.043,0.000
1709291500.601,-38.574,-25.879,-34.180,-20.020,0.000
1709291500.605,-44.922,-25.879,-36.621,-37.598,0.000
1709291500.609,-47.363,-41.016,-36.133,-43.457,0.000
1709291500.612,-31.738,-27.832,-27.344,-38.086,0.000
1709291500.616,-24.902,-34.668,-31.738,-28.809,0.000
1709291500.620,-37.598,-48.340,-35.645,-21.973,0.000
1709291500.624,-43.945,-37.598,-35.645,-28.809,0.000
1709291500.628,-49.805,-28.809,-32.227,-53.711,0.000
1709291500.632,-29.785,-21.973,-21.973,-39.062,0.000
1709291500.636,-23.438,-28.320,-32.227,-21.484,0.000
1709291500.640,-42.969,-53.711,-41.992,-20.996,0.000
1709291500.644,-35.156,-40.039,-32.227,-21.973,0.000
1709291500.648,-34.180,-20.020,-28.320,-40.527,0.000
1709291500.651,-43.457,-27.832,-26.855,-40.527,0.000
1709291500.655,-27.344,-23.926,-22.949,-25.879,0.000
1709291500.659,-23.438,-11.230,-23.438,-13.184,0.000
1709291500.663,-37.598,-17.578,-20.508,-17.090,0.000
1709291500.667,-49.316,-34.180,-19.531,-34.668,0.000
1709291500.671,-48.340,-27.344,-26.855,-36.621,0.000
1709291500.675,-37.598,-34.180,-28.809,-32.715,0.000
1709291500.679,-30.273,-36.133,-26.855,-27.832,0.000
1709291500.683,-34.180,-38.086,-29.297,-38.574,0.000
1709291500.686,-43.457,-50.781,-34.668,-35.156,0.000
1709291500.690,-41.504,-11.719,-40.527,-30.273,0.000
1709291500.694,-35.645,-10.742,-40.527,-33.691,0.000
1709291500.698,-36.133,-34.668,-34.180,-18.066,0.000
1709291500.702,-50.293,-40.527,-34.668,-28.320,0.000
1709291500.706,-49.805,-35.156,-34.668,-46.387,0.000
1709291500.710,-40.527,-33.203,-34.668,-39.062,0.000
1709291500.714,-37.598,-43.457,-33.203,-23.438,0.000
1709291500.718,-26.855,-30.273,-25.391,-7.812,0.000
1709291500.721,-28.809,-29.785,-26.855,-19.043,0.000
1709291500.725,-43.457,-45.898,-32.715,-47.363,0.000
1709291500.729,-44.434,-57.129,-32.227,-39.551,0.000
1709291500.733,-37.109,-34.668,-30.273,-23.926,0.000
1709291500.737,-21.973,-9.766,-26.855,-9.766,0.000
1709291500.741,-18.555,-16.602,-30.273,-11.230,0.000
1709291500.745,-37.109,-23.926,-28.809,-25.879,0.000
1709291500.749,-37.109,-19.043,-26.367,-26.855,0.000
1709291500.753,-31.250,-23.926,-37.109,-33.691,0.000
1709291500.756,-29.785,-33.203,-37.598,-30.762,0.000
1709291500.760,-32.715,-36.621,-32.715,-17.090,0.000
1709291500.764,-41.016,-25.391,-34.668,-27.344,0.000
1709291500.768,-51.758,-18.066,-38.574,-51.758,0.000
1709291500.772,-46.387,-33.203,-42.969,-46.387,0.000
1709291500.776,-38.574,-31.250,-42.969,-29.297,0.000
1709291500.780,-42.480,-10.742,-41.016,-31.738,0.000
1709291500.784,-35.156,-18.066,-36.133,-45.410,0.000
1709291500.788,-36.133,-36.621,-34.180,-44.922,0.000
1709291500.792,-42.480,-31.738,-34.668,-38.574,0.000
1709291500.795,-29.785,-20.508,-36.621,-31.738,0.000
1709291500.800,-20.020,-24.902,-29.297,-16.602,0.000
1709291500.804,-34.180,-41.504,-23.926,-30.273,0.000
1709291500.808,-44.922,-30.762,-32.227,-45.410,0.000
1709291500.811,-39.062,-13.672,-32.227,-35.645,0.000
1709291500.815,-33.691,-24.902,-30.762,-12.207,0.000
1709291500.819,-32.715,-42.480,-32.227,-9.766,0.000
1709291500.823,-29.785,-34.180,-29.785,-23.926,0.000
1709291500.827,-28.809,-15.137,-33.203,-30.273,0.000
1709291500.831,-28.320,-28.320,-37.598,-24.902,0.000
1709291500.835,-29.785,-61.035,-37.109,-11.230,0.000
1709291500.839,-24.902,-29.297,-32.227,-8.301,0.000
1709291500.843,-21.484,-6.348,-35.156,-14.160,0.000
1709291500.847,-26.855,-27.344,-40.527,-25.879,0.000
1709291500.851,-20.508,-32.715,-30.762,-31.738,0.000
1709291500.855,-13.672,-36.133,-20.996,-16.602,0.000
1709291500.859,-18.555,-21.973,-27.832,-10.254,0.000
1709291500.862,-21.973,-21.973,-34.668,-21.973,0.000
1709291500.866,-30.273,-41.504,-36.133,-43.945,0.000
1709291500.870,-37.598,-32.715,-39.551,-46.387,0.000
1709291500.874,-25.391,-15.137,-42.969,-23.438,0.000
1709291500.878,-19.531,-29.297,-37.109,-11.719,0.000
1709291500.882,-28.809,-43.457,-31.738,-21.484,0.000
1709291500.886,-38.086,-13.184,-33.203,-33.691,0.000
1709291500.890,-38.574,-10.254,-32.227,-38.086,0.000
1709291500.894,-18.555,-25.879,-28.320,-33.691,0.000
1709291500.898,-22.949,-23.926,-29.785,-24.902,0.000
1709291500.902,-39.551,-31.250,-38.086,-38.574,0.000
1709291500.906,-32.715,-50.781,-43.457,-46.387,0.000
1709291500.909,-22.461,-41.992,-35.156,-44.434,0.000
1709291500.913,-16.113,-27.344,-29.785,-45.410,0.000
1709291500.917,-14.648,-23.926,-36.133,-27.344,0.000
1709291500.921,-24.902,-22.461,-41.992,-27.344,0.000
1709291500.925,-25.391,-41.992,-41.504,-32.227,0.000
1709291500.929,-6.836,-27.344,-40.527,-32.715,0.000
1709291500.933,-12.695,-5.371,-40.527,-29.297,0.000
1709291500.937,-22.461,-22.949,-39.551,-20.020,0.000
1709291500.941,-32.227,-38.086,-38.086,-27.832,0.000
1709291500.945,-41.504,-34.180,-42.480,-44.922,0.000
1709291500.949,-47.852,-39.062,-39.062,-49.316,0.000
1709291500.952,-48.828,-42.480,-36.621,-44.434,0.000
1709291500.956,-30.762,-33.691,-40.527,-30.273,0.000
1709291500.960,-30.762,-37.109,-41.992,-17.578,0.000
1709291500.964,-41.016,-34.180,-35.645,-23.438,0.000
1709291500.968,-34.180,-32.227,-20.996,-20.996,0.000
1709291500.972,-33.691,-43.457,-32.715,-14.160,0.000
1709291500.976,-29.297,-19.531,-37.598,-13.184,0.000
1709291500.980,-39.551,-21.484,-34.180,-22.461,0.000
1709291500.984,-43.457,-31.738,-36.133,-33.691,0.000
1709291500.988,-37.109,-19.531,-31.738,-44.922,0.000
1709291500.992,-28.809,-10.254,-33.203,-31.738,0.000
1709291500.996,-16.602,-20.996,-33.691,-6.348,0.000
1709291501.000,-21.973,-34.668,-28.809,0.000,0.000
1709291501.004,-25.391,-30.762,-29.297,-15.137,0.000
1709291501.008,-30.762,-33.691,-28.809,-30.273,0.000
1709291501.012,-42.480,-35.156,-36.621,-28.320,0.000
1709291501.016,-30.273,-39.551,-34.180,-14.160,0.000
1709291501.020,-20.508,-22.461,-25.391,9.766,0.000
1709291501.024,-26.855,-4.395,-36.621,-7.812,0.000
1709291501.027,-36.621,-17.090,-42.480,-34.668,0.000
1709291501.031,-39.062,-23.438,-31.738,-26.367,0.000
1709291501.035,-28.809,-19.043,-31.738,-14.648,0.000
1709291501.039,-20.508,-21.973,-33.691,-6.348,0.000
1709291501.043,-27.344,-28.809,-31.738,-3.418,0.000
1709291501.047,-34.180,-23.438,-33.691,-22.949,0.000
1709291501.051,-24.414,-18.066,-36.133,-35.156,0.000
1709291501.055,-23.926,-25.391,-29.785,-21.973,0.000
1709291501.058,-20.508,-31.250,-25.391,-1.953,0.000
1709291501.062,-26.855,-22.461,-32.227,-11.719,0.000
1709291501.066,-39.551,-13.184,-37.598,-35.156,0.000
1709291501.070,-32.227,-20.020,-37.598,-43.457,0.000
1709291501.074,-35.645,-42.969,-36.133,-29.785,0.000
1709291501.078,-41.016,-49.805,-35.645,-7.812,0.000
1709291501.082,-30.273,-24.902,-30.273,-15.625,0.000
1709291501.086,-34.180,-18.066,-22.949,-27.832,0.000
1709291501.089,-37.598,-29.785,-23.926,-26.367,0.000
1709291501.093,-25.879,-31.250,-26.367,-28.809,0.000
1709291501.097,-18.066,-17.090,-31.250,-26.855,0.000
1709291501.101,-26.855,-20.508,-29.785,-11.230,0.000
1709291501.105,-42.480,-39.551,-28.809,-10.742,0.000
1709291501.109,-38.086,-28.320,-33.691,-27.832,0.000
1709291501.113,-31.738,-16.113,-36.133,-46.875,0.000
1709291501.117,-29.297,-22.949,-39.551,-34.668,0.000
1709291501.121,-31.738,-20.996,-37.109,-28.809,0.000
1709291501.125,-38.086,-19.531,-35.645,-41.504,0.000
1709291501.128,-31.250,-25.391,-37.109,-47.852,0.000
1709291501.132,-25.879,-33.203,-38.574,-45.410,0.000
1709291501.136,-32.227,-36.621,-38.574,-33.203,0.000
1709291501.140,-33.203,-30.762,-42.480,-14.160,0.000
1709291501.144,-25.391,-17.578,-34.668,-20.508,0.000
1709291501.148,-27.832,-32.227,-31.738,-32.715,0.000
1709291501.152,-36.621,-47.363,-33.691,-20.996,0.000
1709291501.155,-24.414,-14.160,-24.414,-15.625,0.000
1709291501.159,-25.879,-13.672,-29.297,-17.090,0.000
1709291501.163,-28.320,-30.762,-30.762,-25.391,0.000
1709291501.167,-23.438,-27.344,-30.762,-34.180,0.000
1709291501.171,-30.273,-19.043,-33.691,-41.992,0.000
1709291501.175,-32.715,-22.461,-35.156,-39.062,0.000
1709291501.179,-35.156,-21.973,-39.062,-23.926,0.000
1709291501.183,-38.574,-18.066,-38.574,-28.320,0.000
1709291501.187,-31.738,-22.949,-34.668,-32.715,0.000
1709291501.191,-35.645,-33.203,-37.598,-39.551,0.000
1709291501.195,-21.973,-42.969,-36.133,-26.367,0.000
1709291501.199,-6.836,-39.062,-32.715,-8.301,0.000
1709291501.203,-12.207,-22.949,-38.574,-19.531,0.000
1709291501.207,-19.531,-28.320,-42.480,-34.668,0.000
1709291501.210,-21.973,-54.688,-32.715,-20.996,0.000
1709291501.214,-24.414,-34.668,-30.273,-14.648,0.000
1709291501.218,-23.438,-15.625,-38.574,-16.113,0.000
1709291501.222,-25.879,-23.438,-33.691,0.000,0.000
1709291501.226,-28.809,-33.691,-32.227,-13.184,0.000
1709291501.230,-24.902,-38.574,-36.133,-32.715,0.000
1709291501.234,-8.301,-30.762,-29.297,-27.344,0.000
1709291501.238,-17.090,-30.273,-36.133,-8.789,0.000
1709291501.242,-23.926,-40.527,-40.527,-6.348,0.000
1709291501.246,-20.996,-41.504,-33.691,-24.902,0.000
1709291501.250,-35.645,-32.227,-36.133,-41.016,0.000
1709291501.254,-32.715,-40.039,-33.691,-36.621,0.000
1709291501.258,-23.438,-46.387,-28.320,-9.766,0.000
1709291501.261,-30.273,-16.602,-24.414,-13.184,0.000
1709291501.265,-37.598,-17.090,-20.996,-33.203,0.000
1709291501.269,-31.250,-35.156,-20.020,-33.203,0.000
1709291501.273,-31.250,-30.762,-18.555,-30.273,0.000
1709291501.277,-28.809,-22.461,-24.902,-19.043,0.000
1709291501.281,-31.250,-25.879,-31.250,-15.625,0.000
1709291501.285,-37.598,-38.574,-29.785,-22.949,0.000
1709291501.289,-36.133,-31.738,-27.344,-30.273,0.000
1709291501.293,-35.156,-22.461,-35.645,-41.016,0.000
1709291501.297,-29.785,-21.484,-40.527,-22.461,0.000
1709291501.301,-31.250,-36.621,-37.109,-3.418,0.000
1709291501.305,-35.156,-27.832,-33.691,-25.391,0.000
1709291501.308,-34.668,-13.184,-31.738,-45.898,0.000
1709291501.312,-38.086,-30.762,-28.320,-44.922,0.000
1709291501.316,-23.926,-27.344,-28.320,-24.902,0.000
1709291501.320,-26.367,-16.602,-33.203,-8.301,0.000
1709291501.324,-47.852,-33.691,-33.203,-28.809,0.000
1709291501.328,-42.480,-31.738,-35.156,-38.086,0.000
1709291501.332,-29.785,-25.391,-36.621,-34.668,0.000
1709291501.336,-23.926,-31.738,-36.133,-33.203,0.000
1709291501.340,-20.020,-28.809,-35.156,-25.879,0.000
1709291501.344,-16.602,-31.738,-31.250,-20.996,0.000
1709291501.347,-20.020,-46.387,-31.738,-31.738,0.000
1709291501.351,-23.926,-20.996,-30.762,-41.016,0.000
1709291501.355,-20.508,-14.648,-36.133,-25.391,0.000
1709291501.359,-21.973,-37.109,-46.387,-16.113,0.000
1709291501.363,-26.367,-37.598,-42.969,-22.949,0.000
1709291501.367,-47.852,-28.320,-40.039,-43.457,0.000
1709291501.371,-52.246,-35.156,-42.969,-56.641,0.000
1709291501.375,-25.879,-42.480,-41.992,-36.621,0.000
1709291501.379,-16.602,-20.020,-36.621,-13.672,0.000
1709291501.383,-36.621,-24.902,-33.203,-23.926,0.000
1709291501.386,-49.805,-38.086,-35.156,-32.715,0.000
1709291501.390,-37.598,-40.527,-36.133,-28.809,0.000
1709291501.394,-36.133,-30.273,-40.039,-31.250,0.000
1709291501.398,-31.250,-21.973,-42.969,-21.973,0.000
1709291501.402,-31.250,-28.320,-32.715,-26.855,0.000
1709291501.406,-46.387,-31.250,-29.785,-43.945,0.000
1709291501.410,-36.621,-35.156,-37.598,-43.945,0.000
1709291501.414,-24.414,-34.668,-39.062,-30.762,0.000
1709291501.418,-24.902,-43.457,-36.133,-19.531,0.000
1709291501.421,-27.344,-31.250,-29.297,-19.531,0.000
1709291501.425,-21.973,-15.625,-26.367,-15.137,0.000
1709291501.429,-21.484,-35.156,-34.180,-22.949,0.000
1709291501.433,-35.156,-42.969,-33.691,-37.598,0.000
1709291501.437,-33.203,-44.922,-25.879,-18.555,0.000
1709291501.441,-25.391,-21.484,-25.391,-15.137,0.000
1709291501.445,-28.809,-19.531,-30.273,-27.832,0.000
1709291501.449,-40.039,-36.621,-31.250,-44.434,0.000
1709291501.453,-40.039,-33.203,-29.297,-65.918,0.000
1709291501.456,-29.297,-26.855,-33.203,-39.551,0.000
1709291501.460,-31.738,-35.645,-31.250,-19.043,0.000
1709291501.464,-30.762,-53.711,-28.809,-34.180,0.000
1709291501.468,-30.762,-44.434,-29.297,-44.922,0.000
1709291501.472,-38.086,-28.320,-32.227,-46.387,0.000
1709291501.476,-31.250,-35.156,-33.691,-35.645,0.000
1709291501.480,-33.203,-57.617,-30.762,-20.020,0.000
1709291501.484,-52.734,-39.062,-31.250,-19.043,0.000
1709291501.488,-60.547,-17.090,-38.574,-35.156,0.000
1709291501.491,-49.316,-28.320,-32.227,-28.809,0.000
1709291501.495,-37.109,-30.762,-24.414,-8.789,0.000
1709291501.499,-32.715,-29.297,-31.250,-18.066,0.000
1709291501.503,-38.574,-29.785,-35.645,-26.855,0.000
1709291501.507,-56.641,-36.621,-42.969,-45.410,0.000
1709291501.511,-44.922,-41.992,-36.133,-46.875,0.000
1709291501.515,-21.973,-28.320,-27.832,-25.391,0.000
1709291501.518,-30.273,-22.461,-38.574,-20.508,0.000
1709291501.522,-49.316,-44.922,-44.434,-35.156,0.000
1709291501.526,-35.156,-44.922,-35.645,-36.621,0.000
1709291501.530,-22.949,-23.926,-32.227,-31.250,0.000
1709291501.534,-18.066,-36.133,-34.180,-30.273,0.000
1709291501.538,-17.578,-39.551,-32.227,-23.438,0.000
1709291501.542,-26.855,-29.297,-34.668,-21.973,0.000
1709291501.546,-37.598,-19.043,-38.574,-27.832,0.000
1709291501.550,-42.969,-27.344,-34.668,-41.016,0.000
1709291501.554,-37.109,-45.410,-32.715,-27.832,0.000
1709291501.558,-41.504,-46.875,-42.969,-23.926,0.000
1709291501.562,-44.434,-39.551,-40.039,-34.180,0.000
1709291501.566,-35.645,-40.527,-29.785,-29.785,0.000
1709291501.570,-28.809,-55.176,-32.227,-36.133,0.000
1709291501.573,-26.367,-42.969,-33.203,-40.039,0.000
1709291501.577,-23.438,-20.020,-34.668,-28.320,0.000
1709291501.581,-23.438,-32.227,-32.715,-21.484,0.000
1709291501.585,-37.109,-63.477,-38.086,-33.691,0.000
1709291501.589,-39.551,-48.828,-41.992,-46.875,0.000
1709291501.593,-30.762,-34.180,-34.668,-43.945,0.000
1709291501.597,-25.879,-41.016,-36.621,-38.086,0.000
1709291501.601,-35.645,-31.250,-37.109,-32.227,0.000
1709291501.605,-46.875,-29.297,-33.203,-36.133,0.000
1709291501.609,-46.875,-25.879,-36.621,-48.828,0.000
1709291501.613,-41.504,-28.809,-42.969,-42.969,0.000
1709291501.617,-37.598,-39.062,-43.945,-27.344,0.000
1709291501.621,-34.668,-27.344,-36.133,-22.949,0.000
1709291501.624,-24.902,-20.020,-36.621,-30.273,0.000
1709291501.628,-9.766,-42.480,-50.781,-28.809,0.000
1709291501.632,8.301,-47.852,-54.199,-0.977,0.000
1709291501.636,-12.207,-21.484,-37.598,-11.230,0.000
1709291501.640,-35.156,-25.879,-33.203,-18.555,0.000
1709291501.644,-22.949,-45.410,-36.133,-8.789,0.000
1709291501.648,-28.320,-52.734,-35.156,-28.320,0.000
1709291501.652,-48.828,-41.992,-39.062,-35.156,0.000
1709291501.656,-45.898,-47.852,-40.527,-19.531,0.000
1709291501.660,-39.551,-71.289,-38.574,-6.836,0.000
1709291501.664,-44.434,-73.242,-36.621,-2.441,0.000
1709291501.668,-55.664,-67.383,-35.645,-14.648,0.000
1709291501.672,-46.875,-77.637,-37.598,-12.695,0.000
1709291501.675,-29.297,-103.516,-37.109,20.996,0.000
1709291501.679,-17.578,-85.938,-30.762,46.387,0.000
1709291501.683,-18.066,-65.918,-33.691,34.668,0.000
1709291501.687,-22.949,-84.961,-32.715,26.367,0.000
1709291501.691,-19.531,-92.285,-25.391,21.973,0.000
1709291501.695,-27.832,-92.285,-26.855,26.367,0.000
1709291501.699,-16.113,-97.168,-23.926,53.711,0.000
1709291501.703,1.465,-93.262,-14.160,66.406,0.000
1709291501.707,-14.648,-93.262,-10.254,35.156,0.000
1709291501.711,-19.531,-94.238,-12.207,27.344,0.000
1709291501.714,-3.906,-90.820,-11.719,41.504,0.000
1709291501.718,-8.301,-94.727,-6.836,47.363,0.000
1709291501.722,-2.441,-101.562,-5.859,66.406,0.000
1709291501.726,10.742,-73.730,-9.277,45.898,0.000
1709291501.730,1.953,-72.266,-11.230,28.320,0.000
1709291501.734,-5.371,-86.914,-8.789,51.758,0.000
1709291501.738,-0.488,-73.242,-3.906,57.129,0.000
1709291501.742,-4.395,-68.359,-1.465,45.898,0.000
1709291501.746,-3.906,-78.613,-2.930,39.551,0.000
1709291501.750,6.836,-84.473,0.000,49.316,0.000
1709291501.753,0.000,-74.219,-2.441,41.992,0.000
1709291501.757,-0.977,-71.777,-2.441,48.340,0.000
1709291501.761,0.000,-71.289,-3.906,57.129,0.000
1709291501.765,-7.812,-83.984,-7.324,34.180,0.000
1709291501.769,-4.883,-69.824,-7.324,32.715,0.000
1709291501.773,6.348,-51.758,-3.418,40.527,0.000
1709291501.777,10.742,-64.941,-2.930,38.086,0.000
1709291501.781,8.301,-67.383,-10.742,33.691,0.000
1709291501.784,-6.348,-50.293,-13.184,6.836,0.000
1709291501.788,-15.625,-51.270,-14.160,-1.465,0.000
1709291501.792,-2.441,-58.594,-14.648,9.766,0.000
1709291501.796,4.395,-46.387,-13.184,23.926,0.000
1709291501.800,9.766,-50.293,-14.160,30.273,0.000
1709291501.804,0.977,-57.617,-17.578,18.066,0.000
1709291501.808,-6.348,-56.641,-21.973,2.441,0.000
1709291501.812,-11.719,-62.988,-21.973,10.254,0.000
1709291501.816,-7.324,-42.480,-21.973,20.996,0.000
1709291501.820,-1.465,-36.621,-23.926,22.949,0.000
1709291501.824,-9.766,-43.945,-18.066,8.301,0.000
1709291501.827,-19.043,-40.527,-16.113,-9.766,0.000
1709291501.831,-17.578,-39.551,-28.320,-6.836,0.000
1709291501.835,-21.484,-47.363,-37.109,-2.441,0.000
1709291501.839,-18.066,-49.316,-31.250,3.418,0.000
1709291501.843,-14.160,-43.945,-30.762,-3.418,0.000
1709291501.847,-23.438,-42.969,-34.668,-12.695,0.000
1709291501.851,-27.344,-51.270,-28.320,-15.625,0.000
1709291501.854,-15.625,-64.453,-25.879,-6.836,0.000
1709291501.858,-7.324,-47.363,-30.273,8.789,0.000
1709291501.862,-20.996,-23.438,-33.691,-2.441,0.000
1709291501.866,-29.785,-39.551,-32.227,-17.090,0.000
1709291501.870,-32.715,-52.734,-32.715,-28.320,0.000
1709291501.874,-23.926,-45.410,-39.551,-28.809,0.000
1709291501.878,-23.926,-41.992,-43.945,-25.391,0.000
1709291501.881,-23.438,-39.551,-40.039,-18.066,0.000
1709291501.885,-17.090,-45.898,-39.062,-27.344,0.000
1709291501.889,-21.973,-36.621,-37.598,-38.086,0.000
1709291501.893,-16.602,-29.297,-36.621,-16.602,0.000
1709291501.897,-13.672,-42.969,-41.504,-3.418,0.000
1709291501.901,-14.160,-51.270,-40.039,7.812,0.000
1709291501.905,-24.414,-23.926,-39.062,-10.254,0.000
1709291501.909,-35.645,-22.949,-39.062,-39.062,0.000
1709291501.913,-37.598,-45.898,-37.598,-44.434,0.000
1709291501.917,-33.203,-41.504,-34.180,-33.691,0.000
1709291501.921,-21.484,-21.973,-34.180,-22.949,0.000
1709291501.925,-29.785,-25.879,-33.691,-24.414,0.000
1709291501.929,-37.109,-40.527,-34.180,-41.016,0.000
1709291501.933,-24.902,-36.621,-36.621,-35.156,0.000
1709291501.937,-13.184,-34.668,-37.109,-8.789,0.000
1709291501.940,-10.742,-32.715,-38.574,-7.812,0.000
1709291501.944,-30.762,-39.551,-37.598,-19.531,0.000
1709291501.948,-28.809,-37.598,-36.133,-19.531,0.000
1709291501.952,-12.207,-28.320,-33.203,-22.949,0.000
1709291501.956,-21.973,-30.762,-33.691,-16.602,0.000
1709291501.960,-23.438,-50.293,-36.133,3.418,0.000
1709291501.964,-12.207,-35.156,-34.668,-13.672,0.000
1709291501.968,0.977,-15.137,-30.273,-29.785,0.000
1709291501.972,-2.441,-22.461,-26.855,-31.738,0.000
1709291501.976,1.465,-32.227,-26.855,-8.301,0.000
1709291501.980,8.301,-25.879,-24.902,1.465,0.000
1709291501.984,-1.465,-20.996,-21.484,-20.020,0.000
1709291501.988,-15.137,-30.762,-28.320,-27.832,0.000
1709291501.992,-32.715,-27.344,-31.250,-25.391,0.000
1709291501.996,-30.273,-22.461,-25.391,-6.348,0.000
1709291501.999,-14.648,-17.090,-26.855,-9.277,0.000
1709291502.003,-23.438,-32.715,-29.297,-18.066,0.000
1709291502.007,-45.898,-56.152,-29.785,-17.578,0.000
1709291502.011,-42.480,-26.855,-31.738,-26.367,0.000
1709291502.015,-25.879,-22.461,-27.832,-20.996,0.000
1709291502.019,-24.414,-39.062,0.000,-18.066,0.000
1709291502.023,-25.879,-30.273,0.000,-15.137,0.000
1709291502.027,-27.344,-23.438,0.000,-13.672,0.000
1709291502.031,-22.461,-30.762,0.000,-32.715,0.000
1709291502.035,-16.602,-46.875,0.000,-23.438,0.000
1709291502.039,-21.484,-41.504,0.000,4.395,0.000
1709291502.043,-31.250,-18.066,0.000,-3.906,0.000
1709291502.046,-38.086,-14.648,0.000,-13.184,0.000
1709291502.050,-36.621,-39.551,0.000,-24.902,0.000
1709291502.054,-34.180,-27.344,0.000,-36.621,0.000
1709291502.058,-32.227,-11.230,0.000,-23.438,0.000
1709291502.062,-27.344,-23.926,0.000,-16.113,0.000
1709291502.066,-28.320,-44.434,-31.250,-23.438,0.000
1709291502.070,-28.809,-32.227,-39.062,-30.273,0.000
1709291502.074,-25.879,-29.785,-39.551,-29.297,0.000
1709291502.078,-25.391,-28.320,-39.551,-17.090,0.000
1709291502.082,-25.391,-19.043,-45.410,-14.648,0.000
1709291502.086,-35.156,-29.297,-43.945,-37.109,0.000
1709291502.089,-40.039,-34.180,-37.109,-46.387,0.000
1709291502.093,-36.133,-32.715,-32.715,-25.391,0.000
1709291502.097,-35.156,-39.551,-33.691,-15.625,0.000
1709291502.101,-25.391,-27.832,-39.062,-20.508,0.000
1709291502.105,-28.320,-28.809,-41.016,-19.043,0.000
1709291502.109,-43.457,-32.715,-38.574,-29.297,0.000
1709291502.113,-39.551,-27.344,-33.203,-36.133,0.000
1709291502.117,-29.785,-20.020,-33.691,-16.113,0.000
1709291502.121,-28.320,-24.902,-37.598,-5.371,0.000
1709291502.124,-37.598,-35.156,-37.598,-22.461,0.000
1709291502.128,-42.969,-39.551,-38.086,-28.320,0.000
1709291502.132,-34.180,-40.039,-41.016,-23.438,0.000
1709291502.136,-18.555,-35.156,-43.945,-24.414,0.000
1709291502.140,-24.414,-54.688,-43.457,-3.906,0.000
1709291502.144,-40.039,-46.875,-38.574,-2.441,0.000
1709291502.148,-47.852,-26.855,-39.551,-28.809,0.000
1709291502.152,-41.504,-34.180,-43.945,-39.551,0.000
1709291502.156,-30.762,-34.668,-42.480,-36.621,0.000
1709291502.159,-20.020,-24.414,-40.039,-23.438,0.000
1709291502.163,-30.762,-37.598,-43.945,-23.926,0.000
1709291502.167,-45.410,-47.852,-48.828,-39.062,0.000
1709291502.171,-33.691,-23.926,-39.551,-38.574,0.000
1709291502.175,-30.762,-23.438,-35.156,-25.391,0.000
1709291502.179,-29.297,-32.715,-39.062,-8.789,0.000
1709291502.183,-30.273,-48.828,-39.551,-12.695,0.000
1709291502.187,-28.809,-51.270,-38.574,-17.578,0.000
1709291502.191,-31.250,-18.066,-33.203,-32.715,0.000
1709291502.195,-34.180,-22.949,-38.086,-41.016,0.000
1709291502.199,-28.320,-36.621,-41.992,-26.855,0.000
1709291502.202,-32.715,-26.855,-38.086,-20.020,0.000
1709291502.206,-36.133,-18.555,-40.039,-31.738,0.000
1709291502.210,-31.738,-21.973,-41.504,-41.992,0.000
1709291502.214,-18.555,-23.926,-42.480,-31.738,0.000
1709291502.218,-3.418,-17.090,-40.527,-9.766,0.000
1709291502.222,-11.230,-19.531,-37.109,-16.113,0.000
1709291502.226,-19.043,-32.715,-34.180,-27.344,0.000
1709291502.230,-34.668,-45.410,-36.133,-21.973,0.000
1709291502.234,-46.387,-25.879,-34.668,-26.855,0.000
1709291502.237,-32.227,-10.742,-29.785,-25.879,0.000
1709291502.241,-36.133,-28.320,-30.762,-29.297,0.000
1709291502.245,-52.246,-37.109,-33.203,-44.434,0.000
1709291502.249,-53.711,-33.691,-29.785,-45.898,0.000
1709291502.253,-34.180,-31.738,-27.832,-36.621,0.000
1709291502.257,-20.508,-36.133,-36.133,-21.973,0.000
1709291502.261,-31.250,-37.598,-39.551,-16.113,0.000
1709291502.264,-41.016,-25.879,-31.250,-25.879,0.000
1709291502.268,-35.645,-22.461,-32.715,-44.434,0.000
1709291502.272,-42.480,-40.039,-37.598,-43.457,0.000
1709291502.276,-52.734,-58.594,-33.691,-25.879,0.000
1709291502.280,-44.922,-28.809,-31.250,-31.738,0.000
1709291502.284,-38.574,-17.090,-31.738,-39.062,0.000
1709291502.288,-32.715,-25.879,-29.297,-35.645,0.000
1709291502.292,-38.574,-22.949,-32.227,-45.410,0.000
1709291502.296,-49.316,-29.297,-40.527,-42.480,0.000
1709291502.300,-43.945,-33.691,-41.016,-20.508,0.000
1709291502.304,-41.504,-36.621,-38.086,-18.066,0.000
1709291502.308,-42.969,-26.367,-33.691,-31.738,0.000
1709291502.312,-37.109,-19.043,-36.621,-37.109,0.000
1709291502.316,-39.062,-28.809,-36.133,-32.227,0.000
1709291502.319,-38.086,-42.480,-33.203,-17.090,0.000
1709291502.323,-25.391,-35.645,-30.273,-20.020,0.000
1709291502.327,-26.367,-24.902,-31.250,-44.922,0.000
1709291502.331,-33.203,-35.645,-39.551,-58.105,0.000
1709291502.335,-36.133,-56.152,-35.645,-32.227,0.000
1709291502.339,-39.551,-32.715,-33.203,-14.160,0.000
1709291502.343,-26.855,-19.531,-31.250,-20.020,0.000
1709291502.347,-27.832,-36.621,-26.367,-33.203,0.000
1709291502.351,-32.227,-46.875,-31.738,-36.133,0.000
1709291502.355,-30.762,-38.086,-34.668,-32.715,0.000
1709291502.359,-31.738,-18.066,-33.203,-12.207,0.000
1709291502.363,-28.320,-24.902,-31.738,-5.371,0.000
1709291502.367,-28.320,-40.039,-30.273,-29.785,0.000
1709291502.370,-28.809,-40.527,-30.273,-33.203,0.000
1709291502.374,-33.203,-28.809,-34.180,-34.180,0.000
1709291502.378,-23.438,-40.039,-35.156,-22.949,0.000
1709291502.382,-25.391,-63.965,-33.691,-6.348,0.000
1709291502.386,-32.715,-31.250,-31.738,-20.020,0.000
1709291502.390,-32.715,-27.344,-28.320,-40.527,0.000
1709291502.394,-32.715,-54.688,-33.203,-46.875,0.000
1709291502.398,-30.762,-44.434,-38.086,-24.414,0.000
1709291502.402,-30.273,-30.762,-40.039,-14.648,0.000
1709291502.406,-39.551,-39.551,-42.480,-32.227,0.000
1709291502.410,-50.781,-57.129,-40.527,-46.875,0.000
1709291502.414,-43.457,-47.852,-44.434,-50.781,0.000
1709291502.417,-28.809,-29.785,-47.852,-20.508,0.000
1709291502.421,-25.391,-35.156,-45.410,-15.137,0.000
1709291502.425,-42.969,-61.035,-42.969,-33.691,0.000
1709291502.429,-38.086,-45.898,-38.086,-36.133,0.000
1709291502.433,-30.273,-24.414,-43.945,-41.504,0.000
1709291502.437,-34.180,-37.109,-45.898,-40.527,0.000
1709291502.442,-35.156,-45.410,-42.480,-32.715,0.000
1709291502.446,-35.156,-41.992,-35.156,-28.809,0.000
1709291502.450,-31.250,-37.598,-32.715,-43.457,0.000
1709291502.453,-37.109,-41.016,-38.574,-49.316,0.000
1709291502.457,-44.434,-39.551,-42.480,-47.363,0.000
1709291502.461,-35.156,-35.645,-39.062,-36.133,0.000
1709291502.465,-27.344,-32.715,-33.203,-33.691,0.000
1709291502.469,-30.762,-38.574,-29.785,-44.922,0.000
1709291502.473,-41.992,-57.617,-33.203,-32.227,0.000
1709291502.477,-44.922,-25.879,-36.621,-21.484,0.000
1709291502.481,-27.832,-20.020,-35.156,-19.531,0.000
1709291502.485,-14.648,-36.621,-33.203,-18.555,0.000
1709291502.488,-23.438,-35.645,-30.762,-35.645,0.000
1709291502.492,-31.738,-30.762,-32.227,-38.086,0.000
1709291502.496,-19.043,-27.344,-32.715,-22.949,0.000
1709291502.500,-25.391,-37.109,-31.250,-31.250,0.000
1709291502.504,-36.133,-37.598,-27.832,-28.809,0.000
1709291502.508,-28.809,-35.156,-26.367,-23.926,0.000
1709291502.512,-36.621,-41.016,-25.391,-35.645,0.000
1709291502.516,-30.762,-52.246,-28.809,-34.180,0.000
1709291502.520,-10.254,-32.715,-31.250,-21.973,0.000
1709291502.524,-21.973,-15.625,-33.203,-14.160,0.000
1709291502.528,-38.574,-30.273,-36.621,-18.066,0.000
1709291502.531,-31.250,-61.035,-32.227,-22.461,0.000
1709291502.535,-19.043,-38.574,-34.668,-14.160,0.000
1709291502.539,-15.625,-25.391,-34.668,7.812,0.000
1709291502.543,-27.832,-54.199,-35.156,-13.184,0.000
1709291502.547,-32.227,-40.527,-38.086,-45.410,0.000
1709291502.551,-22.949,-21.484,-30.762,-40.039,0.000
1709291502.555,-22.461,-29.297,-29.297,-41.504,0.000
1709291502.559,-24.902,-39.062,-34.668,-32.227,0.000
1709291502.562,-25.391,-52.734,-35.645,-13.184,0.000
1709291502.566,-39.062,-26.855,-37.598,-36.133,0.000
1709291502.570,-45.898,-16.113,-42.480,-69.824,0.000
1709291502.574,-36.133,-40.039,-44.922,-52.734,0.000
1709291502.578,-29.297,-30.762,-41.016,-20.996,0.000
1709291502.582,-40.527,-24.902,-41.504,-18.066,0.000
1709291502.586,-35.156,-37.109,-40.039,-38.574,0.000
1709291502.589,-33.203,-47.363,-38.574,-48.828,0.000
1709291502.593,-41.992,-38.086,-38.574,-41.504,0.000
1709291502.597,-46.387,-30.762,-34.180,-30.762,0.000
1709291502.601,-41.016,-42.969,-40.039,-23.926,0.000
1709291502.605,-36.621,-61.035,-43.457,-33.691,0.000
1709291502.609,-40.527,-39.551,-41.016,-46.875,0.000
1709291502.613,-50.293,-18.555,-42.969,-57.617,0.000
1709291502.617,-49.316,-31.250,-44.922,-41.016,0.000
1709291502.621,-48.828,-44.434,-44.922,-38.086,0.000
1709291502.625,-49.316,-31.738,-44.434,-54.688,0.000
1709291502.628,-39.062,-20.020,-44.434,-53.711,0.000
1709291502.632,-40.527,-33.691,-42.969,-39.551,0.000
1709291502.636,-41.504,-43.945,-41.992,-27.832,0.000
1709291502.640,-19.531,-18.066,-37.598,-16.113,0.000
1709291502.644,-24.414,-13.184,-36.133,-35.645,0.000
1709291502.648,-40.527,-38.574,-40.039,-57.129,0.000
1709291502.652,-45.898,-43.457,-43.945,-52.734,0.000
1709291502.655,-40.039,-13.184,-41.016,-41.992,0.000
1709291502.659,-34.180,-8.301,-36.133,-24.414,0.000
1709291502.663,-35.645,-22.461,-41.016,-26.855,0.000
1709291502.667,-43.945,-27.832,-42.969,-47.363,0.000
1709291502.671,-48.340,-17.578,-37.598,-48.828,0.000
1709291502.676,-30.762,-15.625,-28.809,-17.578,0.000
1709291502.679,-29.297,-26.367,-30.762,-4.883,0.000
1709291502.683,-39.551,-14.648,-41.016,-11.719,0.000
1709291502.687,-31.738,0.000,-29.785,-17.578,0.000
1709291502.691,-34.180,-19.043,-22.949,-30.273,0.000
1709291502.695,-40.527,-35.645,-28.809,-15.625,0.000
1709291502.699,-32.715,-24.902,-30.273,-12.207,0.000
1709291502.703,-32.227,-0.488,-26.855,-17.578,0.000
1709291502.707,-42.480,-8.301,-30.762,-24.414,0.000
1709291502.711,-50.781,-42.969,-38.086,-33.203,0.000
1709291502.715,-39.551,-17.090,-38.086,-26.855,0.000
1709291502.719,-23.926,4.883,-35.156,-12.207,0.000
1709291502.723,-22.461,-13.672,-37.598,-9.277,0.000
1709291502.727,-37.109,-24.414,-35.645,-35.645,0.000
1709291502.730,-41.504,-20.508,-33.203,-50.293,0.000
1709291502.734,-34.668,-17.578,-36.133,-53.223,0.000
1709291502.738,-31.250,-17.090,-37.598,-30.273,0.000
1709291502.742,-27.344,-28.809,-34.668,-15.137,0.000
1709291502.746,-30.273,-23.438,-35.645,-23.438,0.000
1709291502.750,-21.484,-8.789,-36.133,-32.715,0.000
1709291502.754,-21.973,-27.832,-36.621,-38.574,0.000
1709291502.758,-29.297,-38.574,-37.598,-12.207,0.000
1709291502.762,-30.273,-7.812,-32.715,-5.859,0.000
1709291502.766,-37.598,-2.930,-30.762,-39.551,0.000
1709291502.770,-39.062,-29.297,-29.785,-41.504,0.000
1709291502.774,-40.039,-30.762,-27.344,-41.504,0.000
1709291502.777,-22.461,-20.020,-29.297,-26.367,0.000
1709291502.781,-7.324,-19.531,-36.133,-10.254,0.000
1709291502.785,-22.461,-33.203,-39.062,-28.320,0.000
1709291502.789,-41.504,-46.875,-41.992,-44.922,0.000
1709291502.793,-41.504,-41.016,-42.969,-40.039,0.000
1709291502.797,-32.715,-28.809,-41.504,-30.273,0.000
1709291502.801,-24.414,-42.480,-43.945,-21.973,0.000
1709291502.805,-41.504,-31.250,-42.969,-24.902,0.000
1709291502.809,-40.527,-9.766,-37.598,-33.691,0.000
1709291502.813,-27.832,-25.391,-34.180,-30.273,0.000
1709291502.817,-36.621,-40.039,-34.180,-32.227,0.000
1709291502.821,-42.480,-30.273,-35.645,-35.156,0.000
1709291502.824,-31.250,-28.320,-30.273,-28.809,0.000
1709291502.828,-33.691,-25.391,-29.297,-39.062,0.000
1709291502.832,-46.387,-22.949,-31.250,-44.434,0.000
1709291502.836,-32.227,-36.133,-34.180,-27.832,0.000
1709291502.840,-11.719,-25.391,-36.621,-5.371,0.000
1709291502.844,-29.297,-19.531,-36.133,-3.906,0.000
1709291502.848,-62.500,-39.551,-40.039,-29.785,0.000
1709291502.852,-39.062,-26.855,-43.457,-46.875,0.000
1709291502.856,-19.531,-10.254,-36.621,-42.480,0.000
1709291502.860,-30.762,-28.320,-36.133,-29.785,0.000
1709291502.864,-31.738,-34.668,0.000,-36.133,0.000
1709291502.867,-33.691,-20.020,0.000,-48.340,0.000
1709291502.871,-41.992,-21.973,0.000,-48.340,0.000
1709291502.875,-33.691,-28.809,0.000,-34.668,0.000
1709291502.879,-23.438,-26.855,0.000,-13.672,0.000
1709291502.883,-33.691,-38.086,0.000,-24.902,0.000
1709291502.887,-40.527,-39.551,0.000,-41.504,0.000
1709291502.891,-39.551,-42.480,0.000,-36.133,0.000
1709291502.895,-30.273,-23.438,0.000,-27.832,0.000
1709291502.899,-40.039,-8.789,0.000,-29.297,0.000
1709291502.903,-39.062,-17.578,0.000,-36.621,0.000
1709291502.906,-35.156,-29.297,0.000,-34.180,0.000
1709291502.910,-29.785,-19.043,-34.668,-32.715,0.000
1709291502.914,-19.531,-13.672,-32.227,-34.180,0.000
1709291502.918,-13.672,-31.738,-34.180,-20.020,0.000
1709291502.922,-19.043,-29.297,-35.156,-12.207,0.000
1709291502.926,-22.461,-16.602,-36.133,-41.016,0.000
1709291502.930,-30.273,-22.461,-38.574,-55.664,0.000
1709291502.934,-31.250,-36.621,-38.086,-41.992,0.000
1709291502.937,-26.855,-39.551,-38.574,-15.625,0.000
1709291502.941,-33.203,-10.742,-40.039,-20.508,0.000
1709291502.945,-40.527,-16.113,-38.086,-43.945,0.000
1709291502.949,-38.086,-36.621,-34.668,-52.734,0.000
1709291502.953,-29.297,-27.832,-31.250,-40.527,0.000
1709291502.957,-35.156,-21.973,-32.715,-31.250,0.000
1709291502.961,-32.715,-33.203,-29.297,-23.438,0.000
1709291502.965,-31.738,-39.551,-29.785,-22.461,0.000
1709291502.968,-30.762,-26.855,-30.273,-32.715,0.000
1709291502.972,-18.066,-27.344,-26.367,-25.879,0.000
1709291502.976,-22.461,-35.645,-28.809,-10.742,0.000
1709291502.980,-25.879,-40.039,-35.645,-13.672,0.000
1709291502.984,-23.926,-26.855,-35.156,-22.949,0.000
1709291502.988,-11.230,-9.277,-28.320,-34.668,0.000
1709291502.992,-17.090,-24.902,-26.855,-35.645,0.000
1709291502.996,-5.859,-43.457,-31.250,-18.555,0.000
1709291503.000,1.465,-28.320,-29.785,-5.859,0.000
1709291503.003,-15.137,-21.973,-24.902,-21.484,0.000
1709291503.007,-37.598,-34.180,-28.320,-33.691,0.000
1709291503.011,-46.387,-36.621,-34.180,-37.109,0.000
1709291503.015,-41.992,-16.602,-33.691,-26.367,0.000
1709291503.019,-40.039,-18.066,-38.574,-20.996,0.000
1709291503.023,-25.879,-37.598,-35.156,-28.809,0.000
1709291503.027,-40.527,-38.574,-38.086,-23.438,0.000
1709291503.030,-45.410,-27.832,-40.527,-41.016,0.000
1709291503.034,-28.320,-26.855,-34.180,-49.316,0.000
1709291503.038,-21.973,-41.992,-34.668,-24.902,0.000
1709291503.042,-34.668,-38.574,-37.598,-19.531,0.000
1709291503.046,-48.828,-17.578,-41.992,-26.855,0.000
1709291503.050,-46.387,-24.902,-37.598,-29.297,0.000
1709291503.054,-33.691,-36.133,-35.645,-31.738,0.000
1709291503.058,-24.902,-30.762,-37.598,-13.672,0.000
1709291503.062,-26.855,-23.926,-36.133,-11.719,0.000
1709291503.066,-29.297,-28.320,-38.574,-39.062,0.000
1709291503.070,-40.039,-43.457,-35.156,-41.992,0.000
1709291503.074,-51.270,-38.574,-31.250,-27.344,0.000
1709291503.078,-45.410,-26.367,-34.668,-19.043,0.000
1709291503.081,-36.621,-30.273,-39.062,-16.602,0.000
1709291503.085,-37.109,-42.969,-43.457,-16.602,0.000
1709291503.089,-38.574,-28.809,-45.898,-37.109,0.000
1709291503.093,-39.062,-20.996,-47.852,-54.688,0.000
1709291503.097,-44.922,-34.180,-43.945,-49.316,0.000
1709291503.101,-38.086,-36.621,-43.457,-41.504,0.000
1709291503.105,-37.109,-33.691,-50.293,-45.410,0.000
1709291503.109,-64.941,-36.621,-48.828,-65.430,0.000
1709291503.113,-63.477,-40.527,-44.922,-59.082,0.000
1709291503.117,-37.109,-35.156,-42.969,-28.809,0.000
1709291503.121,-37.598,-23.438,-41.016,-20.996,0.000
1709291503.125,-42.480,-18.066,-48.340,-31.250,0.000
1709291503.129,-37.598,-36.133,-51.270,-54.199,0.000
1709291503.132,-41.504,-53.711,-45.898,-41.992,0.000
1709291503.136,-32.227,-27.344,-45.898,-5.859,0.000
1709291503.140,-27.832,-18.066,-44.922,-2.441,0.000
1709291503.144,-33.691,-31.738,-38.574,-25.879,0.000
1709291503.148,-38.086,-30.273,-38.086,-35.156,0.000
1709291503.152,-32.227,-27.832,-40.527,-40.039,0.000
1709291503.156,-23.926,-32.715,-34.668,-26.367,0.000
1709291503.160,-20.508,-33.203,-37.109,0.000,0.000
1709291503.164,-37.598,-32.715,-41.016,-12.695,0.000
1709291503.168,-39.551,-26.855,-35.156,-30.273,0.000
1709291503.172,-20.508,-19.043,-34.668,-23.926,0.000
1709291503.176,-19.531,-41.504,-31.250,-4.395,0.000
1709291503.179,-18.066,-32.715,-29.297,12.695,0.000
1709291503.183,-18.066,-13.184,-29.785,3.418,0.000
1709291503.187,-22.461,-26.855,-27.344,-18.066,0.000
1709291503.191,0.000,-39.062,-27.832,-13.672,0.000
1709291503.195,0.000,-41.504,-33.691,-16.113,0.000
1709291503.199,0.000,-39.551,-35.156,-28.320,0.000
1709291503.203,0.000,-33.691,-29.785,-16.113,0.000
1709291503.207,0.000,-24.902,-27.344,-8.789,0.000
1709291503.211,0.000,-32.715,-30.762,-27.832,0.000
1709291503.215,0.000,-40.039,-33.691,-37.109,0.000
1709291503.218,0.000,-41.504,-34.180,-22.461,0.000
1709291503.222,0.000,-47.852,-39.062,-25.879,0.000
1709291503.226,0.000,-25.879,-47.852,-43.945,0.000
1709291503.230,0.000,-26.855,-42.969,-46.875,0.000
1709291503.234,0.000,-36.133,-37.109,-35.156,0.000
1709291503.238,-24.414,-19.531,-36.621,-26.855,0.000
1709291503.242,-31.738,-11.719,-32.227,-28.809,0.000
1709291503.246,-31.738,-23.438,-34.180,-34.180,0.000
1709291503.250,-41.016,-34.668,-35.156,-45.898,0.000
1709291503.254,-40.527,-23.438,-35.645,-35.156,0.000
1709291503.257,-30.273,-27.344,-32.715,-16.113,0.000
1709291503.261,-29.785,-37.598,-27.344,-15.137,0.000
1709291503.265,-29.785,-47.363,-32.227,-26.367,0.000
1709291503.269,-30.273,-33.203,-30.762,-32.715,0.000
1709291503.273,-23.438,-20.996,-31.250,-35.156,0.000
1709291503.277,-34.180,-36.133,-39.551,-28.320,0.000
1709291503.281,-35.156,-39.062,-35.156,-20.508,0.000
1709291503.285,-34.180,-28.320,-35.645,-35.156,0.000
1709291503.289,-42.480,-21.484,-36.133,-58.594,0.000
1709291503.292,-21.973,-29.785,-32.715,-54.688,0.000
1709291503.296,-8.301,-23.438,-28.809,-42.480,0.000
1709291503.300,-11.719,-14.648,-25.391,-24.902,0.000
1709291503.304,-30.273,-24.414,-28.809,-23.438,0.000
1709291503.308,-28.809,-37.598,-32.227,-44.434,0.000
1709291503.312,-27.344,-44.922,-37.109,-38.574,0.000
1709291503.316,-29.297,-14.648,-35.156,-22.461,0.000
1709291503.320,-14.648,-12.695,-26.367,-15.625,0.000
1709291503.324,-21.484,-31.250,-25.391,-12.207,0.000
1709291503.328,-45.898,-27.344,-27.344,-22.461,0.000
1709291503.331,-46.387,-19.043,-26.367,-29.785,0.000
1709291503.335,-35.156,-26.367,-30.762,-24.414,0.000
1709291503.339,-35.156,-49.316,-34.180,-23.438,0.000
1709291503.343,-35.645,-34.668,-30.273,-25.391,0.000
1709291503.347,-38.574,-22.461,-31.738,-33.691,0.000
1709291503.351,-28.320,-28.809,-28.809,-33.691,0.000
1709291503.355,-31.738,-34.180,-26.367,-28.320,0.000
1709291503.359,-31.250,-21.973,-25.879,-14.648,0.000
1709291503.362,-24.902,-6.836,-23.438,-15.625,0.000
1709291503.366,-41.992,-22.461,-31.250,-38.086,0.000
1709291503.370,-24.414,-26.855,-28.320,-34.180,0.000
1709291503.374,-13.184,-15.625,-22.949,-16.113,0.000
1709291503.378,-22.461,-10.254,-28.809,-15.625,0.000
1709291503.382,-15.625,-24.414,-32.227,-20.508,0.000
1709291503.386,-20.020,-34.180,-33.691,-26.367,0.000
1709291503.389,-26.367,-20.996,-34.180,-33.203,0.000
1709291503.393,-25.879,-7.324,-32.715,-25.879,0.000
1709291503.397,-29.297,-20.996,-35.156,-7.812,0.000
1709291503.401,-35.156,-45.410,-37.598,1.953,0.000
1709291503.405,-34.180,-19.043,-32.227,-25.879,0.000
1709291503.409,-35.645,-16.113,-30.762,-53.711,0.000
1709291503.413,-41.504,-34.668,-31.250,-34.668,0.000
1709291503.417,-31.250,-25.391,-37.598,-18.555,0.000
1709291503.421,-36.133,-29.785,-41.504,-15.137,0.000
1709291503.424,-59.570,-37.109,-35.156,-36.133,0.000
1709291503.428,-60.547,-32.227,-35.645,-56.152,0.000
1709291503.432,-48.828,-35.156,-41.504,-48.828,0.000
1709291503.436,-39.062,-41.504,-38.574,-32.227,0.000
1709291503.440,-29.785,-38.086,-37.109,-20.996,0.000
1709291503.444,-35.645,-43.945,-37.109,-24.902,0.000
1709291503.448,-42.480,-39.551,-38.086,-25.879,0.000
1709291503.451,-35.645,-27.344,-40.039,-35.156,0.000
1709291503.455,-25.391,-26.367,-38.574,-35.645,0.000
1709291503.459,-42.480,-49.316,-41.992,-35.156,0.000
1709291503.463,-50.781,-34.668,-41.504,-60.547,0.000
1709291503.467,-47.363,-11.719,-33.691,-64.453,0.000
1709291503.471,-46.387,-25.879,-36.133,-48.340,0.000
1709291503.475,-39.062,-33.203,-37.598,-40.039,0.000
1709291503.479,-42.480,-31.250,-34.668,-25.879,0.000
1709291503.483,-50.781,-30.762,-31.738,-17.090,0.000
1709291503.487,-59.082,-41.504,-33.691,-28.320,0.000
1709291503.491,-53.711,-44.434,-36.133,-30.273,0.000
1709291503.495,-43.945,-31.738,-31.738,-32.227,0.000
1709291503.499,-49.805,-23.926,-34.180,-26.855,0.000
1709291503.502,-44.922,-34.180,-36.621,-19.043,0.000
1709291503.506,-45.410,-40.527,-35.156,-31.738,0.000
1709291503.510,-55.176,-28.809,-35.645,-37.598,0.000
1709291503.514,-40.527,-28.320,-36.133,-35.156,0.000
1709291503.518,-38.086,-32.715,-36.133,-34.180,0.000
1709291503.522,-46.387,-30.762,-40.039,-31.738,0.000
1709291503.526,-49.316,-30.762,-38.574,-39.551,0.000
1709291503.530,-48.340,-39.551,-35.645,-51.270,0.000
1709291503.534,-45.410,-41.504,-32.715,-45.898,0.000
1709291503.538,-39.551,-37.109,-25.391,-34.668,0.000
1709291503.542,-37.109,-35.156,-26.367,-32.715,0.000
1709291503.546,-32.227,-29.297,-29.785,-43.945,0.000
1709291503.550,-27.832,-46.387,-27.832,-39.551,0.000
1709291503.553,-18.555,-28.809,-26.367,-31.250,0.000
1709291503.557,-12.695,-4.883,-28.809,-15.625,0.000
1709291503.561,-26.855,-20.508,-38.086,-5.371,0.000
1709291503.565,0.000,-30.762,0.000,-41.504,0.000
1709291503.569,0.000,-25.391,0.000,-48.340,0.000
1709291503.573,0.000,-24.414,0.000,-34.668,0.000
1709291503.577,0.000,-33.203,0.000,-29.297,0.000
1709291503.581,0.000,-34.180,0.000,-23.438,0.000
1709291503.585,0.000,-34.668,0.000,-31.250,0.000
1709291503.589,0.000,-35.156,0.000,-43.945,0.000
1709291503.593,0.000,-34.180,0.000,-43.457,0.000
1709291503.597,0.000,-41.504,0.000,-14.160,0.000
1709291503.600,0.000,-23.438,0.000,-16.602,0.000
1709291503.604,0.000,-26.367,0.000,-44.922,0.000
1709291503.608,0.000,-40.527,0.000,-44.922,0.000
1709291503.612,-28.809,-30.762,-42.480,-34.668,0.000
1709291503.616,-19.043,-20.508,-32.227,-8.789,0.000
1709291503.620,-20.996,-24.902,-32.227,-5.371,0.000
1709291503.624,-23.926,-29.785,-35.645,-24.902,0.000
1709291503.628,-22.949,-20.508,-35.156,-37.598,0.000
1709291503.632,-17.090,-20.996,-33.203,-36.133,0.000
1709291503.636,-3.906,-29.785,-40.039,-18.555,0.000
1709291503.639,-12.207,-31.738,-48.340,-8.789,0.000
1709291503.643,-29.297,-17.578,-45.410,-17.090,0.000
1709291503.647,-29.297,-13.672,-41.992,-43.945,0.000
1709291503.651,-32.227,-30.762,-49.316,-52.734,0.000
1709291503.655,-22.949,-30.762,-44.434,-38.086,0.000
1709291503.659,-10.742,-18.066,-32.715,-29.785,0.000
1709291503.663,-17.090,-21.484,-34.180,-27.832,0.000
1709291503.667,-32.227,-34.180,-34.668,-33.691,0.000
1709291503.671,-43.945,-35.156,-40.039,-43.457,0.000
1709291503.674,-38.574,-33.691,-42.969,-39.062,0.000
1709291503.678,-24.902,-29.785,-43.945,-21.973,0.000
1709291503.682,-22.949,-32.227,-44.434,-3.418,0.000
1709291503.686,-44.434,-45.898,-40.527,-19.043,0.000
1709291503.690,-48.340,-27.832,-41.016,-44.922,0.000
1709291503.694,-35.645,-26.855,-42.969,-41.504,0.000
1709291503.698,-22.949,-34.180,-43.945,-31.738,0.000
1709291503.702,-12.207,-30.762,-43.945,-25.391,0.000
1709291503.705,-17.578,-26.855,-45.410,-39.062,0.000
1709291503.709,-19.043,-28.320,-43.457,-55.176,0.000
1709291503.713,-19.043,-31.738,-37.109,-51.270,0.000
1709291503.717,-23.438,-21.973,-36.133,-39.551,0.000
1709291503.721,-20.020,-22.949,-38.086,-34.668,0.000
1709291503.725,-27.344,-31.738,-35.645,-46.387,0.000
1709291503.729,-33.691,-41.992,-30.762,-51.758,0.000
1709291503.733,-22.461,-30.273,-26.855,-30.273,0.000
1709291503.737,-19.531,-14.160,-24.414,-23.926,0.000
1709291503.741,-28.809,-20.996,-31.738,-20.508,0.000
1709291503.744,-32.227,-29.785,-37.598,-20.996,0.000
1709291503.748,-31.738,-29.297,-34.668,-39.551,0.000
1709291503.752,-29.785,-26.367,-32.715,-39.062,0.000
1709291503.756,-31.250,-33.691,-34.668,-25.879,0.000
1709291503.760,-42.969,-41.504,-34.668,-15.137,0.000
1709291503.764,-53.711,-35.156,-33.691,-22.461,0.000
1709291503.768,-51.270,-27.832,-30.762,-41.504,0.000
1709291503.771,-42.969,-47.852,-28.809,-45.410,0.000
1709291503.775,-36.133,-55.176,-36.133,-24.902,0.000
1709291503.779,-27.832,-12.695,-34.668,-24.414,0.000
1709291503.783,-20.996,-7.812,-25.879,-32.227,0.000
1709291503.787,-32.227,-29.785,-27.344,-41.016,0.000
1709291503.791,-31.250,-29.297,-30.273,-47.363,0.000
1709291503.795,-19.043,-25.391,-27.832,-14.648,0.000
1709291503.799,-12.695,-22.949,-30.273,2.930,0.000
1709291503.803,-11.719,-29.785,-30.762,-4.395,0.000
1709291503.807,-23.926,-38.574,-32.227,-20.020,0.000
1709291503.811,-37.598,-32.715,-35.156,-42.969,0.000
1709291503.815,-31.250,-30.273,-35.156,-38.086,0.000
1709291503.819,-12.695,-50.293,-36.133,-15.137,0.000
1709291503.823,-9.277,-39.062,-33.691,-18.066,0.000
1709291503.827,-31.738,-15.137,-33.691,-46.875,0.000
1709291503.830,-36.621,-25.879,-39.551,-55.176,0.000
1709291503.834,-31.738,-46.387,-41.992,-34.180,0.000
1709291503.838,-40.527,-30.762,-38.086,-14.648,0.000
1709291503.842,-46.875,-22.949,-33.691,-20.508,0.000
1709291503.846,-31.250,-37.109,-28.809,-35.645,0.000
1709291503.850,-28.809,-51.758,-35.645,-43.457,0.000
1709291503.854,-29.297,-41.504,-42.480,-31.738,0.000
1709291503.858,-39.062,-20.020,-36.133,-18.555,0.000
1709291503.862,-47.852,-23.438,-38.086,-24.902,0.000
1709291503.866,-36.621,-23.438,-43.457,-43.945,0.000
1709291503.870,-35.156,-14.160,-38.574,-38.574,0.000
1709291503.874,-38.574,-10.254,-35.645,-19.531,0.000
1709291503.878,-28.809,-25.391,-40.527,-15.625,0.000
1709291503.882,-24.414,-40.527,-49.316,-26.855,0.000
1709291503.885,-30.762,-16.602,-45.898,-41.504,0.000
1709291503.889,-41.016,-14.648,-37.109,-42.480,0.000
1709291503.893,-36.621,-25.391,-37.109,-40.527,0.000
1709291503.897,-16.113,-18.555,-39.551,-23.926,0.000
1709291503.901,-14.648,-11.719,-39.062,-18.066,0.000
1709291503.905,-28.809,-15.625,-34.180,-36.621,0.000
1709291503.909,-30.762,-31.738,-29.785,-39.062,0.000
1709291503.913,-20.508,-34.668,-36.133,-33.691,0.000
1709291503.917,-12.695,-28.809,-39.062,-23.926,0.000
1709291503.921,-26.367,-26.367,-35.156,-21.973,0.000
1709291503.925,-45.410,-48.828,-40.039,-30.762,0.000
1709291503.929,-36.133,-35.645,-41.016,-39.062,0.000
1709291503.932,-15.625,-6.348,-38.574,-44.434,0.000
1709291503.936,-20.020,-23.438,-42.480,-33.691,0.000
1709291503.940,-33.691,-25.391,-35.156,-10.254,0.000
1709291503.944,-28.809,-15.625,-24.414,-12.207,0.000
1709291503.948,-19.531,-24.414,-21.973,-35.645,0.000
1709291503.952,-14.648,-33.203,-25.879,-33.691,0.000
1709291503.956,-35.156,-34.668,-26.367,-7.324,0.000
1709291503.960,-36.133,-37.598,-30.273,1.953,0.000
1709291503.964,-16.113,-34.180,-27.832,-16.602,0.000
1709291503.968,-22.461,-30.273,-24.902,-32.227,0.000
1709291503.972,-31.738,-43.945,-30.762,-36.621,0.000
1709291503.975,-40.039,-27.344,-31.738,-29.785,0.000
1709291503.979,-36.133,-21.484,-29.785,-6.348,0.000
1709291503.983,-31.250,-30.273,-27.344,-11.230,0.000
1709291503.987,-37.109,-27.832,-32.715,-32.227,0.000
1709291503.991,-28.320,-25.391,-35.156,-33.203,0.000
1709291503.995,-24.902,-29.785,-31.738,-23.438,0.000
1709291503.999,-10.254,-32.715,-34.180,-10.742,0.000
1709291504.003,-6.836,-26.855,-33.203,-14.160,0.000
1709291504.007,-36.621,-28.809,-21.484,-23.926,0.000
1709291504.011,-41.504,-32.227,-20.996,-37.109,0.000
1709291504.014,-37.109,-36.621,-30.762,-35.645,0.000
1709291504.018,-33.691,-24.414,-34.668,-25.391,0.000
1709291504.022,-26.855,-8.789,-38.086,-34.180,0.000
1709291504.026,-31.738,-22.949,-39.062,-39.551,0.000
1709291504.030,-46.875,-33.203,-42.969,-47.852,0.000
1709291504.034,-37.109,-23.926,-43.457,-52.246,0.000
1709291504.038,-11.230,-28.809,-39.062,-29.297,0.000
1709291504.042,-15.137,-34.668,-40.039,-15.137,0.000
1709291504.046,-42.969,-23.926,-42.969,-33.691,0.000
1709291504.049,-47.363,-27.344,-41.016,-41.016,0.000
1709291504.053,-30.762,-29.785,-38.574,-26.367,0.000
1709291504.057,-9.766,-32.715,-39.062,-12.695,0.000
1709291504.061,-19.043,-51.758,-41.016,-13.672,0.000
1709291504.065,-41.992,-28.320,-44.434,-35.156,0.000
1709291504.069,-44.922,-16.113,-45.410,-51.270,0.000
1709291504.073,-35.156,-32.227,-45.898,-46.875,0.000
1709291504.077,-27.344,-30.273,-45.898,-42.480,0.000
1709291504.080,-32.227,-23.438,-41.504,-34.668,0.000
1709291504.084,-38.574,-27.344,-41.992,-29.785,0.000
1709291504.088,-34.180,-36.621,-41.504,-41.504,0.000
1709291504.092,-40.527,-33.691,-38.574,-35.156,0.000
1709291504.096,-33.691,-26.855,-40.527,-25.391,0.000
1709291504.100,-32.227,-42.480,-45.410,-26.855,0.000
1709291504.104,-49.316,-55.664,-42.969,-25.879,0.000
1709291504.108,-45.410,-46.387,-33.203,-32.715,0.000
1709291504.112,-37.109,-22.461,-30.273,-26.367,0.000
1709291504.116,-34.668,-23.438,-35.156,-27.344,0.000
1709291504.120,-41.992,-32.715,-37.109,-36.133,0.000
1709291504.123,-54.199,-21.484,-33.691,-24.414,0.000
1709291504.127,-54.199,-17.578,-37.109,-33.203,0.000
1709291504.131,-51.758,-27.344,-36.133,-43.945,0.000
1709291504.135,-42.969,-40.527,-31.738,-24.902,0.000
1709291504.139,-50.293,-27.832,-36.133,-22.949,0.000
1709291504.143,-58.594,-18.555,-35.156,-36.621,0.000
1709291504.146,-51.758,-35.156,-34.668,-47.363,0.000
1709291504.150,-52.246,-53.223,-42.969,-51.270,0.000
1709291504.154,-36.621,-22.949,-41.504,-42.480,0.000
1709291504.158,-30.762,-10.742,-38.086,-38.086,0.000
1709291504.162,-32.715,-27.344,-37.598,-29.785,0.000
1709291504.166,-29.785,-19.043,-34.668,-29.297,0.000
1709291504.170,-34.180,-20.996,-37.109,-49.316,0.000
1709291504.173,-24.414,-31.250,-41.504,-40.527,0.000
1709291504.177,-20.020,-31.738,-35.156,-9.766,0.000
1709291504.181,-20.996,-30.762,-32.715,-12.207,0.000
1709291504.185,-33.691,-20.508,-38.086,-35.645,0.000
1709291504.189,-43.457,-21.973,-34.668,-41.992,0.000
1709291504.193,-22.461,-43.457,-37.598,-33.203,0.000
1709291504.197,-13.672,-41.016,-36.621,-15.625,0.000
1709291504.201,-41.992,-20.508,-32.715,-19.043,0.000
1709291504.205,-63.477,-27.832,-33.691,-39.062,0.000
1709291504.209,-51.758,-45.898,-30.762,-48.340,0.000
1709291504.212,-25.879,-25.391,-23.438,-30.762,0.000
1709291504.216,-24.414,-26.367,-32.715,-14.648,0.000
1709291504.221,-34.668,-42.969,-37.109,-22.461,0.000
1709291504.225,-29.297,-31.250,-39.062,-33.691,0.000
1709291504.228,-31.738,-28.320,-44.434,-36.621,0.000
1709291504.232,-32.227,-20.020,-35.645,-40.527,0.000
1709291504.236,-31.738,-20.508,-35.645,-26.367,0.000
1709291504.240,-42.969,-35.156,-39.062,-10.254,0.000
1709291504.244,-37.109,-29.785,-39.062,-28.320,0.000
1709291504.248,-41.504,-22.461,-35.645,-47.852,0.000
1709291504.252,-43.457,-39.062,-35.156,-48.828,0.000
1709291504.256,-33.203,-48.828,-35.645,-35.645,0.000
1709291504.260,-23.926,-21.973,-33.203,-23.438,0.000
1709291504.264,-21.484,-16.602,-32.227,-23.926,0.000
1709291504.269,-22.949,-23.926,-36.133,-26.367,0.000
1709291504.272,-30.762,-26.855,-36.133,-24.902,0.000
1709291504.276,-20.996,-14.160,-31.738,-9.277,0.000
1709291504.280,-7.812,-12.695,-29.785,-7.812,0.000
1709291504.284,-13.672,-20.508,-30.762,-13.672,0.000
1709291504.288,-17.578,-22.949,-35.645,-16.113,0.000
1709291504.292,-12.207,-16.602,-34.180,-31.738,0.000
1709291504.296,-10.742,-15.625,-33.203,-25.879,0.000
1709291504.300,-19.531,-41.992,-33.691,-11.719,0.000
1709291504.304,-16.602,-26.367,-31.738,-14.648,0.000
1709291504.308,-20.996,-3.906,-31.250,-30.273,0.000
1709291504.311,-14.648,-23.926,-28.320,-26.367,0.000
1709291504.315,-2.930,-35.156,-23.438,3.906,0.000
1709291504.319,-9.766,-26.367,-22.949,8.789,0.000
1709291504.323,-16.113,-20.996,-30.762,-10.742,0.000
1709291504.327,-14.648,-15.625,-38.574,-23.926,0.000
1709291504.331,-26.367,-20.508,-32.227,-17.090,0.000
1709291504.335,-28.809,-25.879,-31.738,-18.555,0.000
1709291504.339,-1.465,-22.949,-36.133,-5.859,0.000
1709291504.343,7.812,-19.531,-33.203,6.836,0.000
1709291504.347,-11.719,-19.043,-30.762,-19.531,0.000
1709291504.351,-34.180,-18.555,-35.156,-41.016,0.000
1709291504.354,-27.832,-18.066,-34.668,-36.133,0.000
1709291504.358,-10.742,-32.715,-32.715,-21.484,0.000
1709291504.362,-14.648,-38.086,-39.551,-12.695,0.000
1709291504.366,-24.414,-7.812,-32.715,-32.715,0.000
1709291504.370,-31.250,-9.766,-22.461,-43.945,0.000
1709291504.374,-37.109,-34.180,-31.738,-33.203,0.000
1709291504.378,-29.785,-29.297,-40.527,-25.391,0.000
1709291504.382,-29.785,-30.273,-38.086,-32.227,0.000
1709291504.386,-39.062,-33.691,-29.297,-47.852,0.000
1709291504.390,-42.480,-49.805,-37.598,-46.875,0.000
1709291504.393,-42.969,-42.969,-41.992,-35.645,0.000
1709291504.397,-24.902,-11.230,-32.227,-28.320,0.000
1709291504.401,-15.625,-21.973,-29.785,-26.855,0.000
1709291504.405,-27.832,-33.203,-30.762,-30.762,0.000
1709291504.409,-26.367,-20.508,-29.297,-37.598,0.000
1709291504.413,-12.207,-17.090,-26.855,-33.691,0.000
1709291504.417,-7.812,-33.691,-25.391,-5.859,0.000
1709291504.421,-1.953,-29.785,-27.832,4.883,0.000
1709291504.425,-13.672,-20.508,-39.551,-13.672,0.000
1709291504.428,-19.531,-26.367,-36.133,-21.484,0.000
1709291504.432,-22.461,-30.273,-26.855,-12.207,0.000
1709291504.436,-20.020,-42.480,-27.832,-1.953,0.000
1709291504.440,-15.137,-28.809,-32.227,-10.742,0.000
1709291504.444,-23.926,-22.461,-35.156,-41.016,0.000
1709291504.448,-31.738,-30.273,-29.297,-52.734,0.000
1709291504.452,-36.621,-34.668,-27.832,-39.551,0.000
1709291504.456,-34.668,-24.414,-34.180,-29.785,0.000
1709291504.459,-21.973,-11.230,-33.203,-14.160,0.000
1709291504.463,-20.020,-24.902,-30.762,-12.695,0.000
1709291504.467,-31.250,-22.461,-30.762,-46.387,0.000
1709291504.471,-26.855,-13.184,-29.785,-57.129,0.000
1709291504.475,-18.066,-32.715,-38.574,-30.762,0.000
1709291504.479,-33.691,-44.922,-34.668,-8.789,0.000
1709291504.483,-26.855,-26.367,-28.809,-18.066,0.000
1709291504.487,-32.227,-12.695,-36.133,-41.992,0.000
1709291504.491,-47.363,-22.461,-42.480,-52.246,0.000
1709291504.495,-43.457,-33.691,-41.504,-53.711,0.000
1709291504.498,-27.832,-20.996,-35.645,-37.598,0.000
1709291504.502,-30.762,-11.719,-36.621,-31.250,0.000
1709291504.506,-43.457,-25.879,-41.016,-51.270,0.000
1709291504.510,-36.621,-33.203,-36.621,-46.387,0.000
1709291504.514,-36.133,-33.691,-32.227,-30.273,0.000
1709291504.518,-36.621,-31.250,-37.598,-21.973,0.000
1709291504.522,-29.785,-38.086,-39.062,-27.832,0.000
1709291504.525,-29.785,-60.547,-38.574,-37.109,0.000
1709291504.529,-30.762,-33.203,-38.086,-44.922,0.000
1709291504.533,-37.109,-15.625,-33.203,-34.668,0.000
1709291504.537,-36.621,-30.273,-30.762,-17.578,0.000
1709291504.541,-40.039,-32.227,-36.133,-21.484,0.000
1709291504.545,-40.039,-26.855,-44.922,-52.246,0.000
1709291504.549,-43.457,-27.832,-41.992,-59.082,0.000
1709291504.553,-48.828,-28.320,-34.668,-37.109,0.000
1709291504.557,-33.691,-22.461,-33.691,-22.461,0.000
1709291504.561,-18.555,-19.531,-40.039,-23.438,0.000
1709291504.565,-27.344,-28.320,-42.969,-29.785,0.000
1709291504.569,-40.527,-40.527,-35.645,-36.133,0.000
1709291504.573,-49.805,-31.738,-29.297,-36.621,0.000
1709291504.577,-40.527,-15.625,-35.156,-33.203,0.000
1709291504.581,-30.273,-22.949,-35.645,-23.926,0.000
1709291504.584,-36.133,-45.898,-41.504,-26.367,0.000
1709291504.588,-38.086,-34.668,-42.969,-41.016,0.000
1709291504.592,-32.715,-19.043,-33.691,-45.410,0.000
1709291504.596,-52.246,-28.320,-41.016,-31.250,0.000
1709291504.600,-55.176,-42.969,-44.922,-28.809,0.000
1709291504.604,-32.227,-37.109,-43.457,-46.387,0.000
1709291504.608,-27.344,-22.949,-40.527,-51.270,0.000
1709291504.612,-33.203,-28.809,-33.691,-44.434,0.000
1709291504.616,-31.738,-30.273,-33.691,-22.461,0.000
1709291504.620,-42.480,-33.203,-38.574,-24.902,0.000
1709291504.624,-49.805,-37.109,-37.598,-34.668,0.000
1709291504.628,-53.711,-36.621,-36.621,-32.715,0.000
1709291504.632,-62.500,-45.410,-38.574,-38.574,0.000
1709291504.635,-50.293,-20.996,-41.504,-46.875,0.000
1709291504.639,-44.922,-20.508,-41.016,-28.809,0.000
1709291504.643,-41.504,-43.457,-34.180,-25.879,0.000
1709291504.647,-32.715,-32.227,-31.738,-38.574,0.000
1709291504.651,-47.852,-25.391,-41.016,-47.852,0.000
1709291504.655,-51.270,-33.691,-41.016,-48.340,0.000
1709291504.659,-41.992,-44.434,-39.551,-33.203,0.000
1709291504.663,-50.293,-44.922,-40.527,-39.062,0.000
1709291504.667,-49.316,-38.086,-40.039,-46.875,0.000
1709291504.671,-44.922,-24.902,-43.457,-44.434,0.000
1709291504.675,-43.945,-46.875,-46.875,-41.016,0.000
1709291504.679,-35.645,-42.480,-42.969,-16.602,0.000
1709291504.682,-39.062,-19.531,-43.457,-16.602,0.000
1709291504.686,-42.969,-34.668,-45.410,-33.691,0.000
1709291504.690,-31.250,-37.598,-43.945,-39.551,0.000
1709291504.694,-25.391,-23.438,-41.016,-22.949,0.000
1709291504.698,-20.508,-20.020,-28.320,-27.832,0.000
1709291504.702,-27.344,-21.484,-24.902,-22.949,0.000
1709291504.706,-40.527,-24.414,-29.785,-22.461,0.000
1709291504.710,-37.109,-32.227,-32.715,-26.855,0.000
1709291504.714,-29.297,-23.438,-35.156,-22.461,0.000
1709291504.718,-31.738,-28.320,-37.109,-17.090,0.000
1709291504.722,-38.086,-45.898,-34.180,-7.812,0.000
1709291504.726,-37.109,-20.996,-32.227,-25.391,0.000
1709291504.729,-38.086,-18.066,-34.668,-42.480,0.000
1709291504.733,-42.969,-32.715,-31.738,-31.250,0.000
1709291504.737,-40.039,-37.109,-34.668,-29.785,0.000
1709291504.741,-34.668,-26.855,-31.738,-34.180,0.000
1709291504.745,-39.551,-29.297,-28.320,-26.855,0.000
1709291504.749,-35.645,-37.109,-35.156,-34.668,0.000
1709291504.753,-28.320,-29.785,-36.133,-34.668,0.000
1709291504.757,-31.250,-25.391,-35.645,-25.879,0.000
1709291504.761,-31.738,-30.273,-36.621,-12.695,0.000
1709291504.765,-27.344,-45.898,-41.992,-14.160,0.000
1709291504.768,-37.598,-35.645,-43.457,-37.598,0.000
1709291504.772,-25.879,-11.719,-32.227,-44.922,0.000
1709291504.776,-15.625,-21.973,-27.832,-21.973,0.000
1709291504.780,-21.484,-28.809,-28.320,-8.789,0.000
1709291504.784,0.000,-22.461,-26.855,-11.719,0.000
1709291504.788,0.000,-25.391,-26.367,-19.043,0.000
1709291504.792,0.000,-25.391,-31.738,-18.066,0.000
1709291504.796,0.000,-20.996,-36.133,-25.391,0.000
1709291504.800,0.000,-16.113,-30.762,-26.367,0.000
1709291504.803,0.000,-27.832,-36.133,-33.691,0.000
1709291504.807,0.000,-44.434,-34.180,-38.086,0.000
1709291504.811,0.000,-62.012,-28.320,-7.812,0.000
1709291504.815,0.000,-33.691,-34.180,-9.766,0.000
1709291504.819,0.000,-18.066,-37.598,-24.902,0.000
1709291504.823,0.000,-35.645,-33.691,-13.672,0.000
1709291504.827,0.000,-28.809,-36.133,-21.973,0.000
1709291504.830,-34.180,-14.648,-35.645,-41.504,0.000
1709291504.834,-34.180,-20.020,-34.668,-38.574,0.000
1709291504.838,-32.227,-29.785,-32.227,-18.555,0.000
1709291504.842,-32.227,-27.832,-29.297,-20.508,0.000
1709291504.846,-28.320,-36.621,-28.320,-32.715,0.000
1709291504.850,-26.367,-39.062,-26.855,-31.250,0.000
1709291504.854,-29.297,-40.527,-33.203,-22.461,0.000
1709291504.858,-22.949,-29.785,-37.109,-12.207,0.000
1709291504.862,-11.719,-4.883,-35.156,-8.789,0.000
1709291504.866,-15.625,-16.602,-37.109,-25.391,0.000
1709291504.870,-26.855,-36.133,-35.156,-51.758,0.000
1709291504.873,-24.414,-20.020,-35.645,-32.227,0.000
1709291504.877,-26.855,-17.090,-35.645,-9.766,0.000
1709291504.881,-25.391,-36.621,-35.645,-17.578,0.000
1709291504.885,-28.320,-33.203,-36.621,-30.273,0.000
1709291504.889,-29.297,-17.090,-34.180,-42.480,0.000
1709291504.893,-12.207,-19.043,-37.598,-36.621,0.000
1709291504.897,-20.508,-41.016,-38.574,-37.598,0.000
1709291504.900,-21.973,-58.105,-37.109,-23.438,0.000
1709291504.904,-21.484,-35.645,-37.109,-20.020,0.000
1709291504.908,-50.781,-32.715,-38.086,-37.598,0.000
1709291504.912,-48.828,-35.645,-43.457,-35.645,0.000
1709291504.916,-31.738,-25.391,-43.945,-19.531,0.000
1709291504.920,-28.809,-25.879,-39.551,-22.461,0.000
