timestamps,TP9,AF7,AF8,TP10,Right AUX
1709200925.451,-24.902,-29.297,-40.527,-22.461,0.000
1709200925.455,-35.156,-26.855,-37.598,-21.484,0.000
1709200925.459,-44.434,-36.133,-33.691,-27.344,0.000
1709200925.463,-36.621,-34.180,-39.062,-29.785,0.000
1709200925.467,-25.391,-24.414,-32.227,-26.367,0.000
1709200925.471,-29.297,-29.297,-28.320,-31.738,0.000
1709200925.475,-52.246,-46.875,-38.086,-33.691,0.000
1709200925.478,-57.617,-41.992,-41.504,-38.574,0.000
1709200925.482,-44.434,-34.668,-39.551,-42.480,0.000
1709200925.486,-33.203,-34.668,-35.156,-35.645,0.000
1709200925.490,-34.668,-31.250,-33.203,-44.434,0.000
1709200925.494,-36.621,-37.598,-31.250,-44.434,0.000
1709200925.498,-39.551,-40.527,-30.762,-31.250,0.000
1709200925.502,-28.809,-35.645,-29.785,-21.484,0.000
1709200925.506,-13.672,-33.203,-30.273,-19.531,0.000
1709200925.510,-22.949,-40.039,-36.133,-34.180,0.000
1709200925.514,-31.738,-39.062,-34.180,-26.855,0.000
1709200925.518,-29.785,-37.598,-34.180,-19.531,0.000
1709200925.521,-23.438,-33.203,-29.297,-20.020,0.000
1709200925.525,-21.973,-27.832,-27.344,-16.113,0.000
1709200925.529,-26.855,-36.621,-28.809,-19.531,0.000
1709200925.533,-32.715,-43.945,-29.297,-26.855,0.000
1709200925.537,-39.551,-40.039,-29.297,-22.461,0.000
1709200925.541,-32.227,-39.062,-24.902,-23.926,0.000
1709200925.545,-26.367,-37.109,-28.809,-36.621,0.000
1709200925.549,-37.598,-31.250,-31.738,-41.504,0.000
1709200925.553,-42.480,-28.320,-29.297,-42.480,0.000
1709200925.557,-39.551,-34.668,-34.180,-41.504,0.000
1709200925.561,-36.621,-39.551,-35.645,-39.551,0.000
1709200925.564,-32.715,-36.133,-39.551,-41.992,0.000
1709200925.568,-32.227,-24.414,-41.504,-52.734,0.000
1709200925.572,-43.457,-25.879,-44.922,-59.570,0.000
1709200925.576,-52.734,-46.387,-44.434,-54.688,0.000
1709200925.580,-41.992,-48.828,-33.691,-49.316,0.000
1709200925.584,-30.762,-28.320,-35.645,-50.293,0.000
1709200925.588,-30.762,-35.645,-40.527,-53.223,0.000
1709200925.592,0.000,-42.969,-33.203,-48.828,0.000
1709200925.596,0.000,-31.738,-36.133,-46.387,0.000
1709200925.600,0.000,-32.715,-37.598,-39.551,0.000
1709200925.604,0.000,-39.551,-39.551,-38.574,0.000
1709200925.607,0.000,-44.922,-42.480,-47.363,0.000
1709200925.611,0.000,-44.922,-38.086,-52.734,0.000
1709200925.615,0.000,-39.551,-37.598,-50.293,0.000
1709200925.619,0.000,-35.645,-37.598,-43.457,0.000
1709200925.623,0.000,-31.250,-33.203,-31.250,0.000
1709200925.627,0.000,-27.344,-36.133,-32.227,0.000
1709200925.631,0.000,-38.086,-35.156,-42.480,0.000
1709200925.635,0.000,-51.270,-34.180,-44.434,0.000
1709200925.639,-53.711,-36.133,-39.551,-41.992,0.000
1709200925.643,-45.410,-25.391,-41.016,-40.039,0.000
1709200925.647,-40.527,-27.344,-39.551,-41.016,0.000
1709200925.650,-42.480,-38.086,-36.133,-41.016,0.000
1709200925.654,-42.480,-39.551,-34.668,-26.367,0.000
1709200925.658,-41.504,-30.762,-37.598,-18.555,0.000
1709200925.662,-41.992,-35.156,-42.969,-28.809,0.000
1709200925.666,-40.039,-41.992,-48.340,-32.715,0.000
1709200925.670,-45.410,-45.410,-46.875,-31.250,0.000
1709200925.674,-48.340,-31.250,-43.945,-34.180,0.000
1709200925.678,-46.387,-30.273,-41.504,-35.645,0.000
1709200925.682,-35.156,-37.598,-39.062,-30.762,0.000
1709200925.686,-26.367,-38.574,-41.504,-33.203,0.000
1709200925.689,-32.227,-39.062,-41.016,-40.527,0.000
1709200925.693,-36.133,-35.645,-31.738,-32.715,0.000
1709200925.697,-38.086,-33.203,-28.809,-21.484,0.000
1709200925.701,-42.480,-38.086,-38.086,-30.762,0.000
1709200925.705,-39.551,-41.992,-36.133,-30.762,0.000
1709200925.709,-41.016,-36.621,-35.645,-34.180,0.000
1709200925.713,-40.527,-42.969,-39.551,-36.621,0.000
1709200925.717,-37.109,-44.434,-36.133,-34.668,0.000
1709200925.721,-36.133,-33.203,-42.480,-41.016,0.000
1709200925.725,-30.273,-37.598,-39.551,-31.738,0.000
1709200925.729,-32.715,-45.410,-37.109,-32.227,0.000
1709200925.732,-41.992,-48.340,-45.898,-38.574,0.000
1709200925.736,-41.016,-45.410,-43.457,-37.109,0.000
1709200925.740,-44.922,-46.875,-37.109,-36.133,0.000
1709200925.744,-46.387,-42.480,-35.645,-32.715,0.000
1709200925.748,-43.457,-43.945,-40.527,-35.156,0.000
1709200925.752,-53.223,-50.293,-46.875,-42.969,0.000
1709200925.756,-59.570,-48.340,-37.598,-43.457,0.000
1709200925.760,-55.176,-47.852,-29.785,-30.273,0.000
1709200925.764,-44.922,-34.180,-34.668,-27.832,0.000
1709200925.768,-46.875,-29.785,-40.527,-41.992,0.000
1709200925.771,-48.828,-43.457,-39.062,-42.480,0.000
1709200925.775,-54.199,-49.805,-29.785,-31.738,0.000
1709200925.779,-60.059,-45.410,-31.250,-28.320,0.000
1709200925.783,-42.969,-40.039,-31.738,-20.508,0.000
1709200925.787,-35.156,-44.434,-30.273,-20.996,0.000
1709200925.791,-40.527,-41.016,-36.133,-25.879,0.000
1709200925.795,-40.527,-40.527,-34.180,-19.531,0.000
1709200925.799,-43.457,-53.223,-30.762,-26.367,0.000
1709200925.803,-36.133,-44.434,-31.738,-21.484,0.000
1709200925.807,-29.785,-32.227,-35.645,-12.695,0.000
1709200925.811,-29.297,-23.926,-33.691,-24.414,0.000
1709200925.814,-24.414,-28.809,-30.273,-28.809,0.000
1709200925.818,-27.344,-35.156,-32.715,-23.926,0.000
1709200925.822,-25.879,-34.180,-35.156,-19.043,0.000
1709200925.826,-23.438,-32.715,-41.992,-27.344,0.000
1709200925.830,-29.297,-38.086,-47.363,-43.945,0.000
1709200925.834,-42.969,-41.992,-47.363,-51.758,0.000
1709200925.838,-50.293,-31.250,-44.922,-50.781,0.000
1709200925.842,-45.410,-37.109,-51.270,-42.480,0.000
1709200925.846,-33.691,-51.758,-46.387,-26.855,0.000
1709200925.850,-32.715,-45.898,-33.691,-25.391,0.000
1709200925.854,-45.410,-33.203,-36.621,-32.715,0.000
1709200925.857,-45.410,-32.715,-38.086,-33.203,0.000
1709200925.861,-44.922,-43.945,-38.574,-31.250,0.000
1709200925.865,-42.969,-44.922,-42.969,-26.855,0.000
1709200925.869,-31.738,-40.527,-41.504,-20.020,0.000
1709200925.873,-29.785,-46.875,-35.156,-20.508,0.000
1709200925.877,-38.574,-43.945,-31.738,-22.461,0.000
1709200925.881,-31.738,-35.156,-32.715,-11.719,0.000
1709200925.885,-24.902,-37.109,-37.598,-16.113,0.000
1709200925.889,-34.180,-44.922,-32.715,-34.180,0.000
1709200925.893,-41.016,-57.617,-34.668,-43.945,0.000
1709200925.897,-40.527,-60.547,-44.922,-43.457,0.000
1709200925.900,-45.898,-54.688,-43.457,-39.551,0.000
1709200925.904,-42.480,-54.688,-32.227,-29.297,0.000
1709200925.908,-31.250,-61.523,-22.949,-4.883,0.000
1709200925.912,-36.621,-62.988,-22.461,-5.371,0.000
1709200925.916,-42.480,-67.871,-21.484,-16.602,0.000
1709200925.920,-35.156,-71.289,-13.672,-8.301,0.000
1709200925.924,-28.809,-73.730,-12.207,-0.977,0.000
1709200925.928,-23.438,-82.031,-9.766,9.766,0.000
1709200925.932,-30.762,-93.750,-12.207,6.348,0.000
1709200925.936,-38.574,-107.910,-13.184,8.301,0.000
1709200925.940,-33.203,-109.375,-3.906,16.113,0.000
1709200925.943,-32.227,-114.746,-5.371,7.324,0.000
1709200925.947,-35.156,-120.117,-11.719,4.883,0.000
1709200925.951,-32.715,-125.977,-11.719,11.230,0.000
1709200925.955,-32.227,-129.883,-6.836,24.414,0.000
1709200925.959,-45.898,-124.023,-5.859,17.090,0.000
1709200925.963,-36.133,-125.977,-7.324,20.020,0.000
1709200925.967,-22.461,-128.906,-11.230,35.156,0.000
1709200925.971,-28.320,-130.371,-12.695,39.062,0.000
1709200925.975,-30.762,-139.648,-13.672,34.180,0.000
1709200925.979,-28.809,-145.508,-13.184,40.527,0.000
1709200925.982,-19.043,-141.602,-6.836,51.758,0.000
1709200925.986,-14.160,-143.066,-8.301,45.898,0.000
1709200925.990,-11.230,-140.625,-7.812,50.293,0.000
1709200925.994,-17.090,-145.996,-9.277,45.898,0.000
1709200925.998,-28.809,-161.621,-9.766,44.434,0.000
1709200926.002,-20.996,-157.715,-7.324,47.363,0.000
1709200926.006,-11.719,-150.391,-3.418,49.316,0.000
1709200926.010,-10.742,-158.203,0.000,50.781,0.000
1709200926.014,-17.578,-158.203,0.977,41.504,0.000
1709200926.018,-27.344,-157.715,0.488,39.551,0.000
1709200926.022,-15.137,-151.855,-1.465,45.898,0.000
1709200926.025,-3.906,-144.531,-2.930,45.410,0.000
1709200926.029,-11.719,-149.414,-6.348,33.691,0.000
1709200926.033,-19.531,-145.020,-3.906,23.438,0.000
1709200926.037,-18.555,-135.254,-4.883,23.438,0.000
1709200926.041,-17.578,-132.812,-6.836,31.250,0.000
1709200926.045,-22.949,-130.371,-4.883,37.109,0.000
1709200926.049,-24.414,-120.605,-5.371,32.715,0.000
1709200926.053,-21.484,-115.723,2.930,32.715,0.000
1709200926.057,-19.043,-113.281,4.883,35.156,0.000
1709200926.061,-11.719,-113.770,-4.395,29.785,0.000
1709200926.065,-12.695,-107.910,-14.648,27.344,0.000
1709200926.068,-16.113,-108.887,-14.648,28.809,0.000
1709200926.072,-17.578,-108.398,-5.859,23.926,0.000
1709200926.076,-26.855,-100.586,-11.719,23.926,0.000
1709200926.080,-25.879,-101.562,-20.020,23.926,0.000
1709200926.084,-19.043,-97.168,-17.090,5.859,0.000
1709200926.088,-11.719,-99.609,-15.625,2.441,0.000
1709200926.092,-24.414,-98.633,-25.879,-2.441,0.000
1709200926.096,-39.062,-91.797,-31.250,-22.949,0.000
1709200926.100,-39.551,-101.074,-25.391,-20.996,0.000
1709200926.104,-38.086,-97.656,-23.438,-20.508,0.000
1709200926.108,-39.551,-83.496,-22.949,-34.668,0.000
1709200926.111,-42.969,-79.102,-21.484,-39.062,0.000
1709200926.115,-45.410,-88.379,-22.461,-33.203,0.000
1709200926.119,-38.574,-81.055,-23.438,-30.762,0.000
1709200926.123,-29.785,-68.848,-27.344,-33.691,0.000
1709200926.127,-24.414,-73.242,-31.738,-29.785,0.000
1709200926.131,-30.762,-80.566,-34.668,-31.738,0.000
1709200926.135,-39.551,-71.289,-31.250,-28.320,0.000
1709200926.139,-30.762,-53.223,-28.320,-23.438,0.000
1709200926.143,-22.949,-54.199,-34.668,-29.297,0.000
1709200926.147,-20.020,-58.594,-37.598,-24.902,0.000
1709200926.150,-26.367,-58.594,-41.992,-29.297,0.000
1709200926.154,-28.809,-57.617,-42.480,-31.250,0.000
1709200926.158,-32.227,-65.918,-35.156,-18.066,0.000
1709200926.162,-33.203,-66.406,-32.715,-15.625,0.000
1709200926.166,-24.414,-54.688,-39.062,-21.973,0.000
1709200926.170,-23.438,-55.176,-41.992,-24.902,0.000
1709200926.174,-30.762,-53.711,-31.250,-26.367,0.000
1709200926.178,-42.480,-64.941,-31.250,-23.926,0.000
1709200926.182,-43.457,-73.730,-39.551,-25.391,0.000
1709200926.186,-29.785,-50.781,-38.574,-32.227,0.000
1709200926.190,-28.320,-50.781,-36.621,-33.203,0.000
1709200926.193,-40.527,-54.688,-42.969,-40.527,0.000
1709200926.197,-47.852,-48.828,-41.504,-47.363,0.000
1709200926.201,-43.945,-44.922,-39.062,-51.270,0.000
1709200926.205,-32.227,-39.062,-42.969,-51.270,0.000
1709200926.209,-27.344,-43.457,-36.133,-46.387,0.000
1709200926.213,-39.062,-50.781,-39.062,-45.898,0.000
1709200926.217,-43.945,-48.828,-42.969,-45.410,0.000
1709200926.221,-34.668,-40.527,-36.621,-36.621,0.000
1709200926.225,-34.180,-39.551,-39.062,-33.691,0.000
1709200926.229,-39.551,-35.156,-41.016,-48.828,0.000
1709200926.232,-45.410,-46.387,-40.527,-52.246,0.000
1709200926.236,-46.387,-56.152,-39.062,-36.133,0.000
1709200926.240,-44.434,-48.828,-38.086,-26.367,0.000
1709200926.244,-39.551,-45.898,-39.551,-35.156,0.000
1709200926.248,-29.785,-43.457,-36.621,-28.809,0.000
1709200926.252,-28.809,-43.457,-25.879,-10.742,0.000
1709200926.256,-38.086,-48.340,-25.391,-15.137,0.000
1709200926.260,-31.250,-49.805,-34.180,-13.672,0.000
1709200926.264,-23.438,-53.711,-31.738,-15.625,0.000
1709200926.268,-27.344,-54.199,-30.762,-17.090,0.000
1709200926.272,-29.297,-52.734,-39.062,-19.043,0.000
1709200926.275,-38.086,-49.316,-37.598,-23.438,0.000
1709200926.279,-40.039,-46.387,-30.762,-18.555,0.000
1709200926.283,-23.926,-47.852,-28.809,-13.184,0.000
1709200926.287,-14.160,-35.156,-27.344,-12.207,0.000
1709200926.291,-18.555,-31.250,-28.320,-20.508,0.000
1709200926.295,-29.785,-41.504,-30.762,-29.297,0.000
1709200926.299,-32.715,-34.180,-29.297,-26.367,0.000
1709200926.303,-26.367,-28.320,-36.133,-28.320,0.000
1709200926.307,-24.414,-33.203,-47.363,-36.621,0.000
1709200926.311,-26.367,-36.621,-49.316,-35.645,0.000
1709200926.315,-32.715,-42.480,-46.875,-41.016,0.000
1709200926.318,-38.574,-40.039,-41.504,-49.316,0.000
1709200926.322,-37.109,-38.086,-41.504,-52.734,0.000
1709200926.326,-34.180,-46.875,-44.922,-49.316,0.000
1709200926.330,-43.457,-51.270,-47.363,-40.527,0.000
1709200926.334,-53.223,-40.527,-48.340,-51.270,0.000
1709200926.338,-57.617,-41.016,-43.457,-59.570,0.000
1709200926.342,0.000,-49.316,-38.574,-49.805,0.000
1709200926.346,0.000,-49.316,-40.527,-48.340,0.000
1709200926.350,0.000,-45.898,-47.363,-57.617,0.000
1709200926.354,0.000,-48.340,-42.969,-52.246,0.000
1709200926.358,0.000,-48.340,-31.250,-48.340,0.000
1709200926.361,0.000,-45.410,-31.250,-49.805,0.000
1709200926.365,0.000,-40.039,-33.691,-44.434,0.000
1709200926.369,0.000,-40.039,-39.062,-50.781,0.000
1709200926.373,0.000,-53.223,-44.434,-41.016,0.000
1709200926.377,0.000,-47.363,-38.086,-33.691,0.000
1709200926.381,0.000,-32.715,-30.273,-41.504,0.000
1709200926.385,0.000,-43.457,-31.250,-36.133,0.000
1709200926.389,-39.551,-47.363,-42.969,-41.992,0.000
1709200926.393,-43.457,-37.598,-47.852,-49.316,0.000
1709200926.397,-44.922,-40.527,-41.016,-50.781,0.000
1709200926.401,-39.062,-50.293,-38.086,-61.035,0.000
1709200926.404,-31.738,-52.246,-38.574,-57.129,0.000
1709200926.408,-39.551,-44.922,-38.574,-49.805,0.000
1709200926.412,-45.410,-38.086,-33.203,-54.688,0.000
1709200926.416,-46.875,-49.316,-33.203,-54.199,0.000
1709200926.420,-45.410,-51.758,-42.480,-39.551,0.000
1709200926.424,-43.945,-44.434,-45.898,-37.598,0.000
1709200926.428,-41.016,-52.246,-48.828,-42.969,0.000
1709200926.432,-40.527,-50.293,-42.969,-41.016,0.000
1709200926.436,-48.828,-44.434,-33.691,-44.434,0.000
1709200926.440,-45.410,-39.551,-34.668,-41.992,0.000
1709200926.444,-38.574,-43.457,-39.551,-39.062,0.000
1709200926.447,-37.109,-41.016,-43.457,-41.016,0.000
1709200926.451,-44.434,-37.109,-36.133,-40.039,0.000
1709200926.455,-49.316,-41.992,-29.785,-37.109,0.000
1709200926.459,-52.246,-43.945,-37.109,-40.527,0.000
1709200926.463,-50.293,-51.758,-41.992,-37.109,0.000
1709200926.467,-48.340,-48.340,-37.598,-31.738,0.000
1709200926.471,-45.410,-37.109,-38.086,-43.457,0.000
1709200926.475,-49.316,-44.434,-39.551,-47.363,0.000
1709200926.479,-56.641,-53.711,-38.086,-38.086,0.000
1709200926.483,-54.199,-49.316,-41.504,-32.227,0.000
1709200926.486,-47.852,-42.480,-38.574,-31.738,0.000
1709200926.490,-43.457,-43.457,-29.785,-26.855,0.000
1709200926.494,-49.316,-43.457,-32.227,-29.785,0.000
1709200926.498,-46.875,-39.062,-39.551,-31.738,0.000
1709200926.502,-37.598,-38.086,-38.574,-26.855,0.000
1709200926.506,-35.645,-41.992,-43.945,-30.273,0.000
1709200926.510,-42.969,-40.527,-45.898,-24.902,0.000
1709200926.514,-46.875,-31.738,-38.086,-26.367,0.000
1709200926.518,-41.992,-41.016,-37.109,-34.180,0.000
1709200926.522,-33.203,-51.758,-38.574,-31.250,0.000
1709200926.526,-23.926,-44.922,-38.086,-23.926,0.000
1709200926.529,-27.344,-37.109,-38.086,-24.414,0.000
1709200926.533,-36.621,-41.504,-39.551,-33.691,0.000
1709200926.537,-40.039,-43.457,-40.527,-40.527,0.000
1709200926.541,-30.273,-29.297,-35.645,-37.109,0.000
1709200926.545,-28.320,-29.785,-35.156,-38.086,0.000
1709200926.549,-36.133,-39.062,-40.039,-42.969,0.000
1709200926.553,-40.039,-39.551,-34.668,-32.715,0.000
1709200926.557,-44.922,-35.156,-29.785,-25.879,0.000
1709200926.561,-41.504,-25.391,-29.785,-32.715,0.000
1709200926.565,-35.645,-32.227,-29.785,-29.297,0.000
1709200926.568,-36.621,-43.457,-29.785,-32.227,0.000
1709200926.572,-43.457,-44.434,-28.320,-28.809,0.000
1709200926.576,-52.734,-45.410,-30.762,-24.902,0.000
1709200926.580,-55.176,-49.805,-39.551,-36.133,0.000
1709200926.584,-42.480,-46.875,-40.039,-35.156,0.000
1709200926.588,-41.016,-40.039,-39.551,-21.973,0.000
1709200926.592,-44.434,-37.109,-28.809,-26.367,0.000
1709200926.596,-44.922,-38.574,-19.043,-32.715,0.000
1709200926.600,-51.270,-46.387,-30.762,-35.156,0.000
1709200926.604,-47.363,-38.574,-37.109,-37.598,0.000
1709200926.608,-33.691,-39.062,-34.180,-33.691,0.000
1709200926.611,-30.762,-51.270,-37.109,-36.621,0.000
1709200926.615,-40.039,-51.758,-43.945,-43.457,0.000
1709200926.619,-43.457,-43.457,-38.574,-41.504,0.000
1709200926.623,-39.551,-37.598,-31.250,-29.297,0.000
1709200926.627,-34.668,-45.410,-33.203,-23.926,0.000
1709200926.631,-33.691,-45.898,-33.691,-27.832,0.000
1709200926.635,-38.574,-40.039,-35.645,-36.133,0.000
1709200926.639,-44.434,-47.852,-39.062,-41.016,0.000
1709200926.643,-36.621,-47.363,-34.180,-30.762,0.000
1709200926.647,-30.273,-40.039,-34.180,-31.738,0.000
1709200926.651,-35.645,-35.645,-37.598,-39.062,0.000
1709200926.654,-47.363,-45.898,-39.062,-40.039,0.000
1709200926.658,-41.992,-54.199,-38.574,-31.738,0.000
1709200926.662,-35.156,-38.574,-40.039,-32.227,0.000
1709200926.666,-32.715,-31.250,-41.016,-38.086,0.000
1709200926.670,-36.133,-40.527,-46.387,-42.969,0.000
1709200926.674,-54.688,-43.945,-48.340,-48.828,0.000
1709200926.678,-52.734,-34.668,-35.156,-42.480,0.000
1709200926.682,-44.434,-32.227,-29.785,-39.062,0.000
1709200926.686,-43.945,-34.180,-35.645,-43.457,0.000
1709200926.690,-42.480,-31.738,-38.086,-41.504,0.000
1709200926.694,-46.875,-36.133,-40.039,-43.457,0.000
1709200926.697,-49.805,-39.062,-46.875,-50.293,0.000
1709200926.701,-52.246,-42.480,-39.551,-41.504,0.000
1709200926.705,-53.223,-37.598,-30.762,-32.227,0.000
1709200926.709,-52.246,-27.344,-34.180,-38.086,0.000
1709200926.713,-51.758,-31.250,-29.297,-41.504,0.000
1709200926.717,-62.988,-40.527,-28.809,-46.875,0.000
1709200926.721,-73.242,-54.688,-39.551,-54.688,0.000
1709200926.725,-61.035,-49.316,-39.551,-48.340,0.000
1709200926.729,-52.734,-40.039,-37.109,-45.898,0.000
1709200926.733,-59.570,-44.434,-40.039,-48.340,0.000
1709200926.737,-62.500,-46.387,-43.457,-48.828,0.000
1709200926.740,-62.500,-38.086,-36.133,-41.504,0.000
1709200926.744,-60.059,-23.438,-35.645,-36.621,0.000
1709200926.748,-49.316,-32.715,-39.062,-25.879,0.000
1709200926.752,-54.199,-39.551,-37.598,-27.832,0.000
1709200926.756,-49.805,-28.320,-30.762,-31.250,0.000
1709200926.760,-38.086,-33.691,-25.391,-19.531,0.000
1709200926.764,-40.527,-40.527,-31.250,-22.461,0.000
1709200926.768,-41.504,-39.551,-34.668,-35.156,0.000
1709200926.772,-39.551,-35.645,-26.855,-36.621,0.000
1709200926.776,-38.574,-36.133,-30.273,-28.320,0.000
1709200926.780,-42.969,-43.945,-41.016,-23.438,0.000
1709200926.783,-41.016,-45.898,-35.645,-22.949,0.000
1709200926.787,-34.180,-47.363,-32.227,-33.203,0.000
1709200926.791,-38.574,-51.758,-37.598,-32.715,0.000
1709200926.795,-44.922,-54.199,-42.969,-25.391,0.000
1709200926.799,-46.387,-43.457,-47.363,-35.645,0.000
1709200926.803,-37.598,-31.738,-40.039,-34.180,0.000
1709200926.807,-24.414,-38.574,-35.156,-29.785,0.000
1709200926.811,0.000,-42.969,-42.480,-31.738,0.000
1709200926.815,0.000,-36.133,-43.457,-34.668,0.000
1709200926.819,0.000,-36.621,-43.457,-33.691,0.000
1709200926.823,0.000,-40.039,-40.039,-20.996,0.000
1709200926.826,0.000,-33.203,-41.992,-25.879,0.000
1709200926.830,0.000,-38.086,-45.898,-36.621,0.000
1709200926.834,0.000,-39.551,-46.387,-41.016,0.000
1709200926.838,0.000,-39.062,-46.875,-29.297,0.000
1709200926.842,0.000,-39.062,-42.480,-26.855,0.000
1709200926.846,0.000,-36.133,-43.457,-40.527,0.000
1709200926.850,0.000,-41.504,-39.062,-37.598,0.000
1709200926.854,0.000,-53.711,-41.016,-30.762,0.000
1709200926.858,-36.133,-42.969,-46.875,-25.879,0.000
1709200926.862,-41.016,-36.133,-43.945,-32.715,0.000
1709200926.865,-39.062,-45.410,-45.410,-30.762,0.000
1709200926.869,-35.645,-42.480,-42.969,-36.133,0.000
1709200926.873,-40.527,-47.363,-37.598,-56.152,0.000
1709200926.877,-44.922,-52.246,-38.574,-54.688,0.000
1709200926.881,-44.434,-46.387,-39.551,-49.316,0.000
1709200926.885,-40.039,-41.504,-39.062,-33.691,0.000
1709200926.889,-31.738,-29.785,-35.645,-34.668,0.000
1709200926.893,-26.855,-27.344,-36.621,-41.016,0.000
1709200926.897,-31.738,-38.574,-43.457,-37.598,0.000
1709200926.901,-36.133,-43.945,-39.551,-34.668,0.000
1709200926.905,-32.715,-42.969,-35.645,-32.715,0.000
1709200926.908,-25.391,-50.293,-36.133,-31.250,0.000
1709200926.912,-35.156,-50.781,-33.691,-32.227,0.000
1709200926.916,-43.945,-41.016,-36.621,-45.410,0.000
1709200926.920,-41.016,-37.598,-39.062,-44.434,0.000
1709200926.924,-39.551,-41.016,-35.645,-38.086,0.000
1709200926.928,-36.133,-49.805,-35.645,-35.645,0.000
1709200926.932,-41.992,-43.945,-48.340,-34.668,0.000
1709200926.936,-52.734,-32.227,-55.176,-44.922,0.000
1709200926.940,-52.734,-36.133,-41.992,-50.293,0.000
1709200926.944,-47.852,-33.203,-30.762,-45.410,0.000
1709200926.948,-42.969,-38.086,-38.574,-41.992,0.000
1709200926.951,-42.480,-44.922,-37.598,-40.039,0.000
1709200926.955,-49.316,-47.363,-27.344,-42.969,0.000
1709200926.959,-42.969,-48.340,-25.391,-37.598,0.000
1709200926.963,-33.691,-39.551,-25.879,-19.531,0.000
1709200926.967,-32.715,-43.945,-36.621,-17.090,0.000
1709200926.971,-34.180,-52.246,-47.363,-31.250,0.000
1709200926.975,-32.227,-48.340,-45.898,-37.598,0.000
1709200926.979,-33.203,-35.645,-40.039,-39.062,0.000
1709200926.983,-32.227,-31.738,-40.039,-36.621,0.000
1709200926.987,-24.414,-35.156,-35.156,-28.809,0.000
1709200926.990,-27.832,-41.016,-36.133,-36.133,0.000
1709200926.994,-43.457,-44.922,-43.457,-54.199,0.000
1709200926.998,-53.711,-46.875,-38.086,-45.898,0.000
1709200927.002,-54.199,-51.758,-33.691,-39.062,0.000
1709200927.006,-43.945,-39.551,-41.992,-40.039,0.000
1709200927.010,-39.062,-29.297,-43.945,-37.598,0.000
1709200927.014,-34.668,-36.133,-34.180,-45.410,0.000
1709200927.018,-41.992,-49.316,-35.645,-57.617,0.000
1709200927.022,-52.246,-45.410,-42.969,-49.805,0.000
1709200927.026,-34.180,-28.320,-39.062,-32.227,0.000
1709200927.030,-20.996,-24.902,-36.621,-37.598,0.000
1709200927.033,-29.297,-43.457,-42.480,-38.574,0.000
1709200927.037,-41.992,-35.645,-39.551,-31.250,0.000
1709200927.041,-42.480,-24.414,-43.945,-32.715,0.000
1709200927.045,-28.320,-29.297,-43.457,-28.809,0.000
1709200927.049,-25.391,-27.344,-37.598,-34.180,0.000
1709200927.053,-32.227,-26.855,-37.109,-41.016,0.000
1709200927.057,-38.086,-27.344,-33.203,-32.715,0.000
1709200927.061,-37.598,-29.785,-36.133,-26.855,0.000
1709200927.065,-47.852,-41.992,-43.945,-42.969,0.000
1709200927.069,-61.035,-37.598,-41.504,-45.410,0.000
1709200927.073,-51.758,-33.691,-40.039,-41.016,0.000
1709200927.076,-51.270,-46.875,-42.480,-47.363,0.000
1709200927.080,-55.176,-46.875,-43.457,-41.504,0.000
1709200927.084,-49.316,-35.645,-44.922,-52.246,0.000
1709200927.088,-28.809,-32.227,-36.621,-54.199,0.000
1709200927.092,-35.645,-33.203,-31.250,-45.898,0.000
1709200927.096,-56.152,-34.668,-33.691,-49.316,0.000
1709200927.100,-55.664,-39.551,-37.109,-43.945,0.000
1709200927.104,-46.875,-40.039,-33.203,-34.180,0.000
1709200927.108,-32.715,-37.109,-25.391,-30.273,0.000
1709200927.112,-30.762,-41.504,-32.715,-38.086,0.000
1709200927.116,-39.062,-42.969,-39.551,-42.480,0.000
1709200927.119,-41.504,-40.527,-41.016,-36.621,0.000
1709200927.123,-33.203,-47.852,-38.574,-27.344,0.000
1709200927.127,-25.391,-43.945,-40.039,-23.926,0.000
1709200927.131,-20.996,-30.273,-42.480,-36.133,0.000
1709200927.135,-38.086,-35.645,-39.062,-49.805,0.000
1709200927.139,-46.387,-36.621,-33.203,-46.875,0.000
1709200927.143,-32.227,-27.832,-37.598,-30.762,0.000
1709200927.147,-24.902,-35.156,-40.527,-26.855,0.000
1709200927.151,-30.273,-47.363,-32.715,-35.156,0.000
1709200927.155,-39.062,-46.387,-29.785,-39.062,0.000
1709200927.159,-32.715,-37.598,-30.273,-24.414,0.000
1709200927.162,-39.551,-34.668,-38.086,-29.297,0.000
1709200927.166,-38.574,-40.527,-41.016,-35.156,0.000
1709200927.170,-33.203,-41.504,-32.227,-25.391,0.000
1709200927.174,-44.922,-32.715,-32.227,-34.668,0.000
1709200927.178,-50.781,-45.898,-36.133,-48.828,0.000
1709200927.182,-45.898,-43.945,-28.320,-46.875,0.000
1709200927.186,-31.738,-31.250,-22.461,-33.691,0.000
1709200927.190,-30.273,-38.086,-25.879,-31.738,0.000
1709200927.194,-40.039,-45.898,-33.203,-37.109,0.000
1709200927.198,-45.898,-51.758,-33.203,-40.527,0.000
1709200927.202,-40.039,-45.898,-30.273,-41.016,0.000
1709200927.205,-34.180,-41.016,-34.180,-39.551,0.000
1709200927.209,-34.180,-42.480,-33.691,-38.086,0.000
1709200927.213,-38.086,-47.852,-33.203,-24.902,0.000
1709200927.217,-41.504,-40.039,-29.785,-14.160,0.000
1709200927.221,-39.551,-31.250,-37.109,-17.578,0.000
1709200927.225,-29.785,-37.109,-40.039,-16.602,0.000
1709200927.229,-26.855,-40.527,-25.879,-13.184,0.000
1709200927.233,-32.715,-38.086,-30.762,-27.344,0.000
1709200927.237,-32.715,-40.527,-36.133,-35.156,0.000
1709200927.241,-41.016,-50.781,-33.203,-31.738,0.000
1709200927.244,-39.551,-47.852,-28.320,-24.414,0.000
1709200927.248,-26.367,-40.527,-28.809,-15.137,0.000
1709200927.252,-22.949,-35.156,-37.109,-19.043,0.000
1709200927.256,-29.297,-39.551,-40.039,-34.180,0.000
1709200927.260,-37.598,-48.340,-37.598,-33.203,0.000
1709200927.264,-39.551,-27.832,-38.574,-29.785,0.000
1709200927.268,-39.062,-23.438,-40.039,-38.574,0.000
1709200927.272,-41.992,-32.227,-37.109,-31.250,0.000
1709200927.276,-41.504,-34.180,-37.598,-33.203,0.000
1709200927.280,-45.410,-33.203,-39.551,-39.551,0.000
1709200927.284,-42.969,-31.738,-39.062,-30.762,0.000
1709200927.287,-37.598,-38.086,-42.480,-21.484,0.000
1709200927.291,-40.527,-38.086,-42.480,-32.227,0.000
1709200927.295,-44.922,-40.527,-41.504,-46.387,0.000
1709200927.299,-44.434,-42.480,-44.922,-45.898,0.000
1709200927.303,-42.969,-45.410,-39.062,-37.598,0.000
1709200927.307,-33.203,-35.645,-28.320,-31.250,0.000
1709200927.311,-32.715,-23.926,-25.879,-41.992,0.000
1709200927.315,-45.898,-41.016,-38.574,-51.270,0.000
1709200927.319,-42.969,-46.875,-43.945,-53.711,0.000
1709200927.323,-46.875,-37.109,-35.645,-47.852,0.000
1709200927.326,-52.734,-35.645,-35.645,-41.992,0.000
1709200927.330,-46.387,-39.551,-41.016,-38.086,0.000
1709200927.334,-49.805,-39.062,-44.434,-37.109,0.000
1709200927.338,-46.875,-33.203,-41.992,-38.574,0.000
1709200927.342,-37.598,-31.250,-39.062,-29.785,0.000
1709200927.346,-27.832,-36.621,-38.574,-20.020,0.000
1709200927.350,-24.902,-37.109,-37.598,-11.230,0.000
1709200927.354,-32.715,-29.297,-42.969,-18.066,0.000
1709200927.358,-40.039,-31.738,-39.551,-35.645,0.000
1709200927.362,-40.527,-33.691,-35.156,-37.109,0.000
1709200927.366,-35.645,-27.832,-35.645,-28.809,0.000
1709200927.369,-36.621,-24.902,-41.504,-36.621,0.000
1709200927.373,-41.016,-25.879,-39.551,-45.898,0.000
1709200927.377,-49.316,-28.320,-31.250,-48.828,0.000
1709200927.381,-52.734,-27.344,-33.691,-48.828,0.000
1709200927.385,-45.898,-26.855,-35.156,-41.504,0.000
1709200927.389,-36.621,-29.297,-34.180,-40.527,0.000
1709200927.393,-36.133,-33.203,-33.203,-26.367,0.000
1709200927.397,-44.922,-30.762,-26.855,-27.344,0.000
1709200927.401,-51.758,-31.738,-31.250,-38.574,0.000
1709200927.405,-46.387,-37.109,-33.203,-31.250,0.000
1709200927.409,-41.016,-38.574,-33.203,-28.809,0.000
1709200927.412,-35.156,-35.645,-32.227,-29.785,0.000
1709200927.416,-47.363,-39.062,-32.227,-40.039,0.000
1709200927.420,-55.664,-43.457,-35.645,-41.992,0.000
1709200927.424,-45.410,-31.250,-40.039,-39.551,0.000
1709200927.428,-40.039,-25.879,-42.969,-45.410,0.000
1709200927.432,-33.691,-32.715,-41.504,-44.922,0.000
1709200927.436,-46.387,-34.180,-38.574,-36.621,0.000
1709200927.440,-54.688,-37.109,-35.645,-41.016,0.000
1709200927.444,-41.504,-39.551,-44.922,-41.504,0.000
1709200927.448,-32.715,-30.762,-47.852,-33.691,0.000
1709200927.452,-26.367,-31.250,-35.156,-31.738,0.000
1709200927.455,-35.645,-39.551,-33.203,-29.785,0.000
1709200927.459,-47.363,-33.203,-37.109,-29.785,0.000
1709200927.463,-36.133,-32.227,-33.203,-28.809,0.000
1709200927.467,-29.785,-40.039,-41.016,-29.297,0.000
1709200927.471,-37.109,-41.016,-43.457,-35.156,0.000
1709200927.475,-46.387,-44.922,-41.016,-42.480,0.000
1709200927.479,-47.852,-42.480,-39.551,-42.480,0.000
1709200927.483,-39.551,-36.133,-37.598,-47.363,0.000
1709200927.487,-33.691,-38.574,-39.062,-49.805,0.000
1709200927.491,-36.133,-34.180,-34.668,-42.480,0.000
1709200927.495,-43.945,-30.762,-35.156,-47.852,0.000
1709200927.498,-51.758,-44.434,-41.504,-51.270,0.000
1709200927.502,-48.828,-42.969,-45.410,-48.340,0.000
1709200927.506,-45.410,-29.785,-39.062,-49.805,0.000
1709200927.510,-44.434,-39.551,-39.062,-50.781,0.000
1709200927.514,-47.363,-42.969,-36.621,-46.387,0.000
1709200927.518,-52.734,-41.504,-34.180,-37.598,0.000
1709200927.522,-43.945,-36.621,-35.156,-41.504,0.000
1709200927.526,-36.621,-36.621,-30.762,-45.898,0.000
1709200927.530,-42.969,-44.434,-36.133,-46.387,0.000
1709200927.534,-52.246,-45.410,-35.156,-48.828,0.000
1709200927.537,-45.898,-38.086,-30.762,-45.410,0.000
1709200927.541,-38.574,-38.086,-35.156,-43.457,0.000
1709200927.545,-38.574,-37.109,-34.668,-32.715,0.000
1709200927.549,-35.156,-20.020,-32.715,-24.902,0.000
1709200927.553,-41.016,-27.832,-33.691,-33.203,0.000
1709200927.557,-44.434,-35.156,-32.715,-39.551,0.000
1709200927.561,-52.246,-29.297,-37.109,-41.992,0.000
1709200927.565,-55.176,-35.156,-43.457,-44.922,0.000
1709200927.569,-43.457,-35.156,-39.062,-41.992,0.000
1709200927.573,-46.875,-38.574,-37.109,-39.551,0.000
1709200927.577,-56.641,-51.758,-41.992,-40.039,0.000
1709200927.580,-59.570,-51.758,-39.062,-39.551,0.000
1709200927.584,-55.176,-47.363,-45.410,-45.410,0.000
1709200927.588,-45.410,-55.176,-46.387,-36.133,0.000
1709200927.592,-45.898,-45.410,-49.316,-38.086,0.000
1709200927.596,-52.734,-32.227,-49.805,-60.059,0.000
1709200927.600,-56.152,-41.016,-40.527,-52.246,0.000
1709200927.604,-47.852,-44.922,-37.598,-36.621,0.000
1709200927.608,-30.762,-40.039,-30.273,-27.344,0.000
1709200927.612,-29.785,-40.527,-32.715,-28.320,0.000
1709200927.616,-34.180,-43.457,-38.086,-34.180,0.000
1709200927.620,-37.109,-45.410,-41.016,-42.969,0.000
1709200927.623,-27.832,-43.457,-41.992,-40.527,0.000
1709200927.627,-19.531,-42.969,-36.621,-34.668,0.000
1709200927.631,-15.137,-41.504,-37.598,-35.645,0.000
1709200927.635,-26.367,-40.039,-35.645,-30.762,0.000
1709200927.639,-38.086,-30.273,-31.250,-26.855,0.000
1709200927.643,-34.180,-30.762,-37.109,-30.762,0.000
1709200927.647,-27.344,-41.016,-41.016,-32.227,0.000
1709200927.651,-31.250,-36.621,-42.969,-33.691,0.000
1709200927.655,-42.969,-30.762,-46.387,-40.527,0.000
1709200927.659,-39.551,-30.273,-39.551,-41.016,0.000
1709200927.662,-33.691,-37.109,-36.621,-40.527,0.000
1709200927.666,-25.391,-35.645,-39.062,-34.668,0.000
1709200927.670,-31.738,-33.203,-46.387,-33.203,0.000
1709200927.674,-43.457,-41.992,-44.922,-50.781,0.000
1709200927.678,-45.898,-47.363,-30.273,-47.363,0.000
1709200927.682,-54.199,-43.457,-40.039,-39.551,0.000
1709200927.686,-48.828,-30.273,-40.039,-42.969,0.000
1709200927.690,-38.086,-36.133,-33.203,-41.992,0.000
1709200927.694,-47.363,-46.387,-40.039,-45.410,0.000
1709200927.698,-53.223,-43.945,-38.086,-40.039,0.000
1709200927.702,-53.223,-43.457,-37.598,-41.504,0.000
1709200927.705,-49.805,-39.062,-40.039,-40.039,0.000
1709200927.709,-39.551,-37.109,-49.805,-35.156,0.000
1709200927.713,-35.645,-38.574,-49.805,-34.668,0.000
1709200927.717,-41.016,-37.598,-36.133,-39.062,0.000
1709200927.721,-40.039,-49.316,-34.668,-40.039,0.000
1709200927.725,-35.645,-52.734,-36.621,-32.715,0.000
1709200927.729,-29.785,-37.109,-35.645,-33.691,0.000
1709200927.733,-30.762,-39.062,-36.621,-37.598,0.000
1709200927.737,-30.762,-53.711,-33.203,-36.133,0.000
1709200927.741,-27.832,-50.293,-31.738,-35.645,0.000
1709200927.745,-29.785,-36.133,-34.668,-34.668,0.000
1709200927.748,-33.203,-35.156,-34.180,-38.574,0.000
1709200927.752,-33.203,-37.109,-31.250,-38.574,0.000
1709200927.756,-30.273,-36.621,-40.039,-36.133,0.000
1709200927.760,-33.691,-32.715,-41.992,-36.133,0.000
1709200927.764,-41.504,-34.668,-40.039,-35.645,0.000
1709200927.768,-41.016,-43.945,-33.691,-26.367,0.000
1709200927.772,-42.969,-39.551,-28.320,-36.133,0.000
1709200927.776,-59.082,-43.457,-35.645,-55.664,0.000
1709200927.780,-57.129,-41.504,-37.598,-50.781,0.000
1709200927.784,-43.945,-35.645,-32.715,-39.062,0.000
1709200927.788,-40.039,-36.621,-35.645,-34.180,0.000
1709200927.791,-47.363,-43.945,-47.852,-44.434,0.000
1709200927.795,-54.199,-48.340,-46.387,-51.270,0.000
1709200927.799,-48.828,-41.504,-47.363,-46.387,0.000
1709200927.803,-40.527,-36.133,-46.875,-40.527,0.000
1709200927.807,-35.645,-39.551,-44.434,-41.016,0.000
1709200927.811,-36.621,-45.410,-48.340,-40.039,0.000
1709200927.815,-35.645,-48.340,-48.828,-44.434,0.000
1709200927.819,-34.180,-41.504,-41.016,-40.039,0.000
1709200927.823,-29.785,-32.715,-40.039,-30.762,0.000
1709200927.827,-20.508,-44.922,-49.316,-29.297,0.000
1709200927.830,-14.648,-44.434,-48.340,-25.879,0.000
1709200927.834,-22.461,-36.133,-42.969,-35.156,0.000
1709200927.838,-33.203,-47.363,-46.387,-36.133,0.000
1709200927.842,-27.344,-44.922,-49.316,-36.133,0.000
1709200927.846,-22.461,-39.062,-44.922,-30.762,0.000
1709200927.850,-15.625,-30.273,-36.133,-19.043,0.000
1709200927.854,-7.324,-24.414,-31.738,-19.043,0.000
1709200927.858,-24.414,-35.645,-35.645,-24.414,0.000
1709200927.862,-45.410,-46.387,-36.621,-37.598,0.000
1709200927.866,-40.527,-40.527,-31.738,-39.062,0.000
1709200927.870,-35.645,-36.133,-31.738,-35.156,0.000
1709200927.873,-43.457,-53.223,-35.156,-36.133,0.000
1709200927.877,-53.711,-45.898,-37.598,-35.156,0.000
1709200927.881,-60.547,-34.668,-41.016,-40.527,0.000
1709200927.885,-59.082,-41.504,-32.227,-38.574,0.000
1709200927.889,-51.758,-30.762,-25.391,-35.645,0.000
1709200927.893,-51.270,-29.297,-31.738,-43.945,0.000
1709200927.897,-54.688,-36.133,-31.250,-44.922,0.000
1709200927.901,-48.340,-43.945,-30.273,-44.922,0.000
1709200927.905,-50.781,-45.898,-36.621,-62.012,0.000
1709200927.909,-57.129,-47.363,-41.504,-69.336,0.000
1709200927.913,-52.734,-46.875,-41.504,-62.012,0.000
1709200927.916,-55.176,-46.875,-46.875,-63.965,0.000
1709200927.920,-61.523,-47.363,-49.316,-54.688,0.000
1709200927.924,-47.852,-24.902,-41.016,-44.434,0.000
1709200927.928,-37.109,-20.020,-41.504,-48.340,0.000
1709200927.932,-36.621,-31.738,-38.574,-46.875,0.000
1709200927.936,-42.969,-43.457,-42.480,-49.316,0.000
1709200927.940,-56.641,-46.387,-53.223,-45.898,0.000
1709200927.944,-53.711,-41.992,-50.293,-35.645,0.000
1709200927.948,-37.109,-37.109,-39.062,-39.551,0.000
1709200927.952,-36.133,-34.668,-41.016,-40.527,0.000
1709200927.956,-50.781,-41.992,-47.363,-41.016,0.000
1709200927.959,-55.664,-41.504,-42.969,-40.527,0.000
1709200927.963,-47.363,-40.527,-44.922,-27.832,0.000
1709200927.967,-32.227,-32.715,-41.504,-23.438,0.000
1709200927.971,-27.344,-21.484,-35.645,-42.480,0.000
1709200927.975,-29.785,-30.762,-31.738,-44.434,0.000
1709200927.979,-35.645,-38.086,-31.738,-37.598,0.000
1709200927.983,-41.504,-29.785,-34.668,-35.645,0.000
1709200927.987,-41.016,-28.809,-35.645,-39.062,0.000
1709200927.991,-31.738,-36.133,-36.133,-43.457,0.000
1709200927.995,-30.762,-32.715,-33.203,-45.898,0.000
1709200927.998,-47.852,-31.738,-27.344,-38.086,0.000
1709200928.002,-44.434,-35.645,-26.855,-28.809,0.000
1709200928.006,-41.992,-41.016,-37.109,-37.109,0.000
1709200928.010,-46.387,-40.527,-42.969,-37.598,0.000
1709200928.014,-50.781,-26.855,-38.574,-34.180,0.000
1709200928.018,-57.617,-29.297,-34.180,-43.945,0.000
1709200928.022,-58.594,-41.504,-33.691,-47.852,0.000
1709200928.026,-49.805,-35.645,-36.621,-40.527,0.000
1709200928.030,-40.527,-23.438,-32.715,-39.551,0.000
1709200928.034,-41.504,-25.879,-26.367,-44.434,0.000
1709200928.038,-42.480,-34.180,-21.973,-33.203,0.000
1709200928.041,-35.156,-32.227,-26.855,-25.879,0.000
1709200928.045,-32.227,-36.133,-39.551,-35.156,0.000
1709200928.049,-29.297,-33.203,-31.738,-32.227,0.000
1709200928.053,-31.738,-42.480,-28.320,-23.926,0.000
1709200928.057,-42.969,-48.340,-37.109,-32.227,0.000
1709200928.061,-42.480,-32.715,-36.621,-34.180,0.000
1709200928.065,-30.273,-33.203,-28.809,-16.113,0.000
1709200928.069,-32.715,-36.621,-35.645,-18.555,0.000
1709200928.073,-34.668,-34.180,-44.434,-29.785,0.000
1709200928.077,-34.180,-33.203,-40.527,-40.527,0.000
1709200928.081,-38.086,-37.109,-41.992,-50.293,0.000
1709200928.084,-30.762,-39.062,-43.457,-46.387,0.000
1709200928.088,-18.555,-30.762,-42.969,-39.062,0.000
1709200928.092,-19.043,-35.156,-43.457,-36.621,0.000
1709200928.096,-28.320,-44.434,-36.621,-33.691,0.000
1709200928.100,-33.203,-42.969,-36.621,-17.578,0.000
1709200928.104,-28.809,-36.621,-41.992,-14.648,0.000
1709200928.108,-20.020,-27.832,-39.551,-24.414,0.000
1709200928.112,-17.578,-27.344,-39.551,-23.438,0.000
1709200928.116,-26.367,-37.598,-41.016,-28.320,0.000
1709200928.120,-32.227,-40.527,-34.668,-27.344,0.000
1709200928.124,-32.715,-39.062,-33.203,-21.973,0.000
1709200928.127,-37.598,-43.945,-38.086,-24.902,0.000
1709200928.131,-35.645,-36.621,-32.715,-27.344,0.000
1709200928.135,-40.039,-32.227,-30.762,-34.668,0.000
1709200928.139,-51.758,-38.574,-34.180,-41.016,0.000
1709200928.143,-51.270,-41.504,-35.156,-38.086,0.000
1709200928.147,-40.527,-36.133,-33.203,-32.227,0.000
1709200928.151,-40.039,-30.273,-35.645,-36.621,0.000
1709200928.155,-48.340,-30.762,-39.062,-41.504,0.000
1709200928.159,-52.246,-43.457,-36.621,-35.645,0.000
1709200928.163,-55.664,-41.016,-37.598,-35.156,0.000
1709200928.166,-47.363,-22.461,-35.645,-35.156,0.000
1709200928.170,-44.922,-28.320,-36.621,-39.062,0.000
1709200928.174,-58.105,-40.039,-41.504,-50.293,0.000
1709200928.178,-59.082,-39.551,-37.598,-46.387,0.000
1709200928.182,-54.688,-37.598,-38.086,-41.504,0.000
1709200928.186,-47.363,-41.992,-38.574,-45.898,0.000
1709200928.190,-37.109,-44.922,-35.156,-39.551,0.000
1709200928.194,-40.039,-40.527,-39.062,-41.504,0.000
1709200928.198,-47.363,-36.621,-38.086,-46.875,0.000
1709200928.202,-51.270,-47.363,-37.598,-41.016,0.000
1709200928.206,-38.574,-50.781,-41.016,-24.414,0.000
1709200928.209,-20.996,-28.809,-39.062,-17.578,0.000
1709200928.213,-29.297,-31.738,-41.504,-27.832,0.000
1709200928.217,-38.574,-48.340,-42.969,-38.574,0.000
1709200928.221,-41.504,-44.434,-45.410,-43.945,0.000
1709200928.225,-36.621,-34.180,-40.527,-33.691,0.000
1709200928.229,-28.320,-36.133,-33.691,-22.949,0.000
1709200928.233,-26.367,-41.016,-30.273,-22.949,0.000
1709200928.237,-34.668,-41.504,-31.250,-30.273,0.000
1709200928.241,-41.504,-37.598,-31.250,-36.621,0.000
1709200928.245,-38.574,-32.227,-32.715,-35.156,0.000
1709200928.249,-31.738,-41.992,-34.180,-24.414,0.000
1709200928.252,-35.156,-44.434,-31.738,-28.320,0.000
1709200928.256,-45.410,-40.527,-39.551,-46.387,0.000
1709200928.260,-47.852,-43.457,-37.598,-55.664,0.000
1709200928.264,-45.410,-36.621,-30.273,-48.340,0.000
1709200928.268,-30.273,-29.785,-34.668,-34.668,0.000
1709200928.272,-28.809,-34.180,-35.645,-36.133,0.000
1709200928.276,-40.039,-40.527,-34.668,-44.922,0.000
1709200928.280,-48.340,-39.062,-36.133,-37.598,0.000
1709200928.284,-49.316,-38.574,-34.180,-35.156,0.000
1709200928.288,-42.969,-34.668,-33.203,-47.363,0.000
1709200928.292,-39.062,-35.156,-28.320,-42.480,0.000
1709200928.295,-41.992,-39.551,-27.832,-25.879,0.000
1709200928.299,-47.852,-30.762,-27.832,-22.461,0.000
1709200928.303,-44.434,-33.203,-23.926,-20.020,0.000
1709200928.307,-33.691,-47.363,-39.062,-28.320,0.000
1709200928.311,-41.504,-50.293,-44.922,-37.598,0.000
1709200928.315,-54.199,-43.457,-36.621,-38.574,0.000
1709200928.319,-54.688,-42.480,-35.645,-40.527,0.000
1709200928.323,-51.270,-47.363,-35.645,-30.762,0.000
1709200928.327,-40.527,-42.480,-33.203,-26.367,0.000
1709200928.331,-35.645,-39.062,-38.086,-37.598,0.000
1709200928.334,-42.480,-44.922,-44.922,-46.875,0.000
1709200928.338,-50.781,-56.641,-45.410,-41.016,0.000
1709200928.342,-52.734,-46.387,-41.504,-34.668,0.000
1709200928.346,-41.016,-20.996,-37.598,-35.156,0.000
1709200928.350,-36.621,-29.297,-41.504,-41.016,0.000
1709200928.354,-39.551,-38.086,-41.504,-48.828,0.000
1709200928.358,-48.340,-37.109,-41.992,-51.758,0.000
1709200928.362,-47.852,-37.598,-44.434,-50.781,0.000
1709200928.366,-42.969,-36.133,-41.992,-47.363,0.000
1709200928.370,-41.016,-37.109,-44.434,-56.152,0.000
1709200928.374,-43.457,-37.109,-46.875,-63.965,0.000
1709200928.377,-52.246,-42.969,-40.527,-60.547,0.000
1709200928.381,-52.246,-45.410,-33.691,-55.664,0.000
1709200928.385,-55.664,-47.852,-36.621,-42.969,0.000
1709200928.389,-56.641,-41.016,-39.062,-44.434,0.000
1709200928.393,-47.852,-36.621,-37.598,-54.688,0.000
1709200928.397,-52.246,-44.434,-37.109,-49.805,0.000
1709200928.401,-52.734,-45.898,-37.109,-47.852,0.000
1709200928.405,-51.270,-40.039,-42.969,-45.898,0.000
1709200928.409,-42.480,-38.574,-44.922,-38.086,0.000
1709200928.413,-29.297,-41.016,-42.969,-33.691,0.000
1709200928.417,-39.551,-38.574,-39.551,-38.086,0.000
1709200928.420,-47.852,-36.133,-38.574,-45.898,0.000
1709200928.424,-41.504,-41.504,-38.574,-46.387,0.000
1709200928.428,-37.598,-49.805,-46.387,-38.086,0.000
1709200928.432,-36.133,-44.434,-45.410,-37.109,0.000
1709200928.436,-40.039,-31.250,-38.086,-53.223,0.000
1709200928.440,-50.781,-41.016,-44.434,-51.270,0.000
1709200928.444,-48.828,-41.016,-42.480,-38.086,0.000
1709200928.448,-44.434,-38.574,-35.645,-35.156,0.000
1709200928.452,-41.504,-42.480,-37.598,-40.039,0.000
1709200928.456,-36.133,-41.992,-40.039,-41.016,0.000
1709200928.459,-47.363,-44.434,-39.062,-41.016,0.000
1709200928.463,-45.898,-41.504,-34.180,-43.945,0.000
1709200928.467,-27.832,-40.527,-31.738,-34.180,0.000
1709200928.471,-22.949,-42.480,-32.227,-27.344,0.000
1709200928.475,-33.691,-44.922,-34.180,-20.020,0.000
1709200928.479,-40.527,-36.621,-36.621,-24.414,0.000
1709200928.483,-40.527,-32.227,-42.969,-31.250,0.000
1709200928.487,-36.621,-38.574,-40.039,-28.320,0.000
1709200928.491,-27.344,-39.062,-28.320,-32.227,0.000
1709200928.495,-32.227,-35.156,-34.668,-40.039,0.000
1709200928.499,-39.062,-35.156,-35.156,-40.527,0.000
1709200928.502,-36.133,-36.621,-31.738,-35.645,0.000
1709200928.506,-34.668,-39.062,-39.551,-32.227,0.000
1709200928.510,-28.320,-37.598,-38.086,-21.484,0.000
1709200928.514,-23.438,-41.992,-35.645,-23.438,0.000
1709200928.518,-27.832,-54.199,-38.086,-26.855,0.000
1709200928.522,-29.785,-42.969,-35.645,-25.879,0.000
1709200928.526,-26.367,-26.367,-42.480,-30.762,0.000
1709200928.530,-32.715,-32.227,-42.480,-35.156,0.000
1709200928.534,-25.391,-39.551,-31.738,-33.203,0.000
1709200928.538,-27.344,-41.504,-35.645,-37.109,0.000
1709200928.542,-43.945,-43.457,-44.922,-42.480,0.000
1709200928.545,-40.527,-35.645,0.000,-36.621,0.000
1709200928.549,-31.250,-28.320,0.000,-30.762,0.000
1709200928.553,-28.320,-32.715,0.000,-28.320,0.000
1709200928.557,-30.762,-35.645,0.000,-32.227,0.000
1709200928.561,-36.621,-40.039,0.000,-42.969,0.000
1709200928.565,-38.574,-47.852,0.000,-39.551,0.000
1709200928.569,-33.691,-43.457,0.000,-34.180,0.000
1709200928.573,-29.785,-30.273,0.000,-33.691,0.000
1709200928.577,-41.016,-41.992,0.000,-36.621,0.000
1709200928.581,-55.664,-51.758,0.000,-34.668,0.000
1709200928.585,-52.246,-33.203,0.000,-30.273,0.000
1709200928.588,-41.992,-31.738,0.000,-34.668,0.000
1709200928.592,-32.715,-37.598,-29.785,-27.344,0.000
1709200928.596,-43.457,-38.574,-29.297,-26.855,0.000
1709200928.600,-49.805,-41.016,-32.715,-40.527,0.000
1709200928.604,-42.480,-46.387,-34.180,-37.109,0.000
1709200928.608,-35.645,-50.781,-31.250,-23.438,0.000
1709200928.612,-39.062,-54.199,-37.109,-28.320,0.000
1709200928.616,-43.457,-47.852,-35.645,-35.156,0.000
1709200928.620,-47.852,-41.992,-33.691,-32.227,0.000
1709200928.624,-50.781,-44.922,-32.227,-30.762,0.000
1709200928.628,-39.062,-36.133,-29.785,-27.832,0.000
1709200928.631,-31.250,-28.320,-34.180,-35.645,0.000
1709200928.635,-33.691,-36.621,-33.203,-43.945,0.000
1709200928.639,-43.457,-35.645,-35.645,-50.293,0.000
1709200928.643,-45.898,-29.785,-41.992,-48.340,0.000
1709200928.647,-40.527,-35.645,-42.480,-42.969,0.000
1709200928.651,-38.086,-40.039,-41.016,-44.922,0.000
1709200928.655,-39.551,-39.551,-43.945,-42.480,0.000
1709200928.659,-44.434,-39.551,-42.480,-38.086,0.000
1709200928.663,-51.758,-38.574,-39.551,-38.086,0.000
1709200928.667,-53.223,-43.457,-40.527,-33.203,0.000
1709200928.671,-51.758,-49.316,-41.992,-30.762,0.000
1709200928.674,-59.570,-43.457,-42.969,-45.898,0.000
1709200928.678,-67.871,-46.387,-41.992,-57.617,0.000
1709200928.682,-63.477,-43.945,-36.621,-51.270,0.000
1709200928.686,-58.105,-40.039,-39.551,-42.969,0.000
1709200928.690,-54.199,-45.410,-41.504,-41.016,0.000
1709200928.694,-44.922,-45.898,-36.133,-30.273,0.000
1709200928.698,-47.363,-43.945,-32.227,-25.879,0.000
1709200928.702,-44.922,-47.852,-37.109,-32.227,0.000
1709200928.706,-36.621,-54.688,-42.480,-35.645,0.000
1709200928.710,-32.715,-51.270,-41.504,-38.574,0.000
1709200928.713,-35.156,-58.105,-42.969,-38.086,0.000
1709200928.717,-38.086,-49.805,-44.922,-36.133,0.000
1709200928.721,-37.598,-31.738,-42.969,-41.016,0.000
1709200928.725,-28.320,-34.180,-31.250,-32.715,0.000
1709200928.729,-20.996,-36.621,-31.250,-28.809,0.000
1709200928.733,-19.531,-33.203,-31.250,-41.504,0.000
1709200928.737,-24.414,-26.855,-30.762,-45.898,0.000
1709200928.741,-34.668,-29.785,-37.109,-46.387,0.000
1709200928.745,-37.109,-40.039,-41.016,-44.922,0.000
1709200928.749,-29.785,-41.992,-41.992,-35.645,0.000
1709200928.753,-36.133,-46.875,-40.039,-38.086,0.000
1709200928.756,-49.805,-56.641,-41.504,-52.246,0.000
1709200928.760,-62.012,-58.105,-47.852,-44.434,0.000
1709200928.764,-68.848,-42.969,-43.945,-37.109,0.000
1709200928.768,-56.152,-39.062,-38.086,-35.645,0.000
1709200928.772,-53.711,-47.852,-38.086,-35.645,0.000
1709200928.776,-58.105,-50.293,-33.691,-48.340,0.000
1709200928.780,0.000,-44.922,-31.738,-47.363,0.000
1709200928.784,0.000,-36.621,-31.250,-39.062,0.000
1709200928.788,0.000,-43.457,-36.133,-36.133,0.000
1709200928.792,0.000,-41.504,-38.574,-34.668,0.000
1709200928.796,0.000,-38.086,-38.574,-44.434,0.000
1709200928.799,0.000,-54.199,-44.434,-55.664,0.000
1709200928.803,0.000,-60.059,-42.480,-43.945,0.000
1709200928.807,0.000,-48.828,-39.062,-31.250,0.000
1709200928.811,0.000,-34.668,-37.598,-41.992,0.000
1709200928.815,0.000,-45.410,-39.551,-48.828,0.000
1709200928.819,0.000,-52.734,-36.133,-45.410,0.000
1709200928.823,0.000,-51.270,-32.715,-42.480,0.000
1709200928.827,-36.133,-48.828,-38.086,-35.156,0.000
1709200928.831,-24.414,-48.828,-36.621,-37.598,0.000
1709200928.835,-27.344,-44.434,-31.738,-40.039,0.000
1709200928.838,-34.180,-39.551,-41.016,-34.180,0.000
1709200928.842,-42.969,-47.363,-49.316,-39.551,0.000
1709200928.846,-37.598,-51.270,-40.527,-33.691,0.000
1709200928.850,-31.738,-55.176,-35.645,-15.137,0.000
1709200928.854,-30.762,-44.922,-34.180,-23.926,0.000
1709200928.858,-35.156,-39.062,-35.156,-41.504,0.000
1709200928.862,-40.039,-45.410,-32.227,-35.156,0.000
1709200928.866,-37.598,-43.457,-36.133,-23.438,0.000
1709200928.870,-28.809,-39.551,-41.992,-23.438,0.000
1709200928.874,-20.020,-34.668,-34.180,-27.344,0.000
1709200928.878,-34.668,-42.480,-35.645,-36.133,0.000
1709200928.881,-33.691,-39.062,-35.156,-29.785,0.000
1709200928.885,-24.414,-31.738,-36.133,-22.461,0.000
1709200928.889,-27.344,-41.504,-38.086,-24.902,0.000
1709200928.893,-28.809,-53.711,-35.156,-19.043,0.000
1709200928.897,-40.527,-53.223,-33.203,-27.832,0.000
1709200928.901,-39.062,-41.016,-35.156,-34.668,0.000
1709200928.905,-30.273,-45.410,-39.551,-33.691,0.000
1709200928.909,-26.367,-49.805,-35.645,-31.250,0.000
1709200928.913,-30.273,-41.016,-34.180,-32.715,0.000
1709200928.917,-45.410,-47.363,-37.598,-44.922,0.000
1709200928.921,-44.434,-51.758,-40.527,-53.711,0.000
1709200928.924,-39.062,-46.387,-41.016,-59.570,0.000
1709200928.928,-36.621,-41.016,-35.645,-44.922,0.000
1709200928.932,-37.109,-44.922,-42.480,-41.504,0.000
1709200928.936,-38.086,-46.875,-42.480,-41.504,0.000
1709200928.940,-40.039,-45.410,-40.527,-40.527,0.000
1709200928.944,-44.434,-41.016,-49.316,-56.641,0.000
1709200928.948,-34.668,-31.738,-37.598,-54.199,0.000
1709200928.952,-25.391,-35.645,-31.250,-41.504,0.000
1709200928.956,-30.762,-44.434,-34.668,-37.598,0.000
1709200928.960,-36.133,-38.086,-34.668,-32.715,0.000
1709200928.964,-33.203,-37.109,-37.109,-31.250,0.000
1709200928.967,-34.668,-39.551,-40.039,-39.062,0.000
1709200928.971,-34.180,-31.250,-42.480,-30.762,0.000
1709200928.975,-33.203,-27.344,-43.457,-29.297,0.000
1709200928.979,-35.156,-33.691,-40.039,-37.109,0.000
1709200928.983,-37.109,-37.598,-33.203,-43.945,0.000
1709200928.987,-30.762,-34.180,-30.762,-41.016,0.000
1709200928.991,-26.855,-30.273,-30.273,-31.250,0.000
1709200928.995,-31.250,-36.133,-30.762,-41.504,0.000
1709200928.999,-37.109,-48.828,-33.691,-38.574,0.000
1709200929.003,-41.504,-42.480,-39.551,-34.180,0.000
1709200929.007,-35.645,-31.738,-39.062,-41.016,0.000
1709200929.010,-25.879,-40.527,-37.598,-38.086,0.000
1709200929.014,-27.344,-40.039,-38.086,-42.969,0.000
1709200929.018,-37.109,-40.527,-39.551,-50.293,0.000
1709200929.022,-45.410,-42.480,-43.457,-50.781,0.000
1709200929.026,-39.062,-39.551,-38.086,-44.922,0.000
1709200929.030,-31.738,-42.480,-31.738,-44.922,0.000
1709200929.034,-34.180,-45.898,-33.203,-45.410,0.000
1709200929.038,-48.340,-44.434,-37.109,-46.875,0.000
1709200929.042,-56.152,-44.434,-35.156,-43.457,0.000
1709200929.046,-48.340,-48.340,-36.133,-36.621,0.000
1709200929.049,-41.992,-32.227,-36.133,-41.016,0.000
1709200929.053,-38.574,-30.273,-30.762,-43.945,0.000
1709200929.057,-41.992,-48.340,-37.598,-46.875,0.000
1709200929.061,-49.805,-47.363,-40.527,-51.758,0.000
1709200929.065,-40.527,-33.691,-38.574,-47.852,0.000
1709200929.069,-25.391,-35.156,-37.598,-37.598,0.000
1709200929.073,-30.762,-40.039,-31.250,-30.273,0.000
1709200929.077,-37.598,-42.480,-34.180,-32.227,0.000
1709200929.081,-45.898,-41.992,-34.668,-29.785,0.000
1709200929.085,-46.875,-33.691,-30.762,-26.855,0.000
1709200929.089,-32.227,-38.086,-31.250,-24.902,0.000
1709200929.092,-30.762,-39.062,-29.785,-25.879,0.000
1709200929.096,-44.434,-27.832,-29.297,-36.133,0.000
1709200929.100,-51.758,-39.062,-32.715,-46.387,0.000
1709200929.104,-48.340,-40.039,-34.180,-42.480,0.000
1709200929.108,-38.086,-26.855,-31.250,-34.668,0.000
1709200929.112,-38.086,-29.297,-36.621,-48.340,0.000
1709200929.116,-43.457,-41.016,-38.574,-54.688,0.000
1709200929.120,-51.270,-41.992,-38.086,-52.734,0.000
1709200929.124,-60.059,-35.156,-37.598,-43.945,0.000
1709200929.128,-52.734,-35.645,-36.621,-39.551,0.000
1709200929.132,-49.805,-41.504,-38.574,-43.457,0.000
1709200929.135,-55.664,-41.504,-33.203,-36.133,0.000
1709200929.139,-59.082,-27.832,-34.180,-47.363,0.000
1709200929.143,-49.805,-21.484,-36.621,-55.664,0.000
1709200929.147,-41.016,-33.691,-33.691,-44.434,0.000
1709200929.151,-39.062,-36.133,-35.156,-45.898,0.000
1709200929.155,-38.574,-30.762,-42.480,-54.688,0.000
1709200929.159,-39.551,-32.227,-40.039,-57.617,0.000
1709200929.163,-38.086,-31.738,-28.320,-51.758,0.000
1709200929.167,-34.180,-31.738,-30.762,-45.410,0.000
1709200929.171,-29.297,-34.668,-38.086,-41.992,0.000
1709200929.175,-40.039,-45.410,-37.598,-51.270,0.000
1709200929.178,-53.223,-54.199,-35.156,-46.387,0.000
1709200929.182,-58.594,-38.574,-33.691,-37.598,0.000
1709200929.186,-59.570,-24.414,-36.621,-51.270,0.000
1709200929.190,-52.734,-39.062,-41.992,-51.270,0.000
1709200929.194,-51.758,-47.363,-43.945,-44.922,0.000
1709200929.198,-63.477,-46.387,-41.992,-46.875,0.000
1709200929.202,-66.406,-43.945,-42.480,-47.852,0.000
1709200929.206,-50.293,-40.039,-35.645,-41.016,0.000
1709200929.210,-42.969,-42.480,-31.250,-39.062,0.000
1709200929.214,-57.129,-46.387,-36.621,-42.480,0.000
1709200929.217,-60.059,-46.875,-36.133,-41.992,0.000
1709200929.221,-57.617,-51.758,-33.203,-48.340,0.000
1709200929.225,-53.711,-46.387,-32.227,-41.992,0.000
1709200929.229,-47.363,-37.109,-39.062,-45.410,0.000
1709200929.233,-44.434,-41.504,-38.574,-52.246,0.000
1709200929.237,-40.527,-44.922,-38.086,-46.875,0.000
1709200929.241,-40.527,-43.457,-46.875,-44.434,0.000
1709200929.245,-39.062,-39.551,-40.527,-39.551,0.000
1709200929.249,-28.809,-42.480,-34.180,-36.133,0.000
1709200929.253,-28.320,-48.828,-34.668,-31.738,0.000
1709200929.257,-38.574,-44.434,-30.762,-38.574,0.000
1709200929.260,-47.363,-39.551,-37.598,-50.781,0.000
1709200929.264,-46.875,-41.504,-38.574,-49.805,0.000
1709200929.268,-41.992,-48.340,-35.156,-38.574,0.000
1709200929.272,-41.504,-50.293,-37.598,-38.574,0.000
1709200929.276,-41.016,-45.410,-37.598,-45.898,0.000
1709200929.280,-45.410,-41.504,-31.250,-41.016,0.000
1709200929.284,-42.480,-41.992,-26.367,-21.973,0.000
1709200929.288,-35.645,-40.039,-31.738,-16.602,0.000
1709200929.292,-26.367,-36.621,-35.156,-24.902,0.000
1709200929.296,-25.879,-35.645,-37.109,-18.066,0.000
1709200929.300,-28.809,-32.227,-36.621,-17.090,0.000
1709200929.303,-35.645,-31.250,-37.598,-27.832,0.000
1709200929.307,-44.922,-34.668,-43.945,-25.879,0.000
1709200929.311,-39.062,-35.645,-38.086,-20.020,0.000
1709200929.315,-41.504,-40.527,-33.691,-13.184,0.000
1709200929.319,-51.758,-46.875,-31.250,-25.391,0.000
1709200929.323,-62.500,-44.434,-31.250,-43.457,0.000
1709200929.327,-61.035,-42.480,-38.574,-34.180,0.000
1709200929.331,-54.688,-49.805,-38.574,-25.879,0.000
1709200929.335,-57.617,-33.203,-37.109,-34.180,0.000
1709200929.339,-60.059,-33.691,-41.016,-48.828,0.000
1709200929.343,-63.477,-48.828,-40.527,-48.828,0.000
1709200929.346,-60.059,-49.316,-41.504,-45.898,0.000
1709200929.350,-45.898,-43.945,-41.016,-48.340,0.000
1709200929.354,-38.574,-41.992,-41.016,-49.316,0.000
1709200929.358,-40.527,-46.387,-35.645,-51.270,0.000
1709200929.362,-36.621,-36.621,-25.879,-46.387,0.000
1709200929.366,-28.320,-26.855,-26.367,-39.062,0.000
1709200929.370,-26.855,-29.297,-34.180,-40.039,0.000
1709200929.374,-32.715,-32.715,-34.668,-31.738,0.000
1709200929.378,-36.621,-32.715,-31.738,-23.438,0.000
1709200929.382,-40.039,-30.762,-34.180,-31.250,0.000
1709200929.385,-40.039,-43.945,-41.016,-35.645,0.000
1709200929.389,-30.762,-40.039,-35.156,-34.668,0.000
1709200929.393,-23.926,-24.414,-21.973,-33.203,0.000
1709200929.397,-28.809,-35.645,-26.367,-36.133,0.000
1709200929.401,-39.062,-42.969,-30.273,-33.203,0.000
1709200929.405,-42.969,-38.086,-32.715,-33.203,0.000
1709200929.409,-32.715,-36.621,-36.621,-30.762,0.000
1709200929.413,-25.879,-29.785,-36.133,-33.691,0.000
1709200929.417,-35.645,-36.133,-35.156,-34.180,0.000
1709200929.421,-42.480,-46.387,-38.574,-30.762,0.000
1709200929.425,-36.621,-26.367,-40.527,-37.598,0.000
1709200929.428,-36.133,-23.926,-39.551,-38.086,0.000
1709200929.432,-41.992,-32.227,-36.133,-31.738,0.000
1709200929.436,-44.922,-29.785,-35.156,-30.762,0.000
1709200929.440,-54.199,-38.086,-37.109,-33.691,0.000
1709200929.444,-57.617,-48.828,-38.574,-30.762,0.000
1709200929.448,-49.805,-52.734,-41.016,-35.645,0.000
1709200929.452,-46.387,-53.223,-39.062,-41.504,0.000
1709200929.456,-44.922,-49.316,-38.086,-43.457,0.000
1709200929.460,-50.781,-47.852,-46.387,-44.922,0.000
1709200929.464,-54.688,-52.246,-41.504,-29.297,0.000
1709200929.468,-41.992,-41.504,-23.926,-7.324,0.000
1709200929.471,-28.809,-32.715,-30.273,-15.137,0.000
1709200929.475,-28.320,-47.363,-38.574,-37.109,0.000
1709200929.479,-38.086,-46.387,-31.250,-39.551,0.000
1709200929.483,-45.410,-41.016,-31.250,-37.598,0.000
1709200929.487,-32.227,-40.527,-33.203,-28.809,0.000
1709200929.491,-19.043,-40.039,-25.391,-19.531,0.000
1709200929.495,-21.484,-40.039,-21.484,-20.020,0.000
1709200929.499,-29.297,-39.062,-23.438,-21.973,0.000
1709200929.503,-36.133,-40.039,-29.785,-27.344,0.000
1709200929.507,-25.391,-33.691,-29.297,-24.414,0.000
1709200929.511,-29.785,-36.133,-30.762,-19.043,0.000
1709200929.514,-35.156,-31.738,-34.180,-26.367,0.000
1709200929.518,-38.086,-31.738,-43.945,-45.410,0.000
1709200929.522,-45.898,-42.969,-49.316,-41.992,0.000
1709200929.526,-50.293,-41.016,-41.504,-34.180,0.000
1709200929.530,-42.969,-32.227,-39.062,-41.504,0.000
1709200929.534,-29.297,-35.645,-37.598,-43.945,0.000
1709200929.538,-36.133,-41.016,-34.668,-37.598,0.000
1709200929.542,-47.852,-36.133,-35.645,-34.668,0.000
1709200929.546,-46.387,-37.109,-34.180,-36.133,0.000
1709200929.550,-30.273,-44.434,-34.668,-33.691,0.000
1709200929.553,-29.785,-46.387,-32.715,-32.715,0.000
1709200929.557,-40.039,-43.945,-37.598,-36.133,0.000
1709200929.561,-46.387,-39.551,-41.016,-51.270,0.000
1709200929.565,-43.457,-38.086,-32.227,-49.316,0.000
1709200929.569,-36.133,-41.016,-28.809,-38.574,0.000
1709200929.573,-42.480,-44.922,-31.250,-37.598,0.000
1709200929.577,-53.711,-41.016,-35.645,-41.016,0.000
1709200929.581,-54.688,-45.898,-35.156,-45.898,0.000
1709200929.585,-47.363,-45.898,-37.109,-54.688,0.000
1709200929.589,-47.363,-36.621,-42.480,-56.641,0.000
1709200929.593,-44.922,-41.504,-41.016,-55.664,0.000
1709200929.596,-36.621,-44.434,-31.738,-50.293,0.000
1709200929.600,-41.016,-49.805,-33.203,-32.227,0.000
1709200929.604,-45.898,-49.805,-38.574,-31.738,0.000
1709200929.608,-39.551,-44.922,-35.645,-45.898,0.000
1709200929.612,-36.133,-48.340,-38.574,-44.922,0.000
1709200929.616,-44.922,-50.781,-38.086,-47.363,0.000
1709200929.620,-50.781,-48.828,-39.551,-56.152,0.000
1709200929.624,-51.270,-50.293,-44.434,-53.223,0.000
1709200929.628,-45.410,-53.223,-44.922,-48.340,0.000
1709200929.632,-39.551,-53.711,-41.992,-49.316,0.000
1709200929.635,-46.387,-51.758,-44.434,-57.617,0.000
1709200929.639,-51.758,-52.246,-44.922,-54.688,0.000
1709200929.643,-52.734,-56.641,-43.457,-42.969,0.000
1709200929.647,-38.574,-50.781,-40.039,-31.738,0.000
1709200929.651,-28.320,-41.992,-41.504,-30.762,0.000
1709200929.655,-29.297,-44.434,-47.852,-36.621,0.000
1709200929.659,-29.785,-45.898,-45.410,-36.133,0.000
1709200929.663,-38.086,-41.504,-44.922,-37.598,0.000
1709200929.667,-35.645,-41.992,-40.527,-43.945,0.000
1709200929.671,-28.809,-44.922,-37.598,-40.527,0.000
1709200929.675,-37.598,-40.527,-41.992,-36.133,0.000
1709200929.678,-51.758,-34.668,-45.898,-37.598,0.000
1709200929.682,-56.152,-37.109,-41.504,-38.086,0.000
1709200929.686,-38.086,-33.691,-32.715,-25.391,0.000
1709200929.690,-26.855,-34.180,-31.738,-20.508,0.000
1709200929.694,-33.203,-34.180,-38.574,-34.180,0.000
1709200929.698,-38.574,-25.879,-36.133,-41.504,0.000
1709200929.702,-41.504,-34.668,-25.879,-38.086,0.000
1709200929.706,-46.387,-42.969,-28.320,-32.715,0.000
1709200929.710,-40.039,-31.250,-33.691,-30.762,0.000
1709200929.714,-24.902,-17.090,-26.855,-22.461,0.000
1709200929.718,-33.691,-28.809,-23.926,-16.113,0.000
1709200929.721,-41.992,-33.691,-30.762,-15.625,0.000
1709200929.725,-41.992,-20.996,-29.297,-22.949,0.000
1709200929.729,-38.086,-22.949,-27.344,-41.016,0.000
1709200929.733,-36.621,-33.691,-32.227,-47.852,0.000
1709200929.737,-45.410,-41.992,-35.156,-48.828,0.000
1709200929.741,-50.293,-42.480,-40.039,-49.316,0.000
1709200929.745,-47.363,-35.645,-40.527,-42.480,0.000
1709200929.749,-35.645,-41.992,-41.992,-33.691,0.000
1709200929.753,-30.762,-39.551,-43.457,-40.039,0.000
1709200929.757,-33.691,-31.738,-42.969,-52.246,0.000
1709200929.761,-38.574,-42.969,-36.133,-49.316,0.000
1709200929.764,-38.574,-39.062,-31.738,-41.016,0.000
1709200929.768,-27.344,-25.391,-27.344,-28.809,0.000
1709200929.772,-20.020,-21.973,-24.414,-28.809,0.000
1709200929.776,-28.809,-38.086,-37.109,-37.598,0.000
1709200929.780,-40.039,-45.898,-37.109,-37.598,0.000
1709200929.784,-41.016,-44.922,-41.016,-35.645,0.000
1709200929.788,-30.273,-35.645,-42.969,-35.156,0.000
1709200929.792,-23.926,-39.551,-42.969,-29.785,0.000
1709200929.796,-24.902,-49.316,-43.457,-21.973,0.000
1709200929.800,-26.855,-32.715,-37.109,-24.414,0.000
1709200929.803,-30.273,-27.832,-36.133,-31.250,0.000
1709200929.807,-21.973,-37.109,-36.133,-35.156,0.000
1709200929.811,-13.184,-33.691,-36.621,-31.250,0.000
1709200929.815,-19.531,-39.062,-45.898,-35.645,0.000
1709200929.819,-24.902,-51.758,-41.504,-41.504,0.000
1709200929.823,-32.227,-49.805,-31.250,-43.457,0.000
1709200929.827,-25.879,-36.133,-33.691,-36.133,0.000
1709200929.831,-20.020,-33.691,-35.156,-26.855,0.000
1709200929.835,-28.809,-42.480,-34.668,-37.598,0.000
1709200929.839,-38.086,-54.199,-35.645,-39.062,0.000
1709200929.843,-46.875,-51.758,-38.574,-32.227,0.000
1709200929.846,-44.922,-37.109,-44.434,-38.086,0.000
1709200929.850,-34.668,-41.992,-41.504,-37.109,0.000
1709200929.854,-35.645,-48.340,-36.621,-38.574,0.000
1709200929.858,-41.016,-44.434,-35.645,-40.527,0.000
1709200929.862,-36.621,-34.180,-27.344,-25.391,0.000
1709200929.866,-35.156,-40.039,-22.949,-25.879,0.000
1709200929.870,-33.203,-45.410,-29.297,-29.297,0.000
1709200929.874,-35.645,-43.945,-35.156,-34.668,0.000
1709200929.878,-47.852,-50.781,-40.039,-56.641,0.000
1709200929.882,-58.594,-52.246,-43.945,-53.223,0.000
1709200929.886,-68.359,-48.828,-40.039,-38.574,0.000
1709200929.889,-65.430,-38.574,-34.668,-35.645,0.000
1709200929.893,-56.641,-36.621,-31.738,-41.992,0.000
1709200929.897,-57.617,-42.969,-33.691,-53.711,0.000
1709200929.901,-57.129,-45.410,-37.109,-58.594,0.000
1709200929.905,-51.270,-41.992,-34.180,-54.688,0.000
1709200929.909,-43.945,-37.109,-34.668,-44.922,0.000
1709200929.913,-48.828,-42.480,-40.039,-43.945,0.000
1709200929.917,-49.805,-44.434,-41.016,-47.363,0.000
1709200929.921,-53.223,-45.410,-46.387,-47.852,0.000
1709200929.925,-54.688,-51.270,-48.340,-43.945,0.000
1709200929.928,-43.945,-55.664,-37.598,-34.180,0.000
1709200929.932,-42.480,-49.805,-31.250,-23.926,0.000
1709200929.936,-36.621,-35.156,-33.203,-24.902,0.000
1709200929.940,-32.227,-34.668,-34.668,-31.738,0.000
1709200929.944,-33.203,-36.133,-29.297,-31.250,0.000
1709200929.948,-34.180,-37.109,-33.691,-23.438,0.000
1709200929.952,-29.785,-36.133,-35.156,-25.879,0.000
1709200929.956,-30.762,-36.621,-24.902,-25.879,0.000
1709200929.960,-50.293,-42.969,-31.738,-29.297,0.000
1709200929.964,-55.664,-40.527,-33.203,-41.016,0.000
1709200929.968,-49.316,-41.992,-23.926,-40.039,0.000
1709200929.971,-35.156,-45.410,-31.250,-40.039,0.000
1709200929.975,-38.574,-47.852,-43.457,-42.480,0.000
1709200929.979,-60.547,-37.598,-39.551,-39.551,0.000
1709200929.983,-62.012,-36.621,-38.574,-37.109,0.000
1709200929.987,-50.293,-43.457,-34.180,-34.180,0.000
1709200929.991,-42.969,-37.598,-35.156,-36.133,0.000
1709200929.995,-40.039,-29.785,-39.062,-42.480,0.000
1709200929.999,-43.945,-26.367,-38.574,-43.457,0.000
1709200930.003,-54.688,-34.180,-37.109,-47.363,0.000
1709200930.007,-52.246,-38.086,-32.227,-44.922,0.000
1709200930.011,-41.016,-29.297,-37.598,-41.016,0.000
1709200930.014,-37.598,-32.227,-38.574,-37.109,0.000
1709200930.018,-46.387,-49.316,-35.156,-33.203,0.000
1709200930.022,-48.340,-47.852,-30.273,-37.109,0.000
1709200930.026,-36.621,-34.668,-26.855,-34.180,0.000
1709200930.030,-26.855,-40.039,-21.973,-33.691,0.000
1709200930.034,-30.273,-51.270,-21.484,-31.738,0.000
1709200930.038,-41.992,-47.852,-29.297,-31.250,0.000
1709200930.042,-51.758,-47.852,-32.715,-26.855,0.000
1709200930.046,-47.852,-46.387,-32.715,-23.438,0.000
1709200930.050,-37.598,-41.016,-33.203,-23.438,0.000
1709200930.053,-37.598,-37.598,-36.133,-22.949,0.000
1709200930.057,-50.293,-36.133,-36.133,-33.691,0.000
1709200930.061,-49.316,-41.504,-32.227,-24.414,0.000
1709200930.065,-45.410,-46.875,-34.180,-22.949,0.000
1709200930.069,-50.781,-43.457,-35.156,-39.062,0.000
1709200930.073,-42.480,-37.109,-33.691,-36.133,0.000
1709200930.077,-38.574,-48.340,-27.344,-32.227,0.000
1709200930.081,-50.293,-60.059,-25.879,-32.227,0.000
1709200930.085,-53.711,-46.387,-30.273,-33.203,0.000
1709200930.089,-46.387,-43.945,-30.273,-33.691,0.000
1709200930.093,-45.898,-53.223,-31.738,-32.715,0.000
1709200930.096,-48.828,-53.223,-34.668,-40.527,0.000
1709200930.100,-53.711,-48.340,-32.715,-46.387,0.000
1709200930.104,-51.270,-49.316,-32.715,-40.039,0.000
1709200930.108,-40.039,-52.734,-33.691,-35.645,0.000
1709200930.112,-29.297,-42.480,-29.785,-32.227,0.000
1709200930.116,-32.715,-34.668,-30.273,-34.180,0.000
1709200930.120,-40.527,-32.715,-30.762,-33.691,0.000
1709200930.124,-46.875,-53.223,-35.156,-28.809,0.000
1709200930.128,-40.039,-49.316,-39.551,-28.320,0.000
1709200930.132,-24.902,-25.879,-34.180,-39.062,0.000
1709200930.136,-28.320,-39.062,-37.109,-43.457,0.000
1709200930.139,-40.039,-42.480,-41.016,-40.039,0.000
1709200930.143,-47.852,-39.551,-41.504,-40.039,0.000
1709200930.147,-34.180,-35.645,-38.574,-31.250,0.000
1709200930.151,-22.949,-36.133,-31.250,-24.414,0.000
1709200930.155,-24.902,-40.527,-32.715,-24.414,0.000
1709200930.159,-32.227,-40.527,-41.504,-29.785,0.000
1709200930.163,-41.992,-42.969,-39.551,-29.297,0.000
1709200930.167,-42.969,-46.875,-35.645,-27.832,0.000
1709200930.171,-34.668,-49.805,-34.668,-31.250,0.000
1709200930.175,-30.273,-37.598,-35.645,-32.227,0.000
1709200930.179,-39.062,-36.621,-36.621,-40.039,0.000
1709200930.182,-49.805,-46.875,-39.062,-43.945,0.000
1709200930.186,-49.316,-45.410,-37.598,-39.551,0.000
1709200930.190,-42.480,-39.062,-29.785,-35.156,0.000
1709200930.194,-37.598,-35.645,-32.715,-41.016,0.000
1709200930.198,-40.527,-37.109,-35.156,-46.875,0.000
1709200930.202,-43.945,-40.527,-40.039,-48.828,0.000
1709200930.206,-41.016,-41.016,-38.574,-44.922,0.000
1709200930.210,-34.668,-40.527,-38.574,-49.316,0.000
1709200930.214,-38.086,-49.316,-46.387,-48.828,0.000
1709200930.218,-39.062,-52.246,-45.410,-45.898,0.000
1709200930.221,-34.180,-39.551,-38.574,-55.664,0.000
1709200930.225,-36.621,-34.668,-38.086,-53.711,0.000
1709200930.229,-34.180,-36.621,-41.992,-42.480,0.000
1709200930.233,-27.344,-35.645,-38.574,-42.480,0.000
1709200930.237,-30.762,-38.574,-41.016,-49.805,0.000
1709200930.241,-41.504,-51.758,-42.969,-49.316,0.000
1709200930.245,-46.387,-48.340,-39.062,-44.922,0.000
1709200930.249,-42.480,-41.992,-40.039,-39.551,0.000
1709200930.253,-39.551,-48.340,-40.039,-41.992,0.000
1709200930.257,-39.062,-45.898,-30.762,-44.434,0.000
1709200930.261,-47.852,-49.316,-36.133,-39.062,0.000
1709200930.264,-57.617,-50.293,-46.387,-44.922,0.000
1709200930.268,-47.852,-39.551,-38.574,-35.645,0.000
1709200930.272,-33.203,-38.086,-33.203,-27.344,0.000
1709200930.276,-40.527,-42.969,-36.133,-36.621,0.000
1709200930.280,-54.199,-42.480,-48.340,-41.992,0.000
1709200930.284,-53.711,-38.086,-48.828,-47.852,0.000
1709200930.288,-46.387,-39.062,-38.574,-47.363,0.000
1709200930.292,-40.527,-40.527,-35.156,-46.875,0.000
1709200930.296,-40.039,-42.969,-36.133,-47.852,0.000
1709200930.300,-50.781,-47.363,-37.109,-47.852,0.000
1709200930.304,-48.828,-49.316,-29.297,-34.180,0.000
1709200930.307,-41.504,-42.969,-33.691,-24.902,0.000
1709200930.311,-43.457,-34.180,-46.387,-33.691,0.000
1709200930.315,-37.109,-38.574,-50.293,-42.480,0.000
1709200930.319,-38.574,-41.504,-41.992,-49.316,0.000
1709200930.323,-49.805,-45.898,-38.574,-45.410,0.000
1709200930.327,-45.898,-47.363,-39.551,-33.691,0.000
1709200930.331,-32.715,-39.551,-41.992,-24.414,0.000
1709200930.335,-26.367,-35.645,-53.711,-23.438,0.000
1709200930.339,-39.551,-32.715,-47.363,-38.574,0.000
1709200930.343,-45.410,-27.832,-28.320,-36.621,0.000
1709200930.346,-42.480,-34.668,-38.086,-37.109,0.000
1709200930.350,-39.551,-46.875,-51.758,-32.227,0.000
1709200930.354,-29.785,-41.504,-45.898,-27.344,0.000
1709200930.358,-36.133,-37.109,-44.922,-36.133,0.000
1709200930.362,-41.016,-44.922,-42.480,-35.645,0.000
1709200930.366,-40.527,-49.805,-44.434,-37.598,0.000
1709200930.370,-33.203,-47.852,-46.387,-38.574,0.000
1709200930.374,-29.297,-41.992,-39.551,-37.598,0.000
1709200930.378,-38.086,-40.527,-40.039,-43.457,0.000
1709200930.382,-45.410,-41.992,-41.504,-48.828,0.000
1709200930.386,-43.457,-34.668,-41.992,-44.434,0.000
1709200930.389,-38.086,-39.551,-44.922,-35.645,0.000
1709200930.393,-35.156,-57.129,-39.062,-28.809,0.000
1709200930.397,-39.062,-52.246,-37.598,-36.621,0.000
1709200930.401,-48.828,-47.852,-42.969,-51.758,0.000
1709200930.405,-46.387,-48.340,-42.480,-50.293,0.000
1709200930.409,-40.527,-45.410,-38.086,-39.062,0.000
1709200930.413,-45.410,-43.945,-39.551,-34.668,0.000
1709200930.417,-45.410,-47.852,-42.480,-40.527,0.000
1709200930.421,-45.898,-55.176,-41.504,-43.457,0.000
1709200930.425,-42.969,-52.246,-47.363,-47.363,0.000
1709200930.429,-36.621,-47.852,-56.152,-53.711,0.000
1709200930.432,-27.344,-42.969,-44.922,-46.875,0.000
1709200930.436,-26.367,-39.551,-33.203,-45.898,0.000
1709200930.440,-38.086,-50.781,-41.992,-48.340,0.000
1709200930.444,-41.504,-45.410,-47.363,-45.410,0.000
1709200930.448,-37.598,-41.992,-42.480,-43.457,0.000
1709200930.452,-34.668,-51.270,-38.574,-44.434,0.000
1709200930.456,-27.832,-42.969,-36.621,-40.527,0.000
1709200930.460,-21.973,-29.297,-35.645,-34.180,0.000
1709200930.464,-25.879,-35.156,-36.133,-34.180,0.000
1709200930.468,-26.855,-51.270,-37.598,-32.227,0.000
1709200930.472,-19.043,-50.781,-40.527,-23.438,0.000
1709200930.475,-19.043,-42.480,-41.016,-14.648,0.000
1709200930.479,-29.785,-40.039,-32.227,-15.625,0.000
1709200930.483,-39.062,-48.828,-35.156,-22.949,0.000
1709200930.487,-40.039,-51.270,-35.645,-22.949,0.000
1709200930.491,-39.551,-43.945,-34.180,-29.785,0.000
1709200930.495,-41.016,-35.156,-36.133,-43.457,0.000
1709200930.499,-38.086,-44.434,-28.320,-30.273,0.000
1709200930.503,-42.969,-42.480,-24.902,-22.461,0.000
1709200930.507,-47.363,-29.297,-30.762,-33.691,0.000
1709200930.511,-37.598,-40.527,-32.227,-32.227,0.000
