timestamps,TP9,AF7,AF8,TP10,Right AUX
1709206383.878,-41.504,-28.809,-52.734,-29.297,0.000
1709206383.882,-32.715,-41.016,-52.734,-28.320,0.000
1709206383.886,-29.297,-34.180,-48.340,-25.391,0.000
1709206383.889,-37.598,-27.832,-42.969,-21.484,0.000
1709206383.893,-34.668,-32.227,-43.457,-24.414,0.000
1709206383.897,-25.391,-57.129,-42.969,-26.367,0.000
1709206383.901,-23.926,-62.012,-43.945,-27.344,0.000
1709206383.905,-27.344,-35.645,-40.527,-34.668,0.000
1709206383.909,-24.902,-35.645,-38.086,-32.227,0.000
1709206383.913,-26.855,-53.223,-43.457,-24.902,0.000
1709206383.917,-30.762,-35.156,-45.898,-19.043,0.000
1709206383.921,-24.902,-19.043,-44.922,-24.902,0.000
1709206383.921,-24.902,-19.043,-44.922,-24.902,0.000
1709206383.925,-35.645,-37.109,-43.945,-32.227,0.000
1709206383.929,-36.133,-53.711,-41.992,-23.438,0.000
1709206383.933,-25.879,-36.133,-39.062,-19.043,0.000
1709206383.936,-24.414,-26.367,-39.062,-26.367,0.000
1709206383.940,-26.855,-45.410,-35.156,-24.414,0.000
1709206383.944,-25.391,-57.617,-28.809,-14.648,0.000
1709206383.948,-29.785,-45.898,-26.855,-18.555,0.000
1709206383.952,-31.738,-33.203,-29.785,-22.461,0.000
1709206383.956,-27.344,-44.434,-30.273,-15.625,0.000
1709206383.960,-22.949,-60.547,-24.414,-5.371,0.000
1709206383.964,-22.461,-18.066,-19.043,-2.441,0.000
1709206383.968,-26.855,-8.301,-15.137,2.441,0.000
1709206383.972,-25.391,-34.180,-12.695,10.742,0.000
1709206383.976,-10.742,-23.438,-13.672,6.348,0.000
1709206383.979,-14.648,-3.418,-16.602,-7.324,0.000
1709206383.983,-22.461,-14.648,-21.484,-17.578,0.000
1709206383.987,-21.484,-35.645,-20.508,-15.625,0.000
1709206383.991,-29.297,-38.574,-21.484,-15.625,0.000
1709206383.995,-27.344,-23.926,-23.438,-11.719,0.000
1709206383.999,-29.297,-10.254,-27.832,-17.578,0.000
1709206384.003,-34.668,-31.250,-28.809,-21.484,0.000
1709206384.007,-45.410,-36.133,-32.715,-21.484,0.000
1709206384.011,-44.922,1.953,-29.785,-29.297,0.000
1709206384.015,-37.109,-4.395,-24.902,-29.785,0.000
1709206384.019,-32.227,-27.832,-29.297,-32.227,0.000
1709206384.022,-33.203,-17.578,-31.250,-37.109,0.000
1709206384.026,-35.156,-12.207,-30.273,-37.598,0.000
1709206384.030,-37.109,-32.227,-33.691,-36.133,0.000
1709206384.034,-33.691,-38.086,-31.250,-32.227,0.000
1709206384.038,-25.879,-27.344,-30.762,-31.738,0.000
1709206384.042,-33.203,-26.855,-36.621,-38.574,0.000
1709206384.046,-39.551,-43.457,-33.203,-38.574,0.000
1709206384.050,-37.598,-63.965,-27.344,-26.855,0.000
1709206384.054,-45.898,-25.879,-28.809,-35.645,0.000
1709206384.058,-52.246,3.906,-34.180,-47.363,0.000
1709206384.062,-49.805,-13.672,-33.691,-46.875,0.000
1709206384.065,-58.594,-19.531,-31.250,-46.387,0.000
1709206384.069,-71.289,-18.555,-33.691,-52.734,0.000
1709206384.073,-69.336,-21.973,-32.715,-55.664,0.000
1709206384.077,-57.617,-33.203,-32.715,-52.246,0.000
1709206384.081,-53.223,-33.203,-34.180,-51.270,0.000
1709206384.085,-62.500,-47.852,-36.133,-57.129,0.000
1709206384.089,-77.637,-44.434,-38.086,-69.336,0.000
1709206384.093,-74.707,-36.133,-35.156,-61.035,0.000
1709206384.097,-64.453,-32.227,-34.668,-46.387,0.000
1709206384.101,-63.477,-4.883,-38.574,-50.781,0.000
1709206384.105,-67.871,-19.043,-41.504,-57.617,0.000
1709206384.108,-68.848,-49.805,-38.574,-51.758,0.000
1709206384.112,-58.105,-24.902,-33.203,-36.133,0.000
1709206384.116,-42.969,4.395,-38.574,-32.715,0.000
1709206384.120,-38.086,-15.137,-39.551,-37.109,0.000
1709206384.124,-42.969,-28.809,-37.598,-35.645,0.000
1709206384.128,-49.316,-12.695,-40.527,-30.762,0.000
1709206384.132,-42.480,-2.930,-39.062,-34.180,0.000
1709206384.136,-38.086,-7.812,-42.969,-47.363,0.000
1709206384.140,-33.691,-26.367,-49.316,-39.062,0.000
1709206384.144,-36.133,10.742,-47.363,-40.527,0.000
1709206384.147,-45.410,24.414,-43.945,-52.734,0.000
1709206384.151,-46.875,-8.301,-42.480,-49.316,0.000
1709206384.155,-43.457,-9.766,-38.574,-50.293,0.000
1709206384.159,-38.574,4.395,-35.645,-47.852,0.000
1709206384.163,-39.551,-7.812,-33.691,-51.270,0.000
1709206384.167,-46.875,-36.621,-34.180,-55.176,0.000
1709206384.171,-48.828,-26.367,-36.621,-49.805,0.000
1709206384.175,-49.316,-5.859,-39.062,-50.781,0.000
1709206384.179,-51.758,-16.602,-35.156,-53.711,0.000
1709206384.183,-57.617,-41.992,-33.691,-54.688,0.000
1709206384.186,-70.801,-44.922,-40.527,-48.340,0.000
1709206384.190,-71.289,0.977,-38.574,-48.828,0.000
1709206384.194,-62.500,0.977,-34.180,-41.504,0.000
1709206384.198,-56.641,-29.297,-34.180,-33.691,0.000
1709206384.202,-53.223,-21.484,-33.691,-28.809,0.000
1709206384.206,-56.641,-15.625,-33.203,-32.715,0.000
1709206384.210,-58.594,-25.391,-34.668,-32.715,0.000
1709206384.214,-52.734,-38.086,-28.809,-27.832,0.000
1709206384.218,-54.688,-28.320,-26.367,-35.156,0.000
1709206384.222,-57.129,-21.973,-29.785,-35.645,0.000
1709206384.226,-63.477,-48.340,-29.785,-36.133,0.000
1709206384.229,-69.336,-75.684,-31.250,-29.297,0.000
1709206384.233,-62.988,-49.805,-32.715,-25.391,0.000
1709206384.237,-55.176,-27.344,-37.109,-36.133,0.000
1709206384.241,-50.781,-38.574,-35.156,-38.086,0.000
1709206384.245,-54.688,-43.945,-30.273,-42.480,0.000
1709206384.249,-61.035,-34.668,-34.668,-52.734,0.000
1709206384.253,-56.641,-36.133,-41.504,-53.223,0.000
1709206384.257,-46.875,-49.316,-47.852,-54.688,0.000
1709206384.261,-36.133,-52.246,-47.852,-54.199,0.000
1709206384.264,-41.504,-52.734,-44.922,-51.758,0.000
1709206384.268,-43.945,-51.270,-43.945,-49.316,0.000
1709206384.272,-35.156,-68.359,-40.039,-43.457,0.000
1709206384.276,-30.762,-63.965,-41.016,-33.691,0.000
1709206384.280,-23.438,-36.621,-43.457,-41.016,0.000
1709206384.284,-28.809,-58.594,-42.480,-49.316,0.000
1709206384.288,-33.691,-62.500,-38.086,-38.574,0.000
1709206384.292,-21.484,-43.457,-32.227,-27.344,0.000
1709206384.296,-14.160,-39.551,-36.133,-27.344,0.000
1709206384.300,-26.855,-51.758,-37.598,-38.086,0.000
1709206384.304,-47.363,-74.707,-36.621,-50.781,0.000
1709206384.308,-53.711,-70.312,-36.621,-49.805,0.000
1709206384.311,-49.316,-60.059,-36.621,-45.410,0.000
1709206384.315,-46.387,-62.500,-38.574,-45.898,0.000
1709206384.319,-44.434,-77.148,-39.062,-47.363,0.000
1709206384.323,-45.410,-74.219,-39.551,-53.711,0.000
1709206384.327,-55.664,-61.523,-39.062,-49.316,0.000
1709206384.331,-64.941,-64.941,-39.062,-39.551,0.000
1709206384.335,-62.500,-87.402,-37.109,-30.273,0.000
1709206384.339,-52.734,-61.523,-31.738,-28.809,0.000
1709206384.343,-54.688,-49.316,-30.762,-36.133,0.000
1709206384.347,-58.105,-61.523,-33.203,-33.691,0.000
1709206384.351,-53.711,-52.734,-33.203,-28.320,0.000
1709206384.354,-39.062,-39.062,-31.250,-25.879,0.000
1709206384.358,-31.250,-42.480,-31.738,-27.344,0.000
1709206384.362,-33.203,-59.082,-34.180,-34.180,0.000
1709206384.366,-35.645,-69.336,-32.715,-33.691,0.000
1709206384.370,-38.574,-47.363,-34.180,-37.598,0.000
1709206384.374,-32.227,-30.273,-37.598,-42.969,0.000
1709206384.378,-24.902,-55.664,-37.598,-41.016,0.000
1709206384.382,-26.367,-57.129,-45.898,-40.039,0.000
1709206384.386,-26.367,-30.273,-48.340,-50.293,0.000
1709206384.390,-27.344,-37.109,-41.992,-44.434,0.000
1709206384.394,-20.996,-47.363,-35.645,-38.574,0.000
1709206384.397,-8.301,-37.598,-40.039,-37.598,0.000
1709206384.401,-12.207,-25.879,-45.410,-41.992,0.000
1709206384.405,-31.738,-41.016,-39.551,-47.363,0.000
1709206384.409,-40.527,-59.082,-36.133,-36.621,0.000
1709206384.413,-36.133,-51.758,-34.668,-29.297,0.000
1709206384.417,-32.227,-39.062,-34.668,-33.691,0.000
1709206384.421,-35.645,-52.246,-36.133,-36.133,0.000
1709206384.425,-46.875,-77.637,-36.621,-27.344,0.000
1709206384.429,-52.734,-36.621,-36.133,-39.551,0.000
1709206384.433,-42.480,-18.555,-34.180,-46.875,0.000
1709206384.437,-33.203,-43.457,-33.691,-37.598,0.000
1709206384.440,-37.109,-47.852,-31.250,-44.922,0.000
1709206384.444,-41.504,-42.969,-29.785,-45.898,0.000
1709206384.448,-45.410,-45.898,-31.250,-42.969,0.000
1709206384.452,-45.410,-57.617,-35.156,-43.945,0.000
1709206384.456,-38.086,-56.152,-35.156,-36.133,0.000
1709206384.460,-37.109,-50.293,-31.250,-25.391,0.000
1709206384.464,-47.852,-43.945,-32.715,-25.879,0.000
1709206384.468,-46.387,-67.871,-34.180,-22.949,0.000
1709206384.472,-44.434,-75.195,-37.598,-12.207,0.000
1709206384.476,-46.875,-32.227,-47.852,-24.902,0.000
1709206384.479,-39.551,-37.109,-45.898,-31.250,0.000
1709206384.483,-38.086,-60.547,-41.992,-31.738,0.000
1709206384.487,0.000,-55.176,-48.340,-33.691,0.000
1709206384.491,0.000,-40.039,-52.734,-36.133,0.000
1709206384.495,0.000,-48.340,-52.246,-43.945,0.000
1709206384.499,0.000,-54.688,-50.781,-43.457,0.000
1709206384.503,0.000,-38.086,-46.387,-43.457,0.000
1709206384.507,0.000,-42.969,-40.039,-45.410,0.000
1709206384.511,0.000,-51.270,-42.969,-44.434,0.000
1709206384.515,0.000,-71.777,-44.434,-33.203,0.000
1709206384.519,0.000,-38.086,-40.527,-34.668,0.000
1709206384.522,0.000,-10.254,-40.039,-45.410,0.000
1709206384.526,0.000,-35.645,-41.504,-49.316,0.000
1709206384.530,0.000,-38.086,-41.504,-52.734,0.000
1709206384.534,-28.809,-32.227,-41.504,-61.523,0.000
1709206384.538,-23.926,-38.086,-42.480,-68.359,0.000
1709206384.542,-28.320,-51.758,-39.551,-69.824,0.000
1709206384.546,-48.340,-44.922,-43.457,-73.730,0.000
1709206384.550,-53.711,-39.551,-44.922,-68.848,0.000
1709206384.554,-44.434,-51.758,-42.480,-66.895,0.000
1709206384.558,-45.410,-64.453,-43.945,-70.312,0.000
1709206384.561,-44.434,-54.199,-49.316,-58.594,0.000
1709206384.565,-48.828,-23.438,-49.316,-59.082,0.000
1709206384.569,-57.617,-44.922,-45.898,-53.711,0.000
1709206384.573,-45.898,-55.176,-44.434,-41.992,0.000
1709206384.577,-34.668,-33.203,-43.457,-42.480,0.000
1709206384.581,-33.203,-31.250,-41.504,-38.086,0.000
1709206384.585,-41.016,-58.594,-42.480,-46.875,0.000
1709206384.589,-59.082,-76.660,-38.574,-47.363,0.000
1709206384.593,-62.500,-54.688,-44.434,-46.387,0.000
1709206384.597,-47.852,-37.598,-45.410,-50.781,0.000
1709206384.601,-45.898,-66.895,-39.551,-48.828,0.000
1709206384.604,-58.105,-99.609,-40.527,-36.133,0.000
1709206384.608,-63.965,-62.988,-42.480,-41.992,0.000
1709206384.612,-55.664,-33.691,-44.922,-51.270,0.000
1709206384.616,-51.758,-55.664,-44.922,-42.969,0.000
1709206384.620,-53.711,-63.965,-42.480,-43.945,0.000
1709206384.624,-52.246,-62.988,-41.504,-49.316,0.000
1709206384.628,-52.734,-63.965,-42.480,-53.711,0.000
1709206384.632,-44.922,-63.477,-43.457,-47.852,0.000
1709206384.636,-36.133,-58.105,-44.922,-38.574,0.000
1709206384.639,-39.062,-53.223,-45.898,-39.551,0.000
1709206384.643,-44.922,-58.105,-42.480,-44.434,0.000
1709206384.647,-47.363,-78.613,-38.574,-41.992,0.000
1709206384.651,-50.293,-70.312,-45.898,-37.598,0.000
1709206384.655,-47.363,-34.180,-46.387,-44.434,0.000
1709206384.659,-38.574,-38.086,-37.598,-43.457,0.000
1709206384.663,-44.434,-59.570,-36.133,-38.086,0.000
1709206384.667,-53.223,-50.781,-32.715,-43.945,0.000
1709206384.671,-47.363,-34.668,-29.785,-43.457,0.000
1709206384.675,-42.969,-36.621,-33.203,-41.016,0.000
1709206384.679,-44.922,-57.129,-35.156,-42.480,0.000
1709206384.683,-50.293,-61.035,-35.156,-48.828,0.000
1709206384.686,-56.641,-44.922,-40.527,-52.246,0.000
1709206384.690,-56.641,-49.316,-39.551,-50.781,0.000
1709206384.694,-47.852,-63.965,-38.086,-51.270,0.000
1709206384.698,-34.668,-53.223,-42.969,-43.945,0.000
1709206384.702,-33.203,-30.273,-37.598,-37.109,0.000
1709206384.706,-44.434,-32.715,-39.062,-37.598,0.000
1709206384.710,-46.875,-62.012,-42.480,-25.391,0.000
1709206384.714,-39.062,-20.996,-40.039,-25.391,0.000
1709206384.718,-39.062,-0.977,-41.016,-36.621,0.000
1709206384.722,-36.621,-23.438,-37.598,-38.086,0.000
1709206384.726,-46.875,-20.996,-34.180,-35.645,0.000
1709206384.729,-59.570,-16.602,-36.621,-38.086,0.000
1709206384.733,-51.758,-20.996,-38.086,-39.551,0.000
1709206384.737,-42.480,-32.227,-36.133,-29.297,0.000
1709206384.741,-43.457,-38.574,-34.180,-28.320,0.000
1709206384.745,-51.270,-37.598,-32.227,-30.762,0.000
1709206384.749,-63.965,-26.855,-33.691,-29.297,0.000
1709206384.753,-65.918,-43.945,-41.504,-29.785,0.000
1709206384.757,-56.152,-47.852,-42.969,-19.043,0.000
1709206384.761,-48.828,-7.812,-40.039,-22.461,0.000
1709206384.765,-45.898,-24.414,-40.527,-35.156,0.000
1709206384.769,-45.410,-48.828,-41.992,-34.668,0.000
1709206384.772,-44.434,-31.250,-38.574,-30.273,0.000
1709206384.776,-39.062,-17.090,-35.156,-30.762,0.000
1709206384.780,-41.504,-28.809,-38.086,-31.738,0.000
1709206384.784,-43.457,-48.340,-42.969,-35.645,0.000
1709206384.788,-44.434,-45.898,-42.480,-39.551,0.000
1709206384.792,-35.156,-29.297,-41.504,-33.691,0.000
1709206384.796,-17.578,-29.785,-43.945,-32.715,0.000
1709206384.800,-17.090,-50.293,-45.410,-31.738,0.000
1709206384.804,-25.879,-12.695,-42.480,-27.832,0.000
1709206384.808,-35.156,-2.441,-41.992,-31.738,0.000
1709206384.812,-28.809,-28.320,-42.480,-29.785,0.000
1709206384.815,-19.531,-24.902,-42.969,-26.855,0.000
1709206384.819,-15.625,-20.996,-41.504,-31.738,0.000
1709206384.823,-20.508,-27.832,-41.504,-33.203,0.000
1709206384.827,-27.344,-37.109,-41.504,-35.156,0.000
1709206384.831,-24.902,-31.250,-36.133,-39.551,0.000
1709206384.835,-29.785,-36.133,-38.574,-38.086,0.000
1709206384.839,-29.297,-33.203,-41.504,-38.574,0.000
1709206384.843,-28.809,-57.129,-42.480,-39.551,0.000
1709206384.847,-37.109,-65.430,-41.992,-31.738,0.000
1709206384.851,-39.551,-25.879,-39.551,-36.621,0.000
1709206384.854,-30.762,-44.922,-38.086,-35.156,0.000
1709206384.858,-22.461,-56.152,-36.621,-24.414,0.000
1709206384.862,0.000,-35.156,-37.598,-26.855,0.000
1709206384.866,0.000,-35.645,-41.504,-29.297,0.000
1709206384.870,0.000,-50.781,-46.875,-32.227,0.000
1709206384.874,0.000,-57.129,-43.945,-33.203,0.000
1709206384.878,0.000,-41.016,-37.109,-34.180,0.000
1709206384.882,0.000,-41.016,-37.598,-40.039,0.000
1709206384.886,0.000,-57.617,-38.086,-38.086,0.000
1709206384.890,0.000,-81.055,-35.156,-22.461,0.000
1709206384.894,0.000,-39.062,-34.180,-24.414,0.000
1709206384.897,0.000,-17.090,-39.551,-43.457,0.000
1709206384.901,0.000,-43.945,-41.504,-41.016,0.000
1709206384.905,0.000,-46.387,-40.527,-33.691,0.000
1709206384.909,-26.855,-36.621,-39.551,-34.668,0.000
1709206384.913,-26.367,-50.781,-38.086,-43.945,0.000
1709206384.917,-25.391,-55.664,-37.109,-40.039,0.000
1709206384.921,-26.367,-32.715,-34.668,-38.574,0.000
1709206384.925,-36.621,-35.645,-33.691,-37.109,0.000
1709206384.929,-45.898,-50.781,-34.668,-39.062,0.000
1709206384.933,-51.270,-63.477,-42.480,-52.246,0.000
1709206384.936,-41.992,-56.152,-45.898,-46.875,0.000
1709206384.940,-37.598,-12.207,-45.410,-53.223,0.000
1709206384.944,-46.875,-22.461,-49.316,-50.781,0.000
1709206384.948,-53.223,-55.176,-44.434,-37.109,0.000
1709206384.952,-56.152,-41.504,-33.203,-40.039,0.000
1709206384.956,-50.781,-35.645,-32.715,-46.387,0.000
1709206384.960,-47.852,-55.176,-28.809,-44.922,0.000
1709206384.964,-59.082,-71.777,-22.461,-43.457,0.000
1709206384.968,-61.035,-71.289,-19.043,-35.156,0.000
1709206384.972,-59.082,-66.895,-17.578,-30.273,0.000
1709206384.975,-62.988,-80.078,-14.648,-38.086,0.000
1709206384.979,-67.871,-118.164,-8.789,-30.762,0.000
1709206384.983,-77.637,-99.609,-8.301,-28.320,0.000
1709206384.987,-86.914,-79.102,-9.277,-33.203,0.000
1709206384.991,-85.449,-107.910,-8.789,-26.367,0.000
1709206384.995,-78.613,-117.676,-6.348,-28.320,0.000
1709206384.999,-70.312,-113.770,-6.348,-32.227,0.000
1709206385.003,-69.824,-121.094,-8.301,-22.949,0.000
1709206385.007,-74.219,-138.184,-12.207,-17.578,0.000
1709206385.011,-69.336,-141.113,-11.230,-7.324,0.000
1709206385.014,-59.570,-127.930,-11.230,1.953,0.000
1709206385.018,-52.734,-136.719,-18.066,-10.742,0.000
1709206385.022,-47.363,-167.480,-16.113,-9.277,0.000
1709206385.026,-47.363,-164.551,-9.277,14.160,0.000
1709206385.030,-44.922,-126.465,-9.277,13.672,0.000
1709206385.034,-34.668,-121.094,-15.137,4.883,0.000
1709206385.038,-21.484,-143.555,-14.648,15.625,0.000
1709206385.042,-24.902,-143.066,-15.625,16.113,0.000
1709206385.046,-36.621,-145.020,-18.066,7.812,0.000
1709206385.050,-39.551,-154.785,-17.578,7.812,0.000
1709206385.054,-36.133,-165.527,-15.625,8.301,0.000
1709206385.058,-30.762,-156.250,-17.578,13.184,0.000
1709206385.061,-31.738,-150.879,-13.184,17.090,0.000
1709206385.065,-39.551,-181.641,-9.277,15.625,0.000
1709206385.069,-43.945,-198.730,-7.812,26.855,0.000
1709206385.073,-45.898,-172.363,-7.324,37.598,0.000
1709206385.077,-46.875,-160.156,-14.648,30.273,0.000
1709206385.081,-42.480,-163.086,-16.602,21.973,0.000
1709206385.085,-43.457,-181.641,-13.672,27.832,0.000
1709206385.089,-51.758,-150.391,-16.113,27.832,0.000
1709206385.093,-51.758,-130.371,-16.113,22.461,0.000
1709206385.097,-48.340,-149.902,-15.625,21.973,0.000
1709206385.101,-46.875,-148.438,-17.090,13.184,0.000
1709206385.104,-45.410,-138.672,-12.207,15.625,0.000
1709206385.108,-60.547,-143.555,-10.254,21.973,0.000
1709206385.112,-62.988,-154.297,-14.648,27.832,0.000
1709206385.116,-48.340,-150.879,-14.648,23.926,0.000
1709206385.120,-43.457,-127.930,-18.066,16.602,0.000
1709206385.124,-47.852,-120.605,-23.926,13.672,0.000
1709206385.128,-48.828,-151.855,-21.973,14.160,0.000
1709206385.132,-46.875,-144.531,-21.973,18.555,0.000
1709206385.136,-37.109,-98.633,-24.902,15.137,0.000
1709206385.140,-28.320,-110.352,-24.414,17.090,0.000
1709206385.144,-29.785,-126.953,-27.344,18.555,0.000
1709206385.147,-32.715,-107.422,-29.785,5.859,0.000
1709206385.151,-33.203,-95.215,-33.691,-10.254,0.000
1709206385.155,-24.902,-94.727,-38.574,-18.066,0.000
1709206385.159,-14.648,-103.516,-37.598,-21.484,0.000
1709206385.163,-23.926,-106.445,-39.551,-31.250,0.000
1709206385.167,-30.273,-100.098,-41.016,-37.109,0.000
1709206385.171,-28.320,-106.934,-41.016,-34.668,0.000
1709206385.175,-33.203,-127.441,-49.316,-32.715,0.000
1709206385.179,-31.250,-86.426,-50.293,-40.527,0.000
1709206385.183,-34.180,-70.312,-44.922,-50.293,0.000
1709206385.186,-44.434,-98.145,-42.480,-55.176,0.000
1709206385.190,-42.969,-91.797,-39.062,-47.363,0.000
1709206385.194,-32.715,-82.520,-37.598,-35.645,0.000
1709206385.198,-35.645,-105.469,-43.457,-40.527,0.000
1709206385.202,-37.598,-108.398,-42.480,-35.156,0.000
1709206385.206,-41.016,-91.797,-36.621,-25.879,0.000
1709206385.210,-45.898,-99.121,-37.598,-20.996,0.000
1709206385.214,-42.969,-94.727,-41.504,-26.855,0.000
1709206385.218,-33.691,-103.027,-44.434,-27.832,0.000
1709206385.222,-27.344,-104.980,-47.852,-15.137,0.000
1709206385.226,-45.898,-62.500,-46.387,-22.461,0.000
1709206385.229,-55.176,-72.266,-43.457,-29.297,0.000
1709206385.233,-44.922,-89.355,-45.898,-21.484,0.000
1709206385.237,-40.039,-67.383,-42.969,-18.066,0.000
1709206385.241,-39.551,-66.895,-42.969,-19.043,0.000
1709206385.245,-42.480,-83.984,-44.922,-17.090,0.000
1709206385.249,-41.504,-93.750,-42.480,-20.020,0.000
1709206385.253,-39.551,-81.055,-43.945,-19.531,0.000
1709206385.257,-34.180,-77.637,-43.457,-14.648,0.000
1709206385.261,-28.809,-83.008,-43.945,-17.578,0.000
1709206385.265,-33.203,-101.074,-44.434,-21.973,0.000
1709206385.269,-41.016,-70.801,-47.852,-24.902,0.000
1709206385.272,-30.273,-47.363,-44.434,-25.879,0.000
1709206385.276,-15.137,-65.918,-40.039,-16.113,0.000
1709206385.280,-11.719,-67.871,-39.551,-13.672,0.000
1709206385.284,-16.113,-55.176,-37.598,-19.043,0.000
1709206385.288,-20.996,-55.664,-37.598,-21.973,0.000
1709206385.292,-21.973,-69.336,-34.668,-21.973,0.000
1709206385.296,-20.508,-54.199,-32.227,-20.020,0.000
1709206385.300,-15.137,-40.527,-35.156,-24.902,0.000
1709206385.304,-22.461,-56.152,-37.598,-38.086,0.000
1709206385.308,-38.574,-69.824,-37.109,-40.527,0.000
1709206385.311,-33.691,-71.777,-35.156,-30.273,0.000
1709206385.315,-23.926,-28.320,-38.574,-35.645,0.000
1709206385.319,-23.438,-32.227,-41.016,-36.133,0.000
1709206385.323,-25.879,-65.430,-36.133,-33.691,0.000
1709206385.327,-36.621,-50.293,-35.645,-41.504,0.000
1709206385.331,-45.898,-31.250,-37.598,-38.086,0.000
1709206385.335,-43.945,-44.922,-38.574,-40.039,0.000
1709206385.339,-31.250,-63.965,-38.574,-37.109,0.000
1709206385.343,-37.109,-34.180,-38.086,-35.156,0.000
1709206385.347,-47.363,-23.438,-38.086,-48.340,0.000
1709206385.350,-42.480,-50.293,-33.691,-47.852,0.000
1709206385.354,-36.133,-75.684,-32.715,-27.832,0.000
1709206385.358,-32.227,-48.340,-33.691,-24.414,0.000
1709206385.362,-37.598,-14.648,-28.809,-31.250,0.000
1709206385.366,-43.945,-49.316,-26.855,-32.227,0.000
1709206385.370,-48.828,-71.289,-29.297,-40.527,0.000
1709206385.374,-45.410,-41.016,-32.227,-36.133,0.000
1709206385.378,-34.668,-42.969,-33.691,-30.762,0.000
1709206385.382,-33.691,-64.941,-33.691,-31.738,0.000
1709206385.386,-43.457,-63.477,-37.598,-33.691,0.000
1709206385.389,-51.270,-61.523,-42.969,-40.039,0.000
1709206385.393,-50.293,-57.617,-41.992,-39.062,0.000
1709206385.397,-43.945,-71.289,-40.527,-28.809,0.000
1709206385.401,-44.434,-70.312,-43.457,-29.297,0.000
1709206385.405,-57.129,-43.945,-42.480,-42.969,0.000
1709206385.409,-56.152,-53.711,-40.527,-48.828,0.000
1709206385.413,-44.434,-80.566,-43.457,-46.875,0.000
1709206385.417,-39.551,-67.383,-43.457,-38.086,0.000
1709206385.421,-34.180,-50.781,-41.016,-37.109,0.000
1709206385.425,-33.691,-69.824,-40.527,-43.457,0.000
1709206385.429,-37.109,-82.031,-43.945,-43.457,0.000
1709206385.432,-31.250,-63.965,-44.922,-34.668,0.000
1709206385.436,-22.461,-43.945,-40.527,-26.367,0.000
1709206385.440,-15.137,-53.711,-40.039,-25.391,0.000
1709206385.444,-15.137,-83.008,-39.551,-24.414,0.000
1709206385.448,-22.461,-67.383,-41.016,-27.832,0.000
1709206385.452,-19.531,-41.504,-42.480,-24.902,0.000
1709206385.456,-19.043,-41.992,-40.527,-26.367,0.000
1709206385.460,-19.531,-69.824,-39.062,-24.414,0.000
1709206385.464,-36.133,-39.551,-41.016,-40.039,0.000
1709206385.468,-46.387,-28.809,-38.086,-48.340,0.000
1709206385.472,-37.109,-47.363,-36.133,-42.480,0.000
1709206385.476,-34.180,-40.039,-41.992,-44.434,0.000
1709206385.479,-36.133,-40.039,-43.457,-44.434,0.000
1709206385.483,-39.062,-58.105,-38.086,-42.480,0.000
1709206385.487,-51.270,-64.941,-38.574,-44.922,0.000
1709206385.491,-58.105,-55.176,-40.039,-45.898,0.000
1709206385.495,-47.852,-28.320,-40.527,-42.480,0.000
1709206385.499,-43.457,-19.043,-41.504,-46.387,0.000
1709206385.503,-48.828,-48.340,-38.086,-42.969,0.000
1709206385.507,-52.734,-54.199,-39.062,-40.039,0.000
1709206385.511,-54.688,-20.996,-39.062,-46.875,0.000
1709206385.515,-49.316,-22.461,-34.668,-42.969,0.000
1709206385.518,-40.527,-49.316,-34.180,-33.203,0.000
1709206385.522,-36.621,-35.156,-34.668,-40.039,0.000
1709206385.526,-44.922,-29.297,-35.645,-55.176,0.000
1709206385.530,-58.105,-46.387,-37.598,-55.176,0.000
1709206385.534,-55.664,-54.199,-44.922,-53.711,0.000
1709206385.538,-42.969,-48.828,-47.363,-60.059,0.000
1709206385.542,-40.527,-45.410,-50.293,-56.152,0.000
1709206385.546,-53.223,-56.641,-49.805,-51.270,0.000
1709206385.550,-54.199,-77.148,-42.480,-43.457,0.000
1709206385.554,-46.875,-42.480,-46.387,-46.387,0.000
1709206385.558,-41.504,-25.879,-47.852,-54.688,0.000
1709206385.561,-42.480,-48.828,-42.969,-55.664,0.000
1709206385.565,-54.199,-51.758,-43.945,-54.688,0.000
1709206385.569,-53.223,-47.363,-39.551,-50.293,0.000
1709206385.573,-41.016,-47.363,-35.645,-43.457,0.000
1709206385.577,-30.762,-51.270,-38.086,-42.480,0.000
1709206385.581,-26.367,-39.062,-37.598,-47.363,0.000
1709206385.585,-26.367,-44.922,-38.086,-44.434,0.000
1709206385.589,-32.715,-46.875,-37.598,-40.039,0.000
1709206385.593,-35.156,-50.781,-40.527,-36.621,0.000
1709206385.597,-22.461,-53.711,-37.598,-25.391,0.000
1709206385.601,-15.625,-19.043,-39.062,-32.227,0.000
1709206385.604,-22.461,-21.484,-41.504,-42.969,0.000
1709206385.608,-35.645,-43.457,-39.551,-37.109,0.000
1709206385.612,-37.109,-28.320,-35.645,-30.273,0.000
1709206385.616,-33.691,-19.531,-35.156,-31.250,0.000
1709206385.620,-34.668,-38.574,-38.574,-37.598,0.000
1709206385.624,-39.062,-49.805,-34.668,-41.504,0.000
1709206385.628,-53.223,-42.480,-36.621,-41.016,0.000
1709206385.632,-51.270,-52.246,-38.574,-37.109,0.000
1709206385.636,-38.574,-58.105,-34.180,-37.598,0.000
1709206385.640,-37.598,-73.242,-30.762,-37.598,0.000
1709206385.643,-41.504,-43.945,-33.691,-36.133,0.000
1709206385.647,-47.363,-18.066,-38.086,-38.574,0.000
1709206385.651,-50.293,-41.992,-36.133,-36.621,0.000
1709206385.655,-39.551,-50.781,-33.691,-24.902,0.000
1709206385.659,-36.621,-35.645,-39.551,-31.250,0.000
1709206385.663,-43.945,-36.621,-43.457,-35.645,0.000
1709206385.667,-48.340,-56.152,-42.480,-37.109,0.000
1709206385.671,-47.852,-45.410,-43.945,-38.574,0.000
1709206385.675,-40.527,-36.621,-44.434,-39.062,0.000
1709206385.679,-33.691,-48.828,-41.992,-44.434,0.000
1709206385.683,-35.156,-65.918,-43.457,-50.781,0.000
1709206385.686,-36.621,-65.918,-43.457,-41.992,0.000
1709206385.690,-40.527,-27.832,-43.457,-46.875,0.000
1709206385.694,-41.016,-30.762,-47.363,-56.641,0.000
1709206385.698,-34.180,-53.711,-48.828,-53.223,0.000
1709206385.702,-41.504,-46.387,-49.805,-47.852,0.000
1709206385.706,-55.176,-40.527,-50.293,-54.199,0.000
1709206385.710,-56.152,-55.664,-45.410,-49.316,0.000
1709206385.714,-47.852,-65.430,-44.922,-36.621,0.000
1709206385.718,-41.504,-41.992,-46.875,-35.156,0.000
1709206385.722,-39.551,-38.086,-44.434,-42.480,0.000
1709206385.725,-42.969,-62.988,-41.992,-48.340,0.000
1709206385.729,-46.875,-87.891,-34.180,-36.133,0.000
1709206385.733,-44.434,-53.711,-31.250,-34.668,0.000
1709206385.737,-36.133,-17.090,-32.715,-32.227,0.000
1709206385.741,-39.062,-35.156,-34.180,-30.273,0.000
1709206385.745,-41.504,-51.270,-39.062,-34.668,0.000
1709206385.749,-44.434,-44.434,-43.945,-27.832,0.000
1709206385.753,-48.828,-41.992,-40.039,-22.461,0.000
1709206385.757,-36.133,-53.711,-37.598,-26.855,0.000
1709206385.761,-32.227,-54.199,-38.086,-31.250,0.000
1709206385.764,-40.527,-52.734,-34.668,-29.785,0.000
1709206385.768,-46.387,-61.523,-34.180,-28.320,0.000
1709206385.772,-43.457,-74.707,-32.715,-24.902,0.000
1709206385.776,-39.551,-60.547,-35.645,-21.973,0.000
1709206385.780,-34.668,-28.320,-38.086,-34.180,0.000
1709206385.784,-35.156,-33.691,-30.762,-44.922,0.000
1709206385.788,-41.504,-54.688,-34.668,-39.551,0.000
1709206385.792,-35.156,-43.457,-34.668,-26.855,0.000
1709206385.796,-28.809,-27.344,-31.738,-28.320,0.000
1709206385.800,-28.809,-36.621,-35.156,-34.668,0.000
1709206385.804,-29.785,-52.246,-39.062,-30.273,0.000
1709206385.807,-36.621,-50.781,-43.457,-30.762,0.000
1709206385.811,-38.086,-42.969,-43.945,-32.227,0.000
1709206385.815,-29.297,-45.410,-39.062,-26.367,0.000
1709206385.819,-23.926,-62.500,-36.621,-20.508,0.000
1709206385.823,-25.879,-50.293,-38.574,-23.438,0.000
1709206385.827,-33.203,-40.039,-41.016,-39.062,0.000
1709206385.831,-46.387,-53.711,-44.922,-52.734,0.000
1709206385.835,-42.480,-64.941,-46.875,-42.480,0.000
1709206385.839,-32.227,-27.832,-43.457,-33.203,0.000
1709206385.843,-37.598,-22.461,-43.457,-39.551,0.000
1709206385.847,-45.410,-49.805,-43.457,-44.922,0.000
1709206385.850,-45.898,-47.852,-42.969,-38.574,0.000
1709206385.854,-38.574,-45.410,-41.016,-35.156,0.000
1709206385.858,-27.832,-42.969,-40.527,-37.109,0.000
1709206385.862,-26.367,-49.316,-41.992,-40.039,0.000
1709206385.866,-26.367,-60.059,-37.109,-33.203,0.000
1709206385.870,-26.367,-42.969,-34.668,-25.391,0.000
1709206385.874,-20.996,-36.621,-37.109,-27.832,0.000
1709206385.878,-14.648,-63.477,-32.227,-21.973,0.000
1709206385.882,-16.602,-68.848,-32.227,-16.113,0.000
1709206385.886,-26.367,-39.551,-39.062,-36.133,0.000
1709206385.890,-36.133,-41.504,-37.598,-40.527,0.000
1709206385.893,-35.156,-59.082,-35.645,-32.715,0.000
1709206385.897,-30.762,-53.711,-42.969,-45.898,0.000
1709206385.901,-29.297,-49.316,-48.828,-52.246,0.000
1709206385.905,-36.621,-56.641,-49.316,-44.922,0.000
1709206385.909,-45.898,-74.219,-45.898,-45.898,0.000
1709206385.913,-44.922,-70.801,-48.340,-46.387,0.000
1709206385.917,-35.156,-50.781,-44.922,-45.898,0.000
1709206385.921,-29.297,-57.617,-36.133,-44.434,0.000
1709206385.925,-35.156,-89.355,-35.645,-39.551,0.000
1709206385.929,-44.922,-54.199,-36.621,-43.457,0.000
1709206385.933,-41.016,-31.250,-39.551,-41.016,0.000
1709206385.936,-34.180,-51.758,-37.598,-26.367,0.000
1709206385.940,-40.527,-67.383,-36.133,-35.156,0.000
1709206385.944,-49.805,-61.523,-40.527,-50.293,0.000
1709206385.948,-49.805,-56.152,-38.086,-53.223,0.000
1709206385.952,-42.969,-67.871,-37.109,-48.340,0.000
1709206385.956,-33.203,-62.012,-38.086,-43.457,0.000
1709206385.960,-32.715,-63.965,-40.039,-44.434,0.000
1709206385.964,-37.598,-69.336,-39.551,-46.387,0.000
1709206385.968,-41.504,-78.125,-33.203,-38.086,0.000
1709206385.972,-43.945,-76.172,-33.203,-21.484,0.000
1709206385.976,-40.527,-39.551,-34.180,-22.461,0.000
1709206385.979,-33.691,-44.922,-33.203,-30.762,0.000
1709206385.983,-37.109,-67.871,-35.645,-36.133,0.000
1709206385.987,-44.434,-52.246,-35.645,-34.180,0.000
1709206385.991,-38.574,-37.598,-32.227,-28.320,0.000
1709206385.995,-25.879,-48.340,-29.297,-24.902,0.000
1709206385.999,-19.531,-64.453,-25.879,-20.996,0.000
1709206386.003,-26.367,-55.176,-26.855,-27.832,0.000
1709206386.007,-35.156,-53.711,-26.855,-35.156,0.000
1709206386.011,-32.227,-61.523,-27.832,-31.738,0.000
1709206386.015,-26.855,-76.660,-35.645,-23.438,0.000
1709206386.018,-30.273,-41.992,-38.086,-29.297,0.000
1709206386.022,-32.715,-29.297,-36.621,-34.668,0.000
1709206386.026,-37.598,-54.199,-38.086,-35.645,0.000
1709206386.030,-45.410,-52.246,-40.039,-38.086,0.000
1709206386.034,-45.410,-43.945,-41.016,-42.480,0.000
1709206386.038,-41.504,-45.410,-39.551,-43.457,0.000
1709206386.042,-36.133,-54.688,-36.133,-54.199,0.000
1709206386.046,-39.551,-52.246,-37.109,-60.547,0.000
1709206386.050,-46.875,-50.781,-37.598,-50.781,0.000
1709206386.054,-48.828,-53.223,-36.133,-44.922,0.000
1709206386.058,-49.316,-59.570,-40.039,-41.992,0.000
1709206386.061,-44.922,-56.152,-42.480,-30.273,0.000
1709206386.065,-49.316,-34.180,-41.504,-31.738,0.000
1709206386.069,-59.570,-41.992,-44.922,-42.480,0.000
1709206386.073,-54.688,-53.223,-42.969,-43.945,0.000
1709206386.077,-45.410,-46.875,-41.504,-38.574,0.000
1709206386.081,-45.410,-44.434,-40.527,-34.180,0.000
1709206386.085,-53.223,-58.105,-37.109,-42.480,0.000
1709206386.089,-60.547,-79.590,-37.109,-51.270,0.000
1709206386.093,-58.105,-64.453,-38.574,-48.828,0.000
1709206386.097,-50.293,-47.852,-39.551,-42.480,0.000
1709206386.100,-50.293,-71.289,-40.527,-43.945,0.000
1709206386.104,-54.199,-99.121,-40.527,-34.180,0.000
1709206386.108,-58.594,-62.988,-39.551,-27.832,0.000
1709206386.112,-47.852,-33.691,-40.039,-29.785,0.000
1709206386.116,-31.738,-52.734,-43.457,-26.367,0.000
1709206386.120,-34.180,-50.293,-41.992,-33.691,0.000
1709206386.124,-40.527,-42.969,-37.598,-48.828,0.000
1709206386.128,-43.945,-48.828,-39.062,-55.664,0.000
1709206386.132,-42.969,-57.617,-42.969,-52.734,0.000
1709206386.136,-33.691,-48.340,-43.945,-49.316,0.000
1709206386.139,-24.414,-38.086,-43.945,-43.945,0.000
1709206386.143,-26.855,-50.781,-43.457,-47.363,0.000
1709206386.147,-33.691,-74.707,-43.945,-48.828,0.000
1709206386.151,-34.668,-66.895,-43.457,-45.410,0.000
1709206386.155,-26.367,-35.645,-42.969,-43.457,0.000
1709206386.159,-20.020,-39.062,-38.574,-43.945,0.000
1709206386.163,-32.715,-64.453,-41.016,-46.387,0.000
1709206386.167,-42.480,-69.824,-40.527,-39.551,0.000
1709206386.171,-36.621,-62.988,-38.086,-38.574,0.000
1709206386.175,0.000,-53.223,-38.574,0.000,0.000
1709206386.179,0.000,-65.918,-39.551,0.000,0.000
1709206386.183,0.000,-54.199,-42.969,0.000,0.000
1709206386.186,0.000,-46.875,-45.898,0.000,0.000
1709206386.190,0.000,-70.801,-44.434,0.000,0.000
1709206386.194,0.000,-85.449,-39.551,0.000,0.000
1709206386.198,0.000,-62.988,-33.203,0.000,0.000
1709206386.202,0.000,-40.527,-34.668,0.000,0.000
1709206386.206,0.000,-50.781,-37.109,0.000,0.000
1709206386.210,0.000,-85.938,-34.180,0.000,0.000
1709206386.214,0.000,-54.688,-33.691,0.000,0.000
1709206386.218,0.000,-37.598,-34.668,0.000,0.000
1709206386.222,-31.250,-57.617,-36.133,-30.762,0.000
1709206386.226,-42.480,-68.848,-37.598,-34.668,0.000
1709206386.229,-47.852,-65.918,-41.992,-39.062,0.000
1709206386.233,-44.434,-46.387,-39.062,-41.504,0.000
1709206386.237,-42.969,-50.293,-36.133,-44.434,0.000
1709206386.241,-40.039,-57.129,-34.180,-41.016,0.000
1709206386.245,-43.945,-48.340,-35.645,-44.922,0.000
1709206386.249,-56.152,-45.898,-38.086,-43.457,0.000
1709206386.253,-52.246,-64.941,-33.203,-28.320,0.000
1709206386.257,-36.133,-62.500,-35.156,-17.578,0.000
1709206386.261,-31.738,-29.785,-41.504,-33.691,0.000
1709206386.265,-35.156,-39.551,-40.527,-45.410,0.000
1709206386.269,-35.156,-58.105,-37.598,-43.457,0.000
1709206386.272,-28.809,-44.922,-38.086,-41.992,0.000
1709206386.276,-19.531,-39.062,-35.156,-35.156,0.000
1709206386.280,-13.184,-46.875,-31.738,-33.691,0.000
1709206386.284,-12.207,-64.453,-32.227,-35.156,0.000
1709206386.288,-14.160,-57.129,-36.133,-49.316,0.000
1709206386.292,-20.020,-42.969,-39.062,-52.734,0.000
1709206386.296,-15.625,-47.363,-39.062,-37.598,0.000
1709206386.300,-11.719,-72.754,-35.645,-29.785,0.000
1709206386.304,-16.113,-45.898,-34.180,-36.621,0.000
1709206386.308,-20.020,-22.949,-39.062,-44.922,0.000
1709206386.311,-29.297,-51.270,-42.480,-44.434,0.000
1709206386.315,-33.691,-51.758,-41.504,-39.062,0.000
1709206386.319,-31.738,-43.457,-39.062,-40.527,0.000
1709206386.323,-30.762,-48.828,-37.109,-42.969,0.000
1709206386.327,-36.133,-64.453,-40.039,-41.016,0.000
1709206386.331,-44.434,-65.430,-41.016,-41.992,0.000
1709206386.335,-37.598,-59.570,-36.621,-33.203,0.000
1709206386.339,-29.297,-49.316,-38.574,-36.133,0.000
1709206386.343,-33.203,-66.895,-38.574,-39.062,0.000
1709206386.347,-32.227,-70.312,-33.691,-28.809,0.000
1709206386.351,-37.598,-30.273,-38.574,-46.387,0.000
1709206386.354,-35.645,-34.668,-40.527,-43.945,0.000
1709206386.358,-30.273,-53.711,-40.039,-32.227,0.000
1709206386.362,-34.668,-50.293,-45.410,-41.504,0.000
1709206386.366,-39.551,-52.734,-39.062,-42.969,0.000
1709206386.370,-39.551,-62.988,-27.344,-32.715,0.000
1709206386.374,-32.715,-69.824,-31.250,-27.344,0.000
1709206386.378,-22.461,-52.246,-40.039,-37.109,0.000
1709206386.382,-21.484,-57.129,-40.039,-42.969,0.000
1709206386.386,-27.832,-74.707,-37.109,-46.875,0.000
1709206386.390,-39.551,-94.238,-42.969,-41.992,0.000
1709206386.393,-38.086,-60.547,-42.969,-44.922,0.000
1709206386.397,-25.391,-40.527,-37.109,-49.316,0.000
1709206386.401,-18.555,-63.965,-35.645,-46.875,0.000
1709206386.405,-19.531,-57.617,-35.156,-45.898,0.000
1709206386.409,-21.973,-47.852,-32.227,-36.133,0.000
1709206386.413,-24.902,-55.664,-28.809,-35.645,0.000
1709206386.417,-22.949,-62.500,-28.809,-41.504,0.000
1709206386.421,-24.414,-51.758,-31.250,-38.574,0.000
1709206386.425,-35.156,-50.781,-29.297,-37.109,0.000
1709206386.429,-38.086,-61.035,-28.320,-39.062,0.000
1709206386.433,-34.180,-67.871,-28.809,-28.809,0.000
1709206386.436,-34.668,-65.430,-31.738,-21.973,0.000
1709206386.440,-28.809,-24.414,-36.621,-37.109,0.000
1709206386.444,-28.320,-25.391,-39.551,-46.875,0.000
1709206386.448,-41.016,-52.734,-41.016,-40.527,0.000
1709206386.452,-44.922,-46.387,-42.480,-42.480,0.000
1709206386.456,-39.551,-41.016,-41.016,-47.852,0.000
1709206386.460,-35.645,-52.246,-43.945,-50.293,0.000
1709206386.464,-33.691,-61.523,-41.016,-45.898,0.000
1709206386.468,-39.062,-52.246,-35.645,-33.691,0.000
1709206386.472,-41.992,-61.035,-39.551,-26.855,0.000
1709206386.475,-38.086,-83.008,-47.363,-25.879,0.000
1709206386.479,-28.320,-95.703,-44.922,-26.855,0.000
1709206386.483,-26.855,-66.895,-37.598,-32.227,0.000
1709206386.487,-33.203,-44.434,-40.039,-38.574,0.000
1709206386.491,-34.180,-48.340,-41.992,-31.250,0.000
1709206386.495,-29.785,-42.480,-39.062,-28.809,0.000
1709206386.499,-22.949,-34.180,-39.062,-33.691,0.000
1709206386.503,-24.902,-41.504,-37.598,-34.668,0.000
1709206386.507,-38.574,-57.129,-33.691,-34.180,0.000
1709206386.511,-44.922,-67.871,-35.156,-32.227,0.000
1709206386.514,-35.645,-61.523,-36.621,-31.250,0.000
1709206386.518,-32.715,-47.363,-37.109,-35.156,0.000
1709206386.522,-39.551,-73.730,-39.551,-37.598,0.000
1709206386.526,-41.016,-79.590,-37.109,-38.086,0.000
1709206386.530,-40.039,-47.852,-40.039,-41.504,0.000
1709206386.534,-37.598,-54.688,-39.062,-42.480,0.000
1709206386.538,-37.109,-74.219,-37.598,-41.992,0.000
1709206386.542,-40.039,-63.965,-41.504,-49.316,0.000
1709206386.546,-48.828,-53.223,-41.504,-59.082,0.000
1709206386.550,-55.176,-62.500,-37.598,-57.129,0.000
1709206386.554,-46.875,-67.383,-34.180,-48.828,0.000
1709206386.557,-40.039,-50.781,-29.785,-39.551,0.000
1709206386.561,-42.480,-45.410,-34.668,-41.504,0.000
1709206386.565,-48.340,-65.918,-38.086,-49.316,0.000
1709206386.569,-51.758,-83.984,-36.621,-44.922,0.000
1709206386.573,-46.387,-73.730,-38.086,-47.852,0.000
1709206386.577,-38.086,-54.199,-41.504,-49.316,0.000
1709206386.581,-30.273,-62.500,-42.969,-41.504,0.000
1709206386.585,-29.785,-86.914,-37.109,-29.785,0.000
1709206386.589,-36.133,-51.270,-39.551,-35.645,0.000
1709206386.593,-32.715,-34.180,-38.086,-37.109,0.000
1709206386.597,-25.391,-52.734,-33.691,-27.344,0.000
1709206386.600,-27.344,-52.246,-40.039,-31.250,0.000
1709206386.604,-30.762,-47.363,-38.086,-37.598,0.000
1709206386.608,-30.273,-52.246,-39.062,-30.762,0.000
1709206386.612,-29.785,-60.547,-43.457,-27.344,0.000
1709206386.616,-21.973,-57.617,-38.086,-31.250,0.000
1709206386.620,-7.812,-41.504,-38.086,-26.367,0.000
1709206386.624,-7.812,-34.180,-38.574,-25.879,0.000
1709206386.628,-18.066,-62.012,-35.645,-22.461,0.000
1709206386.632,-25.879,-68.848,-36.621,-15.625,0.000
1709206386.636,-23.926,-30.762,-41.504,-35.645,0.000
1709206386.640,-19.531,-37.598,-41.992,-44.922,0.000
1709206386.643,-24.414,-66.895,-38.574,-42.480,0.000
1709206386.647,-41.016,-58.105,-40.527,-47.852,0.000
1709206386.651,-46.387,-48.828,-41.016,-46.875,0.000
1709206386.655,-36.133,-57.617,-40.527,-43.457,0.000
1709206386.659,-37.109,-65.918,-38.086,-47.852,0.000
1709206386.663,-47.852,-69.336,-41.504,-57.129,0.000
1709206386.667,-56.152,-63.477,-43.457,-64.453,0.000
1709206386.671,-57.617,-71.289,-39.551,-58.594,0.000
1709206386.675,-50.781,-92.285,-43.945,-42.480,0.000
1709206386.679,-43.945,-42.969,-45.410,-48.340,0.000
1709206386.683,-38.574,-29.297,-37.598,-52.246,0.000
1709206386.686,-40.039,-65.918,-34.668,-38.086,0.000
1709206386.690,-49.316,-51.270,-39.062,-33.691,0.000
1709206386.694,-50.781,-42.480,-43.945,-41.504,0.000
1709206386.698,-39.551,-53.711,-46.387,-37.598,0.000
1709206386.702,-35.156,-48.828,-46.875,-31.738,0.000
1709206386.706,-40.039,-41.992,-45.898,-40.039,0.000
1709206386.710,-41.016,-54.688,-41.992,-41.504,0.000
1709206386.714,-39.551,-43.945,-44.922,-41.992,0.000
1709206386.718,-35.156,-57.129,-44.922,-37.598,0.000
1709206386.722,-35.645,-70.801,-39.062,-22.949,0.000
1709206386.726,-46.387,-30.273,-35.645,-28.320,0.000
1709206386.729,-54.688,-37.109,-39.062,-46.387,0.000
1709206386.733,-50.781,-65.918,-41.016,-44.922,0.000
1709206386.737,-43.457,-50.293,-37.598,-37.109,0.000
1709206386.741,-38.574,-44.434,-38.574,-37.109,0.000
1709206386.745,-37.109,-61.035,-36.621,-36.133,0.000
1709206386.749,-39.551,-61.523,-31.738,-37.109,0.000
1709206386.753,-38.574,-40.039,-28.809,-31.250,0.000
1709206386.757,-32.715,-43.457,-32.227,-30.762,0.000
1709206386.761,-28.809,-46.875,-30.273,-32.715,0.000
1709206386.765,-35.156,-61.523,-30.762,-24.902,0.000
1709206386.768,-46.875,-34.668,-33.203,-30.762,0.000
1709206386.772,-53.223,-15.625,-34.180,-41.016,0.000
1709206386.776,-40.527,-40.527,-34.668,-30.762,0.000
1709206386.780,-33.203,-41.504,-36.133,-31.250,0.000
1709206386.784,-35.156,-33.203,-36.621,-38.574,0.000
1709206386.788,-37.109,-35.645,-35.156,-37.109,0.000
1709206386.792,-41.504,-48.828,-37.598,-37.109,0.000
1709206386.796,-35.645,-45.898,-41.504,-39.062,0.000
1709206386.800,-28.320,-48.828,-41.016,-42.480,0.000
1709206386.804,-28.320,-53.711,-43.457,-50.293,0.000
1709206386.807,-34.180,-62.988,-41.992,-40.527,0.000
1709206386.811,-44.434,-65.430,-41.504,-30.762,0.000
1709206386.815,-36.133,-20.020,-42.480,-36.621,0.000
1709206386.819,-33.691,-25.879,-41.992,-39.062,0.000
1709206386.823,-41.016,-58.594,-40.527,-41.016,0.000
1709206386.827,-44.434,-49.316,-35.156,-43.945,0.000
1709206386.831,-42.969,-36.133,-31.250,-38.574,0.000
1709206386.835,-35.645,-40.527,-33.203,-30.762,0.000
1709206386.839,-24.902,-49.805,-36.133,-25.879,0.000
1709206386.843,-31.250,-37.598,-35.156,-30.273,0.000
1709206386.847,-41.992,-38.574,-35.156,-34.180,0.000
1709206386.850,-44.922,-57.129,-34.180,-38.086,0.000
1709206386.854,-42.480,-73.242,-35.645,-38.086,0.000
1709206386.858,-41.504,-53.223,-40.039,-37.109,0.000
1709206386.862,-45.898,-37.109,-41.016,-39.551,0.000
1709206386.866,-54.688,-46.387,-39.551,-45.410,0.000
1709206386.870,-62.988,-53.223,-42.480,-62.012,0.000
1709206386.874,-60.547,-51.270,-44.434,-61.035,0.000
1709206386.878,-46.875,-46.875,-37.598,-50.293,0.000
1709206386.882,-41.504,-55.176,-33.691,-45.898,0.000
1709206386.886,-41.992,-57.617,-32.227,-41.992,0.000
1709206386.889,-38.086,-50.293,-30.273,-35.156,0.000
1709206386.893,-37.598,-49.805,-26.855,-32.715,0.000
1709206386.897,-31.250,-67.383,-29.785,-33.691,0.000
1709206386.901,-32.715,-61.035,-32.715,-28.809,0.000
1709206386.905,-43.457,-33.203,-32.715,-31.738,0.000
1709206386.909,-51.270,-53.711,-35.645,-33.691,0.000
1709206386.913,-44.434,-63.965,-36.621,-39.551,0.000
1709206386.917,-30.762,-44.434,-35.645,-36.133,0.000
1709206386.921,-16.113,-34.668,-35.156,-26.855,0.000
1709206386.925,-20.996,-42.969,-32.715,-28.809,0.000
1709206386.929,-38.086,-56.152,-31.738,-30.273,0.000
1709206386.932,-37.109,-47.852,-33.691,-28.320,0.000
1709206386.936,-28.320,-28.320,-35.156,-28.809,0.000
1709206386.940,-24.902,-32.715,-35.645,-30.762,0.000
1709206386.944,-31.738,-60.547,-33.203,-25.391,0.000
1709206386.948,-42.480,-63.477,-33.691,-25.879,0.000
1709206386.952,-45.898,-42.480,-35.645,-32.227,0.000
1709206386.956,-31.250,-38.086,-35.156,-29.297,0.000
1709206386.960,-22.461,-72.266,-38.086,-20.020,0.000
1709206386.964,-27.832,-38.086,-38.086,-30.762,0.000
1709206386.968,-39.551,-33.203,-35.156,-45.898,0.000
1709206386.972,-41.016,-65.430,-32.715,-42.480,0.000
1709206386.975,-39.062,-52.246,-38.086,-37.109,0.000
1709206386.979,-41.016,-36.621,-39.551,-38.574,0.000
1709206386.983,-42.480,-42.480,-38.086,-45.410,0.000
1709206386.987,-54.688,-61.035,-37.109,-47.363,0.000
1709206386.991,-57.617,-62.500,-36.133,-44.434,0.000
1709206386.995,-45.410,-50.781,-36.621,-38.086,0.000
1709206386.999,-40.527,-35.156,-36.133,-42.969,0.000
1709206387.003,-40.527,-59.570,-30.762,-41.504,0.000
1709206387.007,-50.781,-74.219,-33.691,-36.621,0.000
1709206387.011,-60.547,-30.273,-39.551,-40.527,0.000
1709206387.015,-51.758,-27.832,-36.133,-39.551,0.000
1709206387.018,-40.039,-44.922,-34.668,-39.062,0.000
1709206387.022,-38.086,-37.598,-42.969,-45.410,0.000
1709206387.026,-40.527,-38.574,-45.410,-43.945,0.000
1709206387.030,-42.480,-48.828,-36.133,-35.645,0.000
1709206387.034,-32.715,-44.434,-35.156,-33.691,0.000
1709206387.038,-19.043,-32.715,-36.133,-34.668,0.000
1709206387.042,-17.090,-28.809,-34.668,-30.273,0.000
1709206387.046,-17.090,-35.645,-33.203,-28.809,0.000
1709206387.050,-24.414,-62.500,-32.715,-25.879,0.000
1709206387.054,-27.832,-27.832,-30.273,-20.508,0.000
1709206387.058,-15.137,3.418,-28.809,-22.949,0.000
1709206387.061,-10.742,-26.367,-33.691,-38.086,0.000
1709206387.065,-22.949,-37.598,-40.039,-41.992,0.000
1709206387.069,-33.203,-27.832,-38.574,-37.109,0.000
1709206387.073,-33.203,-36.621,-34.180,-37.598,0.000
1709206387.077,-32.227,-47.852,-38.574,-36.621,0.000
1709206387.081,-27.832,-42.480,-43.945,-40.039,0.000
1709206387.085,-26.855,-48.340,-41.992,-34.668,0.000
1709206387.089,-37.598,-51.270,-44.434,-33.203,0.000
1709206387.093,-37.598,-57.617,-46.387,-33.203,0.000
1709206387.097,-31.250,-56.641,-39.551,-17.090,0.000
1709206387.100,-28.320,-19.531,-40.039,-25.879,0.000
1709206387.104,-37.109,-27.832,-39.551,-36.133,0.000
1709206387.108,-48.340,-51.758,-37.109,-31.250,0.000
1709206387.112,-39.062,-35.645,-39.551,-31.250,0.000
1709206387.116,-26.367,-31.250,-36.133,-33.203,0.000
1709206387.120,-29.297,-54.688,-36.133,-34.668,0.000
1709206387.124,-42.480,-62.988,-41.992,-41.016,0.000
1709206387.128,-47.852,-50.781,-41.016,-51.758,0.000
1709206387.132,-44.922,-59.082,-38.574,-55.664,0.000
1709206387.136,-36.621,-62.500,-37.109,-48.828,0.000
1709206387.140,-25.391,-74.707,-39.062,-34.180,0.000
1709206387.143,-30.762,-49.805,-41.016,-39.551,0.000
1709206387.147,-38.086,-24.902,-40.527,-47.852,0.000
1709206387.151,-36.133,-45.898,-38.086,-39.551,0.000
1709206387.155,-25.879,-51.270,-41.016,-41.016,0.000
1709206387.159,-22.949,-39.062,-43.945,-52.734,0.000
1709206387.163,-31.250,-45.898,-40.527,-55.664,0.000
1709206387.167,-41.016,-67.383,-37.598,-52.734,0.000
1709206387.171,-48.828,-60.547,-38.574,-54.688,0.000
1709206387.175,-44.434,-47.363,-38.574,-50.293,0.000
1709206387.179,-37.598,-56.641,-36.621,-45.410,0.000
1709206387.182,-39.062,-72.754,-38.574,-47.852,0.000
1709206387.186,-45.898,-78.125,-42.480,-40.527,0.000
1709206387.190,-53.223,-40.527,-41.992,-39.551,0.000
1709206387.194,-46.875,-35.156,-41.016,-44.922,0.000
1709206387.198,-36.621,-69.824,-42.969,-48.340,0.000
1709206387.202,-40.527,-66.406,-45.898,-46.387,0.000
1709206387.206,-43.945,-45.410,-48.828,-43.945,0.000
1709206387.210,-48.340,-54.688,-49.316,-45.898,0.000
1709206387.214,-41.992,-63.965,-43.457,-36.621,0.000
1709206387.218,-32.227,-49.316,-42.969,-38.574,0.000
1709206387.221,-33.203,-39.551,-43.945,-40.039,0.000
1709206387.225,-38.086,-62.012,-47.852,-36.621,0.000
1709206387.229,-45.898,-97.168,-47.363,-32.715,0.000
1709206387.233,-43.457,-56.152,-42.480,-33.691,0.000
1709206387.237,-37.109,-18.555,-43.457,-38.574,0.000
1709206387.241,-43.457,-44.922,-39.551,-34.668,0.000
1709206387.245,-48.828,-55.664,-37.598,-36.621,0.000
1709206387.249,-58.105,-46.875,-41.504,-46.387,0.000
1709206387.253,-63.965,-53.711,-42.480,-53.711,0.000
1709206387.257,-50.781,-64.941,-39.551,-47.852,0.000
1709206387.261,-39.062,-60.547,-41.016,-42.480,0.000
1709206387.264,-35.156,-49.316,-43.945,-43.457,0.000
1709206387.268,-33.691,-45.898,-41.016,-38.574,0.000
1709206387.272,-26.855,-62.988,-41.016,-27.344,0.000
1709206387.276,-15.625,-59.570,-41.992,-11.719,0.000
1709206387.280,-6.836,-24.902,-38.086,-14.160,0.000
1709206387.284,-7.324,-31.250,-34.180,-16.113,0.000
1709206387.288,-16.113,-64.453,-38.086,-10.742,0.000
1709206387.292,-24.414,-58.105,-39.551,-19.043,0.000
1709206387.296,-21.484,-37.598,-40.039,-30.273,0.000
1709206387.300,-20.020,-44.922,-39.551,-28.809,0.000
1709206387.304,-26.855,-62.012,-36.621,-30.273,0.000
1709206387.307,-34.668,-51.270,-35.156,-31.738,0.000
1709206387.311,-37.109,-41.016,-34.668,-30.762,0.000
1709206387.315,-34.180,-64.453,-36.133,-34.180,0.000
1709206387.319,-26.367,-76.172,-37.109,-29.297,0.000
1709206387.323,-29.297,-47.852,-37.109,-38.574,0.000
1709206387.327,-41.016,-35.645,-37.109,-48.340,0.000
1709206387.331,-45.898,-51.270,-40.039,-42.480,0.000
1709206387.335,-38.574,-64.941,-44.434,-36.621,0.000
1709206387.339,-31.250,-36.133,-51.270,-46.875,0.000
1709206387.343,-32.227,-28.809,-50.781,-60.059,0.000
1709206387.347,-35.645,-48.340,-45.410,-51.758,0.000
1709206387.350,-45.410,-54.199,-44.434,-50.781,0.000
1709206387.354,-43.945,-53.223,-44.434,-48.340,0.000
1709206387.358,-33.203,-52.734,-43.945,-42.480,0.000
1709206387.362,-38.574,-66.895,-42.480,-40.527,0.000
1709206387.366,-40.527,-77.637,-37.598,-34.180,0.000
1709206387.370,-47.363,-65.918,-38.086,-36.621,0.000
1709206387.374,-47.852,-48.828,-41.992,-40.039,0.000
1709206387.378,-38.574,-60.059,-41.504,-38.574,0.000
1709206387.382,-38.574,-66.406,-41.504,-42.969,0.000
1709206387.386,-41.992,-36.621,-47.852,-57.129,0.000
1709206387.390,-45.898,-41.504,-52.246,-55.664,0.000
1709206387.393,-42.480,-54.199,-42.480,-38.574,0.000
1709206387.397,-33.203,-43.457,-36.621,-35.645,0.000
1709206387.401,-29.297,-44.434,-40.527,-46.387,0.000
1709206387.405,-34.668,-59.570,-41.992,-47.852,0.000
1709206387.409,-46.875,-72.266,-42.480,-42.480,0.000
1709206387.413,-46.875,-66.895,-41.016,-34.668,0.000
1709206387.417,-33.691,-54.688,-38.574,-33.691,0.000
1709206387.421,-28.320,-52.734,-39.062,-44.434,0.000
1709206387.425,-31.738,-73.730,-37.109,-28.320,0.000
1709206387.429,-39.062,-51.758,-37.109,-21.484,0.000
1709206387.433,-38.574,-26.367,-40.039,-33.203,0.000
1709206387.436,-24.902,-41.992,-39.551,-28.809,0.000
1709206387.440,-18.555,-47.363,-34.668,-30.273,0.000
1709206387.444,-27.344,-43.457,-31.250,-36.621,0.000
1709206387.448,-39.551,-52.246,-32.715,-33.691,0.000
1709206387.452,-41.504,-60.059,-30.762,-32.227,0.000
1709206387.456,-35.156,-51.270,-30.273,-32.227,0.000
1709206387.460,-33.691,-52.734,-33.691,-35.156,0.000
1709206387.464,-38.086,-40.039,-37.598,-43.945,0.000
1709206387.468,-43.945,-47.852,-35.156,-43.945,0.000
1709206387.472,-50.293,-67.871,-36.621,-30.273,0.000
1709206387.476,-44.434,-22.461,-37.598,-33.691,0.000
1709206387.479,-37.109,-14.648,-33.203,-41.504,0.000
1709206387.483,-37.598,-47.363,-34.668,-35.645,0.000
1709206387.487,-42.969,-53.223,-36.133,-39.062,0.000
1709206387.491,-44.922,-29.785,-36.621,-42.969,0.000
1709206387.495,-42.969,-30.762,-35.645,-31.250,0.000
1709206387.499,-41.504,-47.852,-30.762,-23.926,0.000
1709206387.503,-39.551,-40.039,-28.320,-23.926,0.000
1709206387.507,-42.480,-39.551,-31.250,-27.344,0.000
1709206387.511,-44.922,-52.734,-32.227,-32.227,0.000
1709206387.515,-44.434,-68.848,-33.691,-30.762,0.000
1709206387.518,-40.527,-31.738,-36.621,-31.250,0.000
1709206387.522,-36.133,-11.719,-35.156,-36.133,0.000
1709206387.526,-41.504,-38.086,-38.574,-40.527,0.000
1709206387.530,-49.805,-46.875,-37.598,-44.922,0.000
1709206387.534,-43.945,-28.320,-30.762,-36.133,0.000
1709206387.538,-36.621,-18.555,-31.250,-38.574,0.000
1709206387.542,-35.645,-41.016,-36.133,-45.410,0.000
1709206387.546,-41.016,-47.363,-36.133,-46.387,0.000
1709206387.550,-49.316,-25.879,-36.133,-46.387,0.000
1709206387.554,-43.945,-27.832,-38.574,-45.898,0.000
1709206387.558,-31.738,-42.969,-41.016,-42.480,0.000
1709206387.561,-25.879,-40.039,-39.551,-40.039,0.000
1709206387.565,-36.621,-2.441,-41.504,-50.293,0.000
1709206387.569,-47.852,-6.836,-46.387,-48.340,0.000
1709206387.573,-37.109,-30.273,-46.387,-37.598,0.000
1709206387.577,-22.461,-22.461,-41.504,-30.762,0.000
1709206387.581,-24.902,-13.672,-38.574,-27.344,0.000
1709206387.585,-32.227,-32.715,-39.551,-29.785,0.000
1709206387.589,-41.016,-56.152,-41.992,-37.109,0.000
1709206387.593,-48.340,-39.551,-41.992,-40.039,0.000
1709206387.597,-41.504,-23.438,-41.504,-37.598,0.000
1709206387.600,-37.598,-40.039,-44.434,-38.086,0.000
1709206387.604,-42.969,-68.848,-44.922,-39.062,0.000
1709206387.608,-50.293,-51.270,-43.945,-49.316,0.000
1709206387.612,-49.316,-22.461,-44.922,-54.199,0.000
1709206387.616,-44.434,-31.250,-42.969,-45.898,0.000
1709206387.620,-39.551,-41.504,-41.016,-38.574,0.000
1709206387.624,-46.875,-38.574,-44.922,-48.828,0.000
1709206387.628,-59.082,-48.340,-47.363,-60.547,0.000
1709206387.632,-55.664,-70.312,-44.922,-53.711,0.000
1709206387.636,-42.969,-61.523,-40.039,-39.062,0.000
1709206387.639,-37.598,-45.410,-39.062,-34.668,0.000
1709206387.643,-43.457,-58.105,-40.039,-41.992,0.000
1709206387.647,-50.781,-85.449,-37.598,-35.645,0.000
1709206387.651,-51.758,-81.543,-38.086,-22.949,0.000
1709206387.655,-41.504,-46.387,-37.109,-28.809,0.000
1709206387.659,-34.180,-59.082,-41.016,-42.480,0.000
1709206387.663,-38.086,-64.453,-41.504,-44.434,0.000
1709206387.667,-45.898,-53.711,-35.156,-39.062,0.000
1709206387.671,-46.875,-54.199,-36.621,-36.621,0.000
1709206387.675,-40.527,-60.547,-41.016,-35.645,0.000
1709206387.679,-34.180,-71.777,-42.480,-34.180,0.000
1709206387.682,-25.391,-62.012,-42.969,-34.180,0.000
1709206387.686,-32.227,-58.105,-40.039,-39.551,0.000
1709206387.690,-41.992,-68.359,-34.668,-38.086,0.000
1709206387.694,-32.715,-77.148,-38.574,-30.273,0.000
1709206387.698,-28.809,-63.965,-44.434,-34.180,0.000
1709206387.702,-35.156,-52.246,-43.945,-46.875,0.000
1709206387.706,-39.551,-56.152,-41.016,-55.176,0.000
1709206387.710,-47.363,-87.402,-39.062,-50.293,0.000
1709206387.714,-47.363,-67.871,-45.898,-44.434,0.000
1709206387.718,-42.480,-38.574,-48.340,-42.480,0.000
1709206387.722,-44.434,-48.828,-43.457,-43.945,0.000
1709206387.725,-55.664,-59.082,-43.945,-46.875,0.000
1709206387.729,-65.918,-55.664,-46.387,-49.316,0.000
1709206387.733,-57.129,-53.223,-47.852,-49.316,0.000
1709206387.737,-44.922,-58.105,-42.969,-42.969,0.000
1709206387.741,-40.527,-62.988,-41.992,-46.387,0.000
1709206387.745,-37.598,-53.711,-42.480,-55.664,0.000
1709206387.749,-43.945,-48.340,-44.434,-47.852,0.000
1709206387.753,-49.316,-70.801,-44.922,-33.691,0.000
1709206387.757,-37.598,-72.266,-40.039,-19.043,0.000
1709206387.761,-30.273,-30.762,-40.039,-20.020,0.000
1709206387.765,-40.527,-37.598,-42.480,-30.762,0.000
1709206387.768,-45.898,-68.848,-35.156,-30.762,0.000
1709206387.772,-50.293,-76.660,-33.691,-28.320,0.000
1709206387.776,-49.805,-45.898,-37.109,-29.785,0.000
1709206387.780,-41.992,-41.992,-40.527,-27.832,0.000
1709206387.784,-47.852,-68.848,-44.434,-27.344,0.000
1709206387.788,-57.129,-73.242,-41.992,-39.062,0.000
1709206387.792,-59.570,-65.430,-43.945,-47.363,0.000
1709206387.796,-52.246,-67.383,-42.969,-37.109,0.000
1709206387.800,-43.457,-84.961,-41.504,-33.691,0.000
1709206387.804,-46.875,-50.293,-43.457,-48.828,0.000
1709206387.808,-49.316,-30.762,-41.992,-55.664,0.000
1709206387.811,-50.293,-58.105,-39.062,-51.758,0.000
1709206387.815,-48.340,-57.617,-41.016,-43.945,0.000
1709206387.819,-44.434,-41.992,-43.457,-41.016,0.000
1709206387.823,-41.016,-42.969,-38.574,-43.457,0.000
1709206387.827,-35.645,-57.617,-33.203,-45.898,0.000
1709206387.831,-33.691,-54.688,-34.668,-43.945,0.000
1709206387.835,-31.250,-49.316,-33.203,-36.621,0.000
1709206387.839,-25.879,-33.691,-33.203,-37.598,0.000
1709206387.843,-20.020,-45.898,-32.227,-28.809,0.000
1709206387.847,-24.414,-67.383,-29.297,-19.531,0.000
1709206387.850,-32.715,-26.855,-33.691,-40.039,0.000
1709206387.854,-31.250,-25.391,-38.574,-44.434,0.000
1709206387.858,-29.785,-46.875,-39.062,-38.574,0.000
1709206387.862,-25.391,-38.086,-40.527,-41.016,0.000
1709206387.866,-31.738,-36.133,-40.527,-37.598,0.000
1709206387.870,-38.086,-50.293,-38.086,-33.203,0.000
1709206387.874,-30.273,-62.012,-37.109,-31.738,0.000
1709206387.878,-26.367,-43.457,-41.016,-31.250,0.000
1709206387.882,-28.320,-43.945,-42.969,-33.691,0.000
1709206387.886,-35.645,-54.199,-46.875,-39.551,0.000
1709206387.890,-44.434,-76.172,-49.805,-34.180,0.000
1709206387.893,-42.969,-44.434,-51.758,-33.691,0.000
1709206387.897,-29.785,-8.789,-48.828,-37.109,0.000
1709206387.901,-23.926,-40.039,-44.922,-34.180,0.000
1709206387.905,-37.109,-50.781,-46.387,-47.363,0.000
1709206387.909,-48.340,-40.039,-45.410,-50.293,0.000
1709206387.913,-46.387,-40.527,-44.434,-47.363,0.000
1709206387.917,-29.297,-49.805,-45.898,-39.551,0.000
1709206387.921,-20.020,-40.527,-38.574,-35.156,0.000
1709206387.925,-28.809,-33.691,-34.180,-36.621,0.000
1709206387.929,-38.086,-47.363,-33.203,-34.180,0.000
1709206387.932,-38.086,-57.617,-33.203,-39.551,0.000
1709206387.936,-35.645,-57.617,-32.227,-28.809,0.000
1709206387.940,-38.086,-27.832,-38.086,-35.156,0.000
1709206387.944,-45.410,-43.945,-45.410,-49.805,0.000
1709206387.948,-54.199,-55.664,-41.992,-44.922,0.000
1709206387.952,-47.852,-40.527,-41.016,-39.062,0.000
1709206387.956,-34.180,-34.180,-42.969,-40.527,0.000
1709206387.960,-32.227,-46.875,-44.434,-44.922,0.000
1709206387.964,-41.992,-72.754,-42.480,-47.852,0.000
1709206387.968,-44.922,-58.105,-37.598,-39.062,0.000
1709206387.971,-48.828,-48.828,-36.621,-31.738,0.000
1709206387.975,-42.969,-67.871,-32.715,-36.133,0.000
1709206387.979,-36.133,-84.961,-32.227,-31.738,0.000
1709206387.983,-38.086,-63.477,-37.598,-30.273,0.000
1709206387.987,-44.922,-36.133,-41.992,-40.039,0.000
1709206387.991,-48.340,-46.875,-41.504,-43.945,0.000
1709206387.995,-41.504,-58.105,-44.922,-44.922,0.000
1709206387.999,-31.738,-50.781,-42.480,-42.480,0.000
1709206388.003,-31.250,-54.199,-40.039,-38.574,0.000
1709206388.007,-36.621,-56.152,-41.504,-33.203,0.000
1709206388.010,-46.387,-52.734,-42.480,-39.551,0.000
1709206388.014,-50.293,-44.434,-46.387,-49.316,0.000
1709206388.018,-33.691,-42.480,-44.434,-40.039,0.000
1709206388.022,-33.203,-71.777,-43.945,-37.598,0.000
1709206388.026,-43.457,-82.031,-43.457,-41.016,0.000
1709206388.030,-41.504,-42.969,-37.598,-40.039,0.000
1709206388.034,-41.016,-35.156,-36.133,-39.551,0.000
1709206388.038,-36.133,-61.035,-39.062,-39.062,0.000
1709206388.042,-30.762,-60.059,-39.062,-40.039,0.000
1709206388.046,-37.598,-52.734,-38.574,-43.457,0.000
1709206388.050,-51.270,-72.266,-40.527,-49.316,0.000
1709206388.054,-52.246,-83.008,-39.551,-50.293,0.000
1709206388.057,-42.480,-75.195,-41.016,-49.316,0.000
1709206388.061,-37.109,-58.594,-43.457,-50.781,0.000
1709206388.065,-42.969,-58.594,-41.016,-52.246,0.000
1709206388.069,-51.270,-92.285,-38.086,-47.852,0.000
1709206388.073,-49.805,-87.891,-41.992,-41.504,0.000
1709206388.077,-38.574,-59.570,-41.504,-35.156,0.000
1709206388.081,-31.250,-59.570,-33.203,-29.297,0.000
1709206388.085,-36.133,-91.309,-36.621,-27.344,0.000
1709206388.089,-46.387,-69.336,-42.969,-37.598,0.000
1709206388.093,-52.246,-59.082,-43.945,-41.504,0.000
1709206388.097,-56.641,-83.984,-43.945,-40.527,0.000
1709206388.100,-51.270,-81.055,-46.387,-56.641,0.000
1709206388.104,-42.969,-70.801,-44.434,-59.082,0.000
1709206388.108,-51.758,-74.707,-41.016,-55.176,0.000
1709206388.112,-58.105,-84.473,-42.480,-55.176,0.000
1709206388.116,-47.363,-81.055,-41.016,-52.734,0.000
1709206388.120,-43.457,-71.777,-39.551,-48.828,0.000
1709206388.124,-47.363,-58.105,-42.480,-49.805,0.000
1709206388.128,-46.387,-76.660,-39.551,-47.363,0.000
1709206388.132,-47.852,-93.262,-37.109,-31.738,0.000
1709206388.136,-43.945,-48.340,-35.645,-38.086,0.000
1709206388.139,-41.504,-50.781,-37.598,-51.270,0.000
1709206388.143,-45.410,-70.312,-42.480,-47.363,0.000
1709206388.147,-48.340,-56.641,-43.457,-47.363,0.000
1709206388.151,-46.875,-47.363,-44.434,-44.922,0.000
1709206388.155,-41.992,-52.246,-46.387,-33.203,0.000
1709206388.159,-34.180,-68.848,-44.922,-38.574,0.000
1709206388.163,-40.527,-64.941,-38.574,-54.688,0.000
1709206388.167,-50.293,-67.383,-37.109,-49.316,0.000
1709206388.171,-51.758,-69.824,-39.551,-33.203,0.000
1709206388.175,-47.852,-80.078,-39.551,-22.461,0.000
1709206388.179,-49.316,-51.270,-42.480,-33.691,0.000
1709206388.182,-50.293,-35.156,-40.527,-48.828,0.000
1709206388.186,-47.363,-60.059,-35.156,-46.387,0.000
1709206388.190,-50.293,-62.988,-35.645,-42.480,0.000
1709206388.194,-46.875,-51.270,-38.574,-43.457,0.000
1709206388.198,-40.039,-49.316,-40.039,-40.039,0.000
1709206388.202,-41.504,-57.129,-38.574,-31.250,0.000
1709206388.206,-50.293,-58.105,-41.992,-37.109,0.000
1709206388.210,-50.781,-64.453,-38.086,-51.758,0.000
1709206388.214,-49.805,-64.453,-30.762,-47.363,0.000
1709206388.218,-44.434,-69.336,-34.180,-34.180,0.000
1709206388.222,-37.598,-73.242,-38.086,-38.086,0.000
1709206388.225,-45.410,-42.969,-40.039,-54.199,0.000
1709206388.229,-48.340,-51.270,-33.691,-48.340,0.000
1709206388.233,-40.039,-55.664,-31.250,-40.527,0.000
1709206388.237,-33.203,-39.551,-40.527,-42.480,0.000
1709206388.241,-31.738,-33.203,-44.922,-43.945,0.000
1709206388.245,-33.691,-45.898,-41.016,-42.969,0.000
1709206388.249,-41.992,-64.941,-37.598,-45.898,0.000
1709206388.253,-43.457,-51.270,-41.016,-46.875,0.000
1709206388.257,-34.668,-45.898,-40.527,-35.645,0.000
1709206388.261,-29.785,-57.129,-40.527,-36.133,0.000
1709206388.265,-37.598,-78.613,-45.898,-34.668,0.000
1709206388.269,-47.363,-42.969,-48.828,-39.062,0.000
1709206388.272,-45.898,-9.766,-45.410,-49.316,0.000
1709206388.276,-33.691,-30.273,-34.668,-37.109,0.000
1709206388.280,-25.391,-33.691,-28.320,-28.809,0.000
1709206388.284,0.000,-23.438,-31.250,-35.645,0.000
1709206388.288,0.000,-33.203,-32.227,-45.898,0.000
1709206388.292,0.000,-37.598,-32.227,-43.945,0.000
1709206388.296,0.000,-22.949,-33.203,-37.598,0.000
1709206388.300,0.000,-19.531,-32.715,-37.109,0.000
1709206388.304,0.000,-50.781,-34.668,-40.039,0.000
1709206388.308,0.000,-51.270,-33.203,-36.621,0.000
1709206388.312,0.000,-32.715,-33.691,-29.785,0.000
1709206388.315,0.000,-29.785,-36.621,-33.691,0.000
1709206388.319,0.000,-30.273,-35.156,-43.945,0.000
1709206388.323,0.000,-64.453,-38.574,-39.062,0.000
1709206388.327,0.000,-70.312,-39.062,-27.344,0.000
1709206388.331,-44.434,-29.297,-37.109,-33.203,0.000
1709206388.335,-39.551,-44.434,-39.551,-38.086,0.000
1709206388.339,-32.227,-68.848,-42.480,-35.645,0.000
1709206388.343,-30.762,-61.523,-41.992,-42.969,0.000
1709206388.347,-42.480,-56.641,-41.992,-49.805,0.000
1709206388.351,-56.152,-62.500,-43.457,-45.410,0.000
1709206388.354,-51.270,-82.520,-43.457,-38.086,0.000
1709206388.358,-41.992,-57.129,-46.875,-43.945,0.000
1709206388.362,-38.086,-23.438,-49.316,-51.758,0.000
1709206388.366,-40.527,-43.945,-44.922,-47.852,0.000
1709206388.370,-47.363,-56.641,-41.504,-46.875,0.000
1709206388.374,-39.551,-39.551,-42.480,-51.270,0.000
1709206388.378,-24.902,-28.809,-42.480,-49.805,0.000
1709206388.382,-27.344,-41.504,-43.457,-43.945,0.000
1709206388.386,-36.133,-53.711,-44.922,-48.340,0.000
1709206388.390,-41.992,-41.016,-43.945,-53.223,0.000
1709206388.393,-45.898,-42.480,-45.410,-46.875,0.000
1709206388.397,-43.945,-59.570,-47.852,-37.109,0.000
1709206388.401,-43.457,-69.824,-44.434,-33.691,0.000
1709206388.405,-50.781,-42.480,-41.992,-47.363,0.000
1709206388.409,-59.082,-30.762,-41.504,-43.457,0.000
1709206388.413,-59.082,-48.340,-39.062,-31.738,0.000
1709206388.417,-46.875,-42.480,-41.504,-40.039,0.000
1709206388.421,-36.133,-37.598,-40.527,-48.828,0.000
1709206388.425,-41.504,-51.270,-36.621,-49.805,0.000
1709206388.429,-55.664,-63.477,-36.133,-52.246,0.000
1709206388.433,-58.105,-52.734,-39.551,-49.805,0.000
1709206388.436,-44.434,-42.969,-44.922,-47.363,0.000
1709206388.440,-36.621,-49.316,-40.527,-52.246,0.000
1709206388.444,-38.574,-70.801,-37.598,-48.340,0.000
1709206388.448,-47.852,-62.988,-39.551,-42.480,0.000
1709206388.452,-52.246,-39.062,-38.086,-48.340,0.000
1709206388.456,-37.109,-37.109,-34.668,-38.086,0.000
1709206388.460,-26.855,-63.477,-35.156,-24.414,0.000
1709206388.464,-31.250,-39.062,-34.180,-29.297,0.000
1709206388.468,-41.016,-25.879,-34.668,-42.480,0.000
1709206388.472,-41.016,-43.945,-37.109,-54.688,0.000
1709206388.476,-41.504,-42.480,-37.598,-55.176,0.000
1709206388.479,-37.598,-37.598,-40.039,-55.176,0.000
1709206388.483,-26.855,-44.922,-35.156,-57.129,0.000
1709206388.487,-30.762,-56.641,-32.227,-55.176,0.000
1709206388.491,-32.715,-60.547,-36.621,-50.293,0.000
1709206388.495,-30.273,-44.434,-38.086,-47.852,0.000
1709206388.499,-24.414,-25.879,-41.016,-43.457,0.000
1709206388.503,-22.949,-59.082,-39.551,-36.133,0.000
1709206388.507,-28.320,-72.754,-32.715,-23.438,0.000
1709206388.511,-38.574,-24.414,-33.691,-30.273,0.000
1709206388.515,-46.387,-37.598,-37.109,-39.062,0.000
1709206388.519,-43.457,-61.035,-36.621,-41.992,0.000
1709206388.522,-43.945,-40.527,-33.691,-43.945,0.000
1709206388.526,-51.270,-36.621,-28.809,-42.480,0.000
1709206388.530,-58.105,-61.035,-28.809,-40.527,0.000
1709206388.534,-59.570,-78.613,-32.227,-36.621,0.000
1709206388.538,-53.711,-74.219,-38.574,-35.645,0.000
1709206388.542,-49.316,-64.453,-42.969,-32.715,0.000
1709206388.546,-50.781,-68.359,-41.992,-32.715,0.000
1709206388.550,-56.152,-89.355,-42.480,-24.902,0.000
1709206388.554,-58.594,-51.758,-44.434,-26.367,0.000
1709206388.558,-48.828,-24.414,-40.039,-40.527,0.000
1709206388.562,-42.480,-52.734,-41.992,-43.457,0.000
1709206388.565,-45.410,-55.664,-42.969,-46.387,0.000
1709206388.569,-47.852,-44.922,-39.062,-51.270,0.000
1709206388.573,-43.945,-57.617,-37.598,-56.152,0.000
1709206388.577,-36.133,-53.711,-39.062,-53.223,0.000
1709206388.581,-30.273,-44.922,-41.504,-46.387,0.000
1709206388.585,-29.785,-66.406,-42.480,-44.922,0.000
1709206388.589,-41.504,-65.918,-41.016,-44.434,0.000
1709206388.593,-41.016,-67.871,-40.039,-35.156,0.000
1709206388.597,-25.879,-85.449,-38.574,-26.367,0.000
1709206388.601,-27.344,-48.340,-40.527,-37.109,0.000
1709206388.605,-39.062,-51.270,-42.480,-47.852,0.000
1709206388.608,-43.457,-76.172,-38.574,-48.340,0.000
1709206388.612,-47.852,-70.801,-44.922,-47.363,0.000
1709206388.616,-39.062,-59.570,-43.945,-42.480,0.000
1709206388.620,-27.832,-65.918,-35.645,-36.621,0.000
1709206388.624,-30.762,-83.984,-32.715,-38.086,0.000
1709206388.628,-33.691,-74.707,-30.273,-39.551,0.000
1709206388.632,-37.109,-68.848,-29.785,-40.527,0.000
1709206388.636,-38.574,-72.266,-29.785,-39.551,0.000
1709206388.640,-34.180,-96.680,-33.691,-31.250,0.000
1709206388.644,-36.133,-65.430,-35.156,-31.738,0.000
1709206388.647,-44.434,-39.551,-34.668,-39.551,0.000
1709206388.651,-57.129,-72.266,-40.039,-44.922,0.000
1709206388.655,-53.711,-73.242,-41.992,-41.504,0.000
1709206388.659,-38.086,-55.176,-38.574,-40.527,0.000
1709206388.663,-40.527,-62.988,-43.457,-44.922,0.000
1709206388.667,-50.293,-76.172,-44.434,-45.410,0.000
1709206388.671,-52.734,-67.871,-41.504,-45.410,0.000
1709206388.675,-49.805,-54.199,-40.039,-45.898,0.000
1709206388.679,-39.062,-58.105,-35.645,-42.969,0.000
1709206388.683,-34.180,-76.172,-33.203,-36.133,0.000
1709206388.687,-43.945,-98.633,-35.645,-33.691,0.000
1709206388.690,-51.270,-58.594,-37.109,-50.781,0.000
1709206388.694,-47.363,-43.457,-33.203,-51.758,0.000
1709206388.698,-36.133,-70.801,-34.180,-50.293,0.000
1709206388.702,-31.250,-62.500,-39.551,-45.410,0.000
1709206388.706,-41.504,-52.246,-39.062,-41.504,0.000
1709206388.710,-51.758,-64.453,-40.527,-45.898,0.000
1709206388.714,-43.457,-77.637,-34.668,-41.504,0.000
1709206388.718,-30.762,-60.059,-32.227,-38.086,0.000
1709206388.722,-24.902,-48.828,-39.551,-40.039,0.000
1709206388.726,-22.949,-65.430,-37.598,-47.852,0.000
1709206388.729,-30.273,-86.426,-35.156,-43.945,0.000
1709206388.733,-40.527,-62.500,-37.109,-37.109,0.000
1709206388.737,-42.480,-35.156,-41.992,-48.828,0.000
1709206388.741,-29.785,-52.246,-41.504,-44.922,0.000
1709206388.745,-32.227,-66.895,-41.504,-39.551,0.000
1709206388.749,-41.992,-49.316,-41.992,-41.992,0.000
1709206388.753,-41.016,-35.156,-38.574,-40.527,0.000
1709206388.757,-33.691,-44.434,-39.062,-29.785,0.000
1709206388.761,-31.738,-51.270,-43.457,-30.762,0.000
1709206388.765,-33.203,-46.387,-42.480,-35.645,0.000
1709206388.768,-34.668,-49.316,-40.527,-35.156,0.000
1709206388.772,-37.109,-68.848,-32.715,-29.297,0.000
1709206388.776,-35.156,-69.336,-30.762,-20.996,0.000
1709206388.780,-31.250,-30.273,-36.133,-25.879,0.000
1709206388.784,-33.203,-26.367,-37.109,-30.273,0.000
1709206388.788,-38.574,-49.805,-38.086,-30.273,0.000
1709206388.792,-44.922,-45.410,-36.621,-28.809,0.000
1709206388.796,-41.016,-28.320,-35.156,-29.297,0.000
1709206388.800,-34.668,-42.480,-41.016,-41.992,0.000
1709206388.804,-34.180,-62.988,-42.969,-48.828,0.000
1709206388.808,-40.527,-56.152,-37.598,-46.875,0.000
1709206388.811,-45.410,-40.039,-39.551,-43.945,0.000
1709206388.815,-35.645,-48.340,-41.992,-38.574,0.000
1709206388.819,-19.531,-64.941,-38.086,-29.785,0.000
1709206388.823,-21.973,-52.734,-34.180,-32.227,0.000
1709206388.827,-41.992,-45.410,-38.574,-42.480,0.000
1709206388.831,-52.246,-44.922,-41.016,-43.457,0.000
1709206388.835,-53.223,-74.219,-38.086,-41.016,0.000
1709206388.839,-42.969,-43.945,-36.621,-41.992,0.000
1709206388.843,-33.691,-23.438,-33.691,-46.387,0.000
1709206388.847,-42.480,-48.828,-29.785,-43.457,0.000
1709206388.851,-42.969,-42.969,-27.832,-39.551,0.000
1709206388.854,-34.668,-38.574,-26.367,-32.227,0.000
1709206388.858,-30.273,-53.223,-29.785,-30.273,0.000
1709206388.862,-29.785,-56.641,-31.738,-33.691,0.000
1709206388.866,-38.574,-62.988,-31.738,-41.016,0.000
1709206388.870,-54.688,-59.082,-32.715,-39.551,0.000
1709206388.874,-47.363,-31.738,-29.297,-38.086,0.000
1709206388.878,-30.762,-50.293,-36.133,-41.504,0.000
1709206388.882,-34.668,-63.965,-38.086,-32.227,0.000
1709206388.886,-40.039,-23.438,-37.598,-29.297,0.000
1709206388.890,-38.086,-28.809,-34.180,-33.203,0.000
1709206388.894,-41.504,-59.570,-33.691,-32.227,0.000
1709206388.897,-39.551,-44.434,-40.039,-34.180,0.000
1709206388.901,-34.668,-29.785,-41.992,-38.574,0.000
1709206388.905,-40.039,-45.898,-39.551,-38.086,0.000
1709206388.909,-48.828,-64.453,-39.551,-39.551,0.000
1709206388.913,-46.875,-53.711,-37.109,-37.598,0.000
1709206388.917,-45.410,-34.668,-34.668,-33.691,0.000
1709206388.921,-40.527,-35.645,-36.621,-36.621,0.000
1709206388.925,-36.621,-58.594,-35.156,-31.738,0.000
1709206388.929,-44.922,-41.992,-39.062,-38.086,0.000
1709206388.933,-46.387,-26.855,-41.992,-48.340,0.000
1709206388.937,-41.016,-37.598,-43.457,-44.922,0.000
