timestamps,TP9,AF7,AF8,TP10,Right AUX
1709291989.745,0.000,-42.969,-41.992,-36.133,0.000
1709291989.749,0.000,-54.688,-41.992,-44.922,0.000
1709291989.753,0.000,-53.711,-42.969,-35.645,0.000
1709291989.757,0.000,-46.387,-38.086,-24.902,0.000
1709291989.761,0.000,-42.969,-37.109,-28.320,0.000
1709291989.765,0.000,-46.387,-36.621,-36.133,0.000
1709291989.769,0.000,-45.898,-36.133,-39.551,0.000
1709291989.773,0.000,-41.992,-29.785,-44.434,0.000
1709291989.777,0.000,-42.969,-27.344,-33.691,0.000
1709291989.780,0.000,-38.574,-30.273,-16.113,0.000
1709291989.784,0.000,-39.551,-36.621,-28.320,0.000
1709291989.788,0.000,-41.504,-35.645,-33.691,0.000
1709291989.793,-33.203,-39.062,-33.691,-37.109,0.000
1709291989.797,-35.645,-36.621,-36.621,-33.691,0.000
1709291989.801,-22.949,-33.203,-34.668,-28.320,0.000
1709291989.804,-21.973,-36.133,-31.738,-33.691,0.000
1709291989.808,-33.691,-41.992,-29.785,-37.598,0.000
1709291989.812,-42.480,-41.016,-27.832,-39.551,0.000
1709291989.816,-36.621,-47.363,-27.832,-36.133,0.000
1709291989.820,-30.273,-46.875,-30.273,-37.109,0.000
1709291989.824,-27.832,-35.156,-25.391,-23.926,0.000
1709291989.828,-25.879,-32.227,-26.855,-19.043,0.000
1709291989.832,-27.832,-29.297,-30.762,-31.738,0.000
1709291989.836,-23.438,-22.949,-25.391,-27.344,0.000
1709291989.840,-20.508,-22.461,-28.320,-23.438,0.000
1709291989.844,-23.438,-30.273,-33.691,-22.461,0.000
1709291989.848,-29.297,-31.738,-35.156,-30.273,0.000
1709291989.851,-32.715,-26.367,-33.203,-35.645,0.000
1709291989.855,-39.062,-30.273,-32.227,-31.738,0.000
1709291989.859,-36.621,-33.691,-29.785,-28.809,0.000
1709291989.863,-34.180,-29.297,-22.461,-25.879,0.000
1709291989.867,-46.387,-34.668,-23.926,-33.691,0.000
1709291989.871,-46.387,-38.086,-27.832,-25.879,0.000
1709291989.875,-44.922,-35.156,-30.273,-28.320,0.000
1709291989.879,-47.852,-36.621,-32.715,-40.039,0.000
1709291989.883,-48.828,-40.039,-36.621,-33.203,0.000
1709291989.887,-45.410,-41.504,-34.668,-34.668,0.000
1709291989.891,-41.504,-40.527,-35.156,-41.504,0.000
1709291989.894,-45.410,-41.992,-38.086,-44.922,0.000
1709291989.898,-43.457,-41.016,-35.645,-41.016,0.000
1709291989.902,-34.180,-38.086,-36.621,-34.180,0.000
1709291989.906,-34.180,-41.016,-37.598,-35.645,0.000
1709291989.910,-34.180,-43.457,-32.227,-38.086,0.000
1709291989.914,-33.203,-39.062,-26.855,-27.832,0.000
1709291989.918,-38.574,-35.645,-26.367,-29.297,0.000
1709291989.922,-45.410,-37.598,-32.227,-38.086,0.000
1709291989.926,-41.992,-44.434,-37.598,-34.668,0.000
1709291989.930,-41.992,-46.387,-39.062,-39.062,0.000
1709291989.933,-44.922,-44.434,-35.645,-39.062,0.000
1709291989.937,-35.645,-37.109,-33.691,-28.809,0.000
1709291989.941,-25.879,-38.086,-33.691,-23.438,0.000
1709291989.945,-29.297,-41.504,-28.809,-25.879,0.000
1709291989.949,-36.133,-38.574,-29.785,-27.344,0.000
1709291989.953,-45.410,-39.551,-26.855,-25.391,0.000
1709291989.957,-47.852,-47.363,-29.297,-24.902,0.000
1709291989.961,-43.457,-48.828,-33.203,-18.066,0.000
1709291989.965,-41.504,-39.062,-29.785,-28.809,0.000
1709291989.968,-42.480,-38.574,-32.227,-45.410,0.000
1709291989.972,-43.457,-45.410,-36.133,-43.945,0.000
1709291989.976,-41.504,-43.945,-34.668,-40.527,0.000
1709291989.980,-42.480,-42.480,-34.668,-37.598,0.000
1709291989.984,-39.551,-44.922,-33.203,-37.109,0.000
1709291989.988,-41.992,-44.434,-33.203,-43.945,0.000
1709291989.991,-46.387,-39.551,-34.180,-45.898,0.000
1709291989.995,-46.875,-39.062,-32.227,-42.969,0.000
1709291989.999,-40.527,-37.598,-30.762,-39.062,0.000
1709291990.003,-31.250,-37.109,-27.344,-33.203,0.000
1709291990.007,-35.156,-33.691,-27.832,-32.715,0.000
1709291990.011,-45.410,-26.855,-31.250,-40.039,0.000
1709291990.015,-47.852,-33.203,-32.227,-40.527,0.000
1709291990.019,-36.621,-32.715,-27.832,-35.156,0.000
1709291990.023,-30.273,-33.691,-27.832,-36.133,0.000
1709291990.026,-35.645,-40.527,-33.691,-38.574,0.000
1709291990.030,-34.668,-41.016,-30.273,-34.668,0.000
1709291990.034,-40.039,-40.527,-28.320,-34.668,0.000
1709291990.038,-38.086,-42.480,-33.203,-36.133,0.000
1709291990.042,-28.320,-43.457,-34.180,-29.297,0.000
1709291990.046,-30.273,-40.527,-28.320,-34.180,0.000
1709291990.049,-32.715,-39.062,-31.738,-25.391,0.000
1709291990.053,-30.273,-36.133,-31.738,-20.020,0.000
1709291990.057,-24.902,-36.133,-27.344,-32.227,0.000
1709291990.061,-20.508,-37.109,-29.297,-38.574,0.000
1709291990.065,-22.949,-33.203,-27.344,-41.016,0.000
1709291990.069,-24.902,-32.715,-30.762,-39.062,0.000
1709291990.072,-29.785,-34.180,-35.156,-36.133,0.000
1709291990.076,-33.691,-30.273,-29.297,-31.738,0.000
1709291990.080,-31.250,-29.785,-27.832,-34.180,0.000
1709291990.084,-29.297,-32.227,-34.180,-34.668,0.000
1709291990.088,-27.344,-37.109,-36.133,-30.762,0.000
1709291990.092,-34.180,-35.645,-31.250,-30.762,0.000
1709291990.096,-38.086,-33.691,-30.273,-28.320,0.000
1709291990.099,-25.391,-34.668,-30.273,-24.902,0.000
1709291990.103,-25.391,-38.574,-30.273,-34.180,0.000
1709291990.107,-39.062,-44.922,-27.832,-35.645,0.000
1709291990.111,-44.434,-42.969,-23.926,-33.203,0.000
1709291990.115,-40.039,-43.945,-29.785,-37.109,0.000
1709291990.120,-32.227,-49.805,-29.297,-30.762,0.000
1709291990.124,-28.809,-49.316,-26.367,-29.785,0.000
1709291990.128,-33.691,-46.387,-35.156,-33.203,0.000
1709291990.132,-32.715,-45.410,-34.180,-29.785,0.000
1709291990.135,-31.250,-39.551,-33.203,-26.367,0.000
1709291990.139,-34.668,-40.039,-38.086,-27.832,0.000
1709291990.143,-27.344,-37.598,-30.273,-28.320,0.000
1709291990.147,-23.926,-34.668,-28.320,-31.738,0.000
1709291990.151,-34.668,-36.133,-29.785,-36.621,0.000
1709291990.155,-37.598,-33.691,-25.879,-34.668,0.000
1709291990.159,-32.715,-31.250,-26.855,-36.133,0.000
1709291990.163,-37.598,-33.691,-26.855,-38.574,0.000
1709291990.167,-40.527,-37.109,-29.297,-37.109,0.000
1709291990.171,-37.109,-40.527,-32.227,-30.762,0.000
1709291990.175,-41.504,-37.109,-30.273,-27.344,0.000
1709291990.179,-41.992,-33.203,-30.762,-26.367,0.000
1709291990.183,-37.598,-39.062,-33.691,-24.414,0.000
1709291990.187,-42.480,-42.969,-36.621,-27.832,0.000
1709291990.191,-39.551,-42.969,-38.086,-24.414,0.000
1709291990.195,-39.551,-42.480,-32.715,-21.973,0.000
1709291990.199,-44.434,-39.551,-31.738,-25.879,0.000
1709291990.202,-37.598,-37.109,-32.715,-26.367,0.000
1709291990.206,-36.621,-42.969,-31.250,-29.297,0.000
1709291990.210,-40.527,-41.504,-36.621,-29.785,0.000
1709291990.214,0.000,-40.039,-35.156,-18.066,0.000
1709291990.218,0.000,-37.109,-31.250,-20.020,0.000
1709291990.222,0.000,-32.227,-31.250,-25.391,0.000
1709291990.226,0.000,-33.203,-31.250,-21.973,0.000
1709291990.230,0.000,-38.086,-33.691,-26.367,0.000
1709291990.234,0.000,-41.016,-37.598,-30.762,0.000
1709291990.238,0.000,-35.156,-41.016,-29.785,0.000
1709291990.242,0.000,-36.133,-39.551,-27.344,0.000
1709291990.246,0.000,-42.969,-40.039,-26.855,0.000
1709291990.250,0.000,-39.062,-39.062,-31.250,0.000
1709291990.254,0.000,-40.527,-36.621,-38.086,0.000
1709291990.257,0.000,-45.898,-38.086,-38.574,0.000
1709291990.261,-42.480,-42.969,-35.156,-39.062,0.000
1709291990.265,-37.109,-38.086,-33.203,-43.945,0.000
1709291990.269,-36.133,-38.574,-37.598,-48.340,0.000
1709291990.273,-45.898,-43.945,-40.527,-52.246,0.000
1709291990.277,-52.246,-48.340,-41.504,-54.199,0.000
1709291990.281,-47.363,-46.387,-43.457,-48.828,0.000
1709291990.285,-42.480,-46.387,-43.945,-53.223,0.000
1709291990.289,-42.480,-49.316,-44.922,-44.922,0.000
1709291990.293,-45.898,-45.898,-43.945,-37.598,0.000
1709291990.297,-43.945,-38.086,-37.109,-45.898,0.000
1709291990.300,-34.180,-39.062,-33.691,-41.016,0.000
1709291990.304,-32.715,-42.480,-33.203,-38.086,0.000
1709291990.308,-36.621,-40.527,-30.273,-44.922,0.000
1709291990.312,-38.574,-40.039,-31.738,-39.551,0.000
1709291990.316,-36.621,-44.434,-31.250,-31.250,0.000
1709291990.320,-28.320,-39.062,-21.973,-29.785,0.000
1709291990.324,-16.602,-26.855,-22.461,-25.879,0.000
1709291990.328,-19.531,-31.250,-23.438,-36.133,0.000
1709291990.331,-37.109,-41.016,-18.066,-43.945,0.000
1709291990.335,-53.223,-49.805,-23.926,-43.457,0.000
1709291990.339,-61.523,-51.758,-25.391,-52.734,0.000
1709291990.343,-69.824,-46.875,-26.367,-64.453,0.000
1709291990.347,-76.660,-48.828,-24.414,-73.730,0.000
1709291990.351,-88.867,-47.363,-19.531,-87.402,0.000
1709291990.354,-99.609,-42.480,-22.461,-94.238,0.000
1709291990.358,-95.703,-48.340,-27.832,-95.703,0.000
1709291990.362,-101.562,-51.270,-29.297,-101.074,0.000
1709291990.366,-111.328,-47.852,-26.855,-109.863,0.000
1709291990.370,-110.352,-48.828,-30.762,-105.469,0.000
1709291990.374,-106.445,-52.734,-36.621,-95.703,0.000
1709291990.378,-93.262,-53.223,-31.250,-83.984,0.000
1709291990.382,-76.172,-51.270,-32.227,-68.359,0.000
1709291990.386,-71.289,-49.316,-39.062,-70.801,0.000
1709291990.390,-78.613,-54.199,-36.621,-65.430,0.000
1709291990.394,-80.078,-57.129,-28.809,-56.641,0.000
1709291990.397,-68.359,-57.129,-27.344,-46.875,0.000
1709291990.401,-61.523,-61.523,-34.180,-39.551,0.000
1709291990.405,-42.969,-60.059,-31.738,-31.738,0.000
1709291990.409,-38.086,-56.641,-27.832,-35.156,0.000
1709291990.412,-49.805,-52.734,-31.738,-38.574,0.000
1709291990.416,-46.387,-50.293,-35.645,-30.762,0.000
1709291990.420,-44.922,-54.199,-36.621,-34.180,0.000
1709291990.424,-37.598,-57.617,-34.180,-32.715,0.000
1709291990.428,-31.250,-53.711,-31.250,-34.180,0.000
1709291990.432,-36.621,-51.758,-32.715,-33.691,0.000
1709291990.436,-33.203,-58.105,-36.621,-26.367,0.000
1709291990.440,-21.973,-58.594,-37.598,-24.414,0.000
1709291990.444,-20.020,-57.617,-35.645,-21.973,0.000
1709291990.449,-21.973,-52.734,-33.691,-22.949,0.000
1709291990.453,-21.973,-46.387,-34.180,-14.648,0.000
1709291990.456,-19.043,-45.410,-38.086,-12.695,0.000
1709291990.460,-10.254,-41.504,-32.715,-10.254,0.000
1709291990.464,-5.859,-44.434,-29.297,-9.766,0.000
1709291990.468,-9.277,-46.387,-32.715,-11.719,0.000
1709291990.472,-13.184,-40.527,-35.156,-8.301,0.000
1709291990.476,-19.531,-36.133,-35.156,-15.625,0.000
1709291990.480,-22.461,-39.551,-34.668,-10.254,0.000
1709291990.484,-18.555,-41.016,-32.715,-5.859,0.000
1709291990.488,-7.812,-34.668,-32.715,-13.184,0.000
1709291990.492,-8.789,-35.156,-35.156,-19.043,0.000
1709291990.496,-13.184,-39.551,-33.203,-13.672,0.000
1709291990.500,-3.418,-37.598,-26.855,0.000,0.000
1709291990.504,-1.953,-34.668,-26.855,-3.906,0.000
1709291990.508,-4.395,-37.598,-30.273,-7.812,0.000
1709291990.512,-8.301,-41.504,-33.691,-8.301,0.000
1709291990.516,-21.484,-41.992,-33.691,-11.719,0.000
1709291990.520,-24.414,-38.574,-31.738,-13.184,0.000
1709291990.524,-20.020,-40.527,-32.715,-16.113,0.000
1709291990.528,-18.555,-43.457,-32.227,-14.648,0.000
1709291990.531,-17.578,-40.527,-29.785,-3.418,0.000
1709291990.535,-28.320,-38.086,-32.227,-11.719,0.000
1709291990.539,-22.461,-38.086,-31.738,-15.625,0.000
1709291990.544,-14.648,-40.039,-29.785,-6.836,0.000
1709291990.547,-20.996,-41.504,-32.227,-20.020,0.000
1709291990.551,-25.879,-41.504,-34.668,-26.367,0.000
1709291990.555,-27.832,-40.039,-36.621,-14.160,0.000
1709291990.559,-29.785,-42.969,-33.203,-12.207,0.000
1709291990.563,-31.250,-47.852,-34.180,-20.996,0.000
1709291990.567,-32.227,-41.992,-40.527,-22.949,0.000
1709291990.571,-29.297,-35.645,-38.086,-18.555,0.000
1709291990.575,-28.320,-37.598,-41.016,-9.277,0.000
1709291990.579,-32.227,-39.062,-44.922,-8.301,0.000
1709291990.583,-28.809,-37.598,-42.480,-15.625,0.000
1709291990.587,-22.949,-36.133,-40.527,-17.578,0.000
1709291990.591,-22.949,-37.109,-39.551,-12.207,0.000
1709291990.595,-32.715,-41.016,-40.527,-10.742,0.000
1709291990.598,-32.715,-41.504,-42.969,-15.625,0.000
1709291990.602,-26.367,-37.109,-40.039,-10.742,0.000
1709291990.606,-20.020,-32.227,-28.320,-5.859,0.000
1709291990.610,-22.461,-29.785,-28.809,-10.254,0.000
1709291990.614,-26.367,-25.879,-29.785,-15.137,0.000
1709291990.618,-24.902,-28.320,-27.344,-12.207,0.000
1709291990.622,-28.320,-33.203,-31.738,-11.719,0.000
1709291990.626,-20.020,-31.738,-41.016,-8.789,0.000
1709291990.630,-8.789,-31.738,-41.992,-12.695,0.000
1709291990.634,-14.648,-29.297,-37.109,-16.113,0.000
1709291990.637,-19.043,-27.832,-39.551,-3.906,0.000
1709291990.641,-14.160,-27.832,-38.574,-8.301,0.000
1709291990.645,-11.230,-29.297,-34.668,-15.137,0.000
1709291990.649,-7.324,-30.273,-35.645,-16.113,0.000
1709291990.653,-7.324,-27.832,-37.109,-15.137,0.000
1709291990.657,-11.230,-29.785,-36.133,-15.625,0.000
1709291990.661,-12.695,-30.762,-36.621,-13.184,0.000
1709291990.665,-12.207,-32.715,-36.621,-10.742,0.000
1709291990.669,-15.625,-31.738,-36.133,-10.742,0.000
1709291990.673,-31.250,-29.297,-34.668,-19.531,0.000
1709291990.676,-33.691,-32.227,-34.668,-22.461,0.000
1709291990.680,-28.320,-37.598,-35.156,-19.043,0.000
1709291990.684,-25.879,-37.109,-37.598,-21.484,0.000
1709291990.688,-27.832,-38.086,-38.086,-24.902,0.000
1709291990.692,-35.156,-41.992,-35.645,-29.297,0.000
1709291990.696,-40.039,-41.016,-33.203,-30.273,0.000
1709291990.700,-38.574,-38.574,-35.645,-28.809,0.000
1709291990.704,-24.414,-33.691,-40.039,-33.203,0.000
1709291990.707,-7.324,-35.156,-39.551,-23.438,0.000
1709291990.711,2.441,-35.645,-32.715,4.883,0.000
1709291990.715,-16.113,-40.039,-33.691,-10.742,0.000
1709291990.719,-39.062,-52.246,-39.062,-41.992,0.000
1709291990.723,-39.062,-57.617,-34.180,-38.574,0.000
1709291990.727,-36.621,-56.641,-30.762,-35.156,0.000
1709291990.730,-36.133,-58.105,-31.250,-40.039,0.000
1709291990.734,-51.270,-66.406,-31.738,-48.340,0.000
1709291990.738,-65.918,-77.148,-33.691,-54.199,0.000
1709291990.742,-48.828,-78.125,-29.785,-33.203,0.000
1709291990.746,-46.387,-76.172,-28.320,-32.715,0.000
1709291990.750,-53.711,-80.078,-30.762,-45.410,0.000
1709291990.754,-52.246,-76.172,-30.762,-26.855,0.000
1709291990.758,-63.965,-74.707,-32.227,-18.555,0.000
1709291990.762,-61.035,-82.031,-33.203,-31.738,0.000
1709291990.766,-53.711,-86.426,-30.273,-30.762,0.000
1709291990.769,-59.570,-89.355,-24.414,-41.016,0.000
1709291990.773,-66.895,-90.332,-20.996,-43.457,0.000
1709291990.777,-73.242,-96.191,-24.414,-39.551,0.000
1709291990.781,-75.195,-99.609,-22.461,-47.852,0.000
1709291990.784,-70.312,-98.145,-21.484,-45.898,0.000
1709291990.788,-75.195,-99.121,-20.508,-43.457,0.000
1709291990.792,-87.402,-92.773,-15.625,-49.316,0.000
1709291990.796,-86.914,-93.262,-11.719,-47.363,0.000
1709291990.800,-84.961,-96.680,-7.812,-35.645,0.000
1709291990.804,-80.566,-94.238,-5.859,-40.039,0.000
1709291990.808,-81.543,-100.586,-4.395,-53.711,0.000
1709291990.812,-85.938,-103.027,-4.883,-49.316,0.000
1709291990.816,-69.824,-96.191,-5.371,-36.133,0.000
1709291990.820,-62.988,-92.285,-4.883,-30.762,0.000
1709291990.823,-62.500,-91.797,-3.418,-28.320,0.000
1709291990.827,-45.898,-92.285,-3.906,-15.137,0.000
1709291990.831,-32.715,-85.449,-1.953,-5.371,0.000
1709291990.834,-25.391,-76.172,-6.348,-0.977,0.000
1709291990.838,-21.973,-69.824,-12.207,0.977,0.000
1709291990.842,-16.113,-64.941,-12.207,9.277,0.000
1709291990.846,-9.277,-60.059,-13.184,18.066,0.000
1709291990.850,-13.672,-60.059,-14.648,14.160,0.000
1709291990.854,-12.695,-60.059,-20.020,14.160,0.000
1709291990.858,7.324,-56.152,-24.414,29.785,0.000
1709291990.862,7.324,-53.711,-20.508,36.621,0.000
1709291990.866,-3.418,-55.664,-21.973,32.715,0.000
1709291990.870,-3.418,-55.664,-25.391,36.133,0.000
1709291990.874,-9.766,-54.199,-26.367,34.180,0.000
1709291990.878,-6.836,-48.828,-31.250,25.879,0.000
1709291990.882,2.930,-45.898,-31.250,31.250,0.000
1709291990.886,7.812,-46.875,-35.645,35.645,0.000
1709291990.890,-0.488,-47.363,-45.410,21.973,0.000
1709291990.894,-4.395,-46.875,-44.922,24.414,0.000
1709291990.898,7.812,-43.945,-36.133,37.598,0.000
1709291990.902,17.090,-41.992,-28.809,47.363,0.000
1709291990.906,17.578,-41.504,-31.738,37.598,0.000
1709291990.910,13.184,-37.109,-36.621,19.531,0.000
1709291990.913,4.395,-33.691,-34.668,20.508,0.000
1709291990.918,-1.953,-36.133,-36.133,24.902,0.000
1709291990.922,4.395,-40.527,-40.039,19.531,0.000
1709291990.926,7.324,-40.527,-40.527,12.695,0.000
1709291990.930,3.418,-40.039,-35.156,10.254,0.000
1709291990.933,-0.488,-40.039,-35.645,-2.441,0.000
1709291990.937,-4.883,-41.016,-40.039,-3.906,0.000
1709291990.941,3.418,-33.691,-35.645,3.418,0.000
1709291990.945,6.348,-29.785,-37.598,0.488,0.000
1709291990.949,2.441,-36.621,-39.062,1.465,0.000
1709291990.953,0.977,-35.645,-33.691,0.977,0.000
1709291990.957,-8.301,-38.086,-31.250,-14.160,0.000
1709291990.961,-10.254,-38.086,-36.621,-10.254,0.000
1709291990.965,-3.906,-33.691,-42.480,-7.324,0.000
1709291990.969,-4.395,-37.598,-43.945,-15.625,0.000
1709291990.973,-19.043,-35.156,-41.992,-9.277,0.000
1709291990.977,-20.996,-35.645,-41.504,-3.906,0.000
1709291990.981,-8.789,-39.062,-36.621,-5.371,0.000
1709291990.984,-3.906,-39.062,-35.645,-7.324,0.000
1709291990.988,-8.789,-39.551,-39.062,-8.789,0.000
1709291990.992,-16.113,-37.109,-35.156,-5.859,0.000
1709291990.996,-22.949,-36.621,-33.691,-8.301,0.000
1709291991.000,-17.090,-31.738,-31.738,-13.184,0.000
1709291991.004,-15.625,-36.133,-33.691,-20.508,0.000
1709291991.008,-18.555,-42.480,-36.133,-34.180,0.000
1709291991.014,-15.137,-40.527,-34.668,-36.133,0.000
1709291991.018,-17.090,-39.062,-32.227,-24.902,0.000
1709291991.021,-19.043,-38.086,-31.738,-18.555,0.000
1709291991.025,-16.602,-34.668,-32.227,-22.949,0.000
1709291991.029,-17.578,-35.645,-34.668,-27.344,0.000
1709291991.033,-21.484,-39.551,-38.086,-32.715,0.000
1709291991.037,-19.531,-39.551,-41.504,-30.273,0.000
1709291991.041,-19.043,-39.062,-38.574,-15.625,0.000
1709291991.045,-17.090,-35.156,-36.133,-15.625,0.000
1709291991.049,-26.855,-38.086,-39.551,-34.668,0.000
1709291991.053,-45.898,-42.480,-44.922,-40.039,0.000
1709291991.057,-44.434,-40.039,-45.410,-33.203,0.000
1709291991.060,-25.879,-37.598,-40.039,-21.973,0.000
1709291991.064,-19.043,-33.691,-36.621,-11.719,0.000
1709291991.068,-19.531,-33.203,-37.109,-11.230,0.000
1709291991.072,-16.602,-33.691,-35.156,-21.484,0.000
1709291991.076,-16.602,-27.832,-32.715,-20.508,0.000
1709291991.080,-16.602,-29.785,-34.180,-11.230,0.000
1709291991.083,-11.230,-32.227,-31.250,-19.531,0.000
1709291991.087,-19.531,-35.156,-34.180,-25.391,0.000
1709291991.091,-32.715,-34.668,-34.668,-15.137,0.000
1709291991.095,-34.668,-34.668,-29.297,-13.672,0.000
1709291991.099,-36.133,-38.574,-24.902,-20.508,0.000
1709291991.103,-28.320,-35.156,-28.320,-13.184,0.000
1709291991.106,-24.902,-35.156,-35.156,-15.137,0.000
1709291991.110,-25.879,-38.574,-34.668,-30.762,0.000
1709291991.114,-26.855,-36.621,-38.574,-34.180,0.000
1709291991.118,-30.273,-35.645,-42.969,-29.785,0.000
1709291991.122,-23.438,-42.480,-40.039,-30.273,0.000
1709291991.126,-24.902,-41.016,-36.133,-31.250,0.000
1709291991.130,-26.855,-37.109,-33.691,-20.508,0.000
1709291991.134,-26.367,-38.574,-34.180,-20.020,0.000
1709291991.138,-36.133,-36.621,-36.133,-39.062,0.000
1709291991.141,-34.668,-39.062,-39.062,-34.668,0.000
1709291991.145,-33.691,-40.039,-40.039,-23.926,0.000
1709291991.149,-27.832,-38.574,-39.551,-28.320,0.000
1709291991.152,-28.320,-44.434,-40.527,-27.832,0.000
1709291991.156,-31.738,-47.363,-41.504,-26.367,0.000
1709291991.160,-22.461,-45.898,-38.086,-24.902,0.000
1709291991.164,-22.949,-42.480,-33.691,-23.926,0.000
1709291991.168,-27.344,-41.992,-34.668,-33.203,0.000
1709291991.172,-27.344,-39.062,-30.762,-25.879,0.000
1709291991.176,-28.320,-35.645,-23.926,-9.277,0.000
1709291991.180,-26.367,-35.156,-29.785,-24.902,0.000
1709291991.184,-22.949,-35.156,-34.668,-26.855,0.000
1709291991.188,-27.832,-37.598,-30.762,-18.066,0.000
1709291991.192,-41.504,-45.898,-34.180,-23.926,0.000
1709291991.195,-48.828,-52.734,-39.551,-36.133,0.000
1709291991.198,-44.434,-49.805,-38.086,-34.180,0.000
1709291991.202,-40.527,-45.410,-33.203,-23.926,0.000
1709291991.206,-38.086,-40.527,-25.879,-28.320,0.000
1709291991.210,-33.691,-39.551,-29.297,-34.180,0.000
1709291991.214,-36.133,-43.945,-36.133,-33.203,0.000
1709291991.218,-36.133,-44.434,-33.691,-26.855,0.000
1709291991.222,-31.738,-42.969,-34.668,-31.250,0.000
1709291991.226,-33.203,-43.945,-42.480,-38.574,0.000
1709291991.230,-42.969,-43.945,-43.945,-37.109,0.000
1709291991.234,-47.852,-41.504,-38.574,-32.227,0.000
1709291991.237,-43.945,-40.527,-37.598,-30.273,0.000
1709291991.241,-38.574,-36.621,-42.969,-33.203,0.000
1709291991.246,-39.551,-32.227,-41.504,0.000,0.000
1709291991.250,-42.969,-31.738,-40.039,0.000,0.000
1709291991.254,-40.039,-33.691,-31.738,0.000,0.000
1709291991.258,-30.762,-34.180,-23.438,0.000,0.000
1709291991.262,-24.902,-34.668,-27.344,0.000,0.000
1709291991.266,-22.461,-37.598,-20.020,0.000,0.000
1709291991.270,-20.996,-32.227,-9.277,0.000,0.000
1709291991.274,-35.156,-33.691,-10.254,0.000,0.000
1709291991.277,-32.227,-37.598,-11.719,0.000,0.000
1709291991.281,-19.531,-36.621,-14.648,0.000,0.000
1709291991.285,-24.414,-35.156,-19.531,0.000,0.000
1709291991.289,-37.109,-36.133,-16.602,0.000,0.000
1709291991.294,-42.969,-40.527,-17.090,-35.645,0.000
1709291991.298,-30.762,-43.945,-25.391,-25.879,0.000
1709291991.301,-21.484,-39.551,-26.855,-10.254,0.000
1709291991.305,-38.574,-38.086,-20.020,-29.785,0.000
1709291991.309,-48.340,-38.574,-18.555,-54.199,0.000
1709291991.313,-41.992,-38.574,-22.461,-46.387,0.000
1709291991.317,-50.781,-41.992,-20.020,-45.898,0.000
1709291991.321,-50.781,-42.480,-16.113,-47.852,0.000
1709291991.325,-39.551,-44.922,-18.066,-42.969,0.000
1709291991.329,-35.156,-41.992,-22.949,-41.504,0.000
1709291991.333,-38.574,-38.086,-26.855,-43.945,0.000
1709291991.337,-47.852,-38.574,-29.785,-43.457,0.000
1709291991.341,-35.645,-37.109,-30.762,-36.621,0.000
1709291991.345,-28.320,-36.133,-25.879,-31.250,0.000
1709291991.348,-41.016,-41.992,-22.461,-38.574,0.000
1709291991.352,-33.691,-46.875,-20.020,-40.039,0.000
1709291991.356,-33.691,-47.363,-21.484,-34.668,0.000
1709291991.360,-35.645,-42.969,-22.461,-30.273,0.000
1709291991.364,-22.949,-37.598,-22.949,-31.250,0.000
1709291991.368,-20.508,-34.180,-21.973,-29.785,0.000
1709291991.372,-28.809,-34.180,-24.414,-25.391,0.000
1709291991.376,-41.504,-28.809,-30.273,-33.203,0.000
1709291991.380,-41.016,-31.738,-33.691,-30.762,0.000
1709291991.384,-28.320,-36.621,-34.180,-18.555,0.000
1709291991.387,-22.461,-29.297,-33.691,-21.484,0.000
1709291991.391,-29.297,-28.320,-32.227,-30.273,0.000
1709291991.395,-33.203,-33.691,-24.414,-29.785,0.000
1709291991.399,-26.367,-31.738,-23.438,-19.043,0.000
1709291991.403,-26.367,-33.691,-25.879,-15.137,0.000
1709291991.407,-34.180,-39.062,-26.367,-19.531,0.000
1709291991.411,-38.086,-36.621,-31.250,-25.391,0.000
1709291991.415,-29.297,-41.016,-31.738,-27.832,0.000
1709291991.419,-27.832,-42.969,-29.297,-23.926,0.000
1709291991.423,-24.414,-37.598,-28.809,-23.438,0.000
1709291991.426,-16.113,-36.621,-27.832,-23.926,0.000
1709291991.430,-20.020,-33.203,-27.832,-20.508,0.000
1709291991.434,-24.902,-35.156,-32.715,-27.344,0.000
1709291991.438,-29.297,-34.180,-33.203,-37.598,0.000
1709291991.442,-27.832,-32.715,-26.367,-28.809,0.000
1709291991.446,-27.344,-41.016,-31.738,-28.809,0.000
1709291991.450,-37.598,-47.363,-38.574,-39.551,0.000
1709291991.453,-43.457,-49.316,-36.621,-37.598,0.000
1709291991.457,-41.016,-50.293,-33.203,-36.133,0.000
1709291991.461,-39.551,-48.828,-34.668,-27.832,0.000
1709291991.465,-41.016,-45.898,-39.551,-27.344,0.000
1709291991.469,-40.527,-47.363,-32.227,-39.062,0.000
1709291991.473,-39.062,-45.410,-27.832,-35.645,0.000
1709291991.477,-33.691,-42.969,-26.367,-26.367,0.000
1709291991.480,-30.273,-40.039,0.000,-21.484,0.000
1709291991.484,-28.320,-39.062,0.000,-24.902,0.000
1709291991.488,-37.598,-41.504,0.000,-26.855,0.000
1709291991.492,-45.898,-40.039,0.000,-29.297,0.000
1709291991.496,-46.387,-40.039,0.000,-30.273,0.000
1709291991.500,-35.156,-39.551,0.000,-28.320,0.000
1709291991.504,-32.227,-41.992,0.000,-20.996,0.000
1709291991.508,-43.457,-44.434,0.000,-28.809,0.000
1709291991.512,-43.945,-43.457,0.000,-35.156,0.000
1709291991.516,-44.434,-41.504,0.000,-29.297,0.000
1709291991.520,-40.527,-40.527,0.000,-32.227,0.000
1709291991.523,-32.715,-38.086,0.000,-27.832,0.000
1709291991.527,-29.297,-38.086,-39.062,-24.414,0.000
1709291991.531,-35.156,-40.039,-39.062,-28.320,0.000
1709291991.534,-33.203,-41.504,-38.574,-24.902,0.000
1709291991.538,-23.926,-41.016,-36.621,-23.438,0.000
1709291991.542,-24.414,-36.621,-38.086,-29.297,0.000
1709291991.546,-30.762,-37.598,-38.086,-28.320,0.000
1709291991.550,-43.457,-42.969,-42.969,-24.414,0.000
1709291991.554,-43.945,-39.062,-43.945,-26.367,0.000
1709291991.558,-29.785,-37.598,-42.480,-22.949,0.000
1709291991.562,-29.297,-40.527,-47.852,-26.855,0.000
1709291991.566,-32.715,-39.062,-47.852,-31.250,0.000
1709291991.570,-32.227,-38.086,-41.504,-30.273,0.000
1709291991.573,-38.086,-38.086,-40.527,-32.227,0.000
1709291991.577,-38.086,-38.086,-34.668,-23.438,0.000
1709291991.580,-29.785,-36.621,-30.762,-17.090,0.000
1709291991.584,-27.832,-39.062,-28.809,-22.461,0.000
1709291991.588,-34.668,-42.969,-26.367,-34.180,0.000
1709291991.592,-42.969,-40.039,-24.414,-30.762,0.000
1709291991.596,-48.340,-37.598,-26.855,-24.414,0.000
1709291991.600,-43.945,-41.992,-28.809,-26.367,0.000
1709291991.604,-37.598,-42.969,-27.344,-26.367,0.000
1709291991.608,-33.203,-43.945,-33.203,-23.926,0.000
1709291991.612,-34.180,-41.504,-41.992,-29.785,0.000
1709291991.616,-39.062,-38.086,-42.480,-40.527,0.000
1709291991.620,-35.645,-42.969,-36.133,-30.273,0.000
1709291991.624,-34.180,-41.992,-32.227,-33.691,0.000
1709291991.628,-41.504,-40.527,-36.133,-41.016,0.000
1709291991.632,-42.480,-38.086,-33.691,-30.273,0.000
1709291991.636,-35.645,-37.598,-32.715,-28.320,0.000
1709291991.640,-30.762,-41.992,-37.109,-31.250,0.000
1709291991.644,-35.156,-41.504,-34.668,-37.598,0.000
1709291991.648,-39.551,-40.527,-35.156,-39.062,0.000
1709291991.652,-37.598,-39.062,-36.133,-28.809,0.000
1709291991.655,-37.109,-38.086,-32.227,-23.438,0.000
1709291991.659,-32.227,-36.621,-29.785,-32.715,0.000
1709291991.663,-27.832,-37.109,-29.297,-37.109,0.000
1709291991.668,-35.156,-39.062,-31.250,-32.227,0.000
1709291991.672,-41.992,-42.969,-33.691,-40.527,0.000
1709291991.676,-46.875,-39.551,-35.645,-42.480,0.000
1709291991.679,-46.875,-35.156,-33.203,-39.062,0.000
1709291991.683,-34.180,-34.668,-30.762,-30.273,0.000
1709291991.687,-18.066,-36.621,-26.855,-22.461,0.000
1709291991.691,-20.020,-37.598,-25.879,-25.879,0.000
1709291991.695,-25.879,-30.762,-31.738,-33.691,0.000
1709291991.699,-27.832,-35.645,-31.250,-27.832,0.000
1709291991.703,-25.391,-39.551,-28.809,-17.578,0.000
1709291991.707,-23.438,-38.086,-33.203,-34.668,0.000
1709291991.711,-31.250,-42.969,-37.109,-36.133,0.000
1709291991.715,-30.762,-42.480,-34.180,-28.809,0.000
1709291991.719,-35.156,-40.527,-38.574,-33.691,0.000
1709291991.723,-47.363,-41.992,-45.898,-36.133,0.000
1709291991.727,-47.363,-41.504,-42.969,-34.180,0.000
1709291991.730,-43.457,-42.480,-38.574,-36.621,0.000
1709291991.734,-45.898,-43.457,-37.598,-35.645,0.000
1709291991.738,-40.039,-48.340,-40.527,-25.391,0.000
1709291991.742,-26.855,-46.875,-38.086,-20.508,0.000
1709291991.746,-28.320,-35.156,-33.691,-23.926,0.000
1709291991.750,-44.922,-30.273,-38.086,-41.992,0.000
1709291991.754,-46.387,-32.715,-36.133,-46.387,0.000
1709291991.758,-36.133,-30.762,-34.180,-35.645,0.000
1709291991.762,-30.273,-33.691,-36.133,-32.227,0.000
1709291991.766,-35.645,-38.086,-35.645,-36.133,0.000
1709291991.769,-50.293,-33.691,-39.062,-38.086,0.000
1709291991.773,-47.852,-31.738,-33.691,-34.668,0.000
1709291991.777,-41.992,-30.273,-33.203,-30.273,0.000
1709291991.781,-32.715,-32.227,-38.574,-27.344,0.000
1709291991.785,-23.438,-37.598,-36.133,-30.762,0.000
1709291991.789,-28.320,-41.504,-27.832,-24.902,0.000
1709291991.793,-28.809,-38.086,-19.043,-20.020,0.000
1709291991.797,-28.809,-33.691,-19.043,-30.762,0.000
1709291991.801,-19.531,-32.715,-24.414,-31.738,0.000
1709291991.805,-21.484,-28.320,-27.344,-31.250,0.000
1709291991.808,-21.973,-30.762,-28.809,-30.273,0.000
1709291991.812,-19.043,-32.715,-33.691,-24.414,0.000
1709291991.816,-37.109,-33.203,-33.203,-28.809,0.000
1709291991.820,-39.551,-37.109,-31.738,-31.250,0.000
1709291991.824,-31.738,-37.598,-29.297,-34.180,0.000
1709291991.828,-42.969,-35.645,-26.367,-39.551,0.000
1709291991.832,-49.316,-39.062,-31.738,-32.715,0.000
1709291991.836,-41.016,-41.016,-34.180,-29.785,0.000
1709291991.840,-37.598,-31.738,-29.785,-29.297,0.000
1709291991.843,-27.832,-30.273,-26.367,-23.438,0.000
1709291991.847,-25.391,-36.621,-23.438,-33.691,0.000
1709291991.851,-27.344,-34.180,-24.414,-36.133,0.000
1709291991.855,-27.344,-34.180,-31.738,-31.250,0.000
1709291991.859,-23.926,-37.109,-28.809,-26.855,0.000
1709291991.863,-23.438,-38.086,-27.832,-22.461,0.000
1709291991.866,-23.926,-37.598,-32.227,-15.137,0.000
1709291991.870,-28.809,-39.551,-32.227,-14.160,0.000
1709291991.874,-29.297,-38.086,-26.855,-26.855,0.000
1709291991.878,-27.344,-36.621,-25.391,-16.113,0.000
1709291991.882,-29.785,-37.109,-29.785,-6.836,0.000
1709291991.886,-24.902,-28.809,-30.762,-26.855,0.000
1709291991.890,-27.344,-29.785,-28.809,-35.645,0.000
1709291991.894,-31.250,-34.668,-30.762,-26.367,0.000
1709291991.898,-31.250,-34.668,-31.738,-25.879,0.000
1709291991.901,-29.297,-34.668,-33.691,-31.738,0.000
1709291991.905,-23.438,-33.203,-33.203,-30.273,0.000
1709291991.909,-24.902,-33.203,-31.738,-30.762,0.000
1709291991.913,-38.574,-40.039,-34.180,-35.645,0.000
1709291991.917,-44.922,-40.527,-39.551,-39.551,0.000
1709291991.921,-46.875,-46.875,-45.410,-42.480,0.000
1709291991.924,-45.410,-47.363,-45.410,-39.062,0.000
1709291991.928,-45.410,-40.527,-42.480,-43.457,0.000
1709291991.932,-48.340,-40.527,-43.945,-50.781,0.000
1709291991.936,-49.316,-44.434,-42.480,-48.340,0.000
1709291991.940,-47.852,-43.457,-38.574,-43.945,0.000
1709291991.944,-38.574,-39.551,-35.156,-32.715,0.000
1709291991.947,-41.504,-42.480,-32.715,-34.180,0.000
1709291991.951,-50.293,-46.875,-36.133,-40.527,0.000
1709291991.955,-45.898,-45.898,-37.109,-34.668,0.000
1709291991.959,-38.086,-37.598,-30.273,-40.527,0.000
1709291991.963,-32.227,-38.086,-24.414,-39.062,0.000
1709291991.967,-37.598,-39.551,-27.344,-26.855,0.000
1709291991.971,-43.945,-40.039,-41.016,-38.086,0.000
1709291991.974,-41.992,-35.645,-35.645,-41.016,0.000
1709291991.978,-42.969,-39.551,-29.785,-33.203,0.000
1709291991.982,-41.016,-43.457,-33.203,-38.086,0.000
1709291991.986,-40.527,-37.598,-29.785,-34.668,0.000
1709291991.990,-42.969,-41.016,-32.227,-40.527,0.000
1709291991.995,-42.969,-41.992,-33.203,-47.363,0.000
1709291991.999,-42.480,-42.969,-30.273,-38.086,0.000
1709291992.003,-40.039,-38.574,-30.273,-33.203,0.000
1709291992.007,-34.668,-39.551,-34.668,-40.527,0.000
1709291992.010,-37.598,-43.945,-33.203,-36.133,0.000
1709291992.014,-40.039,-43.457,-31.250,-30.762,0.000
1709291992.018,-34.668,-43.457,-30.762,-31.250,0.000
1709291992.022,-26.855,-41.504,-31.738,-33.691,0.000
1709291992.026,-30.273,-43.945,-39.551,-40.039,0.000
1709291992.030,-32.227,-44.922,-38.086,-28.320,0.000
1709291992.034,-30.273,-40.039,-32.227,-32.227,0.000
1709291992.038,-31.250,-37.598,-31.250,-25.879,0.000
1709291992.042,-22.461,-37.598,-31.250,-18.555,0.000
1709291992.046,-23.438,-41.016,-31.250,-34.180,0.000
1709291992.050,-33.203,-45.410,-31.738,-35.645,0.000
1709291992.054,-27.832,-45.898,-29.785,-30.762,0.000
1709291992.058,-21.484,-39.551,-26.855,-30.273,0.000
1709291992.062,-29.297,-36.621,-28.809,-27.344,0.000
1709291992.066,-29.785,-37.598,-32.227,-30.273,0.000
1709291992.070,-27.344,-32.227,-29.785,-33.203,0.000
1709291992.074,-31.738,-38.574,-35.156,-31.738,0.000
1709291992.077,-31.738,-45.410,-41.504,-29.297,0.000
1709291992.081,-31.738,-41.992,-34.180,-33.691,0.000
1709291992.085,-30.762,-35.645,-34.180,-31.738,0.000
1709291992.089,-29.785,-33.691,-32.715,-27.832,0.000
1709291992.093,-36.133,-35.156,-28.809,-28.320,0.000
1709291992.097,-31.250,-36.133,-29.785,-27.344,0.000
1709291992.101,-31.250,-40.527,-28.809,-27.344,0.000
1709291992.105,-34.668,-42.480,-36.133,-34.180,0.000
1709291992.109,-29.297,-40.039,-39.062,-39.551,0.000
1709291992.113,-39.062,-38.574,-32.715,-41.992,0.000
1709291992.117,-43.945,-41.992,-32.227,-41.504,0.000
1709291992.121,-40.039,-40.527,-35.645,-38.086,0.000
1709291992.125,-34.180,-36.621,-31.250,-34.180,0.000
1709291992.128,-28.809,-34.668,-28.320,-35.156,0.000
1709291992.132,-37.109,-35.156,-33.203,-40.527,0.000
1709291992.136,-43.945,-33.203,-36.133,-38.574,0.000
1709291992.140,-42.969,-32.715,-38.086,-39.551,0.000
1709291992.144,-38.574,-31.738,-37.109,-30.762,0.000
1709291992.148,-46.387,-33.203,-41.504,-36.621,0.000
1709291992.152,-42.480,-40.039,-41.504,-37.598,0.000
1709291992.156,-37.598,-40.527,-29.297,-22.949,0.000
1709291992.160,-37.598,-37.109,-26.367,-29.785,0.000
1709291992.164,-40.527,-40.039,-34.668,-42.480,0.000
1709291992.167,-51.270,-39.062,-36.621,-46.875,0.000
1709291992.171,-48.828,-37.598,-34.668,-42.480,0.000
1709291992.175,-46.875,-42.969,-33.203,-32.227,0.000
1709291992.179,-42.969,-44.922,-31.250,-28.320,0.000
1709291992.183,-38.086,-44.922,-33.203,-35.645,0.000
1709291992.187,-36.133,-38.574,-30.273,-34.180,0.000
1709291992.191,-28.809,-36.621,-29.297,-34.668,0.000
1709291992.195,-28.809,-36.621,-31.250,-36.133,0.000
1709291992.199,-33.203,-37.109,-37.598,-33.203,0.000
1709291992.202,-27.832,-35.645,-37.598,-28.320,0.000
1709291992.206,-25.879,-41.016,-32.715,-26.855,0.000
1709291992.210,-37.109,-47.852,-35.645,-32.227,0.000
1709291992.214,-41.016,-42.480,-34.668,-28.320,0.000
1709291992.218,-37.109,-37.598,-39.062,-27.832,0.000
1709291992.222,-30.762,-35.645,-36.133,-24.902,0.000
1709291992.226,-24.902,-34.668,-25.879,-22.949,0.000
1709291992.229,-24.902,-35.156,-28.320,-22.949,0.000
1709291992.233,-29.785,-36.133,-31.738,-18.066,0.000
1709291992.237,-33.203,-34.668,-24.902,-16.602,0.000
1709291992.241,-32.715,-33.203,-29.297,-21.484,0.000
1709291992.245,-29.297,-31.250,-33.691,-22.461,0.000
1709291992.249,-26.855,-37.598,-31.250,-21.973,0.000
1709291992.253,-30.762,-42.480,-32.715,-15.137,0.000
1709291992.257,-26.855,-38.574,-33.691,-9.766,0.000
1709291992.261,-30.273,-38.086,-34.180,-21.973,0.000
1709291992.265,-34.180,-43.945,-37.109,-29.785,0.000
1709291992.268,-38.086,-45.898,-40.039,-32.715,0.000
1709291992.272,-42.480,-50.293,-38.086,-34.668,0.000
1709291992.276,-40.039,-50.781,-32.227,-33.203,0.000
1709291992.280,-33.691,-42.969,-33.691,-32.227,0.000
1709291992.284,-30.273,-40.527,-33.691,-31.250,0.000
1709291992.287,-29.297,-38.086,-30.762,-37.598,0.000
1709291992.291,-31.738,-35.645,-27.832,-37.598,0.000
1709291992.295,-31.738,-34.668,-24.902,-28.320,0.000
1709291992.299,-29.297,-32.715,-31.250,-26.367,0.000
1709291992.303,-24.414,-30.273,-33.691,-27.832,0.000
1709291992.307,-23.926,-35.156,-33.691,-32.715,0.000
1709291992.311,-34.668,-36.621,-33.691,-35.645,0.000
1709291992.315,-41.992,-35.156,-32.715,-33.691,0.000
1709291992.319,-40.527,-37.109,-34.668,-33.203,0.000
1709291992.322,-30.273,-39.551,-40.039,-38.574,0.000
1709291992.326,-29.297,-35.645,-35.645,-34.180,0.000
1709291992.330,-31.250,-34.668,-32.227,-29.785,0.000
1709291992.334,-31.738,-40.039,-32.715,-38.086,0.000
1709291992.338,-27.832,-39.551,-30.762,-27.832,0.000
1709291992.342,-20.508,-37.598,-33.203,-14.160,0.000
1709291992.346,-25.391,-35.156,-39.062,-20.508,0.000
1709291992.350,-30.762,-32.227,-42.969,-26.855,0.000
1709291992.354,-32.227,-36.621,-44.922,-31.250,0.000
1709291992.357,-29.297,-35.645,-42.969,-32.227,0.000
1709291992.361,-21.484,-30.273,-36.621,-22.461,0.000
1709291992.365,-22.949,-32.715,-35.645,-19.531,0.000
1709291992.370,-37.109,-38.574,-35.156,-30.762,0.000
1709291992.374,-50.293,-38.574,-29.785,-31.250,0.000
1709291992.378,-56.641,-39.551,-30.273,-36.621,0.000
1709291992.382,-40.039,-38.086,-28.809,-32.715,0.000
1709291992.386,-31.738,-39.551,-31.738,-30.273,0.000
1709291992.390,-44.922,-45.898,-40.039,-41.992,0.000
1709291992.394,-55.664,-42.480,-37.598,-47.852,0.000
1709291992.397,-51.270,-41.992,-36.133,-41.016,0.000
1709291992.401,-49.805,-43.945,-31.250,-28.809,0.000
1709291992.405,-48.340,-44.434,-26.855,-28.320,0.000
1709291992.409,-43.457,-41.016,-24.414,-30.762,0.000
1709291992.413,-44.922,-41.016,-21.973,-35.645,0.000
1709291992.417,-40.039,-40.039,-20.996,-37.598,0.000
1709291992.421,-40.039,-40.039,-24.902,-35.156,0.000
1709291992.425,-43.457,-42.480,-28.320,-34.180,0.000
1709291992.429,-50.293,-40.039,-30.273,-39.062,0.000
1709291992.433,-43.945,-39.062,-33.203,-34.668,0.000
1709291992.437,-41.992,-43.457,-33.203,-25.879,0.000
1709291992.441,-46.387,-43.457,-35.645,-26.855,0.000
1709291992.445,-40.527,-40.527,-35.645,-30.762,0.000
1709291992.449,-32.227,-44.922,-34.180,-20.996,0.000
1709291992.453,-36.621,-45.898,-35.645,-18.555,0.000
1709291992.457,-41.016,-41.992,-36.621,-30.273,0.000
1709291992.460,-31.250,-41.504,-34.668,-27.832,0.000
1709291992.465,-32.227,-39.062,-29.785,-26.855,0.000
1709291992.468,-36.133,-39.062,-31.738,-30.273,0.000
1709291992.472,-42.480,-44.434,-31.250,-28.320,0.000
1709291992.476,-47.852,-44.922,-29.297,-31.738,0.000
1709291992.480,-49.805,-47.363,-29.785,-38.086,0.000
1709291992.484,-44.434,-50.293,-29.785,-31.738,0.000
1709291992.488,-35.156,-41.504,-33.691,-31.738,0.000
1709291992.492,-32.227,-37.598,-35.645,-35.645,0.000
1709291992.496,-50.781,-44.434,-34.180,-34.180,0.000
1709291992.500,-57.129,-41.992,-38.086,-41.016,0.000
1709291992.504,-39.551,-36.133,-36.133,-48.828,0.000
1709291992.508,-31.250,-38.574,-26.367,-44.434,0.000
1709291992.511,-36.621,-40.039,-25.391,-38.086,0.000
1709291992.515,-40.039,-33.691,-26.855,-33.691,0.000
1709291992.519,-31.738,-33.691,-28.320,-28.320,0.000
1709291992.523,-28.320,-45.410,-30.273,-31.738,0.000
1709291992.527,-23.438,-46.387,-33.691,-39.062,0.000
1709291992.531,-19.043,-37.598,-31.738,-36.621,0.000
1709291992.535,-27.344,-39.062,-30.273,-34.668,0.000
1709291992.539,-34.668,-41.504,-29.297,-25.879,0.000
1709291992.543,-33.691,-38.574,-27.832,-20.996,0.000
1709291992.547,-33.203,-38.574,-34.668,-34.180,0.000
1709291992.551,-31.250,-43.945,-34.668,-39.062,0.000
1709291992.554,-36.621,-45.410,-32.715,-38.086,0.000
1709291992.558,-49.316,-44.434,-30.762,-34.180,0.000
1709291992.562,-34.668,-56.152,-25.391,-23.438,0.000
1709291992.566,-3.418,-56.152,-27.832,-5.371,0.000
1709291992.570,2.441,-30.273,-43.457,-0.977,0.000
1709291992.574,-32.715,-23.926,-50.293,-31.738,0.000
1709291992.578,-61.035,-35.156,-44.922,-61.523,0.000
1709291992.582,-43.457,-33.691,-45.898,-62.988,0.000
1709291992.585,-34.668,-28.320,-49.316,-52.734,0.000
1709291992.589,-43.457,-20.020,-56.152,-61.523,0.000
1709291992.593,-46.875,-16.602,-62.988,-77.148,0.000
1709291992.597,-52.246,-18.066,-57.129,-75.195,0.000
1709291992.601,-48.340,-19.531,-44.922,-70.312,0.000
1709291992.606,-51.270,-15.137,-47.363,-82.031,0.000
1709291992.610,-58.105,-11.719,-51.758,-91.797,0.000
1709291992.614,-58.105,-13.672,-56.152,-90.332,0.000
1709291992.618,-53.223,-17.578,-56.152,-85.938,0.000
1709291992.622,-50.781,-20.996,-54.199,-85.449,0.000
1709291992.626,-43.457,-20.996,-55.176,-78.125,0.000
1709291992.630,-43.457,-20.996,-53.223,-62.988,0.000
1709291992.634,-44.922,-10.254,-47.852,-50.781,0.000
1709291992.638,-45.410,-6.836,-49.316,-57.617,0.000
1709291992.641,-49.316,-15.625,-50.293,-61.523,0.000
1709291992.645,-44.922,-20.996,-45.410,-60.547,0.000
1709291992.649,-35.645,-20.508,-46.875,-61.523,0.000
1709291992.653,-37.598,-17.090,-43.945,-58.594,0.000
1709291992.656,-38.086,-20.996,-43.457,-55.176,0.000
1709291992.660,-36.133,-23.438,-48.828,-53.223,0.000
1709291992.664,-33.691,-21.484,-52.246,-54.199,0.000
1709291992.668,-24.902,-19.043,-53.223,-48.340,0.000
1709291992.672,-29.297,-16.602,-45.410,-42.480,0.000
1709291992.676,-33.691,-16.113,-37.598,-37.109,0.000
1709291992.680,-26.855,-16.602,-38.086,-33.203,0.000
1709291992.684,-22.461,-16.602,-35.156,-30.762,0.000
1709291992.688,-20.508,-17.578,-31.250,-33.691,0.000
1709291992.692,-20.020,-19.043,-32.227,-19.531,0.000
1709291992.695,-28.320,-20.996,-31.738,-13.184,0.000
1709291992.700,-28.809,-21.484,-34.668,-21.973,0.000
1709291992.704,-16.602,-22.949,-34.668,-29.297,0.000
1709291992.708,-13.672,-23.438,-33.691,-29.297,0.000
1709291992.712,-23.438,-23.438,-36.621,-35.645,0.000
1709291992.716,-23.926,-23.438,-39.062,-36.133,0.000
1709291992.720,-19.531,-25.879,-35.645,-18.555,0.000
1709291992.724,-20.996,-27.344,-35.645,-16.113,0.000
1709291992.728,-20.996,-28.809,-37.109,-31.250,0.000
1709291992.731,-24.902,-32.227,-37.598,-39.551,0.000
1709291992.735,-29.785,-29.785,-37.598,-30.273,0.000
1709291992.739,-27.832,-28.320,-38.574,-27.832,0.000
1709291992.743,-25.879,-27.344,-39.062,-29.785,0.000
1709291992.748,-21.973,-22.949,-40.527,-27.344,0.000
1709291992.751,-19.043,-21.973,-35.645,-31.250,0.000
1709291992.755,-23.926,-30.273,-39.062,-38.574,0.000
1709291992.759,-27.832,-33.691,-41.016,-33.203,0.000
1709291992.763,-22.461,-32.227,-42.969,-29.297,0.000
1709291992.767,-9.277,-34.668,-44.434,-33.203,0.000
1709291992.771,-19.043,-33.691,-40.039,-38.574,0.000
1709291992.775,-37.598,-31.250,-37.598,-34.180,0.000
1709291992.779,-34.668,-37.598,-34.180,-22.461,0.000
1709291992.783,-17.578,-43.457,-28.320,3.418,0.000
1709291992.787,-0.977,-33.203,-33.691,5.859,0.000
1709291992.791,-18.555,-23.926,-45.898,-34.668,0.000
1709291992.795,-44.922,-32.715,-38.574,-52.734,0.000
1709291992.799,-42.480,-38.574,-34.180,-44.922,0.000
1709291992.803,-41.992,-37.109,-35.156,-46.387,0.000
1709291992.806,-41.504,-36.133,-29.785,-50.781,0.000
1709291992.810,-28.809,-32.227,-31.250,-38.574,0.000
1709291992.814,-36.133,-30.762,-30.762,-41.504,0.000
1709291992.818,-34.180,-30.273,-25.879,-31.738,0.000
1709291992.822,-28.320,-28.809,-25.879,-21.973,0.000
1709291992.826,-27.832,-29.785,-27.344,-21.973,0.000
1709291992.830,-23.438,-28.809,-28.809,-19.531,0.000
1709291992.834,-29.785,-29.785,-29.297,-26.855,0.000
1709291992.838,-32.715,-30.762,-24.902,-28.320,0.000
1709291992.842,-25.391,-30.273,-26.367,-31.738,0.000
1709291992.845,-24.414,-30.273,-24.414,-26.367,0.000
1709291992.849,-21.973,-26.855,-19.531,-20.996,0.000
1709291992.853,-20.996,-30.762,-22.461,-29.785,0.000
1709291992.857,-24.414,-32.227,-23.438,-28.320,0.000
1709291992.861,-24.902,-31.250,-27.832,-20.508,0.000
1709291992.865,-30.273,-34.180,-32.715,-25.879,0.000
1709291992.869,-27.832,-32.715,-34.180,-32.227,0.000
1709291992.873,-18.066,-27.832,-33.203,-29.785,0.000
1709291992.877,-28.320,-27.344,-29.785,-29.297,0.000
1709291992.881,-32.715,-27.832,-30.273,-33.691,0.000
1709291992.885,-28.809,-28.320,-30.273,-32.227,0.000
1709291992.888,-32.715,-31.250,-32.227,-38.574,0.000
1709291992.892,-33.691,-32.227,-32.227,-38.086,0.000
1709291992.896,-31.738,-27.832,-27.344,-34.180,0.000
1709291992.900,-32.715,-24.414,-28.809,-30.762,0.000
1709291992.904,-28.320,-29.785,-31.250,-27.344,0.000
1709291992.908,-27.344,-33.203,-32.227,-32.715,0.000
1709291992.912,-25.391,-24.902,-35.645,-35.156,0.000
1709291992.916,-14.648,-26.855,-39.551,-15.625,0.000
1709291992.919,-8.301,-29.785,-33.691,-3.418,0.000
1709291992.923,-25.391,-28.809,-22.949,-27.832,0.000
1709291992.927,-33.203,-33.203,-20.020,-23.926,0.000
1709291992.931,-16.602,-34.180,-18.555,-9.277,0.000
1709291992.935,-28.320,-41.016,-10.254,-24.414,0.000
1709291992.939,-41.992,-49.805,-7.812,-25.391,0.000
1709291992.942,-30.273,-54.199,-11.719,-4.395,0.000
1709291992.946,-20.020,-57.129,-12.207,-3.418,0.000
1709291992.950,-28.809,-59.570,-13.184,-14.648,0.000
1709291992.954,-39.062,-66.406,-18.555,-9.766,0.000
1709291992.958,-33.203,-71.289,-20.020,-1.953,0.000
1709291992.962,-30.273,-65.430,-14.648,-3.418,0.000
1709291992.966,-31.250,-69.336,-16.113,-1.953,0.000
1709291992.970,-43.945,-78.125,-22.949,-10.742,0.000
1709291992.974,-41.504,-69.824,-17.090,-7.812,0.000
1709291992.978,-34.180,-64.453,-15.625,-3.418,0.000
1709291992.981,-43.945,-66.895,-18.066,-8.789,0.000
1709291992.985,-36.621,-63.965,-14.648,-4.883,0.000
1709291992.989,-41.992,-64.453,-18.066,-20.020,0.000
1709291992.993,-46.387,-60.547,-19.043,-16.113,0.000
1709291992.997,-34.180,-55.664,-19.043,-2.930,0.000
1709291993.000,-34.180,-59.082,-19.043,-8.301,0.000
1709291993.004,-31.250,-60.547,-19.043,-5.859,0.000
1709291993.008,-23.926,-58.105,-21.484,-2.441,0.000
1709291993.012,-26.855,-48.340,-19.043,-5.859,0.000
1709291993.016,-34.668,-47.852,-20.508,-11.230,0.000
1709291993.020,-32.227,-52.734,-26.367,-19.043,0.000
1709291993.024,-28.320,-52.246,-31.738,-23.926,0.000
1709291993.027,-35.156,-51.270,-39.062,-21.484,0.000
1709291993.031,-40.039,-51.270,-38.086,-15.625,0.000
1709291993.035,-33.203,-46.875,-28.320,-14.648,0.000
1709291993.039,-24.414,-41.992,-26.367,-20.020,0.000
1709291993.043,-17.578,-39.551,-28.809,-19.531,0.000
1709291993.047,-19.043,-40.527,-32.227,-17.090,0.000
1709291993.051,-24.414,-44.434,-32.715,-14.648,0.000
1709291993.054,-27.344,-41.504,-33.203,-17.090,0.000
1709291993.058,-37.598,-43.945,-35.645,-27.832,0.000
1709291993.062,-34.180,-45.410,-28.809,-20.996,0.000
1709291993.066,-27.832,-45.410,-34.180,-19.043,0.000
1709291993.070,-40.527,-47.852,-36.621,-25.879,0.000
1709291993.073,-42.969,-50.293,-31.250,-19.531,0.000
1709291993.077,-33.691,-48.340,-31.250,-11.230,0.000
1709291993.081,-33.691,-48.340,-31.738,-13.672,0.000
1709291993.085,-37.598,-51.758,-34.668,-17.090,0.000
1709291993.089,-38.086,-51.758,-38.086,-17.578,0.000
1709291993.093,-33.691,-51.270,-34.668,-13.672,0.000
1709291993.097,-27.832,-41.504,-33.203,-12.207,0.000
1709291993.100,-29.785,-37.598,-35.645,-13.184,0.000
1709291993.104,-31.250,-41.016,-32.715,-8.789,0.000
1709291993.108,-34.668,-41.016,-34.180,-17.090,0.000
1709291993.112,-41.992,-43.457,-33.203,-23.926,0.000
1709291993.116,-45.410,-42.480,-36.621,-27.832,0.000
1709291993.121,-36.133,-42.480,-38.574,-26.855,0.000
1709291993.125,-28.320,-46.387,-38.086,-26.855,0.000
1709291993.129,-26.367,-47.363,-40.527,-30.273,0.000
1709291993.132,-29.785,-41.992,-35.645,-23.926,0.000
1709291993.136,-36.621,-42.969,-37.109,-23.438,0.000
1709291993.140,-30.273,-47.852,-39.062,-24.414,0.000
1709291993.144,-31.738,-45.898,-37.109,-26.855,0.000
1709291993.148,-37.109,-49.316,-36.621,-34.668,0.000
1709291993.152,-35.645,-51.758,-38.086,-39.062,0.000
1709291993.156,-35.645,-45.898,-38.086,-35.645,0.000
1709291993.160,-29.785,-40.527,-34.668,-29.785,0.000
1709291993.164,-34.180,-41.504,-34.668,-34.180,0.000
1709291993.168,-37.598,-42.480,-34.180,-39.551,0.000
1709291993.172,-30.273,-41.504,-38.086,-37.109,0.000
1709291993.176,-36.621,-44.434,-39.551,-39.062,0.000
1709291993.180,-42.969,-48.340,-37.109,-43.945,0.000
1709291993.184,-39.551,-49.316,-39.062,-45.410,0.000
1709291993.188,-35.156,-47.852,-37.598,-43.945,0.000
1709291993.191,-35.645,-46.875,-38.574,-41.992,0.000
1709291993.195,-39.551,-45.410,-36.133,-39.551,0.000
1709291993.199,-37.598,-44.922,-31.738,-25.391,0.000
1709291993.203,-31.738,-41.992,-35.156,-24.414,0.000
1709291993.207,-38.086,-44.922,-45.410,-34.180,0.000
1709291993.211,-37.598,-52.734,-40.039,-28.809,0.000
1709291993.215,-48.340,-53.223,-32.715,-33.691,0.000
1709291993.219,-61.035,-53.223,-31.250,-44.922,0.000
1709291993.223,-52.246,-59.082,-24.902,-46.387,0.000
1709291993.227,-52.734,-64.453,-29.297,-48.340,0.000
1709291993.231,-63.965,-62.988,-34.180,-44.922,0.000
1709291993.235,-59.082,-62.012,-30.762,-39.062,0.000
1709291993.239,-51.758,-63.477,-33.691,-35.156,0.000
1709291993.243,-49.316,-62.500,-39.062,-42.969,0.000
1709291993.246,-51.758,-65.430,-39.551,-42.480,0.000
1709291993.250,-51.270,-61.523,-33.691,-35.156,0.000
1709291993.254,-51.270,-59.570,-31.738,-46.387,0.000
1709291993.258,-51.270,-63.477,-30.273,-47.363,0.000
1709291993.262,-50.781,-62.012,-33.203,-44.434,0.000
1709291993.266,-51.270,-59.570,-39.062,-40.527,0.000
1709291993.270,-43.945,-51.758,-35.645,-31.250,0.000
1709291993.274,-47.852,-49.316,-30.762,-27.832,0.000
1709291993.278,-50.293,-49.316,-35.645,-32.227,0.000
1709291993.281,-45.898,-44.434,-40.039,-37.598,0.000
1709291993.285,-45.410,-41.504,-41.016,-43.457,0.000
1709291993.289,-41.016,-43.457,-40.039,-39.062,0.000
1709291993.293,-53.223,-46.875,-39.551,-37.109,0.000
1709291993.297,-62.500,-44.922,-40.527,-45.898,0.000
1709291993.301,-47.363,-44.434,-36.621,-46.387,0.000
1709291993.305,-40.527,-48.828,-31.250,-39.551,0.000
1709291993.309,-37.109,-46.875,-29.297,-33.203,0.000
1709291993.312,-32.227,-46.387,-28.320,-42.969,0.000
1709291993.316,-35.645,-49.805,-28.320,-41.016,0.000
1709291993.320,-37.598,-48.828,-35.645,-37.109,0.000
1709291993.324,-39.551,-46.875,-41.504,-40.039,0.000
1709291993.328,-43.457,-44.434,-37.598,-32.227,0.000
1709291993.332,-52.246,-42.480,-38.086,-43.945,0.000
1709291993.336,-54.199,-42.969,-35.645,-46.875,0.000
1709291993.340,-52.246,-40.527,-35.645,-38.086,0.000
1709291993.344,-51.758,-39.551,-41.016,-41.504,0.000
1709291993.348,-46.875,-39.551,-40.527,-40.527,0.000
1709291993.352,-46.387,-39.551,-37.598,-42.969,0.000
1709291993.355,-47.852,-39.551,-33.691,-42.480,0.000
1709291993.359,-39.062,-40.527,-31.738,-40.039,0.000
1709291993.363,-28.809,-39.062,-34.668,-36.621,0.000
1709291993.367,-34.668,-39.062,-36.133,-32.227,0.000
1709291993.371,-41.016,-39.551,-29.297,-34.668,0.000
1709291993.375,-33.691,-35.645,-26.367,-27.344,0.000
1709291993.378,-34.668,-35.645,-20.996,-16.602,0.000
1709291993.382,-38.574,-38.086,-21.973,-21.484,0.000
1709291993.386,-39.062,-35.645,-29.297,-37.109,0.000
1709291993.390,-43.457,-35.156,-27.832,-35.156,0.000
1709291993.394,-44.434,-32.227,-27.832,-30.762,0.000
1709291993.398,-47.852,-33.203,-36.621,-35.645,0.000
1709291993.401,-44.922,-40.527,-43.457,-31.738,0.000
1709291993.405,-34.180,-42.969,-40.039,-22.461,0.000
1709291993.409,-37.598,-40.527,-35.156,-27.344,0.000
1709291993.413,-51.270,-40.039,-32.227,-40.527,0.000
1709291993.417,-53.711,-41.504,-30.762,-37.109,0.000
1709291993.421,-44.922,-44.434,-32.715,-34.668,0.000
1709291993.425,-43.457,-48.828,-31.250,-30.762,0.000
1709291993.429,-47.852,-42.969,-33.203,-23.438,0.000
1709291993.433,-40.039,-37.598,-36.133,-34.180,0.000
1709291993.437,-39.062,-36.621,-38.086,-38.086,0.000
1709291993.441,-40.527,-38.574,-37.598,-30.762,0.000
1709291993.444,-41.504,-40.527,-34.668,-35.156,0.000
1709291993.448,-45.410,-44.922,-35.156,-36.133,0.000
1709291993.451,-47.363,-46.875,-41.016,-36.133,0.000
1709291993.455,-45.898,-41.992,-44.434,-34.180,0.000
1709291993.459,-38.574,-37.109,-35.156,-24.902,0.000
1709291993.463,-37.598,-38.086,-33.691,-26.855,0.000
1709291993.467,-33.203,-40.039,-31.738,-16.113,0.000
1709291993.471,-31.250,-38.574,-34.668,-22.949,0.000
1709291993.475,-40.039,-40.039,-37.598,-37.109,0.000
1709291993.479,-35.156,-43.457,-35.645,-25.879,0.000
1709291993.483,-28.320,-42.969,-35.156,-23.438,0.000
1709291993.487,-27.344,-40.527,-33.203,-24.414,0.000
1709291993.490,-26.855,-41.992,-33.691,-31.738,0.000
1709291993.495,-27.344,-47.363,-34.668,-33.203,0.000
1709291993.499,-36.621,-50.293,-32.715,-28.320,0.000
1709291993.503,-41.504,-49.805,-27.344,-29.297,0.000
1709291993.507,-42.969,-47.852,-25.391,-29.297,0.000
1709291993.511,-42.480,-46.387,-29.297,-26.367,0.000
1709291993.515,-29.297,-38.574,-25.879,-16.113,0.000
1709291993.519,-23.438,-35.156,-24.902,-24.414,0.000
1709291993.523,-31.250,-41.016,-30.762,-26.367,0.000
1709291993.526,-25.391,-41.016,-33.691,-22.949,0.000
1709291993.530,-21.973,-37.109,-36.621,-23.926,0.000
1709291993.534,-37.598,-36.133,-33.691,-30.762,0.000
1709291993.538,-39.551,-40.039,-31.738,-30.762,0.000
1709291993.543,-29.297,-36.133,-29.297,-19.531,0.000
1709291993.546,-27.832,-31.250,-24.414,-20.020,0.000
1709291993.550,-32.227,-32.715,-23.926,-22.949,0.000
1709291993.554,-29.785,-34.180,-21.484,-23.926,0.000
1709291993.558,-33.691,-36.621,-20.020,-23.926,0.000
1709291993.562,-41.016,-43.457,-24.414,-32.227,0.000
1709291993.566,-34.668,-43.457,-24.902,-36.133,0.000
1709291993.570,-38.574,-43.457,-27.832,-41.992,0.000
1709291993.574,-55.176,-47.363,-31.738,-38.574,0.000
1709291993.578,-46.875,-43.945,-34.668,-22.949,0.000
1709291993.582,-39.062,-43.457,-36.621,-29.297,0.000
1709291993.586,-35.156,-46.875,-34.180,-33.203,0.000
1709291993.590,-35.156,-46.875,-33.203,-33.203,0.000
1709291993.594,-41.504,-43.945,-32.715,-29.785,0.000
1709291993.597,-41.504,-43.457,-28.809,-26.367,0.000
1709291993.601,-34.180,-44.922,-30.762,-27.832,0.000
1709291993.605,-27.344,-46.875,-38.086,-29.297,0.000
1709291993.609,-34.668,-41.504,-37.598,-29.785,0.000
1709291993.613,-42.480,-40.527,-31.250,-33.203,0.000
1709291993.617,-38.574,-46.387,-30.762,-37.598,0.000
1709291993.621,-32.227,-44.922,-24.902,-26.855,0.000
1709291993.625,-26.367,-39.551,-24.902,-24.902,0.000
1709291993.629,-28.320,-34.180,-30.273,-35.156,0.000
1709291993.633,-34.180,-35.645,-29.785,-33.691,0.000
1709291993.637,-32.227,-38.086,-25.391,-26.367,0.000
1709291993.640,-31.250,-36.133,-24.414,-26.367,0.000
1709291993.644,-26.855,-35.156,-29.297,-27.832,0.000
1709291993.648,-28.809,-33.203,-31.738,-31.250,0.000
1709291993.652,-34.668,-34.180,-30.762,-36.621,0.000
1709291993.656,-35.645,-37.598,-34.180,-31.738,0.000
1709291993.660,-45.410,-39.551,-39.062,-31.738,0.000
1709291993.664,-41.992,-41.016,-41.992,-35.156,0.000
1709291993.668,-30.273,-37.598,-38.574,-35.156,0.000
1709291993.672,-39.062,-33.203,-33.691,-42.969,0.000
1709291993.676,-44.922,-35.645,-31.250,-48.340,0.000
1709291993.680,-36.621,-35.645,-27.344,-39.062,0.000
1709291993.683,-31.250,-35.156,-27.344,-24.902,0.000
1709291993.687,-23.438,-35.156,-27.344,-19.043,0.000
1709291993.691,-22.461,-41.016,-21.973,-23.438,0.000
1709291993.695,-41.992,-39.062,-27.344,-44.434,0.000
1709291993.699,-45.898,-29.297,-36.621,-51.270,0.000
1709291993.703,-38.574,-33.691,-31.738,-42.969,0.000
1709291993.707,-35.156,-33.691,-27.344,-41.016,0.000
1709291993.711,-30.273,-28.809,-22.949,-41.504,0.000
1709291993.714,-37.598,-34.180,-25.879,-33.691,0.000
1709291993.718,-35.645,-36.133,-31.250,-24.902,0.000
1709291993.722,-38.086,-39.062,-32.227,-26.367,0.000
1709291993.726,-40.039,-41.992,-32.227,-27.832,0.000
1709291993.730,-35.645,-39.551,-31.250,-29.785,0.000
1709291993.734,-45.410,-38.574,-31.250,-31.738,0.000
1709291993.737,-38.086,-41.504,-35.156,-29.297,0.000
1709291993.741,-25.391,-42.480,-37.598,-23.438,0.000
1709291993.745,-25.879,-42.969,-34.180,-24.414,0.000
1709291993.749,-25.391,-43.945,-28.809,-28.809,0.000
1709291993.753,-29.785,-41.504,-29.297,-21.484,0.000
1709291993.757,-29.785,-38.574,-30.762,-16.113,0.000
1709291993.761,-22.461,-32.715,-33.691,-24.902,0.000
1709291993.765,-24.902,-31.738,-32.227,-24.902,0.000
1709291993.769,-32.715,-34.180,-25.391,-25.391,0.000
1709291993.773,-37.109,-34.180,-28.320,-24.902,0.000
1709291993.776,-37.598,-31.738,-36.621,-20.020,0.000
1709291993.780,-30.273,-38.086,-36.133,-30.762,0.000
1709291993.784,-23.926,-37.598,-37.109,-25.879,0.000
1709291993.788,-30.762,-30.273,-41.016,-18.066,0.000
1709291993.792,-33.203,-34.180,-42.969,-25.879,0.000
1709291993.795,-29.297,-36.621,-46.387,-25.879,0.000
1709291993.799,-22.461,-36.133,-47.363,-14.648,0.000
1709291993.803,-23.438,-37.109,-43.457,-18.555,0.000
1709291993.807,-30.273,-38.574,-43.457,-30.273,0.000
1709291993.811,-36.133,-38.574,-42.969,-24.902,0.000
1709291993.815,-41.992,-38.086,-37.109,-20.996,0.000
1709291993.819,-42.969,-40.039,-36.621,-27.344,0.000
1709291993.822,-41.992,-36.621,-34.180,-30.762,0.000
1709291993.826,-45.410,-36.133,-31.738,-28.320,0.000
1709291993.830,-42.480,-33.691,-33.691,-30.762,0.000
1709291993.834,-41.016,-35.645,-38.086,-32.715,0.000
1709291993.838,-38.086,-38.086,-41.016,-34.668,0.000
1709291993.842,-29.785,-35.156,-36.621,-33.203,0.000
1709291993.846,-29.297,-36.133,-31.738,-30.762,0.000
1709291993.849,-35.156,-36.621,-33.691,-34.180,0.000
1709291993.853,-32.715,-38.574,-34.668,-37.598,0.000
1709291993.857,-34.180,-36.621,-34.668,-28.809,0.000
1709291993.861,-37.109,-33.691,-34.180,-24.414,0.000
1709291993.865,-35.645,-35.156,-35.645,-41.016,0.000
1709291993.870,-32.715,-33.203,-32.227,-41.504,0.000
1709291993.874,-35.645,-35.156,-29.297,-38.574,0.000
1709291993.878,-41.016,-39.062,-34.668,-43.945,0.000
1709291993.882,-35.156,-32.715,-35.156,-35.645,0.000
1709291993.885,-31.250,-31.250,-30.273,-25.879,0.000
1709291993.889,-39.062,-37.109,-26.855,-29.297,0.000
1709291993.893,-44.434,-37.109,-29.297,-38.574,0.000
1709291993.897,-41.016,-37.598,-38.086,-46.875,0.000
1709291993.901,-33.203,-36.621,-37.109,-44.434,0.000
1709291993.905,-27.344,-38.086,-31.250,-33.203,0.000
1709291993.909,-31.250,-41.504,-30.273,-37.109,0.000
1709291993.913,-36.621,-40.527,-32.227,-40.039,0.000
1709291993.917,-33.203,-38.574,-34.180,-41.992,0.000
1709291993.921,-28.809,-38.086,-29.785,-39.062,0.000
1709291993.925,-24.902,-40.527,-26.855,-31.250,0.000
1709291993.929,-36.621,-41.016,-30.273,-31.250,0.000
1709291993.933,-49.316,-44.434,-31.250,-33.691,0.000
1709291993.937,-44.922,-43.945,-25.391,-27.832,0.000
1709291993.941,-40.039,-38.086,-26.367,-27.832,0.000
1709291993.945,-40.527,-36.621,-32.715,-33.691,0.000
1709291993.948,-39.551,-38.574,-37.598,-28.320,0.000
1709291993.952,-40.039,-38.574,-37.598,-25.391,0.000
1709291993.956,-49.316,-35.645,-33.203,-29.785,0.000
1709291993.960,-47.852,-46.387,-28.809,-24.414,0.000
1709291993.964,-26.855,-53.711,-26.367,-17.578,0.000
1709291993.968,-15.625,-41.504,-28.320,-12.207,0.000
1709291993.972,-22.949,-33.203,-35.645,-23.926,0.000
1709291993.976,-35.645,-33.203,-41.992,-40.527,0.000
1709291993.980,-34.668,-31.738,-37.109,-38.574,0.000
1709291993.984,-24.414,-32.715,-35.156,-33.203,0.000
1709291993.988,-22.461,-32.715,-34.180,-25.391,0.000
1709291993.992,-20.996,-29.785,-35.156,-17.578,0.000
1709291993.996,-17.578,-28.809,-36.621,-14.648,0.000
1709291994.000,-17.578,-25.391,-35.156,-12.695,0.000
1709291994.003,-15.137,-33.203,-35.645,-20.996,0.000
1709291994.007,-5.859,-37.598,-34.180,-19.531,0.000
1709291994.011,-8.789,-31.250,-30.273,-15.625,0.000
1709291994.015,-13.672,-30.762,-32.715,-18.066,0.000
1709291994.019,-15.625,-32.227,-35.156,-23.438,0.000
1709291994.023,-11.230,-29.785,-34.180,-23.926,0.000
1709291994.027,-8.789,-30.273,-38.086,-20.996,0.000
1709291994.031,-14.648,-35.645,-39.062,-23.438,0.000
1709291994.035,-17.090,-36.133,-31.738,-24.414,0.000
1709291994.039,-20.020,-37.598,-34.180,-12.695,0.000
1709291994.043,-22.949,-41.992,-37.598,-8.789,0.000
1709291994.047,-16.113,-38.086,-35.645,-25.879,0.000
1709291994.051,-13.672,-38.086,-35.156,-28.320,0.000
1709291994.054,-24.902,-39.062,-32.227,-24.414,0.000
1709291994.058,-25.391,-36.133,-30.273,-17.090,0.000
1709291994.062,-19.531,-41.016,-31.250,-16.602,0.000
1709291994.066,-22.949,-46.875,-30.762,-24.414,0.000
1709291994.070,-28.809,-47.852,-35.645,-21.484,0.000
1709291994.074,-23.926,-47.363,-40.527,-20.508,0.000
1709291994.078,-22.461,-44.434,-40.039,-26.367,0.000
1709291994.081,-26.855,-40.039,-37.598,-28.809,0.000
1709291994.085,-33.203,-40.039,-39.062,-17.578,0.000
1709291994.089,-29.785,-35.645,-36.133,-13.672,0.000
1709291994.093,-33.203,-29.297,-31.738,-20.996,0.000
1709291994.097,-33.203,-31.738,-33.203,-27.832,0.000
1709291994.101,-28.320,-30.273,-34.668,-27.832,0.000
1709291994.105,-33.203,-31.738,-38.086,-26.855,0.000
1709291994.109,-35.645,-37.598,-36.133,-33.203,0.000
1709291994.112,-41.992,-39.551,-34.180,-31.250,0.000
1709291994.116,-45.898,-40.527,-38.086,-34.668,0.000
1709291994.120,-44.922,-40.527,-45.898,-31.250,0.000
1709291994.124,-43.945,-43.457,-47.852,-29.297,0.000
1709291994.128,-44.434,-42.969,-39.551,-26.367,0.000
1709291994.132,-44.434,-37.109,-37.109,-23.926,0.000
1709291994.136,-45.898,-35.156,-38.086,-37.598,0.000
1709291994.140,-41.504,-37.598,-34.180,-34.668,0.000
1709291994.144,-30.762,-38.574,-30.762,-31.738,0.000
1709291994.148,-30.273,-40.527,-32.227,-29.297,0.000
1709291994.151,-39.062,-42.969,-39.062,-32.715,0.000
1709291994.155,-43.457,-44.922,-47.363,-42.480,0.000
1709291994.159,-44.434,-45.898,-47.852,-41.504,0.000
1709291994.163,-42.480,-48.340,-44.922,-35.645,0.000
1709291994.167,-37.598,-54.199,-44.434,-41.992,0.000
1709291994.170,-42.969,-55.664,-44.922,-48.340,0.000
1709291994.174,-49.316,-55.176,-43.457,-36.133,0.000
1709291994.178,-39.551,-49.316,-41.016,-31.250,0.000
1709291994.182,-30.273,-42.480,-41.992,-37.109,0.000
1709291994.186,-37.109,-46.875,-44.434,-38.574,0.000
1709291994.190,-39.551,-44.434,-40.039,-32.227,0.000
1709291994.194,-31.738,-38.574,-32.715,-24.902,0.000
1709291994.197,-31.250,-40.039,-31.738,-25.879,0.000
1709291994.201,-25.879,-38.086,-32.715,-20.020,0.000
1709291994.205,-26.855,-34.180,-37.109,-16.113,0.000
1709291994.209,-30.762,-37.109,-37.109,-16.602,0.000
1709291994.213,-34.668,-41.016,-37.109,-19.531,0.000
1709291994.217,-37.109,-43.945,-35.645,-22.461,0.000
1709291994.220,-27.832,-40.527,-32.227,-17.578,0.000
1709291994.224,-22.461,-33.203,-33.203,-28.320,0.000
1709291994.228,-24.902,-37.109,-33.203,-33.691,0.000
1709291994.232,-28.809,-38.574,-31.250,-26.855,0.000
1709291994.236,-27.344,-29.297,-31.250,-25.879,0.000
1709291994.240,-25.391,-25.391,-31.250,-26.367,0.000
1709291994.245,-28.809,-30.273,-35.156,-35.156,0.000
1709291994.249,-33.691,-35.156,-37.598,-41.016,0.000
1709291994.253,-45.410,-36.621,-36.621,-40.527,0.000
1709291994.257,-42.969,-36.621,-34.180,-43.457,0.000
1709291994.260,-29.297,-38.086,-32.715,-36.621,0.000
1709291994.264,-21.973,-39.551,-39.551,-29.785,0.000
1709291994.268,-21.973,-39.062,-38.086,-30.762,0.000
1709291994.272,-37.598,-39.062,-35.645,-48.340,0.000
1709291994.276,-56.152,-32.715,-38.086,-54.688,0.000
1709291994.280,-60.059,-32.227,-34.180,-45.410,0.000
1709291994.284,-42.969,-33.691,-28.809,-39.551,0.000
1709291994.288,-35.156,-33.203,-29.785,-39.062,0.000
1709291994.292,-45.410,-33.203,-27.832,-47.852,0.000
1709291994.296,-42.480,-34.668,-24.414,-48.828,0.000
1709291994.300,-27.344,-31.250,-24.902,-39.062,0.000
1709291994.304,-27.832,-29.297,-24.414,-37.598,0.000
1709291994.308,-31.250,-32.715,-25.879,-36.133,0.000
1709291994.312,-34.668,-34.668,-24.414,-32.715,0.000
1709291994.316,-40.527,-36.621,-27.344,-36.133,0.000
1709291994.320,-30.762,-36.621,-29.297,-37.109,0.000
1709291994.324,-33.691,-38.086,-28.320,-25.391,0.000
1709291994.327,-35.156,-36.621,-30.762,-22.461,0.000
1709291994.331,-32.715,-34.180,-29.785,-33.691,0.000
1709291994.335,-33.203,-33.203,-26.855,-34.180,0.000
1709291994.339,-26.367,-36.621,-27.832,-29.785,0.000
1709291994.343,-24.414,-33.691,-29.297,-24.414,0.000
1709291994.347,-19.531,-28.320,-27.344,-17.578,0.000
1709291994.351,-27.832,-30.762,-22.949,-17.578,0.000
1709291994.355,-43.945,-36.133,-25.391,-20.508,0.000
1709291994.359,-39.551,-39.062,-23.926,-20.020,0.000
1709291994.363,-36.621,-40.527,-22.461,-25.879,0.000
1709291994.367,-31.250,-39.551,-25.879,-20.020,0.000
1709291994.371,-28.320,-36.133,-22.949,-8.301,0.000
1709291994.375,-28.809,-30.762,-22.461,-12.695,0.000
1709291994.378,-28.809,-30.762,-20.508,-20.508,0.000
1709291994.382,-20.020,-35.156,-21.484,-16.113,0.000
1709291994.386,-16.602,-34.668,-23.438,-11.230,0.000
1709291994.390,-26.367,-33.203,-21.973,-15.137,0.000
1709291994.394,-30.273,-35.156,-23.926,-23.438,0.000
1709291994.398,-32.227,-36.621,-31.738,-34.180,0.000
1709291994.402,-32.715,-35.645,-34.668,-32.227,0.000
1709291994.406,-30.762,-34.180,-34.180,-25.391,0.000
1709291994.410,-38.086,-38.086,-36.133,-33.203,0.000
1709291994.414,-46.387,-40.039,-37.598,-37.109,0.000
1709291994.418,-42.969,-36.621,-38.086,-34.180,0.000
1709291994.421,-38.574,-33.691,-33.203,-34.180,0.000
1709291994.425,-38.086,-33.691,-29.785,-28.320,0.000
1709291994.429,-30.762,-31.250,-32.227,-25.879,0.000
1709291994.433,-26.855,-30.762,-31.250,-33.203,0.000
1709291994.437,-40.527,-41.016,-30.762,-37.598,0.000
1709291994.441,-38.086,-40.039,-28.809,-30.273,0.000
1709291994.445,-23.438,-32.715,-21.973,-25.391,0.000
1709291994.449,-22.461,-37.598,-23.926,-30.273,0.000
1709291994.452,-23.926,-41.504,-25.391,-32.715,0.000
1709291994.456,-28.320,-40.039,-23.926,-34.180,0.000
1709291994.460,-29.785,-40.039,-26.855,-27.344,0.000
1709291994.464,-25.879,-45.410,-28.809,-19.531,0.000
1709291994.468,-22.461,-50.781,-26.367,-24.414,0.000
1709291994.472,-31.738,-45.898,-22.949,-33.203,0.000
1709291994.476,-37.598,-40.527,-29.785,-38.574,0.000
1709291994.479,-33.691,-37.109,-32.715,-37.598,0.000
1709291994.483,-31.738,-37.109,-29.785,-38.574,0.000
1709291994.487,-37.598,-40.039,-33.691,-42.969,0.000
1709291994.491,-44.434,-43.945,-36.621,-45.898,0.000
1709291994.495,-41.992,-45.410,-34.668,-46.387,0.000
1709291994.499,-42.480,-43.457,-35.156,-47.852,0.000
1709291994.503,-34.180,-43.945,-34.180,-32.227,0.000
1709291994.507,-23.926,-43.457,-29.297,-13.184,0.000
1709291994.511,-36.621,-39.551,-26.367,-26.855,0.000
1709291994.515,-52.246,-37.109,-29.297,-48.340,0.000
1709291994.519,-58.105,-38.086,-34.180,-51.270,0.000
1709291994.522,-46.875,-38.086,-33.203,-46.875,0.000
1709291994.526,-42.969,-34.668,-29.297,-46.387,0.000
1709291994.530,-46.387,-34.668,-27.832,-39.062,0.000
1709291994.534,-45.410,-37.598,-26.855,-43.945,0.000
1709291994.537,-44.922,-37.109,-32.227,-49.316,0.000
1709291994.541,-44.434,-32.227,-32.227,-39.551,0.000
1709291994.545,-42.969,-33.691,-29.297,-40.527,0.000
1709291994.549,-46.387,-39.062,-28.320,-41.992,0.000
1709291994.553,-45.410,-38.086,-27.832,-40.039,0.000
1709291994.557,-37.598,-33.691,-27.832,-44.922,0.000
1709291994.561,-38.574,-36.621,-30.762,-45.410,0.000
1709291994.565,-45.410,-39.062,-32.227,-51.758,0.000
1709291994.569,-50.781,-39.062,-31.250,-53.223,0.000
1709291994.572,-41.016,-37.598,-27.832,-39.551,0.000
1709291994.576,-32.227,-36.133,-21.973,-28.320,0.000
1709291994.580,-31.250,-33.203,-23.926,-31.738,0.000
1709291994.584,-29.785,-31.738,-31.250,-32.227,0.000
1709291994.587,-35.156,-38.086,-36.621,-36.621,0.000
1709291994.591,-41.016,-37.109,-40.039,-39.551,0.000
1709291994.595,-50.781,-34.180,-37.598,-38.086,0.000
1709291994.599,-50.293,-33.203,-36.133,-38.574,0.000
1709291994.603,-44.922,-30.273,-36.621,-31.250,0.000
1709291994.607,-41.016,-34.180,-34.668,-32.227,0.000
1709291994.611,-35.645,-34.180,-33.203,-36.621,0.000
1709291994.615,-36.621,-30.762,-34.180,-36.621,0.000
1709291994.620,-38.574,-34.668,-34.180,-33.203,0.000
1709291994.624,-35.156,-36.133,-35.156,-38.574,0.000
1709291994.627,-29.785,-35.645,-34.180,-29.297,0.000
1709291994.631,-34.180,-37.109,-31.738,-21.973,0.000
1709291994.635,-40.039,-35.156,-34.180,-30.762,0.000
1709291994.639,-37.598,-34.668,-35.156,-36.133,0.000
1709291994.643,-33.203,-36.133,-38.086,-38.574,0.000
1709291994.647,-35.645,-38.574,-39.551,-38.574,0.000
1709291994.651,-35.645,-39.551,-37.598,-31.738,0.000
1709291994.655,-39.062,-34.180,-32.227,-21.973,0.000
1709291994.659,-44.434,-34.180,-29.297,-27.832,0.000
1709291994.663,-34.180,-37.109,-27.832,-31.250,0.000
1709291994.667,-38.086,-39.062,-25.391,-26.367,0.000
1709291994.671,-42.969,-38.574,-24.902,-25.391,0.000
1709291994.675,-44.922,-35.645,-24.902,-23.438,0.000
1709291994.679,-43.945,-36.621,-24.902,-21.973,0.000
1709291994.683,-41.504,-40.039,-25.879,-25.879,0.000
1709291994.687,-42.480,-37.109,-29.297,-30.273,0.000
1709291994.690,-41.992,-36.133,-32.227,-32.227,0.000
1709291994.694,-41.504,-41.504,-28.809,-35.645,0.000
1709291994.698,-30.762,-40.527,-25.391,-20.020,0.000
1709291994.702,-28.320,-36.621,-26.367,-11.230,0.000
1709291994.706,-32.227,-34.668,-30.273,-28.320,0.000
1709291994.710,-33.691,-35.645,-33.203,-35.156,0.000
1709291994.714,-41.016,-38.086,-36.133,-30.762,0.000
1709291994.718,-44.922,-36.621,-35.645,-23.926,0.000
1709291994.722,-37.598,-32.715,-30.762,-32.227,0.000
1709291994.726,-36.133,-32.715,-27.832,-35.156,0.000
1709291994.730,-39.062,-30.273,-27.832,-30.273,0.000
1709291994.734,-44.434,-27.832,-26.855,-35.156,0.000
1709291994.738,-44.922,-32.715,-26.855,-35.645,0.000
1709291994.742,-37.598,-32.715,-32.715,-28.320,0.000
1709291994.745,-36.621,-29.785,-36.133,-26.855,0.000
1709291994.749,-41.016,-32.227,-37.109,-38.574,0.000
1709291994.753,-39.551,-28.809,-38.086,-44.434,0.000
1709291994.757,-31.250,-27.344,-33.203,-23.926,0.000
1709291994.761,-18.555,-32.715,-29.785,-10.254,0.000
1709291994.765,-18.066,-39.062,-29.297,-22.949,0.000
1709291994.769,-27.344,-37.109,-31.738,-32.227,0.000
1709291994.773,-36.621,-35.645,-34.668,-41.992,0.000
1709291994.777,-40.527,-34.180,-32.227,-42.480,0.000
1709291994.781,-32.227,-29.297,-31.250,-29.297,0.000
1709291994.785,-31.738,-29.785,-31.738,-39.062,0.000
1709291994.788,-33.691,-28.809,-32.715,-37.598,0.000
1709291994.792,-34.668,-34.668,-35.156,-25.879,0.000
1709291994.796,-34.668,-36.621,-35.645,-30.762,0.000
1709291994.800,-29.785,-35.156,-35.156,-34.668,0.000
1709291994.804,-29.785,-36.621,-35.156,-35.156,0.000
