timestamps,TP9,AF7,AF8,TP10,Right AUX
1709292007.370,-37.598,-26.855,-30.273,-20.508,0.000
1709292007.374,-43.945,-26.855,-26.855,-17.090,0.000
1709292007.378,-48.340,-32.227,-30.273,-18.066,0.000
1709292007.382,-52.246,-34.180,-36.133,-22.949,0.000
1709292007.386,-52.246,-37.598,-40.039,-24.414,0.000
1709292007.390,-50.293,-37.598,-44.434,-19.531,0.000
1709292007.393,-48.828,-30.273,-38.574,-18.555,0.000
1709292007.397,-54.199,-29.297,-33.203,-28.809,0.000
1709292007.401,-53.711,-31.250,-37.598,-29.297,0.000
1709292007.405,-43.945,-31.738,-37.598,-20.996,0.000
1709292007.409,-43.457,-31.738,-34.180,-21.484,0.000
1709292007.413,-48.340,-30.762,-35.156,-26.367,0.000
1709292007.417,-51.758,-35.645,-37.109,-33.203,0.000
1709292007.421,-59.082,-41.016,-38.086,-33.691,0.000
1709292007.425,-57.129,-37.598,-39.062,-33.203,0.000
1709292007.429,-41.504,-31.738,-39.062,-28.809,0.000
1709292007.433,-43.457,-30.273,-41.504,-23.926,0.000
1709292007.437,-53.711,-32.227,-40.527,-29.785,0.000
1709292007.441,-49.805,-32.227,-35.156,-25.879,0.000
1709292007.445,-46.875,-33.203,-31.250,-26.367,0.000
1709292007.449,-42.969,-33.691,-32.227,-31.738,0.000
1709292007.453,-44.434,-32.715,-31.738,-29.297,0.000
1709292007.456,-46.387,-32.715,-29.297,-30.762,0.000
1709292007.460,-47.852,-34.668,-28.809,-31.738,0.000
1709292007.466,0.000,-33.691,0.000,0.000,0.000
1709292007.470,0.000,-32.715,0.000,0.000,0.000
1709292007.474,0.000,-25.391,0.000,0.000,0.000
1709292007.478,0.000,-20.996,0.000,0.000,0.000
1709292007.482,0.000,-22.949,0.000,0.000,0.000
1709292007.486,0.000,-24.414,0.000,0.000,0.000
1709292007.490,0.000,-26.367,0.000,0.000,0.000
1709292007.494,0.000,-26.855,0.000,0.000,0.000
1709292007.497,0.000,-33.203,0.000,0.000,0.000
1709292007.501,0.000,-33.203,0.000,0.000,0.000
1709292007.505,0.000,-33.203,0.000,0.000,0.000
1709292007.509,0.000,-35.156,0.000,0.000,0.000
1709292007.513,-48.828,-35.156,-30.273,-36.621,0.000
1709292007.517,-54.688,-35.645,-28.320,-41.504,0.000
1709292007.521,-53.711,-36.133,-26.855,-34.180,0.000
1709292007.525,-48.340,-38.574,-26.855,-29.297,0.000
1709292007.529,-49.805,-40.527,-27.344,-29.785,0.000
1709292007.532,-47.852,-35.645,-24.414,-31.250,0.000
1709292007.536,-50.293,-32.715,-21.484,-31.250,0.000
1709292007.540,-68.359,-33.691,-28.320,-35.156,0.000
1709292007.544,-69.336,-33.691,-28.320,-31.250,0.000
1709292007.548,-61.035,-35.156,-26.855,-30.762,0.000
1709292007.552,-59.570,-34.180,-26.367,-42.969,0.000
1709292007.556,-64.453,-34.668,-27.832,-49.805,0.000
1709292007.559,-67.871,-36.621,-30.762,-41.504,0.000
1709292007.563,-65.918,-38.086,-31.738,-36.621,0.000
1709292007.567,-62.012,-39.062,-32.227,-37.598,0.000
1709292007.571,-58.594,-41.016,-37.109,-36.133,0.000
1709292007.575,-50.781,-41.504,-36.133,-31.250,0.000
1709292007.579,-46.387,-40.039,-29.785,-24.902,0.000
1709292007.583,-50.293,-39.551,-38.086,-28.809,0.000
1709292007.587,-46.875,-38.086,-41.016,-29.297,0.000
1709292007.591,-37.598,-37.109,-35.156,-19.043,0.000
1709292007.595,-39.062,-36.133,-32.715,-26.367,0.000
1709292007.599,-45.898,-39.551,-24.902,-34.180,0.000
1709292007.602,-40.039,-39.551,-25.879,-29.785,0.000
1709292007.606,-32.715,-38.574,-34.668,-32.227,0.000
1709292007.610,-33.203,-37.598,-34.668,-38.086,0.000
1709292007.614,-35.645,-36.133,-31.250,-33.203,0.000
1709292007.618,-38.574,-35.645,-33.691,-28.809,0.000
1709292007.621,-34.180,-29.785,-33.691,-30.762,0.000
1709292007.625,-32.227,-31.250,-32.227,-26.855,0.000
1709292007.629,-33.691,-34.180,-36.621,-23.926,0.000
1709292007.633,-30.273,-34.668,-37.598,-24.902,0.000
1709292007.637,-35.156,-33.691,-38.086,-33.691,0.000
1709292007.641,-40.039,-34.668,-38.086,-41.016,0.000
1709292007.645,-35.156,-41.992,-34.668,-39.062,0.000
1709292007.649,-37.598,-41.992,-32.227,-42.969,0.000
1709292007.652,-39.062,-30.762,-32.715,-37.598,0.000
1709292007.656,-37.109,-26.855,-35.156,-32.227,0.000
1709292007.660,-43.457,-37.109,-33.691,-36.133,0.000
1709292007.664,-46.387,-38.574,-34.668,-38.086,0.000
1709292007.668,-40.039,-30.273,-31.250,-37.109,0.000
1709292007.672,-40.039,-30.273,-29.785,-33.203,0.000
1709292007.675,-42.969,-30.273,-31.738,-23.438,0.000
1709292007.679,-46.387,-30.273,-33.691,-19.531,0.000
1709292007.683,-40.527,-27.344,-36.133,-24.414,0.000
1709292007.687,-37.598,-31.738,-32.715,-30.273,0.000
1709292007.691,-45.898,-36.621,-30.762,-30.273,0.000
1709292007.695,-42.969,-33.203,-31.738,-22.461,0.000
1709292007.698,-41.016,-35.156,-31.250,-22.949,0.000
1709292007.702,-46.875,-36.621,-30.273,-25.879,0.000
1709292007.706,-46.875,-35.645,-28.809,-27.344,0.000
1709292007.710,-47.363,-38.574,-29.297,-27.344,0.000
1709292007.714,-49.805,-37.598,-29.785,-28.809,0.000
1709292007.718,-46.387,-36.133,-30.762,-24.414,0.000
1709292007.722,-43.457,-33.691,-26.855,-14.648,0.000
1709292007.725,-40.527,-30.762,-21.484,-22.461,0.000
1709292007.729,-42.480,-33.691,-28.320,-31.738,0.000
1709292007.733,-45.410,-30.762,-34.180,-31.738,0.000
1709292007.737,-54.199,-29.297,-30.273,-33.203,0.000
1709292007.741,-59.082,-33.691,-31.738,-33.691,0.000
1709292007.744,-46.875,-34.668,-35.156,-33.691,0.000
1709292007.748,-34.180,-29.785,-37.109,-28.809,0.000
1709292007.752,-43.457,-27.344,-32.715,-18.066,0.000
1709292007.756,-61.035,-32.715,-25.391,-28.320,0.000
1709292007.760,-59.082,-33.203,-25.879,-35.156,0.000
1709292007.764,-54.199,-34.180,-31.250,-27.832,0.000
1709292007.767,-56.641,-35.645,-34.180,-24.902,0.000
1709292007.771,-56.152,-28.809,-36.133,-31.738,0.000
1709292007.775,-66.406,-30.762,-37.598,-39.551,0.000
1709292007.779,-65.430,-31.250,-36.621,-32.715,0.000
1709292007.783,-53.711,-29.785,-38.086,-33.691,0.000
1709292007.787,-55.176,-36.621,-38.574,-35.645,0.000
1709292007.792,-56.641,-35.645,-37.109,-34.180,0.000
1709292007.795,-54.688,-33.691,-35.645,-36.133,0.000
1709292007.799,-52.246,-33.691,-39.062,-32.227,0.000
1709292007.803,-51.758,-33.691,-40.039,-32.715,0.000
1709292007.807,-43.945,-31.738,-34.180,-32.227,0.000
1709292007.811,-45.410,-33.203,-33.691,-32.227,0.000
1709292007.815,-54.688,-37.598,-32.715,-35.156,0.000
1709292007.819,-51.758,-38.574,-31.250,-36.133,0.000
1709292007.823,-51.270,-40.039,-31.250,-35.645,0.000
1709292007.827,-54.199,-40.527,-31.250,-32.715,0.000
1709292007.831,-50.781,-37.598,-33.203,-33.203,0.000
1709292007.835,-52.246,-33.691,-29.785,-32.227,0.000
1709292007.839,-60.059,-38.574,-29.297,-24.902,0.000
1709292007.843,-50.781,-37.109,-27.344,-17.578,0.000
1709292007.847,-40.039,-34.668,-29.297,-24.414,0.000
1709292007.851,-41.016,-35.645,-33.691,-24.414,0.000
1709292007.854,-41.992,-36.621,-30.762,-21.484,0.000
1709292007.858,-41.992,-36.133,-28.809,-19.531,0.000
1709292007.862,-44.434,-33.691,-29.785,-22.949,0.000
1709292007.866,-45.898,-37.598,-31.250,-29.785,0.000
1709292007.870,-44.922,-36.133,-33.203,-26.855,0.000
1709292007.874,-50.293,-31.738,-33.691,-31.738,0.000
1709292007.878,-56.641,-34.180,-32.715,-32.227,0.000
1709292007.882,-55.176,-37.598,-32.227,-23.438,0.000
1709292007.886,-52.246,-36.133,-35.156,-24.902,0.000
1709292007.890,-47.363,-39.551,-30.762,-29.785,0.000
1709292007.894,-51.758,-38.574,-27.344,-33.691,0.000
1709292007.898,-55.664,-32.227,-29.785,-33.203,0.000
1709292007.901,-49.316,-33.691,-30.273,-31.250,0.000
1709292007.905,-45.410,-30.762,-30.273,-27.832,0.000
1709292007.909,-43.945,-30.273,-34.668,-29.297,0.000
1709292007.913,-50.293,-33.203,-36.621,-32.715,0.000
1709292007.917,-59.082,-33.203,-39.551,-24.902,0.000
1709292007.921,-58.594,-30.762,-40.039,-27.344,0.000
1709292007.925,-51.758,-29.297,-38.086,-33.691,0.000
1709292007.929,-39.551,-25.391,-37.598,-34.668,0.000
1709292007.933,-39.551,-26.367,-37.109,-37.598,0.000
1709292007.937,-47.363,-26.367,-36.133,-34.180,0.000
1709292007.940,-35.645,-26.367,-37.598,-31.250,0.000
1709292007.944,-31.250,-30.762,-36.133,-28.320,0.000
1709292007.948,-36.621,-30.762,-37.598,-27.832,0.000
1709292007.952,-37.598,-35.156,-40.039,-29.785,0.000
1709292007.956,-44.434,-35.156,-36.133,-24.414,0.000
1709292007.960,-45.410,-34.180,-36.621,-19.043,0.000
1709292007.964,-41.992,-39.551,-36.133,-25.391,0.000
1709292007.968,-38.574,-37.598,-39.551,-35.156,0.000
1709292007.972,-33.691,-34.180,-41.504,-33.203,0.000
1709292007.976,-39.062,-39.551,-38.574,-32.227,0.000
1709292007.979,-47.852,-40.527,-34.668,-28.320,0.000
1709292007.983,-50.293,-33.691,-31.250,-26.367,0.000
1709292007.987,-49.316,-34.668,-32.715,-28.320,0.000
1709292007.991,-52.734,-37.598,-31.250,-31.250,0.000
1709292007.995,-65.430,-40.039,-34.180,-35.645,0.000
1709292007.999,-55.176,-41.016,-35.156,-32.227,0.000
1709292008.003,-48.340,-41.016,-33.691,-29.297,0.000
1709292008.007,-57.129,-40.039,-36.133,-25.879,0.000
1709292008.010,-46.875,-39.062,-35.645,-24.414,0.000
1709292008.014,-51.270,-40.527,-35.156,-30.273,0.000
1709292008.018,-56.152,-42.969,-34.668,-27.832,0.000
1709292008.022,-46.387,-44.922,-35.156,-22.949,0.000
1709292008.026,-41.992,-38.574,-32.715,-22.461,0.000
1709292008.029,-45.898,-37.109,-30.762,-33.203,0.000
1709292008.033,-41.016,-39.551,-31.250,-35.156,0.000
1709292008.037,-36.621,-37.598,-33.203,-26.855,0.000
1709292008.041,-42.969,-32.715,-34.668,-34.180,0.000
1709292008.045,-44.922,-31.738,-28.320,-31.738,0.000
1709292008.049,-46.875,-33.203,-27.832,-18.066,0.000
1709292008.053,-57.129,-38.574,-32.227,-23.438,0.000
1709292008.057,-60.547,-39.062,-30.273,-35.645,0.000
1709292008.061,-52.246,-34.668,-31.738,-25.879,0.000
1709292008.065,-45.410,-34.180,-34.180,-19.043,0.000
1709292008.069,-39.062,-32.227,-31.738,-20.020,0.000
1709292008.072,-42.969,-32.715,-37.109,-31.738,0.000
1709292008.076,-49.316,-33.203,-37.109,-34.668,0.000
1709292008.080,-48.828,-33.203,-33.691,-22.949,0.000
1709292008.084,-47.363,-35.156,-39.062,-30.273,0.000
1709292008.087,-40.527,-34.180,-38.086,-34.668,0.000
1709292008.091,-41.504,-35.156,-35.645,-33.203,0.000
1709292008.095,-54.199,-40.039,-32.715,-34.180,0.000
1709292008.099,-58.594,-40.039,-34.668,-40.039,0.000
1709292008.103,-41.992,-32.715,-41.016,-34.668,0.000
1709292008.107,-24.414,-34.180,-31.250,-17.578,0.000
1709292008.111,-33.691,-39.062,-15.137,-23.438,0.000
1709292008.115,-58.105,-41.992,-10.254,-44.922,0.000
1709292008.118,-70.312,-49.805,-7.812,-48.340,0.000
1709292008.122,-74.707,-59.082,-4.883,-42.969,0.000
1709292008.126,-84.961,-60.547,2.441,-49.316,0.000
1709292008.130,-88.379,-62.988,9.277,-48.828,0.000
1709292008.134,-100.098,-67.383,7.812,-61.523,0.000
1709292008.137,-111.816,-76.172,5.371,-67.383,0.000
1709292008.141,-117.676,-82.031,-1.953,-65.918,0.000
1709292008.145,-117.188,-77.148,-3.906,-74.707,0.000
1709292008.149,-117.188,-77.148,-1.953,-75.195,0.000
1709292008.153,-117.188,-80.078,0.000,-71.777,0.000
1709292008.157,-108.887,-72.266,-0.488,-65.430,0.000
1709292008.161,-108.398,-70.312,-7.324,-63.965,0.000
1709292008.166,-103.516,-77.148,-11.230,-63.965,0.000
1709292008.169,-103.027,-77.148,-13.184,-61.035,0.000
1709292008.173,-93.750,-71.289,-12.695,-44.922,0.000
1709292008.177,-76.172,-70.801,-12.207,-20.996,0.000
1709292008.181,-71.289,-75.684,-17.578,-17.578,0.000
1709292008.185,-52.734,-78.613,-14.160,-1.465,0.000
1709292008.189,-40.527,-72.754,-7.812,11.230,0.000
1709292008.193,-43.945,-69.824,-10.254,7.812,0.000
1709292008.197,-36.133,-74.707,-13.184,25.391,0.000
1709292008.201,-22.461,-71.777,-16.602,42.969,0.000
1709292008.205,-7.812,-63.477,-20.996,48.828,0.000
1709292008.208,-3.418,-67.383,-24.902,41.016,0.000
1709292008.213,0.000,-72.754,-24.414,41.992,0.000
1709292008.217,0.000,-66.895,-19.531,62.988,0.000
1709292008.221,0.000,-62.988,-19.531,62.988,0.000
1709292008.225,0.000,-66.406,-20.508,60.059,0.000
1709292008.228,0.000,-65.430,-24.902,60.547,0.000
1709292008.232,0.000,-59.082,-26.367,56.641,0.000
1709292008.236,0.000,-58.105,-25.879,51.270,0.000
1709292008.240,0.000,-61.035,-26.367,46.387,0.000
1709292008.244,0.000,-64.453,-22.461,50.781,0.000
1709292008.248,0.000,-64.453,-23.926,49.316,0.000
1709292008.252,0.000,-57.617,-25.391,48.340,0.000
1709292008.256,0.000,-58.105,-21.973,48.340,0.000
1709292008.260,3.906,-59.082,-19.043,44.922,0.000
1709292008.264,-1.465,-58.105,-23.438,46.875,0.000
1709292008.268,1.465,-56.152,-21.484,47.363,0.000
1709292008.272,2.441,-55.176,-21.973,46.387,0.000
1709292008.276,-9.766,-57.129,-29.785,41.992,0.000
1709292008.280,-15.137,-56.152,-28.320,41.016,0.000
1709292008.283,-14.648,-54.688,-26.367,40.527,0.000
1709292008.287,-4.395,-56.152,-26.367,37.598,0.000
1709292008.291,-9.277,-53.223,-28.809,42.969,0.000
1709292008.295,-19.531,-48.340,-28.320,38.574,0.000
1709292008.299,-11.719,-45.898,-32.227,24.902,0.000
1709292008.303,-16.602,-43.945,-37.109,16.113,0.000
1709292008.307,-20.996,-41.992,-35.156,11.230,0.000
1709292008.311,-25.391,-41.016,-40.039,2.441,0.000
1709292008.315,-29.297,-40.527,-39.062,0.000,0.000
1709292008.319,-28.320,-40.039,-35.156,5.859,0.000
1709292008.322,-25.391,-39.062,-37.598,6.836,0.000
1709292008.326,-17.578,-42.969,-39.551,6.836,0.000
1709292008.330,-19.043,-39.062,-35.645,-0.977,0.000
1709292008.334,-24.414,-34.668,-31.250,7.812,0.000
1709292008.338,-28.320,-38.574,-33.691,13.672,0.000
1709292008.342,-27.832,-37.598,-33.203,2.930,0.000
1709292008.346,-17.578,-38.086,-38.086,0.977,0.000
1709292008.350,-18.066,-35.156,-43.457,-1.953,0.000
1709292008.354,-26.367,-27.832,-44.434,-1.465,0.000
1709292008.358,-31.738,-27.832,-42.969,-2.930,0.000
1709292008.361,-37.109,-31.250,-41.016,-0.488,0.000
1709292008.365,-30.273,-32.227,-41.016,-0.488,0.000
1709292008.369,-23.438,-34.180,-36.621,-5.859,0.000
1709292008.373,-25.879,-37.109,-35.156,0.000,0.000
1709292008.377,-34.668,-40.527,-37.109,-5.371,0.000
1709292008.381,-43.457,-46.387,-36.621,-4.883,0.000
1709292008.385,-35.645,-44.922,-37.598,0.488,0.000
1709292008.389,-34.668,-38.086,-36.621,-3.418,0.000
1709292008.393,-40.527,-34.668,-38.574,-8.789,0.000
1709292008.397,-34.668,-35.645,-40.527,-7.812,0.000
1709292008.400,-39.551,-37.109,-42.480,-6.836,0.000
1709292008.404,-32.715,-34.180,-42.480,-10.254,0.000
1709292008.408,-35.156,-35.156,-42.480,-17.090,0.000
1709292008.412,-47.852,-34.180,-39.062,-22.461,0.000
1709292008.416,-44.434,-30.762,-41.504,-20.020,0.000
1709292008.420,-35.156,-29.297,-43.457,-15.137,0.000
1709292008.424,-24.902,-35.156,-40.039,-7.324,0.000
1709292008.428,-24.902,-35.645,-37.109,-2.441,0.000
1709292008.432,-33.691,-29.297,-34.180,-20.020,0.000
1709292008.435,-41.992,-33.203,-37.109,-31.738,0.000
1709292008.439,-43.457,-33.691,-39.062,-27.344,0.000
1709292008.443,-41.016,-29.297,-37.109,-28.320,0.000
1709292008.447,-39.551,-28.320,-32.715,-27.832,0.000
1709292008.451,-45.410,-29.297,-32.227,-25.879,0.000
1709292008.454,-50.293,-36.133,-35.156,-29.785,0.000
1709292008.458,-59.082,-42.480,-37.109,-27.344,0.000
1709292008.462,-62.988,-41.992,-38.086,-22.461,0.000
1709292008.466,-49.316,-39.062,-35.156,-28.320,0.000
1709292008.470,-40.527,-32.227,-31.250,-26.367,0.000
1709292008.474,-42.969,-32.227,-30.273,-27.344,0.000
1709292008.478,-52.734,-36.621,-30.762,-28.809,0.000
1709292008.482,-50.293,-39.062,-30.273,-24.902,0.000
1709292008.486,-39.551,-42.480,-31.250,-24.902,0.000
1709292008.490,-33.691,-42.969,-31.738,-20.996,0.000
1709292008.493,-41.016,-42.969,-30.762,-19.531,0.000
1709292008.497,-39.551,-42.969,-30.273,-18.555,0.000
1709292008.501,-29.785,-41.992,-29.297,-19.043,0.000
1709292008.504,-29.785,-40.039,-29.297,-24.414,0.000
1709292008.508,-41.016,-41.992,-27.832,-28.809,0.000
1709292008.512,-52.734,-43.945,-29.785,-30.762,0.000
1709292008.516,-49.805,-41.992,-36.133,-26.855,0.000
1709292008.520,-41.992,-39.551,-35.645,-31.250,0.000
1709292008.524,-42.480,-36.621,-30.762,-41.504,0.000
1709292008.528,-41.016,-41.504,-28.809,-36.133,0.000
1709292008.532,-41.992,-44.434,-27.832,-27.832,0.000
1709292008.536,-39.062,-41.992,-26.367,-22.461,0.000
1709292008.540,-39.551,-37.109,-25.879,-25.879,0.000
1709292008.544,-40.527,-34.180,-26.367,-32.227,0.000
1709292008.548,-28.320,-39.062,-24.414,-28.809,0.000
1709292008.552,-31.250,-33.203,-23.926,-30.762,0.000
1709292008.556,-41.992,-33.691,-34.180,-37.598,0.000
1709292008.560,-39.062,-38.574,-36.133,-34.180,0.000
1709292008.564,-29.785,-35.156,-33.691,-30.762,0.000
1709292008.568,-30.273,-30.762,-30.762,-31.738,0.000
1709292008.572,-41.992,-29.297,-29.785,-27.832,0.000
1709292008.576,-41.504,-32.227,-33.691,-29.297,0.000
1709292008.580,-39.062,-35.156,-41.016,-36.133,0.000
1709292008.583,-37.598,-36.621,-46.387,-35.645,0.000
1709292008.588,-34.668,-35.645,-39.062,-37.598,0.000
1709292008.592,-47.852,-33.203,-34.668,-38.574,0.000
1709292008.596,-59.570,-35.645,-38.574,-38.574,0.000
1709292008.600,-57.129,-39.551,-40.527,-40.527,0.000
1709292008.603,-50.293,-40.527,-40.527,-41.504,0.000
1709292008.607,-46.387,-37.598,-39.551,-43.945,0.000
1709292008.611,-41.992,-31.738,-43.457,-43.945,0.000
1709292008.615,-45.898,-39.062,-47.852,-51.270,0.000
1709292008.619,-45.410,-39.062,-44.922,-42.480,0.000
1709292008.623,-45.898,-32.227,-41.504,-36.133,0.000
1709292008.627,-55.176,-34.180,-43.945,-41.992,0.000
1709292008.631,-54.199,-37.109,-43.945,-43.457,0.000
1709292008.635,-52.734,-33.203,-40.527,-43.945,0.000
1709292008.639,-51.270,-32.715,-38.086,-43.457,0.000
1709292008.643,-47.852,-35.645,-41.016,-42.969,0.000
1709292008.647,-45.410,-40.039,-40.527,-39.062,0.000
1709292008.651,-47.852,-39.062,-34.180,-31.738,0.000
1709292008.655,-50.781,-39.062,-36.621,-31.738,0.000
1709292008.658,-48.828,-36.133,-31.738,-34.180,0.000
1709292008.662,-37.109,-31.738,-27.832,-26.367,0.000
1709292008.666,-28.320,-34.668,-31.738,-16.602,0.000
1709292008.670,-30.762,-36.133,-32.227,-14.648,0.000
1709292008.674,-30.762,-37.598,-33.203,-19.531,0.000
1709292008.678,-22.461,-37.109,-33.203,-16.602,0.000
1709292008.682,-27.344,-35.156,-23.926,-17.090,0.000
1709292008.686,-33.203,-31.738,-20.508,-21.484,0.000
1709292008.690,-32.715,-36.133,-24.902,-32.715,0.000
1709292008.694,-37.109,-35.645,-28.809,-41.992,0.000
1709292008.698,-47.363,-33.691,-33.691,-46.875,0.000
1709292008.701,-47.852,-33.203,-36.133,-48.340,0.000
1709292008.705,-41.016,-29.297,-34.668,-42.480,0.000
1709292008.709,-37.598,-31.250,-30.273,-34.180,0.000
1709292008.713,-37.598,-36.621,-32.715,-27.344,0.000
1709292008.717,-41.504,-34.668,-34.668,-32.227,0.000
1709292008.721,-41.504,-37.598,-33.203,-32.227,0.000
1709292008.725,-25.391,-39.551,-33.691,-26.855,0.000
1709292008.729,-28.320,-38.574,-34.668,-28.809,0.000
1709292008.732,-49.316,-45.898,-36.133,-38.086,0.000
1709292008.736,-50.293,-42.480,-35.645,-38.574,0.000
1709292008.740,-42.969,-39.551,-34.668,-30.762,0.000
1709292008.744,-37.109,-41.016,-32.227,-27.832,0.000
1709292008.748,-35.156,-38.086,-31.738,-24.414,0.000
1709292008.752,-46.387,-39.551,-34.668,-33.203,0.000
1709292008.756,-45.898,-38.574,-30.273,-26.367,0.000
1709292008.760,-43.457,-35.156,-31.250,-18.066,0.000
1709292008.764,-51.270,-35.156,-37.109,-32.227,0.000
1709292008.768,-47.363,-37.598,-38.086,-40.039,0.000
1709292008.772,-45.410,-34.180,-41.992,-41.016,0.000
1709292008.775,-49.805,-35.156,-41.992,-44.922,0.000
1709292008.779,-43.945,-39.551,-42.480,-45.898,0.000
1709292008.783,-40.039,-36.133,-41.504,-37.109,0.000
1709292008.787,-43.945,-36.621,-37.109,-33.691,0.000
1709292008.791,-37.598,-34.668,-34.180,-31.738,0.000
1709292008.795,-41.016,-27.344,-28.809,-33.203,0.000
1709292008.798,-44.434,-30.762,-28.809,-26.855,0.000
1709292008.802,-34.180,-32.715,-31.738,-14.160,0.000
1709292008.806,-33.691,-29.785,-38.574,-24.414,0.000
1709292008.810,-34.668,-30.273,-40.527,-28.809,0.000
1709292008.814,-36.133,-27.344,-35.645,-24.414,0.000
1709292008.818,-37.109,-28.320,-40.527,-27.344,0.000
1709292008.821,0.000,-34.180,-41.992,-23.926,0.000
1709292008.825,0.000,-39.551,-38.086,-20.508,0.000
1709292008.829,0.000,-34.180,-35.156,-26.367,0.000
1709292008.833,0.000,-32.715,-35.645,-31.738,0.000
1709292008.837,0.000,-39.551,-35.156,-36.621,0.000
1709292008.841,0.000,-38.574,-30.273,-35.156,0.000
1709292008.845,0.000,-36.133,-31.250,-25.391,0.000
1709292008.849,0.000,-32.715,-34.180,-22.461,0.000
1709292008.853,0.000,-34.668,-33.203,-33.203,0.000
1709292008.856,0.000,-45.410,-37.109,-43.945,0.000
1709292008.860,0.000,-44.434,-39.062,-38.086,0.000
1709292008.864,0.000,-39.062,-39.062,-26.367,0.000
1709292008.867,-29.297,-41.016,-39.062,-30.762,0.000
1709292008.871,-38.086,-40.039,-34.668,-33.691,0.000
1709292008.875,-33.691,-37.109,-31.250,-24.902,0.000
1709292008.879,-27.832,-39.551,-28.809,-18.066,0.000
1709292008.883,-26.367,-42.480,-28.320,-19.043,0.000
1709292008.887,-33.203,-41.992,-25.391,-20.508,0.000
1709292008.891,-38.086,-45.410,-24.902,-22.461,0.000
1709292008.895,-33.203,-41.992,-20.996,-16.113,0.000
1709292008.899,-26.855,-36.133,-20.020,-9.277,0.000
1709292008.903,-24.414,-35.156,-29.785,-14.648,0.000
1709292008.906,-32.227,-33.691,-38.574,-28.320,0.000
1709292008.910,-38.574,-35.156,-38.086,-39.062,0.000
1709292008.915,-38.574,-33.691,-35.645,-32.715,0.000
1709292008.919,-38.574,-34.180,-36.621,-29.297,0.000
1709292008.923,-38.574,-34.180,-33.691,-24.902,0.000
1709292008.927,-32.227,-37.109,-34.180,-27.344,0.000
1709292008.931,-32.715,-39.062,-33.691,-33.203,0.000
1709292008.935,-41.504,-38.574,-32.227,-31.250,0.000
1709292008.939,-38.574,-36.621,-37.109,-32.227,0.000
1709292008.942,-40.527,-34.180,-38.574,-30.762,0.000
1709292008.946,-33.203,-34.668,-32.715,-22.949,0.000
1709292008.950,-26.855,-38.086,-33.203,-24.902,0.000
1709292008.954,-41.016,-40.527,-37.598,-34.180,0.000
1709292008.958,-43.457,-38.086,-39.062,-35.156,0.000
1709292008.963,-35.156,-34.668,-38.086,-28.809,0.000
1709292008.967,-28.809,-39.551,-33.691,-30.273,0.000
1709292008.970,-34.180,-41.992,-35.645,-39.062,0.000
1709292008.974,-39.551,-40.527,-38.574,-37.109,0.000
1709292008.978,-44.434,-37.109,-38.086,-28.320,0.000
1709292008.982,-50.781,-38.086,-37.598,-24.902,0.000
1709292008.986,-43.457,-39.062,-36.133,-26.855,0.000
1709292008.990,-38.574,-41.504,-34.180,-34.180,0.000
1709292008.994,-43.457,-41.016,-34.180,-32.715,0.000
1709292008.998,-43.945,-38.086,-39.551,-27.832,0.000
1709292009.002,-39.062,-39.551,-38.086,-33.203,0.000
1709292009.006,-27.832,-41.992,-34.180,-29.785,0.000
1709292009.010,-28.320,-41.992,-33.691,-26.367,0.000
1709292009.014,-42.480,-38.574,-33.203,-27.344,0.000
1709292009.018,-35.156,-38.086,-34.180,-27.832,0.000
1709292009.021,-33.203,-41.016,-38.086,-34.668,0.000
1709292009.025,-36.133,-43.945,-44.922,-38.574,0.000
1709292009.029,-27.832,-41.504,-40.527,-40.039,0.000
1709292009.033,-34.668,-37.109,-39.551,-50.293,0.000
1709292009.037,-42.969,-39.551,-47.363,-52.246,0.000
1709292009.041,-37.109,-42.969,-47.363,-34.668,0.000
1709292009.045,-29.297,-43.457,-43.457,-33.203,0.000
1709292009.049,-32.227,-43.457,-40.039,-35.645,0.000
1709292009.053,-25.879,-41.992,-39.062,-31.250,0.000
1709292009.057,-27.832,-39.551,-41.992,-34.668,0.000
1709292009.061,-32.715,-34.668,-39.062,-31.738,0.000
1709292009.065,-30.762,-39.062,-37.109,-33.203,0.000
1709292009.068,-38.086,-44.922,-36.133,-39.062,0.000
1709292009.072,-41.016,-48.828,-36.133,-43.457,0.000
1709292009.076,-51.758,-53.223,-41.016,-44.922,0.000
1709292009.080,-51.758,-46.875,-37.598,-38.574,0.000
1709292009.084,-48.828,-49.316,-39.551,-34.668,0.000
1709292009.088,-40.527,-49.316,-42.969,-32.227,0.000
1709292009.092,-30.273,-40.039,-38.574,-29.785,0.000
1709292009.096,-46.875,-46.387,-39.551,-35.645,0.000
1709292009.100,-47.363,-48.340,-42.969,-41.504,0.000
1709292009.103,-35.645,-44.922,-41.504,-34.668,0.000
1709292009.107,-34.668,-49.316,-37.598,-34.668,0.000
1709292009.111,-31.738,-46.387,-38.086,-32.227,0.000
1709292009.115,-33.203,-39.062,-38.086,-32.227,0.000
1709292009.119,-28.809,-38.574,-30.273,-33.691,0.000
1709292009.123,-25.879,-41.992,-25.391,-29.785,0.000
1709292009.127,-30.762,-40.039,-27.344,-29.785,0.000
1709292009.131,-38.086,-40.527,-32.715,-31.738,0.000
1709292009.135,-41.016,-40.527,-36.133,-32.715,0.000
1709292009.138,-43.945,-35.645,-34.180,-33.203,0.000
1709292009.142,-47.363,-42.969,-33.691,-35.645,0.000
1709292009.146,-37.598,-45.898,-31.738,-39.551,0.000
1709292009.150,-35.645,-41.016,-28.320,-39.551,0.000
1709292009.154,-42.969,-41.992,-31.738,-37.109,0.000
1709292009.158,-46.875,-44.922,-35.156,-35.645,0.000
1709292009.162,-54.199,-48.828,-36.621,-42.480,0.000
1709292009.165,-44.922,-48.828,-25.879,-37.598,0.000
1709292009.169,-30.762,-45.410,-23.926,-21.973,0.000
1709292009.173,-33.203,-36.621,-33.203,-17.090,0.000
1709292009.177,-36.133,-23.438,-40.039,-26.367,0.000
1709292009.181,-49.805,-21.484,-40.527,-44.922,0.000
1709292009.185,-46.387,-31.250,-37.598,-53.711,0.000
1709292009.189,-25.391,-27.832,-36.133,-44.922,0.000
1709292009.193,-23.926,-24.902,-38.086,-28.809,0.000
1709292009.196,-34.668,-27.832,-36.133,-22.949,0.000
1709292009.200,-29.297,-25.879,-29.297,-20.996,0.000
1709292009.204,-17.090,-24.414,-31.250,-20.996,0.000
1709292009.208,-19.531,-23.438,-35.645,-28.320,0.000
1709292009.212,-28.320,-24.414,-35.645,-29.297,0.000
1709292009.216,-28.809,-27.344,-36.133,-29.785,0.000
1709292009.220,-28.809,-30.762,-35.645,-24.902,0.000
1709292009.223,-23.926,-32.227,-34.668,-23.438,0.000
1709292009.227,-21.484,-34.668,-36.621,-30.762,0.000
1709292009.231,-29.297,-36.133,-40.039,-36.133,0.000
1709292009.235,-36.133,-35.156,-43.457,-37.598,0.000
1709292009.239,-31.738,-29.785,-34.668,-27.832,0.000
1709292009.242,-17.090,-25.879,-29.785,-20.020,0.000
1709292009.246,-13.672,-29.297,-28.809,-20.996,0.000
1709292009.250,-24.902,-29.297,-24.414,-22.949,0.000
1709292009.254,-36.133,-27.344,-33.203,-25.391,0.000
1709292009.258,-35.156,-34.668,-35.156,-23.438,0.000
1709292009.262,-26.367,-39.551,-29.785,-19.043,0.000
1709292009.266,-27.344,-39.551,-30.762,-21.484,0.000
1709292009.270,-38.574,-37.598,-29.785,-28.320,0.000
1709292009.274,-35.645,-40.039,-30.762,-25.391,0.000
1709292009.278,-29.785,-39.551,-31.738,-19.043,0.000
1709292009.282,-30.273,-36.621,-27.832,-22.949,0.000
1709292009.285,-34.668,-37.109,-25.391,-24.414,0.000
1709292009.290,-29.785,-37.598,-26.855,-15.625,0.000
1709292009.294,-32.227,-37.598,-28.320,-10.254,0.000
1709292009.298,-36.621,-36.621,-24.902,-15.137,0.000
1709292009.302,-32.227,-33.691,-28.809,-19.531,0.000
1709292009.306,-31.250,-34.668,-33.203,-16.602,0.000
1709292009.310,-30.273,-36.133,-31.738,-15.137,0.000
1709292009.314,-34.180,-36.133,-32.715,-18.555,0.000
1709292009.317,-37.109,-35.156,-28.320,-16.602,0.000
1709292009.321,-35.645,-29.785,-27.832,-12.207,0.000
1709292009.325,-26.367,-28.320,-29.785,-11.230,0.000
1709292009.329,-31.738,-30.273,-32.227,-20.508,0.000
1709292009.333,-42.969,-28.809,-36.621,-21.973,0.000
1709292009.338,-36.621,-25.391,-32.715,-19.531,0.000
1709292009.342,-30.762,-27.344,-34.668,-21.973,0.000
1709292009.346,-32.715,-33.203,-37.109,-29.297,0.000
1709292009.350,-39.551,-37.598,-36.621,-37.109,0.000
1709292009.354,-45.898,-39.062,-41.992,-36.621,0.000
1709292009.357,-47.363,-40.527,-44.922,-34.180,0.000
1709292009.361,-42.969,-39.062,-41.992,-29.297,0.000
1709292009.365,-35.156,-38.086,-40.527,-39.062,0.000
1709292009.369,-30.273,-38.086,-31.250,-36.621,0.000
1709292009.373,-32.715,-34.668,-30.273,-23.438,0.000
1709292009.377,-48.828,-33.203,-40.527,-37.109,0.000
1709292009.381,-52.734,-40.527,-39.551,-39.062,0.000
1709292009.385,-36.133,-37.109,-34.180,-21.973,0.000
1709292009.389,-38.574,-30.273,-29.297,-24.902,0.000
1709292009.393,-46.875,-37.109,-31.250,-32.227,0.000
1709292009.397,-46.875,-40.527,-36.621,-30.273,0.000
1709292009.401,-39.062,-37.109,-31.738,-26.855,0.000
1709292009.405,-36.621,-39.551,-30.762,-24.902,0.000
1709292009.409,-33.203,-42.969,-30.273,-26.855,0.000
1709292009.412,-27.344,-38.086,-26.367,-26.855,0.000
1709292009.416,-29.297,-40.039,-28.809,-19.531,0.000
1709292009.420,-35.645,-40.527,-31.738,-27.344,0.000
1709292009.424,-32.227,-36.133,-35.645,-38.086,0.000
1709292009.428,-28.320,-37.598,-38.574,-33.203,0.000
1709292009.432,-29.297,-36.621,-33.203,-25.391,0.000
1709292009.436,-40.039,-34.180,-33.203,-31.738,0.000
1709292009.440,-42.480,-35.156,-39.551,-36.133,0.000
1709292009.444,-33.691,-42.480,-42.480,-27.344,0.000
1709292009.448,-24.414,-42.480,-38.574,-25.879,0.000
1709292009.452,-31.250,-43.457,-34.180,-41.504,0.000
1709292009.455,-39.062,-42.480,-28.809,-44.434,0.000
1709292009.459,-32.715,-37.109,-27.832,-32.227,0.000
1709292009.463,-30.762,-41.504,-30.273,-31.250,0.000
1709292009.467,-37.109,-39.551,-32.715,-34.180,0.000
1709292009.471,-43.457,-41.016,-32.227,-33.203,0.000
1709292009.475,-39.551,-40.527,-26.855,-32.227,0.000
1709292009.479,-41.992,-39.551,-32.227,-34.668,0.000
1709292009.483,-41.016,-40.527,-38.086,-32.227,0.000
1709292009.486,-32.715,-37.109,-36.621,-27.344,0.000
1709292009.490,-34.668,-40.039,-38.086,-34.668,0.000
1709292009.494,-36.133,-40.039,-41.016,-31.250,0.000
1709292009.498,-41.992,-35.645,-39.551,-29.785,0.000
1709292009.502,-41.992,-35.645,-37.109,-33.691,0.000
1709292009.506,-33.203,-40.039,-35.645,-23.438,0.000
1709292009.510,-34.668,-37.598,-32.227,-29.297,0.000
1709292009.514,-41.016,-32.715,-28.809,-39.551,0.000
1709292009.518,-36.621,-30.762,-32.227,-32.715,0.000
1709292009.522,-31.738,-32.227,-37.598,-30.273,0.000
1709292009.525,-22.949,-34.180,-35.156,-31.250,0.000
1709292009.529,-25.391,-33.203,-31.738,-30.273,0.000
1709292009.533,-33.691,-36.621,-38.574,-31.250,0.000
1709292009.537,-37.598,-35.645,-41.992,-32.227,0.000
1709292009.541,-35.645,-33.203,-38.086,-23.438,0.000
1709292009.545,-29.297,-35.645,-37.598,-23.438,0.000
1709292009.549,-30.273,-36.133,-35.156,-24.902,0.000
1709292009.552,-35.156,-34.668,-35.645,-19.531,0.000
1709292009.556,-43.457,-37.109,-38.086,-35.645,0.000
1709292009.560,-37.598,-36.133,-36.621,-34.668,0.000
1709292009.564,-28.809,-36.133,-34.180,-25.879,0.000
1709292009.568,-30.273,-33.203,-34.180,-29.297,0.000
1709292009.571,-38.086,-27.344,-36.133,-36.133,0.000
1709292009.575,-43.457,-30.273,-34.668,-39.062,0.000
1709292009.579,-40.039,-29.785,-31.738,-33.691,0.000
1709292009.583,-39.551,-33.203,-33.691,-36.133,0.000
1709292009.587,-43.457,-39.062,-34.668,-36.133,0.000
1709292009.591,-47.363,-39.062,-34.668,-41.016,0.000
1709292009.595,-48.828,-39.062,-36.133,-37.109,0.000
1709292009.599,-46.387,-38.574,-39.551,-35.156,0.000
1709292009.603,-40.527,-34.668,-38.574,-38.574,0.000
1709292009.607,-41.504,-38.086,-39.062,-38.086,0.000
1709292009.610,-39.062,-37.109,-38.086,-40.527,0.000
1709292009.614,-40.039,-30.762,-29.785,-34.180,0.000
1709292009.618,-41.504,-29.297,-30.273,-32.227,0.000
1709292009.622,-32.715,-30.762,-31.250,-35.645,0.000
1709292009.626,-34.180,-35.156,-30.762,-39.062,0.000
1709292009.629,-36.133,-37.109,-34.180,-38.086,0.000
1709292009.633,-38.086,-39.551,-40.039,-41.016,0.000
1709292009.637,-43.945,-36.133,-39.062,-39.551,0.000
1709292009.641,-41.016,-31.738,-36.133,-34.180,0.000
1709292009.645,-31.738,-34.180,-40.527,-36.621,0.000
1709292009.649,-21.484,-30.273,-37.598,-35.156,0.000
1709292009.653,-27.832,-28.320,-34.180,-34.180,0.000
1709292009.657,-39.551,-35.156,-34.180,-33.691,0.000
1709292009.661,-40.039,-35.645,-31.250,-36.133,0.000
1709292009.665,-35.645,-33.203,-30.762,-38.574,0.000
1709292009.669,-30.762,-32.715,-32.715,-32.715,0.000
1709292009.673,-34.668,-33.691,-30.273,-28.809,0.000
1709292009.677,-41.992,-35.645,-31.738,-30.762,0.000
1709292009.681,-42.480,-32.715,-35.156,-39.062,0.000
1709292009.685,-38.574,-35.156,-32.227,-33.203,0.000
1709292009.689,-32.715,-31.738,-30.273,-27.832,0.000
1709292009.693,-30.762,-28.320,-30.762,-45.410,0.000
1709292009.697,-35.645,-35.156,-31.250,-43.945,0.000
1709292009.701,-42.480,-38.086,-33.203,-31.738,0.000
1709292009.704,-38.086,-41.016,-35.645,-38.086,0.000
1709292009.708,-31.250,-41.992,-36.133,-41.504,0.000
1709292009.713,-38.574,-44.922,-33.203,-39.551,0.000
1709292009.717,-41.016,-42.969,-33.203,-35.645,0.000
1709292009.721,-36.621,-39.551,-35.156,-36.621,0.000
1709292009.725,-28.809,-36.133,-29.785,-28.809,0.000
1709292009.728,-25.879,-36.133,-34.180,-23.438,0.000
1709292009.732,-36.621,-47.363,-40.527,-36.133,0.000
1709292009.736,-41.016,-46.387,-34.668,-37.109,0.000
1709292009.740,-47.363,-42.969,-37.109,-34.668,0.000
1709292009.744,-41.016,-45.410,-42.480,-24.414,0.000
1709292009.748,-26.855,-39.062,-38.086,-10.742,0.000
1709292009.752,-35.645,-35.645,-40.039,-22.461,0.000
1709292009.756,-45.410,-35.156,-34.668,-22.461,0.000
1709292009.760,-36.621,-38.086,-29.297,-21.973,0.000
1709292009.764,-28.809,-42.969,-33.203,-22.461,0.000
1709292009.768,-32.715,-43.945,-33.691,-23.926,0.000
1709292009.772,-30.762,-47.363,-38.574,-27.832,0.000
1709292009.775,-28.320,-44.922,-37.598,-25.391,0.000
1709292009.779,-33.691,-42.480,-36.133,-29.785,0.000
1709292009.783,-40.527,-45.410,-39.551,-36.133,0.000
1709292009.787,-35.156,-42.969,-35.645,-33.691,0.000
1709292009.791,-34.180,-44.434,-33.691,-29.297,0.000
1709292009.795,-39.062,-46.387,-35.645,-35.645,0.000
1709292009.799,-34.668,-49.805,-34.668,-31.250,0.000
1709292009.803,-34.180,-51.270,-33.691,-25.391,0.000
1709292009.807,-27.344,-45.898,-30.273,-24.902,0.000
1709292009.811,-25.879,-41.016,-28.320,-28.320,0.000
1709292009.815,-33.203,-35.645,-31.250,-30.762,0.000
1709292009.818,-23.926,-31.250,-33.691,-25.879,0.000
1709292009.822,-25.879,-31.738,-32.227,-22.461,0.000
1709292009.826,-29.785,-33.203,-33.691,-23.438,0.000
1709292009.830,-19.043,-31.738,-34.668,-22.461,0.000
1709292009.834,-25.391,-38.086,-33.203,-20.996,0.000
1709292009.838,-33.691,-35.645,-32.715,-17.090,0.000
1709292009.842,-30.273,-31.738,-39.551,-20.020,0.000
1709292009.846,-27.832,-33.203,-44.434,-24.902,0.000
1709292009.850,-36.133,-33.203,-45.410,-29.297,0.000
1709292009.853,-36.621,-35.156,-47.852,-34.180,0.000
1709292009.857,-34.180,-32.227,-41.992,-35.645,0.000
1709292009.861,-30.273,-27.344,-34.668,-31.250,0.000
1709292009.865,-20.996,-26.855,-31.738,-23.438,0.000
1709292009.869,-28.809,-29.785,-36.621,-26.855,0.000
1709292009.873,-31.738,-29.297,-37.109,-37.109,0.000
1709292009.877,-32.227,-29.297,-33.691,-41.016,0.000
1709292009.881,-33.203,-31.250,-37.598,-27.344,0.000
1709292009.885,-28.320,-34.180,-34.668,-26.367,0.000
1709292009.889,-31.738,-36.621,-31.738,-36.133,0.000
1709292009.893,-31.738,-40.527,-31.738,-32.227,0.000
1709292009.896,-30.762,-40.039,-30.762,-30.762,0.000
1709292009.900,-31.738,-37.598,-33.691,-28.809,0.000
1709292009.904,-29.785,-39.062,-35.156,-27.832,0.000
1709292009.908,-33.203,-41.504,-34.668,-27.832,0.000
1709292009.912,-35.645,-51.758,-34.180,-29.297,0.000
1709292009.916,-37.109,-50.293,-34.668,-34.180,0.000
1709292009.920,-41.016,-43.457,-36.621,-31.738,0.000
1709292009.923,-39.551,-46.875,-37.109,-24.902,0.000
1709292009.927,-28.320,-41.016,-34.668,-17.090,0.000
1709292009.931,-25.391,-32.715,-30.762,-25.391,0.000
1709292009.935,-35.645,-31.250,-29.785,-26.367,0.000
1709292009.939,-34.668,-31.250,-32.715,-19.531,0.000
1709292009.943,-20.020,-30.762,-30.762,-23.438,0.000
1709292009.946,-20.996,-32.227,-31.250,-29.297,0.000
1709292009.950,-35.645,-36.133,-32.227,-30.762,0.000
1709292009.954,-47.852,-35.645,-34.180,-24.414,0.000
1709292009.958,-47.363,-38.574,-37.598,-25.391,0.000
1709292009.962,-42.969,-45.410,-33.203,-26.855,0.000
1709292009.966,-36.133,-49.805,-36.621,-22.461,0.000
1709292009.970,-29.297,-43.945,-33.203,-18.066,0.000
1709292009.974,-34.180,-37.598,-32.227,-25.879,0.000
1709292009.978,-41.992,-39.551,-32.715,-36.133,0.000
1709292009.981,-44.922,-44.922,-31.250,-35.645,0.000
1709292009.985,-37.598,-44.434,-38.086,-35.645,0.000
1709292009.989,-30.273,-40.527,-35.645,-39.551,0.000
1709292009.993,-37.109,-41.504,-32.715,-41.504,0.000
1709292009.996,-30.762,-43.457,-30.273,-37.598,0.000
1709292010.000,-20.996,-39.062,-30.762,-31.738,0.000
1709292010.004,-22.461,-37.598,-28.809,-19.531,0.000
1709292010.008,-20.996,-36.621,-28.809,-25.879,0.000
1709292010.012,-18.066,-30.762,-28.320,-24.902,0.000
1709292010.016,-22.461,-26.367,-28.320,-16.113,0.000
1709292010.020,-32.715,-27.832,-31.250,-22.949,0.000
1709292010.024,-35.645,-33.203,-28.320,-22.949,0.000
1709292010.028,-34.668,-37.598,-27.832,-19.531,0.000
1709292010.032,-33.203,-35.156,-29.785,-24.414,0.000
1709292010.035,-42.480,-33.691,-32.227,-30.273,0.000
1709292010.040,-48.828,-40.039,-39.062,-23.438,0.000
1709292010.044,-40.527,-48.340,-41.016,-21.484,0.000
1709292010.048,-38.574,-49.316,-36.621,-27.344,0.000
1709292010.052,-42.969,-44.434,-41.992,-29.785,0.000
1709292010.056,-49.316,-46.387,-41.992,-31.250,0.000
1709292010.060,-47.852,-46.387,-39.062,-39.062,0.000
1709292010.064,-35.156,-40.039,-38.574,-35.156,0.000
1709292010.068,-37.109,-38.086,-37.109,-35.156,0.000
1709292010.071,-42.480,-42.480,-35.645,-37.598,0.000
1709292010.075,-42.969,-45.898,-34.668,-33.691,0.000
1709292010.079,-41.992,-42.969,-37.109,-34.180,0.000
1709292010.083,-33.203,-44.434,-31.738,-35.156,0.000
1709292010.088,-26.855,-41.992,-33.203,-32.715,0.000
1709292010.092,-30.273,-36.621,-41.504,-22.949,0.000
1709292010.095,-39.551,-38.574,-40.527,-24.902,0.000
1709292010.099,-36.621,-34.180,-38.574,-33.203,0.000
1709292010.103,-31.738,-29.785,-35.156,-31.250,0.000
1709292010.107,-33.203,-37.598,-34.180,-33.203,0.000
1709292010.111,-35.156,-38.574,-32.715,-37.109,0.000
1709292010.115,-40.039,-36.133,-30.762,-35.156,0.000
1709292010.119,-39.551,-37.598,-33.203,-33.691,0.000
1709292010.123,-38.574,-35.645,-32.227,-22.461,0.000
1709292010.127,-37.109,-31.250,-33.203,-20.996,0.000
1709292010.131,-33.691,-33.691,-36.621,-34.180,0.000
1709292010.135,-44.922,-37.598,-35.156,-37.598,0.000
1709292010.139,-61.523,-42.480,-36.133,-42.480,0.000
1709292010.143,-66.895,-43.457,-37.598,-46.387,0.000
1709292010.146,-62.012,-39.062,-35.156,-36.133,0.000
1709292010.150,-60.547,-43.945,-35.156,-35.645,0.000
1709292010.154,-68.848,-40.527,-37.598,-41.992,0.000
1709292010.158,-70.312,-35.156,-39.062,-42.969,0.000
1709292010.162,-67.871,-39.062,-38.574,-45.898,0.000
1709292010.166,-63.965,-42.480,-38.574,-38.574,0.000
1709292010.170,-59.082,-37.598,-39.062,-35.645,0.000
1709292010.174,-62.988,-35.156,-34.668,-39.062,0.000
1709292010.178,-66.895,-35.156,-30.273,-35.645,0.000
1709292010.182,-60.547,-37.109,-35.645,-36.621,0.000
1709292010.186,-53.223,-39.551,-40.527,-33.691,0.000
1709292010.189,-61.035,-39.551,-38.574,-29.297,0.000
1709292010.193,-68.359,-41.504,-35.156,-26.367,0.000
1709292010.197,-72.754,-44.434,-35.645,-27.344,0.000
1709292010.201,-69.336,-43.457,-33.203,-27.344,0.000
1709292010.205,-65.430,-39.062,-33.203,-28.320,0.000
1709292010.209,-72.754,-40.039,-35.156,-30.273,0.000
1709292010.213,-76.660,-41.016,-36.621,-29.297,0.000
1709292010.217,-74.219,-34.668,-39.062,-31.738,0.000
1709292010.221,-73.730,-38.086,-41.992,-33.203,0.000
1709292010.225,-68.359,-40.039,-39.062,-31.738,0.000
1709292010.228,-63.477,-38.574,-37.109,-24.902,0.000
1709292010.232,-64.941,-43.457,-40.527,-30.273,0.000
1709292010.236,-75.195,-45.410,-37.598,-37.109,0.000
1709292010.240,-78.613,-41.992,-37.109,-40.527,0.000
1709292010.244,-62.012,-42.969,-44.434,-40.039,0.000
1709292010.248,-52.734,-46.387,-44.434,-30.273,0.000
1709292010.252,-60.059,-45.898,-38.574,-34.180,0.000
1709292010.256,-63.965,-40.039,-34.180,-27.832,0.000
1709292010.260,-69.824,-35.156,-34.668,-23.438,0.000
1709292010.263,-61.523,-37.598,-33.691,-38.574,0.000
1709292010.267,-54.199,-38.574,-35.645,-46.387,0.000
1709292010.271,-65.430,-41.504,-44.434,-42.480,0.000
1709292010.275,-71.777,-44.922,-43.945,-42.480,0.000
1709292010.279,-71.777,-44.922,-41.016,-41.504,0.000
1709292010.283,-62.500,-41.504,-38.086,-28.320,0.000
1709292010.287,-56.152,-43.457,-38.574,-32.227,0.000
1709292010.290,-48.828,-44.434,-39.062,-39.062,0.000
1709292010.294,-62.500,-40.527,-39.551,-42.480,0.000
1709292010.298,-72.754,-44.922,-37.598,-37.598,0.000
1709292010.302,-67.871,-45.410,-32.227,-23.926,0.000
1709292010.306,-61.523,-35.645,-29.785,-26.855,0.000
1709292010.310,-62.988,-37.598,-33.691,-31.250,0.000
1709292010.314,-72.266,-42.480,-39.062,-29.785,0.000
1709292010.318,-74.219,-44.922,-43.945,-30.762,0.000
1709292010.321,-71.289,-48.828,-46.875,-29.785,0.000
1709292010.325,-57.617,-42.969,-44.922,-31.738,0.000
1709292010.329,-56.152,-39.062,-43.457,-41.504,0.000
1709292010.333,-61.523,-42.480,-39.551,-46.387,0.000
1709292010.337,-62.500,-43.457,-37.598,-44.922,0.000
1709292010.341,-60.059,-42.969,-39.062,-43.945,0.000
1709292010.345,-57.617,-41.504,-38.086,-31.738,0.000
1709292010.348,-60.547,-39.551,-39.551,-23.438,0.000
1709292010.352,-62.012,-42.480,-42.480,-36.133,0.000
1709292010.356,-61.035,-43.457,-40.527,-35.156,0.000
1709292010.360,-59.570,-40.527,-36.133,-31.738,0.000
1709292010.364,-62.500,-40.527,-37.109,-37.109,0.000
1709292010.367,-63.477,-40.527,-34.668,-38.086,0.000
1709292010.371,-60.547,-37.109,-27.344,-35.645,0.000
1709292010.375,-63.477,-38.574,-26.855,-31.738,0.000
1709292010.379,-62.988,-39.551,-29.785,-27.344,0.000
1709292010.383,-54.688,-41.504,-29.785,-23.926,0.000
1709292010.387,-56.641,-48.828,-29.297,-29.785,0.000
1709292010.391,-57.129,-45.898,-33.203,-24.414,0.000
1709292010.395,-53.223,-41.016,-33.691,-23.926,0.000
1709292010.399,-64.453,-42.969,-33.203,-35.645,0.000
1709292010.402,-59.082,-41.504,-29.785,-31.250,0.000
1709292010.406,-43.457,-36.621,-30.762,-22.461,0.000
1709292010.410,-50.293,-37.109,-31.738,-28.320,0.000
1709292010.415,-53.223,-42.969,-29.297,-31.738,0.000
1709292010.419,-48.828,-43.457,-31.738,-25.879,0.000
1709292010.423,-46.387,-44.922,-32.715,-22.461,0.000
1709292010.427,-39.551,-40.527,-31.738,-21.484,0.000
1709292010.431,-44.434,-36.621,-30.273,-20.020,0.000
1709292010.435,-53.223,-40.039,-28.320,-15.137,0.000
1709292010.439,-52.246,-41.992,-27.832,-16.602,0.000
1709292010.443,-48.340,-43.945,-30.762,-22.949,0.000
1709292010.447,-44.922,-44.434,-35.156,-24.414,0.000
1709292010.451,-43.457,-48.340,-39.551,-27.832,0.000
1709292010.454,-49.805,-46.387,-45.898,-31.738,0.000
1709292010.458,-62.012,-43.457,-42.480,-31.738,0.000
1709292010.463,-66.895,-48.340,-41.504,-34.180,0.000
1709292010.467,-62.012,-47.363,-40.527,-34.180,0.000
1709292010.471,-55.664,-42.969,-39.062,-34.180,0.000
1709292010.475,-67.383,-50.293,-41.016,-41.504,0.000
1709292010.478,-72.754,-50.781,-38.574,-38.574,0.000
1709292010.482,-63.477,-44.922,-34.668,-24.902,0.000
1709292010.486,-58.105,-44.922,-35.645,-28.320,0.000
1709292010.490,-57.129,-44.434,-37.109,-41.016,0.000
1709292010.494,-62.012,-47.852,-34.668,-36.133,0.000
1709292010.498,-65.918,-41.992,-34.180,-35.156,0.000
1709292010.502,-66.895,-38.086,-41.992,-45.898,0.000
1709292010.506,-60.547,-40.527,-47.852,-41.016,0.000
1709292010.510,-56.641,-41.016,-47.363,-41.504,0.000
1709292010.514,-63.477,-42.969,-43.457,-43.457,0.000
1709292010.518,-71.289,-42.480,-44.434,-41.992,0.000
1709292010.522,-66.895,-48.340,-41.992,-37.109,0.000
1709292010.526,-66.406,-50.293,-38.574,-35.156,0.000
1709292010.529,-61.523,-48.828,-38.086,-36.621,0.000
1709292010.533,-67.871,-48.828,-41.992,-35.156,0.000
1709292010.537,-74.707,-48.828,-47.363,-39.551,0.000
1709292010.541,-65.918,-49.805,-47.363,-30.273,0.000
1709292010.545,-62.500,-47.363,-47.852,-24.902,0.000
1709292010.549,-59.082,-47.363,-47.852,-32.715,0.000
1709292010.553,-60.547,-47.852,-48.340,-35.645,0.000
1709292010.557,-63.965,-42.480,-44.922,-34.180,0.000
1709292010.561,-69.336,-35.156,-40.527,-33.203,0.000
1709292010.565,-55.664,-35.156,-39.551,-37.598,0.000
1709292010.569,-56.152,-38.574,-42.969,-43.945,0.000
1709292010.572,-69.824,-36.621,-42.969,-46.387,0.000
1709292010.576,-72.266,-34.668,-36.621,-44.434,0.000
1709292010.580,-72.754,-35.156,-37.109,-45.410,0.000
1709292010.584,-68.848,-41.504,-38.086,-37.598,0.000
1709292010.588,-62.988,-47.363,-40.039,-27.344,0.000
1709292010.592,-65.430,-43.945,-44.922,-41.504,0.000
1709292010.596,-72.266,-41.504,-41.504,-44.922,0.000
1709292010.600,-72.266,-46.387,-41.016,-35.645,0.000
1709292010.604,-64.453,-49.805,-41.016,-36.133,0.000
1709292010.607,-65.430,-54.688,-38.574,-36.621,0.000
1709292010.611,-72.754,-54.688,-41.504,-34.668,0.000
1709292010.615,-76.660,-51.270,-44.434,-41.016,0.000
1709292010.619,-74.219,-52.734,-41.504,-44.922,0.000
1709292010.623,-64.941,-46.875,-38.086,-40.527,0.000
1709292010.627,-62.500,-41.992,-44.434,-41.016,0.000
1709292010.631,-64.941,-41.016,-42.969,-45.898,0.000
1709292010.635,-65.430,-40.527,-38.086,-48.340,0.000
1709292010.639,-67.383,-39.551,-41.016,-43.457,0.000
1709292010.643,-64.941,-37.109,-39.062,-41.504,0.000
1709292010.646,-67.871,-38.574,-37.598,-47.852,0.000
1709292010.650,-70.801,-42.969,-39.062,-52.734,0.000
1709292010.654,-68.359,-39.062,-44.434,-46.875,0.000
1709292010.658,-73.242,-39.062,-46.387,-44.922,0.000
1709292010.662,-75.684,-42.480,-45.410,-47.363,0.000
1709292010.666,-64.941,-40.527,-46.875,-44.922,0.000
1709292010.669,-54.688,-38.086,-39.551,-34.668,0.000
1709292010.673,-61.523,-39.551,-36.133,-27.344,0.000
1709292010.677,-67.871,-44.434,-44.434,-29.785,0.000
1709292010.681,-64.941,-42.480,-47.363,-35.645,0.000
1709292010.685,-68.359,-37.598,-44.922,-42.480,0.000
1709292010.689,-69.336,-37.598,-44.434,-41.016,0.000
1709292010.693,-62.988,-40.039,-41.992,-38.574,0.000
1709292010.696,-62.500,-41.992,-39.062,-44.434,0.000
1709292010.700,-62.988,-41.016,-41.992,-36.133,0.000
1709292010.704,-50.781,-34.668,-39.062,-24.414,0.000
1709292010.708,-47.363,-33.691,-33.203,-26.855,0.000
1709292010.712,-54.688,-39.551,-34.180,-36.133,0.000
1709292010.716,-61.523,-42.480,-31.738,-39.062,0.000
1709292010.720,-60.059,-41.504,-31.738,-29.785,0.000
1709292010.724,-57.617,-41.016,-38.086,-29.297,0.000
1709292010.728,-56.152,-38.574,-38.574,-37.598,0.000
1709292010.731,-52.246,-40.039,-38.086,-43.945,0.000
1709292010.735,-57.129,-42.480,-38.086,-42.969,0.000
1709292010.739,-68.848,-43.457,-39.551,-45.410,0.000
1709292010.742,-66.406,-41.992,-38.574,-47.363,0.000
1709292010.746,-54.688,-39.551,-36.133,-36.621,0.000
1709292010.750,-53.711,-40.527,-36.133,-33.691,0.000
1709292010.754,-64.941,-41.504,-35.645,-36.133,0.000
1709292010.758,-61.523,-36.621,-31.250,-33.203,0.000
1709292010.762,-54.688,-34.668,-27.832,-22.461,0.000
1709292010.766,-50.781,-34.668,-32.715,-19.043,0.000
1709292010.770,-54.688,-37.109,-39.551,-30.273,0.000
1709292010.774,-64.941,-39.551,-33.203,-36.621,0.000
1709292010.778,-61.523,-36.133,-28.320,-31.738,0.000
1709292010.781,-56.641,-33.203,-36.133,-28.320,0.000
1709292010.785,-46.387,-33.691,-36.621,-25.391,0.000
1709292010.790,-48.828,-41.504,-37.598,-27.832,0.000
1709292010.794,-60.547,-42.969,-39.062,-34.180,0.000
1709292010.798,-66.406,-45.410,-38.086,-37.109,0.000
1709292010.802,-71.289,-48.828,-36.621,-41.016,0.000
1709292010.806,-71.777,-50.293,-36.133,-41.504,0.000
1709292010.810,-64.941,-52.246,-35.645,-40.527,0.000
1709292010.814,-63.477,-47.363,-33.691,-38.574,0.000
1709292010.817,-69.336,-47.852,-32.715,-42.480,0.000
1709292010.821,-70.312,-50.293,-34.180,-45.898,0.000
1709292010.825,-69.824,-46.387,-34.180,-38.574,0.000
1709292010.829,-60.059,-36.133,-33.203,-30.762,0.000
1709292010.833,-54.688,-34.668,-32.715,-31.738,0.000
1709292010.838,-62.500,-44.434,-34.180,-35.156,0.000
1709292010.841,-55.664,-54.688,-40.527,-36.133,0.000
1709292010.845,-46.875,-51.758,-41.504,-36.133,0.000
1709292010.849,-53.711,-47.363,-41.992,-36.133,0.000
1709292010.853,-58.105,-47.363,-43.457,-35.156,0.000
1709292010.857,-59.082,-47.363,-40.527,-27.832,0.000
1709292010.861,-59.082,-46.387,-40.527,-27.832,0.000
1709292010.865,-51.270,-44.922,-45.898,-32.715,0.000
1709292010.869,-47.852,-48.340,-41.016,-22.461,0.000
1709292010.873,-50.781,-47.363,-35.156,-20.020,0.000
1709292010.877,-57.129,-40.527,-37.598,-28.809,0.000
1709292010.881,-51.758,-37.109,-35.645,-27.832,0.000
1709292010.885,-41.992,-36.133,-32.227,-20.996,0.000
1709292010.889,-46.875,-37.109,-33.203,-24.414,0.000
1709292010.893,-54.199,-38.574,-38.086,-40.039,0.000
1709292010.896,-54.688,-36.621,-41.016,-41.504,0.000
1709292010.900,-51.758,-36.621,-36.621,-33.691,0.000
1709292010.904,-57.617,-42.480,-34.668,-36.621,0.000
1709292010.908,-54.688,-41.504,-35.645,-36.621,0.000
1709292010.912,-53.711,-37.598,-34.180,-29.297,0.000
1709292010.916,-60.547,-41.992,-34.668,-17.578,0.000
1709292010.920,-54.199,-42.480,-32.227,-20.508,0.000
1709292010.924,-53.223,-39.062,-32.227,-31.250,0.000
1709292010.928,-56.152,-43.945,-33.203,-25.879,0.000
1709292010.932,-44.922,-42.969,-32.227,-27.832,0.000
1709292010.936,-52.246,-44.922,-36.133,-37.109,0.000
1709292010.940,-60.547,-49.316,-40.039,-32.715,0.000
1709292010.943,-47.363,-43.457,-38.086,-26.855,0.000
1709292010.947,-38.086,-42.969,-39.062,-30.273,0.000
1709292010.951,-41.992,-42.480,-41.504,-38.574,0.000
1709292010.955,-48.340,-42.480,-38.086,-41.992,0.000
1709292010.959,-53.223,-46.387,-36.621,-32.715,0.000
1709292010.963,-53.711,-42.969,-33.691,-33.691,0.000
1709292010.967,-50.781,-42.969,-34.668,-48.340,0.000
1709292010.971,-48.340,-44.922,-38.086,-41.504,0.000
1709292010.975,-57.617,-42.480,-37.109,-33.691,0.000
1709292010.978,-57.617,-43.457,-36.621,-40.039,0.000
1709292010.982,-57.129,-39.551,-34.180,-40.039,0.000
1709292010.986,-61.035,-41.992,-35.645,-38.574,0.000
1709292010.990,-50.293,-50.293,-43.457,-42.969,0.000
1709292010.994,-48.828,-47.852,-42.969,-44.922,0.000
1709292010.998,-60.547,-48.340,-42.969,-41.504,0.000
1709292011.002,-61.035,-46.875,-43.457,-38.574,0.000
1709292011.006,-44.922,-41.992,-44.922,-32.715,0.000
1709292011.010,-36.621,-42.969,-46.875,-33.691,0.000
1709292011.014,-44.922,-39.062,-39.551,-39.551,0.000
1709292011.017,-57.129,-37.109,-35.645,-31.738,0.000
1709292011.021,-56.152,-40.527,-35.645,-30.273,0.000
1709292011.025,-49.805,-38.086,-35.156,-30.273,0.000
1709292011.029,-43.945,-38.574,-36.133,-33.203,0.000
1709292011.033,-39.551,-43.945,-33.691,-35.645,0.000
1709292011.037,-45.898,-41.016,-38.086,-34.668,0.000
1709292011.040,-59.570,-41.504,-41.016,-37.109,0.000
1709292011.044,-47.852,-41.504,-40.527,-37.109,0.000
1709292011.048,-41.016,-41.016,-38.574,-33.691,0.000
1709292011.052,-53.711,-40.527,-33.691,-28.320,0.000
1709292011.056,-57.129,-37.598,-33.691,-31.250,0.000
1709292011.060,-48.340,-36.133,-35.645,-31.250,0.000
1709292011.064,-44.434,-38.086,-34.668,-25.391,0.000
1709292011.068,-47.363,-41.992,-36.621,-31.738,0.000
1709292011.071,-43.457,-41.016,-39.551,-38.086,0.000
1709292011.075,-41.992,-40.527,-33.691,-37.109,0.000
1709292011.079,-43.945,-42.480,-29.297,-28.809,0.000
1709292011.083,-53.711,-44.434,-36.621,-21.973,0.000
1709292011.087,-51.758,-42.969,-40.527,-31.250,0.000
1709292011.091,-41.992,-44.434,-41.504,-39.062,0.000
1709292011.095,-49.316,-44.434,-46.875,-27.832,0.000
1709292011.098,-51.270,-46.387,-41.016,-20.996,0.000
1709292011.102,-27.832,-51.270,-31.250,-15.137,0.000
1709292011.106,-7.324,-44.434,-38.086,-2.930,0.000
1709292011.110,-34.180,-36.133,-41.992,-25.879,0.000
1709292011.114,-54.688,-30.762,-40.527,-45.410,0.000
1709292011.117,-48.340,-31.738,-42.969,-38.086,0.000
1709292011.121,-55.664,-39.551,-37.109,-43.457,0.000
1709292011.125,-58.105,-37.598,-35.645,-45.898,0.000
1709292011.129,-52.734,-32.715,-39.551,-45.410,0.000
1709292011.133,-55.176,-38.574,-38.086,-48.340,0.000
1709292011.137,-44.922,-40.039,-31.738,-33.203,0.000
1709292011.141,-42.480,-34.180,-30.762,-28.320,0.000
1709292011.145,-49.805,-36.133,-32.227,-38.574,0.000
1709292011.148,-48.828,-38.574,-30.273,-36.133,0.000
1709292011.152,-53.711,-42.969,-30.762,-25.391,0.000
1709292011.156,-62.012,-39.551,-31.250,-30.273,0.000
1709292011.160,-54.688,-32.227,-33.203,-44.922,0.000
1709292011.165,-46.875,-34.668,-34.668,-39.062,0.000
1709292011.169,-55.664,-32.227,-34.668,-41.016,0.000
1709292011.173,-58.594,-30.273,-38.574,-47.363,0.000
1709292011.177,-53.711,-31.738,-39.062,-42.480,0.000
1709292011.181,-54.688,-38.086,-39.551,-41.504,0.000
1709292011.185,-45.410,-35.645,-37.109,-36.621,0.000
1709292011.188,-37.598,-29.297,-30.762,-32.715,0.000
1709292011.192,-39.062,-29.785,-31.738,-33.203,0.000
1709292011.196,-38.086,-31.738,-31.250,-26.855,0.000
1709292011.200,-39.551,-31.250,-31.250,-22.949,0.000
1709292011.204,-44.434,-25.879,-34.180,-23.926,0.000
1709292011.208,-46.387,-31.738,-33.691,-23.438,0.000
1709292011.212,-49.316,-41.016,-34.180,-30.273,0.000
1709292011.216,-51.758,-37.109,-35.156,-34.668,0.000
1709292011.220,-57.129,-32.715,-38.574,-26.367,0.000
1709292011.224,-56.152,-38.574,-39.551,-30.762,0.000
1709292011.228,-49.316,-44.922,-35.645,-35.156,0.000
1709292011.232,-50.781,-46.875,-31.250,-37.109,0.000
1709292011.236,-49.805,-41.504,-27.832,-36.621,0.000
1709292011.240,-44.922,-40.039,-25.391,-25.879,0.000
1709292011.244,-40.039,-41.992,-28.809,-22.949,0.000
1709292011.248,-45.410,-38.574,-32.715,-23.438,0.000
1709292011.252,-50.293,-37.598,-32.715,-38.086,0.000
1709292011.255,-53.223,-42.969,-33.691,-41.992,0.000
1709292011.260,-58.105,-44.434,-34.668,-36.621,0.000
1709292011.263,-50.781,-42.969,-38.574,-37.109,0.000
1709292011.267,-44.434,-41.992,-39.551,-35.645,0.000
1709292011.271,-47.363,-45.898,-38.086,-35.645,0.000
1709292011.275,-49.805,-45.410,-33.691,-31.250,0.000
1709292011.279,-50.293,-40.527,-31.738,-29.297,0.000
1709292011.283,-54.688,-42.480,-33.691,-38.574,0.000
1709292011.287,-47.363,-42.480,-30.762,-39.062,0.000
1709292011.291,-42.969,-40.527,-27.832,-28.320,0.000
1709292011.295,-49.805,-37.598,-32.227,-30.762,0.000
1709292011.299,-51.758,-31.738,-35.156,-35.156,0.000
1709292011.303,-41.016,-29.785,-35.156,-30.273,0.000
1709292011.306,-36.133,-31.738,-39.062,-31.738,0.000
1709292011.310,-45.898,-34.668,-41.992,-35.645,0.000
1709292011.314,-44.922,-34.668,-37.109,-29.297,0.000
1709292011.318,-45.898,-33.203,-33.691,-24.902,0.000
1709292011.322,-42.969,-35.645,-36.621,-29.785,0.000
1709292011.326,-41.016,-38.086,-39.551,-31.250,0.000
1709292011.330,-43.945,-41.016,-42.969,-31.738,0.000
1709292011.334,-45.898,-43.945,-43.945,-32.227,0.000
1709292011.338,-45.410,-42.969,-37.598,-30.273,0.000
1709292011.342,-42.969,-36.621,-36.133,-37.598,0.000
1709292011.346,-41.504,-36.133,-38.086,-34.180,0.000
1709292011.349,-41.992,-35.645,-38.086,-31.738,0.000
1709292011.353,0.000,-34.668,-38.574,-41.992,0.000
1709292011.357,0.000,-40.039,-41.016,-50.781,0.000
1709292011.361,0.000,-44.922,-44.434,-44.922,0.000
1709292011.365,0.000,-43.945,-39.551,-45.898,0.000
1709292011.369,0.000,-39.551,-37.598,-43.945,0.000
1709292011.373,0.000,-34.668,-40.039,-38.574,0.000
1709292011.377,0.000,-33.691,-36.133,-39.062,0.000
1709292011.380,0.000,-35.645,-36.621,-33.691,0.000
1709292011.384,0.000,-40.039,-37.109,-33.691,0.000
1709292011.388,0.000,-46.387,-37.598,-38.086,0.000
1709292011.392,0.000,-44.434,-36.621,-41.992,0.000
1709292011.396,0.000,-42.969,-35.156,-50.781,0.000
1709292011.400,-53.711,-39.551,-34.668,-56.641,0.000
1709292011.403,-51.270,-35.156,-35.156,-52.734,0.000
1709292011.407,-42.969,-37.598,-41.992,-44.922,0.000
1709292011.411,-44.434,-37.598,-38.086,-48.340,0.000
1709292011.415,-55.176,-38.086,-34.668,-44.922,0.000
1709292011.419,-58.105,-43.457,-37.109,-41.016,0.000
1709292011.423,-51.758,-44.434,-36.133,-38.574,0.000
1709292011.427,-46.387,-47.363,-36.133,-31.738,0.000
1709292011.431,-51.270,-50.781,-36.133,-41.016,0.000
1709292011.435,-53.711,-47.363,-34.180,-49.316,0.000
1709292011.439,-54.688,-45.898,-33.691,-41.992,0.000
1709292011.443,-53.711,-46.875,-32.227,-35.156,0.000
1709292011.446,-41.016,-44.434,-32.715,-28.809,0.000
1709292011.450,-38.086,-41.992,-33.691,-33.691,0.000
1709292011.454,-43.457,-41.504,-32.227,-43.457,0.000
1709292011.458,-43.457,-39.062,-32.227,-40.527,0.000
1709292011.462,-50.293,-39.062,-35.645,-37.109,0.000
1709292011.465,-41.992,-36.621,-30.273,-30.762,0.000
1709292011.469,-37.109,-36.133,-31.250,-25.391,0.000
1709292011.473,-45.898,-38.086,-32.715,-31.250,0.000
1709292011.477,-47.363,-36.133,-31.738,-30.273,0.000
1709292011.481,-50.293,-35.156,-34.180,-20.996,0.000
1709292011.485,-46.875,-38.574,-32.715,-15.625,0.000
1709292011.489,-43.457,-39.062,-33.203,-22.461,0.000
1709292011.494,-47.852,-42.480,-38.086,-30.273,0.000
1709292011.498,-51.270,-47.363,-41.504,-27.832,0.000
1709292011.501,-45.410,-48.340,-41.504,-27.832,0.000
1709292011.505,-44.434,-45.410,-41.504,-27.832,0.000
1709292011.509,-42.480,-39.062,-37.598,-28.320,0.000
1709292011.513,-41.504,-43.945,-41.016,-29.297,0.000
1709292011.517,-50.781,-44.922,-42.480,-21.484,0.000
1709292011.521,-48.828,-43.945,-42.969,-27.832,0.000
1709292011.525,-45.898,-44.434,-43.945,-33.691,0.000
1709292011.529,-45.410,-46.875,-41.992,-28.320,0.000
1709292011.533,-44.434,-49.316,-44.434,-31.738,0.000
1709292011.537,-53.223,-47.852,-48.828,-37.109,0.000
1709292011.541,-53.223,-50.293,-48.340,-30.762,0.000
1709292011.545,-45.898,-48.340,-46.387,-29.297,0.000
1709292011.549,-45.410,-44.922,-42.969,-32.715,0.000
1709292011.553,-43.457,-40.039,-37.598,-29.785,0.000
1709292011.557,-37.598,-38.574,-35.645,-26.855,0.000
1709292011.561,-46.387,-43.945,-38.574,-24.902,0.000
1709292011.565,-48.828,-39.551,-41.016,-21.973,0.000
1709292011.569,-35.645,-34.668,-39.062,-22.461,0.000
1709292011.572,-30.273,-36.621,-40.039,-22.461,0.000
1709292011.576,-41.992,-34.180,-40.039,-22.949,0.000
1709292011.580,-48.828,-31.250,-40.039,-27.832,0.000
1709292011.584,-43.457,-36.621,-41.992,-36.133,0.000
1709292011.588,-47.852,-38.086,-37.109,-38.574,0.000
1709292011.592,-47.852,-34.668,-30.273,-36.133,0.000
1709292011.596,-47.852,-34.668,-33.203,-37.598,0.000
1709292011.600,-51.270,-36.621,-34.180,-40.039,0.000
1709292011.604,-37.109,-39.062,-32.227,-35.645,0.000
1709292011.608,-31.250,-42.480,-33.691,-34.180,0.000
1709292011.612,-37.598,-40.527,-37.598,-31.250,0.000
1709292011.616,-43.457,-39.062,-40.039,-28.320,0.000
1709292011.620,-52.734,-41.016,-37.109,-25.391,0.000
1709292011.624,-46.875,-41.016,-34.668,-14.160,0.000
1709292011.628,-37.109,-33.203,-33.203,-19.043,0.000
1709292011.631,-39.062,-30.762,-33.691,-24.414,0.000
1709292011.637,-35.645,-33.203,-38.086,-21.484,0.000
1709292011.641,-39.062,-32.227,-41.504,-30.273,0.000
1709292011.645,-32.715,-28.320,-38.086,-25.879,0.000
1709292011.649,-29.785,-33.691,-34.180,-20.996,0.000
1709292011.653,-35.645,-34.668,-37.109,-29.297,0.000
1709292011.657,-35.645,-27.832,-37.109,-25.391,0.000
1709292011.661,-42.969,-26.855,-38.086,-24.902,0.000
1709292011.665,-33.203,-29.297,-42.969,-17.578,0.000
1709292011.669,-15.137,-33.203,-37.109,-0.977,0.000
1709292011.673,-25.879,-32.227,-33.691,-8.301,0.000
1709292011.676,-46.387,-33.691,-37.109,-30.762,0.000
1709292011.680,-53.711,-37.109,-35.156,-39.062,0.000
1709292011.684,-51.270,-41.016,-33.691,-30.273,0.000
1709292011.688,-45.898,-43.457,-33.691,-25.879,0.000
1709292011.692,-40.527,-44.922,-34.668,-24.414,0.000
1709292011.696,-45.898,-42.480,-38.574,-23.926,0.000
1709292011.700,-50.781,-36.621,-35.645,-35.156,0.000
1709292011.704,-45.410,-34.668,-31.738,-39.062,0.000
1709292011.707,-43.457,-36.133,-34.668,-37.109,0.000
1709292011.711,-36.133,-39.062,-37.598,-29.785,0.000
1709292011.715,-33.691,-34.668,-37.109,-26.855,0.000
1709292011.719,-38.086,-33.691,-29.785,-29.297,0.000
1709292011.723,-36.133,-32.715,-23.926,-21.973,0.000
1709292011.727,-35.156,-35.156,-30.762,-16.602,0.000
1709292011.730,-39.551,-39.551,-36.133,-20.996,0.000
1709292011.734,-37.109,-39.062,-35.156,-30.762,0.000
1709292011.738,-37.598,-41.504,-35.645,-33.203,0.000
1709292011.742,-42.969,-41.992,-40.527,-36.133,0.000
1709292011.746,-38.086,-41.016,-36.621,-29.785,0.000
1709292011.750,-30.273,-40.527,-30.273,-29.785,0.000
1709292011.754,-38.086,-41.504,-35.156,-41.016,0.000
1709292011.758,-46.875,-39.551,-37.598,-27.832,0.000
1709292011.762,-46.875,-34.668,-34.180,-22.949,0.000
1709292011.766,-41.992,-32.715,-32.227,-34.180,0.000
1709292011.769,-34.180,-36.621,-33.203,-27.832,0.000
1709292011.773,-43.457,-38.086,-36.133,-24.902,0.000
1709292011.777,-40.527,-32.715,-34.668,-29.785,0.000
1709292011.781,-41.016,-36.133,-33.203,-34.668,0.000
1709292011.784,-55.664,-45.898,-32.227,-38.574,0.000
1709292011.788,-41.504,-42.969,-29.785,-29.297,0.000
1709292011.792,-35.156,-41.504,-32.227,-28.809,0.000
1709292011.796,-45.410,-43.945,-34.180,-38.574,0.000
1709292011.800,-40.527,-43.945,-35.156,-34.180,0.000
1709292011.804,-38.574,-43.945,-32.715,-26.367,0.000
1709292011.808,-34.668,-43.457,-31.738,-33.691,0.000
1709292011.812,-29.297,-43.457,-33.203,-31.250,0.000
1709292011.816,-37.598,-44.434,-38.574,-28.320,0.000
1709292011.820,-45.898,-40.039,-37.598,-31.738,0.000
1709292011.823,-47.363,-35.645,-32.227,-29.785,0.000
1709292011.827,-50.781,-39.551,-32.227,-33.203,0.000
1709292011.831,-43.945,-36.621,-34.180,-33.203,0.000
1709292011.834,-44.434,-38.086,-35.645,-33.691,0.000
1709292011.838,-53.223,-38.086,-33.203,-33.203,0.000
1709292011.842,-45.898,-33.691,-33.691,-36.133,0.000
1709292011.846,-46.387,-39.551,-38.086,-39.551,0.000
1709292011.850,-44.434,-38.574,-39.551,-35.645,0.000
1709292011.854,-46.875,-35.645,-41.504,-41.016,0.000
1709292011.858,-56.152,-36.621,-41.016,-43.945,0.000
1709292011.862,-49.805,-35.645,-39.062,-40.039,0.000
1709292011.866,-38.574,-35.156,-36.133,-37.598,0.000
1709292011.869,-39.551,-39.062,-33.691,-33.691,0.000
1709292011.872,-44.434,-41.016,-32.227,-23.438,0.000
1709292011.876,-44.434,-34.668,-29.785,-29.297,0.000
1709292011.880,-46.875,-32.715,-31.738,-41.992,0.000
1709292011.884,-44.434,-37.109,-36.133,-42.969,0.000
1709292011.888,-46.387,-42.480,-36.133,-46.387,0.000
1709292011.892,-48.828,-39.551,-36.621,-43.945,0.000
1709292011.896,-49.316,-35.645,-35.156,-43.945,0.000
1709292011.900,-48.828,-35.156,-32.227,-41.992,0.000
1709292011.904,-40.039,-34.180,-32.227,-31.738,0.000
1709292011.908,-37.109,-35.156,-36.621,-28.809,0.000
1709292011.912,-42.969,-37.598,-31.738,-33.691,0.000
1709292011.916,0.000,-32.227,-25.391,-27.832,0.000
1709292011.920,0.000,-33.203,-31.738,-21.973,0.000
1709292011.924,0.000,-37.109,-32.715,-24.414,0.000
1709292011.928,0.000,-30.762,-30.762,-26.367,0.000
1709292011.932,0.000,-33.691,-35.156,-30.762,0.000
1709292011.936,0.000,-40.039,-38.086,-35.156,0.000
1709292011.940,0.000,-38.574,-39.062,-33.691,0.000
1709292011.944,0.000,-36.133,-33.691,-21.484,0.000
1709292011.947,0.000,-37.109,-29.785,-17.090,0.000
1709292011.951,0.000,-39.551,-32.227,-26.855,0.000
1709292011.955,0.000,-37.598,-34.668,-27.344,0.000
1709292011.959,0.000,-36.133,-35.645,-26.855,0.000
1709292011.964,-36.621,-40.527,-35.645,-27.832,0.000
1709292011.967,-28.320,-40.039,-37.109,-33.203,0.000
1709292011.971,-39.551,-37.598,-41.504,-37.109,0.000
1709292011.975,-50.293,-41.504,-38.086,-39.062,0.000
1709292011.979,-43.945,-40.039,-32.227,-39.062,0.000
1709292011.983,-43.457,-39.062,-37.109,-33.691,0.000
1709292011.987,-36.133,-41.504,-40.527,-32.715,0.000
1709292011.991,-34.180,-41.504,-41.016,-36.133,0.000
1709292011.995,-49.316,-46.387,-43.457,-34.668,0.000
1709292011.999,-51.758,-41.504,-39.062,-28.320,0.000
1709292012.003,-49.805,-35.156,-41.016,-34.180,0.000
1709292012.006,-40.039,-34.180,-38.574,-33.691,0.000
1709292012.011,-38.574,-36.621,-36.621,-34.180,0.000
1709292012.015,-44.922,-40.527,-36.133,-33.691,0.000
1709292012.018,-42.480,-41.016,-31.738,-21.484,0.000
1709292012.022,-47.363,-42.969,-30.762,-26.855,0.000
1709292012.026,-52.246,-39.551,-33.203,-37.109,0.000
1709292012.030,-45.898,-39.062,-37.598,-44.434,0.000
1709292012.034,-57.129,-39.062,-37.598,-56.152,0.000
1709292012.038,-61.523,-35.645,-37.109,-61.035,0.000
1709292012.042,-54.688,-35.156,-34.180,-49.805,0.000
1709292012.046,-51.270,-31.250,-35.156,-34.668,0.000
1709292012.050,-42.480,-33.691,-33.691,-32.715,0.000
1709292012.054,-39.062,-36.621,-31.250,-34.668,0.000
1709292012.057,-44.434,-37.109,-38.574,-36.621,0.000
1709292012.061,-45.898,-35.156,-37.109,-34.180,0.000
1709292012.065,-46.387,-33.691,-36.133,-28.320,0.000
1709292012.069,-41.016,-37.598,-42.480,-36.621,0.000
1709292012.073,-37.109,-34.180,-37.598,-43.457,0.000
1709292012.077,-40.039,-35.156,-34.180,-36.133,0.000
1709292012.081,-41.504,-37.109,-32.227,-30.273,0.000
1709292012.085,-38.086,-37.109,-29.785,-20.996,0.000
1709292012.089,-33.203,-36.621,-33.691,-20.508,0.000
1709292012.093,-34.668,-34.180,-36.621,-39.551,0.000
1709292012.096,-41.504,-36.133,-34.180,-45.410,0.000
1709292012.100,-35.156,-37.109,-33.691,-31.738,0.000
1709292012.104,-34.180,-36.133,-34.668,-26.855,0.000
1709292012.108,-38.574,-37.598,-31.250,-28.809,0.000
1709292012.112,-44.922,-40.039,-31.738,-32.227,0.000
1709292012.116,-49.805,-37.109,-34.668,-35.645,0.000
1709292012.120,-42.480,-32.227,-32.715,-31.738,0.000
1709292012.124,-40.039,-36.133,-34.668,-29.297,0.000
1709292012.127,-32.715,-40.039,-33.203,-28.809,0.000
1709292012.131,-30.273,-36.621,-26.855,-19.043,0.000
1709292012.135,-37.598,-34.180,-30.273,-19.531,0.000
1709292012.139,-38.574,-32.715,-33.691,-25.879,0.000
1709292012.143,-36.621,-32.227,-30.762,-19.043,0.000
1709292012.147,-36.133,-38.086,-31.250,-16.602,0.000
1709292012.150,-28.320,-41.016,-31.250,-13.184,0.000
1709292012.154,-24.902,-35.645,-27.832,-14.648,0.000
1709292012.158,-32.715,-33.203,-24.902,-15.137,0.000
1709292012.162,-39.062,-36.621,-25.391,-18.555,0.000
1709292012.166,-38.086,-37.109,-26.855,-17.578,0.000
1709292012.170,-33.203,-39.062,-27.344,-23.438,0.000
1709292012.174,-34.180,-40.039,-23.926,-27.344,0.000
1709292012.178,-41.992,-36.133,-24.902,-20.508,0.000
1709292012.182,-45.898,-33.203,-27.344,-28.320,0.000
1709292012.186,-39.551,-36.621,-26.367,-36.133,0.000
1709292012.189,-34.180,-38.574,-25.391,-34.180,0.000
1709292012.193,-32.715,-37.598,-27.344,-25.391,0.000
1709292012.197,-39.551,-43.457,-34.180,-28.320,0.000
1709292012.201,-46.875,-43.945,-36.133,-31.738,0.000
1709292012.204,-35.156,-37.598,-33.691,-30.273,0.000
1709292012.208,-22.461,-37.109,-30.762,-28.809,0.000
1709292012.212,-32.227,-42.969,-34.180,-31.738,0.000
1709292012.216,-41.992,-47.363,-40.527,-37.598,0.000
1709292012.220,-42.969,-42.969,-37.598,-19.043,0.000
1709292012.224,-39.551,-41.016,-34.180,-10.254,0.000
1709292012.228,-32.715,-38.086,-30.762,-29.297,0.000
1709292012.232,-39.062,-34.180,-28.809,-25.879,0.000
1709292012.236,-49.805,-39.062,-29.785,-30.762,0.000
1709292012.240,-45.898,-38.086,-32.227,-37.109,0.000
1709292012.243,-39.062,-38.086,-37.109,-29.785,0.000
1709292012.247,-34.668,-41.016,-38.574,-19.043,0.000
1709292012.250,-35.156,-39.062,-34.180,-21.973,0.000
1709292012.254,-32.715,-40.039,-35.156,-35.645,0.000
1709292012.258,-34.668,-37.598,-31.250,-35.156,0.000
1709292012.262,-40.039,-37.109,-22.461,-21.484,0.000
1709292012.266,-36.621,-36.133,-22.949,-17.090,0.000
1709292012.270,-32.227,-31.738,-24.902,-28.320,0.000
1709292012.274,-39.551,-32.227,-26.855,-33.203,0.000
1709292012.278,-42.969,-33.691,-25.879,-28.809,0.000
1709292012.282,-33.691,-33.203,-27.832,-29.297,0.000
1709292012.286,-35.156,-32.715,-32.715,-38.086,0.000
1709292012.290,-34.668,-32.227,-30.273,-38.574,0.000
1709292012.294,-37.109,-29.785,-27.832,-32.227,0.000
1709292012.298,-35.645,-28.320,-24.902,-33.691,0.000
1709292012.302,-33.203,-23.438,-23.926,-30.762,0.000
1709292012.306,-30.762,-27.344,-29.785,-31.250,0.000
1709292012.310,-31.738,-32.715,-29.785,-31.738,0.000
1709292012.314,-38.086,-29.785,-31.250,-31.250,0.000
1709292012.318,-41.016,-29.785,-33.691,-30.273,0.000
1709292012.322,-41.504,-31.250,-34.668,-29.297,0.000
1709292012.326,-32.227,-31.738,-38.086,-30.273,0.000
1709292012.329,-30.762,-29.785,-35.645,-34.668,0.000
1709292012.333,-37.109,-33.691,-34.180,-38.086,0.000
1709292012.338,0.000,-33.203,-33.203,-31.250,0.000
1709292012.342,0.000,-28.809,-34.180,-32.715,0.000
1709292012.346,0.000,-33.691,-36.621,-41.992,0.000
1709292012.349,0.000,-35.156,-35.156,-46.875,0.000
1709292012.353,0.000,-34.180,-33.203,-41.504,0.000
1709292012.357,0.000,-43.457,-42.480,-46.387,0.000
1709292012.361,0.000,-43.945,-50.293,-41.992,0.000
1709292012.365,0.000,-38.086,-42.480,-34.668,0.000
1709292012.369,0.000,-41.016,-35.156,-35.156,0.000
1709292012.373,0.000,-38.086,-35.156,-29.785,0.000
1709292012.377,0.000,-36.621,-36.133,-38.086,0.000
1709292012.381,0.000,-41.016,-39.551,-38.086,0.000
1709292012.385,-41.016,-41.016,-41.992,-31.250,0.000
1709292012.389,-34.180,-42.480,-42.480,-32.227,0.000
1709292012.393,-46.875,-43.457,-45.410,-40.527,0.000
1709292012.397,-43.945,-41.504,-44.922,-39.551,0.000
1709292012.400,-39.062,-40.527,-42.480,-35.645,0.000
1709292012.404,-43.945,-40.039,-42.480,-36.133,0.000
1709292012.408,-33.691,-43.457,-43.457,-37.598,0.000
1709292012.412,-33.203,-40.527,-41.992,-36.621,0.000
1709292012.416,-40.527,-39.551,-38.086,-28.809,0.000
1709292012.420,-38.574,-40.527,-39.062,-29.785,0.000
1709292012.424,-37.598,-36.133,-34.668,-28.320,0.000
1709292012.428,-36.133,-38.086,-30.762,-28.320,0.000
