timestamps,TP9,AF7,AF8,TP10,Right AUX
1709206221.089,-48.340,-43.457,-40.527,-49.805,0.000
1709206221.093,-50.293,-34.668,-41.016,-45.410,0.000
1709206221.097,-42.480,-49.805,-41.504,-50.293,0.000
1709206221.101,-38.086,-49.316,-41.504,-58.105,0.000
1709206221.105,-43.457,-32.227,-42.480,-53.223,0.000
1709206221.108,-41.016,-48.828,-43.457,-55.664,0.000
1709206221.112,-55.176,-46.387,-44.434,-56.152,0.000
1709206221.116,-62.500,-55.176,-43.945,-41.504,0.000
1709206221.120,-54.688,-43.945,-40.527,-38.574,0.000
1709206221.124,-51.270,-25.879,-37.598,-44.434,0.000
1709206221.128,-50.293,-44.922,-38.574,-30.273,0.000
1709206221.132,-47.852,-40.527,-38.574,-26.855,0.000
1709206221.136,0.000,-23.926,-34.668,-40.039,0.000
1709206221.140,0.000,-34.668,-31.738,-38.086,0.000
1709206221.144,0.000,-53.711,-31.738,-35.156,0.000
1709206221.148,0.000,-33.203,-28.320,-29.785,0.000
1709206221.151,0.000,-20.996,-30.762,-18.066,0.000
1709206221.155,0.000,-39.551,-35.156,-18.066,0.000
1709206221.159,0.000,-58.105,-35.645,-6.836,0.000
1709206221.163,0.000,-51.758,-34.668,0.000,0.000
1709206221.167,0.000,-12.695,-32.227,-14.648,0.000
1709206221.171,0.000,-24.414,-34.180,-15.137,0.000
1709206221.175,0.000,-43.457,-31.250,-13.184,0.000
1709206221.179,0.000,-37.109,-28.320,-12.695,0.000
1709206221.183,-20.996,-34.668,-31.250,-16.113,0.000
1709206221.187,-26.855,-41.992,-34.180,-19.043,0.000
1709206221.190,-30.273,-51.270,-37.109,-24.414,0.000
1709206221.194,-36.133,-45.410,-37.109,-25.391,0.000
1709206221.198,-36.133,-55.176,-39.551,-28.809,0.000
1709206221.202,-37.109,-51.758,-41.992,-38.574,0.000
1709206221.206,-36.621,-62.500,-37.109,-27.344,0.000
1709206221.210,-46.387,-49.805,-34.180,-28.320,0.000
1709206221.214,-47.363,-30.273,-38.086,-46.875,0.000
1709206221.218,-37.598,-59.082,-39.062,-45.898,0.000
1709206221.222,-42.969,-51.270,-47.852,-48.828,0.000
1709206221.226,-46.387,-29.785,-47.852,-47.363,0.000
1709206221.230,-34.668,-39.062,-38.574,-37.598,0.000
1709206221.233,-36.133,-61.523,-41.504,-39.062,0.000
1709206221.237,-43.945,-57.129,-41.504,-41.504,0.000
1709206221.241,-47.852,-38.574,-39.062,-45.410,0.000
1709206221.245,-46.875,-37.109,-37.109,-43.457,0.000
1709206221.249,-39.551,-58.594,-31.250,-35.645,0.000
1709206221.253,-42.969,-65.430,-35.156,-51.270,0.000
1709206221.257,-45.410,-31.250,-45.898,-64.941,0.000
1709206221.261,-35.156,-21.973,-43.945,-63.477,0.000
1709206221.265,-31.250,-43.457,-37.109,-52.246,0.000
1709206221.269,-38.574,-39.551,-34.180,-51.758,0.000
1709206221.272,-42.969,-24.902,-37.109,-66.406,0.000
1709206221.276,0.000,-33.691,-36.621,-58.594,0.000
1709206221.280,0.000,-40.039,-34.180,-45.898,0.000
1709206221.284,0.000,-28.809,-36.133,-47.363,0.000
1709206221.288,0.000,-25.391,-40.527,-48.340,0.000
1709206221.292,0.000,-30.762,-39.062,-30.273,0.000
1709206221.296,0.000,-41.016,-34.668,-18.066,0.000
1709206221.300,0.000,-37.598,-41.504,-26.855,0.000
1709206221.304,0.000,-23.438,-41.016,-34.668,0.000
1709206221.308,0.000,-39.551,-38.086,-36.133,0.000
1709206221.312,0.000,-59.082,-35.156,-28.809,0.000
1709206221.315,0.000,-41.016,-29.297,-27.832,0.000
1709206221.319,0.000,-22.461,-31.738,-41.016,0.000
1709206221.323,-26.367,-38.574,-31.250,-42.969,0.000
1709206221.327,-40.039,-49.805,-30.762,-30.762,0.000
1709206221.331,-45.410,-38.086,-30.762,-17.090,0.000
1709206221.335,-40.039,-28.809,-36.621,-14.160,0.000
1709206221.339,-37.598,-39.062,-39.551,-27.344,0.000
1709206221.343,-41.016,-56.152,-32.227,-30.273,0.000
1709206221.347,-43.457,-44.434,-31.738,-25.391,0.000
1709206221.351,-42.480,-27.344,-32.715,-26.367,0.000
1709206221.355,-46.875,-56.152,-35.156,-22.461,0.000
1709206221.358,-39.551,-62.988,-37.598,-21.484,0.000
1709206221.362,-35.156,-17.090,-38.086,-40.039,0.000
1709206221.366,-54.199,-27.344,-37.109,-41.504,0.000
1709206221.370,-52.246,-49.805,-38.574,-31.738,0.000
1709206221.374,-50.293,-42.480,-39.551,-41.016,0.000
1709206221.378,-47.363,-35.645,-35.156,-51.758,0.000
1709206221.382,-46.387,-48.828,-32.715,-58.105,0.000
1709206221.386,-52.734,-63.965,-35.645,-59.570,0.000
1709206221.390,-50.293,-60.547,-40.039,-58.105,0.000
1709206221.394,-50.781,-45.898,-39.062,-56.152,0.000
1709206221.398,-50.293,-40.039,-41.016,-52.734,0.000
1709206221.401,-43.457,-56.641,-41.016,-43.945,0.000
1709206221.405,-47.363,-46.875,-40.527,-43.945,0.000
1709206221.409,-48.828,-26.855,-46.387,-51.758,0.000
1709206221.413,-39.551,-40.527,-45.898,-48.828,0.000
1709206221.417,-35.156,-49.316,-45.410,-42.969,0.000
1709206221.421,-23.926,-37.109,-48.340,-44.922,0.000
1709206221.425,-28.320,-39.551,-44.922,-51.758,0.000
1709206221.429,-38.574,-47.852,-41.992,-42.969,0.000
1709206221.433,-29.785,-39.551,-41.504,-27.344,0.000
1709206221.437,-21.484,-37.109,-43.457,-26.855,0.000
1709206221.441,-24.414,-33.203,-47.363,-40.527,0.000
1709206221.444,-22.949,-46.387,-42.480,-37.598,0.000
1709206221.448,-30.273,-50.781,-41.016,-23.926,0.000
1709206221.452,-31.250,-10.254,-40.039,-25.391,0.000
1709206221.456,-31.738,-20.020,-41.992,-29.297,0.000
1709206221.460,-40.527,-42.480,-43.457,-32.715,0.000
1709206221.464,-39.551,-33.203,-42.480,-33.203,0.000
1709206221.468,-36.621,-21.973,-45.898,-39.551,0.000
1709206221.472,-45.410,-34.668,-42.480,-42.969,0.000
1709206221.476,-52.734,-47.852,-41.504,-36.621,0.000
1709206221.480,-37.598,-40.527,-42.969,-38.574,0.000
1709206221.483,-38.086,-45.898,-42.969,-43.457,0.000
1709206221.487,-49.316,-46.875,-41.992,-40.039,0.000
1709206221.491,-45.410,-61.523,-37.109,-24.902,0.000
1709206221.495,-41.016,-50.293,-32.715,-19.043,0.000
1709206221.499,-48.828,-36.621,-40.039,-37.598,0.000
1709206221.503,-47.363,-54.688,-41.992,-44.922,0.000
1709206221.507,-29.785,-46.875,-32.227,-39.551,0.000
1709206221.511,-35.645,-33.691,-30.273,-33.691,0.000
1709206221.515,-49.316,-37.109,-36.133,-37.598,0.000
1709206221.519,-51.758,-55.664,-40.527,-48.828,0.000
1709206221.523,-52.734,-57.129,-43.457,-53.223,0.000
1709206221.526,-56.641,-45.410,-38.086,-45.898,0.000
1709206221.530,-54.688,-46.387,-34.180,-37.598,0.000
1709206221.534,-37.598,-57.617,-34.180,-38.574,0.000
1709206221.538,-27.832,-59.082,-34.668,-33.203,0.000
1709206221.542,-44.434,-32.715,-36.621,-39.551,0.000
1709206221.546,-57.617,-27.344,-39.551,-50.781,0.000
1709206221.550,-56.641,-34.668,-47.363,-51.270,0.000
1709206221.554,-52.246,-32.227,-49.316,-50.781,0.000
1709206221.558,-51.758,-29.297,-48.340,-56.152,0.000
1709206221.562,-47.852,-34.180,-42.969,-53.711,0.000
1709206221.565,-48.340,-41.016,-43.457,-41.016,0.000
1709206221.569,-44.922,-35.645,-48.340,-37.109,0.000
1709206221.573,-39.062,-32.227,-45.410,-39.062,0.000
1709206221.577,-39.551,-42.480,-42.480,-47.363,0.000
1709206221.581,-30.762,-58.594,-38.086,-37.109,0.000
1709206221.585,-31.738,-35.645,-35.645,-27.832,0.000
1709206221.589,-33.691,-13.672,-42.480,-31.250,0.000
1709206221.593,-20.020,-32.227,-44.922,-26.367,0.000
1709206221.597,-23.438,-33.203,-44.434,-22.949,0.000
1709206221.601,-31.738,-25.879,-43.457,-25.391,0.000
1709206221.605,-26.855,-18.066,-41.504,-27.344,0.000
1709206221.608,-21.973,-31.250,-42.969,-28.320,0.000
1709206221.612,-20.996,-34.180,-37.109,-22.949,0.000
1709206221.616,-18.555,-24.902,-32.715,-18.555,0.000
1709206221.620,-10.254,-27.344,-31.250,-20.020,0.000
1709206221.624,-19.531,-52.734,-33.203,-20.020,0.000
1709206221.628,-25.879,-57.129,-41.992,-26.855,0.000
1709206221.632,-27.344,-21.973,-44.434,-41.504,0.000
1709206221.636,-25.391,-20.996,-41.992,-43.457,0.000
1709206221.640,-16.602,-35.645,-43.945,-39.551,0.000
1709206221.644,-29.785,-30.762,-47.852,-46.387,0.000
1709206221.647,-39.062,-25.391,-45.410,-53.711,0.000
1709206221.651,-35.156,-38.086,-41.504,-50.293,0.000
1709206221.655,-34.180,-46.875,-42.969,-47.852,0.000
1709206221.659,-25.391,-41.016,-43.945,-57.617,0.000
1709206221.663,-37.109,-35.645,-43.945,-70.801,0.000
1709206221.667,-53.711,-45.898,-44.922,-74.219,0.000
1709206221.671,-51.270,-59.082,-43.945,-61.523,0.000
1709206221.675,-52.246,-45.410,-41.016,-46.875,0.000
1709206221.679,-46.875,-29.297,-39.551,-56.641,0.000
1709206221.683,-39.551,-35.156,-31.738,-59.082,0.000
1709206221.687,-51.758,-65.918,-27.832,-52.734,0.000
1709206221.690,-65.918,-55.664,-38.086,-57.129,0.000
1709206221.694,-67.871,-31.250,-46.387,-63.965,0.000
1709206221.698,0.000,-44.922,-38.574,-55.176,0.000
1709206221.702,0.000,-52.246,-39.062,-50.781,0.000
1709206221.706,0.000,-47.852,-41.992,-50.293,0.000
1709206221.710,0.000,-48.340,-39.062,-58.105,0.000
1709206221.714,0.000,-66.406,-40.039,-60.547,0.000
1709206221.718,0.000,-63.477,-37.598,-48.340,0.000
1709206221.722,0.000,-35.156,-35.645,-49.805,0.000
1709206221.726,0.000,-24.414,-39.062,-69.824,0.000
1709206221.730,0.000,-60.547,-41.992,-64.453,0.000
1709206221.734,0.000,-61.523,-38.086,-46.387,0.000
1709206221.737,0.000,-16.113,-37.109,-53.223,0.000
1709206221.741,0.000,-26.855,-39.062,-59.570,0.000
1709206221.745,-55.176,-47.852,-34.180,-46.387,0.000
1709206221.749,-52.246,-36.133,-29.785,-38.574,0.000
1709206221.753,-59.570,-33.203,-37.109,-42.480,0.000
1709206221.757,-51.758,-40.039,-39.062,-38.086,0.000
1709206221.761,-39.062,-44.434,-37.109,-40.527,0.000
1709206221.765,-53.711,-54.199,-33.691,-43.945,0.000
1709206221.769,-47.363,-44.434,-30.762,-39.062,0.000
1709206221.773,-44.434,-35.156,-31.738,-35.156,0.000
1709206221.777,-54.199,-53.711,-30.273,-21.973,0.000
1709206221.780,-40.039,-40.039,-31.738,-28.320,0.000
1709206221.784,-39.551,-16.602,-33.203,-41.992,0.000
1709206221.788,-49.316,-35.156,-29.785,-33.691,0.000
1709206221.792,-48.340,-39.551,-31.738,-33.203,0.000
1709206221.796,-45.410,-31.738,-33.691,-35.156,0.000
1709206221.800,-36.621,-34.668,-29.297,-34.180,0.000
1709206221.804,-23.926,-46.875,-28.809,-25.391,0.000
1709206221.808,-30.273,-53.223,-30.273,-21.973,0.000
1709206221.812,-40.527,-49.805,-37.598,-28.320,0.000
1709206221.816,-38.574,-33.691,-45.898,-30.273,0.000
1709206221.819,-29.785,-47.363,-42.480,-36.133,0.000
1709206221.823,-45.898,-62.988,-39.551,-36.133,0.000
1709206221.827,-62.012,-33.691,-45.410,-41.504,0.000
1709206221.831,-48.340,-33.203,-51.758,-47.852,0.000
1709206221.835,-41.992,-31.250,-53.223,-41.016,0.000
1709206221.839,0.000,-31.250,-52.246,-38.086,0.000
1709206221.843,0.000,-44.922,-45.898,-48.340,0.000
1709206221.847,0.000,-57.617,-42.969,-51.758,0.000
1709206221.851,0.000,-57.617,-40.527,-43.457,0.000
1709206221.855,0.000,-53.223,-37.109,-36.133,0.000
1709206221.859,0.000,-73.242,-40.039,-45.410,0.000
1709206221.862,0.000,-75.195,-35.156,-50.293,0.000
1709206221.866,0.000,-86.426,-29.297,-31.250,0.000
1709206221.870,0.000,-85.938,-35.156,-33.691,0.000
1709206221.874,0.000,-66.406,-28.320,-47.363,0.000
1709206221.878,0.000,-79.590,-20.996,-41.992,0.000
1709206221.882,0.000,-86.914,-27.344,-39.551,0.000
1709206221.886,-66.406,-91.309,-26.855,-41.992,0.000
1709206221.890,-71.777,-89.355,-24.414,-46.387,0.000
1709206221.894,-57.617,-99.609,-21.484,-36.621,0.000
1709206221.898,-58.105,-102.051,-19.531,-37.598,0.000
1709206221.901,-77.148,-95.215,-14.160,-46.875,0.000
1709206221.905,-83.008,-111.816,-10.742,-48.828,0.000
1709206221.909,-86.426,-139.648,-20.508,-39.062,0.000
1709206221.913,-81.055,-136.230,-22.461,-16.113,0.000
1709206221.917,-74.707,-93.750,-14.160,-16.113,0.000
1709206221.921,-65.918,-104.980,-14.648,-27.832,0.000
1709206221.925,-59.082,-127.441,-16.602,-23.438,0.000
1709206221.929,-66.895,-126.953,-17.578,-18.066,0.000
1709206221.933,-67.383,-121.582,-16.602,-13.184,0.000
1709206221.937,-63.965,-122.559,-15.137,-4.883,0.000
1709206221.941,-46.875,-141.602,-17.578,-5.371,0.000
1709206221.944,-42.480,-140.625,-18.066,-8.301,0.000
1709206221.948,-69.336,-134.277,-17.090,-11.719,0.000
1709206221.952,-63.477,-139.648,-18.555,-6.348,0.000
1709206221.956,-49.805,-158.203,-17.090,10.254,0.000
1709206221.960,-52.734,-140.137,-20.020,8.301,0.000
1709206221.964,-53.711,-112.305,-25.879,-1.953,0.000
1709206221.968,-46.387,-129.883,-29.785,-3.418,0.000
1709206221.972,-34.180,-121.582,-27.344,-0.977,0.000
1709206221.976,-37.109,-104.492,-18.555,2.441,0.000
1709206221.980,-39.062,-110.352,-18.066,-1.953,0.000
1709206221.983,-43.945,-135.742,-25.879,-13.184,0.000
1709206221.987,-52.246,-139.648,-30.762,-19.043,0.000
1709206221.991,-41.016,-127.930,-28.809,-16.113,0.000
1709206221.995,-46.387,-132.324,-25.391,-10.254,0.000
1709206221.999,-58.594,-146.973,-26.855,-7.812,0.000
1709206222.003,-61.035,-151.367,-27.344,-8.301,0.000
1709206222.007,-62.988,-121.582,-25.391,-10.742,0.000
1709206222.011,-55.176,-114.746,-24.414,-4.883,0.000
1709206222.015,-49.316,-127.930,-24.414,3.906,0.000
1709206222.019,-42.480,-109.863,-16.113,4.883,0.000
1709206222.023,-47.363,-91.797,-16.602,0.977,0.000
1709206222.026,-52.734,-104.004,-25.391,-2.930,0.000
1709206222.030,-48.828,-107.422,-26.855,-2.930,0.000
1709206222.034,-53.223,-94.727,-25.391,1.465,0.000
1709206222.038,-50.781,-87.891,-27.832,-7.324,0.000
1709206222.042,-51.758,-96.680,-33.691,-15.137,0.000
1709206222.046,-45.898,-104.492,-32.227,-19.531,0.000
1709206222.050,-37.109,-90.332,-29.785,-18.066,0.000
1709206222.054,-52.246,-81.055,-32.227,-5.371,0.000
1709206222.058,-54.688,-97.168,-30.762,-12.695,0.000
1709206222.062,-49.316,-105.957,-32.227,-10.742,0.000
1709206222.066,-51.758,-73.730,-33.203,-9.766,0.000
1709206222.069,-54.199,-54.688,-34.668,-26.367,0.000
1709206222.073,-42.969,-71.777,-32.715,-28.809,0.000
1709206222.077,-27.832,-75.195,-29.785,-29.297,0.000
1709206222.081,-38.574,-68.848,-32.227,-35.156,0.000
1709206222.085,-42.969,-72.754,-33.203,-31.250,0.000
1709206222.089,-36.621,-84.961,-33.203,-24.902,0.000
1709206222.093,-33.691,-95.215,-36.621,-23.438,0.000
1709206222.097,-36.133,-73.242,-35.156,-22.949,0.000
1709206222.101,-33.691,-50.781,-36.621,-25.879,0.000
1709206222.105,-14.648,-78.613,-35.156,-23.438,0.000
1709206222.109,-20.508,-88.867,-37.109,-15.137,0.000
1709206222.112,-38.086,-60.059,-48.340,-23.926,0.000
1709206222.116,-31.738,-54.199,-44.922,-24.902,0.000
1709206222.120,-21.973,-57.617,-37.598,-21.973,0.000
1709206222.124,-24.902,-59.570,-39.062,-32.715,0.000
1709206222.128,-33.691,-55.176,-40.039,-31.738,0.000
1709206222.132,-31.250,-60.547,-41.504,-30.762,0.000
1709206222.136,-34.180,-60.059,-44.434,-38.574,0.000
1709206222.140,-33.691,-60.059,-42.969,-35.156,0.000
1709206222.144,-32.227,-53.223,-39.062,-34.668,0.000
1709206222.148,-33.691,-46.875,-37.598,-38.086,0.000
1709206222.151,-37.109,-73.242,-39.062,-29.297,0.000
1709206222.155,-40.039,-62.012,-40.527,-27.344,0.000
1709206222.159,-26.855,-31.250,-44.922,-37.598,0.000
1709206222.163,-26.367,-48.828,-48.828,-37.598,0.000
1709206222.167,0.000,-64.453,0.000,-38.086,0.000
1709206222.171,0.000,-52.734,0.000,-36.621,0.000
1709206222.175,0.000,-44.922,0.000,-26.855,0.000
1709206222.179,0.000,-53.223,0.000,-27.832,0.000
1709206222.183,0.000,-53.223,0.000,-29.297,0.000
1709206222.187,0.000,-57.617,0.000,-24.414,0.000
1709206222.191,0.000,-38.574,0.000,-16.602,0.000
1709206222.194,0.000,-51.270,0.000,-9.277,0.000
1709206222.198,0.000,-67.871,0.000,4.395,0.000
1709206222.202,0.000,-24.902,0.000,-9.277,0.000
1709206222.206,0.000,-36.133,0.000,-34.668,0.000
1709206222.210,0.000,-55.664,0.000,-33.691,0.000
1709206222.214,-24.902,-42.969,-33.203,-25.391,0.000
1709206222.218,-33.691,-37.109,-41.016,-41.016,0.000
1709206222.222,-32.227,-41.992,-46.387,-51.270,0.000
1709206222.226,-37.598,-53.223,-45.410,-45.898,0.000
1709206222.230,-41.992,-58.594,-49.805,-44.434,0.000
1709206222.234,-46.875,-53.223,-42.480,-46.875,0.000
1709206222.237,-52.246,-53.711,-37.109,-47.363,0.000
1709206222.241,-49.316,-78.613,-37.598,-40.039,0.000
1709206222.245,-47.363,-62.500,-37.598,-40.039,0.000
1709206222.249,-41.504,-35.645,-37.598,-47.852,0.000
1709206222.253,-31.250,-48.340,-32.227,-40.527,0.000
1709206222.257,-32.715,-42.480,-32.715,-36.133,0.000
1709206222.261,-38.086,-31.738,-34.668,-42.969,0.000
1709206222.265,-40.039,-40.527,-30.762,-42.480,0.000
1709206222.269,-40.527,-52.734,-26.855,-42.969,0.000
1709206222.273,-32.227,-41.016,-27.344,-40.527,0.000
1709206222.276,-43.457,-32.715,-29.785,-41.016,0.000
1709206222.280,-46.387,-41.992,-30.762,-49.805,0.000
1709206222.284,-34.668,-62.012,-30.273,-44.434,0.000
1709206222.288,-40.039,-66.406,-35.156,-33.691,0.000
1709206222.292,-49.316,-35.156,-38.086,-31.250,0.000
1709206222.296,-39.062,-30.762,-33.203,-33.691,0.000
1709206222.300,-31.250,-51.758,-32.715,-37.598,0.000
1709206222.304,-36.621,-48.340,-33.691,-41.016,0.000
1709206222.308,-36.133,-31.250,-36.621,-41.016,0.000
1709206222.312,-30.273,-37.598,-35.156,-30.273,0.000
1709206222.316,-30.762,-41.992,-34.180,-30.762,0.000
1709206222.319,-29.297,-31.250,-34.668,-43.945,0.000
1709206222.323,-21.484,-29.297,-37.109,-39.062,0.000
1709206222.327,-25.391,-39.062,-39.062,-28.809,0.000
1709206222.331,-19.043,-68.359,-40.527,-14.648,0.000
1709206222.335,-30.762,-50.293,-45.898,-17.090,0.000
1709206222.339,-40.527,-13.184,-39.551,-36.133,0.000
1709206222.343,-24.902,-40.039,-37.598,-34.180,0.000
1709206222.347,-34.668,-49.805,-46.387,-35.645,0.000
1709206222.351,-36.133,-25.391,-36.621,-37.109,0.000
1709206222.355,-34.180,-16.113,-32.715,-30.273,0.000
1709206222.358,-36.621,-44.922,-41.504,-29.785,0.000
1709206222.362,-36.133,-48.828,-42.480,-37.109,0.000
1709206222.366,-34.180,-25.391,-43.457,-35.156,0.000
1709206222.370,-31.250,-35.156,-39.062,-26.367,0.000
1709206222.374,-35.156,-66.406,-38.086,-29.297,0.000
1709206222.378,-29.297,-60.547,-38.086,-24.902,0.000
1709206222.382,-28.320,-14.160,-34.180,-31.250,0.000
1709206222.386,-39.062,-27.832,-39.062,-39.062,0.000
1709206222.390,-36.621,-46.875,-41.504,-34.180,0.000
1709206222.394,-30.762,-33.203,-40.527,-36.621,0.000
1709206222.398,-48.828,-31.250,-40.039,-33.691,0.000
1709206222.401,-51.758,-51.758,-39.551,-42.969,0.000
1709206222.405,-44.434,-46.875,-37.598,-48.340,0.000
1709206222.409,-45.410,-31.738,-34.668,-33.691,0.000
1709206222.413,-42.480,-34.180,-32.715,-31.738,0.000
1709206222.417,-35.645,-41.504,-38.574,-35.645,0.000
1709206222.421,-38.574,-58.105,-41.504,-31.250,0.000
1709206222.425,-46.387,-49.805,-39.062,-36.621,0.000
1709206222.429,-52.246,-34.668,-49.316,-55.176,0.000
1709206222.433,-42.480,-46.387,-48.828,-48.828,0.000
1709206222.437,-33.691,-67.383,-46.387,-35.156,0.000
1709206222.441,-47.363,-46.387,-46.875,-42.480,0.000
1709206222.444,-55.176,-26.855,-41.992,-46.875,0.000
1709206222.448,-50.293,-50.293,-41.992,-48.340,0.000
1709206222.452,-41.992,-53.223,-40.039,-47.852,0.000
1709206222.456,-42.969,-49.805,-41.016,-49.316,0.000
1709206222.460,-37.109,-44.922,-33.203,-42.969,0.000
1709206222.464,-32.715,-46.875,-25.391,-36.133,0.000
1709206222.468,-43.457,-58.594,-34.180,-40.527,0.000
1709206222.472,-44.434,-35.645,-36.621,-31.250,0.000
1709206222.476,-35.156,-19.531,-35.645,-38.086,0.000
1709206222.480,-26.855,-50.293,-40.039,-39.062,0.000
1709206222.484,-22.461,-60.059,-37.598,-25.391,0.000
1709206222.487,-29.785,-18.555,-35.156,-29.297,0.000
1709206222.491,-37.109,-21.973,-32.227,-28.809,0.000
1709206222.495,-29.785,-32.227,-31.250,-26.855,0.000
1709206222.499,-17.090,-23.926,-35.645,-30.762,0.000
1709206222.503,-24.414,-16.602,-33.203,-28.809,0.000
1709206222.507,-39.062,-24.414,-29.297,-33.203,0.000
1709206222.511,-39.062,-37.598,-32.227,-37.598,0.000
1709206222.515,-37.109,-40.527,-33.203,-37.598,0.000
1709206222.519,-29.297,-35.156,-33.691,-41.504,0.000
1709206222.523,-31.250,-29.297,-38.086,-45.410,0.000
1709206222.526,-28.809,-45.410,-41.992,-42.969,0.000
1709206222.530,-31.250,-34.180,-42.480,-41.992,0.000
1709206222.534,-40.527,-2.441,-43.457,-48.828,0.000
1709206222.538,-36.133,-16.113,-41.016,-51.758,0.000
1709206222.542,-30.762,-26.855,-40.039,-55.664,0.000
1709206222.546,-17.090,-21.484,-45.410,-59.082,0.000
1709206222.550,-18.555,-24.414,-43.457,-49.805,0.000
1709206222.554,-33.691,-33.691,-41.992,-33.203,0.000
1709206222.558,-32.715,-35.645,-43.457,-36.133,0.000
1709206222.562,-32.715,-35.156,-43.457,-44.922,0.000
1709206222.566,-35.156,-25.879,-46.875,-54.688,0.000
1709206222.569,-36.133,-41.992,-44.922,-49.316,0.000
1709206222.573,-36.133,-53.711,-40.527,-32.715,0.000
1709206222.577,-41.992,-13.672,-43.457,-41.992,0.000
1709206222.581,-43.457,-20.508,-37.598,-49.316,0.000
1709206222.585,-40.527,-42.480,-28.320,-51.270,0.000
1709206222.589,-48.340,-39.551,-34.180,-58.105,0.000
1709206222.593,-51.270,-32.227,-37.109,-53.223,0.000
1709206222.597,-31.250,-38.574,-37.598,-41.992,0.000
1709206222.601,-39.062,-41.992,-34.180,-33.691,0.000
1709206222.605,-58.105,-41.016,-28.809,-42.480,0.000
1709206222.609,-55.664,-45.410,-32.227,-44.922,0.000
1709206222.612,-57.617,-41.016,-35.645,-36.621,0.000
1709206222.616,-57.617,-57.129,-36.621,-12.695,0.000
1709206222.620,-48.828,-32.715,-36.133,-13.672,0.000
1709206222.624,-43.945,-11.230,-29.297,-35.156,0.000
1709206222.628,-45.898,-33.203,-26.855,-39.551,0.000
1709206222.632,-49.805,-30.762,-30.762,-39.062,0.000
1709206222.636,-47.852,-15.625,-29.297,-26.367,0.000
1709206222.640,-42.969,-9.766,-32.715,-34.668,0.000
1709206222.644,-40.527,-34.180,-38.086,-47.852,0.000
1709206222.648,-41.016,-41.016,-36.133,-31.250,0.000
1709206222.651,-32.715,-33.691,-38.574,-25.879,0.000
1709206222.655,-32.227,-45.898,-43.457,-28.320,0.000
1709206222.659,-38.574,-56.152,-40.039,-22.949,0.000
1709206222.663,-28.320,-46.387,-39.062,-22.949,0.000
1709206222.667,-40.527,-24.414,-43.457,-32.715,0.000
1709206222.671,-40.527,-32.227,-39.551,-35.645,0.000
1709206222.675,-37.598,-49.805,-39.551,-32.227,0.000
1709206222.679,-44.922,-49.805,-49.805,-41.992,0.000
1709206222.683,-48.828,-46.387,-49.316,-54.688,0.000
1709206222.687,-47.852,-57.129,-46.387,-54.199,0.000
1709206222.691,-47.852,-53.711,-46.875,-50.293,0.000
1709206222.694,-44.922,-41.504,-51.270,-46.387,0.000
1709206222.698,-35.156,-41.016,-51.758,-43.945,0.000
1709206222.702,-38.574,-53.223,-41.992,-62.012,0.000
1709206222.706,-31.250,-78.613,-39.551,-57.617,0.000
1709206222.710,-41.992,-59.570,-42.969,-46.387,0.000
1709206222.714,-54.199,-35.156,-43.945,-51.270,0.000
1709206222.718,-42.969,-56.152,-42.969,-41.992,0.000
1709206222.722,-43.945,-51.270,-41.504,-46.875,0.000
1709206222.726,-42.480,-40.039,-42.969,-54.199,0.000
1709206222.730,-47.363,-42.969,-41.992,-52.246,0.000
1709206222.733,-42.969,-58.105,-39.551,-49.805,0.000
1709206222.737,-43.457,-57.129,-38.574,-51.270,0.000
1709206222.741,-42.969,-47.852,-38.574,-54.199,0.000
1709206222.745,-40.039,-47.852,-43.945,-54.199,0.000
1709206222.749,-47.363,-62.988,-50.293,-38.086,0.000
1709206222.753,-41.016,-64.941,-47.363,-34.180,0.000
1709206222.757,-35.156,-25.391,-38.086,-32.715,0.000
1709206222.761,-31.738,-26.855,-38.574,-37.598,0.000
1709206222.765,-30.273,-55.176,-41.992,-49.316,0.000
1709206222.769,-48.340,-48.828,-41.992,-47.363,0.000
1709206222.772,-54.199,-27.344,-41.504,-41.504,0.000
1709206222.776,-52.734,-35.156,-45.898,-41.016,0.000
1709206222.780,-48.340,-39.551,-43.457,-49.805,0.000
1709206222.784,-41.504,-32.227,-36.621,-48.828,0.000
1709206222.788,-44.922,-32.715,-39.551,-43.945,0.000
1709206222.792,-41.016,-39.062,-45.410,-37.598,0.000
1709206222.796,-40.039,-42.969,-43.945,-37.598,0.000
1709206222.800,-46.387,-39.551,-43.945,-43.945,0.000
1709206222.804,-45.410,-37.109,-44.434,-38.574,0.000
1709206222.808,-44.922,-37.109,-45.898,-39.551,0.000
1709206222.812,-50.293,-54.199,-47.363,-36.621,0.000
1709206222.815,-37.598,-26.855,-41.992,-27.344,0.000
1709206222.819,-33.691,-5.859,-40.039,-36.621,0.000
1709206222.823,-48.828,-34.180,-37.109,-39.551,0.000
1709206222.827,-51.758,-41.016,-33.203,-29.297,0.000
1709206222.831,-49.316,-32.227,-35.645,-29.297,0.000
1709206222.835,-50.781,-28.809,-32.227,-45.898,0.000
1709206222.839,-50.781,-39.551,-30.762,-51.758,0.000
1709206222.843,-54.688,-52.246,-33.691,-51.270,0.000
1709206222.847,-58.105,-32.227,-30.273,-49.316,0.000
1709206222.851,-54.688,-20.996,-31.250,-42.480,0.000
1709206222.855,-51.758,-53.711,-38.086,-40.527,0.000
1709206222.858,-47.363,-57.129,-40.039,-37.109,0.000
1709206222.862,-48.828,-14.160,-39.062,-47.852,0.000
1709206222.866,-55.176,-18.555,-34.668,-42.480,0.000
1709206222.870,-50.293,-34.180,-26.367,-25.879,0.000
1709206222.874,-32.227,-30.762,-30.762,-23.926,0.000
1709206222.878,-35.645,-25.391,-30.762,-21.484,0.000
1709206222.882,-49.316,-36.133,-30.762,-22.461,0.000
1709206222.886,-43.945,-44.922,-41.992,-28.809,0.000
1709206222.890,-37.598,-45.898,-40.527,-25.879,0.000
1709206222.894,-43.457,-36.621,-36.621,-28.320,0.000
1709206222.898,-47.363,-30.762,-33.691,-35.156,0.000
1709206222.901,-38.086,-62.500,-31.250,-33.691,0.000
1709206222.905,-35.645,-59.082,-38.086,-41.016,0.000
1709206222.909,-46.387,-24.414,-35.645,-41.016,0.000
1709206222.913,-43.457,-32.715,-31.250,-29.785,0.000
1709206222.917,-36.621,-37.109,-33.203,-25.391,0.000
1709206222.921,-25.879,-19.531,-37.109,-27.832,0.000
1709206222.925,-25.391,-26.855,-44.922,-36.621,0.000
1709206222.929,-47.852,-50.293,-47.852,-40.039,0.000
1709206222.933,-40.527,-44.922,-42.480,-29.297,0.000
1709206222.937,-33.203,-36.621,-45.410,-30.273,0.000
1709206222.941,-27.344,-39.551,-46.875,-41.992,0.000
1709206222.944,-20.508,-52.734,-39.062,-43.457,0.000
1709206222.948,-30.273,-59.082,-35.156,-29.785,0.000
1709206222.952,-25.391,-15.625,-35.645,-21.973,0.000
1709206222.956,-27.832,-15.625,-36.621,-26.367,0.000
1709206222.960,-39.062,-41.992,-36.133,-31.250,0.000
1709206222.964,-35.156,-41.992,-37.598,-40.527,0.000
1709206222.968,-41.016,-34.180,-36.621,-41.992,0.000
1709206222.972,-40.527,-47.363,-35.645,-37.598,0.000
1709206222.976,-32.227,-41.016,-33.203,-34.180,0.000
1709206222.980,-38.574,-27.344,-37.109,-28.320,0.000
1709206222.983,-39.062,-42.969,-40.527,-32.227,0.000
1709206222.987,-42.969,-41.504,-40.527,-50.293,0.000
1709206222.991,-40.039,-55.176,-37.598,-42.480,0.000
1709206222.995,-29.785,-40.039,-37.109,-25.879,0.000
1709206222.999,-37.109,-21.973,-39.062,-33.203,0.000
1709206223.003,-47.852,-43.945,-35.156,-36.621,0.000
1709206223.007,-51.270,-41.504,-37.109,-36.621,0.000
1709206223.011,-56.152,-30.762,-43.457,-35.156,0.000
1709206223.015,-53.711,-26.855,-42.969,-30.762,0.000
1709206223.019,-36.621,-43.457,-44.922,-30.273,0.000
1709206223.023,-25.879,-39.551,-42.969,-40.039,0.000
1709206223.026,-40.039,-27.344,-34.668,-42.480,0.000
1709206223.030,-46.387,-45.410,-38.574,-39.551,0.000
1709206223.034,-38.086,-62.500,-34.668,-39.551,0.000
1709206223.038,-49.805,-58.594,-34.668,-38.574,0.000
1709206223.042,-47.363,-16.602,-40.527,-46.387,0.000
1709206223.046,-36.621,-16.602,-31.738,-46.875,0.000
1709206223.050,-45.410,-36.621,-36.621,-42.480,0.000
1709206223.054,-45.410,-30.273,-45.410,-41.992,0.000
1709206223.058,-39.062,-26.855,-40.039,-39.062,0.000
1709206223.062,-36.133,-39.551,-40.527,-45.898,0.000
1709206223.065,-41.504,-47.363,-42.480,-48.340,0.000
1709206223.069,-30.762,-37.598,-41.016,-34.180,0.000
1709206223.073,-24.902,-34.180,-39.062,-27.344,0.000
1709206223.077,-42.480,-43.945,-36.621,-34.180,0.000
1709206223.081,-38.086,-61.035,-36.133,-34.180,0.000
1709206223.085,-36.133,-53.711,-41.504,-35.156,0.000
1709206223.089,-40.527,-22.949,-44.922,-39.551,0.000
1709206223.093,-37.598,-38.086,-38.574,-34.668,0.000
1709206223.097,-36.621,-47.363,-40.039,-37.598,0.000
1709206223.101,-37.109,-32.715,-40.527,-37.598,0.000
1709206223.105,-32.715,-28.809,-36.621,-40.039,0.000
1709206223.108,-41.504,-35.156,-33.203,-40.527,0.000
1709206223.112,-36.133,-32.227,-28.809,-28.809,0.000
1709206223.116,-37.598,-25.879,-35.156,-29.785,0.000
1709206223.120,-49.805,-37.109,-34.180,-43.945,0.000
1709206223.124,-41.504,-62.988,-26.855,-54.199,0.000
1709206223.128,-47.852,-62.012,-30.762,-45.898,0.000
1709206223.132,-49.316,-24.414,-30.762,-40.039,0.000
1709206223.136,-41.992,-22.949,-28.320,-43.945,0.000
1709206223.140,-36.133,-56.641,-29.785,-41.504,0.000
1709206223.144,-31.738,-53.223,-25.879,-27.832,0.000
1709206223.147,-30.273,-21.973,-27.344,-26.367,0.000
1709206223.151,-32.227,-31.738,-27.344,-26.367,0.000
1709206223.155,-37.109,-41.016,-25.879,-17.578,0.000
1709206223.159,-36.133,-33.691,-30.273,-25.879,0.000
1709206223.163,-37.598,-32.715,-37.109,-48.828,0.000
1709206223.167,-37.598,-48.340,-35.645,-46.875,0.000
1709206223.171,-39.551,-59.570,-34.180,-27.344,0.000
1709206223.175,-40.039,-45.410,-37.598,-35.156,0.000
1709206223.179,-30.273,-26.855,-37.598,-49.805,0.000
1709206223.183,-20.020,-37.109,-32.227,-49.316,0.000
1709206223.187,-22.949,-68.359,-32.227,-40.039,0.000
1709206223.190,-14.160,-41.504,-39.551,-34.180,0.000
1709206223.194,-16.602,-15.625,-41.016,-32.227,0.000
1709206223.198,-22.949,-43.457,-42.969,-25.391,0.000
1709206223.202,-16.602,-45.898,-38.574,-27.344,0.000
1709206223.206,-21.973,-29.297,-31.738,-28.809,0.000
1709206223.210,-32.715,-32.715,-35.156,-26.367,0.000
1709206223.214,-28.320,-40.527,-35.645,-20.020,0.000
1709206223.218,-26.367,-42.480,-35.645,-29.785,0.000
1709206223.222,-25.879,-30.762,-37.109,-34.180,0.000
1709206223.226,-28.320,-23.926,-37.598,-25.391,0.000
1709206223.230,-47.852,-62.012,-38.086,-20.996,0.000
1709206223.233,-45.898,-71.289,-40.527,-17.578,0.000
1709206223.237,-41.992,-28.809,-40.527,-28.320,0.000
1709206223.241,-43.457,-35.645,-44.434,-44.922,0.000
1709206223.245,0.000,-54.199,-49.316,-44.434,0.000
1709206223.249,0.000,-46.387,-46.875,-37.109,0.000
1709206223.253,0.000,-32.715,-49.805,-27.344,0.000
1709206223.257,0.000,-41.504,-51.270,-24.414,0.000
1709206223.261,0.000,-54.688,-47.852,-28.809,0.000
1709206223.265,0.000,-56.152,-46.875,-32.227,0.000
1709206223.269,0.000,-41.504,-45.410,-32.715,0.000
1709206223.273,0.000,-37.109,-51.270,-32.715,0.000
1709206223.276,0.000,-63.965,-47.363,-18.066,0.000
1709206223.280,0.000,-49.316,-39.062,-22.461,0.000
1709206223.284,0.000,-12.207,-41.504,-44.922,0.000
1709206223.288,0.000,-26.855,-43.457,-31.250,0.000
1709206223.292,-37.109,-43.945,-46.875,-29.297,0.000
1709206223.296,-35.156,-34.668,-45.898,-37.109,0.000
1709206223.300,-29.297,-27.344,-37.598,-28.809,0.000
1709206223.304,-34.668,-41.992,-40.039,-32.227,0.000
1709206223.308,-47.852,-59.082,-41.016,-39.551,0.000
1709206223.312,-44.434,-52.246,-37.109,-42.969,0.000
1709206223.316,-43.457,-47.363,-41.992,-41.992,0.000
1709206223.319,-40.527,-55.664,-41.016,-39.062,0.000
1709206223.323,-38.086,-55.664,-41.504,-36.621,0.000
1709206223.327,-51.758,-32.227,-43.945,-40.039,0.000
1709206223.331,-48.828,-37.109,-40.527,-47.852,0.000
1709206223.335,-44.434,-43.945,-36.621,-42.969,0.000
1709206223.339,-46.875,-37.598,-37.109,-36.133,0.000
1709206223.343,-47.852,-34.180,-40.527,-40.527,0.000
1709206223.347,-43.945,-47.852,-44.434,-34.668,0.000
1709206223.351,-44.434,-54.199,-44.434,-33.691,0.000
1709206223.355,-47.852,-41.504,-41.504,-35.645,0.000
1709206223.358,-40.039,-47.363,-41.016,-37.598,0.000
1709206223.362,-45.898,-52.734,-43.945,-37.109,0.000
1709206223.366,-61.523,-67.383,-44.434,-15.625,0.000
1709206223.370,-58.594,-59.082,-40.039,-13.184,0.000
1709206223.374,-51.758,-37.109,-37.109,-37.109,0.000
1709206223.378,-47.363,-47.363,-40.039,-51.270,0.000
1709206223.382,-39.551,-35.645,-37.598,-49.316,0.000
1709206223.386,-38.086,-24.902,-32.715,-47.852,0.000
1709206223.390,-40.527,-32.715,-38.574,-50.781,0.000
1709206223.394,-46.875,-46.875,-41.992,-45.410,0.000
1709206223.398,-49.805,-47.363,-45.898,-48.828,0.000
1709206223.401,-47.852,-36.621,-45.898,-58.105,0.000
1709206223.405,-36.133,-46.387,-41.016,-49.316,0.000
1709206223.409,-36.621,-56.641,-41.992,-38.574,0.000
1709206223.413,-59.570,-53.711,-40.039,-33.203,0.000
1709206223.417,-59.082,-21.973,-36.133,-39.551,0.000
1709206223.421,-50.781,-24.414,-40.527,-40.527,0.000
1709206223.425,-45.898,-41.992,-39.062,-36.133,0.000
1709206223.429,-43.457,-41.504,-36.133,-37.109,0.000
1709206223.433,-49.805,-29.297,-40.039,-45.898,0.000
1709206223.437,-44.434,-35.645,-42.969,-48.340,0.000
1709206223.440,-41.016,-46.875,-45.898,-41.504,0.000
1709206223.444,-45.898,-32.715,-42.480,-42.480,0.000
1709206223.448,-51.270,-35.645,-47.363,-46.387,0.000
1709206223.452,-42.480,-46.875,-52.246,-43.457,0.000
1709206223.456,-28.320,-61.523,-41.992,-30.273,0.000
1709206223.460,-46.387,-44.922,-37.109,-32.715,0.000
1709206223.464,-47.363,-17.578,-37.109,-41.504,0.000
1709206223.468,-38.086,-39.551,-40.039,-35.156,0.000
1709206223.472,-38.574,-38.086,-36.133,-29.785,0.000
1709206223.476,-40.527,-22.461,-36.621,-42.969,0.000
1709206223.480,-36.621,-20.996,-47.363,-51.758,0.000
1709206223.483,-35.156,-37.598,-47.363,-45.898,0.000
1709206223.487,-41.504,-43.457,-41.016,-44.922,0.000
1709206223.491,-44.434,-20.996,-36.133,-39.551,0.000
1709206223.495,-30.273,-19.043,-39.062,-45.898,0.000
1709206223.499,-26.855,-49.316,-39.551,-46.875,0.000
1709206223.503,-50.781,-53.711,-32.715,-37.109,0.000
1709206223.507,-55.176,-13.184,-33.691,-35.645,0.000
1709206223.511,-44.922,-12.695,-32.227,-24.902,0.000
1709206223.515,-35.156,-27.832,-33.203,-22.949,0.000
1709206223.519,-27.832,-31.738,-39.062,-26.855,0.000
1709206223.523,-26.855,-30.273,-39.062,-26.855,0.000
1709206223.526,-31.250,-25.391,-34.668,-35.156,0.000
1709206223.530,-35.645,-32.227,-33.691,-33.203,0.000
1709206223.534,-33.203,-25.879,-36.133,-20.996,0.000
1709206223.538,-37.109,-19.531,-35.645,-20.020,0.000
1709206223.542,-35.645,-35.156,-39.062,-26.367,0.000
1709206223.546,-37.109,-41.504,-35.645,-30.762,0.000
1709206223.550,-49.316,-31.738,-30.273,-22.461,0.000
1709206223.554,-47.363,-21.484,-29.297,-19.043,0.000
1709206223.558,-44.922,-33.691,-32.227,-34.180,0.000
1709206223.562,-42.969,-68.359,-33.203,-28.809,0.000
1709206223.566,-52.734,-47.363,-29.785,-13.184,0.000
1709206223.569,-57.129,-20.020,-32.715,-18.066,0.000
1709206223.573,-54.199,-42.969,-32.227,-31.738,0.000
1709206223.577,-62.012,-41.992,-34.180,-45.410,0.000
1709206223.581,-57.617,-21.973,-35.645,-47.363,0.000
1709206223.585,-44.922,-29.297,-38.086,-49.316,0.000
1709206223.589,-54.199,-51.758,-40.527,-49.316,0.000
1709206223.593,-61.035,-57.617,-46.387,-46.387,0.000
1709206223.597,-58.105,-32.227,-55.664,-53.223,0.000
1709206223.601,-51.758,-25.879,-44.922,-54.199,0.000
1709206223.605,-38.574,-50.293,-37.109,-44.922,0.000
1709206223.609,-37.598,-59.570,-40.527,-35.645,0.000
1709206223.612,-58.105,-22.949,-40.527,-41.016,0.000
1709206223.616,-62.012,-12.695,-39.062,-38.574,0.000
1709206223.620,-47.363,-32.715,-33.691,-23.926,0.000
1709206223.624,-51.758,-27.344,-34.180,-36.133,0.000
1709206223.628,-56.152,-23.438,-39.551,-54.688,0.000
1709206223.632,-52.246,-37.109,-40.039,-52.246,0.000
1709206223.636,-48.828,-35.645,-36.621,-40.527,0.000
1709206223.640,-42.480,-39.062,-35.645,-34.668,0.000
1709206223.644,-39.062,-40.527,-38.574,-39.551,0.000
1709206223.648,-41.016,-29.785,-38.086,-41.504,0.000
1709206223.651,-43.457,-57.617,-35.156,-29.297,0.000
1709206223.655,-45.410,-52.246,-35.645,-26.855,0.000
1709206223.659,-34.668,-28.320,-34.668,-35.156,0.000
1709206223.663,-29.785,-39.062,-32.227,-37.598,0.000
1709206223.667,-45.898,-29.785,-34.668,-35.645,0.000
1709206223.671,-47.852,-26.367,-39.062,-34.180,0.000
1709206223.675,-41.016,-35.156,-34.668,-31.250,0.000
1709206223.679,-36.133,-45.898,-34.668,-34.668,0.000
1709206223.683,-35.645,-46.387,-41.504,-40.527,0.000
1709206223.687,-34.180,-41.504,-47.363,-40.527,0.000
1709206223.691,-41.504,-31.250,-52.734,-47.363,0.000
1709206223.694,-37.109,-43.457,-45.410,-36.133,0.000
1709206223.698,-36.133,-59.082,-42.480,-29.297,0.000
1709206223.702,-30.762,-15.625,-41.992,-32.715,0.000
1709206223.706,-23.926,-21.973,-39.551,-33.203,0.000
1709206223.710,-40.527,-54.199,-39.062,-36.133,0.000
1709206223.714,-48.340,-52.734,-40.527,-34.668,0.000
1709206223.718,-42.480,-38.574,-38.574,-33.691,0.000
1709206223.722,-50.781,-39.551,-36.621,-38.574,0.000
1709206223.726,-57.129,-47.363,-38.086,-54.199,0.000
1709206223.730,-39.551,-37.109,-36.621,-54.199,0.000
1709206223.734,-44.922,-44.434,-37.598,-43.945,0.000
1709206223.737,-49.805,-45.898,-35.645,-43.945,0.000
1709206223.741,-40.039,-56.641,-36.621,-40.527,0.000
1709206223.745,-48.340,-43.457,-37.109,-41.504,0.000
1709206223.749,-51.758,-27.344,-33.203,-43.457,0.000
1709206223.753,-47.852,-36.133,-34.668,-37.598,0.000
1709206223.757,-42.969,-20.508,-36.133,-36.621,0.000
1709206223.761,-23.926,-15.625,-36.133,-35.645,0.000
1709206223.765,-20.996,-26.855,-36.133,-27.344,0.000
1709206223.769,-30.762,-47.363,-35.645,-19.043,0.000
1709206223.773,-20.996,-48.828,-38.086,-25.879,0.000
1709206223.776,-28.320,-34.668,-35.156,-31.738,0.000
1709206223.780,-34.668,-41.992,-31.738,-32.227,0.000
1709206223.784,-22.949,-55.664,-35.645,-23.438,0.000
1709206223.788,-32.715,-56.641,-31.250,-16.113,0.000
1709206223.792,-45.898,-23.926,-27.344,-27.344,0.000
1709206223.796,-36.621,-26.367,-33.691,-35.156,0.000
1709206223.800,-39.551,-47.363,-38.574,-33.691,0.000
1709206223.804,-45.410,-37.109,-33.203,-30.273,0.000
1709206223.808,-39.551,-30.273,-41.504,-31.250,0.000
1709206223.812,-40.039,-47.852,-54.199,-42.480,0.000
1709206223.816,-45.410,-52.246,-45.898,-39.062,0.000
1709206223.819,-26.855,-47.363,-38.086,-34.180,0.000
1709206223.823,-33.203,-53.223,-38.574,-47.852,0.000
1709206223.827,-50.293,-56.152,-35.645,-59.570,0.000
1709206223.831,-38.574,-72.754,-38.086,-46.387,0.000
1709206223.835,-42.480,-49.805,-41.504,-36.621,0.000
1709206223.839,-43.457,-3.906,-40.039,-49.316,0.000
1709206223.843,-36.133,-28.809,-41.016,-58.105,0.000
1709206223.847,-46.387,-45.898,-41.016,-62.012,0.000
1709206223.851,-49.805,-32.715,-41.016,-56.641,0.000
1709206223.855,-49.805,-28.809,-42.480,-52.246,0.000
1709206223.858,-48.828,-40.039,-40.527,-52.246,0.000
1709206223.862,-42.480,-49.805,-37.109,-60.059,0.000
1709206223.866,-45.898,-24.414,-41.016,-67.871,0.000
1709206223.870,-46.387,-18.555,-43.945,-63.965,0.000
1709206223.874,-47.852,-59.082,-41.016,-53.711,0.000
1709206223.878,-54.688,-62.500,-38.574,-34.180,0.000
1709206223.882,-47.852,-21.484,-40.039,-40.039,0.000
1709206223.886,-39.551,-34.180,-41.016,-41.992,0.000
1709206223.890,-36.621,-49.316,-33.203,-27.344,0.000
1709206223.894,-37.109,-27.344,-36.621,-35.156,0.000
1709206223.897,-22.461,-21.973,-44.434,-33.691,0.000
1709206223.901,-18.066,-28.320,-42.969,-19.531,0.000
1709206223.905,-23.438,-35.156,-41.016,-15.625,0.000
1709206223.909,-22.949,-32.227,-44.922,-14.160,0.000
1709206223.913,-29.785,-23.926,-43.945,-8.301,0.000
1709206223.917,-21.484,-30.762,-40.039,-2.441,0.000
1709206223.921,-24.902,-49.805,-39.551,-10.254,0.000
1709206223.925,-25.879,-41.016,-34.668,-17.090,0.000
1709206223.929,-20.020,-28.320,-36.621,-21.484,0.000
1709206223.933,-31.738,-35.156,-34.668,-24.902,0.000
1709206223.937,-32.715,-58.594,-28.809,-11.719,0.000
1709206223.940,-31.250,-40.527,-31.738,-14.160,0.000
1709206223.944,-40.039,-28.809,-34.668,-30.762,0.000
1709206223.948,-47.852,-54.199,-33.203,-37.598,0.000
1709206223.952,-50.781,-41.016,-34.668,-36.133,0.000
1709206223.956,-52.734,-30.273,-36.133,-37.109,0.000
1709206223.960,-59.570,-38.574,-36.621,-50.293,0.000
1709206223.964,-61.035,-49.805,-37.598,-55.664,0.000
1709206223.968,-55.664,-69.824,-37.109,-58.105,0.000
1709206223.972,-64.941,-54.199,-40.527,-53.711,0.000
1709206223.976,-67.383,-24.902,-40.039,-54.688,0.000
1709206223.980,-47.852,-54.199,-35.156,-64.453,0.000
1709206223.983,-40.527,-64.453,-40.039,-56.152,0.000
1709206223.987,-48.340,-17.090,-42.969,-56.152,0.000
1709206223.991,-50.293,-21.973,-42.480,-65.918,0.000
1709206223.995,-47.852,-40.527,-45.410,-63.477,0.000
1709206223.999,-45.410,-37.598,-47.363,-64.941,0.000
1709206224.003,-42.969,-31.250,-45.410,-65.430,0.000
1709206224.007,-44.434,-30.762,-43.945,-56.641,0.000
1709206224.011,-46.387,-35.156,-42.480,-51.758,0.000
1709206224.015,-43.945,-34.180,-39.062,-46.875,0.000
1709206224.019,-42.480,-25.391,-39.551,-46.387,0.000
1709206224.023,-28.809,-14.160,-41.016,-52.734,0.000
1709206224.026,-28.809,-54.199,-42.969,-36.133,0.000
1709206224.030,-55.176,-50.781,-44.434,-23.438,0.000
1709206224.034,-41.504,-9.766,-48.828,-28.320,0.000
1709206224.038,-41.992,-29.785,-48.340,-27.832,0.000
1709206224.042,-57.129,-45.898,-41.992,-42.480,0.000
1709206224.046,-55.664,-40.527,-37.109,-48.828,0.000
1709206224.050,-59.570,-39.062,-37.598,-48.828,0.000
1709206224.054,-59.570,-48.340,-43.457,-58.105,0.000
1709206224.058,-49.316,-52.734,-39.062,-53.223,0.000
1709206224.062,-45.410,-36.621,-33.691,-44.434,0.000
1709206224.066,-42.480,-28.809,-41.016,-49.805,0.000
1709206224.069,-43.457,-54.688,-43.945,-44.434,0.000
1709206224.073,-52.246,-61.523,-42.969,-28.320,0.000
1709206224.077,-41.016,-19.043,-47.363,-35.645,0.000
1709206224.081,-28.809,-22.461,-45.410,-49.805,0.000
1709206224.085,-32.227,-43.457,-40.039,-42.969,0.000
1709206224.089,-42.969,-37.109,-43.457,-40.039,0.000
1709206224.093,-42.480,-30.273,-47.363,-40.039,0.000
1709206224.097,-40.039,-41.504,-45.898,-32.227,0.000
1709206224.101,-32.715,-41.016,-41.016,-25.391,0.000
1709206224.105,-32.227,-33.203,-38.086,-20.508,0.000
1709206224.108,-25.391,-49.316,-41.504,-17.578,0.000
1709206224.112,-19.531,-54.199,-39.062,-21.973,0.000
1709206224.116,-32.715,-60.059,-34.668,-17.090,0.000
1709206224.120,-33.691,-45.410,-38.086,-14.160,0.000
1709206224.124,-37.109,-32.227,-34.668,-28.320,0.000
1709206224.128,-46.387,-45.410,-41.504,-37.598,0.000
1709206224.132,-48.340,-31.250,-42.480,-36.621,0.000
1709206224.136,-44.922,-12.695,-31.250,-38.086,0.000
1709206224.140,-41.016,-19.043,-38.574,-34.180,0.000
1709206224.144,-44.434,-50.781,-45.410,-38.086,0.000
1709206224.148,-59.570,-56.152,-37.109,-51.758,0.000
1709206224.151,-69.824,-37.109,-35.156,-46.387,0.000
1709206224.155,-52.246,-44.434,-39.551,-51.270,0.000
1709206224.159,-50.293,-63.477,-38.086,-53.223,0.000
1709206224.163,-65.430,-62.500,-35.645,-41.016,0.000
1709206224.167,-61.523,-27.832,-38.086,-54.688,0.000
1709206224.171,-63.477,-36.621,-39.551,-59.570,0.000
1709206224.175,-55.176,-52.246,-34.668,-42.969,0.000
1709206224.179,-42.480,-33.203,-31.738,-38.574,0.000
1709206224.183,-42.480,-24.902,-33.203,-45.410,0.000
1709206224.187,-48.340,-46.387,-38.086,-46.875,0.000
1709206224.190,-56.152,-56.641,-42.480,-46.875,0.000
1709206224.194,-64.941,-44.922,-44.922,-50.293,0.000
1709206224.198,-47.852,-45.410,-43.945,-53.223,0.000
1709206224.202,-40.527,-51.270,-43.457,-56.152,0.000
1709206224.206,-53.711,-68.359,-40.527,-49.805,0.000
1709206224.210,-46.875,-43.945,-39.062,-32.227,0.000
1709206224.214,-34.180,-17.090,-38.574,-27.832,0.000
1709206224.218,-32.227,-46.875,-35.156,-28.320,0.000
1709206224.222,-27.832,-41.992,-34.668,-26.367,0.000
1709206224.226,-26.855,-24.414,-35.645,-30.273,0.000
1709206224.230,-14.648,-30.762,-37.109,-30.273,0.000
1709206224.233,-4.883,-45.410,-38.574,-11.719,0.000
1709206224.237,-20.996,-43.457,-37.598,0.488,0.000
1709206224.241,-18.555,-30.762,-37.109,-14.648,0.000
1709206224.245,-11.719,-31.250,-41.504,-32.227,0.000
1709206224.249,-26.855,-58.105,-40.039,-27.344,0.000
1709206224.253,-25.391,-58.105,-34.180,-17.578,0.000
1709206224.257,-16.113,-25.879,-41.016,-25.391,0.000
1709206224.261,-20.996,-25.391,-41.016,-30.273,0.000
1709206224.265,-26.367,-57.617,-33.691,-23.926,0.000
1709206224.269,-45.898,-70.801,-42.969,-26.855,0.000
1709206224.272,-51.270,-35.156,-42.480,-33.203,0.000
1709206224.276,0.000,-33.691,-40.039,-39.551,0.000
1709206224.280,0.000,-48.340,-46.875,-46.875,0.000
1709206224.284,0.000,-46.875,-45.898,-46.387,0.000
1709206224.288,0.000,-41.016,-44.434,-42.480,0.000
1709206224.292,0.000,-34.180,-41.016,-41.504,0.000
1709206224.296,0.000,-44.434,-38.086,-39.551,0.000
1709206224.300,0.000,-35.645,-36.133,-36.133,0.000
1709206224.304,0.000,-24.902,-41.016,-51.758,0.000
1709206224.308,0.000,-39.062,-37.109,-53.711,0.000
1709206224.312,0.000,-63.965,-27.832,-33.203,0.000
1709206224.315,0.000,-36.133,-26.367,-24.414,0.000
1709206224.319,0.000,-18.066,-33.691,-35.645,0.000
1709206224.323,-51.758,-48.828,-35.156,-39.551,0.000
1709206224.327,-62.988,-48.340,-31.250,-37.109,0.000
1709206224.331,-60.547,-41.504,-35.156,-41.016,0.000
1709206224.335,-51.758,-35.156,-36.621,-27.832,0.000
1709206224.339,-35.156,-42.480,-33.203,-15.137,0.000
1709206224.343,-36.133,-58.594,-34.180,-26.367,0.000
1709206224.347,-37.109,-55.176,-36.133,-28.320,0.000
1709206224.351,-32.715,-47.852,-36.133,-22.949,0.000
1709206224.355,-20.020,-58.105,-36.621,-15.137,0.000
1709206224.358,-23.926,-62.988,-37.109,-6.348,0.000
1709206224.362,-35.156,-24.902,-43.457,-16.602,0.000
1709206224.366,-41.504,-31.738,-47.363,-29.785,0.000
1709206224.370,-38.086,-48.340,-42.969,0.000,0.000
1709206224.374,-32.715,-37.598,-41.016,0.000,0.000
1709206224.378,-34.180,-35.156,-40.039,0.000,0.000
1709206224.382,-29.297,-44.434,-39.551,0.000,0.000
1709206224.386,-27.832,-52.246,-39.551,0.000,0.000
1709206224.390,-47.363,-55.664,-38.086,0.000,0.000
1709206224.394,-58.594,-35.156,-39.551,0.000,0.000
1709206224.398,-49.805,-26.855,-50.293,0.000,0.000
1709206224.401,-46.875,-67.383,-49.316,0.000,0.000
1709206224.405,-43.457,-59.082,-38.574,0.000,0.000
1709206224.409,-47.852,-21.973,-41.016,0.000,0.000
1709206224.413,-42.480,-41.504,-40.527,0.000,0.000
1709206224.417,-43.457,-49.805,-41.016,-37.598,0.000
1709206224.421,-43.457,-41.016,-44.434,-52.246,0.000
1709206224.425,-44.434,-37.109,-42.969,-55.664,0.000
1709206224.429,-64.453,-48.340,-41.016,-50.293,0.000
1709206224.433,-53.223,-60.547,-39.551,-46.875,0.000
1709206224.437,-46.387,-53.711,-38.574,-48.828,0.000
1709206224.441,-54.199,-43.457,-38.086,-55.176,0.000
1709206224.444,-46.875,-54.688,-37.109,-60.059,0.000
1709206224.448,-36.621,-60.059,-34.668,-50.781,0.000
1709206224.452,-39.551,-20.020,-37.109,-49.316,0.000
1709206224.456,-41.992,-27.344,-42.969,-52.734,0.000
1709206224.460,-24.902,-45.898,-37.598,-51.270,0.000
1709206224.464,-40.039,-40.039,-37.109,-55.176,0.000
1709206224.468,-62.012,-37.598,-45.410,-55.176,0.000
1709206224.472,-53.711,-44.434,-44.922,-43.945,0.000
1709206224.476,-51.758,-49.316,-41.992,-46.387,0.000
1709206224.480,-44.434,-39.551,-35.156,-45.898,0.000
1709206224.483,-32.227,-47.852,-36.133,-37.109,0.000
1709206224.487,-33.203,-43.457,-41.504,-33.203,0.000
1709206224.491,-26.367,-54.688,-39.062,-10.742,0.000
1709206224.495,-21.973,-54.199,-40.527,-12.207,0.000
1709206224.499,-17.578,-34.668,-44.434,-29.785,0.000
1709206224.503,-28.320,-37.109,-41.992,-30.762,0.000
1709206224.507,-41.992,-28.809,-40.039,-41.016,0.000
1709206224.511,-39.551,-26.855,-41.992,-32.715,0.000
1709206224.515,-33.691,-31.738,-39.062,-20.020,0.000
1709206224.519,-32.227,-45.898,-43.457,-26.367,0.000
1709206224.523,-36.621,-44.922,-42.969,-40.527,0.000
1709206224.526,-33.203,-39.551,-35.156,-42.969,0.000
1709206224.530,-33.203,-52.246,-35.645,-38.086,0.000
1709206224.534,-34.668,-59.570,-34.668,-37.109,0.000
1709206224.538,-24.414,-56.152,-38.574,-27.344,0.000
1709206224.542,-25.391,-22.949,-43.945,-30.273,0.000
1709206224.546,-33.691,-19.531,-41.504,-41.504,0.000
1709206224.550,-25.879,-38.086,-41.504,-38.574,0.000
1709206224.554,-27.832,-33.691,-38.574,-31.250,0.000
1709206224.558,-26.855,-20.508,-34.180,-30.762,0.000
1709206224.562,-24.414,-21.484,-40.039,-39.551,0.000
1709206224.565,-32.715,-29.297,-44.434,-59.570,0.000
1709206224.569,-34.180,-29.297,-39.551,-59.082,0.000
1709206224.573,-34.668,-36.621,-39.551,-50.293,0.000
1709206224.577,-33.203,-37.598,-40.527,-47.363,0.000
1709206224.581,-40.039,-54.199,-40.527,-35.156,0.000
1709206224.585,-43.457,-45.898,-48.828,-33.691,0.000
1709206224.589,-54.688,-22.949,-50.293,-50.293,0.000
1709206224.593,-64.453,-44.434,-42.480,-54.199,0.000
1709206224.597,-49.316,-40.039,-45.410,-50.781,0.000
1709206224.601,-38.086,-32.227,-41.992,-47.363,0.000
1709206224.604,-35.645,-36.133,-32.715,-35.645,0.000
1709206224.608,-42.480,-54.199,-40.039,-36.133,0.000
1709206224.612,-41.992,-49.805,-41.992,-40.527,0.000
1709206224.616,-33.691,-25.391,-36.133,-39.062,0.000
1709206224.620,-27.344,-33.691,-38.086,-37.598,0.000
1709206224.624,-40.039,-59.570,-36.133,-30.273,0.000
1709206224.628,-47.852,-60.547,-29.785,-19.531,0.000
1709206224.632,-48.340,-25.879,-32.715,-25.391,0.000
1709206224.636,-40.039,-15.625,-37.109,-31.250,0.000
1709206224.640,-30.762,-39.551,-35.156,-23.926,0.000
1709206224.644,-34.180,-43.457,-34.180,-20.020,0.000
1709206224.647,-29.297,-23.438,-36.621,-19.043,0.000
1709206224.651,-30.762,-33.203,-36.133,-16.113,0.000
1709206224.655,-37.598,-45.898,-38.086,-26.855,0.000
1709206224.659,-41.504,-30.762,-43.945,-42.969,0.000
1709206224.663,-39.551,-28.809,-43.457,-46.387,0.000
1709206224.667,-35.156,-39.062,-36.621,-46.387,0.000
1709206224.671,-50.293,-57.129,-36.621,-55.664,0.000
1709206224.675,-60.547,-49.805,-36.621,-65.918,0.000
1709206224.679,-50.293,-30.273,-30.273,-63.965,0.000
1709206224.683,-49.316,-40.039,-28.809,-56.152,0.000
1709206224.687,-51.270,-59.082,-36.621,-56.641,0.000
1709206224.690,-52.246,-55.176,-41.992,-59.570,0.000
1709206224.694,-58.594,-34.180,-41.504,-63.965,0.000
1709206224.698,0.000,-40.527,-42.480,-57.617,0.000
1709206224.702,0.000,-43.945,-41.016,-56.641,0.000
1709206224.706,0.000,-36.133,-37.598,-53.223,0.000
1709206224.710,0.000,-36.133,-36.621,-42.480,0.000
1709206224.714,0.000,-43.945,-32.715,-35.645,0.000
1709206224.718,0.000,-49.805,-31.738,-36.133,0.000
1709206224.722,0.000,-33.203,-32.227,-36.621,0.000
1709206224.726,0.000,-25.391,-35.156,-44.922,0.000
1709206224.730,0.000,-54.688,-39.062,-40.039,0.000
1709206224.733,0.000,-64.941,-45.410,-19.043,0.000
1709206224.737,0.000,-20.020,-48.828,-29.785,0.000
1709206224.741,0.000,-30.273,-40.527,-37.109,0.000
1709206224.745,-35.156,-56.152,-36.133,-36.133,0.000
1709206224.749,-46.875,-45.410,-40.039,-41.992,0.000
1709206224.753,-60.059,-38.574,-44.922,-39.551,0.000
1709206224.757,-50.293,-52.246,-41.992,-34.668,0.000
1709206224.761,-42.969,-62.500,-37.598,-40.039,0.000
1709206224.765,-41.016,-55.176,-40.527,-42.969,0.000
1709206224.769,-37.598,-35.645,-40.527,-36.133,0.000
1709206224.773,-47.852,-29.297,-37.109,-35.156,0.000
1709206224.776,-42.480,-66.895,-37.109,-30.762,0.000
1709206224.780,-32.715,-56.152,-37.109,-34.668,0.000
1709206224.784,-38.574,-16.113,-38.574,-48.340,0.000
1709206224.788,-48.340,-37.109,-36.621,-39.062,0.000
1709206224.792,-51.758,-51.758,-33.691,-39.551,0.000
1709206224.796,-50.293,-40.039,-38.086,-52.246,0.000
1709206224.800,-41.504,-47.852,-34.180,-47.852,0.000
1709206224.804,-52.734,-58.105,-33.203,-44.922,0.000
1709206224.808,-64.453,-47.363,-39.062,-44.434,0.000
1709206224.812,-64.453,-51.758,-40.039,-39.062,0.000
1709206224.815,-51.270,-40.039,-41.504,-37.598,0.000
1709206224.819,-34.668,-42.480,-37.598,-34.180,0.000
1709206224.823,-37.598,-58.594,-36.621,-22.461,0.000
1709206224.827,-37.109,-27.832,-40.039,-27.832,0.000
1709206224.831,-35.645,-24.414,-30.762,-26.367,0.000
1709206224.835,-38.574,-41.992,-25.879,-12.207,0.000
1709206224.839,-39.062,-42.480,-29.297,-11.230,0.000
1709206224.843,-40.527,-28.809,-29.297,-16.113,0.000
1709206224.847,-43.457,-40.039,-36.133,-30.762,0.000
1709206224.851,-37.598,-50.293,-35.156,-36.133,0.000
1709206224.855,-38.574,-38.086,-31.738,-24.414,0.000
1709206224.858,-43.457,-43.457,-37.598,-34.180,0.000
1709206224.862,-34.668,-41.504,-43.457,-46.875,0.000
1709206224.866,-15.137,-58.105,-45.410,-42.480,0.000
1709206224.870,-34.668,-45.410,-41.504,-36.621,0.000
1709206224.874,-48.828,-22.949,-41.016,-34.180,0.000
1709206224.878,-26.367,-40.039,-41.992,-31.250,0.000
1709206224.882,-39.062,-29.297,-47.363,-38.086,0.000
1709206224.886,-42.480,-17.578,-42.969,-36.621,0.000
1709206224.890,-32.715,-23.438,-32.227,-36.133,0.000
1709206224.894,-31.250,-36.133,-28.320,-43.457,0.000
1709206224.897,-33.691,-39.062,-31.738,-43.457,0.000
1709206224.901,-40.039,-31.250,-36.133,-47.363,0.000
1709206224.905,-49.805,-40.039,-38.086,-55.664,0.000
1709206224.909,-49.316,-56.152,-39.062,-52.734,0.000
1709206224.913,-45.898,-60.547,-43.457,-47.363,0.000
1709206224.917,-54.199,-37.598,-43.945,-55.664,0.000
1709206224.921,-46.875,-28.809,-41.016,-63.477,0.000
1709206224.925,-23.926,-42.480,-42.480,-53.711,0.000
1709206224.929,-32.715,-49.805,-41.504,-43.457,0.000
1709206224.933,-51.270,-42.480,-42.480,-47.363,0.000
1709206224.937,-46.875,-44.922,-45.410,-56.152,0.000
1709206224.940,-44.434,-54.688,-45.898,-55.664,0.000
1709206224.944,-41.992,-49.805,-43.945,-46.387,0.000
1709206224.948,-47.852,-50.781,-41.016,-44.922,0.000
1709206224.952,-51.758,-53.711,-39.551,-45.410,0.000
1709206224.956,-44.922,-71.289,-37.109,-33.203,0.000
1709206224.960,-41.992,-52.734,-35.156,-27.344,0.000
1709206224.964,-54.199,-18.066,-40.527,-37.598,0.000
1709206224.968,-52.734,-40.039,-41.016,-39.551,0.000
1709206224.972,-37.598,-45.898,-36.621,-29.297,0.000
1709206224.976,-58.594,-37.109,-41.992,-29.785,0.000
1709206224.979,-61.035,-25.879,-38.574,-41.016,0.000
1709206224.983,-46.387,-32.227,-35.645,-40.039,0.000
1709206224.987,-48.828,-37.598,-33.203,-38.574,0.000
1709206224.991,-47.852,-30.762,-30.762,-42.969,0.000
1709206224.995,-53.223,-35.156,-37.598,-49.316,0.000
1709206224.999,-53.223,-49.316,-37.598,-46.875,0.000
1709206225.003,-49.316,-59.082,-36.621,-47.363,0.000
1709206225.007,-59.570,-25.391,-42.480,-50.293,0.000
1709206225.011,-60.059,-13.184,-46.387,-46.875,0.000
1709206225.015,-59.570,-37.109,-43.457,-48.340,0.000
1709206225.019,-53.223,-31.738,-41.504,-55.176,0.000
1709206225.022,-52.734,-16.113,-44.434,-54.688,0.000
1709206225.026,-44.922,-30.273,-43.945,-51.270,0.000
1709206225.030,-31.738,-48.828,-42.480,-54.688,0.000
1709206225.034,-48.828,-43.945,-44.434,-54.199,0.000
1709206225.038,-53.223,-36.621,-48.340,-49.316,0.000
1709206225.042,-49.316,-48.340,-45.410,-47.852,0.000
1709206225.046,-51.758,-67.871,-44.434,-44.922,0.000
1709206225.050,-50.293,-52.246,-42.969,-46.387,0.000
1709206225.054,-42.969,-32.715,-43.945,-55.176,0.000
1709206225.058,-30.762,-43.945,-50.781,-60.547,0.000
1709206225.061,-45.410,-66.406,-50.781,-43.457,0.000
1709206225.065,-66.895,-44.922,-42.480,-35.156,0.000
1709206225.069,-52.734,-20.020,-36.133,-49.805,0.000
1709206225.073,-41.504,-39.062,-30.762,-46.875,0.000
1709206225.077,-44.434,-46.875,-35.156,-37.598,0.000
1709206225.081,-52.246,-38.574,-41.016,-32.715,0.000
1709206225.085,-44.434,-40.039,-41.992,-38.086,0.000
1709206225.089,-44.434,-56.641,-48.340,-41.016,0.000
1709206225.093,-40.039,-60.059,-46.387,-20.508,0.000
1709206225.097,-19.531,-37.109,-41.504,-14.648,0.000
1709206225.101,-26.855,-28.809,-47.363,-26.367,0.000
1709206225.104,-22.949,-59.082,-47.852,-30.273,0.000
1709206225.108,-25.879,-59.570,-40.039,-19.043,0.000
1709206225.112,-37.109,-25.879,-37.598,-12.207,0.000
1709206225.116,-32.227,-35.156,-39.551,-29.297,0.000
1709206225.120,-40.039,-50.293,-44.434,-41.504,0.000
1709206225.124,-41.016,-46.387,-43.457,-41.016,0.000
1709206225.128,-30.762,-35.645,-40.039,-39.062,0.000
1709206225.132,-25.391,-35.645,-42.480,-33.203,0.000
1709206225.136,-33.203,-42.969,-46.387,-34.180,0.000
1709206225.140,-35.156,-41.504,-45.898,-39.062,0.000
1709206225.144,-40.527,-39.062,-42.969,-44.922,0.000
1709206225.147,-31.738,-36.133,-46.387,-50.293,0.000
1709206225.151,-29.297,-57.617,-41.504,-42.480,0.000
1709206225.155,-45.898,-58.594,-34.180,-35.645,0.000
1709206225.159,-38.574,-23.926,-38.086,-41.504,0.000
1709206225.163,-32.715,-31.738,-39.551,-38.574,0.000
1709206225.167,-39.062,-38.086,-34.668,-38.574,0.000
1709206225.171,-37.598,-29.297,-32.227,-42.969,0.000
1709206225.175,-36.133,-26.367,-34.668,-40.039,0.000
1709206225.179,-38.086,-41.504,-34.668,-42.480,0.000
1709206225.183,-35.156,-51.758,-32.227,-48.340,0.000
1709206225.186,-26.855,-46.875,-32.227,-51.270,0.000
1709206225.190,-32.227,-34.180,-29.785,-49.316,0.000
1709206225.194,-26.367,-45.410,-29.297,-40.527,0.000
1709206225.198,-33.691,-63.477,-35.645,-31.738,0.000
1709206225.202,-55.176,-40.039,-36.133,-34.668,0.000
1709206225.206,-52.734,-35.156,-36.621,-41.992,0.000
1709206225.210,-57.129,-33.691,-39.551,-39.551,0.000
1709206225.214,-42.480,-29.297,-38.574,-29.297,0.000
1709206225.218,-32.227,-26.855,-35.156,-31.250,0.000
1709206225.222,-34.668,-39.062,-35.645,-31.250,0.000
1709206225.226,-36.621,-47.852,-37.598,-28.809,0.000
1709206225.229,-38.086,-48.828,-36.621,-23.926,0.000
1709206225.233,-42.969,-53.223,-34.180,-27.344,0.000
1709206225.237,-37.109,-41.992,-29.785,-40.039,0.000
1709206225.241,-29.297,-56.152,-38.574,-28.320,0.000
1709206225.245,-32.227,-47.363,-45.410,-23.438,0.000
1709206225.249,-25.879,-22.461,-36.621,-29.785,0.000
1709206225.253,-42.969,-29.785,-33.203,-29.297,0.000
1709206225.257,-56.152,-26.367,-34.180,-33.203,0.000
1709206225.261,-43.457,-23.438,-36.133,-36.621,0.000
1709206225.265,-34.668,-16.602,-33.203,-45.898,0.000
1709206225.268,-39.062,-27.344,-34.180,-46.875,0.000
1709206225.272,-36.133,-34.668,-39.062,-40.039,0.000
1709206225.276,-24.414,-24.902,-33.203,-30.273,0.000
1709206225.280,-25.391,-30.762,-32.715,-35.156,0.000
1709206225.284,-36.133,-45.410,-27.344,-35.156,0.000
1709206225.288,-35.645,-46.875,-20.996,-24.902,0.000
1709206225.292,-38.574,-13.672,-28.809,-30.273,0.000
1709206225.296,-33.203,-9.277,-33.691,-28.320,0.000
1709206225.300,-23.926,-27.832,-34.668,-26.367,0.000
1709206225.304,-16.602,-28.320,-40.039,-32.227,0.000
1709206225.308,-29.297,-19.043,-37.598,-32.227,0.000
1709206225.311,-47.852,-23.926,-38.574,-33.203,0.000
1709206225.315,-37.598,-46.875,-42.969,-32.227,0.000
1709206225.319,-41.504,-35.645,-39.551,-37.109,0.000
1709206225.323,-38.086,-17.090,-41.016,-43.945,0.000
1709206225.327,-31.738,-32.227,-41.504,-42.480,0.000
1709206225.331,-32.227,-60.059,-41.016,-28.320,0.000
1709206225.335,-28.809,-44.434,-41.504,-28.809,0.000
1709206225.339,-18.066,-14.160,-44.434,-43.945,0.000
1709206225.343,-24.902,-35.156,-46.387,-41.992,0.000
1709206225.347,-47.363,-36.133,-43.457,-48.828,0.000
1709206225.350,-45.410,-23.438,-37.598,-49.316,0.000
1709206225.354,-34.668,-21.973,-34.180,-45.898,0.000
1709206225.358,-32.715,-35.645,-35.156,-44.434,0.000
1709206225.362,-38.086,-40.039,-34.668,-44.922,0.000
1709206225.366,-44.434,-31.250,-30.762,-42.480,0.000
1709206225.370,-47.363,-41.504,-33.203,-38.574,0.000
1709206225.374,-47.363,-58.594,-43.945,-40.527,0.000
1709206225.378,-54.688,-60.059,-40.527,-34.180,0.000
1709206225.382,-43.945,-30.273,-36.621,-38.086,0.000
1709206225.386,-47.363,-19.531,-36.621,-47.363,0.000
1709206225.390,-65.430,-49.805,-34.180,-42.480,0.000
1709206225.393,-60.547,-48.340,-35.156,-47.852,0.000
1709206225.397,-67.383,-27.344,-35.645,-52.246,0.000
1709206225.401,-64.453,-33.691,-33.203,-45.898,0.000
1709206225.405,-58.594,-48.828,-29.297,-41.504,0.000
1709206225.409,-60.547,-43.457,-28.320,-42.480,0.000
1709206225.413,-56.641,-34.180,-35.645,-43.945,0.000
1709206225.417,-54.688,-43.457,-42.969,-47.363,0.000
1709206225.421,-44.922,-56.152,-39.062,-35.645,0.000
1709206225.425,-32.227,-47.363,-38.574,-26.855,0.000
1709206225.429,-35.645,-36.133,-41.504,-33.691,0.000
1709206225.432,-41.016,-46.387,-40.039,-30.273,0.000
1709206225.436,-43.945,-52.734,-40.527,-32.227,0.000
1709206225.440,-36.621,-34.180,-38.086,-46.387,0.000
1709206225.444,-22.949,-21.973,-36.133,-48.340,0.000
1709206225.448,-37.109,-40.039,-36.133,-38.086,0.000
1709206225.452,-46.875,-46.875,-38.086,-28.320,0.000
1709206225.456,-45.898,-34.180,-41.504,-38.574,0.000
1709206225.460,-40.527,-27.344,-39.062,-51.270,0.000
1709206225.464,-38.574,-46.387,-36.133,-41.016,0.000
1709206225.468,-45.898,-60.547,-38.086,-35.645,0.000
1709206225.472,-45.898,-39.551,-42.480,-36.621,0.000
1709206225.475,-41.504,-20.508,-37.598,-44.922,0.000
1709206225.479,-43.945,-45.410,-35.645,-43.457,0.000
1709206225.483,-47.363,-62.500,-45.410,-39.062,0.000
1709206225.487,-46.387,-33.691,-50.781,-50.293,0.000
1709206225.491,-56.152,-38.574,-48.828,-48.828,0.000
1709206225.495,-56.152,-46.875,-47.852,0.000,0.000
1709206225.499,-40.527,-43.945,-43.945,0.000,0.000
1709206225.503,-56.641,-43.457,-40.039,0.000,0.000
1709206225.507,-73.242,-52.246,-38.086,0.000,0.000
1709206225.511,-71.777,-55.176,-34.180,0.000,0.000
1709206225.515,-70.801,-48.340,-34.180,0.000,0.000
1709206225.518,-58.594,-36.621,-39.551,0.000,0.000
1709206225.522,-58.594,-35.156,-42.969,0.000,0.000
1709206225.526,-61.035,-71.289,-39.551,0.000,0.000
1709206225.530,-50.781,-63.965,-37.598,0.000,0.000
1709206225.534,-48.828,-22.461,-37.598,0.000,0.000
1709206225.538,-50.293,-31.250,-31.738,0.000,0.000
1709206225.542,-42.480,-42.480,-32.227,-45.410,0.000
1709206225.546,-33.203,-44.434,-34.668,-46.387,0.000
1709206225.550,-32.227,-46.875,-31.738,-35.156,0.000
1709206225.554,-39.062,-43.945,-32.715,-27.344,0.000
1709206225.558,-22.949,-43.457,-36.621,-28.320,0.000
1709206225.561,-24.902,-39.062,-34.180,-23.926,0.000
1709206225.565,-43.945,-41.504,-32.715,-16.113,0.000
1709206225.569,-36.621,-58.594,-43.945,-29.785,0.000
1709206225.573,-23.926,-57.129,-45.410,-25.879,0.000
1709206225.577,-4.883,-15.137,-41.504,-15.137,0.000
1709206225.581,-2.441,-16.113,-36.133,-19.043,0.000
1709206225.585,-9.766,-36.621,-33.691,-15.625,0.000
1709206225.589,-8.301,-34.180,-33.691,-15.137,0.000
1709206225.593,-11.719,-25.879,-33.203,-14.648,0.000
1709206225.597,-24.414,-32.227,-38.086,-15.625,0.000
1709206225.600,-30.762,-42.969,-38.574,-16.602,0.000
1709206225.604,-42.480,-46.387,-45.410,-31.738,0.000
1709206225.608,-56.641,-49.316,-48.828,-34.668,0.000
1709206225.612,-50.781,-45.898,-44.922,-31.738,0.000
1709206225.616,-41.992,-70.312,-42.480,-29.785,0.000
1709206225.620,-55.176,-54.688,-40.039,-22.949,0.000
1709206225.624,-50.293,-20.508,-37.598,-41.016,0.000
1709206225.628,-44.922,-41.992,-32.227,-47.363,0.000
1709206225.632,-53.711,-44.434,-32.715,-42.969,0.000
1709206225.636,-55.176,-39.062,-36.621,-41.504,0.000
1709206225.640,-62.988,-35.645,-40.039,-49.805,0.000
1709206225.643,-63.477,-45.898,-36.133,-52.246,0.000
1709206225.647,-54.688,-50.293,-32.227,-40.039,0.000
1709206225.651,-52.246,-34.668,-33.691,-37.598,0.000
1709206225.655,-49.805,-43.457,-38.574,-35.645,0.000
1709206225.659,-45.410,-55.664,-42.480,-34.668,0.000
1709206225.663,-39.551,-48.828,-38.574,-30.762,0.000
1709206225.667,-36.621,-20.996,-32.715,-31.250,0.000
1709206225.671,-28.320,-26.367,-36.621,-39.062,0.000
1709206225.675,-19.043,-41.504,-36.621,-36.133,0.000
1709206225.679,-33.691,-33.691,-36.621,-31.738,0.000
1709206225.682,-39.062,-29.785,-42.480,-39.062,0.000
1709206225.686,-37.598,-39.062,-41.504,-40.527,0.000
1709206225.690,-38.086,-50.781,-41.504,-34.180,0.000
1709206225.694,-39.062,-36.621,-36.133,-26.367,0.000
1709206225.698,-34.180,-33.203,-29.785,-20.996,0.000
1709206225.702,-37.109,-48.828,-36.133,-34.180,0.000
1709206225.706,-39.062,-67.383,-39.551,-36.133,0.000
1709206225.710,-50.293,-48.340,-41.016,-29.297,0.000
1709206225.714,-46.875,-13.672,-43.945,-41.992,0.000
1709206225.718,-44.434,-32.227,-39.062,-51.270,0.000
1709206225.722,-62.500,-43.457,-41.504,-50.781,0.000
1709206225.725,-60.059,-30.762,-44.922,-57.617,0.000
1709206225.729,-62.988,-29.297,-40.039,-60.059,0.000
1709206225.733,-63.477,-46.875,-35.156,-46.875,0.000
1709206225.737,-69.824,-49.805,-38.574,-43.457,0.000
1709206225.741,-74.219,-39.551,-46.387,-48.828,0.000
1709206225.745,-68.848,-42.969,-44.922,-51.758,0.000
1709206225.749,-72.754,-73.730,-43.457,-53.711,0.000
1709206225.753,-70.801,-82.031,-42.480,-37.598,0.000
1709206225.757,-56.641,-29.297,-37.598,-38.574,0.000
1709206225.761,-40.527,-37.598,-38.574,-50.781,0.000
1709206225.764,-47.852,-64.941,-35.156,-48.340,0.000
1709206225.768,-61.035,-43.945,-33.691,-54.199,0.000
1709206225.772,-56.641,-36.621,-43.457,-50.293,0.000
1709206225.776,-52.734,-51.758,-41.992,-40.527,0.000
1709206225.780,-48.828,-50.781,-37.109,-37.109,0.000
1709206225.784,-47.852,-35.156,-37.109,-34.180,0.000
1709206225.788,-47.363,-35.156,-45.410,-29.297,0.000
1709206225.792,-38.574,-44.922,-48.340,-30.762,0.000
1709206225.796,-37.598,-61.035,-42.480,-34.668,0.000
1709206225.800,-42.480,-50.781,-48.828,-41.504,0.000
1709206225.803,-40.039,-27.832,-47.852,-45.410,0.000
1709206225.807,-32.227,-32.227,-38.574,-44.434,0.000
1709206225.811,-42.480,-64.453,-41.504,-39.062,0.000
1709206225.815,-52.246,-42.969,-42.480,-37.598,0.000
1709206225.819,-36.133,-8.789,-36.621,-46.875,0.000
1709206225.823,-30.273,-37.598,-39.551,-49.316,0.000
1709206225.827,-33.691,-38.086,-40.039,-42.969,0.000
1709206225.831,-29.785,-31.738,-38.086,-38.574,0.000
1709206225.835,-31.250,-35.156,-40.527,-37.109,0.000
1709206225.839,-35.645,-42.480,-38.574,-42.480,0.000
1709206225.843,-37.109,-51.758,-33.691,-45.410,0.000
1709206225.846,-33.203,-24.902,-33.203,-36.621,0.000
1709206225.850,-37.598,-14.160,-37.109,-41.016,0.000
1709206225.854,-43.457,-45.410,-41.992,-36.133,0.000
1709206225.858,-37.598,-57.129,-39.551,-23.926,0.000
1709206225.862,-39.551,-20.020,-38.574,-35.156,0.000
1709206225.866,-42.480,-26.855,-43.945,-38.574,0.000
1709206225.870,-34.668,-47.852,0.000,0.000,0.000
1709206225.874,-30.762,-40.039,0.000,0.000,0.000
1709206225.878,-44.922,-30.273,0.000,0.000,0.000
1709206225.882,-45.898,-41.016,0.000,0.000,0.000
1709206225.886,-40.039,-54.199,0.000,0.000,0.000
1709206225.889,-38.574,-60.547,0.000,0.000,0.000
1709206225.893,-39.062,-49.316,0.000,0.000,0.000
1709206225.897,-41.504,-37.109,0.000,0.000,0.000
1709206225.901,-42.969,-60.547,0.000,0.000,0.000
1709206225.905,-51.270,-57.129,0.000,0.000,0.000
1709206225.909,-39.062,-23.438,0.000,0.000,0.000
1709206225.913,-23.926,-31.250,0.000,0.000,0.000
1709206225.917,-32.227,-41.992,-44.922,-27.344,0.000
1709206225.921,-37.598,-31.250,-45.898,-35.645,0.000
1709206225.924,-35.645,-20.508,-42.969,-45.410,0.000
1709206225.928,-32.715,-37.598,-36.133,-42.969,0.000
1709206225.932,-46.875,-47.852,-33.203,-42.480,0.000
1709206225.936,-52.246,-35.645,-34.180,-40.039,0.000
1709206225.940,-40.527,-30.273,-35.645,-41.992,0.000
1709206225.944,-40.527,-46.387,-35.645,-38.086,0.000
1709206225.948,-41.992,-59.570,-33.691,-29.297,0.000
1709206225.952,-30.762,-25.391,-37.109,-31.738,0.000
1709206225.956,-41.016,-20.020,-39.062,-42.480,0.000
1709206225.960,-46.387,-45.410,-36.133,-42.480,0.000
1709206225.964,-31.250,-38.574,-39.062,-33.203,0.000
1709206225.967,-31.738,-21.484,-41.504,-37.109,0.000
1709206225.971,-30.762,-41.504,-38.086,-33.203,0.000
1709206225.975,-33.203,-39.062,-35.645,-28.809,0.000
1709206225.979,-41.992,-24.414,-40.527,-31.738,0.000
1709206225.983,-37.109,-42.480,-37.598,-29.297,0.000
1709206225.987,-31.250,-38.086,-34.180,-30.273,0.000
1709206225.991,-43.457,-53.711,-40.039,-26.855,0.000
1709206225.995,-50.293,-43.457,-40.527,-28.320,0.000
1709206225.999,-49.805,-18.066,-37.598,-44.922,0.000
1709206226.003,-40.039,-38.574,-41.504,-53.711,0.000
1709206226.006,-44.922,-29.785,-45.410,-52.734,0.000
1709206226.010,-56.641,-16.602,-41.504,-49.805,0.000
1709206226.014,-50.293,-22.461,-37.109,-42.969,0.000
1709206226.018,-51.270,-41.504,-39.551,-45.898,0.000
1709206226.022,-53.223,-46.387,-42.969,-55.176,0.000
1709206226.026,-51.758,-36.621,-43.945,-58.594,0.000
1709206226.030,-52.246,-46.875,-47.852,-56.152,0.000
1709206226.034,-43.457,-57.617,-48.340,-49.805,0.000
1709206226.038,-32.227,-58.105,-45.410,-40.039,0.000
1709206226.042,-46.387,-28.320,-46.875,-46.387,0.000
1709206226.046,-41.992,-21.973,-49.316,-51.270,0.000
1709206226.049,-45.898,-44.922,-45.898,-42.969,0.000
1709206226.053,-59.082,-39.062,-46.875,-46.387,0.000
1709206226.057,-40.527,-24.902,-45.410,-46.387,0.000
1709206226.061,-32.715,-41.992,-40.039,-44.922,0.000
1709206226.065,-36.133,-47.852,-41.992,-43.945,0.000
1709206226.069,-39.551,-36.133,-41.504,-48.828,0.000
1709206226.073,-47.363,-40.527,-42.969,-57.617,0.000
1709206226.077,-48.340,-50.293,-46.387,-55.176,0.000
1709206226.081,-38.086,-72.754,-47.852,-42.969,0.000
1709206226.085,-42.480,-59.570,-46.875,-41.016,0.000
1709206226.088,-46.875,-19.043,-42.969,-53.223,0.000
1709206226.092,-37.109,-39.062,-43.457,-53.223,0.000
1709206226.096,-33.203,-39.062,-39.062,-52.734,0.000
1709206226.100,-42.480,-22.949,-35.645,-50.781,0.000
1709206226.104,-47.852,-28.809,-41.016,-48.340,0.000
1709206226.108,-49.316,-43.457,-40.039,-34.668,0.000
1709206226.112,-49.805,-48.340,-38.086,-32.715,0.000
1709206226.116,-44.922,-45.898,-35.156,-39.062,0.000
1709206226.120,-39.551,-41.016,-36.621,-41.016,0.000
1709206226.124,-41.016,-45.898,-41.016,-44.434,0.000
1709206226.128,-51.758,-57.129,-41.016,-43.457,0.000
1709206226.131,-51.270,-24.414,-44.922,-39.551,0.000
1709206226.135,-38.574,-18.555,-44.434,-45.410,0.000
1709206226.139,-46.387,-50.293,-40.527,-38.574,0.000
1709206226.143,-47.852,-52.246,-36.621,-27.344,0.000
1709206226.147,-41.504,-35.156,-38.086,-43.457,0.000
