timestamps,TP9,AF7,AF8,TP10,Right AUX
1709375847.624,-54.199,-39.551,-38.574,-49.805,0.000
1709375847.628,57.129,-35.645,-38.574,-2.441,0.000
1709375847.632,40.039,-36.621,-39.551,-9.277,0.000
1709375847.636,-86.426,-41.504,-36.133,-58.594,0.000
1709375847.640,-128.418,-48.340,-36.133,-76.660,0.000
1709375847.643,-84.473,-46.875,-39.062,-62.012,0.000
1709375847.647,36.133,-44.922,-36.133,-2.930,0.000
1709375847.651,44.922,-44.922,-35.156,6.348,0.000
1709375847.655,-83.008,-32.715,-41.016,-53.711,0.000
1709375847.659,-131.348,-36.133,-36.621,-73.242,0.000
1709375847.663,-90.332,-39.062,-36.621,-59.570,0.000
1709375847.667,33.203,-29.785,-41.992,-13.672,0.000
1709375847.667,33.203,-29.785,-41.992,-13.672,0.000
1709375847.671,61.035,-30.762,-43.945,10.254,0.000
1709375847.675,-64.941,-40.039,-42.969,-34.180,0.000
1709375847.679,-122.559,-49.805,-42.480,-67.871,0.000
1709375847.682,-95.703,-45.898,-40.039,-60.547,0.000
1709375847.686,20.996,-41.992,-35.156,-17.578,0.000
1709375847.690,68.359,-49.316,-36.621,10.742,0.000
1709375847.694,-63.965,-55.664,-41.504,-35.156,0.000
1709375847.698,-132.324,-48.340,-38.086,-72.754,0.000
1709375847.702,-108.398,-38.086,-36.133,-77.637,0.000
1709375847.706,-9.277,-36.621,-39.062,-40.039,0.000
1709375847.710,67.383,-29.785,-39.551,3.418,0.000
1709375847.714,-36.133,-29.785,-40.527,-35.645,0.000
1709375847.718,-124.512,-41.992,-36.621,-66.895,0.000
1709375847.721,-117.676,-48.828,-31.250,-57.129,0.000
1709375847.725,-19.531,-41.992,-32.227,-20.020,0.000
1709375847.729,75.195,-32.715,-31.738,20.996,0.000
1709375847.733,-17.090,-38.574,-35.156,-9.766,0.000
1709375847.737,-116.211,-49.805,-38.086,-57.129,0.000
1709375847.741,-115.234,-47.852,-37.598,-69.824,0.000
1709375847.745,-31.250,-37.598,-37.598,-39.062,0.000
1709375847.749,72.754,-34.668,-39.062,12.207,0.000
1709375847.753,-10.254,-48.340,-45.410,-22.461,0.000
1709375847.756,-128.906,-54.688,-47.852,-76.660,0.000
1709375847.760,-130.859,-51.270,-41.992,-81.543,0.000
1709375847.765,-56.152,-47.363,-39.062,-57.617,0.000
1709375847.768,56.152,-38.086,-41.016,-15.137,0.000
1709375847.772,2.930,-38.086,-39.062,-38.086,0.000
1709375847.776,-115.234,-45.898,-39.062,-89.844,0.000
1709375847.780,-126.465,-50.293,-44.434,-91.309,0.000
1709375847.784,-68.359,-46.875,-43.457,-66.406,0.000
1709375847.788,46.875,-38.574,-37.109,-18.066,0.000
1709375847.792,20.508,-35.645,-34.180,-24.414,0.000
1709375847.796,-103.027,-44.434,-33.203,-71.777,0.000
1709375847.800,-123.535,-54.688,-34.668,-78.613,0.000
1709375847.803,-74.707,-47.852,-35.645,-62.988,0.000
1709375847.807,44.434,-33.203,-32.715,-16.602,0.000
1709375847.811,43.945,-34.668,-34.180,-10.742,0.000
1709375847.815,-87.402,-44.922,-39.062,-62.012,0.000
1709375847.819,-130.371,-40.039,-34.668,-88.379,0.000
1709375847.823,-94.238,-36.133,-32.227,-72.266,0.000
1709375847.827,20.996,-35.645,-35.156,-15.137,0.000
1709375847.831,47.852,-37.598,-34.180,3.418,0.000
1709375847.835,-73.242,-41.016,-34.180,-42.969,0.000
1709375847.839,-127.930,-40.527,-33.203,-70.312,0.000
1709375847.843,-96.191,-41.016,-30.273,-51.758,0.000
1709375847.846,19.531,-31.250,-31.250,-2.930,0.000
1709375847.850,71.289,-20.020,-37.598,16.113,0.000
1709375847.854,-47.852,-33.691,-38.086,-31.250,0.000
1709375847.858,-121.582,-42.969,-38.574,-70.801,0.000
1709375847.862,-96.191,-38.086,-38.086,-59.570,0.000
1709375847.866,14.160,-28.809,-36.621,-15.137,0.000
1709375847.870,82.520,-30.762,-41.016,16.602,0.000
1709375847.874,-30.273,-38.574,-40.039,-17.578,0.000
1709375847.878,-117.188,-48.340,-44.434,-62.988,0.000
1709375847.882,-107.422,-46.875,-41.504,-67.871,0.000
1709375847.886,-16.113,-43.945,-38.574,-25.391,0.000
1709375847.889,71.289,-44.434,-41.016,18.066,0.000
1709375847.893,-16.602,-40.527,-41.016,-27.344,0.000
1709375847.897,-121.094,-48.340,-44.922,-81.543,0.000
1709375847.901,-125.977,-50.781,-45.410,-81.543,0.000
1709375847.905,-39.551,-47.363,-44.434,-43.945,0.000
1709375847.909,68.359,-37.598,-41.992,7.812,0.000
1709375847.913,-6.836,-41.504,-42.969,-19.043,0.000
1709375847.917,-120.605,-55.664,-41.504,-66.895,0.000
1709375847.921,-120.117,-53.223,-36.133,-69.824,0.000
1709375847.925,-37.598,-46.875,-32.715,-35.645,0.000
1709375847.929,85.449,-36.133,-31.738,16.113,0.000
1709375847.932,27.832,-46.387,-32.227,0.977,0.000
1709375847.936,-96.680,-58.105,-36.621,-52.246,0.000
1709375847.940,-105.469,-49.316,-41.504,-72.754,0.000
1709375847.944,-39.062,-43.945,-38.086,-49.316,0.000
1709375847.948,76.660,-34.180,-35.156,3.418,0.000
1709375847.952,41.992,-31.738,-32.227,-3.906,0.000
1709375847.956,-91.797,-45.898,-35.645,-62.988,0.000
1709375847.960,-124.512,-57.617,-38.086,-83.496,0.000
1709375847.964,-72.266,-50.293,-38.086,-60.547,0.000
1709375847.968,49.316,-38.574,-40.527,-11.230,0.000
1709375847.971,38.574,-42.969,-35.156,-13.672,0.000
1709375847.975,-100.586,-55.176,-34.180,-61.035,0.000
1709375847.979,-142.090,-57.617,-35.645,-67.871,0.000
1709375847.983,-89.355,-45.898,-34.668,-51.758,0.000
1709375847.987,35.645,-34.180,-34.180,-1.953,0.000
1709375847.991,50.293,-38.086,-30.762,15.625,0.000
1709375847.995,-76.172,-50.293,-31.250,-38.086,0.000
1709375847.999,0.000,-48.340,-31.738,0.000,0.000
1709375848.003,0.000,-43.945,-30.273,0.000,0.000
1709375848.007,0.000,-39.062,-34.180,0.000,0.000
1709375848.011,0.000,-29.297,-37.598,0.000,0.000
1709375848.015,0.000,-41.016,-37.598,0.000,0.000
1709375848.018,0.000,-47.363,-30.762,0.000,0.000
1709375848.022,0.000,-46.387,-31.250,0.000,0.000
1709375848.026,0.000,-42.480,-42.480,0.000,0.000
1709375848.030,0.000,-29.785,-45.410,0.000,0.000
1709375848.034,0.000,-36.133,-42.969,0.000,0.000
1709375848.038,0.000,-41.992,-40.527,0.000,0.000
1709375848.042,0.000,-37.598,-35.645,0.000,0.000
1709375848.046,-10.254,-35.645,-32.715,-34.180,0.000
1709375848.050,77.148,-32.715,-37.598,0.488,0.000
1709375848.054,-21.973,-33.691,-42.969,-32.715,0.000
1709375848.057,-114.746,-41.016,-43.945,-67.871,0.000
1709375848.061,-104.492,-46.875,-42.969,-71.289,0.000
1709375848.065,-4.883,-38.574,-37.598,-35.156,0.000
1709375848.069,97.656,-35.156,-34.180,22.461,0.000
1709375848.073,8.301,-39.551,-36.621,-9.277,0.000
1709375848.077,-101.074,-43.945,-34.668,-65.430,0.000
1709375848.081,-110.352,-52.734,-31.738,-67.383,0.000
1709375848.085,-29.297,-43.945,-37.109,-38.086,0.000
1709375848.089,87.891,-31.250,-39.062,8.789,0.000
1709375848.093,0.000,-37.598,0.000,-10.742,0.000
1709375848.096,0.000,-44.922,0.000,-56.152,0.000
1709375848.100,0.000,-47.852,0.000,-65.430,0.000
1709375848.104,0.000,-39.062,0.000,-41.016,0.000
1709375848.108,0.000,-33.691,0.000,-0.488,0.000
1709375848.112,0.000,-43.457,0.000,-13.672,0.000
1709375848.116,0.000,-45.410,0.000,-58.105,0.000
1709375848.120,0.000,-45.898,0.000,-78.125,0.000
1709375848.124,0.000,-37.598,0.000,-61.523,0.000
1709375848.128,0.000,-36.621,0.000,0.488,0.000
1709375848.131,0.000,-40.527,0.000,0.000,0.000
1709375848.135,0.000,-43.457,0.000,-67.871,0.000
1709375848.139,-119.141,-51.758,-41.016,-80.566,0.000
1709375848.143,-70.801,-47.852,-37.109,-54.688,0.000
1709375848.147,53.223,-38.086,-36.621,-2.441,0.000
1709375848.151,65.430,-32.227,-32.227,9.277,0.000
1709375848.155,-73.730,-45.898,-32.227,-41.504,0.000
1709375848.159,-130.371,-60.059,-36.133,-64.941,0.000
1709375848.163,-93.262,-52.734,-36.621,-57.129,0.000
1709375848.167,18.066,-37.109,-35.645,-9.277,0.000
1709375848.171,50.293,-39.062,-34.668,8.301,0.000
1709375848.175,-71.289,-48.828,-34.180,-40.039,0.000
1709375848.178,-127.930,-44.434,-33.203,-70.312,0.000
1709375848.182,-83.008,-45.898,-33.203,-63.477,0.000
1709375848.186,26.855,-44.434,-36.621,-15.625,0.000
1709375848.190,67.383,-36.133,-33.203,11.230,0.000
1709375848.194,-47.852,-41.016,-31.738,-32.715,0.000
1709375848.198,-118.164,-46.387,-31.250,-62.500,0.000
1709375848.202,-100.098,-47.363,-31.738,-60.059,0.000
1709375848.206,1.465,-42.480,-35.156,-20.996,0.000
1709375848.210,75.684,-37.598,-34.180,11.719,0.000
1709375848.214,-32.715,-48.828,-37.598,-36.621,0.000
1709375848.218,-119.141,-55.176,-36.133,-62.500,0.000
1709375848.221,-113.770,-43.945,-34.180,-61.035,0.000
1709375848.225,-25.391,-32.227,-37.109,-41.504,0.000
1709375848.229,75.684,-32.715,-35.156,-1.465,0.000
1709375848.233,-9.277,-38.574,-36.621,-30.273,0.000
1709375848.237,-115.723,-46.387,-42.969,-76.172,0.000
1709375848.241,-118.164,-50.293,-43.945,-80.078,0.000
1709375848.245,-34.180,-50.293,-40.527,-39.551,0.000
1709375848.249,69.824,-41.504,-40.039,2.441,0.000
1709375848.253,-0.488,-43.945,-39.551,-23.438,0.000
1709375848.257,-115.234,-50.293,-42.480,-64.941,0.000
1709375848.261,-128.906,-50.293,-42.969,-76.660,0.000
1709375848.264,-54.199,-47.363,-40.039,-41.016,0.000
1709375848.268,63.477,-31.250,-37.598,10.254,0.000
1709375848.272,16.113,-33.691,-35.156,-11.230,0.000
1709375848.276,-105.957,-50.781,-40.039,-53.711,0.000
1709375848.280,0.000,-50.293,-44.434,0.000,0.000
1709375848.284,0.000,-41.992,-41.504,0.000,0.000
1709375848.288,0.000,-37.109,-38.574,0.000,0.000
1709375848.292,0.000,-36.133,-37.109,0.000,0.000
1709375848.296,0.000,-46.387,-37.109,0.000,0.000
1709375848.300,0.000,-54.199,-38.574,0.000,0.000
1709375848.304,0.000,-45.898,-38.574,0.000,0.000
1709375848.308,0.000,-42.969,-36.621,0.000,0.000
1709375848.312,0.000,-42.480,-35.645,0.000,0.000
1709375848.315,0.000,-39.551,-35.156,0.000,0.000
1709375848.319,0.000,-50.293,-38.574,0.000,0.000
1709375848.323,0.000,-51.270,-40.039,0.000,0.000
1709375848.327,38.574,-36.621,-32.227,-8.301,0.000
1709375848.331,64.941,-35.156,-31.250,7.812,0.000
1709375848.335,-58.105,-46.387,-42.480,-41.504,0.000
1709375848.339,-107.910,-49.805,-41.992,-65.430,0.000
1709375848.343,-81.055,-49.805,-39.551,-62.988,0.000
1709375848.347,23.926,-41.016,-41.016,-19.531,0.000
1709375848.351,73.730,-36.133,-41.016,4.883,0.000
1709375848.355,-44.434,-45.898,-41.016,-35.645,0.000
1709375848.358,-114.746,-45.410,-37.109,-65.430,0.000
1709375848.362,-94.727,-37.109,-37.109,-60.547,0.000
1709375848.366,13.672,-31.250,-32.227,-11.230,0.000
1709375848.370,87.402,-28.320,-30.273,21.484,0.000
1709375848.374,-30.273,-35.645,-37.598,-21.973,0.000
1709375848.378,-114.258,-43.457,-38.086,-55.664,0.000
1709375848.382,-94.238,-42.480,-33.691,-50.293,0.000
1709375848.386,0.000,-28.809,-35.156,-10.742,0.000
1709375848.390,80.078,-20.996,-36.133,25.391,0.000
1709375848.394,-6.348,-36.621,-39.062,-10.742,0.000
1709375848.397,-90.820,-48.340,-48.828,-35.156,0.000
1709375848.401,-103.027,-47.363,-49.805,-38.086,0.000
1709375848.405,-21.973,-32.715,-45.898,-20.996,0.000
1709375848.409,73.730,-26.855,-45.410,16.113,0.000
1709375848.413,-9.766,-41.016,-45.410,-19.043,0.000
1709375848.417,-113.770,-45.898,-45.898,-62.988,0.000
1709375848.421,-122.070,-43.945,-41.504,-65.918,0.000
1709375848.425,-41.016,-45.410,-43.457,-37.598,0.000
1709375848.429,89.844,-34.180,-43.945,19.043,0.000
1709375848.433,32.227,-36.133,-29.785,-0.977,0.000
1709375848.436,-109.863,-52.734,-22.949,-66.895,0.000
1709375848.440,-127.930,-63.477,-23.926,-75.195,0.000
1709375848.444,-59.082,-62.012,-16.113,-36.133,0.000
1709375848.448,55.664,-56.641,-9.766,5.859,0.000
1709375848.452,20.508,-63.965,-6.836,-7.324,0.000
1709375848.456,-111.816,-82.520,-1.953,-53.223,0.000
1709375848.460,-145.020,-97.168,0.977,-71.289,0.000
1709375848.464,-97.168,-94.727,6.836,-53.711,0.000
1709375848.468,29.785,-92.773,12.695,-0.488,0.000
1709375848.472,24.902,-101.074,16.113,-0.977,0.000
1709375848.476,-114.746,-111.816,19.531,-51.758,0.000
1709375848.479,-156.250,-125.000,20.996,-65.430,0.000
1709375848.483,-110.840,-128.906,24.414,-40.527,0.000
1709375848.487,6.348,-125.977,27.832,6.348,0.000
1709375848.491,20.020,-132.324,31.738,9.766,0.000
1709375848.495,-107.422,-138.184,32.227,-35.645,0.000
1709375848.499,-151.855,-136.230,29.785,-46.387,0.000
1709375848.503,-106.934,-141.113,25.391,-14.160,0.000
1709375848.507,21.484,-125.000,28.320,44.434,0.000
1709375848.511,80.078,-112.305,28.320,66.406,0.000
1709375848.515,-24.902,-121.094,26.855,32.227,0.000
1709375848.519,-86.426,-122.559,30.273,8.301,0.000
1709375848.522,-65.430,-122.070,23.438,12.695,0.000
1709375848.526,53.711,-111.816,20.996,60.059,0.000
1709375848.530,125.488,-104.980,19.531,86.426,0.000
1709375848.534,12.695,-109.863,17.578,50.293,0.000
1709375848.538,-62.500,-107.422,17.090,27.832,0.000
1709375848.542,-50.293,-101.074,12.695,20.508,0.000
1709375848.546,41.504,-96.680,7.324,56.152,0.000
1709375848.550,129.395,-90.332,6.348,110.352,0.000
1709375848.554,26.367,-89.844,6.836,70.801,0.000
1709375848.557,-76.660,-94.238,2.930,19.531,0.000
1709375848.562,-75.684,-96.191,0.977,11.230,0.000
1709375848.565,10.742,-85.449,-0.488,45.410,0.000
1709375848.569,119.629,-64.941,-2.930,91.309,0.000
1709375848.573,43.945,-69.824,-4.883,53.223,0.000
1709375848.577,-65.430,-84.961,-10.254,-1.465,0.000
1709375848.581,-74.219,-85.449,-12.695,-5.859,0.000
1709375848.585,-10.742,-78.613,-12.695,20.996,0.000
1709375848.589,98.633,-65.430,-14.648,58.594,0.000
1709375848.593,43.457,-72.266,-14.160,45.898,0.000
1709375848.597,-77.148,-74.219,-10.742,-0.488,0.000
1709375848.600,-92.285,-60.059,-13.184,-27.832,0.000
1709375848.604,-23.438,-56.152,-20.020,-8.789,0.000
1709375848.608,97.656,-51.270,-22.949,41.992,0.000
1709375848.612,62.500,-50.781,-21.973,32.715,0.000
1709375848.616,-65.918,-60.547,-27.832,-28.320,0.000
1709375848.620,-89.355,-62.012,-29.785,-47.363,0.000
1709375848.624,-29.785,-53.711,-26.855,-20.508,0.000
1709375848.628,88.867,-46.387,-26.367,30.273,0.000
1709375848.632,73.730,-42.480,-27.832,23.926,0.000
1709375848.636,-53.711,-50.293,-30.273,-23.438,0.000
1709375848.640,-89.355,-49.316,-23.926,-34.180,0.000
1709375848.643,-54.688,-40.527,-28.320,-23.438,0.000
1709375848.647,60.547,-34.668,-31.250,27.832,0.000
1709375848.651,73.730,-37.109,-27.344,35.645,0.000
1709375848.655,-63.965,-45.898,-30.273,-20.508,0.000
1709375848.659,-114.746,-49.316,-38.086,-46.875,0.000
1709375848.663,-73.242,-52.246,-40.527,-39.062,0.000
1709375848.667,47.363,-43.945,-36.133,12.695,0.000
1709375848.671,90.332,-38.086,-42.969,34.668,0.000
1709375848.675,-33.691,-46.875,-44.434,-20.508,0.000
1709375848.679,-109.375,-51.758,-39.062,-61.523,0.000
1709375848.683,-88.867,-60.059,-36.133,-43.457,0.000
1709375848.686,26.855,-53.223,-31.250,15.137,0.000
1709375848.690,95.215,-39.062,-31.250,39.551,0.000
1709375848.694,-19.531,-54.199,-36.133,-6.348,0.000
1709375848.698,-101.074,-63.965,-35.156,-41.016,0.000
1709375848.702,-85.449,-61.035,-32.227,-34.668,0.000
1709375848.706,7.812,-49.316,-33.691,6.836,0.000
1709375848.710,86.426,-41.016,-32.715,46.875,0.000
1709375848.714,-9.766,-47.852,-33.203,6.348,0.000
1709375848.718,-104.004,-47.852,-36.133,-39.062,0.000
1709375848.722,-108.398,-46.875,-33.691,-46.875,0.000
1709375848.726,-19.043,-40.039,-31.738,-8.789,0.000
1709375848.729,87.891,-31.250,-34.668,43.945,0.000
1709375848.733,0.488,-33.691,-33.691,6.348,0.000
1709375848.737,-102.051,-39.062,-31.250,-45.898,0.000
1709375848.741,-103.027,-44.922,-32.227,-50.781,0.000
1709375848.745,-20.020,-41.504,-30.762,-22.461,0.000
1709375848.749,94.238,-30.762,-27.832,27.832,0.000
1709375848.753,20.020,-39.062,-28.809,2.930,0.000
1709375848.757,-98.633,-52.246,-31.250,-49.805,0.000
1709375848.761,-112.793,-47.363,-32.715,-58.105,0.000
1709375848.765,-42.969,-40.527,-31.250,-34.180,0.000
1709375848.768,83.008,-33.691,-34.180,18.555,0.000
1709375848.772,42.969,-40.039,-37.598,9.766,0.000
1709375848.776,-81.055,-45.410,-38.574,-41.992,0.000
1709375848.780,-111.328,-39.551,-40.039,-59.570,0.000
1709375848.784,-62.012,-43.945,-39.062,-41.016,0.000
1709375848.788,59.082,-35.156,-37.109,13.672,0.000
1709375848.792,44.434,-30.762,-40.039,14.648,0.000
1709375848.796,-83.008,-43.945,-41.992,-41.016,0.000
1709375848.800,-109.863,-46.875,-39.062,-56.152,0.000
1709375848.804,-64.453,-43.457,-39.551,-34.668,0.000
1709375848.808,51.758,-34.668,-41.504,17.090,0.000
1709375848.812,68.848,-27.832,-31.250,30.762,0.000
1709375848.815,-57.129,-40.039,-28.809,-22.949,0.000
1709375848.819,-104.980,-50.293,-36.621,-43.945,0.000
1709375848.823,-69.336,-41.016,-36.133,-36.621,0.000
1709375848.827,43.457,-30.762,-34.180,-0.488,0.000
1709375848.831,69.824,-32.227,-35.645,16.602,0.000
1709375848.835,-61.035,-43.457,-35.645,-36.621,0.000
1709375848.839,-122.559,-46.387,-35.156,-71.777,0.000
1709375848.843,-93.750,-42.969,-37.109,-64.941,0.000
1709375848.847,22.949,-38.086,-31.738,-15.625,0.000
1709375848.851,78.613,-33.691,-30.273,10.742,0.000
1709375848.854,-46.875,-41.504,-33.691,-32.715,0.000
1709375848.858,-120.117,-52.246,-33.203,-63.965,0.000
1709375848.862,-98.633,-52.246,-33.691,-58.105,0.000
1709375848.866,7.324,-40.039,-31.738,-9.277,0.000
1709375848.870,82.520,-33.691,-32.227,17.090,0.000
1709375848.874,-20.020,-39.062,-31.250,-25.391,0.000
1709375848.878,-111.816,-46.387,-32.227,-58.594,0.000
1709375848.882,-105.469,-39.551,-34.180,-64.941,0.000
1709375848.886,-4.883,-26.367,-34.668,-34.668,0.000
1709375848.890,94.238,-22.949,-38.086,4.883,0.000
1709375848.894,4.395,-31.738,-34.668,-30.762,0.000
1709375848.897,-101.074,-39.062,-36.621,-70.801,0.000
1709375848.901,-103.027,-39.551,-39.062,-72.754,0.000
1709375848.905,-14.160,-36.621,-31.738,-32.715,0.000
1709375848.909,97.168,-33.203,-30.762,27.832,0.000
1709375848.913,17.578,-35.156,-30.273,1.953,0.000
1709375848.917,-104.980,-38.574,-29.785,-48.340,0.000
1709375848.921,-123.535,-45.898,-37.598,-52.734,0.000
1709375848.925,-51.270,-47.363,-36.621,-18.555,0.000
1709375848.929,63.965,-34.668,-35.645,28.320,0.000
1709375848.932,16.113,-35.645,-36.133,2.930,0.000
1709375848.937,-106.445,-44.434,-34.668,-49.805,0.000
1709375848.940,-131.348,-50.293,-33.691,-65.430,0.000
1709375848.944,-64.453,-46.875,-32.227,-42.969,0.000
1709375848.948,62.988,-35.645,-31.250,18.066,0.000
1709375848.952,42.480,-36.621,-26.855,10.742,0.000
1709375848.956,-87.402,-45.410,-28.809,-48.340,0.000
1709375848.960,-122.070,-48.340,-36.621,-73.730,0.000
1709375848.964,-69.824,-46.387,-39.551,-64.453,0.000
1709375848.968,59.570,-38.574,-35.156,0.000,0.000
1709375848.972,60.059,-35.645,-37.109,5.371,0.000
1709375848.975,-68.359,-39.551,-45.410,-66.895,0.000
1709375848.979,-110.840,-46.875,-44.434,-89.844,0.000
1709375848.983,-78.613,-53.711,-41.016,-74.219,0.000
1709375848.987,32.715,-43.457,-37.598,-23.438,0.000
1709375848.991,55.664,-35.645,-37.109,-8.301,0.000
1709375848.995,-69.824,-47.852,-39.551,-59.082,0.000
1709375848.999,-129.395,-56.152,-38.086,-86.426,0.000
1709375849.003,-108.398,-53.223,-40.527,-81.055,0.000
1709375849.007,3.418,-36.621,-43.457,-36.133,0.000
1709375849.011,60.547,-33.203,-43.457,-6.836,0.000
1709375849.015,-54.688,-53.223,-41.016,-41.504,0.000
1709375849.018,-127.930,-51.270,-37.598,-72.266,0.000
1709375849.022,-111.816,-43.945,-37.598,-75.195,0.000
1709375849.026,-3.418,-40.039,-37.598,-32.227,0.000
1709375849.030,65.918,-33.691,-34.668,6.348,0.000
1709375849.034,-43.945,-38.574,-33.691,-31.738,0.000
1709375849.038,-123.535,-46.387,-34.668,-63.477,0.000
1709375849.042,-109.863,-49.805,-37.598,-62.988,0.000
1709375849.046,-15.137,-43.945,-36.133,-31.738,0.000
1709375849.050,73.242,-36.133,-35.156,11.230,0.000
1709375849.054,-22.949,-42.480,-36.133,-23.926,0.000
1709375849.058,-124.023,-57.129,-38.574,-66.406,0.000
1709375849.061,-123.047,-53.223,-43.457,-65.430,0.000
1709375849.065,-27.344,-35.645,-43.945,-38.574,0.000
1709375849.069,80.566,-34.180,-36.133,8.789,0.000
1709375849.073,-7.324,-43.457,-36.133,-12.695,0.000
1709375849.077,-115.723,-45.410,-40.039,-62.988,0.000
1709375849.081,-113.770,-48.340,-36.621,-74.219,0.000
1709375849.085,-35.645,-42.480,-31.738,-39.551,0.000
1709375849.089,77.637,-35.156,-31.738,4.883,0.000
1709375849.093,20.996,-41.992,-37.598,-14.160,0.000
1709375849.097,-100.098,-50.781,-39.062,-59.082,0.000
1709375849.101,-120.605,-55.176,-42.480,-71.289,0.000
1709375849.104,-58.105,-53.711,-41.016,-38.086,0.000
1709375849.108,60.547,-37.598,-37.109,12.695,0.000
1709375849.112,25.391,-36.621,-36.621,-4.883,0.000
1709375849.116,-96.680,-53.223,-34.180,-61.035,0.000
1709375849.120,-124.023,-57.129,-39.062,-78.125,0.000
1709375849.124,-75.195,-53.711,-42.480,-62.012,0.000
1709375849.128,46.387,-43.457,-44.434,-12.207,0.000
1709375849.132,37.598,-45.410,-46.875,-9.766,0.000
1709375849.136,-94.727,-54.688,-42.969,-61.523,0.000
1709375849.140,-130.859,-55.664,-40.039,-83.496,0.000
1709375849.143,-82.031,-48.828,-36.133,-73.242,0.000
1709375849.147,37.598,-45.410,-35.156,-13.184,0.000
1709375849.151,52.734,-46.387,-39.551,6.348,0.000
1709375849.155,-78.125,-43.945,-37.598,-52.246,0.000
1709375849.159,-130.371,-47.852,-30.273,-76.172,0.000
1709375849.163,-96.191,-41.016,-31.250,-64.453,0.000
1709375849.167,15.137,-33.691,-36.133,-19.043,0.000
1709375849.171,50.293,-37.598,-39.062,-6.836,0.000
1709375849.175,-73.242,-47.852,-41.992,-54.688,0.000
1709375849.179,-139.160,-56.152,-45.410,-82.031,0.000
1709375849.183,-114.258,-55.664,-41.504,-69.824,0.000
1709375849.186,-0.488,-45.410,-39.062,-21.973,0.000
1709375849.190,68.848,-45.898,-40.527,4.883,0.000
1709375849.194,-35.156,-52.246,-39.062,-27.344,0.000
1709375849.198,-118.164,-48.340,-39.551,-58.105,0.000
1709375849.202,-112.305,-43.945,-36.621,-63.477,0.000
1709375849.206,-5.859,-38.086,-35.156,-22.949,0.000
1709375849.210,72.754,-29.785,-31.250,8.789,0.000
1709375849.214,-34.668,-35.156,-30.273,-32.715,0.000
1709375849.218,-115.234,-43.945,-35.645,-62.500,0.000
1709375849.222,-108.887,-43.457,-36.133,-62.012,0.000
1709375849.225,-19.043,-35.156,-37.598,-29.785,0.000
1709375849.229,82.031,-26.367,-42.480,10.742,0.000
1709375849.233,1.465,-34.668,-41.992,-11.719,0.000
1709375849.237,-104.492,-50.781,-38.574,-49.805,0.000
1709375849.241,-113.281,-48.340,-32.715,-54.199,0.000
1709375849.245,-28.320,-35.645,-33.203,-33.203,0.000
1709375849.249,89.844,-28.320,-31.738,16.113,0.000
1709375849.253,20.508,-39.551,-29.297,8.301,0.000
1709375849.257,-103.027,-43.457,-31.738,-39.551,0.000
1709375849.260,-113.770,-37.109,-32.715,-54.688,0.000
1709375849.265,-43.457,-37.598,-32.227,-33.203,0.000
1709375849.268,73.242,-34.180,-32.227,14.648,0.000
1709375849.272,33.691,-34.668,-32.227,4.395,0.000
1709375849.276,-93.750,-41.992,-29.297,-43.457,0.000
1709375849.280,-125.000,-45.410,-31.738,-55.176,0.000
1709375849.284,-66.895,-42.969,-32.715,-37.109,0.000
1709375849.288,57.129,-31.250,-31.738,13.184,0.000
1709375849.292,35.645,-29.785,-36.133,2.441,0.000
1709375849.296,-95.703,-43.457,-40.039,-60.059,0.000
1709375849.300,-129.883,-49.316,-40.039,-69.824,0.000
1709375849.303,-84.961,-38.574,-39.551,-53.711,0.000
1709375849.307,42.480,-30.273,-39.062,-7.324,0.000
1709375849.311,52.734,-35.156,-38.574,3.418,0.000
1709375849.315,-83.496,-47.363,-43.945,-51.270,0.000
1709375849.319,-127.441,-44.434,-44.434,-73.242,0.000
1709375849.323,-87.402,-42.480,-40.039,-63.477,0.000
1709375849.327,29.785,-38.086,-37.598,-11.719,0.000
1709375849.331,71.777,-30.762,-36.621,11.719,0.000
1709375849.335,-56.152,-41.992,-40.527,-40.527,0.000
1709375849.339,-116.699,-51.758,-43.945,-74.219,0.000
1709375849.343,-76.660,-52.734,-40.527,-63.477,0.000
1709375849.346,29.297,-36.621,-34.668,-19.043,0.000
1709375849.350,75.684,-30.273,-35.645,-3.906,0.000
1709375849.354,-41.504,-46.875,-40.527,-43.945,0.000
1709375849.358,-119.141,-50.293,-38.574,-74.219,0.000
1709375849.362,-104.492,-43.457,-37.598,-74.219,0.000
1709375849.366,-7.324,-33.691,-39.062,-32.227,0.000
1709375849.370,67.383,-31.250,-36.621,2.441,0.000
1709375849.374,-33.203,-42.969,-39.062,-38.086,0.000
1709375849.378,-121.094,-47.852,-34.668,-67.383,0.000
1709375849.382,-115.234,-45.898,-36.133,-63.965,0.000
1709375849.386,-21.973,-48.828,-44.434,-34.180,0.000
1709375849.389,78.613,-47.852,-37.109,15.137,0.000
1709375849.393,-12.207,-43.457,-33.203,-17.578,0.000
1709375849.397,-118.164,-46.387,-38.086,-74.707,0.000
1709375849.401,-116.211,-49.316,-37.109,-75.195,0.000
1709375849.405,-36.133,-43.457,-38.574,-38.574,0.000
1709375849.409,67.871,-35.156,-40.527,9.766,0.000
1709375849.413,-0.488,-42.969,-46.875,-20.508,0.000
1709375849.417,-114.746,-48.828,-49.316,-72.266,0.000
1709375849.421,-128.418,-51.270,-45.898,-72.754,0.000
1709375849.425,-52.246,-46.875,-42.969,-45.898,0.000
1709375849.429,68.359,-33.691,-38.574,3.906,0.000
1709375849.432,20.996,-40.039,-37.109,-4.883,0.000
1709375849.436,-106.445,-53.223,-42.480,-56.641,0.000
1709375849.440,-122.559,-45.898,-40.039,-76.172,0.000
1709375849.444,-57.617,-40.527,-33.691,-61.523,0.000
1709375849.448,57.617,-35.156,-35.645,-10.742,0.000
1709375849.452,37.598,-29.785,-39.062,-6.348,0.000
1709375849.456,-93.750,-33.691,-40.039,-63.477,0.000
1709375849.460,-133.789,-42.969,-36.621,-89.355,0.000
1709375849.464,-79.102,-40.039,-35.156,-75.684,0.000
1709375849.468,39.551,-26.855,-33.203,-20.996,0.000
1709375849.472,37.598,-33.691,-33.203,-12.207,0.000
1709375849.475,-86.426,-46.875,-38.574,-62.500,0.000
1709375849.479,-127.441,-52.734,-41.504,-77.637,0.000
1709375849.483,-97.168,-44.922,-39.062,-68.848,0.000
1709375849.487,16.602,-29.297,-40.039,-19.531,0.000
1709375849.491,41.992,-31.738,-42.480,0.488,0.000
1709375849.495,-89.844,-39.062,-42.480,-52.734,0.000
1709375849.499,-142.578,-40.527,-42.480,-78.613,0.000
1709375849.503,-107.910,-43.457,-43.457,-72.266,0.000
1709375849.507,4.883,-37.109,-42.480,-25.879,0.000
1709375849.511,62.988,-30.762,-38.086,10.254,0.000
1709375849.514,-48.340,-37.598,-39.062,-31.738,0.000
1709375849.518,-126.953,-48.828,-43.457,-70.312,0.000
1709375849.522,-103.027,-52.246,-38.574,-59.082,0.000
1709375849.526,3.418,-41.504,-35.156,-6.836,0.000
1709375849.530,71.777,-25.879,-30.762,17.090,0.000
1709375849.534,-31.250,-36.133,-33.203,-27.344,0.000
1709375849.538,-118.652,-48.340,-40.039,-62.988,0.000
1709375849.542,-113.281,-49.805,-42.969,-64.941,0.000
1709375849.546,-17.090,-46.875,-46.387,-29.785,0.000
1709375849.550,84.473,-42.480,-39.062,13.184,0.000
1709375849.554,-5.859,-48.340,-42.969,-20.996,0.000
1709375849.557,-106.934,-52.246,-44.434,-60.547,0.000
1709375849.561,-103.027,-51.758,-36.133,-67.871,0.000
1709375849.565,-14.648,-46.387,-36.621,-43.457,0.000
1709375849.569,89.355,-30.273,-38.086,11.230,0.000
1709375849.573,13.184,-27.832,-40.527,-16.602,0.000
1709375849.577,-97.168,-38.574,-42.969,-70.801,0.000
1709375849.581,-106.445,-45.898,-42.969,-79.102,0.000
1709375849.585,-35.645,-44.434,-44.434,-50.781,0.000
1709375849.589,71.289,-35.156,-42.480,3.906,0.000
1709375849.593,30.273,-36.621,-39.062,-1.953,0.000
1709375849.596,-83.984,-52.246,-40.039,-50.781,0.000
1709375849.600,-109.863,-52.246,-42.969,-66.406,0.000
1709375849.604,-51.758,-40.527,-45.410,-45.410,0.000
1709375849.608,62.012,-34.668,-43.457,6.836,0.000
1709375849.612,25.879,-42.969,-42.480,6.836,0.000
1709375849.616,-100.586,-51.758,-43.457,-46.875,0.000
1709375849.620,-124.512,-50.781,-45.410,-74.707,0.000
1709375849.624,-76.660,-43.457,-43.457,-62.500,0.000
1709375849.628,47.363,-30.762,-42.969,-9.766,0.000
1709375849.631,41.992,-28.320,-40.527,-1.953,0.000
1709375849.635,-91.309,-36.133,-40.527,-56.152,0.000
1709375849.639,-126.953,-46.387,-43.457,-82.031,0.000
1709375849.643,-83.008,-46.387,-37.598,-73.242,0.000
1709375849.647,33.691,-28.809,-34.180,-21.484,0.000
1709375849.651,54.199,-26.855,-32.715,-4.883,0.000
1709375849.655,-67.871,-42.480,-30.762,-50.293,0.000
1709375849.659,-120.117,-46.387,-35.645,-65.918,0.000
1709375849.663,-88.867,-45.898,-36.621,-59.082,0.000
1709375849.667,29.297,-33.691,-33.691,-18.555,0.000
1709375849.671,75.195,-27.832,-36.133,9.766,0.000
1709375849.675,-47.363,-42.969,-39.551,-26.367,0.000
1709375849.678,-119.629,-46.387,-40.039,-62.012,0.000
1709375849.682,-95.215,-38.086,-37.598,-59.570,0.000
1709375849.686,14.160,-34.668,-29.785,-3.906,0.000
1709375849.690,76.660,-31.738,-30.273,23.926,0.000
1709375849.694,-33.691,-35.156,-30.762,-27.832,0.000
1709375849.698,-120.605,-43.457,-35.645,-66.406,0.000
1709375849.702,-108.398,-47.852,-40.527,-62.988,0.000
1709375849.706,-16.113,-43.945,-40.527,-22.461,0.000
1709375849.710,72.266,-37.109,-39.551,15.625,0.000
1709375849.714,-22.461,-44.434,-36.133,-27.832,0.000
1709375849.718,-121.094,-58.105,-32.715,-56.641,0.000
1709375849.721,-109.863,-47.363,-27.832,-52.734,0.000
1709375849.725,-28.320,-30.273,-29.785,-41.016,0.000
1709375849.729,76.172,-29.785,-28.809,6.836,0.000
1709375849.733,0.977,-39.062,-31.250,-18.555,0.000
1709375849.737,-107.910,-44.434,-34.180,-74.219,0.000
1709375849.741,-112.305,-38.574,-37.598,-82.031,0.000
1709375849.745,-37.598,-33.203,-39.551,-45.898,0.000
1709375849.749,72.266,-30.762,-40.039,-2.930,0.000
1709375849.753,12.695,-38.086,-41.992,-25.879,0.000
1709375849.757,-107.910,-43.945,-39.551,-67.871,0.000
1709375849.760,-128.418,-44.922,-39.062,-79.102,0.000
1709375849.764,-62.988,-45.410,-39.062,-55.664,0.000
1709375849.768,58.105,-31.250,-40.039,0.977,0.000
1709375849.772,22.461,-33.691,-38.574,-2.441,0.000
1709375849.776,-101.562,-47.852,-39.062,-48.340,0.000
1709375849.780,-119.141,-43.457,-36.621,-57.129,0.000
1709375849.784,-53.711,-35.156,-32.715,-42.969,0.000
1709375849.788,66.406,-30.273,-35.156,8.789,0.000
1709375849.792,45.898,-28.809,-36.133,12.207,0.000
1709375849.796,-84.473,-33.691,-33.203,-41.504,0.000
1709375849.800,-118.164,-36.621,-31.738,-59.570,0.000
1709375849.803,-71.777,-32.227,-32.715,-50.293,0.000
1709375849.807,43.945,-27.344,-36.621,3.906,0.000
1709375849.811,53.711,-27.344,-36.133,19.043,0.000
1709375849.815,-70.312,-26.367,-33.691,-44.434,0.000
1709375849.819,-117.188,-31.738,-38.574,-70.312,0.000
1709375849.823,-83.008,-33.691,-40.527,-56.641,0.000
1709375849.827,32.715,-27.832,-35.156,-7.324,0.000
1709375849.831,71.777,-27.832,-37.598,9.766,0.000
1709375849.835,-57.617,-43.945,-41.992,-40.527,0.000
1709375849.839,-123.535,-50.781,-42.480,-63.477,0.000
1709375849.843,-90.820,-44.434,-42.480,-51.758,0.000
1709375849.846,7.324,-33.691,-42.480,-16.113,0.000
1709375849.850,71.777,-31.250,-40.039,4.395,0.000
1709375849.854,-33.203,-43.945,-39.062,-32.715,0.000
1709375849.858,-116.699,-44.922,-42.969,-69.336,0.000
1709375849.862,-110.352,-47.363,-41.016,-75.195,0.000
1709375849.866,-18.066,-37.598,-36.133,-32.227,0.000
1709375849.870,62.988,-25.879,-37.109,8.301,0.000
1709375849.874,-41.504,-36.621,-42.969,-32.227,0.000
1709375849.878,-131.836,-40.527,-39.062,-66.406,0.000
1709375849.882,-117.188,-40.527,-34.668,-65.918,0.000
1709375849.885,-23.926,-33.691,-38.086,-30.273,0.000
1709375849.889,81.055,-25.391,-38.574,20.996,0.000
1709375849.893,1.465,-32.227,-34.668,-13.672,0.000
1709375849.897,-108.398,-46.387,-34.668,-59.082,0.000
1709375849.901,-114.258,-48.828,-38.574,-63.965,0.000
1709375849.905,-40.527,-34.180,-37.109,-45.898,0.000
1709375849.909,77.148,-22.949,-31.738,-0.977,0.000
1709375849.913,11.719,-26.855,-36.133,-22.949,0.000
1709375849.917,-109.375,-38.574,-40.039,-75.195,0.000
1709375849.921,-118.164,-39.551,-41.992,-87.402,0.000
1709375849.925,-46.875,-35.156,-39.062,-57.617,0.000
1709375849.928,72.754,-28.809,-37.598,0.000,0.000
1709375849.932,24.414,-28.320,-40.527,-15.137,0.000
1709375849.936,-100.098,-37.109,-38.574,-64.941,0.000
1709375849.940,-117.188,-44.922,-33.203,-74.219,0.000
1709375849.944,-61.523,-44.922,-34.668,-46.387,0.000
1709375849.948,53.223,-30.273,-38.574,4.883,0.000
1709375849.952,40.039,-26.367,-37.598,-3.906,0.000
1709375849.956,-88.867,-43.945,-37.109,-57.129,0.000
1709375849.960,-126.465,-50.293,-33.203,-71.289,0.000
1709375849.963,-78.125,-42.969,-35.645,-53.223,0.000
1709375849.967,36.133,-38.086,-39.551,-0.977,0.000
1709375849.971,47.852,-42.480,-37.109,4.883,0.000
1709375849.975,-79.590,-47.852,-39.551,-50.781,0.000
1709375849.979,-125.977,-42.969,-42.969,-77.148,0.000
1709375849.983,-81.055,-44.922,-41.992,-65.430,0.000
1709375849.987,33.691,-47.363,-41.992,-13.672,0.000
1709375849.991,64.453,-42.969,-48.828,6.348,0.000
1709375849.995,-55.664,-41.992,-49.316,-44.922,0.000
1709375849.999,-115.723,-47.363,-42.480,-70.312,0.000
1709375850.002,-88.867,-49.316,-40.527,-56.152,0.000
1709375850.006,21.973,-29.297,-37.109,-9.766,0.000
1709375850.010,72.266,-23.926,-36.133,11.230,0.000
1709375850.014,-48.340,-42.969,-39.551,-36.621,0.000
1709375850.018,-121.582,-49.805,-40.527,-73.730,0.000
1709375850.022,-107.422,-49.316,-38.574,-71.289,0.000
1709375850.026,1.465,-43.457,-39.062,-24.414,0.000
1709375850.030,69.336,-35.645,-35.156,12.207,0.000
1709375850.034,-44.922,-42.969,-29.297,-27.344,0.000
1709375850.038,-117.188,-42.969,-30.273,-56.152,0.000
1709375850.042,-109.375,-37.109,-30.762,-57.129,0.000
1709375850.046,-12.207,-35.645,-29.297,-21.484,0.000
1709375850.049,81.055,-28.809,-30.273,28.809,0.000
1709375850.053,-5.859,-23.926,-33.203,-3.906,0.000
1709375850.057,-94.238,-31.738,-31.738,-51.270,0.000
1709375850.061,-98.633,-45.410,-30.273,-63.477,0.000
1709375850.065,-26.367,-44.922,-31.250,-31.738,0.000
1709375850.069,75.195,-34.668,-29.785,25.391,0.000
1709375850.073,3.906,-38.574,-26.367,4.883,0.000
1709375850.077,-107.910,-44.434,-26.367,-44.922,0.000
1709375850.081,-125.000,-44.922,-28.809,-54.199,0.000
1709375850.085,-66.895,-37.109,-29.785,-29.785,0.000
1709375850.089,49.316,-22.461,-30.273,9.277,0.000
1709375850.093,11.719,-35.156,-32.715,-5.371,0.000
1709375850.096,-106.445,-44.434,-37.109,-49.316,0.000
1709375850.100,-124.512,-34.180,-37.109,-65.430,0.000
1709375850.104,-56.152,-35.645,-33.691,-41.992,0.000
1709375850.108,66.406,-30.273,-28.320,11.719,0.000
1709375850.112,34.180,-31.738,-26.367,3.906,0.000
1709375850.116,-86.914,-39.551,-28.320,-46.387,0.000
1709375850.120,-117.188,-45.410,-30.762,-63.965,0.000
1709375850.124,-76.172,-48.340,-31.738,-51.270,0.000
1709375850.128,49.805,-34.180,-28.809,4.883,0.000
1709375850.132,60.547,-30.762,-30.273,11.230,0.000
1709375850.135,-67.871,-41.016,-32.227,-48.828,0.000
1709375850.139,-110.352,-48.828,-33.203,-69.824,0.000
1709375850.143,-72.754,-42.480,-31.738,-60.547,0.000
1709375850.147,43.945,-27.344,-28.320,-10.742,0.000
1709375850.151,68.359,-29.297,-27.832,15.137,0.000
1709375850.155,-65.430,-39.062,-29.297,-32.715,0.000
1709375850.159,-121.094,-38.574,-30.273,-62.500,0.000
1709375850.163,-83.496,-38.086,-35.645,-61.523,0.000
1709375850.167,30.762,-31.738,-36.621,-13.672,0.000
1709375850.171,73.730,-26.367,-34.180,13.184,0.000
1709375850.175,-40.527,-32.227,-37.598,-33.203,0.000
1709375850.178,-108.398,-38.086,-42.969,-64.941,0.000
1709375850.182,-95.703,-37.109,-42.969,-68.359,0.000
1709375850.186,3.906,-25.879,-37.598,-24.414,0.000
1709375850.190,73.242,-18.555,-39.062,2.930,0.000
1709375850.194,-32.715,-26.855,-42.480,-47.852,0.000
1709375850.198,-115.234,-36.621,-37.598,-74.219,0.000
1709375850.202,-108.887,-37.109,-39.062,-70.801,0.000
1709375850.206,-22.461,-35.156,-39.551,-39.062,0.000
1709375850.210,78.613,-35.156,-34.180,10.254,0.000
1709375850.214,-6.348,-39.551,-33.203,-22.949,0.000
1709375850.218,-105.469,-43.945,-38.574,-64.941,0.000
1709375850.221,-105.469,-50.781,-41.992,-65.430,0.000
1709375850.225,-21.484,-43.945,-42.480,-34.180,0.000
1709375850.229,86.914,-37.109,-37.598,24.902,0.000
1709375850.233,6.348,-37.109,-34.180,-3.418,0.000
1709375850.237,-116.211,-40.039,-34.668,-60.547,0.000
1709375850.241,-128.418,-46.875,-37.109,-64.941,0.000
1709375850.245,-51.758,-47.852,-39.551,-43.457,0.000
1709375850.249,62.012,-36.621,-41.504,-2.930,0.000
1709375850.253,6.348,-40.039,-38.086,-16.113,0.000
1709375850.257,-108.398,-50.781,-41.016,-55.664,0.000
1709375850.261,-120.605,-46.875,-42.969,-73.730,0.000
1709375850.264,-59.570,-42.480,-35.156,-54.199,0.000
1709375850.268,61.523,-38.574,-36.621,6.836,0.000
1709375850.272,38.574,-48.828,-38.574,10.254,0.000
1709375850.276,-90.820,-55.176,-37.598,-35.156,0.000
1709375850.280,-123.535,-45.898,-36.621,-56.152,0.000
1709375850.284,-68.848,-41.504,-35.645,-43.945,0.000
1709375850.288,53.223,-37.598,-38.086,0.977,0.000
1709375850.292,53.711,-39.551,-41.504,3.418,0.000
1709375850.296,-76.172,-46.875,-38.086,-46.875,0.000
1709375850.300,-121.582,-53.711,-37.598,-67.383,0.000
1709375850.303,-83.008,-50.293,-38.574,-55.176,0.000
1709375850.307,38.574,-33.691,-35.156,-7.812,0.000
1709375850.311,66.406,-28.809,-35.156,6.348,0.000
1709375850.315,-56.152,-42.969,-41.504,-41.016,0.000
1709375850.319,-108.398,-47.852,-44.922,-60.059,0.000
1709375850.323,-86.914,-40.527,-45.410,-59.082,0.000
1709375850.327,14.648,-35.156,-41.504,-21.484,0.000
1709375850.331,60.547,-35.156,-43.945,3.418,0.000
1709375850.335,-61.523,-48.340,-50.293,-46.875,0.000
1709375850.338,-130.859,-54.688,-48.340,-79.590,0.000
1709375850.342,-106.934,-51.270,-45.898,-72.266,0.000
1709375850.346,-3.418,-44.922,-43.945,-26.855,0.000
1709375850.350,69.336,-43.457,-43.945,11.719,0.000
1709375850.354,-41.504,-49.316,-41.992,-26.855,0.000
1709375850.358,-124.023,-56.641,-40.039,-69.336,0.000
1709375850.362,-96.191,-56.152,-36.133,-64.453,0.000
1709375850.366,-0.977,-41.504,-34.180,-20.508,0.000
1709375850.370,75.684,-31.738,-33.203,17.578,0.000
1709375850.374,-18.555,-40.527,-36.621,-22.461,0.000
1709375850.378,-115.723,-54.199,-37.598,-59.082,0.000
1709375850.381,-116.211,-53.711,-39.062,-64.453,0.000
1709375850.385,-32.227,-40.527,-42.480,-41.504,0.000
1709375850.390,69.824,-35.645,-41.504,2.441,0.000
1709375850.393,-6.836,-42.969,-42.480,-27.832,0.000
1709375850.397,-109.375,-45.898,-40.527,-67.383,0.000
1709375850.401,-110.352,-43.945,-41.992,-74.219,0.000
1709375850.405,-37.598,-41.992,-45.898,-48.828,0.000
1709375850.409,70.312,-39.551,-44.922,1.953,0.000
1709375850.413,11.719,-42.480,-48.340,-21.973,0.000
1709375850.417,-105.469,-45.898,-50.293,-72.754,0.000
1709375850.421,-116.211,-47.852,-45.898,-84.961,0.000
1709375850.425,-49.805,-43.945,-41.504,-59.082,0.000
1709375850.428,65.918,-30.762,-38.086,-5.371,0.000
1709375850.432,28.320,-34.180,-39.062,-18.555,0.000
1709375850.436,-104.492,-48.340,-35.645,-70.801,0.000
1709375850.440,-134.277,-49.805,-28.320,-89.355,0.000
1709375850.444,-78.125,-43.457,-29.297,-63.965,0.000
1709375850.448,44.922,-37.598,-32.715,-6.836,0.000
1709375850.452,35.645,-42.480,-36.621,-5.371,0.000
1709375850.456,-84.961,-49.316,-32.715,-47.852,0.000
1709375850.460,-119.141,-52.734,-31.250,-55.664,0.000
1709375850.464,-75.684,-49.805,-29.785,-40.527,0.000
1709375850.468,45.898,-41.016,-25.391,7.812,0.000
1709375850.471,58.594,-40.527,-26.855,14.648,0.000
1709375850.475,-68.848,-41.016,-29.785,-46.387,0.000
1709375850.479,-117.676,-41.992,-33.203,-67.871,0.000
1709375850.483,-88.867,-38.574,-31.250,-58.594,0.000
1709375850.487,20.996,-31.738,-32.227,-18.066,0.000
1709375850.491,61.523,-29.785,-32.715,0.488,0.000
1709375850.495,-62.012,-38.574,-29.785,-44.434,0.000
1709375850.499,-130.371,-46.875,-35.156,-67.383,0.000
1709375850.503,-107.910,-47.852,-37.598,-64.941,0.000
1709375850.507,-0.488,-41.016,-36.133,-26.367,0.000
1709375850.511,63.477,-37.109,-35.645,3.418,0.000
1709375850.514,-45.898,-48.828,-35.156,-33.203,0.000
1709375850.518,-122.070,-46.875,-38.086,-69.336,0.000
1709375850.522,-112.305,-40.527,-38.574,-72.754,0.000
1709375850.526,-6.836,-40.039,-37.598,-32.227,0.000
1709375850.530,83.496,-34.668,-36.621,5.859,0.000
1709375850.534,-20.508,-39.062,-33.691,-36.133,0.000
1709375850.538,-109.863,-46.875,-34.180,-74.707,0.000
1709375850.542,-104.492,-48.340,-32.715,-72.754,0.000
1709375850.546,-26.367,-46.387,-36.621,-40.039,0.000
1709375850.550,69.336,-42.969,-34.668,5.371,0.000
1709375850.554,-12.695,-44.434,-29.785,-27.344,0.000
1709375850.557,-111.816,-55.176,-30.762,-65.430,0.000
1709375850.561,-110.840,-52.246,-29.785,-63.477,0.000
1709375850.565,-37.109,-33.691,-30.273,-46.875,0.000
1709375850.569,66.895,-30.762,-32.227,-4.883,0.000
1709375850.573,2.441,-38.574,-36.133,-22.949,0.000
1709375850.577,-109.375,-36.621,-35.645,-65.918,0.000
1709375850.581,-126.953,-36.133,-30.762,-76.172,0.000
1709375850.585,-63.965,-40.527,-30.762,-52.734,0.000
1709375850.589,58.105,-34.180,-29.297,4.395,0.000
1709375850.593,16.113,-33.203,-27.344,-14.160,0.000
1709375850.597,-105.957,-41.016,-35.156,-66.895,0.000
1709375850.600,-124.023,-41.016,-35.645,-77.148,0.000
1709375850.604,-64.453,-40.039,-35.156,-47.363,0.000
1709375850.608,56.641,-30.762,-36.133,0.000,0.000
1709375850.612,40.039,-29.785,-30.762,-11.230,0.000
1709375850.616,-84.961,-41.992,-29.785,-56.152,0.000
1709375850.620,-112.305,-37.598,-30.762,-68.848,0.000
1709375850.624,-60.547,-31.250,-32.715,-51.758,0.000
1709375850.628,67.383,-24.902,-27.832,4.395,0.000
1709375850.632,72.266,-27.344,-26.367,11.719,0.000
1709375850.636,-58.594,-35.645,-27.832,-45.898,0.000
1709375850.639,-103.516,-40.527,-23.438,-60.547,0.000
1709375850.643,-71.777,-46.875,-24.414,-49.805,0.000
1709375850.647,42.969,-41.504,-24.902,-0.977,0.000
1709375850.651,69.336,-35.156,-22.461,17.090,0.000
1709375850.655,-64.941,-35.156,-27.832,-46.875,0.000
1709375850.659,-126.953,-37.598,-29.785,-76.660,0.000
1709375850.663,-103.516,-38.574,-35.645,-69.336,0.000
1709375850.667,3.418,-37.109,-41.504,-30.762,0.000
1709375850.671,60.059,-32.715,-38.086,-4.395,0.000
1709375850.675,-55.176,-44.434,-34.180,-41.016,0.000
1709375850.679,-130.859,-52.246,-36.133,-70.312,0.000
1709375850.682,-109.375,-45.410,-38.086,-69.336,0.000
1709375850.686,-3.418,-37.598,-37.598,-27.344,0.000
1709375850.690,73.730,-37.109,-38.086,10.254,0.000
1709375850.694,-28.809,-47.852,-36.621,-21.973,0.000
1709375850.698,-117.676,-47.363,-34.668,-63.965,0.000
1709375850.702,-107.422,-47.363,-35.645,-66.406,0.000
1709375850.706,-10.254,-48.828,-36.133,-27.832,0.000
1709375850.710,85.938,-37.109,-32.715,9.277,0.000
1709375850.714,-1.953,-38.574,-34.668,-22.461,0.000
1709375850.718,-103.027,-47.852,-37.598,-67.383,0.000
1709375850.721,-105.469,-47.363,-38.574,-72.754,0.000
1709375850.725,-27.832,-39.062,-40.039,-42.969,0.000
1709375850.729,78.613,-29.297,-41.504,0.977,0.000
1709375850.733,15.625,-30.762,-39.062,-24.414,0.000
1709375850.737,-91.797,-49.316,-36.133,-60.547,0.000
1709375850.741,-107.910,-52.734,-35.645,-58.594,0.000
1709375850.745,-40.039,-36.621,-35.645,-41.504,0.000
1709375850.749,83.496,-30.273,-32.715,11.719,0.000
1709375850.753,28.809,-36.133,-30.273,5.859,0.000
1709375850.756,-93.750,-42.969,-26.855,-48.340,0.000
1709375850.760,-110.840,-41.992,-28.320,-61.035,0.000
1709375850.764,-51.758,-40.039,-38.574,-38.086,0.000
1709375850.768,76.660,-26.855,-38.574,16.113,0.000
1709375850.772,48.828,-21.973,-37.109,7.812,0.000
1709375850.776,-85.938,-36.621,-42.480,-50.293,0.000
1709375850.780,-122.070,-44.434,-43.945,-64.453,0.000
1709375850.784,-71.289,-43.457,-45.898,-45.410,0.000
1709375850.788,55.664,-26.855,-44.922,9.277,0.000
1709375850.792,53.223,-26.367,-38.574,10.742,0.000
1709375850.796,-76.660,-43.945,-38.574,-46.387,0.000
1709375850.800,-115.234,-46.387,-41.016,-61.523,0.000
1709375850.803,-79.102,-35.645,-37.598,-52.246,0.000
1709375850.807,41.016,-23.926,-37.109,-8.789,0.000
1709375850.811,64.453,-31.250,-37.598,3.418,0.000
1709375850.815,-71.289,-49.805,-41.016,-42.480,0.000
1709375850.819,-125.000,-50.781,-42.969,-64.941,0.000
1709375850.823,-98.145,-45.410,-39.551,-62.988,0.000
1709375850.827,15.625,-39.551,-40.039,-15.137,0.000
1709375850.831,56.641,-37.598,-41.504,7.324,0.000
1709375850.835,-67.871,-44.922,-40.039,-40.039,0.000
1709375850.839,-120.117,-45.898,-36.621,-64.941,0.000
1709375850.843,-98.145,-51.758,-35.156,-59.082,0.000
1709375850.846,0.977,-46.875,-37.109,-10.254,0.000
1709375850.850,77.637,-29.297,-36.621,14.160,0.000
1709375850.854,-21.973,-36.133,-34.180,-26.855,0.000
1709375850.858,-112.793,-49.316,-37.109,-67.383,0.000
1709375850.862,-108.887,-44.922,-40.039,-73.730,0.000
1709375850.866,-13.184,-34.180,-35.645,-31.738,0.000
1709375850.870,76.660,-30.762,-32.227,15.137,0.000
1709375850.874,-23.926,-43.457,-36.621,-22.949,0.000
1709375850.878,-121.582,-54.199,-38.574,-69.824,0.000
1709375850.882,-115.723,-48.340,-34.668,-73.730,0.000
1709375850.885,-29.785,-43.457,-39.551,-40.527,0.000
1709375850.889,71.777,-42.969,-40.527,17.578,0.000
1709375850.893,-0.977,-38.574,-35.156,-8.789,0.000
1709375850.897,-107.422,-43.945,-33.691,-60.059,0.000
1709375850.901,-121.094,-51.270,-31.250,-65.918,0.000
1709375850.905,-55.664,-47.363,-28.809,-44.434,0.000
1709375850.909,63.965,-36.133,-29.785,-1.465,0.000
1709375850.913,22.949,-34.668,-28.809,-18.066,0.000
1709375850.917,-98.633,-44.434,-27.344,-64.941,0.000
1709375850.921,-114.746,-44.922,-29.785,-65.918,0.000
1709375850.925,-49.316,-36.621,-35.156,-42.969,0.000
1709375850.928,63.965,-29.297,-38.574,-1.465,0.000
1709375850.932,27.832,-39.551,-39.062,-2.441,0.000
1709375850.936,-96.680,-47.852,-39.062,-47.363,0.000
1709375850.940,-116.211,-38.574,-39.062,-72.266,0.000
1709375850.944,-63.477,-36.133,-39.551,-54.199,0.000
1709375850.948,58.594,-28.320,-39.062,4.883,0.000
1709375850.952,60.547,-26.367,-39.062,8.301,0.000
1709375850.956,-69.824,-40.039,-35.156,-47.363,0.000
1709375850.960,-116.211,-45.898,-34.180,-61.523,0.000
1709375850.964,-81.543,-44.434,-38.574,-48.340,0.000
1709375850.968,42.480,-33.691,-34.668,-3.906,0.000
1709375850.971,67.383,-26.367,-30.273,13.184,0.000
1709375850.975,-66.895,-41.504,-29.785,-37.598,0.000
1709375850.979,-120.605,-47.363,-32.227,-53.711,0.000
1709375850.983,-82.031,-30.273,-30.762,-46.875,0.000
1709375850.987,38.086,-19.531,-24.414,-7.812,0.000
1709375850.991,80.078,-21.484,-22.949,18.555,0.000
1709375850.995,-46.875,-32.227,-32.227,-36.133,0.000
1709375850.999,-119.629,-41.016,-37.598,-71.289,0.000
1709375851.003,-102.051,-40.039,-35.645,-70.801,0.000
1709375851.007,-0.977,-35.156,-35.645,-30.273,0.000
1709375851.011,62.500,-28.809,-31.738,-1.953,0.000
1709375851.014,-48.340,-37.109,-31.738,-47.852,0.000
1709375851.018,-130.371,-49.316,-34.668,-80.566,0.000
1709375851.022,-114.746,-53.711,-33.691,-69.336,0.000
1709375851.026,-18.555,-44.922,-34.180,-21.973,0.000
1709375851.030,65.430,-25.391,-35.156,9.277,0.000
1709375851.034,-20.996,-35.645,-32.715,-31.738,0.000
1709375851.038,-117.188,-47.363,-32.227,-66.895,0.000
1709375851.042,-124.023,-43.945,-31.738,-66.406,0.000
1709375851.046,-28.809,-33.691,-31.738,-33.691,0.000
1709375851.050,80.566,-30.762,-34.668,10.254,0.000
1709375851.053,-1.953,-39.551,-37.109,-20.996,0.000
1709375851.057,-111.328,-45.410,-37.598,-62.988,0.000
1709375851.061,-111.816,-43.457,-37.109,-65.918,0.000
1709375851.065,-33.691,-46.875,-36.621,-36.133,0.000
1709375851.069,81.543,-43.457,-35.156,20.996,0.000
1709375851.073,24.414,-35.156,-36.621,-8.789,0.000
1709375851.077,-96.680,-41.504,-36.621,-67.871,0.000
1709375851.081,-115.723,-49.316,-36.133,-76.172,0.000
1709375851.085,-57.617,-43.945,-33.691,-49.805,0.000
1709375851.088,58.105,-34.180,-35.156,1.953,0.000
1709375851.092,22.949,-36.133,-34.180,-15.137,0.000
1709375851.096,-98.145,-45.410,-33.203,-60.059,0.000
1709375851.100,-121.582,-47.363,-37.109,-68.359,0.000
1709375851.104,-74.707,-43.945,-37.598,-54.199,0.000
1709375851.108,48.828,-33.691,-33.203,-5.371,0.000
1709375851.112,45.898,-38.086,-29.297,-1.953,0.000
1709375851.116,-87.891,-44.434,-32.715,-47.363,0.000
1709375851.120,-127.441,-39.551,-36.621,-72.266,0.000
1709375851.124,-79.102,-38.086,-42.480,-57.617,0.000
1709375851.128,40.039,-34.180,-41.504,-1.953,0.000
1709375851.131,62.500,-28.809,-34.668,16.602,0.000
1709375851.135,-57.129,-34.668,-33.691,-31.250,0.000
1709375851.139,-108.887,-40.527,-30.762,-60.547,0.000
1709375851.143,-73.730,-34.668,-28.320,-49.316,0.000
1709375851.147,39.062,-26.855,-29.297,3.418,0.000
1709375851.151,76.660,-27.832,-32.227,21.973,0.000
1709375851.155,-46.875,-39.551,-37.598,-37.109,0.000
1709375851.159,-117.676,-45.410,-38.574,-68.359,0.000
1709375851.163,-97.168,-40.039,-31.738,-57.617,0.000
1709375851.167,13.184,-25.391,-26.855,-11.719,0.000
1709375851.171,78.613,-21.973,-23.438,18.555,0.000
1709375851.174,-37.109,-40.039,-28.809,-27.832,0.000
1709375851.178,-125.000,-50.293,-32.227,-67.871,0.000
1709375851.182,-116.699,-47.363,-28.809,-68.359,0.000
1709375851.186,-20.508,-36.621,-27.344,-25.879,0.000
1709375851.190,65.430,-33.691,-29.297,11.230,0.000
1709375851.194,-32.715,-38.086,-32.227,-29.297,0.000
1709375851.198,-129.395,-46.387,-35.156,-72.266,0.000
1709375851.202,-119.141,-50.781,-35.156,-75.195,0.000
1709375851.206,-20.996,-40.039,-30.762,-35.156,0.000
1709375851.210,74.707,-32.227,-27.344,9.766,0.000
1709375851.214,-8.301,-40.527,-29.785,-19.531,0.000
1709375851.217,-108.398,-54.199,-33.691,-58.105,0.000
1709375851.221,-108.398,-51.758,-33.203,-61.523,0.000
1709375851.225,-21.973,-35.156,-34.668,-38.086,0.000
1709375851.229,83.984,-30.273,-35.645,15.137,0.000
1709375851.233,5.859,-36.133,-36.133,-6.348,0.000
1709375851.237,-109.863,-38.574,-36.621,-61.035,0.000
1709375851.241,-121.094,-34.668,-36.621,-69.336,0.000
1709375851.245,-56.641,-33.691,-40.039,-47.852,0.000
1709375851.249,73.242,-34.180,-40.527,3.906,0.000
1709375851.253,37.109,-35.645,-39.551,-1.953,0.000
1709375851.257,-96.191,-39.062,-37.598,-55.664,0.000
1709375851.260,-124.512,-38.574,-36.133,-73.730,0.000
1709375851.264,-69.336,-41.504,-40.039,-50.781,0.000
1709375851.268,44.922,-30.273,-39.551,-2.930,0.000
1709375851.272,25.879,-27.832,-37.598,-7.812,0.000
1709375851.276,-98.145,-41.016,-40.039,-56.641,0.000
1709375851.280,-127.930,-41.504,-39.551,-76.172,0.000
1709375851.284,-77.637,-37.109,-34.668,-57.129,0.000
1709375851.288,46.875,-27.344,-31.250,2.930,0.000
1709375851.292,54.688,-31.250,-34.180,11.719,0.000
1709375851.296,-71.289,-41.992,-35.156,-43.945,0.000
1709375851.299,-111.816,-46.387,-36.133,-65.918,0.000
1709375851.303,-73.242,-41.992,-37.598,-56.152,0.000
1709375851.307,40.527,-37.598,-35.156,-6.348,0.000
1709375851.311,71.777,-34.668,-34.180,16.113,0.000
1709375851.315,-53.711,-34.180,-37.598,-38.086,0.000
1709375851.319,-114.258,-42.969,-34.668,-68.848,0.000
1709375851.323,-92.773,-47.852,-35.645,-67.871,0.000
1709375851.327,15.137,-34.180,-34.180,-20.996,0.000
1709375851.331,72.754,-31.250,-31.250,15.625,0.000
1709375851.335,-43.457,-48.828,-34.180,-33.691,0.000
1709375851.339,-124.023,-49.316,-39.551,-75.195,0.000
1709375851.342,-102.539,-41.504,-41.016,-73.730,0.000
1709375851.346,3.418,-37.598,-37.598,-33.203,0.000
1709375851.350,69.824,-35.156,-36.133,0.488,0.000
1709375851.354,-34.180,-44.434,-32.715,-29.297,0.000
1709375851.358,-125.977,-46.875,-36.133,-73.730,0.000
1709375851.362,-119.629,-39.062,-39.551,-82.031,0.000
1709375851.366,-20.020,-29.297,-31.738,-36.133,0.000
1709375851.370,71.289,-28.809,-26.855,7.324,0.000
1709375851.374,-12.695,-40.039,-33.203,-26.855,0.000
1709375851.378,-99.121,-40.039,-36.133,-68.848,0.000
1709375851.382,-107.910,-38.574,-31.250,-74.707,0.000
1709375851.385,-29.785,-33.691,-28.320,-40.039,0.000
1709375851.389,76.172,-22.461,-25.879,17.090,0.000
1709375851.393,1.465,-29.297,-25.391,-9.766,0.000
1709375851.397,-111.816,-48.340,-27.344,-56.152,0.000
1709375851.401,-124.512,-49.805,-30.273,-59.570,0.000
1709375851.405,-51.758,-36.133,-32.715,-43.945,0.000
1709375851.409,67.871,-26.367,-28.809,5.859,0.000
1709375851.413,23.438,-30.273,-31.250,-5.859,0.000
1709375851.417,-93.750,-41.504,-35.645,-57.617,0.000
1709375851.421,-110.840,-40.039,-30.273,-67.383,0.000
1709375851.424,-58.594,-38.574,-34.180,-57.617,0.000
1709375851.428,54.688,-28.809,-34.668,-7.324,0.000
1709375851.432,24.414,-25.391,-29.785,-6.348,0.000
1709375851.436,-100.098,-36.621,-31.250,-62.012,0.000
1709375851.440,-123.047,-45.410,-37.598,-72.754,0.000
1709375851.444,-81.055,-47.852,-41.992,-51.758,0.000
1709375851.448,32.715,-38.086,-40.527,-13.672,0.000
1709375851.452,35.156,-27.832,-37.109,-8.301,0.000
1709375851.456,-96.191,-38.086,-35.156,-53.223,0.000
1709375851.459,-131.348,-50.293,-38.574,-79.102,0.000
1709375851.463,-89.844,-45.898,-40.527,-60.059,0.000
1709375851.467,20.996,-41.992,-39.062,-14.160,0.000
1709375851.471,47.852,-50.293,-39.551,-5.859,0.000
1709375851.475,-70.801,-58.594,-38.086,-54.688,0.000
1709375851.479,-120.117,-58.105,-34.180,-74.219,0.000
1709375851.483,-90.332,-51.758,-33.691,-62.012,0.000
1709375851.487,25.391,-48.828,-29.785,-4.395,0.000
1709375851.491,72.754,-45.898,-30.762,29.785,0.000
1709375851.495,-36.621,-41.992,-34.180,-31.738,0.000
1709375851.499,-103.027,-49.316,-38.086,-78.125,0.000
1709375851.502,-90.820,-56.152,-41.504,-71.777,0.000
1709375851.506,11.719,-43.457,-40.039,-22.461,0.000
1709375851.510,83.008,-34.668,-41.992,-1.953,0.000
1709375851.514,-14.648,-45.410,-40.527,-43.945,0.000
1709375851.518,-87.402,-50.293,-37.109,-64.941,0.000
1709375851.522,-91.797,-49.316,-39.062,-62.988,0.000
1709375851.526,-15.137,-42.969,-40.039,-33.203,0.000
1709375851.530,71.777,-39.551,-42.480,-2.930,0.000
1709375851.534,-23.926,-48.828,-40.527,-31.738,0.000
1709375851.538,-127.930,-55.664,-46.387,-73.242,0.000
1709375851.542,-130.859,-52.734,-48.828,-70.801,0.000
1709375851.545,-36.621,-42.969,-37.598,-22.461,0.000
1709375851.549,70.312,-37.109,-37.598,27.832,0.000
1709375851.553,1.953,-37.109,-47.852,0.488,0.000
1709375851.557,-101.074,-42.480,-45.410,-56.152,0.000
1709375851.561,-118.652,-44.434,-37.598,-78.613,0.000
1709375851.565,-43.457,-39.062,-37.598,-57.129,0.000
1709375851.569,77.637,-32.227,-36.133,-1.953,0.000
1709375851.573,27.832,-37.109,-32.715,-13.184,0.000
1709375851.577,-86.914,-47.852,-34.180,-61.523,0.000
1709375851.581,-99.121,-49.805,-35.645,-71.289,0.000
1709375851.585,-41.016,-43.945,-36.621,-47.852,0.000
1709375851.588,76.172,-35.645,-36.621,0.977,0.000
1709375851.592,49.316,-44.434,-38.086,3.418,0.000
1709375851.596,-83.008,-51.270,-39.062,-39.551,0.000
1709375851.600,-111.816,-42.969,-35.156,-63.477,0.000
1709375851.604,-54.199,-40.527,-32.715,-48.828,0.000
1709375851.608,58.105,-33.691,-32.227,7.324,0.000
1709375851.612,49.316,-33.691,-32.715,17.578,0.000
1709375851.616,-76.172,-48.828,-31.250,-39.062,0.000
1709375851.620,-119.141,-58.105,-31.250,-62.012,0.000
1709375851.624,-91.797,-52.246,-33.691,-43.945,0.000
1709375851.628,22.949,-37.109,-36.133,6.348,0.000
1709375851.631,55.664,-35.156,-34.180,15.625,0.000
1709375851.635,-69.824,-48.828,-33.691,-40.039,0.000
1709375851.639,-125.000,-55.664,-36.133,-60.059,0.000
1709375851.643,-95.703,-49.805,-36.133,-54.688,0.000
1709375851.647,13.672,-39.551,-35.645,-22.949,0.000
1709375851.651,47.852,-41.504,-37.598,-6.836,0.000
1709375851.655,-75.195,-52.734,-37.598,-54.688,0.000
1709375851.659,-133.301,-48.828,-34.180,-85.449,0.000
1709375851.663,-107.422,-45.898,-34.180,-85.938,0.000
1709375851.667,-3.418,-39.551,-36.621,-39.551,0.000
1709375851.671,65.918,-36.621,-41.992,-0.488,0.000
1709375851.674,-41.504,-45.410,-41.992,-42.480,0.000
1709375851.678,-115.723,-44.922,-35.156,-77.637,0.000
1709375851.682,-104.492,-47.363,-33.691,-62.988,0.000
1709375851.686,-18.555,-38.574,-37.598,-14.160,0.000
1709375851.690,73.730,-22.949,-42.969,20.508,0.000
1709375851.694,-21.484,-35.645,-41.992,-21.973,0.000
1709375851.698,-118.652,-44.922,-39.551,-69.824,0.000
1709375851.702,-113.281,-42.480,-42.480,-73.730,0.000
1709375851.706,-32.227,-35.156,-41.016,-38.086,0.000
1709375851.710,76.172,-23.926,-30.273,16.113,0.000
1709375851.714,2.930,-33.691,-28.809,-9.277,0.000
1709375851.717,-104.980,-48.340,-40.039,-56.641,0.000
1709375851.721,-109.375,-55.664,-39.551,-63.965,0.000
1709375851.725,-36.133,-52.734,-42.969,-38.574,0.000
1709375851.729,74.219,-40.039,-45.898,18.066,0.000
1709375851.733,15.625,-38.086,-42.480,-6.348,0.000
1709375851.737,-108.398,-45.410,-44.434,-69.824,0.000
1709375851.741,-123.047,-50.781,-43.945,-72.266,0.000
1709375851.745,-54.688,-44.434,-40.039,-46.387,0.000
1709375851.749,65.918,-30.762,-39.551,-2.930,0.000
1709375851.753,38.574,-33.691,-37.598,-7.324,0.000
1709375851.756,-83.984,-40.527,-35.156,-50.293,0.000
1709375851.760,-107.422,-43.945,-38.574,-70.312,0.000
1709375851.764,-44.434,-41.016,-37.598,-50.781,0.000
1709375851.768,69.824,-32.227,-35.645,8.301,0.000
1709375851.772,41.992,-39.062,-33.203,5.371,0.000
1709375851.776,-80.078,-45.898,-29.785,-40.527,0.000
1709375851.780,-113.281,-37.598,-30.273,-62.988,0.000
1709375851.784,-72.266,-36.621,-29.785,-54.199,0.000
1709375851.788,45.898,-37.109,-30.762,-4.883,0.000
1709375851.792,54.199,-36.133,-32.715,2.441,0.000
1709375851.796,-78.125,-42.969,-30.273,-53.711,0.000
1709375851.799,-126.953,-47.363,-29.297,-72.754,0.000
1709375851.803,-103.027,-50.781,-32.227,-62.500,0.000
1709375851.807,9.766,-42.969,-33.691,-20.020,0.000
1709375851.811,58.594,-37.598,-35.645,6.348,0.000
1709375851.815,-66.406,-48.828,-33.691,-41.992,0.000
1709375851.819,-127.441,-55.176,-33.691,-63.965,0.000
1709375851.823,-99.121,-46.387,-36.621,-62.988,0.000
1709375851.827,7.812,-35.156,-37.598,-30.273,0.000
1709375851.831,68.359,-35.156,-39.062,6.836,0.000
1709375851.834,-53.223,-47.363,-41.016,-32.715,0.000
1709375851.838,-130.371,-49.316,-39.551,-62.988,0.000
1709375851.842,-109.863,-45.898,-38.086,-62.500,0.000
1709375851.846,-9.277,-46.875,-36.133,-27.832,0.000
1709375851.850,80.566,-38.574,-36.621,19.531,0.000
1709375851.854,-13.672,-35.156,-41.504,-12.207,0.000
1709375851.858,-117.188,-43.457,-41.016,-78.125,0.000
1709375851.862,-117.188,-49.316,-38.574,-86.426,0.000
1709375851.866,-27.344,-41.992,-40.527,-38.574,0.000
1709375851.870,67.383,-22.461,-40.527,6.348,0.000
1709375851.873,-11.230,-23.926,-34.668,-21.484,0.000
1709375851.877,-114.746,-35.156,-32.715,-56.641,0.000
1709375851.881,-117.676,-33.691,-38.086,-65.430,0.000
1709375851.885,-40.527,-26.367,-40.039,-44.922,0.000
1709375851.889,64.453,-25.879,-39.551,8.301,0.000
1709375851.893,6.348,-31.250,-41.504,-9.277,0.000
1709375851.897,-104.492,-29.785,-37.109,-49.805,0.000
1709375851.901,-120.117,-33.691,-38.574,-59.082,0.000
1709375851.905,-50.781,-39.062,-43.945,-40.039,0.000
1709375851.909,65.430,-31.738,-44.434,10.254,0.000
1709375851.913,19.043,-26.855,-41.992,-6.348,0.000
1709375851.916,-102.539,-35.156,-45.898,-60.059,0.000
1709375851.920,-127.441,-44.922,-45.898,-66.895,0.000
1709375851.924,-69.336,-41.016,-41.992,-43.457,0.000
1709375851.928,59.082,-21.973,-39.551,10.742,0.000
1709375851.932,42.969,-22.949,-40.527,2.930,0.000
1709375851.936,-83.008,-36.621,-40.039,-51.758,0.000
1709375851.940,-113.281,-38.086,-39.062,-63.965,0.000
1709375851.944,-66.895,-33.691,-41.992,-52.734,0.000
1709375851.948,56.152,-25.879,-38.574,-0.977,0.000
1709375851.952,63.477,-27.832,-29.785,6.348,0.000
1709375851.956,-68.848,-38.574,-30.273,-52.734,0.000
1709375851.959,-115.723,-38.574,-33.691,-75.684,0.000
1709375851.963,-79.102,-35.156,-30.273,-65.918,0.000
1709375851.967,39.551,-32.227,-31.250,-5.859,0.000
1709375851.971,72.754,-29.297,-35.645,20.020,0.000
1709375851.975,-53.711,-31.250,-37.109,-42.480,0.000
1709375851.979,-116.699,-37.598,-40.527,-72.754,0.000
1709375851.983,-90.332,-37.598,-37.598,-62.500,0.000
1709375851.987,21.484,-22.461,-35.156,-7.324,0.000
1709375851.991,73.730,-20.020,-34.180,25.879,0.000
1709375851.995,-45.410,-36.621,-31.250,-23.438,0.000
1709375851.999,-121.582,-43.457,-32.227,-57.129,0.000
1709375852.002,-103.516,-40.527,-32.715,-46.875,0.000
1709375852.006,4.395,-34.180,-34.668,-0.488,0.000
1709375852.010,84.473,-32.715,-35.645,30.273,0.000
1709375852.014,-22.461,-47.363,-40.039,-13.672,0.000
1709375852.018,-111.816,-51.758,-46.875,-58.105,0.000
1709375852.022,-102.051,-41.992,-42.480,-66.895,0.000
1709375852.026,-12.695,-40.527,-38.574,-31.250,0.000
1709375852.030,76.660,-35.645,-40.527,18.066,0.000
1709375852.034,-11.230,-35.645,-36.133,-19.531,0.000
1709375852.038,-114.258,-42.969,-36.621,-71.777,0.000
1709375852.042,-115.234,-43.945,-38.574,-71.289,0.000
1709375852.045,-35.645,-35.156,-40.527,-33.203,0.000
1709375852.049,66.895,-26.367,-40.527,7.324,0.000
1709375852.053,-1.465,-30.762,-40.039,-33.203,0.000
1709375852.057,-118.652,-44.434,-41.504,-80.078,0.000
1709375852.061,-129.395,-44.922,-44.434,-76.660,0.000
1709375852.065,-56.152,-32.715,-45.898,-56.152,0.000
1709375852.069,58.594,-24.902,-41.016,-6.836,0.000
1709375852.073,6.348,-39.062,-36.621,-24.414,0.000
1709375852.077,-111.328,-49.316,-34.180,-76.660,0.000
1709375852.081,-125.977,-41.992,-32.715,-78.125,0.000
1709375852.085,-66.895,-41.016,-35.156,-54.688,0.000
1709375852.088,56.641,-30.762,-31.738,-1.953,0.000
1709375852.092,24.414,-29.297,-28.320,-8.789,0.000
1709375852.096,-102.051,-40.039,-30.762,-61.523,0.000
1709375852.100,-119.629,-39.551,-31.738,-72.754,0.000
1709375852.104,-79.590,-43.457,-34.180,-49.805,0.000
1709375852.108,31.250,-35.645,-35.645,-3.906,0.000
1709375852.112,28.320,-31.738,-36.621,-7.324,0.000
1709375852.116,-98.145,-48.828,-35.645,-58.594,0.000
1709375852.120,-133.301,-54.688,-34.668,-76.660,0.000
1709375852.124,-96.191,-45.898,-34.668,-58.594,0.000
1709375852.127,20.508,-38.574,-31.738,-11.230,0.000
1709375852.131,48.340,-42.480,-31.250,-5.371,0.000
1709375852.135,-75.195,-47.363,-31.250,-63.477,0.000
1709375852.139,-135.254,-43.945,-32.227,-92.285,0.000
1709375852.143,-103.027,-42.480,-32.715,-83.008,0.000
1709375852.147,14.648,-35.156,-28.320,-23.926,0.000
1709375852.151,53.711,-30.273,-31.738,9.766,0.000
1709375852.155,-65.918,-28.320,-31.738,-45.410,0.000
1709375852.159,-134.277,-39.551,-31.250,-83.984,0.000
1709375852.163,-111.816,-44.922,-35.645,-76.172,0.000
1709375852.166,-0.977,-32.227,-34.180,-27.344,0.000
1709375852.170,63.477,-29.297,-38.086,1.953,0.000
1709375852.174,-44.922,-42.969,-43.945,-41.016,0.000
1709375852.178,-130.859,-51.270,-42.969,-77.637,0.000
1709375852.182,-129.395,-47.363,-41.504,-80.566,0.000
1709375852.186,-31.250,-38.574,-37.109,-36.621,0.000
1709375852.190,61.523,-41.504,-38.574,4.395,0.000
1709375852.194,-31.738,-57.129,-38.086,-31.738,0.000
1709375852.198,-125.977,-54.199,-32.227,-76.660,0.000
1709375852.202,-114.746,-45.898,-33.691,-89.844,0.000
1709375852.205,-20.996,-42.969,-34.668,-50.293,0.000
1709375852.209,77.148,-29.297,-32.715,4.883,0.000
1709375852.213,-5.859,-30.273,-36.133,-14.648,0.000
1709375852.217,-111.816,-38.574,-40.039,-63.477,0.000
1709375852.221,-117.676,-40.527,-41.504,-74.707,0.000
1709375852.225,-47.852,-33.203,-40.527,-45.898,0.000
1709375852.229,66.895,-19.043,-39.551,3.906,0.000
1709375852.233,3.906,-24.414,-41.016,-15.137,0.000
1709375852.237,-115.723,-47.852,-40.527,-62.012,0.000
1709375852.241,-124.023,-52.734,-34.668,-64.941,0.000
1709375852.245,-62.500,-39.062,-31.738,-50.781,0.000
1709375852.248,54.199,-33.691,-29.785,1.465,0.000
1709375852.252,22.461,-38.574,-31.250,-0.488,0.000
1709375852.256,-91.309,-45.410,-35.156,-54.688,0.000
1709375852.260,-115.723,-45.410,-33.691,-72.266,0.000
1709375852.264,-72.266,-44.922,-34.180,-50.781,0.000
1709375852.268,44.922,-41.016,-32.227,5.371,0.000
1709375852.272,36.621,-36.133,-30.273,7.812,0.000
1709375852.276,-94.238,-42.969,-32.227,-46.387,0.000
1709375852.280,-119.629,-45.410,-35.645,-62.500,0.000
1709375852.284,-68.848,-40.039,-35.156,-44.434,0.000
1709375852.288,50.293,-31.250,-31.738,5.859,0.000
1709375852.291,70.801,-25.879,-32.715,13.672,0.000
1709375852.295,-53.711,-33.691,-34.180,-34.668,0.000
1709375852.299,-101.562,-39.551,-37.109,-54.688,0.000
1709375852.303,-78.613,-33.691,-40.527,-53.223,0.000
1709375852.307,27.344,-26.367,-41.016,-13.672,0.000
1709375852.311,69.824,-26.855,-43.457,2.930,0.000
1709375852.315,-46.387,-35.645,-41.992,-46.387,0.000
1709375852.319,-114.258,-39.062,-46.387,-78.125,0.000
1709375852.323,-100.098,-40.039,-50.293,-73.242,0.000
1709375852.327,4.883,-37.598,-45.898,-28.320,0.000
1709375852.331,65.430,-34.180,-41.504,1.953,0.000
1709375852.334,-45.410,-32.227,-33.691,-45.898,0.000
1709375852.338,-122.070,-34.180,-36.133,-81.543,0.000
1709375852.342,-110.840,-41.992,-39.062,-64.453,0.000
1709375852.346,-13.672,-35.156,-35.645,-20.020,0.000
1709375852.350,73.242,-20.508,-37.109,6.836,0.000
1709375852.354,-17.578,-34.180,-38.574,-26.367,0.000
1709375852.358,-104.004,-49.805,-39.062,-67.871,0.000
1709375852.362,-103.516,-43.945,-40.039,-71.777,0.000
1709375852.366,-18.066,-37.598,-41.504,-31.250,0.000
1709375852.370,88.379,-34.668,-40.039,22.949,0.000
1709375852.374,1.465,-37.109,-35.645,-1.465,0.000
1709375852.377,-108.398,-46.387,-37.598,-49.316,0.000
1709375852.381,-114.746,-50.781,-40.527,-53.223,0.000
1709375852.385,-44.922,-47.363,-36.133,-20.996,0.000
1709375852.389,69.824,-44.922,-36.133,33.203,0.000
1709375852.393,10.254,-44.922,-35.156,6.348,0.000
1709375852.397,-107.910,-46.875,-40.527,-51.270,0.000
1709375852.401,-123.535,-48.340,-43.945,-60.547,0.000
1709375852.405,-61.523,-44.434,-39.551,-43.457,0.000
1709375852.409,59.082,-32.227,-41.016,8.789,0.000
1709375852.413,26.855,-36.133,-50.293,-7.812,0.000
1709375852.417,-101.562,-50.293,-56.152,-72.266,0.000
1709375852.420,-123.047,-51.270,-52.246,-89.355,0.000
1709375852.424,-68.848,-44.922,-47.363,-67.383,0.000
1709375852.428,55.664,-33.691,-43.945,-6.836,0.000
1709375852.432,41.504,-39.062,-43.457,-5.859,0.000
1709375852.436,-90.332,-48.828,-46.387,-63.477,0.000
1709375852.440,-121.094,-40.039,-48.828,-85.938,0.000
1709375852.444,-76.660,-38.086,-47.363,-72.266,0.000
1709375852.448,44.434,-35.156,-47.852,-24.414,0.000
1709375852.452,60.059,-30.273,-46.875,-12.207,0.000
1709375852.456,-69.336,-36.621,-42.480,-57.617,0.000
1709375852.459,-121.582,-41.992,-43.457,-78.125,0.000
1709375852.463,-90.820,-44.922,-44.434,-69.824,0.000
1709375852.467,20.996,-37.598,-42.480,-20.996,0.000
1709375852.471,58.105,-25.391,-42.969,2.930,0.000
1709375852.475,-60.547,-35.645,-41.504,-44.922,0.000
1709375852.479,-117.676,-44.922,-38.574,-61.035,0.000
1709375852.483,-93.750,-39.551,-36.621,-56.641,0.000
1709375852.487,10.254,-29.785,-37.109,-19.531,0.000
1709375852.491,65.430,-27.832,-35.645,15.137,0.000
1709375852.495,-47.852,-39.551,-36.133,-31.738,0.000
1709375852.499,-120.605,-45.898,-38.086,-67.383,0.000
1709375852.502,-109.375,-45.898,-38.574,-63.477,0.000
1709375852.506,-8.789,-40.527,-37.109,-15.625,0.000
1709375852.510,80.078,-30.762,-29.297,25.879,0.000
1709375852.514,-21.973,-31.738,-31.250,-16.602,0.000
1709375852.518,-115.234,-40.527,-34.668,-57.617,0.000
1709375852.522,-103.516,-49.316,-33.203,-55.176,0.000
1709375852.526,-18.555,-41.016,-32.715,-19.043,0.000
1709375852.530,67.871,-26.855,-34.668,15.625,0.000
1709375852.534,-20.020,-40.039,-38.574,-21.484,0.000
1709375852.537,-117.676,-47.852,-37.598,-66.895,0.000
1709375852.541,-112.305,-44.922,-34.180,-67.871,0.000
1709375852.545,-29.297,-36.133,-31.250,-37.109,0.000
1709375852.549,82.031,-26.367,-30.273,16.602,0.000
1709375852.553,13.672,-32.715,-31.250,-7.324,0.000
1709375852.557,-103.516,-35.645,-30.762,-57.129,0.000
1709375852.561,-110.840,-33.691,-26.855,-58.105,0.000
1709375852.565,-42.480,-37.598,-28.809,-36.133,0.000
1709375852.569,68.359,-30.273,-33.691,15.625,0.000
1709375852.573,22.949,-22.461,-34.180,1.465,0.000
1709375852.577,-100.586,-36.621,-35.645,-62.988,0.000
1709375852.580,-124.023,-47.363,-38.086,-78.125,0.000
1709375852.584,-59.082,-40.039,-41.016,-55.176,0.000
1709375852.588,64.941,-26.855,-40.039,2.930,0.000
1709375852.592,44.434,-24.414,-35.645,0.000,0.000
1709375852.596,-79.590,-35.156,-34.180,-52.246,0.000
1709375852.600,-121.094,-40.039,-37.598,-70.801,0.000
1709375852.604,-76.172,-37.109,-37.598,-57.129,0.000
1709375852.608,43.945,-37.109,-39.062,-10.742,0.000
1709375852.612,47.852,-46.387,-38.574,-6.836,0.000
1709375852.616,-78.613,-51.270,-35.645,-53.711,0.000
1709375852.619,-121.094,-46.387,-31.738,-78.125,0.000
1709375852.623,-91.797,-44.922,-35.156,-70.312,0.000
1709375852.627,22.949,-38.086,-37.109,-17.090,0.000
1709375852.631,60.059,-33.691,-32.715,0.488,0.000
1709375852.635,-69.824,-41.504,-36.133,-56.641,0.000
1709375852.639,-131.836,-47.852,-40.039,-82.031,0.000
1709375852.643,-106.934,-47.852,-38.574,-71.289,0.000
1709375852.647,-0.488,-41.016,-38.574,-25.391,0.000
1709375852.651,56.641,-34.180,-36.621,0.977,0.000
1709375852.655,-52.246,-45.898,-36.133,-47.363,0.000
1709375852.659,-124.512,-53.223,-36.133,-71.289,0.000
1709375852.662,-107.910,-44.922,-33.203,-61.523,0.000
1709375852.666,-1.953,-35.156,-34.668,-17.090,0.000
1709375852.670,76.172,-35.645,-35.645,24.902,0.000
1709375852.674,-29.785,-49.805,-35.156,-14.160,0.000
1709375852.678,-115.234,-51.270,-41.504,-59.570,0.000
1709375852.682,-109.863,-47.363,-43.457,-61.523,0.000
