timestamps,TP9,AF7,AF8,TP10,Right AUX
1709297963.972,-38.574,-33.203,-41.504,-38.086,0.000
1709297963.976,-35.645,-36.133,-38.574,-32.227,0.000
1709297963.980,-29.785,-34.180,-37.598,-30.762,0.000
1709297963.984,-36.621,-34.180,-41.016,-31.738,0.000
1709297963.988,-44.922,-32.227,-41.992,-43.457,0.000
1709297963.992,-47.852,-31.250,-41.992,-43.945,0.000
1709297963.996,-41.016,-34.668,-38.574,-34.180,0.000
1709297964.000,-42.969,-36.621,-39.551,-32.715,0.000
1709297964.004,-50.293,-34.180,-41.992,-39.551,0.000
1709297964.008,-49.805,-33.203,-45.898,-51.758,0.000
1709297964.011,-47.363,-35.156,-46.387,-57.617,0.000
1709297964.015,-47.852,-36.621,-43.945,-43.945,0.000
1709297964.019,0.000,-35.645,-41.992,-28.320,0.000
1709297964.023,0.000,-34.180,-41.504,-33.203,0.000
1709297964.027,0.000,-36.133,-46.387,-41.992,0.000
1709297964.031,0.000,-38.574,-48.828,-44.434,0.000
1709297964.035,0.000,-39.062,-44.434,-40.527,0.000
1709297964.039,0.000,-41.016,-39.062,-25.879,0.000
1709297964.043,0.000,-39.062,-36.133,-29.785,0.000
1709297964.047,0.000,-33.203,-36.621,-41.504,0.000
1709297964.051,0.000,-30.273,-37.598,-41.992,0.000
1709297964.054,0.000,-33.203,-39.062,-34.668,0.000
1709297964.058,0.000,-37.109,-41.016,-26.367,0.000
1709297964.062,0.000,-33.691,-38.086,-31.738,0.000
1709297964.066,-45.410,-25.391,-37.109,-45.898,0.000
1709297964.070,-40.039,-29.297,-39.551,-50.293,0.000
1709297964.073,-41.992,-34.180,-37.109,-37.598,0.000
1709297964.077,-41.016,-27.832,-36.133,-28.320,0.000
1709297964.081,-35.645,-26.855,-39.551,-35.156,0.000
1709297964.085,-31.250,-34.180,-36.133,-51.758,0.000
1709297964.089,-32.227,-33.691,-32.715,-54.688,0.000
1709297964.093,-37.109,-31.250,-34.180,-40.039,0.000
1709297964.097,-30.762,-25.879,-32.227,-35.645,0.000
1709297964.101,-20.996,-24.414,-31.250,-39.062,0.000
1709297964.105,-22.949,-25.879,-33.203,-42.969,0.000
1709297964.109,-25.391,-23.926,-36.133,-47.852,0.000
1709297964.112,-30.762,-25.879,-37.598,-44.922,0.000
1709297964.116,-25.879,-27.344,-36.621,-32.715,0.000
1709297964.120,-32.715,-29.785,-37.109,-26.367,0.000
1709297964.124,-38.086,-34.668,-38.086,-45.410,0.000
1709297964.128,-33.203,-35.645,-37.109,-54.199,0.000
1709297964.132,-29.785,-34.180,-33.691,-44.434,0.000
1709297964.136,-24.902,-30.762,-31.250,-29.785,0.000
1709297964.140,-34.180,-33.203,-39.062,-30.273,0.000
1709297964.144,-48.828,-37.598,-47.852,-47.852,0.000
1709297964.148,-48.828,-34.668,-43.945,-51.270,0.000
1709297964.152,-48.828,-33.203,-41.504,-46.875,0.000
1709297964.155,-51.270,-34.180,-40.527,-49.805,0.000
1709297964.159,0.000,-33.691,-37.598,-49.805,0.000
1709297964.163,0.000,-33.203,-42.969,-45.898,0.000
1709297964.167,0.000,-38.086,-45.410,-51.270,0.000
1709297964.171,0.000,-37.109,-40.527,-50.293,0.000
1709297964.175,0.000,-31.738,-39.062,-36.621,0.000
1709297964.179,0.000,-32.715,-41.992,-25.879,0.000
1709297964.183,0.000,-39.062,-46.875,-40.527,0.000
1709297964.187,0.000,-38.574,-48.340,-55.664,0.000
1709297964.191,0.000,-36.621,-43.945,-51.758,0.000
1709297964.195,0.000,-39.551,-41.504,-35.156,0.000
1709297964.199,0.000,-42.969,-44.434,-20.996,0.000
1709297964.202,0.000,-42.969,-47.852,-32.715,0.000
1709297964.206,-43.945,-35.645,-46.387,-51.270,0.000
1709297964.210,-44.434,-35.645,-42.480,-47.363,0.000
1709297964.214,-40.527,-38.574,-43.945,-36.133,0.000
1709297964.218,-35.156,-39.551,-46.387,-32.715,0.000
1709297964.222,-39.551,-41.016,-43.945,-33.203,0.000
1709297964.226,-43.457,-41.016,-41.016,-42.969,0.000
1709297964.230,-44.434,-42.969,-41.992,-52.246,0.000
1709297964.234,-42.480,-40.527,-40.039,-41.992,0.000
1709297964.238,-40.039,-39.551,-38.086,-35.156,0.000
1709297964.242,-34.180,-39.551,-37.598,-33.691,0.000
1709297964.245,-34.180,-37.109,-43.945,-38.086,0.000
1709297964.249,-33.203,-37.109,-46.875,-42.969,0.000
1709297964.253,-27.344,-38.086,-43.457,-38.086,0.000
1709297964.257,-29.297,-37.598,-44.922,-41.504,0.000
1709297964.261,-28.809,-33.691,-42.480,-36.133,0.000
1709297964.265,-28.320,-33.691,-38.574,-38.574,0.000
1709297964.269,-37.109,-35.156,-39.551,-45.898,0.000
1709297964.273,-37.109,-34.180,-40.527,-41.016,0.000
1709297964.277,-34.180,-34.668,-42.969,-41.504,0.000
1709297964.281,-38.086,-34.668,-40.527,-41.504,0.000
1709297964.285,-33.691,-31.250,-32.227,-44.922,0.000
1709297964.288,-29.785,-28.809,-28.809,-41.504,0.000
1709297964.292,-28.320,-27.832,-31.250,-39.551,0.000
1709297964.296,-30.273,-28.809,-35.156,-38.574,0.000
1709297964.300,-37.598,-32.715,-35.156,-37.109,0.000
1709297964.304,-46.387,-31.738,-34.180,-48.828,0.000
1709297964.308,-46.387,-27.344,-35.645,-53.711,0.000
1709297964.312,-42.480,-31.250,-36.133,-46.875,0.000
1709297964.316,-43.945,-33.691,-36.621,-41.016,0.000
1709297964.320,-47.852,-31.250,-37.109,-31.738,0.000
1709297964.324,-48.828,-30.273,-39.062,-40.039,0.000
1709297964.328,-41.992,-30.273,-41.016,-56.641,0.000
1709297964.331,-33.691,-32.715,-41.504,-42.480,0.000
1709297964.335,-29.785,-34.180,-41.016,-26.855,0.000
1709297964.339,-28.809,-33.203,-39.062,-23.926,0.000
1709297964.343,-27.832,-30.762,-35.645,-23.926,0.000
1709297964.347,-32.715,-26.367,-37.109,-42.480,0.000
1709297964.351,-27.832,-26.367,-37.598,-43.457,0.000
1709297964.355,-24.902,-31.738,-36.621,-32.227,0.000
1709297964.359,-30.273,-35.645,-39.062,-24.902,0.000
1709297964.363,-35.156,-37.109,-36.621,-20.996,0.000
1709297964.367,-41.016,-38.086,-38.086,-29.297,0.000
1709297964.371,-37.109,-35.156,-43.945,-36.621,0.000
1709297964.374,-31.250,-34.668,-38.574,-22.949,0.000
1709297964.378,-26.367,-38.574,-35.645,-3.906,0.000
1709297964.382,-27.344,-37.109,-40.039,-19.043,0.000
1709297964.386,-25.391,-33.203,-35.156,-43.457,0.000
1709297964.390,-22.461,-33.203,-32.715,-32.227,0.000
1709297964.394,-22.461,-31.250,-36.133,-19.531,0.000
1709297964.398,-19.531,-29.785,-39.551,-20.020,0.000
1709297964.402,-18.066,-34.668,-43.945,-25.391,0.000
1709297964.406,-21.484,-34.180,-44.922,-37.109,0.000
1709297964.410,-19.531,-33.691,-42.969,-35.645,0.000
1709297964.413,-25.879,-42.480,-45.898,-27.344,0.000
1709297964.417,-33.691,-42.969,-43.457,-19.531,0.000
1709297964.421,-34.180,-40.527,-40.527,-18.066,0.000
1709297964.425,-38.086,-40.039,-39.551,-35.645,0.000
1709297964.429,-41.992,-38.574,-38.574,-47.852,0.000
1709297964.433,-36.133,-38.574,-38.574,-33.203,0.000
1709297964.437,-31.738,-36.621,-39.551,-27.344,0.000
1709297964.441,0.000,-31.738,0.000,-37.109,0.000
1709297964.445,0.000,-35.156,0.000,-40.039,0.000
1709297964.449,0.000,-38.574,0.000,-40.039,0.000
1709297964.453,0.000,-39.551,0.000,-33.203,0.000
1709297964.456,0.000,-41.504,0.000,-20.996,0.000
1709297964.460,0.000,-41.016,0.000,-28.320,0.000
1709297964.464,0.000,-34.668,0.000,-32.715,0.000
1709297964.468,0.000,-30.762,0.000,-31.738,0.000
1709297964.472,0.000,-31.738,0.000,-42.969,0.000
1709297964.476,0.000,-26.855,0.000,-38.086,0.000
1709297964.480,0.000,-24.414,0.000,-31.738,0.000
1709297964.484,0.000,-28.809,0.000,-35.645,0.000
1709297964.488,-35.645,-33.203,-38.086,-39.551,0.000
1709297964.492,-37.598,-29.785,-39.551,-37.598,0.000
1709297964.495,-35.645,-26.855,-35.645,-29.785,0.000
1709297964.499,-45.898,-31.738,-36.133,-27.832,0.000
1709297964.503,-52.246,-37.109,-41.504,-39.062,0.000
1709297964.507,-47.852,-38.574,-48.828,-57.129,0.000
1709297964.511,-48.828,-37.598,-48.340,-46.875,0.000
1709297964.515,-43.945,-34.668,-46.387,-30.273,0.000
1709297964.519,-42.969,-36.133,-47.363,-40.527,0.000
1709297964.523,-43.457,-39.551,-46.875,-46.387,0.000
1709297964.527,-35.156,-36.621,-46.387,-51.270,0.000
1709297964.531,-34.180,-35.156,-45.898,-47.852,0.000
1709297964.534,0.000,-33.203,-42.480,-37.109,0.000
1709297964.538,0.000,-31.250,-39.551,-32.227,0.000
1709297964.542,0.000,-32.715,-39.551,-35.645,0.000
1709297964.546,0.000,-33.203,-38.574,-41.992,0.000
1709297964.550,0.000,-31.738,-39.551,-39.551,0.000
1709297964.554,0.000,-37.109,-42.480,-34.668,0.000
1709297964.558,0.000,-42.969,-45.410,-20.996,0.000
1709297964.562,0.000,-41.992,-47.363,-20.508,0.000
1709297964.566,0.000,-37.598,-47.852,-38.086,0.000
1709297964.570,0.000,-35.156,-48.340,-50.293,0.000
1709297964.574,0.000,-37.598,-49.316,-49.316,0.000
1709297964.577,0.000,-38.086,-43.945,-41.016,0.000
1709297964.581,-33.203,-38.086,-40.527,-36.621,0.000
1709297964.585,-38.574,-39.551,-41.992,-41.504,0.000
1709297964.589,-47.363,-41.504,-43.457,-47.852,0.000
1709297964.593,-61.523,-42.969,-44.434,-47.852,0.000
1709297964.597,-59.082,-42.969,-43.457,-38.086,0.000
1709297964.601,-52.734,-41.504,-42.480,-30.762,0.000
1709297964.605,-58.594,-44.922,-43.945,-45.410,0.000
1709297964.609,-61.035,-45.410,-45.410,-57.129,0.000
1709297964.613,-53.223,-41.016,-41.992,-47.852,0.000
1709297964.617,-47.852,-37.598,-39.551,-39.062,0.000
1709297964.620,-53.223,-38.574,-39.062,-36.133,0.000
1709297964.624,-58.594,-40.527,-36.621,-42.480,0.000
1709297964.628,-60.059,-38.086,-35.645,-52.246,0.000
1709297964.632,-59.082,-38.574,-43.457,-42.480,0.000
1709297964.636,-48.340,-38.086,-45.410,-32.227,0.000
1709297964.640,-43.457,-32.715,-41.016,-41.992,0.000
1709297964.644,-46.875,-30.273,-42.969,-46.387,0.000
1709297964.648,-45.898,-35.645,-43.457,-44.922,0.000
1709297964.652,-36.621,-35.156,-41.504,-39.062,0.000
1709297964.656,-36.133,-33.203,-40.527,-28.320,0.000
1709297964.660,-41.016,-33.691,-39.062,-26.367,0.000
1709297964.663,-41.016,-31.738,-40.039,-33.203,0.000
1709297964.667,-40.527,-29.785,-38.574,-44.922,0.000
1709297964.671,-41.992,-30.762,-37.109,-36.133,0.000
1709297964.675,0.000,-30.762,-39.062,-15.137,0.000
1709297964.679,0.000,-26.367,-41.992,-22.461,0.000
1709297964.683,0.000,-25.879,-44.922,-40.039,0.000
1709297964.687,0.000,-33.691,-45.410,-44.434,0.000
1709297964.691,0.000,-36.621,-43.457,-47.363,0.000
1709297964.695,0.000,-34.668,-43.457,-40.039,0.000
1709297964.699,0.000,-39.062,-41.992,-28.320,0.000
1709297964.703,0.000,-41.504,-41.016,-40.527,0.000
1709297964.706,0.000,-41.504,-43.457,-37.109,0.000
1709297964.710,0.000,-44.922,-45.898,-33.203,0.000
1709297964.714,0.000,-38.574,-46.875,-41.504,0.000
1709297964.718,0.000,-29.785,-49.316,-34.668,0.000
1709297964.722,-36.133,-30.762,-49.316,-36.621,0.000
1709297964.726,-34.180,-27.832,-46.875,-42.969,0.000
1709297964.730,-32.227,-25.391,-46.875,-46.875,0.000
1709297964.734,-38.574,-29.785,-45.410,-44.922,0.000
1709297964.738,-38.574,-31.250,-42.969,-40.039,0.000
1709297964.742,-38.086,-33.691,-43.945,-37.109,0.000
1709297964.746,-34.180,-32.227,-44.434,-43.457,0.000
1709297964.749,-30.762,-32.715,-42.480,-44.922,0.000
1709297964.753,-36.621,-32.227,-45.898,-25.391,0.000
1709297964.757,-37.598,-28.320,-48.340,-20.508,0.000
1709297964.761,-38.574,-33.691,-50.293,-38.086,0.000
1709297964.765,-47.852,-39.551,-52.734,-56.641,0.000
1709297964.769,-44.922,-37.598,-51.758,-56.152,0.000
1709297964.773,-13.184,-34.180,-49.805,-29.785,0.000
1709297964.777,0.000,-33.203,-40.039,2.930,0.000
1709297964.781,-26.855,-40.039,-25.879,-7.324,0.000
1709297964.785,-41.504,-42.969,-28.320,-42.480,0.000
1709297964.788,-35.156,-43.945,-31.250,-43.457,0.000
1709297964.792,-45.898,-48.828,-29.297,-35.645,0.000
1709297964.796,-51.758,-58.105,-20.996,-20.020,0.000
1709297964.800,-43.945,-68.848,-12.207,-14.160,0.000
1709297964.804,-50.781,-74.219,-15.625,-38.574,0.000
1709297964.808,-55.176,-78.613,-14.648,-48.828,0.000
1709297964.812,-38.086,-88.867,-4.395,-27.344,0.000
1709297964.816,-32.227,-92.773,-4.395,-5.859,0.000
1709297964.820,-38.574,-93.262,-5.859,-7.324,0.000
1709297964.824,-32.227,-96.680,2.441,-11.719,0.000
1709297964.828,-20.020,-99.609,5.859,3.418,0.000
1709297964.831,-19.043,-100.098,5.371,18.066,0.000
1709297964.835,-20.020,-104.492,3.906,21.973,0.000
1709297964.839,-8.301,-107.910,0.488,34.668,0.000
1709297964.843,-4.883,-107.422,-0.977,41.504,0.000
1709297964.847,4.395,-111.816,-2.930,30.762,0.000
1709297964.851,15.625,-111.328,0.000,24.902,0.000
1709297964.855,19.043,-108.398,8.789,46.875,0.000
1709297964.859,9.277,-113.770,6.836,42.480,0.000
1709297964.863,-0.488,-115.723,0.977,30.273,0.000
1709297964.867,4.883,-114.258,5.371,43.457,0.000
1709297964.870,14.648,-110.352,7.812,47.363,0.000
1709297964.874,12.695,-107.422,9.277,39.062,0.000
1709297964.878,14.160,-106.934,11.230,53.711,0.000
1709297964.882,16.113,-105.469,12.207,68.359,0.000
1709297964.886,9.277,-106.445,13.184,61.523,0.000
1709297964.890,9.277,-106.445,13.672,59.570,0.000
1709297964.894,14.160,-103.027,15.137,63.965,0.000
1709297964.898,22.461,-101.074,12.207,73.730,0.000
1709297964.902,18.555,-104.492,10.254,70.312,0.000
1709297964.906,12.207,-103.027,10.254,65.918,0.000
1709297964.909,20.996,-102.051,11.230,66.895,0.000
1709297964.913,36.133,-94.727,11.719,75.195,0.000
1709297964.917,36.133,-89.844,8.301,75.684,0.000
1709297964.921,32.227,-92.285,11.230,69.824,0.000
1709297964.925,31.738,-88.379,7.812,61.523,0.000
1709297964.929,39.062,-83.496,3.418,65.430,0.000
1709297964.933,27.832,-82.520,0.000,62.012,0.000
1709297964.937,18.066,-83.008,-10.742,48.828,0.000
1709297964.941,16.113,-82.520,-11.719,46.875,0.000
1709297964.945,10.742,-76.172,-15.625,38.086,0.000
1709297964.948,3.906,-75.195,-15.137,28.809,0.000
1709297964.952,5.371,-75.195,-9.277,41.504,0.000
1709297964.956,0.000,-71.289,-6.836,56.152,0.000
1709297964.960,0.000,-70.801,-5.371,50.293,0.000
1709297964.964,0.000,-69.824,-16.113,36.621,0.000
1709297964.968,0.000,-65.430,-25.391,29.297,0.000
1709297964.972,0.000,-57.617,-22.949,22.949,0.000
1709297964.976,0.000,-54.199,-22.461,29.785,0.000
1709297964.980,0.000,-51.270,-28.809,41.016,0.000
1709297964.984,0.000,-51.270,-29.785,26.855,0.000
1709297964.987,0.000,-55.664,-27.344,9.766,0.000
1709297964.991,0.000,-55.176,-27.344,15.137,0.000
1709297964.995,0.000,-48.340,-30.273,22.461,0.000
1709297964.999,0.000,-44.922,-34.180,23.438,0.000
1709297965.003,-4.883,-49.316,-32.227,15.137,0.000
1709297965.007,-2.441,-51.758,-36.133,3.906,0.000
1709297965.011,-10.254,-51.270,-36.621,7.324,0.000
1709297965.015,-6.836,-51.270,-32.227,7.812,0.000
1709297965.019,-9.766,-51.758,-34.668,1.465,0.000
1709297965.023,-18.066,-53.223,-37.598,-2.441,0.000
1709297965.027,-15.137,-50.293,-39.551,-0.977,0.000
1709297965.030,-14.160,-46.387,-38.086,-9.766,0.000
1709297965.034,-11.719,-46.387,-35.645,-11.719,0.000
1709297965.038,-9.766,-45.898,-39.551,0.000,0.000
1709297965.042,-13.184,-41.504,-41.992,-8.301,0.000
1709297965.046,-19.043,-39.551,-41.016,-27.344,0.000
1709297965.050,-16.602,-40.039,-39.062,-22.949,0.000
1709297965.054,-10.254,-41.016,-35.156,-10.254,0.000
1709297965.058,-14.648,-43.457,-30.762,-9.277,0.000
1709297965.062,-29.297,-46.875,-30.762,-9.766,0.000
1709297965.066,-34.668,-43.945,-29.785,-24.414,0.000
1709297965.070,-41.016,-43.945,-34.668,-40.527,0.000
1709297965.073,-47.852,-44.922,-38.086,-41.504,0.000
1709297965.077,-43.945,-44.922,-34.180,-28.320,0.000
1709297965.081,-36.621,-44.922,-33.203,-17.578,0.000
1709297965.085,-27.832,-41.504,-32.715,-18.555,0.000
1709297965.089,-20.996,-44.434,-31.738,-20.996,0.000
1709297965.093,-17.578,-47.363,-33.203,-11.230,0.000
1709297965.097,-14.648,-40.039,-36.133,-6.836,0.000
1709297965.101,-18.066,-33.203,-37.109,-14.160,0.000
1709297965.105,-25.391,-32.715,-39.062,-26.855,0.000
1709297965.109,-25.879,-33.203,-38.574,-36.621,0.000
1709297965.113,-24.902,-37.598,-38.574,-34.668,0.000
1709297965.116,-27.832,-40.039,-39.062,-27.344,0.000
1709297965.120,-28.809,-39.551,-36.133,-31.250,0.000
1709297965.124,-34.180,-43.945,-37.598,-40.527,0.000
1709297965.128,-37.109,-40.527,-34.668,-41.504,0.000
1709297965.132,-31.738,-41.504,-27.832,-35.645,0.000
1709297965.136,-31.250,-44.434,-33.203,-34.180,0.000
1709297965.140,-29.785,-39.551,-36.621,-37.109,0.000
1709297965.144,-32.715,-36.133,-34.180,-35.645,0.000
1709297965.148,-37.109,-34.180,-35.156,-39.062,0.000
1709297965.152,-32.715,-35.645,-35.156,-40.527,0.000
1709297965.156,-29.785,-39.062,-37.109,-33.203,0.000
1709297965.159,-27.832,-37.598,-39.551,-26.855,0.000
1709297965.163,-23.438,-35.645,-36.621,-33.203,0.000
1709297965.167,-25.391,-36.133,-36.133,-42.969,0.000
1709297965.171,-29.785,-36.133,-37.598,-35.645,0.000
1709297965.175,-24.414,-32.715,-36.621,-15.625,0.000
1709297965.179,-18.555,-30.273,-34.668,-18.555,0.000
1709297965.183,-22.461,-33.203,-35.645,-33.203,0.000
1709297965.187,-29.785,-32.715,-35.645,-37.109,0.000
1709297965.191,-34.668,-35.645,-35.156,-33.203,0.000
1709297965.195,-30.762,-41.016,-38.086,-21.484,0.000
1709297965.198,-20.996,-41.504,-41.504,-17.578,0.000
1709297965.202,-24.414,-42.480,-42.969,-27.832,0.000
1709297965.206,-25.879,-41.016,-41.504,-32.715,0.000
1709297965.210,-22.949,-39.551,-36.133,-30.273,0.000
1709297965.214,-24.902,-39.062,-39.551,-22.949,0.000
1709297965.218,-25.879,-38.574,-43.945,-9.766,0.000
1709297965.222,-26.367,-39.551,-42.969,-11.719,0.000
1709297965.226,-23.926,-35.156,-41.504,-29.297,0.000
1709297965.230,-22.461,-32.715,-36.133,-29.297,0.000
1709297965.234,-23.438,-36.133,-34.668,-18.555,0.000
1709297965.237,-23.926,-35.156,-35.156,-9.277,0.000
1709297965.241,-29.297,-33.203,-36.621,-9.766,0.000
1709297965.245,-32.227,-36.133,-38.574,-23.438,0.000
1709297965.249,-26.367,-40.039,-38.574,-29.297,0.000
1709297965.253,-29.785,-41.504,-37.109,-26.367,0.000
1709297965.257,-32.715,-43.457,-35.645,-23.438,0.000
1709297965.261,-33.203,-40.527,-34.180,-18.066,0.000
1709297965.265,-34.180,-37.598,-33.203,-14.160,0.000
1709297965.269,-26.855,-37.598,-35.156,-22.461,0.000
1709297965.273,-24.414,-35.645,-39.062,-25.879,0.000
1709297965.277,-26.855,-38.086,-38.574,-16.602,0.000
1709297965.280,-28.320,-39.551,-38.574,-16.602,0.000
1709297965.284,-23.926,-32.715,-34.668,-31.738,0.000
1709297965.288,-24.902,-34.668,-35.156,-45.898,0.000
1709297965.292,-36.621,-39.062,-41.016,-46.875,0.000
1709297965.296,-42.969,-40.527,-38.574,-36.133,0.000
1709297965.300,-50.293,-40.527,-34.180,-31.738,0.000
1709297965.304,-51.758,-39.062,-36.133,-38.086,0.000
1709297965.308,-49.805,-38.574,-41.016,-47.363,0.000
1709297965.312,-47.852,-42.969,-42.969,-50.781,0.000
1709297965.316,-45.898,-43.457,-41.504,-50.293,0.000
1709297965.320,-48.340,-40.039,-39.062,-46.387,0.000
1709297965.323,-52.246,-38.086,-38.574,-54.688,0.000
1709297965.327,-55.664,-39.062,-34.668,-54.199,0.000
1709297965.331,-51.758,-43.945,-32.715,-40.039,0.000
1709297965.335,-47.852,-46.875,-32.715,-30.762,0.000
1709297965.339,-42.480,-49.316,-33.691,-27.344,0.000
1709297965.343,-40.039,-48.828,-40.039,-36.133,0.000
1709297965.347,-41.504,-43.457,-38.574,-31.738,0.000
1709297965.351,-47.852,-44.922,-36.133,-31.738,0.000
1709297965.355,-48.340,-41.992,-41.504,-33.691,0.000
1709297965.359,-41.992,-36.621,-39.062,-19.531,0.000
1709297965.362,-42.969,-39.062,-36.621,-28.320,0.000
1709297965.366,-45.410,-38.086,-39.062,-38.574,0.000
1709297965.370,-42.969,-36.133,-39.062,-35.156,0.000
1709297965.374,-38.086,-41.504,-40.039,-34.180,0.000
1709297965.378,-31.250,-44.434,-40.039,-28.809,0.000
1709297965.382,-30.273,-40.039,-38.574,-36.621,0.000
1709297965.386,-35.156,-38.086,-40.039,-51.270,0.000
1709297965.390,-38.086,-38.574,-41.504,-48.828,0.000
1709297965.394,-39.551,-39.551,-38.086,-34.180,0.000
1709297965.398,-33.691,-38.574,-39.062,-20.996,0.000
1709297965.402,-39.551,-37.598,-37.598,-19.531,0.000
1709297965.405,-44.922,-33.691,-29.297,-31.250,0.000
1709297965.409,-41.992,-33.691,-28.320,-32.715,0.000
1709297965.413,-52.734,-36.621,-31.738,-32.715,0.000
1709297965.417,-56.152,-35.156,-31.738,-33.203,0.000
1709297965.421,-57.129,-33.691,-31.250,-35.156,0.000
1709297965.425,-59.082,-34.180,-32.227,-40.527,0.000
1709297965.429,-50.781,-34.180,-31.738,-48.340,0.000
1709297965.433,-52.734,-37.598,-34.668,-47.852,0.000
1709297965.437,-63.965,-45.410,-39.062,-41.992,0.000
1709297965.441,-64.453,-42.969,-37.598,-45.898,0.000
1709297965.445,-62.500,-41.016,-39.551,-55.176,0.000
1709297965.448,-50.781,-44.434,-42.969,-49.805,0.000
1709297965.452,-31.250,-42.480,-42.480,-23.926,0.000
1709297965.456,-33.203,-37.109,-40.527,-1.953,0.000
1709297965.460,-56.641,-32.227,-43.457,-29.785,0.000
1709297965.464,-72.754,-30.762,-48.340,-84.473,0.000
1709297965.468,-67.871,-35.156,-54.199,-83.496,0.000
1709297965.472,-55.176,-32.227,-51.270,-50.293,0.000
1709297965.476,-54.688,-30.273,-43.945,-37.598,0.000
1709297965.480,-55.176,-31.250,-39.551,-50.293,0.000
1709297965.484,-46.875,-31.738,-40.527,-49.805,0.000
1709297965.488,-46.875,-31.738,-41.992,-48.828,0.000
1709297965.491,-53.711,-32.715,-42.969,-43.945,0.000
1709297965.495,-52.246,-35.156,-44.434,-38.574,0.000
1709297965.499,-48.340,-35.645,-39.551,-37.109,0.000
1709297965.503,-50.781,-39.551,-41.016,-33.691,0.000
1709297965.507,-47.852,-41.992,-40.527,-43.457,0.000
1709297965.511,-48.828,-44.922,-40.527,-47.363,0.000
1709297965.515,-57.617,-48.828,-41.992,-42.480,0.000
1709297965.519,-59.570,-50.781,-41.016,-52.734,0.000
1709297965.523,-56.641,-46.387,-41.992,-64.941,0.000
1709297965.527,-58.594,-44.922,-40.039,-67.383,0.000
1709297965.531,-58.105,-46.875,-38.574,-58.594,0.000
1709297965.534,-50.781,-45.410,-40.039,-52.734,0.000
1709297965.538,-53.223,-42.969,-45.410,-55.664,0.000
1709297965.542,-60.059,-41.992,-47.852,-62.012,0.000
1709297965.546,-62.012,-40.527,-48.340,-57.617,0.000
1709297965.550,-62.500,-39.062,-50.293,-53.223,0.000
1709297965.554,-57.617,-39.551,-44.922,-50.781,0.000
1709297965.558,-51.270,-39.551,-40.039,-39.062,0.000
1709297965.562,-49.805,-38.574,-40.039,-37.109,0.000
1709297965.566,-54.199,-42.969,-39.062,-40.527,0.000
1709297965.570,-52.734,-42.480,-40.039,-48.340,0.000
1709297965.573,-50.293,-41.504,-39.062,-42.969,0.000
1709297965.577,-55.664,-42.480,-37.598,-30.273,0.000
1709297965.581,-62.500,-43.457,-42.969,-41.992,0.000
1709297965.585,-56.641,-48.828,-43.945,-62.988,0.000
1709297965.589,-52.734,-49.805,-38.086,-54.688,0.000
1709297965.593,-53.711,-43.945,-36.621,-41.016,0.000
1709297965.597,-45.898,-39.551,-36.133,-40.527,0.000
1709297965.601,-46.387,-35.645,-36.133,-46.387,0.000
1709297965.605,-57.129,-35.645,-37.109,-41.504,0.000
1709297965.609,-48.828,-38.574,-38.574,-46.875,0.000
1709297965.612,0.000,-40.039,-40.039,-48.340,0.000
1709297965.616,0.000,-42.480,-42.969,-39.062,0.000
1709297965.620,0.000,-41.016,-44.922,-46.387,0.000
1709297965.624,0.000,-37.109,-43.945,-54.199,0.000
1709297965.628,0.000,-35.156,-42.480,-54.199,0.000
1709297965.632,0.000,-36.621,-42.969,-52.734,0.000
1709297965.636,0.000,-42.969,-47.363,-38.086,0.000
1709297965.640,0.000,-43.945,-45.410,-36.133,0.000
1709297965.644,0.000,-41.504,-41.016,-51.758,0.000
1709297965.648,0.000,-39.551,-42.480,-61.523,0.000
1709297965.652,0.000,-37.598,-43.945,-60.547,0.000
1709297965.655,0.000,-35.645,-39.551,-42.480,0.000
1709297965.659,-62.500,-35.645,-30.762,-29.297,0.000
1709297965.663,-56.152,-34.180,-25.391,-37.598,0.000
1709297965.667,-56.641,-31.738,-27.344,-44.922,0.000
1709297965.671,-53.711,-31.738,-29.297,-41.992,0.000
1709297965.675,-46.875,-31.738,-33.203,-31.738,0.000
1709297965.679,-43.457,-32.227,-36.133,-24.902,0.000
1709297965.683,-45.410,-32.227,-32.227,-25.391,0.000
1709297965.687,-45.898,-34.668,-34.180,-38.086,0.000
1709297965.691,-38.086,-33.203,-38.086,-45.898,0.000
1709297965.694,-31.250,-32.715,-34.180,-23.926,0.000
1709297965.698,-39.551,-35.156,-35.156,-22.461,0.000
1709297965.702,-39.551,-33.203,-37.109,-42.969,0.000
1709297965.706,-38.086,-36.133,-33.691,-49.805,0.000
1709297965.710,-36.621,-37.598,-31.738,-38.574,0.000
1709297965.714,-35.156,-34.180,-32.715,-27.344,0.000
1709297965.718,-37.109,-32.715,-31.250,-34.180,0.000
1709297965.722,-34.668,-32.715,-32.715,-39.551,0.000
1709297965.726,-38.086,-32.715,-36.621,-38.086,0.000
1709297965.730,-37.598,-36.133,-34.180,-34.668,0.000
1709297965.734,-32.227,-34.668,-33.691,-31.250,0.000
1709297965.737,-27.344,-33.691,-35.645,-28.809,0.000
1709297965.741,-31.738,-34.180,-34.180,-28.809,0.000
1709297965.745,-38.574,-36.621,-37.109,-34.668,0.000
1709297965.749,-44.922,-42.480,-41.992,-33.203,0.000
1709297965.753,-46.387,-42.969,-43.945,-28.809,0.000
1709297965.757,-49.805,-40.527,-44.434,-30.273,0.000
1709297965.761,-55.176,-42.480,-44.434,-27.344,0.000
1709297965.765,-49.316,-41.992,-44.434,-37.109,0.000
1709297965.769,-43.457,-45.410,-43.945,-37.598,0.000
1709297965.773,-43.945,-47.852,-43.945,-29.297,0.000
1709297965.777,-45.410,-45.898,-41.992,-31.738,0.000
1709297965.780,-41.992,-38.574,-39.551,-26.367,0.000
1709297965.784,-47.363,-37.109,-41.992,-24.414,0.000
1709297965.788,-49.316,-38.086,-43.945,-24.902,0.000
1709297965.792,-41.992,-35.645,-44.922,-24.414,0.000
1709297965.796,-48.340,-36.621,-46.387,-26.855,0.000
1709297965.800,-52.734,-42.480,-45.410,-33.203,0.000
1709297965.804,-45.898,-39.551,-44.434,-40.039,0.000
1709297965.808,-41.992,-33.203,-43.945,-45.410,0.000
1709297965.812,-42.480,-37.598,-41.504,-36.621,0.000
1709297965.816,-43.457,-34.668,-37.109,-24.902,0.000
1709297965.820,-45.898,-33.203,-35.645,-28.320,0.000
1709297965.823,-49.316,-35.156,-40.039,-44.434,0.000
1709297965.827,-47.363,-36.621,-38.086,-50.293,0.000
1709297965.831,-44.922,-41.016,-36.133,-44.922,0.000
1709297965.835,-52.246,-42.480,-41.992,-35.645,0.000
1709297965.839,-58.105,-41.504,-45.898,-38.086,0.000
1709297965.843,-55.664,-38.574,-44.434,-46.875,0.000
1709297965.847,-62.988,-35.645,-42.480,-40.039,0.000
1709297965.851,-67.383,-37.109,-47.363,-39.062,0.000
1709297965.855,-55.176,-42.969,-49.805,-48.340,0.000
1709297965.859,-43.457,-41.992,-46.387,-46.875,0.000
1709297965.863,-45.410,-40.527,-44.922,-49.316,0.000
1709297965.866,-49.805,-42.969,-48.340,-58.594,0.000
1709297965.870,-41.016,-40.527,-44.922,-45.898,0.000
1709297965.874,-36.133,-32.227,-37.109,-15.137,0.000
1709297965.878,-41.016,-30.273,-33.203,-4.883,0.000
1709297965.882,-44.922,-35.645,-39.062,-21.973,0.000
1709297965.886,-46.875,-36.133,-39.551,-39.551,0.000
1709297965.890,-46.387,-34.668,-38.086,-27.832,0.000
1709297965.894,-38.086,-31.250,-42.480,-11.719,0.000
1709297965.898,-34.180,-32.715,-42.969,-26.367,0.000
1709297965.902,-36.621,-36.133,-43.945,-28.809,0.000
1709297965.906,-41.504,-39.551,-52.246,-33.203,0.000
1709297965.909,-44.434,-41.504,-53.223,-37.598,0.000
1709297965.913,-34.180,-37.598,-48.340,-24.414,0.000
1709297965.917,-29.785,-33.691,-48.340,-17.578,0.000
1709297965.921,-39.062,-34.668,-48.340,-12.695,0.000
1709297965.925,-36.621,-32.715,-43.945,-21.973,0.000
1709297965.929,-31.738,-31.738,-39.551,-39.551,0.000
1709297965.933,-39.062,-35.645,-39.551,-32.715,0.000
1709297965.937,-38.086,-39.551,-40.039,-26.855,0.000
1709297965.941,-35.156,-39.551,-36.621,-32.227,0.000
1709297965.945,-37.598,-37.109,-34.668,-39.062,0.000
1709297965.949,-39.551,-36.133,-34.668,-42.969,0.000
1709297965.953,-42.480,-38.086,-35.645,-37.598,0.000
1709297965.956,-44.434,-41.016,-37.109,-22.949,0.000
1709297965.960,-41.504,-40.527,-38.086,-18.555,0.000
1709297965.964,-36.621,-38.086,-40.527,-27.832,0.000
1709297965.968,-36.621,-40.039,-37.598,-28.320,0.000
1709297965.972,-29.785,-46.387,-38.086,-28.809,0.000
1709297965.976,-22.949,-48.828,-41.992,-33.203,0.000
1709297965.980,-27.832,-47.363,-40.527,-34.668,0.000
1709297965.984,-26.367,-48.340,-38.086,-31.250,0.000
1709297965.988,-26.367,-48.340,-35.645,-27.344,0.000
1709297965.992,-31.250,-49.316,-38.574,-18.555,0.000
1709297965.996,-31.738,-46.875,-36.621,-2.441,0.000
1709297965.999,-29.297,-41.504,-32.715,-9.277,0.000
1709297966.003,-33.691,-42.969,-35.156,-28.809,0.000
1709297966.007,-31.250,-45.410,-33.691,-32.715,0.000
1709297966.011,-21.484,-47.363,-35.156,-27.832,0.000
1709297966.015,-24.414,-46.387,-39.551,-14.648,0.000
1709297966.019,-25.391,-42.480,-40.527,-11.719,0.000
1709297966.023,-32.227,-43.457,-43.457,-16.602,0.000
1709297966.027,-35.156,-42.480,-49.316,-29.297,0.000
1709297966.031,-27.344,-35.645,-45.898,-32.227,0.000
1709297966.035,-33.691,-33.691,-41.504,-23.926,0.000
1709297966.038,-36.133,-36.133,-42.480,-18.555,0.000
1709297966.042,-38.574,-33.203,-41.016,-26.855,0.000
1709297966.046,-42.969,-33.691,-41.504,-39.551,0.000
1709297966.050,-31.738,-31.738,-42.480,-35.156,0.000
1709297966.054,-28.320,-30.762,-41.504,-37.109,0.000
1709297966.058,-32.227,-34.180,-42.480,-29.785,0.000
1709297966.062,-29.297,-34.180,-40.039,-25.391,0.000
1709297966.066,-28.809,-35.645,-41.016,-44.922,0.000
1709297966.070,-32.715,-37.598,-47.852,-46.387,0.000
1709297966.074,-33.203,-35.156,-50.781,-33.691,0.000
1709297966.077,-32.715,-31.738,-45.898,-31.250,0.000
1709297966.081,-32.715,-30.762,-41.504,-36.621,0.000
1709297966.085,-29.297,-31.738,-40.527,-39.062,0.000
1709297966.089,-29.297,-34.180,-36.133,-35.156,0.000
1709297966.093,-35.156,-36.621,-36.621,-32.227,0.000
1709297966.097,-39.062,-35.156,-43.457,-30.273,0.000
1709297966.101,-44.922,-32.227,-44.434,-27.344,0.000
1709297966.105,-50.781,-31.250,-40.527,-33.691,0.000
1709297966.109,-44.434,-30.762,-40.039,-45.410,0.000
1709297966.113,-42.969,-32.227,-39.551,-40.527,0.000
1709297966.116,-43.945,-34.668,-35.156,-19.531,0.000
1709297966.120,-36.621,-38.574,-32.715,-25.391,0.000
1709297966.124,-39.062,-40.527,-32.715,-45.410,0.000
1709297966.128,-48.828,-38.574,-37.598,-48.340,0.000
1709297966.132,-56.641,-39.551,-40.527,-46.875,0.000
1709297966.136,-60.059,-40.039,-42.969,-41.992,0.000
1709297966.140,-57.129,-38.574,-45.898,-40.527,0.000
1709297966.144,-57.129,-40.527,-47.363,-54.688,0.000
1709297966.148,-50.293,-41.992,-41.992,-50.293,0.000
1709297966.152,-43.945,-40.527,-34.180,-43.457,0.000
1709297966.156,-41.504,-41.992,-34.668,-41.992,0.000
1709297966.159,-45.898,-43.945,-39.551,-38.574,0.000
1709297966.163,-53.711,-44.922,-44.434,-45.410,0.000
1709297966.167,-49.805,-44.434,-44.922,-51.270,0.000
1709297966.171,-44.922,-39.551,-37.109,-39.062,0.000
1709297966.175,-40.527,-31.738,-32.227,-27.344,0.000
1709297966.179,-36.621,-32.227,-36.133,-32.715,0.000
1709297966.183,-33.203,-36.133,-39.062,-42.969,0.000
1709297966.187,-32.715,-34.180,-37.598,-45.410,0.000
1709297966.191,-27.344,-35.645,-33.691,-38.086,0.000
1709297966.195,-21.484,-36.133,-29.785,-19.043,0.000
1709297966.199,-27.832,-34.180,-30.273,-17.090,0.000
1709297966.202,-33.691,-36.621,-34.668,-36.621,0.000
1709297966.206,-39.551,-41.016,-37.598,-43.945,0.000
1709297966.210,-42.480,-40.527,-37.109,-43.945,0.000
1709297966.214,-41.992,-38.574,-38.574,-44.434,0.000
1709297966.218,-48.828,-37.598,-37.109,-36.621,0.000
1709297966.222,-45.410,-33.203,-31.738,-39.062,0.000
1709297966.226,-36.621,-31.250,-30.762,-50.781,0.000
1709297966.230,-42.480,-33.203,-33.691,-59.570,0.000
1709297966.234,-50.293,-33.203,-34.180,-50.781,0.000
1709297966.238,-46.875,-33.203,-32.715,-39.551,0.000
1709297966.242,-47.363,-34.180,-41.016,-44.434,0.000
1709297966.245,-45.410,-33.203,-40.039,-52.246,0.000
1709297966.249,-41.504,-30.762,-36.133,-51.270,0.000
1709297966.253,-34.668,-30.273,-38.574,-46.387,0.000
1709297966.257,-33.203,-35.645,-42.480,-48.828,0.000
1709297966.261,-41.016,-36.621,-42.969,-48.828,0.000
1709297966.265,-41.992,-34.180,-42.480,-45.898,0.000
1709297966.269,-43.457,-35.156,-45.410,-41.992,0.000
1709297966.273,-50.781,-33.203,-46.387,-42.480,0.000
1709297966.277,-56.152,-35.156,-49.316,-44.434,0.000
1709297966.281,-55.176,-35.156,-51.270,-50.781,0.000
1709297966.285,-58.105,-35.156,-52.246,-62.500,0.000
1709297966.288,-59.570,-40.039,-55.664,-68.848,0.000
1709297966.292,-50.293,-40.527,-54.199,-58.105,0.000
1709297966.296,-41.504,-35.645,-48.340,-29.785,0.000
1709297966.300,-46.387,-36.133,-47.363,-30.762,0.000
1709297966.304,-39.551,-34.180,-46.875,-57.617,0.000
1709297966.308,-24.902,-31.738,-45.410,-55.176,0.000
1709297966.312,-23.926,-34.180,-47.363,-38.574,0.000
1709297966.316,-26.367,-30.762,-45.898,-25.879,0.000
1709297966.320,-30.762,-32.227,-46.387,-32.227,0.000
1709297966.324,-26.367,-36.621,-48.828,-42.480,0.000
1709297966.327,-28.320,-32.227,-44.434,-49.316,0.000
1709297966.331,-32.227,-28.320,-42.969,-42.969,0.000
1709297966.335,-26.367,-25.391,-43.457,-24.414,0.000
1709297966.339,-32.227,-28.809,-41.992,-32.715,0.000
1709297966.343,-38.086,-31.250,-41.992,-35.645,0.000
1709297966.347,-32.715,-29.297,-43.945,-35.645,0.000
1709297966.351,-29.785,-32.227,-44.434,-48.340,0.000
1709297966.355,-35.645,-38.574,-44.922,-43.945,0.000
1709297966.359,-37.109,-42.480,-43.457,-45.898,0.000
1709297966.363,-36.133,-42.969,-42.969,-62.500,0.000
1709297966.366,-43.457,-42.480,-41.992,-71.289,0.000
1709297966.370,-42.480,-41.016,-41.504,-64.941,0.000
1709297966.374,-25.879,-40.527,-45.898,-50.781,0.000
1709297966.378,-23.438,-41.504,-51.270,-41.016,0.000
1709297966.382,-30.762,-37.598,-48.828,-43.457,0.000
1709297966.386,-31.250,-36.133,-49.316,-50.293,0.000
1709297966.390,-36.621,-35.156,-50.781,-43.945,0.000
1709297966.394,-42.969,-35.156,-45.898,-37.598,0.000
1709297966.398,-38.574,-41.016,-44.434,-37.598,0.000
1709297966.402,-31.250,-42.480,-46.387,-42.480,0.000
1709297966.406,-40.039,-42.480,-45.410,-49.805,0.000
1709297966.409,-44.922,-41.016,-41.016,-49.805,0.000
1709297966.413,-33.691,-41.992,-44.922,-37.598,0.000
1709297966.417,-26.855,-41.016,-40.527,-18.555,0.000
1709297966.421,-29.785,-41.992,-32.715,-28.320,0.000
1709297966.425,-33.691,-43.945,-35.645,-45.410,0.000
1709297966.429,-30.762,-39.062,-37.109,-36.133,0.000
1709297966.433,-33.691,-33.691,-38.086,-20.996,0.000
1709297966.437,-36.621,-34.180,-37.109,-19.043,0.000
1709297966.441,-20.996,-37.598,-33.203,-17.578,0.000
1709297966.444,-24.414,-39.551,-29.297,-25.879,0.000
1709297966.448,-32.715,-37.109,-28.809,-42.480,0.000
1709297966.452,-31.738,-35.645,-28.320,-46.387,0.000
1709297966.456,-37.598,-36.621,-31.738,-39.062,0.000
1709297966.460,-49.805,-37.109,-40.039,-39.062,0.000
1709297966.464,-32.715,-40.039,-41.992,-34.668,0.000
1709297966.468,-16.602,-41.504,-39.062,-31.738,0.000
1709297966.472,-28.320,-38.086,-39.062,-23.438,0.000
1709297966.476,-21.973,-38.574,-42.480,-4.395,0.000
1709297966.480,-25.391,-41.016,-44.434,-15.137,0.000
1709297966.483,-32.227,-35.645,-40.039,-41.992,0.000
1709297966.487,-40.039,-33.203,-38.086,-38.574,0.000
1709297966.491,-38.574,-41.992,-40.039,-26.855,0.000
1709297966.495,-30.762,-41.016,-44.434,-19.531,0.000
1709297966.499,-31.250,-36.133,-50.781,-20.508,0.000
1709297966.503,-37.598,-40.527,-49.805,-29.297,0.000
1709297966.507,-38.086,-41.992,-46.875,-32.715,0.000
1709297966.511,-24.902,-41.504,-41.992,-15.625,0.000
1709297966.515,-16.602,-39.062,-36.621,2.930,0.000
1709297966.519,-21.484,-39.551,-37.109,-24.902,0.000
1709297966.523,-29.297,-38.574,-36.621,-50.781,0.000
1709297966.526,-35.156,-33.203,-34.180,-57.129,0.000
1709297966.530,-28.320,-32.227,-33.691,-54.688,0.000
1709297966.534,-22.949,-35.645,-28.809,-27.832,0.000
1709297966.538,-30.762,-31.250,-30.273,-14.160,0.000
1709297966.542,-33.691,-32.227,-38.086,-33.691,0.000
1709297966.546,-32.715,-39.551,-41.992,-50.781,0.000
1709297966.550,-34.180,-37.109,-41.016,-38.574,0.000
1709297966.554,-32.715,-36.621,-40.527,-32.227,0.000
1709297966.558,-29.785,-39.062,-42.969,-33.691,0.000
1709297966.562,-26.855,-39.062,-43.457,-38.574,0.000
1709297966.566,-21.484,-35.645,-39.551,-39.062,0.000
1709297966.569,-20.996,-40.039,-38.086,-28.809,0.000
1709297966.573,-24.414,-40.039,-36.621,-19.531,0.000
1709297966.577,-31.738,-36.621,-34.180,-19.043,0.000
1709297966.581,-43.945,-34.180,-39.062,-17.578,0.000
1709297966.585,-48.828,-32.227,-46.387,-25.391,0.000
1709297966.589,-43.457,-29.785,-43.945,-34.180,0.000
1709297966.593,-39.551,-27.344,-42.969,-29.297,0.000
1709297966.597,-39.062,-31.250,-46.875,-25.391,0.000
1709297966.601,-37.598,-36.621,-45.898,-37.109,0.000
1709297966.605,-37.598,-35.156,-44.922,-60.059,0.000
1709297966.609,-42.969,-39.062,-47.852,-61.523,0.000
1709297966.612,-42.480,-41.992,-46.875,-40.527,0.000
1709297966.616,-43.945,-40.527,-43.945,-29.297,0.000
1709297966.620,-42.480,-35.645,-39.062,-38.574,0.000
1709297966.624,-44.434,-36.621,-38.574,-47.852,0.000
1709297966.628,-42.480,-42.969,-41.016,-39.551,0.000
1709297966.632,-22.461,-35.645,-36.621,-21.973,0.000
1709297966.636,-16.602,-30.762,-28.320,-7.812,0.000
1709297966.640,-29.785,-35.645,-33.203,-20.508,0.000
1709297966.644,-34.668,-36.621,-37.598,-35.156,0.000
1709297966.648,-33.203,-33.691,-40.039,-41.504,0.000
1709297966.652,-38.574,-33.691,-42.969,-41.016,0.000
1709297966.655,-37.598,-32.227,-42.969,-31.738,0.000
1709297966.659,-30.273,-32.227,-41.016,-35.645,0.000
1709297966.663,-31.250,-33.203,-39.062,-38.574,0.000
1709297966.667,-39.062,-37.598,-40.039,-39.551,0.000
1709297966.671,-35.645,-37.109,-35.156,-28.320,0.000
1709297966.675,-39.062,-39.062,-37.598,-13.184,0.000
1709297966.679,-42.969,-41.016,-40.527,-23.438,0.000
1709297966.683,-42.480,-41.016,-36.133,-30.273,0.000
1709297966.687,-38.086,-37.598,-39.551,-40.039,0.000
1709297966.691,0.000,-40.039,-40.039,-47.363,0.000
1709297966.694,0.000,-41.992,-39.551,-33.691,0.000
1709297966.698,0.000,-37.598,-41.504,-24.902,0.000
1709297966.702,0.000,-36.621,-37.598,-36.621,0.000
1709297966.706,0.000,-35.156,-33.691,-31.250,0.000
1709297966.710,0.000,-38.086,-37.109,-17.578,0.000
1709297966.714,0.000,-44.922,-37.109,-15.137,0.000
1709297966.718,0.000,-45.898,-39.062,-15.625,0.000
1709297966.722,0.000,-41.992,-42.480,-25.391,0.000
1709297966.726,0.000,-43.945,-39.062,-40.039,0.000
1709297966.730,0.000,-43.457,-39.062,-42.969,0.000
1709297966.734,0.000,-42.480,-41.992,-27.832,0.000
1709297966.737,-42.969,-40.527,-46.387,-20.020,0.000
1709297966.741,-27.832,-38.574,-47.363,-19.043,0.000
1709297966.745,-25.879,-43.457,-43.945,-27.832,0.000
1709297966.749,-33.691,-49.316,-46.875,-36.133,0.000
1709297966.753,-27.832,-42.969,-44.434,-23.926,0.000
1709297966.757,-18.066,-37.598,-37.109,-16.602,0.000
1709297966.761,-16.113,-40.039,-36.621,-14.160,0.000
1709297966.765,-22.461,-33.203,-42.969,-24.902,0.000
1709297966.769,-28.320,-30.762,-47.363,-35.156,0.000
1709297966.773,-37.109,-44.434,-46.875,-28.809,0.000
1709297966.776,-42.480,-47.852,-48.340,-22.461,0.000
1709297966.780,-36.621,-37.598,-43.457,-23.926,0.000
1709297966.784,-34.668,-34.668,-41.504,-32.227,0.000
1709297966.788,-38.574,-41.016,-44.922,-35.156,0.000
1709297966.792,-33.691,-42.480,-46.387,-33.203,0.000
1709297966.796,-29.785,-38.574,-48.340,-31.250,0.000
1709297966.800,-30.762,-32.227,-45.410,-27.832,0.000
1709297966.804,-25.391,-36.621,-46.875,-43.457,0.000
1709297966.808,-22.461,-41.992,-49.316,-45.898,0.000
1709297966.812,-31.250,-37.109,-46.875,-23.438,0.000
1709297966.815,-39.062,-36.621,-44.434,-25.879,0.000
1709297966.819,-37.598,-41.504,-40.527,-35.156,0.000
1709297966.823,-41.504,-40.039,-41.504,-35.156,0.000
1709297966.827,-33.691,-36.133,-41.504,-38.086,0.000
1709297966.831,-25.879,-39.062,-41.992,-32.227,0.000
1709297966.835,-38.574,-37.109,-46.387,-27.832,0.000
1709297966.839,-51.270,-32.227,-44.434,-32.227,0.000
1709297966.843,-61.523,-34.180,-40.527,-41.504,0.000
1709297966.847,-62.500,-34.180,-41.016,-51.270,0.000
1709297966.851,-60.059,-31.738,-41.992,-35.645,0.000
1709297966.854,-62.988,-34.668,-39.551,-29.297,0.000
1709297966.858,-59.082,-38.574,-41.016,-35.156,0.000
1709297966.862,-54.199,-37.598,-43.457,-34.180,0.000
1709297966.866,-49.316,-33.691,-36.621,-30.273,0.000
1709297966.870,-44.922,-27.832,-32.715,-24.902,0.000
1709297966.874,-32.715,-29.785,-31.738,-21.973,0.000
1709297966.878,-35.156,-27.832,-31.250,-25.879,0.000
1709297966.882,-45.898,-26.367,-34.668,-33.691,0.000
1709297966.886,-38.574,-35.645,-35.156,-24.902,0.000
1709297966.890,-42.969,-36.133,-35.156,-28.809,0.000
1709297966.894,-46.875,-36.133,-36.621,-29.297,0.000
1709297966.897,-37.109,-38.086,-38.574,-20.508,0.000
1709297966.901,-37.109,-35.645,-41.992,-34.180,0.000
1709297966.905,-40.527,-37.598,-41.016,-44.434,0.000
1709297966.909,-36.133,-36.621,-40.527,-39.551,0.000
1709297966.913,-33.203,-36.133,-38.086,-14.648,0.000
1709297966.917,-31.738,-33.691,-34.668,-20.508,0.000
1709297966.921,-30.273,-35.645,-32.227,-32.715,0.000
1709297966.925,-34.668,-36.621,-35.645,-38.574,0.000
1709297966.929,-31.738,-36.621,-38.574,-29.785,0.000
1709297966.933,-27.832,-39.062,-39.551,-19.043,0.000
1709297966.937,-20.508,-33.203,-35.645,-12.207,0.000
1709297966.940,-27.344,-34.180,-32.227,-19.043,0.000
1709297966.944,-27.344,-36.621,-34.180,-33.203,0.000
1709297966.948,-19.043,-31.250,-34.668,-27.832,0.000
1709297966.952,-19.043,-29.297,-33.691,-23.438,0.000
1709297966.956,-25.879,-32.715,-32.227,-11.719,0.000
1709297966.960,-35.156,-33.691,-39.062,-5.371,0.000
1709297966.964,-25.391,-32.227,-43.457,-28.809,0.000
1709297966.968,-28.320,-38.086,-43.457,-44.922,0.000
1709297966.972,-32.227,-38.086,-41.504,-36.133,0.000
1709297966.976,-23.926,-33.203,-37.598,-30.273,0.000
1709297966.980,-22.949,-35.645,-36.133,-28.809,0.000
1709297966.983,-27.344,-42.480,-33.691,-31.738,0.000
1709297966.987,-33.203,-42.969,-35.645,-39.062,0.000
1709297966.991,-32.227,-38.086,-37.598,-35.156,0.000
1709297966.995,-35.156,-31.250,-30.762,-20.508,0.000
1709297966.999,-33.691,-33.691,-31.738,-19.043,0.000
1709297967.003,-32.715,-38.086,-35.156,-28.809,0.000
1709297967.007,-37.598,-33.691,-35.156,-38.086,0.000
1709297967.011,-26.855,-30.273,-35.645,-41.016,0.000
1709297967.015,-21.973,-32.227,-29.297,-24.414,0.000
1709297967.019,-29.297,-31.250,-28.320,-19.531,0.000
1709297967.022,-35.156,-33.203,-33.203,-37.109,0.000
1709297967.026,-37.109,-36.133,-37.598,-48.340,0.000
1709297967.030,-40.527,-36.621,-40.527,-37.109,0.000
1709297967.034,-43.945,-31.738,-41.504,-26.855,0.000
1709297967.038,-34.668,-30.273,-43.457,-38.574,0.000
1709297967.042,-31.250,-37.109,-43.945,-49.805,0.000
1709297967.046,-39.062,-37.109,-44.434,-53.711,0.000
1709297967.050,-38.086,-33.691,-43.457,-47.363,0.000
1709297967.054,-35.645,-31.738,-41.992,-45.410,0.000
1709297967.058,-34.180,-28.809,-39.551,-46.875,0.000
1709297967.062,-31.250,-33.203,-38.086,-50.781,0.000
1709297967.065,-40.527,-31.250,-40.527,-58.105,0.000
1709297967.069,-48.340,-27.344,-42.480,-53.711,0.000
1709297967.073,-38.574,-29.297,-40.527,-37.598,0.000
1709297967.077,-38.086,-28.809,-37.109,-34.180,0.000
1709297967.081,-53.711,-34.668,-40.527,-40.039,0.000
1709297967.085,-52.734,-34.668,-41.992,-46.875,0.000
1709297967.089,-50.293,-37.109,-39.062,-45.898,0.000
1709297967.093,-55.176,-41.016,-45.898,-40.527,0.000
1709297967.097,-48.828,-36.133,-45.898,-41.016,0.000
1709297967.101,-41.992,-34.668,-43.457,-41.992,0.000
1709297967.104,-39.551,-35.156,-43.945,-48.828,0.000
1709297967.108,-40.527,-34.668,-44.434,-59.082,0.000
1709297967.112,-30.273,-34.180,-48.828,-43.457,0.000
1709297967.116,-33.203,-33.203,-43.457,-29.785,0.000
1709297967.120,-35.645,-33.203,-39.551,-41.016,0.000
1709297967.124,-27.344,-33.203,-42.969,-44.922,0.000
1709297967.128,-30.273,-31.250,-36.621,-38.086,0.000
1709297967.132,-39.062,-26.855,-30.273,-40.039,0.000
1709297967.136,-43.457,-32.227,-34.180,-35.645,0.000
1709297967.140,-43.457,-33.203,-35.645,-34.668,0.000
1709297967.143,-46.387,-32.227,-37.598,-47.852,0.000
1709297967.147,-42.969,-38.574,-38.086,-57.617,0.000
1709297967.151,-36.133,-37.109,-38.574,-51.758,0.000
1709297967.155,-37.109,-37.109,-45.410,-36.621,0.000
1709297967.159,-34.180,-29.785,-46.387,-41.016,0.000
1709297967.163,-35.156,-29.785,-42.480,-57.617,0.000
1709297967.167,-41.992,-34.180,-40.527,-53.711,0.000
1709297967.171,-47.363,-31.250,-39.062,-39.551,0.000
1709297967.175,-44.922,-33.691,-38.574,-39.062,0.000
1709297967.179,-40.527,-39.551,-36.621,-38.574,0.000
1709297967.182,-42.969,-42.969,-33.691,-40.527,0.000
1709297967.186,-36.133,-39.062,-36.621,-42.969,0.000
1709297967.190,-28.320,-35.156,-36.133,-35.156,0.000
1709297967.194,-30.273,-34.180,-31.250,-27.344,0.000
1709297967.198,-39.062,-32.715,-36.133,-25.879,0.000
1709297967.202,-45.410,-34.668,-42.969,-37.109,0.000
1709297967.206,-44.922,-32.227,-40.527,-47.852,0.000
1709297967.210,-36.621,-30.762,-41.016,-41.992,0.000
1709297967.214,-33.203,-36.133,-43.945,-34.180,0.000
1709297967.218,-48.340,-33.203,-42.969,-39.551,0.000
1709297967.221,-54.688,-32.715,-42.480,-61.523,0.000
1709297967.225,-46.387,-42.480,-47.852,-62.988,0.000
1709297967.229,-42.480,-43.457,-48.828,-45.898,0.000
1709297967.233,-43.945,-36.621,-42.480,-36.133,0.000
1709297967.237,-42.480,-32.715,-41.504,-37.598,0.000
1709297967.241,-42.480,-33.691,-39.551,-35.645,0.000
1709297967.245,-45.410,-37.598,-43.945,-45.898,0.000
1709297967.249,-45.898,-40.039,-46.387,-54.199,0.000
1709297967.253,-51.758,-37.109,-47.363,-57.617,0.000
1709297967.257,-46.387,-40.527,-47.363,-62.012,0.000
1709297967.261,-44.922,-39.551,-45.898,-53.711,0.000
1709297967.264,-51.758,-32.227,-46.387,-56.152,0.000
1709297967.268,-42.480,-34.180,-46.875,-54.199,0.000
1709297967.272,-36.621,-32.715,-49.316,-45.898,0.000
1709297967.276,-40.039,-30.762,-50.293,-42.969,0.000
1709297967.280,-52.734,-30.273,-48.828,-57.617,0.000
1709297967.284,-53.711,-27.344,-47.852,-68.359,0.000
1709297967.288,-25.879,-26.855,-44.434,-48.828,0.000
1709297967.292,-20.996,-29.297,-42.969,-33.203,0.000
1709297967.296,-34.668,-34.668,-43.457,-37.598,0.000
1709297967.300,-30.273,-30.762,-42.969,-14.648,0.000
1709297967.304,-22.461,-35.645,-45.898,-15.137,0.000
1709297967.307,-42.480,-44.434,-46.387,-44.434,0.000
1709297967.311,-59.082,-43.945,-39.062,-30.273,0.000
1709297967.315,-54.199,-40.039,-36.133,-25.391,0.000
1709297967.319,-57.617,-39.062,-37.109,-51.270,0.000
1709297967.323,-65.918,-41.504,-40.527,-67.383,0.000
1709297967.327,-54.688,-41.016,-39.551,-56.641,0.000
1709297967.331,-37.598,-41.016,-30.762,-36.133,0.000
1709297967.335,-40.039,-40.527,-34.180,-48.828,0.000
1709297967.339,-39.551,-42.480,-35.156,-64.941,0.000
1709297967.343,-52.246,-43.457,-33.691,-63.965,0.000
1709297967.347,-68.848,-40.039,-36.621,-66.895,0.000
1709297967.351,-57.617,-36.133,-34.180,-50.293,0.000
1709297967.355,-40.039,-47.852,-33.691,-23.438,0.000
1709297967.358,-30.762,-47.852,-39.062,-11.719,0.000
1709297967.362,-27.832,-37.109,-40.039,-24.414,0.000
1709297967.366,-31.250,-42.480,-39.062,-33.203,0.000
1709297967.370,-31.738,-41.016,-38.574,-28.809,0.000
1709297967.374,-27.344,-40.039,-37.598,-22.461,0.000
1709297967.378,-21.484,-39.551,-37.598,-26.855,0.000
1709297967.382,-31.738,-40.527,-37.109,-31.250,0.000
1709297967.386,-31.250,-37.598,-35.645,-29.297,0.000
1709297967.390,-29.785,-35.156,-34.668,-25.879,0.000
1709297967.394,-30.273,-35.645,-34.180,-21.973,0.000
1709297967.397,-33.691,-32.715,-37.109,-24.902,0.000
1709297967.401,-39.551,-33.691,-33.203,-15.137,0.000
1709297967.405,-29.297,-29.785,-31.250,-20.996,0.000
1709297967.409,-35.156,-32.715,-38.086,-49.316,0.000
1709297967.413,-41.992,-39.062,-38.574,-46.387,0.000
1709297967.417,-36.621,-36.621,-40.039,-34.180,0.000
1709297967.421,-32.715,-39.062,-40.039,-35.645,0.000
1709297967.425,-37.598,-39.551,-38.574,-55.176,0.000
1709297967.429,-35.645,-36.621,-35.645,-45.410,0.000
1709297967.433,-24.414,-39.551,-29.297,-12.207,0.000
1709297967.437,-29.785,-41.992,-29.297,4.883,0.000
1709297967.440,-31.250,-37.598,-30.762,-7.324,0.000
1709297967.444,-23.438,-35.645,-35.156,-45.898,0.000
1709297967.448,-20.996,-39.062,-40.527,-47.363,0.000
1709297967.452,-32.227,-37.598,-36.621,-20.996,0.000
1709297967.456,-52.734,-35.645,-36.621,-11.230,0.000
1709297967.460,-25.391,-37.109,-38.086,-33.691,0.000
1709297967.464,-17.090,-43.945,-36.621,-52.246,0.000
1709297967.468,-33.691,-46.875,-42.480,-31.738,0.000
1709297967.472,-16.602,-45.898,-42.480,-17.090,0.000
1709297967.476,-11.719,-44.434,-36.621,-23.438,0.000
1709297967.479,-14.160,-39.551,-33.691,-20.996,0.000
1709297967.483,-29.785,-38.574,-38.574,-30.762,0.000
1709297967.487,-34.180,-41.992,-34.668,-27.344,0.000
1709297967.491,-31.738,-35.156,-27.344,-23.438,0.000
1709297967.495,-27.344,-32.227,-30.273,-10.742,0.000
1709297967.499,-12.695,-34.668,-33.203,-2.930,0.000
1709297967.503,-27.832,-35.156,-40.527,-35.156,0.000
1709297967.507,-34.180,-33.203,-41.992,-44.922,0.000
1709297967.511,-21.973,-41.016,-34.180,-37.598,0.000
1709297967.515,-11.230,-41.992,-34.668,-16.602,0.000
1709297967.518,-27.832,-32.715,-36.621,-23.438,0.000
1709297967.522,-44.922,-37.598,-32.715,-64.453,0.000
1709297967.526,-26.367,-36.133,-35.156,-57.617,0.000
1709297967.530,8.789,-30.762,-37.598,-6.836,0.000
1709297967.534,0.000,-29.297,-40.527,-8.301,0.000
1709297967.538,0.000,-30.273,-44.434,-42.480,0.000
1709297967.542,0.000,-30.762,-46.875,-71.289,0.000
1709297967.546,0.000,-35.645,-42.969,-70.801,0.000
1709297967.550,0.000,-30.273,-40.527,-38.086,0.000
1709297967.554,0.000,-30.762,-39.551,-35.156,0.000
1709297967.557,0.000,-37.598,-34.180,-9.766,0.000
1709297967.561,0.000,-29.297,-41.504,-26.367,0.000
1709297967.565,0.000,-27.344,-44.922,-71.289,0.000
1709297967.569,0.000,-31.738,-42.480,-55.176,0.000
1709297967.573,0.000,-37.598,-46.387,-42.969,0.000
1709297967.577,0.000,-36.133,-42.969,-31.250,0.000
1709297967.581,-13.184,-26.367,-37.598,-11.719,0.000
1709297967.585,-60.059,-30.762,-33.203,-29.297,0.000
1709297967.589,-54.688,-38.574,-29.297,-14.648,0.000
1709297967.593,-7.324,-33.203,-35.156,-10.742,0.000
1709297967.596,-34.668,-31.738,-40.039,-44.922,0.000
1709297967.600,-35.645,-26.367,-42.480,-42.480,0.000
1709297967.604,-50.293,-26.367,-43.457,-40.039,0.000
1709297967.608,-57.129,-33.203,-44.922,-27.344,0.000
1709297967.612,-38.574,-36.133,-46.875,-38.574,0.000
1709297967.616,-40.039,-38.574,-41.016,-30.762,0.000
1709297967.620,-42.969,-36.621,-41.504,-17.090,0.000
1709297967.624,-30.762,-37.598,-44.434,-34.668,0.000
1709297967.628,-15.625,-37.598,-41.992,-28.809,0.000
1709297967.632,-56.152,-37.598,-41.992,-22.949,0.000
1709297967.636,-47.852,-30.273,-41.016,-36.133,0.000
1709297967.639,-5.371,-27.832,-36.621,-19.531,0.000
1709297967.643,-31.250,-33.203,-39.551,-47.852,0.000
1709297967.647,-48.828,-31.250,-40.039,-65.430,0.000
1709297967.651,-59.082,-31.738,-33.691,-13.184,0.000
1709297967.655,-63.477,-33.691,-33.203,-11.230,0.000
1709297967.659,-47.852,-41.016,-40.527,-46.387,0.000
1709297967.663,-50.781,-46.387,-41.992,-35.156,0.000
1709297967.667,-30.762,-41.504,-42.969,-17.578,0.000
1709297967.671,4.395,-33.203,-44.434,-8.301,0.000
1709297967.675,-32.715,-35.645,-41.992,-10.254,0.000
1709297967.679,-62.012,-38.574,-39.551,-42.969,0.000
1709297967.682,-36.133,-38.086,-39.551,-53.223,0.000
1709297967.686,-37.109,-38.574,-39.551,-51.270,0.000
1709297967.690,-48.340,-39.551,-42.969,-50.781,0.000
1709297967.694,-14.648,-37.109,-44.434,-23.438,0.000
1709297967.698,-34.180,-34.180,-41.504,-34.180,0.000
1709297967.702,-59.082,-33.691,-41.992,-58.105,0.000
1709297967.706,-54.199,-42.480,-41.016,-41.504,0.000
1709297967.710,-31.738,-43.457,-39.062,-24.902,0.000
1709297967.714,-4.395,-35.645,-36.621,-14.648,0.000
1709297967.718,-33.691,-34.668,-36.621,-23.438,0.000
1709297967.722,-54.199,-35.645,-40.527,-61.035,0.000
1709297967.725,-45.898,-39.551,-36.621,-67.383,0.000
1709297967.729,-12.695,-39.551,-35.645,-10.742,0.000
1709297967.733,1.953,-37.109,-35.645,0.000,0.000
1709297967.737,-36.133,-35.156,-32.227,-20.996,0.000
1709297967.741,-28.809,-34.180,-30.273,-9.277,0.000
1709297967.745,-17.090,-35.645,-33.691,-29.297,0.000
1709297967.749,-14.648,-37.598,-39.062,-25.879,0.000
1709297967.753,-31.738,-35.645,-42.480,-20.020,0.000
1709297967.757,-50.781,-39.551,-43.945,-31.738,0.000
1709297967.761,-34.180,-40.527,-37.109,-14.160,0.000
1709297967.765,-39.551,-40.039,-36.133,-19.531,0.000
1709297967.769,-51.270,-44.922,-40.527,-25.879,0.000
1709297967.772,-42.969,-41.992,-38.574,-21.484,0.000
1709297967.776,-39.551,-38.086,-41.016,-37.598,0.000
1709297967.780,-37.598,-38.086,-41.504,-37.109,0.000
1709297967.784,-29.785,-37.109,-38.086,-26.855,0.000
1709297967.788,-32.715,-37.598,-38.574,-28.320,0.000
1709297967.792,-49.805,-41.016,-38.086,-33.691,0.000
1709297967.796,-39.551,-43.945,-38.086,-11.719,0.000
1709297967.800,-33.203,-41.504,-42.480,-3.906,0.000
1709297967.804,-38.574,-31.250,-41.504,-23.438,0.000
1709297967.808,-43.945,-31.250,-40.039,-30.273,0.000
1709297967.812,-56.641,-38.574,-45.410,-27.832,0.000
1709297967.815,-57.617,-41.992,-47.363,-28.809,0.000
1709297967.819,-42.480,-39.062,-47.852,-32.715,0.000
1709297967.823,-38.086,-34.180,-44.922,-30.273,0.000
1709297967.827,-40.039,-34.180,-41.016,-31.250,0.000
1709297967.831,-50.293,-32.715,-43.457,-30.273,0.000
1709297967.835,-60.059,-35.156,-45.898,-25.391,0.000
1709297967.839,-49.805,-37.598,-43.945,-19.043,0.000
1709297967.843,-45.898,-39.062,-40.527,-22.461,0.000
1709297967.847,-47.363,-42.480,-43.457,-24.902,0.000
1709297967.851,-43.457,-38.574,-41.016,-17.090,0.000
1709297967.854,-54.199,-33.691,-37.109,-19.531,0.000
1709297967.858,-56.641,-34.668,-41.992,-24.414,0.000
1709297967.862,-54.199,-37.598,-41.504,-37.109,0.000
1709297967.866,-46.387,-36.621,-40.039,-47.363,0.000
1709297967.870,-40.039,-38.574,-39.551,-37.598,0.000
1709297967.874,-54.688,-39.551,-40.527,-20.020,0.000
1709297967.878,-53.711,-39.062,-38.086,-18.555,0.000
1709297967.882,-52.246,-39.062,-35.156,-40.039,0.000
1709297967.886,-62.988,-40.039,-42.969,-41.992,0.000
1709297967.890,-54.688,-36.621,-46.387,-29.785,0.000
1709297967.893,-45.410,-31.738,-45.410,-35.156,0.000
1709297967.897,-40.039,-34.668,-43.457,-29.785,0.000
1709297967.901,-34.668,-33.691,-39.551,-35.645,0.000
1709297967.905,-37.598,-37.598,-41.016,-39.062,0.000
1709297967.909,-42.480,-37.598,-36.133,-31.738,0.000
1709297967.913,-47.852,-38.086,-37.109,-30.762,0.000
1709297967.917,-58.105,-38.574,-45.410,-34.180,0.000
1709297967.921,-66.406,-37.598,-44.922,-48.828,0.000
1709297967.925,-60.059,-42.480,-40.527,-58.105,0.000
1709297967.929,-59.082,-41.504,-41.504,-64.941,0.000
1709297967.932,-60.547,-42.480,-44.922,-49.805,0.000
1709297967.936,-54.199,-42.969,-42.969,-30.762,0.000
1709297967.940,-52.246,-39.062,-39.551,-48.340,0.000
1709297967.944,-54.199,-41.016,-41.992,-63.477,0.000
1709297967.948,-62.012,-43.457,-41.992,-55.176,0.000
1709297967.952,-67.383,-39.062,-41.016,-32.227,0.000
1709297967.956,-58.105,-39.062,-38.574,-22.949,0.000
1709297967.960,-54.688,-44.922,-38.574,-36.621,0.000
1709297967.964,-60.547,-47.852,-40.039,-43.457,0.000
1709297967.968,-54.688,-46.387,-41.016,-36.621,0.000
1709297967.971,-42.969,-44.434,-42.480,-28.320,0.000
1709297967.975,-40.527,-46.875,-39.551,-26.855,0.000
1709297967.979,-41.992,-40.527,-36.133,-27.832,0.000
1709297967.983,-49.805,-40.527,-39.062,-37.598,0.000
1709297967.987,-49.805,-42.480,-39.062,-44.434,0.000
1709297967.991,-45.410,-41.016,-38.086,-33.691,0.000
1709297967.995,-43.457,-44.922,-38.086,-24.902,0.000
1709297967.999,-35.156,-39.062,-32.227,-23.438,0.000
1709297968.003,-33.691,-32.715,-28.809,-30.762,0.000
1709297968.007,-46.387,-32.227,-30.762,-35.156,0.000
1709297968.011,-58.105,-36.621,-30.273,-22.461,0.000
1709297968.014,-49.316,-33.203,-29.297,-16.113,0.000
1709297968.018,-48.828,-31.738,-30.273,-11.719,0.000
1709297968.022,-60.547,-39.062,-33.203,-18.066,0.000
1709297968.026,-55.664,-39.062,-35.156,-36.133,0.000
1709297968.030,-43.457,-33.691,-33.691,-35.645,0.000
1709297968.034,-33.203,-32.227,-36.621,-33.691,0.000
1709297968.038,-39.551,-33.691,-40.527,-38.086,0.000
1709297968.042,-39.062,-32.227,-42.480,-48.340,0.000
1709297968.046,-40.527,-36.621,-46.875,-55.664,0.000
1709297968.050,-44.922,-41.016,-41.992,-43.457,0.000
1709297968.054,-35.156,-35.156,-40.527,-32.715,0.000
1709297968.057,-33.691,-33.203,-46.875,-33.203,0.000
1709297968.061,-38.574,-33.203,-44.434,-35.645,0.000
1709297968.065,-42.480,-31.738,-42.480,-36.133,0.000
1709297968.069,-41.016,-30.273,-46.875,-42.480,0.000
1709297968.073,-41.504,-32.227,-48.828,-39.062,0.000
1709297968.077,-49.316,-35.645,-41.504,-28.320,0.000
1709297968.081,-55.664,-38.086,-33.691,-32.227,0.000
1709297968.085,-52.246,-37.109,-33.203,-40.527,0.000
1709297968.089,-42.480,-36.133,-33.691,-35.645,0.000
1709297968.093,-42.969,-40.039,-35.156,-29.297,0.000
1709297968.097,-37.598,-39.551,-38.086,-27.832,0.000
1709297968.100,-39.062,-35.645,-39.551,-38.574,0.000
1709297968.104,-45.898,-36.621,-40.039,-48.828,0.000
1709297968.108,-43.457,-38.086,-38.086,-34.180,0.000
1709297968.112,-41.016,-38.574,-37.109,-20.020,0.000
1709297968.116,-42.480,-40.527,-36.133,-20.996,0.000
1709297968.120,-41.992,-39.062,-35.156,-25.879,0.000
1709297968.124,-41.504,-35.645,-35.156,-39.062,0.000
1709297968.128,-45.410,-37.598,-35.156,-35.645,0.000
1709297968.132,-41.016,-32.715,-40.527,-24.902,0.000
1709297968.136,-36.133,-31.738,-41.504,-26.367,0.000
1709297968.140,-30.762,-39.062,-37.598,-23.926,0.000
1709297968.143,-27.344,-40.039,-38.574,-28.320,0.000
1709297968.147,-28.809,-36.621,-37.109,-22.949,0.000
1709297968.151,-21.973,-33.691,-33.203,-7.812,0.000
1709297968.155,-23.438,-32.227,-35.156,-2.930,0.000
1709297968.159,-32.715,-38.574,-35.645,-13.672,0.000
1709297968.163,-29.785,-39.062,-37.109,-29.785,0.000
1709297968.167,-23.926,-36.621,-40.527,-43.457,0.000
1709297968.171,-23.926,-42.969,-37.598,-21.973,0.000
1709297968.175,-19.043,-39.551,-36.133,-6.348,0.000
1709297968.179,-21.484,-36.621,-41.992,-26.367,0.000
1709297968.183,-31.738,-40.039,-44.434,-36.621,0.000
1709297968.186,-34.668,-38.086,-43.457,-42.480,0.000
1709297968.190,-31.250,-33.203,-42.969,-37.109,0.000
1709297968.194,-24.902,-26.855,-42.480,-29.297,0.000
1709297968.198,-31.738,-23.926,-43.945,-25.391,0.000
1709297968.202,-36.133,-23.438,-38.574,-33.691,0.000
1709297968.206,-22.461,-32.715,-32.227,-34.668,0.000
1709297968.210,-23.926,-41.992,-39.551,-16.602,0.000
1709297968.214,-18.066,-40.527,-40.527,-6.836,0.000
1709297968.218,-8.301,-35.645,-35.156,-9.766,0.000
1709297968.222,-18.555,-31.250,-33.691,-23.926,0.000
1709297968.225,-22.461,-31.250,-35.645,-41.016,0.000
1709297968.229,-30.273,-32.227,-38.086,-36.621,0.000
1709297968.233,-31.738,-37.109,-39.551,-21.484,0.000
1709297968.237,-34.180,-42.969,-42.480,-24.414,0.000
1709297968.241,-31.738,-40.527,-43.457,-35.645,0.000
1709297968.245,-25.879,-36.621,-37.109,-33.691,0.000
1709297968.249,-25.879,-36.621,-32.227,-35.645,0.000
1709297968.253,-19.531,-31.250,-34.180,-24.902,0.000
1709297968.257,-23.926,-29.785,-38.574,-24.902,0.000
1709297968.261,-27.344,-35.645,-37.598,-32.227,0.000
1709297968.264,-26.367,-38.086,-38.086,-26.367,0.000
1709297968.268,-22.949,-36.621,-40.039,-28.809,0.000
1709297968.272,-14.648,-41.992,-39.062,-25.391,0.000
1709297968.276,-19.043,-47.363,-41.504,-21.973,0.000
1709297968.280,-29.297,-44.922,-41.504,-31.738,0.000
1709297968.284,-27.344,-43.457,-36.621,-36.621,0.000
1709297968.288,-24.902,-44.922,-35.156,-33.691,0.000
1709297968.292,-26.855,-43.945,-34.180,-20.996,0.000
1709297968.296,-26.367,-41.016,-30.273,-22.461,0.000
1709297968.300,-28.320,-37.109,-31.738,-38.574,0.000
1709297968.303,-29.297,-39.062,-36.133,-38.086,0.000
1709297968.307,-34.668,-42.480,-41.504,-35.156,0.000
1709297968.311,-38.574,-39.062,-44.922,-40.527,0.000
1709297968.315,-27.344,-37.109,-42.480,-37.598,0.000
1709297968.319,-25.391,-35.645,-40.039,-41.992,0.000
1709297968.323,-35.156,-36.621,-40.527,-50.293,0.000
1709297968.327,-34.668,-34.668,-41.992,-46.387,0.000
1709297968.331,-34.180,-39.551,-39.062,-39.551,0.000
1709297968.335,-38.574,-43.457,-36.621,-35.156,0.000
1709297968.339,-42.969,-41.016,-37.598,-41.016,0.000
1709297968.342,-41.992,-37.109,-36.621,-49.316,0.000
1709297968.346,-34.668,-32.715,-35.156,-49.805,0.000
1709297968.350,-38.086,-33.691,-36.621,-40.527,0.000
1709297968.354,-48.340,-32.715,-37.598,-28.809,0.000
1709297968.358,-48.828,-31.250,-39.062,-34.180,0.000
1709297968.362,-52.246,-30.273,-37.598,-48.828,0.000
1709297968.366,-51.270,-30.762,-40.527,-53.711,0.000
1709297968.370,-49.805,-39.551,-44.434,-50.781,0.000
1709297968.374,-56.152,-39.551,-43.457,-47.363,0.000
1709297968.378,-57.129,-32.227,-38.086,-47.363,0.000
1709297968.382,-53.711,-35.645,-37.109,-54.199,0.000
1709297968.385,-50.293,-39.551,-42.480,-61.035,0.000
1709297968.389,-51.758,-40.039,-46.875,-51.758,0.000
1709297968.393,-51.758,-44.434,-48.340,-39.062,0.000
1709297968.397,-50.293,-40.527,-46.387,-36.621,0.000
1709297968.401,-60.059,-37.598,-47.852,-47.852,0.000
1709297968.405,-50.781,-38.574,-48.828,-56.641,0.000
1709297968.409,-39.551,-39.551,-47.363,-51.270,0.000
1709297968.413,-36.621,-44.922,-43.457,-31.738,0.000
1709297968.417,-32.715,-42.480,-38.086,-25.391,0.000
1709297968.421,-33.691,-37.598,-38.574,-35.156,0.000
1709297968.425,-36.133,-42.480,-42.969,-45.410,0.000
1709297968.428,-43.945,-42.480,-41.504,-47.852,0.000
1709297968.432,-42.969,-41.504,-35.156,-42.969,0.000
1709297968.436,-43.945,-43.457,-34.180,-42.480,0.000
1709297968.440,-39.062,-38.086,-33.203,-44.434,0.000
1709297968.444,-39.551,-36.133,-33.691,-42.969,0.000
1709297968.448,-40.039,-35.645,-34.180,-35.645,0.000
1709297968.452,-34.180,-32.227,-32.227,-32.227,0.000
1709297968.456,-44.434,-38.086,-33.203,-18.555,0.000
1709297968.460,-44.434,-41.016,-41.992,-27.832,0.000
1709297968.464,-34.180,-33.691,-43.457,-36.133,0.000
1709297968.468,-34.180,-30.762,-36.621,-35.156,0.000
1709297968.471,-43.457,-36.621,-42.480,-40.527,0.000
1709297968.475,-44.922,-37.598,-45.410,-39.062,0.000
1709297968.479,-57.617,-32.715,-44.922,-58.594,0.000
1709297968.483,-67.383,-36.133,-41.504,-68.359,0.000
1709297968.487,-55.664,-40.039,-39.551,-63.965,0.000
1709297968.491,-53.711,-38.086,-43.945,-54.199,0.000
1709297968.495,-52.734,-32.227,-41.992,-43.457,0.000
1709297968.499,-47.852,-30.762,-38.086,-40.039,0.000
1709297968.503,-52.246,-31.250,-42.969,-56.152,0.000
1709297968.507,-42.969,-34.668,-44.434,-62.500,0.000
1709297968.511,-32.715,-31.250,-44.434,-50.293,0.000
1709297968.514,-36.133,-32.715,-42.480,-39.062,0.000
1709297968.518,-34.180,-36.133,-40.527,-49.805,0.000
1709297968.522,-27.344,-26.855,-36.621,-57.617,0.000
1709297968.526,-23.438,-28.809,-32.715,-52.246,0.000
1709297968.530,-26.367,-36.133,-37.598,-42.480,0.000
1709297968.534,-31.250,-38.086,-41.992,-31.738,0.000
1709297968.538,-37.109,-37.109,-38.574,-32.715,0.000
1709297968.542,-35.645,-36.621,-35.645,-47.363,0.000
1709297968.546,-38.086,-41.016,-39.062,-56.641,0.000
1709297968.550,-40.527,-44.434,-38.086,-44.922,0.000
1709297968.553,-34.668,-43.457,-36.133,-42.969,0.000
1709297968.557,-35.156,-45.410,-38.574,-46.387,0.000
1709297968.561,-31.738,-40.527,-36.621,-56.152,0.000
1709297968.565,-31.738,-34.180,-29.785,-58.594,0.000
1709297968.569,-36.133,-39.062,-32.227,-45.898,0.000
1709297968.573,-31.250,-41.016,-33.691,-35.645,0.000
1709297968.577,-27.344,-38.086,-32.715,-40.039,0.000
1709297968.581,-25.391,-38.086,-33.203,-46.875,0.000
1709297968.585,-37.109,-34.668,-36.133,-53.711,0.000
1709297968.589,-45.410,-37.598,-41.992,-66.895,0.000
1709297968.593,-37.598,-42.480,-40.039,-48.828,0.000
1709297968.596,-40.039,-40.039,-36.621,-35.645,0.000
1709297968.600,-43.945,-38.086,-40.039,-50.781,0.000
1709297968.604,-47.852,-43.457,-38.574,-57.129,0.000
1709297968.608,-43.945,-43.945,-37.598,-57.129,0.000
1709297968.612,-39.062,-38.574,-41.016,-41.504,0.000
1709297968.616,-37.109,-39.062,-43.457,-27.832,0.000
1709297968.620,-44.922,-34.180,-44.434,-42.969,0.000
1709297968.624,-44.922,-34.668,-40.039,-53.711,0.000
1709297968.628,-34.668,-38.574,-40.527,-48.340,0.000
1709297968.632,-43.457,-38.574,-40.527,-42.480,0.000
1709297968.635,-48.340,-39.551,-37.109,-33.691,0.000
1709297968.639,-44.922,-42.480,-41.992,-37.109,0.000
1709297968.643,-46.387,-42.969,-40.527,-51.270,0.000
1709297968.647,-47.363,-38.574,-40.039,-47.852,0.000
1709297968.651,-39.551,-38.574,-41.504,-34.180,0.000
1709297968.655,-31.250,-35.645,-36.621,-23.438,0.000
1709297968.659,-26.855,-34.180,-35.156,-24.902,0.000
1709297968.663,-22.461,-32.227,-37.598,-41.016,0.000
1709297968.667,-24.414,-30.762,-43.457,-45.898,0.000
1709297968.671,-25.391,-33.691,-43.945,-31.738,0.000
1709297968.674,-24.902,-39.551,-42.480,-33.203,0.000
1709297968.678,-36.133,-39.062,-41.992,-41.992,0.000
1709297968.682,-40.527,-34.180,-37.109,-41.016,0.000
1709297968.686,-41.504,-35.156,-38.574,-41.504,0.000
1709297968.690,-42.969,-37.109,-40.039,-44.922,0.000
1709297968.694,-36.133,-32.227,-37.109,-39.551,0.000
1709297968.698,-34.180,-30.762,-32.715,-31.250,0.000
1709297968.702,-33.203,-30.273,-28.320,-35.156,0.000
1709297968.706,0.000,-28.809,-27.832,-48.340,0.000
1709297968.710,0.000,-28.320,-31.250,-44.922,0.000
1709297968.713,0.000,-28.320,-34.668,-37.109,0.000
1709297968.717,0.000,-28.809,-39.062,-43.945,0.000
1709297968.721,0.000,-36.133,-42.480,-47.363,0.000
1709297968.725,0.000,-41.016,-41.504,-42.480,0.000
1709297968.729,0.000,-36.133,-38.086,-34.180,0.000
1709297968.733,0.000,-35.645,-37.109,-27.832,0.000
1709297968.737,0.000,-36.133,-38.086,-30.273,0.000
1709297968.741,0.000,-41.992,-33.691,-42.480,0.000
1709297968.745,0.000,-43.457,-32.227,-46.387,0.000
1709297968.749,0.000,-30.273,-32.227,-36.621,0.000
1709297968.753,-36.133,-29.297,-34.668,-24.902,0.000
1709297968.756,-35.156,-34.180,-34.668,-22.461,0.000
1709297968.760,-36.621,-27.832,-39.062,-33.691,0.000
1709297968.764,-44.922,-22.461,-41.504,-44.434,0.000
1709297968.768,-30.762,-35.645,-36.621,-33.691,0.000
1709297968.772,-21.484,-38.574,-33.691,-23.438,0.000
1709297968.776,-26.367,-28.320,-36.133,-19.043,0.000
1709297968.780,-24.414,-34.180,-41.016,-25.879,0.000
1709297968.784,-24.902,-36.133,-41.504,-44.922,0.000
1709297968.788,-30.273,-34.180,-42.480,-29.297,0.000
1709297968.792,-35.645,-41.504,-43.457,-18.066,0.000
1709297968.796,-39.551,-35.156,-44.922,-33.203,0.000
1709297968.799,-32.715,-38.086,-41.992,-38.574,0.000
1709297968.803,-26.367,-47.363,-40.039,-40.039,0.000
1709297968.807,-29.297,-42.480,-41.016,-34.180,0.000
1709297968.811,-26.855,-37.109,-41.992,-19.043,0.000
1709297968.815,-23.926,-39.062,-41.016,-10.742,0.000
1709297968.819,-27.832,-38.086,-42.480,-19.531,0.000
1709297968.823,-25.391,-28.809,-40.039,-34.668,0.000
1709297968.827,-22.949,-27.344,-36.621,-36.621,0.000
1709297968.831,-33.203,-30.273,-38.574,-14.648,0.000
1709297968.835,-40.039,-36.133,-40.039,-1.465,0.000
1709297968.839,-32.227,-34.180,-38.086,-20.020,0.000
1709297968.842,-23.926,-29.297,-36.621,-33.691,0.000
1709297968.846,-18.066,-25.879,-39.551,-32.227,0.000
1709297968.850,-8.301,-22.461,-39.551,-21.973,0.000
1709297968.854,-11.719,-23.926,-38.574,-15.137,0.000
1709297968.858,-21.484,-26.855,-41.992,-20.996,0.000
1709297968.862,-16.113,-29.785,-39.551,-26.367,0.000
1709297968.866,-20.996,-25.879,-38.574,-31.250,0.000
1709297968.870,-30.273,-25.879,-36.621,-29.785,0.000
1709297968.874,-24.414,-33.203,-38.574,-21.973,0.000
1709297968.878,-16.113,-33.203,-40.527,-12.695,0.000
1709297968.882,-29.297,-23.926,-36.621,-31.738,0.000
1709297968.885,-41.992,-26.367,-40.527,-50.293,0.000
1709297968.889,-31.250,-36.133,-40.527,-36.133,0.000
1709297968.893,-28.809,-35.645,-36.133,-26.367,0.000
1709297968.897,-32.715,-36.133,-35.156,-25.391,0.000
1709297968.901,-31.738,-37.109,-35.156,-31.738,0.000
1709297968.905,-27.832,-39.062,-39.551,-37.598,0.000
1709297968.909,-28.809,-39.551,-39.062,-34.180,0.000
1709297968.913,-30.273,-37.109,-36.621,-21.973,0.000
1709297968.917,-25.879,-36.133,-38.086,-32.227,0.000
1709297968.921,-29.297,-42.480,-38.574,-43.457,0.000
1709297968.924,-35.645,-43.945,-42.480,-38.574,0.000
1709297968.928,-44.922,-36.621,-44.434,-44.922,0.000
1709297968.932,-42.969,-37.598,-41.016,-38.574,0.000
1709297968.936,-30.762,-41.992,-41.504,-33.691,0.000
1709297968.940,-35.645,-38.574,-43.457,-40.039,0.000
1709297968.944,-41.016,-36.133,-42.480,-45.898,0.000
1709297968.948,-41.504,-37.598,-43.945,-43.945,0.000
1709297968.952,-33.203,-36.133,-39.551,-31.250,0.000
1709297968.956,-32.227,-38.086,-37.109,-27.344,0.000
1709297968.960,-45.410,-36.133,-41.504,-37.598,0.000
1709297968.964,-42.480,-33.203,-39.551,-41.016,0.000
1709297968.967,-34.180,-25.879,-37.109,-39.551,0.000
1709297968.971,-32.715,-27.832,-38.574,-34.180,0.000
1709297968.975,-34.668,-34.668,-40.039,-41.992,0.000
1709297968.979,-34.180,-31.738,-40.039,-54.688,0.000
1709297968.983,-32.227,-36.133,-37.598,-50.293,0.000
1709297968.987,-43.457,-35.645,-40.527,-58.594,0.000
1709297968.991,-46.387,-36.133,-42.480,-47.363,0.000
1709297968.995,-37.109,-36.621,-43.457,-28.809,0.000
1709297968.999,-38.086,-40.039,-44.922,-32.715,0.000
1709297969.003,-38.574,-43.945,-41.504,-28.809,0.000
1709297969.006,-27.832,-39.551,-41.016,-35.156,0.000
1709297969.010,-22.461,-38.086,-40.527,-36.133,0.000
1709297969.014,-27.832,-36.621,-40.039,-15.625,0.000
1709297969.018,-29.785,-29.297,-42.480,-21.973,0.000
1709297969.022,-39.551,-31.738,-41.504,-32.227,0.000
1709297969.026,-44.434,-35.156,-42.969,-32.715,0.000
1709297969.030,-44.922,-32.715,-44.434,-27.344,0.000
