timestamps,TP9,AF7,AF8,TP10,Right AUX
1709206326.453,-47.852,-46.387,-33.691,-31.250,0.000
1709206326.457,-45.410,-38.086,-31.738,-23.438,0.000
1709206326.461,-47.852,-56.152,-35.645,-25.879,0.000
1709206326.465,-38.086,-55.176,-37.109,-23.438,0.000
1709206326.469,-35.156,-46.387,-31.250,-20.020,0.000
1709206326.473,-37.598,-51.270,-27.344,-22.461,0.000
1709206326.477,-33.691,-62.500,-26.367,-27.344,0.000
1709206326.481,-18.555,-55.176,-25.879,-24.414,0.000
1709206326.485,-17.578,-26.367,-26.367,-31.250,0.000
1709206326.489,-22.461,-36.621,-26.367,-33.691,0.000
1709206326.492,-12.207,-41.016,-28.809,-23.438,0.000
1709206326.496,-17.090,-24.414,-35.645,-23.438,0.000
1709206326.500,-17.090,-20.508,-40.527,-28.809,0.000
1709206326.504,-14.648,-35.156,-40.527,-33.203,0.000
1709206326.508,-17.578,-46.387,-43.457,-32.715,0.000
1709206326.512,-27.344,-36.133,-41.992,-29.297,0.000
1709206326.516,-36.621,-33.691,-34.668,-31.250,0.000
1709206326.520,-40.039,-47.852,-40.039,-39.551,0.000
1709206326.524,-48.828,-75.684,-48.828,-41.504,0.000
1709206326.528,-62.012,-56.152,-47.363,-40.039,0.000
1709206326.531,-62.988,-21.484,-47.363,-48.340,0.000
1709206326.535,-56.641,-42.969,-45.898,-50.781,0.000
1709206326.539,-62.012,-59.082,-43.945,-59.570,0.000
1709206326.543,-47.852,-50.781,-43.457,-69.824,0.000
1709206326.547,-48.340,-45.410,-43.945,-70.801,0.000
1709206326.551,-78.125,-62.012,-38.086,-57.617,0.000
1709206326.555,-72.266,-73.730,-36.621,-45.898,0.000
1709206326.559,-61.035,-52.246,-38.574,-41.016,0.000
1709206326.563,-66.406,-50.781,-35.645,-37.598,0.000
1709206326.567,-72.754,-79.102,-35.645,-40.039,0.000
1709206326.570,-61.035,-78.613,-32.715,-36.133,0.000
1709206326.574,-54.199,-34.180,-28.320,-31.738,0.000
1709206326.578,-59.082,-36.621,-29.297,-35.645,0.000
1709206326.582,-57.129,-65.430,-30.273,-32.227,0.000
1709206326.586,-54.688,-57.129,-29.785,-28.320,0.000
1709206326.590,-51.270,-46.875,-28.320,-26.855,0.000
1709206326.594,-50.781,-53.711,-33.203,-26.855,0.000
1709206326.598,-47.852,-55.176,-34.668,-38.086,0.000
1709206326.602,-47.363,-48.828,-35.645,-44.922,0.000
1709206326.606,-40.039,-41.504,-43.457,-39.551,0.000
1709206326.610,-22.949,-38.086,-42.969,-38.086,0.000
1709206326.613,-26.367,-42.969,-38.574,-35.645,0.000
1709206326.617,-20.996,-37.109,-37.109,-38.574,0.000
1709206326.621,-13.184,-37.598,-40.039,-56.641,0.000
1709206326.625,-17.578,-48.828,-42.969,-52.246,0.000
1709206326.629,-18.066,-58.594,-45.898,-39.062,0.000
1709206326.633,-15.137,-37.109,-47.363,-42.969,0.000
1709206326.637,-18.555,-26.855,-45.898,-47.852,0.000
1709206326.641,0.000,-48.828,-41.504,-48.340,0.000
1709206326.645,0.000,-47.852,-39.062,-52.734,0.000
1709206326.649,0.000,-37.598,-39.062,-53.223,0.000
1709206326.653,0.000,-43.457,-38.086,-44.434,0.000
1709206326.656,0.000,-55.176,-30.273,-30.762,0.000
1709206326.660,0.000,-61.523,-26.367,-29.297,0.000
1709206326.664,0.000,-48.828,-32.715,-36.621,0.000
1709206326.668,0.000,-40.527,-39.062,-41.992,0.000
1709206326.672,0.000,-63.477,-39.062,-32.715,0.000
1709206326.676,0.000,-70.801,-38.574,-25.391,0.000
1709206326.680,0.000,-34.180,-40.527,-33.203,0.000
1709206326.684,0.000,-28.809,-40.527,-33.203,0.000
1709206326.688,-54.688,-40.527,-34.668,-31.738,0.000
1709206326.692,-53.711,-41.504,-28.809,-31.738,0.000
1709206326.696,-62.500,-46.387,-39.062,-36.621,0.000
1709206326.699,-61.035,-56.152,-40.527,-39.551,0.000
1709206326.703,-59.082,-51.758,-36.621,-38.574,0.000
1709206326.707,-69.336,-54.688,-41.016,-47.852,0.000
1709206326.711,-66.406,-52.734,-40.527,-50.293,0.000
1709206326.715,-55.176,-46.387,-34.668,-45.898,0.000
1709206326.719,-49.316,-67.871,-30.273,-34.668,0.000
1709206326.723,-49.805,-46.387,-38.574,-41.504,0.000
1709206326.727,-50.293,-30.273,-41.992,-56.152,0.000
1709206326.731,-42.480,-51.758,-34.668,-42.480,0.000
1709206326.735,-22.461,-53.223,-35.645,-31.250,0.000
1709206326.739,-26.367,-46.875,-32.715,-35.645,0.000
1709206326.742,-41.992,-41.992,-35.645,-39.551,0.000
1709206326.746,-38.086,-53.711,-41.016,-34.668,0.000
1709206326.750,-37.109,-56.641,-34.668,-29.297,0.000
1709206326.754,-39.551,-52.246,-34.668,-28.809,0.000
1709206326.758,-34.180,-52.734,-39.062,-32.715,0.000
1709206326.762,-34.668,-68.359,-44.434,-50.293,0.000
1709206326.766,-41.016,-72.266,-42.480,-54.199,0.000
1709206326.770,-41.992,-44.922,-37.598,-55.176,0.000
1709206326.774,-38.086,-40.527,-35.156,-60.059,0.000
1709206326.778,-34.180,-44.922,-35.156,-59.570,0.000
1709206326.782,-34.180,-45.410,-37.598,-63.477,0.000
1709206326.785,-37.109,-45.898,-42.969,-65.430,0.000
1709206326.789,-31.250,-60.547,-38.086,-55.176,0.000
1709206326.793,-32.227,-70.312,-34.668,-44.434,0.000
1709206326.797,-32.715,-53.711,-39.062,-47.852,0.000
1709206326.801,-18.066,-47.363,-39.062,-56.152,0.000
1709206326.805,-29.297,-46.875,-41.992,-54.688,0.000
1709206326.809,-43.457,-64.941,-41.016,-38.086,0.000
1709206326.813,-33.691,-51.270,-42.480,-35.645,0.000
1709206326.817,-36.133,-22.461,-47.852,-47.363,0.000
1709206326.821,-32.227,-37.109,-46.387,-33.691,0.000
1709206326.825,-25.879,-42.480,-48.828,-27.832,0.000
1709206326.828,-33.691,-37.109,-49.316,-29.297,0.000
1709206326.832,-34.668,-40.527,-48.340,-26.367,0.000
1709206326.836,-31.250,-57.617,-44.922,-25.391,0.000
1709206326.840,-30.273,-54.199,-41.992,-28.320,0.000
1709206326.844,-39.062,-51.758,-51.758,-41.504,0.000
1709206326.848,-51.270,-73.242,-49.805,-45.410,0.000
1709206326.852,-51.758,-79.590,-41.992,-37.109,0.000
1709206326.856,-36.621,-59.082,-40.527,-30.762,0.000
1709206326.860,-41.016,-29.297,-43.457,-41.504,0.000
1709206326.864,-59.082,-37.109,-40.527,-48.828,0.000
1709206326.867,-57.129,-61.523,-39.551,-44.922,0.000
1709206326.871,-59.082,-55.664,-41.504,-42.969,0.000
1709206326.875,-61.035,-24.902,-41.992,-47.363,0.000
1709206326.879,-62.012,-37.598,-44.922,-52.246,0.000
1709206326.883,-62.500,-53.223,-43.945,-60.059,0.000
1709206326.887,-53.223,-43.945,-39.062,-72.266,0.000
1709206326.891,-49.805,-42.969,-39.551,-68.359,0.000
1709206326.895,-52.246,-55.176,-37.598,-53.711,0.000
1709206326.899,-47.852,-72.266,-35.156,-42.969,0.000
1709206326.903,-45.410,-56.152,-40.039,-40.527,0.000
1709206326.907,-39.551,-38.086,-39.551,-34.668,0.000
1709206326.910,-33.691,-61.523,-37.598,-26.855,0.000
1709206326.914,-26.855,-47.852,-31.250,-23.438,0.000
1709206326.918,-11.230,-28.809,-30.762,-16.113,0.000
1709206326.922,-13.672,-37.598,-40.527,-24.902,0.000
1709206326.926,-17.090,-49.805,-45.410,-30.762,0.000
1709206326.930,-8.301,-50.781,-45.410,-22.461,0.000
1709206326.934,-22.949,-36.621,-41.992,-11.230,0.000
1709206326.938,-24.902,-38.574,-42.480,-17.090,0.000
1709206326.942,-19.043,-63.477,-44.434,-26.855,0.000
1709206326.946,-22.949,-60.059,-48.340,-23.438,0.000
1709206326.949,-28.320,-37.109,-51.270,-22.949,0.000
1709206326.953,-37.109,-35.645,-46.875,-24.414,0.000
1709206326.957,-36.621,-47.363,-43.457,-16.602,0.000
1709206326.961,-33.203,-46.387,-46.387,-21.973,0.000
1709206326.965,-25.879,-38.574,-44.922,-32.715,0.000
1709206326.969,-28.809,-47.363,-43.457,-38.086,0.000
1709206326.973,-34.668,-43.945,-46.387,-42.480,0.000
1709206326.977,-31.250,-37.109,-41.992,-39.062,0.000
1709206326.981,-41.504,-34.668,-41.504,-42.969,0.000
1709206326.985,-49.316,-43.457,-42.480,-51.270,0.000
1709206326.989,-35.645,-60.547,-40.039,-57.129,0.000
1709206326.992,-40.039,-49.805,-41.504,-54.688,0.000
1709206326.996,-51.270,-27.832,-43.945,-52.734,0.000
1709206327.000,-48.828,-39.551,-40.527,-58.105,0.000
1709206327.004,-51.270,-64.941,-41.992,-55.664,0.000
1709206327.008,-51.758,-50.781,-40.527,-51.270,0.000
1709206327.012,-46.387,-32.715,-35.156,-47.852,0.000
1709206327.016,-45.898,-50.293,-42.969,-50.781,0.000
1709206327.020,-48.828,-56.152,-45.410,-45.898,0.000
1709206327.024,-43.457,-44.434,-41.992,-35.156,0.000
1709206327.028,-37.598,-38.086,-45.898,-28.809,0.000
1709206327.032,-38.086,-47.852,-45.898,-25.391,0.000
1709206327.035,-39.551,-62.012,-41.504,-22.949,0.000
1709206327.039,-30.762,-43.945,-41.016,-15.137,0.000
1709206327.043,-20.020,-30.762,-49.805,-25.391,0.000
1709206327.047,-26.367,-59.082,-46.387,-22.461,0.000
1709206327.051,-37.109,-67.871,-41.504,-4.883,0.000
1709206327.055,-33.691,-28.320,-45.898,-10.254,0.000
1709206327.059,-27.832,-25.391,-47.363,-15.625,0.000
1709206327.063,-27.344,-42.969,-42.480,-23.438,0.000
1709206327.067,-28.809,-39.062,-35.645,-28.809,0.000
1709206327.071,-38.086,-36.133,-47.363,-30.762,0.000
1709206327.075,-46.875,-43.457,-52.734,-40.039,0.000
1709206327.078,-44.922,-52.734,-44.922,-46.875,0.000
1709206327.082,-48.828,-51.758,-43.945,-49.316,0.000
1709206327.086,-49.316,-47.363,-41.504,-54.199,0.000
1709206327.090,-47.363,-48.340,-39.551,-59.570,0.000
1709206327.094,-55.664,-62.988,-38.574,-46.875,0.000
1709206327.098,-55.176,-46.875,-37.109,-48.828,0.000
1709206327.102,-51.758,-21.973,-32.227,-72.266,0.000
1709206327.106,-45.898,-45.410,-31.250,-82.520,0.000
1709206327.110,-62.012,-55.664,-38.086,-90.820,0.000
1709206327.114,-80.566,-45.898,-37.598,-82.031,0.000
1709206327.117,-71.289,-48.828,-33.691,-79.102,0.000
1709206327.121,-62.500,-58.105,-28.809,-78.125,0.000
1709206327.125,-62.500,-59.570,-28.809,-69.824,0.000
1709206327.129,-65.430,-59.570,-23.926,-66.406,0.000
1709206327.133,-67.383,-57.617,-19.043,-57.129,0.000
1709206327.137,-65.918,-65.430,-27.832,-44.434,0.000
1709206327.141,-62.988,-65.430,-34.180,-42.480,0.000
1709206327.145,-61.523,-44.922,-38.086,-52.246,0.000
1709206327.149,-61.035,-45.898,-44.922,-51.758,0.000
1709206327.153,-57.617,-48.828,-45.410,-44.434,0.000
1709206327.157,-48.828,-45.410,-42.480,-41.016,0.000
1709206327.160,-39.062,-34.668,-43.945,-43.457,0.000
1709206327.164,-36.133,-37.598,-46.387,-39.062,0.000
1709206327.168,-22.461,-43.945,-47.363,-36.621,0.000
1709206327.172,-30.762,-41.016,-45.898,-44.922,0.000
1709206327.176,-43.945,-40.527,-46.387,-47.363,0.000
1709206327.180,-23.438,-42.480,-57.129,-39.062,0.000
1709206327.184,-15.625,-61.523,-51.270,-22.461,0.000
1709206327.188,-23.926,-45.898,-38.086,-17.090,0.000
1709206327.192,-28.809,-31.738,-40.039,-27.832,0.000
1709206327.196,-23.438,-59.570,-39.551,-24.902,0.000
1709206327.199,-24.414,-57.129,-30.273,-16.113,0.000
1709206327.203,-33.203,-58.105,-21.484,-18.555,0.000
1709206327.207,-42.969,-67.871,-20.996,-30.273,0.000
1709206327.211,-51.270,-86.426,-22.949,-31.250,0.000
1709206327.215,-48.340,-96.680,-14.160,-27.832,0.000
1709206327.219,-47.852,-90.820,-10.254,-29.785,0.000
1709206327.223,-54.199,-107.910,-15.625,-36.133,0.000
1709206327.227,-51.758,-127.441,-12.695,-32.227,0.000
1709206327.231,-67.871,-135.742,-6.836,-26.855,0.000
1709206327.235,-76.172,-109.375,-4.883,-40.527,0.000
1709206327.239,-69.824,-125.977,-3.906,-43.457,0.000
1709206327.242,-73.730,-151.855,-4.395,-35.645,0.000
1709206327.246,-81.543,-144.043,-4.883,-36.133,0.000
1709206327.250,-83.008,-152.832,-6.348,-29.297,0.000
1709206327.254,-67.871,-164.551,-3.906,-8.789,0.000
1709206327.258,-62.500,-158.203,-1.465,5.371,0.000
1709206327.262,-64.453,-151.367,-0.488,11.230,0.000
1709206327.266,-69.336,-158.203,-1.953,10.742,0.000
1709206327.270,-69.336,-171.387,-2.441,13.184,0.000
1709206327.274,-53.711,-195.801,0.000,32.227,0.000
1709206327.278,-61.523,-183.105,-3.418,44.434,0.000
1709206327.281,-64.453,-151.367,-4.395,34.668,0.000
1709206327.285,-49.316,-168.945,0.000,28.809,0.000
1709206327.289,-44.434,-176.758,0.000,31.738,0.000
1709206327.293,-42.969,-164.551,-11.230,26.855,0.000
1709206327.297,-41.992,-158.691,-15.625,23.438,0.000
1709206327.301,-43.945,-166.504,-13.184,27.344,0.000
1709206327.305,-41.992,-171.875,-16.602,28.809,0.000
1709206327.309,-36.133,-166.504,-14.648,23.926,0.000
1709206327.313,-28.809,-156.738,-12.695,15.625,0.000
1709206327.317,-25.391,-160.156,-18.555,7.324,0.000
1709206327.320,-16.113,-159.668,-26.367,5.859,0.000
1709206327.324,-24.902,-125.000,-29.785,-6.348,0.000
1709206327.328,-44.434,-125.977,-28.809,-16.113,0.000
1709206327.332,-45.410,-135.742,-27.832,-9.766,0.000
1709206327.336,-43.457,-123.535,-29.785,-10.254,0.000
1709206327.340,-32.227,-112.793,-27.344,-11.719,0.000
1709206327.344,-21.973,-116.211,-30.762,-12.207,0.000
1709206327.348,-12.695,-119.141,-27.832,-13.184,0.000
1709206327.352,-27.344,-107.422,-16.602,-1.953,0.000
1709206327.356,-38.086,-92.773,-17.578,11.230,0.000
1709206327.360,-31.250,-96.191,-19.043,6.836,0.000
1709206327.363,-25.391,-107.910,-15.625,-5.859,0.000
1709206327.367,-26.367,-102.051,-19.043,-10.254,0.000
1709206327.371,-29.297,-82.520,-21.484,-7.324,0.000
1709206327.375,-26.855,-77.637,-18.555,-5.371,0.000
1709206327.379,-30.273,-98.633,-18.555,0.000,0.000
1709206327.383,-32.227,-86.426,-21.973,-4.883,0.000
1709206327.387,-28.320,-70.312,-26.855,-9.766,0.000
1709206327.391,-36.621,-80.566,-30.273,-1.465,0.000
1709206327.395,-34.668,-77.637,-30.273,1.465,0.000
1709206327.399,-18.066,-68.359,-29.785,-9.277,0.000
1709206327.403,-30.762,-77.148,-32.227,-15.137,0.000
1709206327.406,-47.363,-89.355,-34.668,-16.113,0.000
1709206327.410,-38.574,-93.262,-34.668,-15.137,0.000
1709206327.414,-37.598,-75.684,-42.480,-21.484,0.000
1709206327.418,-42.969,-61.035,-47.363,-29.297,0.000
1709206327.422,-37.109,-85.449,-42.969,-23.926,0.000
1709206327.426,-35.645,-98.145,-39.551,-24.902,0.000
1709206327.430,-42.480,-55.176,-42.480,-34.668,0.000
1709206327.434,-28.809,-41.504,-51.270,-38.086,0.000
1709206327.438,-25.879,-63.477,-51.758,-34.180,0.000
1709206327.442,-37.598,-58.594,-49.316,-29.785,0.000
1709206327.446,-30.273,-53.223,-48.828,-35.156,0.000
1709206327.449,-24.414,-65.430,-42.480,-36.621,0.000
1709206327.453,-15.137,-66.406,-37.109,-30.273,0.000
1709206327.457,-13.184,-64.453,-40.527,-30.762,0.000
1709206327.461,-9.766,-52.246,-41.016,-35.156,0.000
1709206327.465,-15.137,-48.828,-39.551,-39.551,0.000
1709206327.469,-29.785,-80.078,-39.062,-29.297,0.000
1709206327.473,-30.762,-58.105,-42.969,-23.438,0.000
1709206327.477,-28.320,-29.297,-42.480,-33.203,0.000
1709206327.481,-24.902,-51.270,-34.668,-22.949,0.000
1709206327.485,-29.297,-56.641,-35.645,-19.043,0.000
1709206327.489,-20.020,-46.387,-34.180,-17.090,0.000
1709206327.492,-19.531,-43.457,-32.715,-8.301,0.000
1709206327.496,-34.180,-58.105,-34.668,-2.930,0.000
1709206327.500,-20.996,-63.965,-33.203,-0.488,0.000
1709206327.504,-13.184,-53.711,-29.297,0.488,0.000
1709206327.508,-19.043,-50.293,-36.621,-9.277,0.000
1709206327.512,-28.320,-61.035,-38.086,-12.207,0.000
1709206327.516,-29.297,-66.406,-40.527,-8.789,0.000
1709206327.520,-27.832,-46.875,-45.410,-25.391,0.000
1709206327.524,-37.598,-39.551,-41.504,-36.133,0.000
1709206327.528,-40.527,-49.316,-40.527,-37.598,0.000
1709206327.532,-36.133,-57.129,-38.086,-35.645,0.000
1709206327.535,-38.086,-49.805,-35.645,-36.621,0.000
1709206327.539,-29.785,-56.641,-33.691,-39.551,0.000
1709206327.543,-29.297,-54.199,-33.691,-35.645,0.000
1709206327.547,-45.898,-48.340,-31.250,-32.227,0.000
1709206327.551,-41.992,-54.199,-30.273,-31.250,0.000
1709206327.555,-36.133,-48.340,-33.203,-35.156,0.000
1709206327.559,-29.297,-62.012,-30.762,-31.250,0.000
1709206327.563,-26.855,-47.852,-34.180,-35.156,0.000
1709206327.567,-29.785,-19.043,-39.062,-43.457,0.000
1709206327.571,-26.367,-43.945,-37.598,-31.738,0.000
1709206327.574,-26.367,-54.688,-39.062,-32.227,0.000
1709206327.578,-22.949,-40.527,-36.133,-42.969,0.000
1709206327.582,-20.508,-41.016,-37.598,-55.664,0.000
1709206327.586,-26.367,-56.152,-44.434,-55.664,0.000
1709206327.590,-28.320,-55.176,-41.992,-48.340,0.000
1709206327.594,-32.227,-52.734,-43.945,-42.480,0.000
1709206327.598,-39.551,-59.570,-49.316,-39.062,0.000
1709206327.602,-25.391,-69.824,-41.016,-34.668,0.000
1709206327.606,-26.367,-68.848,-41.016,-24.414,0.000
1709206327.610,-44.922,-36.133,-41.016,-27.344,0.000
1709206327.614,-37.109,-41.992,-32.227,-26.367,0.000
1709206327.617,-39.062,-54.688,-35.156,-21.973,0.000
1709206327.621,-44.434,-45.410,-41.016,-25.879,0.000
1709206327.625,-43.945,-44.434,-37.598,-25.879,0.000
1709206327.629,-45.898,-57.617,-38.574,-28.320,0.000
1709206327.633,-46.875,-62.500,-41.992,-35.156,0.000
1709206327.637,-41.504,-45.898,-38.574,-41.504,0.000
1709206327.641,-42.969,-46.875,-32.227,-48.340,0.000
1709206327.645,-46.875,-60.547,-33.203,-48.828,0.000
1709206327.649,-46.387,-77.637,-36.621,-36.133,0.000
1709206327.653,-47.363,-61.523,-38.086,-30.273,0.000
1709206327.656,-47.363,-28.320,-38.574,-40.527,0.000
1709206327.660,-51.270,-46.387,-38.086,-48.828,0.000
1709206327.664,-45.898,-59.082,-41.992,-48.340,0.000
1709206327.668,-32.227,-49.316,-40.527,-37.598,0.000
1709206327.672,-38.574,-44.922,-37.109,-29.785,0.000
1709206327.676,-41.504,-57.617,-33.691,-30.762,0.000
1709206327.680,-33.691,-57.129,-36.133,-33.203,0.000
1709206327.684,-33.691,-43.945,-37.598,-40.527,0.000
1709206327.688,-37.109,-45.410,-36.621,-52.246,0.000
1709206327.692,-41.016,-62.012,-37.598,-46.387,0.000
1709206327.695,-41.016,-62.012,-38.574,-33.691,0.000
1709206327.699,-34.180,-31.250,-36.133,-35.645,0.000
1709206327.703,-31.738,-38.086,-36.133,-42.969,0.000
1709206327.707,-41.016,-65.918,-40.527,-43.945,0.000
1709206327.711,-43.945,-64.453,-36.621,-35.645,0.000
1709206327.715,-35.645,-41.504,-36.133,-35.156,0.000
1709206327.719,-42.969,-43.457,-35.645,-40.039,0.000
1709206327.723,-48.340,-53.711,-28.809,-35.156,0.000
1709206327.727,-42.480,-49.316,-30.762,-33.203,0.000
1709206327.731,-45.410,-47.852,-34.668,-37.598,0.000
1709206327.735,-48.340,-54.688,-31.250,-36.133,0.000
1709206327.738,-42.480,-63.477,-37.109,-34.668,0.000
1709206327.742,-36.133,-49.805,-41.016,-27.344,0.000
1709206327.746,-37.598,-33.691,-38.574,-23.438,0.000
1709206327.750,-36.621,-42.480,-41.504,-28.809,0.000
1709206327.754,-37.598,-56.152,-42.969,-22.949,0.000
1709206327.758,-43.457,-42.969,-38.086,-33.203,0.000
1709206327.762,-29.785,-28.809,-38.574,-44.922,0.000
1709206327.766,0.000,-52.734,-45.410,-44.434,0.000
1709206327.770,0.000,-62.500,-39.062,-37.598,0.000
1709206327.774,0.000,-44.434,-35.156,-34.668,0.000
1709206327.778,0.000,-45.898,-28.320,-47.363,0.000
1709206327.781,0.000,-62.500,-22.461,-51.758,0.000
1709206327.785,0.000,-87.402,-30.762,-59.082,0.000
1709206327.789,0.000,-73.730,-30.273,-57.617,0.000
1709206327.793,0.000,-47.363,-26.855,-55.664,0.000
1709206327.797,0.000,-69.336,-25.391,-49.805,0.000
1709206327.801,0.000,-85.938,-27.832,-42.969,0.000
1709206327.805,0.000,-60.059,-31.250,-61.523,0.000
1709206327.809,0.000,-54.199,-32.715,-58.594,0.000
1709206327.813,-64.453,-65.430,-34.180,-49.805,0.000
1709206327.817,-56.641,-65.430,-28.320,-41.016,0.000
1709206327.821,-52.734,-63.477,-27.832,-33.203,0.000
1709206327.824,-41.992,-67.383,-26.855,-32.715,0.000
1709206327.828,-41.016,-64.941,-27.344,-27.344,0.000
1709206327.832,-61.523,-63.965,-33.203,-30.273,0.000
1709206327.836,-53.223,-54.688,-36.133,-35.156,0.000
1709206327.840,-45.410,-41.504,-35.645,-41.992,0.000
1709206327.844,-52.246,-67.871,-35.156,-35.156,0.000
1709206327.848,-51.270,-57.129,-40.039,-25.879,0.000
1709206327.852,-46.387,-25.391,-39.551,-32.715,0.000
1709206327.856,-37.598,-46.387,-40.039,-37.109,0.000
1709206327.860,-41.016,-55.664,-42.480,-36.621,0.000
1709206327.864,-51.758,-43.945,-41.016,-37.109,0.000
1709206327.867,-44.922,-50.293,-41.504,-42.480,0.000
1709206327.871,-43.945,-64.453,-42.480,-44.922,0.000
1709206327.875,-40.039,-67.871,-46.875,-50.293,0.000
1709206327.879,-35.645,-62.012,-43.457,-48.828,0.000
1709206327.883,-34.668,-56.152,-30.762,-39.551,0.000
1709206327.887,-20.996,-69.336,-28.809,-33.203,0.000
1709206327.891,-20.508,-71.777,-31.250,-24.902,0.000
1709206327.895,-41.504,-50.293,-33.203,-24.902,0.000
1709206327.899,-37.598,-52.734,-33.691,-29.297,0.000
1709206327.903,-27.344,-53.711,-28.809,-20.996,0.000
1709206327.906,-37.109,-45.410,-27.344,-16.113,0.000
1709206327.910,-45.410,-47.852,-33.691,-27.832,0.000
1709206327.914,-42.480,-56.152,-36.133,-41.016,0.000
1709206327.918,-40.527,-55.176,-33.691,-38.086,0.000
1709206327.922,-33.691,-49.805,-30.762,-38.574,0.000
1709206327.926,-48.828,-53.223,-34.668,-51.270,0.000
1709206327.930,-64.941,-46.875,-39.062,-49.316,0.000
1709206327.934,-47.852,-59.082,-31.250,-23.926,0.000
1709206327.938,-31.250,-57.617,-32.715,-25.879,0.000
1709206327.942,-48.340,-32.227,-38.574,-58.105,0.000
1709206327.946,-63.477,-40.527,-37.598,-58.105,0.000
1709206327.949,-51.270,-51.758,-35.645,-57.129,0.000
1709206327.953,-53.223,-53.711,-38.086,-57.129,0.000
1709206327.957,-52.246,-55.664,-36.133,-49.805,0.000
1709206327.961,-46.875,-63.477,-32.715,-48.340,0.000
1709206327.965,-43.945,-70.801,-37.598,-52.246,0.000
1709206327.969,-38.086,-58.105,-38.086,-55.664,0.000
1709206327.973,-39.551,-60.059,-38.574,-51.758,0.000
1709206327.977,-44.434,-76.172,-41.992,-43.945,0.000
1709206327.981,-52.246,-71.777,-41.504,-35.156,0.000
1709206327.985,-50.781,-36.621,-36.133,-23.438,0.000
1709206327.988,-39.062,-42.480,-27.344,-19.531,0.000
1709206327.992,-48.340,-69.824,-32.227,-25.879,0.000
1709206327.996,-34.668,-58.105,-32.715,-21.484,0.000
1709206328.000,-24.414,-44.922,-31.738,-16.602,0.000
1709206328.004,-37.109,-53.223,-37.109,-23.926,0.000
1709206328.008,-30.273,-55.664,-39.062,-26.367,0.000
1709206328.012,-26.367,-46.387,-42.969,-26.855,0.000
1709206328.016,-44.922,-46.387,-43.945,-20.996,0.000
1709206328.020,-42.480,-55.176,-41.992,-20.996,0.000
1709206328.024,-32.227,-77.637,-41.016,-20.020,0.000
1709206328.028,-33.691,-58.594,-41.992,-18.066,0.000
1709206328.031,-34.668,-26.855,-39.551,-31.250,0.000
1709206328.035,-33.691,-48.828,-36.621,-41.504,0.000
1709206328.039,-15.625,-52.734,-41.992,-35.156,0.000
1709206328.043,-24.902,-46.387,-42.480,-34.668,0.000
1709206328.047,0.000,-45.898,-37.598,-43.945,0.000
1709206328.051,0.000,-48.340,-37.109,-43.945,0.000
1709206328.055,0.000,-47.363,-42.969,-41.016,0.000
1709206328.059,0.000,-33.203,-45.898,-38.086,0.000
1709206328.063,0.000,-39.062,-39.062,-39.551,0.000
1709206328.067,0.000,-67.871,-34.180,-35.645,0.000
1709206328.070,0.000,-72.754,-32.715,-26.855,0.000
1709206328.074,0.000,-45.898,-30.273,-41.016,0.000
1709206328.078,0.000,-47.363,-34.180,-35.156,0.000
1709206328.082,0.000,-71.777,-37.598,-29.785,0.000
1709206328.086,0.000,-64.453,-32.715,-40.527,0.000
1709206328.090,0.000,-52.246,-35.156,-37.109,0.000
1709206328.094,-55.176,-65.430,-37.109,-24.414,0.000
1709206328.098,-45.898,-66.895,-33.203,-16.113,0.000
1709206328.102,-41.504,-59.570,-35.156,-35.645,0.000
1709206328.106,-44.922,-54.199,-35.156,-50.293,0.000
1709206328.109,-38.086,-62.988,-30.273,-43.457,0.000
1709206328.113,-36.621,-68.848,-29.785,-41.016,0.000
1709206328.117,-23.926,-52.246,-36.621,-40.527,0.000
1709206328.121,-16.113,-39.551,-46.387,-45.898,0.000
1709206328.125,-35.156,-52.246,-43.945,-44.434,0.000
1709206328.129,-36.133,-69.336,-44.434,-31.250,0.000
1709206328.133,-27.832,-47.363,-50.781,-25.391,0.000
1709206328.137,-23.438,-32.227,-51.270,-34.180,0.000
1709206328.141,0.000,-52.246,-51.270,-36.621,0.000
1709206328.145,0.000,-59.082,-48.340,-35.645,0.000
1709206328.149,0.000,-46.387,-43.457,-30.762,0.000
1709206328.152,0.000,-37.598,-41.016,-27.832,0.000
1709206328.156,0.000,-45.898,-39.551,-29.297,0.000
1709206328.160,0.000,-54.688,-34.180,-21.973,0.000
1709206328.164,0.000,-39.551,-32.715,-28.320,0.000
1709206328.168,0.000,-37.598,-36.133,-33.203,0.000
1709206328.172,0.000,-56.641,-34.180,-28.809,0.000
1709206328.176,0.000,-56.641,-27.344,-23.438,0.000
1709206328.180,0.000,-24.414,-25.391,-31.250,0.000
1709206328.184,0.000,-25.391,-27.344,-37.109,0.000
1709206328.188,-40.527,-43.457,-26.855,-29.297,0.000
1709206328.191,-39.062,-44.922,-28.320,-35.156,0.000
1709206328.195,-45.410,-40.039,-29.297,-42.480,0.000
1709206328.199,-50.781,-49.805,-28.320,-41.016,0.000
1709206328.203,-57.129,-56.152,-30.273,-44.434,0.000
1709206328.207,-64.453,-55.664,-33.691,-40.527,0.000
1709206328.211,-53.711,-45.898,-29.297,-30.273,0.000
1709206328.215,-45.410,-34.180,-25.879,-31.250,0.000
1709206328.219,-51.758,-55.176,-32.715,-28.809,0.000
1709206328.223,-43.457,-49.805,-33.691,-30.762,0.000
1709206328.227,-48.340,-29.785,-32.715,-40.527,0.000
1709206328.231,-49.805,-38.574,-32.715,-41.992,0.000
1709206328.234,-39.062,-45.410,-32.227,-48.340,0.000
1709206328.238,-43.457,-38.086,-32.715,-44.434,0.000
1709206328.242,-43.945,-41.992,-32.227,-40.527,0.000
1709206328.246,-37.598,-59.570,-33.691,-37.598,0.000
1709206328.250,-42.480,-66.895,-37.598,-35.156,0.000
1709206328.254,-42.480,-63.965,-36.621,-41.504,0.000
1709206328.258,-36.133,-47.852,-40.527,-43.457,0.000
1709206328.262,-28.809,-53.223,-44.434,-35.156,0.000
1709206328.266,-26.367,-63.477,-39.551,-20.508,0.000
1709206328.270,-34.668,-34.668,-41.992,-25.391,0.000
1709206328.274,-25.391,-33.203,-42.969,-25.879,0.000
1709206328.277,-29.785,-47.852,-41.992,-27.344,0.000
1709206328.281,-50.293,-54.199,-42.480,-37.109,0.000
1709206328.285,-40.527,-39.062,-40.527,-45.410,0.000
1709206328.289,-36.621,-41.504,-40.039,-45.410,0.000
1709206328.293,-37.109,-50.781,-38.086,-35.156,0.000
1709206328.297,-39.551,-41.504,-40.527,-31.738,0.000
1709206328.301,-46.387,-47.852,-40.039,-40.527,0.000
1709206328.305,-53.223,-49.805,-36.621,-53.223,0.000
1709206328.309,-52.734,-62.988,-41.504,-34.180,0.000
1709206328.313,-47.363,-49.316,-41.504,-20.508,0.000
1709206328.316,-38.574,-15.137,-37.598,-32.227,0.000
1709206328.320,-35.645,-31.738,-37.598,-39.062,0.000
1709206328.324,-37.109,-47.363,-40.527,-45.898,0.000
1709206328.328,-34.668,-43.945,-43.945,-45.898,0.000
1709206328.332,-37.598,-40.039,-39.551,-35.645,0.000
1709206328.336,-31.250,-43.945,-37.598,-30.762,0.000
1709206328.340,-23.438,-44.922,-41.016,-33.691,0.000
1709206328.344,-42.480,-45.410,-41.016,-42.480,0.000
1709206328.348,-49.316,-46.387,-35.645,-41.992,0.000
1709206328.352,-44.434,-50.781,-36.621,-46.387,0.000
1709206328.356,-52.734,-55.176,-42.480,-52.246,0.000
1709206328.359,-54.199,-31.250,-44.434,-52.734,0.000
1709206328.363,-51.270,-47.363,-43.945,-57.617,0.000
1709206328.367,-60.547,-63.965,-44.922,-60.547,0.000
1709206328.371,-64.453,-49.316,-46.875,-63.477,0.000
1709206328.375,-48.340,-39.062,-43.457,-55.176,0.000
1709206328.379,-38.086,-46.875,-42.969,-47.363,0.000
1709206328.383,-38.086,-58.105,-41.016,-48.340,0.000
1709206328.387,-41.016,-47.363,-40.527,-45.410,0.000
1709206328.391,-49.805,-48.340,-41.504,-39.551,0.000
1709206328.395,-42.480,-61.035,-34.180,-49.316,0.000
1709206328.398,-28.320,-69.336,-30.762,-49.316,0.000
1709206328.402,-47.363,-55.664,-34.668,-45.898,0.000
1709206328.406,-57.617,-26.367,-40.039,-57.129,0.000
1709206328.410,-43.457,-41.016,-40.527,-56.152,0.000
1709206328.414,-43.945,-46.387,-42.969,-52.246,0.000
1709206328.418,-43.457,-30.762,-43.945,-45.410,0.000
1709206328.422,-42.480,-38.086,-43.457,-41.992,0.000
1709206328.426,-54.199,-54.688,-46.387,-49.316,0.000
1709206328.430,-53.223,-57.617,-39.062,-44.922,0.000
1709206328.434,-44.922,-45.898,-30.273,-33.691,0.000
1709206328.437,-43.457,-43.945,-32.715,-32.715,0.000
1709206328.441,-43.945,-61.035,-34.180,-29.785,0.000
1709206328.445,-37.109,-68.848,-32.227,-26.855,0.000
1709206328.449,-48.828,-39.551,-33.203,-30.273,0.000
1709206328.453,-49.805,-37.598,-33.203,-37.109,0.000
1709206328.457,-40.039,-60.547,-37.598,-34.668,0.000
1709206328.461,-41.016,-49.316,-39.062,-31.738,0.000
1709206328.465,-38.086,-31.738,-35.156,-35.156,0.000
1709206328.469,-41.016,-41.992,-35.156,-37.598,0.000
1709206328.473,-46.387,-50.293,-37.598,-39.551,0.000
1709206328.476,-38.086,-43.945,-39.062,-37.598,0.000
1709206328.480,-36.621,-39.551,-38.086,-47.852,0.000
1709206328.484,-37.598,-46.387,-33.691,-48.828,0.000
1709206328.488,-39.062,-58.105,-30.762,-38.574,0.000
1709206328.492,-48.340,-49.316,-32.227,-35.645,0.000
1709206328.496,-44.922,-36.133,-36.133,-34.668,0.000
1709206328.500,-37.598,-48.340,-37.598,-32.227,0.000
1709206328.504,-33.691,-75.684,-36.621,-34.180,0.000
1709206328.508,-40.527,-62.012,-35.156,-36.133,0.000
1709206328.512,-44.922,-48.828,-38.086,-35.156,0.000
1709206328.516,-30.273,-53.711,-37.109,-28.809,0.000
1709206328.519,-24.414,-47.852,-35.645,-29.297,0.000
1709206328.523,-18.066,-44.922,-38.086,-33.203,0.000
1709206328.527,-12.695,-40.039,-32.227,-25.391,0.000
1709206328.531,-16.602,-50.781,-28.320,-23.926,0.000
1709206328.535,-17.578,-68.359,-27.344,-29.297,0.000
1709206328.539,-18.555,-43.457,-25.879,-30.762,0.000
1709206328.543,-19.531,-28.809,-29.297,-36.133,0.000
1709206328.547,-27.344,-59.082,-33.203,-38.574,0.000
1709206328.551,-29.785,-68.359,-32.715,-27.344,0.000
1709206328.555,-25.879,-36.621,-37.598,-32.715,0.000
1709206328.558,-28.809,-37.109,-40.527,-45.898,0.000
1709206328.562,-34.180,-49.805,-35.645,-56.641,0.000
1709206328.566,-43.945,-53.223,-33.691,-58.105,0.000
1709206328.570,-56.641,-54.199,-34.668,-57.617,0.000
1709206328.574,-54.688,-53.711,-32.715,-54.199,0.000
1709206328.578,-45.898,-56.152,-29.297,-48.340,0.000
1709206328.582,-35.645,-57.617,-29.785,-41.504,0.000
1709206328.586,-34.180,-49.316,-29.785,-44.922,0.000
1709206328.590,-36.133,-43.945,-24.902,-41.504,0.000
1709206328.594,-38.574,-75.195,-24.902,-24.414,0.000
1709206328.598,-40.527,-59.082,-35.156,-22.949,0.000
1709206328.601,-38.574,-20.020,-33.691,-37.598,0.000
1709206328.605,-48.828,-39.551,-32.715,-50.781,0.000
1709206328.609,-62.988,-59.082,-38.574,-53.711,0.000
1709206328.613,-62.012,-48.340,-37.109,-47.852,0.000
1709206328.617,-51.270,-38.086,-36.621,-44.922,0.000
1709206328.621,-35.156,-49.805,-36.621,-46.875,0.000
1709206328.625,-44.434,-54.688,-37.109,-42.480,0.000
1709206328.629,-55.176,-49.316,-37.109,-31.738,0.000
1709206328.633,-38.574,-40.527,-34.180,-26.367,0.000
1709206328.637,-26.367,-49.316,-33.203,-20.020,0.000
1709206328.641,-25.391,-62.500,-32.227,-14.648,0.000
1709206328.644,-26.367,-36.621,-32.227,-16.602,0.000
1709206328.648,-26.367,-34.180,-34.668,-19.531,0.000
1709206328.652,-22.461,-40.039,-33.203,-14.648,0.000
1709206328.656,-13.184,-37.109,-32.227,-20.020,0.000
1709206328.660,-11.719,-27.344,-35.645,-35.156,0.000
1709206328.664,-22.461,-35.645,-37.109,-37.109,0.000
1709206328.668,-30.762,-47.363,-37.598,-30.762,0.000
1709206328.672,-31.250,-45.410,-41.016,-19.043,0.000
1709206328.676,-13.672,-50.781,-41.992,-21.484,0.000
1709206328.680,-15.137,-41.992,-41.992,-26.855,0.000
1709206328.684,-36.133,-61.035,-34.180,-17.090,0.000
1709206328.687,-37.598,-59.082,-32.227,-19.531,0.000
1709206328.691,-30.273,-25.391,-37.598,-34.180,0.000
1709206328.695,-23.438,-34.668,-33.691,-36.133,0.000
1709206328.699,-23.926,-45.410,-29.785,-40.039,0.000
1709206328.703,-32.715,-39.062,-30.273,-44.922,0.000
1709206328.707,-47.363,-41.016,-36.133,-44.922,0.000
1709206328.711,-56.152,-56.641,-42.480,-47.363,0.000
1709206328.715,-46.875,-47.852,-41.992,-45.410,0.000
1709206328.719,-42.480,-39.551,-38.574,-44.434,0.000
1709206328.723,-52.734,-53.711,-35.645,-49.316,0.000
1709206328.726,-52.246,-62.012,-38.086,-48.828,0.000
1709206328.730,-60.059,-60.547,-42.480,-42.969,0.000
1709206328.734,-60.547,-33.691,-41.504,-49.805,0.000
1709206328.738,-54.199,-45.410,-42.969,-55.664,0.000
1709206328.742,-57.617,-63.477,-43.945,-53.711,0.000
1709206328.746,-61.523,-47.363,-40.527,-52.734,0.000
1709206328.750,-57.617,-37.598,-42.480,-40.039,0.000
1709206328.754,-54.688,-50.781,-46.387,-44.922,0.000
1709206328.758,-45.410,-62.988,-42.480,-53.711,0.000
1709206328.762,-37.598,-53.711,-43.945,-41.016,0.000
1709206328.765,-40.527,-57.617,-44.434,-31.250,0.000
1709206328.769,-44.922,-73.730,-40.039,-36.621,0.000
1709206328.773,-39.062,-85.938,-43.457,-37.109,0.000
1709206328.777,-18.555,-55.664,-43.945,-25.879,0.000
1709206328.781,-23.438,-21.973,-41.504,-32.715,0.000
1709206328.785,-38.086,-45.898,-39.062,-44.434,0.000
1709206328.789,-39.551,-53.223,-33.691,-44.922,0.000
1709206328.793,-33.691,-35.645,-27.344,-37.598,0.000
1709206328.797,-25.391,-40.039,-30.762,-39.062,0.000
1709206328.801,-33.691,-49.316,-29.297,-43.457,0.000
1709206328.804,-33.691,-45.410,-29.297,-41.016,0.000
1709206328.808,-29.785,-43.457,-36.133,-38.574,0.000
1709206328.812,-35.645,-42.480,-35.156,-40.039,0.000
1709206328.816,-34.668,-55.176,-30.273,-43.457,0.000
1709206328.820,-33.203,-51.758,-31.250,-49.316,0.000
1709206328.824,-30.273,-23.926,-34.180,-46.875,0.000
1709206328.828,-33.203,-38.574,-32.227,-41.992,0.000
1709206328.832,-41.992,-64.941,-37.598,-46.387,0.000
1709206328.836,-41.016,-53.223,-40.039,-41.016,0.000
1709206328.840,-43.945,-31.738,-34.668,-43.457,0.000
1709206328.843,-33.691,-39.062,-32.715,-45.410,0.000
1709206328.847,-38.086,-52.734,-36.621,-42.969,0.000
1709206328.851,-51.758,-55.664,-32.715,-39.551,0.000
1709206328.855,-41.504,-43.945,-25.879,-38.574,0.000
1709206328.859,-40.527,-31.738,-27.344,-44.922,0.000
1709206328.863,-40.527,-48.828,-25.879,-39.062,0.000
1709206328.867,-49.316,-53.711,-32.227,-34.668,0.000
1709206328.871,-52.734,-39.062,-35.156,-33.691,0.000
1709206328.875,-52.246,-42.969,-33.691,-30.273,0.000
1709206328.879,-47.852,-63.965,-29.785,-28.809,0.000
1709206328.883,-46.387,-54.688,-27.832,-39.551,0.000
1709206328.886,-48.828,-45.410,-34.668,-49.316,0.000
1709206328.890,-48.828,-62.500,-37.109,-45.410,0.000
1709206328.894,-57.617,-62.012,-37.109,-48.340,0.000
1709206328.898,-58.594,-57.617,-39.551,-51.758,0.000
1709206328.902,-61.523,-50.781,-40.527,-53.223,0.000
1709206328.906,-60.547,-58.594,-42.480,-53.711,0.000
1709206328.910,-48.340,-70.801,-41.504,-41.992,0.000
1709206328.914,-48.340,-55.176,-42.480,-38.574,0.000
1709206328.918,-43.945,-38.574,-38.086,-43.457,0.000
1709206328.922,-38.574,-53.711,-33.691,-35.645,0.000
1709206328.926,-39.551,-74.707,-38.086,-29.297,0.000
1709206328.929,-36.621,-42.969,-37.598,-29.785,0.000
1709206328.933,-31.738,-36.133,-37.109,-28.320,0.000
1709206328.937,-24.414,-46.387,-39.551,-31.250,0.000
1709206328.941,-16.113,-39.551,-39.062,-39.062,0.000
1709206328.945,-2.441,-37.598,-36.133,-40.527,0.000
1709206328.949,-7.324,-39.062,-33.203,-27.832,0.000
1709206328.953,-11.719,-44.434,-33.203,-21.484,0.000
1709206328.957,-9.277,-50.781,-35.645,-31.738,0.000
1709206328.961,-15.625,-38.086,-37.598,-31.250,0.000
1709206328.965,-20.996,-31.250,-42.480,-34.180,0.000
1709206328.969,-28.809,-64.941,-48.828,-38.086,0.000
1709206328.972,-33.203,-56.152,-45.410,-29.297,0.000
1709206328.976,-33.691,-20.020,-39.062,-33.691,0.000
1709206328.980,-31.738,-33.203,-40.527,-31.738,0.000
1709206328.984,-31.738,-50.293,-42.480,-23.926,0.000
1709206328.988,-42.480,-44.922,-42.480,-34.180,0.000
1709206328.992,-47.852,-37.109,-44.922,-52.734,0.000
1709206328.996,-43.457,-51.270,-42.969,-47.852,0.000
1709206329.000,-42.480,-54.688,-39.551,-38.086,0.000
1709206329.004,-40.527,-50.293,-39.062,-40.039,0.000
1709206329.008,-30.762,-57.617,-37.598,-47.363,0.000
1709206329.012,-43.945,-68.848,-39.551,-43.945,0.000
1709206329.015,-66.895,-74.219,-41.504,-39.551,0.000
1709206329.019,-61.035,-50.781,-37.109,-38.574,0.000
1709206329.023,-51.758,-50.781,-37.109,-42.969,0.000
1709206329.027,-56.641,-67.383,-40.039,-46.387,0.000
1709206329.031,-55.176,-60.547,-39.551,-35.156,0.000
1709206329.035,-49.316,-46.387,-41.016,-30.762,0.000
1709206329.039,-41.504,-49.805,-38.574,-30.762,0.000
1709206329.043,-35.156,-54.199,-35.645,-25.391,0.000
1709206329.047,-37.598,-53.711,-37.109,-22.461,0.000
1709206329.051,-41.016,-67.871,-37.598,-27.832,0.000
1709206329.054,-38.574,-59.570,-30.273,-29.297,0.000
1709206329.058,-41.504,-71.289,-29.297,-26.367,0.000
1709206329.062,-31.250,-58.105,-35.156,-23.926,0.000
1709206329.066,-29.297,-23.438,-31.250,-28.320,0.000
1709206329.070,-43.945,-43.457,-31.250,-28.809,0.000
1709206329.074,-35.156,-50.781,-36.621,-26.367,0.000
1709206329.078,0.000,-31.250,-36.133,-28.320,0.000
1709206329.082,0.000,-33.203,-30.762,-27.832,0.000
1709206329.086,0.000,-53.223,-28.320,-34.668,0.000
1709206329.090,0.000,-51.270,-34.668,-44.922,0.000
1709206329.094,0.000,-43.945,-41.016,-46.387,0.000
1709206329.097,0.000,-49.805,-43.945,-51.270,0.000
1709206329.101,0.000,-56.152,-44.922,-55.176,0.000
1709206329.105,0.000,-57.617,-42.480,-42.480,0.000
1709206329.109,0.000,-36.621,-44.922,-46.875,0.000
1709206329.113,0.000,-41.504,-46.875,-64.453,0.000
1709206329.117,0.000,-53.711,-45.410,-58.105,0.000
1709206329.121,0.000,-41.504,-47.363,-49.805,0.000
1709206329.125,-51.758,-36.621,-47.852,-59.570,0.000
1709206329.129,-49.316,-43.945,-45.898,-60.547,0.000
1709206329.133,-55.176,-55.176,-48.340,-52.246,0.000
1709206329.136,-58.594,-55.176,-43.945,-49.316,0.000
1709206329.140,-51.270,-54.688,-42.969,-41.992,0.000
1709206329.144,-48.828,-55.664,-49.316,-46.387,0.000
1709206329.148,-42.969,-74.219,-38.574,-31.738,0.000
1709206329.152,-26.855,-60.059,-32.227,-14.160,0.000
1709206329.156,-29.297,-25.391,-34.668,-28.320,0.000
1709206329.160,-38.086,-47.852,-29.297,-36.133,0.000
1709206329.164,-40.039,-60.059,-33.691,-43.945,0.000
1709206329.168,-47.363,-52.246,-43.945,-49.805,0.000
1709206329.172,-47.363,-47.363,-42.969,-43.457,0.000
1709206329.175,-42.480,-57.129,-42.480,-46.875,0.000
1709206329.179,-35.156,-56.641,-42.969,-53.711,0.000
1709206329.183,-30.273,-44.922,-37.598,-46.387,0.000
1709206329.187,-29.785,-50.781,-32.715,-40.039,0.000
1709206329.191,-29.785,-62.500,-29.785,-36.621,0.000
1709206329.195,-23.438,-63.477,-25.391,-19.531,0.000
1709206329.199,-11.230,-33.203,-27.832,-23.438,0.000
1709206329.203,-20.020,-21.973,-31.250,-38.574,0.000
1709206329.207,-33.203,-44.922,-35.156,-37.109,0.000
1709206329.211,-24.902,-47.363,-33.691,-35.156,0.000
1709206329.215,-23.926,-29.297,-28.320,-30.273,0.000
1709206329.218,-20.508,-30.762,-38.574,-31.250,0.000
1709206329.222,-11.230,-43.457,-40.039,-37.109,0.000
1709206329.226,-39.062,-40.527,-39.062,-45.898,0.000
1709206329.230,-52.734,-37.598,-40.527,-55.664,0.000
1709206329.234,-44.922,-43.457,-36.621,-51.270,0.000
1709206329.238,-45.410,-54.688,-37.598,-50.293,0.000
1709206329.242,-48.340,-48.828,-39.062,-56.641,0.000
1709206329.246,-61.035,-35.645,-40.527,-61.035,0.000
1709206329.250,-63.477,-43.945,-41.016,-62.500,0.000
1709206329.254,-50.781,-59.570,-41.504,-52.246,0.000
1709206329.257,-55.176,-40.527,-40.039,-50.781,0.000
1709206329.261,-65.918,-23.438,-35.156,-54.688,0.000
1709206329.265,-65.918,-48.340,-31.250,-54.199,0.000
1709206329.269,-69.336,-60.059,-28.809,-65.918,0.000
1709206329.273,-66.895,-50.781,-32.227,-75.195,0.000
1709206329.277,-62.988,-45.410,-32.227,-65.918,0.000
1709206329.281,-59.570,-61.035,-24.902,-60.059,0.000
1709206329.285,-56.152,-75.684,-25.391,-60.547,0.000
1709206329.289,-56.641,-52.734,-26.855,-48.828,0.000
1709206329.293,-43.945,-38.574,-25.391,-46.875,0.000
1709206329.297,-41.992,-62.500,-23.438,-43.457,0.000
1709206329.300,-57.617,-78.613,-22.949,-27.832,0.000
1709206329.304,-59.082,-51.270,-27.832,-33.691,0.000
1709206329.308,-52.246,-43.945,-27.344,-31.250,0.000
1709206329.312,-43.457,-56.641,-30.273,-27.344,0.000
1709206329.316,-33.691,-46.875,-32.715,-33.203,0.000
1709206329.320,-22.461,-44.922,-34.180,-30.273,0.000
1709206329.324,-26.855,-56.641,-39.062,-32.227,0.000
1709206329.328,-39.062,-59.082,-39.062,-26.367,0.000
1709206329.332,-30.762,-57.129,-42.969,-19.043,0.000
1709206329.336,-24.414,-46.875,-38.574,-22.461,0.000
1709206329.340,-26.367,-41.992,-32.227,-25.879,0.000
1709206329.343,-22.949,-77.148,-35.156,-26.367,0.000
1709206329.347,-22.949,-59.570,-30.273,-26.367,0.000
1709206329.351,-43.945,-27.832,-31.250,-29.785,0.000
1709206329.355,-41.016,-55.176,-38.574,-25.391,0.000
1709206329.359,-36.133,-63.965,-36.621,-25.879,0.000
1709206329.363,-47.363,-58.105,-40.527,-36.621,0.000
1709206329.367,-42.969,-55.176,-43.457,-47.363,0.000
1709206329.371,-46.387,-56.152,-39.551,-54.199,0.000
1709206329.375,-46.875,-52.246,-37.109,-45.898,0.000
1709206329.379,-40.527,-57.129,-39.062,-40.527,0.000
1709206329.383,-45.898,-61.035,-42.480,-45.898,0.000
1709206329.386,-48.828,-63.477,-40.039,-42.969,0.000
1709206329.390,-51.270,-66.895,-44.434,-44.922,0.000
1709206329.394,-39.551,-47.363,-45.410,-60.059,0.000
1709206329.398,-50.781,-41.016,-45.898,-60.059,0.000
1709206329.402,-67.383,-31.738,-45.410,-52.246,0.000
1709206329.406,-53.223,-28.320,-36.133,-45.898,0.000
1709206329.410,-41.504,-27.344,-36.133,-35.645,0.000
1709206329.414,-36.621,-33.691,-38.574,-36.621,0.000
1709206329.418,-41.504,-46.387,-38.086,-59.570,0.000
1709206329.422,-38.574,-42.969,-36.133,-68.848,0.000
1709206329.425,-40.527,-45.898,-37.598,-57.129,0.000
1709206329.429,-51.270,-44.434,-34.180,-56.152,0.000
1709206329.433,-41.016,-60.547,-33.203,-42.969,0.000
1709206329.437,-38.574,-52.734,-42.969,-40.527,0.000
1709206329.441,-51.270,-23.438,-45.410,-55.664,0.000
1709206329.445,-47.363,-42.969,-41.992,-47.363,0.000
1709206329.449,-40.039,-51.758,-37.598,-34.668,0.000
1709206329.453,-42.480,-44.434,-35.156,-31.250,0.000
1709206329.457,-45.410,-44.922,-35.645,-29.785,0.000
1709206329.461,-48.340,-59.082,-37.109,-33.203,0.000
1709206329.465,-49.805,-63.477,-37.598,-30.762,0.000
1709206329.468,-45.898,-52.734,-39.551,-32.715,0.000
1709206329.472,-46.875,-58.105,-39.551,-32.227,0.000
1709206329.476,-43.457,-64.453,-37.109,-26.367,0.000
1709206329.480,-30.762,-62.500,-37.598,-18.555,0.000
1709206329.484,-38.086,-34.668,-37.109,-24.414,0.000
1709206329.488,-50.293,-41.992,-33.691,-33.203,0.000
1709206329.492,-46.387,-56.152,-31.738,-28.809,0.000
1709206329.496,-45.410,-39.551,-29.785,-27.344,0.000
1709206329.500,-43.457,-29.297,-28.320,-31.738,0.000
1709206329.504,-41.016,-35.645,-32.227,-32.715,0.000
1709206329.507,-38.574,-54.199,-33.691,-35.156,0.000
1709206329.511,-44.922,-46.875,-34.180,-37.598,0.000
1709206329.515,-42.480,-41.992,-34.668,-26.367,0.000
1709206329.519,-37.598,-45.898,-34.180,-30.762,0.000
1709206329.523,-44.434,-65.430,-36.133,-38.574,0.000
1709206329.527,-38.086,-57.617,-46.387,-34.180,0.000
1709206329.531,-34.668,-28.809,-48.828,-33.203,0.000
1709206329.535,-44.434,-40.039,-41.016,-27.832,0.000
1709206329.539,-43.457,-51.758,-37.598,-32.227,0.000
1709206329.543,-40.039,-44.434,-36.133,-38.574,0.000
1709206329.546,-45.410,-35.156,-40.039,-45.410,0.000
1709206329.550,-48.340,-48.340,-39.551,-41.992,0.000
1709206329.554,-45.410,-55.176,-37.109,-33.691,0.000
1709206329.558,-39.062,-43.945,-41.504,-34.668,0.000
1709206329.562,-28.320,-42.969,-42.480,-42.969,0.000
1709206329.566,-36.621,-69.336,-40.039,-53.223,0.000
1709206329.570,-43.457,-71.777,-41.016,-41.992,0.000
1709206329.574,-39.551,-28.320,-40.039,-36.133,0.000
1709206329.578,-35.156,-28.320,-37.109,-42.480,0.000
1709206329.582,-22.949,-58.105,-37.598,-47.363,0.000
1709206329.586,-40.039,-51.270,-37.598,-47.852,0.000
1709206329.589,-53.711,-39.551,-37.109,-42.480,0.000
1709206329.593,-42.480,-43.945,-40.039,-35.645,0.000
1709206329.597,-47.852,-52.734,-38.086,-36.621,0.000
1709206329.601,-48.340,-45.898,-34.668,-37.109,0.000
1709206329.605,-55.176,-39.062,-36.621,-35.645,0.000
1709206329.609,-57.617,-43.457,-33.203,-29.297,0.000
1709206329.613,-47.852,-58.594,-31.738,-25.879,0.000
1709206329.617,-42.480,-59.082,-36.621,-40.527,0.000
1709206329.621,-42.969,-44.434,-38.574,-58.105,0.000
1709206329.625,-45.898,-50.293,-43.945,-59.082,0.000
1709206329.629,-51.758,-73.242,-41.992,-50.293,0.000
1709206329.632,-46.875,-55.176,-39.551,-45.898,0.000
1709206329.636,-36.621,-28.320,-37.109,-44.434,0.000
1709206329.640,0.000,-49.805,-33.203,-40.527,0.000
1709206329.644,0.000,-58.594,-40.039,-41.504,0.000
1709206329.648,0.000,-48.340,-42.969,-49.805,0.000
1709206329.652,0.000,-49.316,-37.109,-54.199,0.000
1709206329.656,0.000,-58.105,-36.621,-44.434,0.000
1709206329.660,0.000,-63.477,-39.551,-44.922,0.000
1709206329.664,0.000,-46.387,-40.039,-46.387,0.000
1709206329.668,0.000,-35.156,-36.133,-40.527,0.000
1709206329.672,0.000,-63.477,-37.109,-33.691,0.000
1709206329.675,0.000,-74.219,-43.945,-25.879,0.000
1709206329.679,0.000,-40.527,-42.480,-31.250,0.000
1709206329.683,0.000,-35.156,-38.086,-31.250,0.000
1709206329.687,-35.645,-59.082,-37.109,-29.297,0.000
1709206329.691,-37.109,-51.270,-38.574,-25.879,0.000
1709206329.695,-34.668,-38.574,-38.574,-27.832,0.000
1709206329.699,-32.227,-47.852,-39.062,-40.527,0.000
1709206329.703,-26.855,-52.246,-39.551,-34.668,0.000
1709206329.707,-34.180,-55.176,-35.645,-23.926,0.000
1709206329.711,-24.414,-43.945,-34.180,-28.809,0.000
1709206329.715,-15.625,-37.109,-39.551,-34.668,0.000
1709206329.718,-27.832,-58.105,-38.086,-23.438,0.000
1709206329.722,-37.598,-49.805,-36.133,-31.250,0.000
1709206329.726,-35.645,-26.367,-37.109,-42.969,0.000
1709206329.730,-30.273,-43.457,-38.086,-30.273,0.000
1709206329.734,-33.203,-48.340,-42.480,-26.367,0.000
1709206329.738,-32.715,-34.668,-42.969,-26.367,0.000
1709206329.742,-28.809,-36.621,-36.133,-38.574,0.000
1709206329.746,-37.598,-49.316,-35.156,-47.363,0.000
1709206329.750,-41.992,-55.176,-32.715,-36.133,0.000
1709206329.754,-32.715,-54.688,-30.762,-30.762,0.000
1709206329.757,-33.691,-43.457,-42.969,-38.086,0.000
1709206329.761,-25.879,-47.852,-43.945,-34.668,0.000
1709206329.765,-27.344,-63.477,-42.969,-26.855,0.000
1709206329.769,-28.320,-44.434,-50.293,-29.785,0.000
1709206329.773,-11.719,-45.898,-46.387,-38.574,0.000
1709206329.777,-23.926,-53.223,-39.551,-47.363,0.000
1709206329.781,-37.598,-41.504,-34.668,-47.852,0.000
1709206329.785,-36.133,-34.668,-32.227,-41.016,0.000
1709206329.789,-34.668,-35.645,-31.738,-30.273,0.000
1709206329.793,-35.156,-41.016,-28.320,-21.484,0.000
1709206329.797,-28.809,-43.945,-28.809,-26.367,0.000
1709206329.800,-20.508,-49.316,-30.762,-34.180,0.000
1709206329.804,-27.832,-46.387,-30.273,-38.574,0.000
1709206329.808,-31.738,-63.965,-32.227,-31.738,0.000
1709206329.812,-37.109,-56.641,-34.180,-25.879,0.000
1709206329.816,-44.922,-22.949,-33.691,-35.156,0.000
1709206329.820,-41.992,-40.527,-36.133,-39.062,0.000
1709206329.824,-18.066,-53.223,-32.715,-31.738,0.000
1709206329.828,-18.066,-44.434,-29.785,-35.156,0.000
1709206329.832,-44.434,-41.992,-31.250,-48.340,0.000
1709206329.836,-37.598,-49.805,-33.203,-47.852,0.000
1709206329.839,-28.809,-50.293,-34.180,-40.527,0.000
1709206329.843,-28.809,-38.574,-33.691,-37.598,0.000
1709206329.847,-40.039,-50.781,-34.668,-51.758,0.000
1709206329.851,-43.945,-62.012,-34.668,-52.734,0.000
1709206329.855,-34.668,-50.293,-31.250,-34.668,0.000
1709206329.859,-42.480,-19.531,-33.691,-48.340,0.000
1709206329.863,-48.828,-30.273,-39.062,-61.523,0.000
1709206329.867,-50.781,-47.852,-40.527,-51.758,0.000
1709206329.871,-58.105,-38.574,-41.016,-50.781,0.000
1709206329.875,-47.363,-31.250,-42.969,-52.246,0.000
1709206329.879,-44.434,-35.645,-39.062,-46.875,0.000
1709206329.882,-58.105,-55.664,-40.039,-40.039,0.000
1709206329.886,-58.594,-50.781,-43.457,-47.363,0.000
1709206329.890,-57.617,-38.574,-41.504,-62.500,0.000
1709206329.894,-49.805,-44.922,-44.434,-62.988,0.000
1709206329.898,-46.875,-62.500,-44.922,-46.875,0.000
1709206329.902,-50.293,-51.758,-42.969,-46.387,0.000
1709206329.906,-46.387,-24.902,-45.898,-56.152,0.000
1709206329.910,-38.086,-39.551,-43.457,-42.969,0.000
1709206329.914,-40.039,-42.480,-37.598,-36.133,0.000
1709206329.918,-44.922,-41.016,-40.039,-39.062,0.000
1709206329.921,-45.898,-46.875,-43.945,-41.504,0.000
1709206329.925,-45.410,-56.641,-42.480,-41.992,0.000
1709206329.929,-40.527,-56.641,-39.062,-40.527,0.000
1709206329.933,-27.344,-39.551,-42.480,-44.434,0.000
1709206329.937,-27.832,-41.504,-41.992,-45.898,0.000
1709206329.941,-43.945,-66.895,-35.156,-44.434,0.000
1709206329.945,-52.246,-83.984,-34.668,-38.574,0.000
1709206329.949,-53.223,-41.504,-38.086,-36.133,0.000
1709206329.953,-44.434,-32.715,-33.691,-37.598,0.000
1709206329.957,-40.527,-59.570,-31.738,-35.645,0.000
1709206329.961,-37.598,-45.410,-36.621,-39.062,0.000
1709206329.964,-37.598,-40.039,-34.180,-39.062,0.000
1709206329.968,-44.434,-46.875,-31.250,-38.086,0.000
1709206329.972,-41.992,-56.641,-33.691,-34.180,0.000
1709206329.976,-38.086,-53.711,-39.551,-30.273,0.000
1709206329.980,-37.109,-41.992,-41.992,-36.133,0.000
1709206329.984,-30.273,-47.852,-38.086,-38.574,0.000
1709206329.988,-21.484,-67.383,-36.621,-24.902,0.000
1709206329.992,-32.227,-50.293,-40.039,-20.020,0.000
1709206329.996,-36.621,-28.320,-38.574,-27.344,0.000
1709206330.000,-29.785,-38.574,-33.203,-27.344,0.000
1709206330.004,-33.203,-44.434,-30.273,-29.297,0.000
1709206330.007,-25.879,-40.039,-37.109,-35.645,0.000
1709206330.011,-29.785,-33.691,-41.504,-44.922,0.000
1709206330.015,-31.250,-35.645,-36.133,-45.410,0.000
1709206330.019,-33.203,-48.340,-35.156,-47.363,0.000
1709206330.023,-42.480,-49.805,-37.109,-55.176,0.000
1709206330.027,-35.645,-45.898,-36.621,-48.828,0.000
1709206330.031,-24.414,-57.617,-35.156,-44.922,0.000
1709206330.035,-37.109,-69.824,-36.133,-45.410,0.000
1709206330.039,-39.551,-52.734,-36.133,-40.527,0.000
1709206330.043,-28.320,-35.645,-39.551,-42.969,0.000
1709206330.047,-35.156,-66.895,-42.969,-55.664,0.000
1709206330.050,-36.133,-82.031,-36.133,-41.992,0.000
1709206330.054,-30.762,-46.387,-33.691,-28.809,0.000
1709206330.058,-30.762,-39.062,-40.527,-41.016,0.000
1709206330.062,-30.762,-54.688,-38.086,-43.457,0.000
1709206330.066,-24.414,-57.617,-35.156,-29.785,0.000
1709206330.070,-27.832,-52.734,-39.062,-28.320,0.000
1709206330.074,-29.297,-57.617,-39.062,-30.273,0.000
1709206330.078,-27.832,-65.918,-38.086,-26.855,0.000
1709206330.082,-37.598,-70.312,-44.434,-34.180,0.000
1709206330.086,-25.879,-54.688,-47.852,-37.109,0.000
1709206330.090,-18.066,-39.062,-44.922,-30.762,0.000
1709206330.093,-46.875,-70.801,-40.039,-23.438,0.000
1709206330.097,-48.828,-64.453,-41.016,-22.949,0.000
1709206330.101,-32.227,-32.227,-38.086,-43.945,0.000
1709206330.105,-31.738,-49.316,-35.156,-48.828,0.000
1709206330.109,-38.574,-62.988,0.000,-36.621,0.000
1709206330.113,-33.691,-54.688,0.000,-31.250,0.000
1709206330.117,-25.879,-44.922,0.000,-30.273,0.000
1709206330.121,-26.855,-55.176,0.000,-35.156,0.000
1709206330.125,-33.203,-61.523,0.000,-36.621,0.000
1709206330.129,-38.574,-59.082,0.000,-29.785,0.000
1709206330.132,-34.180,-48.828,0.000,-33.203,0.000
1709206330.136,-18.066,-55.664,0.000,-31.250,0.000
1709206330.140,-29.785,-69.824,0.000,-25.391,0.000
1709206330.144,-44.922,-51.758,0.000,-34.668,0.000
1709206330.148,-41.504,-45.898,0.000,-35.156,0.000
1709206330.152,-42.480,-54.688,0.000,-26.367,0.000
1709206330.156,0.000,-51.270,-38.086,-30.273,0.000
1709206330.160,0.000,-39.551,-34.180,-41.016,0.000
1709206330.164,0.000,-52.246,-31.738,-37.598,0.000
1709206330.168,0.000,-63.477,-33.691,-36.133,0.000
1709206330.172,0.000,-56.641,-43.457,-42.480,0.000
1709206330.175,0.000,-55.664,-38.086,-33.691,0.000
1709206330.179,0.000,-55.664,-29.785,-34.180,0.000
1709206330.183,0.000,-67.383,-36.133,-28.320,0.000
1709206330.187,0.000,-53.223,-37.598,-22.949,0.000
1709206330.191,0.000,-22.949,-36.133,-29.297,0.000
1709206330.195,0.000,-36.621,-36.621,-27.344,0.000
1709206330.199,0.000,-40.527,-35.645,-20.020,0.000
1709206330.203,-42.480,-35.156,-36.133,-23.926,0.000
1709206330.207,-40.039,-34.180,-34.180,-33.203,0.000
1709206330.211,-37.109,-46.875,-30.273,-34.180,0.000
1709206330.215,-35.156,-49.316,-32.227,-44.434,0.000
1709206330.218,-38.086,-40.039,-34.668,-46.875,0.000
1709206330.222,-46.875,-53.223,-35.645,-48.828,0.000
1709206330.226,-46.387,-64.453,-37.109,-51.270,0.000
1709206330.230,-51.270,-67.871,-37.109,-44.922,0.000
1709206330.234,-58.594,-39.062,-37.598,-47.363,0.000
1709206330.238,-55.176,-39.062,-36.621,-54.688,0.000
1709206330.242,-46.387,-58.105,-36.621,-56.152,0.000
1709206330.246,-53.223,-50.293,-41.504,-56.641,0.000
1709206330.250,-49.316,-38.574,-45.898,-55.176,0.000
1709206330.254,-39.062,-39.551,-43.457,-46.875,0.000
1709206330.257,-51.270,-55.664,-40.039,-38.574,0.000
1709206330.261,-52.246,-57.129,-42.480,-47.852,0.000
1709206330.265,-41.992,-53.223,-43.945,-54.688,0.000
1709206330.269,-50.781,-60.547,-47.363,-66.895,0.000
1709206330.273,-56.641,-78.125,-44.922,-57.129,0.000
1709206330.277,-46.387,-60.547,-51.270,-51.270,0.000
1709206330.281,-52.246,-29.297,-50.293,-68.848,0.000
1709206330.285,-52.246,-47.852,-42.480,-57.617,0.000
1709206330.289,-48.828,-43.457,-43.945,-49.316,0.000
1709206330.293,-49.805,-31.250,-45.410,-41.992,0.000
1709206330.296,-33.691,-34.180,-43.457,-41.992,0.000
1709206330.300,-34.180,-46.387,-35.156,-44.434,0.000
1709206330.304,-51.758,-58.105,-33.203,-37.109,0.000
1709206330.308,-52.246,-50.293,-35.156,-40.527,0.000
1709206330.312,-48.828,-48.828,-34.668,-39.062,0.000
1709206330.316,-40.039,-62.500,-29.785,-27.832,0.000
1709206330.320,-33.691,-69.336,-28.320,-22.461,0.000
1709206330.324,-34.180,-33.691,-30.273,-24.902,0.000
1709206330.328,-36.133,-25.879,-31.738,-26.367,0.000
1709206330.332,-35.645,-55.176,-39.062,-33.203,0.000
1709206330.336,-31.738,-49.805,-41.992,-38.086,0.000
1709206330.339,-37.109,-39.062,-36.133,-35.156,0.000
1709206330.343,-34.668,-42.480,-32.227,-41.016,0.000
1709206330.347,-29.785,-49.316,-31.738,-38.574,0.000
1709206330.351,-41.992,-52.246,-29.297,-32.227,0.000
1709206330.355,-42.969,-38.086,-34.180,-39.551,0.000
1709206330.359,-41.504,-39.062,-34.180,-47.852,0.000
1709206330.363,-44.922,-70.312,-28.320,-41.992,0.000
1709206330.367,-51.758,-68.359,-32.227,-39.551,0.000
1709206330.371,-57.129,-42.480,-41.016,-46.387,0.000
1709206330.375,-57.617,-54.688,-43.945,-52.734,0.000
1709206330.378,-56.152,-67.383,-42.480,-48.340,0.000
1709206330.382,-41.016,-51.270,-41.992,-46.875,0.000
1709206330.386,-46.387,-36.133,-39.062,-51.758,0.000
1709206330.390,-64.941,-47.852,-40.039,-44.922,0.000
1709206330.394,-46.387,-50.781,-40.039,-35.645,0.000
1709206330.398,-37.109,-47.852,-37.109,-31.250,0.000
1709206330.402,-45.410,-40.527,-36.621,-30.762,0.000
1709206330.406,-42.969,-47.852,-34.180,-30.762,0.000
1709206330.410,-38.574,-64.941,-30.273,-41.016,0.000
1709206330.414,-44.434,-50.781,-36.621,-56.641,0.000
1709206330.418,-36.621,-39.551,-42.969,-54.199,0.000
1709206330.421,-21.973,-58.105,-39.062,-41.504,0.000
1709206330.425,-31.738,-75.684,-40.039,-34.668,0.000
1709206330.429,-44.434,-48.340,-41.016,-37.109,0.000
1709206330.433,-34.180,-38.574,-36.133,-37.109,0.000
1709206330.437,-30.273,-47.852,-35.645,-33.691,0.000
1709206330.441,-38.574,-44.922,-39.062,-29.785,0.000
1709206330.445,-44.434,-41.504,-38.574,-32.715,0.000
1709206330.449,-45.898,-50.293,-39.551,-31.250,0.000
1709206330.453,-39.062,-62.988,-41.504,-40.039,0.000
1709206330.457,-37.109,-61.523,-37.598,-59.570,0.000
1709206330.461,-46.875,-62.012,-41.016,-59.082,0.000
1709206330.464,-44.434,-57.617,-49.805,-54.199,0.000
1709206330.468,-48.828,-74.219,-45.898,-41.992,0.000
1709206330.472,-56.152,-65.430,-38.086,-41.992,0.000
1709206330.476,-47.363,-31.738,-37.109,-50.293,0.000
1709206330.480,-46.875,-46.875,-33.691,-46.387,0.000
1709206330.484,-50.781,-55.176,-29.297,-38.574,0.000
1709206330.488,-44.434,-49.316,-33.691,-36.621,0.000
1709206330.492,-41.504,-49.316,-30.762,-37.598,0.000
1709206330.496,-41.504,-56.152,-27.832,-31.250,0.000
1709206330.500,-29.785,-54.199,-26.367,-28.320,0.000
1709206330.503,-27.832,-52.246,-29.297,-31.738,0.000
1709206330.507,-40.527,-45.898,-37.598,-34.668,0.000
1709206330.511,-37.109,-47.363,-33.203,-32.715,0.000
1709206330.515,-31.250,-54.199,-30.762,-19.531,0.000
1709206330.519,-32.715,-35.645,-37.598,-23.926,0.000
1709206330.523,-36.621,-35.645,-37.109,-38.086,0.000
1709206330.527,-40.039,-54.688,-35.645,-38.086,0.000
1709206330.531,-29.297,-57.129,-35.645,-33.691,0.000
1709206330.535,-33.691,-48.340,-34.180,-29.785,0.000
1709206330.539,-48.828,-53.711,-36.133,-28.320,0.000
1709206330.543,-45.410,-57.129,-33.203,-41.016,0.000
1709206330.546,-51.270,-57.617,-32.227,-49.316,0.000
1709206330.550,-49.805,-55.664,-37.109,-51.758,0.000
1709206330.554,-47.363,-48.828,-40.527,-57.617,0.000
1709206330.558,-46.875,-70.801,-39.551,-44.434,0.000
1709206330.562,-44.922,-65.918,-38.086,-48.828,0.000
1709206330.566,-47.852,-30.762,-38.574,-62.988,0.000
1709206330.570,-48.828,-47.852,-43.945,-62.012,0.000
1709206330.574,-39.551,-54.688,-49.805,-64.453,0.000
1709206330.578,-43.945,-36.133,-42.969,-57.129,0.000
1709206330.582,-45.410,-32.715,-41.504,-55.176,0.000
1709206330.585,-38.574,-44.922,-40.039,-54.199,0.000
1709206330.589,-37.598,-47.363,-34.668,-47.852,0.000
1709206330.593,-40.527,-42.969,-43.945,-41.016,0.000
1709206330.597,-39.551,-49.805,-41.992,-35.156,0.000
1709206330.601,-33.203,-55.664,-35.645,-30.273,0.000
1709206330.605,-31.250,-57.617,-37.109,-20.020,0.000
1709206330.609,-33.203,-28.320,-41.504,-34.180,0.000
1709206330.613,-27.832,-34.180,-42.969,-50.781,0.000
1709206330.617,-31.250,-48.340,-40.039,-37.598,0.000
1709206330.621,-25.879,-34.180,-39.062,-29.785,0.000
1709206330.625,-14.648,-32.227,-38.086,-34.668,0.000
1709206330.628,-27.832,-44.434,-34.668,-30.762,0.000
1709206330.632,-32.227,-43.945,-37.598,-27.832,0.000
1709206330.636,-26.855,-27.832,-36.133,-27.832,0.000
1709206330.640,-25.879,-37.109,-34.180,-28.320,0.000
1709206330.644,-34.668,-57.617,-35.156,-31.250,0.000
1709206330.648,-40.527,-80.566,-36.133,-26.367,0.000
1709206330.652,-43.457,-74.219,-37.109,-33.691,0.000
1709206330.656,-47.852,-33.203,-35.156,-48.828,0.000
1709206330.660,-46.875,-43.945,-35.645,-53.711,0.000
1709206330.664,-42.969,-54.688,-33.691,-58.594,0.000
1709206330.667,-38.574,-41.016,-32.715,-54.199,0.000
1709206330.671,-38.574,-38.086,-36.133,-52.734,0.000
1709206330.675,-34.180,-49.805,-35.645,-48.828,0.000
1709206330.679,-40.039,-47.852,-35.156,-41.504,0.000
1709206330.683,-46.387,-44.922,-32.715,-42.480,0.000
1709206330.687,-49.316,-47.363,-35.645,-45.898,0.000
1709206330.691,-50.781,-52.734,-36.621,-49.316,0.000
1709206330.695,-47.852,-61.035,-35.156,-46.387,0.000
1709206330.699,-51.758,-35.156,-41.016,-51.758,0.000
1709206330.703,-43.945,-35.156,-37.598,-56.152,0.000
1709206330.706,-41.504,-62.012,-37.109,-56.152,0.000
1709206330.710,-54.199,-56.641,-39.551,-55.176,0.000
1709206330.714,-49.316,-43.457,-36.133,-42.969,0.000
1709206330.718,-35.156,-48.828,-36.621,-40.527,0.000
1709206330.722,-35.156,-57.617,-35.645,-41.504,0.000
1709206330.726,-41.992,-51.758,-33.691,-32.227,0.000
1709206330.730,-37.109,-38.574,-31.738,-23.438,0.000
1709206330.734,-21.973,-41.992,-36.133,-24.902,0.000
1709206330.738,-30.273,-61.523,-37.598,-32.227,0.000
1709206330.742,-34.668,-61.035,-34.668,-32.715,0.000
1709206330.746,-21.484,-41.992,-32.715,-31.738,0.000
1709206330.749,-27.344,-37.598,-34.668,-31.250,0.000
1709206330.753,-26.367,-61.523,-42.480,-21.973,0.000
1709206330.757,-20.996,-53.223,-43.457,-18.066,0.000
1709206330.761,-25.879,-31.250,-44.922,-26.367,0.000
1709206330.765,-24.414,-45.898,-43.457,-29.297,0.000
1709206330.769,-24.414,-52.734,-41.016,-23.926,0.000
1709206330.773,-29.297,-44.434,-41.504,-17.578,0.000
1709206330.777,-32.715,-41.992,-38.574,-20.508,0.000
1709206330.781,-26.855,-47.363,-34.668,-22.461,0.000
1709206330.785,-31.250,-64.941,-32.715,-27.832,0.000
1709206330.789,-29.785,-52.246,-33.691,-31.250,0.000
1709206330.792,-19.043,-33.203,-37.598,-30.762,0.000
1709206330.796,-25.391,-55.176,-35.156,-32.227,0.000
1709206330.800,-26.367,-67.383,-37.109,-33.691,0.000
1709206330.804,-29.785,-41.504,-36.621,-37.109,0.000
1709206330.808,-34.180,-33.691,-32.715,-36.621,0.000
1709206330.812,-39.062,-49.316,-34.180,-35.156,0.000
1709206330.816,-42.480,-48.828,-35.645,-39.551,0.000
1709206330.820,-37.598,-40.039,-39.551,-44.922,0.000
1709206330.824,-41.504,-50.781,-43.457,-48.340,0.000
1709206330.828,-46.387,-64.941,-44.434,-51.758,0.000
1709206330.831,-45.410,-63.477,-41.992,-46.387,0.000
1709206330.835,-44.922,-49.316,-39.551,-44.434,0.000
1709206330.839,-39.551,-47.852,-40.039,-53.223,0.000
1709206330.843,-38.086,-79.590,-38.086,-41.504,0.000
1709206330.847,-46.387,-66.406,-41.992,-33.203,0.000
1709206330.851,-37.109,-31.738,-45.898,-40.039,0.000
1709206330.855,-26.855,-52.734,-47.363,-49.805,0.000
1709206330.859,-36.621,-55.176,-46.875,-49.316,0.000
1709206330.863,-42.480,-37.598,-44.922,-36.133,0.000
1709206330.867,-42.969,-37.109,-45.410,-34.668,0.000
1709206330.871,-50.781,-50.293,-46.387,-40.527,0.000
1709206330.875,-45.898,-52.734,-49.316,-40.039,0.000
1709206330.878,-34.668,-52.246,-48.340,-35.156,0.000
1709206330.882,-36.133,-46.387,-43.457,-34.180,0.000
1709206330.886,-37.109,-50.781,-41.016,-39.551,0.000
1709206330.890,-36.133,-62.012,-34.668,-40.527,0.000
1709206330.894,-34.180,-35.645,-34.180,-35.156,0.000
1709206330.898,-28.320,-30.762,-38.086,-26.855,0.000
1709206330.902,-31.250,-40.527,-34.668,-28.809,0.000
1709206330.906,-34.668,-41.016,-30.273,-36.133,0.000
1709206330.910,-26.855,-34.180,-30.273,-32.715,0.000
1709206330.914,-34.668,-46.387,-30.273,-29.297,0.000
1709206330.917,-43.457,-48.340,-31.250,-31.738,0.000
1709206330.921,-45.898,-40.527,-29.785,-32.227,0.000
1709206330.925,-43.457,-53.223,-28.809,-30.762,0.000
1709206330.929,-40.527,-55.176,-35.645,-43.457,0.000
1709206330.933,-49.316,-66.895,-38.574,-43.945,0.000
1709206330.937,-51.758,-55.176,-39.062,-41.992,0.000
1709206330.941,-46.387,-25.391,-38.574,-57.129,0.000
1709206330.945,-50.781,-47.852,-35.156,-60.059,0.000
1709206330.949,-52.246,-55.664,-29.297,-53.711,0.000
1709206330.953,-45.410,-42.480,-30.273,-41.504,0.000
1709206330.957,-45.410,-41.504,-41.016,-44.434,0.000
1709206330.960,-40.527,-49.805,-39.551,-52.734,0.000
1709206330.964,-43.945,-48.828,-35.645,-51.758,0.000
1709206330.968,-42.969,-41.992,-32.227,-42.969,0.000
1709206330.972,-32.227,-45.410,-30.762,-40.527,0.000
1709206330.976,-35.645,-52.734,-32.227,-35.645,0.000
1709206330.980,-40.039,-53.223,-28.320,-30.762,0.000
1709206330.984,-42.969,-27.344,-26.855,-41.504,0.000
1709206330.988,-49.316,-35.156,-28.320,-46.387,0.000
1709206330.992,-46.875,-46.875,-31.250,-36.621,0.000
1709206330.996,-41.992,-35.645,-37.109,-33.691,0.000
1709206330.999,-41.992,-36.133,-35.645,-42.969,0.000
1709206331.003,-42.969,-44.922,-30.762,-33.691,0.000
1709206331.007,-42.969,-48.340,-28.320,-26.855,0.000
1709206331.011,-29.785,-37.598,-30.273,-28.320,0.000
1709206331.015,-31.250,-42.969,-33.203,-28.320,0.000
1709206331.019,-58.105,-62.012,-36.133,-40.527,0.000
1709206331.023,-50.781,-78.125,-37.598,-34.668,0.000
1709206331.027,-41.504,-67.383,-33.203,-18.066,0.000
1709206331.031,-43.457,-30.273,-39.062,-22.461,0.000
1709206331.035,-38.574,-37.598,-41.504,-37.109,0.000
1709206331.038,-32.715,-51.270,-35.156,-46.387,0.000
1709206331.042,-34.180,-41.992,-34.668,-39.062,0.000
1709206331.046,-38.574,-36.133,-38.086,-30.273,0.000
1709206331.050,-35.156,-45.898,-39.551,-27.344,0.000
1709206331.054,-29.297,-43.457,-35.645,-22.461,0.000
1709206331.058,-31.738,-28.809,-33.203,-24.902,0.000
1709206331.062,-31.738,-41.504,-31.738,-37.598,0.000
1709206331.066,-23.926,-62.500,-34.668,-44.922,0.000
1709206331.070,-31.250,-64.941,-39.551,-41.504,0.000
1709206331.074,-42.969,-37.109,-42.969,-50.293,0.000
1709206331.078,-30.273,-29.297,-42.969,-52.734,0.000
1709206331.081,-18.066,-52.246,-37.109,-36.133,0.000
1709206331.085,-31.250,-59.082,-38.086,-37.109,0.000
1709206331.089,-39.551,-36.133,-42.480,-39.551,0.000
1709206331.093,-30.762,-27.832,-41.504,-39.551,0.000
1709206331.097,-33.203,-47.363,-41.016,-46.387,0.000
1709206331.101,-36.133,-45.898,-41.992,-52.246,0.000
1709206331.105,-38.574,-33.203,-40.039,-46.387,0.000
1709206331.109,-39.551,-45.898,-35.156,-38.086,0.000
1709206331.113,-41.504,-63.965,-40.039,-34.180,0.000
1709206331.117,-32.227,-54.688,-41.016,-30.762,0.000
1709206331.120,-27.344,-32.715,-41.016,-29.785,0.000
1709206331.124,-41.504,-34.668,-43.945,-31.250,0.000
1709206331.128,-37.598,-59.570,-39.062,-31.738,0.000
1709206331.132,-34.180,-53.223,-39.062,-33.203,0.000
1709206331.136,-33.203,-35.645,-44.434,-36.621,0.000
1709206331.140,-32.227,-46.387,-48.828,-38.574,0.000
1709206331.144,-39.062,-51.758,-46.387,-38.574,0.000
1709206331.148,-44.922,-47.852,-35.645,-36.621,0.000
1709206331.152,-41.504,-40.039,-36.133,-40.039,0.000
1709206331.156,-38.574,-51.270,-42.969,-45.898,0.000
1709206331.160,-39.551,-67.871,-41.992,-55.176,0.000
1709206331.163,-37.598,-49.805,-36.133,-54.199,0.000
1709206331.167,-37.109,-34.668,-38.086,-51.758,0.000
1709206331.171,-30.762,-53.223,-43.457,-49.805,0.000
1709206331.175,-37.109,-69.336,-43.457,-41.504,0.000
1709206331.179,-47.363,-42.480,-41.016,-44.434,0.000
1709206331.183,-42.969,-35.156,-40.039,-42.480,0.000
1709206331.187,0.000,-60.547,0.000,-31.738,0.000
1709206331.191,0.000,-62.988,0.000,-39.062,0.000
1709206331.195,0.000,-48.340,0.000,-42.969,0.000
1709206331.199,0.000,-56.641,0.000,-34.180,0.000
1709206331.203,0.000,-66.406,0.000,-32.715,0.000
1709206331.206,0.000,-57.617,0.000,-26.855,0.000
1709206331.210,0.000,-44.434,0.000,-15.137,0.000
1709206331.214,0.000,-36.133,0.000,-21.484,0.000
1709206331.218,0.000,-66.895,0.000,-27.344,0.000
1709206331.222,0.000,-65.430,0.000,-25.391,0.000
1709206331.226,0.000,-33.691,0.000,-34.668,0.000
1709206331.230,0.000,-54.688,0.000,-28.320,0.000
1709206331.233,-37.598,-60.547,-40.039,-28.320,0.000
1709206331.237,-32.227,-48.828,-41.016,-41.016,0.000
1709206331.241,-35.645,-47.363,-39.551,-41.992,0.000
1709206331.245,-36.133,-55.664,-33.691,-37.598,0.000
1709206331.249,-27.832,-62.500,-33.203,-27.344,0.000
1709206331.253,-29.785,-53.223,-32.227,-18.066,0.000
1709206331.257,-36.133,-42.480,-33.203,-29.297,0.000
1709206331.261,-26.367,-50.781,-38.086,-40.039,0.000
1709206331.265,-24.414,-52.246,-37.109,-30.762,0.000
1709206331.269,-51.758,-41.504,-34.668,-34.180,0.000
1709206331.273,-56.152,-44.922,-40.039,-48.340,0.000
1709206331.276,-45.898,-48.340,-41.504,-42.480,0.000
1709206331.280,-24.902,-43.945,-43.457,-46.387,0.000
1709206331.284,-31.250,-35.645,-44.922,-67.383,0.000
1709206331.288,-49.805,-39.551,-38.086,-67.871,0.000
1709206331.292,-49.316,-47.852,-33.203,-57.617,0.000
1709206331.296,-48.828,-49.805,-31.738,-60.547,0.000
1709206331.300,-43.945,-50.293,-30.273,-62.012,0.000
1709206331.304,-41.992,-48.828,-33.203,-57.617,0.000
1709206331.308,-43.945,-65.918,-34.180,-44.922,0.000
1709206331.312,-42.969,-61.523,-33.691,-33.203,0.000
1709206331.316,-34.180,-27.344,-35.156,-40.527,0.000
1709206331.319,-33.691,-34.180,-33.691,-41.504,0.000
1709206331.323,-38.086,-46.387,-37.109,-36.133,0.000
1709206331.327,-44.434,-40.039,-43.457,-29.785,0.000
1709206331.331,-37.109,-41.992,-37.598,-31.738,0.000
1709206331.335,-34.668,-53.223,-34.668,-41.504,0.000
1709206331.339,-55.664,-53.711,-37.109,-37.598,0.000
1709206331.343,-55.664,-45.410,-33.691,-32.227,0.000
1709206331.347,-49.805,-51.270,-30.762,-34.668,0.000
1709206331.351,-41.016,-60.547,-27.832,-27.344,0.000
1709206331.355,-40.039,-68.359,-24.414,-9.766,0.000
1709206331.358,-44.434,-38.086,-24.902,-22.461,0.000
1709206331.362,-40.527,-36.621,-22.461,-25.879,0.000
1709206331.366,-37.109,-61.523,-23.926,-22.949,0.000
1709206331.370,-38.574,-51.270,-28.320,-33.203,0.000
1709206331.374,-41.992,-32.715,-33.691,-32.715,0.000
1709206331.378,-25.391,-32.227,-31.738,-31.738,0.000
1709206331.382,-23.438,-42.480,-29.297,-42.480,0.000
1709206331.386,-29.785,-41.016,-31.738,-42.480,0.000
1709206331.390,-20.020,-41.016,-32.227,-37.598,0.000
1709206331.394,-14.648,-47.363,-32.715,-34.180,0.000
1709206331.397,-15.625,-63.477,-33.691,-15.625,0.000
1709206331.401,-16.602,-55.664,-37.598,-19.531,0.000
1709206331.405,-22.461,-23.926,-39.062,-40.039,0.000
1709206331.409,-30.762,-34.668,-37.109,-41.016,0.000
1709206331.413,-30.762,-43.945,-36.133,-36.621,0.000
1709206331.417,-28.320,-31.738,-36.621,-29.785,0.000
1709206331.421,-23.438,-31.738,-36.133,-32.227,0.000
1709206331.425,-28.320,-46.387,-36.133,-38.574,0.000
1709206331.429,-39.062,-57.129,-40.039,-41.504,0.000
1709206331.433,-40.527,-49.805,-39.551,-41.016,0.000
1709206331.437,-35.156,-48.340,-36.133,-37.109,0.000
1709206331.440,-24.902,-66.406,-36.621,-37.598,0.000
1709206331.444,-44.434,-76.172,-37.598,-32.715,0.000
1709206331.448,-56.641,-42.480,-35.645,-33.691,0.000
1709206331.452,-50.781,-32.227,-36.621,-38.086,0.000
1709206331.456,-52.246,-57.617,-38.574,-35.156,0.000
1709206331.460,-56.152,-50.781,-42.480,-42.480,0.000
1709206331.464,-59.082,-41.992,-41.504,-41.992,0.000
1709206331.468,-57.129,-51.758,-43.945,-41.992,0.000
1709206331.472,-49.805,-55.176,-47.363,-40.527,0.000
1709206331.476,-39.551,-47.363,-45.410,-30.762,0.000
1709206331.480,-43.945,-42.969,-46.875,-38.086,0.000
1709206331.483,-51.758,-53.711,-46.387,-51.758,0.000
1709206331.487,-42.480,-60.547,-44.922,-45.410,0.000
1709206331.491,-39.062,-52.734,-44.922,-40.039,0.000
1709206331.495,-40.527,-33.691,-48.828,-36.133,0.000
1709206331.499,-35.156,-31.738,-41.016,-38.574,0.000
1709206331.503,-36.621,-57.617,-33.203,-37.109,0.000
1709206331.507,-39.551,-41.016,-39.551,-32.715,0.000
1709206331.511,-44.922,-20.996,-45.410,-39.062,0.000
