timestamps,TP9,AF7,AF8,TP10,Right AUX
1709206028.967,-27.832,-33.691,-27.832,-24.902,0.000
1709206028.971,-19.531,-29.785,-27.344,-28.320,0.000
1709206028.975,-20.020,-35.645,-28.809,-29.785,0.000
1709206028.979,-23.438,-39.062,-34.180,-37.598,0.000
1709206028.983,-34.180,-40.039,-37.109,-33.691,0.000
1709206028.987,-36.133,-40.039,-35.645,-19.531,0.000
1709206028.991,-32.227,-32.227,-41.016,-17.090,0.000
1709206028.995,-41.504,-36.621,-45.898,-24.414,0.000
1709206028.999,-48.828,-50.293,-39.551,-12.695,0.000
1709206029.003,-45.898,-44.434,-38.086,-24.414,0.000
1709206029.006,-47.363,-40.527,-40.527,-37.109,0.000
1709206029.010,-52.246,-50.781,-42.969,-37.598,0.000
1709206029.014,-45.898,-51.758,-38.574,-41.992,0.000
1709206029.018,-34.668,-45.410,-32.227,-35.645,0.000
1709206029.022,-45.898,-49.805,-35.645,-35.645,0.000
1709206029.026,-65.918,-59.570,-40.039,-35.645,0.000
1709206029.030,-54.199,-58.594,-38.086,-35.156,0.000
1709206029.034,-38.574,-55.176,-30.273,-47.852,0.000
1709206029.038,-45.898,-52.246,-32.715,-62.988,0.000
1709206029.042,-54.199,-63.477,-38.086,-48.828,0.000
1709206029.046,-56.152,-64.941,-35.645,-36.621,0.000
1709206029.049,-51.758,-45.898,-33.203,-45.410,0.000
1709206029.053,-48.340,-47.852,-34.180,-48.828,0.000
1709206029.057,-53.223,-50.781,-38.086,-52.246,0.000
1709206029.061,-57.129,-47.852,-38.086,-42.480,0.000
1709206029.065,-56.641,-49.316,-32.715,-31.250,0.000
1709206029.069,-58.105,-51.270,-35.156,-37.598,0.000
1709206029.073,-53.711,-55.176,-40.527,-42.969,0.000
1709206029.077,-51.758,-59.082,-39.062,-43.945,0.000
1709206029.081,-61.035,-59.082,-39.062,-37.598,0.000
1709206029.085,-52.734,-52.734,-39.062,-27.344,0.000
1709206029.089,-42.480,-49.805,-30.762,-23.438,0.000
1709206029.092,-56.641,-42.969,-31.250,-37.109,0.000
1709206029.096,-49.805,-38.574,-33.203,-41.992,0.000
1709206029.100,-48.828,-52.246,-32.227,-31.250,0.000
1709206029.104,-59.082,-49.316,-31.738,-25.879,0.000
1709206029.108,-41.016,-36.621,-34.180,-31.250,0.000
1709206029.112,-39.551,-41.016,-37.598,-32.715,0.000
1709206029.116,-47.852,-46.875,-38.574,-36.621,0.000
1709206029.120,-48.340,-44.922,-44.434,-41.504,0.000
1709206029.124,-44.922,-38.574,-45.410,-43.945,0.000
1709206029.128,-34.668,-36.621,-44.434,-45.898,0.000
1709206029.132,-33.203,-48.340,-44.434,-31.250,0.000
1709206029.135,-39.062,-43.457,-46.387,-26.855,0.000
1709206029.139,-41.504,-26.367,-40.039,-37.598,0.000
1709206029.143,-35.156,-31.250,-38.086,-41.016,0.000
1709206029.147,-31.250,-39.551,-42.480,-50.293,0.000
1709206029.151,-31.250,-40.527,-44.434,-45.410,0.000
1709206029.155,-27.344,-40.039,-40.039,-46.387,0.000
1709206029.159,-24.902,-49.316,-35.645,-42.969,0.000
1709206029.163,-19.531,-50.781,-36.621,-31.250,0.000
1709206029.167,-25.391,-40.039,-38.086,-33.691,0.000
1709206029.171,-26.855,-36.621,-41.504,-29.785,0.000
1709206029.174,-28.320,-45.410,-37.598,-36.621,0.000
1709206029.178,-31.250,-44.922,-32.715,-36.133,0.000
1709206029.182,-37.598,-30.273,-34.668,-23.926,0.000
1709206029.186,-41.992,-32.715,-35.156,-19.531,0.000
1709206029.190,-31.738,-41.992,-35.156,-28.320,0.000
1709206029.194,-25.879,-36.133,-34.180,-49.805,0.000
1709206029.198,-32.227,-34.668,-29.785,-49.316,0.000
1709206029.202,-42.480,-49.316,-28.809,-41.016,0.000
1709206029.206,-36.621,-47.363,-35.645,-38.574,0.000
1709206029.210,-40.039,-38.086,-35.156,-36.621,0.000
1709206029.214,-56.152,-41.992,-36.133,-42.969,0.000
1709206029.217,-58.594,-41.016,-36.133,-46.387,0.000
1709206029.221,-58.105,-53.223,-29.785,-35.156,0.000
1709206029.225,-56.641,-52.246,-30.273,-41.504,0.000
1709206029.229,-55.664,-32.227,-33.203,-57.129,0.000
1709206029.233,-48.828,-33.203,-32.715,-51.758,0.000
1709206029.237,-54.199,-44.922,-35.645,-46.875,0.000
1709206029.241,-59.082,-45.898,-35.156,-46.875,0.000
1709206029.245,-51.270,-42.969,-32.227,-45.410,0.000
1709206029.249,-47.852,-44.434,-33.203,-40.527,0.000
1709206029.253,-45.410,-42.480,-31.250,-32.715,0.000
1709206029.257,-44.922,-38.086,-38.086,-35.156,0.000
1709206029.260,-47.852,-41.504,-40.039,-38.086,0.000
1709206029.264,-52.246,-46.387,-39.551,-40.039,0.000
1709206029.268,-48.828,-51.270,-44.922,-39.551,0.000
1709206029.272,-41.992,-44.434,-43.945,-48.828,0.000
1709206029.276,-43.945,-36.621,-44.434,-57.129,0.000
1709206029.280,-54.199,-54.688,-41.504,-50.293,0.000
1709206029.284,-59.082,-61.523,-39.062,-38.086,0.000
1709206029.288,-56.152,-39.062,-38.574,-37.109,0.000
1709206029.292,-51.758,-37.109,-38.574,-46.875,0.000
1709206029.296,-57.129,-52.246,-38.574,-59.082,0.000
1709206029.300,-61.523,-52.734,-37.598,-54.688,0.000
1709206029.303,-60.059,-44.434,-38.086,-53.223,0.000
1709206029.307,-53.711,-42.480,-36.133,-61.035,0.000
1709206029.311,-38.086,-46.875,-32.715,-61.523,0.000
1709206029.315,-48.828,-49.316,-38.086,-69.824,0.000
1709206029.319,-67.871,-46.875,-41.992,-64.453,0.000
1709206029.323,-61.035,-41.504,-46.387,-61.035,0.000
1709206029.327,-48.828,-42.480,-43.945,-52.734,0.000
1709206029.331,-49.316,-35.156,-38.086,-39.062,0.000
1709206029.335,-51.758,-26.367,-43.945,-46.387,0.000
1709206029.339,-48.828,-39.062,-43.945,-45.410,0.000
1709206029.342,-51.270,-44.434,-35.645,-39.551,0.000
1709206029.346,-44.922,-35.645,-38.574,-40.039,0.000
1709206029.350,-32.715,-35.645,-41.504,-39.551,0.000
1709206029.354,-32.227,-40.527,-31.738,-32.227,0.000
1709206029.358,-34.180,-42.969,-27.344,-32.715,0.000
1709206029.362,-30.762,-41.504,-23.926,-28.320,0.000
1709206029.366,-26.367,-35.645,-24.414,-25.879,0.000
1709206029.370,-25.391,-35.645,-27.344,-42.480,0.000
1709206029.374,-24.414,-46.387,-26.855,-43.457,0.000
1709206029.378,-37.598,-41.016,-29.785,-36.621,0.000
1709206029.382,-48.340,-36.133,-31.250,-33.691,0.000
1709206029.385,-44.922,-39.062,-30.273,-26.367,0.000
1709206029.389,-42.480,-33.203,-30.273,-23.926,0.000
1709206029.393,-39.062,-28.809,-29.785,-27.344,0.000
1709206029.397,-40.039,-34.180,-30.273,-27.832,0.000
1709206029.401,-40.039,-40.527,-32.227,-21.484,0.000
1709206029.405,-30.273,-39.062,-33.203,-32.227,0.000
1709206029.409,-26.367,-38.574,-32.227,-33.203,0.000
1709206029.413,-36.133,-33.691,-34.668,-28.320,0.000
1709206029.417,-42.480,-43.945,-32.715,-25.879,0.000
1709206029.421,-34.668,-48.828,-32.227,-27.344,0.000
1709206029.425,-38.574,-33.691,-35.645,-47.363,0.000
1709206029.428,-47.852,-38.574,-34.180,-51.270,0.000
1709206029.432,-41.504,-49.316,-35.156,-46.875,0.000
1709206029.436,-41.504,-45.410,-35.645,-42.969,0.000
1709206029.440,-43.457,-36.621,-35.645,-35.645,0.000
1709206029.444,-38.086,-43.945,-36.621,-31.738,0.000
1709206029.448,-42.480,-54.688,-40.039,-32.227,0.000
1709206029.452,-44.434,-50.781,-37.598,-37.109,0.000
1709206029.456,-37.109,-49.316,-30.762,-41.016,0.000
1709206029.460,-45.410,-58.594,-31.250,-36.133,0.000
1709206029.464,-48.828,-58.594,-32.227,-33.203,0.000
1709206029.467,-39.062,-53.223,-36.621,-33.691,0.000
1709206029.471,-39.551,-51.758,-41.504,-33.691,0.000
1709206029.475,-41.016,-57.617,-36.621,-31.738,0.000
1709206029.479,-39.062,-67.383,-34.668,-29.785,0.000
1709206029.483,-45.410,-47.852,-37.598,-41.992,0.000
1709206029.487,-42.969,-41.016,-39.062,-46.387,0.000
1709206029.491,-38.574,-51.270,-42.969,-42.969,0.000
1709206029.495,-37.109,-49.316,-41.992,-42.480,0.000
1709206029.499,-38.086,-44.922,-36.621,-43.457,0.000
1709206029.503,-38.574,-44.922,-34.668,-45.410,0.000
1709206029.507,-36.133,-59.082,-32.227,-30.762,0.000
1709206029.510,-49.805,-56.641,-33.691,-23.926,0.000
1709206029.514,-44.434,-36.133,-37.598,-41.504,0.000
1709206029.518,-39.551,-43.457,-35.156,-47.363,0.000
1709206029.522,-45.898,-47.363,-33.691,-40.527,0.000
1709206029.526,-48.340,-47.852,-39.551,-38.574,0.000
1709206029.530,-45.898,-45.410,-38.086,-39.062,0.000
1709206029.534,-56.641,-41.504,-35.156,-35.645,0.000
1709206029.538,-58.105,-42.480,-41.504,-52.246,0.000
1709206029.542,-52.246,-44.922,-45.410,-67.383,0.000
1709206029.546,-58.594,-52.734,-45.410,-56.641,0.000
1709206029.550,-53.223,-58.105,-45.898,-48.828,0.000
1709206029.553,-44.922,-56.641,-44.434,-41.016,0.000
1709206029.557,-39.551,-37.598,-39.062,-30.273,0.000
1709206029.561,-33.691,-31.738,-46.875,-27.344,0.000
1709206029.565,-25.391,-48.828,-46.875,-21.484,0.000
1709206029.569,-30.762,-54.199,-35.645,-30.762,0.000
1709206029.573,-41.992,-52.734,-33.691,-47.363,0.000
1709206029.577,-33.691,-61.523,-30.762,-43.457,0.000
1709206029.581,-32.715,-74.219,-28.809,-35.645,0.000
1709206029.585,-46.387,-80.078,-22.949,-27.344,0.000
1709206029.589,-43.945,-79.102,-16.113,-34.668,0.000
1709206029.592,-43.945,-78.125,-13.184,-40.039,0.000
1709206029.596,-55.664,-103.027,-15.625,-30.762,0.000
1709206029.600,-62.988,-114.746,-14.160,-28.320,0.000
1709206029.604,-66.406,-108.887,-11.719,-36.621,0.000
1709206029.608,-66.895,-121.582,-16.113,-43.945,0.000
1709206029.612,-65.430,-130.859,-20.508,-37.109,0.000
1709206029.616,-70.801,-131.348,-15.625,-33.203,0.000
1709206029.620,-75.195,-133.301,-11.719,-40.527,0.000
1709206029.624,-78.613,-141.602,-11.719,-47.852,0.000
1709206029.628,-72.754,-138.672,-8.789,-43.945,0.000
1709206029.632,-72.266,-132.324,-8.789,-38.086,0.000
1709206029.635,-75.195,-132.812,-10.254,-32.715,0.000
1709206029.639,-83.008,-142.578,-8.789,-19.531,0.000
1709206029.643,-99.121,-156.738,-14.648,-19.043,0.000
1709206029.647,-80.566,-151.855,-22.461,-29.785,0.000
1709206029.651,-69.824,-150.879,-22.461,-35.156,0.000
1709206029.655,-91.309,-162.598,-15.625,-31.738,0.000
1709206029.659,-88.867,-160.645,-18.555,-30.273,0.000
1709206029.663,-82.031,-145.020,-19.043,-34.668,0.000
1709206029.667,-86.914,-146.484,-20.996,-33.203,0.000
1709206029.671,-85.938,-150.879,-22.949,-27.344,0.000
1709206029.675,-86.914,-141.113,-23.438,-39.551,0.000
1709206029.678,-88.379,-140.137,-23.926,-48.340,0.000
1709206029.682,-91.309,-144.531,-14.648,-41.016,0.000
1709206029.686,-84.473,-144.531,-21.484,-39.062,0.000
1709206029.690,-78.125,-147.949,-29.785,-45.410,0.000
1709206029.694,-84.473,-135.742,-22.461,-45.410,0.000
1709206029.698,-93.262,-125.977,-19.043,-53.223,0.000
1709206029.702,-77.148,-139.160,-17.578,-45.410,0.000
1709206029.706,-66.406,-135.742,-21.484,-43.457,0.000
1709206029.710,-63.965,-116.699,-22.949,-53.223,0.000
1709206029.714,-51.270,-117.188,-15.625,-39.062,0.000
1709206029.718,-57.617,-117.676,-18.555,-25.879,0.000
1709206029.721,-61.523,-111.816,-27.344,-26.855,0.000
1709206029.725,-52.734,-110.352,-32.227,-37.109,0.000
1709206029.729,-50.293,-109.863,-33.203,-29.297,0.000
1709206029.733,-51.758,-106.934,-33.691,-40.527,0.000
1709206029.737,-50.293,-105.957,-30.273,-38.574,0.000
1709206029.741,-53.711,-101.074,-27.832,-26.367,0.000
1709206029.745,-48.828,-96.680,-30.273,-20.020,0.000
1709206029.749,-36.133,-104.004,-32.715,-16.602,0.000
1709206029.753,-36.621,-90.820,-33.691,-23.926,0.000
1709206029.757,-39.551,-77.148,-35.645,-13.672,0.000
1709206029.760,-43.945,-84.473,-37.598,-7.812,0.000
1709206029.764,-41.992,-87.402,-37.109,-15.137,0.000
1709206029.768,-26.855,-74.219,-34.180,-14.160,0.000
1709206029.772,-20.508,-69.336,-33.203,-9.277,0.000
1709206029.776,-35.156,-77.148,-39.062,-7.324,0.000
1709206029.780,-32.227,-78.125,-40.039,-12.207,0.000
1709206029.784,-32.227,-76.660,-37.598,-12.207,0.000
1709206029.788,-41.504,-69.824,-41.504,-3.906,0.000
1709206029.792,-34.180,-73.730,-41.992,-14.160,0.000
1709206029.796,-30.762,-68.848,-41.016,-24.414,0.000
1709206029.800,-26.367,-47.363,-45.898,-35.156,0.000
1709206029.803,-27.344,-49.316,-44.922,-35.645,0.000
1709206029.807,-22.461,-53.711,-43.945,-29.297,0.000
1709206029.811,-24.414,-54.199,-48.340,-25.879,0.000
1709206029.815,-21.973,-46.875,-52.734,-35.156,0.000
1709206029.819,-21.973,-48.340,-53.711,-47.852,0.000
1709206029.823,-25.879,-50.293,-50.293,-46.875,0.000
1709206029.827,-30.762,-50.781,-44.434,-40.527,0.000
1709206029.831,-36.133,-54.688,-43.457,-42.969,0.000
1709206029.835,-35.156,-58.105,-50.293,-44.434,0.000
1709206029.839,-38.574,-67.383,-52.246,-34.668,0.000
1709206029.843,-36.133,-55.176,-41.016,-45.898,0.000
1709206029.846,-35.645,-47.363,-34.668,-51.270,0.000
1709206029.850,-27.344,-58.594,-41.992,-39.062,0.000
1709206029.854,-20.508,-56.152,-43.945,-34.668,0.000
1709206029.858,-30.762,-45.410,-40.527,-23.926,0.000
1709206029.862,-40.527,-48.828,-36.621,-18.066,0.000
1709206029.866,-34.668,-59.570,-38.574,-30.273,0.000
1709206029.870,-28.320,-58.594,-38.574,-28.320,0.000
1709206029.874,-37.109,-58.105,-37.598,-24.902,0.000
1709206029.878,-40.039,-59.570,-34.180,-33.203,0.000
1709206029.882,-45.410,-67.383,-32.715,-24.902,0.000
1709206029.885,-43.945,-69.336,-33.691,-13.672,0.000
1709206029.889,-41.504,-59.082,-30.273,-25.879,0.000
1709206029.893,-33.203,-56.641,-28.809,-24.414,0.000
1709206029.897,-29.785,-56.152,-33.691,-24.414,0.000
1709206029.901,-34.668,-57.129,-35.156,-42.480,0.000
1709206029.905,-30.762,-51.270,-29.785,-38.574,0.000
1709206029.909,-26.367,-49.316,-30.273,-32.715,0.000
1709206029.913,-18.555,-49.805,-31.250,-19.043,0.000
1709206029.917,-20.020,-50.293,-29.297,-19.043,0.000
1709206029.921,-32.227,-46.875,-26.367,-29.297,0.000
1709206029.925,-31.738,-54.688,-30.762,-27.832,0.000
1709206029.928,-33.203,-62.988,-34.668,-24.902,0.000
1709206029.932,-32.227,-47.363,-32.227,-28.809,0.000
1709206029.936,-34.180,-34.668,-27.832,-33.203,0.000
1709206029.940,-41.016,-44.434,-30.762,-33.691,0.000
1709206029.944,-37.598,-46.875,-32.227,-36.133,0.000
1709206029.948,-29.297,-44.434,-30.762,-30.273,0.000
1709206029.952,-17.578,-45.410,-33.203,-21.973,0.000
1709206029.956,-19.531,-47.852,-33.203,-16.113,0.000
1709206029.960,-28.809,-55.664,-39.551,-22.461,0.000
1709206029.964,-31.738,-58.594,-42.480,-29.297,0.000
1709206029.968,-23.926,-51.758,-35.156,-25.879,0.000
1709206029.971,-32.715,-51.270,-35.645,-32.227,0.000
1709206029.975,-41.504,-46.387,-42.480,-45.410,0.000
1709206029.979,-35.645,-41.504,-47.852,-43.945,0.000
1709206029.983,-36.621,-49.316,-46.875,-40.527,0.000
1709206029.987,-32.227,-62.500,-46.387,-34.668,0.000
1709206029.991,-41.504,-59.570,-46.387,-32.715,0.000
1709206029.995,-46.387,-40.039,-46.387,-45.410,0.000
1709206029.999,0.000,-42.480,-43.457,-42.969,0.000
1709206030.003,0.000,-47.852,-35.645,-39.062,0.000
1709206030.007,0.000,-44.434,-38.574,-43.945,0.000
1709206030.011,0.000,-46.387,-41.016,-41.504,0.000
1709206030.014,0.000,-52.734,-37.109,-41.504,0.000
1709206030.018,0.000,-55.664,-34.180,-44.922,0.000
1709206030.022,0.000,-49.316,-32.715,-35.645,0.000
1709206030.026,0.000,-43.945,-35.156,-37.109,0.000
1709206030.030,0.000,-52.246,-33.691,-35.156,0.000
1709206030.034,0.000,-52.734,-26.855,-18.066,0.000
1709206030.038,0.000,-39.551,-28.809,-19.043,0.000
1709206030.042,0.000,-39.062,-30.762,-20.508,0.000
1709206030.046,-43.457,-47.363,0.000,-22.949,0.000
1709206030.050,-48.340,-44.922,0.000,-42.480,0.000
1709206030.053,-55.176,-39.062,0.000,-47.852,0.000
1709206030.057,-48.340,-49.316,0.000,-33.691,0.000
1709206030.061,-42.480,-51.270,0.000,-25.879,0.000
1709206030.065,-44.434,-45.898,0.000,-32.227,0.000
1709206030.069,-48.340,-43.457,0.000,-37.598,0.000
1709206030.073,-42.480,-35.645,0.000,-47.363,0.000
1709206030.077,-28.809,-57.129,0.000,-42.969,0.000
1709206030.081,-30.762,-61.523,0.000,-36.133,0.000
1709206030.085,-41.992,-38.086,0.000,-39.551,0.000
1709206030.089,-33.691,-46.387,0.000,-26.855,0.000
1709206030.093,-50.781,-56.152,-36.133,-34.180,0.000
1709206030.096,-41.504,-54.688,-40.039,-45.410,0.000
1709206030.100,-35.645,-54.199,-41.504,-49.805,0.000
1709206030.104,-69.824,-55.176,-41.016,-52.246,0.000
1709206030.108,-55.176,-55.664,-40.527,-48.340,0.000
1709206030.112,-36.621,-53.223,-39.062,-46.875,0.000
1709206030.116,-50.781,-50.293,-36.133,-48.340,0.000
1709206030.120,-57.129,-50.293,-35.156,-52.246,0.000
1709206030.124,-51.270,-54.688,-41.016,-42.480,0.000
1709206030.128,-32.227,-41.504,-41.016,-34.668,0.000
1709206030.132,-35.156,-37.109,-35.156,-34.180,0.000
1709206030.135,-36.133,-48.828,-37.598,-36.621,0.000
1709206030.139,-26.855,-42.480,-39.551,-41.016,0.000
1709206030.143,-18.066,-37.598,-41.504,-40.527,0.000
1709206030.147,-21.484,-45.410,-40.527,-37.109,0.000
1709206030.151,-12.207,-45.898,-36.133,-31.250,0.000
1709206030.155,-4.883,-41.992,-39.062,-32.227,0.000
1709206030.159,-20.020,-45.410,-38.086,-38.574,0.000
1709206030.163,-29.785,-45.410,-41.016,-54.199,0.000
1709206030.167,-10.742,-53.711,-48.340,-46.875,0.000
1709206030.171,-11.719,-52.246,-51.270,-36.621,0.000
1709206030.175,-28.809,-33.691,-47.363,-44.922,0.000
1709206030.178,-32.715,-35.645,-38.574,-43.457,0.000
1709206030.182,-23.926,-35.156,-37.598,-51.270,0.000
1709206030.186,-17.578,-29.785,-38.574,-53.223,0.000
1709206030.190,-13.184,-26.855,-39.551,-41.992,0.000
1709206030.194,-22.949,-29.297,-38.574,-39.062,0.000
1709206030.198,-49.316,-35.156,-37.109,-42.480,0.000
1709206030.202,-52.734,-39.062,-38.086,-42.480,0.000
1709206030.206,-49.805,-46.875,-40.039,-44.434,0.000
1709206030.210,-45.410,-46.875,-40.039,-48.828,0.000
1709206030.214,-34.668,-45.898,-37.109,-48.828,0.000
1709206030.217,-45.410,-44.434,-43.945,-57.617,0.000
1709206030.221,-50.293,-38.574,-40.527,-57.129,0.000
1709206030.225,-35.645,-46.875,-41.992,-49.316,0.000
1709206030.229,-39.062,-51.270,-45.410,-50.781,0.000
1709206030.233,0.000,-47.852,-40.527,-51.270,0.000
1709206030.237,0.000,-43.457,-31.738,-36.621,0.000
1709206030.241,0.000,-49.805,-25.391,-28.809,0.000
1709206030.245,0.000,-58.594,-31.250,-38.086,0.000
1709206030.249,0.000,-49.805,-32.227,-32.715,0.000
1709206030.253,0.000,-44.922,-27.344,-21.484,0.000
1709206030.257,0.000,-61.035,-26.855,-20.508,0.000
1709206030.260,0.000,-58.594,-32.227,-35.645,0.000
1709206030.264,0.000,-34.180,-32.715,-39.551,0.000
1709206030.268,0.000,-42.480,-32.715,-33.203,0.000
1709206030.272,0.000,-50.293,-33.203,-35.156,0.000
1709206030.276,0.000,-46.875,-33.203,-37.109,0.000
1709206030.280,-29.785,-38.574,-29.297,-25.391,0.000
1709206030.284,-20.508,-40.039,-29.785,-20.020,0.000
1709206030.288,-24.902,-51.758,-36.621,-33.691,0.000
1709206030.292,-32.227,-52.246,-40.527,-39.551,0.000
1709206030.296,-37.109,-53.711,-43.457,-38.574,0.000
1709206030.300,-46.875,-59.570,-46.875,-41.992,0.000
1709206030.303,-52.734,-65.430,-43.945,-36.133,0.000
1709206030.307,-53.223,-54.688,-40.527,-34.180,0.000
1709206030.311,-43.457,-39.551,-39.551,-41.504,0.000
1709206030.315,-37.598,-48.828,-38.086,-41.992,0.000
1709206030.319,-50.293,-56.641,-41.992,-44.434,0.000
1709206030.323,-51.758,-45.898,-42.480,-42.969,0.000
1709206030.327,-40.527,-35.645,-40.039,-30.762,0.000
1709206030.331,-27.344,-38.086,-37.109,-32.227,0.000
1709206030.335,-26.855,-38.574,-38.086,-29.297,0.000
1709206030.339,-46.875,-42.969,-44.434,-32.715,0.000
1709206030.342,-44.922,-45.898,-46.875,-33.691,0.000
1709206030.346,-31.250,-42.480,-43.457,-24.414,0.000
1709206030.350,-36.133,-44.922,-41.504,-46.387,0.000
1709206030.354,-38.086,-41.504,-39.062,-56.152,0.000
1709206030.358,-32.227,-43.457,-38.574,-45.410,0.000
1709206030.362,-32.227,-51.758,-39.551,-37.598,0.000
1709206030.366,-23.926,-41.016,-42.480,-33.203,0.000
1709206030.370,-13.184,-32.715,-41.016,-39.062,0.000
1709206030.374,0.000,-41.016,-39.551,-43.457,0.000
1709206030.378,0.000,-43.945,-50.293,-46.387,0.000
1709206030.382,0.000,-37.598,-51.270,-30.762,0.000
1709206030.385,0.000,-40.039,-43.945,-21.484,0.000
1709206030.389,0.000,-45.410,-35.645,-24.902,0.000
1709206030.393,0.000,-45.898,-33.203,-30.273,0.000
1709206030.397,0.000,-32.715,-33.203,-42.480,0.000
1709206030.401,0.000,-24.902,-31.738,-37.598,0.000
1709206030.405,0.000,-44.922,-33.691,-35.156,0.000
1709206030.409,0.000,-51.758,-32.715,-44.434,0.000
1709206030.413,0.000,-39.551,-30.273,-44.434,0.000
1709206030.417,0.000,-40.527,-32.227,-43.945,0.000
1709206030.421,-40.527,-44.434,-26.367,-36.621,0.000
1709206030.425,-44.922,-40.527,-26.855,-26.855,0.000
1709206030.428,-40.039,-35.645,-31.738,-36.133,0.000
1709206030.432,-42.969,-36.621,-28.320,-40.527,0.000
1709206030.436,-50.781,-42.480,-32.715,-37.598,0.000
1709206030.440,-50.293,-44.922,-36.133,-41.504,0.000
1709206030.444,-48.828,-36.133,-30.273,-41.016,0.000
1709206030.448,-33.203,-28.809,-26.855,-37.598,0.000
1709206030.452,-30.273,-46.387,-30.273,-33.691,0.000
1709206030.456,-48.340,-52.246,-34.668,-27.832,0.000
1709206030.460,-50.781,-39.062,-37.109,-35.645,0.000
1709206030.464,-45.898,-44.434,-39.062,-37.598,0.000
1709206030.468,-36.133,-41.504,-40.527,-29.785,0.000
1709206030.471,-20.020,-30.762,-38.574,-25.879,0.000
1709206030.475,-33.691,-30.762,-41.016,-34.668,0.000
1709206030.479,-38.086,-38.086,-42.969,-40.039,0.000
1709206030.483,-33.203,-45.898,-44.434,-43.945,0.000
1709206030.487,-37.598,-44.922,-46.387,-46.875,0.000
1709206030.491,-26.367,-33.691,-47.363,-50.293,0.000
1709206030.495,-24.414,-34.668,-39.551,-50.781,0.000
1709206030.499,-23.926,-43.945,-31.250,-39.062,0.000
1709206030.503,-35.645,-34.668,-34.180,-35.156,0.000
1709206030.507,-39.551,-29.297,-38.086,-41.992,0.000
1709206030.510,-31.250,-34.180,-38.574,-40.039,0.000
1709206030.514,-22.949,-31.738,-36.133,-37.598,0.000
1709206030.518,-27.832,-31.250,-38.086,-47.363,0.000
1709206030.522,-39.062,-31.738,-43.945,-50.781,0.000
1709206030.526,-32.227,-32.715,-45.410,-42.480,0.000
1709206030.530,-22.461,-35.645,-48.828,-42.480,0.000
1709206030.534,-30.273,-35.156,-44.922,-44.434,0.000
1709206030.538,-43.457,-41.992,-37.109,-43.457,0.000
1709206030.542,-57.129,-55.176,-39.551,-35.645,0.000
1709206030.546,-60.059,-46.387,-40.527,-37.598,0.000
1709206030.550,-51.758,-29.785,-36.621,-52.246,0.000
1709206030.553,-41.992,-38.574,-37.109,-52.734,0.000
1709206030.557,-47.363,-51.758,-37.598,-57.129,0.000
1709206030.561,-70.312,-49.316,-38.086,-50.293,0.000
1709206030.565,-72.266,-45.898,-36.621,-38.086,0.000
1709206030.569,-49.316,-43.945,-29.297,-30.762,0.000
1709206030.573,-39.551,-43.457,-27.344,-32.715,0.000
1709206030.577,-47.852,-44.434,-32.715,-40.527,0.000
1709206030.581,-49.805,-42.969,-33.691,-36.133,0.000
1709206030.585,-43.457,-41.992,-31.738,-34.668,0.000
1709206030.589,-31.738,-42.969,-28.809,-26.367,0.000
1709206030.593,-31.738,-38.574,-30.762,-36.133,0.000
1709206030.596,-33.691,-35.645,-31.250,-46.875,0.000
1709206030.600,-37.109,-44.434,-32.715,-41.992,0.000
1709206030.604,-34.668,-43.457,-30.273,-36.133,0.000
1709206030.608,-25.391,-36.133,-25.391,-27.344,0.000
1709206030.612,-39.062,-37.109,-34.180,-32.227,0.000
1709206030.616,-41.504,-47.363,-39.062,-41.992,0.000
1709206030.620,-48.340,-54.688,-41.992,-52.246,0.000
1709206030.624,-48.828,-41.992,-41.016,-41.992,0.000
1709206030.628,-40.527,-40.039,-41.992,-42.480,0.000
1709206030.632,-34.668,-52.246,-41.016,-40.039,0.000
1709206030.635,-50.293,-45.410,-43.457,-37.109,0.000
1709206030.639,-59.082,-31.250,-42.480,-51.270,0.000
1709206030.643,-51.758,-42.969,-38.574,-49.805,0.000
1709206030.647,-50.293,-47.363,-44.922,-48.828,0.000
1709206030.651,-41.992,-41.504,-49.316,-46.875,0.000
1709206030.655,-39.062,-43.945,-51.270,-58.105,0.000
1709206030.659,-50.781,-48.340,-41.992,-69.824,0.000
1709206030.663,-61.523,-52.246,-36.133,-63.965,0.000
1709206030.667,-58.594,-48.340,-39.551,-65.430,0.000
1709206030.671,-48.828,-42.480,-35.645,-61.523,0.000
1709206030.675,-40.039,-41.504,-28.809,-49.805,0.000
1709206030.678,-41.992,-50.781,-26.367,-32.715,0.000
1709206030.682,-56.641,-50.293,-37.109,-39.062,0.000
1709206030.686,-58.105,-44.434,-46.387,-51.270,0.000
1709206030.690,-34.180,-45.410,-42.480,-43.457,0.000
1709206030.694,-40.039,-44.922,-37.598,-39.062,0.000
1709206030.698,-60.059,-43.945,-36.133,-39.062,0.000
1709206030.702,-49.805,-41.504,-34.668,-47.852,0.000
1709206030.706,-42.969,-39.551,-29.785,-51.758,0.000
1709206030.710,-50.293,-40.039,-33.691,-51.270,0.000
1709206030.714,-59.082,-42.969,-36.133,-51.758,0.000
1709206030.718,-49.805,-43.945,-39.062,-47.852,0.000
1709206030.721,-44.434,-50.293,-41.992,-42.480,0.000
1709206030.725,-47.852,-52.246,-40.039,-39.062,0.000
1709206030.729,-33.203,-44.434,-42.969,-43.945,0.000
1709206030.733,-23.438,-49.805,-40.039,-40.039,0.000
1709206030.737,-38.086,-56.641,-41.016,-38.086,0.000
1709206030.741,-45.410,-48.828,-44.922,-36.621,0.000
1709206030.745,-41.504,-40.039,-46.387,-28.809,0.000
1709206030.749,-35.156,-41.504,-47.363,-15.625,0.000
1709206030.753,-36.621,-44.922,-41.992,-30.762,0.000
1709206030.757,-41.992,-38.574,-40.039,-42.480,0.000
1709206030.760,-37.109,-34.180,-38.574,-33.691,0.000
1709206030.764,-31.738,-43.945,-34.668,-41.504,0.000
1709206030.768,-28.809,-49.316,-37.598,-46.387,0.000
1709206030.772,-32.715,-38.574,-35.645,-39.062,0.000
1709206030.776,-36.621,-28.809,-36.621,-45.410,0.000
1709206030.780,-36.133,-41.992,-40.039,-48.340,0.000
1709206030.784,-46.387,-55.664,-40.039,-37.109,0.000
1709206030.788,-45.410,-42.480,-41.504,-34.668,0.000
1709206030.792,-37.598,-36.133,-41.016,-45.898,0.000
1709206030.796,-34.668,-47.363,-39.551,-40.527,0.000
1709206030.800,-49.316,-55.664,-41.992,-38.086,0.000
1709206030.803,-57.617,-45.410,-42.969,-52.246,0.000
1709206030.807,-43.457,-41.504,-39.551,-44.434,0.000
1709206030.811,-36.133,-40.527,-41.504,-40.039,0.000
1709206030.815,-34.668,-43.945,-43.945,-49.316,0.000
1709206030.819,-42.969,-41.504,-37.598,-48.340,0.000
1709206030.823,-48.340,-38.574,-40.039,-39.062,0.000
1709206030.827,-37.598,-54.688,-44.922,-20.020,0.000
1709206030.831,-32.227,-49.316,-37.109,-12.207,0.000
1709206030.835,-35.156,-34.668,-41.016,-24.902,0.000
1709206030.839,-38.574,-48.340,-44.434,-27.832,0.000
1709206030.843,-34.668,-51.758,-38.574,-23.438,0.000
1709206030.846,-19.043,-41.016,-36.133,-17.090,0.000
1709206030.850,-18.555,-30.762,-34.668,-11.230,0.000
1709206030.854,-26.855,-37.598,-33.203,-23.438,0.000
1709206030.858,-31.250,-49.805,-33.203,-35.645,0.000
1709206030.862,-35.645,-52.246,-40.039,-33.203,0.000
1709206030.866,-28.809,-44.922,-39.062,-36.133,0.000
1709206030.870,-20.508,-37.598,-39.062,-29.785,0.000
1709206030.874,-20.996,-45.410,-41.016,-30.273,0.000
1709206030.878,-31.250,-31.250,-41.016,-46.387,0.000
1709206030.882,-50.293,-24.414,-38.574,-40.039,0.000
1709206030.885,-44.434,-40.527,-38.086,-26.855,0.000
1709206030.889,-35.156,-40.039,-41.504,-34.180,0.000
1709206030.893,-38.574,-38.574,-39.062,-45.898,0.000
1709206030.897,-37.109,-43.945,-37.598,-53.711,0.000
1709206030.901,-53.223,-46.875,-38.574,-48.828,0.000
1709206030.905,-58.105,-44.922,-36.133,-45.898,0.000
1709206030.909,-48.828,-38.086,-39.062,-47.363,0.000
1709206030.913,-46.875,-37.109,-39.551,-46.875,0.000
1709206030.917,-53.223,-48.828,-35.645,-40.527,0.000
1709206030.921,-65.430,-49.805,-36.621,-40.527,0.000
1709206030.925,-59.570,-35.156,-39.551,-63.965,0.000
1709206030.928,-46.387,-39.062,-40.039,-59.570,0.000
1709206030.932,-34.668,-45.898,-32.227,-49.316,0.000
1709206030.936,-42.480,-41.016,-35.156,-58.594,0.000
1709206030.940,-41.504,-41.992,-44.434,-63.965,0.000
1709206030.944,-40.039,-44.434,-38.574,-54.688,0.000
1709206030.948,-44.434,-41.992,-40.527,-51.270,0.000
1709206030.952,-27.344,-39.551,-50.293,-46.875,0.000
1709206030.956,-35.156,-37.109,-47.363,-45.410,0.000
1709206030.960,-35.645,-37.598,-38.086,-42.969,0.000
1709206030.964,-36.621,-45.898,-35.645,-26.855,0.000
1709206030.968,-51.758,-43.945,-37.598,-26.855,0.000
1709206030.971,-41.016,-38.574,-39.551,-41.504,0.000
1709206030.975,-34.180,-46.387,-43.457,-44.434,0.000
1709206030.979,-50.293,-49.805,-39.062,-50.293,0.000
1709206030.983,-52.734,-40.039,-36.621,-43.457,0.000
1709206030.987,-50.293,-42.480,-37.109,-35.645,0.000
1709206030.991,-43.945,-50.781,-35.645,-26.367,0.000
1709206030.995,-47.852,-48.340,-34.668,-20.996,0.000
1709206030.999,-52.246,-45.898,-35.156,-29.297,0.000
1709206031.003,-57.129,-48.340,-32.715,-28.809,0.000
1709206031.007,-59.082,-56.152,-26.855,-23.438,0.000
1709206031.011,-55.664,-56.152,-31.250,-27.344,0.000
1709206031.014,-78.613,-45.898,-38.086,-40.039,0.000
1709206031.018,-87.402,-48.828,-39.062,-35.156,0.000
1709206031.022,-73.730,-47.363,-36.133,-26.367,0.000
1709206031.026,-70.801,-51.758,-35.156,-31.738,0.000
1709206031.030,-69.336,-54.199,-37.109,-36.621,0.000
1709206031.034,-64.941,-50.781,-34.180,-50.293,0.000
1709206031.038,-65.430,-51.758,-35.156,-56.641,0.000
1709206031.042,-53.711,-37.598,-32.715,-41.504,0.000
1709206031.046,-39.062,-33.691,-29.785,-36.621,0.000
1709206031.050,-50.781,-55.176,-36.133,-45.410,0.000
1709206031.053,-56.152,-52.734,-37.598,-49.805,0.000
1709206031.057,-50.781,-41.504,-38.086,-44.434,0.000
1709206031.061,-66.406,-38.574,-41.016,-40.527,0.000
1709206031.065,-58.594,-42.969,-41.016,-42.969,0.000
1709206031.069,-45.410,-50.293,-37.109,-35.645,0.000
1709206031.073,-44.922,-39.551,-36.133,-35.645,0.000
1709206031.077,-42.969,-37.109,-40.527,-47.363,0.000
1709206031.081,-46.875,-41.992,-41.016,-45.410,0.000
1709206031.085,-37.598,-39.062,-35.645,-34.180,0.000
1709206031.089,-30.762,-35.645,-36.133,-35.156,0.000
1709206031.093,-35.645,-38.086,-40.039,-41.504,0.000
1709206031.096,-38.086,-49.316,-39.551,-33.691,0.000
1709206031.100,-39.062,-46.387,-42.480,-29.297,0.000
1709206031.104,-31.250,-30.273,-47.363,-24.902,0.000
1709206031.108,-25.879,-35.156,-47.363,-32.227,0.000
1709206031.112,-27.832,-47.852,-41.504,-36.133,0.000
1709206031.116,-27.344,-40.039,-39.062,-28.320,0.000
1709206031.120,-27.832,-35.645,-39.551,-34.180,0.000
1709206031.124,-35.156,-43.945,-39.551,-36.621,0.000
1709206031.128,-44.922,-44.922,-43.945,-37.598,0.000
1709206031.132,-41.016,-39.062,-41.992,-44.434,0.000
1709206031.136,-24.414,-36.133,-38.574,-52.734,0.000
1709206031.139,-45.410,-37.598,-35.156,-47.852,0.000
1709206031.143,-70.312,-41.016,-32.227,-36.133,0.000
1709206031.147,-66.406,-42.480,-41.504,-40.527,0.000
1709206031.151,-61.035,-40.527,-45.410,-42.969,0.000
1709206031.155,-46.875,-43.457,-41.992,-41.992,0.000
1709206031.159,-49.805,-52.246,-44.434,-42.969,0.000
1709206031.163,-62.012,-47.363,-42.969,-51.270,0.000
1709206031.167,-60.547,-45.410,-39.062,-53.711,0.000
1709206031.171,-56.641,-49.805,-41.504,-50.781,0.000
1709206031.175,-63.477,-45.898,-39.551,-53.711,0.000
1709206031.179,-76.172,-42.480,-37.598,-56.152,0.000
1709206031.182,-67.871,-51.758,-36.133,-45.898,0.000
1709206031.186,-55.176,-54.199,-39.062,-35.156,0.000
1709206031.190,-58.594,-46.875,-44.922,-38.086,0.000
1709206031.194,-58.594,-44.434,-49.316,-43.945,0.000
1709206031.198,-54.688,-46.387,-50.293,-55.664,0.000
1709206031.202,-55.664,-60.547,-47.852,-50.293,0.000
1709206031.206,-50.293,-56.641,-45.410,-40.527,0.000
1709206031.210,-38.086,-30.273,-47.852,-50.293,0.000
1709206031.214,-28.320,-32.227,-47.852,-59.082,0.000
1709206031.218,-32.227,-38.086,-47.363,-57.129,0.000
1709206031.222,-40.039,-36.133,-49.316,-48.340,0.000
1709206031.225,-35.645,-37.109,-49.805,-36.621,0.000
1709206031.229,-22.461,-37.598,-47.852,-29.785,0.000
1709206031.233,-14.648,-41.016,-48.828,-34.180,0.000
1709206031.237,-24.902,-48.828,-50.293,-37.109,0.000
1709206031.241,-34.180,-43.457,-48.828,-37.109,0.000
1709206031.245,-33.691,-42.480,-44.922,-27.344,0.000
1709206031.249,-19.043,-47.363,-36.133,-16.602,0.000
1709206031.253,-19.043,-31.250,-30.273,-24.414,0.000
1709206031.257,-31.738,-30.762,-32.227,-31.250,0.000
1709206031.261,-30.273,-40.527,-39.551,-36.133,0.000
1709206031.264,-28.809,-33.691,-32.227,0.000,0.000
1709206031.268,-20.508,-33.203,-32.715,0.000,0.000
1709206031.272,-26.855,-46.387,-38.574,0.000,0.000
1709206031.276,-36.133,-49.316,-35.156,0.000,0.000
1709206031.280,-33.203,-42.969,-37.598,0.000,0.000
1709206031.284,-37.109,-41.504,-41.992,0.000,0.000
1709206031.288,-40.527,-41.992,-33.691,0.000,0.000
1709206031.292,-40.039,-54.199,-32.227,0.000,0.000
1709206031.296,-54.199,-52.734,-37.109,0.000,0.000
1709206031.300,-66.895,-35.645,-37.598,0.000,0.000
1709206031.304,-68.359,-48.340,-41.992,0.000,0.000
1709206031.307,-61.523,-54.199,-41.016,0.000,0.000
1709206031.311,-40.527,-45.898,-38.086,-41.992,0.000
1709206031.315,-41.016,-47.363,-36.133,-41.504,0.000
1709206031.319,-55.664,-54.199,-35.156,-43.457,0.000
1709206031.323,-62.988,-56.641,-37.598,-47.852,0.000
1709206031.327,-62.988,-52.246,-37.109,-47.363,0.000
1709206031.331,-53.223,-56.641,-35.156,-44.434,0.000
1709206031.335,-53.711,-61.523,-36.133,-48.828,0.000
1709206031.339,-53.223,-60.547,-35.156,-43.945,0.000
1709206031.343,-56.152,-53.711,-36.133,-44.434,0.000
1709206031.346,-58.594,-42.969,-38.574,-46.875,0.000
1709206031.350,-55.176,-47.852,-41.504,-43.457,0.000
1709206031.354,-50.293,-50.781,-43.457,-42.969,0.000
1709206031.358,-51.270,-45.898,-45.410,-53.223,0.000
1709206031.362,-53.711,-47.363,-44.922,-62.500,0.000
1709206031.366,-51.270,-52.246,-41.992,-66.895,0.000
1709206031.370,-40.039,-49.805,-46.387,-66.895,0.000
1709206031.374,-34.668,-47.363,-44.922,-55.664,0.000
1709206031.378,-32.715,-47.363,-41.504,-56.152,0.000
1709206031.382,-38.574,-55.664,-42.480,-46.387,0.000
1709206031.386,-49.316,-57.617,-39.062,-30.762,0.000
1709206031.389,-46.387,-43.457,-38.574,-31.250,0.000
1709206031.393,-40.039,-47.852,-42.969,-34.668,0.000
1709206031.397,-37.598,-51.270,-41.504,-31.738,0.000
1709206031.401,-40.527,-49.805,-37.598,-21.973,0.000
1709206031.405,-44.434,-49.805,-36.133,-21.973,0.000
1709206031.409,-44.922,-54.199,-29.785,-27.344,0.000
1709206031.413,-41.992,-55.664,-32.227,-41.504,0.000
1709206031.417,-50.293,-52.734,-37.598,-48.828,0.000
1709206031.421,-55.664,-54.199,-32.715,-46.387,0.000
1709206031.425,-51.270,-53.223,-28.320,-43.945,0.000
1709206031.429,-44.434,-52.246,-32.227,-40.527,0.000
1709206031.432,-37.598,-47.363,-41.016,-53.711,0.000
1709206031.436,-49.316,-46.387,-41.504,-66.895,0.000
1709206031.440,-66.406,-53.711,-40.527,-56.641,0.000
1709206031.444,-52.246,-49.316,-41.504,-49.805,0.000
1709206031.448,-42.480,-39.062,-42.480,-53.223,0.000
1709206031.452,-61.523,-49.805,-41.992,-59.082,0.000
1709206031.456,-62.012,-63.477,-44.922,-56.641,0.000
1709206031.460,-60.547,-62.500,-48.340,-41.992,0.000
1709206031.464,-58.105,-52.246,-44.434,-31.738,0.000
1709206031.468,-43.457,-43.457,-43.945,-31.738,0.000
1709206031.471,-31.738,-54.199,-41.504,-25.391,0.000
1709206031.475,-29.785,-53.223,-38.086,-27.832,0.000
1709206031.479,-36.621,-42.480,-37.598,-33.691,0.000
1709206031.483,-38.086,-44.922,-33.691,-24.902,0.000
1709206031.487,-21.973,-45.898,-27.832,-5.371,0.000
1709206031.491,-16.113,-43.945,-33.203,-8.789,0.000
1709206031.495,-23.926,-38.086,-38.574,-25.391,0.000
1709206031.499,-26.367,-39.551,-41.504,-28.320,0.000
1709206031.503,-28.320,-41.016,-45.410,-32.227,0.000
1709206031.507,-12.695,-38.574,-44.922,-28.320,0.000
1709206031.511,-0.488,-37.109,-43.457,-23.926,0.000
1709206031.514,-20.996,-41.016,-42.480,-33.203,0.000
1709206031.518,-35.645,-53.711,-40.527,-46.387,0.000
1709206031.522,-37.598,-51.758,-38.086,-41.016,0.000
1709206031.526,-35.645,-44.922,-36.133,-34.180,0.000
1709206031.530,-35.156,-49.316,-32.227,-38.086,0.000
1709206031.534,-36.621,-48.340,-25.879,-33.203,0.000
1709206031.538,-46.875,-37.109,-23.926,-38.086,0.000
1709206031.542,-48.828,-38.086,-29.785,-49.316,0.000
1709206031.546,-48.828,-42.480,-32.715,-53.711,0.000
1709206031.550,-48.828,-40.527,-37.109,-62.012,0.000
1709206031.554,-46.875,-34.668,-42.969,-67.383,0.000
1709206031.557,-67.383,-45.898,-39.062,-71.289,0.000
1709206031.561,-83.008,-52.246,-40.527,-79.590,0.000
1709206031.565,-66.406,-45.898,-41.992,-72.754,0.000
1709206031.569,-62.500,-38.574,-43.457,-62.988,0.000
1709206031.573,-61.523,-34.668,-42.969,-54.199,0.000
1709206031.577,-47.852,-56.152,-38.086,-45.898,0.000
1709206031.581,-54.199,-57.617,-40.039,-44.922,0.000
1709206031.585,-57.617,-35.156,-41.504,-45.410,0.000
1709206031.589,-45.410,-41.016,-43.945,-40.527,0.000
1709206031.593,-37.109,-47.363,-40.527,-39.551,0.000
1709206031.597,-46.875,-41.992,-38.574,-41.016,0.000
1709206031.600,-57.617,-39.551,-41.016,-34.180,0.000
1709206031.604,-52.246,-46.387,-33.691,-33.203,0.000
1709206031.608,-41.992,-46.875,-30.762,-38.086,0.000
1709206031.612,-35.645,-47.363,-34.668,-39.062,0.000
1709206031.616,-33.203,-51.270,-37.109,-47.363,0.000
1709206031.620,-41.016,-53.223,-39.551,-41.016,0.000
1709206031.624,-49.316,-58.105,-40.039,-41.016,0.000
1709206031.628,-32.227,-40.527,-43.457,-55.664,0.000
1709206031.632,-30.273,-32.715,-43.457,-56.152,0.000
1709206031.636,-41.992,-44.922,-37.598,-52.246,0.000
1709206031.640,-43.457,-51.270,-40.527,-49.316,0.000
1709206031.643,-47.363,-46.387,-43.457,-45.898,0.000
1709206031.647,-37.109,-38.574,-38.086,-42.969,0.000
1709206031.651,-23.438,-43.945,-36.133,-39.551,0.000
1709206031.655,-18.066,-49.805,-36.133,-41.504,0.000
1709206031.659,-32.227,-46.387,-37.109,-47.363,0.000
1709206031.663,-44.434,-46.875,-42.969,-50.781,0.000
1709206031.667,-45.898,-57.617,-39.062,-36.133,0.000
1709206031.671,-41.504,-51.758,-33.691,-21.973,0.000
1709206031.675,-39.062,-37.109,-39.062,-32.227,0.000
1709206031.679,-43.457,-40.039,-39.062,-48.828,0.000
1709206031.682,-52.734,-46.875,-39.062,-66.406,0.000
1709206031.686,-52.734,-42.480,-36.621,-60.547,0.000
1709206031.690,-48.340,-35.156,-35.156,-46.387,0.000
1709206031.694,-49.316,-48.828,-39.551,-49.805,0.000
1709206031.698,-42.969,-55.176,-41.016,-49.805,0.000
1709206031.702,-48.340,-44.922,-40.039,-52.246,0.000
1709206031.706,-63.477,-46.875,-41.504,-51.270,0.000
1709206031.710,-55.176,-50.293,-41.992,-49.316,0.000
1709206031.714,-53.223,-53.711,-41.016,-46.387,0.000
1709206031.718,-62.988,-46.387,-44.434,-56.152,0.000
1709206031.722,-56.152,-38.574,-42.969,-62.012,0.000
1709206031.725,-39.551,-43.457,-38.574,-36.621,0.000
1709206031.729,-26.855,-41.016,-40.527,-23.438,0.000
1709206031.733,-30.762,-36.621,-38.574,-34.180,0.000
1709206031.737,-34.668,-37.598,-41.016,-45.410,0.000
1709206031.741,-31.738,-49.316,-42.480,-43.457,0.000
1709206031.745,-39.062,-57.617,-38.086,-40.527,0.000
1709206031.749,-30.273,-49.316,-39.062,-37.109,0.000
1709206031.753,-21.973,-51.758,-36.621,-35.156,0.000
1709206031.757,-28.809,-64.453,-33.203,-27.344,0.000
1709206031.761,-33.203,-62.012,-36.621,-23.926,0.000
1709206031.765,-45.410,-45.898,-39.062,-43.457,0.000
1709206031.768,-37.598,-46.875,-40.039,-42.969,0.000
1709206031.772,-28.809,-49.316,-43.945,-45.898,0.000
1709206031.776,-42.969,-43.457,-42.969,-49.805,0.000
1709206031.780,-47.363,-41.504,-41.016,-43.945,0.000
1709206031.784,-52.246,-41.016,-41.016,-45.410,0.000
1709206031.788,-48.340,-45.410,-38.574,-42.480,0.000
1709206031.792,-44.922,-52.246,-39.062,-52.246,0.000
1709206031.796,-52.734,-65.430,-40.527,-64.453,0.000
1709206031.800,-51.270,-66.406,-41.016,-70.801,0.000
1709206031.804,-48.340,-64.941,-38.574,-53.223,0.000
1709206031.807,-30.762,-54.688,-36.133,-33.203,0.000
1709206031.811,-21.484,-44.434,-37.598,-40.527,0.000
1709206031.815,-37.598,-51.270,-34.668,-38.086,0.000
1709206031.819,-40.039,-53.711,-37.598,-38.086,0.000
1709206031.823,-38.574,-45.410,-41.504,-32.715,0.000
1709206031.827,-39.551,-45.410,-39.551,-26.855,0.000
1709206031.831,-43.457,-57.129,-41.992,-36.133,0.000
1709206031.835,-29.785,-56.641,-39.062,-49.805,0.000
1709206031.839,-35.156,-45.898,-37.109,-49.805,0.000
1709206031.843,-52.246,-44.922,-39.551,-41.504,0.000
1709206031.847,-42.480,-50.781,-35.156,-37.598,0.000
1709206031.850,-37.598,-44.434,-33.691,-37.109,0.000
1709206031.854,-27.832,-35.156,-38.574,-33.203,0.000
1709206031.858,-32.715,-41.016,-38.086,-28.809,0.000
1709206031.862,-35.156,-58.105,-39.551,-21.973,0.000
1709206031.866,-27.344,-55.664,-39.062,-15.137,0.000
1709206031.870,-29.785,-41.992,-41.016,-27.832,0.000
1709206031.874,-40.527,-47.852,-39.062,-38.086,0.000
1709206031.878,-51.270,-51.270,-32.227,-31.738,0.000
1709206031.882,-51.270,-45.410,-29.297,-21.973,0.000
1709206031.886,-49.316,-41.504,-35.156,-27.344,0.000
1709206031.890,-42.480,-46.875,-38.574,-35.156,0.000
1709206031.893,-34.180,-46.387,-34.180,-31.738,0.000
1709206031.897,-36.133,-44.922,-38.086,-35.645,0.000
1709206031.901,-34.180,-38.574,-36.133,-36.133,0.000
1709206031.905,-39.062,-37.109,-35.645,-31.250,0.000
1709206031.909,-45.410,-41.504,-39.062,-31.250,0.000
1709206031.913,-37.109,-33.203,-45.410,-45.410,0.000
1709206031.917,-35.156,-34.180,-46.875,-50.293,0.000
1709206031.921,-39.551,-44.922,-43.457,-56.641,0.000
1709206031.925,-36.621,-46.387,-42.480,-51.758,0.000
1709206031.929,-23.926,-38.086,-39.062,-37.109,0.000
1709206031.933,-17.578,-45.898,-38.574,-36.133,0.000
1709206031.936,-23.438,-52.246,-37.109,-33.691,0.000
1709206031.940,-35.156,-46.387,-35.645,-43.457,0.000
1709206031.944,-30.273,-38.574,-37.598,-48.340,0.000
1709206031.948,-20.996,-32.715,-38.574,-41.016,0.000
1709206031.952,-26.855,-45.410,-41.016,-32.715,0.000
1709206031.956,-35.645,-43.457,-42.480,-32.227,0.000
1709206031.960,-33.691,-26.367,-42.969,-47.852,0.000
1709206031.964,-34.180,-33.203,-43.457,-39.551,0.000
1709206031.968,-30.273,-41.504,-41.504,-31.738,0.000
1709206031.972,-24.414,-39.062,-45.898,-43.945,0.000
1709206031.976,-41.016,-38.574,-44.922,-47.363,0.000
1709206031.979,-53.711,-40.039,-41.016,-38.086,0.000
1709206031.983,-46.387,-43.945,-44.922,-31.250,0.000
1709206031.987,-45.898,-47.363,-45.410,-31.738,0.000
1709206031.991,-44.434,-38.574,-39.062,-37.109,0.000
1709206031.995,-43.945,-36.133,-35.156,-44.922,0.000
1709206031.999,-43.457,-55.176,-33.691,-39.062,0.000
1709206032.003,-40.039,-48.828,-33.691,-27.344,0.000
1709206032.007,-45.410,-45.898,-41.504,-33.203,0.000
1709206032.011,-49.316,-45.898,-42.480,-61.035,0.000
1709206032.015,-47.363,-33.203,-43.457,-70.312,0.000
1709206032.019,-47.363,-31.250,-45.898,-54.688,0.000
1709206032.022,-47.363,-36.621,-43.945,-49.805,0.000
1709206032.026,-47.852,-41.992,-40.039,-46.875,0.000
1709206032.030,-48.340,-40.527,-39.062,-48.340,0.000
1709206032.034,-43.945,-46.875,-39.551,-48.340,0.000
1709206032.038,-42.969,-53.711,-38.086,-44.434,0.000
1709206032.042,-52.734,-54.688,-40.527,-51.758,0.000
1709206032.046,-41.992,-46.875,-45.898,-51.270,0.000
1709206032.050,-37.109,-38.086,-43.945,-49.316,0.000
1709206032.054,-48.828,-41.504,-41.992,-53.223,0.000
1709206032.058,-45.898,-52.246,-41.992,-36.133,0.000
1709206032.061,-46.387,-45.898,-38.574,-22.461,0.000
1709206032.065,-44.922,-31.738,-36.133,-31.250,0.000
1709206032.069,-31.250,-39.551,-39.062,-40.527,0.000
1709206032.073,-29.785,-40.527,-41.016,-47.363,0.000
1709206032.077,-37.598,-36.621,-38.086,-47.363,0.000
1709206032.081,-35.645,-47.852,-38.086,-41.504,0.000
1709206032.085,-33.203,-52.246,-38.574,-37.598,0.000
1709206032.089,-26.367,-44.922,-37.109,-20.996,0.000
1709206032.093,-28.320,-32.227,-37.598,-20.996,0.000
1709206032.097,-30.762,-23.438,-36.133,-34.180,0.000
1709206032.101,-27.344,-28.809,-33.691,-41.016,0.000
1709206032.104,-38.574,-34.668,-37.109,-44.922,0.000
1709206032.108,-38.086,-33.203,-38.574,-38.574,0.000
1709206032.112,-40.527,-38.574,-36.621,-32.715,0.000
1709206032.116,-40.527,-44.434,-40.527,-31.250,0.000
1709206032.120,-39.062,-40.039,-36.133,-29.785,0.000
1709206032.124,-56.641,-40.039,-34.668,-38.086,0.000
1709206032.128,-57.129,-45.898,-40.039,-49.805,0.000
1709206032.132,-45.410,-51.270,-46.387,-50.781,0.000
1709206032.136,-47.852,-51.758,-50.293,-42.480,0.000
1709206032.140,-62.500,-36.621,-47.852,-46.875,0.000
1709206032.143,-64.453,-40.039,-50.781,-48.828,0.000
1709206032.147,-53.223,-48.340,-46.387,-40.527,0.000
1709206032.151,-47.363,-45.898,-40.039,-36.621,0.000
1709206032.155,-47.852,-48.340,-42.969,-46.875,0.000
1709206032.159,-55.176,-51.758,-43.945,-44.922,0.000
1709206032.163,-52.246,-48.340,-42.969,-32.715,0.000
1709206032.167,-42.969,-46.387,-41.504,-24.902,0.000
1709206032.171,-49.805,-46.875,-36.133,-25.391,0.000
1709206032.175,-48.340,-51.270,-33.691,-27.832,0.000
1709206032.179,-56.641,-64.941,-41.992,-24.414,0.000
1709206032.183,-59.082,-56.152,-42.480,-22.949,0.000
1709206032.186,-49.805,-37.598,-35.645,-28.809,0.000
1709206032.190,-46.387,-47.363,-36.621,-36.621,0.000
1709206032.194,-52.246,-55.664,-40.039,-44.434,0.000
1709206032.198,-51.758,-49.805,-44.434,-43.945,0.000
1709206032.202,-49.805,-55.176,-39.551,-40.039,0.000
1709206032.206,-45.410,-60.059,-38.086,-41.016,0.000
1709206032.210,-29.785,-57.129,-37.109,-32.715,0.000
1709206032.214,-29.785,-52.246,-35.156,-39.551,0.000
1709206032.218,-45.410,-55.664,-47.363,-65.918,0.000
1709206032.222,-48.340,-70.312,-44.434,-61.035,0.000
1709206032.226,-44.434,-62.012,-39.551,-41.016,0.000
1709206032.229,-47.363,-41.016,-44.434,-51.758,0.000
1709206032.233,-41.992,-46.387,-43.457,-47.852,0.000
1709206032.237,-46.387,-55.664,-41.016,-41.992,0.000
1709206032.241,-43.457,-49.316,-41.016,-41.504,0.000
1709206032.245,-47.852,-44.922,-43.945,-39.551,0.000
1709206032.249,-48.828,-47.852,-39.551,-30.762,0.000
1709206032.253,-32.715,-47.852,-38.574,-34.668,0.000
1709206032.257,-40.527,-45.898,-38.574,-50.293,0.000
1709206032.261,-47.852,-40.527,-39.551,-47.852,0.000
1709206032.265,-45.410,-45.898,-40.039,-53.711,0.000
1709206032.268,-49.316,-53.223,-36.621,-46.875,0.000
1709206032.272,-56.152,-47.852,-40.039,-40.039,0.000
1709206032.276,-65.918,-46.387,-42.969,-50.293,0.000
1709206032.280,-68.359,-51.758,-35.645,-50.781,0.000
1709206032.284,-62.988,-53.711,-33.691,-42.969,0.000
1709206032.288,-63.477,-40.527,-34.668,-49.805,0.000
1709206032.292,-73.242,-46.875,-32.227,-51.270,0.000
1709206032.296,-72.754,-64.941,-34.180,-44.434,0.000
1709206032.300,-75.195,-59.570,-35.156,-43.457,0.000
1709206032.304,-71.289,-47.852,-32.715,-38.574,0.000
1709206032.308,-62.988,-50.781,-32.227,-30.762,0.000
1709206032.311,-68.848,-59.570,-36.133,-41.016,0.000
1709206032.315,-59.570,-61.035,-38.574,-49.316,0.000
1709206032.319,-59.082,-47.363,-38.086,-46.387,0.000
1709206032.323,-66.406,-45.410,-40.039,-52.246,0.000
1709206032.327,-59.570,-63.965,-34.668,-40.527,0.000
1709206032.331,-51.270,-54.199,-34.180,-28.809,0.000
1709206032.335,-55.664,-39.062,-36.133,-48.340,0.000
1709206032.339,-48.828,-44.434,-28.809,-55.176,0.000
1709206032.343,-39.062,-44.922,-28.320,-44.922,0.000
1709206032.347,-27.832,-41.504,-35.156,-40.039,0.000
1709206032.351,-19.043,-40.527,-34.180,-42.480,0.000
1709206032.354,-28.809,-40.527,-33.691,-53.223,0.000
1709206032.358,-32.227,-37.598,-37.598,-60.059,0.000
1709206032.362,-29.297,-40.527,-42.480,-50.781,0.000
1709206032.366,-15.625,-35.645,-45.410,-41.992,0.000
1709206032.370,-15.137,-33.203,-45.410,-50.293,0.000
1709206032.374,-40.039,-46.387,-51.270,-54.688,0.000
1709206032.378,-45.898,-37.109,-50.293,-55.664,0.000
1709206032.382,-43.457,-36.133,-47.363,-52.734,0.000
1709206032.386,-45.898,-49.805,-49.316,-52.246,0.000
1709206032.390,-34.668,-46.387,-47.852,-50.781,0.000
1709206032.394,-36.621,-38.574,-47.363,-47.852,0.000
1709206032.397,-43.945,-43.457,-39.551,-46.875,0.000
1709206032.401,-50.781,-49.805,-34.668,-44.922,0.000
1709206032.405,-61.523,-52.246,-38.086,-51.270,0.000
1709206032.409,-57.617,-44.434,-40.527,-51.758,0.000
1709206032.413,-49.805,-40.527,-39.551,-47.852,0.000
1709206032.417,-54.688,-54.688,-42.969,-52.246,0.000
1709206032.421,-74.707,-56.152,-45.410,-60.547,0.000
1709206032.425,-74.219,-37.109,-45.410,-69.336,0.000
1709206032.429,-56.641,-40.527,-45.898,-66.895,0.000
1709206032.433,-41.992,-45.898,-41.504,-55.176,0.000
1709206032.437,-44.434,-40.527,-33.203,-51.758,0.000
1709206032.440,-47.363,-40.039,-29.297,-49.805,0.000
1709206032.444,-45.898,-46.875,-33.203,-46.875,0.000
1709206032.448,-53.711,-49.316,-34.180,-55.664,0.000
1709206032.452,-49.805,-43.457,-39.551,-44.434,0.000
1709206032.456,-43.457,-49.316,-39.551,-34.668,0.000
1709206032.460,-52.246,-57.617,-31.738,-43.457,0.000
1709206032.464,-62.500,-62.012,-33.203,-31.738,0.000
1709206032.468,-64.941,-48.828,-32.227,-27.344,0.000
1709206032.472,-64.941,-42.969,-33.203,-33.691,0.000
1709206032.476,-62.012,-56.152,-39.062,-35.645,0.000
1709206032.479,-65.430,-60.059,-40.039,-53.223,0.000
1709206032.483,-75.195,-55.664,-41.992,-58.594,0.000
1709206032.487,-75.195,-54.688,-38.086,-40.527,0.000
1709206032.491,-56.152,-56.641,-30.762,-32.227,0.000
1709206032.495,-47.852,-57.129,-33.691,-38.574,0.000
1709206032.499,-57.129,-54.688,-38.574,-41.992,0.000
1709206032.503,-50.781,-45.410,-39.062,-41.992,0.000
1709206032.507,-34.668,-48.828,-35.156,-39.062,0.000
1709206032.511,-39.551,-48.828,-33.203,-35.645,0.000
1709206032.515,-38.086,-33.691,-33.691,-54.199,0.000
1709206032.519,-41.016,-40.527,-38.086,-58.105,0.000
1709206032.522,-48.828,-46.387,-38.086,-39.062,0.000
1709206032.526,-45.898,-45.410,-36.133,-36.133,0.000
1709206032.530,-36.133,-41.992,-33.691,-46.875,0.000
1709206032.534,-32.227,-42.969,-31.250,-44.922,0.000
1709206032.538,-31.250,-46.875,-35.156,-32.715,0.000
1709206032.542,-37.109,-35.156,-36.621,-25.879,0.000
1709206032.546,-33.203,-31.738,-29.297,-23.438,0.000
1709206032.550,-25.391,-41.992,-28.320,-30.273,0.000
1709206032.554,-27.832,-48.340,-35.156,-30.273,0.000
1709206032.558,-29.785,-36.133,-39.551,-32.715,0.000
1709206032.561,-40.527,-27.344,-42.969,-38.086,0.000
1709206032.565,-37.598,-38.574,-44.922,-40.039,0.000
1709206032.569,-24.414,-37.598,-41.992,-32.227,0.000
1709206032.573,-36.133,-30.273,-43.945,-29.297,0.000
1709206032.577,-48.828,-34.668,-42.480,-52.246,0.000
1709206032.581,-51.270,-44.434,-40.527,-62.988,0.000
1709206032.585,-43.457,-46.387,-42.480,-57.129,0.000
1709206032.589,-48.828,-45.410,-41.504,-50.293,0.000
1709206032.593,-55.176,-48.828,-38.574,-45.898,0.000
1709206032.597,-51.758,-59.082,-37.598,-42.480,0.000
1709206032.601,-66.895,-61.523,-38.574,-49.316,0.000
1709206032.604,-71.289,-49.805,-33.691,-52.734,0.000
1709206032.608,-57.617,-43.457,-37.598,-50.293,0.000
1709206032.612,-54.199,-46.875,-36.133,-37.109,0.000
1709206032.616,-54.199,-53.223,-33.203,-29.297,0.000
1709206032.620,-60.547,-48.340,-39.062,-42.480,0.000
1709206032.624,-54.199,-42.480,-30.762,-39.062,0.000
1709206032.628,-41.992,-43.945,-28.320,-42.969,0.000
1709206032.632,-47.363,-46.875,-31.738,-51.270,0.000
1709206032.636,-43.945,-45.898,-27.344,-44.922,0.000
1709206032.640,-49.316,-49.805,-29.297,-42.480,0.000
1709206032.644,-52.246,-51.270,-34.668,-44.434,0.000
1709206032.647,-54.688,-45.410,-39.551,-45.410,0.000
1709206032.651,-41.504,-38.086,-35.156,-39.551,0.000
1709206032.655,-26.367,-48.340,-29.297,-39.551,0.000
1709206032.659,-39.062,-59.570,-31.738,-29.785,0.000
1709206032.663,-48.340,-41.992,-36.133,-27.344,0.000
1709206032.667,-40.527,-33.203,-32.715,-27.832,0.000
1709206032.671,-28.809,-41.992,-30.273,-20.020,0.000
1709206032.675,-27.832,-43.945,-32.227,-21.484,0.000
1709206032.679,-20.996,-41.504,-30.273,-29.297,0.000
1709206032.683,-31.738,-44.434,-31.250,-38.086,0.000
1709206032.687,-44.434,-46.875,-34.668,-35.645,0.000
1709206032.690,-34.180,-45.898,-38.086,-36.133,0.000
1709206032.694,-32.715,-45.898,-43.457,-34.668,0.000
1709206032.698,-36.621,-37.598,-44.434,-37.598,0.000
1709206032.702,-40.039,-42.969,-43.457,-30.762,0.000
1709206032.706,-40.039,-47.852,-46.875,-23.926,0.000
1709206032.710,-40.039,-34.180,-47.363,-33.691,0.000
1709206032.714,-34.180,-41.016,-41.992,-33.691,0.000
1709206032.718,-38.574,-47.852,-38.574,-37.109,0.000
1709206032.722,-44.922,-42.480,-39.551,-45.898,0.000
1709206032.726,-35.645,-44.922,-44.922,-47.852,0.000
1709206032.729,-22.461,-42.969,-43.945,-41.016,0.000
1709206032.733,-11.230,-42.969,-40.527,-41.992,0.000
1709206032.737,-28.809,-50.781,-38.574,-47.852,0.000
1709206032.741,-42.969,-45.410,-36.621,-40.039,0.000
1709206032.745,-33.203,-47.363,-37.109,-27.344,0.000
1709206032.749,-32.715,-58.105,-34.668,-18.555,0.000
1709206032.753,-32.715,-46.875,-38.574,-34.180,0.000
1709206032.757,-36.621,-40.039,-47.363,-47.852,0.000
1709206032.761,-42.969,-52.246,-46.387,-42.969,0.000
1709206032.765,-41.504,-53.711,-40.527,-39.551,0.000
1709206032.769,-38.086,-53.223,-37.109,-42.969,0.000
1709206032.772,-34.668,-52.246,-38.086,-47.852,0.000
1709206032.776,-29.297,-51.758,-38.086,-40.527,0.000
1709206032.780,-30.762,-53.223,-38.086,-40.039,0.000
1709206032.784,-41.504,-52.246,-41.504,-37.109,0.000
1709206032.788,-38.574,-43.945,-43.457,-36.621,0.000
1709206032.792,-20.996,-49.316,-42.480,-45.410,0.000
1709206032.796,-38.086,-55.664,-42.969,-44.434,0.000
1709206032.800,-55.176,-45.410,-44.434,-49.805,0.000
1709206032.804,-50.293,-52.246,-41.504,-42.969,0.000
1709206032.808,-49.316,-57.129,-42.969,-44.434,0.000
1709206032.812,-41.504,-49.316,-46.387,-52.734,0.000
1709206032.815,-43.457,-41.992,-42.480,-58.105,0.000
1709206032.819,-48.340,-44.434,-41.504,-49.805,0.000
1709206032.823,-47.363,-44.434,-41.504,-37.109,0.000
1709206032.827,-51.758,-48.828,-42.969,-39.551,0.000
1709206032.831,-50.293,-54.199,-47.363,-41.016,0.000
1709206032.835,-52.734,-46.387,-41.504,-45.410,0.000
1709206032.839,-57.617,-47.363,-35.156,-42.969,0.000
1709206032.843,-58.105,-41.504,-40.527,-36.621,0.000
1709206032.847,-51.758,-36.621,-41.016,-33.203,0.000
1709206032.851,-33.691,-47.852,-35.156,-29.785,0.000
1709206032.854,-28.320,-45.898,-33.203,-22.949,0.000
1709206032.858,-23.438,-33.203,-31.738,-22.949,0.000
1709206032.862,-27.344,-40.039,-37.598,-33.691,0.000
1709206032.866,-49.316,-50.781,-41.992,-28.809,0.000
1709206032.870,-46.875,-41.504,-39.551,-24.902,0.000
1709206032.874,-42.969,-40.039,-39.551,-40.527,0.000
1709206032.878,-52.734,-47.363,-40.039,-54.688,0.000
1709206032.882,-58.105,-53.711,-41.992,-40.039,0.000
1709206032.886,-57.617,-52.246,-42.480,-27.832,0.000
1709206032.890,-50.781,-34.668,-40.527,-49.805,0.000
1709206032.894,-40.527,-41.016,-42.969,-68.359,0.000
1709206032.897,-41.504,-49.805,-42.480,-60.059,0.000
1709206032.901,-47.363,-45.410,-38.574,-44.434,0.000
1709206032.905,-46.875,-43.457,-36.133,-33.691,0.000
1709206032.909,-35.156,-43.945,-31.250,-31.250,0.000
1709206032.913,-40.527,-45.898,-35.645,-35.156,0.000
1709206032.917,-45.410,-42.969,-38.086,-35.156,0.000
1709206032.921,-41.016,-42.480,-33.203,-29.785,0.000
1709206032.925,-42.969,-44.922,-36.133,-29.297,0.000
1709206032.929,-35.156,-43.945,-39.551,-28.809,0.000
1709206032.933,-35.645,-34.668,-42.969,-38.086,0.000
1709206032.937,-41.016,-35.156,-41.504,-50.781,0.000
1709206032.940,-38.086,-42.969,-39.551,-49.316,0.000
1709206032.944,-35.645,-40.039,-43.457,-46.875,0.000
1709206032.948,-22.949,-33.691,-37.598,-33.203,0.000
1709206032.952,-19.531,-32.715,-34.180,-30.273,0.000
1709206032.956,-30.762,-39.062,-36.133,-46.387,0.000
1709206032.960,-34.180,-37.109,-33.203,-51.270,0.000
1709206032.964,-39.551,-36.133,-31.738,-48.340,0.000
1709206032.968,-38.086,-34.668,-29.785,-51.758,0.000
1709206032.972,-34.668,-35.156,-30.762,-45.410,0.000
1709206032.976,-41.504,-36.621,-37.598,-44.434,0.000
1709206032.979,-56.641,-34.668,-36.133,-67.383,0.000
1709206032.983,-56.152,-38.574,-37.109,-61.035,0.000
1709206032.987,-49.316,-39.551,-40.039,-53.711,0.000
1709206032.991,-42.969,-37.109,-39.551,-64.453,0.000
1709206032.995,-31.738,-30.273,-42.969,-58.594,0.000
1709206032.999,-28.320,-32.227,-38.086,-48.340,0.000
1709206033.003,-29.297,-37.598,-33.203,-32.715,0.000
1709206033.007,-29.785,-31.738,-34.180,-35.645,0.000
1709206033.011,-26.367,-27.832,-43.945,-40.039,0.000
1709206033.015,-22.949,-35.156,-44.434,-34.180,0.000
1709206033.019,-27.344,-45.898,-36.621,-31.738,0.000
1709206033.022,-27.344,-44.922,-38.574,-21.484,0.000
1709206033.026,-18.555,-37.598,-33.203,-15.137,0.000
1709206033.030,-13.672,-38.574,-26.855,-19.531,0.000
1709206033.034,-26.367,-50.781,-29.785,-22.949,0.000
1709206033.038,-32.715,-48.340,-33.203,-34.668,0.000
1709206033.042,-31.250,-39.551,-33.203,-34.668,0.000
1709206033.046,-34.180,-39.062,-33.691,-16.113,0.000
1709206033.050,-41.504,-41.992,-38.086,-28.809,0.000
1709206033.054,-42.480,-39.062,-39.551,-53.711,0.000
1709206033.058,-33.203,-40.527,-34.668,-41.016,0.000
1709206033.062,-36.621,-39.551,-32.715,-25.391,0.000
1709206033.065,-35.156,-40.527,-34.668,-26.367,0.000
1709206033.069,-24.414,-39.551,-38.574,-34.180,0.000
1709206033.073,-32.227,-30.762,-40.527,-44.922,0.000
1709206033.077,-38.574,-42.969,-40.039,-39.551,0.000
1709206033.081,-46.387,-49.316,-40.039,-33.691,0.000
1709206033.085,-49.805,-39.062,-46.387,-49.316,0.000
1709206033.089,-50.781,-42.969,-44.434,-54.199,0.000
1709206033.093,-52.734,-45.410,-38.574,-44.922,0.000
1709206033.097,-49.805,-37.598,-42.480,-40.039,0.000
1709206033.101,-54.688,-36.133,-41.992,-47.852,0.000
1709206033.105,-52.734,-45.898,-43.945,-48.340,0.000
1709206033.108,-41.016,-44.922,-36.133,-33.203,0.000
1709206033.112,-40.527,-43.945,-30.762,-35.645,0.000
1709206033.116,-45.410,-38.086,-35.645,-49.805,0.000
1709206033.120,-41.504,-40.039,-36.621,-46.875,0.000
1709206033.124,-41.992,-48.340,-36.133,-21.973,0.000
1709206033.128,-46.387,-35.645,-35.156,-17.090,0.000
1709206033.132,-38.574,-31.250,-34.668,-30.273,0.000
1709206033.136,-39.551,-42.969,-33.203,-41.504,0.000
1709206033.140,-43.945,-45.410,-36.133,-33.691,0.000
1709206033.144,-36.621,-37.598,-41.016,-21.484,0.000
1709206033.147,-28.809,-41.992,-41.016,-19.043,0.000
1709206033.151,-33.691,-45.898,-38.574,-13.672,0.000
1709206033.155,-40.039,-45.898,-38.086,-14.160,0.000
1709206033.159,-38.574,-44.922,-38.574,-20.020,0.000
1709206033.163,-35.156,-40.039,-31.250,-27.832,0.000
1709206033.167,-32.715,-53.711,-30.273,-21.973,0.000
1709206033.171,-42.480,-59.082,-35.645,-24.902,0.000
1709206033.175,-51.270,-44.434,-35.645,-37.598,0.000
1709206033.179,-48.340,-41.504,-33.203,-35.156,0.000
1709206033.183,-44.922,-44.922,-34.180,-40.039,0.000
1709206033.187,-39.062,-40.039,-31.250,-34.668,0.000
1709206033.190,-40.527,-41.504,-29.785,-32.227,0.000
1709206033.194,-47.363,-48.340,-27.344,-30.762,0.000
1709206033.198,-50.293,-44.922,-22.461,-33.691,0.000
1709206033.202,-48.340,-39.551,-27.832,-34.180,0.000
1709206033.206,-45.410,-41.992,-37.598,-24.902,0.000
1709206033.210,-54.199,-44.922,-32.715,-34.180,0.000
1709206033.214,-57.617,-50.293,-31.738,-30.273,0.000
1709206033.218,-58.594,-39.551,-38.574,-30.762,0.000
1709206033.222,-60.547,-29.297,-36.621,-47.852,0.000
1709206033.226,-60.547,-40.039,-35.645,-44.922,0.000
1709206033.229,-51.270,-38.574,-39.062,-39.551,0.000
1709206033.233,-41.016,-35.645,-40.039,-47.852,0.000
1709206033.237,-55.176,-44.434,-38.574,-52.246,0.000
1709206033.241,-58.594,-48.828,-33.691,-42.480,0.000
1709206033.245,-53.711,-51.270,-40.039,-48.828,0.000
1709206033.249,-54.199,-45.410,-43.945,-55.176,0.000
1709206033.253,-50.781,-43.945,-41.504,-51.758,0.000
1709206033.257,-43.457,-62.988,-44.434,-52.734,0.000
1709206033.261,-41.016,-55.664,-44.434,-46.875,0.000
1709206033.265,-42.480,-37.598,-48.828,-49.805,0.000
1709206033.269,-35.156,-43.945,-52.734,-57.129,0.000
1709206033.272,-42.969,-44.434,-53.711,-62.012,0.000
1709206033.276,-50.781,-41.016,-54.199,-61.523,0.000
1709206033.280,-48.340,-41.504,-54.688,-64.941,0.000
1709206033.284,-43.945,-44.434,-42.480,-67.383,0.000
1709206033.288,-37.598,-41.016,-36.133,-61.523,0.000
1709206033.292,-24.414,-34.668,-40.039,-48.828,0.000
1709206033.296,-22.949,-42.480,-37.109,-43.457,0.000
1709206033.300,-34.668,-50.781,-36.621,-41.504,0.000
1709206033.304,-39.062,-51.270,-39.062,-27.832,0.000
1709206033.308,-39.551,-42.480,-43.457,-22.949,0.000
1709206033.312,-42.480,-37.109,-46.387,-39.062,0.000
1709206033.315,-33.691,-48.828,-47.363,-42.969,0.000
1709206033.319,-29.785,-53.711,-42.969,-33.691,0.000
1709206033.323,-52.246,-43.945,-39.062,-28.809,0.000
1709206033.327,-45.898,-37.109,-40.527,-26.855,0.000
1709206033.331,-35.156,-41.504,-39.551,-32.227,0.000
1709206033.335,-45.898,-42.480,-41.504,-32.227,0.000
1709206033.339,-49.316,-42.480,-37.109,-25.879,0.000
1709206033.343,-50.293,-40.527,-35.156,-32.715,0.000
1709206033.347,-47.852,-49.805,-36.133,-38.086,0.000
1709206033.351,-42.969,-55.176,-33.203,-32.715,0.000
1709206033.354,-42.480,-37.598,-31.250,-34.668,0.000
1709206033.358,-42.480,-34.180,-27.832,-41.016,0.000
1709206033.362,-49.316,-39.062,-29.785,-32.715,0.000
1709206033.366,-44.922,-39.062,-31.738,-21.484,0.000
1709206033.370,-31.250,-34.668,-34.180,-26.367,0.000
1709206033.374,-39.551,-40.527,-35.156,-33.203,0.000
1709206033.378,-39.062,-51.758,-34.668,-43.457,0.000
1709206033.382,-36.133,-45.410,-39.062,-45.410,0.000
1709206033.386,-38.574,-37.598,-38.086,-37.598,0.000
1709206033.390,-33.203,-36.621,-35.156,-32.715,0.000
1709206033.394,-31.738,-39.551,-36.133,-29.785,0.000
1709206033.397,-41.016,-44.922,-40.527,-45.898,0.000
1709206033.401,-46.387,-37.598,-41.992,-54.199,0.000
1709206033.405,-31.738,-39.551,-39.551,-38.574,0.000
1709206033.409,-29.297,-48.340,-39.062,-31.738,0.000
1709206033.413,-38.086,-39.551,-38.086,-40.527,0.000
1709206033.417,-38.086,-38.086,-41.992,-52.246,0.000
1709206033.421,-42.480,-47.363,-45.898,-58.594,0.000
1709206033.425,-41.016,-47.852,-43.457,-60.547,0.000
1709206033.429,-40.039,-39.062,-41.016,-49.805,0.000
1709206033.433,-33.691,-40.039,-37.598,-43.945,0.000
1709206033.437,-36.133,-48.828,-38.574,-43.457,0.000
1709206033.440,-44.922,-48.340,-41.016,-54.688,0.000
1709206033.444,-34.668,-40.039,-44.434,-59.082,0.000
1709206033.448,-32.715,-36.133,-47.363,-52.734,0.000
1709206033.452,-40.527,-54.199,-44.922,-41.992,0.000
1709206033.456,-41.016,-56.152,-48.340,-33.691,0.000
1709206033.460,-38.574,-34.668,-52.246,-39.551,0.000
1709206033.464,-41.016,-41.992,-49.805,-41.504,0.000
1709206033.468,-44.434,-49.805,-49.805,-44.922,0.000
1709206033.472,-42.969,-43.945,-44.434,-46.387,0.000
1709206033.476,-33.203,-41.016,-44.434,-47.852,0.000
1709206033.480,-44.434,-46.387,-42.969,-42.480,0.000
1709206033.483,-45.898,-53.223,-42.480,-35.156,0.000
1709206033.487,-40.039,-56.152,-46.875,-32.715,0.000
1709206033.491,-36.133,-48.340,-45.898,-36.133,0.000
1709206033.495,-31.250,-45.410,-43.945,-50.781,0.000
1709206033.499,-55.664,-55.176,-41.992,-50.293,0.000
1709206033.503,-59.082,-47.852,-38.086,-40.527,0.000
1709206033.507,-42.480,-42.969,-36.133,-39.062,0.000
1709206033.511,-37.109,-51.270,-36.133,-36.621,0.000
1709206033.515,-41.016,-49.316,-35.645,-31.738,0.000
1709206033.519,-41.504,-45.898,-39.062,-31.250,0.000
1709206033.523,-32.715,-47.363,-43.945,-33.203,0.000
1709206033.526,-31.250,-47.852,-38.086,-29.785,0.000
1709206033.530,-32.227,-45.898,-35.156,-30.762,0.000
1709206033.534,-35.156,-46.387,-41.016,-43.945,0.000
1709206033.538,-42.969,-42.969,-40.039,-56.152,0.000
1709206033.542,-42.969,-49.805,-42.969,-49.805,0.000
1709206033.546,-48.340,-52.734,-43.945,-42.480,0.000
1709206033.550,-50.293,-42.969,-41.016,-49.805,0.000
1709206033.554,-35.645,-49.316,-40.527,-46.387,0.000
1709206033.558,-43.945,-45.410,-34.180,-46.875,0.000
1709206033.562,-58.594,-33.203,-28.809,-57.617,0.000
1709206033.565,-48.340,-35.645,-33.691,-63.965,0.000
1709206033.569,-47.852,-46.875,-41.016,-56.641,0.000
1709206033.573,-65.430,-45.410,-43.945,-60.059,0.000
1709206033.577,-67.871,-47.852,-42.969,-61.523,0.000
1709206033.581,-65.430,-52.246,-44.922,-57.617,0.000
1709206033.585,-64.941,-53.223,-46.875,-62.012,0.000
1709206033.589,-56.152,-57.617,-45.898,-49.316,0.000
1709206033.593,-47.363,-43.457,-43.457,-41.504,0.000
1709206033.597,-44.434,-35.645,-42.480,-46.875,0.000
1709206033.601,-49.316,-49.805,-41.504,-41.016,0.000
1709206033.605,-52.734,-51.758,-38.574,-35.645,0.000
1709206033.608,-44.922,-47.363,-40.039,-43.457,0.000
1709206033.612,-33.203,-54.199,-41.504,-41.992,0.000
1709206033.616,-32.227,-62.500,-37.598,-30.762,0.000
1709206033.620,-32.227,-60.547,-32.227,-28.320,0.000
1709206033.624,-41.016,-47.852,-31.250,-32.227,0.000
1709206033.628,-50.293,-48.828,-35.156,-41.504,0.000
1709206033.632,-42.969,-63.965,-32.227,-39.551,0.000
1709206033.636,-47.852,-66.406,-32.715,-32.227,0.000
1709206033.640,-59.570,-53.223,-34.180,-40.527,0.000
1709206033.644,-54.199,-59.082,-28.320,-42.969,0.000
1709206033.647,-49.316,-53.711,-29.785,-39.551,0.000
1709206033.651,-50.293,-48.340,-31.250,-35.645,0.000
1709206033.655,-43.457,-51.270,-28.809,-33.691,0.000
1709206033.659,-36.621,-53.223,-31.250,-36.621,0.000
1709206033.663,-35.156,-57.129,-30.762,-49.805,0.000
1709206033.667,-24.902,-52.246,-28.809,-43.945,0.000
1709206033.671,-9.766,-41.992,-32.715,-35.156,0.000
1709206033.675,-4.395,-36.621,-33.691,-29.297,0.000
1709206033.679,-3.418,-41.016,-33.203,-14.648,0.000
1709206033.683,-21.973,-38.086,-38.574,-22.949,0.000
1709206033.687,-28.320,-33.691,-38.574,-22.461,0.000
1709206033.690,-14.160,-38.574,-37.109,-21.973,0.000
1709206033.694,-9.766,-35.156,-35.156,-30.762,0.000
1709206033.698,-13.672,-31.250,-31.738,-34.180,0.000
1709206033.702,-26.367,-33.203,-34.668,-36.621,0.000
1709206033.706,-22.949,-34.180,-31.250,-31.250,0.000
1709206033.710,-17.090,-36.133,-31.250,-30.273,0.000
1709206033.714,-25.391,-33.691,-40.039,-36.621,0.000
1709206033.718,-33.691,-31.738,-35.156,-31.250,0.000
1709206033.722,-37.598,-41.992,-33.691,-32.227,0.000
1709206033.726,-38.086,-43.457,-41.016,-38.086,0.000
1709206033.730,-39.062,-30.273,-39.551,-36.621,0.000
1709206033.733,-34.668,-26.855,-30.762,-51.758,0.000
1709206033.737,-32.227,-41.016,-29.785,-56.641,0.000
1709206033.741,-55.664,-44.922,-31.250,-45.410,0.000
1709206033.745,-57.129,-35.156,-29.785,-43.457,0.000
1709206033.749,-42.969,-35.156,-29.785,-34.180,0.000
1709206033.753,-43.945,-32.227,-37.109,-39.062,0.000
1709206033.757,-40.527,-30.762,-39.551,-41.504,0.000
1709206033.761,-50.781,-37.598,-41.992,-45.898,0.000
1709206033.765,-59.082,-42.480,-45.410,-52.246,0.000
1709206033.769,-53.223,-43.945,-41.016,-32.715,0.000
1709206033.772,-55.664,-45.410,-42.969,-36.133,0.000
1709206033.776,-58.105,-45.410,-43.945,-56.152,0.000
1709206033.780,-61.523,-48.340,-37.109,-54.199,0.000
1709206033.784,-61.035,-47.363,-35.645,-50.781,0.000
1709206033.788,-48.340,-33.691,-35.645,-44.434,0.000
1709206033.792,-32.715,-33.203,-39.062,-40.039,0.000
1709206033.796,-22.461,-48.828,-41.016,-46.875,0.000
1709206033.800,-48.828,-54.688,-43.457,-49.316,0.000
1709206033.804,-55.176,-49.805,-43.945,-49.805,0.000
1709206033.808,-35.645,-57.617,-43.457,-44.434,0.000
1709206033.812,-30.273,-61.035,-41.504,-34.668,0.000
1709206033.815,-32.227,-54.199,-41.016,-30.273,0.000
1709206033.819,-29.297,-42.480,-41.016,-39.062,0.000
1709206033.823,-29.785,-36.621,-42.480,-49.316,0.000
1709206033.827,-28.320,-54.688,-39.062,-35.156,0.000
1709206033.831,-22.461,-59.082,-37.598,-21.973,0.000
1709206033.835,-24.414,-42.969,-42.480,-24.902,0.000
1709206033.839,-24.902,-46.875,-37.598,-25.879,0.000
1709206033.843,-26.855,-46.875,-34.668,-24.414,0.000
1709206033.847,-35.156,-44.434,-35.156,-22.461,0.000
1709206033.851,-18.066,-49.805,-34.668,-26.855,0.000
1709206033.855,-14.160,-51.270,-40.527,-32.715,0.000
1709206033.858,-41.016,-49.316,-41.992,-33.691,0.000
1709206033.862,-46.387,-48.340,-36.133,-26.855,0.000
1709206033.866,-41.016,-38.574,-38.086,-31.250,0.000
1709206033.870,-37.109,-34.180,-40.039,-40.527,0.000
1709206033.874,-39.062,-49.316,-37.598,-45.898,0.000
1709206033.878,-49.805,-45.410,-38.086,-53.223,0.000
1709206033.882,-56.152,-40.527,-41.016,-61.035,0.000
1709206033.886,-57.617,-50.293,-41.016,-71.289,0.000
1709206033.890,-58.594,-43.457,-38.086,-70.801,0.000
1709206033.894,-60.547,-40.527,-38.574,-62.500,0.000
1709206033.898,-48.828,-47.363,-40.039,-59.082,0.000
1709206033.901,-56.641,-49.805,-34.180,-59.082,0.000
1709206033.905,-68.359,-49.805,-30.762,-55.176,0.000
1709206033.909,-44.434,-48.828,-30.762,-44.434,0.000
1709206033.913,-41.504,-48.340,-31.250,-43.457,0.000
1709206033.917,-47.852,-52.246,-35.645,-37.598,0.000
1709206033.921,-39.062,-49.805,-35.645,-21.973,0.000
1709206033.925,-32.227,-32.715,-36.621,-27.344,0.000
1709206033.929,-25.391,-37.598,-43.457,-33.203,0.000
1709206033.933,-22.461,-43.945,-43.457,-31.250,0.000
1709206033.937,-28.320,-38.086,-40.527,-36.133,0.000
1709206033.941,-25.879,-36.133,-40.039,-49.805,0.000
1709206033.944,-29.297,-48.340,-38.574,-55.664,0.000
1709206033.948,-37.109,-48.340,-38.574,-53.711,0.000
1709206033.952,-20.020,-35.645,-38.086,-49.805,0.000
1709206033.956,-20.996,-41.992,-40.527,-52.734,0.000
1709206033.960,-37.598,-48.828,-41.504,-48.340,0.000
1709206033.964,-37.598,-48.828,-41.504,-30.273,0.000
1709206033.968,-33.203,-39.062,-44.922,-34.180,0.000
1709206033.972,-19.531,-30.762,-41.992,-32.227,0.000
1709206033.976,-24.902,-44.434,-42.480,-30.273,0.000
1709206033.980,-42.480,-44.922,-47.852,-43.945,0.000
1709206033.983,-45.898,-35.645,-45.898,-33.691,0.000
1709206033.987,-39.062,-35.156,-43.457,-30.273,0.000
1709206033.991,-33.203,-41.016,-40.527,-34.668,0.000
1709206033.995,-21.973,-41.992,-37.109,-31.738,0.000
1709206033.999,-30.762,-35.156,-38.086,-29.785,0.000
1709206034.003,-58.105,-40.527,-38.086,-24.902,0.000
1709206034.007,-52.246,-52.734,-33.691,-20.020,0.000
1709206034.011,-41.504,-50.781,-31.250,-12.695,0.000
1709206034.015,-40.527,-30.273,-30.273,-11.230,0.000
1709206034.019,-51.758,-36.133,-39.062,-27.344,0.000
1709206034.023,-61.523,-45.410,-47.363,-44.434,0.000
1709206034.026,-60.547,-41.504,-36.621,-43.457,0.000
