timestamps,TP9,AF7,AF8,TP10,Right AUX
1709206272.177,-36.133,-49.805,-34.668,-42.969,0.000
1709206272.181,-34.668,-41.504,-34.180,-37.598,0.000
1709206272.185,-28.320,-33.203,-33.203,-28.320,0.000
1709206272.189,-29.297,-41.504,-38.086,-28.320,0.000
1709206272.193,-36.133,-52.246,-37.109,-35.645,0.000
1709206272.197,-24.414,-54.688,-29.297,-35.645,0.000
1709206272.201,-21.484,-49.316,-34.180,-36.133,0.000
1709206272.205,-43.457,-49.316,-36.621,-39.551,0.000
1709206272.209,-47.363,-56.641,-35.156,-31.738,0.000
1709206272.213,-41.016,-42.969,-41.016,-38.086,0.000
1709206272.216,-37.598,-38.086,-41.016,-51.270,0.000
1709206272.220,-43.457,-47.363,-41.504,-45.410,0.000
1709206272.224,-38.086,-44.922,-39.551,-29.785,0.000
1709206272.228,-38.574,-32.227,-38.086,-37.109,0.000
1709206272.232,-45.410,-44.434,-43.457,-53.223,0.000
1709206272.236,-38.574,-50.293,-37.109,-52.246,0.000
1709206272.240,-40.039,-49.805,-32.715,-42.480,0.000
1709206272.244,-41.016,-57.617,-38.086,-41.016,0.000
1709206272.248,-32.227,-45.898,-37.109,-43.457,0.000
1709206272.252,-27.832,-53.223,-36.621,-34.668,0.000
1709206272.255,-30.762,-46.387,-39.551,-28.809,0.000
1709206272.259,-35.645,-19.531,-40.527,-41.504,0.000
1709206272.263,-32.227,-35.156,-41.016,-44.434,0.000
1709206272.267,-28.320,-39.551,-40.039,-38.086,0.000
1709206272.271,-30.762,-37.109,-37.598,-36.133,0.000
1709206272.275,-26.367,-39.551,-40.039,-50.293,0.000
1709206272.279,-30.762,-60.059,-44.434,-59.570,0.000
1709206272.283,-41.504,-61.035,-39.062,-46.875,0.000
1709206272.287,-37.598,-45.410,-36.621,-45.410,0.000
1709206272.291,-39.062,-53.711,-36.621,-52.734,0.000
1709206272.295,-44.922,-60.547,-36.621,-53.223,0.000
1709206272.298,-51.270,-65.918,-40.039,-41.504,0.000
1709206272.302,-53.711,-47.852,-42.480,-42.480,0.000
1709206272.306,-46.387,-48.828,-39.062,-51.270,0.000
1709206272.310,-41.504,-59.570,-39.062,-48.340,0.000
1709206272.314,-46.875,-57.129,-39.062,-41.504,0.000
1709206272.318,-46.387,-49.805,-35.156,-37.109,0.000
1709206272.322,-42.480,-45.898,-39.062,-36.621,0.000
1709206272.326,-36.621,-54.199,-38.086,-35.645,0.000
1709206272.330,-38.086,-56.641,-39.551,-43.457,0.000
1709206272.334,-46.875,-58.105,-41.016,-43.457,0.000
1709206272.337,-54.199,-59.082,-34.180,-40.527,0.000
1709206272.341,-51.758,-78.125,-33.691,-29.785,0.000
1709206272.345,-43.457,-68.359,-39.062,-19.531,0.000
1709206272.349,-37.598,-25.879,-35.156,-32.227,0.000
1709206272.353,-31.250,-44.434,-32.715,-40.039,0.000
1709206272.357,-27.344,-54.199,-33.203,-30.273,0.000
1709206272.361,-20.020,-41.992,-30.762,-16.113,0.000
1709206272.365,-20.020,-42.969,-35.156,-19.531,0.000
1709206272.369,-25.391,-51.270,-38.574,-28.809,0.000
1709206272.373,-14.648,-51.758,-32.227,-31.250,0.000
1709206272.377,-13.672,-44.922,-33.203,-36.621,0.000
1709206272.380,-42.969,-44.922,-40.039,-38.086,0.000
1709206272.384,-43.945,-68.359,-42.480,-36.133,0.000
1709206272.388,-30.762,-75.684,-39.551,-32.227,0.000
1709206272.392,-39.551,-48.340,-39.551,-40.039,0.000
1709206272.396,-45.898,-43.457,-44.434,-49.316,0.000
1709206272.400,-48.340,-57.129,-45.410,-51.270,0.000
1709206272.404,-49.805,-49.805,-47.363,-45.898,0.000
1709206272.408,-47.852,-34.180,-50.781,-51.758,0.000
1709206272.412,-42.480,-41.504,-44.434,-57.129,0.000
1709206272.416,-43.945,-54.199,-39.551,-50.293,0.000
1709206272.419,-55.176,-61.035,-46.387,-54.688,0.000
1709206272.423,-52.734,-58.594,-47.852,-57.617,0.000
1709206272.427,-41.504,-61.035,-44.434,-59.570,0.000
1709206272.431,-48.828,-75.195,-46.875,-56.641,0.000
1709206272.435,-42.969,-66.406,-51.270,-52.246,0.000
1709206272.439,-33.691,-44.922,-47.852,-54.688,0.000
1709206272.443,-53.223,-52.734,-48.340,-50.293,0.000
1709206272.447,-50.781,-77.637,-45.410,-40.039,0.000
1709206272.451,-38.086,-68.359,-45.898,-42.480,0.000
1709206272.455,-37.598,-42.480,-49.805,-49.316,0.000
1709206272.459,-46.875,-53.223,-48.340,-50.293,0.000
1709206272.462,-51.758,-62.500,-50.781,-54.199,0.000
1709206272.466,-42.480,-47.852,-47.852,-47.363,0.000
1709206272.470,-38.086,-47.363,-43.457,-41.504,0.000
1709206272.474,-41.016,-70.801,-45.410,-46.387,0.000
1709206272.478,-39.551,-76.172,-42.969,-43.945,0.000
1709206272.482,-42.969,-48.828,-39.551,-39.062,0.000
1709206272.486,-50.293,-37.598,-43.457,-43.457,0.000
1709206272.490,-52.246,-62.988,-47.852,-43.945,0.000
1709206272.494,-41.016,-78.125,-43.457,-38.574,0.000
1709206272.498,-43.945,-43.945,-44.434,-43.457,0.000
1709206272.501,-52.246,-37.598,-49.805,-44.922,0.000
1709206272.505,-49.805,-57.617,-45.898,-34.180,0.000
1709206272.509,-38.086,-59.570,-48.828,-28.809,0.000
1709206272.513,-20.508,-41.992,-49.805,-34.668,0.000
1709206272.517,-28.809,-37.598,-39.062,-30.762,0.000
1709206272.521,-41.504,-50.781,-40.039,-29.785,0.000
1709206272.525,-36.133,-54.199,-41.504,-39.551,0.000
1709206272.529,-38.574,-44.434,-33.691,-43.945,0.000
1709206272.533,-40.039,-32.715,-30.273,-41.992,0.000
1709206272.537,-46.875,-70.312,-39.551,-38.574,0.000
1709206272.541,-58.105,-65.918,-39.551,-36.133,0.000
1709206272.544,-50.781,-24.414,-31.250,-40.527,0.000
1709206272.548,-40.039,-39.062,-29.297,-35.645,0.000
1709206272.552,-38.086,-42.480,-33.203,-39.062,0.000
1709206272.556,-45.898,-38.574,-35.645,-44.922,0.000
1709206272.560,-50.781,-40.039,-36.133,-39.062,0.000
1709206272.564,-42.969,-43.945,-35.645,-32.227,0.000
1709206272.568,-40.527,-48.828,-34.180,-31.250,0.000
1709206272.572,-36.133,-48.828,-35.156,-35.645,0.000
1709206272.576,-30.762,-29.785,-33.203,-37.598,0.000
1709206272.580,-40.527,-35.156,-35.645,-41.016,0.000
1709206272.584,-48.828,-55.664,-35.156,-27.344,0.000
1709206272.587,-37.109,-29.785,-33.691,-24.414,0.000
1709206272.591,-34.180,-20.020,-35.645,-40.039,0.000
1709206272.595,-24.902,-31.738,-31.250,-32.227,0.000
1709206272.599,-28.809,-38.574,-28.320,-19.531,0.000
1709206272.603,-47.852,-30.273,-27.832,-20.020,0.000
1709206272.607,-43.457,-32.227,-29.297,-22.949,0.000
1709206272.611,-37.598,-47.363,-29.297,-25.391,0.000
1709206272.615,-39.551,-44.434,-26.855,-28.320,0.000
1709206272.619,-42.969,-43.945,-28.809,-30.273,0.000
1709206272.623,-40.039,-42.480,-28.320,-30.273,0.000
1709206272.626,-39.062,-60.059,-27.344,-16.602,0.000
1709206272.630,-36.133,-45.410,-28.809,-12.695,0.000
1709206272.634,-38.574,-6.836,-31.738,-33.691,0.000
1709206272.638,-38.086,-34.180,-39.551,-43.457,0.000
1709206272.642,-48.340,-46.387,-35.645,-29.785,0.000
1709206272.646,-62.988,-35.645,-37.109,-29.297,0.000
1709206272.650,-48.340,-30.273,-44.922,-48.340,0.000
1709206272.654,-38.574,-44.434,-43.945,-57.617,0.000
1709206272.658,-48.340,-55.176,-43.945,-50.781,0.000
1709206272.662,-47.852,-42.969,-40.527,-40.039,0.000
1709206272.666,-42.969,-57.129,-39.062,-36.133,0.000
1709206272.669,-43.945,-65.918,-42.969,-47.363,0.000
1709206272.673,-41.992,-66.895,-45.898,-40.039,0.000
1709206272.677,-41.504,-45.898,-47.363,-44.922,0.000
1709206272.681,-36.621,-39.551,-44.922,-53.711,0.000
1709206272.685,-36.133,-54.688,-41.504,-40.527,0.000
1709206272.689,-31.250,-40.527,-42.969,-37.598,0.000
1709206272.693,-40.039,-35.156,-41.504,-44.434,0.000
1709206272.697,-52.246,-43.945,-33.203,-38.574,0.000
1709206272.701,-39.062,-54.199,-32.715,-38.086,0.000
1709206272.705,-34.180,-54.688,-40.527,-47.363,0.000
1709206272.708,-38.574,-46.875,-38.086,-39.062,0.000
1709206272.712,-42.969,-56.152,-39.551,-37.109,0.000
1709206272.716,-47.363,-75.195,-42.480,-48.340,0.000
1709206272.720,-52.734,-62.988,-42.969,-54.688,0.000
1709206272.724,-56.641,-30.273,-46.875,-61.523,0.000
1709206272.728,-53.711,-43.457,-40.527,-58.105,0.000
1709206272.732,-44.922,-49.316,-36.621,-54.688,0.000
1709206272.736,-33.691,-45.410,-41.504,-46.875,0.000
1709206272.740,-33.691,-50.293,-43.457,-37.598,0.000
1709206272.744,-41.016,-53.223,-38.086,-39.062,0.000
1709206272.748,-43.945,-58.105,-26.855,-40.039,0.000
1709206272.751,-34.668,-58.594,-24.902,-38.574,0.000
1709206272.755,-35.156,-69.824,-27.344,-50.293,0.000
1709206272.759,-54.199,-89.355,-22.461,-50.781,0.000
1709206272.763,-54.199,-105.469,-20.996,-38.086,0.000
1709206272.767,-55.176,-90.820,-23.438,-45.410,0.000
1709206272.771,-48.340,-88.379,-15.625,-42.480,0.000
1709206272.775,-43.945,-110.840,-7.812,-32.715,0.000
1709206272.779,-52.734,-117.676,-12.207,-38.086,0.000
1709206272.783,-55.176,-106.445,-15.137,-35.156,0.000
1709206272.787,-60.059,-109.375,-13.184,-24.414,0.000
1709206272.791,-62.500,-133.301,-15.625,-23.926,0.000
1709206272.794,-56.152,-145.996,-19.531,-20.508,0.000
1709206272.798,-51.758,-134.277,-19.043,-13.672,0.000
1709206272.802,-60.059,-135.742,-22.949,-19.531,0.000
1709206272.806,-52.246,-156.250,-25.879,-15.137,0.000
1709206272.810,-54.199,-150.879,-23.438,-5.371,0.000
1709206272.814,-67.383,-138.672,-19.531,-10.742,0.000
1709206272.818,-62.012,-150.879,-22.461,-18.555,0.000
1709206272.822,-61.523,-174.805,-20.996,-3.906,0.000
1709206272.826,-58.594,-157.715,-16.602,1.953,0.000
1709206272.830,-49.316,-132.812,-19.531,-3.418,0.000
1709206272.834,-46.875,-154.785,-17.090,-1.953,0.000
1709206272.837,-48.828,-157.715,-13.672,8.301,0.000
1709206272.841,-48.828,-146.973,-16.602,16.113,0.000
1709206272.845,-53.711,-150.879,-18.555,8.789,0.000
1709206272.849,-50.781,-154.297,-14.160,12.207,0.000
1709206272.853,-47.363,-161.621,-15.625,12.695,0.000
1709206272.857,-46.875,-152.832,-18.066,9.277,0.000
1709206272.861,-55.176,-135.742,-17.578,1.953,0.000
1709206272.865,-55.176,-148.926,-21.973,-5.859,0.000
1709206272.869,-46.875,-164.062,-23.926,0.977,0.000
1709206272.873,-36.621,-129.883,-22.461,-7.812,0.000
1709206272.876,-48.340,-121.582,-28.320,-10.742,0.000
1709206272.880,-58.594,-134.277,-22.461,2.441,0.000
1709206272.884,-47.852,-127.930,-23.438,0.488,0.000
1709206272.888,-43.457,-114.258,-28.320,-2.441,0.000
1709206272.892,-34.668,-112.305,-23.926,-4.395,0.000
1709206272.896,-36.621,-125.977,-23.926,-12.695,0.000
1709206272.900,-46.387,-127.441,-24.902,-11.230,0.000
1709206272.904,-50.293,-106.934,-28.320,-13.672,0.000
1709206272.908,-53.223,-105.469,-36.621,-20.996,0.000
1709206272.912,-57.617,-139.648,-40.039,-14.648,0.000
1709206272.916,-52.246,-128.418,-36.621,2.441,0.000
1709206272.919,-51.270,-97.656,-35.645,-9.277,0.000
1709206272.923,-41.992,-110.840,-35.645,-20.508,0.000
1709206272.927,-32.715,-106.934,-39.062,-11.719,0.000
1709206272.931,-30.762,-89.844,-37.109,-12.207,0.000
1709206272.935,-31.250,-83.008,-36.621,-26.855,0.000
1709206272.939,-35.156,-83.008,-39.062,-26.855,0.000
1709206272.943,-20.020,-84.473,-35.156,-18.066,0.000
1709206272.947,-10.254,-84.473,-36.133,-17.578,0.000
1709206272.951,-21.484,-77.637,-38.574,-14.648,0.000
1709206272.955,-28.809,-81.543,-38.574,-18.555,0.000
1709206272.959,-33.691,-98.633,-40.039,-22.461,0.000
1709206272.962,-31.738,-77.148,-41.016,-18.555,0.000
1709206272.966,-23.926,-60.547,-40.039,-15.625,0.000
1709206272.970,-19.531,-63.965,-43.457,-16.602,0.000
1709206272.974,-20.020,-62.500,-38.086,-18.555,0.000
1709206272.978,-21.484,-50.781,-30.762,-15.137,0.000
1709206272.982,-20.508,-60.059,-31.738,-10.254,0.000
1709206272.986,-17.090,-79.590,-32.227,-1.953,0.000
1709206272.990,-15.137,-69.336,-30.762,-12.207,0.000
1709206272.994,-19.531,-64.941,-28.809,-27.344,0.000
1709206272.998,-20.020,-64.941,-33.691,-23.438,0.000
1709206273.001,-22.949,-83.984,-35.156,-15.137,0.000
1709206273.005,-30.273,-77.637,-34.668,-5.859,0.000
1709206273.009,-21.973,-42.969,-37.598,-20.996,0.000
1709206273.013,-26.367,-51.270,-35.645,-35.156,0.000
1709206273.017,-39.062,-55.176,-30.762,-24.902,0.000
1709206273.021,-42.480,-61.035,0.000,-21.973,0.000
1709206273.025,-42.969,-59.570,0.000,-19.531,0.000
1709206273.029,-33.203,-52.246,0.000,-20.996,0.000
1709206273.033,-32.227,-63.477,0.000,-31.250,0.000
1709206273.037,-34.180,-57.129,0.000,-29.785,0.000
1709206273.041,-32.227,-50.781,0.000,-24.902,0.000
1709206273.044,-28.320,-58.594,0.000,-21.973,0.000
1709206273.048,-21.484,-64.453,0.000,-6.348,0.000
1709206273.052,-17.578,-36.133,0.000,-10.254,0.000
1709206273.056,-17.578,-39.062,0.000,-20.020,0.000
1709206273.060,-15.137,-55.176,0.000,-10.742,0.000
1709206273.064,-11.230,-36.621,0.000,-13.672,0.000
1709206273.068,-8.301,-25.879,-37.598,-24.902,0.000
1709206273.072,-11.719,-33.691,-42.480,-34.180,0.000
1709206273.076,-19.043,-53.223,-42.480,-42.969,0.000
1709206273.080,-28.809,-57.617,-37.598,-39.551,0.000
1709206273.083,-31.738,-45.898,-40.527,-38.086,0.000
1709206273.087,-20.996,-46.387,-42.480,-45.410,0.000
1709206273.091,-24.414,-68.848,-38.086,-36.621,0.000
1709206273.095,-40.039,-58.594,-36.133,-39.551,0.000
1709206273.099,-34.668,-20.996,-32.715,-45.410,0.000
1709206273.103,-28.809,-36.621,-35.156,-39.551,0.000
1709206273.107,-24.902,-45.898,-39.062,-35.645,0.000
1709206273.111,-21.484,-34.180,-41.016,-34.668,0.000
1709206273.115,-27.832,-37.598,-42.480,-36.621,0.000
1709206273.119,-29.297,-45.898,-29.297,-26.855,0.000
1709206273.123,-33.691,-52.734,-29.785,-25.391,0.000
1709206273.126,-39.062,-42.969,-35.156,-28.809,0.000
1709206273.130,-35.645,-44.434,-34.180,-31.250,0.000
1709206273.134,-36.133,-57.617,-34.180,-37.598,0.000
1709206273.138,-44.434,-74.707,-34.668,-30.273,0.000
1709206273.142,-44.922,-50.781,-36.133,-20.508,0.000
1709206273.146,-44.434,-29.297,-38.574,-24.902,0.000
1709206273.150,-40.527,-57.129,-43.457,-25.391,0.000
1709206273.154,-30.273,-55.664,-43.457,-33.691,0.000
1709206273.158,-41.992,-36.133,-38.574,-46.387,0.000
1709206273.162,-49.805,-42.969,-41.016,-40.039,0.000
1709206273.166,-42.480,-57.617,-42.969,-32.715,0.000
1709206273.169,-39.551,-48.340,-36.133,-22.461,0.000
1709206273.173,-40.039,-44.434,-39.551,-23.438,0.000
1709206273.177,-35.156,-58.594,-36.621,-22.949,0.000
1709206273.181,-35.645,-84.961,-30.273,-8.789,0.000
1709206273.185,-37.598,-66.406,-29.297,-9.766,0.000
1709206273.189,-39.551,-32.715,-31.738,-24.902,0.000
1709206273.193,-41.016,-47.852,-32.715,-28.320,0.000
1709206273.197,-31.738,-62.500,-26.367,-19.531,0.000
1709206273.201,-37.598,-45.898,-26.367,-21.484,0.000
1709206273.205,-43.457,-30.273,-35.645,-32.227,0.000
1709206273.209,-35.645,-41.016,-37.109,-29.297,0.000
1709206273.212,-27.344,-43.457,-33.691,-30.273,0.000
1709206273.216,-33.691,-38.574,-37.109,-41.016,0.000
1709206273.220,-37.598,-38.574,-41.504,-44.922,0.000
1709206273.224,-33.203,-42.969,-42.969,-47.852,0.000
1709206273.228,-55.664,-52.734,-44.434,-52.246,0.000
1709206273.232,-52.246,-39.551,-41.016,-51.270,0.000
1709206273.236,-39.062,-26.855,-36.621,-56.641,0.000
1709206273.240,-42.969,-46.875,-41.016,-52.734,0.000
1709206273.244,-44.434,-65.918,-43.945,-38.086,0.000
1709206273.248,-46.875,-35.156,-44.434,-44.434,0.000
1709206273.251,-43.945,-36.133,-44.434,-52.734,0.000
1709206273.255,-41.016,-58.594,-43.945,-46.875,0.000
1709206273.259,-38.086,-44.434,-46.387,-46.387,0.000
1709206273.263,-42.480,-34.180,-42.969,-51.758,0.000
1709206273.267,-44.434,-39.062,-37.598,-55.176,0.000
1709206273.271,-43.945,-54.199,-38.086,-57.129,0.000
1709206273.275,-51.758,-60.547,-37.109,-51.758,0.000
1709206273.279,-54.199,-42.480,-39.551,-39.551,0.000
1709206273.283,-49.805,-28.809,-41.504,-29.297,0.000
1709206273.287,-47.852,-66.406,-37.598,-20.996,0.000
1709206273.291,-37.109,-62.012,-41.504,-21.484,0.000
1709206273.294,-38.574,-20.508,-40.527,-31.738,0.000
1709206273.298,-46.875,-33.203,-35.156,-26.855,0.000
1709206273.302,-49.316,-41.016,-36.621,-19.531,0.000
1709206273.306,-51.270,-24.414,-40.527,-25.879,0.000
1709206273.310,-52.246,-33.691,-40.039,-43.457,0.000
1709206273.314,-48.828,-47.852,-37.598,-50.293,0.000
1709206273.318,-47.852,-45.410,-35.156,-46.387,0.000
1709206273.322,-50.293,-50.293,-33.691,-44.922,0.000
1709206273.326,-47.852,-43.457,-38.086,-53.223,0.000
1709206273.330,-46.875,-45.898,-39.062,-53.711,0.000
1709206273.334,-43.457,-67.383,-41.016,-40.527,0.000
1709206273.337,-38.574,-53.223,-43.945,-39.551,0.000
1709206273.341,-28.320,-32.715,-45.410,-43.457,0.000
1709206273.345,-29.785,-43.457,-42.480,-35.645,0.000
1709206273.349,-35.645,-51.270,-42.480,-43.457,0.000
1709206273.353,-38.086,-39.551,-44.922,-51.270,0.000
1709206273.357,-35.156,-36.621,-41.504,-32.227,0.000
1709206273.361,-28.320,-47.852,-41.016,-24.902,0.000
1709206273.365,-28.320,-47.852,-43.945,-39.062,0.000
1709206273.369,-25.879,-39.551,-43.945,-47.852,0.000
1709206273.373,-28.809,-41.992,-43.457,-44.434,0.000
1709206273.376,-30.273,-68.848,-39.551,-30.273,0.000
1709206273.380,-37.109,-62.988,-36.133,-18.555,0.000
1709206273.384,-39.062,-25.879,-36.621,-22.949,0.000
1709206273.388,-30.762,-38.574,-36.621,-24.902,0.000
1709206273.392,-36.133,-47.363,-36.133,-28.320,0.000
1709206273.396,-30.762,-36.621,-38.574,-31.250,0.000
1709206273.400,-18.066,-35.645,-41.504,-34.668,0.000
1709206273.404,-39.062,-49.805,-41.992,-35.645,0.000
1709206273.408,-45.410,-49.316,-45.898,-32.227,0.000
1709206273.412,-39.062,-40.039,-44.922,-36.621,0.000
1709206273.416,-41.016,-50.293,-42.969,-53.223,0.000
1709206273.419,-42.969,-58.594,-41.016,-57.617,0.000
1709206273.423,-42.480,-62.988,-35.156,-38.086,0.000
1709206273.427,-37.109,-42.969,-34.180,-35.156,0.000
1709206273.431,-39.062,-38.086,-35.645,-41.992,0.000
1709206273.435,-39.551,-47.363,-26.855,-33.691,0.000
1709206273.439,-41.016,-39.551,-27.832,-37.598,0.000
1709206273.443,-51.758,-37.109,-40.039,-42.969,0.000
1709206273.447,-57.129,-38.574,-35.156,-39.062,0.000
1709206273.451,-40.039,-50.781,-30.762,-43.457,0.000
1709206273.455,-35.645,-53.711,-37.598,-49.316,0.000
1709206273.459,-49.805,-51.270,-38.574,-42.969,0.000
1709206273.462,-42.480,-56.152,-34.668,-34.180,0.000
1709206273.466,-39.062,-72.266,-37.598,-30.762,0.000
1709206273.470,-44.434,-64.941,-41.992,-28.320,0.000
1709206273.474,-42.969,-33.691,-41.992,-38.086,0.000
1709206273.478,-36.133,-42.480,-37.109,-33.691,0.000
1709206273.482,-25.879,-44.434,-31.738,-21.484,0.000
1709206273.486,-26.855,-38.086,-37.109,-29.297,0.000
1709206273.490,-32.715,-40.527,-39.062,-35.156,0.000
1709206273.494,-30.762,-44.922,-29.297,-27.832,0.000
1709206273.498,-14.160,-42.480,-27.344,-21.973,0.000
1709206273.501,-20.508,-33.203,-34.180,-33.203,0.000
1709206273.505,-30.762,-40.527,-33.691,-31.250,0.000
1709206273.509,-16.113,-56.152,-34.180,-30.762,0.000
1709206273.513,-16.602,-64.941,-38.574,-24.414,0.000
1709206273.517,-22.461,-36.621,-36.621,-24.902,0.000
1709206273.521,-26.367,-18.066,-36.133,-34.180,0.000
1709206273.525,-33.203,-42.969,-40.039,-26.367,0.000
1709206273.529,-31.250,-48.340,-35.645,-24.902,0.000
1709206273.533,-23.438,-31.738,-34.668,-29.297,0.000
1709206273.537,-15.137,-41.016,0.000,-35.645,0.000
1709206273.540,-41.504,-53.223,0.000,-33.691,0.000
1709206273.544,-60.547,-45.410,0.000,-29.785,0.000
1709206273.548,-49.805,-35.645,0.000,-32.227,0.000
1709206273.552,-45.898,-45.410,0.000,-37.598,0.000
1709206273.556,-41.504,-76.172,0.000,-37.109,0.000
1709206273.560,-44.434,-58.105,0.000,-36.621,0.000
1709206273.564,-44.434,-21.973,0.000,-40.527,0.000
1709206273.568,-30.762,-32.227,0.000,-39.062,0.000
1709206273.572,-42.480,-58.105,0.000,-36.133,0.000
1709206273.576,-57.617,-50.293,0.000,-45.410,0.000
1709206273.580,-53.223,-40.527,0.000,-53.223,0.000
1709206273.583,-51.270,-56.641,-42.480,-53.223,0.000
1709206273.587,-51.270,-59.570,-40.527,-49.805,0.000
1709206273.591,-42.480,-46.387,-33.691,-42.969,0.000
1709206273.595,-36.133,-52.734,-36.133,-46.875,0.000
1709206273.599,-46.875,-67.871,-41.504,-48.828,0.000
1709206273.603,-55.176,-64.941,-41.504,-42.969,0.000
1709206273.607,-53.711,-53.711,-42.969,-49.805,0.000
1709206273.611,-43.457,-41.992,-44.434,-53.711,0.000
1709206273.615,-39.062,-59.082,-43.457,-46.875,0.000
1709206273.619,-44.922,-75.684,-43.457,-42.969,0.000
1709206273.623,-46.387,-41.992,-43.457,-46.387,0.000
1709206273.626,-40.039,-40.039,-43.945,-51.758,0.000
1709206273.630,0.000,-59.082,-41.992,-46.387,0.000
1709206273.634,0.000,-53.223,-40.527,-47.852,0.000
1709206273.638,0.000,-46.387,-42.480,-45.410,0.000
1709206273.642,0.000,-45.410,-39.062,-31.250,0.000
1709206273.646,0.000,-51.758,-41.016,-33.203,0.000
1709206273.650,0.000,-61.035,-46.875,-42.480,0.000
1709206273.654,0.000,-58.594,-44.922,-44.434,0.000
1709206273.658,0.000,-56.152,-45.898,-43.457,0.000
1709206273.662,0.000,-68.359,-42.480,-36.133,0.000
1709206273.666,0.000,-60.059,-41.992,-31.250,0.000
1709206273.669,0.000,-31.738,-40.527,-41.504,0.000
1709206273.673,0.000,-43.945,-36.621,-42.969,0.000
1709206273.677,-45.410,-51.270,-38.574,-43.457,0.000
1709206273.681,-49.316,-41.016,-41.504,-51.270,0.000
1709206273.685,-46.875,-33.203,-37.598,-35.645,0.000
1709206273.689,-37.598,-39.551,-34.180,-28.809,0.000
1709206273.693,-25.879,-49.316,-38.086,-32.715,0.000
1709206273.697,-31.738,-51.270,-36.133,-28.809,0.000
1709206273.701,-44.434,-40.039,-34.180,-27.344,0.000
1709206273.705,-34.180,-40.527,-28.320,-26.367,0.000
1709206273.708,-32.227,-61.035,-29.297,-20.996,0.000
1709206273.712,-30.762,-37.598,-26.855,-20.020,0.000
1709206273.716,-28.809,-30.762,-23.438,-29.785,0.000
1709206273.720,-39.551,-42.969,-28.809,-35.156,0.000
1709206273.724,-36.621,-34.668,-27.832,-27.344,0.000
1709206273.728,-25.879,-24.902,-33.203,-30.762,0.000
1709206273.732,-30.762,-27.832,-36.133,-39.062,0.000
1709206273.736,-33.691,-41.016,-33.203,-39.062,0.000
1709206273.740,-30.273,-37.598,-37.598,-40.527,0.000
1709206273.744,-27.832,-36.133,-38.086,-29.297,0.000
1709206273.748,-36.133,-31.738,-40.527,-29.785,0.000
1709206273.751,-36.133,-49.805,-47.852,-40.039,0.000
1709206273.755,-38.574,-51.758,-44.434,-42.969,0.000
1709206273.759,-35.156,-21.973,-47.852,-47.363,0.000
1709206273.763,-28.809,-37.109,-46.875,-38.086,0.000
1709206273.767,-35.156,-47.363,-36.133,-29.297,0.000
1709206273.771,-33.691,-35.156,-30.273,-33.203,0.000
1709206273.775,-33.203,-34.180,-24.414,-42.969,0.000
1709206273.779,-37.109,-51.758,-25.391,-50.293,0.000
1709206273.783,-44.922,-52.734,-32.227,-50.781,0.000
1709206273.787,-52.734,-47.852,-29.785,-51.758,0.000
1709206273.790,-61.035,-63.965,-32.227,-56.641,0.000
1709206273.794,-64.941,-71.777,-36.133,-60.059,0.000
1709206273.798,-63.477,-74.707,-35.156,-46.875,0.000
1709206273.802,-62.500,-45.410,-31.250,-41.504,0.000
1709206273.806,-66.895,-49.316,-31.250,-53.223,0.000
1709206273.810,-61.035,-70.801,-33.691,-53.223,0.000
1709206273.814,-56.641,-60.547,-34.180,-41.504,0.000
1709206273.818,-66.406,-56.152,-35.645,-37.598,0.000
1709206273.822,-54.688,-58.594,-37.109,-41.992,0.000
1709206273.826,-52.734,-66.895,-39.551,-44.434,0.000
1709206273.830,-64.941,-58.594,-36.621,-37.109,0.000
1709206273.833,-53.711,-51.270,-33.691,-32.715,0.000
1709206273.837,-50.293,-61.035,-32.227,-35.156,0.000
1709206273.841,-52.734,-85.449,-28.809,-24.902,0.000
1709206273.845,-48.828,-70.312,-29.297,-19.531,0.000
1709206273.849,-44.922,-29.297,-30.273,-30.762,0.000
1709206273.853,-50.293,-47.852,-35.645,-39.062,0.000
1709206273.857,-53.711,-57.617,-40.527,-47.363,0.000
1709206273.861,-50.293,-47.852,-39.062,-44.434,0.000
1709206273.865,-42.969,-41.504,-37.109,-42.969,0.000
1709206273.869,-38.086,-53.711,-37.109,-47.852,0.000
1709206273.872,-41.016,-57.617,-41.016,-42.969,0.000
1709206273.876,-39.062,-43.945,-34.668,-32.715,0.000
1709206273.880,-28.809,-59.082,-36.133,-38.086,0.000
1709206273.884,-35.645,-69.824,-42.480,-40.527,0.000
1709206273.888,-46.387,-54.688,-41.504,-28.320,0.000
1709206273.892,-38.574,-29.785,-41.016,-37.598,0.000
1709206273.896,-39.062,-35.156,-40.527,-46.875,0.000
1709206273.900,-41.992,-62.012,-36.621,-40.527,0.000
1709206273.904,-42.480,-60.059,-30.762,-36.621,0.000
1709206273.908,-42.480,-37.598,-33.691,-39.551,0.000
1709206273.912,-43.945,-38.086,-37.109,-36.621,0.000
1709206273.915,-47.363,-60.059,-35.645,-35.156,0.000
1709206273.919,-54.199,-62.988,-37.109,-41.016,0.000
1709206273.923,-53.223,-43.457,-39.062,-39.551,0.000
1709206273.927,-40.039,-45.898,-36.621,-34.668,0.000
1709206273.931,-41.992,-77.637,-33.203,-32.715,0.000
1709206273.935,-43.457,-74.707,-36.133,-41.504,0.000
1709206273.939,-29.785,-43.457,-35.645,-45.410,0.000
1709206273.943,-46.387,-50.293,-41.504,-47.852,0.000
1709206273.947,-52.246,-62.012,-38.574,-39.062,0.000
1709206273.951,-36.133,-45.898,-30.762,-28.320,0.000
1709206273.954,-32.715,-33.203,-34.180,-27.344,0.000
1709206273.958,-30.273,-42.969,-34.180,-16.602,0.000
1709206273.962,-27.832,-47.852,-37.109,-17.578,0.000
1709206273.966,-17.578,-30.762,-37.598,-24.414,0.000
1709206273.970,-12.207,-21.973,-34.180,-29.785,0.000
1709206273.974,-20.020,-44.922,-39.062,-34.668,0.000
1709206273.978,-26.855,-62.988,-41.504,-31.738,0.000
1709206273.982,-24.414,-50.293,-39.551,-28.809,0.000
1709206273.986,-21.484,-39.551,-37.109,-28.320,0.000
1709206273.990,-22.949,-50.293,-33.203,-28.320,0.000
1709206273.994,-16.602,-58.594,-29.297,-24.902,0.000
1709206273.997,-22.949,-40.527,-28.320,-35.156,0.000
1709206274.001,-41.992,-26.855,-31.250,-34.668,0.000
1709206274.005,-36.621,-37.598,-29.785,-34.180,0.000
1709206274.009,-34.180,-44.434,-33.203,-45.898,0.000
1709206274.013,-36.133,-34.180,-38.574,-39.062,0.000
1709206274.017,-39.062,-40.527,-41.016,-46.387,0.000
1709206274.021,-39.551,-53.711,-37.109,-46.875,0.000
1709206274.025,-38.574,-58.594,-31.250,-42.480,0.000
1709206274.029,-35.645,-41.016,-26.855,-43.457,0.000
1709206274.033,-33.203,-31.250,-25.879,-40.039,0.000
1709206274.037,-36.133,-67.383,-23.438,-33.203,0.000
1709206274.040,-41.504,-64.453,-23.926,-28.809,0.000
1709206274.044,-46.875,-29.785,-27.832,-30.762,0.000
1709206274.048,-45.898,-46.387,-33.691,-30.273,0.000
1709206274.052,-29.297,-60.547,-38.086,-40.527,0.000
1709206274.056,-20.508,-44.922,-32.227,-41.992,0.000
1709206274.060,-44.922,-41.992,-34.180,-39.062,0.000
1709206274.064,-48.828,-55.176,-39.551,-38.086,0.000
1709206274.068,-37.598,-52.734,-37.109,-28.809,0.000
1709206274.072,-37.598,-48.340,-35.156,-38.574,0.000
1709206274.076,-46.387,-49.805,-38.574,-58.594,0.000
1709206274.080,-44.434,-56.641,-34.668,-49.316,0.000
1709206274.083,-40.527,-72.266,-31.738,-31.250,0.000
1709206274.087,-46.387,-49.316,-36.133,-30.273,0.000
1709206274.091,-46.387,-38.086,-39.551,-39.062,0.000
1709206274.095,-33.691,-53.223,-36.621,-42.969,0.000
1709206274.099,-40.527,-52.246,-40.039,-38.086,0.000
1709206274.103,-44.434,-38.574,-42.969,-38.574,0.000
1709206274.107,-33.203,-41.016,-37.598,-46.387,0.000
1709206274.111,-38.086,-54.199,-38.086,-49.805,0.000
1709206274.115,-39.551,-53.223,-37.109,-46.387,0.000
1709206274.119,-19.531,-55.664,-37.598,-41.992,0.000
1709206274.122,-33.691,-53.223,-39.551,-43.945,0.000
1709206274.126,-52.246,-63.477,-40.039,-34.180,0.000
1709206274.130,-43.945,-55.664,-39.551,-31.250,0.000
1709206274.134,-45.898,-24.414,-37.109,-41.016,0.000
1709206274.138,-41.504,-39.062,-36.133,-33.203,0.000
1709206274.142,-42.969,-41.992,-34.668,-34.180,0.000
1709206274.146,-41.992,-28.809,-32.715,-32.715,0.000
1709206274.150,-34.180,-30.762,-31.250,-26.855,0.000
1709206274.154,-30.762,-45.410,-33.203,-44.434,0.000
1709206274.158,-39.062,-48.340,-34.668,-49.316,0.000
1709206274.162,-46.387,-47.363,-34.668,-35.156,0.000
1709206274.165,-29.785,-50.293,-36.133,-27.832,0.000
1709206274.169,-35.156,-52.246,-34.180,-28.320,0.000
1709206274.173,-41.992,-61.035,-31.738,-26.855,0.000
1709206274.177,-41.016,-41.016,-37.109,-35.645,0.000
1709206274.181,-50.293,-34.180,-44.922,-45.898,0.000
1709206274.185,-45.898,-44.922,-38.086,-39.062,0.000
1709206274.189,-41.992,-40.527,-40.039,-40.039,0.000
1709206274.193,-35.645,-35.156,-44.922,-41.016,0.000
1709206274.197,-33.691,-40.039,-37.109,-32.715,0.000
1709206274.201,-39.062,-53.711,-37.109,-27.832,0.000
1709206274.204,-36.133,-41.016,-35.156,-30.762,0.000
1709206274.208,-26.855,-36.133,-35.645,-35.156,0.000
1709206274.212,-30.762,-50.293,-42.480,-39.551,0.000
1709206274.216,-45.898,-68.848,-41.504,-26.855,0.000
1709206274.220,-46.875,-63.965,-37.109,-20.508,0.000
1709206274.224,-35.645,-30.273,-36.133,-30.762,0.000
1709206274.228,-32.227,-35.156,-39.062,-36.133,0.000
1709206274.232,-36.621,-36.133,-35.645,-39.551,0.000
1709206274.236,-41.016,-33.691,-34.180,-34.180,0.000
1709206274.240,-36.621,-43.945,-41.992,-51.758,0.000
1709206274.244,-34.180,-53.223,-42.969,-67.383,0.000
1709206274.247,-49.316,-52.734,-42.969,-56.641,0.000
1709206274.251,-42.969,-45.898,-43.457,-45.410,0.000
1709206274.255,-43.457,-42.480,-41.016,-46.387,0.000
1709206274.259,-54.199,-61.523,-42.480,-50.293,0.000
1709206274.263,-54.688,-70.312,-45.410,-43.457,0.000
1709206274.267,-50.781,-31.250,-39.551,-41.016,0.000
1709206274.271,-34.668,-24.902,-38.574,-48.828,0.000
1709206274.275,-35.156,-49.316,-39.062,-44.922,0.000
1709206274.279,-53.711,-51.270,-41.016,-40.527,0.000
1709206274.283,-49.316,-37.598,-41.504,-39.551,0.000
1709206274.286,-44.434,-27.344,-34.180,-41.016,0.000
1709206274.290,-39.062,-37.109,-36.133,-41.016,0.000
1709206274.294,-33.203,-39.551,-32.715,-30.273,0.000
1709206274.298,-21.973,-32.715,-30.273,-27.344,0.000
1709206274.302,-19.531,-41.016,-35.645,-29.785,0.000
1709206274.306,-29.297,-66.895,-34.668,-17.090,0.000
1709206274.310,-28.809,-57.129,-34.668,-16.602,0.000
1709206274.314,-29.297,-30.762,-35.645,-26.367,0.000
1709206274.318,-23.438,-43.457,-34.668,-25.391,0.000
1709206274.322,-14.160,-57.129,-36.133,-25.391,0.000
1709206274.326,-13.672,-41.016,-40.527,-31.738,0.000
1709206274.329,-26.367,-29.785,-41.992,-36.133,0.000
1709206274.333,-21.973,-43.945,-38.574,-34.180,0.000
1709206274.337,-22.461,-55.176,-37.109,-32.227,0.000
1709206274.341,-31.738,-41.016,-37.598,-29.297,0.000
1709206274.345,-33.203,-19.531,-37.109,-29.297,0.000
1709206274.349,-34.180,-39.551,-41.016,-34.668,0.000
1709206274.353,-37.109,-68.848,-41.504,-42.969,0.000
1709206274.357,-48.828,-60.547,-39.551,-53.711,0.000
1709206274.361,-58.594,-36.621,-36.621,-47.363,0.000
1709206274.365,-53.711,-47.363,-37.109,-44.922,0.000
1709206274.369,-42.480,-67.871,-37.598,-42.969,0.000
1709206274.372,-43.457,-37.598,-34.668,-41.016,0.000
1709206274.376,-46.875,-26.855,-32.227,-45.898,0.000
1709206274.380,-40.039,-48.828,-34.668,-42.969,0.000
1709206274.384,-49.805,-47.363,-34.668,-35.156,0.000
1709206274.388,-59.570,-37.109,-31.738,-37.109,0.000
1709206274.392,-49.805,-41.016,-36.133,-44.434,0.000
1709206274.396,-43.457,-53.223,-35.156,-33.691,0.000
1709206274.400,-42.480,-59.082,-33.203,-31.738,0.000
1709206274.404,-42.480,-45.898,-37.109,-42.969,0.000
1709206274.408,-43.457,-33.203,-35.645,-44.922,0.000
1709206274.411,-40.039,-64.453,-37.109,-38.574,0.000
1709206274.415,-37.598,-57.617,-41.504,-37.109,0.000
1709206274.419,-40.527,-16.113,-41.016,-37.109,0.000
1709206274.423,-31.250,-33.691,-37.598,-35.156,0.000
1709206274.427,-19.043,-45.898,-39.062,-35.645,0.000
1709206274.431,-25.391,-32.715,-41.016,-30.762,0.000
1709206274.435,-45.410,-33.203,-41.504,-37.109,0.000
1709206274.439,-46.875,-48.340,-40.039,-35.645,0.000
1709206274.443,-37.109,-51.270,-36.133,-27.832,0.000
1709206274.447,-37.109,-47.363,-32.227,-33.203,0.000
1709206274.451,-32.715,-43.945,-31.250,-38.574,0.000
1709206274.454,-29.785,-51.758,-34.180,-37.598,0.000
1709206274.458,-43.457,-67.871,-35.645,-20.508,0.000
1709206274.462,-40.527,-50.781,-39.062,-21.484,0.000
1709206274.466,-29.785,-32.227,-39.551,-34.668,0.000
1709206274.470,-50.293,-39.062,-37.109,-37.598,0.000
1709206274.474,-56.641,-48.828,-40.527,-36.621,0.000
1709206274.478,-44.922,-43.945,-43.457,-36.133,0.000
1709206274.482,-54.688,-53.711,-41.992,-42.969,0.000
1709206274.486,-55.176,-61.035,-40.039,-45.410,0.000
1709206274.490,-45.898,-48.828,-37.598,-43.457,0.000
1709206274.494,-41.992,-55.664,-35.645,-38.574,0.000
1709206274.497,-41.016,-55.176,-30.762,-37.109,0.000
1709206274.501,-42.480,-64.941,-25.879,-21.973,0.000
1709206274.505,-40.039,-58.105,-30.273,-16.602,0.000
1709206274.509,-28.809,-33.203,-32.715,-27.344,0.000
1709206274.513,-12.695,-47.363,-31.250,-35.645,0.000
1709206274.517,-29.785,-49.805,-39.062,-44.434,0.000
1709206274.521,-39.062,-40.527,-42.480,-36.621,0.000
1709206274.525,-22.949,-27.344,-38.086,-27.832,0.000
1709206274.529,-28.320,-41.504,-41.992,-28.320,0.000
1709206274.533,-38.574,-62.012,-44.922,-40.039,0.000
1709206274.536,-42.480,-46.387,-41.504,-42.969,0.000
1709206274.540,-47.852,-44.434,-45.410,-40.039,0.000
1709206274.544,-41.992,-54.688,-46.875,-51.758,0.000
1709206274.548,-32.715,-60.059,-45.898,-47.363,0.000
1709206274.552,-29.785,-34.180,-52.246,-44.922,0.000
1709206274.556,-21.973,-35.156,-49.316,-51.758,0.000
1709206274.560,-18.066,-52.734,-43.945,-43.457,0.000
1709206274.564,-28.320,-40.039,-41.016,-33.203,0.000
1709206274.568,-29.297,-35.645,-37.109,-32.227,0.000
1709206274.572,-32.715,-44.434,-37.598,-37.598,0.000
1709206274.576,-45.410,-50.293,-40.039,-43.457,0.000
1709206274.579,-51.270,-40.039,-39.551,-41.992,0.000
1709206274.583,-45.410,-40.527,-38.086,-39.551,0.000
1709206274.587,-54.199,-52.734,-40.527,-48.340,0.000
1709206274.591,-59.082,-68.359,-39.062,-40.527,0.000
1709206274.595,-41.504,-61.035,-38.086,-30.762,0.000
1709206274.599,-49.316,-26.367,-44.434,-42.969,0.000
1709206274.603,-62.012,-41.016,-42.480,-47.363,0.000
1709206274.607,-51.270,-43.945,-39.551,-41.992,0.000
1709206274.611,-50.293,-31.738,-41.504,-41.504,0.000
1709206274.615,-51.758,-35.156,-41.016,-45.410,0.000
1709206274.618,-55.664,-37.598,-37.109,-42.480,0.000
1709206274.622,-47.852,-42.480,-38.086,-39.551,0.000
1709206274.626,-37.109,-31.738,-37.598,-34.180,0.000
1709206274.630,-45.898,-30.762,-39.062,-39.551,0.000
1709206274.634,-52.734,-57.129,-40.039,-55.176,0.000
1709206274.638,-54.199,-67.871,-39.062,-48.828,0.000
1709206274.642,-52.246,-35.156,-41.992,-42.480,0.000
1709206274.646,-50.293,-23.926,-40.039,-52.246,0.000
1709206274.650,-51.270,-51.758,-38.086,-49.805,0.000
1709206274.654,-34.668,-51.758,-45.410,-41.992,0.000
1709206274.658,-39.551,-36.133,-47.852,-44.434,0.000
1709206274.661,-55.176,-38.086,-46.387,-39.551,0.000
1709206274.665,-45.898,-52.734,-50.293,-41.504,0.000
1709206274.669,-40.039,-49.316,-46.387,-42.969,0.000
1709206274.673,-34.180,-32.227,-43.457,-32.715,0.000
1709206274.677,-30.762,-41.504,-41.016,-29.785,0.000
1709206274.681,-30.762,-59.570,-32.227,-18.066,0.000
1709206274.685,-29.785,-54.688,-31.250,-10.742,0.000
1709206274.689,-29.785,-39.062,-36.133,-26.855,0.000
1709206274.693,-37.109,-40.039,-39.062,-42.480,0.000
1709206274.697,-38.086,-66.895,-39.551,-35.156,0.000
1709206274.700,-46.387,-50.293,-43.457,-35.156,0.000
1709206274.704,-60.547,-30.762,-45.410,-47.363,0.000
1709206274.708,-51.758,-45.410,-41.504,-42.969,0.000
1709206274.712,-46.875,-43.945,-37.598,-37.109,0.000
1709206274.716,-45.410,-39.551,-35.156,-40.039,0.000
1709206274.720,-36.133,-37.109,-30.273,-33.203,0.000
1709206274.724,-33.691,-49.316,-27.832,-25.391,0.000
1709206274.728,-32.715,-65.918,-31.250,-22.461,0.000
1709206274.732,-21.484,-46.875,-35.645,-30.762,0.000
1709206274.736,-41.016,-28.809,-36.621,-43.457,0.000
1709206274.740,-52.734,-55.176,-39.062,-41.016,0.000
1709206274.743,-52.734,-74.219,-42.480,-40.527,0.000
1709206274.747,-50.293,-39.062,-42.969,-44.922,0.000
1709206274.751,-46.875,-31.738,-36.133,-38.086,0.000
1709206274.755,-45.898,-59.082,-35.156,-35.645,0.000
1709206274.759,-46.875,-61.035,-39.551,-34.180,0.000
1709206274.763,-53.223,-50.781,-36.621,-35.156,0.000
1709206274.767,-36.621,-48.340,-32.227,-35.645,0.000
1709206274.771,-18.555,-59.082,-41.992,-38.086,0.000
1709206274.775,-34.180,-62.500,-43.945,-42.480,0.000
1709206274.779,-45.898,-44.922,-40.527,-30.762,0.000
1709206274.783,-41.992,-31.250,-43.457,-27.344,0.000
1709206274.786,-42.969,-57.617,-41.016,-28.809,0.000
1709206274.790,-35.645,-62.012,-39.062,-30.762,0.000
1709206274.794,-28.809,-31.738,-36.621,-37.598,0.000
1709206274.798,-45.898,-55.176,-34.180,-30.273,0.000
1709206274.802,-37.109,-46.875,-33.203,-33.203,0.000
1709206274.806,-16.113,-22.461,-36.133,-42.480,0.000
1709206274.810,-30.273,-28.809,-35.645,-31.738,0.000
1709206274.814,-41.016,-39.062,-38.574,-25.879,0.000
1709206274.818,-33.691,-43.945,-42.480,-33.691,0.000
1709206274.822,-33.691,-43.945,-40.039,-44.922,0.000
1709206274.825,-30.273,-27.344,-41.504,-52.246,0.000
1709206274.829,-30.762,-31.250,-41.016,-46.387,0.000
1709206274.833,-32.715,-57.129,-39.062,-40.527,0.000
1709206274.837,-25.391,-44.434,-36.133,-41.016,0.000
1709206274.841,-37.109,-33.203,-32.715,-43.945,0.000
1709206274.845,-49.316,-50.781,-33.203,-34.180,0.000
1709206274.849,-41.016,-60.059,-35.156,-32.227,0.000
1709206274.853,-36.133,-42.969,-33.691,-39.062,0.000
1709206274.857,-36.621,-45.898,-35.645,-35.645,0.000
1709206274.861,-31.250,-53.223,-35.156,-34.180,0.000
1709206274.865,-34.668,-48.340,-33.203,-28.320,0.000
1709206274.868,-27.832,-50.781,-38.086,-29.297,0.000
1709206274.872,-34.668,-49.805,-40.527,-37.109,0.000
1709206274.876,-52.246,-69.824,-37.109,-24.902,0.000
1709206274.880,-51.270,-68.359,-34.668,-23.438,0.000
1709206274.884,-47.852,-26.855,-37.598,-42.480,0.000
1709206274.888,-49.805,-34.180,-39.062,-48.828,0.000
1709206274.892,-53.223,-41.016,-37.598,-49.805,0.000
1709206274.896,-44.922,-30.273,-34.668,-44.434,0.000
1709206274.900,-37.109,-28.809,-33.203,-37.598,0.000
1709206274.904,-41.016,-45.410,-37.598,-39.551,0.000
1709206274.908,-52.246,-42.480,-36.133,-37.598,0.000
1709206274.911,-43.457,-40.039,-34.180,-44.922,0.000
1709206274.915,-39.551,-50.293,-34.180,-48.340,0.000
1709206274.919,-40.039,-48.340,-36.133,-51.270,0.000
1709206274.923,-21.484,-52.246,-36.621,-53.711,0.000
1709206274.927,-32.227,-29.785,-39.551,-43.945,0.000
1709206274.931,-45.410,-25.879,-39.551,-40.527,0.000
1709206274.935,-41.016,-38.574,-35.156,-44.434,0.000
1709206274.939,-42.969,-37.598,-35.645,-48.340,0.000
1709206274.943,-47.852,-39.062,-34.668,-42.969,0.000
1709206274.947,-46.875,-42.480,-35.156,-45.410,0.000
1709206274.950,-33.203,-53.711,-38.574,-52.734,0.000
1709206274.954,-43.945,-50.781,-34.668,-50.781,0.000
1709206274.958,-53.223,-41.504,-29.785,-43.457,0.000
1709206274.962,-52.246,-46.875,-28.320,-40.039,0.000
1709206274.966,-53.711,-67.383,-31.250,-39.551,0.000
1709206274.970,-47.363,-59.570,-37.109,-42.969,0.000
1709206274.974,-48.828,-25.391,-37.598,-53.223,0.000
1709206274.978,-55.664,-39.551,-37.109,-48.828,0.000
1709206274.982,-57.129,-44.434,-42.480,-45.898,0.000
1709206274.986,-57.617,-33.691,-42.969,-47.363,0.000
1709206274.989,-38.574,-30.762,-44.434,-53.223,0.000
1709206274.993,-39.062,-41.504,-44.434,-51.758,0.000
1709206274.997,-46.387,-43.457,-40.039,-39.551,0.000
1709206275.001,-38.574,-28.809,-43.457,-43.945,0.000
1709206275.005,-37.598,-29.785,-46.875,-46.387,0.000
1709206275.009,-39.062,-42.480,-45.410,-36.621,0.000
1709206275.013,-27.344,-54.199,-48.340,-27.832,0.000
1709206275.017,-23.926,-25.879,-51.758,-38.574,0.000
1709206275.021,-37.598,-16.113,-52.734,-46.875,0.000
1709206275.025,-42.480,-40.039,-52.246,-39.551,0.000
1709206275.029,-28.320,-38.574,-51.270,-29.785,0.000
1709206275.032,-19.531,-22.461,-46.387,-35.645,0.000
1709206275.036,-26.367,-20.508,-41.016,-53.711,0.000
1709206275.040,-39.551,-38.574,-39.062,-47.363,0.000
1709206275.044,-35.645,-37.598,-39.062,-35.156,0.000
1709206275.048,-29.297,-29.297,-41.504,-40.039,0.000
1709206275.052,-33.203,-32.227,-41.992,-53.223,0.000
1709206275.056,-31.250,-55.176,-41.992,-56.641,0.000
1709206275.060,-41.992,-59.082,-45.410,-43.945,0.000
1709206275.064,-57.617,-29.785,-47.363,-37.598,0.000
1709206275.068,-51.270,-33.203,-42.480,-41.504,0.000
1709206275.071,-55.176,-56.152,-41.992,-42.969,0.000
1709206275.075,-62.500,-44.434,-43.945,-47.852,0.000
1709206275.079,-62.988,-27.344,-41.016,-57.617,0.000
1709206275.083,-62.012,-47.363,-42.969,-52.246,0.000
1709206275.087,-55.664,-51.758,-41.016,-36.133,0.000
1709206275.091,-37.598,-33.691,-38.086,-32.715,0.000
1709206275.095,-45.410,-38.086,-44.922,-43.945,0.000
1709206275.099,-65.430,-56.641,-47.852,-49.316,0.000
1709206275.103,-51.270,-61.523,-40.039,-40.039,0.000
1709206275.107,-36.133,-42.969,-42.969,-33.691,0.000
1709206275.111,-37.109,-30.762,-54.199,-38.574,0.000
1709206275.114,-33.691,-51.758,-52.734,-42.480,0.000
1709206275.118,-26.855,-68.359,-49.805,-35.645,0.000
1709206275.122,-29.785,-38.574,-47.852,-38.574,0.000
1709206275.126,-32.715,-28.320,-46.875,-48.828,0.000
1709206275.130,-24.902,-47.363,-50.293,-51.270,0.000
1709206275.134,-36.621,-42.480,-52.246,-49.805,0.000
1709206275.138,-54.688,-44.922,-49.316,-48.828,0.000
1709206275.142,-49.316,-62.988,-43.457,-51.758,0.000
1709206275.146,-48.340,-65.918,-45.410,-45.410,0.000
1709206275.150,-46.875,-63.477,-43.457,-50.293,0.000
1709206275.154,-38.574,-53.711,-41.992,-59.570,0.000
1709206275.157,-42.969,-42.480,-41.016,-51.758,0.000
1709206275.161,-46.875,-72.754,-38.574,-38.086,0.000
1709206275.165,-45.410,-77.637,-40.039,-30.273,0.000
1709206275.169,-40.527,-30.762,-39.062,-44.434,0.000
1709206275.173,-64.453,-46.387,-44.922,-68.848,0.000
1709206275.177,-82.031,-63.477,-50.781,-75.684,0.000
1709206275.181,-74.707,-52.734,-46.387,-71.777,0.000
1709206275.185,-66.895,-50.293,-47.363,-62.500,0.000
1709206275.189,-65.430,-56.641,-47.363,-49.805,0.000
1709206275.193,-60.547,-56.152,-45.410,-54.688,0.000
1709206275.197,-53.223,-51.758,-39.551,-63.477,0.000
1709206275.200,-44.922,-51.270,-41.992,-63.965,0.000
1709206275.204,-37.598,-52.246,-40.527,-52.734,0.000
1709206275.208,-49.805,-61.523,-37.109,-32.715,0.000
1709206275.212,-44.922,-42.969,-39.062,-36.133,0.000
1709206275.216,-39.062,-29.297,-37.109,-45.410,0.000
1709206275.220,-35.645,-43.457,-38.086,-44.434,0.000
1709206275.224,-33.691,-42.969,-39.551,-40.527,0.000
1709206275.228,-28.809,-27.832,-37.109,-32.227,0.000
1709206275.232,-19.043,-37.598,-38.574,-36.133,0.000
1709206275.236,-19.043,-50.781,-40.527,-31.250,0.000
1709206275.239,-15.625,-48.828,-42.480,-28.809,0.000
1709206275.243,-20.020,-50.781,-41.992,-25.879,0.000
1709206275.247,-43.945,-52.246,-40.039,-25.391,0.000
1709206275.251,-45.898,-74.707,-39.062,-25.879,0.000
1709206275.255,-43.945,-65.918,-39.062,-23.926,0.000
1709206275.259,-41.504,-17.578,-44.434,-30.273,0.000
1709206275.263,-36.621,-29.297,-44.434,-24.414,0.000
1709206275.267,-29.785,-39.062,-38.574,-15.137,0.000
1709206275.271,-13.184,-31.250,-39.062,-19.531,0.000
1709206275.275,-15.625,-40.039,-42.969,-41.504,0.000
1709206275.279,-37.109,-51.270,-37.109,-41.016,0.000
1709206275.282,-33.691,-54.688,-35.645,-30.273,0.000
1709206275.286,-28.320,-42.480,-36.133,-35.156,0.000
1709206275.290,-40.527,-43.945,-38.574,-43.457,0.000
1709206275.294,-37.109,-54.199,-41.504,-55.176,0.000
1709206275.298,-26.855,-66.895,-37.109,-52.734,0.000
1709206275.302,-48.340,-46.387,-37.109,-48.828,0.000
1709206275.306,-57.617,-36.621,-36.133,-45.898,0.000
1709206275.310,-46.387,-52.734,-33.691,-42.969,0.000
1709206275.314,-49.805,-45.410,-34.668,-46.875,0.000
1709206275.318,-46.875,-29.297,-41.016,-52.734,0.000
1709206275.322,-42.969,-40.039,-46.387,-56.641,0.000
1709206275.325,-52.246,-56.152,-44.434,-50.781,0.000
1709206275.329,-37.598,-45.410,-41.992,-46.387,0.000
1709206275.333,-20.508,-34.668,-37.598,-52.246,0.000
1709206275.337,-33.203,-44.922,-33.203,-50.781,0.000
1709206275.341,-42.969,-71.289,-41.504,-34.180,0.000
1709206275.345,-42.969,-62.988,-43.945,-27.832,0.000
1709206275.349,-41.992,-25.879,-41.016,-43.945,0.000
1709206275.353,-38.086,-38.086,-43.457,-40.527,0.000
1709206275.357,-33.203,-49.316,-29.785,-25.391,0.000
1709206275.361,-31.250,-38.086,-20.508,-22.461,0.000
1709206275.364,-29.785,-31.250,-32.227,-29.297,0.000
1709206275.368,-28.809,-47.363,-33.691,-35.156,0.000
1709206275.372,-25.879,-41.992,-28.809,-34.180,0.000
1709206275.376,-19.531,-24.902,-30.273,-34.180,0.000
1709206275.380,-36.133,-42.480,-31.738,-30.762,0.000
1709206275.384,-41.992,-57.129,-32.715,-28.320,0.000
1709206275.388,-27.344,-62.500,-37.109,-21.484,0.000
1709206275.392,-31.250,-36.621,-37.598,-19.043,0.000
1709206275.396,-22.949,-21.973,-26.855,-20.996,0.000
1709206275.400,-16.113,-52.246,-21.973,-15.625,0.000
1709206275.404,-20.020,-54.199,-26.367,-20.508,0.000
1709206275.407,-16.602,-33.203,-27.344,-21.973,0.000
1709206275.411,-20.020,-33.203,-27.832,-19.531,0.000
1709206275.415,-13.672,-41.504,-29.297,-26.855,0.000
1709206275.419,-14.648,-39.551,-32.227,-32.715,0.000
1709206275.423,-39.551,-40.039,-34.180,-29.785,0.000
1709206275.427,-39.062,-49.316,-37.598,-32.227,0.000
1709206275.431,-36.133,-67.383,-41.504,-36.133,0.000
1709206275.435,-41.016,-58.594,-35.645,-33.691,0.000
1709206275.439,-38.086,-22.949,-28.320,-39.062,0.000
1709206275.443,-34.668,-34.668,-29.785,-44.922,0.000
1709206275.446,-43.945,-55.664,-34.180,-44.922,0.000
1709206275.450,-53.711,-50.781,-41.504,-49.316,0.000
1709206275.454,-50.781,-36.133,-40.527,-50.781,0.000
1709206275.458,-43.457,-45.898,-32.227,-41.016,0.000
1709206275.462,-44.434,-55.664,-34.668,-38.574,0.000
1709206275.466,-47.852,-50.781,-41.016,-42.969,0.000
1709206275.470,-43.457,-51.758,-43.945,-39.551,0.000
1709206275.474,-41.992,-62.012,-45.410,-30.273,0.000
1709206275.478,-28.320,-71.777,-42.480,-22.461,0.000
1709206275.482,-24.414,-58.594,-38.086,-27.344,0.000
1709206275.486,-44.922,-40.039,-34.180,-30.273,0.000
1709206275.489,-41.016,-44.434,-35.645,-26.855,0.000
1709206275.493,-27.344,-62.500,-40.039,-27.344,0.000
1709206275.497,-34.668,-44.922,-41.504,-31.738,0.000
1709206275.501,-46.387,-31.250,-39.062,-35.645,0.000
1709206275.505,-41.992,-41.504,-43.945,-33.203,0.000
1709206275.509,-33.691,-41.992,-48.340,-30.273,0.000
1709206275.513,-29.785,-30.762,-40.527,-37.109,0.000
1709206275.517,-32.227,-42.480,-37.109,-40.039,0.000
1709206275.521,-36.133,-59.570,-38.574,-32.715,0.000
1709206275.525,-34.180,-57.617,-35.645,-27.344,0.000
1709206275.529,-34.668,-38.086,-26.855,-30.273,0.000
1709206275.532,-41.504,-31.738,-28.809,-44.434,0.000
1709206275.536,-39.551,-65.430,-34.668,-55.176,0.000
1709206275.540,-45.410,-59.082,-33.691,-48.340,0.000
1709206275.544,-62.500,-23.926,-33.203,-56.152,0.000
1709206275.548,-58.594,-33.691,-31.738,-62.012,0.000
1709206275.552,-54.688,-38.086,-32.227,-56.152,0.000
1709206275.556,-58.105,-42.969,-26.855,-50.293,0.000
1709206275.560,-58.105,-47.363,-28.320,-44.922,0.000
1709206275.564,-57.129,-46.875,-38.086,-42.480,0.000
1709206275.568,-53.711,-49.316,-37.598,-38.574,0.000
1709206275.572,-45.898,-54.199,-38.574,-45.410,0.000
1709206275.575,-42.480,-50.293,-37.598,-47.363,0.000
1709206275.579,-37.109,-49.316,-36.133,-35.156,0.000
1709206275.583,-39.062,-68.359,-36.133,-24.414,0.000
1709206275.587,-41.992,-55.176,-29.785,-23.926,0.000
1709206275.591,-40.039,-38.574,-26.855,-38.574,0.000
1709206275.595,-25.391,-45.410,-26.367,-40.039,0.000
1709206275.599,-37.109,-50.781,-24.414,-34.180,0.000
1709206275.603,-57.617,-35.156,-27.832,-31.738,0.000
1709206275.607,-50.293,-28.809,-31.738,-30.273,0.000
1709206275.611,-45.898,-37.109,-32.227,-32.715,0.000
1709206275.615,-42.480,-39.062,-34.180,-25.391,0.000
1709206275.618,-40.527,-37.598,-38.086,-17.578,0.000
1709206275.622,-31.250,-42.480,-37.598,-17.578,0.000
1709206275.626,-27.832,-46.875,-32.227,-22.461,0.000
1709206275.630,-31.738,-31.250,-29.297,-24.414,0.000
1709206275.634,-26.855,-26.367,-34.180,-18.555,0.000
1709206275.638,-30.273,-40.527,-38.086,-26.367,0.000
1709206275.642,-36.133,-68.359,-34.668,-20.020,0.000
1709206275.646,-17.090,-50.293,-38.086,-22.461,0.000
1709206275.650,-20.996,-11.719,-41.504,-40.527,0.000
1709206275.654,-28.320,-33.691,-33.203,-31.250,0.000
1709206275.657,-29.297,-39.551,-37.598,-34.180,0.000
1709206275.661,-40.039,-34.180,-45.410,-40.527,0.000
1709206275.665,-31.738,-42.480,-42.480,-32.227,0.000
1709206275.669,-32.715,-48.340,-36.133,-40.039,0.000
1709206275.673,-39.062,-57.129,-33.691,-36.621,0.000
1709206275.677,-41.016,-38.574,-38.574,-42.480,0.000
1709206275.681,-41.992,-32.715,-37.598,-58.105,0.000
1709206275.685,-47.363,-48.340,-32.227,-44.434,0.000
1709206275.689,-49.805,-44.434,-45.410,-48.340,0.000
1709206275.693,-49.316,-37.109,-47.852,-63.477,0.000
1709206275.697,-55.664,-40.039,-37.109,-60.059,0.000
1709206275.700,-48.828,-52.734,-37.598,-47.852,0.000
1709206275.704,-53.223,-50.293,-40.039,-40.527,0.000
1709206275.708,-54.199,-40.039,-45.410,-41.504,0.000
1709206275.712,-40.527,-48.340,-40.527,-39.551,0.000
1709206275.716,-40.039,-77.148,-36.133,-35.156,0.000
1709206275.720,-37.598,-65.918,-41.992,-29.785,0.000
1709206275.724,-47.363,-25.391,-45.410,-38.086,0.000
1709206275.728,-46.387,-37.598,-38.574,-42.969,0.000
1709206275.732,-36.133,-42.480,-35.156,-46.387,0.000
1709206275.736,-41.016,-39.551,-36.621,-53.711,0.000
1709206275.739,-41.504,-43.457,-38.086,-59.570,0.000
1709206275.743,-33.203,-52.246,-37.109,-56.152,0.000
1709206275.747,-33.691,-53.223,-36.133,-43.457,0.000
1709206275.751,-34.180,-45.898,-35.156,-43.945,0.000
1709206275.755,-34.180,-50.781,-37.598,-45.898,0.000
1709206275.759,-43.457,-62.012,-38.086,-43.457,0.000
1709206275.763,-44.922,-65.430,-33.203,-30.273,0.000
1709206275.767,-37.598,-38.086,-36.621,-21.973,0.000
1709206275.771,-36.621,-27.344,-38.574,-33.203,0.000
1709206275.775,-32.715,-42.480,-35.156,-39.062,0.000
1709206275.779,-38.574,-45.898,-41.504,-42.969,0.000
1709206275.782,-37.598,-34.180,-42.969,-42.969,0.000
1709206275.786,-23.438,-30.762,-35.645,-36.621,0.000
1709206275.790,-35.156,-43.945,-30.273,-31.738,0.000
1709206275.794,-39.062,-44.434,-28.809,-39.062,0.000
1709206275.798,-38.086,-31.250,-30.762,-49.805,0.000
1709206275.802,-48.828,-40.039,-34.668,-50.781,0.000
1709206275.806,-50.293,-62.988,-33.203,-41.016,0.000
1709206275.810,-46.387,-49.316,-36.133,-42.969,0.000
1709206275.814,-44.922,-20.508,-36.621,-51.270,0.000
1709206275.818,-49.805,-30.273,-39.062,-50.293,0.000
1709206275.821,-48.828,-50.781,-43.457,-38.086,0.000
1709206275.825,-47.363,-47.363,-39.551,-42.969,0.000
1709206275.829,-40.039,-29.297,-40.527,-63.477,0.000
1709206275.833,-28.320,-39.551,-40.527,-59.082,0.000
1709206275.837,-41.992,-51.270,-39.062,-51.270,0.000
1709206275.841,-51.270,-39.062,-38.574,-48.340,0.000
1709206275.845,-49.805,-29.785,-39.062,-46.875,0.000
1709206275.849,-41.504,-34.668,-37.598,-44.922,0.000
1709206275.853,-35.156,-52.734,-39.551,-49.316,0.000
1709206275.857,-37.109,-43.457,-42.480,-49.316,0.000
1709206275.861,-43.457,-29.785,-42.969,-46.875,0.000
1709206275.864,-50.293,-48.340,-38.574,-46.387,0.000
1709206275.868,-41.504,-67.383,-34.180,-29.297,0.000
1709206275.872,-36.133,-39.551,-31.250,-20.020,0.000
1709206275.876,-34.180,-22.461,-30.273,-32.715,0.000
1709206275.880,-33.691,-40.039,-32.715,-43.945,0.000
1709206275.884,-32.715,-45.410,-37.598,-37.598,0.000
1709206275.888,-44.434,-27.832,-35.645,-39.062,0.000
1709206275.892,-47.363,-30.273,-35.156,-46.875,0.000
1709206275.896,-48.828,-53.711,-41.992,-46.387,0.000
1709206275.900,-62.500,-62.988,-41.504,-47.852,0.000
1709206275.904,-56.152,-55.176,-39.551,-41.992,0.000
1709206275.907,-43.457,-38.574,-41.016,-37.109,0.000
1709206275.911,-42.969,-61.035,-40.527,-39.551,0.000
1709206275.915,-49.316,-64.453,-41.992,-46.875,0.000
1709206275.919,-50.781,-27.832,-44.434,-53.711,0.000
1709206275.923,-51.270,-37.598,-41.504,-47.363,0.000
1709206275.927,-37.109,-41.992,-36.621,-37.598,0.000
1709206275.931,-29.785,-34.668,-37.598,-36.621,0.000
1709206275.935,-43.945,-30.762,-41.504,-38.574,0.000
1709206275.939,-39.062,-41.016,-40.527,-29.297,0.000
1709206275.943,-24.414,-46.875,-33.691,-15.137,0.000
1709206275.946,-20.020,-42.969,-33.203,-6.348,0.000
1709206275.950,-22.949,-33.203,-35.645,-5.371,0.000
1709206275.954,-23.438,-32.715,-40.527,-19.531,0.000
1709206275.958,-26.367,-57.129,-37.598,-20.020,0.000
1709206275.962,-23.926,-41.992,-30.273,-15.137,0.000
1709206275.966,-25.391,-20.996,-30.762,-22.461,0.000
1709206275.970,-33.691,-32.715,-35.645,-21.973,0.000
1709206275.974,-28.320,-44.434,-41.016,-31.250,0.000
1709206275.978,-32.227,-27.832,-38.574,-34.180,0.000
1709206275.982,-53.223,-32.715,-37.598,-28.809,0.000
1709206275.986,-53.223,-52.734,-39.062,-31.250,0.000
1709206275.989,-38.574,-50.781,-37.598,-30.273,0.000
1709206275.993,-33.203,-49.316,-37.109,-28.320,0.000
1709206275.997,-30.762,-47.363,-36.621,-39.551,0.000
1709206276.001,-29.297,-58.105,-33.691,-32.715,0.000
1709206276.005,-34.180,-49.316,-39.062,-21.484,0.000
1709206276.009,-35.156,-18.555,-39.062,-33.691,0.000
1709206276.013,-25.391,-36.621,-36.133,-50.781,0.000
1709206276.017,-44.434,-53.223,-39.062,-58.594,0.000
1709206276.021,-56.641,-42.969,-35.156,-45.898,0.000
1709206276.025,-39.062,-38.086,-33.203,-36.133,0.000
1709206276.029,-33.203,-55.664,-39.062,-40.527,0.000
1709206276.032,-31.738,-60.059,-40.039,-41.016,0.000
1709206276.036,-36.621,-47.363,-38.086,-36.133,0.000
1709206276.040,-44.434,-54.688,-42.480,-35.645,0.000
1709206276.044,-40.527,-52.246,-37.598,-32.715,0.000
1709206276.048,-23.926,-54.688,-36.133,-28.809,0.000
1709206276.052,-32.715,-41.992,-44.434,-31.738,0.000
1709206276.056,-43.457,-42.480,-41.016,-37.109,0.000
1709206276.060,-40.039,-55.176,-37.109,-30.762,0.000
1709206276.064,-40.039,-35.645,-34.668,-24.902,0.000
1709206276.068,-31.738,-23.926,-34.180,-33.691,0.000
1709206276.071,-20.020,-32.715,-38.086,-41.016,0.000
1709206276.075,-19.043,-47.852,-38.574,-38.086,0.000
1709206276.079,-21.484,-36.621,-42.969,-35.645,0.000
1709206276.083,-13.184,-30.273,-40.039,-36.621,0.000
1709206276.087,-23.438,-44.434,-42.480,-38.086,0.000
1709206276.091,-32.715,-58.594,-40.039,-22.949,0.000
1709206276.095,-28.809,-52.734,-39.551,-22.949,0.000
1709206276.099,-30.273,-19.531,-44.922,-37.598,0.000
1709206276.103,-17.578,-32.715,-40.527,-44.434,0.000
1709206276.107,-19.043,-45.898,-35.645,-42.480,0.000
1709206276.111,-38.086,-47.852,-32.715,-34.668,0.000
1709206276.114,-37.109,-41.504,-33.203,-37.109,0.000
1709206276.118,-36.621,-38.574,-36.621,-43.457,0.000
1709206276.122,-32.715,-54.688,-41.504,-46.875,0.000
1709206276.126,-41.504,-47.852,-43.457,-43.457,0.000
1709206276.130,-42.969,-43.457,-40.527,-51.270,0.000
1709206276.134,-40.039,-60.059,-42.969,-61.035,0.000
1709206276.138,-46.875,-76.172,-47.852,-40.527,0.000
1709206276.142,-41.016,-50.781,-45.898,-25.391,0.000
1709206276.146,-33.691,-37.109,-39.062,-41.504,0.000
1709206276.150,-23.926,-54.199,-34.180,-41.504,0.000
1709206276.153,-12.695,-50.293,-39.062,-37.109,0.000
1709206276.157,-20.020,-39.062,-41.992,-44.922,0.000
1709206276.161,-41.016,-40.039,-38.574,-48.828,0.000
1709206276.165,-47.852,-48.828,-37.598,-49.316,0.000
1709206276.169,-48.340,-53.223,-38.086,-52.734,0.000
1709206276.173,-47.363,-39.551,-33.691,-53.223,0.000
1709206276.177,-35.645,-35.156,-32.227,-51.270,0.000
1709206276.181,-26.855,-68.359,-39.551,-48.340,0.000
1709206276.185,-34.668,-59.570,-36.621,-35.645,0.000
1709206276.189,-33.691,-17.090,-34.668,-35.645,0.000
1709206276.192,-26.367,-23.438,-39.551,-36.133,0.000
1709206276.196,-20.020,-58.594,-34.668,-21.973,0.000
1709206276.200,-27.832,-46.387,-38.574,-22.949,0.000
1709206276.204,-28.320,-15.625,-41.992,-27.832,0.000
1709206276.208,-25.391,-31.250,-32.227,-22.949,0.000
1709206276.212,-24.902,-41.016,-32.227,-31.738,0.000
1709206276.216,-34.180,-41.992,-34.180,-38.574,0.000
1709206276.220,-41.992,-48.340,-30.762,-36.133,0.000
1709206276.224,-41.992,-57.129,-31.250,-40.039,0.000
1709206276.228,-30.273,-59.570,-31.738,-30.762,0.000
1709206276.232,-38.574,-50.781,-30.762,-25.391,0.000
1709206276.235,-57.129,-37.109,-30.762,-31.738,0.000
1709206276.239,-50.293,-43.457,-27.832,-25.879,0.000
1709206276.243,-54.199,-62.500,-33.203,-22.949,0.000
1709206276.247,-52.734,-42.969,-36.621,-31.250,0.000
1709206276.251,-48.828,-27.344,-36.621,-41.504,0.000
1709206276.255,-47.363,-50.781,-34.668,-43.945,0.000
1709206276.259,-45.898,-60.547,-37.598,-40.039,0.000
1709206276.263,-46.875,-30.273,-42.480,-41.016,0.000
1709206276.267,-45.410,-30.762,-39.062,-41.504,0.000
1709206276.271,-45.410,-45.410,-37.109,-42.969,0.000
1709206276.275,-36.133,-49.805,-34.668,-45.898,0.000
1709206276.278,-30.762,-38.574,-35.156,-38.086,0.000
1709206276.282,-23.926,-30.273,-35.645,-29.297,0.000
1709206276.286,-23.438,-60.547,-32.227,-15.137,0.000
1709206276.290,-28.320,-54.688,-26.367,-4.395,0.000
1709206276.294,-28.320,-23.438,-32.227,-21.484,0.000
1709206276.298,-29.297,-43.457,-39.062,-26.367,0.000
1709206276.302,-24.414,-47.363,-38.574,-24.414,0.000
1709206276.306,-28.809,-33.203,-37.109,-30.273,0.000
1709206276.310,-32.715,-32.715,-39.062,-32.715,0.000
1709206276.314,-29.785,-46.387,-38.574,-32.715,0.000
1709206276.318,-24.902,-53.223,-34.668,-24.414,0.000
1709206276.321,-19.531,-64.453,-38.574,-23.926,0.000
1709206276.325,-34.180,-64.453,-37.598,-33.203,0.000
1709206276.329,-44.922,-50.781,-32.715,-37.598,0.000
1709206276.333,-44.922,-62.012,-35.645,-30.762,0.000
1709206276.337,-50.781,-50.293,-34.668,-29.785,0.000
1709206276.341,-45.898,-45.898,-32.715,-33.691,0.000
1709206276.345,-54.199,-59.570,-37.109,-41.504,0.000
1709206276.349,-60.547,-44.434,-37.598,-59.570,0.000
1709206276.353,-54.199,-30.762,-38.574,-63.965,0.000
1709206276.357,-50.781,-39.062,-39.551,-56.152,0.000
1709206276.360,-52.734,-52.734,-34.668,-51.758,0.000
1709206276.364,-55.664,-48.828,-32.227,-47.852,0.000
1709206276.368,-45.898,-45.898,-34.180,-47.852,0.000
1709206276.372,-34.180,-42.969,-38.086,-53.711,0.000
1709206276.376,-37.598,-59.082,-33.203,-47.363,0.000
1709206276.380,-46.387,-64.453,-31.738,-37.598,0.000
1709206276.384,-44.434,-25.879,-38.574,-46.875,0.000
1709206276.388,-56.641,-36.133,-41.016,-52.734,0.000
1709206276.392,-61.523,-47.363,-36.621,-43.457,0.000
1709206276.396,-50.293,-42.480,-34.668,-34.668,0.000
1709206276.400,-51.270,-47.852,-40.039,-43.945,0.000
1709206276.403,-54.688,-48.828,-43.457,-53.223,0.000
1709206276.407,-43.945,-45.898,-43.457,-48.828,0.000
1709206276.411,-34.180,-39.551,-42.480,-49.316,0.000
1709206276.415,-27.832,-45.898,-43.945,-41.016,0.000
1709206276.419,-37.109,-50.293,-43.457,-35.156,0.000
1709206276.423,-41.504,-63.965,-39.062,-26.367,0.000
1709206276.427,-33.691,-42.480,-39.551,-21.973,0.000
1709206276.431,-38.086,-28.809,-40.527,-31.250,0.000
1709206276.435,-43.945,-51.270,-40.039,-39.551,0.000
1709206276.439,-46.387,-45.410,-39.062,-41.992,0.000
1709206276.442,-30.762,-27.344,-35.156,-40.039,0.000
1709206276.446,-34.668,-20.996,-33.691,-34.180,0.000
1709206276.450,-48.828,-31.250,-35.645,-27.344,0.000
1709206276.454,-41.992,-39.062,-35.645,-29.785,0.000
1709206276.458,-36.133,-38.086,-34.668,-31.738,0.000
1709206276.462,-41.992,-39.062,-34.668,-34.668,0.000
1709206276.466,-51.270,-62.500,-36.621,-32.715,0.000
1709206276.470,-43.457,-62.500,-39.062,-29.785,0.000
1709206276.474,-38.086,-20.508,-34.668,-42.969,0.000
1709206276.478,-42.969,-27.344,-31.738,-48.340,0.000
1709206276.482,-51.270,-42.480,-35.156,-48.828,0.000
1709206276.485,-43.945,-34.180,-36.621,-57.617,0.000
1709206276.489,-38.574,-31.738,-34.668,-55.664,0.000
1709206276.493,-49.805,-39.551,-35.156,-45.410,0.000
1709206276.497,-46.875,-45.410,-34.668,-34.180,0.000
1709206276.501,-40.527,-37.109,-33.203,-32.715,0.000
1709206276.505,-40.527,-37.109,-32.715,-39.551,0.000
1709206276.509,-35.156,-48.828,-37.598,-50.293,0.000
1709206276.513,-35.156,-77.148,-40.527,-49.805,0.000
1709206276.517,-46.875,-56.641,-35.156,-45.410,0.000
1709206276.521,-51.758,-28.809,-35.156,-44.922,0.000
1709206276.524,-40.527,-56.152,-35.156,-34.180,0.000
1709206276.528,-33.691,-51.270,-35.645,-25.879,0.000
1709206276.532,-35.156,-31.738,-36.133,-30.273,0.000
1709206276.536,-34.668,-37.109,-38.086,-32.715,0.000
1709206276.540,-19.043,-51.758,-39.062,-32.715,0.000
1709206276.544,-16.602,-45.410,-41.016,-30.273,0.000
1709206276.548,-31.250,-34.668,-40.527,-27.832,0.000
1709206276.552,-39.062,-45.410,-43.945,-46.875,0.000
1709206276.556,-45.898,-73.242,-46.875,-51.758,0.000
1709206276.560,-43.457,-66.895,-40.039,-41.504,0.000
1709206276.564,-43.945,-31.250,-41.992,-40.527,0.000
1709206276.567,-47.363,-32.715,-41.016,-38.086,0.000
1709206276.571,-51.270,-58.594,-40.527,-36.621,0.000
1709206276.575,-55.176,-55.664,-42.480,-41.992,0.000
1709206276.579,-57.129,-39.551,-40.039,-50.781,0.000
1709206276.583,-59.082,-57.129,-37.109,-45.410,0.000
1709206276.587,-41.504,-58.594,-37.109,-35.156,0.000
1709206276.591,-40.527,-49.316,-39.551,-37.109,0.000
1709206276.595,-64.453,-48.340,-43.457,-49.805,0.000
1709206276.599,-60.059,-56.641,-38.574,-58.105,0.000
1709206276.603,-59.082,-66.895,-33.203,-44.922,0.000
1709206276.607,-53.223,-52.734,-36.133,-37.598,0.000
1709206276.610,-45.410,-41.504,-35.156,-45.410,0.000
1709206276.614,-50.781,-57.129,-37.109,-45.898,0.000
1709206276.618,-51.758,-77.148,-40.039,-38.086,0.000
1709206276.622,-51.758,-34.180,-39.062,-39.062,0.000
1709206276.626,-30.762,-16.113,-36.621,-34.668,0.000
1709206276.630,-22.461,-47.852,-38.086,-31.250,0.000
1709206276.634,-41.992,-45.410,-39.062,-41.016,0.000
1709206276.638,-37.598,-31.250,-36.133,-37.109,0.000
1709206276.642,-32.715,-35.645,-32.715,-31.250,0.000
1709206276.646,-43.457,-50.293,-35.645,-29.297,0.000
1709206276.649,-44.922,-52.734,-42.480,-24.902,0.000
1709206276.653,-44.922,-37.109,-42.480,-33.691,0.000
1709206276.657,-37.109,-31.250,-36.133,-42.480,0.000
1709206276.661,-34.180,-68.359,-32.227,-33.203,0.000
1709206276.665,-41.504,-66.895,-34.180,-28.320,0.000
1709206276.669,-31.250,-21.484,-39.551,-38.574,0.000
1709206276.673,-19.043,-40.527,-40.527,-41.992,0.000
1709206276.677,-43.945,-52.734,-43.457,-41.016,0.000
1709206276.681,-51.758,-40.039,-46.387,-35.156,0.000
1709206276.685,-37.109,-41.016,-42.480,-36.621,0.000
1709206276.689,-32.227,-38.086,-43.945,-37.109,0.000
1709206276.692,-26.855,-36.621,-41.504,-32.227,0.000
1709206276.696,-30.762,-44.434,-41.992,-34.180,0.000
1709206276.700,-35.645,-37.598,-47.852,-41.992,0.000
1709206276.704,-42.969,-35.645,-46.875,-43.457,0.000
1709206276.708,-42.480,-56.152,-38.574,-32.227,0.000
1709206276.712,-47.852,-46.387,-39.551,-38.574,0.000
1709206276.716,-40.039,-32.715,-45.898,-51.270,0.000
1709206276.720,-40.039,-47.363,-42.969,-46.875,0.000
1709206276.724,-58.105,-50.293,-39.551,-36.621,0.000
1709206276.728,-61.035,-35.645,-38.086,-38.574,0.000
1709206276.732,-55.176,-36.621,-33.691,-37.598,0.000
1709206276.735,-49.316,-51.270,-32.715,-40.527,0.000
1709206276.739,-53.711,-53.711,-35.645,-47.852,0.000
1709206276.743,-51.758,-52.246,-35.156,-50.293,0.000
1709206276.747,-42.480,-49.805,-33.691,-51.758,0.000
1709206276.751,-36.621,-63.477,-32.715,-41.016,0.000
1709206276.755,-40.039,-57.129,-34.180,-38.574,0.000
1709206276.759,-43.945,-18.555,-34.180,-46.875,0.000
1709206276.763,-26.855,-35.645,-36.621,-50.781,0.000
1709206276.767,-20.508,-47.363,-38.086,-44.434,0.000
1709206276.771,-40.039,-34.668,-35.156,-38.086,0.000
1709206276.775,-34.668,-36.133,-35.645,-39.551,0.000
1709206276.778,-30.273,-50.293,-33.691,-32.715,0.000
1709206276.782,-37.109,-48.340,-35.156,-29.297,0.000
1709206276.786,-24.902,-39.551,-33.691,-33.691,0.000
1709206276.790,-22.949,-51.270,-38.086,-40.527,0.000
1709206276.794,-35.645,-53.711,-40.039,-51.270,0.000
1709206276.798,-39.551,-68.359,-38.574,-44.922,0.000
1709206276.802,-48.340,-51.758,-44.434,-44.922,0.000
1709206276.806,-58.105,-34.668,-46.387,-57.617,0.000
1709206276.810,-54.688,-57.617,-42.969,-52.734,0.000
1709206276.814,-44.922,-58.594,-42.969,-43.457,0.000
1709206276.817,-43.945,-44.922,-44.434,-48.340,0.000
1709206276.821,-32.715,-41.504,-42.969,-49.316,0.000
1709206276.825,-37.598,-55.664,-41.504,-35.645,0.000
1709206276.829,-41.992,-51.758,-38.574,-32.715,0.000
1709206276.833,-33.203,-34.180,-34.668,-38.086,0.000
1709206276.837,-26.855,-39.551,-41.016,-43.945,0.000
1709206276.841,-29.297,-63.477,-39.551,-48.340,0.000
1709206276.845,-40.527,-50.781,-38.086,-40.527,0.000
1709206276.849,-39.062,-20.020,-44.434,-41.992,0.000
1709206276.853,-36.621,-34.180,-41.992,-51.758,0.000
1709206276.857,-42.480,-69.336,-37.598,-43.945,0.000
1709206276.860,-47.363,-59.570,-38.574,-32.715,0.000
1709206276.864,-48.828,-20.020,-39.551,-41.504,0.000
1709206276.868,-46.875,-39.062,-38.086,-44.922,0.000
1709206276.872,-46.387,-46.875,-37.598,-38.574,0.000
1709206276.876,-48.828,-38.086,-39.551,-38.574,0.000
1709206276.880,-41.992,-43.457,-38.086,-35.645,0.000
1709206276.884,-37.109,-53.711,-32.715,-39.062,0.000
1709206276.888,-49.805,-64.941,-29.297,-34.180,0.000
1709206276.892,-46.387,-43.457,-33.203,-37.598,0.000
1709206276.896,-38.086,-26.367,-40.039,-45.410,0.000
1709206276.899,-39.062,-46.875,-40.039,-39.062,0.000
1709206276.903,-43.457,-43.945,-40.039,-38.574,0.000
1709206276.907,-40.527,-29.297,-43.945,-38.086,0.000
1709206276.911,-34.180,-41.016,-43.457,-41.504,0.000
1709206276.915,-30.762,-60.547,-39.551,-40.039,0.000
1709206276.919,-30.273,-50.293,-43.457,-38.086,0.000
1709206276.923,-41.504,-38.574,-46.387,-41.992,0.000
1709206276.927,-44.922,-41.504,-38.086,-42.480,0.000
1709206276.931,-34.180,-63.965,-32.227,-40.039,0.000
1709206276.935,-34.180,-62.012,-38.086,-42.480,0.000
1709206276.939,-51.270,-39.062,-45.410,-53.711,0.000
1709206276.942,-49.805,-42.969,-41.016,-56.152,0.000
1709206276.946,-40.039,-59.570,-40.527,-50.781,0.000
1709206276.950,-33.203,-46.875,-44.434,-46.875,0.000
1709206276.954,-35.645,-28.320,-38.086,-50.781,0.000
1709206276.958,-42.480,-41.992,-35.156,-44.922,0.000
1709206276.962,-42.969,-50.781,-36.133,-37.598,0.000
1709206276.966,-46.875,-41.504,-34.180,-37.109,0.000
1709206276.970,-46.875,-50.293,-36.133,-38.574,0.000
1709206276.974,-44.434,-64.453,-38.086,-41.992,0.000
1709206276.978,-43.945,-64.941,-37.598,-31.250,0.000
1709206276.982,-43.457,-54.199,-38.574,-25.391,0.000
1709206276.985,-37.109,-39.551,-38.574,-35.156,0.000
1709206276.989,-32.715,-48.340,-38.574,-32.227,0.000
1709206276.993,-30.762,-60.547,-37.109,-24.902,0.000
1709206276.997,-28.320,-42.969,-46.875,-36.621,0.000
1709206277.001,-41.504,-38.574,-48.828,-36.621,0.000
1709206277.005,-48.340,-56.152,-36.621,-27.344,0.000
1709206277.009,-41.992,-52.734,-40.039,-35.156,0.000
1709206277.013,-40.527,-42.969,-42.480,-36.621,0.000
1709206277.017,-39.062,-46.875,-38.086,-28.809,0.000
1709206277.021,-42.969,-61.523,-38.086,-25.391,0.000
1709206277.025,-39.551,-59.082,-35.156,-18.555,0.000
1709206277.028,-33.691,-45.410,-37.109,-25.391,0.000
1709206277.032,-28.320,-40.527,-45.410,-43.945,0.000
1709206277.036,-27.344,-62.012,-40.527,-41.016,0.000
1709206277.040,-32.715,-66.406,-40.039,-25.879,0.000
1709206277.044,-40.527,-30.762,-41.992,-25.879,0.000
1709206277.048,-29.297,-33.203,-34.668,-29.785,0.000
1709206277.052,-24.902,-44.922,-35.645,-46.387,0.000
1709206277.056,-41.992,-45.898,-39.551,-57.617,0.000
1709206277.060,-44.922,-47.363,-38.086,-51.270,0.000
1709206277.064,-44.434,-50.293,-35.156,-42.480,0.000
1709206277.067,-41.992,-47.852,-34.668,-38.086,0.000
1709206277.071,-38.574,-46.387,-41.016,-42.480,0.000
1709206277.075,-41.016,-40.527,-41.016,-44.922,0.000
1709206277.079,-43.457,-43.457,-33.203,-39.551,0.000
1709206277.083,-43.945,-70.312,-38.574,-37.109,0.000
1709206277.087,-45.410,-49.805,-44.922,-45.898,0.000
1709206277.091,-45.898,-22.461,-41.992,-51.270,0.000
1709206277.095,-44.434,-36.621,-40.527,-47.852,0.000
1709206277.099,-47.363,-47.363,-40.039,-39.062,0.000
1709206277.103,-54.688,-36.133,-38.574,-32.715,0.000
1709206277.107,-38.574,-34.668,-35.645,-30.273,0.000
1709206277.110,-39.551,-46.387,-35.156,-20.020,0.000
1709206277.114,-51.270,-48.340,-35.156,-19.043,0.000
1709206277.118,-54.688,-53.223,-38.574,-25.391,0.000
1709206277.122,-58.105,-52.246,-41.504,-27.832,0.000
1709206277.126,-53.223,-66.406,-34.180,-22.461,0.000
1709206277.130,-47.363,-59.570,-30.273,-10.742,0.000
1709206277.134,-43.457,-23.926,-34.668,-24.902,0.000
1709206277.138,-37.109,-35.156,-34.668,-40.039,0.000
1709206277.142,-31.738,-49.316,-34.180,-35.156,0.000
1709206277.146,-29.785,-40.039,-37.598,-27.832,0.000
1709206277.149,-26.855,-36.621,-40.039,-38.086,0.000
1709206277.153,-16.113,-44.434,-36.621,-46.387,0.000
1709206277.157,-21.484,-44.434,-40.039,-44.434,0.000
1709206277.161,-51.270,-40.527,-44.434,-42.480,0.000
1709206277.165,-47.852,-44.434,-41.016,-45.410,0.000
1709206277.169,-26.855,-52.734,-36.621,-53.223,0.000
1709206277.173,-17.090,-58.594,-32.227,-43.945,0.000
1709206277.177,-30.273,-36.133,-37.598,-44.922,0.000
1709206277.181,-45.898,-33.203,-41.992,-56.152,0.000
1709206277.185,-45.410,-53.223,-38.574,-62.012,0.000
1709206277.189,-43.945,-45.898,-39.551,-62.988,0.000
1709206277.192,-36.133,-33.203,-40.527,-50.293,0.000
1709206277.196,-30.273,-34.180,-36.133,-53.223,0.000
1709206277.200,-41.504,-53.223,-36.621,-55.176,0.000
1709206277.204,-41.016,-52.734,-41.992,-57.129,0.000
1709206277.208,-30.762,-45.898,-39.062,-50.293,0.000
1709206277.212,-47.852,-56.152,-34.668,-44.922,0.000
1709206277.216,-58.105,-74.707,-39.551,-41.992,0.000
1709206277.220,-54.199,-62.988,-38.086,-28.809,0.000
1709206277.224,-57.129,-28.809,-38.086,-38.574,0.000
1709206277.228,-57.129,-38.086,-39.551,-39.551,0.000
1709206277.232,-51.270,-50.293,-37.598,-32.227,0.000
1709206277.235,-50.781,-46.387,-40.527,-45.898,0.000
