timestamps,TP9,AF7,AF8,TP10,Right AUX
1709298993.586,-39.551,-28.320,-36.133,-25.879,0.000
1709298993.589,-43.945,-25.391,-28.809,-39.551,0.000
1709298993.593,-42.969,-24.902,-26.855,-32.715,0.000
1709298993.597,-41.016,-34.180,-28.320,-19.043,0.000
1709298993.601,-33.691,-35.156,-36.133,-17.578,0.000
1709298993.605,-29.297,-32.715,-38.086,-30.762,0.000
1709298993.609,-30.273,-45.410,-47.363,-42.480,0.000
1709298993.613,-26.855,-33.203,-45.898,-27.832,0.000
1709298993.617,-25.391,-27.344,-30.273,-13.184,0.000
1709298993.621,-24.414,-35.645,-32.227,-22.461,0.000
1709298993.625,-27.344,-34.180,-33.203,-32.227,0.000
1709298993.628,-28.320,-33.203,-33.203,-46.387,0.000
1709298993.632,-21.973,-31.250,-34.668,-55.664,0.000
1709298993.636,-28.320,-32.227,-33.691,-48.828,0.000
1709298993.640,-35.645,-38.086,-33.203,-38.574,0.000
1709298993.644,-51.758,-39.062,-39.062,-45.410,0.000
1709298993.648,-57.617,-24.414,-38.086,-40.527,0.000
1709298993.652,-46.875,-26.855,-30.762,-36.133,0.000
1709298993.656,-40.039,-35.156,-34.180,-46.387,0.000
1709298993.660,-44.434,-38.086,-39.551,-56.641,0.000
1709298993.664,-55.176,-39.062,-47.852,-63.965,0.000
1709298993.668,-48.340,-38.574,-48.828,-47.363,0.000
1709298993.672,-41.504,-31.738,-50.781,-34.668,0.000
1709298993.675,-35.645,-36.621,-43.457,-30.273,0.000
1709298993.679,-41.504,-54.199,-18.555,-33.691,0.000
1709298993.683,-52.246,-60.547,-19.043,-47.363,0.000
1709298993.687,-46.875,-43.945,-29.785,-44.434,0.000
1709298993.691,-39.062,-23.926,-29.297,-29.785,0.000
1709298993.695,-38.574,-30.762,-33.691,-28.320,0.000
1709298993.699,-33.203,-38.574,-35.156,-27.832,0.000
1709298993.703,-25.391,-30.762,-28.809,-34.668,0.000
1709298993.707,-46.875,-33.203,-31.250,-35.645,0.000
1709298993.711,-62.500,-46.875,-33.203,-16.602,0.000
1709298993.715,-56.641,-48.340,-41.016,-11.230,0.000
1709298993.718,-52.246,-40.527,-44.922,-27.344,0.000
1709298993.722,-54.199,-39.551,-43.945,-45.898,0.000
1709298993.726,-52.734,-30.273,-48.340,-53.223,0.000
1709298993.730,-36.133,-23.926,-42.480,-40.039,0.000
1709298993.734,-33.203,-25.391,-40.527,-39.062,0.000
1709298993.738,-32.715,-29.297,-37.598,-47.852,0.000
1709298993.742,-29.785,-30.762,-28.320,-41.016,0.000
1709298993.746,-21.973,-30.762,-34.180,-33.691,0.000
1709298993.750,-17.578,-40.527,-39.551,-26.367,0.000
1709298993.754,-20.996,-35.156,-34.668,-29.297,0.000
1709298993.758,-20.020,-33.691,-35.156,-31.250,0.000
1709298993.761,-32.715,-43.457,-34.180,-42.480,0.000
1709298993.765,-23.438,-37.109,-33.203,-50.781,0.000
1709298993.769,-26.855,-31.738,-37.109,-41.992,0.000
1709298993.773,-48.828,-24.414,-45.410,-38.574,0.000
1709298993.777,-40.039,-25.391,-39.551,-39.551,0.000
1709298993.781,-30.273,-28.809,-27.344,-36.133,0.000
1709298993.785,-43.457,-31.250,-36.133,-41.016,0.000
1709298993.789,-47.363,-43.457,-45.898,-42.969,0.000
1709298993.793,-36.621,-39.062,-32.227,-24.414,0.000
1709298993.797,-37.109,-32.227,-24.902,-13.184,0.000
1709298993.801,-34.180,-36.621,-23.926,-21.973,0.000
1709298993.804,-30.762,-32.715,-25.879,-22.461,0.000
1709298993.808,-31.250,-47.363,-28.320,-21.484,0.000
1709298993.812,-31.250,-52.246,-28.809,-20.020,0.000
1709298993.816,-29.297,-35.645,-31.250,-22.949,0.000
1709298993.820,-36.621,-31.250,-27.344,-30.762,0.000
1709298993.824,-42.480,-28.809,-25.879,-27.832,0.000
1709298993.828,-48.828,-35.645,-37.109,-25.879,0.000
1709298993.832,-39.062,-37.109,-41.504,-31.250,0.000
1709298993.836,-26.855,-38.086,-37.598,-30.762,0.000
1709298993.840,-44.434,-47.363,-36.133,-37.598,0.000
1709298993.844,-54.688,-32.715,-49.316,-53.711,0.000
1709298993.847,-46.875,-30.273,-44.922,-45.898,0.000
1709298993.851,-39.551,-48.828,-17.578,-28.320,0.000
1709298993.855,-41.016,-30.273,-18.066,-35.156,0.000
1709298993.859,-40.527,-17.090,-22.949,-50.781,0.000
1709298993.863,-36.133,-28.809,-27.832,-54.688,0.000
1709298993.867,-30.762,-22.461,-32.715,-50.781,0.000
1709298993.871,-29.785,-17.090,-33.691,-45.410,0.000
1709298993.875,-28.320,-24.902,-37.109,-40.039,0.000
1709298993.879,-29.297,-31.738,-30.762,-55.176,0.000
1709298993.883,-35.156,-37.109,-24.414,-66.895,0.000
1709298993.887,-39.551,-36.621,-27.344,-57.617,0.000
1709298993.890,-42.480,-41.504,-33.203,-46.875,0.000
1709298993.894,-39.062,-32.715,-28.320,-35.156,0.000
1709298993.898,-26.855,-47.363,-32.715,-41.992,0.000
1709298993.902,-34.668,-56.152,-30.762,-54.199,0.000
1709298993.906,-59.082,-34.180,-32.715,-47.852,0.000
1709298993.910,-54.688,-36.133,-46.387,-32.227,0.000
1709298993.914,-53.711,-49.316,-49.316,-25.879,0.000
1709298993.918,-58.594,-40.527,-48.828,-30.273,0.000
1709298993.922,-56.152,-32.715,-29.785,-38.086,0.000
1709298993.926,-47.852,-37.109,-18.555,-53.223,0.000
1709298993.930,-53.223,-36.621,-23.926,-58.105,0.000
1709298993.933,-61.035,-38.574,-41.016,-48.340,0.000
1709298993.937,-49.805,-49.805,-41.992,-33.203,0.000
1709298993.941,-56.152,-39.062,-25.879,-45.898,0.000
1709298993.945,-62.988,-27.832,-25.391,-59.570,0.000
1709298993.949,-58.594,-30.273,-28.809,-44.922,0.000
1709298993.953,-59.082,-32.715,-34.668,-45.898,0.000
1709298993.957,-53.711,-41.504,-41.504,-52.246,0.000
1709298993.961,-49.805,-60.547,-42.480,-48.340,0.000
1709298993.965,-54.199,-68.359,-40.527,-58.105,0.000
1709298993.969,-43.945,-37.109,-25.879,-52.246,0.000
1709298993.972,-36.133,-23.438,-19.531,-39.551,0.000
1709298993.976,-51.270,-28.320,-29.297,-43.945,0.000
1709298993.980,-52.246,-40.527,-33.203,-43.945,0.000
1709298993.984,-32.715,-51.270,-25.879,-43.945,0.000
1709298993.988,-47.363,-45.410,-25.391,-52.246,0.000
1709298993.992,-63.477,-31.250,-35.645,-56.152,0.000
1709298993.996,-54.199,-22.461,-40.039,-49.316,0.000
1709298994.000,-53.223,-35.156,-41.016,-52.246,0.000
1709298994.004,-58.105,-38.574,-43.457,-62.988,0.000
1709298994.008,-53.711,-30.762,-38.086,-45.898,0.000
1709298994.012,-46.387,-43.457,-27.832,-38.574,0.000
1709298994.016,-45.898,-47.852,-32.715,-47.852,0.000
1709298994.019,-37.109,-40.039,-40.527,-39.062,0.000
1709298994.023,-35.156,-43.945,-29.297,-28.320,0.000
1709298994.027,-51.758,-37.109,-27.832,-47.363,0.000
1709298994.031,-64.453,-28.320,-29.785,-56.641,0.000
1709298994.035,-63.965,-33.691,-22.949,-52.734,0.000
1709298994.039,-49.805,-46.875,-24.414,-45.410,0.000
1709298994.043,-50.781,-62.500,-24.414,-34.180,0.000
1709298994.047,-57.129,-63.477,-20.996,-40.527,0.000
1709298994.051,-47.852,-49.805,-20.508,-41.504,0.000
1709298994.055,-41.992,-53.223,-29.297,-25.879,0.000
1709298994.059,-25.879,-64.941,-28.809,-16.602,0.000
1709298994.062,-18.555,-60.547,-19.531,-26.855,0.000
1709298994.066,-41.504,-66.895,-16.113,-26.855,0.000
1709298994.070,-39.551,-71.777,-15.137,-7.324,0.000
1709298994.074,-26.855,-71.289,-18.555,5.371,0.000
1709298994.078,-30.762,-88.379,-17.090,2.441,0.000
1709298994.082,-34.180,-96.191,-16.602,-8.301,0.000
1709298994.086,-30.273,-80.566,-24.414,-5.371,0.000
1709298994.090,-27.832,-74.219,-20.508,15.625,0.000
1709298994.094,-20.020,-79.102,-15.625,15.625,0.000
1709298994.098,-6.348,-81.543,-18.555,7.324,0.000
1709298994.102,-8.789,-91.309,-19.531,13.672,0.000
1709298994.105,-13.672,-99.609,-17.090,19.531,0.000
1709298994.109,-6.836,-98.145,-13.184,22.949,0.000
1709298994.113,-4.395,-95.215,-15.137,35.645,0.000
1709298994.117,-0.977,-89.844,-7.812,41.992,0.000
1709298994.121,-1.953,-93.750,-11.719,33.203,0.000
1709298994.125,1.953,-98.145,-11.719,33.691,0.000
1709298994.129,0.000,-101.074,4.395,44.434,0.000
1709298994.133,13.672,-94.238,5.371,60.059,0.000
1709298994.137,9.277,-83.008,1.953,62.012,0.000
1709298994.141,-11.719,-83.984,3.418,43.945,0.000
1709298994.145,-7.324,-84.961,6.836,38.574,0.000
1709298994.148,-8.301,-87.891,0.000,44.922,0.000
1709298994.152,-0.488,-98.633,0.977,57.617,0.000
1709298994.156,-2.930,-99.121,0.977,49.316,0.000
1709298994.160,-4.395,-89.355,-0.977,41.504,0.000
1709298994.164,7.812,-93.262,10.254,49.805,0.000
1709298994.168,-0.488,-86.426,9.277,50.781,0.000
1709298994.172,-13.672,-80.078,4.395,45.410,0.000
1709298994.176,-9.277,-80.566,4.395,48.340,0.000
1709298994.180,2.441,-77.148,0.977,56.641,0.000
1709298994.184,0.000,-80.078,-1.465,35.645,0.000
1709298994.188,-1.953,-82.520,-0.977,30.762,0.000
1709298994.191,3.906,-76.660,-8.301,46.387,0.000
1709298994.195,4.395,-73.242,-2.441,43.945,0.000
1709298994.199,8.789,-71.777,8.789,31.738,0.000
1709298994.203,-1.465,-76.172,6.348,18.066,0.000
1709298994.207,-10.254,-85.938,1.465,21.484,0.000
1709298994.211,-3.418,-81.055,-4.395,40.039,0.000
1709298994.215,1.953,-69.824,0.000,38.086,0.000
1709298994.219,-0.488,-66.406,4.883,23.438,0.000
1709298994.223,-6.836,-58.594,1.465,24.414,0.000
1709298994.227,-11.719,-59.570,-5.859,20.020,0.000
1709298994.231,-15.625,-70.312,-14.648,6.348,0.000
1709298994.234,-21.973,-60.547,-9.766,6.836,0.000
1709298994.238,-29.297,-55.664,-5.371,5.859,0.000
1709298994.242,-34.180,-65.430,-18.066,-9.277,0.000
1709298994.246,-32.715,-66.406,-20.996,-2.930,0.000
1709298994.250,-32.227,-65.918,-20.996,6.836,0.000
1709298994.254,-19.043,-57.617,-18.066,7.324,0.000
1709298994.258,-8.301,-50.781,-11.230,10.742,0.000
1709298994.262,-24.414,-57.129,-19.531,2.441,0.000
1709298994.266,-35.156,-68.359,-31.250,-7.324,0.000
1709298994.270,-42.969,-55.176,-33.203,-10.742,0.000
1709298994.274,-37.598,-36.621,-20.996,-12.207,0.000
1709298994.277,-30.273,-46.875,-10.742,-15.625,0.000
1709298994.281,-29.785,-62.500,-10.254,-21.973,0.000
1709298994.285,-34.668,-60.547,-24.414,-20.020,0.000
1709298994.289,-40.039,-54.199,-39.062,-14.648,0.000
1709298994.293,-33.203,-60.059,-26.367,-20.020,0.000
1709298994.297,-27.832,-52.734,-31.738,-20.996,0.000
1709298994.301,-24.902,-44.922,-40.039,-23.438,0.000
1709298994.305,-25.879,-46.875,-24.902,-35.645,0.000
1709298994.309,-28.320,-46.387,-21.484,-36.621,0.000
1709298994.313,-35.645,-48.828,-26.855,-25.391,0.000
1709298994.316,-24.414,-54.688,-28.320,-28.809,0.000
1709298994.320,-28.320,-56.152,-23.926,-39.551,0.000
1709298994.324,-38.086,-56.152,-21.484,-32.227,0.000
1709298994.328,-38.086,-37.109,-17.090,-26.855,0.000
1709298994.332,-39.062,-34.180,-22.949,-34.668,0.000
1709298994.336,-27.832,-46.387,-27.344,-33.691,0.000
1709298994.340,-24.414,-35.156,-23.926,-30.762,0.000
1709298994.344,-30.273,-33.203,-30.762,-38.574,0.000
1709298994.348,-27.832,-45.898,-32.715,-40.527,0.000
1709298994.352,-23.926,-44.922,-41.016,-36.133,0.000
1709298994.356,-26.855,-39.551,-51.758,-13.672,0.000
1709298994.359,-26.367,-41.504,-33.203,-6.348,0.000
1709298994.363,-22.949,-35.645,-19.043,-32.715,0.000
1709298994.367,-34.668,-35.645,-27.344,-39.062,0.000
1709298994.371,-28.320,-42.480,-35.156,-25.391,0.000
1709298994.375,-24.414,-36.133,-27.344,-21.973,0.000
1709298994.379,-43.457,-36.133,-22.461,-35.645,0.000
1709298994.383,-45.898,-42.969,-26.855,-45.410,0.000
1709298994.387,-42.969,-49.805,-36.133,-40.039,0.000
1709298994.391,-38.574,-61.035,-44.922,-24.414,0.000
1709298994.395,-36.133,-51.758,-41.992,-24.902,0.000
1709298994.399,-38.086,-38.086,-47.363,-39.551,0.000
1709298994.402,-37.109,-30.762,-49.805,-47.363,0.000
1709298994.406,-41.016,-29.785,-41.016,-40.039,0.000
1709298994.410,-39.062,-32.227,-39.062,-30.762,0.000
1709298994.414,-41.992,-29.297,-33.203,-33.691,0.000
1709298994.418,-56.641,-33.203,-32.227,-37.109,0.000
1709298994.422,-51.270,-39.062,-37.109,-49.316,0.000
1709298994.426,-32.227,-37.598,-36.621,-55.176,0.000
1709298994.430,-35.645,-36.621,-31.250,-42.969,0.000
1709298994.434,-48.340,-39.551,-35.156,-26.855,0.000
1709298994.438,-43.945,-41.504,-36.133,-20.996,0.000
1709298994.442,-49.316,-40.527,-30.273,-33.203,0.000
1709298994.445,-44.434,-40.039,-34.668,-43.945,0.000
1709298994.449,-34.180,-50.781,-29.297,-37.109,0.000
1709298994.453,-44.922,-44.922,-25.879,-30.762,0.000
1709298994.457,-47.852,-39.062,-35.156,-42.480,0.000
1709298994.461,-44.434,-31.738,-36.133,-45.410,0.000
1709298994.465,-48.828,-32.227,-33.691,-43.457,0.000
1709298994.469,-41.992,-40.527,-35.156,-44.434,0.000
1709298994.473,-35.645,-25.879,-34.180,-30.273,0.000
1709298994.477,-35.645,-25.391,-41.016,-20.020,0.000
1709298994.481,-23.438,-38.086,-36.621,-20.996,0.000
1709298994.485,-34.180,-42.969,-20.996,-37.598,0.000
1709298994.489,-47.363,-33.691,-26.367,-41.504,0.000
1709298994.492,-34.668,-42.480,-31.738,-23.926,0.000
1709298994.496,-24.414,-58.594,-29.297,-9.766,0.000
1709298994.500,-21.973,-37.109,-31.738,-13.184,0.000
1709298994.504,-28.320,-35.156,-41.504,-40.039,0.000
1709298994.508,-29.785,-47.852,-52.246,-42.480,0.000
1709298994.512,-28.809,-36.621,-43.945,-29.297,0.000
1709298994.516,-32.715,-22.461,-28.809,-40.039,0.000
1709298994.520,-35.645,-26.855,-25.391,-48.340,0.000
1709298994.524,-39.062,-34.180,-30.762,-50.781,0.000
1709298994.528,-43.457,-43.945,-35.156,-51.270,0.000
1709298994.532,-41.016,-46.387,-37.109,-28.320,0.000
1709298994.535,-26.367,-35.645,-29.297,-14.648,0.000
1709298994.539,-13.672,-36.621,-28.809,-30.762,0.000
1709298994.543,-39.062,-47.852,-39.551,-51.758,0.000
1709298994.547,-46.875,-56.152,-42.969,-57.129,0.000
1709298994.551,-43.945,-58.105,-34.180,-42.480,0.000
1709298994.555,-54.199,-55.176,-38.086,-36.621,0.000
1709298994.559,-57.129,-51.270,-46.875,-60.059,0.000
1709298994.563,-61.523,-43.945,-41.992,-68.359,0.000
1709298994.567,-61.035,-47.852,-42.480,-60.547,0.000
1709298994.571,-57.129,-54.688,-43.457,-51.270,0.000
1709298994.575,-52.246,-54.688,-43.945,-43.945,0.000
1709298994.578,-43.457,-50.293,-46.875,-38.086,0.000
1709298994.582,-32.715,-49.805,-57.617,-38.574,0.000
1709298994.586,-33.691,-50.293,-51.758,-40.039,0.000
1709298994.590,-45.898,-46.875,-28.809,-30.762,0.000
1709298994.594,-37.598,-56.641,-27.832,-31.738,0.000
1709298994.598,-22.461,-52.734,-34.180,-25.391,0.000
1709298994.602,-41.992,-35.156,-38.086,-40.039,0.000
1709298994.606,-58.594,-37.598,-39.551,-66.406,0.000
1709298994.610,-53.711,-49.805,-35.156,-51.758,0.000
1709298994.614,-42.969,-55.664,-35.156,-31.250,0.000
1709298994.617,-38.086,-56.641,-37.598,-27.832,0.000
1709298994.621,-41.992,-54.688,-36.621,-47.363,0.000
1709298994.625,-44.434,-47.363,-40.527,-54.688,0.000
1709298994.629,-39.062,-46.387,-35.645,-37.598,0.000
1709298994.633,-36.133,-46.387,-27.832,-36.621,0.000
1709298994.637,-43.457,-51.758,-32.227,-46.875,0.000
1709298994.641,-53.711,-50.781,-34.180,-54.199,0.000
1709298994.645,-61.035,-39.062,-39.551,-52.246,0.000
1709298994.649,-45.898,-32.227,-39.551,-54.199,0.000
1709298994.653,-37.598,-41.016,-30.273,-44.434,0.000
1709298994.657,-44.434,-61.523,-28.809,-33.691,0.000
1709298994.660,-36.621,-50.781,-41.016,-38.086,0.000
1709298994.664,-41.016,-38.574,-34.180,-51.270,0.000
1709298994.668,-34.668,-42.480,-27.344,-54.199,0.000
1709298994.672,-29.785,-36.133,-34.180,-42.969,0.000
1709298994.676,-40.039,-35.645,-45.898,-45.410,0.000
1709298994.680,-41.992,-41.992,-41.992,-51.270,0.000
1709298994.684,-40.039,-43.945,-32.715,-49.805,0.000
1709298994.688,-45.410,-53.223,-39.551,-33.203,0.000
1709298994.692,-49.316,-61.035,-35.156,-23.926,0.000
1709298994.696,-45.898,-54.199,-33.691,-39.062,0.000
1709298994.700,-44.434,-39.551,-35.645,-43.457,0.000
1709298994.703,-35.645,-40.527,-39.062,-41.992,0.000
1709298994.707,-25.879,-52.246,-39.551,-35.156,0.000
1709298994.711,-35.645,-41.504,-30.273,-25.391,0.000
1709298994.715,-33.691,-36.621,-26.855,-21.484,0.000
1709298994.719,-35.156,-39.062,-27.344,-22.461,0.000
1709298994.723,-40.039,-37.598,-30.273,-27.832,0.000
1709298994.727,-36.621,-37.598,-38.086,-32.227,0.000
1709298994.731,-36.133,-35.156,-50.293,-18.555,0.000
1709298994.735,-32.227,-43.945,-48.340,0.488,0.000
1709298994.739,-35.156,-44.434,-43.457,-18.066,0.000
1709298994.742,-44.434,-38.086,-34.668,-48.828,0.000
1709298994.746,-40.039,-40.039,-21.484,-35.156,0.000
1709298994.750,-24.414,-28.320,-28.320,-11.719,0.000
1709298994.754,-22.461,-25.391,-32.227,-23.438,0.000
1709298994.758,-29.785,-36.133,-30.762,-36.621,0.000
1709298994.762,-29.297,-33.691,-39.551,-44.922,0.000
1709298994.766,-25.879,-24.414,-36.133,-44.922,0.000
1709298994.770,-39.551,-26.855,-34.668,-37.598,0.000
1709298994.774,-41.016,-40.039,-36.133,-24.902,0.000
1709298994.778,-33.203,-36.133,-33.203,-24.902,0.000
1709298994.782,-31.738,-29.297,-34.180,-35.156,0.000
1709298994.785,-28.809,-30.762,-33.203,-36.621,0.000
1709298994.789,-36.133,-37.598,-32.715,-30.273,0.000
1709298994.793,-35.156,-41.016,-30.762,-28.809,0.000
1709298994.797,-35.645,-39.062,-32.715,-41.016,0.000
1709298994.801,-41.504,-42.969,-36.621,-44.922,0.000
1709298994.805,-36.621,-46.387,-49.316,-39.062,0.000
1709298994.809,-41.504,-39.551,-59.082,-39.551,0.000
1709298994.813,-41.992,-29.785,-34.180,-41.016,0.000
1709298994.817,-19.531,-22.461,-13.184,-35.156,0.000
1709298994.821,-24.902,-27.832,-15.137,-35.156,0.000
1709298994.825,-35.645,-29.785,-20.020,-31.738,0.000
1709298994.829,-27.832,-29.297,-26.855,-18.555,0.000
1709298994.832,-27.832,-30.762,-26.367,-11.719,0.000
1709298994.836,-20.508,-33.691,-20.020,-0.977,0.000
1709298994.840,-14.648,-33.203,-21.973,4.883,0.000
1709298994.844,-14.160,-36.621,-26.367,-11.230,0.000
1709298994.848,-10.742,-46.875,-23.926,-20.996,0.000
1709298994.852,-20.508,-36.621,-23.926,-17.578,0.000
1709298994.856,-36.621,-34.668,-34.668,-16.602,0.000
1709298994.860,-37.109,-42.480,-47.852,-31.250,0.000
1709298994.864,-42.969,-44.434,-49.316,-47.852,0.000
1709298994.868,-41.504,-39.551,-42.969,-45.898,0.000
1709298994.872,-26.367,-40.527,-39.062,-32.715,0.000
1709298994.875,-28.320,-37.598,-42.480,-34.668,0.000
1709298994.879,-25.879,-40.039,-47.363,-53.711,0.000
1709298994.883,-17.090,-39.551,-36.621,-51.758,0.000
1709298994.887,-34.180,-38.574,-32.227,-43.945,0.000
1709298994.891,-40.039,-47.363,-41.504,-37.598,0.000
1709298994.895,-36.621,-46.387,-46.387,-31.738,0.000
1709298994.899,-37.598,-36.133,-40.527,-42.969,0.000
1709298994.903,-41.016,-25.879,-36.621,-51.270,0.000
1709298994.907,-45.410,-27.344,-36.621,-45.410,0.000
1709298994.911,-46.387,-36.133,-28.809,-33.203,0.000
1709298994.915,-44.922,-41.992,-37.109,-27.832,0.000
1709298994.918,-47.363,-34.668,-41.992,-36.133,0.000
1709298994.922,-50.293,-31.738,-40.039,-42.969,0.000
1709298994.926,-54.199,-32.715,-35.645,-41.992,0.000
1709298994.930,-49.316,-37.109,-36.621,-30.273,0.000
1709298994.934,-32.715,-46.875,-46.387,-20.996,0.000
1709298994.938,-43.457,-39.062,-44.434,-29.297,0.000
1709298994.942,-43.945,-33.691,-43.457,-49.805,0.000
1709298994.946,-39.551,-28.809,-39.551,-49.316,0.000
1709298994.950,-55.176,-23.438,-33.691,-32.715,0.000
1709298994.954,-45.410,-29.297,-38.086,-30.273,0.000
1709298994.958,-37.598,-35.156,-39.551,-30.273,0.000
1709298994.961,-40.039,-54.199,-42.480,-24.414,0.000
1709298994.965,-47.363,-44.434,-42.480,-41.016,0.000
1709298994.969,-52.246,-34.180,-36.621,-54.199,0.000
1709298994.973,-43.945,-41.992,-31.250,-27.832,0.000
1709298994.977,-39.551,-38.086,-32.227,-24.414,0.000
1709298994.981,-39.062,-32.715,-42.969,-51.758,0.000
1709298994.985,-39.551,-22.949,-47.363,-48.340,0.000
1709298994.989,-42.480,-30.273,-45.898,-43.945,0.000
1709298994.993,-41.504,-41.016,-40.527,-31.738,0.000
1709298994.997,-25.879,-38.574,-35.645,-23.438,0.000
1709298995.001,-32.227,-38.574,-36.621,-29.785,0.000
1709298995.005,-51.758,-43.945,-37.109,-33.203,0.000
1709298995.008,-43.945,-48.828,-25.391,-27.344,0.000
1709298995.012,-39.062,-47.852,-27.832,-17.090,0.000
1709298995.016,-43.945,-42.480,-39.062,-23.438,0.000
1709298995.020,-48.828,-43.457,-40.527,-34.180,0.000
1709298995.024,-40.039,-35.645,-40.039,-39.062,0.000
1709298995.028,-34.180,-31.738,-39.551,-35.156,0.000
1709298995.032,-43.457,-37.109,-35.645,-35.645,0.000
1709298995.036,-44.922,-39.062,-35.645,-26.855,0.000
1709298995.040,-34.180,-41.016,-43.945,-33.691,0.000
1709298995.044,-46.387,-41.016,-49.316,-46.387,0.000
1709298995.047,-64.453,-37.598,-40.527,-32.227,0.000
1709298995.051,-47.852,-33.691,-24.902,-25.391,0.000
1709298995.055,-35.645,-39.062,-34.180,-37.598,0.000
1709298995.059,-36.621,-52.246,-39.062,-42.969,0.000
1709298995.063,-37.598,-50.781,-26.367,-43.945,0.000
1709298995.067,-39.062,-41.504,-33.203,-46.875,0.000
1709298995.071,-30.762,-47.363,-37.598,-36.621,0.000
1709298995.075,-16.602,-40.527,-24.902,-25.391,0.000
1709298995.079,-14.648,-28.320,-26.367,-24.902,0.000
1709298995.083,-23.438,-29.785,-46.387,-34.180,0.000
1709298995.087,-13.184,-26.367,-49.316,-42.480,0.000
1709298995.090,-11.719,-37.598,-41.992,-41.504,0.000
1709298995.094,-26.855,-35.156,-40.039,-29.785,0.000
1709298995.098,-29.297,-24.414,-35.645,-26.855,0.000
1709298995.102,-39.062,-31.250,-42.969,-38.574,0.000
1709298995.106,-37.109,-38.574,-42.480,-31.250,0.000
1709298995.110,-31.250,-33.203,-36.621,-20.508,0.000
1709298995.114,-33.691,-24.902,-41.016,-33.691,0.000
1709298995.118,-36.621,-37.598,-44.922,-43.457,0.000
1709298995.122,-37.109,-49.316,-47.363,-43.457,0.000
1709298995.126,-41.504,-48.340,-40.039,-53.711,0.000
1709298995.129,-49.805,-48.828,-44.434,-57.129,0.000
1709298995.133,-51.270,-51.270,-53.223,-33.691,0.000
1709298995.137,-40.527,-43.457,-39.062,-26.855,0.000
1709298995.141,-29.297,-37.598,-30.762,-28.320,0.000
1709298995.145,-52.734,-45.898,-36.621,-35.645,0.000
1709298995.149,-55.664,-42.969,-31.250,-41.992,0.000
1709298995.153,-41.504,-35.645,-20.020,-27.832,0.000
1709298995.157,-41.504,-37.109,-23.926,-26.367,0.000
1709298995.161,-41.992,-44.434,-31.738,-39.551,0.000
1709298995.165,-42.480,-45.898,-25.391,-36.621,0.000
1709298995.169,-45.898,-42.969,-27.344,-34.668,0.000
1709298995.173,-46.387,-43.457,-40.527,-32.227,0.000
1709298995.176,-42.480,-44.922,-38.086,-28.809,0.000
1709298995.180,-41.504,-47.363,-30.273,-35.156,0.000
1709298995.184,-22.461,-51.270,-26.367,-40.039,0.000
1709298995.188,-33.691,-63.477,-26.855,-44.922,0.000
1709298995.192,-62.988,-61.035,-28.809,-39.062,0.000
1709298995.196,-47.363,-31.250,-26.855,-35.645,0.000
1709298995.200,-37.598,-20.508,-37.109,-39.062,0.000
1709298995.204,-46.387,-32.227,-44.434,-47.363,0.000
1709298995.208,-41.992,-33.691,-36.621,-41.992,0.000
1709298995.212,-34.668,-34.180,-38.574,-17.090,0.000
1709298995.216,-37.598,-44.434,-32.227,-6.836,0.000
1709298995.219,-41.504,-43.945,-25.879,-28.320,0.000
1709298995.223,-41.504,-40.039,-25.879,-37.598,0.000
1709298995.227,-41.992,-45.898,-20.996,-36.133,0.000
1709298995.231,-40.039,-41.992,-24.902,-39.062,0.000
1709298995.235,-40.039,-40.527,-27.832,-28.809,0.000
1709298995.239,-44.434,-38.574,-23.438,-36.133,0.000
1709298995.243,-56.641,-42.480,-23.926,-56.152,0.000
1709298995.247,-62.988,-52.734,-24.902,-55.176,0.000
1709298995.251,-52.734,-48.828,-23.438,-40.527,0.000
1709298995.255,-50.293,-32.715,-23.926,-31.738,0.000
1709298995.259,-49.316,-36.621,-24.902,-32.227,0.000
1709298995.262,-48.340,-49.805,-27.344,-38.086,0.000
1709298995.266,-54.199,-41.992,-34.668,-48.340,0.000
1709298995.270,-54.688,-35.645,-36.621,-38.086,0.000
1709298995.274,-36.621,-36.621,-31.250,-25.391,0.000
1709298995.278,-43.945,-37.109,-30.762,-31.250,0.000
1709298995.282,-44.922,-40.527,-33.203,-32.227,0.000
1709298995.286,-36.133,-43.457,-31.250,-41.992,0.000
1709298995.290,-46.875,-41.992,-35.156,-46.387,0.000
1709298995.294,-42.480,-40.039,-35.156,-26.855,0.000
1709298995.298,-32.227,-38.086,-23.438,-25.879,0.000
1709298995.302,-28.809,-41.016,-37.109,-33.203,0.000
1709298995.305,-34.668,-39.551,-42.480,-33.203,0.000
1709298995.309,-39.062,-39.551,-23.438,-38.574,0.000
1709298995.313,-24.902,-39.551,-27.832,-32.227,0.000
1709298995.317,-28.320,-41.504,-41.992,-25.879,0.000
1709298995.321,-42.480,-53.223,-31.250,-26.367,0.000
1709298995.325,-46.387,-48.828,-31.250,-33.691,0.000
1709298995.329,-46.387,-25.391,-34.180,-30.762,0.000
1709298995.333,-32.715,-14.160,-23.438,-17.578,0.000
1709298995.337,-33.203,-37.109,-26.855,-22.949,0.000
1709298995.341,-37.109,-51.758,-33.203,-34.668,0.000
1709298995.345,-33.203,-39.062,-30.762,-36.621,0.000
1709298995.348,-34.180,-37.109,-40.527,-27.832,0.000
1709298995.352,-23.438,-34.668,-45.410,-24.414,0.000
1709298995.356,-22.949,-29.785,-41.992,-31.738,0.000
1709298995.360,-43.457,-35.645,-40.039,-36.133,0.000
1709298995.364,-41.992,-38.574,-40.527,-41.504,0.000
1709298995.368,-33.203,-38.086,-44.922,-35.645,0.000
1709298995.372,-38.086,-30.273,-48.340,-26.367,0.000
1709298995.376,-47.363,-21.973,-46.387,-33.203,0.000
1709298995.380,-42.480,-23.926,-30.762,-46.875,0.000
1709298995.384,-34.668,-30.762,-21.973,-47.852,0.000
1709298995.388,-37.109,-41.504,-29.297,-43.457,0.000
1709298995.391,-38.574,-40.527,-33.691,-32.715,0.000
1709298995.395,-33.203,-36.133,-29.785,-21.973,0.000
1709298995.399,-31.250,-30.273,-25.879,-39.062,0.000
1709298995.403,-33.203,-40.527,-23.926,-49.805,0.000
1709298995.407,-38.574,-46.387,-31.738,-46.875,0.000
1709298995.411,-36.621,-26.855,-31.738,-44.922,0.000
1709298995.415,-35.645,-18.555,-30.762,-26.855,0.000
1709298995.419,-38.086,-26.855,-39.551,-18.555,0.000
1709298995.423,-30.273,-37.598,-31.250,-25.391,0.000
1709298995.427,-36.621,-41.992,-26.367,-31.250,0.000
1709298995.430,-35.645,-37.109,-32.715,-24.414,0.000
1709298995.434,-27.344,-42.969,-33.203,-5.859,0.000
1709298995.438,-21.973,-54.688,-29.785,-8.789,0.000
1709298995.442,-27.832,-47.852,-34.668,-38.574,0.000
1709298995.446,-37.109,-38.574,-36.133,-49.316,0.000
1709298995.450,-29.785,-35.156,-40.527,-43.457,0.000
1709298995.454,-39.062,-34.668,-45.410,-37.598,0.000
1709298995.458,-47.852,-39.062,-43.945,-46.875,0.000
1709298995.462,0.000,-38.574,-35.645,-53.223,0.000
1709298995.466,0.000,-38.574,-29.297,-49.805,0.000
1709298995.470,0.000,-47.852,-35.645,-53.711,0.000
1709298995.474,0.000,-53.223,-36.133,-55.176,0.000
1709298995.478,0.000,-54.688,-37.109,-54.199,0.000
1709298995.481,0.000,-48.828,-39.551,-45.410,0.000
1709298995.485,0.000,-45.410,-40.527,-41.992,0.000
1709298995.489,0.000,-43.457,-42.969,-48.340,0.000
1709298995.493,0.000,-44.922,-36.133,-47.852,0.000
1709298995.497,0.000,-55.176,-37.598,-45.410,0.000
1709298995.501,0.000,-51.758,-41.992,-53.711,0.000
1709298995.505,0.000,-44.434,-42.480,-53.711,0.000
1709298995.509,-52.734,-49.316,-43.457,-43.457,0.000
1709298995.513,-53.223,-48.340,-41.504,-39.062,0.000
1709298995.517,-49.316,-42.480,-41.504,-34.668,0.000
1709298995.521,-42.969,-40.039,-40.039,-46.875,0.000
1709298995.524,-35.156,-37.109,-32.227,-53.711,0.000
1709298995.528,-38.574,-43.945,-26.855,-50.781,0.000
1709298995.532,-36.133,-48.340,-41.016,-42.969,0.000
1709298995.536,-37.109,-35.156,-49.805,-37.598,0.000
1709298995.540,-35.156,-32.715,-34.668,-33.203,0.000
1709298995.544,-30.762,-40.039,-30.273,-37.109,0.000
1709298995.548,-38.574,-40.527,-35.645,-50.293,0.000
1709298995.552,-38.086,-34.668,-39.551,-44.434,0.000
1709298995.556,-18.066,-35.645,-39.551,-23.926,0.000
1709298995.560,-21.484,-42.480,-32.715,-18.555,0.000
1709298995.564,-43.457,-38.574,-34.180,-36.133,0.000
1709298995.567,-43.945,-27.832,-35.156,-46.387,0.000
1709298995.571,-34.180,-36.621,-26.367,-35.156,0.000
1709298995.575,-24.414,-55.664,-31.738,-24.414,0.000
1709298995.579,-25.879,-49.316,-38.086,-32.227,0.000
1709298995.583,-32.715,-44.922,-35.645,-34.668,0.000
1709298995.587,-38.086,-33.691,-40.527,-33.691,0.000
1709298995.591,-38.086,-20.996,-46.387,-21.973,0.000
1709298995.595,-35.156,-23.926,-49.805,-18.555,0.000
1709298995.599,-40.527,-36.133,-39.062,-32.227,0.000
1709298995.603,-38.086,-45.410,-36.133,-47.852,0.000
1709298995.607,-46.875,-34.180,-36.621,-65.918,0.000
1709298995.610,-57.129,-26.855,-26.367,-63.477,0.000
1709298995.614,-48.340,-42.969,-23.438,-54.688,0.000
1709298995.618,-46.387,-56.641,-32.227,-47.363,0.000
1709298995.622,-35.156,-41.992,-36.133,-48.340,0.000
1709298995.626,-36.621,-28.809,-31.250,-51.270,0.000
1709298995.630,-43.457,-35.645,-30.273,-40.527,0.000
1709298995.634,-38.086,-41.504,-26.367,-23.438,0.000
1709298995.638,-29.785,-28.809,-26.855,-18.555,0.000
1709298995.642,-25.879,-23.926,-30.273,-24.902,0.000
1709298995.646,-20.508,-24.902,-37.598,-38.086,0.000
1709298995.650,-10.742,-20.996,-34.668,-23.438,0.000
1709298995.654,-9.277,-23.926,-25.879,-3.906,0.000
1709298995.657,-8.789,-33.691,-37.598,-15.625,0.000
1709298995.661,-13.672,-43.945,-42.969,-20.996,0.000
1709298995.665,-33.203,-40.527,-44.922,-22.461,0.000
1709298995.669,-34.180,-29.297,-46.875,-21.484,0.000
1709298995.673,-29.297,-29.785,-37.109,-18.066,0.000
1709298995.677,-24.414,-36.621,-31.250,-13.672,0.000
1709298995.681,-19.531,-42.969,-24.902,-12.207,0.000
1709298995.685,-22.461,-36.621,-32.227,-30.273,0.000
1709298995.689,-27.832,-39.551,-32.715,-38.086,0.000
1709298995.693,-32.227,-36.133,-29.785,-26.367,0.000
1709298995.697,-30.273,-21.484,-29.785,-20.996,0.000
1709298995.700,-25.879,-29.297,-22.461,-31.250,0.000
1709298995.704,-32.227,-36.621,-25.391,-37.109,0.000
1709298995.708,-41.016,-33.203,-29.297,-36.621,0.000
1709298995.712,-40.527,-26.855,-27.832,-34.668,0.000
1709298995.716,-44.922,-27.344,-27.832,-33.691,0.000
1709298995.720,-42.969,-41.992,-25.391,-42.480,0.000
1709298995.724,-44.434,-43.945,-28.809,-51.758,0.000
1709298995.728,-65.430,-33.691,-34.668,-59.570,0.000
1709298995.732,-69.336,-37.598,-32.715,-59.082,0.000
1709298995.736,-59.082,-41.016,-33.203,-39.551,0.000
1709298995.740,-56.641,-45.410,-36.621,-35.156,0.000
1709298995.743,-60.547,-42.480,-37.109,-56.152,0.000
1709298995.747,-62.012,-35.645,-33.691,-64.941,0.000
1709298995.751,-63.477,-31.250,-29.297,-48.340,0.000
1709298995.755,-52.246,-29.785,-26.367,-34.668,0.000
1709298995.759,-47.852,-40.039,-27.344,-37.598,0.000
1709298995.763,-57.129,-50.293,-38.574,-37.109,0.000
1709298995.767,-58.105,-49.316,-41.016,-31.738,0.000
1709298995.771,-45.898,-42.480,-39.062,-22.461,0.000
1709298995.775,-41.992,-41.504,-36.133,-18.555,0.000
1709298995.779,-48.828,-41.016,-24.414,-20.508,0.000
1709298995.782,-41.992,-44.922,-22.461,-24.414,0.000
1709298995.786,-33.691,-57.129,-37.109,-22.461,0.000
1709298995.790,-33.203,-40.039,-45.410,-29.297,0.000
1709298995.794,-33.691,-27.832,-31.250,-23.926,0.000
1709298995.798,-34.180,-31.250,-25.391,-18.066,0.000
1709298995.802,-44.434,-27.832,-29.297,-29.785,0.000
1709298995.806,-46.387,-35.156,-30.762,-28.809,0.000
1709298995.810,-38.086,-33.691,-35.156,-19.043,0.000
1709298995.814,-37.109,-29.785,-29.297,-8.301,0.000
1709298995.818,-39.062,-24.902,-29.785,-7.324,0.000
1709298995.822,-39.062,-22.949,-35.156,-35.645,0.000
1709298995.825,-37.109,-35.156,-31.738,-52.246,0.000
1709298995.829,-37.598,-29.785,-35.645,-37.109,0.000
1709298995.833,-27.344,-27.832,-35.156,-28.320,0.000
1709298995.837,-29.297,-40.527,-34.180,-32.227,0.000
1709298995.841,-43.457,-37.109,-31.250,-33.691,0.000
1709298995.845,-37.109,-30.762,-25.391,-42.480,0.000
1709298995.849,-39.062,-35.156,-30.273,-43.945,0.000
1709298995.853,-37.598,-42.480,-44.434,-43.945,0.000
1709298995.857,-31.250,-50.293,-42.480,-43.457,0.000
1709298995.861,-34.668,-46.875,-39.551,-37.109,0.000
1709298995.865,-33.203,-37.598,-42.480,-32.227,0.000
1709298995.868,-31.250,-39.062,-39.062,-31.738,0.000
1709298995.872,-34.668,-26.855,-38.086,-31.738,0.000
1709298995.876,-33.691,-25.879,-40.039,-26.367,0.000
1709298995.880,-35.645,-36.133,-29.785,-31.250,0.000
1709298995.884,0.000,-32.715,-24.414,-43.945,0.000
1709298995.888,0.000,-23.438,-30.762,-46.387,0.000
1709298995.892,0.000,-26.367,-41.504,-35.156,0.000
1709298995.896,0.000,-37.109,-34.668,-19.531,0.000
1709298995.900,0.000,-44.434,-23.438,-23.438,0.000
1709298995.904,0.000,-38.086,-22.461,-32.227,0.000
1709298995.908,0.000,-31.250,-34.180,-35.156,0.000
1709298995.911,0.000,-31.250,-36.133,-42.969,0.000
1709298995.915,0.000,-31.250,-30.273,-37.109,0.000
1709298995.919,0.000,-33.691,-35.156,-31.738,0.000
1709298995.923,0.000,-29.785,-36.133,-32.715,0.000
1709298995.927,0.000,-31.738,-34.180,-36.133,0.000
1709298995.931,-48.340,-37.109,-34.668,-27.832,0.000
1709298995.935,-32.715,-39.551,-35.156,-5.371,0.000
1709298995.939,-25.879,-43.945,-26.855,-16.113,0.000
1709298995.943,-13.184,-39.551,-21.973,-30.762,0.000
1709298995.947,-20.996,-41.504,-26.855,-29.785,0.000
1709298995.951,-53.711,-39.551,-26.367,-40.039,0.000
1709298995.954,-46.387,-29.785,-24.414,-28.809,0.000
1709298995.958,-38.086,-36.133,-30.273,-20.020,0.000
1709298995.962,-38.574,-37.598,-41.016,-27.344,0.000
1709298995.966,-42.969,-35.156,-43.457,-40.527,0.000
1709298995.970,-36.621,-35.156,-36.621,-42.969,0.000
1709298995.974,-27.344,-44.434,-28.320,-31.250,0.000
1709298995.978,-29.785,-36.133,-23.926,-27.832,0.000
1709298995.982,-34.668,-26.855,-25.391,-27.832,0.000
1709298995.986,-44.922,-40.527,-42.969,-29.785,0.000
1709298995.990,-49.316,-39.551,-47.852,-41.992,0.000
1709298995.994,-44.922,-31.738,-41.016,-52.734,0.000
1709298995.997,-39.551,-39.551,-41.504,-51.270,0.000
1709298996.001,-31.250,-39.062,-33.203,-53.223,0.000
1709298996.005,-39.551,-39.551,-30.273,-54.199,0.000
1709298996.009,-50.781,-41.992,-39.062,-40.039,0.000
1709298996.013,-45.410,-36.621,-40.527,-30.273,0.000
1709298996.017,-42.480,-31.738,-33.203,-25.391,0.000
1709298996.021,-39.551,-46.875,-20.996,-28.809,0.000
1709298996.025,-43.457,-56.152,-35.645,-36.621,0.000
1709298996.029,-38.574,-47.852,-54.199,-42.480,0.000
1709298996.033,-35.645,-42.480,-35.156,-32.227,0.000
1709298996.037,-41.992,-32.227,-30.762,-20.996,0.000
1709298996.040,-36.621,-36.133,-34.668,-22.949,0.000
1709298996.044,-24.902,-39.062,-18.555,-11.230,0.000
1709298996.048,-28.320,-38.574,-17.090,-12.207,0.000
1709298996.052,-34.180,-38.574,-25.879,-18.555,0.000
1709298996.056,-20.996,-44.922,-31.250,-16.602,0.000
1709298996.060,-21.973,-46.875,-37.109,-21.484,0.000
1709298996.064,-36.133,-40.527,-33.203,-25.391,0.000
1709298996.068,-33.691,-35.156,-27.344,-23.926,0.000
1709298996.072,-22.461,-49.316,-33.691,-22.461,0.000
1709298996.076,-19.531,-46.875,-30.273,-20.508,0.000
1709298996.080,-25.879,-21.973,-33.203,-25.879,0.000
1709298996.083,-31.250,-23.438,-44.922,-31.250,0.000
1709298996.087,-35.645,-33.691,-35.645,-34.668,0.000
1709298996.091,-27.832,-30.762,-39.062,-46.875,0.000
1709298996.095,-28.320,-33.691,-47.363,-53.711,0.000
1709298996.099,-37.598,-37.109,-39.062,-42.969,0.000
1709298996.103,-41.016,-42.480,-37.109,-38.086,0.000
1709298996.107,-44.434,-47.852,-45.898,-47.363,0.000
1709298996.111,-45.898,-46.875,-45.410,-56.641,0.000
1709298996.115,-38.086,-37.598,-33.203,-46.875,0.000
1709298996.119,-38.086,-31.738,-23.438,-48.340,0.000
1709298996.123,-38.574,-41.016,-34.668,-70.801,0.000
1709298996.126,-44.434,-45.898,-41.504,-69.824,0.000
1709298996.130,-60.059,-52.734,-47.852,-59.570,0.000
1709298996.134,-52.734,-42.969,-43.945,-51.270,0.000
1709298996.138,-47.363,-25.391,-39.551,-51.758,0.000
1709298996.142,-50.293,-30.273,-41.504,-55.664,0.000
1709298996.146,-53.223,-45.898,-34.668,-57.129,0.000
1709298996.150,-51.270,-50.781,-37.598,-57.617,0.000
1709298996.154,-45.898,-39.551,-46.875,-41.992,0.000
1709298996.158,-35.645,-21.973,-47.363,-40.039,0.000
1709298996.162,-30.273,-20.020,-31.738,-45.898,0.000
1709298996.165,-26.855,-25.391,-27.832,-41.504,0.000
1709298996.169,-22.949,-45.898,-36.133,-28.809,0.000
1709298996.173,-21.484,-59.570,-41.016,-17.090,0.000
1709298996.177,-22.461,-53.711,-47.852,-14.648,0.000
1709298996.181,-31.738,-43.457,-34.668,-16.602,0.000
1709298996.185,-22.949,-28.809,-21.484,-20.508,0.000
1709298996.189,-15.137,-29.785,-23.438,-20.508,0.000
1709298996.193,-35.156,-25.391,-29.785,-17.090,0.000
1709298996.197,-36.133,-26.855,-31.738,-19.043,0.000
1709298996.201,-33.691,-34.668,-36.621,-25.391,0.000
1709298996.205,-35.645,-37.598,-36.133,-30.762,0.000
1709298996.208,-41.016,-39.062,-35.645,-39.551,0.000
1709298996.212,-40.039,-41.992,-47.852,-37.109,0.000
1709298996.216,-36.133,-46.875,-43.945,-27.344,0.000
1709298996.220,-40.527,-41.992,-37.598,-36.621,0.000
1709298996.224,-39.551,-44.922,-37.109,-47.363,0.000
1709298996.228,-39.062,-42.969,-33.691,-39.062,0.000
1709298996.232,-35.645,-44.434,-41.992,-26.367,0.000
1709298996.236,-37.109,-49.805,-40.039,-30.273,0.000
1709298996.240,-35.645,-41.992,-24.902,-42.969,0.000
1709298996.244,-32.715,-37.598,-30.273,-61.523,0.000
1709298996.247,-36.621,-36.133,-34.180,-59.570,0.000
1709298996.251,-50.781,-37.598,-40.527,-44.434,0.000
1709298996.255,-61.035,-40.527,-38.086,-41.504,0.000
1709298996.259,-54.688,-45.410,-25.391,-40.039,0.000
1709298996.263,-46.875,-47.852,-23.438,-43.945,0.000
1709298996.267,-41.016,-50.781,-28.320,-53.711,0.000
1709298996.271,-34.668,-42.480,-32.227,-44.922,0.000
1709298996.275,-30.273,-42.480,-26.367,-23.438,0.000
1709298996.279,-34.668,-47.852,-31.738,-21.484,0.000
1709298996.283,-39.551,-51.270,-36.133,-36.621,0.000
1709298996.287,-36.621,-55.664,-38.574,-38.574,0.000
1709298996.291,-36.133,-52.246,-42.480,-29.785,0.000
1709298996.294,-35.156,-46.875,-37.598,-21.973,0.000
1709298996.298,-38.086,-41.504,-31.250,-25.879,0.000
1709298996.302,-33.691,-35.156,-36.133,-35.156,0.000
1709298996.306,-29.785,-45.898,-45.898,-40.039,0.000
1709298996.310,-29.297,-52.246,-46.387,-32.227,0.000
1709298996.314,-35.645,-39.062,-43.945,-25.391,0.000
1709298996.318,-42.969,-38.086,-45.898,-26.855,0.000
1709298996.322,-35.156,-38.574,-44.434,-31.250,0.000
1709298996.326,-38.574,-35.645,-40.039,-42.969,0.000
1709298996.330,-35.156,-42.480,-32.715,-41.016,0.000
1709298996.334,-28.809,-45.898,-30.762,-26.367,0.000
1709298996.338,-29.297,-31.738,-35.156,-13.184,0.000
1709298996.341,-33.691,-29.297,-38.574,-11.719,0.000
1709298996.345,-28.320,-34.180,-31.250,-26.367,0.000
1709298996.349,-29.785,-33.203,-26.855,-29.297,0.000
1709298996.353,-41.504,-37.109,-41.504,-32.715,0.000
1709298996.357,-30.273,-40.527,-39.551,-33.691,0.000
1709298996.361,-36.621,-38.574,-21.973,-27.344,0.000
1709298996.365,-46.387,-39.062,-26.367,-27.344,0.000
1709298996.369,-40.039,-38.086,-36.621,-35.645,0.000
1709298996.373,-42.969,-32.715,-34.180,-35.645,0.000
1709298996.377,-41.992,-28.320,-28.320,-36.621,0.000
1709298996.381,-35.645,-32.715,-32.715,-44.922,0.000
1709298996.384,-36.621,-39.062,-36.133,-50.781,0.000
1709298996.388,-43.457,-33.203,-35.645,-43.945,0.000
1709298996.392,-48.828,-35.645,-47.852,-38.086,0.000
1709298996.396,-47.363,-47.852,-48.340,-42.969,0.000
1709298996.400,-40.039,-51.270,-36.621,-41.504,0.000
1709298996.404,-34.668,-49.805,-29.297,-36.621,0.000
1709298996.408,-38.574,-46.875,-28.320,-34.180,0.000
1709298996.412,-20.020,-36.133,-29.297,-33.691,0.000
1709298996.416,-14.648,-26.855,-26.367,-25.391,0.000
1709298996.420,-34.180,-26.855,-24.414,-9.766,0.000
1709298996.424,-33.203,-37.598,-26.855,-20.020,0.000
1709298996.427,-34.180,-46.875,-33.691,-20.508,0.000
1709298996.431,-35.156,-42.480,-35.645,-11.230,0.000
1709298996.435,-30.273,-36.621,-39.551,-20.508,0.000
1709298996.439,-26.367,-38.574,-39.551,-24.902,0.000
1709298996.443,-18.555,-43.457,-33.691,-19.531,0.000
1709298996.447,-26.855,-42.480,-33.691,-20.996,0.000
1709298996.451,-41.016,-34.668,-29.297,-20.508,0.000
1709298996.455,-41.992,-35.156,-27.832,-17.090,0.000
1709298996.459,-37.109,-49.805,-32.227,-18.555,0.000
1709298996.463,-19.043,-48.340,-38.574,-32.715,0.000
1709298996.467,-35.645,-37.598,-40.527,-47.363,0.000
1709298996.470,-47.852,-35.156,-30.273,-37.598,0.000
1709298996.474,-35.156,-38.574,-34.668,-23.438,0.000
1709298996.478,-39.062,-30.762,-34.180,-29.785,0.000
1709298996.482,-46.387,-29.297,-29.785,-53.223,0.000
1709298996.486,-46.875,-54.199,-37.109,-55.176,0.000
1709298996.490,-46.875,-48.340,-38.086,-47.363,0.000
1709298996.494,-54.199,-25.879,-36.133,-42.480,0.000
1709298996.498,-58.594,-26.855,-33.691,-43.457,0.000
1709298996.502,-56.641,-36.621,-39.062,-56.641,0.000
1709298996.506,-62.500,-47.363,-45.410,-61.523,0.000
1709298996.510,-54.199,-48.340,-36.621,-52.734,0.000
1709298996.513,-43.945,-45.410,-42.969,-41.504,0.000
1709298996.517,-61.035,-54.199,-48.340,-31.738,0.000
1709298996.521,-60.059,-60.059,-32.715,-30.273,0.000
1709298996.525,-54.688,-52.246,-29.785,-40.039,0.000
1709298996.529,-48.828,-40.527,-32.227,-42.480,0.000
1709298996.533,-40.039,-41.992,-35.645,-39.062,0.000
1709298996.537,-40.039,-46.875,-34.668,-28.809,0.000
1709298996.541,-40.039,-32.715,-32.715,-29.297,0.000
1709298996.545,-42.969,-30.762,-28.809,-41.504,0.000
1709298996.549,-43.457,-37.109,-31.250,-32.715,0.000
1709298996.552,-44.922,-40.039,-40.039,-25.391,0.000
1709298996.556,-43.945,-48.828,-27.832,-33.691,0.000
1709298996.560,-34.180,-49.316,-19.531,-37.598,0.000
1709298996.564,-40.527,-36.133,-24.902,-33.203,0.000
1709298996.568,-50.293,-34.180,-35.156,-43.945,0.000
1709298996.572,-54.199,-47.852,-41.016,-55.176,0.000
1709298996.576,-48.828,-48.340,-38.574,-46.875,0.000
1709298996.580,-42.480,-45.410,-41.016,-51.270,0.000
1709298996.584,-41.992,-44.922,-39.551,-49.316,0.000
1709298996.588,-40.039,-37.598,-40.527,-44.434,0.000
1709298996.592,-35.645,-46.875,-30.762,-36.133,0.000
1709298996.595,-29.785,-57.617,-25.879,-25.879,0.000
1709298996.599,-34.668,-47.852,-29.297,-35.645,0.000
1709298996.603,-36.133,-37.109,-29.297,-50.781,0.000
1709298996.607,-38.574,-32.715,-23.438,-44.434,0.000
1709298996.611,-53.711,-38.574,-21.973,-41.504,0.000
1709298996.615,-49.316,-41.992,-27.344,-41.504,0.000
1709298996.619,-36.621,-38.086,-33.203,-34.180,0.000
1709298996.623,-39.551,-33.691,-36.133,-31.250,0.000
1709298996.627,-45.898,-36.621,-36.133,-34.180,0.000
1709298996.631,-53.223,-44.434,-35.156,-44.434,0.000
1709298996.635,-53.223,-40.039,-29.297,-43.945,0.000
1709298996.638,-41.992,-41.992,-29.785,-37.109,0.000
1709298996.642,-43.457,-36.133,-28.809,-37.598,0.000
1709298996.646,-53.223,-30.762,-30.273,-51.270,0.000
1709298996.650,-57.129,-48.828,-36.133,-53.711,0.000
1709298996.654,-40.527,-60.059,-43.457,-44.434,0.000
1709298996.658,-28.320,-47.363,-41.016,-46.387,0.000
1709298996.662,-40.039,-32.227,-32.227,-47.363,0.000
1709298996.666,-44.434,-28.809,-36.621,-44.434,0.000
1709298996.670,-45.898,-31.250,-39.062,-42.969,0.000
1709298996.674,-42.480,-31.738,-44.434,-46.387,0.000
1709298996.678,-43.457,-36.133,-48.340,-42.480,0.000
1709298996.681,-46.387,-37.598,-35.645,-44.922,0.000
1709298996.685,-53.223,-39.062,-38.086,-60.547,0.000
1709298996.689,-50.293,-42.969,-40.039,-52.246,0.000
1709298996.693,-44.922,-43.945,-36.133,-41.992,0.000
1709298996.697,-43.457,-43.457,-32.227,-43.945,0.000
1709298996.701,-27.344,-34.668,-22.949,-41.992,0.000
1709298996.705,-35.156,-32.227,-19.531,-51.270,0.000
1709298996.709,-55.176,-38.086,-23.926,-52.246,0.000
1709298996.713,-51.758,-37.109,-20.996,-37.598,0.000
1709298996.717,-48.828,-40.527,-22.949,-40.527,0.000
1709298996.721,-45.410,-42.969,-27.344,-57.617,0.000
1709298996.724,-43.945,-45.410,-36.133,-59.082,0.000
1709298996.728,-39.551,-45.410,-40.039,-50.293,0.000
1709298996.732,-38.574,-41.016,-35.156,-34.668,0.000
1709298996.736,-34.668,-38.086,-36.133,-16.113,0.000
1709298996.740,-27.344,-35.645,-29.297,-15.625,0.000
1709298996.744,-24.902,-30.273,-26.367,-20.508,0.000
1709298996.748,-13.672,-28.809,-35.156,-32.227,0.000
1709298996.752,-32.227,-42.480,-35.645,-35.645,0.000
1709298996.756,-48.828,-52.734,-33.691,-22.461,0.000
1709298996.760,-42.969,-47.852,-30.762,-10.254,0.000
1709298996.764,-47.852,-38.086,-32.715,-15.137,0.000
1709298996.767,-41.504,-33.691,-39.551,-27.344,0.000
1709298996.771,-31.738,-29.785,-36.133,-24.902,0.000
1709298996.775,0.000,-28.809,-31.250,-20.996,0.000
1709298996.779,0.000,-23.926,-27.344,-23.438,0.000
1709298996.783,0.000,-27.832,-28.320,-20.996,0.000
1709298996.787,0.000,-34.180,-30.273,-17.090,0.000
1709298996.791,0.000,-37.109,-29.785,-22.461,0.000
1709298996.795,0.000,-40.527,-41.504,-28.809,0.000
1709298996.799,0.000,-37.598,-40.039,-38.086,0.000
1709298996.803,0.000,-44.922,-29.297,-37.109,0.000
1709298996.807,0.000,-44.434,-31.738,-30.762,0.000
1709298996.811,0.000,-32.227,-30.762,-31.250,0.000
1709298996.814,0.000,-31.738,-30.762,-29.297,0.000
1709298996.818,0.000,-45.410,-42.480,-33.691,0.000
1709298996.822,-40.527,-42.969,-54.199,-41.504,0.000
1709298996.826,-42.480,-30.273,-48.828,-56.152,0.000
1709298996.830,-50.293,-23.926,-36.133,-55.664,0.000
1709298996.834,-54.199,-33.203,-31.250,-40.039,0.000
1709298996.838,-35.645,-47.363,-34.668,-37.598,0.000
1709298996.842,-26.367,-41.504,-32.227,-40.039,0.000
1709298996.846,-47.852,-33.691,-27.832,-38.086,0.000
1709298996.850,-50.293,-32.227,-27.344,-33.691,0.000
1709298996.854,-41.016,-33.203,-32.227,-32.715,0.000
1709298996.857,-37.598,-39.062,-38.574,-33.203,0.000
1709298996.861,-38.574,-43.457,-41.992,-28.320,0.000
1709298996.865,-38.086,-53.711,-38.574,-33.203,0.000
1709298996.869,-46.387,-59.082,-35.156,-36.621,0.000
1709298996.873,-51.270,-42.969,-27.344,-30.273,0.000
1709298996.877,-48.828,-32.715,-16.602,-25.391,0.000
1709298996.881,-50.781,-40.039,-24.902,-32.715,0.000
1709298996.885,-52.734,-43.945,-31.738,-38.574,0.000
1709298996.889,-51.270,-38.086,-24.414,-25.391,0.000
1709298996.893,-44.922,-44.922,-24.902,-24.902,0.000
1709298996.897,-28.809,-51.758,-33.203,-30.273,0.000
1709298996.900,-41.504,-42.480,-39.551,-34.668,0.000
1709298996.904,-55.176,-41.016,-31.738,-45.410,0.000
1709298996.908,-40.527,-42.969,-24.902,-35.156,0.000
1709298996.912,-43.457,-40.527,-22.949,-25.391,0.000
1709298996.916,-53.711,-45.410,-32.715,-42.969,0.000
1709298996.920,-53.223,-41.992,-42.480,-50.781,0.000
1709298996.924,-47.852,-50.781,-41.992,-50.293,0.000
1709298996.928,-43.457,-54.688,-39.551,-45.410,0.000
1709298996.932,-46.387,-44.434,-41.016,-35.645,0.000
1709298996.936,-45.898,-57.617,-39.062,-34.668,0.000
1709298996.940,-44.434,-61.035,-32.227,-26.855,0.000
1709298996.943,-38.086,-46.875,-32.227,-25.391,0.000
1709298996.947,-48.340,-46.875,-33.691,-37.109,0.000
1709298996.951,-57.129,-52.246,-36.133,-42.480,0.000
1709298996.955,-45.898,-52.246,-40.039,-42.480,0.000
1709298996.959,-47.852,-45.898,-38.086,-39.062,0.000
1709298996.963,-43.945,-42.969,-39.551,-41.016,0.000
1709298996.967,-45.410,-55.176,-40.527,-41.504,0.000
1709298996.971,-53.223,-56.641,-34.668,-42.480,0.000
1709298996.975,-52.246,-39.062,-37.109,-31.738,0.000
1709298996.979,-43.945,-50.781,-41.992,-25.391,0.000
1709298996.982,-41.992,-57.129,-32.227,-29.785,0.000
1709298996.986,-49.316,-31.250,-31.738,-47.363,0.000
1709298996.990,-49.805,-30.762,-37.109,-55.176,0.000
1709298996.994,-36.621,-37.109,-41.992,-34.668,0.000
1709298996.998,-40.527,-44.434,-44.434,-32.715,0.000
1709298997.002,-43.945,-36.621,-34.668,-36.133,0.000
1709298997.006,-41.992,-28.320,-33.691,-36.133,0.000
1709298997.010,-38.086,-40.527,-33.691,-30.273,0.000
1709298997.014,-34.668,-37.109,-33.691,-26.367,0.000
1709298997.018,-35.156,-26.855,-30.273,-34.180,0.000
1709298997.022,-30.762,-24.902,-23.438,-35.645,0.000
1709298997.025,-37.109,-34.668,-25.879,-49.316,0.000
1709298997.029,-41.504,-38.574,-35.156,-61.523,0.000
1709298997.033,-42.969,-38.086,-40.039,-44.434,0.000
1709298997.037,-36.621,-41.016,-39.062,-33.691,0.000
1709298997.041,-29.297,-44.922,-38.086,-38.574,0.000
1709298997.045,-41.016,-47.363,-43.457,-35.156,0.000
1709298997.049,-43.945,-36.621,-49.316,-45.898,0.000
1709298997.053,-38.574,-37.598,-46.875,-48.340,0.000
1709298997.057,-26.855,-51.270,-36.133,-33.691,0.000
1709298997.061,-28.320,-50.781,-32.715,-46.387,0.000
1709298997.065,-37.598,-38.574,-47.852,-54.199,0.000
1709298997.069,-35.156,-32.715,-53.223,-45.898,0.000
1709298997.072,-37.598,-33.691,-48.828,-36.621,0.000
1709298997.076,-30.273,-33.691,-45.410,-27.344,0.000
1709298997.080,-24.902,-32.715,-34.668,-36.621,0.000
1709298997.084,-33.203,-36.133,-38.574,-46.387,0.000
1709298997.088,-31.250,-49.316,-46.875,-39.062,0.000
1709298997.092,-32.715,-54.199,-45.410,-31.738,0.000
1709298997.096,-41.992,-45.898,-46.875,-38.086,0.000
1709298997.100,-42.969,-44.922,-43.457,-33.203,0.000
1709298997.104,-21.484,-41.992,-36.133,-31.738,0.000
1709298997.108,-19.043,-32.715,-39.551,-40.527,0.000
1709298997.112,-46.387,-37.598,-42.480,-32.715,0.000
1709298997.115,-54.688,-36.133,-44.922,-23.926,0.000
1709298997.119,-53.223,-29.785,-49.316,-32.715,0.000
1709298997.123,-52.246,-36.621,-44.922,-49.805,0.000
1709298997.127,-57.617,-34.180,-32.227,-53.223,0.000
1709298997.131,-50.781,-31.738,-37.109,-45.898,0.000
1709298997.135,-35.156,-45.898,-46.387,-23.926,0.000
1709298997.139,-33.691,-47.363,-43.457,-23.438,0.000
1709298997.143,-33.203,-49.805,-42.480,-41.992,0.000
1709298997.147,-45.898,-54.199,-41.992,-56.152,0.000
1709298997.151,-59.082,-36.621,-38.086,-56.641,0.000
1709298997.155,-48.828,-22.461,-44.922,-44.434,0.000
1709298997.158,-47.363,-31.250,-48.828,-46.387,0.000
1709298997.162,-33.691,-44.922,-27.832,-50.781,0.000
1709298997.166,-33.203,-39.062,-25.391,-49.805,0.000
1709298997.170,-57.617,-40.039,-36.133,-42.969,0.000
1709298997.174,-52.246,-40.039,-38.086,-37.109,0.000
1709298997.178,-47.363,-38.086,-38.574,-41.504,0.000
1709298997.182,-56.641,-46.387,-33.691,-36.133,0.000
1709298997.186,-57.129,-44.922,-34.668,-36.133,0.000
1709298997.190,-61.035,-48.340,-43.457,-36.133,0.000
1709298997.194,-54.199,-53.711,-43.457,-21.973,0.000
1709298997.197,-43.457,-52.734,-41.504,-13.184,0.000
1709298997.201,-55.176,-53.223,-43.457,-23.438,0.000
1709298997.205,-69.824,-44.434,-47.852,-27.344,0.000
1709298997.209,-68.359,-43.945,-50.781,-20.020,0.000
1709298997.213,-60.059,-52.246,-49.316,-36.621,0.000
1709298997.217,-43.945,-59.082,-43.457,-44.434,0.000
1709298997.221,-56.641,-67.383,-41.016,-41.016,0.000
1709298997.225,-78.613,-63.477,-43.945,-48.340,0.000
1709298997.229,-76.172,-53.223,-44.922,-50.293,0.000
1709298997.233,-69.824,-46.387,-50.781,-49.805,0.000
1709298997.237,-62.500,-52.246,-49.805,-48.828,0.000
1709298997.240,-58.105,-56.641,-47.363,-47.852,0.000
1709298997.244,-60.547,-48.340,-53.223,-59.082,0.000
1709298997.248,-59.082,-44.922,-46.387,-59.082,0.000
1709298997.252,-54.199,-51.270,-43.945,-48.340,0.000
1709298997.256,-52.734,-53.711,-49.805,-48.340,0.000
1709298997.260,-48.828,-60.059,-48.340,-38.574,0.000
1709298997.264,-51.758,-62.012,-48.340,-44.434,0.000
1709298997.268,-55.176,-54.688,-46.875,-61.523,0.000
1709298997.272,-51.270,-40.039,-39.062,-48.828,0.000
1709298997.276,-44.434,-32.227,-45.410,-46.875,0.000
1709298997.280,-54.688,-38.574,-54.199,-52.734,0.000
1709298997.283,-62.500,-46.387,-48.340,-54.688,0.000
1709298997.287,-53.223,-44.434,-41.992,-62.988,0.000
1709298997.291,-51.758,-41.504,-47.852,-51.270,0.000
1709298997.295,-44.434,-46.387,-53.711,-43.457,0.000
1709298997.299,-43.457,-55.664,-41.504,-46.387,0.000
1709298997.303,-45.410,-58.105,-44.922,-47.363,0.000
1709298997.307,-50.293,-50.781,-57.129,-58.105,0.000
1709298997.311,-47.852,-41.992,-46.387,-62.500,0.000
1709298997.315,-40.039,-47.852,-38.574,-49.316,0.000
1709298997.319,-46.875,-60.547,-40.527,-42.480,0.000
1709298997.322,-37.598,-56.152,-41.016,-47.363,0.000
1709298997.326,-40.527,-51.758,-44.922,-50.781,0.000
1709298997.330,-47.852,-47.852,-46.387,-45.898,0.000
1709298997.334,-41.992,-54.688,-38.574,-34.668,0.000
1709298997.338,-45.410,-57.129,-42.480,-31.250,0.000
1709298997.342,-39.551,-44.922,-47.363,-27.832,0.000
1709298997.346,-37.598,-48.340,-41.504,-23.438,0.000
1709298997.350,-41.992,-55.664,-40.039,-26.855,0.000
1709298997.354,-35.645,-55.664,-40.527,-35.156,0.000
1709298997.358,-30.762,-49.316,-33.691,-36.621,0.000
1709298997.362,-35.156,-44.922,-40.039,-30.762,0.000
1709298997.365,-36.133,-37.598,-48.340,-33.203,0.000
1709298997.369,-31.738,-33.691,-42.480,-38.574,0.000
1709298997.373,-36.621,-38.574,-29.785,-31.250,0.000
1709298997.377,-42.480,-45.410,-40.527,-34.180,0.000
1709298997.381,-37.109,-47.363,-53.711,-49.805,0.000
1709298997.385,-34.668,-44.922,-32.227,-56.152,0.000
1709298997.389,-53.223,-44.922,-23.438,-61.035,0.000
1709298997.393,-57.129,-42.480,-29.785,-48.340,0.000
1709298997.397,-41.992,-45.410,-27.832,-27.344,0.000
1709298997.401,-34.180,-38.086,-30.273,-34.668,0.000
1709298997.405,-31.738,-32.227,-29.785,-43.945,0.000
1709298997.408,-35.645,-41.992,-26.855,-45.898,0.000
1709298997.412,-44.434,-42.969,-34.180,-48.340,0.000
1709298997.416,-42.480,-32.715,-38.086,-43.457,0.000
1709298997.420,-42.969,-30.762,-35.156,-39.062,0.000
1709298997.424,-56.641,-30.273,-39.551,-38.086,0.000
1709298997.428,-50.781,-32.227,-45.898,-45.410,0.000
1709298997.432,-41.016,-30.273,-40.527,-28.809,0.000
1709298997.436,-33.203,-28.320,-31.250,-2.441,0.000
1709298997.440,-32.715,-49.316,-42.969,-20.020,0.000
1709298997.444,-41.504,-51.270,-45.410,-35.156,0.000
1709298997.448,-47.363,-40.527,-31.250,-38.086,0.000
1709298997.451,-42.480,-45.410,-39.551,-35.156,0.000
1709298997.455,-38.574,-46.387,-37.598,-18.555,0.000
1709298997.459,-33.691,-28.809,-27.344,-24.902,0.000
1709298997.463,-38.574,-23.438,-39.551,-37.109,0.000
1709298997.467,-50.293,-49.316,-44.434,-36.133,0.000
1709298997.471,-46.875,-54.688,-37.109,-26.855,0.000
1709298997.475,-48.828,-36.133,-39.551,-24.414,0.000
1709298997.479,-52.246,-29.297,-45.898,-36.621,0.000
1709298997.483,-43.945,-30.762,-46.875,-37.598,0.000
1709298997.487,-37.598,-40.527,-49.316,-45.410,0.000
1709298997.491,-53.711,-52.734,-46.387,-51.758,0.000
1709298997.494,-64.941,-56.152,-49.316,-50.293,0.000
1709298997.498,-55.176,-51.758,-50.293,-56.152,0.000
1709298997.502,-59.082,-42.969,-43.457,-66.895,0.000
1709298997.506,-63.965,-45.410,-41.016,-66.895,0.000
1709298997.510,-71.777,-61.523,-26.367,-53.711,0.000
1709298997.514,-63.965,-52.734,-20.020,-46.875,0.000
1709298997.518,-50.781,-42.969,-35.156,-46.387,0.000
1709298997.522,-62.500,-43.457,-37.109,-53.223,0.000
1709298997.526,-60.059,-41.016,-41.992,-66.895,0.000
1709298997.530,-49.316,-31.738,-44.922,-60.547,0.000
1709298997.534,-30.762,-26.367,-29.785,-36.621,0.000
1709298997.537,-31.738,-34.668,-29.785,-27.832,0.000
1709298997.541,-42.480,-36.133,-38.574,-37.109,0.000
1709298997.545,-23.926,-31.738,-39.551,-28.320,0.000
1709298997.549,-35.156,-36.621,-31.738,-31.738,0.000
1709298997.553,-49.805,-48.828,-30.273,-43.457,0.000
1709298997.557,-31.250,-48.828,-36.133,-40.039,0.000
1709298997.561,-24.414,-41.992,-40.527,-40.039,0.000
1709298997.565,-25.879,-43.945,-41.016,-38.574,0.000
1709298997.569,-27.344,-47.852,-36.621,-34.180,0.000
1709298997.573,-27.832,-44.434,-39.062,-36.621,0.000
1709298997.577,-25.879,-42.480,-50.781,-27.344,0.000
1709298997.580,-28.809,-51.758,-48.828,-19.531,0.000
1709298997.584,-26.367,-56.641,-31.250,-28.320,0.000
1709298997.588,-46.387,-50.293,-35.156,-38.086,0.000
1709298997.592,-65.430,-45.898,-35.645,-38.086,0.000
1709298997.596,-51.270,-44.922,-35.645,-22.949,0.000
1709298997.600,-46.875,-45.898,-49.805,-21.973,0.000
1709298997.604,-56.641,-51.270,-46.875,-38.086,0.000
1709298997.608,-56.152,-49.805,-39.062,-50.293,0.000
1709298997.612,-52.734,-44.922,-36.621,-41.504,0.000
1709298997.616,-50.293,-38.086,-41.992,-35.156,0.000
1709298997.620,-46.875,-41.016,-33.203,-26.855,0.000
1709298997.623,-40.527,-42.480,-27.344,-27.832,0.000
1709298997.627,-42.969,-42.969,-32.715,-42.969,0.000
1709298997.631,-59.082,-46.875,-28.320,-34.180,0.000
1709298997.635,-51.758,-59.082,-32.715,-30.762,0.000
1709298997.639,-29.297,-59.082,-43.945,-20.996,0.000
1709298997.643,-34.180,-43.945,-50.781,-14.160,0.000
1709298997.647,-48.828,-43.945,-35.645,-35.156,0.000
1709298997.651,-41.992,-41.504,-26.367,-53.711,0.000
1709298997.655,-39.062,-52.734,-30.762,-54.688,0.000
1709298997.659,-41.992,-54.199,-37.598,-50.781,0.000
1709298997.662,-34.180,-44.434,-42.480,-53.711,0.000
1709298997.666,-39.551,-49.805,-39.551,-62.500,0.000
1709298997.670,-57.129,-43.945,-41.992,-59.570,0.000
1709298997.674,-53.711,-45.410,-40.039,-43.945,0.000
1709298997.678,-44.434,-41.992,-48.828,-35.645,0.000
1709298997.682,-33.691,-42.480,-60.059,-42.480,0.000
1709298997.686,-35.156,-48.828,-47.363,-56.152,0.000
1709298997.690,-42.969,-37.109,-37.598,-58.594,0.000
1709298997.694,-25.879,-32.227,-27.344,-43.457,0.000
1709298997.698,-27.344,-36.133,-22.461,-26.855,0.000
1709298997.702,-39.062,-38.086,-32.715,-31.738,0.000
1709298997.705,-41.016,-42.969,-34.668,-45.898,0.000
1709298997.709,-43.945,-35.645,-25.391,-43.457,0.000
1709298997.713,-36.133,-35.156,-26.367,-39.062,0.000
1709298997.717,-35.156,-46.875,-26.367,-27.344,0.000
1709298997.721,-34.668,-48.828,-24.414,-12.207,0.000
1709298997.725,-30.762,-50.781,-33.203,-18.555,0.000
1709298997.729,-24.902,-41.016,-40.039,-45.410,0.000
1709298997.733,-34.180,-28.320,-42.480,-46.875,0.000
1709298997.737,-43.457,-27.344,-40.527,-27.832,0.000
1709298997.741,-29.785,-24.902,-28.320,-31.250,0.000
1709298997.744,-20.020,-33.203,-25.391,-23.926,0.000
1709298997.748,-26.367,-32.715,-30.273,-18.555,0.000
1709298997.752,-18.555,-22.461,-28.809,-28.809,0.000
1709298997.756,-21.973,-23.438,-21.973,-27.832,0.000
1709298997.760,-43.945,-33.691,-24.414,-28.809,0.000
1709298997.764,-33.203,-28.320,-31.250,-31.738,0.000
1709298997.768,-28.809,-24.902,-27.344,-39.062,0.000
1709298997.772,-30.273,-29.297,-23.438,-24.414,0.000
1709298997.776,-20.020,-38.086,-28.809,-2.930,0.000
1709298997.780,-18.066,-46.875,-31.738,-15.625,0.000
1709298997.784,-26.367,-24.902,-31.250,-33.691,0.000
1709298997.788,-27.344,-17.090,-28.320,-32.715,0.000
1709298997.791,-34.180,-37.109,-24.414,-31.250,0.000
1709298997.795,-25.391,-29.785,-35.645,-30.273,0.000
1709298997.799,-24.414,-22.461,-35.645,-32.715,0.000
1709298997.803,-44.922,-19.043,-32.715,-43.457,0.000
1709298997.807,-38.086,-17.090,-36.621,-51.270,0.000
1709298997.811,-34.180,-27.344,-21.484,-43.945,0.000
1709298997.815,-39.062,-29.785,-18.066,-39.062,0.000
1709298997.819,-42.480,-39.551,-19.043,-37.109,0.000
1709298997.823,-37.598,-41.016,-16.602,-39.062,0.000
1709298997.827,-34.180,-31.250,-22.461,-48.340,0.000
1709298997.831,-27.832,-33.691,-17.578,-41.992,0.000
1709298997.834,-18.555,-36.621,-18.555,-29.297,0.000
1709298997.838,-44.434,-42.480,-32.227,-34.180,0.000
1709298997.842,-58.105,-40.527,-38.574,-36.133,0.000
1709298997.846,-42.969,-32.715,-41.992,-49.805,0.000
1709298997.850,-36.133,-34.180,-35.156,-51.758,0.000
1709298997.854,-41.504,-30.762,-28.809,-39.551,0.000
1709298997.858,-44.922,-34.180,-35.645,-44.922,0.000
1709298997.862,-29.297,-45.410,-43.457,-37.598,0.000
1709298997.866,-21.484,-44.922,-40.527,-24.902,0.000
1709298997.870,-44.434,-32.227,-37.109,-34.668,0.000
1709298997.874,-42.969,-33.691,-35.645,-34.180,0.000
1709298997.877,-26.367,-43.945,-36.621,-20.020,0.000
1709298997.881,-19.043,-42.480,-29.785,-24.902,0.000
1709298997.885,-22.949,-39.551,-19.531,-31.738,0.000
1709298997.889,-44.434,-35.156,-31.738,-42.480,0.000
1709298997.893,-47.363,-42.969,-32.715,-37.598,0.000
1709298997.897,-35.156,-57.617,-30.762,-30.273,0.000
1709298997.901,-28.320,-39.551,-39.551,-42.480,0.000
1709298997.905,-31.250,-24.902,-35.645,-49.805,0.000
1709298997.909,-56.152,-47.852,-37.109,-55.664,0.000
1709298997.913,-60.547,-59.082,-43.945,-51.758,0.000
1709298997.917,-49.316,-46.387,-44.434,-39.551,0.000
1709298997.920,-43.945,-38.086,-49.316,-41.016,0.000
1709298997.924,-45.898,-41.992,-41.016,-53.711,0.000
1709298997.928,-41.504,-46.387,-45.410,-44.434,0.000
1709298997.932,-34.668,-46.387,-45.410,-33.203,0.000
1709298997.936,-36.621,-46.387,-23.438,-45.898,0.000
1709298997.940,-35.156,-43.945,-29.297,-47.852,0.000
1709298997.944,-36.133,-40.039,-47.852,-35.645,0.000
1709298997.948,-63.965,-45.898,-43.945,-33.203,0.000
1709298997.952,-66.895,-52.734,-34.668,-46.387,0.000
1709298997.956,-46.875,-49.316,-38.086,-38.574,0.000
1709298997.960,-52.246,-43.945,-41.992,-40.039,0.000
1709298997.963,-50.293,-46.875,-37.109,-48.340,0.000
1709298997.967,-46.387,-46.875,-33.691,-42.480,0.000
1709298997.971,-42.480,-44.434,-38.574,-42.480,0.000
1709298997.975,-25.391,-41.016,-26.855,-22.461,0.000
1709298997.979,-36.133,-40.039,-29.785,-13.184,0.000
1709298997.983,-42.969,-45.898,-46.875,-34.180,0.000
1709298997.987,-46.875,-51.758,-33.691,-39.551,0.000
1709298997.991,-55.176,-43.945,-33.691,-47.363,0.000
1709298997.995,-49.316,-44.434,-46.387,-43.945,0.000
1709298997.999,-47.852,-50.781,-48.828,-38.086,0.000
1709298998.002,-47.363,-45.410,-45.898,-50.293,0.000
1709298998.006,-48.828,-37.109,-41.504,-61.523,0.000
1709298998.010,-63.965,-34.668,-31.738,-57.129,0.000
1709298998.014,-46.875,-40.039,-39.551,-41.016,0.000
1709298998.018,-20.508,-50.293,-44.922,-22.949,0.000
1709298998.022,-31.250,-50.781,-38.086,-20.996,0.000
1709298998.026,-48.340,-38.574,-41.016,-45.898,0.000
1709298998.030,-54.199,-31.738,-45.410,-60.547,0.000
1709298998.034,-58.594,-28.809,-39.551,-52.734,0.000
1709298998.038,-57.617,-38.574,-41.504,-55.664,0.000
1709298998.042,-49.316,-56.641,-53.711,-64.453,0.000
1709298998.045,-55.664,-55.176,-49.805,-63.477,0.000
1709298998.049,-66.406,-40.527,-47.852,-70.801,0.000
1709298998.053,-48.828,-39.062,-53.223,-62.012,0.000
1709298998.057,-45.410,-33.691,-47.852,-41.016,0.000
1709298998.061,-52.734,-38.086,-43.945,-40.039,0.000
1709298998.065,-49.805,-52.246,-43.945,-41.504,0.000
1709298998.069,-62.012,-56.641,-45.898,-40.039,0.000
1709298998.073,-66.406,-52.734,-47.852,-38.086,0.000
1709298998.077,-58.105,-44.434,-47.852,-45.898,0.000
1709298998.081,-48.340,-40.039,-46.875,-53.711,0.000
1709298998.084,-47.852,-41.992,-53.711,-55.176,0.000
1709298998.088,-54.688,-44.434,-59.082,-61.523,0.000
1709298998.092,-62.988,-46.875,-63.965,-58.594,0.000
1709298998.096,-63.477,-40.527,-64.453,-46.387,0.000
1709298998.100,-62.988,-37.598,-50.781,-43.457,0.000
1709298998.104,-48.340,-42.969,-47.363,-49.805,0.000
1709298998.108,-42.480,-48.828,-52.734,-55.664,0.000
1709298998.112,-61.523,-53.223,-51.270,-51.270,0.000
1709298998.116,-52.734,-46.875,-43.457,-38.574,0.000
1709298998.120,-30.762,-51.758,-43.945,-24.902,0.000
1709298998.124,-25.391,-49.316,-50.293,-34.668,0.000
1709298998.127,-37.598,-36.621,-44.922,-42.480,0.000
1709298998.131,-43.457,-30.762,-41.016,-36.621,0.000
1709298998.135,-39.551,-30.273,-47.363,-35.156,0.000
1709298998.139,-35.645,-28.320,-52.246,-39.551,0.000
1709298998.143,-30.273,-31.738,-48.828,-46.875,0.000
1709298998.147,-49.805,-48.828,-40.039,-49.805,0.000
1709298998.151,-59.570,-51.270,-34.180,-44.434,0.000
1709298998.155,-51.270,-38.574,-45.898,-39.551,0.000
1709298998.159,-41.504,-38.086,-36.133,-32.227,0.000
1709298998.163,-34.180,-54.688,-26.855,-34.180,0.000
1709298998.167,-42.480,-54.688,-42.480,-45.410,0.000
1709298998.170,-47.852,-48.828,-43.457,-42.480,0.000
1709298998.174,-47.852,-37.598,-46.875,-39.551,0.000
1709298998.178,-52.246,-28.320,-53.711,-32.715,0.000
1709298998.182,-44.434,-34.180,-45.410,-32.715,0.000
1709298998.186,-25.391,-31.738,-39.551,-32.227,0.000
1709298998.190,-39.551,-38.086,-29.785,-34.668,0.000
1709298998.194,-53.223,-42.480,-20.996,-30.762,0.000
1709298998.198,-43.945,-34.668,-31.250,-9.277,0.000
1709298998.202,-36.621,-40.039,-40.039,-17.578,0.000
1709298998.206,-40.527,-41.992,-37.598,-37.109,0.000
1709298998.210,-47.363,-38.574,-34.668,-42.480,0.000
1709298998.214,-41.504,-39.062,-45.410,-38.086,0.000
1709298998.217,-47.363,-45.410,-49.316,-29.297,0.000
1709298998.221,-55.664,-43.945,-39.551,-30.273,0.000
1709298998.225,-54.688,-42.480,-46.387,-41.016,0.000
1709298998.229,-58.105,-46.875,-42.480,-45.410,0.000
1709298998.233,-58.594,-42.969,-35.156,-41.504,0.000
1709298998.237,-53.711,-39.062,-34.668,-37.598,0.000
1709298998.241,-55.664,-44.434,-39.551,-41.504,0.000
1709298998.245,-68.848,-42.480,-47.852,-49.805,0.000
1709298998.249,-47.852,-40.527,-46.387,-60.059,0.000
1709298998.253,-49.316,-47.852,-39.551,-63.477,0.000
1709298998.257,-69.824,-49.805,-47.363,-50.781,0.000
1709298998.260,-53.711,-52.246,-53.711,-36.621,0.000
1709298998.264,-52.246,-41.992,-42.480,-43.945,0.000
1709298998.268,-61.523,-42.969,-40.527,-56.152,0.000
1709298998.272,-50.781,-44.922,-49.805,-47.363,0.000
1709298998.276,-47.363,-40.039,-58.105,-44.922,0.000
1709298998.280,-47.363,-39.551,-47.852,-52.734,0.000
1709298998.284,-30.762,-44.434,-44.922,-56.641,0.000
1709298998.288,-28.809,-45.898,-49.316,-57.617,0.000
1709298998.292,-46.387,-38.086,-36.621,-43.457,0.000
1709298998.296,-52.246,-50.781,-41.504,-31.738,0.000
1709298998.300,-48.340,-58.105,-50.781,-35.645,0.000
1709298998.303,-45.898,-58.594,-49.316,-42.969,0.000
1709298998.307,-40.039,-51.758,-41.016,-43.457,0.000
1709298998.311,-45.410,-40.039,-33.203,-46.387,0.000
1709298998.315,-56.641,-39.551,-40.527,-35.645,0.000
1709298998.319,-33.691,-38.574,-43.945,-20.020,0.000
1709298998.323,-17.090,-31.738,-36.133,-28.320,0.000
1709298998.327,-35.156,-39.062,-20.996,-38.086,0.000
1709298998.331,-42.969,-49.805,-29.785,-31.738,0.000
1709298998.335,-37.109,-45.410,-41.016,-18.555,0.000
1709298998.339,-31.250,-36.133,-34.180,-25.391,0.000
1709298998.343,-35.156,-37.598,-36.133,-40.039,0.000
1709298998.346,-37.109,-35.645,-30.273,-48.828,0.000
1709298998.350,-45.410,-33.203,-27.832,-44.434,0.000
1709298998.354,-51.758,-31.738,-25.391,-28.320,0.000
1709298998.358,-34.180,-21.484,-22.461,-23.926,0.000
1709298998.362,-25.391,-31.738,-27.344,-24.902,0.000
1709298998.366,-43.945,-45.410,-37.109,-36.133,0.000
1709298998.370,-66.406,-51.758,-54.199,-56.641,0.000
1709298998.374,-66.406,-56.152,-63.477,-54.199,0.000
1709298998.378,-57.617,-63.477,-57.129,-45.898,0.000
1709298998.382,-58.105,-67.871,-51.270,-49.316,0.000
1709298998.386,-64.941,-54.688,-58.105,-56.641,0.000
1709298998.389,-74.219,-54.688,-59.082,-65.918,0.000
1709298998.393,-81.055,-61.035,-51.758,-57.617,0.000
1709298998.397,-81.055,-62.500,-50.293,-41.992,0.000
1709298998.401,-70.801,-51.270,-51.270,-46.875,0.000
1709298998.405,-50.781,-56.641,-51.758,-58.594,0.000
1709298998.409,-46.387,-61.035,-55.664,-57.129,0.000
1709298998.413,-56.641,-56.152,-62.988,-56.152,0.000
1709298998.417,-53.711,-49.805,-60.059,-46.875,0.000
1709298998.421,-41.992,-48.340,-59.570,-49.805,0.000
1709298998.425,-36.133,-55.664,-56.641,-58.105,0.000
1709298998.428,-40.527,-39.062,-43.945,-52.246,0.000
1709298998.432,-38.086,-30.762,-41.504,-43.457,0.000
1709298998.436,-35.645,-42.969,-46.875,-41.992,0.000
1709298998.440,-36.133,-45.410,-61.523,-31.250,0.000
1709298998.444,-42.480,-46.387,-68.359,-35.645,0.000
1709298998.448,-46.387,-44.434,-61.035,-51.758,0.000
1709298998.452,-50.781,-46.875,-64.941,-42.480,0.000
1709298998.456,-63.477,-53.223,-64.941,-33.691,0.000
1709298998.460,-58.105,-47.363,-52.246,-41.992,0.000
1709298998.464,-49.316,-52.734,-48.340,-48.828,0.000
1709298998.468,-48.340,-58.105,-52.246,-51.758,0.000
1709298998.471,-48.340,-52.734,-42.969,-55.664,0.000
1709298998.475,-50.293,-51.758,-39.062,-52.734,0.000
1709298998.479,-52.246,-62.988,-46.875,-43.457,0.000
1709298998.483,-57.129,-65.918,-49.805,-39.551,0.000
1709298998.487,-62.012,-50.293,-53.711,-48.828,0.000
1709298998.491,-63.477,-44.922,-55.664,-58.594,0.000
1709298998.495,-64.453,-46.875,-59.570,-64.453,0.000
1709298998.499,-55.176,-51.270,-61.035,-57.617,0.000
1709298998.503,-56.641,-65.918,-58.105,-48.340,0.000
1709298998.507,-51.270,-63.477,-61.523,-60.059,0.000
1709298998.511,-53.711,-41.016,-61.035,-67.383,0.000
1709298998.514,-63.965,-39.062,-51.758,-72.266,0.000
1709298998.518,-61.035,-41.992,-50.293,-70.801,0.000
1709298998.522,-62.500,-42.480,-48.340,-62.988,0.000
1709298998.526,-58.105,-43.945,-48.828,-64.453,0.000
1709298998.530,-62.500,-48.828,-58.105,-65.918,0.000
1709298998.534,-64.453,-49.316,-57.617,-55.664,0.000
1709298998.538,-42.480,-46.387,-55.664,-47.363,0.000
1709298998.542,-49.316,-62.012,-49.805,-46.875,0.000
1709298998.546,-50.293,-67.871,-56.641,-42.969,0.000
1709298998.550,-40.039,-51.270,-67.871,-49.805,0.000
1709298998.553,-41.504,-35.645,-55.664,-50.781,0.000
1709298998.557,-44.922,-40.039,-41.504,-37.598,0.000
1709298998.561,-42.480,-49.805,-45.898,-38.574,0.000
1709298998.565,-44.922,-54.199,-48.340,-48.340,0.000
1709298998.569,-53.223,-51.270,-49.805,-41.016,0.000
1709298998.573,-30.273,-53.223,-59.082,-32.715,0.000
1709298998.577,-33.691,-54.688,-51.758,-43.457,0.000
1709298998.581,-54.688,-51.758,-46.875,-53.711,0.000
1709298998.585,-45.898,-42.969,-57.617,-60.547,0.000
1709298998.589,-51.270,-37.109,-55.664,-61.035,0.000
1709298998.593,-62.500,-45.410,-44.922,-48.828,0.000
1709298998.597,-63.965,-45.898,-42.480,-41.992,0.000
1709298998.600,-54.688,-44.434,-41.992,-39.062,0.000
1709298998.604,-56.152,-50.293,-43.457,-38.086,0.000
1709298998.608,-67.383,-52.246,-46.387,-51.758,0.000
1709298998.612,-70.801,-45.898,-36.133,-56.641,0.000
1709298998.616,-64.453,-42.969,-39.062,-35.645,0.000
1709298998.620,-52.734,-51.758,-45.898,-29.785,0.000
1709298998.624,-48.340,-57.617,-52.734,-36.621,0.000
1709298998.628,-59.570,-53.223,-59.570,-35.645,0.000
1709298998.632,-61.035,-52.246,-44.922,-41.992,0.000
1709298998.636,-56.152,-67.871,-40.527,-39.062,0.000
1709298998.640,-50.293,-59.570,-37.109,-27.344,0.000
1709298998.643,-51.270,-42.480,-34.180,-35.645,0.000
1709298998.647,-43.457,-50.781,-60.547,-53.711,0.000
