timestamps,TP9,AF7,AF8,TP10,Right AUX
1709206505.928,-42.969,-53.223,-47.363,-39.062,0.000
1709206505.932,-49.805,-40.527,-47.363,-39.062,0.000
1709206505.935,-41.992,-42.480,-42.480,-33.203,0.000
1709206505.939,-43.457,-56.152,-42.480,-33.203,0.000
1709206505.943,-46.387,-43.945,-45.410,-34.668,0.000
1709206505.947,-46.387,-49.316,-44.922,-34.180,0.000
1709206505.951,-39.062,-51.270,-37.598,-32.715,0.000
1709206505.955,-47.363,-74.707,-41.016,-41.016,0.000
1709206505.959,-52.246,-88.379,-39.062,-39.062,0.000
1709206505.963,-49.316,-28.320,-41.504,-45.410,0.000
1709206505.967,-51.758,-37.598,-47.363,-54.199,0.000
1709206505.971,-52.734,-73.242,-44.434,-45.898,0.000
1709206505.975,0.000,-46.875,0.000,-44.922,0.000
1709206505.978,0.000,-19.531,0.000,-48.340,0.000
1709206505.982,0.000,-46.875,0.000,-56.152,0.000
1709206505.986,0.000,-72.754,0.000,-62.012,0.000
1709206505.990,0.000,-45.898,0.000,-61.523,0.000
1709206505.994,0.000,-46.875,0.000,-60.059,0.000
1709206505.998,0.000,-68.848,0.000,-54.688,0.000
1709206506.002,0.000,-102.051,0.000,-46.875,0.000
1709206506.006,0.000,-46.387,0.000,-45.898,0.000
1709206506.010,0.000,-24.902,0.000,-51.758,0.000
1709206506.014,0.000,-69.824,0.000,-53.223,0.000
1709206506.017,0.000,-54.199,0.000,-47.363,0.000
1709206506.021,-55.664,-30.762,-39.062,-47.363,0.000
1709206506.025,-52.734,-29.785,-35.156,-49.316,0.000
1709206506.029,-42.969,-56.152,-35.156,-49.805,0.000
1709206506.033,-42.969,-56.152,-38.574,-51.270,0.000
1709206506.037,-48.340,-41.016,-43.457,-48.828,0.000
1709206506.041,-45.898,-62.988,-46.387,-41.504,0.000
1709206506.045,-43.457,-82.031,-41.992,-38.574,0.000
1709206506.049,-40.039,-88.379,-41.016,-25.391,0.000
1709206506.053,-37.109,-37.109,-42.969,-30.762,0.000
1709206506.056,-47.852,-33.203,-39.551,-37.598,0.000
1709206506.060,-47.363,-64.453,-30.762,-29.785,0.000
1709206506.064,-48.340,-57.617,-32.715,-31.738,0.000
1709206506.068,-41.992,-53.711,-41.504,-37.109,0.000
1709206506.072,-47.363,-56.152,-41.504,-41.504,0.000
1709206506.076,-59.082,-87.402,-45.410,-42.969,0.000
1709206506.080,-54.688,-62.500,-45.898,-41.016,0.000
1709206506.084,-48.340,-41.016,-41.992,-44.434,0.000
1709206506.088,-44.922,-63.965,-42.480,-52.734,0.000
1709206506.092,-33.203,-102.539,-36.133,-35.645,0.000
1709206506.095,-36.133,-72.266,-40.527,-34.180,0.000
1709206506.099,-47.363,-18.555,-44.922,-44.922,0.000
1709206506.103,-37.109,-40.527,-41.992,-42.480,0.000
1709206506.107,-23.438,-55.664,-49.316,-42.969,0.000
1709206506.111,-34.668,-43.945,-48.340,-30.273,0.000
1709206506.115,-40.039,-46.875,-42.969,-29.297,0.000
1709206506.119,-38.086,-67.871,-43.945,-42.969,0.000
1709206506.123,-34.668,-71.777,-41.504,-41.016,0.000
1709206506.127,-29.297,-46.387,-41.016,-40.527,0.000
1709206506.131,-33.203,-38.574,-46.387,-43.945,0.000
1709206506.134,-36.133,-82.031,-38.574,-37.109,0.000
1709206506.138,-31.738,-85.938,-34.180,-27.344,0.000
1709206506.142,-28.809,-21.973,-35.645,-26.855,0.000
1709206506.146,-39.062,-21.484,-34.180,-34.180,0.000
1709206506.150,-40.527,-54.199,-35.645,-32.715,0.000
1709206506.154,-33.203,-36.621,-35.645,-32.715,0.000
1709206506.158,-41.504,-20.996,-37.598,-40.039,0.000
1709206506.162,-34.668,-35.645,-35.645,-35.645,0.000
1709206506.166,-15.137,-61.035,-31.738,-35.156,0.000
1709206506.170,-31.250,-49.805,-30.273,-35.156,0.000
1709206506.174,-48.340,-31.250,-33.691,-38.574,0.000
1709206506.178,-43.457,-45.410,-36.133,-39.062,0.000
1709206506.181,-41.992,-71.777,-37.598,-33.691,0.000
1709206506.185,-46.875,-54.688,-40.039,-46.387,0.000
1709206506.189,-43.945,-33.691,-41.992,-49.805,0.000
1709206506.193,-35.156,-48.340,-46.875,-49.805,0.000
1709206506.197,-33.203,-85.938,-47.363,-48.340,0.000
1709206506.201,-38.574,-33.203,-41.504,-48.828,0.000
1709206506.205,-38.086,0.977,-41.992,-58.594,0.000
1709206506.209,-34.668,-43.457,-41.504,-58.105,0.000
1709206506.213,-36.133,-53.711,-37.598,-55.176,0.000
1709206506.217,-39.062,-43.457,-35.645,-51.270,0.000
1709206506.221,-41.504,-46.387,-39.551,-44.434,0.000
1709206506.224,-43.457,-52.734,-41.992,-40.527,0.000
1709206506.228,-36.621,-64.941,-37.598,-36.133,0.000
1709206506.232,-29.785,-49.805,-40.039,-41.504,0.000
1709206506.236,-44.434,-35.156,-40.039,-44.922,0.000
1709206506.240,-47.852,-79.590,-37.109,-36.133,0.000
1709206506.244,-37.598,-87.891,-37.109,-25.879,0.000
1709206506.248,-33.691,-13.672,-37.598,-26.855,0.000
1709206506.252,-34.668,-29.785,-39.062,-25.391,0.000
1709206506.256,-26.367,-78.125,-37.598,-18.555,0.000
1709206506.260,-19.531,-38.086,-36.621,-22.461,0.000
1709206506.264,-15.625,-19.531,-50.781,-29.785,0.000
1709206506.267,-16.602,-49.805,-46.875,-16.602,0.000
1709206506.271,-33.203,-85.449,-30.762,-17.578,0.000
1709206506.275,-51.758,-90.332,-25.391,-26.367,0.000
1709206506.279,-59.082,-71.777,-25.391,-22.949,0.000
1709206506.283,-52.246,-78.125,-27.832,-22.949,0.000
1709206506.287,-56.641,-115.723,-28.320,-20.508,0.000
1709206506.291,-62.988,-61.035,-26.855,-30.273,0.000
1709206506.295,-60.547,-38.574,-28.320,-45.898,0.000
1709206506.299,-73.242,-72.754,-32.715,-40.527,0.000
1709206506.303,-77.148,-59.570,-34.180,-42.969,0.000
1709206506.307,-71.777,-45.410,-33.691,-48.828,0.000
1709206506.310,-59.570,-49.316,-35.645,-46.875,0.000
1709206506.314,-54.688,-63.965,-29.297,-40.039,0.000
1709206506.318,-61.035,-60.547,-28.809,-35.645,0.000
1709206506.322,-53.223,-67.871,-30.273,-35.156,0.000
1709206506.326,-51.758,-51.758,-33.691,-37.109,0.000
1709206506.330,-55.176,-72.266,-40.527,-39.062,0.000
1709206506.334,-49.316,-103.027,-39.551,-29.297,0.000
1709206506.338,-47.363,-38.086,-38.574,-38.086,0.000
1709206506.342,-56.152,-35.156,-42.480,-47.363,0.000
1709206506.346,-62.500,-69.824,-42.480,-47.363,0.000
1709206506.349,-38.086,-59.082,-37.109,-40.527,0.000
1709206506.353,-34.668,-57.617,-33.691,-39.551,0.000
1709206506.357,-49.805,-59.570,-31.250,-38.086,0.000
1709206506.361,-50.293,-66.895,-31.250,-38.086,0.000
1709206506.365,-47.852,-62.988,-38.574,-46.875,0.000
1709206506.369,-34.668,-69.824,-42.969,-39.062,0.000
1709206506.373,-37.598,-77.148,-42.480,-32.715,0.000
1709206506.377,-41.992,-103.027,-38.574,-25.879,0.000
1709206506.381,-41.016,-51.270,-43.457,-23.926,0.000
1709206506.385,-40.527,-7.812,-40.039,-35.645,0.000
1709206506.389,-34.180,-57.129,-35.645,-39.551,0.000
1709206506.392,-31.250,-71.289,-39.551,-35.645,0.000
1709206506.396,-28.809,-45.898,-37.598,-30.762,0.000
1709206506.400,-41.504,-54.199,-37.598,-38.574,0.000
1709206506.404,-44.434,-66.895,-36.621,-39.062,0.000
1709206506.408,-31.250,-60.547,-35.156,-36.621,0.000
1709206506.412,-41.016,-62.988,-36.621,-38.574,0.000
1709206506.416,-46.875,-54.688,-39.551,-34.668,0.000
1709206506.420,-35.645,-59.570,-40.527,-33.203,0.000
1709206506.424,-34.668,-79.102,-37.598,-26.367,0.000
1709206506.428,-29.785,-21.484,-41.016,-39.551,0.000
1709206506.431,-23.926,-9.766,-42.480,-43.945,0.000
1709206506.435,-19.043,-52.734,-37.598,-32.715,0.000
1709206506.439,-15.625,-52.734,-35.156,-33.691,0.000
1709206506.443,-20.508,-29.297,-36.133,-32.227,0.000
1709206506.447,-15.625,-35.156,-30.762,-15.137,0.000
1709206506.451,-10.742,-62.500,-26.855,-16.113,0.000
1709206506.455,-9.277,-42.480,-37.598,-27.832,0.000
1709206506.459,-14.648,-36.133,-40.039,-13.184,0.000
1709206506.463,-29.785,-71.777,-35.156,-8.789,0.000
1709206506.467,-28.809,-108.887,-29.297,-14.648,0.000
1709206506.470,-27.344,-81.055,-28.320,-20.508,0.000
1709206506.474,-57.129,-53.711,-24.902,-29.297,0.000
1709206506.478,-70.312,-73.242,-19.531,-37.109,0.000
1709206506.482,-69.336,-98.145,-13.672,-38.086,0.000
1709206506.486,-63.477,-89.355,-6.836,-35.156,0.000
1709206506.490,-66.406,-90.820,-6.348,-35.156,0.000
1709206506.494,-76.660,-116.699,-1.953,-31.738,0.000
1709206506.498,-73.242,-135.254,0.488,-32.715,0.000
1709206506.502,-75.195,-118.652,0.977,-40.527,0.000
1709206506.506,-83.496,-115.723,-6.348,-54.199,0.000
1709206506.509,-83.496,-163.086,-9.766,-54.199,0.000
1709206506.513,-97.168,-169.922,-3.418,-42.969,0.000
1709206506.517,-94.727,-122.559,4.883,-40.039,0.000
1709206506.521,-89.844,-137.207,2.930,-40.527,0.000
1709206506.525,-88.867,-176.270,-0.488,-28.809,0.000
1709206506.529,-73.242,-166.992,1.465,-27.832,0.000
1709206506.533,-84.473,-152.832,-1.953,-34.668,0.000
1709206506.537,-92.285,-170.898,-0.488,-21.973,0.000
1709206506.541,-78.125,-198.242,3.906,-6.836,0.000
1709206506.545,-76.660,-180.176,-7.324,-20.020,0.000
1709206506.549,-70.312,-159.180,-11.719,-30.273,0.000
1709206506.552,-71.777,-183.105,-8.789,-18.066,0.000
1709206506.556,-71.289,-218.262,-7.324,-0.488,0.000
1709206506.560,-62.988,-203.613,-6.348,1.953,0.000
1709206506.564,-60.547,-168.945,-10.742,-12.207,0.000
1709206506.568,-53.711,-171.875,-13.184,-6.348,0.000
1709206506.572,-55.176,-218.262,-12.207,3.906,0.000
1709206506.576,-64.453,-176.270,-16.602,4.395,0.000
1709206506.580,-56.641,-141.113,-12.207,10.254,0.000
1709206506.584,-38.086,-181.152,-14.648,12.207,0.000
1709206506.588,-45.898,-173.340,-18.555,14.160,0.000
1709206506.592,-61.523,-139.648,-14.160,4.395,0.000
1709206506.596,-59.570,-145.508,-13.672,-0.977,0.000
1709206506.599,-65.918,-167.480,-16.113,6.836,0.000
1709206506.603,-64.453,-179.199,-20.996,5.371,0.000
1709206506.607,-56.152,-148.926,-20.508,2.441,0.000
1709206506.611,-51.270,-118.164,-26.367,-4.883,0.000
1709206506.615,-55.176,-160.645,-31.738,-19.531,0.000
1709206506.619,-62.012,-175.781,-28.320,-14.160,0.000
1709206506.623,-55.176,-104.004,-25.879,-20.020,0.000
1709206506.627,-55.664,-96.191,-30.762,-23.438,0.000
1709206506.631,-52.734,-130.371,-26.855,-20.508,0.000
1709206506.635,-38.574,-116.699,-25.391,-16.113,0.000
1709206506.639,-32.227,-112.793,-29.785,-17.090,0.000
1709206506.642,-42.969,-124.023,-27.832,-17.578,0.000
1709206506.646,-35.645,-123.047,-27.832,-12.695,0.000
1709206506.650,-25.879,-113.770,-30.273,-12.695,0.000
1709206506.654,-40.039,-102.051,-29.297,-9.766,0.000
1709206506.658,-41.504,-110.840,-28.320,-8.301,0.000
1709206506.662,-33.691,-138.672,-23.438,5.859,0.000
1709206506.666,-32.227,-83.008,-26.367,2.441,0.000
1709206506.670,-30.273,-39.551,-31.250,-9.277,0.000
1709206506.674,-25.879,-81.055,-37.109,-5.859,0.000
1709206506.678,-29.297,-87.891,-43.457,-5.371,0.000
1709206506.681,-30.273,-62.500,-42.480,-3.906,0.000
1709206506.685,-32.715,-59.570,-45.898,-16.113,0.000
1709206506.689,-30.273,-80.078,-45.410,-21.973,0.000
1709206506.693,-25.391,-83.496,-42.969,-21.484,0.000
1709206506.697,-30.762,-89.844,-44.434,-32.227,0.000
1709206506.701,-41.016,-101.074,-41.992,-37.598,0.000
1709206506.705,-39.551,-85.938,-35.645,-36.133,0.000
1709206506.709,-26.367,-70.312,-35.156,-29.785,0.000
1709206506.713,-48.828,-57.129,-42.969,-29.297,0.000
1709206506.717,-58.105,-58.105,-44.434,-28.320,0.000
1709206506.721,-47.852,-100.586,-43.457,-28.809,0.000
1709206506.724,-47.852,-77.637,-46.387,-34.180,0.000
1709206506.728,-53.223,-32.227,-48.340,-37.598,0.000
1709206506.732,-54.688,-54.688,-49.316,-32.227,0.000
1709206506.736,-50.293,-78.613,-46.387,-24.902,0.000
1709206506.740,-51.270,-62.988,-41.016,-24.414,0.000
1709206506.744,-45.898,-66.406,-41.504,-24.414,0.000
1709206506.748,-44.922,-86.914,-47.852,-32.715,0.000
1709206506.752,-51.270,-122.070,-45.898,-34.668,0.000
1709206506.756,-56.641,-84.473,-46.875,-38.086,0.000
1709206506.760,-61.523,-25.391,-39.551,-42.969,0.000
1709206506.763,-49.316,-52.734,-40.527,-45.898,0.000
1709206506.767,-43.945,-66.406,-48.340,-49.805,0.000
1709206506.771,-56.641,-52.734,-44.922,-44.434,0.000
1709206506.775,-51.270,-57.617,-37.598,-37.109,0.000
1709206506.779,-45.898,-68.848,-34.668,-34.668,0.000
1709206506.783,-48.828,-65.918,-41.016,-41.504,0.000
1709206506.787,-45.898,-61.035,-41.992,-40.039,0.000
1709206506.791,-41.992,-71.289,-29.785,-38.086,0.000
1709206506.795,-38.574,-103.516,-35.156,-38.086,0.000
1709206506.799,-37.109,-108.887,-37.109,-21.973,0.000
1709206506.803,-30.273,-38.086,-32.227,-21.484,0.000
1709206506.806,-26.855,-38.086,-33.203,-31.250,0.000
1709206506.810,-29.297,-77.148,-35.156,-28.809,0.000
1709206506.814,-30.273,-59.570,-35.156,-33.203,0.000
1709206506.818,-40.039,-42.480,-36.133,-41.504,0.000
1709206506.822,-42.969,-62.012,-37.598,-41.016,0.000
1709206506.826,-36.133,-80.566,-33.203,-40.527,0.000
1709206506.830,-21.484,-53.711,-30.273,-34.668,0.000
1709206506.834,-30.762,-50.293,-37.598,-33.203,0.000
1709206506.838,-48.828,-85.938,-41.504,-33.203,0.000
1709206506.842,-43.457,-121.094,-42.480,-23.438,0.000
1709206506.845,-46.387,-77.637,-41.016,-28.320,0.000
1709206506.849,-40.527,-20.508,-37.598,-34.180,0.000
1709206506.853,-38.574,-56.641,-34.668,-22.949,0.000
1709206506.857,-50.781,-73.242,-33.203,-16.602,0.000
1709206506.861,-41.016,-41.504,-32.715,-21.973,0.000
1709206506.865,-36.133,-41.504,-39.551,-31.738,0.000
1709206506.869,-29.297,-70.312,-32.227,-29.785,0.000
1709206506.873,-32.715,-65.430,-29.297,-34.668,0.000
1709206506.877,-33.691,-49.316,-34.180,-34.180,0.000
1709206506.880,-25.391,-46.387,-31.738,-27.832,0.000
1709206506.884,-26.855,-65.918,-28.320,-27.832,0.000
1709206506.888,-18.066,-67.383,-33.203,-26.367,0.000
1709206506.892,-17.578,-27.344,-36.621,-24.902,0.000
1709206506.896,-33.203,-41.016,-37.109,-30.762,0.000
1709206506.900,-29.785,-75.195,-33.203,-32.227,0.000
1709206506.904,-38.086,-54.688,-28.320,-26.367,0.000
1709206506.908,-35.156,-32.227,-31.250,-39.062,0.000
1709206506.912,-25.879,-53.711,-28.320,-43.457,0.000
1709206506.916,-39.551,-79.590,-21.484,-37.598,0.000
1709206506.920,-49.805,-75.684,-28.809,-49.316,0.000
1709206506.924,-45.898,-52.734,-31.738,-56.152,0.000
1709206506.927,-38.086,-67.383,-27.344,-54.199,0.000
1709206506.931,-31.250,-98.145,-30.762,-54.199,0.000
1709206506.935,-44.922,-86.914,-38.086,-51.270,0.000
1709206506.939,-58.105,-58.105,-39.062,-54.199,0.000
1709206506.943,-41.992,-48.340,-37.109,-56.152,0.000
1709206506.947,-39.551,-82.031,-36.133,-43.457,0.000
1709206506.951,-49.805,-60.547,-30.273,-38.574,0.000
1709206506.955,-42.480,-38.574,-33.203,-38.574,0.000
1709206506.959,-39.551,-67.871,-33.691,-34.668,0.000
1709206506.963,-39.062,-66.406,-29.785,-30.762,0.000
1709206506.967,-39.062,-47.363,-33.691,-35.156,0.000
1709206506.970,-38.574,-52.246,-36.133,-47.852,0.000
1709206506.974,-34.668,-64.453,-37.109,-55.664,0.000
1709206506.978,-39.551,-68.359,-34.668,-44.434,0.000
1709206506.982,-44.434,-49.805,-33.691,-38.086,0.000
1709206506.986,-49.805,-32.227,-40.039,-49.805,0.000
1709206506.990,-50.781,-62.500,-38.574,-47.363,0.000
1709206506.994,-36.621,-86.914,-36.133,-32.715,0.000
1709206506.998,-39.062,-28.809,-41.016,-41.016,0.000
1709206507.002,-59.082,-20.996,-41.016,-39.551,0.000
1709206507.006,-54.688,-48.340,-33.691,-31.250,0.000
1709206507.010,-46.875,-46.875,-36.133,-38.574,0.000
1709206507.013,-45.410,-41.992,-40.527,-41.016,0.000
1709206507.017,-51.758,-53.711,-38.086,-38.574,0.000
1709206507.021,-55.176,-67.383,-34.668,-40.039,0.000
1709206507.025,-46.387,-56.152,-35.156,-35.156,0.000
1709206507.029,-48.340,-41.504,-32.227,-34.668,0.000
1709206507.033,-50.293,-51.758,-26.367,-40.039,0.000
1709206507.037,-48.828,-94.238,-25.879,-26.855,0.000
1709206507.041,-54.688,-58.594,-34.180,-27.344,0.000
1709206507.045,-52.246,-9.766,-41.016,-44.922,0.000
1709206507.049,-40.039,-41.504,-44.922,-46.875,0.000
1709206507.053,-33.691,-48.340,-46.875,-42.480,0.000
1709206507.056,-40.039,-28.809,-39.062,-38.574,0.000
1709206507.060,-41.016,-41.992,-43.945,-46.387,0.000
1709206507.064,-38.086,-54.199,-49.316,-49.805,0.000
1709206507.068,-31.250,-37.598,-40.039,-44.434,0.000
1709206507.072,-27.832,-50.293,-40.527,-44.434,0.000
1709206507.076,-32.227,-49.805,-41.992,-46.875,0.000
1709206507.080,-37.598,-60.059,-37.109,-38.086,0.000
1709206507.084,-30.273,-90.820,-39.062,-26.855,0.000
1709206507.088,-23.926,-31.738,-41.992,-36.133,0.000
1709206507.092,-33.691,-25.879,-34.180,-41.016,0.000
1709206507.096,-33.203,-71.777,-35.645,-32.715,0.000
1709206507.099,-35.156,-55.664,-42.969,-33.203,0.000
1709206507.103,-38.574,-27.832,-41.992,-33.691,0.000
1709206507.107,-36.621,-40.527,-34.668,-29.785,0.000
1709206507.111,-58.594,-76.660,-30.273,-32.715,0.000
1709206507.115,-67.383,-69.824,-38.086,-38.086,0.000
1709206507.119,-58.594,-68.848,-41.992,-31.250,0.000
1709206507.123,-45.410,-78.125,-38.086,-28.809,0.000
1709206507.127,-41.016,-93.262,-39.551,-21.973,0.000
1709206507.131,-43.457,-56.152,-47.852,-24.414,0.000
1709206507.135,-41.016,-14.648,-48.828,-34.180,0.000
1709206507.138,-45.410,-41.504,-48.340,-28.320,0.000
1709206507.142,-44.922,-57.129,-42.969,-30.762,0.000
1709206507.146,-37.598,-35.645,-43.457,-32.227,0.000
1709206507.150,-36.621,-41.016,-44.922,-33.203,0.000
1709206507.154,-34.180,-72.754,-43.457,-35.156,0.000
1709206507.158,-30.273,-57.617,-41.504,-24.414,0.000
1709206507.162,-30.762,-40.039,-40.039,-23.438,0.000
1709206507.166,-21.973,-58.594,-42.480,-41.016,0.000
1709206507.170,-27.344,-79.590,-39.062,-37.598,0.000
1709206507.174,-40.039,-91.797,-39.062,-26.367,0.000
1709206507.177,-41.992,-34.180,-42.480,-33.691,0.000
1709206507.181,-37.109,-24.414,-43.945,-40.527,0.000
1709206507.185,-37.109,-62.500,-46.875,-50.293,0.000
1709206507.189,-31.250,-52.246,-47.363,-49.316,0.000
1709206507.193,-24.902,-30.273,-42.969,-42.969,0.000
1709206507.197,-30.762,-43.457,-41.992,-41.504,0.000
1709206507.201,-33.691,-70.801,-39.062,-42.480,0.000
1709206507.205,-29.785,-50.781,-38.574,-49.805,0.000
1709206507.209,-24.902,-42.969,-38.086,-56.641,0.000
1709206507.213,-27.344,-72.754,-36.133,-49.316,0.000
1709206507.216,-22.461,-92.773,-35.156,-34.668,0.000
1709206507.220,-31.250,-67.383,-33.203,-22.461,0.000
1709206507.224,-50.781,-25.879,-32.715,-31.250,0.000
1709206507.228,-49.316,-43.457,-42.480,-41.504,0.000
1709206507.232,-42.969,-82.520,-43.945,-38.086,0.000
1709206507.236,-51.270,-48.828,-44.434,-38.086,0.000
1709206507.240,-54.688,-36.133,-45.410,-31.738,0.000
1709206507.244,-54.688,-62.012,-45.898,-28.320,0.000
1709206507.248,-46.875,-62.988,-40.039,-27.344,0.000
1709206507.252,-42.480,-48.340,-35.156,-17.578,0.000
1709206507.255,-50.781,-48.828,-40.527,-21.973,0.000
1709206507.259,-47.363,-84.961,-38.086,-32.227,0.000
1709206507.263,-38.086,-102.051,-27.832,-20.508,0.000
1709206507.267,-29.297,-42.480,-35.645,-23.926,0.000
1709206507.271,-43.457,-33.691,-44.434,-37.598,0.000
1709206507.275,-57.129,-58.105,-31.738,-34.180,0.000
1709206507.279,-44.434,-43.457,-30.762,-24.902,0.000
1709206507.283,-40.527,-30.762,-37.598,-24.902,0.000
1709206507.287,-47.852,-42.969,-37.109,-28.320,0.000
1709206507.291,-47.363,-66.895,-45.410,-29.785,0.000
1709206507.295,-48.340,-58.105,-49.316,-37.109,0.000
1709206507.298,-48.340,-37.598,-41.992,-41.992,0.000
1709206507.302,-42.480,-48.340,-37.109,-35.156,0.000
1709206507.306,-41.504,-79.590,-41.016,-34.668,0.000
1709206507.310,-38.086,-67.383,-47.363,-48.340,0.000
1709206507.314,-39.551,-48.340,-43.457,-50.781,0.000
1709206507.318,-49.805,-45.410,-39.551,-43.457,0.000
1709206507.322,-42.969,-89.355,-41.992,-35.156,0.000
1709206507.326,-41.992,-64.941,-41.016,-31.738,0.000
1709206507.330,-53.223,-19.531,-42.480,-42.480,0.000
1709206507.334,-43.457,-37.598,-41.504,-44.922,0.000
1709206507.338,-37.109,-48.340,-28.809,-35.645,0.000
1709206507.342,-32.715,-51.270,-24.414,-28.809,0.000
1709206507.345,-27.832,-41.504,-33.691,-31.738,0.000
1709206507.349,-30.273,-45.410,-34.180,-34.668,0.000
1709206507.353,-29.297,-62.988,-33.691,-30.762,0.000
1709206507.357,-33.691,-46.387,-37.598,-32.227,0.000
1709206507.361,-39.551,-28.320,-34.180,-32.715,0.000
1709206507.365,-37.598,-61.035,-34.668,-24.902,0.000
1709206507.369,-33.691,-89.355,-37.109,-20.508,0.000
1709206507.373,-38.086,-32.715,-40.527,-36.621,0.000
1709206507.377,-37.598,-27.344,-39.062,-42.480,0.000
1709206507.381,-27.344,-68.848,-34.180,-38.574,0.000
1709206507.385,-38.574,-52.734,-37.598,-31.250,0.000
1709206507.388,-40.039,-24.902,-39.551,-30.762,0.000
1709206507.392,-28.809,-34.668,-36.133,-23.926,0.000
1709206507.396,-18.066,-60.547,-39.062,-20.508,0.000
1709206507.400,-19.531,-66.895,-34.180,-35.645,0.000
1709206507.404,-27.832,-52.246,-28.809,-32.227,0.000
1709206507.408,-36.621,-59.570,-35.156,-34.668,0.000
1709206507.412,-38.086,-88.867,-35.645,-23.438,0.000
1709206507.416,-32.715,-40.527,-29.297,-15.625,0.000
1709206507.420,-32.227,-18.066,-31.250,-30.273,0.000
1709206507.424,-25.391,-63.965,-35.156,-40.039,0.000
1709206507.428,-38.086,-64.941,-32.227,-42.480,0.000
1709206507.431,-46.387,-46.875,-34.668,-38.086,0.000
1709206507.435,-47.852,-60.547,-34.668,-35.156,0.000
1709206507.439,-45.410,-71.289,-27.344,-29.785,0.000
1709206507.443,-33.691,-62.012,-28.809,-25.879,0.000
1709206507.447,-34.180,-70.801,-30.762,-21.973,0.000
1709206507.451,-35.645,-48.828,-29.297,-23.926,0.000
1709206507.455,-34.668,-58.105,-26.855,-19.043,0.000
1709206507.459,-40.039,-86.914,-24.902,-11.230,0.000
1709206507.463,-47.852,-27.832,-31.250,-30.273,0.000
1709206507.467,-50.293,-29.297,-41.504,-35.156,0.000
1709206507.470,-49.805,-62.988,-39.551,-31.250,0.000
1709206507.474,-50.293,-55.176,-43.945,-34.180,0.000
1709206507.478,-49.316,-48.340,-50.293,-37.109,0.000
1709206507.482,-45.898,-62.988,-42.969,-40.527,0.000
1709206507.486,-44.922,-81.543,-44.922,-47.363,0.000
1709206507.490,-38.086,-56.152,-47.363,-49.316,0.000
1709206507.494,-46.875,-58.594,-41.016,-38.086,0.000
1709206507.498,-51.270,-72.266,-34.180,-30.762,0.000
1709206507.502,-59.082,-100.098,-40.039,-27.832,0.000
1709206507.506,-57.129,-59.570,-42.480,-24.414,0.000
1709206507.510,-40.527,-3.418,-36.621,-27.832,0.000
1709206507.513,-35.645,-41.016,-37.598,-31.250,0.000
1709206507.517,-30.273,-58.105,-32.227,-29.297,0.000
1709206507.521,-18.066,-28.809,-24.414,-30.273,0.000
1709206507.525,-12.695,-23.926,-33.203,-39.551,0.000
1709206507.529,-16.113,-51.758,-41.992,-41.016,0.000
1709206507.533,-18.555,-59.082,-43.457,-34.180,0.000
1709206507.537,-34.180,-49.805,-40.527,-30.762,0.000
1709206507.541,-32.715,-56.641,-37.598,-26.855,0.000
1709206507.545,-25.879,-69.336,-41.992,-23.926,0.000
1709206507.549,-25.391,-84.473,-39.551,-13.184,0.000
1709206507.552,-22.949,-41.992,-35.645,-14.648,0.000
1709206507.556,-32.715,-42.480,-35.645,-17.578,0.000
1709206507.560,-37.598,-55.664,-41.992,-24.414,0.000
1709206507.564,-36.621,-29.785,-38.086,-28.809,0.000
1709206507.568,-30.762,-25.391,-33.691,-30.273,0.000
1709206507.572,-21.973,-44.922,-29.785,-26.367,0.000
1709206507.576,-26.367,-69.336,-24.902,-23.926,0.000
1709206507.580,-39.062,-47.363,-29.297,-32.227,0.000
1709206507.584,-22.461,-35.156,-24.414,-36.133,0.000
1709206507.588,-22.461,-72.754,-23.926,-33.691,0.000
1709206507.591,-42.480,-112.305,-31.250,-25.879,0.000
1709206507.595,-36.133,-74.707,-29.297,-23.438,0.000
1709206507.599,-38.086,-13.672,-26.855,-44.922,0.000
1709206507.603,-35.645,-31.738,-23.926,-48.340,0.000
1709206507.607,-30.762,-55.176,-28.809,-42.480,0.000
1709206507.611,-31.738,-47.852,-32.715,-44.434,0.000
1709206507.615,-37.598,-46.875,-37.109,-49.316,0.000
1709206507.619,-41.016,-54.199,-35.645,-48.828,0.000
1709206507.623,-36.133,-47.852,-28.809,-45.410,0.000
1709206507.626,-29.297,-42.969,-35.156,-51.758,0.000
1709206507.630,-41.504,-45.410,-34.668,-55.176,0.000
1709206507.634,-56.152,-84.473,-28.809,-46.387,0.000
1709206507.638,-61.035,-116.699,-28.320,-31.250,0.000
1709206507.642,-56.152,-38.574,-31.738,-41.992,0.000
1709206507.646,-40.527,-21.973,-31.250,-49.316,0.000
1709206507.650,-29.297,-60.547,-26.367,-38.574,0.000
1709206507.654,-41.992,-51.758,-25.391,-27.344,0.000
1709206507.658,-51.270,-38.086,-26.367,-22.461,0.000
1709206507.662,-46.387,-46.875,-35.645,-25.879,0.000
1709206507.666,-40.039,-67.383,-36.621,-32.227,0.000
1709206507.670,-44.922,-56.641,-33.691,-39.062,0.000
1709206507.673,-41.016,-30.273,-36.621,-35.645,0.000
1709206507.677,-28.809,-48.340,-35.645,-34.668,0.000
1709206507.681,-36.133,-78.125,-36.621,-42.969,0.000
1709206507.685,-45.898,-65.430,-38.574,-44.922,0.000
1709206507.689,-31.250,-40.527,-35.156,-44.922,0.000
1709206507.693,-30.273,-37.109,-36.621,-45.410,0.000
1709206507.697,-33.691,-83.496,-39.551,-34.668,0.000
1709206507.701,-36.133,-46.387,-38.574,-33.691,0.000
1709206507.705,-28.320,2.930,-35.156,-34.668,0.000
1709206507.709,-16.113,-32.715,-38.086,-36.133,0.000
1709206507.713,-16.602,-48.340,-41.992,-41.016,0.000
1709206507.716,-21.484,-27.832,-41.992,-33.203,0.000
1709206507.720,-18.066,-34.180,-45.410,-40.527,0.000
1709206507.724,-31.738,-63.477,-45.410,-42.480,0.000
1709206507.728,-34.180,-76.660,-43.457,-38.574,0.000
1709206507.732,-25.391,-62.012,-41.504,-43.945,0.000
1709206507.736,-37.109,-35.156,-41.016,-46.875,0.000
1709206507.740,-40.527,-68.359,-35.645,-42.480,0.000
1709206507.744,-32.715,-92.773,-36.621,-31.250,0.000
1709206507.748,-33.203,-27.344,-44.922,-41.992,0.000
1709206507.752,-39.062,-31.250,-41.504,-44.922,0.000
1709206507.756,-47.852,-69.336,-37.109,-44.434,0.000
1709206507.759,-48.828,-53.223,-34.668,-43.945,0.000
1709206507.763,-42.969,-45.410,-28.809,-36.133,0.000
1709206507.767,-43.945,-47.363,-30.273,-38.574,0.000
1709206507.771,-39.062,-64.453,-32.715,-47.363,0.000
1709206507.775,-50.293,-69.824,-27.832,-41.016,0.000
1709206507.779,-64.941,-56.641,-26.367,-38.086,0.000
1709206507.783,-59.570,-57.617,-24.414,-35.156,0.000
1709206507.787,-53.711,-90.332,-26.855,-28.320,0.000
1709206507.791,-50.781,-53.223,-30.273,-36.133,0.000
1709206507.795,-47.852,-15.137,-33.203,-40.039,0.000
1709206507.799,-45.410,-55.176,-31.250,-39.062,0.000
1709206507.802,-44.922,-63.477,-24.414,-40.039,0.000
1709206507.806,-31.250,-38.086,-19.043,-36.133,0.000
1709206507.810,-21.484,-43.457,-29.297,-41.992,0.000
1709206507.814,-32.227,-66.406,-34.180,-49.805,0.000
1709206507.818,-32.715,-60.547,-30.762,-45.898,0.000
1709206507.822,-30.762,-60.547,-34.668,-41.992,0.000
1709206507.826,-49.316,-65.918,-35.645,-46.875,0.000
1709206507.830,-48.340,-68.359,-35.156,-41.992,0.000
1709206507.834,-39.551,-75.195,-34.668,-28.320,0.000
1709206507.838,-45.898,-29.785,-36.133,-41.992,0.000
1709206507.842,-39.062,-32.227,-33.203,-41.992,0.000
1709206507.845,-30.273,-42.480,-31.250,-37.598,0.000
1709206507.849,-22.949,-19.531,-37.598,-41.992,0.000
1709206507.853,-21.484,-14.648,-40.039,-42.480,0.000
1709206507.857,-29.297,-27.832,-34.180,-35.156,0.000
1709206507.861,-38.574,-51.270,-37.109,-37.109,0.000
1709206507.865,-43.457,-37.598,-41.504,-41.992,0.000
1709206507.869,-38.574,-43.457,-37.598,-41.016,0.000
1709206507.873,-32.715,-64.453,-36.133,-39.551,0.000
1709206507.877,-38.086,-96.191,-40.039,-39.551,0.000
1709206507.881,-36.621,-51.270,-40.527,-41.504,0.000
1709206507.884,-32.715,-4.883,-38.574,-37.598,0.000
1709206507.888,-41.992,-43.457,-36.133,-32.227,0.000
1709206507.892,-37.109,-63.477,-35.645,-35.156,0.000
1709206507.896,-40.039,-59.570,-38.086,-39.062,0.000
1709206507.900,-49.805,-54.688,-41.504,-41.992,0.000
1709206507.904,-34.180,-49.805,-41.992,-38.086,0.000
1709206507.908,-28.320,-51.270,-35.156,-38.574,0.000
1709206507.912,-41.504,-45.410,-38.086,-43.457,0.000
1709206507.916,-39.551,-51.758,-42.969,-38.086,0.000
1709206507.920,-25.391,-68.359,-36.621,-32.715,0.000
1709206507.923,-20.996,-76.172,-34.180,-25.391,0.000
1709206507.927,-34.180,-6.348,-32.227,-33.203,0.000
1709206507.931,-37.109,-5.371,-33.203,-55.664,0.000
1709206507.935,-30.762,-50.781,-40.039,-57.129,0.000
1709206507.939,-23.926,-36.621,-46.875,-44.922,0.000
1709206507.943,-21.484,-21.973,-47.363,-45.410,0.000
1709206507.947,-23.438,-26.367,-42.480,-44.922,0.000
1709206507.951,-23.926,-56.152,-43.457,-43.457,0.000
1709206507.955,-32.227,-56.641,-41.992,-44.922,0.000
1709206507.959,-48.340,-33.691,-45.410,-41.992,0.000
1709206507.962,-51.758,-47.852,-44.922,-43.457,0.000
1709206507.966,-41.016,-90.332,-38.086,-35.156,0.000
1709206507.970,-22.949,-57.129,-37.598,-25.391,0.000
1709206507.974,-43.945,-16.113,-37.598,-30.762,0.000
1709206507.978,-55.176,-41.016,-39.551,-34.668,0.000
1709206507.982,-37.598,-50.781,-36.133,-37.598,0.000
1709206507.986,-35.156,-37.598,-32.715,-28.809,0.000
1709206507.990,-37.598,-35.645,-38.574,-26.855,0.000
1709206507.994,-33.203,-49.805,-40.039,-24.902,0.000
1709206507.998,-41.016,-58.105,-37.109,-19.531,0.000
1709206508.001,-46.875,-51.270,-42.480,-21.484,0.000
1709206508.005,-31.250,-47.363,-42.480,-26.367,0.000
1709206508.009,-33.203,-80.566,-38.574,-18.555,0.000
1709206508.013,-48.340,-104.492,-37.598,-6.836,0.000
1709206508.017,-39.551,-51.270,-36.133,-8.301,0.000
1709206508.021,-35.645,-34.180,-39.062,-9.766,0.000
1709206508.025,-38.086,-67.383,-41.504,-15.137,0.000
1709206508.029,-36.133,-56.641,-37.598,-29.297,0.000
1709206508.033,-35.156,-38.086,-34.180,-32.715,0.000
1709206508.037,-41.504,-43.945,-33.691,-32.715,0.000
1709206508.041,-39.062,-63.965,-32.715,-31.738,0.000
1709206508.045,-35.156,-52.246,-37.598,-27.344,0.000
1709206508.048,-35.156,-40.527,-39.062,-29.785,0.000
1709206508.052,-34.668,-57.129,-41.504,-41.504,0.000
1709206508.056,-40.039,-92.285,-48.828,-55.664,0.000
1709206508.060,-37.598,-77.637,-48.828,-48.340,0.000
1709206508.064,-19.043,-37.598,-41.016,-38.086,0.000
1709206508.068,-34.668,-44.434,-33.691,-39.062,0.000
1709206508.072,-37.598,-83.496,-31.738,-29.785,0.000
1709206508.076,-41.992,-42.969,-38.574,-38.574,0.000
1709206508.080,-59.570,-17.090,-38.574,-50.781,0.000
1709206508.084,0.000,-55.176,-36.621,-46.387,0.000
1709206508.088,0.000,-58.594,-37.109,-50.293,0.000
1709206508.091,0.000,-35.645,-40.527,-46.387,0.000
1709206508.095,0.000,-41.992,-41.016,-45.410,0.000
1709206508.099,0.000,-69.824,-35.645,-43.945,0.000
1709206508.103,0.000,-83.984,-33.203,-39.062,0.000
1709206508.107,0.000,-61.523,-35.645,-48.340,0.000
1709206508.111,0.000,-34.668,-37.109,-53.223,0.000
1709206508.115,0.000,-75.684,-39.551,-41.504,0.000
1709206508.119,0.000,-97.656,-43.457,-27.344,0.000
1709206508.123,0.000,-29.297,-41.016,-30.273,0.000
1709206508.127,0.000,-39.551,-35.645,-30.762,0.000
1709206508.131,-44.434,-61.523,-39.551,-28.320,0.000
1709206508.134,-37.598,-35.156,-39.551,-29.297,0.000
1709206508.138,-34.668,-28.320,-34.668,-29.297,0.000
1709206508.142,-34.180,-39.551,-35.645,-36.621,0.000
1709206508.146,-29.297,-66.895,-35.156,-36.133,0.000
1709206508.150,-24.902,-67.871,-35.645,-31.250,0.000
1709206508.154,-34.180,-38.086,-34.668,-28.320,0.000
1709206508.158,-40.039,-41.992,-33.203,-33.203,0.000
1709206508.162,-25.879,-84.473,-37.598,-22.949,0.000
1709206508.166,-38.086,-32.227,-31.250,-14.648,0.000
1709206508.170,-42.969,-5.371,-32.227,-28.809,0.000
1709206508.174,-32.227,-54.688,-35.156,-42.969,0.000
1709206508.177,-43.945,-66.406,-32.715,-41.992,0.000
1709206508.181,-46.875,-45.898,-30.273,-36.133,0.000
1709206508.185,-42.480,-57.129,-33.203,-38.086,0.000
1709206508.189,-43.945,-58.105,-36.133,-34.668,0.000
1709206508.193,-44.922,-41.016,-35.156,-30.762,0.000
1709206508.197,-46.875,-58.105,-37.109,-31.738,0.000
1709206508.201,-52.246,-48.828,-40.039,-32.227,0.000
1709206508.205,-48.340,-58.105,-38.086,-24.902,0.000
1709206508.209,-41.016,-93.262,-37.598,-21.484,0.000
1709206508.213,-43.945,-40.527,-36.621,-36.133,0.000
1709206508.217,-46.875,-33.203,-41.504,-36.621,0.000
1709206508.220,-41.504,-62.500,-36.133,-20.508,0.000
1709206508.224,-54.688,-55.664,-35.645,-23.926,0.000
1709206508.228,-53.223,-44.434,-39.551,-39.551,0.000
1709206508.232,-52.734,-53.711,-41.992,-43.945,0.000
1709206508.236,-59.082,-79.590,-40.527,-31.250,0.000
1709206508.240,-66.406,-65.918,-39.062,-33.691,0.000
1709206508.244,-61.035,-53.711,-38.086,-41.504,0.000
1709206508.248,-49.805,-62.500,-35.645,-46.875,0.000
1709206508.252,-43.945,-89.355,-37.109,-41.992,0.000
1709206508.256,-49.316,-53.711,-40.039,-38.574,0.000
1709206508.259,-49.316,-6.348,-42.480,-48.828,0.000
1709206508.263,-34.668,-29.785,-36.133,-39.551,0.000
1709206508.267,-25.391,-44.434,-33.203,-33.203,0.000
1709206508.271,-32.227,-21.973,-33.203,-35.156,0.000
1709206508.275,-34.668,-32.715,-29.297,-30.762,0.000
1709206508.279,-34.180,-61.035,-27.344,-27.344,0.000
1709206508.283,-38.574,-55.664,-35.156,-25.391,0.000
1709206508.287,-31.738,-42.969,-38.086,-25.391,0.000
1709206508.291,-27.832,-56.152,-34.180,-35.156,0.000
1709206508.295,-36.621,-74.219,-33.203,-37.109,0.000
1709206508.298,-38.086,-83.984,-37.109,-32.227,0.000
1709206508.302,-34.668,-15.137,-41.016,-33.691,0.000
1709206508.306,-36.133,-4.883,-33.691,-31.250,0.000
1709206508.310,-40.039,-52.734,-36.621,-33.691,0.000
1709206508.314,-32.227,-49.316,-42.969,-37.109,0.000
1709206508.318,-25.879,-32.227,-38.574,-47.363,0.000
1709206508.322,-41.504,-36.621,-35.156,-48.340,0.000
1709206508.326,-40.527,-59.570,-40.039,-45.898,0.000
1709206508.330,-36.621,-51.270,-41.992,-49.316,0.000
1709206508.334,-42.969,-47.363,-39.551,-38.574,0.000
1709206508.337,-51.270,-67.383,-36.621,-28.809,0.000
1709206508.341,-58.105,-89.844,-36.621,-23.926,0.000
1709206508.345,-59.570,-48.828,-41.992,-37.109,0.000
1709206508.349,-56.641,5.371,-32.715,-48.828,0.000
1709206508.353,-58.105,-31.250,-29.785,-45.898,0.000
1709206508.357,-54.688,-61.523,-32.227,-42.969,0.000
1709206508.361,-53.223,-37.109,-30.762,-42.969,0.000
1709206508.365,-53.223,-30.762,-34.180,-52.734,0.000
1709206508.369,-47.852,-47.363,-32.227,-50.293,0.000
1709206508.373,-45.898,-54.199,-30.762,-39.062,0.000
1709206508.376,-38.574,-43.457,-32.227,-37.598,0.000
1709206508.380,-31.250,-36.133,-32.227,-31.738,0.000
1709206508.384,-39.062,-76.660,-31.738,-27.344,0.000
1709206508.388,-41.504,-112.305,-31.250,-32.715,0.000
1709206508.392,-36.133,-40.527,-32.227,-33.691,0.000
1709206508.396,-30.762,-26.855,-34.668,-32.715,0.000
1709206508.400,-31.250,-57.617,-31.250,-29.785,0.000
1709206508.404,-32.715,-36.621,-30.762,-28.320,0.000
1709206508.408,-34.668,-23.926,-33.691,-41.016,0.000
1709206508.412,-39.062,-50.293,-34.180,-46.387,0.000
1709206508.416,-41.992,-68.359,-30.762,-38.574,0.000
1709206508.420,-30.273,-41.992,-29.297,-33.691,0.000
1709206508.423,-23.438,-34.668,-32.715,-28.320,0.000
1709206508.427,-36.133,-54.688,-30.273,-15.625,0.000
1709206508.431,-36.133,-83.496,-32.715,-14.160,0.000
1709206508.435,-39.551,-75.684,-37.109,-31.738,0.000
1709206508.439,-52.246,-49.316,-30.762,-46.875,0.000
1709206508.443,-54.199,-48.340,-35.156,-38.086,0.000
1709206508.447,-37.109,-96.680,-39.062,-29.297,0.000
1709206508.451,-39.062,-53.711,-34.668,-33.203,0.000
1709206508.455,-50.781,-20.996,-36.133,-39.062,0.000
1709206508.459,-53.223,-60.059,-33.691,-47.363,0.000
1709206508.463,-52.246,-61.035,-34.180,-50.781,0.000
1709206508.466,-47.852,-49.316,-37.109,-50.781,0.000
1709206508.470,-36.133,-60.547,-34.180,-52.734,0.000
1709206508.474,-40.039,-65.918,-34.180,-49.316,0.000
1709206508.478,-65.430,-73.730,-39.551,-42.969,0.000
1709206508.482,-70.801,-61.523,-41.992,-44.922,0.000
1709206508.486,-63.477,-32.715,-38.086,-57.129,0.000
1709206508.490,-51.758,-62.988,-36.621,-55.664,0.000
1709206508.494,-50.781,-98.145,-37.109,-41.016,0.000
1709206508.498,-59.570,-30.762,-40.527,-36.133,0.000
1709206508.502,-57.617,-29.297,-40.527,-38.086,0.000
1709206508.506,-47.852,-70.801,-40.527,-42.480,0.000
1709206508.509,-37.598,-54.199,-36.621,-41.504,0.000
1709206508.513,-38.574,-35.645,-30.273,-41.504,0.000
1709206508.517,-38.574,-48.340,-30.762,-33.691,0.000
1709206508.521,-25.879,-75.195,-30.273,-24.414,0.000
1709206508.525,-36.133,-64.453,-36.621,-24.414,0.000
1709206508.529,-41.504,-51.270,-40.527,-21.973,0.000
1709206508.533,-32.227,-57.617,-39.062,-25.879,0.000
1709206508.537,-30.273,-87.402,-35.156,-17.578,0.000
1709206508.541,-40.527,-50.293,-37.109,-19.043,0.000
1709206508.545,-43.945,0.977,-40.039,-31.738,0.000
1709206508.549,-35.645,-26.855,-39.551,-34.668,0.000
1709206508.552,-27.832,-44.922,-38.574,-35.156,0.000
1709206508.556,-24.902,-27.344,-36.133,-30.273,0.000
1709206508.560,-20.996,-27.832,-33.691,-21.484,0.000
1709206508.564,-22.949,-47.852,-38.574,-28.809,0.000
1709206508.568,-17.090,-58.105,-45.410,-34.668,0.000
1709206508.572,-13.672,-61.035,-42.969,-32.227,0.000
1709206508.576,-28.320,-41.016,-38.574,-33.203,0.000
1709206508.580,-27.344,-51.270,-32.227,-26.855,0.000
1709206508.584,-23.438,-93.262,-32.227,-17.578,0.000
1709206508.588,-20.020,-22.949,-36.133,-29.785,0.000
1709206508.591,-22.949,-19.043,-36.133,-41.504,0.000
1709206508.595,-32.715,-70.801,-35.156,-46.387,0.000
1709206508.599,-34.668,-54.688,-37.598,-40.039,0.000
1709206508.603,-35.156,-28.809,-34.668,-34.180,0.000
1709206508.607,-32.227,-50.293,-33.203,-41.504,0.000
1709206508.611,-37.598,-71.777,-38.086,-49.316,0.000
1709206508.615,-47.363,-59.082,-40.527,-57.617,0.000
1709206508.619,-52.734,-62.988,-37.598,-55.664,0.000
1709206508.623,-45.898,-62.988,-31.250,-41.016,0.000
1709206508.627,-27.832,-73.730,-29.785,-33.691,0.000
1709206508.631,-26.367,-39.062,-30.273,-37.109,0.000
1709206508.634,-51.758,-23.438,-30.273,-35.156,0.000
1709206508.638,-57.129,-69.824,-33.691,-38.574,0.000
1709206508.642,-53.711,-100.586,-31.738,-34.668,0.000
1709206508.646,-47.852,-55.664,-34.180,-40.527,0.000
1709206508.650,-44.434,-35.156,-42.480,-54.199,0.000
1709206508.654,-45.898,-77.148,-40.039,-50.293,0.000
1709206508.658,-48.340,-97.168,-33.691,-35.156,0.000
1709206508.662,-49.805,-56.641,-31.250,-31.738,0.000
1709206508.666,-48.828,-55.664,-35.645,-42.480,0.000
1709206508.670,-45.410,-82.031,-41.992,-42.480,0.000
1709206508.673,-40.039,-105.957,-36.621,-27.832,0.000
1709206508.677,-36.621,-40.039,-32.715,-33.691,0.000
1709206508.681,-49.805,-17.578,-31.250,-36.133,0.000
1709206508.685,-49.316,-50.781,-35.156,-29.785,0.000
1709206508.689,-52.246,-47.363,-39.551,-37.109,0.000
1709206508.693,-50.781,-39.062,-36.621,-37.109,0.000
1709206508.697,-31.738,-56.152,-31.738,-28.320,0.000
1709206508.701,-43.945,-75.684,-34.668,-30.762,0.000
1709206508.705,-45.898,-40.039,-35.156,-27.344,0.000
1709206508.709,-35.645,-28.320,-36.621,-35.156,0.000
1709206508.712,-36.621,-64.453,-38.574,-41.992,0.000
1709206508.716,-40.039,-98.633,-37.109,-32.715,0.000
1709206508.720,-46.387,-62.988,-39.551,-25.391,0.000
1709206508.724,-37.598,-0.488,-41.504,-17.578,0.000
1709206508.728,-27.344,-20.020,-43.457,-25.391,0.000
1709206508.732,-37.598,-48.340,-42.969,-43.457,0.000
1709206508.736,-42.969,-33.691,-41.016,-43.945,0.000
1709206508.740,0.000,-34.668,-41.016,-34.668,0.000
1709206508.744,0.000,-55.176,-46.387,-35.156,0.000
1709206508.748,0.000,-55.664,-47.363,-43.457,0.000
1709206508.751,0.000,-41.016,-39.062,-41.992,0.000
1709206508.755,0.000,-55.176,-34.180,-38.086,0.000
1709206508.759,0.000,-68.359,-35.156,-35.645,0.000
1709206508.763,0.000,-79.590,-39.062,-29.785,0.000
1709206508.767,0.000,-25.879,-38.086,-43.457,0.000
1709206508.771,0.000,-17.090,-33.203,-53.711,0.000
1709206508.775,0.000,-57.129,-37.598,-58.594,0.000
1709206508.779,0.000,-50.781,-42.480,-58.105,0.000
1709206508.783,0.000,-33.691,-40.039,-55.664,0.000
1709206508.787,-46.387,-41.016,-38.574,-58.594,0.000
1709206508.791,-35.645,-64.453,-39.551,-42.969,0.000
1709206508.794,-31.250,-41.016,-38.574,-31.738,0.000
1709206508.798,-25.879,-29.785,-39.062,-32.227,0.000
1709206508.802,-29.785,-45.410,-41.992,-26.367,0.000
1709206508.806,-24.414,-69.824,-43.457,-21.973,0.000
1709206508.810,-17.578,-68.848,-40.039,-22.949,0.000
1709206508.814,-28.320,-48.340,-35.645,-20.508,0.000
1709206508.818,-34.180,-70.801,-36.133,-17.090,0.000
1709206508.822,-28.320,-76.172,-38.086,-4.883,0.000
1709206508.826,-26.367,-33.203,-37.109,-12.207,0.000
1709206508.830,-16.602,-20.996,-34.668,-30.762,0.000
1709206508.834,-21.973,-50.293,-38.574,-34.668,0.000
1709206508.838,-46.875,-93.262,-38.086,-28.320,0.000
1709206508.841,-42.480,-41.992,-36.621,-26.855,0.000
1709206508.845,-31.738,-9.277,-41.992,-31.738,0.000
1709206508.849,-26.855,-47.363,-37.598,-28.320,0.000
1709206508.853,-32.715,-72.266,-39.551,-32.227,0.000
1709206508.857,-36.133,-48.828,-42.480,-35.645,0.000
1709206508.861,-40.039,-24.902,-37.598,-40.039,0.000
1709206508.865,-36.133,-61.035,-34.180,-43.457,0.000
1709206508.869,-35.156,-96.680,-34.668,-31.250,0.000
1709206508.873,-42.480,-26.855,-35.156,-36.621,0.000
1709206508.877,-46.387,-17.578,-37.109,-42.969,0.000
1709206508.881,-39.551,-63.477,-45.898,-35.156,0.000
1709206508.884,-42.969,-45.898,-43.945,-38.574,0.000
1709206508.888,-54.688,-31.738,-44.434,-49.805,0.000
1709206508.892,-49.316,-55.176,-54.199,-49.316,0.000
1709206508.896,-41.504,-78.125,-45.898,-39.062,0.000
1709206508.900,-44.434,-69.336,-37.598,-39.062,0.000
1709206508.904,-49.805,-57.129,-41.016,-43.457,0.000
1709206508.908,-44.922,-57.617,-37.598,-41.016,0.000
1709206508.912,-44.922,-89.355,-34.668,-31.738,0.000
1709206508.916,-48.828,-55.176,-41.992,-32.227,0.000
1709206508.920,-53.711,-18.066,-45.898,-38.574,0.000
1709206508.923,-52.734,-48.828,-39.551,-43.945,0.000
1709206508.927,-47.852,-72.266,-38.086,-45.410,0.000
1709206508.931,-35.645,-50.781,-39.551,-45.410,0.000
1709206508.935,-33.203,-40.039,-41.992,-44.434,0.000
1709206508.939,-45.898,-52.246,-37.109,-31.738,0.000
1709206508.943,-36.133,-58.594,-30.273,-25.879,0.000
1709206508.947,-29.297,-58.594,-33.691,-33.203,0.000
1709206508.951,-33.691,-47.363,-38.086,-42.969,0.000
1709206508.955,-28.809,-63.477,-37.598,-45.410,0.000
1709206508.959,-39.062,-89.844,-35.645,-32.227,0.000
1709206508.963,-44.434,-26.855,-36.133,-36.133,0.000
1709206508.966,-35.645,-14.648,-38.574,-39.062,0.000
1709206508.970,-29.785,-49.316,-37.109,-39.551,0.000
1709206508.974,-33.203,-34.180,-38.086,-47.852,0.000
1709206508.978,-37.109,-25.391,-36.621,-41.992,0.000
1709206508.982,-33.691,-43.945,-28.809,-37.109,0.000
1709206508.986,-41.016,-64.941,-31.250,-35.645,0.000
1709206508.990,-33.203,-39.062,-33.691,-31.250,0.000
1709206508.994,-31.250,-43.457,-34.180,-26.367,0.000
1709206508.998,-37.109,-68.359,-37.109,-30.762,0.000
1709206509.002,-28.320,-87.891,-34.668,-27.832,0.000
1709206509.006,-38.574,-41.504,-39.551,-36.133,0.000
1709206509.009,-41.992,-1.465,-46.875,-49.316,0.000
1709206509.013,-37.598,-42.969,-41.504,-47.363,0.000
1709206509.017,-39.062,-58.594,-33.691,-44.922,0.000
1709206509.021,-38.086,-37.109,-31.738,-38.086,0.000
1709206509.025,-35.645,-36.621,-37.109,-34.668,0.000
1709206509.029,-33.203,-57.129,-39.551,-36.133,0.000
1709206509.033,-29.297,-57.617,-40.527,-36.621,0.000
1709206509.037,-37.598,-49.805,-38.574,-34.668,0.000
1709206509.041,-57.617,-56.152,-29.785,-35.156,0.000
1709206509.045,-49.805,-71.777,-35.645,-40.527,0.000
1709206509.048,-35.156,-88.379,-41.016,-31.250,0.000
1709206509.052,-38.574,-19.531,-37.598,-30.273,0.000
1709206509.056,-45.410,-13.672,-37.109,-43.457,0.000
1709206509.060,-48.340,-53.711,-38.574,-40.527,0.000
1709206509.064,-46.875,-47.363,-39.551,-34.180,0.000
1709206509.068,-40.039,-40.039,-35.645,-28.320,0.000
1709206509.072,-40.039,-47.852,-36.621,-17.578,0.000
1709206509.076,-37.598,-64.453,-39.551,-24.902,0.000
1709206509.080,-34.668,-53.223,-36.133,-33.203,0.000
1709206509.084,-27.344,-35.156,-38.086,-33.203,0.000
1709206509.087,-21.973,-50.293,-40.039,-31.738,0.000
1709206509.091,-37.598,-91.309,-40.039,-24.414,0.000
1709206509.095,-36.621,-61.035,-41.504,-25.391,0.000
1709206509.099,-29.785,-16.602,-40.527,-34.668,0.000
1709206509.103,-32.715,-35.156,-44.922,-41.992,0.000
1709206509.107,-39.551,-53.223,-48.340,-44.922,0.000
1709206509.111,-38.086,-36.133,-47.852,-45.898,0.000
1709206509.115,-33.203,-26.855,-40.527,-45.410,0.000
1709206509.119,-36.133,-54.688,-39.062,-39.551,0.000
1709206509.123,-40.527,-61.523,-39.062,-37.109,0.000
1709206509.126,-44.922,-34.668,-36.133,-43.945,0.000
1709206509.130,-45.898,-31.250,-37.109,-34.668,0.000
1709206509.134,-37.109,-74.219,-40.039,-28.809,0.000
1709206509.138,-31.250,-99.609,-41.992,-30.273,0.000
1709206509.142,-44.434,-35.645,-38.086,-29.785,0.000
1709206509.146,-56.152,-29.785,-42.480,-34.180,0.000
1709206509.150,-54.199,-62.500,-43.457,-37.598,0.000
1709206509.154,-50.293,-49.805,-35.156,-36.621,0.000
1709206509.158,-49.316,-39.551,-40.039,-40.527,0.000
1709206509.162,-55.664,-36.133,-48.340,-52.734,0.000
1709206509.166,-53.711,-49.316,-45.898,-58.105,0.000
1709206509.170,-53.223,-37.598,-41.504,-62.012,0.000
1709206509.173,-61.035,-32.227,-48.340,-68.359,0.000
1709206509.177,-61.035,-45.410,-48.340,-55.176,0.000
1709206509.181,-50.293,-76.172,-41.992,-44.922,0.000
1709206509.185,-27.344,-68.848,-42.480,-53.711,0.000
1709206509.189,-41.992,-32.715,-38.086,-49.805,0.000
1709206509.193,-49.316,-25.391,-34.668,-44.434,0.000
1709206509.197,-43.945,-81.543,-35.156,-35.645,0.000
1709206509.201,-51.270,-48.828,-36.133,-34.180,0.000
1709206509.205,-46.875,-10.254,-42.480,-51.758,0.000
1709206509.209,0.000,-51.270,0.000,-54.199,0.000
1709206509.213,0.000,-69.824,0.000,-42.969,0.000
1709206509.216,0.000,-48.340,0.000,-41.504,0.000
1709206509.220,0.000,-31.738,0.000,-45.898,0.000
1709206509.224,0.000,-48.340,0.000,-41.016,0.000
1709206509.228,0.000,-68.848,0.000,-40.039,0.000
1709206509.232,0.000,-51.270,0.000,-41.016,0.000
1709206509.236,0.000,-30.273,0.000,-43.945,0.000
1709206509.240,0.000,-70.312,0.000,-46.875,0.000
1709206509.244,0.000,-94.727,0.000,-33.203,0.000
1709206509.248,0.000,-27.344,0.000,-36.133,0.000
1709206509.252,0.000,-19.531,0.000,-38.574,0.000
1709206509.256,-20.996,-62.012,-37.598,-36.133,0.000
1709206509.259,-31.250,-56.152,-33.203,-35.645,0.000
1709206509.263,-37.109,-37.109,-36.133,-39.551,0.000
1709206509.267,-39.551,-44.434,-31.250,-46.875,0.000
1709206509.271,-43.945,-73.242,-33.691,-44.922,0.000
1709206509.275,-47.852,-76.172,-38.574,-41.016,0.000
1709206509.279,-50.781,-55.176,-38.086,-42.969,0.000
1709206509.283,-47.363,-51.270,-36.133,-48.828,0.000
1709206509.287,-35.156,-82.031,-31.250,-38.574,0.000
1709206509.291,-43.945,-46.387,-36.621,-41.992,0.000
1709206509.295,-46.875,-3.906,-42.969,-54.199,0.000
1709206509.299,-47.363,-41.504,-40.527,-54.199,0.000
1709206509.302,-52.246,-63.477,-40.039,-44.922,0.000
1709206509.306,-50.781,-40.527,-40.039,-39.551,0.000
1709206509.310,-41.016,-41.504,-39.551,-33.691,0.000
1709206509.314,-37.109,-64.941,-41.992,-28.320,0.000
1709206509.318,-40.527,-61.035,-38.086,-35.156,0.000
1709206509.322,-35.645,-59.082,-32.715,-30.273,0.000
1709206509.326,-38.086,-50.781,-39.062,-33.691,0.000
1709206509.330,-40.039,-61.523,-37.598,-35.645,0.000
1709206509.334,-29.297,-82.520,-34.180,-25.879,0.000
1709206509.338,-26.367,-10.742,-33.691,-35.156,0.000
1709206509.342,-49.805,-7.324,-31.738,-36.133,0.000
1709206509.345,-53.711,-61.035,-33.203,-44.434,0.000
1709206509.349,-45.410,-49.805,-33.691,-53.711,0.000
1709206509.353,-49.316,-33.203,-35.156,-56.152,0.000
1709206509.357,-52.734,-50.293,-41.016,-64.941,0.000
1709206509.361,-59.570,-75.195,-38.086,-60.059,0.000
1709206509.365,-49.805,-60.547,-32.227,-52.246,0.000
1709206509.369,-44.922,-60.547,-32.715,-52.734,0.000
1709206509.373,-51.270,-72.754,-34.180,-63.477,0.000
1709206509.377,-52.246,-90.820,-35.156,-55.664,0.000
1709206509.381,-49.316,-49.316,-38.086,-39.551,0.000
1709206509.384,-38.086,-25.391,-37.598,-41.504,0.000
1709206509.388,-48.340,-63.477,-36.133,-50.781,0.000
1709206509.392,-54.199,-61.523,-36.621,-50.293,0.000
1709206509.396,-35.645,-36.133,-33.691,-43.457,0.000
1709206509.400,-26.367,-34.180,-37.109,-39.551,0.000
1709206509.404,-31.738,-54.688,-38.574,-33.203,0.000
1709206509.408,-38.086,-54.688,-37.598,-36.133,0.000
1709206509.412,-32.715,-47.852,-35.645,-33.203,0.000
1709206509.416,-29.297,-63.477,-34.668,-24.414,0.000
1709206509.420,-26.855,-81.543,-40.039,-28.320,0.000
1709206509.423,-20.996,-97.656,-42.969,-31.250,0.000
1709206509.427,-17.578,-25.391,-38.086,-30.273,0.000
1709206509.431,-9.277,-4.883,-33.691,-29.297,0.000
1709206509.435,6.348,-52.734,-34.180,-23.438,0.000
1709206509.439,-4.395,-50.781,-34.180,-18.066,0.000
1709206509.443,-13.184,-46.387,-37.109,-16.602,0.000
1709206509.447,-10.742,-39.062,-32.715,-19.043,0.000
1709206509.451,-15.625,-56.152,-34.180,-30.273,0.000
1709206509.455,-23.926,-54.199,-37.598,-25.879,0.000
1709206509.459,-27.832,-47.852,-34.180,-13.672,0.000
1709206509.462,-28.320,-72.266,-34.668,-25.879,0.000
1709206509.466,-30.762,-104.980,-38.086,-34.668,0.000
1709206509.470,-24.902,-67.383,-34.668,-28.809,0.000
1709206509.474,-23.926,-14.160,-34.668,-38.574,0.000
1709206509.478,-27.344,-40.039,-33.203,-28.809,0.000
1709206509.482,-22.949,-57.129,-28.809,-14.648,0.000
1709206509.486,-30.762,-36.133,-28.809,-20.508,0.000
1709206509.490,-29.785,-40.527,-36.133,-30.273,0.000
1709206509.494,-32.715,-59.082,-39.062,-33.203,0.000
1709206509.498,-54.199,-74.707,-40.039,-35.156,0.000
1709206509.501,-44.922,-55.176,-38.574,-33.203,0.000
1709206509.505,-41.016,-27.344,-34.180,-30.762,0.000
1709206509.509,-42.969,-67.383,-30.273,-39.551,0.000
1709206509.513,-39.551,-105.957,-28.809,-28.320,0.000
1709206509.517,-41.016,-31.250,-27.344,-26.367,0.000
1709206509.521,-41.016,-17.578,-30.273,-33.691,0.000
1709206509.525,-37.109,-53.223,-32.227,-25.391,0.000
1709206509.529,-27.832,-41.992,-33.203,-25.879,0.000
1709206509.533,-24.414,-30.762,-36.621,-30.762,0.000
1709206509.537,-23.438,-36.133,-41.016,-45.410,0.000
1709206509.541,-36.621,-65.430,-40.039,-52.734,0.000
1709206509.544,-37.109,-54.199,-35.156,-42.480,0.000
1709206509.548,-27.832,-36.133,-29.297,-38.086,0.000
1709206509.552,-32.715,-55.176,-35.156,-36.621,0.000
1709206509.556,-32.227,-93.262,-38.086,-27.344,0.000
1709206509.560,-29.297,-79.102,-34.668,-30.762,0.000
1709206509.564,-28.809,-47.363,-36.133,-41.016,0.000
1709206509.568,-25.879,-53.223,-40.527,-37.109,0.000
1709206509.572,-20.020,-88.379,-40.039,-25.391,0.000
1709206509.576,-28.809,-45.898,-43.457,-33.203,0.000
1709206509.580,-39.551,-7.812,-44.434,-55.664,0.000
1709206509.584,-30.273,-42.969,-40.039,-56.152,0.000
1709206509.588,-22.949,-54.199,-40.039,-51.270,0.000
1709206509.591,-35.156,-31.738,-35.645,-47.363,0.000
1709206509.595,-37.109,-26.855,-29.297,-37.598,0.000
1709206509.599,-38.574,-54.688,-30.273,-33.691,0.000
1709206509.603,-41.016,-70.312,-30.762,-30.273,0.000
1709206509.607,-47.363,-48.340,-37.109,-34.668,0.000
1709206509.611,-53.711,-32.227,-36.133,-46.875,0.000
1709206509.615,-51.758,-69.336,-35.156,-41.504,0.000
1709206509.619,-43.945,-89.355,-37.598,-29.297,0.000
1709206509.623,-43.457,-17.578,-35.156,-33.691,0.000
1709206509.627,-39.551,-15.137,-28.809,-31.738,0.000
1709206509.631,-30.762,-56.641,-26.855,-27.344,0.000
1709206509.634,-33.203,-40.527,-26.855,-26.367,0.000
1709206509.638,-42.969,-28.809,-32.227,-32.715,0.000
1709206509.642,-28.809,-38.574,-37.598,-29.785,0.000
1709206509.646,-29.785,-60.547,-37.598,-30.273,0.000
1709206509.650,-39.062,-65.918,-37.598,-43.457,0.000
1709206509.654,-27.344,-58.105,-36.133,-38.574,0.000
1709206509.658,-26.367,-57.129,-37.598,-37.598,0.000
1709206509.662,-33.203,-81.055,-34.180,-30.762,0.000
1709206509.666,-38.086,-47.363,-40.527,-29.297,0.000
1709206509.670,-32.227,-16.602,-42.480,-41.992,0.000
1709206509.673,-28.809,-49.316,-37.109,-41.992,0.000
1709206509.677,-33.691,-47.852,-42.969,-34.180,0.000
1709206509.681,-39.551,-29.785,-45.410,-36.621,0.000
1709206509.685,-33.691,-41.016,-41.016,-41.016,0.000
1709206509.689,-28.320,-55.176,-40.527,-39.062,0.000
1709206509.693,-25.879,-44.434,-41.504,-41.016,0.000
1709206509.697,-24.414,-62.012,-45.898,-33.691,0.000
1709206509.701,-42.480,-43.945,-45.410,-33.203,0.000
1709206509.705,-42.480,-47.852,-43.945,-39.551,0.000
1709206509.709,-39.062,-92.773,-46.875,-38.574,0.000
1709206509.713,-42.969,-28.320,-45.898,-47.363,0.000
1709206509.716,-42.969,-21.973,-48.828,-49.805,0.000
1709206509.720,-44.434,-62.500,-51.758,-48.340,0.000
1709206509.724,-41.504,-48.828,-45.898,-50.293,0.000
1709206509.728,-38.086,-39.551,-37.109,-46.387,0.000
1709206509.732,-24.414,-36.133,-33.203,-43.457,0.000
1709206509.736,-19.531,-50.781,-31.250,-30.273,0.000
1709206509.740,-33.203,-49.316,-33.203,-30.762,0.000
1709206509.744,-26.855,-52.734,-35.645,-44.434,0.000
1709206509.748,-21.484,-61.035,-31.738,-47.852,0.000
1709206509.752,-43.945,-86.914,-31.250,-42.969,0.000
1709206509.756,-47.852,-52.246,-37.109,-45.898,0.000
1709206509.759,-46.387,-12.207,-39.551,-47.852,0.000
1709206509.763,-47.852,-47.363,-34.180,-44.922,0.000
1709206509.767,-55.664,-55.176,-33.203,-47.363,0.000
1709206509.771,-61.523,-40.039,-35.645,-45.898,0.000
1709206509.775,-57.617,-43.457,-37.109,-45.410,0.000
1709206509.779,-52.734,-56.152,-37.598,-38.086,0.000
1709206509.783,-50.293,-62.988,-33.691,-28.809,0.000
1709206509.787,-41.016,-54.199,-29.785,-37.109,0.000
1709206509.791,-30.273,-43.457,-30.273,-40.039,0.000
1709206509.795,-39.551,-61.523,-35.156,-34.180,0.000
1709206509.798,-46.875,-93.750,-32.227,-27.832,0.000
1709206509.802,-40.039,-30.273,-30.762,-31.250,0.000
1709206509.806,-28.320,-4.883,-29.785,-35.156,0.000
1709206509.810,-37.109,-51.758,-29.785,-48.340,0.000
1709206509.814,-57.129,-53.711,-34.668,-51.758,0.000
1709206509.818,-58.105,-34.180,-35.645,-47.363,0.000
1709206509.822,-41.016,-38.086,-31.250,-42.969,0.000
1709206509.826,-41.016,-59.570,-28.320,-39.062,0.000
1709206509.830,-41.504,-47.363,-30.762,-40.527,0.000
1709206509.834,-37.598,-36.133,-27.832,-35.156,0.000
1709206509.837,-39.551,-58.105,-29.785,-31.738,0.000
1709206509.841,-43.457,-85.938,-31.738,-41.992,0.000
1709206509.845,-41.992,-60.059,-28.320,-36.621,0.000
1709206509.849,-41.504,-17.090,-39.062,-38.574,0.000
1709206509.853,-45.898,-31.738,-43.945,-41.016,0.000
1709206509.857,-47.363,-48.340,-38.086,-36.133,0.000
1709206509.861,-47.852,-29.297,-41.504,-36.133,0.000
1709206509.865,-51.758,-25.879,-48.340,-35.645,0.000
1709206509.869,-45.410,-47.363,-47.363,-34.180,0.000
1709206509.872,-32.715,-60.059,-40.039,-31.738,0.000
1709206509.876,-29.785,-37.598,-38.086,-37.598,0.000
1709206509.880,-23.926,-32.227,-39.551,-37.598,0.000
1709206509.884,-29.297,-69.824,-38.086,-29.785,0.000
1709206509.888,-28.320,-95.703,-37.598,-22.949,0.000
1709206509.892,-24.414,-23.438,-37.598,-29.785,0.000
1709206509.896,-28.809,-13.184,-33.691,-29.297,0.000
1709206509.900,-29.297,-55.176,-32.227,-18.555,0.000
1709206509.904,-25.879,-29.297,-34.180,-20.996,0.000
1709206509.908,-38.574,-19.043,-40.039,-32.227,0.000
1709206509.912,-51.758,-43.457,-43.945,-39.062,0.000
1709206509.916,-45.898,-68.359,-40.527,-45.898,0.000
1709206509.919,-45.410,-57.617,-39.062,-53.223,0.000
1709206509.923,-51.270,-43.945,-40.039,-48.340,0.000
1709206509.927,-41.992,-49.316,-43.945,-40.527,0.000
1709206509.931,-35.156,-74.219,-43.457,-41.016,0.000
1709206509.935,-38.574,-74.707,-40.039,-45.898,0.000
1709206509.939,-42.480,-46.387,-40.527,-47.852,0.000
1709206509.943,-44.922,-37.598,-37.598,-41.016,0.000
1709206509.947,-40.039,-79.102,-35.156,-31.250,0.000
1709206509.951,-33.691,-42.969,-36.621,-35.645,0.000
1709206509.955,-41.504,-13.672,-31.738,-40.039,0.000
1709206509.959,-40.039,-60.547,-25.391,-27.832,0.000
1709206509.962,-38.086,-77.148,-35.156,-26.367,0.000
1709206509.966,-55.176,-34.180,-41.016,-44.922,0.000
1709206509.970,-49.805,-26.855,-39.062,-52.734,0.000
1709206509.974,-45.898,-54.688,-42.480,-40.039,0.000
1709206509.978,-50.781,-75.684,-45.410,-37.109,0.000
1709206509.982,-47.852,-64.453,-39.551,-36.133,0.000
1709206509.986,-37.598,-27.344,-36.133,-28.320,0.000
1709206509.990,-30.762,-63.477,-38.086,-23.438,0.000
1709206509.994,-32.715,-96.191,-37.109,-17.090,0.000
1709206509.998,-31.738,-20.996,-35.645,-16.113,0.000
1709206510.002,-35.156,-19.043,-37.109,-12.207,0.000
1709206510.005,-33.691,-63.477,-36.621,-21.973,0.000
1709206510.009,-31.250,-52.246,-37.598,-41.504,0.000
1709206510.013,-45.898,-48.340,-42.969,-41.992,0.000
1709206510.017,-45.410,-61.523,-45.410,-32.715,0.000
1709206510.021,-33.691,-57.129,-40.527,-31.250,0.000
1709206510.025,-40.527,-46.387,-38.574,-30.762,0.000
1709206510.029,-41.016,-41.504,-45.410,-32.715,0.000
1709206510.033,-31.250,-39.062,-39.062,-39.062,0.000
1709206510.037,-29.785,-63.965,-34.668,-39.551,0.000
1709206510.041,-38.574,-32.715,-38.574,-36.621,0.000
1709206510.045,-39.062,9.766,-33.691,-41.504,0.000
1709206510.048,-32.227,-24.902,-29.785,-38.086,0.000
1709206510.052,-41.016,-55.664,-31.250,-40.527,0.000
1709206510.056,-54.688,-41.992,-33.203,-44.922,0.000
1709206510.060,-62.988,-45.410,-39.062,-50.293,0.000
1709206510.064,-60.547,-65.430,-41.016,-52.246,0.000
1709206510.068,-49.805,-59.082,-35.156,-49.316,0.000
1709206510.072,-52.246,-56.152,-37.109,-52.246,0.000
1709206510.076,-56.641,-54.199,-38.574,-51.758,0.000
1709206510.080,-48.828,-65.430,-36.621,-53.711,0.000
1709206510.084,-35.645,-93.750,-37.109,-42.480,0.000
1709206510.088,-49.316,-25.391,-38.086,-40.039,0.000
1709206510.091,-52.734,-17.090,-36.621,-44.434,0.000
1709206510.095,-47.363,-61.035,-30.273,-41.016,0.000
1709206510.099,-55.664,-42.969,-34.180,-36.621,0.000
1709206510.103,-46.387,-30.273,-39.551,-32.715,0.000
1709206510.107,-38.086,-48.828,-35.645,-32.715,0.000
1709206510.111,-39.062,-67.871,-36.133,-33.203,0.000
1709206510.115,-40.039,-48.340,-41.016,-36.133,0.000
1709206510.119,-40.039,-46.387,-39.062,-31.250,0.000
1709206510.123,-35.645,-50.293,-36.621,-25.879,0.000
1709206510.127,-28.320,-81.543,-38.086,-22.461,0.000
1709206510.130,-27.832,-52.734,-35.645,-17.090,0.000
1709206510.134,-22.949,-7.812,-34.668,-16.602,0.000
1709206510.138,-19.043,-40.039,-34.668,-19.043,0.000
1709206510.142,-41.992,-54.199,-29.785,-18.066,0.000
1709206510.146,-38.574,-31.250,-29.785,-13.184,0.000
1709206510.150,-31.738,-21.973,-29.297,-18.066,0.000
1709206510.154,-39.551,-48.828,-29.785,-24.414,0.000
1709206510.158,-49.805,-61.035,-31.250,-26.367,0.000
1709206510.162,-49.316,-48.828,-31.250,-30.273,0.000
1709206510.166,-42.969,-48.340,-35.156,-39.062,0.000
1709206510.169,-45.410,-69.336,-37.109,-45.410,0.000
1709206510.173,-43.945,-91.797,-36.621,-36.621,0.000
1709206510.177,-46.387,-31.250,-39.062,-37.598,0.000
1709206510.181,-46.875,-22.949,-33.691,-35.645,0.000
1709206510.185,-43.945,-57.129,-31.738,-30.273,0.000
1709206510.189,-42.480,-41.016,-35.645,-35.645,0.000
1709206510.193,-51.270,-33.691,-40.039,-45.410,0.000
1709206510.197,-45.898,-50.781,-39.551,-38.574,0.000
1709206510.201,-50.781,-68.848,-34.668,-34.668,0.000
1709206510.205,-55.664,-40.039,-35.645,-55.176,0.000
1709206510.208,-41.992,-24.902,-34.668,-69.336,0.000
1709206510.212,-41.016,-50.781,-42.480,-68.359,0.000
1709206510.216,-46.875,-75.684,-44.922,-57.129,0.000
1709206510.220,-44.434,-47.363,-35.156,-42.480,0.000
1709206510.224,-41.016,-2.441,-38.574,-53.711,0.000
1709206510.228,-30.273,-23.438,-41.016,-58.594,0.000
1709206510.232,-25.391,-42.969,-33.203,-41.504,0.000
1709206510.236,-25.879,-31.738,-29.297,-29.297,0.000
1709206510.240,-31.738,-34.668,-34.180,-35.645,0.000
1709206510.244,-33.203,-59.082,-32.227,-44.434,0.000
1709206510.247,-31.250,-54.688,-28.320,-40.527,0.000
1709206510.251,-24.414,-34.180,-33.691,-32.227,0.000
1709206510.255,-22.949,-37.109,-30.762,-32.715,0.000
1709206510.259,-28.320,-73.242,-27.344,-22.949,0.000
1709206510.263,-21.484,-93.262,-20.508,-2.930,0.000
1709206510.267,-21.484,-16.113,-23.438,-16.113,0.000
1709206510.271,-27.344,-12.695,-29.785,-28.320,0.000
1709206510.275,-30.273,-67.383,-27.832,-19.531,0.000
1709206510.279,-36.621,-57.617,-34.668,-19.043,0.000
1709206510.283,-35.645,-35.156,-35.156,-20.996,0.000
1709206510.287,-32.227,-41.992,-37.598,-19.043,0.000
1709206510.291,-27.344,-63.477,-41.504,-23.926,0.000
1709206510.294,-30.273,-61.035,-39.551,-32.227,0.000
1709206510.298,-36.133,-43.457,-40.527,-42.969,0.000
1709206510.302,-42.969,-57.129,-42.480,-51.270,0.000
1709206510.306,-48.340,-86.426,-43.945,-45.410,0.000
1709206510.310,-41.992,-63.477,-46.387,-42.480,0.000
1709206510.314,-26.855,-41.504,-40.527,-43.945,0.000
1709206510.318,-23.926,-51.270,-37.109,-45.410,0.000
1709206510.322,-31.250,-68.359,-40.527,-43.945,0.000
1709206510.326,-36.621,-47.852,-37.109,-41.992,0.000
1709206510.330,-39.551,-29.785,-40.527,-45.410,0.000
1709206510.334,-35.156,-48.828,-44.922,-45.898,0.000
1709206510.337,-38.574,-56.152,-40.527,-50.781,0.000
1709206510.341,-39.062,-44.434,-38.574,-58.594,0.000
1709206510.345,-39.062,-41.992,-40.527,-60.059,0.000
1709206510.349,-40.039,-51.758,-39.062,-53.711,0.000
1709206510.353,-33.691,-70.312,-36.133,-47.852,0.000
1709206510.357,-31.738,-66.406,-36.621,-48.340,0.000
1709206510.361,-35.156,-40.527,-40.527,-50.781,0.000
1709206510.365,-39.062,-58.105,-41.992,-48.828,0.000
1709206510.369,-29.785,-100.098,-41.992,-34.668,0.000
1709206510.373,-19.531,-42.969,-41.016,-41.504,0.000
1709206510.377,-40.039,-31.250,-41.992,-48.340,0.000
1709206510.380,-41.992,-65.430,-41.504,-41.992,0.000
1709206510.384,-41.016,-53.223,-33.203,-35.645,0.000
1709206510.388,-41.016,-34.668,-28.809,-32.715,0.000
1709206510.392,-33.203,-51.758,-29.785,-27.832,0.000
1709206510.396,-42.480,-76.660,-28.320,-33.203,0.000
1709206510.400,-51.758,-72.754,-32.715,-45.410,0.000
1709206510.404,-45.898,-52.734,-34.668,-41.016,0.000
1709206510.408,-43.945,-43.945,-33.691,-43.457,0.000
1709206510.412,-42.969,-83.984,-42.969,-38.086,0.000
1709206510.416,-33.203,-62.500,-45.410,-32.227,0.000
1709206510.420,-31.738,0.488,-36.621,-32.227,0.000
1709206510.423,-39.551,-21.484,-36.621,-31.738,0.000
1709206510.427,-24.414,-37.598,-39.551,-36.621,0.000
1709206510.431,-25.391,-26.367,-34.668,-38.086,0.000
1709206510.435,-43.457,-37.598,-33.203,-37.598,0.000
1709206510.439,-43.945,-56.152,-31.250,-31.738,0.000
1709206510.443,-37.598,-51.758,-29.785,-28.320,0.000
1709206510.447,-37.109,-56.152,-34.180,-39.062,0.000
1709206510.451,-48.828,-43.945,-38.574,-49.805,0.000
1709206510.455,-46.387,-55.176,-38.086,-45.898,0.000
1709206510.459,-35.156,-109.375,-34.668,-38.574,0.000
1709206510.463,-37.109,-38.086,-37.109,-42.480,0.000
1709206510.466,-43.457,-10.254,-43.457,-49.316,0.000
1709206510.470,-42.969,-63.477,-41.016,-46.387,0.000
1709206510.474,-45.898,-65.918,-41.504,-42.969,0.000
1709206510.478,-52.246,-39.551,-37.598,-43.457,0.000
1709206510.482,-55.176,-53.711,-31.250,-38.574,0.000
1709206510.486,-46.387,-79.590,-32.715,-37.598,0.000
1709206510.490,-27.344,-60.547,-34.668,-42.480,0.000
1709206510.494,-39.551,-63.477,-29.297,-41.992,0.000
1709206510.498,-52.246,-69.336,-26.367,-41.992,0.000
1709206510.502,-51.270,-86.426,-26.367,-37.598,0.000
1709206510.505,-52.734,-65.918,-29.297,-34.668,0.000
1709206510.509,-49.316,-15.625,-31.738,-41.992,0.000
1709206510.513,-42.969,-44.434,-31.250,-42.480,0.000
1709206510.517,-49.316,-74.219,-31.250,-37.598,0.000
1709206510.521,-49.805,-48.828,-32.715,-33.203,0.000
1709206510.525,-34.668,-41.504,-31.250,-20.020,0.000
1709206510.529,-18.555,-67.383,-30.762,-14.160,0.000
1709206510.533,-14.160,-64.453,-31.250,-15.137,0.000
1709206510.537,-16.602,-40.527,-31.738,-12.695,0.000
1709206510.541,-20.508,-46.387,-37.598,-26.855,0.000
1709206510.544,-18.555,-58.105,-37.109,-30.762,0.000
1709206510.548,-10.742,-35.156,-37.109,-23.438,0.000
1709206510.552,-8.301,-12.207,-43.457,-28.809,0.000
1709206510.556,5.371,-26.855,-40.527,-29.785,0.000
1709206510.560,-7.324,-50.781,-36.133,-18.555,0.000
1709206510.564,-22.461,-46.875,-35.645,-10.742,0.000
1709206510.568,-17.090,-32.715,-38.086,-16.602,0.000
1709206510.572,-12.695,-34.180,-42.480,-26.367,0.000
1709206510.576,-11.230,-75.195,-41.016,-22.461,0.000
1709206510.580,-16.602,-69.336,-41.992,-25.391,0.000
1709206510.583,-24.902,-32.715,-44.922,-36.133,0.000
1709206510.587,-30.273,-57.129,-40.039,-32.715,0.000
1709206510.591,-28.320,-92.773,-41.504,-20.996,0.000
1709206510.595,-27.344,-68.359,-43.457,-30.762,0.000
1709206510.599,-36.621,-16.602,-42.969,-49.805,0.000
1709206510.603,-32.715,-26.855,-41.992,-46.387,0.000
1709206510.607,-30.273,-63.477,-43.457,-41.016,0.000
1709206510.611,-32.715,-46.875,-44.434,-48.340,0.000
1709206510.615,-29.785,-36.133,-39.062,-49.316,0.000
1709206510.619,-36.621,-61.035,-39.062,-44.434,0.000
1709206510.622,-44.922,-62.500,-41.016,-41.016,0.000
1709206510.626,-37.598,-44.922,-41.016,-43.945,0.000
1709206510.630,-20.020,-40.527,-36.621,-41.016,0.000
1709206510.634,-28.320,-73.242,-33.203,-26.855,0.000
1709206510.638,-40.039,-104.004,-33.691,-12.695,0.000
1709206510.642,-36.621,-36.621,-32.715,-17.090,0.000
1709206510.646,-32.715,-12.207,-31.738,-26.855,0.000
1709206510.650,-28.320,-37.598,-33.203,-17.578,0.000
1709206510.654,-22.461,-40.039,-29.297,-8.789,0.000
1709206510.658,-28.809,-38.574,-30.273,-9.277,0.000
1709206510.661,-34.668,-43.457,-35.645,-27.832,0.000
1709206510.665,-35.645,-59.570,-36.621,-31.738,0.000
1709206510.669,-35.156,-56.152,-33.691,-20.020,0.000
1709206510.673,-42.969,-49.805,-34.180,-32.227,0.000
1709206510.677,-47.852,-63.477,-35.645,-31.250,0.000
1709206510.681,-44.922,-84.473,-33.691,-19.531,0.000
1709206510.685,-47.852,-76.660,-32.227,-25.391,0.000
1709206510.689,-49.805,-52.734,-35.156,-34.180,0.000
1709206510.693,-48.340,-40.527,-29.785,-27.832,0.000
1709206510.697,-44.922,-96.191,-22.949,-15.137,0.000
1709206510.700,-36.133,-76.660,-25.391,-20.508,0.000
1709206510.704,-44.922,-15.625,-34.668,-37.598,0.000
1709206510.708,-63.477,-43.945,-42.969,-48.828,0.000
1709206510.712,-62.012,-73.242,-41.504,-49.316,0.000
1709206510.716,-57.129,-59.082,-38.086,-40.039,0.000
1709206510.720,-55.176,-41.016,-37.109,-43.457,0.000
1709206510.724,-55.664,-55.176,-35.156,-43.457,0.000
1709206510.728,-52.734,-81.543,-38.086,-37.598,0.000
1709206510.732,-44.922,-58.594,-40.039,-42.969,0.000
1709206510.736,-49.805,-35.156,-35.645,-41.016,0.000
1709206510.740,-47.852,-65.918,-31.738,-32.227,0.000
1709206510.743,-39.062,-77.148,-22.949,-19.043,0.000
1709206510.747,-36.621,-22.949,-27.832,-27.832,0.000
1709206510.751,-42.969,-26.367,-34.668,-48.340,0.000
1709206510.755,-49.805,-73.242,-34.668,-44.434,0.000
1709206510.759,-36.133,-70.312,-41.992,-39.062,0.000
1709206510.763,-34.668,-35.156,-40.039,-36.621,0.000
1709206510.767,-32.715,-41.504,-37.598,-24.414,0.000
1709206510.771,-17.578,-69.336,-35.156,-20.996,0.000
1709206510.775,-16.602,-69.824,-30.762,-21.973,0.000
1709206510.779,-20.508,-56.641,-36.133,-19.531,0.000
1709206510.783,-16.602,-52.246,-36.133,-20.996,0.000
1709206510.787,-22.949,-71.777,-34.668,-19.043,0.000
1709206510.790,-27.344,-46.387,-37.109,-20.508,0.000
1709206510.794,-23.438,-7.324,-33.691,-26.855,0.000
1709206510.798,-29.297,-34.668,-33.691,-30.273,0.000
1709206510.802,-31.250,-57.129,-33.691,-39.062,0.000
1709206510.806,-30.762,-41.504,-30.762,-34.180,0.000
1709206510.810,-20.996,-43.457,-38.574,-33.691,0.000
1709206510.814,-19.531,-64.941,-40.527,-32.715,0.000
1709206510.818,-20.508,-58.594,-39.551,-36.133,0.000
1709206510.822,-32.715,-54.688,-41.504,-42.480,0.000
1709206510.826,-37.109,-36.133,-39.062,-40.039,0.000
1709206510.830,-30.273,-41.016,-41.016,-38.574,0.000
1709206510.833,-40.527,-91.797,-42.969,-28.809,0.000
1709206510.837,-44.922,-37.109,-41.016,-35.156,0.000
1709206510.841,-34.180,-15.625,-36.133,-35.645,0.000
1709206510.845,-30.273,-52.246,-35.156,-31.250,0.000
1709206510.849,-31.250,-43.457,-36.621,-36.621,0.000
1709206510.853,-34.180,-30.762,-40.039,-42.480,0.000
1709206510.857,-39.551,-50.293,-41.504,-37.598,0.000
1709206510.861,-36.133,-73.242,-30.762,-25.391,0.000
1709206510.865,-35.156,-59.082,-28.809,-31.738,0.000
1709206510.869,-27.832,-65.918,-31.738,-34.668,0.000
1709206510.872,-23.438,-70.312,-33.203,-29.785,0.000
1709206510.876,-18.555,-96.680,-37.109,-34.180,0.000
1709206510.880,-20.020,-68.848,-40.039,-35.645,0.000
1709206510.884,-32.715,-10.254,-39.551,-42.969,0.000
1709206510.888,-26.367,-40.039,-37.109,-47.363,0.000
1709206510.892,-25.391,-62.988,-32.715,-41.504,0.000
1709206510.896,-25.879,-47.852,-29.785,-37.109,0.000
1709206510.900,-27.832,-41.016,-30.273,-41.016,0.000
1709206510.904,-30.762,-62.012,-33.691,-43.457,0.000
1709206510.908,-24.414,-65.430,-40.527,-32.227,0.000
1709206510.911,-26.855,-49.805,-41.992,-23.926,0.000
1709206510.915,-30.273,-62.988,-38.086,-27.344,0.000
1709206510.919,-25.879,-69.336,-38.574,-34.668,0.000
1709206510.923,-18.555,-81.543,-40.527,-23.438,0.000
1709206510.927,-16.602,-36.133,-39.062,-18.555,0.000
1709206510.931,-20.020,-24.902,-37.598,-33.691,0.000
1709206510.935,-24.902,-46.387,-37.598,-34.668,0.000
1709206510.939,-26.855,-30.762,-33.691,-33.691,0.000
1709206510.943,-7.324,-19.043,-34.180,-35.645,0.000
1709206510.947,-19.043,-34.180,-35.645,-30.273,0.000
1709206510.950,-44.434,-61.035,-40.527,-34.180,0.000
1709206510.954,-36.621,-49.316,-36.621,-34.180,0.000
1709206510.958,-29.785,-36.621,-30.273,-25.879,0.000
1709206510.962,-32.715,-68.359,-30.273,-37.598,0.000
1709206510.966,-36.621,-103.027,-33.691,-43.945,0.000
1709206510.970,-37.598,-72.754,-39.551,-30.762,0.000
1709206510.974,-29.785,-12.695,-36.621,-30.762,0.000
1709206510.978,-26.367,-26.367,-26.855,-28.809,0.000
1709206510.982,-31.738,-53.711,-33.203,-23.438,0.000
1709206510.986,-22.461,-47.363,-41.992,-32.715,0.000
