timestamps,TP9,AF7,AF8,TP10,Right AUX
1709375715.233,-130.371,-45.410,-38.574,-68.359,0.000
1709375715.237,-59.082,-38.574,-35.645,-39.062,0.000
1709375715.241,80.078,-30.273,-36.621,7.812,0.000
1709375715.245,63.477,-36.621,-40.039,4.395,0.000
1709375715.248,-78.613,-48.828,-41.992,-41.992,0.000
1709375715.252,-114.258,-48.340,-37.109,-54.688,0.000
1709375715.256,-69.824,-40.039,-35.156,-41.992,0.000
1709375715.260,57.617,-29.297,-40.527,4.883,0.000
1709375715.264,71.289,-35.645,-37.598,16.602,0.000
1709375715.268,-74.707,-47.852,-36.133,-35.156,0.000
1709375715.272,-131.348,-41.504,-41.016,-76.172,0.000
1709375715.276,-89.355,-36.133,-41.504,-68.359,0.000
1709375715.280,41.992,-29.785,-38.574,-11.719,0.000
1709375715.284,79.590,-24.902,-34.180,11.230,0.000
1709375715.288,-62.500,-38.086,-37.109,-43.945,0.000
1709375715.292,-137.207,-41.992,-40.039,-80.078,0.000
1709375715.295,-105.469,-36.133,-40.039,-75.195,0.000
1709375715.299,23.438,-33.691,-39.551,-30.762,0.000
1709375715.303,85.449,-27.832,-39.062,6.836,0.000
1709375715.307,-48.828,-33.203,-40.039,-42.480,0.000
1709375715.311,-145.508,-51.270,-43.945,-84.473,0.000
1709375715.315,-131.836,-46.387,-41.992,-81.055,0.000
1709375715.319,0.000,-28.809,-38.086,-37.109,0.000
1709375715.323,94.238,-24.902,-33.203,7.324,0.000
1709375715.327,-27.344,-36.621,-33.203,-30.762,0.000
1709375715.331,-127.441,-38.574,-39.062,-73.730,0.000
1709375715.335,-117.676,-35.645,-40.527,-70.312,0.000
1709375715.338,-12.695,-29.785,-38.086,-29.297,0.000
1709375715.342,95.215,-21.973,-35.156,19.531,0.000
1709375715.346,-4.395,-29.785,-37.598,-15.625,0.000
1709375715.350,-123.535,-37.598,-44.434,-63.477,0.000
1709375715.354,-127.441,-41.016,-42.969,-63.477,0.000
1709375715.358,-31.250,-42.480,-35.645,-23.926,0.000
1709375715.362,95.215,-25.391,-32.715,22.461,0.000
1709375715.366,22.461,-24.902,-32.715,-6.836,0.000
1709375715.370,-106.934,-40.527,-32.227,-56.641,0.000
1709375715.373,-118.652,-43.457,-40.039,-71.289,0.000
1709375715.377,-41.016,-34.180,-39.062,-38.574,0.000
1709375715.381,80.078,-26.367,-37.598,17.578,0.000
1709375715.385,22.461,-35.645,-36.621,-9.277,0.000
1709375715.389,-109.863,-42.480,-38.086,-69.824,0.000
1709375715.393,-132.812,-46.875,-41.992,-87.402,0.000
1709375715.397,-61.035,-44.434,-36.133,-60.059,0.000
1709375715.401,77.637,-38.574,-31.738,6.348,0.000
1709375715.405,41.992,-38.574,-30.762,3.418,0.000
1709375715.409,-103.516,-40.039,-29.785,-54.688,0.000
1709375715.413,-137.207,-51.758,-39.062,-76.172,0.000
1709375715.416,-80.566,-53.711,-38.086,-56.152,0.000
1709375715.420,60.059,-36.133,-32.227,-0.977,0.000
1709375715.424,57.129,-35.645,-33.691,4.883,0.000
1709375715.428,-92.773,-53.711,-32.715,-50.293,0.000
1709375715.432,-141.602,-49.316,-30.273,-76.660,0.000
1709375715.436,-89.355,-37.598,-29.785,-60.059,0.000
1709375715.440,47.363,-30.762,-30.762,-11.230,0.000
1709375715.444,62.500,-28.809,-30.273,10.254,0.000
1709375715.447,-77.637,-43.945,-33.203,-26.367,0.000
1709375715.451,-133.789,-44.922,-41.016,-66.406,0.000
1709375715.455,-97.168,-42.480,-37.598,-60.059,0.000
1709375715.459,32.227,-39.062,-30.762,-1.953,0.000
1709375715.463,78.125,-36.133,-30.762,19.531,0.000
1709375715.467,-63.965,-41.016,-34.668,-35.645,0.000
1709375715.471,-136.719,-47.363,-32.227,-71.777,0.000
1709375715.475,-99.609,-50.781,-31.738,-62.012,0.000
1709375715.478,23.926,-40.527,-39.551,-20.020,0.000
1709375715.482,95.215,-37.109,-36.133,7.812,0.000
1709375715.486,-47.363,-52.246,-33.691,-41.992,0.000
1709375715.490,-143.555,-60.547,-39.551,-70.801,0.000
1709375715.494,-118.164,-49.805,-39.062,-65.430,0.000
1709375715.498,-7.324,-41.992,-37.598,-29.297,0.000
1709375715.502,85.938,-37.598,-37.109,20.508,0.000
1709375715.506,-18.066,-40.527,-31.738,-16.113,0.000
1709375715.510,-121.094,-42.480,-32.715,-68.848,0.000
1709375715.513,-114.746,-46.387,-37.109,-78.613,0.000
1709375715.517,-8.789,-44.922,-38.086,-38.574,0.000
1709375715.521,100.586,-32.715,-37.598,17.578,0.000
1709375715.525,6.348,-35.645,-39.062,-10.254,0.000
1709375715.529,-120.605,-46.875,-41.016,-69.336,0.000
1709375715.533,-130.371,-56.152,-43.457,-76.660,0.000
1709375715.537,-44.922,-59.570,-45.898,-36.133,0.000
1709375715.540,73.242,-44.434,-45.898,5.371,0.000
1709375715.544,5.859,-40.039,-43.457,-24.414,0.000
1709375715.548,-120.117,-50.781,-38.574,-71.777,0.000
1709375715.552,-132.812,-48.340,-33.691,-76.172,0.000
1709375715.556,-56.152,-37.598,-34.668,-49.805,0.000
1709375715.560,79.102,-30.762,-35.156,6.836,0.000
1709375715.564,34.180,-40.039,-32.227,-3.418,0.000
1709375715.568,-104.980,-47.363,-41.016,-70.801,0.000
1709375715.572,-131.836,-44.434,-45.898,-83.984,0.000
1709375715.576,-64.453,-44.922,-41.992,-60.059,0.000
1709375715.580,74.707,-36.133,-41.992,1.465,0.000
1709375715.584,50.781,-25.391,-37.109,10.254,0.000
1709375715.588,-98.145,-37.598,-34.668,-55.176,0.000
1709375715.592,-132.812,-45.898,-36.133,-79.590,0.000
1709375715.596,-77.637,-40.527,-36.133,-59.570,0.000
1709375715.600,57.129,-28.809,-35.156,-13.184,0.000
1709375715.603,67.871,-25.879,-37.598,-3.418,0.000
1709375715.608,-74.219,-37.109,-36.133,-50.293,0.000
1709375715.612,-134.766,-40.527,-35.645,-75.195,0.000
1709375715.615,-93.262,-36.133,-37.109,-66.895,0.000
1709375715.619,41.504,-33.203,-33.691,-24.902,0.000
1709375715.623,63.477,-36.621,-32.715,0.977,0.000
1709375715.627,-79.102,-44.922,-35.156,-46.387,0.000
1709375715.631,-136.719,-45.898,-33.203,-76.660,0.000
1709375715.635,-104.980,-40.039,-34.180,-68.848,0.000
1709375715.639,20.996,-35.645,-36.133,-16.113,0.000
1709375715.643,83.496,-31.738,-37.598,20.508,0.000
1709375715.647,-48.828,-33.203,-40.527,-43.457,0.000
1709375715.651,-134.277,-43.457,-42.480,-89.355,0.000
1709375715.655,-113.281,-49.805,-41.016,-77.637,0.000
1709375715.659,14.160,-34.180,-39.062,-23.926,0.000
1709375715.663,100.098,-22.461,-38.574,17.090,0.000
1709375715.666,-26.367,-35.645,-41.504,-35.645,0.000
1709375715.670,-122.070,-48.828,-48.340,-80.566,0.000
1709375715.674,-99.609,-52.246,-50.293,-69.824,0.000
1709375715.678,0.977,-42.480,-41.016,-32.227,0.000
1709375715.682,100.098,-34.668,-41.992,8.301,0.000
1709375715.686,-4.395,-45.898,-49.805,-16.602,0.000
1709375715.690,-132.324,-48.828,-51.270,-68.359,0.000
1709375715.694,-125.488,-46.387,-50.781,-78.125,0.000
1709375715.698,-25.879,-42.480,-44.434,-41.992,0.000
1709375715.702,83.008,-31.250,-40.039,11.230,0.000
1709375715.706,7.324,-30.273,-38.086,-9.766,0.000
1709375715.709,-113.770,-38.086,-37.598,-62.012,0.000
1709375715.713,-124.512,-45.410,-43.457,-72.266,0.000
1709375715.717,-38.086,-45.898,-47.363,-40.527,0.000
1709375715.721,93.750,-38.574,-42.969,13.672,0.000
1709375715.725,42.480,-34.180,-36.621,-0.488,0.000
1709375715.729,-93.262,-45.410,-32.715,-43.945,0.000
1709375715.733,-114.258,-53.223,-33.203,-49.316,0.000
1709375715.737,-50.781,-42.969,-39.062,-42.480,0.000
1709375715.741,78.613,-34.668,-38.574,5.859,0.000
1709375715.745,45.410,-42.969,-38.574,2.441,0.000
1709375715.748,-98.633,-54.688,-43.457,-55.176,0.000
1709375715.752,-127.441,-52.246,-43.457,-74.219,0.000
1709375715.756,-63.965,-44.922,-36.133,-48.828,0.000
1709375715.760,77.637,-35.645,-34.180,11.719,0.000
1709375715.764,75.195,-31.738,-36.621,11.230,0.000
1709375715.768,-63.477,-44.922,-34.180,-49.316,0.000
1709375715.772,-113.770,-53.711,-31.738,-71.777,0.000
1709375715.776,-66.895,-57.617,-35.645,-46.387,0.000
1709375715.780,63.965,-43.457,-40.039,2.441,0.000
1709375715.784,79.102,-31.738,-38.574,7.324,0.000
1709375715.787,-66.895,-49.805,-38.574,-42.969,0.000
1709375715.791,-134.277,-57.617,-38.086,-66.406,0.000
1709375715.795,-94.727,-46.875,-36.133,-58.594,0.000
1709375715.799,54.199,-37.598,-34.668,-11.230,0.000
1709375715.803,108.887,-33.203,-34.180,11.719,0.000
1709375715.807,-37.109,-40.039,-38.574,-41.992,0.000
1709375715.811,-129.883,-51.758,-43.457,-75.195,0.000
1709375715.815,-112.793,-51.758,-43.945,-66.895,0.000
1709375715.818,13.672,-44.922,-42.480,-16.113,0.000
1709375715.822,71.777,-41.016,-47.363,18.555,0.000
1709375715.826,-54.199,-41.504,-47.363,-28.809,0.000
1709375715.830,-129.883,-46.387,-43.945,-68.848,0.000
1709375715.834,-107.910,-44.434,-43.457,-61.523,0.000
1709375715.838,10.742,-35.645,-41.992,-10.742,0.000
1709375715.842,99.609,-32.227,-39.062,29.785,0.000
1709375715.845,-19.043,-36.621,-38.086,-7.812,0.000
1709375715.849,-112.793,-42.969,-36.621,-48.828,0.000
1709375715.853,-105.469,-41.504,-38.086,-55.664,0.000
1709375715.857,-13.184,-36.621,-39.062,-27.344,0.000
1709375715.861,93.750,-33.203,-32.715,11.719,0.000
1709375715.865,-10.254,-43.945,-26.855,-13.184,0.000
1709375715.869,-125.488,-52.246,-28.809,-59.570,0.000
1709375715.873,-118.164,-46.875,-30.762,-72.754,0.000
1709375715.877,-38.086,-42.969,-29.785,-47.363,0.000
1709375715.881,84.961,-40.039,-32.227,-8.301,0.000
1709375715.885,15.625,-46.387,-35.645,-38.086,0.000
1709375715.888,-114.746,-53.223,-37.598,-82.520,0.000
1709375715.892,-121.582,-49.805,-32.715,-79.590,0.000
1709375715.896,-41.992,-42.969,-31.738,-50.781,0.000
1709375715.900,84.473,-30.273,-33.203,2.930,0.000
1709375715.904,35.156,-31.738,-30.762,-4.395,0.000
1709375715.908,-106.445,-48.828,-36.133,-45.898,0.000
1709375715.911,-130.859,-54.199,-42.480,-45.898,0.000
1709375715.915,-59.082,-37.598,-38.086,-30.273,0.000
1709375715.919,77.148,-28.320,-37.109,18.066,0.000
1709375715.923,58.105,-33.691,-34.668,18.555,0.000
1709375715.927,-88.867,-37.598,-35.156,-41.016,0.000
1709375715.931,-126.465,-35.156,-34.180,-60.547,0.000
1709375715.935,-64.453,-35.645,-29.297,-43.945,0.000
1709375715.939,70.801,-30.273,-32.227,10.742,0.000
1709375715.943,75.195,-29.297,-35.645,17.090,0.000
1709375715.947,-78.125,-38.574,-39.062,-53.711,0.000
1709375715.951,-130.859,-43.457,-43.945,-78.125,0.000
1709375715.955,-82.031,-46.875,-41.504,-45.410,0.000
1709375715.959,47.852,-38.574,-28.809,2.441,0.000
1709375715.963,69.824,-34.668,-21.973,11.230,0.000
1709375715.967,-79.590,-51.270,-19.531,-42.480,0.000
1709375715.971,-143.555,-70.801,-12.695,-79.590,0.000
1709375715.974,-113.281,-74.707,-12.207,-83.984,0.000
1709375715.978,17.090,-64.453,-5.859,-24.414,0.000
1709375715.983,75.684,-70.801,2.930,18.066,0.000
1709375715.986,-63.477,-90.820,5.371,-35.156,0.000
1709375715.990,-141.113,-102.051,11.230,-80.566,0.000
1709375715.994,-106.445,-108.887,18.555,-58.105,0.000
1709375715.998,8.301,-115.234,17.578,0.000,0.000
1709375716.002,76.172,-119.629,20.020,27.344,0.000
1709375716.006,-56.641,-130.859,25.391,-13.672,0.000
1709375716.010,-154.785,-141.113,29.785,-43.945,0.000
1709375716.014,-129.395,-150.391,34.180,-28.320,0.000
1709375716.018,-8.789,-146.973,35.645,23.438,0.000
1709375716.022,90.332,-135.254,38.574,60.547,0.000
1709375716.026,-20.508,-145.508,40.527,27.344,0.000
1709375716.030,-126.953,-153.320,43.945,-3.906,0.000
1709375716.034,-110.352,-143.066,47.363,3.906,0.000
1709375716.037,-6.348,-129.883,49.805,43.945,0.000
1709375716.041,107.422,-121.582,51.270,82.520,0.000
1709375716.045,30.273,-129.395,49.316,58.594,0.000
1709375716.049,-91.797,-131.348,47.852,16.113,0.000
1709375716.053,-98.633,-126.465,47.363,10.254,0.000
1709375716.057,-1.953,-117.188,44.922,40.527,0.000
1709375716.061,129.395,-107.910,40.039,92.285,0.000
1709375716.065,66.406,-102.051,29.785,67.871,0.000
1709375716.069,-65.918,-100.098,21.484,16.602,0.000
1709375716.073,-85.938,-98.633,16.602,5.859,0.000
1709375716.077,-10.254,-91.797,13.184,29.785,0.000
1709375716.081,132.324,-76.172,7.812,95.703,0.000
1709375716.085,98.145,-71.777,0.488,93.750,0.000
1709375716.088,-47.363,-83.496,-4.883,30.273,0.000
1709375716.092,-72.266,-86.914,-12.695,7.812,0.000
1709375716.096,2.441,-78.125,-17.090,41.016,0.000
1709375716.100,137.207,-63.965,-19.043,100.098,0.000
1709375716.104,128.906,-64.453,-21.973,96.191,0.000
1709375716.108,-17.090,-78.125,-21.973,56.152,0.000
1709375716.112,-70.801,-74.707,-22.461,27.832,0.000
1709375716.116,-9.766,-70.312,-23.438,35.645,0.000
1709375716.120,131.836,-58.105,-23.438,103.027,0.000
1709375716.123,142.578,-53.711,-18.555,111.816,0.000
1709375716.127,-6.348,-64.941,-20.996,41.992,0.000
1709375716.131,-67.871,-72.754,-21.973,20.508,0.000
1709375716.135,-26.367,-67.383,-20.996,31.250,0.000
1709375716.139,110.840,-52.246,-20.996,74.707,0.000
1709375716.143,145.996,-49.805,-20.020,94.727,0.000
1709375716.147,-12.695,-59.082,-23.438,29.785,0.000
1709375716.151,-82.031,-69.336,-20.020,-5.859,0.000
1709375716.155,-53.711,-58.594,-24.414,-5.859,0.000
1709375716.159,58.105,-38.086,-30.273,25.879,0.000
1709375716.163,113.770,-40.039,-24.414,53.223,0.000
1709375716.166,-22.461,-55.176,-21.973,-0.488,0.000
1709375716.170,-97.168,-62.012,-23.438,-41.992,0.000
1709375716.174,-87.402,-56.152,-20.996,-37.598,0.000
1709375716.178,26.855,-43.945,-20.508,11.719,0.000
1709375716.182,119.141,-42.480,-26.855,36.621,0.000
1709375716.186,-14.160,-52.246,-25.391,-12.695,0.000
1709375716.190,-119.141,-57.617,-22.949,-47.363,0.000
1709375716.194,-111.328,-53.711,-28.320,-54.199,0.000
1709375716.197,-14.648,-46.875,-33.691,-10.742,0.000
1709375716.201,91.309,-33.203,-34.668,27.832,0.000
1709375716.205,-6.836,-35.645,-36.133,-11.230,0.000
1709375716.209,-123.535,-49.805,-40.039,-56.641,0.000
1709375716.213,-125.488,-50.293,-41.992,-63.477,0.000
1709375716.217,-34.180,-41.992,-45.410,-31.250,0.000
1709375716.221,86.426,-32.715,-44.922,25.391,0.000
1709375716.224,8.789,-41.016,-43.457,-0.488,0.000
1709375716.228,-117.676,-49.805,-42.969,-51.758,0.000
1709375716.232,-126.953,-46.875,-46.387,-62.988,0.000
1709375716.236,-47.363,-45.898,-49.316,-38.086,0.000
1709375716.240,87.402,-43.945,-47.363,25.879,0.000
1709375716.244,38.574,-45.410,-47.852,15.625,0.000
1709375716.248,-87.891,-49.805,-51.270,-45.410,0.000
1709375716.252,-100.098,-50.781,-50.293,-58.105,0.000
1709375716.256,-20.020,-42.480,-47.852,-33.203,0.000
1709375716.260,115.723,-30.762,-45.898,22.461,0.000
1709375716.263,77.148,-35.156,-41.992,20.020,0.000
1709375716.267,-62.500,-46.875,-43.945,-37.598,0.000
1709375716.271,-97.656,-48.340,-41.504,-51.758,0.000
1709375716.275,-41.504,-41.504,-36.133,-24.902,0.000
1709375716.279,91.797,-34.668,-34.180,19.043,0.000
1709375716.283,87.891,-40.527,-34.668,25.879,0.000
1709375716.287,-55.176,-48.828,-34.668,-15.625,0.000
1709375716.291,-109.375,-42.480,-35.645,-58.594,0.000
1709375716.294,-71.289,-39.551,-39.551,-61.035,0.000
1709375716.298,59.082,-33.691,-41.504,-4.395,0.000
1709375716.302,82.520,-31.738,-40.039,9.766,0.000
1709375716.306,-66.895,-35.645,-38.086,-56.152,0.000
1709375716.311,-131.836,-40.039,-37.598,-83.008,0.000
1709375716.314,-95.703,-45.410,-35.645,-70.312,0.000
1709375716.318,31.250,-32.227,-31.738,-20.020,0.000
1709375716.322,78.125,-24.902,-30.273,9.766,0.000
1709375716.326,-60.547,-38.574,-30.762,-44.922,0.000
1709375716.330,-134.277,-47.363,-31.738,-71.289,0.000
1709375716.334,-115.723,-44.922,-34.668,-72.266,0.000
1709375716.338,-0.977,-39.062,-36.133,-36.621,0.000
1709375716.342,67.871,-38.086,-38.574,-0.977,0.000
1709375716.346,-56.641,-49.316,-42.480,-37.598,0.000
1709375716.350,-137.695,-43.457,-41.504,-74.707,0.000
1709375716.353,-114.746,-39.062,-43.945,-89.844,0.000
1709375716.359,-8.789,-39.062,-48.340,-50.781,0.000
1709375716.363,81.543,-29.785,-44.434,0.488,0.000
1709375716.367,-24.902,-35.645,-44.434,-38.574,0.000
1709375716.371,-125.000,-43.945,-45.898,-85.449,0.000
1709375716.375,-110.352,-44.434,-46.387,-84.473,0.000
1709375716.378,11.719,-34.668,-49.316,-44.434,0.000
1709375716.382,112.793,-24.902,-51.270,-3.906,0.000
1709375716.386,4.883,-27.832,-54.199,-34.668,0.000
1709375716.390,-111.328,-42.969,-51.758,-77.148,0.000
1709375716.394,-117.188,-45.410,-48.828,-76.172,0.000
1709375716.398,-33.691,-30.762,-49.805,-54.199,0.000
1709375716.402,84.473,-25.879,-50.781,-11.719,0.000
1709375716.406,17.090,-29.297,-48.340,-20.020,0.000
1709375716.410,-109.375,-34.180,-48.828,-71.289,0.000
1709375716.414,-120.605,-35.645,-48.828,-92.285,0.000
1709375716.418,-43.945,-34.668,-48.828,-56.152,0.000
1709375716.422,89.844,-28.809,-46.875,-0.977,0.000
1709375716.425,48.828,-30.273,-46.387,-13.672,0.000
1709375716.429,-89.844,-37.109,-44.434,-70.312,0.000
1709375716.433,-118.652,-35.156,-50.293,-90.332,0.000
1709375716.437,-56.152,-38.086,-59.570,-50.781,0.000
1709375716.441,81.543,-20.020,-49.316,6.348,0.000
1709375716.445,51.270,-10.742,-43.945,-17.578,0.000
1709375716.449,-97.656,-34.180,-47.363,-76.172,0.000
1709375716.453,-139.648,-41.992,-45.898,-94.727,0.000
1709375716.457,-93.262,-39.062,-42.969,-84.473,0.000
1709375716.461,50.781,-26.367,-41.016,-22.949,0.000
1709375716.464,62.012,-20.020,-39.062,-16.113,0.000
1709375716.468,-93.262,-39.062,-36.621,-85.938,0.000
1709375716.472,-156.250,-52.734,-35.156,-104.980,0.000
1709375716.476,-118.164,-45.898,-31.738,-89.844,0.000
1709375716.480,27.832,-39.551,-30.762,-24.902,0.000
1709375716.484,67.871,-42.969,-32.227,6.836,0.000
1709375716.488,-76.660,-42.969,-35.156,-62.988,0.000
1709375716.492,-139.648,-46.387,-35.645,-95.215,0.000
1709375716.496,-111.816,-48.828,-33.203,-84.473,0.000
1709375716.499,14.160,-41.016,-31.738,-32.227,0.000
1709375716.503,78.125,-35.645,-33.691,-6.836,0.000
1709375716.507,-56.152,-45.898,-37.109,-64.453,0.000
1709375716.511,-143.066,-55.176,-41.504,-97.168,0.000
1709375716.515,-121.582,-47.363,-40.527,-86.426,0.000
1709375716.519,-7.324,-37.598,-35.645,-41.992,0.000
1709375716.523,70.312,-31.738,-40.527,-9.766,0.000
1709375716.527,-44.434,-41.016,-40.039,-48.340,0.000
1709375716.531,-134.766,-42.480,-29.297,-79.102,0.000
1709375716.535,-117.676,-38.574,-28.809,-79.590,0.000
1709375716.538,-8.789,-39.062,-30.762,-37.109,0.000
1709375716.542,94.727,-33.691,-23.438,12.207,0.000
1709375716.546,1.465,-38.574,-22.949,-24.902,0.000
1709375716.550,-101.074,-45.898,-28.809,-72.266,0.000
1709375716.554,-104.492,-51.758,-27.832,-72.266,0.000
1709375716.558,-15.625,-49.316,-23.926,-37.109,0.000
1709375716.562,96.680,-39.551,-22.949,10.254,0.000
1709375716.566,3.418,-45.410,-23.926,-21.973,0.000
1709375716.569,-127.441,-58.594,-27.344,-69.824,0.000
1709375716.573,-137.695,-62.012,-31.250,-65.918,0.000
1709375716.577,-54.688,-41.992,-28.809,-40.527,0.000
1709375716.581,75.195,-31.250,-25.879,10.254,0.000
1709375716.585,14.648,-44.434,-23.926,-12.207,0.000
1709375716.589,-122.559,-54.688,-26.367,-74.219,0.000
1709375716.592,-145.020,-56.152,-29.297,-91.797,0.000
1709375716.596,-78.613,-45.898,-28.320,-71.289,0.000
1709375716.600,60.547,-37.598,-30.762,-15.625,0.000
1709375716.604,31.250,-38.574,-33.691,-17.578,0.000
1709375716.608,-106.445,-48.340,-38.086,-67.383,0.000
1709375716.612,-139.160,-53.711,-34.180,-84.961,0.000
1709375716.616,-83.984,-54.199,-34.668,-66.895,0.000
1709375716.620,64.941,-41.016,-36.621,-10.254,0.000
1709375716.624,65.430,-32.715,-33.691,-9.277,0.000
1709375716.628,-90.820,-44.434,-37.598,-68.848,0.000
1709375716.632,-142.090,-49.805,-39.062,-84.961,0.000
1709375716.635,-93.262,-41.992,-34.180,-68.848,0.000
1709375716.639,38.086,-32.227,-34.668,-20.508,0.000
1709375716.643,64.453,-32.227,-40.039,-3.906,0.000
1709375716.647,-76.172,-45.410,-42.969,-59.570,0.000
1709375716.651,-136.230,-49.316,-36.133,-87.402,0.000
1709375716.655,-98.145,-41.992,-36.133,-79.102,0.000
1709375716.658,31.250,-37.598,-41.016,-22.461,0.000
1709375716.662,80.078,-41.992,-40.039,11.719,0.000
1709375716.666,-58.594,-44.434,-38.574,-45.410,0.000
1709375716.670,-133.301,-48.340,-39.062,-82.520,0.000
1709375716.674,-115.723,-53.223,-44.922,-83.008,0.000
1709375716.678,7.324,-39.551,-43.457,-36.133,0.000
1709375716.682,84.473,-30.762,-39.551,2.930,0.000
1709375716.686,-42.969,-44.922,-41.016,-41.504,0.000
1709375716.690,-134.277,-54.688,-41.992,-83.496,0.000
1709375716.694,-118.164,-45.898,-39.062,-73.730,0.000
1709375716.698,-7.812,-35.645,-36.621,-25.391,0.000
1709375716.702,80.566,-34.668,-41.016,13.672,0.000
1709375716.706,-35.645,-47.363,-44.434,-21.973,0.000
1709375716.710,-135.742,-56.641,-43.457,-74.219,0.000
1709375716.714,-134.277,-55.664,-49.316,-87.891,0.000
1709375716.717,-37.598,-47.852,-52.734,-43.945,0.000
1709375716.721,80.566,-40.039,-41.016,9.766,0.000
1709375716.725,-18.555,-39.551,-41.016,-29.785,0.000
1709375716.729,-133.301,-44.434,-45.410,-73.730,0.000
1709375716.733,-125.000,-52.734,-41.992,-69.336,0.000
1709375716.737,-29.297,-47.852,-41.992,-42.969,0.000
1709375716.741,96.680,-31.738,-40.527,2.441,0.000
1709375716.745,22.949,-30.762,-38.086,-15.625,0.000
1709375716.749,-104.492,-39.551,-42.969,-65.918,0.000
1709375716.753,-120.605,-45.898,-49.316,-85.449,0.000
1709375716.757,-36.621,-31.738,-45.410,-58.105,0.000
1709375716.761,93.262,-18.555,-39.062,-7.812,0.000
1709375716.765,35.645,-32.715,-39.551,-20.508,0.000
1709375716.768,-98.145,-42.969,-35.645,-59.570,0.000
1709375716.772,-120.605,-33.203,-32.715,-88.379,0.000
1709375716.776,-61.523,-31.250,-31.738,-75.195,0.000
1709375716.780,63.965,-27.344,-29.785,-13.672,0.000
1709375716.784,47.363,-26.855,-29.297,-15.625,0.000
1709375716.788,-96.191,-39.062,-30.762,-70.801,0.000
1709375716.792,-149.414,-47.852,-35.645,-87.891,0.000
1709375716.796,-101.074,-49.805,-39.062,-69.336,0.000
1709375716.800,37.598,-42.480,-38.574,-17.090,0.000
1709375716.804,48.828,-39.062,-38.574,-3.906,0.000
1709375716.808,-93.262,-48.340,-39.062,-54.199,0.000
1709375716.812,-153.320,-56.641,-37.109,-70.312,0.000
1709375716.815,-112.793,-54.688,-36.621,-63.477,0.000
1709375716.819,28.320,-40.527,-36.133,-20.508,0.000
1709375716.823,61.523,-35.156,-37.109,3.418,0.000
1709375716.827,-84.961,-44.434,-37.598,-44.922,0.000
1709375716.831,-156.250,-51.270,-39.062,-80.566,0.000
1709375716.835,-120.605,-49.316,-41.016,-82.520,0.000
1709375716.839,3.418,-40.039,-40.527,-27.344,0.000
1709375716.843,59.082,-36.621,-38.086,7.812,0.000
1709375716.847,-69.336,-49.316,-36.133,-42.480,0.000
1709375716.851,-151.855,-57.617,-37.598,-77.637,0.000
1709375716.855,-125.000,-58.594,-36.621,-72.266,0.000
1709375716.858,-4.395,-53.711,-37.598,-20.996,0.000
1709375716.862,78.125,-34.180,-33.691,9.766,0.000
1709375716.866,-37.598,-44.922,-34.668,-36.621,0.000
1709375716.870,-127.930,-59.082,-41.016,-73.730,0.000
1709375716.874,-118.652,-54.199,-42.480,-79.590,0.000
1709375716.878,-5.859,-41.504,-38.086,-41.504,0.000
1709375716.882,96.680,-36.621,-36.133,1.953,0.000
1709375716.886,-19.531,-50.781,-40.527,-43.457,0.000
1709375716.890,-123.047,-53.223,-40.039,-89.355,0.000
1709375716.893,-108.398,-48.340,-41.016,-80.078,0.000
1709375716.897,-18.066,-44.922,-46.387,-42.969,0.000
1709375716.901,87.402,-42.969,-43.457,7.812,0.000
1709375716.905,-6.836,-41.992,-41.504,-19.531,0.000
1709375716.909,-123.047,-36.133,-39.062,-70.801,0.000
1709375716.913,-126.465,-43.945,-40.039,-86.426,0.000
1709375716.917,-45.410,-43.457,-40.527,-57.129,0.000
1709375716.921,83.984,-23.926,-32.715,5.859,0.000
1709375716.924,21.973,-30.762,-37.109,-20.020,0.000
1709375716.928,-118.164,-54.688,-42.480,-82.520,0.000
1709375716.932,-137.695,-56.641,-38.574,-87.402,0.000
1709375716.936,-62.988,-45.898,-36.133,-50.293,0.000
1709375716.940,64.453,-38.086,-34.668,6.348,0.000
1709375716.944,29.297,-45.898,-34.668,-4.395,0.000
1709375716.948,-107.910,-56.641,-36.621,-48.828,0.000
1709375716.952,-146.484,-46.387,-40.527,-71.777,0.000
1709375716.956,-87.891,-41.992,-37.598,-61.523,0.000
1709375716.960,48.340,-39.551,-31.738,-3.906,0.000
1709375716.963,42.969,-35.156,-31.738,-4.883,0.000
1709375716.967,-102.539,-44.434,-37.109,-63.965,0.000
1709375716.971,-137.695,-53.711,-39.062,-82.520,0.000
1709375716.975,-75.684,-49.316,-38.086,-68.359,0.000
1709375716.979,57.617,-35.156,-32.715,-6.348,0.000
1709375716.983,73.242,-37.598,-32.227,7.324,0.000
1709375716.987,-67.383,-49.805,-40.039,-52.246,0.000
1709375716.990,-125.000,-58.594,-39.551,-68.359,0.000
1709375716.994,-87.891,-56.152,-38.574,-57.617,0.000
1709375716.998,47.852,-39.062,-40.527,-12.695,0.000
1709375717.002,84.473,-35.645,-37.109,13.672,0.000
1709375717.006,-63.965,-48.340,-34.668,-40.527,0.000
1709375717.010,-130.371,-49.805,-39.551,-79.590,0.000
1709375717.013,-100.098,-45.898,-41.504,-75.684,0.000
1709375717.017,19.531,-41.992,-38.574,-25.879,0.000
1709375717.021,86.914,-41.016,-34.180,6.348,0.000
1709375717.025,-44.434,-50.293,-37.598,-42.480,0.000
1709375717.029,-134.277,-55.176,-41.504,-80.078,0.000
1709375717.033,-104.492,-49.316,-37.598,-65.918,0.000
1709375717.037,16.113,-46.387,-32.715,-10.742,0.000
1709375717.041,95.215,-31.250,-31.250,18.555,0.000
1709375717.045,-22.949,-32.715,-33.691,-29.785,0.000
1709375717.049,-119.141,-48.340,-33.691,-69.336,0.000
1709375717.053,-114.746,-44.922,-35.156,-63.477,0.000
1709375717.056,-11.719,-33.203,-34.668,-24.414,0.000
1709375717.061,93.750,-28.320,-37.598,15.137,0.000
1709375717.065,-7.812,-38.574,-41.992,-18.066,0.000
1709375717.069,-133.301,-46.387,-41.016,-69.336,0.000
1709375717.072,-140.137,-41.016,-39.062,-77.637,0.000
1709375717.076,-43.945,-33.691,-37.598,-41.992,0.000
1709375717.080,72.266,-30.762,-37.109,6.348,0.000
1709375717.084,0.000,-34.180,-31.738,-18.066,0.000
1709375717.088,-120.117,-44.922,-30.273,-71.289,0.000
1709375717.092,-131.348,-52.734,-35.645,-87.402,0.000
1709375717.096,-52.246,-51.270,-40.039,-47.852,0.000
1709375717.100,79.102,-31.738,-37.109,13.672,0.000
1709375717.104,30.762,-30.273,-37.109,-8.789,0.000
1709375717.108,0.000,-48.828,-40.527,-65.430,0.000
1709375717.112,0.000,-52.734,-41.992,-79.590,0.000
1709375717.116,0.000,-44.434,-41.992,-62.988,0.000
1709375717.120,0.000,-34.668,-36.621,-0.488,0.000
1709375717.124,0.000,-42.969,-37.109,-2.441,0.000
1709375717.127,0.000,-52.734,-38.574,-62.988,0.000
1709375717.131,0.000,-49.805,-36.133,-80.566,0.000
1709375717.135,0.000,-45.410,-35.645,-60.547,0.000
1709375717.139,0.000,-38.574,-32.227,2.930,0.000
1709375717.143,0.000,-44.434,-35.645,16.113,0.000
1709375717.147,0.000,-42.969,-39.551,-43.457,0.000
1709375717.151,0.000,-43.945,-40.039,-63.477,0.000
1709375717.155,-82.520,-53.223,-40.039,-49.805,0.000
1709375717.159,53.223,-40.039,-38.086,-1.465,0.000
1709375717.163,77.637,-38.086,-40.527,10.254,0.000
1709375717.167,-68.359,-52.246,-42.480,-45.410,0.000
1709375717.171,-123.047,-56.641,-38.574,-68.848,0.000
1709375717.175,-78.125,-51.270,-35.156,-49.805,0.000
1709375717.178,46.387,-37.109,-35.645,-4.883,0.000
1709375717.182,84.961,-36.621,-39.062,10.742,0.000
1709375717.186,-46.875,-49.805,-38.086,-29.785,0.000
1709375717.190,-122.070,-49.805,-40.039,-63.965,0.000
1709375717.194,-112.305,-48.828,-41.504,-69.336,0.000
1709375717.198,9.766,-48.340,-38.086,-19.531,0.000
1709375717.202,89.355,-43.945,-35.156,19.043,0.000
1709375717.206,-39.551,-43.457,-28.809,-24.902,0.000
1709375717.210,-132.812,-46.387,-33.691,-69.336,0.000
1709375717.214,-112.305,-48.828,-37.598,-70.312,0.000
1709375717.218,0.977,-38.574,-33.691,-25.879,0.000
1709375717.221,91.309,-31.250,-32.715,17.090,0.000
1709375717.225,-26.367,-44.922,-36.133,-29.297,0.000
1709375717.229,-129.883,-52.734,-37.598,-73.730,0.000
1709375717.233,-115.723,-49.805,-36.133,-62.012,0.000
1709375717.237,-10.742,-38.574,-36.621,-30.273,0.000
1709375717.241,102.051,-39.062,-36.133,10.254,0.000
1709375717.245,3.906,-48.828,-33.203,-20.508,0.000
1709375717.249,-126.953,-49.805,-35.156,-79.102,0.000
1709375717.253,-128.906,-50.781,-39.551,-89.355,0.000
1709375717.256,-33.203,-46.875,-37.598,-51.270,0.000
1709375717.260,82.031,-42.480,-39.551,6.836,0.000
1709375717.264,10.742,-46.387,-43.457,-18.066,0.000
1709375717.268,-114.746,-54.199,-38.574,-62.988,0.000
1709375717.272,-132.324,-56.641,-33.203,-66.895,0.000
1709375717.276,-58.594,-55.664,-31.738,-33.691,0.000
1709375717.280,68.359,-41.504,-32.715,20.508,0.000
1709375717.284,27.832,-35.156,-33.203,-0.977,0.000
1709375717.288,-100.586,-46.387,-30.762,-59.082,0.000
1709375717.292,-128.418,-46.387,-34.180,-72.266,0.000
1709375717.295,-69.824,-38.574,-39.551,-54.688,0.000
1709375717.299,70.801,-24.902,-33.691,-3.418,0.000
1709375717.303,53.711,-27.832,-33.203,1.465,0.000
1709375717.307,-103.027,-45.898,-42.969,-61.523,0.000
1709375717.311,-145.020,-50.293,-42.969,-84.473,0.000
1709375717.315,-82.031,-45.410,-37.598,-62.988,0.000
1709375717.319,56.152,-38.574,-36.621,-3.418,0.000
1709375717.323,66.406,-39.551,-40.039,23.926,0.000
1709375717.327,-69.336,-36.133,-38.574,-31.738,0.000
1709375717.330,-124.023,-39.062,-32.227,-65.430,0.000
1709375717.334,-83.496,-44.434,-29.297,-55.664,0.000
1709375717.338,50.293,-36.133,-29.297,-3.418,0.000
1709375717.342,86.426,-34.180,-31.250,15.625,0.000
1709375717.346,-54.688,-40.039,-32.715,-29.297,0.000
1709375717.350,-117.676,-41.504,-35.156,-62.500,0.000
1709375717.354,-83.008,-35.156,-33.203,-60.547,0.000
1709375717.357,33.691,-25.391,-31.250,-9.277,0.000
1709375717.361,87.402,-24.902,-31.250,17.090,0.000
1709375717.365,-47.852,-40.527,-30.762,-28.809,0.000
1709375717.369,-130.371,-42.480,-31.738,-63.965,0.000
1709375717.373,-104.980,-35.645,-35.645,-71.289,0.000
1709375717.377,11.230,-33.203,-40.527,-25.879,0.000
1709375717.381,99.121,-25.879,-39.551,10.254,0.000
1709375717.385,-19.043,-27.832,-36.133,-37.109,0.000
1709375717.388,-121.094,-40.039,-40.527,-73.730,0.000
1709375717.392,-115.723,-46.875,-42.480,-75.195,0.000
1709375717.396,-18.555,-39.062,-41.016,-34.180,0.000
1709375717.400,88.379,-29.785,-35.645,13.672,0.000
1709375717.404,-13.672,-46.387,-36.621,-32.227,0.000
1709375717.408,-121.582,-55.664,-34.180,-70.312,0.000
1709375717.412,-109.375,-50.781,-29.297,-58.105,0.000
1709375717.416,-18.555,-39.062,-33.203,-31.738,0.000
1709375717.419,93.262,-27.832,-35.156,10.742,0.000
1709375717.423,12.207,-41.992,-38.086,-12.207,0.000
1709375717.427,-116.211,-56.641,-41.504,-67.871,0.000
1709375717.431,-125.488,-51.758,-37.598,-70.312,0.000
1709375717.436,-48.828,-47.852,-36.621,-26.855,0.000
1709375717.439,73.242,-41.992,-35.156,18.555,0.000
1709375717.443,20.508,-42.969,-32.715,-3.418,0.000
1709375717.447,-104.492,-52.734,-33.691,-51.758,0.000
1709375717.451,-125.000,-52.734,-36.133,-59.570,0.000
1709375717.455,-58.594,-47.852,-39.551,-37.598,0.000
1709375717.459,77.148,-35.156,-36.621,12.695,0.000
1709375717.463,42.969,-40.039,-35.156,4.883,0.000
1709375717.467,-95.215,-59.082,-39.062,-50.781,0.000
1709375717.471,-126.465,-59.082,-38.086,-62.012,0.000
1709375717.475,-75.195,-46.875,-35.645,-43.945,0.000
1709375717.479,64.941,-31.738,-34.180,7.812,0.000
1709375717.483,62.012,-31.250,0.000,5.371,0.000
1709375717.487,-82.520,-44.434,0.000,-62.500,0.000
1709375717.491,-126.465,-45.898,0.000,-88.867,0.000
1709375717.495,-81.543,-39.062,0.000,-73.242,0.000
1709375717.499,55.176,-30.273,0.000,-8.301,0.000
1709375717.502,71.777,-32.715,0.000,-4.395,0.000
1709375717.506,-70.801,-44.922,0.000,-71.289,0.000
1709375717.510,-130.859,-46.387,0.000,-93.750,0.000
1709375717.514,-91.309,-43.945,0.000,-78.613,0.000
1709375717.518,45.898,-40.039,0.000,-19.531,0.000
1709375717.522,89.844,-30.762,0.000,1.465,0.000
1709375717.526,-49.805,-43.457,0.000,-54.199,0.000
1709375717.530,-127.930,-56.641,-40.527,-78.613,0.000
1709375717.534,-96.191,-50.293,-34.180,-67.383,0.000
1709375717.538,32.227,-38.086,-29.297,-19.043,0.000
1709375717.542,90.820,-36.621,-32.227,16.113,0.000
1709375717.546,-43.457,-46.387,-34.668,-28.809,0.000
1709375717.550,-133.301,-48.828,-32.715,-67.871,0.000
1709375717.553,-111.816,-43.457,-29.785,-58.594,0.000
1709375717.557,1.953,-36.133,-25.391,-15.137,0.000
1709375717.561,91.309,-38.086,-28.320,22.461,0.000
1709375717.565,-20.508,-37.598,-31.250,-19.531,0.000
1709375717.569,-130.371,-37.109,-30.762,-65.430,0.000
1709375717.573,-118.164,-40.039,-28.320,-63.965,0.000
1709375717.577,-14.648,-39.551,-25.879,-29.297,0.000
1709375717.581,86.914,-33.203,-28.809,7.324,0.000
1709375717.585,-7.812,-40.039,-33.203,-27.344,0.000
1709375717.589,-123.047,-52.734,-35.645,-74.707,0.000
1709375717.592,-120.117,-53.711,-34.180,-78.125,0.000
1709375717.596,-11.230,-49.316,-33.691,-35.645,0.000
1709375717.600,94.727,-39.062,-34.668,6.836,0.000
1709375717.604,9.277,-41.992,-35.156,-24.414,0.000
1709375717.608,-117.188,-53.711,-36.621,-63.965,0.000
1709375717.612,-133.789,-49.316,-40.039,-71.289,0.000
1709375717.616,-51.758,-38.574,-37.109,-46.875,0.000
1709375717.620,79.590,-26.367,-31.738,4.395,0.000
1709375717.624,30.762,-27.832,-35.156,-5.859,0.000
1709375717.628,-109.375,-40.039,-38.086,-58.594,0.000
1709375717.631,-131.348,-47.852,-38.086,-69.824,0.000
1709375717.635,-61.035,-43.457,-39.551,-41.504,0.000
1709375717.639,73.730,-34.668,-40.039,3.906,0.000
1709375717.643,53.223,-38.574,-39.551,-4.883,0.000
1709375717.647,-89.844,-46.875,-41.016,-56.641,0.000
1709375717.651,-124.512,-49.805,-36.621,-66.406,0.000
1709375717.655,-71.289,-46.387,-34.668,-45.410,0.000
1709375717.659,58.594,-37.598,-41.016,-1.465,0.000
1709375717.663,65.430,-32.715,-37.109,8.789,0.000
1709375717.667,-76.172,-41.992,-31.738,-43.945,0.000
1709375717.670,-133.301,-46.387,-37.598,-70.801,0.000
1709375717.674,-90.332,-43.457,-35.156,-59.570,0.000
1709375717.678,45.898,-37.109,-36.621,-11.230,0.000
1709375717.682,75.195,-39.551,-38.574,3.418,0.000
1709375717.686,-72.266,-48.828,-39.062,-48.340,0.000
1709375717.690,-140.137,-53.223,-41.504,-75.195,0.000
1709375717.694,-101.562,-54.199,-38.086,-62.500,0.000
1709375717.698,28.809,-49.805,-39.551,-0.977,0.000
1709375717.701,82.031,-41.504,-46.875,17.578,0.000
1709375717.705,-55.176,-44.922,-41.992,-37.598,0.000
1709375717.709,-133.789,-51.758,-35.645,-62.500,0.000
1709375717.713,-110.352,-49.805,-41.016,-61.523,0.000
1709375717.717,6.836,-39.062,-35.156,-20.020,0.000
1709375717.721,99.121,-29.297,-28.320,19.043,0.000
1709375717.725,-20.020,-41.504,-30.762,-21.973,0.000
1709375717.728,-119.629,-54.199,-36.133,-63.965,0.000
1709375717.732,-92.285,-48.828,-40.527,-68.848,0.000
1709375717.736,11.230,-41.504,-36.621,-34.180,0.000
1709375717.740,96.680,-36.621,-34.180,15.625,0.000
1709375717.744,-9.277,-41.504,-39.062,-20.508,0.000
1709375717.748,-115.234,-45.898,-37.598,-71.777,0.000
1709375717.752,-110.352,-40.527,-38.086,-69.824,0.000
1709375717.756,-14.160,-38.086,-42.480,-42.969,0.000
1709375717.760,97.656,-30.762,-44.922,-4.883,0.000
1709375717.764,7.324,-37.598,-41.016,-34.180,0.000
1709375717.768,-108.398,-52.246,-36.133,-77.148,0.000
1709375717.772,-117.188,-55.664,-35.645,-76.172,0.000
1709375717.776,-39.551,-44.922,-33.691,-47.852,0.000
1709375717.780,87.891,-30.762,-34.180,4.883,0.000
1709375717.784,21.484,-43.945,-32.715,-10.742,0.000
1709375717.788,-114.258,-58.594,-36.133,-59.082,0.000
1709375717.792,-135.254,-44.434,-39.551,-78.613,0.000
1709375717.795,-62.500,-37.109,-32.715,-57.617,0.000
1709375717.799,68.359,-32.227,-26.855,0.000,0.000
1709375717.803,19.531,-31.738,-31.250,-13.672,0.000
1709375717.807,-116.699,-39.062,-31.250,-66.406,0.000
1709375717.811,-145.996,-39.551,-32.715,-79.590,0.000
1709375717.815,-82.031,-42.480,-33.691,-54.199,0.000
1709375717.819,59.082,-33.203,-33.203,-0.977,0.000
1709375717.823,50.293,-34.180,-37.598,-8.789,0.000
1709375717.827,-90.820,-48.340,-41.504,-60.547,0.000
1709375717.831,-133.789,-51.270,-43.945,-78.125,0.000
1709375717.835,-91.797,-46.387,-43.945,-63.477,0.000
1709375717.839,49.316,-32.715,-36.133,-5.371,0.000
1709375717.843,73.730,-31.250,-36.133,-2.930,0.000
1709375717.847,-75.684,-47.363,-42.480,-61.035,0.000
1709375717.850,-138.672,-41.016,-38.086,-79.590,0.000
1709375717.854,-93.750,-28.809,-36.133,-67.871,0.000
1709375717.859,38.574,-32.227,-40.039,-13.672,0.000
1709375717.862,84.961,-34.668,-39.062,1.465,0.000
1709375717.866,-54.199,-36.621,-41.504,-49.805,0.000
1709375717.870,-131.836,-45.410,-43.945,-76.660,0.000
1709375717.874,-103.516,-53.223,-42.480,-74.707,0.000
1709375717.878,23.438,-43.945,-42.480,-25.879,0.000
1709375717.882,85.449,-33.691,-45.410,4.395,0.000
1709375717.886,-56.152,-41.504,-45.410,-50.781,0.000
1709375717.890,-141.602,-55.176,-43.945,-89.355,0.000
1709375717.894,-116.211,-52.734,-47.363,-74.219,0.000
1709375717.898,-0.977,-31.738,-48.340,-28.320,0.000
1709375717.902,85.938,-28.320,-44.922,8.789,0.000
1709375717.906,-32.227,-43.457,-44.434,-35.645,0.000
1709375717.909,-133.789,-46.875,-47.363,-82.031,0.000
1709375717.913,-123.535,-40.527,-43.945,-71.289,0.000
1709375717.917,-16.602,-34.668,-37.598,-29.297,0.000
1709375717.921,88.379,-25.879,-39.062,15.137,0.000
1709375717.925,-13.184,-36.133,-45.898,-29.785,0.000
1709375717.929,-124.023,-46.387,-45.410,-73.730,0.000
1709375717.933,-118.652,-41.992,-42.969,-66.406,0.000
1709375717.937,-23.926,-41.504,-40.039,-30.762,0.000
1709375717.941,84.961,-35.156,-39.062,14.160,0.000
1709375717.945,2.930,-34.180,-41.016,-15.137,0.000
1709375717.949,-125.488,-47.852,-42.480,-64.453,0.000
1709375717.952,-134.766,-52.734,-43.457,-75.684,0.000
1709375717.956,-47.363,-44.922,-46.387,-50.781,0.000
1709375717.960,78.125,-36.133,-44.434,2.441,0.000
1709375717.964,21.973,-41.504,-40.039,-6.348,0.000
1709375717.968,-111.816,-50.781,-40.039,-61.523,0.000
1709375717.972,-124.023,-46.875,-41.016,-70.801,0.000
1709375717.976,-53.223,-43.457,-42.969,-49.316,0.000
1709375717.980,78.613,-42.480,-40.527,5.371,0.000
1709375717.984,48.340,-50.781,-42.969,4.395,0.000
1709375717.988,-95.703,-52.734,-43.457,-55.176,0.000
1709375717.991,-125.977,-49.805,-34.668,-70.801,0.000
1709375717.995,-68.848,-47.852,-35.156,-56.152,0.000
1709375717.999,65.918,-42.969,-43.457,-7.812,0.000
1709375718.003,64.941,-41.992,-41.016,-1.465,0.000
1709375718.007,-86.426,-50.293,-34.668,-49.805,0.000
1709375718.011,-143.555,-53.711,-34.180,-72.266,0.000
1709375718.015,-97.656,-47.852,-40.039,-62.012,0.000
1709375718.019,48.340,-39.062,-39.551,-6.348,0.000
1709375718.022,71.777,-36.621,-32.227,4.883,0.000
1709375718.026,-80.566,-53.711,-32.715,-50.293,0.000
1709375718.030,-139.648,-53.711,-34.668,-73.730,0.000
1709375718.034,-97.656,-41.504,-32.715,-64.453,0.000
1709375718.038,35.156,-38.086,-31.250,-13.672,0.000
1709375718.042,80.566,-34.668,-29.785,4.883,0.000
1709375718.046,-60.059,-38.574,-29.785,-44.922,0.000
1709375718.050,-138.184,-46.875,-31.250,-78.613,0.000
1709375718.053,-111.328,-50.293,-30.762,-75.684,0.000
1709375718.057,9.277,-42.480,-32.227,-19.531,0.000
1709375718.061,70.801,-36.621,-36.133,5.859,0.000
1709375718.065,-47.852,-45.898,-40.039,-53.223,0.000
1709375718.069,-124.512,-51.758,-33.691,-80.566,0.000
1709375718.073,-104.980,-50.781,-36.133,-63.477,0.000
1709375718.077,7.812,-32.227,-38.574,-23.926,0.000
1709375718.081,96.191,-28.809,-36.133,10.742,0.000
1709375718.085,-28.320,-50.293,-38.574,-32.715,0.000
1709375718.089,-137.695,-56.152,-41.016,-77.637,0.000
1709375718.092,-125.977,-53.711,-39.551,-69.824,0.000
1709375718.096,-22.949,-51.270,-38.086,-28.809,0.000
1709375718.100,82.031,-45.898,-35.645,12.207,0.000
1709375718.104,-14.160,-45.898,-39.062,-26.855,0.000
1709375718.108,-130.859,-48.340,-41.504,-76.172,0.000
1709375718.112,-127.930,-49.805,-39.551,-75.195,0.000
1709375718.116,-31.250,-46.387,-39.062,-41.992,0.000
1709375718.120,88.867,-37.109,-38.086,4.395,0.000
1709375718.123,9.766,-38.574,-39.062,-16.113,0.000
1709375718.127,-127.930,-43.945,-43.457,-65.918,0.000
1709375718.131,-140.137,-57.617,-45.898,-69.336,0.000
1709375718.135,-59.082,-54.199,-41.016,-48.340,0.000
1709375718.139,74.707,-35.645,-35.645,2.930,0.000
1709375718.143,34.180,-42.480,-35.156,-1.953,0.000
1709375718.146,-99.609,-51.758,-34.180,-62.988,0.000
1709375718.150,-126.953,-49.805,-38.086,-86.914,0.000
1709375718.154,-62.012,-43.945,-41.992,-66.406,0.000
1709375718.158,77.148,-40.527,-40.039,-8.789,0.000
1709375718.162,54.199,-47.852,-44.922,1.953,0.000
1709375718.166,-104.004,-49.316,-48.340,-66.895,0.000
1709375718.170,-152.344,-51.758,-47.363,-90.332,0.000
1709375718.174,-96.680,-59.082,-49.316,-68.359,0.000
1709375718.178,39.062,-41.992,-48.828,-18.555,0.000
1709375718.182,41.504,-35.645,-48.828,-8.789,0.000
1709375718.186,-103.516,-52.246,-48.828,-67.871,0.000
1709375718.190,-152.832,-62.012,-48.828,-89.355,0.000
1709375718.194,-105.957,-59.082,-48.340,-65.430,0.000
1709375718.198,39.551,-47.852,-42.480,-7.812,0.000
1709375718.202,78.613,-40.039,-41.504,10.742,0.000
1709375718.206,-61.523,-53.223,-41.016,-34.668,0.000
1709375718.210,-130.859,-51.758,-36.133,-61.035,0.000
1709375718.213,-97.656,-34.180,-32.715,-57.617,0.000
1709375718.217,38.086,-30.762,-33.203,-9.766,0.000
1709375718.221,95.215,-32.227,-30.762,29.297,0.000
1709375718.225,-42.480,-32.715,-34.180,-29.297,0.000
1709375718.229,-121.094,-36.621,-38.086,-69.336,0.000
1709375718.233,-98.145,-43.457,-41.504,-64.941,0.000
1709375718.237,22.461,-32.227,-39.062,-20.996,0.000
1709375718.241,103.516,-26.367,-39.551,16.602,0.000
1709375718.245,-22.461,-34.668,-44.922,-29.297,0.000
1709375718.249,-118.652,-45.410,-45.898,-74.707,0.000
1709375718.253,-105.957,-49.805,-45.898,-74.707,0.000
1709375718.257,1.953,-36.133,-43.457,-35.156,0.000
1709375718.261,103.027,-24.902,-42.480,3.906,0.000
1709375718.265,-7.812,-41.504,-41.016,-25.391,0.000
1709375718.268,-118.164,-56.152,-43.457,-60.547,0.000
1709375718.272,-111.328,-47.363,-41.504,-66.406,0.000
1709375718.276,-13.184,-39.062,-33.691,-25.879,0.000
1709375718.280,102.051,-35.645,-25.879,30.273,0.000
1709375718.284,7.324,-41.504,-25.879,0.000,0.000
1709375718.288,-113.281,-47.363,-27.832,-49.805,0.000
1709375718.292,-115.234,-45.410,-27.832,-53.711,0.000
1709375718.296,-34.180,-39.062,-27.832,-16.113,0.000
1709375718.300,83.008,-35.645,-28.320,31.250,0.000
1709375718.304,17.578,-38.574,-32.227,3.906,0.000
1709375718.308,-110.840,-42.969,-34.180,-41.992,0.000
1709375718.312,-137.207,-53.223,-34.180,-56.641,0.000
1709375718.315,-63.965,-43.945,-34.180,-46.387,0.000
1709375718.319,74.707,-25.879,-32.715,1.465,0.000
1709375718.323,34.668,-31.738,-35.156,-8.789,0.000
1709375718.327,-106.445,-43.945,-37.109,-60.059,0.000
1709375718.331,-135.254,-41.016,-35.156,-75.195,0.000
1709375718.335,-73.242,-41.016,-35.156,-59.082,0.000
1709375718.339,69.824,-35.645,-36.621,0.488,0.000
1709375718.343,61.035,-28.809,-39.551,6.836,0.000
1709375718.347,-84.473,-40.527,-39.062,-50.293,0.000
1709375718.351,-129.883,-44.434,-41.992,-70.312,0.000
1709375718.355,-80.566,-41.504,-41.504,-56.641,0.000
1709375718.358,56.641,-39.551,-42.480,-3.906,0.000
1709375718.362,72.266,-29.785,-44.434,1.953,0.000
1709375718.366,-74.707,-41.016,-42.969,-57.129,0.000
1709375718.370,-137.695,-53.711,-45.898,-84.961,0.000
1709375718.374,-100.098,-46.875,-42.480,-54.688,0.000
1709375718.378,36.621,-36.621,-41.504,2.930,0.000
1709375718.382,82.031,-33.203,-41.016,11.230,0.000
1709375718.386,-59.570,-45.898,-41.992,-41.016,0.000
1709375718.390,-133.789,-51.758,-44.922,-70.801,0.000
1709375718.393,-101.074,-48.828,-45.898,-67.871,0.000
1709375718.397,30.762,-37.109,-37.598,-23.926,0.000
1709375718.401,89.844,-40.527,-33.691,12.207,0.000
1709375718.405,-47.363,-56.152,-39.551,-36.621,0.000
1709375718.409,-127.930,-58.594,-36.621,-81.055,0.000
1709375718.413,-106.934,-54.688,-33.203,-78.613,0.000
1709375718.417,4.395,-46.875,-33.691,-30.273,0.000
1709375718.420,87.891,-36.621,-29.297,11.230,0.000
1709375718.424,-31.738,-41.504,-30.762,-39.062,0.000
1709375718.428,-127.441,-50.293,-34.668,-87.891,0.000
1709375718.432,-116.699,-50.293,-36.621,-89.355,0.000
1709375718.436,-8.301,-40.527,-39.551,-41.992,0.000
1709375718.440,93.750,-36.133,-40.527,7.812,0.000
1709375718.444,-13.672,-44.922,-41.992,-26.367,0.000
1709375718.448,-120.117,-53.711,-39.551,-58.594,0.000
1709375718.452,-115.234,-46.387,-43.457,-58.594,0.000
1709375718.456,-16.602,-33.691,-44.922,-31.738,0.000
1709375718.460,102.051,-30.273,-42.480,19.043,0.000
1709375718.463,16.113,-37.109,-42.969,-3.906,0.000
1709375718.467,-107.910,-43.945,-42.480,-56.152,0.000
1709375718.471,-122.559,-41.992,-42.480,-69.336,0.000
1709375718.475,-52.734,-43.457,-45.410,-38.086,0.000
1709375718.479,74.707,-32.227,-44.434,17.578,0.000
1709375718.483,17.578,-28.809,-42.480,-9.277,0.000
1709375718.486,-122.559,-46.387,-46.387,-69.824,0.000
1709375718.490,-144.043,-55.664,-47.852,-78.613,0.000
1709375718.494,-71.289,-46.875,-44.434,-53.711,0.000
1709375718.498,52.734,-36.621,-47.852,-14.648,0.000
1709375718.502,19.531,-39.062,-48.340,-26.855,0.000
1709375718.506,-114.746,-51.270,-45.410,-85.938,0.000
1709375718.510,-146.973,-53.223,-43.945,-106.445,0.000
1709375718.513,-90.820,-49.316,-40.039,-82.031,0.000
1709375718.517,49.316,-40.527,-37.598,-24.414,0.000
1709375718.521,50.781,-34.668,-37.109,-13.672,0.000
1709375718.525,-100.098,-45.410,-39.551,-69.336,0.000
1709375718.529,-146.973,-48.828,-40.039,-86.914,0.000
1709375718.533,-91.797,-44.922,-40.527,-61.523,0.000
1709375718.537,48.828,-40.039,-38.574,-4.883,0.000
1709375718.541,77.637,-28.320,-33.203,8.301,0.000
1709375718.545,-66.406,-39.551,-39.551,-53.223,0.000
1709375718.549,-126.953,-47.852,-42.969,-70.801,0.000
1709375718.552,-87.891,-36.621,-36.133,-53.223,0.000
1709375718.556,39.062,-27.344,-39.062,-12.207,0.000
1709375718.560,83.008,-32.715,-39.062,6.348,0.000
1709375718.564,-53.711,-41.992,-35.156,-37.598,0.000
1709375718.567,-120.117,-45.898,-34.668,-61.523,0.000
1709375718.571,-101.074,-46.387,-37.109,-65.918,0.000
1709375718.575,16.602,-41.504,-39.062,-24.414,0.000
1709375718.579,89.844,-43.945,-39.551,15.137,0.000
1709375718.583,-39.062,-47.852,-43.457,-35.156,0.000
1709375718.587,-125.977,-45.898,-46.387,-77.637,0.000
1709375718.591,-106.934,-44.434,-40.039,-72.754,0.000
1709375718.595,1.953,-41.504,-38.574,-28.809,0.000
1709375718.599,93.750,-30.273,-37.109,4.395,0.000
1709375718.603,-22.461,-33.203,-34.668,-40.039,0.000
1709375718.607,-127.441,-42.969,-38.574,-81.055,0.000
1709375718.611,-114.258,-41.992,-41.992,-85.938,0.000
1709375718.615,-15.137,-38.086,-41.016,-49.316,0.000
1709375718.619,92.285,-30.762,-39.551,2.441,0.000
1709375718.623,1.465,-35.156,-41.992,-25.879,0.000
1709375718.626,-111.328,-43.457,-44.434,-70.801,0.000
1709375718.630,-115.723,-47.363,-43.945,-79.590,0.000
1709375718.634,-34.180,-38.574,-38.574,-46.387,0.000
1709375718.638,79.590,-30.273,-37.598,7.812,0.000
1709375718.642,11.719,-37.598,-36.133,-8.301,0.000
1709375718.646,-116.211,-38.574,-34.180,-58.105,0.000
1709375718.650,-127.930,-41.504,-37.598,-71.777,0.000
1709375718.655,-51.270,-42.969,0.000,-38.086,0.000
1709375718.659,68.848,-35.156,0.000,21.973,0.000
1709375718.663,19.531,-38.086,0.000,0.977,0.000
1709375718.667,-113.281,-51.270,0.000,-45.410,0.000
1709375718.671,-140.625,-58.594,0.000,-53.223,0.000
1709375718.674,-75.684,-53.711,0.000,-43.457,0.000
1709375718.678,53.711,-44.434,0.000,-2.930,0.000
1709375718.682,32.227,-43.945,0.000,-10.742,0.000
1709375718.686,-100.098,-52.734,0.000,-56.152,0.000
1709375718.690,-132.812,-46.387,0.000,-73.730,0.000
1709375718.694,-80.566,-35.645,0.000,-66.895,0.000
1709375718.698,54.688,-30.762,0.000,-10.254,0.000
1709375718.702,65.430,-34.668,-32.227,-1.953,0.000
1709375718.706,-79.102,-46.387,-31.738,-57.129,0.000
1709375718.710,-135.254,-49.805,-35.645,-79.102,0.000
1709375718.714,-86.914,-45.898,-38.086,-67.383,0.000
1709375718.717,51.758,-35.645,-35.156,-3.906,0.000
1709375718.721,81.543,-31.250,-30.273,24.414,0.000
1709375718.725,-63.965,-39.062,-31.738,-34.668,0.000
1709375718.729,-129.395,-47.852,-31.250,-60.059,0.000
1709375718.733,-100.098,-51.270,-27.344,-38.086,0.000
1709375718.737,25.879,-34.180,-25.879,5.371,0.000
1709375718.741,84.473,-32.227,-28.809,38.086,0.000
1709375718.745,-55.176,-50.781,-33.691,-6.836,0.000
1709375718.749,-131.348,-50.781,-39.062,-49.805,0.000
1709375718.752,-104.980,-46.387,-34.180,-49.316,0.000
1709375718.756,8.789,-41.992,-31.250,-4.395,0.000
1709375718.760,86.426,-36.621,-34.180,34.668,0.000
1709375718.764,-35.645,-42.969,-29.785,-8.789,0.000
1709375718.768,-119.629,-48.828,-25.879,-47.852,0.000
1709375718.772,-104.492,-43.945,-28.320,-53.223,0.000
1709375718.776,3.418,-36.133,-27.344,-10.742,0.000
1709375718.780,101.074,-25.879,-28.320,29.297,0.000
1709375718.784,-22.461,-27.832,-40.039,-27.832,0.000
1709375718.788,-132.812,-40.039,-39.062,-66.895,0.000
1709375718.792,-122.559,-41.992,-39.551,-66.406,0.000
1709375718.795,-27.344,-33.691,-41.992,-37.109,0.000
1709375718.799,86.914,-28.320,-39.551,11.719,0.000
1709375718.803,-3.418,-40.527,-39.551,-19.043,0.000
1709375718.807,-119.629,-42.969,-38.086,-67.871,0.000
1709375718.811,-121.582,-37.598,-39.551,-73.730,0.000
1709375718.815,-39.062,-34.180,-37.109,-40.527,0.000
1709375718.819,90.332,-24.414,-33.691,19.531,0.000
1709375718.823,19.531,-34.668,-32.715,5.371,0.000
1709375718.826,-115.234,-33.203,-28.320,-60.547,0.000
1709375718.830,-124.512,-30.762,-24.902,-76.660,0.000
1709375718.834,-55.664,-34.668,-27.832,-46.875,0.000
1709375718.838,67.383,-31.738,-31.738,1.953,0.000
1709375718.842,35.156,-29.785,-31.250,-3.418,0.000
1709375718.846,-106.934,-36.621,-32.227,-61.035,0.000
1709375718.849,-138.184,-46.387,-34.668,-79.590,0.000
1709375718.853,-79.590,-44.434,-34.180,-54.199,0.000
1709375718.857,56.641,-35.645,-32.227,4.883,0.000
1709375718.861,57.617,-35.645,-30.762,12.695,0.000
1709375718.865,-87.891,-50.781,-35.156,-39.551,0.000
1709375718.869,-143.555,-49.316,-35.645,-60.547,0.000
1709375718.873,-90.332,-38.086,-29.785,-47.852,0.000
1709375718.877,55.664,-33.203,-30.762,0.488,0.000
1709375718.881,66.895,-33.203,-32.227,11.719,0.000
1709375718.885,-84.961,-42.969,-36.621,-36.133,0.000
1709375718.888,-142.578,-46.875,-38.086,-58.594,0.000
1709375718.892,-101.074,-44.922,-38.574,-47.852,0.000
1709375718.896,30.762,-35.156,-45.410,-1.465,0.000
1709375718.900,73.730,-32.227,-47.363,16.113,0.000
1709375718.904,-70.312,-47.852,-50.781,-43.457,0.000
1709375718.908,-146.484,-62.012,-50.293,-75.684,0.000
1709375718.912,-110.840,-53.711,-40.527,-57.129,0.000
1709375718.915,18.555,-33.691,-39.062,-13.672,0.000
1709375718.919,84.961,-31.738,-41.504,13.672,0.000
1709375718.923,-50.781,-45.410,-42.969,-33.691,0.000
1709375718.927,-136.230,-49.805,-44.434,-68.359,0.000
1709375718.931,-107.910,-42.969,-43.945,-61.035,0.000
1709375718.934,13.184,-33.691,-40.039,-17.090,0.000
1709375718.938,100.098,-31.250,-41.504,19.531,0.000
1709375718.942,-19.531,-39.062,-43.945,-21.973,0.000
1709375718.946,-117.188,-41.992,-41.504,-61.035,0.000
1709375718.950,-111.328,-41.504,-41.992,-62.012,0.000
1709375718.954,-8.789,-43.945,-41.504,-22.461,0.000
1709375718.958,93.750,-36.133,-39.551,25.391,0.000
1709375718.962,-10.742,-41.992,-39.551,-8.789,0.000
1709375718.966,-120.605,-51.270,-38.574,-54.688,0.000
1709375718.970,-117.188,-54.688,-36.621,-53.711,0.000
1709375718.973,-32.715,-42.480,-32.227,-19.043,0.000
1709375718.977,82.031,-25.391,-26.367,29.297,0.000
1709375718.982,9.766,-37.109,-28.320,0.488,0.000
1709375718.986,-115.723,-51.758,-32.715,-50.781,0.000
1709375718.990,-127.930,-49.805,-36.133,-66.895,0.000
1709375718.993,-45.898,-42.969,-33.691,-44.434,0.000
1709375718.997,85.938,-40.039,-34.180,12.695,0.000
1709375719.001,35.645,-42.969,-35.156,-4.883,0.000
1709375719.005,-96.680,-47.852,-36.621,-62.988,0.000
1709375719.009,-117.188,-48.828,-39.062,-77.148,0.000
1709375719.013,-48.828,-44.922,-37.109,-53.711,0.000
1709375719.017,80.566,-40.527,-36.621,3.906,0.000
1709375719.021,51.270,-41.504,-40.039,-13.672,0.000
1709375719.025,-87.402,-49.805,-39.551,-69.824,0.000
1709375719.029,-119.629,-53.711,-39.551,-74.219,0.000
1709375719.033,-70.312,-48.340,-36.621,-52.734,0.000
1709375719.037,66.895,-38.574,-33.691,-0.977,0.000
1709375719.041,68.359,-46.875,-36.133,1.953,0.000
1709375719.044,-93.750,-63.477,-37.598,-52.246,0.000
1709375719.048,-146.973,-65.918,-38.086,-74.219,0.000
1709375719.052,-99.609,-61.523,-35.645,-62.500,0.000
1709375719.056,35.645,-48.828,-32.715,-4.395,0.000
1709375719.060,63.965,-51.270,-32.227,17.090,0.000
1709375719.064,-89.355,-61.035,-33.691,-47.852,0.000
1709375719.068,-151.367,-58.594,-34.180,-73.242,0.000
1709375719.072,-106.934,-54.688,-32.227,-51.270,0.000
1709375719.076,25.879,-47.363,-35.645,-5.859,0.000
1709375719.080,77.148,-40.527,-38.086,17.578,0.000
1709375719.084,-63.965,-52.734,-36.133,-30.762,0.000
1709375719.088,-135.254,-57.129,-33.691,-61.523,0.000
1709375719.091,-98.633,-47.852,-33.691,-57.129,0.000
1709375719.095,22.461,-43.945,-38.086,-12.207,0.000
1709375719.099,88.867,-39.062,-34.668,18.066,0.000
1709375719.103,-38.086,-45.898,-34.180,-27.344,0.000
1709375719.107,-123.047,-54.199,-37.598,-56.152,0.000
1709375719.111,-105.957,-42.969,-41.016,-64.941,0.000
1709375719.115,1.465,-30.273,-45.410,-30.273,0.000
1709375719.119,94.727,-23.438,-46.387,14.648,0.000
1709375719.123,-18.555,-32.227,-46.875,-28.320,0.000
1709375719.127,-126.953,-44.434,-52.246,-77.637,0.000
1709375719.130,-112.793,-41.992,-54.688,-76.172,0.000
1709375719.134,-12.207,-35.156,-48.828,-30.762,0.000
1709375719.138,91.309,-30.273,-47.363,14.160,0.000
1709375719.142,-2.930,-39.062,-48.828,-23.438,0.000
1709375719.146,-120.605,-49.805,-44.434,-70.801,0.000
1709375719.150,-122.559,-51.758,-41.504,-68.359,0.000
1709375719.154,-38.574,-40.039,-43.945,-40.527,0.000
1709375719.158,77.637,-30.273,-42.969,4.395,0.000
1709375719.162,4.883,-42.969,-42.480,-11.230,0.000
1709375719.166,-135.254,-50.781,-41.992,-56.641,0.000
1709375719.169,-149.414,-46.387,-40.527,-72.266,0.000
1709375719.173,-70.801,-40.527,-40.039,-47.852,0.000
1709375719.177,57.129,-41.992,-39.551,4.883,0.000
1709375719.181,25.391,-44.434,-36.133,-1.465,0.000
1709375719.185,-106.934,-46.387,-34.668,-53.223,0.000
1709375719.189,-134.277,-49.316,-33.691,-71.289,0.000
1709375719.193,-62.988,-44.922,-32.227,-48.828,0.000
1709375719.197,72.754,-39.551,-30.762,10.254,0.000
1709375719.201,51.270,-32.715,-33.203,4.395,0.000
1709375719.204,-84.961,-38.574,-31.250,-55.664,0.000
1709375719.208,-121.094,-44.922,-33.691,-72.266,0.000
1709375719.212,-75.195,-40.527,-36.133,-58.105,0.000
1709375719.216,0.000,-29.297,0.000,-6.836,0.000
1709375719.220,0.000,-27.832,0.000,0.488,0.000
1709375719.224,0.000,-43.457,0.000,-59.570,0.000
1709375719.228,0.000,-43.945,0.000,-85.449,0.000
1709375719.232,0.000,-34.668,0.000,-72.754,0.000
1709375719.236,0.000,-30.762,0.000,-22.949,0.000
1709375719.240,0.000,-34.668,0.000,2.930,0.000
1709375719.243,0.000,-40.039,0.000,-52.734,0.000
1709375719.247,0.000,-41.504,0.000,-93.750,0.000
1709375719.251,0.000,-42.969,0.000,-83.008,0.000
1709375719.255,0.000,-37.109,0.000,-22.461,0.000
1709375719.259,0.000,-31.250,0.000,14.648,0.000
1709375719.263,-58.105,-40.039,-39.062,-38.574,0.000
1709375719.266,-154.785,-50.293,-41.504,-77.148,0.000
1709375719.270,-124.023,-47.852,-41.992,-71.777,0.000
1709375719.274,-5.371,-35.156,-39.062,-25.391,0.000
1709375719.278,74.219,-25.879,-34.668,13.672,0.000
1709375719.282,-39.551,-37.109,-36.133,-33.691,0.000
1709375719.286,-127.930,-47.363,-38.086,-71.777,0.000
1709375719.290,-113.770,-38.574,-39.062,-78.125,0.000
1709375719.294,-4.883,-32.715,-39.062,-43.945,0.000
1709375719.298,93.262,-29.297,-35.645,6.836,0.000
1709375719.302,-17.090,-37.598,-39.062,-34.668,0.000
1709375719.306,-118.164,-46.387,-42.969,-76.660,0.000
1709375719.310,-114.258,-44.434,-41.992,-78.125,0.000
1709375719.314,-24.414,-42.969,-43.457,-46.387,0.000
1709375719.318,98.145,-30.762,-41.016,7.812,0.000
1709375719.322,14.648,-30.762,-36.133,-22.949,0.000
1709375719.326,-111.328,-38.574,-33.203,-72.754,0.000
1709375719.329,-116.699,-44.434,-35.645,-78.613,0.000
1709375719.333,-41.504,-42.480,-38.574,-53.223,0.000
1709375719.337,80.566,-30.273,-35.645,1.953,0.000
1709375719.341,14.648,-41.016,-41.016,-17.578,0.000
1709375719.345,-119.141,-53.711,-41.016,-64.453,0.000
1709375719.349,-137.207,-40.039,-35.645,-71.289,0.000
1709375719.353,-62.012,-29.297,-35.645,-49.805,0.000
1709375719.357,0.000,-25.879,-31.738,8.789,0.000
1709375719.361,0.000,-33.691,-30.273,-1.953,0.000
1709375719.365,0.000,-43.457,-32.715,-55.664,0.000
1709375719.369,0.000,-46.875,-31.250,-73.242,0.000
1709375719.373,0.000,-47.852,-31.738,-57.129,0.000
1709375719.377,0.000,-38.086,-33.203,-0.977,0.000
1709375719.381,0.000,-32.715,-38.086,-2.930,0.000
1709375719.385,0.000,-38.574,-41.016,-59.570,0.000
1709375719.388,0.000,-46.875,-38.574,-79.102,0.000
1709375719.392,0.000,-43.457,-36.133,-56.152,0.000
1709375719.396,0.000,-20.508,-35.156,-4.883,0.000
1709375719.400,0.000,-21.973,-36.133,-2.930,0.000
1709375719.404,-79.590,-42.969,-40.527,-66.406,0.000
1709375719.408,-143.555,-46.387,-44.434,-93.262,0.000
1709375719.412,-104.004,-40.039,-43.945,-81.543,0.000
1709375719.416,29.785,-35.156,-40.527,-23.926,0.000
1709375719.420,78.125,-35.645,-36.133,9.277,0.000
1709375719.424,-62.012,-43.457,-32.715,-38.574,0.000
1709375719.428,-138.672,-52.246,-35.156,-73.730,0.000
1709375719.432,-105.469,-48.828,-34.668,-63.477,0.000
1709375719.435,24.414,-44.922,-35.156,-10.254,0.000
1709375719.439,89.844,-37.109,-36.133,20.508,0.000
1709375719.443,-44.434,-39.062,-35.156,-30.273,0.000
1709375719.447,-124.512,-50.781,-32.715,-63.477,0.000
1709375719.451,-100.098,-52.734,-31.250,-58.594,0.000
1709375719.455,15.137,-39.551,-29.785,-16.113,0.000
1709375719.459,106.934,-28.320,-24.414,25.879,0.000
1709375719.463,-16.602,-41.992,-25.391,-17.090,0.000
1709375719.467,-123.535,-50.781,-23.438,-53.223,0.000
1709375719.471,-110.352,-48.828,-19.531,-52.734,0.000
1709375719.475,-11.719,-46.387,-26.367,-25.391,0.000
1709375719.478,90.332,-45.410,-32.715,18.555,0.000
1709375719.482,-7.812,-50.293,-34.668,-8.789,0.000
1709375719.486,-126.953,-51.270,-37.598,-64.941,0.000
1709375719.490,-125.000,-53.223,-37.598,-69.824,0.000
1709375719.494,-28.809,-45.410,-36.133,-34.668,0.000
1709375719.498,84.961,-34.668,-31.738,6.836,0.000
1709375719.502,7.324,-39.062,-28.320,-21.973,0.000
1709375719.506,-119.629,-50.293,-32.227,-72.754,0.000
1709375719.510,-134.766,-53.223,-31.250,-74.219,0.000
1709375719.514,-56.152,-45.898,-33.203,-47.363,0.000
1709375719.517,68.848,-40.039,-31.738,0.488,0.000
1709375719.521,12.695,-44.922,-37.598,-22.949,0.000
1709375719.525,-125.000,-57.129,-44.922,-73.730,0.000
1709375719.529,-146.484,-57.129,-43.945,-78.125,0.000
1709375719.533,-81.543,-46.387,-45.898,-61.035,0.000
1709375719.537,50.293,-38.574,-44.434,-2.930,0.000
1709375719.541,33.691,-41.504,-46.387,-9.277,0.000
1709375719.545,-110.352,-55.176,-47.363,-70.312,0.000
1709375719.549,-148.438,-56.152,-39.551,-83.496,0.000
1709375719.552,-87.402,-51.758,-39.062,-70.312,0.000
1709375719.556,39.551,-43.945,-38.574,-14.160,0.000
1709375719.560,39.551,-41.504,-38.574,-5.859,0.000
1709375719.564,-93.262,-54.199,-41.016,-68.359,0.000
1709375719.568,-149.902,-61.035,-44.434,-87.402,0.000
1709375719.572,-100.098,-55.664,-39.551,-58.105,0.000
1709375719.576,47.363,-37.598,-29.785,-5.859,0.000
1709375719.580,79.102,-32.227,-30.273,9.277,0.000
1709375719.584,-64.453,-43.457,-29.785,-40.527,0.000
1709375719.588,-129.395,-45.410,-28.809,-66.895,0.000
1709375719.591,-101.074,-39.551,-32.715,-58.105,0.000
1709375719.595,24.902,-31.738,-32.715,-7.812,0.000
1709375719.599,82.520,-38.574,-31.250,21.973,0.000
1709375719.603,-61.523,-49.805,-34.180,-26.855,0.000
1709375719.607,-138.184,-52.246,-35.645,-66.406,0.000
1709375719.611,-111.328,-60.547,-39.551,-62.012,0.000
1709375719.615,3.418,-59.082,-39.551,-8.301,0.000
1709375719.619,77.148,-40.527,-37.109,24.902,0.000
1709375719.622,-48.828,-40.039,-42.969,-29.785,0.000
1709375719.626,-142.578,-50.781,-42.480,-73.242,0.000
1709375719.630,-124.512,-47.363,-39.551,-67.871,0.000
1709375719.634,-13.672,-39.062,-41.016,-23.438,0.000
1709375719.638,81.055,-33.203,-35.645,13.184,0.000
1709375719.642,-26.855,-40.039,-33.203,-26.855,0.000
1709375719.646,-130.859,-48.828,-37.109,-63.965,0.000
1709375719.649,-122.070,-47.363,-39.062,-69.336,0.000
1709375719.653,-22.949,-42.969,-36.133,-36.133,0.000
1709375719.657,88.867,-39.062,-37.598,11.230,0.000
1709375719.661,-4.395,-49.805,-38.086,-10.254,0.000
1709375719.665,-125.488,-52.734,-39.062,-60.547,0.000
1709375719.669,-122.559,-48.340,-43.457,-70.801,0.000
1709375719.673,-32.715,-45.410,-42.969,-38.086,0.000
1709375719.677,94.238,-31.250,-38.574,12.207,0.000
1709375719.681,28.320,-29.785,-41.016,-7.812,0.000
1709375719.685,-100.586,-40.527,-43.945,-62.988,0.000
1709375719.689,-117.676,-47.363,-45.410,-77.637,0.000
1709375719.693,-50.781,-43.457,-45.410,-55.176,0.000
1709375719.697,73.730,-31.738,-45.898,0.488,0.000
1709375719.701,32.715,-30.762,-44.434,-8.789,0.000
1709375719.705,-105.469,-46.875,-43.457,-63.965,0.000
1709375719.709,-140.137,-44.434,-40.527,-80.078,0.000
1709375719.712,-70.801,-30.273,-44.434,-55.176,0.000
1709375719.716,63.965,-30.273,-49.316,-2.441,0.000
1709375719.720,43.945,-42.969,-42.969,0.488,0.000
1709375719.724,-102.051,-42.480,-37.109,-58.105,0.000
1709375719.728,-141.602,-39.551,-37.109,-87.402,0.000
1709375719.732,-80.078,-40.039,-32.227,-59.570,0.000
1709375719.736,66.406,-22.461,-29.297,6.836,0.000
1709375719.740,78.613,-21.484,-33.203,10.254,0.000
1709375719.744,-73.730,-37.109,-38.086,-50.781,0.000
1709375719.748,-129.395,-40.039,-39.062,-73.242,0.000
1709375719.752,-83.984,-40.527,-38.086,-62.988,0.000
1709375719.756,52.734,-30.762,-32.715,-10.742,0.000
1709375719.760,87.891,-22.461,-32.715,8.789,0.000
1709375719.764,-57.617,-41.016,-35.156,-44.434,0.000
1709375719.768,-127.930,-50.293,-32.227,-56.641,0.000
1709375719.771,-99.609,-40.039,-30.762,-53.223,0.000
1709375719.775,29.785,-35.645,-30.762,-7.812,0.000
1709375719.779,100.098,-31.250,-28.320,21.973,0.000
1709375719.783,-30.762,-40.039,-30.762,-35.156,0.000
1709375719.787,-116.699,-44.434,-30.273,-67.871,0.000
1709375719.791,-103.516,-42.969,-31.738,-63.965,0.000
1709375719.795,2.930,-41.016,-37.109,-20.996,0.000
1709375719.799,80.566,-33.691,-34.668,16.113,0.000
1709375719.803,-41.016,-38.574,-36.621,-31.738,0.000
1709375719.807,-130.859,-44.434,-35.645,-67.383,0.000
1709375719.811,-110.840,-49.316,-31.250,-53.711,0.000
1709375719.815,-4.395,-37.598,-33.691,-16.602,0.000
1709375719.818,96.680,-19.531,-30.762,21.484,0.000
1709375719.822,-11.719,-27.344,-26.367,-26.367,0.000
1709375719.826,-123.535,-33.691,-29.297,-67.383,0.000
1709375719.830,-119.141,-32.227,-29.785,-61.035,0.000
1709375719.834,-24.414,-22.461,-32.227,-30.762,0.000
1709375719.838,88.379,-18.066,-31.250,11.230,0.000
1709375719.842,2.930,-29.297,-32.227,-22.461,0.000
1709375719.846,-111.816,-39.062,-38.086,-67.871,0.000
1709375719.850,-121.094,-39.062,-39.551,-72.754,0.000
1709375719.854,-42.480,-36.621,-41.504,-42.969,0.000
1709375719.858,88.379,-34.180,-40.527,22.949,0.000
1709375719.861,24.902,-28.809,-43.457,-4.395,0.000
1709375719.865,-110.352,-32.715,-46.387,-67.383,0.000
1709375719.869,-123.535,-40.527,-43.457,-68.359,0.000
1709375719.873,-56.152,-36.621,-45.898,-44.922,0.000
1709375719.877,68.848,-25.391,-47.852,5.371,0.000
1709375719.881,33.203,-32.227,-42.969,-2.441,0.000
1709375719.885,-101.074,-46.387,-40.527,-59.082,0.000
1709375719.889,-131.348,-48.828,-42.969,-79.590,0.000
1709375719.893,-70.801,-43.945,-46.387,-59.570,0.000
1709375719.897,70.801,-32.715,-40.527,-2.441,0.000
1709375719.900,55.664,-34.180,-36.133,9.766,0.000
1709375719.904,-92.773,-47.852,-41.504,-41.016,0.000
1709375719.908,-127.441,-45.410,-42.480,-71.777,0.000
1709375719.912,-75.684,-43.457,-37.109,-55.176,0.000
1709375719.916,52.734,-40.527,-35.156,-1.953,0.000
1709375719.920,69.824,-31.250,-31.250,15.625,0.000
1709375719.924,-65.918,-34.180,-28.809,-39.551,0.000
1709375719.928,-126.465,-47.852,-32.227,-66.406,0.000
1709375719.931,-87.402,-49.316,-34.668,-56.152,0.000
1709375719.935,43.945,-37.109,-35.645,-7.812,0.000
1709375719.939,81.543,-35.156,-27.832,21.484,0.000
1709375719.943,-58.105,-44.922,-23.926,-26.855,0.000
1709375719.947,-127.930,-50.293,-33.203,-60.059,0.000
1709375719.951,-96.191,-41.992,-36.133,-56.641,0.000
1709375719.955,30.762,-30.273,-31.738,-9.766,0.000
1709375719.959,99.609,-28.809,-30.273,21.973,0.000
1709375719.963,-35.645,-35.156,-31.250,-32.715,0.000
1709375719.966,-125.488,-37.109,-33.691,-73.242,0.000
1709375719.970,-112.305,-40.039,-38.574,-72.754,0.000
1709375719.974,-4.395,-37.598,-40.527,-36.621,0.000
1709375719.978,85.449,-22.461,-40.039,0.977,0.000
1709375719.982,-26.855,-21.484,-40.039,-40.527,0.000
1709375719.986,-128.906,-31.738,-41.992,-87.402,0.000
1709375719.990,-123.535,-39.551,-41.504,-81.055,0.000
1709375719.994,-30.273,-39.551,-41.992,-43.945,0.000
1709375719.998,65.430,-30.273,-41.992,-5.371,0.000
1709375720.001,-32.227,-39.551,-37.109,-28.320,0.000
1709375720.005,-143.555,-47.852,-35.156,-67.871,0.000
1709375720.009,-141.602,-41.992,-39.062,-76.660,0.000
1709375720.013,-46.387,-35.156,-40.039,-40.527,0.000
1709375720.017,71.289,-29.297,-36.621,9.766,0.000
1709375720.021,-6.348,-35.645,-38.574,-23.438,0.000
1709375720.024,-132.324,-44.434,-43.457,-75.684,0.000
1709375720.028,-143.066,-46.875,-47.852,-86.914,0.000
1709375720.032,-52.246,-47.852,-41.504,-48.828,0.000
1709375720.036,78.125,-44.434,-37.109,18.555,0.000
1709375720.040,29.297,-34.668,-37.598,-4.883,0.000
1709375720.044,-89.844,-38.574,-35.156,-55.664,0.000
1709375720.048,-117.676,-45.898,-40.039,-66.406,0.000
1709375720.052,-66.406,-43.457,-43.457,-54.688,0.000
1709375720.056,70.312,-32.227,-40.039,4.883,0.000
1709375720.060,60.059,-30.273,-43.457,12.207,0.000
1709375720.064,-75.684,-38.086,-42.480,-36.133,0.000
1709375720.068,-117.676,-39.062,-40.527,-60.059,0.000
1709375720.072,-65.918,-34.668,-44.922,-45.410,0.000
1709375720.076,75.195,-23.926,-41.016,12.207,0.000
1709375720.080,77.148,-30.762,-37.109,14.160,0.000
1709375720.084,-71.777,-44.434,-43.457,-44.922,0.000
1709375720.087,-121.094,-46.875,-42.969,-70.801,0.000
1709375720.091,-77.637,-49.805,-38.086,-57.129,0.000
1709375720.095,58.105,-41.504,-36.621,7.812,0.000
1709375720.099,80.566,-32.715,-38.086,20.508,0.000
1709375720.103,-67.871,-42.969,-40.039,-44.434,0.000
1709375720.107,-130.859,-50.293,-37.598,-70.312,0.000
1709375720.111,-97.168,-47.852,-34.668,-49.805,0.000
1709375720.115,31.250,-41.016,-33.691,5.371,0.000
1709375720.119,78.613,-38.574,-34.668,20.020,0.000
1709375720.123,-58.105,-44.922,-34.668,-32.715,0.000
1709375720.127,-126.465,-50.781,-30.762,-57.129,0.000
1709375720.131,-96.680,-45.898,-26.367,-53.711,0.000
1709375720.135,24.414,-34.180,-28.809,-14.160,0.000
1709375720.139,104.492,-32.715,-29.297,23.438,0.000
1709375720.142,-25.879,-46.875,-32.227,-16.113,0.000
1709375720.146,-129.883,-45.898,-35.156,-66.406,0.000
1709375720.150,-119.629,-44.922,-38.086,-71.289,0.000
1709375720.154,-11.719,-42.969,-42.969,-29.297,0.000
1709375720.158,83.984,-31.250,-41.992,11.719,0.000
1709375720.162,-23.438,-35.156,-35.645,-28.809,0.000
1709375720.166,-131.836,-45.410,-41.016,-77.637,0.000
1709375720.170,-124.023,-49.316,-41.992,-78.613,0.000
1709375720.174,-20.020,-42.480,-40.527,-40.527,0.000
1709375720.178,94.238,-31.738,-41.992,10.742,0.000
1709375720.182,1.953,-41.016,-41.504,-25.879,0.000
1709375720.186,-120.117,-52.246,-42.969,-72.754,0.000
1709375720.190,-124.023,-45.410,-38.574,-66.895,0.000
1709375720.193,-41.504,-31.250,-39.062,-41.016,0.000
1709375720.197,85.938,-26.367,-37.598,6.348,0.000
1709375720.201,21.484,-36.133,-39.062,-14.160,0.000
1709375720.205,-113.770,-40.527,-41.016,-66.895,0.000
1709375720.209,-126.465,-42.480,-42.480,-80.078,0.000
1709375720.213,-50.781,-40.039,-46.875,-50.293,0.000
1709375720.217,73.730,-29.297,-46.875,0.977,0.000
1709375720.221,30.762,-33.203,-41.992,-8.789,0.000
1709375720.225,-106.445,-44.922,-42.480,-61.523,0.000
1709375720.229,-134.766,-51.758,-43.457,-74.219,0.000
1709375720.233,-70.801,-52.246,-37.598,-41.016,0.000
1709375720.236,62.500,-34.668,-39.551,6.348,0.000
1709375720.240,37.109,-38.574,-43.457,0.000,0.000
1709375720.244,-104.492,-51.758,-43.945,-59.082,0.000
1709375720.248,-137.207,-54.199,-42.969,-81.543,0.000
1709375720.252,-92.285,-50.781,-43.457,-66.406,0.000
1709375720.256,46.387,-42.480,-43.945,-14.648,0.000
1709375720.260,62.012,-44.922,-39.551,-2.930,0.000
1709375720.264,-82.031,-46.875,-38.574,-61.523,0.000
1709375720.268,-131.836,-49.805,-39.062,-87.891,0.000
1709375720.272,-98.145,-51.758,-39.551,-80.078,0.000
1709375720.275,35.156,-48.828,-44.434,-25.391,0.000
1709375720.279,64.453,-41.992,-42.480,4.395,0.000
1709375720.283,-82.031,-41.504,-37.598,-51.270,0.000
1709375720.287,-143.555,-49.805,-39.062,-79.102,0.000
1709375720.291,-105.957,-45.410,-38.574,-69.336,0.000
