timestamps,TP9,AF7,AF8,TP10,Right AUX
1709375753.103,0.000,-44.434,-36.133,-72.266,0.000
1709375753.107,0.000,-46.875,-41.992,-60.059,0.000
1709375753.111,0.000,-38.574,-42.480,-8.789,0.000
1709375753.115,0.000,-39.062,-42.480,2.441,0.000
1709375753.119,0.000,-50.781,-43.945,-46.875,0.000
1709375753.123,0.000,-53.223,-43.457,-77.637,0.000
1709375753.127,0.000,-50.781,-44.434,-59.570,0.000
1709375753.131,0.000,-34.180,-42.480,-7.812,0.000
1709375753.134,0.000,-28.809,-37.109,-3.906,0.000
1709375753.138,0.000,-43.457,-40.527,-55.664,0.000
1709375753.142,0.000,-51.270,-40.527,-87.402,0.000
1709375753.146,0.000,-46.875,-35.645,-77.637,0.000
1709375753.151,25.879,-39.062,-38.574,-18.066,0.000
1709375753.154,74.219,-41.504,-36.621,7.324,0.000
1709375753.158,-46.875,-45.410,-29.785,-37.598,0.000
1709375753.162,-118.652,-44.922,-33.691,-61.523,0.000
1709375753.166,-97.168,-43.945,-34.180,-49.316,0.000
1709375753.170,21.484,-43.457,-33.203,-2.441,0.000
1709375753.174,86.426,-35.645,-32.715,31.738,0.000
1709375753.178,-44.434,-40.039,-30.762,-17.578,0.000
1709375753.182,-133.301,-50.781,-30.273,-65.430,0.000
1709375753.186,-115.234,-49.805,-35.156,-61.523,0.000
1709375753.190,-4.883,-36.621,-34.668,-20.996,0.000
1709375753.193,92.285,-25.879,-29.785,19.043,0.000
1709375753.198,-15.625,-34.668,-31.738,-18.555,0.000
1709375753.202,-117.188,-41.504,-26.855,-63.965,0.000
1709375753.206,-106.445,-41.504,-30.762,-68.848,0.000
1709375753.209,-9.766,-35.645,-37.598,-33.691,0.000
1709375753.213,93.262,-30.273,-33.203,15.137,0.000
1709375753.217,2.930,-39.062,-31.738,-14.160,0.000
1709375753.221,-106.445,-42.480,-30.762,-58.105,0.000
1709375753.225,-110.352,-41.504,-32.715,-63.477,0.000
1709375753.229,-25.879,-44.434,-32.227,-32.227,0.000
1709375753.233,96.680,-41.016,-28.320,26.367,0.000
1709375753.237,27.832,-35.645,-28.809,-1.953,0.000
1709375753.241,-99.121,-41.504,-30.762,-57.617,0.000
1709375753.245,-116.699,-46.875,-32.227,-70.312,0.000
1709375753.249,-49.805,-40.527,-29.297,-42.969,0.000
1709375753.253,71.777,-31.250,-32.227,11.230,0.000
1709375753.256,26.855,-35.645,-37.109,-2.930,0.000
1709375753.260,-104.004,-47.852,-34.668,-52.246,0.000
1709375753.264,-125.000,-45.410,-36.621,-67.383,0.000
1709375753.268,-57.129,-38.086,-37.598,-48.340,0.000
1709375753.272,77.148,-34.668,-37.109,3.418,0.000
1709375753.276,51.758,-43.457,-38.574,2.930,0.000
1709375753.280,-97.656,-51.758,-43.945,-60.059,0.000
1709375753.284,-133.301,-46.875,-41.016,-88.379,0.000
1709375753.288,-75.195,-45.898,-38.574,-67.871,0.000
1709375753.292,54.199,-40.527,-40.527,-13.672,0.000
1709375753.296,59.082,-36.621,-41.992,-8.301,0.000
1709375753.299,-83.984,-45.410,-44.922,-64.941,0.000
1709375753.303,-142.578,-46.875,-46.875,-89.844,0.000
1709375753.307,-91.797,-35.156,-38.086,-73.242,0.000
1709375753.311,46.387,-25.391,-30.762,-13.184,0.000
1709375753.315,71.777,-28.809,-36.621,-0.488,0.000
1709375753.319,-66.895,-41.016,-38.574,-54.199,0.000
1709375753.323,-132.812,-53.711,-38.574,-71.777,0.000
1709375753.327,-103.516,-44.922,-41.016,-66.895,0.000
1709375753.331,17.578,-31.738,-41.992,-20.996,0.000
1709375753.335,68.848,-34.180,-42.480,7.324,0.000
1709375753.338,-68.359,-44.434,-43.457,-49.805,0.000
1709375753.342,-146.973,-42.969,-44.922,-85.938,0.000
1709375753.346,-123.535,-42.969,-42.969,-77.637,0.000
1709375753.350,-6.836,-39.551,-36.621,-28.809,0.000
1709375753.354,77.148,-30.273,-35.156,12.207,0.000
1709375753.358,-44.922,-44.434,-37.598,-28.809,0.000
1709375753.362,-145.996,-53.711,-35.645,-66.406,0.000
1709375753.366,-130.371,-56.152,-31.250,-60.059,0.000
1709375753.370,-20.020,-48.340,-29.785,-17.578,0.000
1709375753.374,80.078,-34.180,-32.715,18.555,0.000
1709375753.378,-12.695,-40.039,-29.785,-19.531,0.000
1709375753.381,-112.793,-47.852,-25.879,-55.176,0.000
1709375753.385,-115.234,-42.480,-31.250,-55.664,0.000
1709375753.389,-26.855,-36.621,-32.227,-29.785,0.000
1709375753.393,88.867,-38.574,-33.691,11.719,0.000
1709375753.397,3.418,-42.480,-36.621,-16.113,0.000
1709375753.401,-118.652,-47.363,-34.668,-61.523,0.000
1709375753.405,-126.465,-52.734,-41.992,-74.219,0.000
1709375753.409,-50.293,-55.176,-43.457,-51.270,0.000
1709375753.412,71.777,-50.781,-38.086,16.113,0.000
1709375753.416,11.719,-41.992,-40.039,-2.441,0.000
1709375753.420,-122.559,-46.387,-41.016,-64.941,0.000
1709375753.424,-141.113,-55.176,-43.945,-78.613,0.000
1709375753.428,-71.289,-44.922,-44.922,-52.734,0.000
1709375753.432,59.570,-32.227,-40.527,2.930,0.000
1709375753.436,32.227,-36.133,-39.062,-6.348,0.000
1709375753.439,-105.957,-45.898,-38.574,-60.547,0.000
1709375753.443,-142.578,-47.852,-37.109,-79.590,0.000
1709375753.447,-80.566,-41.016,-36.621,-55.176,0.000
1709375753.451,58.105,-29.785,-37.598,5.371,0.000
1709375753.455,59.082,-36.621,-36.133,13.184,0.000
1709375753.459,-83.496,-44.434,-38.086,-36.133,0.000
1709375753.463,-137.695,-39.062,-39.062,-68.359,0.000
1709375753.467,-96.680,-42.480,-37.598,-58.105,0.000
1709375753.471,37.109,-34.668,-35.645,-4.395,0.000
1709375753.475,59.570,-28.809,-33.203,7.812,0.000
1709375753.478,0.000,-41.992,-33.691,-43.457,0.000
1709375753.482,0.000,-46.875,-35.156,-70.801,0.000
1709375753.486,0.000,-46.387,-38.574,-68.359,0.000
1709375753.490,0.000,-34.668,-39.062,-15.137,0.000
1709375753.494,0.000,-29.297,-33.203,11.230,0.000
1709375753.498,0.000,-41.992,-33.203,-42.480,0.000
1709375753.502,0.000,-50.293,-36.133,-62.988,0.000
1709375753.505,0.000,-43.945,-36.133,-60.059,0.000
1709375753.509,0.000,-37.598,-37.598,-19.043,0.000
1709375753.513,0.000,-40.039,-36.621,20.020,0.000
1709375753.517,0.000,-46.875,-30.762,-21.484,0.000
1709375753.521,0.000,-49.805,-29.297,-60.059,0.000
1709375753.525,-89.355,-47.363,-28.320,-55.664,0.000
1709375753.529,12.695,-44.434,-27.832,-15.625,0.000
1709375753.533,99.121,-40.527,-31.738,18.066,0.000
1709375753.537,-9.766,-43.457,-32.715,-15.137,0.000
1709375753.541,-108.887,-45.898,-32.227,-52.734,0.000
1709375753.545,-98.633,-53.711,-33.203,-56.152,0.000
1709375753.549,-14.648,-45.410,-31.738,-22.461,0.000
1709375753.553,92.773,-31.250,-30.273,28.809,0.000
1709375753.557,8.301,-42.480,-30.273,0.488,0.000
1709375753.561,-105.957,-48.828,-25.879,-40.527,0.000
1709375753.565,-101.562,-41.504,-22.461,-36.133,0.000
1709375753.568,-23.926,-39.062,-25.879,-14.648,0.000
1709375753.573,91.797,-34.180,-24.414,30.273,0.000
1709375753.577,24.414,-37.598,-23.438,10.254,0.000
1709375753.580,-107.910,-41.504,-25.879,-50.781,0.000
1709375753.584,-119.141,-44.922,-33.691,-71.289,0.000
1709375753.588,-45.410,-44.922,-39.062,-40.527,0.000
1709375753.592,81.055,-35.645,-32.715,8.301,0.000
1709375753.596,41.016,-33.691,-35.645,-8.789,0.000
1709375753.600,-95.215,-41.504,-37.598,-58.105,0.000
1709375753.604,-123.535,-48.340,-35.156,-67.871,0.000
1709375753.608,-65.430,-50.293,-39.062,-37.109,0.000
1709375753.612,71.777,-35.156,-37.598,12.695,0.000
1709375753.616,64.941,-33.203,-36.133,9.277,0.000
1709375753.620,-76.660,-45.410,-38.574,-40.527,0.000
1709375753.624,-125.000,-47.852,-42.480,-66.406,0.000
1709375753.628,-78.125,-45.410,-45.410,-61.523,0.000
1709375753.631,57.129,-35.156,-40.039,-5.371,0.000
1709375753.635,64.453,-35.156,-36.133,8.789,0.000
1709375753.639,-85.449,-46.875,-37.109,-51.758,0.000
1709375753.643,-144.531,-49.805,-36.621,-78.613,0.000
1709375753.647,-98.633,-48.828,-39.551,-71.289,0.000
1709375753.651,36.133,-48.340,-43.945,-18.555,0.000
1709375753.655,71.777,-41.992,-42.969,2.441,0.000
1709375753.659,-59.570,-36.621,-36.621,-53.711,0.000
1709375753.663,-129.395,-39.551,-38.574,-78.613,0.000
1709375753.667,-100.098,-44.434,-41.016,-63.477,0.000
1709375753.671,22.461,-35.156,-38.086,-16.113,0.000
1709375753.674,85.449,-29.785,-36.621,14.648,0.000
1709375753.678,-40.039,-42.480,-39.551,-30.762,0.000
1709375753.682,-120.605,-51.270,-41.016,-72.266,0.000
1709375753.686,-96.680,-51.270,-36.621,-68.359,0.000
1709375753.690,11.719,-41.992,-37.109,-19.043,0.000
1709375753.694,90.332,-37.109,-36.133,22.461,0.000
1709375753.698,-22.461,-53.223,-33.203,-4.395,0.000
1709375753.702,-118.652,-51.758,-28.320,-49.805,0.000
1709375753.706,-103.027,-44.434,-21.973,-61.523,0.000
1709375753.710,-0.977,-43.945,-28.320,-30.762,0.000
1709375753.713,94.727,-39.551,-33.203,10.742,0.000
1709375753.717,-10.254,-42.969,-30.273,-19.531,0.000
1709375753.721,-123.535,-49.805,-33.203,-62.012,0.000
1709375753.725,-123.047,-50.293,-34.180,-66.895,0.000
1709375753.729,-30.762,-38.086,-28.320,-39.551,0.000
1709375753.733,84.961,-30.762,-30.762,9.766,0.000
1709375753.737,0.977,-41.992,-35.156,-22.461,0.000
1709375753.741,-120.117,-52.246,-35.156,-64.941,0.000
1709375753.745,-124.512,-43.945,-35.645,-62.500,0.000
1709375753.749,-49.805,-30.762,-36.133,-43.945,0.000
1709375753.752,75.195,-28.809,-36.621,2.930,0.000
1709375753.756,29.297,-32.715,-36.133,-7.324,0.000
1709375753.760,-103.516,-38.086,-39.062,-64.453,0.000
1709375753.764,-131.836,-38.574,-35.645,-77.637,0.000
1709375753.768,-61.035,-36.621,-35.645,-52.734,0.000
1709375753.772,71.777,-28.809,-41.504,-1.465,0.000
1709375753.776,39.062,-31.250,-38.574,-2.441,0.000
1709375753.780,-102.051,-48.828,-40.039,-53.711,0.000
1709375753.784,-133.301,-47.363,-39.551,-67.383,0.000
1709375753.787,-76.172,-42.480,-38.574,-44.434,0.000
1709375753.791,47.363,-28.809,-38.086,-2.441,0.000
1709375753.795,44.922,-28.320,-41.016,0.000,0.000
1709375753.799,-89.355,-40.039,-41.992,-53.223,0.000
1709375753.803,-140.625,-37.109,-37.598,-80.566,0.000
1709375753.807,-90.820,-32.715,-37.109,-61.523,0.000
1709375753.811,42.480,-27.832,-37.109,-5.371,0.000
1709375753.814,59.082,-36.133,-40.039,6.348,0.000
1709375753.818,-78.125,-42.969,-41.016,-52.734,0.000
1709375753.822,-131.836,-41.504,-40.039,-85.449,0.000
1709375753.826,-92.773,-45.410,-42.969,-75.195,0.000
1709375753.830,42.969,-36.621,-41.992,-7.324,0.000
1709375753.834,93.262,-27.344,-34.668,25.391,0.000
1709375753.838,-50.293,-32.227,-33.203,-32.227,0.000
1709375753.842,-123.047,-39.062,-34.668,-60.547,0.000
1709375753.846,-88.867,-39.062,-35.645,-48.828,0.000
1709375753.850,29.297,-24.414,-32.227,-1.465,0.000
1709375753.853,98.145,-18.555,-29.785,32.227,0.000
1709375753.857,-34.180,-37.109,-36.133,-20.508,0.000
1709375753.861,-133.301,-52.734,-39.062,-61.523,0.000
1709375753.865,-108.887,-43.457,-37.109,-61.035,0.000
1709375753.869,1.465,-29.297,-32.715,-24.902,0.000
1709375753.873,90.820,-30.273,-30.273,13.672,0.000
1709375753.877,-10.742,-43.945,-34.180,-20.508,0.000
1709375753.880,-112.305,-43.457,-40.039,-61.523,0.000
1709375753.884,-117.188,-39.062,-33.691,-68.848,0.000
1709375753.888,-37.598,-40.039,-22.461,-40.039,0.000
1709375753.892,63.965,-36.621,-18.066,4.883,0.000
1709375753.896,-25.879,-48.828,-16.113,-33.203,0.000
1709375753.899,-145.508,-70.312,-12.695,-79.590,0.000
1709375753.903,-156.250,-82.031,-9.766,-86.426,0.000
1709375753.907,-87.891,-87.402,-4.395,-74.707,0.000
1709375753.911,21.973,-83.008,4.883,-18.555,0.000
1709375753.915,-41.504,-89.355,9.766,-36.133,0.000
1709375753.919,-172.852,-110.840,9.277,-97.168,0.000
1709375753.923,-197.754,-117.188,11.230,-114.258,0.000
1709375753.927,-135.254,-111.816,15.137,-91.797,0.000
1709375753.931,-2.441,-109.375,16.113,-41.016,0.000
1709375753.935,-35.156,-123.047,20.020,-42.480,0.000
1709375753.938,-179.688,-131.348,18.066,-94.238,0.000
1709375753.942,-213.867,-130.371,18.555,-115.234,0.000
1709375753.947,-150.391,-133.301,25.879,-84.473,0.000
1709375753.951,-9.766,-132.812,26.367,-22.949,0.000
1709375753.954,-10.742,-130.859,24.414,-18.555,0.000
1709375753.958,-145.020,-137.207,24.902,-66.895,0.000
1709375753.962,-175.781,-144.531,30.273,-74.707,0.000
1709375753.966,-110.352,-145.020,30.762,-46.875,0.000
1709375753.970,41.992,-133.301,27.832,22.461,0.000
1709375753.974,65.430,-128.906,28.809,44.922,0.000
1709375753.978,-67.871,-138.184,26.367,1.953,0.000
1709375753.982,-121.582,-139.648,20.996,-9.766,0.000
1709375753.986,-75.195,-123.047,15.625,9.277,0.000
1709375753.990,72.754,-105.957,14.160,74.707,0.000
1709375753.994,117.676,-102.051,12.695,104.980,0.000
1709375753.998,-10.254,-105.957,9.277,58.594,0.000
1709375754.002,-69.336,-106.445,5.371,17.578,0.000
1709375754.006,-32.227,-96.680,1.953,32.227,0.000
1709375754.009,98.145,-86.426,2.441,95.215,0.000
1709375754.013,165.527,-85.449,0.000,126.465,0.000
1709375754.017,31.738,-89.844,-1.953,78.125,0.000
1709375754.021,-50.293,-93.262,0.977,40.527,0.000
1709375754.025,-29.297,-94.727,-7.324,47.852,0.000
1709375754.029,86.914,-75.684,-15.625,98.145,0.000
1709375754.033,184.570,-62.012,-13.184,125.488,0.000
1709375754.037,63.965,-68.359,-14.160,72.266,0.000
1709375754.041,-46.387,-71.289,-18.066,26.855,0.000
1709375754.045,-45.410,-66.406,-18.555,19.531,0.000
1709375754.049,53.711,-54.688,-21.484,55.176,0.000
1709375754.053,153.320,-51.758,-23.926,93.262,0.000
1709375754.056,54.199,-60.547,-25.391,53.223,0.000
1709375754.060,-59.082,-65.918,-29.297,5.859,0.000
1709375754.064,-59.082,-57.129,-30.762,-5.371,0.000
1709375754.068,25.391,-54.688,-30.273,20.996,0.000
1709375754.072,127.441,-58.105,-33.691,80.566,0.000
1709375754.076,50.293,-52.734,-37.598,48.340,0.000
1709375754.080,-67.383,-51.270,-38.086,-10.254,0.000
1709375754.084,-85.449,-52.246,-40.527,-21.484,0.000
1709375754.088,-2.441,-45.898,-43.457,0.977,0.000
1709375754.092,122.559,-35.645,-39.551,51.270,0.000
1709375754.095,68.848,-36.621,-35.156,36.133,0.000
1709375754.099,-64.453,-41.992,-34.180,-15.625,0.000
1709375754.103,-95.215,-46.387,-39.062,-33.691,0.000
1709375754.107,-23.438,-42.969,-41.016,-6.836,0.000
1709375754.111,106.934,-30.762,-41.992,45.898,0.000
1709375754.115,77.148,-33.203,-41.504,36.133,0.000
1709375754.119,-57.617,-38.086,-42.480,-12.207,0.000
1709375754.123,-100.098,-35.156,-45.898,-45.410,0.000
1709375754.127,-51.758,-38.086,-41.992,-35.645,0.000
1709375754.131,82.031,-34.180,-35.156,27.344,0.000
1709375754.135,77.637,-34.180,-36.621,27.832,0.000
1709375754.138,-62.988,-38.086,-41.016,-32.227,0.000
1709375754.142,-109.863,-41.504,-39.551,-50.781,0.000
1709375754.146,-71.289,-41.992,-40.039,-35.645,0.000
1709375754.150,57.617,-33.203,-41.016,15.625,0.000
1709375754.154,85.938,-30.762,-41.992,33.203,0.000
1709375754.158,-48.828,-39.062,-40.527,-21.484,0.000
1709375754.162,-111.328,-49.805,-41.016,-43.945,0.000
1709375754.166,-76.660,-41.016,-39.551,-38.574,0.000
1709375754.170,57.129,-25.879,-32.227,4.883,0.000
1709375754.174,113.281,-27.344,-32.715,37.109,0.000
1709375754.177,-27.832,-38.574,-40.039,-15.137,0.000
1709375754.181,-113.770,-41.504,-40.527,0.000,0.000
1709375754.185,-96.191,-39.551,-38.574,0.000,0.000
1709375754.189,23.926,-31.250,-36.621,0.000,0.000
1709375754.193,114.746,-20.996,-35.156,0.000,0.000
1709375754.197,1.465,-30.273,-38.086,0.000,0.000
1709375754.201,-96.680,-36.133,-40.527,0.000,0.000
1709375754.205,-84.473,-35.645,-37.598,0.000,0.000
1709375754.209,25.879,-24.902,-34.668,0.000,0.000
1709375754.213,113.281,-12.695,-35.156,0.000,0.000
1709375754.216,0.000,-25.391,-38.086,0.000,0.000
1709375754.220,-104.492,-34.180,-38.086,0.000,0.000
1709375754.224,-103.516,-35.156,-38.086,0.000,0.000
1709375754.228,-14.648,-28.809,-36.621,-27.344,0.000
1709375754.232,97.656,-20.996,-38.086,21.973,0.000
1709375754.236,11.719,-35.156,-37.598,-6.836,0.000
1709375754.239,-114.258,-46.875,-34.668,-63.477,0.000
1709375754.243,-119.141,-44.922,-39.062,-72.266,0.000
1709375754.247,-36.621,-41.992,-36.621,-36.621,0.000
1709375754.251,82.031,-41.016,-30.273,26.367,0.000
1709375754.255,28.809,-34.668,-30.273,3.418,0.000
1709375754.259,-102.051,-40.527,-31.738,-53.711,0.000
1709375754.263,-127.441,-46.387,-33.203,-62.012,0.000
1709375754.267,-57.617,-41.504,-33.691,-40.527,0.000
1709375754.271,82.520,-27.344,-32.227,19.531,0.000
1709375754.275,46.875,-26.855,-29.785,11.719,0.000
1709375754.278,-96.191,-44.434,-33.203,-46.875,0.000
1709375754.282,-124.512,-49.805,-42.969,-59.082,0.000
1709375754.286,-76.172,-43.945,-42.969,-39.551,0.000
1709375754.290,54.199,-31.250,-29.785,10.742,0.000
1709375754.294,58.594,-36.133,-24.414,8.789,0.000
1709375754.298,-67.871,-44.922,-24.414,-37.109,0.000
1709375754.302,-116.211,-47.363,-25.391,-51.270,0.000
1709375754.306,-79.590,-50.293,-32.715,-44.434,0.000
1709375754.310,59.570,-41.504,-31.738,14.160,0.000
1709375754.314,82.031,-34.668,-26.367,25.879,0.000
1709375754.317,-58.594,-41.504,-26.855,-38.574,0.000
1709375754.322,0.000,-48.828,0.000,-63.477,0.000
1709375754.326,0.000,-47.852,0.000,-54.199,0.000
1709375754.330,0.000,-37.109,0.000,-9.766,0.000
1709375754.334,0.000,-33.691,0.000,16.113,0.000
1709375754.338,0.000,-44.922,0.000,-27.344,0.000
1709375754.342,0.000,-56.641,0.000,-60.059,0.000
1709375754.345,0.000,-48.828,0.000,-51.270,0.000
1709375754.349,0.000,-31.738,0.000,-3.418,0.000
1709375754.353,0.000,-30.273,0.000,33.203,0.000
1709375754.357,0.000,-42.969,0.000,-13.672,0.000
1709375754.361,0.000,-48.340,0.000,-62.988,0.000
1709375754.365,0.000,-45.410,0.000,-60.547,0.000
1709375754.369,15.137,-39.062,-41.504,-16.602,0.000
1709375754.373,103.516,-30.762,-38.086,26.855,0.000
1709375754.377,-7.812,-37.109,-41.504,-12.695,0.000
1709375754.381,-110.352,-44.922,-37.109,-60.547,0.000
1709375754.385,-99.609,-46.875,-32.715,-57.129,0.000
1709375754.389,-4.395,-41.016,-35.645,-12.207,0.000
1709375754.393,87.891,-33.203,-36.621,27.344,0.000
1709375754.396,-1.465,-40.039,-38.086,-11.719,0.000
1709375754.400,-108.398,-54.199,-38.574,-50.781,0.000
1709375754.404,-114.746,-54.199,-38.574,-52.246,0.000
1709375754.408,-28.320,-42.480,-37.109,-24.414,0.000
1709375754.412,97.168,-35.156,-32.227,29.297,0.000
1709375754.416,25.879,-44.922,-31.738,8.301,0.000
1709375754.420,-102.539,-51.758,-32.715,-48.828,0.000
1709375754.424,-116.211,-48.340,-31.738,-60.547,0.000
1709375754.428,-45.898,-48.340,-37.109,-37.109,0.000
1709375754.432,85.449,-43.457,-32.715,21.973,0.000
1709375754.436,40.039,-41.504,-27.344,10.254,0.000
1709375754.440,-90.820,-52.734,-34.668,-52.734,0.000
1709375754.444,-111.328,-51.270,-37.109,-62.988,0.000
1709375754.447,-57.617,-48.340,-37.598,-32.715,0.000
1709375754.451,64.941,-31.250,-36.621,12.695,0.000
1709375754.455,50.293,-28.809,-36.133,3.418,0.000
1709375754.459,-82.520,-46.387,-34.668,-44.434,0.000
1709375754.463,0.000,-48.340,0.000,-68.848,0.000
1709375754.467,0.000,-41.504,0.000,-57.617,0.000
1709375754.471,0.000,-31.738,0.000,4.395,0.000
1709375754.475,0.000,-33.691,0.000,9.766,0.000
1709375754.479,0.000,-41.504,0.000,-44.922,0.000
1709375754.483,0.000,-42.969,0.000,-68.848,0.000
1709375754.487,0.000,-36.621,0.000,-65.918,0.000
1709375754.490,0.000,-31.738,0.000,-11.230,0.000
1709375754.494,0.000,-31.738,0.000,19.043,0.000
1709375754.498,0.000,-34.668,0.000,-44.922,0.000
1709375754.502,0.000,-43.457,0.000,-84.473,0.000
1709375754.506,0.000,-47.363,0.000,-78.125,0.000
1709375754.510,17.578,-36.621,-49.805,-29.297,0.000
1709375754.514,68.848,-34.180,-45.410,-4.395,0.000
1709375754.518,-62.988,-49.316,-41.504,-54.688,0.000
1709375754.522,-141.113,-54.688,-41.992,-87.402,0.000
1709375754.526,-120.117,-51.270,-43.457,-82.031,0.000
1709375754.530,2.930,-46.387,-38.574,-38.086,0.000
1709375754.534,77.637,-43.457,-38.574,0.488,0.000
1709375754.538,-45.410,-53.711,-48.828,-32.227,0.000
1709375754.541,-132.812,-47.363,-47.363,-70.312,0.000
1709375754.545,-114.258,-40.527,-40.039,-73.242,0.000
1709375754.549,-7.812,-41.016,-39.062,-33.203,0.000
1709375754.553,96.191,-34.180,-38.574,11.230,0.000
1709375754.557,-11.719,-40.039,-38.086,-34.180,0.000
1709375754.561,-131.348,-46.387,-39.551,-80.566,0.000
1709375754.565,-129.883,-51.270,-39.062,-79.102,0.000
1709375754.569,-35.156,-47.852,-36.133,-47.852,0.000
1709375754.573,77.148,-37.598,-37.109,2.441,0.000
1709375754.577,-8.301,-43.945,-38.086,-26.367,0.000
1709375754.580,-121.582,-52.246,-40.527,-69.336,0.000
1709375754.584,-115.723,-49.805,-41.504,-66.895,0.000
1709375754.588,-41.504,-37.598,-39.551,-52.734,0.000
1709375754.592,71.289,-27.344,-41.504,-6.348,0.000
1709375754.596,15.137,-38.574,-43.945,-20.508,0.000
1709375754.600,-110.840,-46.387,-44.434,-70.801,0.000
1709375754.604,-126.465,-45.410,-40.527,-74.219,0.000
1709375754.608,-66.895,-50.293,-38.086,-50.293,0.000
1709375754.612,62.500,-42.480,-37.109,5.859,0.000
1709375754.616,41.504,-38.574,-36.621,5.371,0.000
1709375754.620,-92.773,-48.828,-34.668,-48.828,0.000
1709375754.624,-124.023,-51.758,-31.250,-66.406,0.000
1709375754.628,-65.918,-47.363,-31.738,-36.621,0.000
1709375754.631,63.477,-25.879,-28.809,18.555,0.000
1709375754.635,55.176,-28.809,-31.738,9.766,0.000
1709375754.639,-83.984,-50.781,-39.551,-57.617,0.000
1709375754.643,-132.812,-54.199,-41.016,-83.008,0.000
1709375754.647,-94.238,-50.293,-35.156,-65.918,0.000
1709375754.650,46.387,-38.574,-34.668,-0.977,0.000
1709375754.654,77.637,-36.133,-33.691,24.902,0.000
1709375754.658,-63.965,-47.363,-31.738,-42.480,0.000
1709375754.662,-134.277,-55.176,-30.273,-77.148,0.000
1709375754.666,-104.980,-54.199,-34.668,-68.359,0.000
1709375754.670,30.273,-43.945,-37.109,-17.090,0.000
1709375754.674,75.195,-40.527,-34.180,11.719,0.000
1709375754.678,-61.523,-43.457,-34.668,-46.875,0.000
1709375754.682,-132.324,-50.293,-37.598,-80.078,0.000
1709375754.686,-102.539,-54.199,-41.016,-71.777,0.000
1709375754.690,15.137,-41.016,-41.016,-26.367,0.000
1709375754.693,82.031,-35.645,-37.109,15.625,0.000
1709375754.698,-38.086,-44.922,-39.062,-26.855,0.000
1709375754.702,-125.977,-46.875,-40.039,-67.383,0.000
1709375754.705,-108.887,-44.922,-37.598,-62.988,0.000
1709375754.709,-0.977,-38.086,-40.039,-23.438,0.000
1709375754.713,91.309,-33.203,-40.039,17.578,0.000
1709375754.717,-13.672,-44.922,-39.062,-14.160,0.000
1709375754.721,-117.676,-47.363,-41.016,-58.594,0.000
1709375754.725,-122.070,-41.504,-45.898,-62.500,0.000
1709375754.729,-26.855,-40.039,-43.945,-18.066,0.000
1709375754.733,86.426,-36.133,-37.598,31.738,0.000
1709375754.737,-13.184,-34.180,-38.574,-11.719,0.000
1709375754.741,-128.906,-40.039,-42.969,-61.523,0.000
1709375754.745,-129.395,-46.875,-43.457,-63.477,0.000
1709375754.749,-44.434,-41.504,-38.574,-36.621,0.000
1709375754.753,73.730,-28.809,-37.598,12.695,0.000
1709375754.756,8.301,-34.668,-33.203,-8.789,0.000
1709375754.760,-110.840,-47.852,-29.785,-55.176,0.000
1709375754.764,-127.930,-47.363,-33.203,-68.848,0.000
1709375754.768,-57.617,-40.039,-33.691,-47.852,0.000
1709375754.772,79.590,-32.715,-28.320,7.812,0.000
1709375754.776,41.992,-41.504,-29.785,-1.953,0.000
1709375754.780,-94.727,-48.340,-32.715,-57.617,0.000
1709375754.784,-125.000,-42.969,-35.645,-83.496,0.000
1709375754.788,-63.477,-40.039,-31.250,-58.105,0.000
1709375754.792,73.730,-32.227,0.000,1.953,0.000
1709375754.796,53.711,-31.738,0.000,-0.488,0.000
1709375754.800,-87.891,-43.945,0.000,-58.105,0.000
1709375754.804,-126.953,-50.293,0.000,-74.707,0.000
1709375754.808,-79.102,-48.340,0.000,-53.223,0.000
1709375754.812,56.641,-41.016,0.000,4.883,0.000
1709375754.815,75.684,-35.156,0.000,12.695,0.000
1709375754.819,-59.082,-43.945,0.000,-41.504,0.000
1709375754.823,-102.539,-55.664,0.000,-57.129,0.000
1709375754.827,-63.477,-40.039,0.000,-49.805,0.000
1709375754.831,56.152,-25.879,0.000,3.418,0.000
1709375754.835,90.332,-28.320,0.000,20.508,0.000
1709375754.839,0.000,-36.133,-30.273,-42.969,0.000
1709375754.843,0.000,-40.039,-32.227,-68.359,0.000
1709375754.847,0.000,-39.551,-32.715,-52.734,0.000
1709375754.851,0.000,-32.715,-32.715,-7.324,0.000
1709375754.854,0.000,-30.273,-34.180,12.207,0.000
1709375754.858,0.000,-42.969,-34.668,-45.410,0.000
1709375754.862,0.000,-44.922,-32.227,-76.172,0.000
1709375754.866,0.000,-49.316,-31.738,-64.453,0.000
1709375754.870,0.000,-44.922,-34.668,-22.949,0.000
1709375754.874,0.000,-30.762,-37.598,3.418,0.000
1709375754.878,0.000,-40.039,-37.109,-37.598,0.000
1709375754.882,0.000,-50.781,-39.551,-72.754,0.000
1709375754.886,-125.000,-44.922,-39.551,-69.336,0.000
1709375754.889,-11.719,-38.086,-40.039,-25.879,0.000
1709375754.893,77.637,-39.551,-40.039,12.695,0.000
1709375754.897,-28.809,-49.805,-41.504,-25.391,0.000
1709375754.901,-129.883,-49.316,-41.504,-71.289,0.000
1709375754.905,-127.930,-51.270,-38.574,-73.730,0.000
1709375754.909,-28.809,-47.363,-38.086,-35.156,0.000
1709375754.913,89.844,-39.062,-35.156,24.414,0.000
1709375754.917,10.254,-38.574,-34.668,-4.883,0.000
1709375754.921,-108.398,-48.828,-39.551,-62.988,0.000
1709375754.925,-113.770,-53.711,-38.086,-70.312,0.000
1709375754.928,-38.086,-44.922,-35.645,-41.504,0.000
1709375754.932,82.520,-37.109,-34.180,4.395,0.000
1709375754.936,29.785,-38.574,-36.621,-10.742,0.000
1709375754.940,-97.168,-49.316,-37.598,-62.500,0.000
1709375754.944,-119.141,-52.734,-35.156,-78.125,0.000
1709375754.948,-51.270,-43.945,-37.109,-49.805,0.000
1709375754.952,73.242,-36.133,-42.969,4.883,0.000
1709375754.956,36.621,-41.016,-43.945,-10.742,0.000
1709375754.959,-98.145,-47.852,-39.551,-67.871,0.000
1709375754.963,-129.883,-47.852,-40.039,-84.473,0.000
1709375754.967,-64.941,-43.945,-36.133,-56.152,0.000
1709375754.971,66.895,-35.645,-34.668,6.836,0.000
1709375754.975,48.340,-36.133,-37.109,6.836,0.000
1709375754.979,-88.867,-43.457,-41.992,-58.105,0.000
1709375754.983,-126.953,-43.945,-46.387,-81.543,0.000
1709375754.987,-82.031,-43.945,-48.340,-65.430,0.000
1709375754.991,48.340,-34.668,-46.875,-9.277,0.000
1709375754.995,71.289,-30.273,-43.457,8.301,0.000
1709375754.999,-60.547,-44.434,-39.551,-47.852,0.000
1709375755.003,-121.582,-59.570,-40.039,-66.895,0.000
1709375755.007,-96.191,-50.293,-37.109,-59.082,0.000
1709375755.011,32.715,-32.227,-31.738,-13.672,0.000
1709375755.015,86.914,-38.574,-32.227,9.766,0.000
1709375755.018,-51.758,-50.293,-38.086,-38.574,0.000
1709375755.022,-124.023,-45.898,-36.621,-62.500,0.000
1709375755.026,-94.238,-41.992,-32.227,-57.617,0.000
1709375755.030,22.461,-36.621,-38.086,-18.066,0.000
1709375755.034,87.891,-32.715,-40.039,13.184,0.000
1709375755.037,-35.156,-36.621,-32.227,-32.227,0.000
1709375755.041,-123.047,-45.410,-30.273,-76.660,0.000
1709375755.045,-101.074,-44.922,-33.691,-77.148,0.000
1709375755.049,10.742,-31.250,-33.691,-27.344,0.000
1709375755.053,95.703,-23.926,-33.203,14.160,0.000
1709375755.057,-12.207,-39.062,-32.715,-26.855,0.000
1709375755.061,-113.770,-50.293,-28.809,-61.035,0.000
1709375755.065,-116.211,-46.387,-26.855,-66.406,0.000
1709375755.069,-22.949,-34.668,-30.762,-40.039,0.000
1709375755.073,91.309,-26.855,-28.320,15.137,0.000
1709375755.077,1.465,-38.574,-27.832,-9.766,0.000
1709375755.081,-114.258,-45.410,-30.762,-59.570,0.000
1709375755.085,-111.816,-41.016,-31.738,-71.289,0.000
1709375755.088,-33.691,-40.039,-31.738,-37.598,0.000
1709375755.092,71.777,-38.086,-28.809,19.043,0.000
1709375755.096,0.000,-39.551,-31.738,-11.719,0.000
1709375755.100,-119.629,-40.039,-31.250,-62.988,0.000
1709375755.104,-126.465,-42.480,-28.320,-68.848,0.000
1709375755.108,-58.594,-46.387,-31.738,-36.621,0.000
1709375755.112,62.012,-30.273,-32.715,11.719,0.000
1709375755.116,28.320,-29.785,-31.250,-1.465,0.000
1709375755.120,-93.750,-44.922,-34.668,-56.152,0.000
1709375755.124,-123.047,-45.410,-40.039,-71.777,0.000
1709375755.128,-69.824,-35.156,-44.434,-52.246,0.000
1709375755.132,53.223,-25.391,-42.480,-3.906,0.000
1709375755.136,30.762,-30.762,-39.551,-2.441,0.000
1709375755.139,-105.957,-43.457,-42.480,-62.500,0.000
1709375755.143,-145.996,-39.062,-43.945,-86.426,0.000
1709375755.147,-92.773,-30.762,-41.504,-64.941,0.000
1709375755.151,43.457,-32.715,-41.992,-3.418,0.000
1709375755.155,51.758,-26.855,-38.086,5.371,0.000
1709375755.159,-90.820,-29.297,-37.598,-56.152,0.000
1709375755.163,-137.695,-37.109,-37.109,-77.637,0.000
1709375755.167,-94.727,-40.039,-39.551,-59.570,0.000
1709375755.171,31.738,-33.691,-41.016,-7.324,0.000
1709375755.175,70.801,-34.180,-37.598,17.090,0.000
1709375755.179,-66.406,-47.852,-33.691,-33.691,0.000
1709375755.182,-134.277,-46.387,-31.250,-63.965,0.000
1709375755.186,-102.051,-43.457,-35.156,-57.129,0.000
1709375755.190,17.578,-41.016,-35.645,-18.555,0.000
1709375755.194,72.754,-32.715,-33.203,6.348,0.000
1709375755.198,-55.664,-46.875,-36.621,-36.133,0.000
1709375755.202,-138.672,-48.340,-39.551,-81.055,0.000
1709375755.206,-121.582,-41.504,-39.551,-83.008,0.000
1709375755.210,-9.766,-39.062,-35.645,-32.715,0.000
1709375755.214,0.000,-31.250,-32.227,7.324,0.000
1709375755.218,0.000,-35.645,-35.156,-40.039,0.000
1709375755.221,0.000,-45.898,-33.203,-85.449,0.000
1709375755.225,0.000,-52.734,-33.691,-87.402,0.000
1709375755.229,0.000,-48.828,-36.133,-48.828,0.000
1709375755.233,0.000,-42.969,-32.715,-1.953,0.000
1709375755.237,0.000,-47.363,-34.180,-36.133,0.000
1709375755.241,0.000,-57.129,-38.086,-71.289,0.000
1709375755.245,0.000,-55.176,-41.504,-69.336,0.000
1709375755.249,0.000,-35.645,-41.016,-48.828,0.000
1709375755.253,0.000,-30.273,-40.527,-0.488,0.000
1709375755.257,0.000,-39.551,-40.039,-30.762,0.000
1709375755.260,-120.117,-48.340,-34.668,-81.543,0.000
1709375755.264,-134.766,-51.758,-35.156,-82.520,0.000
1709375755.268,-58.594,-46.387,-36.621,-50.293,0.000
1709375755.272,64.453,-38.574,-33.203,3.906,0.000
1709375755.276,21.973,-36.133,-31.250,-15.137,0.000
1709375755.280,-113.281,-46.387,-34.668,-68.359,0.000
1709375755.284,-142.578,-51.270,-37.109,-81.543,0.000
1709375755.288,-67.871,-45.898,-34.668,-46.387,0.000
1709375755.292,66.406,-31.738,-35.156,3.906,0.000
1709375755.296,39.062,-32.227,-37.109,-9.277,0.000
1709375755.299,-100.098,-42.969,-35.645,-51.758,0.000
1709375755.303,-130.859,-43.945,-35.645,-65.918,0.000
1709375755.307,-71.777,-37.109,-34.668,-50.293,0.000
1709375755.311,57.129,-30.273,-34.180,4.883,0.000
1709375755.315,58.594,-34.668,-35.156,12.695,0.000
1709375755.319,-75.684,-35.156,-34.668,-42.969,0.000
1709375755.323,-114.746,-36.133,-33.203,-69.336,0.000
1709375755.327,-72.266,-40.527,-36.621,-61.035,0.000
1709375755.330,42.969,-39.062,-39.062,0.000,0.000
1709375755.334,70.801,-40.527,-34.668,21.484,0.000
1709375755.338,-61.523,-41.504,-32.715,-42.480,0.000
1709375755.342,-136.230,-45.898,-36.621,-71.289,0.000
1709375755.346,-103.027,-46.387,-39.551,-56.152,0.000
1709375755.350,32.715,-34.180,-35.645,-6.836,0.000
1709375755.353,80.078,-27.344,-35.645,15.625,0.000
1709375755.357,-53.711,-36.621,-37.109,-31.250,0.000
1709375755.361,-133.789,-43.945,-42.480,-65.918,0.000
1709375755.365,-111.816,-42.969,-41.504,-63.477,0.000
1709375755.369,11.230,-37.109,-39.551,-16.113,0.000
1709375755.373,82.031,-38.086,-45.898,18.066,0.000
1709375755.377,-38.086,-49.805,-44.922,-20.996,0.000
1709375755.381,-123.535,-43.945,-39.551,-62.500,0.000
1709375755.385,-108.398,-41.504,-44.434,-66.895,0.000
1709375755.389,1.465,-40.039,-44.922,-21.484,0.000
1709375755.393,99.121,-26.855,-35.645,23.438,0.000
1709375755.396,-10.742,-32.227,-36.621,-15.137,0.000
1709375755.401,-117.188,-45.410,-36.621,-57.617,0.000
1709375755.405,-109.863,-45.410,-30.273,-61.523,0.000
1709375755.409,-16.113,-40.527,-26.855,-21.973,0.000
1709375755.412,85.449,-30.762,-33.203,20.508,0.000
1709375755.416,-10.254,-36.133,-40.039,-16.602,0.000
1709375755.420,-121.094,-50.781,-35.645,-60.059,0.000
1709375755.424,-127.930,-53.223,-38.574,-64.453,0.000
1709375755.428,-48.828,-47.852,-44.434,-44.922,0.000
1709375755.432,81.055,-42.969,-42.480,3.418,0.000
1709375755.436,20.508,-45.898,-43.457,-14.160,0.000
1709375755.440,-110.352,-44.434,-41.016,-66.406,0.000
1709375755.444,-124.023,-42.969,-37.598,-81.055,0.000
1709375755.448,-54.199,-42.969,-40.039,-57.617,0.000
1709375755.452,61.523,-38.574,-38.574,-6.348,0.000
1709375755.456,15.137,-40.527,-37.598,-15.625,0.000
1709375755.460,-118.652,-48.340,-37.109,-64.941,0.000
1709375755.464,-143.555,-49.316,-30.762,-85.938,0.000
1709375755.467,-80.566,-42.969,-26.855,-62.500,0.000
1709375755.471,50.781,-31.738,-27.344,3.418,0.000
1709375755.475,43.457,-25.879,-27.344,1.953,0.000
1709375755.479,-85.938,-37.598,-30.273,-56.641,0.000
1709375755.483,-131.348,-44.922,-30.273,-67.383,0.000
1709375755.487,-88.379,-35.156,-30.762,-58.105,0.000
1709375755.491,50.293,-24.414,-32.715,-8.789,0.000
1709375755.495,62.012,-27.832,-31.250,0.488,0.000
1709375755.499,-82.031,-40.527,-36.133,-58.594,0.000
1709375755.503,-138.184,-48.340,-37.598,-82.520,0.000
1709375755.507,-100.586,-47.363,-33.691,-74.707,0.000
1709375755.511,29.785,-39.062,-31.250,-18.066,0.000
1709375755.515,72.266,-36.621,-32.227,4.883,0.000
1709375755.518,-66.406,-46.875,-35.156,-54.199,0.000
1709375755.522,-137.207,-51.270,-37.598,-89.844,0.000
1709375755.526,-104.004,-48.828,-34.180,-77.637,0.000
1709375755.530,16.602,-33.691,-32.227,-18.066,0.000
1709375755.534,84.473,-20.020,-29.297,10.742,0.000
1709375755.538,-40.527,-36.621,-28.320,-36.133,0.000
1709375755.542,-132.324,-48.828,-33.691,-68.848,0.000
1709375755.546,-111.328,-42.480,-37.109,-64.453,0.000
1709375755.550,5.859,-32.715,-36.621,-12.207,0.000
1709375755.554,88.379,-25.879,-34.668,29.297,0.000
1709375755.558,-43.945,-36.621,-39.062,-28.809,0.000
1709375755.561,-129.883,-41.016,-40.039,-68.848,0.000
1709375755.565,-107.910,-38.086,-36.621,-64.941,0.000
1709375755.569,-20.020,-35.645,-36.621,-28.320,0.000
1709375755.573,81.543,-35.645,-34.668,18.555,0.000
1709375755.577,-4.883,-29.297,-33.203,-13.184,0.000
1709375755.581,-115.234,-35.156,-31.250,-59.082,0.000
1709375755.585,-121.582,-42.480,-30.762,-70.801,0.000
1709375755.589,-38.574,-34.180,-34.668,-42.969,0.000
1709375755.593,83.008,-25.391,-31.250,7.324,0.000
1709375755.596,9.766,-35.645,-30.273,-19.531,0.000
1709375755.600,-113.770,-48.340,-36.133,-73.242,0.000
1709375755.604,-121.582,-47.363,-35.156,-80.566,0.000
1709375755.608,-46.387,-44.922,-35.645,-48.340,0.000
1709375755.612,78.613,-36.133,-36.133,4.395,0.000
1709375755.616,32.715,-39.551,-26.855,-3.906,0.000
1709375755.620,-95.215,-44.434,-26.855,-51.758,0.000
1709375755.624,-117.188,-40.527,-34.668,-72.266,0.000
1709375755.628,-54.199,-44.434,-33.691,-45.898,0.000
1709375755.632,71.777,-40.527,-32.715,11.719,0.000
1709375755.635,40.039,-39.062,-31.738,5.371,0.000
1709375755.639,-97.656,-45.898,-29.785,-45.898,0.000
1709375755.643,-130.859,-47.852,-34.180,-66.895,0.000
1709375755.647,-74.219,-47.852,-33.691,-52.246,0.000
1709375755.651,60.547,-29.785,-31.738,0.488,0.000
1709375755.655,62.500,-28.320,-29.785,1.953,0.000
1709375755.659,-75.684,-44.922,-29.785,-50.781,0.000
1709375755.663,-126.465,-52.246,-34.180,-66.895,0.000
1709375755.667,-80.078,-37.109,-34.180,-62.988,0.000
1709375755.670,50.781,-27.832,-30.762,-14.160,0.000
1709375755.674,71.289,-31.738,-35.156,11.230,0.000
1709375755.678,-77.148,-40.039,-37.109,-42.480,0.000
1709375755.682,-142.578,-43.945,-39.551,-76.660,0.000
1709375755.686,-103.027,-41.504,-43.457,-81.543,0.000
1709375755.690,29.785,-40.527,-39.551,-33.691,0.000
1709375755.694,83.008,-37.598,-36.621,-2.930,0.000
1709375755.697,-47.852,-39.551,-40.039,-57.617,0.000
1709375755.701,-120.605,-46.875,-39.062,-86.914,0.000
1709375755.705,-90.820,-51.270,-33.203,-66.895,0.000
1709375755.709,28.809,-39.551,-35.156,-5.859,0.000
1709375755.713,100.098,-30.762,-38.086,23.438,0.000
1709375755.717,-20.996,-37.598,-38.086,-30.273,0.000
1709375755.721,-119.629,-45.410,-39.062,-66.406,0.000
1709375755.725,-112.793,-42.480,-43.457,-58.105,0.000
1709375755.728,-1.465,-30.273,-39.062,-20.996,0.000
1709375755.732,88.867,-29.785,-35.645,14.648,0.000
1709375755.736,-20.508,-41.504,-40.039,-22.949,0.000
1709375755.740,-118.164,-48.340,-37.109,-66.895,0.000
1709375755.744,-113.770,-51.758,-34.668,-80.566,0.000
1709375755.748,-20.508,-49.805,-38.574,-39.551,0.000
1709375755.752,91.797,-45.898,-38.086,26.855,0.000
1709375755.756,4.883,-38.086,-36.133,-9.766,0.000
1709375755.760,-106.445,-41.016,-38.086,-60.547,0.000
1709375755.763,-108.887,-43.945,-39.062,-64.941,0.000
1709375755.767,-30.762,-40.039,-42.480,-41.504,0.000
1709375755.771,85.449,-33.691,-41.504,13.184,0.000
1709375755.775,19.531,-35.645,-38.574,-5.371,0.000
1709375755.779,-106.445,-48.828,-39.062,-58.594,0.000
1709375755.782,-120.117,-47.363,-35.645,-63.477,0.000
1709375755.786,-47.363,-35.645,-32.227,-37.109,0.000
1709375755.790,76.172,-29.785,-28.320,14.160,0.000
1709375755.794,39.062,-43.945,-24.414,4.883,0.000
1709375755.798,-95.215,-51.758,-25.879,-52.734,0.000
1709375755.802,-133.301,-49.316,-35.156,-76.172,0.000
1709375755.806,-77.148,-49.805,-36.621,-60.059,0.000
1709375755.810,57.617,-40.039,-35.645,0.000,0.000
1709375755.814,44.922,-37.109,-37.109,1.465,0.000
1709375755.818,-87.891,-42.969,-34.180,-50.293,0.000
1709375755.822,-123.047,-47.852,-32.715,-62.012,0.000
1709375755.826,-76.660,-46.875,-31.738,-48.828,0.000
1709375755.830,55.664,-32.715,-33.691,2.930,0.000
1709375755.834,71.777,-27.832,-37.598,22.461,0.000
1709375755.838,-60.059,-35.645,-38.574,-33.203,0.000
1709375755.841,-114.746,-40.527,-37.598,-63.965,0.000
1709375755.845,-78.125,-38.086,-36.133,-48.340,0.000
1709375755.849,52.246,-23.926,-34.180,7.324,0.000
1709375755.853,90.820,-25.879,-36.133,28.320,0.000
1709375755.857,-49.805,-45.898,-37.109,-25.391,0.000
1709375755.861,-119.141,-46.387,-39.551,-70.312,0.000
1709375755.865,-88.867,-41.504,-41.992,-68.359,0.000
1709375755.869,27.344,-36.133,-40.039,-16.113,0.000
1709375755.873,84.961,-26.855,-40.039,13.184,0.000
1709375755.877,-41.504,-32.715,-36.621,-42.969,0.000
1709375755.881,-125.000,-39.551,-35.645,-75.684,0.000
1709375755.885,-104.492,-42.969,-37.598,-66.406,0.000
1709375755.889,5.859,-38.086,-35.645,-23.926,0.000
1709375755.892,83.008,-29.785,-36.621,13.184,0.000
1709375755.896,-34.180,-41.504,-39.062,-35.645,0.000
1709375755.900,-127.930,-56.152,-37.109,-70.312,0.000
1709375755.904,-110.840,-48.828,-34.668,-57.617,0.000
1709375755.908,-6.348,-31.250,-33.691,-25.879,0.000
1709375755.912,93.750,-26.367,-29.785,18.555,0.000
1709375755.916,0.000,-36.133,-26.855,-8.789,0.000
1709375755.920,0.000,-42.969,-34.180,-60.547,0.000
1709375755.924,0.000,-42.480,-35.156,-78.613,0.000
1709375755.928,0.000,-36.621,-32.227,-43.457,0.000
1709375755.932,0.000,-30.762,-30.762,16.113,0.000
1709375755.935,0.000,-39.062,-33.691,-7.812,0.000
1709375755.939,0.000,-48.828,-39.062,-59.082,0.000
1709375755.943,0.000,-48.828,-35.645,-66.895,0.000
1709375755.947,0.000,-45.410,-29.785,-34.668,0.000
1709375755.951,0.000,-29.297,-31.250,16.113,0.000
1709375755.955,0.000,-27.832,-34.668,-5.371,0.000
1709375755.959,0.000,-43.945,-34.180,-61.523,0.000
1709375755.963,-125.488,-49.316,-36.133,-80.078,0.000
1709375755.967,-57.617,-43.457,-34.668,-56.152,0.000
1709375755.971,66.406,-35.645,-31.738,2.930,0.000
1709375755.974,38.574,-41.504,-32.227,-1.465,0.000
1709375755.978,-109.863,-52.734,-35.156,-64.941,0.000
1709375755.982,-148.438,-53.223,-34.180,-86.914,0.000
1709375755.986,-84.961,-46.387,-27.832,-59.570,0.000
1709375755.990,39.551,-39.062,-26.367,-0.977,0.000
1709375755.994,30.762,-42.480,-29.785,6.348,0.000
1709375755.998,-100.586,-43.457,-30.273,-47.852,0.000
1709375756.002,-139.160,-44.434,-28.809,-68.848,0.000
1709375756.006,-94.727,-45.410,-27.832,-57.129,0.000
1709375756.009,33.203,-32.227,-29.297,-5.371,0.000
1709375756.013,59.082,-29.297,-32.227,5.859,0.000
1709375756.017,-73.730,-38.574,-34.668,-52.734,0.000
1709375756.021,-134.766,-46.875,-36.621,-81.543,0.000
1709375756.025,-99.609,-45.898,-37.109,-71.289,0.000
1709375756.029,17.090,-42.969,-41.016,-27.344,0.000
1709375756.033,61.035,-40.527,-38.086,2.930,0.000
1709375756.037,-69.336,-51.758,-32.715,-37.109,0.000
1709375756.041,-144.531,-50.781,-31.250,-79.590,0.000
1709375756.045,-119.629,-42.480,-31.250,-79.102,0.000
1709375756.049,5.371,-37.598,-28.320,-25.391,0.000
1709375756.052,85.449,-28.320,-28.809,13.672,0.000
1709375756.056,-34.180,-34.668,-33.691,-32.715,0.000
1709375756.060,-129.395,-45.898,-34.180,-72.266,0.000
1709375756.064,-119.629,-47.363,-34.668,-72.754,0.000
1709375756.068,-16.113,-37.109,-35.156,-31.250,0.000
1709375756.072,77.637,-28.320,-32.227,12.207,0.000
1709375756.076,-26.367,-39.062,-32.227,-25.391,0.000
1709375756.080,-130.859,-56.152,-37.109,-60.547,0.000
1709375756.083,-117.676,-56.152,-40.527,-59.082,0.000
1709375756.087,-26.367,-42.969,-39.062,-28.809,0.000
1709375756.091,76.172,-37.598,-35.156,22.949,0.000
1709375756.095,-0.488,-49.805,-33.691,-0.977,0.000
1709375756.099,-109.375,-55.664,-30.273,-56.641,0.000
1709375756.103,-117.676,-56.152,-34.180,-72.754,0.000
1709375756.107,-39.551,-55.176,-40.039,-46.387,0.000
1709375756.110,78.613,-44.922,-37.598,11.230,0.000
1709375756.114,14.648,-47.363,-41.016,-3.906,0.000
1709375756.118,-109.863,-55.664,-40.039,-62.988,0.000
1709375756.122,-131.836,-61.035,-37.598,-81.543,0.000
1709375756.126,-70.312,-63.965,-39.551,-43.457,0.000
1709375756.130,62.500,-46.387,-38.086,11.230,0.000
1709375756.134,28.809,-45.410,-41.504,-8.789,0.000
1709375756.138,-104.492,-57.617,-39.062,-61.035,0.000
1709375756.142,-124.512,-53.223,-34.668,-75.684,0.000
1709375756.146,-62.012,-47.852,-40.039,-52.734,0.000
1709375756.150,66.406,-42.969,-38.086,9.277,0.000
1709375756.154,52.246,-43.457,-31.738,9.766,0.000
1709375756.158,-88.379,-50.781,-35.156,-51.270,0.000
1709375756.162,-128.906,-50.781,-36.133,-72.754,0.000
1709375756.166,-81.543,-47.852,-32.715,-56.152,0.000
1709375756.169,48.340,-40.527,-28.809,-0.488,0.000
1709375756.173,62.500,-39.551,-29.297,19.531,0.000
1709375756.177,-62.012,-47.852,-31.738,-34.180,0.000
1709375756.181,-106.445,-50.781,-31.250,-59.082,0.000
1709375756.185,-75.195,-51.270,-31.738,-48.828,0.000
1709375756.189,34.668,-43.945,-36.133,-7.812,0.000
1709375756.193,66.406,-41.016,-36.133,6.836,0.000
1709375756.197,-62.500,-55.664,-33.691,-42.480,0.000
1709375756.201,-126.465,-60.547,-30.762,-70.312,0.000
1709375756.205,-96.680,-53.711,-29.297,-59.082,0.000
1709375756.209,14.648,-46.875,-25.879,-12.695,0.000
1709375756.213,72.266,-42.969,-22.949,11.719,0.000
1709375756.217,-55.176,-50.781,-23.438,-30.762,0.000
1709375756.221,-141.602,-52.734,-27.344,-65.918,0.000
1709375756.224,-124.512,-45.410,-32.715,-66.895,0.000
1709375756.228,-11.719,-39.551,-29.785,-24.902,0.000
1709375756.232,79.590,-37.109,-27.832,15.625,0.000
1709375756.236,-27.344,-36.621,-32.715,-38.086,0.000
1709375756.240,-120.117,-41.992,-37.109,-84.473,0.000
1709375756.244,-112.793,-45.898,-41.992,-85.449,0.000
1709375756.248,-14.160,-36.621,-41.992,-51.270,0.000
1709375756.252,85.938,-28.809,-41.504,-6.348,0.000
1709375756.256,-11.230,-37.598,-41.992,-47.363,0.000
1709375756.260,-123.535,-51.270,-41.016,-94.727,0.000
1709375756.264,-123.047,-48.828,-35.645,-89.844,0.000
1709375756.268,-34.668,-38.086,-31.250,-53.223,0.000
1709375756.272,76.172,-29.785,-35.156,-1.953,0.000
1709375756.275,2.441,-42.480,-38.086,-18.555,0.000
1709375756.279,-111.816,-53.223,-41.016,-56.152,0.000
1709375756.283,-118.164,-46.875,-42.480,-67.383,0.000
1709375756.287,-47.363,-45.898,-42.480,-44.434,0.000
1709375756.291,76.172,-39.062,-36.621,19.043,0.000
1709375756.295,34.668,-35.645,-31.250,14.160,0.000
1709375756.299,-98.633,-41.504,-33.691,-41.016,0.000
1709375756.303,-126.953,-44.922,-40.039,-58.594,0.000
1709375756.307,-65.430,-38.086,-35.645,-29.297,0.000
1709375756.311,62.012,-30.273,-30.762,26.855,0.000
1709375756.315,42.480,-28.320,-36.621,16.113,0.000
1709375756.318,-82.520,-34.668,-37.598,-35.156,0.000
1709375756.322,-113.281,-47.852,-35.645,-48.828,0.000
1709375756.326,-70.801,-35.156,-32.227,-47.852,0.000
1709375756.330,58.105,-24.902,-28.320,-2.441,0.000
1709375756.334,69.824,-30.762,-27.344,6.348,0.000
1709375756.338,-69.336,-39.551,-28.809,-55.664,0.000
1709375756.342,-126.465,-43.945,-32.227,-86.914,0.000
1709375756.346,-87.891,-38.086,-32.715,-67.871,0.000
1709375756.350,44.922,-30.762,-33.203,-10.254,0.000
1709375756.354,82.031,-29.785,-33.691,3.418,0.000
1709375756.357,-56.152,-32.715,-37.598,-47.852,0.000
1709375756.361,-127.930,-41.016,-42.969,-79.102,0.000
1709375756.365,-100.098,-47.363,-42.969,-67.383,0.000
1709375756.369,23.438,-35.156,-43.457,-9.766,0.000
1709375756.373,83.008,-24.902,-42.969,17.578,0.000
1709375756.377,-47.852,-39.062,-39.551,-35.156,0.000
1709375756.381,-129.883,-48.340,-37.598,-66.895,0.000
1709375756.385,-105.957,-43.945,-41.504,-56.641,0.000
1709375756.389,6.348,-36.621,-41.504,-11.230,0.000
1709375756.392,72.754,-34.180,-36.133,21.484,0.000
1709375756.396,-41.504,-41.504,-31.738,-19.531,0.000
1709375756.400,-125.488,-42.969,-33.691,-57.617,0.000
1709375756.404,-110.840,-41.992,-38.086,-60.059,0.000
1709375756.408,-8.789,-37.109,-35.645,-17.578,0.000
1709375756.412,80.078,-36.621,-33.691,32.715,0.000
1709375756.416,-25.879,-40.039,-36.621,-16.602,0.000
1709375756.420,-122.559,-45.898,-36.133,-66.406,0.000
1709375756.424,-114.746,-53.711,-35.645,-63.965,0.000
1709375756.428,-32.715,-47.363,-37.598,-32.227,0.000
1709375756.431,70.801,-37.109,-41.016,9.277,0.000
1709375756.435,-9.277,-49.805,-42.969,-19.043,0.000
1709375756.439,-115.723,-60.059,-40.039,-66.895,0.000
1709375756.443,-113.770,-54.199,-38.574,-77.148,0.000
1709375756.447,-39.062,-48.340,-37.109,-47.852,0.000
1709375756.451,73.242,-40.527,-36.133,-0.488,0.000
1709375756.455,17.090,-47.363,-39.551,-11.230,0.000
1709375756.459,-102.051,-52.734,-41.504,-53.711,0.000
1709375756.462,-115.723,-38.086,-39.551,-71.777,0.000
1709375756.466,-48.340,-34.180,-42.480,-49.316,0.000
1709375756.470,73.242,-35.156,-39.551,3.906,0.000
1709375756.474,36.133,-30.762,-37.109,-6.348,0.000
1709375756.478,-95.215,-38.086,-41.504,-62.988,0.000
1709375756.482,-124.512,-44.922,-42.480,-82.031,0.000
1709375756.486,-74.707,-41.016,-39.062,-62.988,0.000
1709375756.489,51.758,-28.809,-34.668,-12.207,0.000
1709375756.493,44.922,-32.227,-34.668,-8.789,0.000
1709375756.497,-94.727,-42.480,-33.691,-53.711,0.000
1709375756.501,-137.695,-50.293,-31.250,-61.523,0.000
1709375756.505,-93.262,-41.016,-32.715,-52.734,0.000
1709375756.509,35.645,-28.809,-32.227,-5.859,0.000
1709375756.513,52.734,-32.715,-32.227,12.695,0.000
1709375756.517,-76.660,-37.598,-33.203,-47.363,0.000
1709375756.521,-126.953,-40.039,-35.156,-76.660,0.000
1709375756.524,-96.680,-40.039,-34.668,-60.547,0.000
1709375756.528,20.508,-34.180,-35.156,-8.301,0.000
1709375756.532,60.059,-28.809,-39.551,12.695,0.000
1709375756.536,-71.289,-36.133,-39.062,-39.062,0.000
1709375756.540,-131.348,-39.062,-35.645,-74.707,0.000
1709375756.544,-97.656,-39.551,-41.504,-67.383,0.000
1709375756.548,11.719,-34.180,-45.898,-18.066,0.000
1709375756.552,73.242,-27.344,-47.363,-0.977,0.000
1709375756.555,-41.504,-39.062,-50.293,-53.223,0.000
1709375756.559,-118.652,-42.969,-51.758,-87.402,0.000
1709375756.563,-104.492,-35.645,-52.734,-84.961,0.000
1709375756.567,-0.488,-29.297,-55.176,-44.922,0.000
1709375756.571,77.148,-28.809,-58.594,-7.324,0.000
1709375756.575,-37.598,-37.109,-57.129,-46.387,0.000
1709375756.579,-128.906,-38.574,-48.340,-85.449,0.000
1709375756.583,-113.770,-35.156,-42.969,-80.566,0.000
1709375756.587,-17.578,-30.762,-41.504,-33.203,0.000
1709375756.591,84.961,-31.250,-41.992,18.066,0.000
1709375756.595,-7.812,-35.156,-41.992,-17.090,0.000
1709375756.599,-120.117,-38.574,-39.551,-68.848,0.000
1709375756.603,-122.559,-47.363,-39.551,-74.219,0.000
1709375756.607,-41.992,-55.176,-41.016,-30.273,0.000
1709375756.610,67.383,-39.551,-37.598,14.648,0.000
1709375756.614,-5.859,-38.574,-34.668,-23.926,0.000
1709375756.619,-127.930,-51.270,-34.180,-73.730,0.000
1709375756.622,-138.184,-52.734,-32.715,-80.078,0.000
1709375756.626,-61.523,-46.875,-29.785,-48.828,0.000
1709375756.630,65.430,-38.574,-27.344,5.371,0.000
1709375756.634,20.508,-41.992,-27.344,-10.254,0.000
1709375756.638,-107.422,-51.270,-29.785,-67.871,0.000
1709375756.642,-127.930,-51.270,-25.879,-81.543,0.000
1709375756.646,-69.824,-47.852,-21.484,-53.223,0.000
1709375756.650,58.105,-46.387,-22.461,4.395,0.000
1709375756.654,35.645,-42.969,-26.367,0.488,0.000
1709375756.658,-97.168,-44.434,-26.367,-61.035,0.000
1709375756.662,-136.230,-50.781,-27.344,-90.820,0.000
1709375756.666,-93.262,-51.758,-31.738,-70.801,0.000
1709375756.669,42.480,-30.762,-26.855,-2.930,0.000
1709375756.673,55.176,-26.367,-29.785,5.371,0.000
1709375756.677,-76.660,-45.410,-34.180,-45.898,0.000
1709375756.681,-130.859,-51.270,-34.668,-74.707,0.000
1709375756.685,-89.844,-45.898,-40.527,-68.359,0.000
1709375756.689,41.504,-32.715,-41.016,-16.113,0.000
1709375756.693,76.172,-27.344,-35.156,3.906,0.000
1709375756.697,-59.082,-43.945,-37.109,-34.668,0.000
1709375756.701,-132.324,-44.434,-44.434,-72.266,0.000
1709375756.705,-106.445,-37.598,-42.969,-71.777,0.000
1709375756.709,20.020,-34.668,-39.551,-14.160,0.000
1709375756.712,75.195,-32.715,-44.922,3.418,0.000
1709375756.716,-63.477,-39.551,-47.363,-53.223,0.000
1709375756.720,-144.043,-47.852,-47.363,-86.426,0.000
1709375756.724,-125.488,-51.270,-44.434,-81.055,0.000
1709375756.728,-12.695,-37.598,-40.039,-25.879,0.000
1709375756.732,71.289,-32.715,-40.039,12.695,0.000
1709375756.736,-42.480,-40.039,-42.480,-37.109,0.000
1709375756.740,-129.395,-45.410,-43.945,-78.613,0.000
1709375756.744,-122.070,-45.898,-42.969,-78.613,0.000
1709375756.748,-18.555,-27.344,-40.039,-44.434,0.000
1709375756.751,80.078,-20.020,-37.109,0.488,0.000
1709375756.755,-25.879,-38.086,-40.039,-36.133,0.000
1709375756.759,-133.301,-42.480,-41.992,-71.777,0.000
1709375756.763,-126.953,-36.621,-39.551,-73.242,0.000
1709375756.767,-35.156,-34.180,-37.598,-44.922,0.000
1709375756.771,81.055,-27.832,-37.109,11.230,0.000
1709375756.775,7.324,-29.785,-40.527,-16.602,0.000
1709375756.779,-106.445,-43.945,-38.574,-68.359,0.000
1709375756.783,-111.816,-52.734,-36.621,-63.477,0.000
1709375756.786,-31.738,-48.828,-38.086,-22.949,0.000
1709375756.790,88.867,-29.297,-35.645,16.602,0.000
1709375756.794,31.738,-29.297,-33.691,-6.348,0.000
1709375756.798,-91.797,-41.016,-29.297,-49.316,0.000
1709375756.802,-112.305,-43.945,-31.738,-66.895,0.000
1709375756.806,-53.711,-41.016,-35.645,-48.340,0.000
1709375756.810,68.359,-33.691,-38.086,-0.977,0.000
1709375756.814,37.109,-35.645,-40.039,-10.254,0.000
1709375756.817,-98.633,-41.504,-41.504,-65.430,0.000
1709375756.821,-134.277,-45.410,-40.527,-80.078,0.000
1709375756.825,-85.449,-48.340,-37.109,-62.500,0.000
1709375756.829,43.945,-43.945,-38.086,-10.254,0.000
1709375756.833,44.434,-36.621,-38.574,-1.465,0.000
1709375756.837,-89.355,-39.551,-35.156,-61.035,0.000
1709375756.841,-130.371,-46.387,-34.668,-84.473,0.000
1709375756.845,-87.402,-44.922,-37.598,-67.871,0.000
1709375756.849,36.621,-33.203,-39.551,-25.391,0.000
1709375756.853,61.035,-29.297,-39.551,-10.742,0.000
1709375756.857,-75.195,-45.898,-41.016,-60.059,0.000
1709375756.860,-130.371,-56.152,-42.969,-84.961,0.000
1709375756.864,-93.262,-48.340,-39.062,-73.730,0.000
1709375756.868,34.668,-33.203,-37.109,-21.973,0.000
1709375756.872,83.496,-30.273,-42.969,7.812,0.000
1709375756.876,-45.898,-45.410,-50.293,-32.227,0.000
1709375756.880,-118.652,-41.992,-51.758,-63.965,0.000
1709375756.884,-98.145,-39.062,-46.387,-57.617,0.000
1709375756.888,17.578,-40.527,-41.504,-9.277,0.000
1709375756.892,87.891,-34.668,-35.156,27.832,0.000
1709375756.896,-39.062,-44.434,-35.156,-21.484,0.000
1709375756.899,-128.906,-52.246,-38.086,-68.848,0.000
1709375756.903,-111.816,-57.617,-36.621,-66.406,0.000
1709375756.907,-7.324,-52.734,-34.668,-22.461,0.000
1709375756.911,77.637,-41.016,-34.180,17.090,0.000
1709375756.915,-28.320,-45.410,-35.156,-22.949,0.000
1709375756.919,-127.930,-61.035,-37.109,-62.012,0.000
1709375756.922,-118.164,-54.199,-35.645,-59.082,0.000
1709375756.926,-19.043,-36.133,-32.715,-27.344,0.000
1709375756.930,86.914,-32.715,-31.738,14.160,0.000
1709375756.934,-1.465,-39.551,-33.203,-18.066,0.000
1709375756.938,-113.770,-43.457,-32.227,-62.012,0.000
1709375756.942,-117.188,-41.016,-34.668,-67.383,0.000
1709375756.946,-39.551,-40.039,-41.016,-39.551,0.000
1709375756.950,75.195,-39.062,-41.504,9.766,0.000
1709375756.954,13.184,-40.527,-39.062,-14.160,0.000
1709375756.958,-106.445,-44.922,-40.527,-65.430,0.000
1709375756.962,-107.910,-43.945,-39.551,-73.730,0.000
1709375756.966,-35.156,-41.016,-38.574,-50.293,0.000
1709375756.970,78.125,-29.785,-40.039,4.395,0.000
1709375756.974,38.086,-25.879,-43.945,-5.371,0.000
1709375756.978,-85.449,-41.016,-46.387,-55.664,0.000
1709375756.981,-121.094,-54.199,-43.457,-63.477,0.000
1709375756.985,-70.801,-46.387,-44.922,-55.176,0.000
1709375756.989,62.500,-30.273,-44.922,-7.324,0.000
1709375756.993,54.199,-30.273,0.000,-1.465,0.000
1709375756.997,-82.520,-41.016,0.000,-57.129,0.000
1709375757.001,-127.441,-48.340,0.000,-86.914,0.000
1709375757.005,-81.055,-48.340,0.000,-66.895,0.000
1709375757.009,48.340,-43.945,0.000,0.000,0.000
1709375757.013,56.152,-45.410,0.000,8.301,0.000
1709375757.017,-79.102,-50.293,0.000,-46.387,0.000
1709375757.021,-133.301,-54.199,0.000,-70.801,0.000
1709375757.025,-95.703,-62.988,0.000,-53.223,0.000
1709375757.029,31.250,-52.246,0.000,-0.488,0.000
1709375757.032,68.359,-37.598,0.000,6.348,0.000
1709375757.036,-64.941,-51.270,0.000,-49.316,0.000
1709375757.040,-134.277,-56.152,-33.691,-73.242,0.000
1709375757.044,-100.586,-45.410,-32.715,-59.570,0.000
1709375757.048,26.855,-35.645,-30.762,-11.230,0.000
1709375757.052,81.055,-31.250,-29.785,5.859,0.000
1709375757.056,-46.875,-44.434,-39.062,-49.316,0.000
1709375757.060,-123.047,-51.270,-43.945,-80.566,0.000
1709375757.064,-106.934,-43.945,-41.016,-77.148,0.000
1709375757.068,1.953,-40.039,-39.551,-33.203,0.000
1709375757.072,84.473,-36.621,-36.621,20.508,0.000
1709375757.076,-26.367,-34.180,-37.109,-23.926,0.000
1709375757.079,-116.699,-38.574,-37.109,-70.312,0.000
1709375757.083,-104.004,-40.039,-34.180,-66.406,0.000
1709375757.087,-4.395,-33.691,-33.691,-28.320,0.000
1709375757.091,89.355,-22.949,-36.133,18.066,0.000
1709375757.095,-5.371,-31.250,-39.551,-16.602,0.000
1709375757.099,-108.398,-46.387,-39.551,-63.477,0.000
1709375757.103,-106.445,-45.898,-38.574,-68.848,0.000
1709375757.107,-22.949,-35.156,-37.598,-37.109,0.000
1709375757.111,80.566,-23.438,-36.133,8.789,0.000
1709375757.115,6.348,-36.621,-38.086,-15.625,0.000
1709375757.119,-112.305,-48.828,-40.527,-62.500,0.000
1709375757.122,-120.117,-39.062,-40.527,-74.707,0.000
1709375757.126,-35.645,-29.297,-40.527,-41.016,0.000
1709375757.130,88.867,-26.855,-40.039,22.949,0.000
1709375757.134,33.203,-32.715,-37.109,3.418,0.000
1709375757.138,-93.750,-41.992,-34.668,-56.152,0.000
1709375757.142,-112.793,-47.363,-38.086,-68.848,0.000
1709375757.146,-50.293,-48.828,-44.922,-46.387,0.000
1709375757.150,82.520,-31.250,-43.945,10.742,0.000
1709375757.154,46.875,-28.809,-40.039,-0.488,0.000
1709375757.157,-101.074,-47.363,-37.109,-65.918,0.000
1709375757.161,-129.883,-58.594,-38.574,-70.312,0.000
1709375757.165,-81.543,-54.688,-45.898,-52.734,0.000
1709375757.169,39.062,-43.945,-44.434,-2.441,0.000
1709375757.173,43.945,-44.434,-46.387,3.906,0.000
1709375757.177,-74.219,-45.898,-43.945,-50.781,0.000
1709375757.181,-123.047,-47.852,-42.480,-74.707,0.000
1709375757.185,-81.543,-45.898,-44.922,-66.406,0.000
1709375757.188,47.852,-37.598,-41.992,-16.602,0.000
1709375757.192,67.383,-34.180,-40.527,-5.371,0.000
1709375757.196,-62.500,-41.504,-40.039,-60.547,0.000
1709375757.200,-125.000,-51.270,-40.527,-85.449,0.000
1709375757.204,-95.215,-57.129,-40.039,-65.430,0.000
1709375757.208,30.762,-45.898,-36.133,-2.441,0.000
1709375757.212,79.102,-30.762,-30.273,15.137,0.000
1709375757.216,-51.758,-42.969,-29.297,-38.086,0.000
1709375757.220,-124.512,-54.199,-29.297,-61.035,0.000
1709375757.224,-98.633,-46.875,-24.902,-59.570,0.000
1709375757.227,17.090,-41.016,-26.367,-15.137,0.000
1709375757.231,85.938,-41.016,-26.367,32.227,0.000
1709375757.235,-41.016,-51.270,-23.926,-13.672,0.000
1709375757.239,-130.371,-59.570,-23.438,-54.688,0.000
1709375757.243,-116.699,-56.641,-24.414,-49.316,0.000
1709375757.247,-12.695,-48.340,-20.508,-6.836,0.000
1709375757.251,77.637,-48.340,-23.926,38.086,0.000
1709375757.255,-25.879,-50.293,-30.273,-5.859,0.000
1709375757.258,-125.000,-52.246,-31.738,-54.199,0.000
1709375757.262,-116.211,-55.176,-35.156,-62.012,0.000
1709375757.266,-19.043,-45.410,-33.691,-32.715,0.000
1709375757.270,88.867,-35.645,-31.250,15.625,0.000
1709375757.274,4.395,-40.039,-27.832,-17.578,0.000
1709375757.278,-108.887,-48.828,-28.809,-67.871,0.000
1709375757.281,-112.793,-46.875,-33.203,-74.707,0.000
1709375757.285,-30.762,-39.551,-31.250,-42.969,0.000
1709375757.289,88.379,-31.738,-33.203,13.184,0.000
1709375757.293,23.926,-38.086,-34.180,-6.348,0.000
1709375757.297,-100.098,-46.387,-34.180,-60.059,0.000
1709375757.301,-117.676,-47.363,-40.527,-73.730,0.000
1709375757.305,-50.293,-42.480,-43.457,-45.410,0.000
1709375757.309,77.637,-34.180,-44.922,15.625,0.000
1709375757.313,38.574,-32.227,-43.945,4.395,0.000
1709375757.317,-91.309,-35.156,-40.039,-57.617,0.000
1709375757.321,0.000,-41.992,-41.992,-71.777,0.000
1709375757.325,0.000,-46.387,-45.898,-47.852,0.000
1709375757.329,0.000,-40.527,-42.969,8.301,0.000
1709375757.333,0.000,-39.062,-38.086,2.441,0.000
1709375757.337,0.000,-43.457,-37.109,-52.246,0.000
1709375757.341,0.000,-47.852,-38.086,-60.547,0.000
1709375757.344,0.000,-44.434,-35.645,-48.828,0.000
1709375757.348,0.000,-36.133,-36.621,-6.836,0.000
1709375757.352,0.000,-38.086,-40.039,11.719,0.000
1709375757.356,0.000,-45.410,-38.086,-22.949,0.000
1709375757.360,0.000,-43.945,-36.133,-62.988,0.000
1709375757.364,0.000,-40.039,-41.504,-72.266,0.000
1709375757.368,21.973,-35.645,-42.969,-14.160,0.000
1709375757.372,68.359,-33.203,-38.086,10.742,0.000
1709375757.376,-71.289,-41.504,-39.551,-48.340,0.000
1709375757.380,-138.672,-48.828,-43.457,-82.520,0.000
1709375757.384,-104.492,-46.875,-38.574,-75.195,0.000
1709375757.388,11.230,-41.016,-33.691,-21.973,0.000
1709375757.392,72.266,-34.668,-35.645,3.418,0.000
1709375757.396,-51.270,-39.551,-39.062,-54.199,0.000
1709375757.400,-132.324,-49.316,-36.133,-74.707,0.000
1709375757.403,-115.723,-45.410,-38.086,-63.965,0.000
1709375757.407,-2.930,-34.668,-42.480,-32.715,0.000
1709375757.411,85.449,-33.691,-42.969,0.977,0.000
1709375757.415,-33.691,-40.527,-43.945,-40.039,0.000
1709375757.419,-131.348,-44.922,-44.922,-87.402,0.000
1709375757.423,-118.652,-40.527,-44.922,-82.031,0.000
1709375757.427,-19.043,-35.645,-45.898,-33.691,0.000
1709375757.431,75.195,-32.227,-41.992,7.812,0.000
1709375757.435,-21.484,-37.598,-41.016,-29.785,0.000
1709375757.439,-126.465,-46.875,-39.551,-80.566,0.000
1709375757.443,-124.023,-45.410,-38.574,-83.984,0.000
1709375757.447,-31.738,-38.574,-39.062,-36.621,0.000
1709375757.451,79.102,-22.949,-38.086,13.672,0.000
1709375757.454,4.395,-29.785,-41.016,-14.648,0.000
1709375757.458,-107.910,-43.457,-41.016,-62.988,0.000
1709375757.462,-125.977,-41.992,-41.016,-70.312,0.000
1709375757.466,-52.246,-35.645,-37.109,-42.969,0.000
1709375757.470,73.242,-22.949,-33.203,9.277,0.000
1709375757.474,14.648,-26.367,-35.645,-2.441,0.000
1709375757.478,-114.746,-39.551,-36.133,-55.176,0.000
1709375757.482,-130.371,-40.527,-35.645,-73.242,0.000
1709375757.486,-72.754,-34.180,-37.598,-53.711,0.000
1709375757.490,54.688,-32.715,-35.645,2.930,0.000
1709375757.493,31.250,-37.598,-32.715,0.000,0.000
1709375757.497,-101.562,-40.527,-31.250,-58.594,0.000
1709375757.501,-126.953,-40.039,-27.832,-72.266,0.000
1709375757.505,-70.801,-37.109,-25.879,-47.852,0.000
1709375757.509,53.223,-31.250,-26.855,1.465,0.000
1709375757.513,51.270,-27.832,-32.227,0.488,0.000
1709375757.517,-83.984,-38.086,-36.133,-54.688,0.000
1709375757.521,-125.488,-47.363,-33.691,-76.172,0.000
1709375757.525,-82.031,-45.410,-37.109,-63.965,0.000
1709375757.529,46.387,-34.668,-38.574,-11.719,0.000
1709375757.532,77.148,-30.762,-37.109,10.254,0.000
1709375757.536,-60.547,-47.363,-40.039,-36.133,0.000
1709375757.540,-125.488,-42.480,-43.945,-76.172,0.000
1709375757.544,-93.262,-30.273,-46.387,-78.125,0.000
1709375757.548,34.668,-27.832,-43.945,-21.973,0.000
1709375757.552,83.008,-24.902,-39.062,9.766,0.000
1709375757.556,-51.270,-31.250,-41.016,-48.828,0.000
1709375757.560,-127.441,-43.945,-49.805,-90.820,0.000
1709375757.563,-101.074,-48.828,-45.410,-79.102,0.000
1709375757.567,14.648,-36.133,-37.109,-30.273,0.000
1709375757.571,84.961,-28.320,-38.086,-3.418,0.000
1709375757.575,-35.156,-41.504,-37.598,-44.922,0.000
1709375757.579,-127.930,-51.758,-33.691,-71.777,0.000
1709375757.583,-117.188,-55.664,-36.133,-67.383,0.000
1709375757.587,-20.020,-40.527,-37.109,-40.527,0.000
1709375757.591,71.777,-31.250,-31.738,-2.930,0.000
1709375757.595,-33.203,-45.410,-26.367,-34.668,0.000
1709375757.599,-132.324,-45.410,-26.367,-69.336,0.000
1709375757.602,-122.070,-40.527,-26.367,-67.383,0.000
1709375757.606,-34.180,-44.922,-24.902,-35.156,0.000
1709375757.610,75.195,-39.062,-22.461,11.230,0.000
1709375757.614,-4.395,-38.086,-25.879,-19.531,0.000
1709375757.618,-124.512,-48.828,-31.738,-66.406,0.000
1709375757.622,-131.348,-54.688,-29.297,-67.383,0.000
1709375757.626,-44.434,-53.711,-28.320,-28.320,0.000
1709375757.630,72.266,-37.598,-33.203,20.996,0.000
1709375757.633,12.695,-40.039,-33.691,-6.348,0.000
1709375757.637,-110.840,-50.293,-28.320,-53.223,0.000
1709375757.641,-124.023,-41.992,-26.855,-61.035,0.000
1709375757.645,-49.316,-39.062,-28.320,-40.527,0.000
1709375757.649,73.730,-37.109,-23.926,13.184,0.000
1709375757.653,34.668,-40.039,-25.879,5.371,0.000
1709375757.657,-94.727,-47.852,-35.156,-56.152,0.000
1709375757.660,-126.465,-47.852,-38.086,-73.730,0.000
1709375757.664,-71.777,-44.922,-39.551,-58.594,0.000
1709375757.668,63.965,-38.574,-39.551,-3.906,0.000
1709375757.672,51.758,-36.621,-36.133,6.348,0.000
1709375757.676,-82.031,-43.457,-37.109,-57.617,0.000
1709375757.680,-118.164,-46.875,-35.645,-82.520,0.000
1709375757.684,-75.195,-42.969,-36.133,-59.570,0.000
1709375757.688,54.688,-31.738,-40.039,-3.906,0.000
1709375757.692,64.453,-38.086,-41.504,-0.977,0.000
1709375757.696,-67.871,-48.340,-40.527,-52.246,0.000
1709375757.700,-121.582,-49.316,-43.945,-67.871,0.000
1709375757.704,-105.469,-51.270,-48.828,-61.523,0.000
1709375757.708,22.949,-44.922,-47.363,-4.883,0.000
1709375757.712,65.918,-39.062,-45.410,20.508,0.000
1709375757.715,-78.613,-49.805,-46.875,-36.133,0.000
1709375757.719,-145.508,-51.758,-46.387,-67.871,0.000
1709375757.723,-110.352,-43.457,-44.922,-65.430,0.000
1709375757.727,12.695,-40.527,-43.945,-13.672,0.000
1709375757.731,77.637,-43.457,-40.527,31.250,0.000
1709375757.735,-49.805,-44.922,-41.016,-17.578,0.000
1709375757.739,-136.719,-50.293,-45.410,-59.082,0.000
1709375757.743,-124.512,-51.758,-44.434,-64.453,0.000
1709375757.747,-12.207,-42.480,-39.551,-18.555,0.000
1709375757.751,76.172,-36.133,-37.109,24.414,0.000
1709375757.755,-35.645,-43.945,-39.062,-31.250,0.000
1709375757.759,-128.906,-50.781,-39.062,-79.102,0.000
1709375757.763,-113.281,-47.363,-35.156,-77.148,0.000
1709375757.767,-15.625,-38.574,-31.738,-34.180,0.000
1709375757.770,79.590,-33.203,-29.785,7.812,0.000
1709375757.774,-7.324,-45.410,-36.133,-27.344,0.000
1709375757.778,-114.746,-48.828,-40.527,-70.801,0.000
1709375757.782,-114.258,-45.410,-37.598,-79.102,0.000
1709375757.786,-26.855,-38.086,-36.621,-44.922,0.000
1709375757.790,81.543,-26.367,-34.180,7.324,0.000
1709375757.794,10.742,-25.391,-30.273,-13.184,0.000
1709375757.798,-109.863,-31.738,-28.809,-65.918,0.000
1709375757.802,-121.582,-42.969,-32.227,-78.125,0.000
1709375757.806,-24.902,-46.875,-38.086,-41.016,0.000
1709375757.810,75.684,-39.551,-38.086,3.906,0.000
1709375757.813,13.184,-37.598,-36.133,-13.672,0.000
1709375757.817,-104.980,-41.992,-36.133,-61.523,0.000
1709375757.821,-133.301,-48.828,-38.086,-66.406,0.000
1709375757.825,-70.801,-39.062,-33.691,-41.992,0.000
1709375757.829,54.199,-28.320,-33.691,2.930,0.000
1709375757.833,26.367,-38.574,-35.645,-10.742,0.000
1709375757.837,0.000,-48.340,-33.691,-63.965,0.000
1709375757.841,0.000,-47.852,-34.180,-77.148,0.000
1709375757.845,0.000,-39.062,-29.785,-57.617,0.000
1709375757.849,0.000,-30.273,-25.879,-0.977,0.000
1709375757.853,0.000,-33.691,-27.832,0.000,0.000
1709375757.857,0.000,-42.480,-30.273,-56.152,0.000
1709375757.860,0.000,-41.504,-34.180,-75.684,0.000
1709375757.864,0.000,-41.992,-34.668,-55.176,0.000
1709375757.868,0.000,-36.621,-31.738,0.488,0.000
1709375757.872,0.000,-31.738,-30.762,7.324,0.000
1709375757.876,0.000,-44.922,-36.621,-49.316,0.000
1709375757.880,0.000,-55.176,-41.016,-77.637,0.000
1709375757.884,-103.516,-55.176,-39.062,-68.848,0.000
1709375757.888,21.484,-42.480,-38.086,-12.695,0.000
1709375757.892,80.078,-33.203,-34.180,17.090,0.000
1709375757.895,-39.062,-43.457,-30.273,-29.785,0.000
1709375757.899,-115.723,-45.410,-28.320,-58.105,0.000
1709375757.903,-103.027,-42.969,-27.344,-57.617,0.000
1709375757.907,12.695,-37.109,-25.879,-12.207,0.000
1709375757.911,92.773,-38.086,-21.484,41.992,0.000
1709375757.915,-31.250,-42.480,-25.879,-8.789,0.000
1709375757.919,-118.164,-42.969,-33.691,-62.500,0.000
1709375757.923,-100.098,-43.457,-32.715,-58.594,0.000
1709375757.927,0.488,-39.062,-29.785,-22.949,0.000
1709375757.930,87.891,-35.645,-27.832,20.020,0.000
1709375757.934,-20.020,-39.062,-31.250,-14.160,0.000
1709375757.938,-114.746,-49.316,-37.598,-62.988,0.000
1709375757.942,-106.445,-53.223,-40.527,-70.801,0.000
1709375757.946,-10.742,-41.504,-37.109,-38.086,0.000
1709375757.950,95.215,-31.738,-35.156,10.742,0.000
1709375757.954,2.441,-42.969,-41.504,-13.184,0.000
1709375757.958,-118.652,-52.734,-44.922,-59.082,0.000
1709375757.962,-123.535,-44.434,-43.457,-77.637,0.000
1709375757.966,-40.039,-40.039,-39.551,-44.922,0.000
1709375757.970,74.707,-37.109,-39.551,9.766,0.000
1709375757.973,11.719,-40.527,-45.898,-20.508,0.000
1709375757.977,-110.840,-46.875,-46.387,-73.730,0.000
1709375757.981,-126.465,-51.270,-39.062,-78.125,0.000
1709375757.985,-53.223,-48.340,-35.156,-43.945,0.000
1709375757.989,69.336,-37.109,-34.180,12.695,0.000
1709375757.993,29.785,-41.504,-34.668,-2.930,0.000
1709375757.997,-99.609,-53.223,-32.227,-57.617,0.000
1709375758.000,-128.906,-60.547,-34.180,-68.359,0.000
1709375758.004,-75.684,-49.805,-37.109,-54.688,0.000
1709375758.008,57.129,-34.668,-33.203,1.465,0.000
1709375758.012,47.852,-40.527,-32.715,9.766,0.000
1709375758.016,-92.285,-48.828,-35.645,-49.805,0.000
1709375758.020,-135.254,-49.316,-34.668,-69.824,0.000
1709375758.023,-86.426,-47.852,-27.832,-55.664,0.000
1709375758.027,46.387,-41.992,-25.391,-1.465,0.000
1709375758.031,59.570,-37.109,-25.879,12.207,0.000
1709375758.035,-82.031,-45.898,-30.273,-44.922,0.000
1709375758.039,-134.277,-53.223,-32.715,-74.219,0.000
1709375758.043,-92.285,-50.293,-29.785,-62.012,0.000
1709375758.047,38.086,-37.598,-32.227,-6.836,0.000
1709375758.051,70.312,-29.297,-35.645,11.230,0.000
1709375758.055,-66.406,-38.086,-39.062,-49.805,0.000
1709375758.059,-126.465,-47.363,-42.480,-82.520,0.000
1709375758.063,-102.051,-44.922,-39.551,-72.754,0.000
1709375758.066,18.066,-32.227,-34.180,-17.578,0.000
1709375758.071,79.102,-34.668,-34.180,16.602,0.000
1709375758.075,-52.734,-46.387,-32.227,-31.250,0.000
1709375758.079,-133.301,-42.480,-32.715,-63.965,0.000
1709375758.082,-112.793,-46.875,-35.156,-71.777,0.000
1709375758.086,-7.812,-51.758,-33.691,-27.832,0.000
1709375758.090,80.078,-43.945,-33.691,17.578,0.000
1709375758.094,-31.738,-50.781,-32.227,-27.832,0.000
1709375758.098,-136.230,-55.664,-31.250,-65.918,0.000
1709375758.102,-125.000,-53.711,-31.738,-63.965,0.000
1709375758.106,-21.973,-53.711,-28.320,-17.578,0.000
1709375758.110,73.242,-42.480,-26.367,23.926,0.000
1709375758.114,-21.973,-45.410,-26.367,-15.137,0.000
1709375758.118,-120.117,-59.082,-27.832,-61.523,0.000
1709375758.122,-121.094,-62.988,-33.203,-74.219,0.000
1709375758.126,-39.551,-52.246,-36.621,-49.805,0.000
1709375758.130,72.754,-43.457,-38.086,5.859,0.000
1709375758.134,3.418,-51.758,-37.109,-8.301,0.000
1709375758.137,-113.770,-55.664,-40.527,-62.500,0.000
1709375758.141,-128.906,-49.316,-45.410,-75.195,0.000
1709375758.145,-57.129,-41.504,-43.945,-52.246,0.000
1709375758.149,63.477,-43.945,-40.039,-1.465,0.000
1709375758.153,21.973,-47.852,-37.109,-8.301,0.000
1709375758.157,-102.539,-44.922,-35.645,-62.988,0.000
1709375758.161,-129.395,-47.852,-39.062,-78.125,0.000
