timestamps,TP9,AF7,AF8,TP10,Right AUX
1709291461.852,29.785,-44.922,-34.180,34.668,0.000
1709291461.856,16.602,-51.758,-35.645,27.832,0.000
1709291461.860,7.324,-60.059,-39.062,0.977,0.000
1709291461.863,10.254,-50.781,-41.016,-6.836,0.000
1709291461.867,12.695,-44.922,-41.504,-1.953,0.000
1709291461.871,17.578,-49.805,-37.109,16.602,0.000
1709291461.875,12.207,-40.527,-30.762,7.812,0.000
1709291461.879,2.930,-50.293,-29.785,-4.883,0.000
1709291461.883,-0.977,-55.176,-36.621,-7.324,0.000
1709291461.887,0.977,-32.227,-42.480,-5.371,0.000
1709291461.891,8.789,-38.086,-37.598,16.113,0.000
1709291461.895,-1.465,-52.246,-36.621,15.625,0.000
1709291461.898,0.000,-51.270,-43.457,-5.371,0.000
1709291461.902,0.000,-42.480,-40.039,-15.137,0.000
1709291461.906,0.000,-46.875,-38.086,0.977,0.000
1709291461.910,0.000,-50.781,-39.551,10.254,0.000
1709291461.914,0.000,-43.457,-37.598,9.277,0.000
1709291461.918,0.000,-48.340,-37.109,-6.348,0.000
1709291461.922,0.000,-60.547,-38.086,-20.020,0.000
1709291461.926,0.000,-76.660,-40.527,-3.906,0.000
1709291461.930,0.000,-44.434,-40.527,12.695,0.000
1709291461.934,0.000,-25.879,-33.203,16.113,0.000
1709291461.938,0.000,-41.992,-32.227,6.348,0.000
1709291461.941,0.000,-39.062,-34.180,-9.277,0.000
1709291461.945,-20.508,-41.016,-38.086,-10.254,0.000
1709291461.949,-29.297,-50.781,-42.969,2.441,0.000
1709291461.953,-9.766,-54.199,-35.156,9.766,0.000
1709291461.957,-16.602,-53.711,-31.738,-5.371,0.000
1709291461.961,-50.781,-61.035,-49.316,-37.598,0.000
1709291461.965,-42.480,-66.895,-56.641,-44.922,0.000
1709291461.969,-24.902,-70.312,-42.969,-19.531,0.000
1709291461.972,-18.555,-65.430,-41.016,1.465,0.000
1709291461.976,-27.344,-42.480,-46.387,-11.719,0.000
1709291461.980,-36.621,-46.387,-40.039,-25.879,0.000
1709291461.984,-29.297,-65.430,-37.598,-21.484,0.000
1709291461.988,-25.879,-62.500,-42.480,-15.625,0.000
1709291461.992,-28.320,-53.223,-41.016,-12.695,0.000
1709291461.996,-25.391,-61.523,-39.062,-19.043,0.000
1709291461.999,-26.855,-71.777,-36.133,-32.227,0.000
1709291462.003,-25.391,-63.965,-36.621,-38.574,0.000
1709291462.007,-27.832,-55.664,-38.086,-27.832,0.000
1709291462.011,-25.879,-67.871,-32.715,0.488,0.000
1709291462.015,-24.414,-83.008,-34.668,0.977,0.000
1709291462.019,-37.109,-46.875,-35.645,-21.484,0.000
1709291462.023,-29.297,-37.109,-34.180,-35.645,0.000
1709291462.027,-21.973,-62.012,-35.156,-30.762,0.000
1709291462.031,-27.832,-63.965,-39.551,-3.418,0.000
1709291462.035,-22.461,-55.664,-41.016,-13.672,0.000
1709291462.038,-35.645,-54.688,-37.109,-31.738,0.000
1709291462.042,-47.852,-58.594,-41.992,-41.992,0.000
1709291462.046,-41.504,-60.547,-46.875,-37.109,0.000
1709291462.050,-31.738,-49.316,-47.852,-20.996,0.000
1709291462.054,-37.109,-48.340,-41.016,-20.996,0.000
1709291462.058,-50.781,-69.336,-41.504,-37.598,0.000
1709291462.062,-48.828,-60.059,-41.504,-43.945,0.000
1709291462.065,-34.180,-40.039,-32.227,-32.715,0.000
1709291462.069,-17.578,-36.621,-29.297,-16.602,0.000
1709291462.073,-23.926,-58.594,-35.156,-10.254,0.000
1709291462.077,-44.922,-63.477,-35.156,-22.461,0.000
1709291462.081,-50.781,-45.410,-37.598,-41.504,0.000
1709291462.085,-46.875,-51.758,-42.480,-48.340,0.000
1709291462.089,-45.898,-54.688,-39.551,-28.320,0.000
1709291462.093,-47.363,-40.039,-41.016,-20.508,0.000
1709291462.097,-40.039,-31.738,-37.109,-36.621,0.000
1709291462.101,-39.062,-43.457,-30.762,-39.551,0.000
1709291462.105,-38.574,-63.477,-31.250,-38.574,0.000
1709291462.109,-20.996,-57.129,-30.762,-28.809,0.000
1709291462.113,-12.695,-38.574,-24.414,-11.719,0.000
1709291462.117,-29.297,-51.270,-28.320,-12.207,0.000
1709291462.120,-31.738,-73.242,-35.645,-20.996,0.000
1709291462.124,-30.273,-41.504,-34.180,-40.527,0.000
1709291462.128,-26.855,-28.809,-36.133,-32.227,0.000
1709291462.132,-26.855,-46.387,-36.133,-18.555,0.000
1709291462.136,-27.344,-49.805,-32.227,-19.531,0.000
1709291462.140,-32.227,-52.246,-36.621,-30.762,0.000
1709291462.144,-28.809,-42.480,-35.645,-44.434,0.000
1709291462.148,-22.461,-44.434,-33.203,-32.715,0.000
1709291462.152,-21.484,-53.223,-33.691,-19.531,0.000
1709291462.156,-26.855,-47.363,-31.738,-26.855,0.000
1709291462.160,-37.598,-41.016,-34.180,-45.898,0.000
1709291462.164,-24.902,-52.246,-30.273,-48.340,0.000
1709291462.167,-6.836,-38.574,-21.973,-28.320,0.000
1709291462.171,-15.137,-39.551,-36.621,-26.855,0.000
1709291462.175,-29.297,-52.734,-42.480,-28.809,0.000
1709291462.179,-38.574,-59.082,-44.434,-38.574,0.000
1709291462.183,-41.504,-49.805,-48.340,-58.105,0.000
1709291462.187,-36.621,-36.133,-42.969,-49.316,0.000
1709291462.191,-24.902,-41.016,-41.992,-20.508,0.000
1709291462.195,-31.250,-45.898,-40.039,-7.324,0.000
1709291462.199,-37.109,-48.828,-36.621,-28.320,0.000
1709291462.203,-37.598,-44.434,-35.645,-47.363,0.000
1709291462.207,-39.062,-44.922,-40.039,-40.527,0.000
1709291462.211,-31.250,-64.453,-41.992,-19.043,0.000
1709291462.214,-19.531,-40.527,-36.621,-8.301,0.000
1709291462.218,-20.020,-30.762,-39.551,-25.391,0.000
1709291462.222,-23.438,-46.875,-47.363,-40.527,0.000
1709291462.226,-24.414,-42.480,-46.875,-40.527,0.000
1709291462.230,-21.484,-37.109,-39.062,-18.066,0.000
1709291462.234,-23.438,-45.410,-40.527,-16.113,0.000
1709291462.238,-26.367,-42.480,-41.504,-35.645,0.000
1709291462.242,-24.414,-27.832,-36.621,-32.715,0.000
1709291462.246,-34.668,-35.156,-46.875,-40.527,0.000
1709291462.250,-29.297,-36.621,-43.457,-34.180,0.000
1709291462.253,-30.273,-47.363,-37.598,-16.113,0.000
1709291462.257,-46.875,-47.363,-43.457,-25.879,0.000
1709291462.261,-48.340,-29.785,-45.898,-43.457,0.000
1709291462.265,-37.598,-39.551,-41.016,-43.457,0.000
1709291462.269,-33.691,-52.734,-37.598,-31.738,0.000
1709291462.273,-31.738,-50.781,-38.086,-32.227,0.000
1709291462.277,-42.480,-34.668,-35.156,-44.434,0.000
1709291462.281,-44.434,-35.156,-33.691,-45.410,0.000
1709291462.285,-30.762,-35.645,-34.180,-41.992,0.000
1709291462.289,-27.832,-35.156,-39.062,-34.180,0.000
1709291462.292,-26.367,-43.457,-36.621,-22.949,0.000
1709291462.296,-24.414,-45.410,-35.645,-31.250,0.000
1709291462.300,-35.645,-61.035,-45.410,-37.598,0.000
1709291462.304,-44.922,-37.109,-45.898,-49.316,0.000
1709291462.308,-33.691,-21.973,-32.715,-38.574,0.000
1709291462.312,-27.832,-39.551,-29.785,-20.996,0.000
1709291462.316,-29.297,-34.180,-34.180,-25.879,0.000
1709291462.320,-25.391,-20.020,-20.020,-22.461,0.000
1709291462.324,-33.203,-37.598,-25.391,-35.645,0.000
1709291462.328,-34.180,-56.641,-43.457,-38.574,0.000
1709291462.332,-24.414,-38.086,-41.992,-28.320,0.000
1709291462.336,-28.809,-29.785,-38.086,-30.273,0.000
1709291462.340,-40.527,-41.504,-38.086,-34.180,0.000
1709291462.344,-32.227,-50.293,-35.156,-41.016,0.000
1709291462.348,-20.996,-47.852,-31.738,-31.250,0.000
1709291462.352,-19.043,-32.715,-34.668,-9.766,0.000
1709291462.355,-22.461,-30.273,-34.180,-9.766,0.000
1709291462.359,-28.320,-36.133,-33.203,-24.414,0.000
1709291462.363,-22.949,-37.109,-38.086,-25.391,0.000
1709291462.368,-10.254,-33.691,-41.504,-11.719,0.000
1709291462.371,-16.113,-31.250,-42.480,-9.766,0.000
1709291462.375,-24.414,-36.133,-34.668,-6.836,0.000
1709291462.379,-30.273,-36.133,-34.668,-13.672,0.000
1709291462.383,-32.715,-30.273,-39.062,-36.621,0.000
1709291462.387,-32.715,-41.992,-36.133,-38.086,0.000
1709291462.391,-32.227,-47.852,-37.598,-28.320,0.000
1709291462.395,-19.043,-29.297,-34.180,-20.508,0.000
1709291462.399,-28.809,-23.926,-34.180,-29.297,0.000
1709291462.403,-41.992,-44.922,-41.992,-40.039,0.000
1709291462.407,-35.645,-69.824,-42.480,-32.227,0.000
1709291462.411,-29.297,-46.387,-42.969,-27.832,0.000
1709291462.414,-17.090,-10.742,-36.133,-19.043,0.000
1709291462.418,-12.207,-21.484,-26.855,-5.371,0.000
1709291462.422,-37.109,-45.410,-39.551,-32.227,0.000
1709291462.426,-45.898,-35.156,-42.480,-44.922,0.000
1709291462.430,-33.203,-24.902,-36.133,-29.297,0.000
1709291462.434,-32.715,-38.086,-36.621,-25.391,0.000
1709291462.437,-27.832,-35.156,-29.297,-28.320,0.000
1709291462.441,-21.484,-19.531,-30.273,-41.016,0.000
1709291462.445,-29.785,-26.367,-41.016,-42.969,0.000
1709291462.449,-35.156,-45.410,-40.039,-28.320,0.000
1709291462.453,-28.320,-32.227,-37.109,-4.883,0.000
1709291462.457,-27.344,-13.184,-40.039,-13.184,0.000
1709291462.461,-35.645,-28.320,-38.086,-28.320,0.000
1709291462.465,-28.809,-38.574,-35.156,-14.648,0.000
1709291462.469,-20.996,-30.762,-31.250,-17.090,0.000
1709291462.473,-14.648,-19.531,-31.250,-16.113,0.000
1709291462.477,-14.160,-24.414,-31.250,-6.836,0.000
1709291462.481,-39.062,-42.969,-33.203,-29.297,0.000
1709291462.485,-51.758,-40.039,-39.062,-43.457,0.000
1709291462.489,-33.203,-22.949,-36.621,-31.738,0.000
1709291462.492,-18.555,-32.715,-34.668,-16.113,0.000
1709291462.496,-37.109,-51.270,-37.598,-22.949,0.000
1709291462.500,-32.715,-24.414,-30.762,-41.992,0.000
1709291462.504,-23.438,-13.184,-22.949,-39.062,0.000
1709291462.508,-33.691,-36.133,-40.527,-41.992,0.000
1709291462.512,-39.062,-41.504,-46.875,-46.387,0.000
1709291462.516,-48.340,-31.250,-33.203,-33.691,0.000
1709291462.520,-43.945,-27.344,-32.715,-34.180,0.000
1709291462.524,-35.645,-40.527,-38.086,-41.504,0.000
1709291462.528,-30.273,-41.992,-34.668,-30.273,0.000
1709291462.532,-25.391,-33.691,-32.715,-23.438,0.000
1709291462.536,-27.344,-24.414,-33.691,-23.926,0.000
1709291462.539,-36.621,-45.410,-38.574,-31.250,0.000
1709291462.543,-27.832,-42.969,-50.293,-31.738,0.000
1709291462.547,4.883,-14.160,-55.176,-7.812,0.000
1709291462.551,5.859,-27.832,-38.086,-2.930,0.000
1709291462.555,-28.809,-47.852,-24.414,-22.461,0.000
1709291462.559,-51.270,-49.805,-30.273,-44.434,0.000
1709291462.563,-42.480,-48.828,-31.250,-48.340,0.000
1709291462.567,-35.645,-47.852,-31.738,-39.551,0.000
1709291462.571,-51.270,-49.805,-35.645,-29.785,0.000
1709291462.575,-55.664,-61.035,-33.691,-14.160,0.000
1709291462.578,-42.480,-63.477,-32.715,-24.902,0.000
1709291462.582,-43.457,-68.359,-39.551,-29.785,0.000
1709291462.586,-51.758,-83.008,-38.086,-12.695,0.000
1709291462.590,-35.645,-62.500,-35.156,-6.348,0.000
1709291462.594,-28.320,-54.688,-40.527,12.207,0.000
1709291462.598,-42.480,-71.289,-44.434,6.836,0.000
1709291462.602,-39.062,-65.918,-37.109,-17.578,0.000
1709291462.606,-28.809,-69.336,-29.785,-0.977,0.000
1709291462.610,-25.391,-83.008,-28.320,13.184,0.000
1709291462.614,-20.996,-80.078,-25.391,21.484,0.000
1709291462.617,-21.484,-76.172,-26.367,26.367,0.000
1709291462.621,-27.832,-87.402,-24.414,18.555,0.000
1709291462.625,-33.691,-90.332,-17.578,17.578,0.000
1709291462.629,-14.160,-100.586,-16.602,44.434,0.000
1709291462.633,4.395,-92.773,-18.555,66.895,0.000
1709291462.637,-4.395,-71.777,-12.695,44.922,0.000
1709291462.641,-22.461,-87.402,-9.277,15.625,0.000
1709291462.645,-22.949,-91.797,-9.277,17.090,0.000
1709291462.649,0.000,-74.219,-7.812,41.992,0.000
1709291462.652,3.418,-68.848,-4.883,62.012,0.000
1709291462.656,-5.371,-75.195,-3.906,52.734,0.000
1709291462.660,-13.672,-81.543,-7.324,31.738,0.000
1709291462.664,-8.301,-68.848,-9.766,27.832,0.000
1709291462.668,3.906,-65.430,-9.277,38.086,0.000
1709291462.672,5.859,-74.707,-13.672,34.668,0.000
1709291462.676,3.906,-83.008,-14.160,36.621,0.000
1709291462.680,-5.371,-60.547,-15.137,19.043,0.000
1709291462.684,-9.766,-44.922,-17.090,8.789,0.000
1709291462.688,-1.465,-52.734,-20.020,23.926,0.000
1709291462.692,4.395,-53.223,-20.508,22.461,0.000
1709291462.695,-11.230,-57.129,0.000,20.996,0.000
1709291462.699,-19.531,-55.176,0.000,-0.977,0.000
1709291462.703,-20.508,-57.617,0.000,-16.602,0.000
1709291462.707,-12.695,-52.246,0.000,4.395,0.000
1709291462.711,4.883,-40.039,0.000,26.367,0.000
1709291462.715,-6.836,-47.852,0.000,17.578,0.000
1709291462.719,-26.855,-60.547,0.000,1.465,0.000
1709291462.723,-31.250,-48.340,0.000,3.906,0.000
1709291462.726,-28.809,-21.484,0.000,1.465,0.000
1709291462.730,-11.719,-35.645,0.000,4.883,0.000
1709291462.734,-14.160,-53.711,0.000,1.465,0.000
1709291462.738,-25.879,-38.574,0.000,-7.812,0.000
1709291462.742,-14.160,-32.227,-25.391,-16.602,0.000
1709291462.746,-6.836,-43.945,-27.832,-7.812,0.000
1709291462.750,-6.836,-52.246,-29.785,8.789,0.000
1709291462.754,-6.348,-42.969,-34.668,14.160,0.000
1709291462.757,-13.184,-38.086,-34.180,0.000,0.000
1709291462.761,-21.973,-54.688,-32.715,-23.438,0.000
1709291462.765,-21.484,-70.801,-32.715,-4.883,0.000
1709291462.769,-23.438,-53.711,-32.715,3.418,0.000
1709291462.773,-25.391,-41.016,-31.250,-9.766,0.000
1709291462.777,-18.555,-45.410,-27.832,-1.465,0.000
1709291462.781,-23.438,-39.062,-25.391,-10.742,0.000
1709291462.785,-32.715,-40.039,-26.855,-23.926,0.000
1709291462.789,-23.926,-34.180,-30.273,-9.766,0.000
1709291462.793,-8.301,-34.180,-23.438,7.324,0.000
1709291462.797,-17.578,-38.574,-18.555,-3.906,0.000
1709291462.801,-18.555,-32.227,-27.344,-18.555,0.000
1709291462.805,-8.301,-39.551,-34.180,-11.719,0.000
1709291462.809,-24.902,-53.223,-27.344,-10.254,0.000
1709291462.813,-33.691,-57.617,-24.902,-12.695,0.000
1709291462.816,-20.508,-45.410,-25.391,-15.137,0.000
1709291462.820,-17.578,-37.598,-20.508,-17.578,0.000
1709291462.824,-41.504,-59.570,-18.555,-18.066,0.000
1709291462.828,-27.344,-47.852,-18.555,-5.371,0.000
1709291462.832,-19.043,-26.367,-20.508,0.488,0.000
1709291462.836,-41.504,-42.969,-22.949,-8.789,0.000
1709291462.840,-35.156,-51.758,-23.438,-8.789,0.000
1709291462.844,-20.996,-35.156,-22.949,-8.789,0.000
1709291462.848,-26.367,-27.832,-20.508,-1.953,0.000
1709291462.852,-25.879,-37.598,-22.949,10.742,0.000
1709291462.856,-26.855,-45.898,-26.855,2.441,0.000
1709291462.860,-34.180,-34.668,-21.973,-25.879,0.000
1709291462.863,-30.273,-22.461,-24.902,-26.855,0.000
1709291462.867,-18.066,-36.133,-25.391,-6.836,0.000
1709291462.871,-13.672,-47.852,-22.461,1.953,0.000
1709291462.875,-18.555,-20.020,-26.367,0.488,0.000
1709291462.879,-21.973,-21.484,-26.855,-8.301,0.000
1709291462.883,-26.367,-43.457,-20.996,-18.555,0.000
1709291462.887,-23.926,-42.480,-25.879,-12.207,0.000
1709291462.891,-17.578,-24.414,-28.320,4.395,0.000
1709291462.895,-20.996,-13.184,-23.926,3.418,0.000
1709291462.899,-28.320,-32.227,-28.320,-11.719,0.000
1709291462.903,-28.809,-45.410,-29.297,-20.996,0.000
1709291462.907,-27.832,-33.203,-27.832,-18.066,0.000
1709291462.910,-25.879,-22.461,-24.414,4.395,0.000
1709291462.914,-24.902,-43.945,-23.438,13.184,0.000
1709291462.918,-42.480,-37.598,-32.227,-4.883,0.000
1709291462.922,-42.480,-19.043,-29.785,-28.320,0.000
1709291462.926,-35.645,-38.086,-23.438,-30.273,0.000
1709291462.930,-34.668,-42.480,-31.738,-20.020,0.000
1709291462.934,-29.297,-36.621,-37.598,-11.230,0.000
1709291462.938,-45.410,-40.527,-39.062,-31.250,0.000
1709291462.942,-52.734,-43.457,-41.016,-49.805,0.000
1709291462.946,-39.551,-42.480,-42.969,-41.992,0.000
1709291462.950,-41.016,-46.875,-40.527,-20.996,0.000
1709291462.953,-40.039,-32.715,-33.691,-11.230,0.000
1709291462.957,-32.715,-30.762,-31.738,-16.113,0.000
1709291462.961,-35.156,-61.035,-35.645,-10.254,0.000
1709291462.965,-34.180,-32.715,-38.086,-20.508,0.000
1709291462.969,-20.996,-20.508,-37.598,-24.902,0.000
1709291462.973,-15.625,-35.645,-39.551,-7.812,0.000
1709291462.977,-18.066,-26.367,-39.062,7.812,0.000
1709291462.981,-23.438,-29.785,-33.691,-2.930,0.000
1709291462.985,-32.227,-39.062,-37.109,-25.879,0.000
1709291462.989,-27.832,-34.668,-42.480,-12.695,0.000
1709291462.992,-21.484,-26.855,-41.992,1.953,0.000
1709291462.996,-21.484,-29.785,-43.457,-19.043,0.000
1709291463.000,-26.855,-28.809,-41.504,-43.945,0.000
1709291463.004,-26.367,-35.156,-34.668,-31.738,0.000
1709291463.008,-18.555,-28.320,-35.156,-17.578,0.000
1709291463.012,-14.160,-1.465,-37.598,-13.184,0.000
1709291463.016,-12.695,-12.207,-35.156,-6.348,0.000
1709291463.020,-12.695,-28.320,-35.156,-13.672,0.000
1709291463.024,-7.324,-11.719,-34.668,-32.715,0.000
1709291463.028,3.906,-5.371,-34.668,-24.902,0.000
1709291463.031,-2.441,-16.602,-41.016,-4.883,0.000
1709291463.035,-9.277,-22.949,-33.691,3.906,0.000
1709291463.039,-21.973,-26.367,-30.762,-13.184,0.000
1709291463.043,-28.320,-21.973,-33.691,-30.273,0.000
1709291463.047,-25.391,-25.391,-32.715,-26.855,0.000
1709291463.051,-29.785,-44.922,-31.250,-6.348,0.000
1709291463.055,-28.320,-11.230,-31.250,0.000,0.000
1709291463.059,-18.066,7.324,-32.715,-10.254,0.000
1709291463.063,-25.879,-15.137,-35.156,-30.762,0.000
1709291463.067,-22.949,-19.043,-30.273,-31.738,0.000
1709291463.070,-4.395,-14.648,-31.250,-17.578,0.000
1709291463.074,-3.906,-21.484,-31.250,-7.812,0.000
1709291463.078,-14.160,-26.855,-25.879,-22.949,0.000
1709291463.082,-21.484,-20.508,-28.809,-53.223,0.000
1709291463.086,-27.344,-30.273,-32.227,-47.363,0.000
1709291463.090,-13.672,-41.992,-32.227,-22.949,0.000
1709291463.094,-22.461,-48.828,-32.715,-11.719,0.000
1709291463.098,-46.875,-41.016,-28.809,-14.648,0.000
1709291463.101,-40.039,-11.719,-27.344,-31.250,0.000
1709291463.105,-33.691,-13.672,-27.344,-29.785,0.000
1709291463.109,-33.203,-37.598,-28.809,-8.789,0.000
1709291463.113,-19.531,-30.762,-27.344,-2.930,0.000
1709291463.117,-22.461,-20.508,-30.273,-20.508,0.000
1709291463.121,-35.156,-34.668,-34.180,-41.504,0.000
1709291463.125,-45.410,-40.527,-34.668,-47.363,0.000
1709291463.129,-41.504,-30.273,-34.668,-38.086,0.000
1709291463.132,-18.066,-23.926,-28.809,-15.137,0.000
1709291463.136,-26.855,-35.645,-25.391,0.488,0.000
1709291463.140,-41.504,-55.176,-23.438,-13.672,0.000
1709291463.144,-13.184,-34.180,-19.531,-19.531,0.000
1709291463.148,1.953,-18.066,-30.762,-9.277,0.000
1709291463.152,-15.625,-19.531,-45.410,-20.508,0.000
1709291463.156,-25.879,-17.090,-45.410,-40.527,0.000
1709291463.160,-25.879,-14.648,-45.898,-56.152,0.000
1709291463.163,0.000,-17.578,0.000,-51.758,0.000
1709291463.167,0.000,-28.809,0.000,-18.066,0.000
1709291463.171,0.000,-24.414,0.000,8.789,0.000
1709291463.175,0.000,-10.254,0.000,3.906,0.000
1709291463.179,0.000,-10.742,0.000,-2.441,0.000
1709291463.183,0.000,-29.785,0.000,-5.859,0.000
1709291463.187,0.000,-20.508,0.000,-0.488,0.000
1709291463.191,0.000,0.488,0.000,4.395,0.000
1709291463.195,0.000,-9.766,0.000,3.418,0.000
1709291463.198,0.000,-27.832,0.000,-13.672,0.000
1709291463.202,0.000,-13.184,0.000,-34.668,0.000
1709291463.206,0.000,-3.418,0.000,-25.391,0.000
1709291463.210,-6.836,-18.555,-41.992,-7.812,0.000
1709291463.214,-6.348,-14.160,-38.574,-14.160,0.000
1709291463.218,-10.742,-5.371,-41.504,-17.578,0.000
1709291463.222,-14.648,-17.578,-37.109,-31.250,0.000
1709291463.225,-24.414,-27.832,-35.645,-34.668,0.000
1709291463.229,-22.461,-39.551,-38.574,-16.113,0.000
1709291463.233,-4.883,-26.367,-35.156,-3.906,0.000
1709291463.237,-13.184,-9.277,-34.180,-13.672,0.000
1709291463.241,-28.320,-21.973,-33.691,-25.879,0.000
1709291463.245,-24.414,-40.039,-31.250,-7.324,0.000
1709291463.249,-12.207,-16.113,-30.273,7.324,0.000
1709291463.253,-8.789,-6.348,-31.250,11.230,0.000
1709291463.257,-18.066,-20.996,-29.297,1.953,0.000
1709291463.261,-22.949,-20.020,-29.785,-13.184,0.000
1709291463.265,-27.832,-20.020,-37.598,-20.508,0.000
1709291463.269,-28.320,-23.438,-39.551,-15.625,0.000
1709291463.272,-29.785,-23.438,-35.645,-5.859,0.000
1709291463.276,-36.133,-22.949,-36.133,-16.602,0.000
1709291463.280,-29.297,-16.602,-34.668,-13.184,0.000
1709291463.284,-23.438,-12.695,-38.574,-14.648,0.000
1709291463.288,-30.273,-33.691,-40.527,-34.668,0.000
1709291463.292,-23.438,-29.785,-35.645,-16.113,0.000
1709291463.296,-18.066,-8.301,-31.738,-16.602,0.000
1709291463.300,-31.250,-21.973,-28.320,-37.109,0.000
1709291463.304,-32.715,-38.086,-26.855,-31.738,0.000
1709291463.308,-27.344,-24.902,-26.367,-23.926,0.000
1709291463.312,-16.113,-11.230,-25.879,-20.508,0.000
1709291463.315,-14.160,-24.414,-24.414,-11.719,0.000
1709291463.319,-28.320,-32.715,-29.297,-23.926,0.000
1709291463.323,-35.156,-33.691,-32.715,-33.203,0.000
1709291463.327,-30.762,-37.598,-32.227,-24.414,0.000
1709291463.331,-23.438,-35.645,-30.762,-7.812,0.000
1709291463.335,-21.484,-55.664,-32.227,0.977,0.000
1709291463.339,-31.250,-29.297,-29.785,-7.812,0.000
1709291463.343,-32.715,-10.254,-26.367,-28.320,0.000
1709291463.347,-22.461,-25.391,-27.344,-31.738,0.000
1709291463.351,-20.996,-23.926,0.000,-18.555,0.000
1709291463.355,-25.391,-24.414,0.000,-23.438,0.000
1709291463.358,-27.344,-31.738,0.000,-37.598,0.000
1709291463.362,-25.391,-31.738,0.000,-37.109,0.000
1709291463.366,-21.973,-22.949,0.000,-28.809,0.000
1709291463.370,-18.555,-33.691,0.000,-17.578,0.000
1709291463.374,-19.043,-39.062,0.000,-24.414,0.000
1709291463.378,-20.996,-43.457,0.000,-29.785,0.000
1709291463.382,-25.391,-44.922,0.000,-27.832,0.000
1709291463.386,-34.668,-19.043,0.000,-34.180,0.000
1709291463.390,-29.297,-20.996,0.000,-20.996,0.000
1709291463.394,-12.695,-42.480,0.000,-12.695,0.000
1709291463.397,-16.602,-31.738,-32.715,-29.297,0.000
1709291463.401,-28.809,-19.531,-35.156,-42.969,0.000
1709291463.405,-21.484,-33.691,-34.180,-32.715,0.000
1709291463.409,-13.672,-41.016,-31.738,-8.789,0.000
1709291463.413,-21.973,-29.297,-34.668,-13.184,0.000
1709291463.417,-25.879,-40.039,-42.969,-42.969,0.000
1709291463.421,-27.832,-48.828,-37.598,-47.363,0.000
1709291463.425,-39.062,-54.199,-31.738,-36.133,0.000
1709291463.429,-27.344,-24.902,-30.273,-27.344,0.000
1709291463.433,-23.438,-7.812,-31.250,-21.484,0.000
1709291463.437,-31.738,-28.809,-32.227,-23.438,0.000
1709291463.440,-29.785,-37.109,-35.645,-40.039,0.000
1709291463.444,-24.414,-32.715,-37.598,-42.480,0.000
1709291463.448,-26.367,-32.227,-34.180,-20.508,0.000
1709291463.452,-28.320,-37.598,-32.715,-10.742,0.000
1709291463.456,-31.250,-30.273,-33.203,-22.461,0.000
1709291463.460,-40.527,-29.785,-34.668,-32.715,0.000
1709291463.464,-37.109,-35.156,-38.574,-48.340,0.000
1709291463.468,-23.438,-38.086,-30.762,-28.320,0.000
1709291463.471,-30.762,-36.621,-28.320,-4.883,0.000
1709291463.475,-46.387,-27.832,-43.457,-32.715,0.000
1709291463.479,-47.363,-37.109,-47.363,-46.387,0.000
1709291463.483,-36.133,-46.387,-47.363,-41.992,0.000
1709291463.487,-14.648,-34.180,-41.016,-30.273,0.000
1709291463.491,-34.180,-34.180,-43.945,-23.926,0.000
1709291463.495,-44.922,-45.898,-50.781,-23.926,0.000
1709291463.499,-35.645,-42.969,-42.969,-25.879,0.000
1709291463.502,-54.688,-35.645,-40.039,-45.898,0.000
1709291463.506,-57.129,-38.086,-42.969,-41.992,0.000
1709291463.510,-46.875,-49.805,-40.527,-20.020,0.000
1709291463.514,-38.574,-67.871,-37.598,-10.742,0.000
1709291463.518,-30.762,-38.086,-37.598,-21.973,0.000
1709291463.522,-28.809,-23.926,-34.668,-40.039,0.000
1709291463.526,-32.715,-38.574,-35.645,-33.203,0.000
1709291463.530,-30.273,-29.785,-38.086,-26.367,0.000
1709291463.534,-35.645,-21.973,-39.062,-30.273,0.000
1709291463.537,-36.133,-26.367,-35.645,-29.297,0.000
1709291463.541,-33.691,-42.969,-33.691,-35.156,0.000
1709291463.545,-36.621,-43.945,-33.691,-36.621,0.000
1709291463.549,-35.645,-27.832,-36.621,-24.902,0.000
1709291463.553,-25.879,-28.320,-36.133,-20.996,0.000
1709291463.557,-41.016,-40.527,-30.273,-30.762,0.000
1709291463.561,-52.734,-33.203,-38.574,-32.227,0.000
1709291463.565,-44.434,-14.648,-37.109,-21.973,0.000
1709291463.569,-38.086,-20.020,-32.227,-20.020,0.000
1709291463.572,-34.668,-35.645,-34.668,-11.719,0.000
1709291463.576,-30.762,-26.367,-28.320,-18.066,0.000
1709291463.580,-40.039,-12.695,-20.020,-41.504,0.000
1709291463.585,-39.551,-36.133,-31.250,-52.734,0.000
1709291463.588,-27.344,-54.688,-41.016,-41.992,0.000
1709291463.592,-24.414,-41.016,-34.668,-23.438,0.000
1709291463.596,-32.227,-28.809,-31.250,-21.973,0.000
1709291463.600,-44.922,-38.574,-33.203,-33.203,0.000
1709291463.604,-29.297,-53.223,-30.762,-34.668,0.000
1709291463.608,-30.273,-33.203,-28.809,-25.391,0.000
1709291463.612,-33.691,-8.301,-25.391,-8.301,0.000
1709291463.616,-19.531,-18.555,-27.344,-11.719,0.000
1709291463.620,-20.996,-35.156,-25.879,-18.066,0.000
1709291463.624,-29.785,-15.625,-26.367,-23.926,0.000
1709291463.627,-28.809,-14.648,-29.297,-12.695,0.000
1709291463.632,-15.137,-15.625,-12.695,5.371,0.000
1709291463.635,-36.133,-28.320,-25.879,-23.438,0.000
1709291463.639,-57.129,-41.016,-42.480,-40.527,0.000
1709291463.643,-44.922,-26.855,-33.203,-41.504,0.000
1709291463.647,-43.945,-35.156,-34.180,-33.691,0.000
1709291463.651,-43.457,-41.016,-36.133,-17.578,0.000
1709291463.655,-33.203,-28.809,-32.227,-20.996,0.000
1709291463.659,-35.156,-16.113,-31.738,-40.039,0.000
1709291463.663,-35.156,-36.133,-33.691,-50.293,0.000
1709291463.667,-32.715,-46.387,-35.156,-35.645,0.000
1709291463.671,-19.043,-16.113,-30.762,-19.531,0.000
1709291463.675,-17.578,-12.207,-27.832,-22.461,0.000
1709291463.679,-37.109,-29.785,-30.273,-34.180,0.000
1709291463.682,-35.156,-33.691,-32.227,-39.062,0.000
1709291463.686,-22.461,-31.738,-31.738,-32.715,0.000
1709291463.690,-7.812,-23.926,-29.297,-16.113,0.000
1709291463.694,-18.066,-21.484,-32.715,-13.184,0.000
1709291463.698,-30.273,-26.855,-38.574,-23.438,0.000
1709291463.702,-24.414,-25.879,-42.480,-38.086,0.000
1709291463.706,-15.137,-23.438,-37.598,-38.574,0.000
1709291463.710,-18.555,-44.922,-30.762,-7.812,0.000
1709291463.714,-27.344,-19.531,-32.227,-0.977,0.000
1709291463.718,-33.203,-8.301,-36.621,-23.926,0.000
1709291463.722,-37.598,-27.832,-36.621,-36.133,0.000
1709291463.725,-39.062,-25.391,-33.691,-32.715,0.000
1709291463.729,-25.879,-19.531,-33.691,-23.926,0.000
1709291463.733,-21.484,-24.414,-33.203,-18.555,0.000
1709291463.737,-22.949,-16.602,-23.438,-14.160,0.000
1709291463.741,-34.668,-18.555,-29.297,-39.551,0.000
1709291463.745,-47.852,-33.203,-46.875,-55.664,0.000
1709291463.749,-36.133,-32.715,-46.875,-34.180,0.000
1709291463.753,-23.438,-44.434,-37.598,-16.602,0.000
1709291463.757,-29.297,-41.504,-36.621,-15.137,0.000
1709291463.761,-35.645,-17.578,-35.645,-30.762,0.000
1709291463.765,-24.414,-30.762,-34.668,-44.922,0.000
1709291463.768,-20.020,-39.062,-39.062,-38.086,0.000
1709291463.772,-26.367,-27.832,-40.039,-23.438,0.000
1709291463.776,-39.551,-27.832,-42.969,-27.344,0.000
1709291463.780,-49.316,-40.039,-42.480,-45.898,0.000
1709291463.784,-30.762,-45.410,-33.691,-43.457,0.000
1709291463.788,-26.855,-29.785,-29.297,-38.574,0.000
1709291463.792,-32.715,-29.785,-33.691,-22.461,0.000
1709291463.796,-30.762,-44.434,-33.203,-12.207,0.000
1709291463.800,-20.020,-43.945,-20.996,-4.395,0.000
1709291463.803,-26.367,-18.066,-28.809,-23.438,0.000
1709291463.807,-37.109,-21.973,-37.598,-44.922,0.000
1709291463.811,-41.016,-37.109,-32.227,-16.602,0.000
1709291463.815,-46.875,-34.668,-32.715,-16.113,0.000
1709291463.819,-42.480,-28.320,-29.297,-28.320,0.000
1709291463.823,-38.574,-35.645,-25.879,-27.344,0.000
1709291463.827,-30.762,-41.504,-27.832,-22.461,0.000
1709291463.831,-19.043,-26.855,-29.297,-10.742,0.000
1709291463.835,-18.066,-26.367,-32.227,-7.812,0.000
1709291463.838,-25.879,-31.738,-31.250,-22.461,0.000
1709291463.842,-27.832,-41.016,-28.809,-28.320,0.000
1709291463.846,-25.879,-42.480,-31.738,-13.672,0.000
1709291463.850,-21.973,-11.719,-30.762,-5.371,0.000
1709291463.854,-16.602,-9.277,-30.762,-5.371,0.000
1709291463.858,-21.484,-29.297,-32.715,-27.344,0.000
1709291463.862,-24.414,-20.508,-31.250,-37.598,0.000
1709291463.866,-17.090,-17.578,-31.738,-22.461,0.000
1709291463.869,-15.625,-31.738,-38.086,-13.184,0.000
1709291463.873,-15.137,-34.180,-39.551,-10.742,0.000
1709291463.877,-22.461,-25.879,-35.645,-21.973,0.000
1709291463.881,-23.926,-21.973,-34.180,-31.250,0.000
1709291463.885,-17.090,-35.645,-34.668,-18.555,0.000
1709291463.889,-23.438,-55.176,-38.574,-3.418,0.000
1709291463.893,-28.809,-32.715,-39.062,-10.254,0.000
1709291463.897,-25.879,-15.625,-34.668,-20.996,0.000
1709291463.901,-36.133,-23.438,-29.297,-36.133,0.000
1709291463.905,-43.457,-25.879,-34.180,-39.062,0.000
1709291463.909,-36.621,-20.996,-40.527,-21.973,0.000
1709291463.912,-31.250,-19.043,-36.133,-2.441,0.000
1709291463.916,-26.855,-26.855,-35.156,-6.836,0.000
1709291463.920,-29.785,-35.645,-36.621,-28.320,0.000
1709291463.924,-27.832,-24.414,-38.086,-32.715,0.000
1709291463.928,-19.043,-13.184,-31.250,-24.902,0.000
1709291463.932,-25.879,-26.855,-27.832,-12.695,0.000
1709291463.936,-18.555,-16.113,-19.043,-16.602,0.000
1709291463.939,-28.320,-6.348,-26.367,-43.945,0.000
1709291463.943,-40.039,-23.926,-39.551,-49.316,0.000
1709291463.947,-32.715,-35.645,-37.598,-28.809,0.000
1709291463.951,-36.133,-27.832,-35.645,-25.879,0.000
1709291463.955,-43.457,-17.090,-31.738,-33.203,0.000
1709291463.960,-44.922,-27.832,-36.133,-44.434,0.000
1709291463.963,-33.203,-35.645,-40.039,-48.340,0.000
1709291463.967,-24.902,-20.508,-35.645,-29.297,0.000
1709291463.971,-15.137,-8.789,-33.691,-10.254,0.000
1709291463.975,-15.625,-20.508,-41.992,-24.414,0.000
1709291463.979,-25.879,-38.086,-48.340,-27.344,0.000
1709291463.983,-24.902,-23.438,-38.574,-24.902,0.000
1709291463.987,-22.949,-16.602,-33.691,-23.438,0.000
1709291463.991,-20.508,-29.785,-31.250,-12.695,0.000
1709291463.995,-25.391,-43.457,-32.715,-5.371,0.000
1709291463.999,-34.668,-28.809,-34.180,-20.508,0.000
1709291464.002,-26.855,-20.508,-29.785,-32.227,0.000
1709291464.007,-23.926,-38.086,-37.598,-24.414,0.000
1709291464.010,-30.273,-42.480,-41.504,-20.996,0.000
1709291464.014,-25.391,-35.645,-36.133,-13.184,0.000
1709291464.018,-28.809,-30.273,-39.062,-22.949,0.000
1709291464.022,-30.273,-34.180,-37.598,-32.227,0.000
1709291464.026,-34.668,-42.480,-37.598,-24.902,0.000
1709291464.030,-36.133,-32.227,-42.969,-20.996,0.000
1709291464.034,-22.461,-21.484,-34.668,-16.113,0.000
1709291464.038,-33.203,-38.574,-38.086,-30.762,0.000
1709291464.042,-40.039,-37.109,-48.828,-38.574,0.000
1709291464.046,-20.020,-13.672,-45.898,-25.391,0.000
1709291464.050,1.465,-17.578,-35.645,-5.859,0.000
1709291464.054,-4.883,-15.137,-15.625,1.465,0.000
1709291464.057,-40.527,-20.996,-29.785,-32.715,0.000
1709291464.061,-52.246,-28.809,-45.410,-62.988,0.000
1709291464.065,-48.828,-35.645,-39.062,-58.105,0.000
1709291464.069,-32.227,-42.480,-37.598,-31.250,0.000
1709291464.073,-27.832,-34.668,-39.551,-16.602,0.000
1709291464.077,-40.527,-27.832,-36.621,-28.809,0.000
1709291464.081,-38.086,-32.227,-36.133,-44.434,0.000
1709291464.085,-37.598,-50.293,-35.645,-29.785,0.000
1709291464.089,-38.574,-22.461,-37.598,-18.555,0.000
1709291464.093,-39.062,-13.184,-42.969,-21.973,0.000
1709291464.097,-23.926,-27.344,-28.809,-20.508,0.000
1709291464.100,-32.227,-33.203,-30.762,-40.527,0.000
1709291464.104,-48.340,-40.527,-47.363,-56.641,0.000
1709291464.108,-33.203,-48.828,-42.969,-33.691,0.000
1709291464.112,-30.762,-41.016,-41.992,-17.090,0.000
1709291464.116,-43.457,-28.809,-36.133,-32.227,0.000
1709291464.120,-37.598,-34.668,-33.203,-46.875,0.000
1709291464.124,-37.109,-35.645,-33.203,-55.176,0.000
1709291464.128,-48.340,-42.969,-32.715,-41.504,0.000
1709291464.132,-27.344,-41.504,-26.855,-8.789,0.000
1709291464.136,-21.484,-15.137,-26.855,-22.949,0.000
1709291464.140,-33.691,-20.996,-34.668,-54.199,0.000
1709291464.143,-26.855,-41.016,-34.180,-51.758,0.000
1709291464.147,-15.137,-23.926,-29.785,-32.715,0.000
1709291464.151,-13.672,-13.672,-30.273,-14.160,0.000
1709291464.155,-14.648,-23.926,-28.809,-14.160,0.000
1709291464.159,-27.832,-38.086,-30.762,-31.250,0.000
1709291464.163,-29.785,-34.180,-36.621,-35.156,0.000
1709291464.167,-16.113,-36.621,-38.574,-23.438,0.000
1709291464.171,0.977,-33.203,-30.762,-6.836,0.000
1709291464.175,-16.602,-43.945,-27.344,0.488,0.000
1709291464.179,-38.086,-35.156,-40.039,-26.855,0.000
1709291464.182,-36.133,-27.832,-36.621,-46.875,0.000
1709291464.186,-33.203,-33.203,-35.645,-41.016,0.000
1709291464.190,-27.344,-23.438,-45.410,-25.391,0.000
1709291464.194,-31.738,-16.602,-45.410,-32.715,0.000
1709291464.198,-35.645,-22.949,-39.062,-40.039,0.000
1709291464.202,-38.086,-41.016,-40.527,-41.992,0.000
1709291464.206,-43.945,-42.480,-47.852,-44.922,0.000
1709291464.210,-20.020,-33.691,-39.062,-19.043,0.000
1709291464.214,3.418,-36.133,-35.645,-11.230,0.000
1709291464.217,-23.438,-45.410,-34.180,-25.879,0.000
1709291464.221,-41.504,-45.410,-27.344,-36.133,0.000
1709291464.225,-37.598,-20.996,-28.809,-41.992,0.000
1709291464.229,-29.785,-25.391,-30.273,-26.855,0.000
1709291464.233,-33.691,-42.480,-32.227,-21.973,0.000
1709291464.237,-38.086,-40.039,-33.691,-35.156,0.000
1709291464.241,-46.387,-29.297,-27.832,-46.875,0.000
1709291464.245,-46.875,-26.367,-26.855,-33.203,0.000
1709291464.248,-34.180,-36.621,-29.785,-14.648,0.000
1709291464.252,-27.344,-35.156,-31.250,-9.277,0.000
1709291464.256,-20.020,-24.902,-29.297,-13.672,0.000
1709291464.260,-29.297,-39.551,-31.250,-36.621,0.000
1709291464.264,-33.203,-57.617,-36.621,-28.809,0.000
1709291464.268,-17.578,-27.832,-38.086,-20.508,0.000
1709291464.272,-25.391,-14.160,-29.785,-23.926,0.000
1709291464.276,-32.227,-19.043,-20.508,-15.137,0.000
1709291464.280,-38.086,-35.156,-34.180,-36.133,0.000
1709291464.284,-54.199,-38.574,-42.969,-54.688,0.000
1709291464.287,-48.340,-39.062,-41.504,-38.574,0.000
1709291464.291,-36.133,-43.945,-32.227,-22.461,0.000
1709291464.295,-43.945,-43.945,-33.691,-31.738,0.000
1709291464.299,-43.945,-40.039,-36.621,-38.574,0.000
1709291464.303,-41.504,-33.691,-40.527,-37.598,0.000
1709291464.307,-43.945,-46.875,-44.922,-36.621,0.000
1709291464.311,-30.762,-41.016,-41.016,-19.043,0.000
1709291464.315,-24.414,-13.672,-38.574,-24.414,0.000
1709291464.318,-32.227,-16.113,-32.715,-38.574,0.000
1709291464.322,-24.902,-26.367,-17.090,-34.180,0.000
1709291464.326,-32.227,-34.668,-36.133,-42.480,0.000
1709291464.330,-41.016,-35.156,-50.781,-31.250,0.000
1709291464.334,-45.898,-33.691,-40.527,-25.391,0.000
1709291464.338,-54.199,-39.551,-40.039,-45.410,0.000
1709291464.342,-52.734,-38.574,-43.945,-56.641,0.000
1709291464.346,-41.504,-39.062,-41.992,-56.641,0.000
1709291464.350,-24.414,-38.574,-41.504,-40.527,0.000
1709291464.354,-27.832,-47.852,-39.551,-23.438,0.000
1709291464.358,-32.715,-41.992,-37.598,-31.250,0.000
1709291464.362,-36.621,-25.391,-43.945,-50.293,0.000
1709291464.366,-37.109,-34.668,-41.016,-41.504,0.000
1709291464.370,-29.785,-50.781,-33.691,-10.742,0.000
1709291464.373,-28.809,-19.531,-37.109,-9.277,0.000
1709291464.377,-28.809,-9.766,-35.156,-26.855,0.000
1709291464.381,-41.504,-29.297,-33.203,-35.645,0.000
1709291464.385,-37.109,-28.809,-32.715,-22.949,0.000
1709291464.389,-13.672,-26.855,-33.691,-13.672,0.000
1709291464.393,-20.020,-26.855,-37.598,-22.461,0.000
1709291464.397,-25.879,-37.598,-34.668,-33.203,0.000
1709291464.401,-14.160,-45.898,-41.504,-45.410,0.000
1709291464.405,-24.414,-30.273,-40.039,-37.109,0.000
1709291464.409,-31.738,-18.555,-33.691,-19.043,0.000
1709291464.413,-50.781,-48.340,-43.457,-23.926,0.000
1709291464.417,-53.223,-42.969,-41.016,-20.508,0.000
1709291464.421,-40.039,-13.184,-33.691,-29.297,0.000
1709291464.424,-42.480,-22.949,-33.203,-42.969,0.000
1709291464.428,-33.691,-33.691,-29.785,-22.949,0.000
1709291464.432,-22.461,-29.785,-24.902,-7.812,0.000
1709291464.436,-21.973,-27.344,-29.297,-21.973,0.000
1709291464.440,-30.273,-33.203,-36.621,-38.574,0.000
1709291464.444,-34.180,-32.715,-37.598,-40.039,0.000
1709291464.448,-35.156,-30.762,-32.715,-34.180,0.000
1709291464.452,-47.363,-33.203,-36.133,-39.551,0.000
1709291464.456,-47.363,-36.133,-31.250,-33.203,0.000
1709291464.460,-47.363,-59.570,-27.344,-34.668,0.000
1709291464.464,-42.480,-39.062,-31.738,-46.875,0.000
1709291464.468,-29.297,-25.391,-32.715,-36.621,0.000
1709291464.471,-41.504,-36.133,-29.785,-25.879,0.000
1709291464.475,-43.457,-29.785,-31.738,-32.227,0.000
1709291464.479,-31.738,-29.297,-31.250,-37.598,0.000
1709291464.483,-28.809,-36.133,-28.320,-37.598,0.000
1709291464.487,-19.043,-36.621,-32.227,-27.832,0.000
1709291464.491,-30.762,-32.227,-36.621,-15.137,0.000
1709291464.495,-44.434,-40.527,-34.668,-22.461,0.000
1709291464.499,-28.320,-31.250,-23.438,-24.902,0.000
1709291464.503,-33.691,-40.039,-31.738,-33.691,0.000
1709291464.507,-51.758,-49.316,-47.852,-39.551,0.000
1709291464.511,-44.922,-22.461,-40.039,-31.250,0.000
1709291464.514,-47.852,-29.297,-38.086,-25.879,0.000
1709291464.518,-40.527,-48.340,-42.480,-36.621,0.000
1709291464.523,0.000,-43.945,0.000,-43.457,0.000
1709291464.527,0.000,-36.621,0.000,-37.109,0.000
1709291464.531,0.000,-28.809,0.000,-30.273,0.000
1709291464.535,0.000,-32.227,0.000,-20.020,0.000
1709291464.539,0.000,-32.227,0.000,-20.508,0.000
1709291464.542,0.000,-30.762,0.000,-24.902,0.000
1709291464.546,0.000,-38.086,0.000,-31.250,0.000
1709291464.550,0.000,-58.105,0.000,-22.461,0.000
1709291464.554,0.000,-38.086,0.000,-16.113,0.000
1709291464.558,0.000,-21.973,0.000,-29.297,0.000
1709291464.562,0.000,-41.992,0.000,-52.734,0.000
1709291464.566,0.000,-43.945,0.000,-44.434,0.000
1709291464.570,-29.785,-22.949,-35.645,-13.184,0.000
1709291464.574,-35.645,-37.598,-42.969,-23.926,0.000
1709291464.577,-44.922,-49.805,-43.945,-51.270,0.000
1709291464.581,-41.992,-33.203,-33.203,-50.293,0.000
1709291464.585,-41.992,-22.949,-37.598,-34.668,0.000
1709291464.589,-35.645,-23.438,-40.527,-29.297,0.000
1709291464.593,-36.621,-36.621,-34.180,-14.648,0.000
1709291464.597,-40.527,-32.227,-32.715,-12.695,0.000
1709291464.601,-42.480,-7.324,-31.250,-39.062,0.000
1709291464.605,-38.086,-12.695,-32.715,-44.434,0.000
1709291464.609,-23.438,-30.273,-32.715,-20.996,0.000
1709291464.613,-31.738,-29.297,-29.297,-20.020,0.000
1709291464.617,-44.434,-27.344,-32.227,-35.645,0.000
1709291464.621,-41.016,-39.551,-34.180,-51.270,0.000
1709291464.625,-40.527,-44.434,-39.062,-54.199,0.000
1709291464.629,-21.973,-28.320,-38.086,-36.621,0.000
1709291464.633,-17.578,-23.926,-36.621,-20.508,0.000
1709291464.636,-23.438,-43.457,-33.203,-22.461,0.000
1709291464.640,-24.902,-60.547,-35.156,-24.414,0.000
1709291464.644,-27.832,-37.598,-41.504,-37.598,0.000
1709291464.648,-19.531,-11.719,-41.504,-29.297,0.000
1709291464.652,-15.625,-21.484,-36.621,-13.184,0.000
1709291464.656,-28.320,-32.227,-34.668,-22.949,0.000
1709291464.660,-36.621,-29.785,-34.668,-27.832,0.000
1709291464.664,-27.344,-23.438,-34.180,-26.367,0.000
1709291464.668,-24.414,-34.668,-34.668,-19.531,0.000
1709291464.672,-17.578,-32.715,-31.250,-2.930,0.000
1709291464.676,-17.090,-18.555,-32.715,-4.395,0.000
1709291464.680,-31.250,-20.508,-25.391,-22.461,0.000
1709291464.684,-37.109,-37.109,-32.715,-29.297,0.000
1709291464.688,-30.762,-44.434,-48.828,-35.645,0.000
1709291464.692,-25.879,-27.344,-41.504,-24.414,0.000
1709291464.696,-32.227,-26.855,-41.016,-23.438,0.000
1709291464.699,-45.898,-52.734,-40.039,-31.250,0.000
1709291464.703,-38.574,-43.945,-29.297,-30.273,0.000
1709291464.707,-35.156,-19.531,-26.855,-37.109,0.000
1709291464.711,-43.457,-30.762,-30.762,-27.832,0.000
1709291464.715,-44.922,-40.527,-26.367,0.000,0.000
1709291464.719,-36.621,-28.320,-27.344,-12.207,0.000
1709291464.723,-31.738,-26.855,-32.227,-31.250,0.000
1709291464.727,-34.180,-41.992,-28.320,-31.250,0.000
1709291464.731,-33.691,-53.711,-37.598,-23.926,0.000
1709291464.735,-37.598,-41.016,-46.387,-16.602,0.000
1709291464.739,-39.551,-24.414,-48.340,-33.691,0.000
1709291464.743,-36.621,-30.273,-41.016,-47.852,0.000
1709291464.747,-39.551,-46.875,-23.926,-34.668,0.000
1709291464.750,-43.945,-27.832,-33.691,-28.320,0.000
1709291464.754,-37.109,-35.645,-42.969,-20.020,0.000
1709291464.758,-39.551,-41.992,-36.621,-24.414,0.000
1709291464.762,-46.875,-25.879,-35.645,-44.922,0.000
1709291464.766,-37.598,-35.645,-31.738,-42.969,0.000
1709291464.770,-28.809,-35.156,-26.367,-23.926,0.000
1709291464.774,-18.555,-35.645,-30.273,-14.160,0.000
1709291464.778,-25.391,-36.621,-32.715,-26.855,0.000
1709291464.782,-37.598,-28.809,-29.297,-30.762,0.000
1709291464.786,-39.551,-25.391,-25.879,-38.086,0.000
1709291464.790,-36.621,-37.598,-28.320,-34.668,0.000
1709291464.794,-27.344,-38.086,-31.738,0.000,0.000
1709291464.797,-29.297,-26.855,-32.227,4.883,0.000
1709291464.801,-31.738,-29.785,-28.320,-13.184,0.000
1709291464.805,-27.344,-52.734,-22.461,-17.090,0.000
1709291464.809,-28.809,-41.504,-29.785,-7.812,0.000
1709291464.813,-19.531,-24.902,-36.133,-5.859,0.000
1709291464.817,-7.324,-16.602,-27.344,-3.418,0.000
1709291464.821,-30.273,-34.180,-32.715,-30.762,0.000
1709291464.825,-35.645,-54.199,-43.457,-50.293,0.000
1709291464.829,-26.855,-37.598,-41.992,-33.203,0.000
1709291464.833,-23.438,-35.156,-41.016,-19.531,0.000
1709291464.837,-29.297,-57.129,-36.621,-8.789,0.000
1709291464.840,-43.457,-31.738,-29.785,-30.762,0.000
1709291464.844,-34.180,-18.555,-34.668,-51.758,0.000
1709291464.848,-26.855,-37.598,-34.668,-49.316,0.000
1709291464.852,-26.367,-35.645,-29.297,-19.531,0.000
1709291464.856,-32.715,-40.039,-33.203,-17.578,0.000
1709291464.860,-27.832,-44.434,-37.109,-34.180,0.000
1709291464.864,-24.414,-32.715,-36.621,-32.227,0.000
1709291464.868,-23.926,-31.738,-33.691,-18.066,0.000
1709291464.872,-20.996,-43.945,-36.133,-5.859,0.000
1709291464.875,-11.230,-28.320,-18.555,1.465,0.000
1709291464.879,-19.043,-29.297,-12.695,-8.301,0.000
1709291464.883,-36.133,-47.852,-36.621,-36.133,0.000
1709291464.887,-33.203,-26.855,-36.621,-32.715,0.000
1709291464.891,-31.250,-23.926,-34.180,-17.578,0.000
1709291464.895,-21.484,-36.133,-31.738,-2.441,0.000
1709291464.899,-12.695,-23.438,-25.391,-1.953,0.000
1709291464.903,-8.301,-8.789,-24.902,-17.578,0.000
1709291464.907,-5.859,-23.438,-29.297,-14.160,0.000
1709291464.910,-5.371,-39.551,-26.367,1.465,0.000
1709291464.914,-13.184,-27.344,-24.902,5.371,0.000
1709291464.918,-25.879,-26.367,-30.762,-13.184,0.000
1709291464.922,-20.508,-38.086,-34.180,-26.855,0.000
1709291464.926,-26.855,-49.805,-37.598,-22.949,0.000
1709291464.930,-20.996,-23.438,-39.062,-16.113,0.000
1709291464.934,-2.441,-3.906,-36.133,-3.418,0.000
1709291464.938,-6.348,-18.066,-27.344,-0.488,0.000
1709291464.942,-36.133,-34.668,-36.621,-34.180,0.000
1709291464.945,-39.551,-34.668,-46.387,-51.758,0.000
1709291464.949,-28.320,-41.016,-43.945,-39.551,0.000
1709291464.953,-34.180,-43.457,-47.852,-28.320,0.000
1709291464.957,-37.598,-21.484,-45.410,-34.180,0.000
1709291464.961,-42.969,-19.043,-39.062,-47.363,0.000
1709291464.965,-34.180,-24.902,-42.480,-48.340,0.000
1709291464.969,-43.945,-38.574,-47.363,-36.621,0.000
1709291464.973,-53.223,-37.598,-50.293,-10.742,0.000
1709291464.977,-41.016,-13.672,-42.480,-8.789,0.000
1709291464.981,-37.109,-22.461,-33.203,-41.992,0.000
1709291464.984,-33.691,-38.086,-35.156,-49.805,0.000
1709291464.988,-38.086,-29.297,-35.156,-37.598,0.000
1709291464.992,-38.086,-19.531,-34.668,-28.809,0.000
1709291464.996,-32.715,-20.996,-37.598,-27.832,0.000
1709291465.000,-37.598,-36.621,-40.039,-41.992,0.000
1709291465.004,-36.621,-29.297,-39.062,-43.457,0.000
1709291465.008,-27.832,-16.113,-35.645,-29.785,0.000
1709291465.012,-19.531,-24.414,-39.551,-6.348,0.000
1709291465.015,-24.902,-44.922,-41.016,-1.953,0.000
1709291465.019,-39.551,-25.391,-36.621,-12.695,0.000
1709291465.023,-31.738,-12.695,-35.156,-28.809,0.000
1709291465.027,-21.973,-31.250,-30.762,-30.762,0.000
1709291465.031,-8.301,-26.855,-30.273,-13.184,0.000
1709291465.035,-11.719,-20.508,-36.133,-13.184,0.000
1709291465.039,-24.902,-24.902,-30.762,-23.438,0.000
1709291465.042,-27.832,-34.668,-25.391,-27.832,0.000
1709291465.046,-36.133,-36.133,-27.344,-24.902,0.000
1709291465.050,-31.738,-23.926,-27.832,-14.160,0.000
1709291465.054,-17.090,-27.344,-28.320,-15.137,0.000
1709291465.058,-23.438,-50.293,-35.645,-23.438,0.000
1709291465.062,-36.621,-45.898,-42.480,-21.973,0.000
1709291465.066,-36.621,-22.949,-41.992,-27.832,0.000
1709291465.070,-31.250,-27.344,-40.527,-29.297,0.000
1709291465.074,-27.344,-44.434,-40.039,-19.043,0.000
1709291465.078,-14.160,-26.855,-31.250,-4.395,0.000
1709291465.081,-12.207,-14.160,-37.598,-26.855,0.000
1709291465.086,-26.367,-38.086,-43.945,-40.039,0.000
1709291465.090,-27.832,-48.828,-38.574,-24.414,0.000
1709291465.093,-22.949,-37.598,-39.062,-19.043,0.000
1709291465.097,-37.598,-39.551,-42.480,-25.879,0.000
1709291465.101,-30.762,-39.551,-43.457,-32.227,0.000
1709291465.105,-14.648,-49.316,-41.016,-37.598,0.000
1709291465.109,-12.207,-45.410,-38.086,-26.367,0.000
1709291465.113,-14.648,-24.902,-39.062,-18.066,0.000
1709291465.117,-25.879,-37.109,-41.504,-28.809,0.000
1709291465.121,-37.598,-53.711,-40.527,-38.086,0.000
1709291465.125,-28.320,-27.832,-41.016,-50.293,0.000
1709291465.129,-20.996,-22.461,-39.551,-28.809,0.000
1709291465.133,-26.855,-34.668,-34.668,-12.695,0.000
1709291465.137,-34.668,-38.086,-34.668,-13.672,0.000
1709291465.140,-29.785,-33.691,-33.203,-26.855,0.000
1709291465.144,-16.113,-20.020,-29.785,-22.461,0.000
1709291465.148,-25.879,-31.738,-34.180,-7.812,0.000
1709291465.152,-32.715,-43.945,-33.203,-22.461,0.000
1709291465.156,-23.438,-40.527,-28.809,-27.832,0.000
1709291465.160,-23.926,-34.180,-40.039,-35.156,0.000
1709291465.164,-27.832,-37.598,-40.527,-36.133,0.000
1709291465.168,-21.973,-32.227,-30.762,-27.832,0.000
1709291465.172,-26.855,-9.766,-29.785,-35.645,0.000
1709291465.176,-30.273,-17.578,-28.809,-31.250,0.000
1709291465.180,-30.273,-35.645,-28.809,-30.273,0.000
1709291465.183,-24.414,-25.391,-28.320,-41.016,0.000
1709291465.187,-16.602,-18.066,-31.250,-29.785,0.000
1709291465.191,-24.414,-25.391,-33.203,-13.672,0.000
1709291465.195,-32.227,-32.715,-34.180,-20.996,0.000
1709291465.199,-34.180,-36.133,-32.715,-33.691,0.000
1709291465.203,-39.062,-33.203,-31.250,-53.223,0.000
1709291465.207,-41.016,-33.691,-31.250,-47.852,0.000
1709291465.211,-28.809,-53.711,-32.715,-11.230,0.000
1709291465.215,-26.855,-29.297,-35.156,-12.695,0.000
1709291465.219,-24.414,-11.230,-33.203,-29.297,0.000
1709291465.223,-29.785,-31.250,-33.203,-27.344,0.000
1709291465.226,-46.387,-29.785,-33.691,-25.879,0.000
1709291465.230,-40.039,-25.391,-29.785,-16.113,0.000
1709291465.234,-29.785,-38.574,-26.367,-14.160,0.000
1709291465.238,-24.902,-46.387,-27.344,-25.879,0.000
1709291465.242,-30.273,-32.227,-27.832,-33.203,0.000
1709291465.246,-44.434,-34.668,-34.180,-37.598,0.000
1709291465.250,-31.738,-40.039,-29.785,-15.137,0.000
1709291465.254,-21.973,-44.434,-25.391,11.719,0.000
1709291465.258,-32.227,-46.875,-36.133,0.488,0.000
1709291465.262,-44.922,-13.672,-47.363,-40.039,0.000
1709291465.265,-56.152,-16.602,-53.223,-59.570,0.000
1709291465.269,-57.617,-38.086,-54.688,-58.105,0.000
1709291465.273,-66.406,-24.414,-50.781,-59.082,0.000
1709291465.277,-69.336,-21.484,-49.805,-52.734,0.000
1709291465.281,-69.336,-35.645,-45.898,-56.641,0.000
1709291465.285,-65.918,-41.504,-34.180,-71.289,0.000
1709291465.289,-54.199,-34.668,-34.668,-60.059,0.000
1709291465.293,-43.945,-42.480,-38.574,-47.852,0.000
1709291465.297,-37.109,-39.551,-21.973,-36.133,0.000
1709291465.301,-48.340,-54.688,-28.320,-44.434,0.000
1709291465.304,-57.617,-42.480,-36.621,-57.129,0.000
1709291465.308,-53.223,-21.484,-30.273,-39.551,0.000
1709291465.312,-48.340,-31.738,-32.227,-25.879,0.000
1709291465.316,-49.805,-30.273,-33.691,-34.668,0.000
1709291465.320,-47.363,-28.809,-36.133,-42.480,0.000
1709291465.324,-31.738,-28.320,-38.574,-41.504,0.000
1709291465.328,-31.250,-34.668,-36.621,-27.832,0.000
1709291465.332,-38.574,-32.227,-38.574,-15.137,0.000
1709291465.335,-41.992,-29.785,-37.109,-23.926,0.000
1709291465.339,-40.527,-34.180,-33.691,-37.598,0.000
1709291465.343,-43.457,-43.457,-34.180,-37.598,0.000
1709291465.347,-39.062,-41.992,-36.133,-38.574,0.000
1709291465.351,-22.949,-13.184,-37.598,-41.992,0.000
1709291465.355,-27.344,-20.020,-37.109,-40.527,0.000
1709291465.359,-42.969,-43.457,-36.133,-43.457,0.000
1709291465.363,-40.527,-33.203,-33.691,-52.734,0.000
1709291465.366,-41.504,-25.391,-39.062,-55.664,0.000
1709291465.370,-34.180,-32.715,-47.852,-34.668,0.000
1709291465.374,-26.367,-40.527,-42.480,-27.344,0.000
1709291465.378,-42.969,-35.156,-42.969,-45.898,0.000
1709291465.382,-57.129,-33.691,-44.922,-66.406,0.000
1709291465.386,-46.875,-41.992,-42.480,-61.035,0.000
1709291465.390,-47.363,-51.270,-46.387,-39.062,0.000
1709291465.394,-45.898,-27.344,-42.480,-27.832,0.000
1709291465.398,-27.344,-15.625,-34.180,-35.156,0.000
1709291465.402,-42.480,-37.598,-32.715,-40.527,0.000
1709291465.406,-52.246,-38.086,-37.109,-40.527,0.000
1709291465.409,-39.551,-22.949,-36.621,-42.480,0.000
1709291465.413,-39.551,-32.715,-39.551,-39.551,0.000
1709291465.417,-47.852,-39.062,-45.410,-40.527,0.000
1709291465.421,-50.293,-39.062,-42.969,-61.523,0.000
1709291465.425,-41.992,-42.480,-41.992,-61.035,0.000
1709291465.429,-30.762,-28.809,-34.180,-27.832,0.000
1709291465.433,-42.480,-43.945,-39.551,-26.367,0.000
1709291465.436,-51.758,-56.641,-49.316,-36.621,0.000
1709291465.440,-57.617,-33.691,-43.457,-57.129,0.000
1709291465.444,-50.293,-26.367,-37.598,-60.059,0.000
1709291465.448,-46.875,-45.898,-38.574,-36.621,0.000
1709291465.452,-44.434,-43.945,-35.645,-13.184,0.000
1709291465.456,-32.715,-31.250,-29.297,-18.066,0.000
1709291465.460,-28.809,-33.203,-32.715,-35.156,0.000
1709291465.464,-36.621,-40.527,-34.668,-40.527,0.000
1709291465.468,-39.062,-40.039,-32.715,-37.598,0.000
1709291465.472,-31.250,-33.203,-34.668,-27.832,0.000
1709291465.476,-41.504,-35.645,-31.250,-28.809,0.000
1709291465.480,-53.711,-51.758,-28.320,-36.133,0.000
1709291465.484,-48.828,-43.945,-32.227,-50.293,0.000
1709291465.487,-36.621,-24.414,-36.133,-40.039,0.000
1709291465.491,-29.297,-38.086,-32.227,-14.160,0.000
1709291465.495,-32.715,-57.129,-28.320,3.906,0.000
1709291465.499,-41.504,-24.414,-31.738,-25.879,0.000
1709291465.503,-43.457,-14.160,-41.016,-58.594,0.000
1709291465.507,-34.180,-30.273,-41.016,-37.109,0.000
1709291465.511,-32.715,-30.762,-39.551,-20.508,0.000
1709291465.515,-32.715,-30.762,-34.180,-17.090,0.000
1709291465.519,-29.785,-20.996,-27.344,-30.762,0.000
1709291465.523,-35.645,-25.879,-32.227,-43.457,0.000
1709291465.527,-38.574,-45.898,-36.621,-42.969,0.000
1709291465.531,-34.180,-38.574,-36.621,-35.156,0.000
1709291465.534,-41.504,-20.508,-38.574,-27.344,0.000
1709291465.538,-47.852,-43.945,-44.434,-32.227,0.000
1709291465.542,-48.340,-48.340,-41.504,-40.039,0.000
1709291465.546,-42.480,-27.344,-37.598,-38.086,0.000
1709291465.550,-40.527,-30.762,-40.527,-20.020,0.000
1709291465.554,-41.016,-36.133,-43.457,-19.531,0.000
1709291465.558,-41.016,-35.645,-43.457,-38.574,0.000
1709291465.562,-49.316,-32.227,-41.992,-50.293,0.000
1709291465.566,-37.109,-34.668,-35.645,-47.852,0.000
1709291465.570,-31.250,-37.109,-32.227,-39.062,0.000
1709291465.574,-29.297,-36.133,-35.645,-26.367,0.000
1709291465.577,-21.484,-26.855,-39.062,-21.973,0.000
1709291465.581,-41.992,-29.785,-39.551,-45.898,0.000
1709291465.585,-47.852,-58.594,-37.109,-42.480,0.000
1709291465.589,-39.062,-34.180,-38.574,-21.484,0.000
1709291465.593,-37.109,-18.555,-41.016,-25.879,0.000
1709291465.597,-37.109,-30.273,-34.668,-23.438,0.000
1709291465.601,-30.762,-28.809,-31.738,-32.715,0.000
1709291465.605,-24.414,-29.785,-26.367,-43.945,0.000
1709291465.609,-23.438,-33.203,-29.297,-28.809,0.000
1709291465.613,-27.344,-29.297,-31.738,-11.719,0.000
1709291465.617,-36.621,-32.227,-31.250,-23.926,0.000
1709291465.620,-39.062,-44.434,-35.156,-43.457,0.000
1709291465.624,-37.598,-35.156,-40.039,-46.875,0.000
1709291465.628,-31.250,-41.504,-40.527,-30.273,0.000
1709291465.632,-20.996,-37.598,-37.109,-9.766,0.000
1709291465.636,-27.344,-12.207,-33.691,-20.996,0.000
1709291465.640,-37.109,-29.785,-29.785,-36.621,0.000
1709291465.644,-29.785,-44.922,-27.344,-35.156,0.000
1709291465.648,-26.367,-40.527,-30.762,-29.785,0.000
1709291465.652,-26.367,-34.180,-37.109,-13.672,0.000
1709291465.656,-27.832,-36.133,-37.109,-1.465,0.000
1709291465.659,-28.809,-41.992,-34.180,-16.113,0.000
1709291465.663,-37.109,-32.227,-35.645,-36.133,0.000
1709291465.667,-31.250,-33.691,-40.527,-35.645,0.000
1709291465.671,-25.879,-40.527,-39.062,-26.855,0.000
1709291465.675,-37.109,-54.688,-34.668,-20.020,0.000
1709291465.679,-37.109,-29.297,-34.668,-33.203,0.000
1709291465.683,-43.945,-14.160,-39.062,-49.316,0.000
1709291465.687,-44.922,-32.715,-41.504,-47.363,0.000
1709291465.691,-34.668,-35.645,-41.992,-29.785,0.000
1709291465.694,-38.086,-32.715,-41.504,-27.344,0.000
1709291465.698,-35.645,-42.480,-39.062,-49.316,0.000
1709291465.702,-44.434,-53.711,-37.109,-50.781,0.000
1709291465.706,-47.852,-42.480,-39.551,-48.828,0.000
1709291465.710,-34.668,-40.527,-47.852,-38.086,0.000
1709291465.714,-47.852,-52.246,-55.176,-23.926,0.000
1709291465.718,-50.781,-56.641,-47.363,-22.461,0.000
1709291465.722,-39.062,-50.293,-47.363,-28.809,0.000
1709291465.726,-27.344,-29.785,-47.363,-29.297,0.000
1709291465.730,-39.551,-37.109,-45.898,-34.668,0.000
1709291465.733,-49.805,-49.805,-42.969,-47.852,0.000
1709291465.737,-47.363,-43.945,-32.227,-48.340,0.000
1709291465.741,-49.316,-38.086,-33.691,-50.781,0.000
1709291465.745,-36.133,-40.527,-33.691,-51.758,0.000
1709291465.749,-36.133,-48.340,-34.668,-37.109,0.000
1709291465.753,-47.363,-35.645,-42.969,-29.785,0.000
1709291465.757,-37.109,-26.367,-35.156,-39.062,0.000
1709291465.761,-35.156,-42.969,-32.227,-47.363,0.000
1709291465.764,-26.855,-50.781,-34.180,-26.367,0.000
1709291465.768,-21.484,-20.508,-30.762,-9.766,0.000
1709291465.772,-20.996,-11.230,-32.715,-5.859,0.000
1709291465.776,-19.043,-28.809,-32.715,-7.324,0.000
1709291465.780,-33.203,-37.598,-30.762,-30.273,0.000
1709291465.784,-42.480,-34.668,-31.250,-42.480,0.000
1709291465.788,-36.621,-20.996,-30.762,-31.250,0.000
1709291465.791,-25.391,-23.438,-26.367,-15.137,0.000
1709291465.795,-20.020,-37.109,-26.367,-12.695,0.000
1709291465.799,-24.414,-31.250,-30.273,-17.090,0.000
1709291465.803,-22.461,-30.273,-38.086,-26.367,0.000
1709291465.807,-10.742,-49.316,-38.086,-11.230,0.000
1709291465.811,-15.137,-47.852,-32.715,14.648,0.000
1709291465.815,-43.457,-32.715,-32.715,-6.348,0.000
1709291465.819,-42.969,-34.668,-36.133,-34.180,0.000
1709291465.823,-35.645,-42.969,-43.945,-40.039,0.000
1709291465.827,-30.273,-34.668,-40.039,-20.020,0.000
1709291465.831,-13.672,-23.926,-20.996,2.930,0.000
1709291465.835,-27.832,-42.480,-30.273,-13.672,0.000
1709291465.839,-43.457,-66.406,-45.898,-26.855,0.000
1709291465.843,-39.551,-45.410,-36.621,-41.992,0.000
1709291465.846,-40.039,-30.273,-37.598,-45.898,0.000
1709291465.850,-43.945,-41.504,-50.293,-34.180,0.000
1709291465.854,-41.016,-57.617,-43.457,-20.020,0.000
1709291465.858,-32.227,-41.016,-38.574,-27.832,0.000
1709291465.862,-36.133,-18.066,-41.016,-60.547,0.000
1709291465.866,-22.949,-40.527,-39.062,-47.363,0.000
1709291465.870,-10.254,-62.500,-37.109,-13.184,0.000
1709291465.874,-7.324,-30.762,-28.320,0.000,0.000
1709291465.878,-12.207,-25.879,-21.973,-14.648,0.000
1709291465.882,-22.461,-35.645,-30.762,-24.902,0.000
1709291465.886,-22.461,-42.480,-35.645,-19.531,0.000
1709291465.890,-22.461,-41.016,-32.227,-8.301,0.000
1709291465.894,-16.602,-25.391,-33.203,-4.883,0.000
1709291465.897,-25.391,-38.574,-39.551,-20.020,0.000
1709291465.901,-30.762,-47.852,-34.180,-35.645,0.000
1709291465.905,-22.949,-46.387,-30.273,-34.180,0.000
1709291465.909,-8.789,-26.367,-33.203,-12.695,0.000
1709291465.913,-13.672,-34.668,-31.250,20.020,0.000
1709291465.917,-33.691,-47.363,-27.832,12.695,0.000
1709291465.921,-40.527,-22.949,-32.715,-24.902,0.000
1709291465.925,-31.738,-23.926,-38.574,-29.785,0.000
1709291465.929,-20.020,-37.598,-41.504,-19.531,0.000
1709291465.933,-16.602,-28.809,-36.621,-13.672,0.000
1709291465.937,-9.766,-25.391,-28.809,-6.348,0.000
1709291465.940,-26.855,-34.668,-33.203,-20.020,0.000
1709291465.944,-43.457,-36.133,-36.133,-34.180,0.000
1709291465.948,-42.480,-28.320,-38.574,-25.391,0.000
1709291465.952,-34.180,-26.855,-39.551,-18.555,0.000
1709291465.956,-38.086,-29.785,-38.574,-26.855,0.000
1709291465.960,-53.711,-51.270,-36.621,-42.480,0.000
1709291465.964,-45.898,-28.809,-34.180,-49.805,0.000
1709291465.968,-35.156,-16.602,-43.945,-46.875,0.000
1709291465.972,-32.227,-35.645,-49.805,-28.809,0.000
1709291465.976,-30.762,-31.250,-43.945,-25.879,0.000
1709291465.980,-27.832,-32.715,-40.039,-41.016,0.000
1709291465.983,-46.875,-43.457,-45.410,-44.922,0.000
1709291465.987,-47.852,-40.039,-45.410,-40.039,0.000
1709291465.991,-32.227,-38.086,-41.992,-30.762,0.000
1709291465.995,-20.508,-37.598,-43.457,-25.879,0.000
1709291465.999,-18.066,-24.414,-40.527,-40.039,0.000
1709291466.003,-37.598,-32.227,-41.016,-42.969,0.000
1709291466.007,-50.293,-41.992,-42.480,-27.832,0.000
1709291466.011,-39.062,-20.508,-38.574,-25.391,0.000
1709291466.015,-32.715,-26.855,-39.062,-20.508,0.000
1709291466.019,-48.828,-41.016,-33.691,-20.996,0.000
1709291466.022,-47.363,-31.250,-36.621,-40.039,0.000
1709291466.026,-30.273,-24.902,-43.457,-43.457,0.000
1709291466.030,-24.902,-30.762,-37.109,-28.809,0.000
1709291466.034,-37.109,-40.527,-30.273,-23.438,0.000
1709291466.038,-38.574,-38.574,-34.180,-29.785,0.000
1709291466.042,-32.227,-40.039,-36.621,-43.457,0.000
1709291466.046,-39.551,-43.945,-38.574,-41.016,0.000
1709291466.050,-43.945,-56.152,-34.180,-19.043,0.000
1709291466.054,-49.805,-36.621,-30.273,-17.090,0.000
1709291466.058,-45.898,-22.949,-39.062,-52.246,0.000
1709291466.061,-38.086,-35.645,-37.109,-58.594,0.000
1709291466.065,-37.109,-38.086,-32.227,-42.969,0.000
1709291466.069,-37.109,-36.133,-37.109,-32.227,0.000
1709291466.073,-39.062,-35.645,-39.062,-29.785,0.000
1709291466.077,-34.180,-31.250,-44.922,-33.203,0.000
1709291466.081,-45.898,-16.113,-44.434,-40.039,0.000
1709291466.085,-41.992,-16.113,-35.156,-35.156,0.000
1709291466.089,-27.832,-23.438,-31.738,-18.555,0.000
1709291466.093,-24.902,-31.738,-34.180,-11.719,0.000
1709291466.097,-28.809,-37.109,-32.715,-1.953,0.000
1709291466.100,-34.180,-19.531,-32.227,-25.879,0.000
1709291466.104,-31.250,-26.855,-40.039,-37.598,0.000
1709291466.108,-23.926,-35.156,-40.527,-17.090,0.000
1709291466.112,-18.066,-22.949,-37.109,-18.066,0.000
1709291466.116,-23.926,-19.531,-36.133,-24.902,0.000
1709291466.120,-27.832,-25.391,-35.645,-38.574,0.000
1709291466.124,-20.508,-36.133,-34.668,-46.875,0.000
1709291466.128,-22.461,-26.855,-31.250,-20.020,0.000
1709291466.131,-23.926,-11.230,-32.715,-8.789,0.000
1709291466.135,-29.785,-25.879,-35.645,-15.625,0.000
1709291466.139,-37.109,-37.109,-28.320,-20.996,0.000
1709291466.143,-25.879,-24.414,-29.297,-29.297,0.000
1709291466.147,-14.160,-20.996,-30.762,-24.414,0.000
1709291466.151,-22.461,-35.645,-28.320,0.977,0.000
1709291466.155,-35.156,-50.293,-31.250,-1.953,0.000
1709291466.159,-32.227,-27.832,-28.809,-25.391,0.000
1709291466.162,-29.297,-20.508,-28.809,-36.621,0.000
1709291466.166,-13.184,-22.461,-23.438,-25.879,0.000
1709291466.170,-7.812,-23.438,-26.367,-14.648,0.000
1709291466.174,-33.203,-31.250,-48.340,-36.133,0.000
1709291466.178,-48.340,-35.156,-44.922,-35.645,0.000
1709291466.182,-45.898,-42.480,-35.645,-26.367,0.000
1709291466.186,-35.645,-43.457,-32.227,-20.020,0.000
1709291466.190,-31.738,-26.855,-31.250,-19.043,0.000
1709291466.194,-39.551,-19.531,-39.062,-29.785,0.000
1709291466.198,-48.340,-34.180,-38.086,-36.621,0.000
1709291466.201,-49.805,-26.855,-32.715,-35.645,0.000
1709291466.205,-37.109,-11.719,-30.273,-26.855,0.000
1709291466.210,-31.250,-26.367,-33.203,-22.949,0.000
1709291466.213,-36.133,-35.156,-37.109,-21.484,0.000
1709291466.217,-43.457,-27.832,-42.480,-33.203,0.000
1709291466.221,-47.363,-24.414,-42.969,-54.688,0.000
1709291466.225,-54.688,-29.297,-40.039,-54.199,0.000
1709291466.229,-51.758,-43.945,-45.410,-36.621,0.000
1709291466.233,-44.434,-27.832,-39.062,-21.484,0.000
1709291466.237,-49.316,-17.578,-28.809,-36.621,0.000
1709291466.241,-59.570,-40.527,-30.762,-50.781,0.000
1709291466.245,-50.781,-52.246,-33.691,-32.227,0.000
1709291466.249,-29.785,-20.508,-30.762,-23.926,0.000
1709291466.252,-23.926,-9.277,-30.762,-31.250,0.000
1709291466.257,-33.203,-19.043,-31.738,-29.297,0.000
1709291466.260,-45.898,-25.391,-29.785,-33.691,0.000
1709291466.264,-39.062,-23.438,-27.344,-31.250,0.000
1709291466.268,-25.879,-14.648,-27.832,-5.859,0.000
1709291466.272,-28.809,-28.320,-26.855,-7.324,0.000
1709291466.276,-40.527,-41.504,-30.762,-19.043,0.000
1709291466.280,-31.250,-30.762,-33.691,-24.414,0.000
1709291466.284,-23.926,-16.113,-29.785,-40.039,0.000
1709291466.288,-26.367,-35.156,-30.273,-26.855,0.000
1709291466.292,-22.949,-48.340,-32.227,-12.207,0.000
1709291466.296,-24.902,-20.020,-31.738,-21.484,0.000
1709291466.300,-40.039,-27.832,-33.203,-26.855,0.000
1709291466.304,-36.133,-40.039,-30.762,-33.691,0.000
1709291466.307,-28.809,-23.926,-27.832,-30.762,0.000
1709291466.311,-31.250,-19.531,-31.250,-19.531,0.000
1709291466.315,-28.320,-28.809,-25.879,-13.672,0.000
1709291466.319,-38.574,-33.203,-27.832,-26.367,0.000
1709291466.323,-44.922,-38.574,-37.598,-41.016,0.000
1709291466.327,-32.227,-27.344,-34.180,-39.551,0.000
1709291466.331,-20.020,-29.297,-29.297,-20.508,0.000
1709291466.335,-23.926,-54.688,-32.715,-7.324,0.000
1709291466.339,-25.879,-30.273,-35.156,-13.184,0.000
1709291466.343,-30.273,-13.672,-36.133,-36.621,0.000
1709291466.346,-20.020,-30.762,-36.133,-36.133,0.000
1709291466.350,-6.836,-27.832,-27.344,-12.695,0.000
1709291466.354,-10.254,-25.391,-25.879,-11.719,0.000
1709291466.358,-17.090,-35.156,-30.273,-10.254,0.000
1709291466.362,-22.949,-35.156,-32.227,-18.555,0.000
1709291466.366,-23.438,-30.762,-32.715,-29.297,0.000
1709291466.370,-17.578,-36.133,-31.250,-6.836,0.000
1709291466.374,-18.066,-34.668,-28.320,2.930,0.000
1709291466.378,-18.066,-40.039,-19.043,0.977,0.000
1709291466.382,-20.020,-56.641,-20.508,-1.465,0.000
1709291466.386,-11.230,-29.785,-33.203,-11.719,0.000
1709291466.389,-12.207,-17.090,-40.527,-21.484,0.000
1709291466.393,-26.367,-28.320,-48.340,-24.902,0.000
1709291466.398,-36.133,-17.090,-42.480,-21.973,0.000
1709291466.402,-37.598,-7.812,-29.785,-32.715,0.000
1709291466.406,-22.949,-22.461,-34.180,-31.738,0.000
1709291466.410,-10.742,-34.668,-33.203,-3.906,0.000
1709291466.414,-3.906,-29.785,-31.738,13.184,0.000
1709291466.417,-6.836,-25.879,-35.645,0.488,0.000
1709291466.421,-18.066,-26.855,-35.156,-14.160,0.000
1709291466.425,-19.043,-42.969,-34.180,-8.301,0.000
1709291466.429,-10.254,-25.879,-31.250,-0.977,0.000
1709291466.433,-5.859,-7.324,-24.414,0.000,0.000
1709291466.437,-10.742,-24.414,-25.879,0.977,0.000
1709291466.441,-23.926,-27.832,-33.691,-11.719,0.000
1709291466.445,-18.066,-21.973,-31.250,-25.879,0.000
1709291466.448,-3.418,-29.785,-28.809,-6.348,0.000
1709291466.452,2.930,-29.297,-27.344,9.766,0.000
1709291466.456,-11.719,-19.531,-30.273,3.906,0.000
1709291466.460,-23.926,-21.484,-33.691,-3.906,0.000
1709291466.464,-21.973,-30.762,-32.715,-18.555,0.000
1709291466.468,-16.602,-28.809,-33.691,-17.578,0.000
1709291466.472,-16.602,-26.855,-38.574,-6.836,0.000
1709291466.476,-34.668,-22.949,-41.504,-16.113,0.000
1709291466.480,-41.016,-20.996,-35.645,-26.855,0.000
1709291466.484,-29.785,-46.387,-28.809,-22.949,0.000
1709291466.488,-24.902,-36.621,-26.855,-5.371,0.000
1709291466.491,-17.578,-14.160,-34.180,-14.160,0.000
1709291466.495,-13.184,-28.320,-31.738,-21.484,0.000
1709291466.499,-11.230,-35.156,-19.531,-12.695,0.000
1709291466.503,-26.855,-32.715,-34.180,-28.320,0.000
1709291466.507,-37.109,-40.039,-47.852,-40.039,0.000
1709291466.511,-25.879,-50.781,-41.504,-12.695,0.000
1709291466.515,-20.996,-63.965,-44.434,0.000,0.000
1709291466.519,-21.973,-40.527,-43.945,-26.367,0.000
1709291466.522,-26.855,-22.949,-40.527,-39.062,0.000
1709291466.526,-28.809,-40.039,-50.293,-38.086,0.000
1709291466.530,-34.180,-42.480,-49.805,-32.227,0.000
1709291466.534,-30.762,-28.809,-40.039,-15.137,0.000
1709291466.538,-23.926,-25.391,-37.109,-17.578,0.000
1709291466.542,-30.273,-32.715,-39.062,-42.969,0.000
1709291466.546,-26.367,-31.250,-39.551,-41.992,0.000
1709291466.549,-24.414,-16.602,-34.668,-10.254,0.000
1709291466.553,-27.832,-18.066,-46.387,-11.230,0.000
1709291466.557,-29.297,-42.480,-54.199,-23.926,0.000
1709291466.561,-35.156,-41.016,-51.758,-32.227,0.000
1709291466.565,-31.250,-16.602,-46.875,-35.645,0.000
1709291466.569,-18.066,-23.438,-43.457,-31.250,0.000
1709291466.573,-18.066,-43.457,-42.969,-26.367,0.000
1709291466.577,-24.414,-34.180,-40.039,-22.949,0.000
1709291466.581,-28.320,-29.297,-38.574,-43.457,0.000
1709291466.585,-34.180,-44.922,-36.133,-56.152,0.000
1709291466.589,-25.391,-44.922,-36.133,-34.668,0.000
1709291466.593,-20.508,-26.367,-38.574,-20.020,0.000
1709291466.597,-15.137,-23.438,-42.480,-27.344,0.000
1709291466.600,-26.855,-34.668,-43.457,-30.762,0.000
1709291466.604,-40.039,-48.340,-41.992,-37.109,0.000
1709291466.608,-30.762,-31.738,-39.551,-41.992,0.000
1709291466.612,-22.949,-17.090,-39.551,-28.320,0.000
1709291466.616,-20.996,-32.715,-40.039,-29.785,0.000
1709291466.620,-27.832,-50.293,-35.645,-46.875,0.000
1709291466.624,-31.738,-26.855,-36.621,-47.363,0.000
1709291466.628,-21.973,-13.672,-35.645,-27.344,0.000
1709291466.632,-23.926,-25.391,-36.133,-17.578,0.000
1709291466.636,-36.621,-36.621,-43.457,-20.996,0.000
1709291466.640,-36.621,-34.180,-40.527,-43.457,0.000
1709291466.644,-44.434,-26.367,-38.574,-58.594,0.000
1709291466.648,-52.734,-32.715,-41.016,-55.664,0.000
1709291466.651,-36.133,-33.203,-42.480,-38.574,0.000
1709291466.655,-34.180,-26.855,-38.086,-27.832,0.000
1709291466.659,-37.598,-15.137,-33.203,-29.785,0.000
1709291466.663,-39.551,-23.926,-37.598,-37.598,0.000
1709291466.667,-39.062,-29.297,-37.109,-29.297,0.000
1709291466.671,-29.785,-7.812,-38.574,-18.066,0.000
1709291466.675,-34.180,-14.160,-34.180,-22.461,0.000
1709291466.679,0.000,-26.855,-24.902,-32.227,0.000
1709291466.683,0.000,-18.066,-22.949,-33.691,0.000
1709291466.687,0.000,-14.160,-24.902,-30.762,0.000
1709291466.691,0.000,-20.508,-29.785,-23.438,0.000
1709291466.694,0.000,-29.785,-33.691,-11.230,0.000
1709291466.698,0.000,-29.785,-34.180,-20.996,0.000
1709291466.702,0.000,-31.250,-31.250,-49.805,0.000
1709291466.706,0.000,-40.039,-34.180,-55.664,0.000
1709291466.710,0.000,-48.340,-39.551,-39.551,0.000
1709291466.714,0.000,-26.855,-41.016,-41.504,0.000
1709291466.718,0.000,-18.555,-38.574,-39.062,0.000
1709291466.722,0.000,-31.250,-36.133,-49.805,0.000
1709291466.726,-15.137,-29.785,-32.715,-48.340,0.000
1709291466.730,-27.344,-22.949,-32.715,-23.926,0.000
1709291466.734,-39.551,-37.598,-31.738,-20.020,0.000
1709291466.737,-34.180,-31.738,-31.250,-31.250,0.000
1709291466.741,-27.344,-21.973,-29.297,-41.992,0.000
1709291466.745,-34.668,-33.691,-26.855,-45.410,0.000
1709291466.749,-35.645,-35.645,-34.668,-27.832,0.000
1709291466.753,-27.832,-36.621,-37.109,-16.602,0.000
1709291466.757,-26.367,-35.645,-36.133,-21.973,0.000
1709291466.761,-33.691,-11.719,-36.133,-28.320,0.000
1709291466.765,-39.062,-23.438,-36.133,-37.109,0.000
1709291466.769,-41.016,-39.551,-37.109,-28.809,0.000
1709291466.773,-42.480,-27.344,-34.180,-19.043,0.000
1709291466.776,-37.598,-18.555,-31.250,-25.879,0.000
1709291466.780,-25.879,-23.438,-32.227,-28.320,0.000
1709291466.784,-34.668,-34.668,-35.156,-24.414,0.000
1709291466.788,-22.461,-26.367,-32.227,-23.438,0.000
1709291466.792,-17.090,-31.250,-32.227,-24.902,0.000
1709291466.796,-31.738,-42.969,-35.645,-26.367,0.000
1709291466.800,-36.133,-44.434,-35.156,-29.785,0.000
1709291466.804,-40.527,-19.531,-30.762,-35.156,0.000
1709291466.808,-36.133,-18.066,-29.785,-33.691,0.000
1709291466.812,-32.715,-40.527,-34.668,-30.273,0.000
1709291466.815,-30.762,-39.062,-37.598,-18.555,0.000
1709291466.819,0.000,-20.508,-31.250,-29.297,0.000
1709291466.823,0.000,-26.855,-28.320,-45.898,0.000
1709291466.827,0.000,-38.086,-33.691,-42.969,0.000
1709291466.831,0.000,-25.391,-34.180,-31.738,0.000
1709291466.835,0.000,-25.879,-29.297,-29.297,0.000
1709291466.839,0.000,-30.273,-30.273,-37.109,0.000
1709291466.843,0.000,-39.062,-32.715,-32.715,0.000
1709291466.847,0.000,-37.109,-31.250,-24.902,0.000
1709291466.850,0.000,-10.742,-31.738,-27.344,0.000
1709291466.854,0.000,-23.926,-32.227,-27.344,0.000
1709291466.858,0.000,-38.574,-30.762,-22.461,0.000
1709291466.862,0.000,-31.738,-32.715,-32.227,0.000
1709291466.866,-37.598,-35.156,-43.457,-44.434,0.000
1709291466.870,-31.250,-43.945,-45.898,-38.086,0.000
1709291466.874,-30.273,-47.852,-33.691,-31.250,0.000
1709291466.878,-35.156,-35.156,-30.762,-32.715,0.000
1709291466.881,-27.832,-25.391,-26.367,-37.598,0.000
1709291466.885,-19.531,-36.621,-16.113,-21.973,0.000
1709291466.889,-36.621,-55.176,-33.203,-4.395,0.000
1709291466.893,-43.945,-32.227,-41.504,-23.438,0.000
1709291466.897,-46.875,-20.996,-39.551,-42.480,0.000
1709291466.901,-37.109,-44.434,-39.062,-41.504,0.000
1709291466.905,-38.086,-59.570,-36.621,-41.504,0.000
1709291466.909,-47.363,-38.574,-41.992,-31.250,0.000
