timestamps,TP9,AF7,AF8,TP10,Right AUX
1709299750.455,0.000,-35.645,-25.879,-16.113,0.000
1709299750.459,0.000,-39.551,-33.203,-41.504,0.000
1709299750.462,0.000,-47.852,-43.457,-50.293,0.000
1709299750.466,0.000,-39.551,-40.527,-37.109,0.000
1709299750.470,0.000,-45.898,-36.621,-22.949,0.000
1709299750.474,0.000,-60.547,-33.203,-26.367,0.000
1709299750.478,0.000,-34.668,-33.691,-35.645,0.000
1709299750.482,0.000,-21.973,-35.156,-30.273,0.000
1709299750.486,0.000,-32.715,-36.621,-25.879,0.000
1709299750.490,0.000,-37.109,-41.016,-26.855,0.000
1709299750.494,0.000,-42.480,-42.969,-33.203,0.000
1709299750.498,0.000,-36.621,-40.527,-41.992,0.000
1709299750.501,-39.062,-35.645,-40.527,-42.480,0.000
1709299750.505,-38.574,-41.992,-41.992,-40.527,0.000
1709299750.509,-33.691,-43.457,-39.551,-29.785,0.000
1709299750.513,-23.438,-32.715,-41.504,-19.531,0.000
1709299750.517,-31.738,-28.320,-38.574,-35.156,0.000
1709299750.521,-42.969,-39.062,-33.203,-46.387,0.000
1709299750.525,-40.527,-41.504,-37.109,-39.551,0.000
1709299750.528,-35.645,-38.086,-32.715,-26.855,0.000
1709299750.532,-36.621,-39.551,-24.414,-27.344,0.000
1709299750.536,-35.156,-42.969,-37.109,-36.133,0.000
1709299750.540,-35.156,-37.109,-44.434,-34.668,0.000
1709299750.544,-46.387,-35.156,-35.645,-41.992,0.000
1709299750.547,-36.621,-30.273,-35.156,-47.363,0.000
1709299750.551,-39.551,-34.668,-39.551,-40.527,0.000
1709299750.555,-51.758,-43.457,-41.504,-44.922,0.000
1709299750.559,-41.016,-34.180,-39.551,-49.316,0.000
1709299750.563,-40.039,-31.250,-41.504,-42.480,0.000
1709299750.567,-35.156,-38.574,-43.945,-31.738,0.000
1709299750.571,-25.391,-31.738,-44.434,-23.438,0.000
1709299750.575,-36.133,-36.621,-41.992,-32.715,0.000
1709299750.579,-44.922,-40.527,-34.668,-46.875,0.000
1709299750.583,-32.715,-31.250,-25.879,-36.133,0.000
1709299750.587,-33.691,-45.898,-31.738,-31.738,0.000
1709299750.590,-41.016,-43.945,-39.062,-36.133,0.000
1709299750.594,-41.016,-38.086,-34.668,-42.480,0.000
1709299750.598,-47.852,-40.527,-30.762,-46.387,0.000
1709299750.602,-50.293,-28.320,-30.273,-44.434,0.000
1709299750.605,-48.828,-32.227,-35.645,-42.969,0.000
1709299750.609,-46.387,-43.457,-34.180,-48.828,0.000
1709299750.613,-37.109,-33.691,-27.832,-42.480,0.000
1709299750.617,-20.020,-26.367,-23.438,-34.180,0.000
1709299750.621,-28.320,-23.926,-26.367,-52.246,0.000
1709299750.625,-41.504,-27.832,-39.551,-51.270,0.000
1709299750.629,-31.250,-31.250,-37.598,-39.062,0.000
1709299750.633,-33.691,-28.809,-35.156,-46.387,0.000
1709299750.637,-36.133,-39.551,-46.875,-51.758,0.000
1709299750.641,-37.598,-46.387,-47.852,-54.199,0.000
1709299750.645,-38.574,-36.621,-29.785,-54.688,0.000
1709299750.649,-38.574,-36.133,-19.043,-45.898,0.000
1709299750.653,-46.875,-35.645,-33.691,-51.758,0.000
1709299750.657,-52.246,-41.504,-43.457,-68.359,0.000
1709299750.660,-46.875,-50.781,-36.621,-68.359,0.000
1709299750.664,-45.898,-42.480,-38.574,-53.711,0.000
1709299750.668,-46.875,-35.156,-43.457,-51.270,0.000
1709299750.672,-48.340,-35.156,-43.945,-61.035,0.000
1709299750.676,-53.223,-35.645,-46.875,-58.105,0.000
1709299750.680,-44.434,-37.109,-45.410,-48.340,0.000
1709299750.684,-37.109,-35.156,-39.062,-49.316,0.000
1709299750.688,-29.785,-34.668,-36.133,-37.109,0.000
1709299750.692,-26.367,-39.551,-30.273,-23.926,0.000
1709299750.696,-26.855,-30.762,-31.738,-25.879,0.000
1709299750.700,-20.020,-30.273,-31.738,-29.785,0.000
1709299750.704,-34.668,-45.898,-33.203,-21.973,0.000
1709299750.707,-45.410,-55.664,-41.992,-19.531,0.000
1709299750.711,-27.344,-37.598,-33.203,-24.414,0.000
1709299750.715,-35.645,-19.043,-34.668,-39.551,0.000
1709299750.719,-43.945,-26.855,-36.133,-47.363,0.000
1709299750.723,-45.410,-41.016,-34.180,-37.598,0.000
1709299750.727,-47.363,-42.480,-35.645,-45.410,0.000
1709299750.731,-41.504,-31.250,-29.785,-50.781,0.000
1709299750.735,-44.922,-35.156,-32.227,-59.570,0.000
1709299750.739,-49.805,-38.086,-35.156,-57.129,0.000
1709299750.743,-53.711,-39.551,-35.645,-49.805,0.000
1709299750.746,-51.758,-40.039,-33.203,-51.270,0.000
1709299750.750,-50.781,-39.551,-34.668,-49.316,0.000
1709299750.754,-32.715,-44.922,-40.527,-46.387,0.000
1709299750.758,-32.227,-38.574,-41.992,-50.293,0.000
1709299750.762,-53.223,-36.133,-39.062,-49.805,0.000
1709299750.766,-47.363,-42.480,-28.809,-36.133,0.000
1709299750.770,-41.504,-42.480,-29.297,-29.785,0.000
1709299750.774,-46.875,-43.945,-36.133,-44.434,0.000
1709299750.778,-56.152,-37.109,-30.273,-44.434,0.000
1709299750.781,-58.105,-35.156,-27.832,-43.457,0.000
1709299750.785,-54.199,-41.504,-31.738,-48.340,0.000
1709299750.789,-44.922,-33.203,-29.297,-40.039,0.000
1709299750.793,-41.992,-33.203,-22.949,-34.668,0.000
1709299750.797,-38.086,-33.203,-23.438,-34.180,0.000
1709299750.801,-35.156,-41.016,-29.297,-31.738,0.000
1709299750.805,-32.715,-48.828,-39.551,-27.832,0.000
1709299750.809,-39.062,-23.926,-41.016,-28.320,0.000
1709299750.813,-41.504,-21.973,-27.344,-26.367,0.000
1709299750.817,-43.457,-36.621,-29.785,-41.504,0.000
1709299750.821,-39.062,-31.250,-33.691,-45.898,0.000
1709299750.824,-30.762,-33.203,-31.250,-35.156,0.000
1709299750.828,-43.457,-40.039,-48.828,-39.551,0.000
1709299750.832,-44.434,-31.250,-47.852,-43.457,0.000
1709299750.836,-43.457,-30.762,-25.391,-36.621,0.000
1709299750.840,-47.363,-36.621,-19.531,-36.133,0.000
1709299750.844,-40.039,-34.180,-28.809,-38.574,0.000
1709299750.848,-34.668,-37.109,-34.668,-33.691,0.000
1709299750.852,-33.691,-48.828,-39.062,-33.691,0.000
1709299750.855,-28.809,-54.199,-36.133,-23.438,0.000
1709299750.859,-35.645,-43.945,-38.574,-36.621,0.000
1709299750.863,-40.039,-33.203,-49.316,-55.176,0.000
1709299750.867,-37.598,-29.297,-45.410,-46.387,0.000
1709299750.871,-31.738,-36.133,-37.109,-44.922,0.000
1709299750.875,-37.109,-36.621,-40.039,-46.875,0.000
1709299750.879,-44.922,-29.297,-41.016,-51.270,0.000
1709299750.882,-24.902,-33.691,-33.203,-48.340,0.000
1709299750.886,-31.250,-32.715,-41.504,-48.828,0.000
1709299750.890,-46.387,-31.250,-45.898,-51.758,0.000
1709299750.894,-36.133,-42.480,-34.180,-40.527,0.000
1709299750.898,-41.016,-59.082,-30.762,-41.992,0.000
1709299750.902,-40.527,-54.688,-32.715,-37.598,0.000
1709299750.906,-37.598,-41.016,-41.992,-33.203,0.000
1709299750.910,-33.203,-37.109,-43.457,-43.945,0.000
1709299750.914,-29.785,-27.832,-37.109,-42.480,0.000
1709299750.918,-37.598,-23.926,-39.551,-38.574,0.000
1709299750.921,-41.504,-17.578,-29.785,-36.621,0.000
1709299750.925,-42.480,-28.320,-20.508,-31.250,0.000
1709299750.929,-43.945,-39.551,-28.809,-31.738,0.000
1709299750.933,-46.875,-41.016,-37.109,-38.574,0.000
1709299750.937,-39.062,-50.781,-35.156,-35.156,0.000
1709299750.941,-29.297,-50.293,-36.133,-29.297,0.000
1709299750.944,-37.598,-54.199,-32.227,-16.602,0.000
1709299750.948,-35.645,-47.363,-23.438,-13.184,0.000
1709299750.952,-30.762,-39.551,-30.273,-27.344,0.000
1709299750.956,-35.645,-46.875,-37.109,-40.039,0.000
1709299750.960,-35.645,-41.016,-34.668,-55.176,0.000
1709299750.964,-32.227,-26.855,-30.762,-41.016,0.000
1709299750.967,-35.156,-29.785,-34.668,-29.297,0.000
1709299750.971,-29.785,-28.320,-44.922,-36.133,0.000
1709299750.975,-26.367,-25.879,-47.363,-37.109,0.000
1709299750.979,-27.832,-27.344,-33.691,-42.480,0.000
1709299750.983,-34.180,-33.691,-40.527,-47.363,0.000
1709299750.987,-33.203,-53.711,-42.480,-36.621,0.000
1709299750.991,-35.645,-50.781,-31.250,-29.785,0.000
1709299750.995,-29.297,-39.062,-28.320,-32.227,0.000
1709299750.999,-22.949,-35.156,-34.668,-41.992,0.000
1709299751.003,-33.203,-42.969,-35.645,-38.086,0.000
1709299751.006,-42.969,-43.945,-33.691,-28.809,0.000
1709299751.010,-43.457,-36.621,-42.480,-38.574,0.000
1709299751.015,0.000,-38.086,-44.922,-42.969,0.000
1709299751.018,0.000,-41.504,-36.621,-35.156,0.000
1709299751.022,0.000,-40.527,-37.598,-37.109,0.000
1709299751.026,0.000,-33.203,-37.598,-41.016,0.000
1709299751.030,0.000,-36.133,-29.785,-38.086,0.000
1709299751.034,0.000,-42.480,-31.250,-37.598,0.000
1709299751.038,0.000,-31.738,-34.668,-40.039,0.000
1709299751.042,0.000,-22.949,-32.227,-42.969,0.000
1709299751.046,0.000,-22.461,-33.691,-43.457,0.000
1709299751.050,0.000,-28.320,-32.715,-41.016,0.000
1709299751.054,0.000,-52.734,-38.086,-47.852,0.000
1709299751.058,0.000,-51.758,-40.039,-53.711,0.000
1709299751.062,-32.227,-26.855,-30.762,-43.945,0.000
1709299751.066,-39.551,-17.090,-31.738,-37.598,0.000
1709299751.069,-37.109,-14.648,-29.785,-41.992,0.000
1709299751.073,-33.691,-29.297,-22.949,-52.246,0.000
1709299751.077,-38.086,-40.039,-35.645,-63.965,0.000
1709299751.081,-34.668,-30.762,-43.457,-57.129,0.000
1709299751.085,-32.227,-25.391,-39.062,-57.617,0.000
1709299751.089,-23.926,-34.180,-38.086,-48.828,0.000
1709299751.093,-22.949,-38.086,-43.945,-35.156,0.000
1709299751.097,-35.645,-25.391,-42.480,-48.340,0.000
1709299751.101,-36.621,-28.320,-41.016,-53.711,0.000
1709299751.105,-33.691,-45.898,-39.062,-42.969,0.000
1709299751.109,-45.410,-37.109,-35.645,-40.527,0.000
1709299751.112,-40.039,-30.273,-39.551,-48.340,0.000
1709299751.116,-25.391,-36.133,-39.551,-52.734,0.000
1709299751.120,-46.387,-34.180,-44.922,-52.246,0.000
1709299751.124,-50.293,-42.969,-48.340,-36.621,0.000
1709299751.128,-42.480,-33.203,-26.855,-21.973,0.000
1709299751.132,-45.898,-23.438,-28.320,-35.156,0.000
1709299751.136,-42.969,-31.738,-36.621,-46.875,0.000
1709299751.140,-40.527,-30.273,-36.133,-38.086,0.000
1709299751.144,-39.551,-20.508,-33.203,-36.621,0.000
1709299751.148,-38.574,-34.180,-24.902,-45.410,0.000
1709299751.152,-42.480,-47.852,-33.203,-42.480,0.000
1709299751.155,-40.039,-37.109,-32.227,-38.086,0.000
1709299751.159,-48.340,-35.156,-27.344,-43.945,0.000
1709299751.163,-37.598,-36.133,-34.668,-50.293,0.000
1709299751.167,-35.645,-30.762,-36.133,-33.691,0.000
1709299751.171,-58.105,-34.180,-25.391,-32.715,0.000
1709299751.175,-60.059,-41.504,-23.926,-53.223,0.000
1709299751.179,-56.152,-39.062,-26.855,-52.246,0.000
1709299751.183,-50.293,-28.809,-22.949,-42.480,0.000
1709299751.187,-54.199,-39.551,-19.531,-40.039,0.000
1709299751.191,-65.430,-52.246,-23.438,-44.922,0.000
1709299751.194,-67.871,-46.387,-31.738,-54.688,0.000
1709299751.198,-69.336,-46.387,-24.414,-56.152,0.000
1709299751.202,-72.754,-64.453,-20.020,-54.688,0.000
1709299751.206,-66.895,-65.918,-21.484,-44.922,0.000
1709299751.210,-60.059,-56.641,-20.508,-32.227,0.000
1709299751.214,-62.988,-66.895,-26.367,-36.133,0.000
1709299751.218,-67.383,-63.477,-18.555,-46.387,0.000
1709299751.222,-62.988,-60.547,-5.859,-47.852,0.000
1709299751.226,-69.336,-67.383,-7.324,-39.551,0.000
1709299751.229,-70.312,-66.895,-11.230,-27.832,0.000
1709299751.233,-64.453,-70.312,-11.230,-33.203,0.000
1709299751.237,-69.824,-75.684,-6.348,-41.016,0.000
1709299751.241,-72.754,-84.473,-1.465,-37.109,0.000
1709299751.245,-77.637,-93.750,-1.465,-29.785,0.000
1709299751.249,0.000,-82.031,-9.766,-36.133,0.000
1709299751.253,0.000,-75.684,-6.348,-39.551,0.000
1709299751.257,0.000,-86.426,-9.766,-41.992,0.000
1709299751.260,0.000,-85.449,-10.254,-48.340,0.000
1709299751.264,0.000,-88.379,3.418,-38.086,0.000
1709299751.268,0.000,-88.867,5.859,-35.645,0.000
1709299751.272,0.000,-81.543,2.441,-43.945,0.000
1709299751.276,0.000,-81.543,-0.488,-57.617,0.000
1709299751.280,0.000,-83.008,0.977,-72.266,0.000
1709299751.284,0.000,-83.008,7.324,-75.195,0.000
1709299751.288,0.000,-77.637,-0.488,-65.430,0.000
1709299751.292,0.000,-83.008,-2.930,-86.426,0.000
1709299751.295,-112.793,-83.984,7.812,-99.609,0.000
1709299751.299,-115.234,-81.055,13.184,-84.473,0.000
1709299751.303,-128.906,-85.449,9.766,-76.660,0.000
1709299751.307,-128.906,-79.102,9.277,-79.590,0.000
1709299751.311,-131.836,-85.449,10.254,-89.844,0.000
1709299751.315,-132.324,-91.309,4.395,-92.773,0.000
1709299751.319,-125.488,-85.449,3.418,-70.801,0.000
1709299751.323,-125.488,-76.172,5.859,-68.359,0.000
1709299751.327,-127.930,-74.707,9.277,-87.402,0.000
1709299751.330,-130.371,-88.379,11.719,-91.309,0.000
1709299751.334,-126.953,-93.750,5.371,-91.309,0.000
1709299751.338,-123.047,-98.633,4.395,-88.379,0.000
1709299751.342,-128.906,-101.074,8.789,-82.520,0.000
1709299751.346,-128.906,-90.332,3.418,-81.055,0.000
1709299751.349,-104.492,-85.449,3.906,-68.359,0.000
1709299751.353,-94.727,-96.191,10.742,-66.895,0.000
1709299751.357,-93.750,-100.586,10.742,-66.406,0.000
1709299751.361,-72.754,-83.984,10.742,-45.898,0.000
1709299751.365,-67.871,-82.031,5.371,-44.434,0.000
1709299751.369,-71.289,-85.449,7.324,-47.852,0.000
1709299751.373,-51.758,-82.031,6.348,-46.387,0.000
1709299751.377,-48.340,-81.055,-9.277,-41.992,0.000
1709299751.381,-59.082,-87.891,-13.184,-25.879,0.000
1709299751.385,-52.734,-94.727,-11.230,-20.020,0.000
1709299751.389,-34.668,-88.379,-20.508,-17.578,0.000
1709299751.393,-12.695,-71.777,-13.184,0.000,0.000
1709299751.397,-13.184,-57.617,-9.277,2.930,0.000
1709299751.401,-20.020,-58.105,-13.184,-7.324,0.000
1709299751.405,-20.508,-63.965,-16.602,-1.953,0.000
1709299751.408,-0.977,-67.383,-18.555,21.484,0.000
1709299751.412,7.812,-71.777,-20.508,22.461,0.000
1709299751.416,3.906,-73.242,-28.809,8.301,0.000
1709299751.420,17.090,-66.406,-30.762,22.461,0.000
1709299751.424,25.391,-65.918,-26.855,37.109,0.000
1709299751.428,30.762,-68.359,-29.297,39.551,0.000
1709299751.432,40.039,-60.547,-27.344,36.133,0.000
1709299751.436,55.176,-50.781,-31.738,24.902,0.000
1709299751.440,51.758,-46.387,-36.621,32.227,0.000
1709299751.444,37.109,-49.316,-36.133,38.086,0.000
1709299751.448,46.875,-50.293,-31.250,44.922,0.000
1709299751.452,55.664,-53.223,-27.832,60.547,0.000
1709299751.456,48.828,-51.758,-33.203,51.758,0.000
1709299751.459,41.016,-45.410,-41.016,34.180,0.000
1709299751.463,42.480,-48.340,-41.992,36.133,0.000
1709299751.467,44.434,-46.875,-35.645,45.410,0.000
1709299751.471,36.621,-42.480,-43.457,45.898,0.000
1709299751.475,27.344,-51.270,-46.875,33.203,0.000
1709299751.479,34.180,-55.664,-36.621,22.461,0.000
1709299751.483,28.320,-55.176,-41.504,16.602,0.000
1709299751.487,12.207,-47.363,-44.434,12.207,0.000
1709299751.491,7.324,-39.551,-44.922,-6.836,0.000
1709299751.495,-2.441,-43.457,-46.387,-17.090,0.000
1709299751.499,-7.812,-52.246,-42.480,-7.812,0.000
1709299751.503,0.000,-60.547,-38.574,0.977,0.000
1709299751.506,1.953,-45.898,-35.645,0.488,0.000
1709299751.510,0.977,-31.738,-29.785,2.441,0.000
1709299751.514,-4.883,-42.969,-35.645,-0.977,0.000
1709299751.518,-1.953,-55.176,-39.062,-9.277,0.000
1709299751.522,7.812,-48.340,-34.668,4.395,0.000
1709299751.526,-0.977,-42.969,-35.156,12.207,0.000
1709299751.530,0.000,-47.852,-35.645,0.000,0.000
1709299751.534,0.000,-45.410,-41.992,0.000,0.000
1709299751.538,0.000,-38.086,-37.598,0.000,0.000
1709299751.542,0.000,-28.809,-37.109,0.000,0.000
1709299751.546,0.000,-37.109,-40.039,0.000,0.000
1709299751.550,0.000,-46.387,-33.203,0.000,0.000
1709299751.554,0.000,-34.668,-39.551,0.000,0.000
1709299751.557,0.000,-36.133,-48.340,0.000,0.000
1709299751.561,0.000,-35.645,-47.852,0.000,0.000
1709299751.565,0.000,-31.738,-46.387,0.000,0.000
1709299751.569,0.000,-34.668,-39.062,0.000,0.000
1709299751.573,0.000,-42.480,-33.203,0.000,0.000
1709299751.577,9.766,-40.039,-35.645,-2.930,0.000
1709299751.581,-9.766,-24.414,-34.180,-6.348,0.000
1709299751.585,-19.043,-38.086,-38.574,-6.836,0.000
1709299751.589,-20.020,-53.223,-40.527,-13.672,0.000
1709299751.592,-27.832,-41.992,-34.668,-19.043,0.000
1709299751.596,-27.344,-27.832,-35.156,-19.043,0.000
1709299751.600,-31.738,-34.668,-40.527,-31.738,0.000
1709299751.604,-36.621,-42.480,-46.875,-17.578,0.000
1709299751.608,-27.344,-35.156,-36.621,-7.324,0.000
1709299751.612,-24.902,-37.598,-34.668,-27.344,0.000
1709299751.616,-29.785,-47.363,-33.691,-37.109,0.000
1709299751.620,-41.016,-50.781,-28.809,-46.387,0.000
1709299751.623,-48.340,-47.363,-34.180,-50.781,0.000
1709299751.627,-44.434,-39.062,-38.086,-37.109,0.000
1709299751.631,-42.969,-38.574,-42.480,-43.457,0.000
1709299751.635,-36.621,-37.109,-44.922,-54.199,0.000
1709299751.639,-35.645,-43.945,-32.227,-43.945,0.000
1709299751.643,-32.715,-45.410,-27.832,-45.410,0.000
1709299751.647,-35.156,-24.902,-36.133,-41.992,0.000
1709299751.651,-40.039,-24.902,-45.898,-35.156,0.000
1709299751.655,-18.555,-25.879,-40.039,-35.645,0.000
1709299751.659,-13.184,-30.762,-36.133,-32.227,0.000
1709299751.663,-13.672,-26.855,-40.527,-23.438,0.000
1709299751.666,-8.789,-26.855,-35.156,-10.742,0.000
1709299751.670,-10.742,-41.992,-34.180,-8.301,0.000
1709299751.674,-25.879,-38.574,-39.551,-25.391,0.000
1709299751.678,-35.645,-41.992,-39.062,-38.574,0.000
1709299751.682,-31.250,-40.039,-43.945,-28.320,0.000
1709299751.686,-21.973,-32.715,-37.598,-11.230,0.000
1709299751.690,-15.137,-48.340,-32.715,-7.324,0.000
1709299751.693,-20.996,-42.969,-29.785,-3.418,0.000
1709299751.697,-26.855,-29.785,-38.086,-9.277,0.000
1709299751.701,-31.738,-26.855,-45.898,-14.648,0.000
1709299751.705,-20.996,-28.809,-35.156,-14.648,0.000
1709299751.709,-17.090,-29.297,-35.645,-17.578,0.000
1709299751.713,-37.109,-23.926,-37.109,-20.996,0.000
1709299751.716,-39.062,-21.484,-29.297,-30.762,0.000
1709299751.720,-42.480,-21.484,-21.484,-28.320,0.000
1709299751.724,-49.805,-18.555,-28.320,-22.461,0.000
1709299751.728,-43.945,-25.391,-40.527,-29.785,0.000
1709299751.732,-40.527,-32.227,-45.898,-40.527,0.000
1709299751.736,-39.062,-26.367,-42.969,-35.156,0.000
1709299751.740,-38.086,-22.949,-42.480,-29.297,0.000
1709299751.744,-41.992,-33.691,-48.828,-38.574,0.000
1709299751.748,-35.645,-54.199,-42.969,-34.180,0.000
1709299751.752,-25.879,-34.668,-38.574,-33.203,0.000
1709299751.755,-13.184,-9.766,-52.246,-48.828,0.000
1709299751.759,-22.949,-5.859,-47.852,-52.734,0.000
1709299751.764,-41.016,-16.113,-38.086,-46.875,0.000
1709299751.768,-39.551,-29.297,-41.016,-44.922,0.000
1709299751.771,-34.180,-28.809,-36.133,-38.574,0.000
1709299751.775,-22.949,-29.785,-25.879,-35.645,0.000
1709299751.779,-18.066,-29.785,-19.531,-34.668,0.000
1709299751.783,-25.391,-28.809,-34.668,-36.133,0.000
1709299751.787,-26.855,-34.180,-35.645,-33.691,0.000
1709299751.791,-19.531,-35.645,-28.809,-33.691,0.000
1709299751.795,-16.113,-34.180,-30.273,-34.180,0.000
1709299751.799,-23.438,-43.945,-23.438,-28.809,0.000
1709299751.803,-33.203,-50.781,-27.832,-27.344,0.000
1709299751.807,-28.809,-39.551,-42.480,-23.926,0.000
1709299751.811,-28.320,-34.180,-35.645,-23.926,0.000
1709299751.815,-45.410,-28.809,-32.227,-30.273,0.000
1709299751.819,-46.875,-17.090,-39.551,-35.645,0.000
1709299751.822,-42.480,-22.949,-33.203,-30.273,0.000
1709299751.826,-41.016,-32.715,-29.785,-23.926,0.000
1709299751.830,-35.645,-38.086,-34.668,-20.020,0.000
1709299751.834,-36.133,-45.410,-41.016,-24.902,0.000
1709299751.838,-38.574,-41.504,-34.668,-43.945,0.000
1709299751.842,-39.551,-30.762,-24.414,-47.363,0.000
1709299751.846,-41.504,-37.109,-39.062,-40.527,0.000
1709299751.850,-35.156,-64.941,-44.434,-39.551,0.000
1709299751.854,-23.926,-49.316,-35.156,-38.574,0.000
1709299751.858,-26.367,-24.414,-35.156,-44.922,0.000
1709299751.862,-25.879,-25.879,-43.457,-49.316,0.000
1709299751.866,-16.602,-22.949,-38.574,-37.109,0.000
1709299751.869,-22.949,-29.297,-32.715,-20.508,0.000
1709299751.873,-29.297,-41.992,-38.574,-29.785,0.000
1709299751.877,-26.855,-39.551,-36.133,-44.922,0.000
1709299751.881,-24.902,-33.691,-31.738,-33.203,0.000
1709299751.885,-24.414,-43.945,-37.109,-27.344,0.000
1709299751.889,-26.855,-47.363,-35.645,-28.320,0.000
1709299751.893,-37.109,-42.969,-36.133,-37.598,0.000
1709299751.897,-35.645,-44.922,-33.691,-43.457,0.000
1709299751.901,-33.691,-40.527,-27.344,-34.180,0.000
1709299751.906,-33.691,-49.805,-25.879,-29.297,0.000
1709299751.909,-29.297,-50.781,-35.645,-24.902,0.000
1709299751.913,-29.297,-37.109,-39.551,-28.809,0.000
1709299751.917,-32.227,-30.762,-38.086,-32.227,0.000
1709299751.921,-35.645,-19.043,-32.227,-28.809,0.000
1709299751.925,-41.992,-26.367,-41.504,-27.832,0.000
1709299751.929,-36.133,-32.227,-62.500,-30.273,0.000
1709299751.933,-25.879,-35.156,-47.363,-30.762,0.000
1709299751.937,-37.109,-52.246,-26.855,-30.762,0.000
1709299751.941,-38.574,-51.758,-26.855,-27.832,0.000
1709299751.945,-36.133,-48.340,-38.574,-32.227,0.000
1709299751.948,-39.551,-45.410,-41.504,-28.320,0.000
1709299751.952,-33.203,-36.621,-41.504,-19.531,0.000
1709299751.956,-33.203,-31.738,-52.246,-35.156,0.000
1709299751.960,-25.391,-37.598,-36.621,-26.855,0.000
1709299751.964,-30.273,-40.039,-21.973,-14.648,0.000
1709299751.968,-43.945,-32.715,-32.715,-37.109,0.000
1709299751.972,-39.062,-33.691,-37.109,-47.363,0.000
1709299751.976,-43.457,-39.062,-42.969,-52.246,0.000
1709299751.980,-44.434,-37.109,-43.457,-49.316,0.000
1709299751.983,-36.133,-36.621,-41.504,-39.551,0.000
1709299751.987,-27.832,-35.156,-28.320,-35.645,0.000
1709299751.991,-21.973,-27.832,-29.785,-30.762,0.000
1709299751.995,-27.344,-36.621,-48.828,-28.320,0.000
1709299751.999,-34.668,-40.039,-33.691,-29.297,0.000
1709299752.003,-43.457,-45.898,-25.879,-37.598,0.000
1709299752.007,-34.180,-45.898,-31.250,-29.785,0.000
1709299752.011,-27.832,-37.598,-27.832,-23.438,0.000
1709299752.015,-28.320,-39.551,-30.273,-24.902,0.000
1709299752.018,-32.715,-43.457,-35.156,-39.062,0.000
1709299752.022,-34.180,-41.992,-36.133,-33.203,0.000
1709299752.026,-26.367,-43.457,-39.551,-14.648,0.000
1709299752.030,-26.367,-50.293,-37.109,-25.391,0.000
1709299752.034,-32.227,-47.852,-29.785,-31.250,0.000
1709299752.038,-32.227,-42.480,-40.527,-31.250,0.000
1709299752.042,-34.668,-36.133,-45.898,-29.785,0.000
1709299752.045,-32.227,-25.391,-34.180,-24.414,0.000
1709299752.049,-22.461,-23.926,-31.738,-27.832,0.000
1709299752.053,-21.973,-29.297,-37.109,-29.785,0.000
1709299752.057,-33.691,-37.598,-31.250,-32.227,0.000
1709299752.061,-32.227,-36.133,-31.738,-34.180,0.000
1709299752.065,-29.785,-35.645,-36.621,-42.480,0.000
1709299752.069,-44.922,-42.480,-29.297,-41.992,0.000
1709299752.073,-40.527,-41.504,-34.180,-39.551,0.000
1709299752.077,-33.691,-44.922,-43.945,-42.969,0.000
1709299752.080,-32.715,-49.316,-47.363,-37.598,0.000
1709299752.084,-36.133,-41.992,-40.039,-40.039,0.000
1709299752.088,-40.527,-37.598,-35.156,-46.875,0.000
1709299752.092,-34.668,-32.715,-38.086,-44.434,0.000
1709299752.096,-28.320,-34.668,-35.156,-34.668,0.000
1709299752.100,-21.973,-32.227,-35.156,-34.180,0.000
1709299752.103,-26.367,-34.668,-38.574,-38.574,0.000
1709299752.107,-30.273,-50.781,-42.969,-38.086,0.000
1709299752.111,-29.785,-52.246,-37.598,-37.109,0.000
1709299752.115,-27.832,-44.922,-38.574,-35.156,0.000
1709299752.119,-25.391,-39.062,-54.199,-25.391,0.000
1709299752.123,-26.367,-41.992,-39.551,-32.227,0.000
1709299752.127,-26.855,-35.645,-20.020,-49.316,0.000
1709299752.131,-36.621,-37.109,-23.926,-51.270,0.000
1709299752.135,-33.691,-40.527,-31.738,-53.223,0.000
1709299752.139,-29.785,-46.387,-41.016,-49.316,0.000
1709299752.143,-29.297,-40.527,-51.758,-40.527,0.000
1709299752.147,-22.461,-22.949,-46.875,-30.762,0.000
1709299752.151,-14.160,-28.320,-32.227,-26.855,0.000
1709299752.155,-28.809,-32.227,-39.062,-41.504,0.000
1709299752.159,-36.621,-30.273,-42.969,-46.387,0.000
1709299752.162,-31.250,-27.832,-38.086,-38.574,0.000
1709299752.166,-28.320,-31.250,-52.246,-27.832,0.000
1709299752.170,-20.508,-44.922,-54.688,-25.879,0.000
1709299752.174,-21.973,-48.340,-31.738,-25.391,0.000
1709299752.178,-32.715,-33.203,-22.461,-28.320,0.000
1709299752.182,-41.992,-25.879,-26.855,-37.109,0.000
1709299752.186,-38.086,-38.574,-35.645,-43.945,0.000
1709299752.190,-31.738,-51.270,-28.320,-50.293,0.000
1709299752.194,-35.645,-50.781,-26.367,-47.363,0.000
1709299752.198,-45.898,-48.340,-33.691,-52.246,0.000
1709299752.202,-46.875,-48.340,-32.715,-51.270,0.000
1709299752.206,-39.062,-37.109,-33.691,-42.480,0.000
1709299752.210,-38.574,-34.180,-35.645,-45.410,0.000
1709299752.213,-41.504,-42.480,-47.363,-46.387,0.000
1709299752.217,-37.109,-35.156,-46.875,-41.016,0.000
1709299752.221,-43.457,-33.203,-38.574,-48.340,0.000
1709299752.225,-45.898,-28.320,-35.156,-57.617,0.000
1709299752.229,-41.504,-36.621,-39.551,-56.641,0.000
1709299752.233,-42.969,-43.457,-44.434,-50.293,0.000
1709299752.237,-38.086,-49.805,-39.062,-46.875,0.000
1709299752.241,-34.668,-49.316,-31.738,-50.781,0.000
1709299752.245,-19.531,-34.180,-33.203,-40.527,0.000
1709299752.249,-17.090,-45.410,-39.062,-39.062,0.000
1709299752.253,-32.227,-46.875,-29.785,-34.668,0.000
1709299752.257,-33.203,-30.762,-26.855,-38.574,0.000
1709299752.260,-34.668,-34.668,-31.738,-56.641,0.000
1709299752.264,-32.227,-41.504,-33.203,-51.758,0.000
1709299752.268,-29.785,-40.527,-36.621,-43.945,0.000
1709299752.272,-30.273,-21.484,-41.504,-50.781,0.000
1709299752.276,-30.273,-20.020,-31.250,-47.363,0.000
1709299752.280,-31.738,-27.344,-30.762,-42.969,0.000
1709299752.284,-27.832,-26.855,-33.203,-41.992,0.000
1709299752.288,-29.297,-35.645,-30.273,-29.297,0.000
1709299752.292,-21.484,-35.156,-32.715,-31.250,0.000
1709299752.296,-25.879,-35.156,-23.926,-38.086,0.000
1709299752.299,-44.922,-36.133,-24.902,-42.969,0.000
1709299752.303,-44.922,-26.855,-39.551,-49.805,0.000
1709299752.307,-45.898,-30.762,-35.156,-40.527,0.000
1709299752.311,-47.363,-30.762,-25.391,-41.992,0.000
1709299752.315,-47.852,-29.297,-28.809,-52.734,0.000
1709299752.319,-44.434,-33.203,-32.227,-54.688,0.000
1709299752.323,-43.945,-30.273,-39.062,-47.363,0.000
1709299752.328,-41.504,-39.062,-33.203,-39.551,0.000
1709299752.331,-43.945,-44.922,-32.715,-51.270,0.000
1709299752.335,-44.922,-27.832,-35.156,-61.523,0.000
1709299752.339,-43.457,-20.020,-36.133,-60.059,0.000
1709299752.343,-31.250,-24.414,-46.875,-34.180,0.000
1709299752.347,-18.066,-22.461,-45.410,-21.484,0.000
1709299752.351,-33.203,-25.879,-31.250,-45.898,0.000
1709299752.355,-49.805,-33.203,-36.133,-52.246,0.000
1709299752.359,-51.270,-30.273,-38.086,-56.641,0.000
1709299752.363,-51.758,-37.109,-38.574,-62.012,0.000
1709299752.367,-47.852,-54.688,-39.551,-55.664,0.000
1709299752.371,-46.387,-43.945,-42.969,-59.082,0.000
1709299752.374,-54.199,-35.156,-53.711,-64.941,0.000
1709299752.378,-59.570,-48.340,-48.828,-64.941,0.000
1709299752.382,-55.664,-45.410,-41.504,-62.988,0.000
1709299752.386,-56.641,-40.527,-45.410,-55.176,0.000
1709299752.390,-57.617,-56.152,-40.527,-50.293,0.000
1709299752.394,-55.664,-56.152,-34.668,-52.734,0.000
1709299752.398,-53.223,-34.180,-29.297,-55.176,0.000
1709299752.401,-41.992,-21.973,-23.926,-51.270,0.000
1709299752.405,-48.828,-27.344,-40.527,-35.156,0.000
1709299752.409,-49.316,-34.668,-42.969,-20.508,0.000
1709299752.413,-37.598,-41.016,-28.320,-25.879,0.000
1709299752.417,-29.297,-60.547,-27.344,-22.949,0.000
1709299752.421,-31.250,-52.246,-32.715,-24.902,0.000
1709299752.425,-42.480,-24.414,-42.969,-37.109,0.000
1709299752.428,-34.180,-24.414,-41.504,-30.762,0.000
1709299752.432,-33.203,-42.969,-37.109,-34.180,0.000
1709299752.436,-41.992,-46.387,-41.992,-51.758,0.000
1709299752.440,-44.434,-33.203,-49.316,-66.895,0.000
1709299752.444,-47.363,-38.086,-45.410,-56.641,0.000
1709299752.448,-47.363,-40.527,-40.527,-47.852,0.000
1709299752.452,-42.969,-47.852,-48.340,-57.129,0.000
1709299752.456,-39.062,-51.270,-48.340,-56.641,0.000
1709299752.460,-33.691,-38.086,-43.945,-54.688,0.000
1709299752.464,-43.457,-30.273,-42.969,-48.340,0.000
1709299752.467,-56.152,-46.387,-40.527,-43.945,0.000
1709299752.471,-52.246,-47.363,-31.250,-46.387,0.000
1709299752.475,-50.293,-33.691,-31.250,-57.129,0.000
1709299752.479,-48.828,-37.598,-35.645,-62.012,0.000
1709299752.483,-52.246,-34.180,-38.086,-52.734,0.000
1709299752.487,-46.875,-36.621,-34.668,-41.504,0.000
1709299752.490,-38.574,-45.898,-25.879,-41.504,0.000
1709299752.494,-49.316,-45.898,-42.480,-60.547,0.000
1709299752.498,-62.500,-38.086,-58.594,-70.801,0.000
1709299752.502,-67.383,-28.320,-46.875,-62.988,0.000
1709299752.506,-60.059,-25.391,-29.297,-62.012,0.000
1709299752.510,-39.062,-24.902,-24.902,-67.871,0.000
1709299752.513,-45.898,-34.180,-28.320,-63.965,0.000
1709299752.517,-52.734,-52.734,-26.367,-58.594,0.000
1709299752.521,-43.457,-54.199,-30.273,-49.316,0.000
1709299752.525,-41.016,-24.902,-32.227,-41.992,0.000
1709299752.529,-32.227,-11.719,-29.297,-44.434,0.000
1709299752.533,-27.344,-21.484,-31.738,-48.828,0.000
1709299752.537,-23.926,-23.438,-36.621,-42.969,0.000
1709299752.541,-14.648,-17.090,-38.574,-30.762,0.000
1709299752.545,-16.602,-32.715,-29.785,-22.949,0.000
1709299752.549,-24.414,-44.434,-40.039,-28.320,0.000
1709299752.552,-27.344,-25.391,-50.781,-32.227,0.000
1709299752.556,-29.297,-28.320,-37.109,-36.133,0.000
1709299752.560,-19.043,-31.738,-30.273,-43.457,0.000
1709299752.564,-25.391,-26.367,-28.809,-35.156,0.000
1709299752.568,-39.551,-39.062,-37.109,-31.738,0.000
1709299752.572,-30.762,-43.457,-37.598,-44.434,0.000
1709299752.576,-27.832,-36.133,-32.715,-51.270,0.000
1709299752.580,-34.668,-36.621,-35.156,-47.852,0.000
1709299752.584,-32.227,-31.250,-40.039,-42.480,0.000
1709299752.588,-30.762,-34.180,-37.598,-41.992,0.000
1709299752.592,-34.180,-46.387,-30.762,-36.133,0.000
1709299752.596,-29.297,-41.992,-33.691,-37.109,0.000
1709299752.600,-35.645,-30.273,-36.621,-49.805,0.000
1709299752.603,-42.480,-23.926,-36.621,-41.504,0.000
1709299752.608,-22.461,-23.438,-30.273,-30.762,0.000
1709299752.612,-33.691,-27.832,-27.832,-38.086,0.000
1709299752.616,-56.152,-35.645,-32.715,-47.363,0.000
1709299752.620,-51.270,-41.016,-36.621,-52.734,0.000
1709299752.624,-52.734,-46.875,-32.715,-42.969,0.000
1709299752.628,-53.223,-40.527,-31.738,-31.250,0.000
1709299752.632,-50.781,-25.391,-38.574,-35.645,0.000
1709299752.636,-45.410,-30.762,-40.039,-47.363,0.000
1709299752.639,-39.062,-38.574,-37.598,-38.574,0.000
1709299752.643,-37.598,-26.855,-36.621,-24.902,0.000
1709299752.647,-28.809,-18.555,-37.109,-24.414,0.000
1709299752.651,-23.926,-34.180,-42.969,-22.949,0.000
1709299752.655,-26.855,-46.387,-37.598,-31.738,0.000
1709299752.659,-24.902,-43.945,-25.391,-33.203,0.000
1709299752.663,-22.461,-41.016,-27.832,-31.738,0.000
1709299752.667,-25.391,-29.785,-39.551,-28.809,0.000
1709299752.671,-26.855,-33.203,-46.387,-21.973,0.000
1709299752.675,-19.043,-41.504,-39.062,-21.484,0.000
1709299752.679,-20.996,-23.926,-36.621,-27.832,0.000
1709299752.682,-23.926,-18.066,-39.551,-25.391,0.000
1709299752.686,-17.578,-23.926,-35.156,-0.488,0.000
1709299752.690,-16.602,-24.902,-38.086,-8.789,0.000
1709299752.694,-17.090,-28.809,-48.828,-26.367,0.000
1709299752.698,-29.297,-36.133,-52.246,-27.344,0.000
1709299752.702,-34.180,-41.992,-42.480,-31.250,0.000
1709299752.706,-35.645,-34.180,-27.832,-32.227,0.000
1709299752.710,-43.457,-32.227,-26.855,-32.715,0.000
1709299752.714,-39.062,-38.086,-28.809,-38.086,0.000
1709299752.717,-26.855,-33.691,-31.738,-45.898,0.000
1709299752.721,-40.527,-36.621,-43.457,-41.992,0.000
1709299752.725,-46.387,-45.898,-38.574,-33.203,0.000
1709299752.729,-34.668,-35.156,-21.973,-33.691,0.000
1709299752.733,-35.645,-29.297,-20.996,-36.621,0.000
1709299752.737,-39.062,-36.133,-30.273,-44.434,0.000
1709299752.741,-41.504,-43.945,-33.203,-49.805,0.000
1709299752.745,-41.504,-35.645,-34.180,-42.969,0.000
1709299752.748,-40.527,-26.367,-23.926,-33.203,0.000
1709299752.752,-37.598,-31.250,-22.949,-32.715,0.000
1709299752.756,-33.691,-40.039,-29.297,-41.504,0.000
1709299752.760,-35.645,-38.574,-33.691,-43.457,0.000
1709299752.764,-33.691,-46.387,-33.203,-34.668,0.000
1709299752.768,-25.879,-52.734,-34.668,-27.832,0.000
1709299752.772,-25.879,-44.434,-36.133,-20.996,0.000
1709299752.776,-26.367,-39.062,-32.227,-21.484,0.000
1709299752.780,-22.949,-41.992,-41.504,-22.949,0.000
1709299752.784,-28.320,-49.316,-41.504,-18.555,0.000
1709299752.787,-23.438,-42.969,-30.762,-14.160,0.000
1709299752.791,-13.672,-32.227,-27.344,-16.602,0.000
1709299752.795,-11.719,-44.434,-39.551,-28.809,0.000
1709299752.799,-16.602,-46.387,-40.527,-37.598,0.000
1709299752.803,-19.043,-36.133,-33.691,-41.992,0.000
1709299752.807,-17.090,-25.879,-36.133,-36.133,0.000
1709299752.811,-24.902,-21.973,-44.434,-41.504,0.000
1709299752.814,-22.949,-29.297,-40.527,-43.457,0.000
1709299752.818,-17.578,-23.438,-34.180,-25.391,0.000
1709299752.822,-8.301,-21.973,-40.039,-30.762,0.000
1709299752.826,-7.324,-21.484,-46.875,-25.391,0.000
1709299752.830,-23.438,-33.203,-42.480,-15.137,0.000
1709299752.834,-26.367,-39.062,-31.250,-36.133,0.000
1709299752.838,-38.574,-42.969,-35.156,-50.781,0.000
1709299752.841,-42.480,-49.316,-31.250,-52.246,0.000
1709299752.845,-44.922,-36.133,-25.879,-54.199,0.000
1709299752.849,-48.340,-32.715,-32.715,-54.688,0.000
1709299752.853,-41.992,-35.645,-45.410,-49.805,0.000
1709299752.857,-47.363,-41.992,-37.598,-48.828,0.000
1709299752.861,-42.969,-42.480,-19.043,-50.293,0.000
1709299752.865,-43.945,-37.598,-14.160,-45.410,0.000
1709299752.869,-44.922,-43.945,-18.066,-38.574,0.000
1709299752.873,-34.668,-42.969,-28.320,-43.945,0.000
1709299752.876,-28.809,-33.203,-31.738,-48.828,0.000
1709299752.880,-30.762,-23.926,-15.625,-40.039,0.000
1709299752.884,-32.715,-26.367,-17.090,-30.762,0.000
1709299752.889,-27.832,-29.785,-24.902,-20.996,0.000
1709299752.893,-37.598,-31.250,-29.297,-23.926,0.000
1709299752.896,-51.270,-37.598,-35.156,-46.875,0.000
1709299752.900,-50.781,-40.039,-30.273,-50.293,0.000
1709299752.904,-40.527,-45.898,-26.855,-39.551,0.000
1709299752.908,-30.762,-52.734,-22.461,-33.203,0.000
1709299752.912,-36.621,-42.969,-29.785,-36.621,0.000
1709299752.916,-47.363,-32.715,-32.227,-53.223,0.000
1709299752.920,-47.852,-35.156,-33.203,-60.059,0.000
1709299752.924,-41.992,-43.945,-32.715,-47.363,0.000
1709299752.928,-37.598,-47.852,-37.598,-48.340,0.000
1709299752.932,-37.598,-42.480,-41.992,-42.480,0.000
1709299752.936,-25.391,-39.551,-28.320,-28.320,0.000
1709299752.940,-36.621,-41.504,-30.273,-39.062,0.000
1709299752.944,-42.969,-44.434,-30.273,-41.992,0.000
1709299752.947,-32.715,-37.598,-25.391,-35.645,0.000
1709299752.951,-29.785,-25.879,-30.273,-33.203,0.000
1709299752.955,-26.855,-21.973,-27.344,-34.668,0.000
1709299752.959,-36.133,-24.414,-20.996,-41.992,0.000
1709299752.963,-34.180,-27.344,-29.785,-32.227,0.000
1709299752.967,-32.715,-36.133,-31.738,-18.066,0.000
1709299752.971,-35.156,-44.434,-25.391,-16.113,0.000
1709299752.975,-29.785,-34.668,-24.414,-27.832,0.000
1709299752.979,-30.762,-32.227,-24.902,-31.738,0.000
1709299752.983,-27.832,-33.691,-32.715,-37.109,0.000
1709299752.987,-34.180,-26.855,-33.691,-30.762,0.000
1709299752.991,-39.062,-38.574,-29.785,-21.973,0.000
1709299752.994,-39.551,-49.805,-34.180,-38.086,0.000
1709299752.998,-51.270,-48.828,-31.250,-57.617,0.000
1709299753.002,-53.223,-41.992,-27.832,-58.105,0.000
1709299753.006,-51.270,-31.250,-33.203,-43.945,0.000
1709299753.010,-44.922,-32.715,-27.832,-36.133,0.000
1709299753.014,-39.062,-45.898,-18.555,-24.902,0.000
1709299753.018,-34.180,-42.480,-23.926,-14.160,0.000
1709299753.022,-33.203,-43.457,-27.344,-19.531,0.000
1709299753.026,-31.250,-53.711,-29.785,-28.809,0.000
1709299753.030,-30.273,-48.340,-29.297,-27.832,0.000
1709299753.034,-28.809,-39.551,-31.250,-30.762,0.000
1709299753.037,-27.832,-31.738,-32.715,-41.016,0.000
1709299753.041,-27.344,-40.039,-31.738,-51.270,0.000
1709299753.045,-34.668,-39.551,-37.109,-47.363,0.000
1709299753.049,-39.551,-40.039,-32.227,-36.133,0.000
1709299753.053,-35.645,-40.039,-33.203,-41.016,0.000
1709299753.057,-41.992,-32.715,-45.898,-40.039,0.000
1709299753.061,-42.480,-34.180,-46.387,-34.668,0.000
1709299753.065,-39.062,-36.621,-48.828,-44.922,0.000
1709299753.069,-41.992,-30.762,-50.293,-38.574,0.000
1709299753.073,-48.828,-26.367,-40.039,-38.086,0.000
1709299753.076,-60.547,-29.297,-28.809,-56.641,0.000
1709299753.080,-58.594,-42.480,-30.762,-63.477,0.000
1709299753.084,-56.152,-40.039,-33.203,-58.105,0.000
1709299753.088,-68.848,-25.879,-28.320,-48.340,0.000
1709299753.092,-65.918,-33.691,-29.785,-51.758,0.000
1709299753.096,-61.523,-39.551,-47.852,-67.871,0.000
1709299753.100,-68.359,-38.086,-41.016,-67.383,0.000
1709299753.104,-65.430,-40.527,-26.367,-45.410,0.000
1709299753.108,-63.965,-35.156,-46.387,-32.227,0.000
1709299753.111,-49.805,-36.133,-49.805,-38.574,0.000
1709299753.115,-37.598,-42.969,-30.762,-48.828,0.000
1709299753.119,-44.434,-34.180,-29.785,-52.246,0.000
1709299753.123,-41.016,-26.367,-32.227,-43.945,0.000
1709299753.127,-41.016,-35.156,-39.551,-41.504,0.000
1709299753.131,-26.367,-37.598,-44.922,-35.645,0.000
1709299753.135,-7.324,-31.250,-42.969,-25.879,0.000
1709299753.139,-25.879,-28.320,-36.621,-19.531,0.000
1709299753.142,-33.691,-41.992,-35.156,-15.625,0.000
1709299753.146,-24.414,-47.363,-42.969,-13.672,0.000
1709299753.150,-21.973,-48.828,-38.574,-19.531,0.000
1709299753.154,-24.902,-59.082,-33.691,-44.434,0.000
1709299753.158,-35.645,-44.434,-26.367,-54.688,0.000
1709299753.162,-48.340,-30.762,-26.367,-53.711,0.000
1709299753.166,-48.828,-32.227,-29.785,-47.363,0.000
1709299753.170,-44.434,-24.414,-36.133,-45.898,0.000
1709299753.173,-45.898,-24.902,-42.480,-54.199,0.000
1709299753.177,-40.039,-28.320,-42.480,-59.570,0.000
1709299753.181,-50.293,-28.809,-44.434,-66.406,0.000
1709299753.185,-65.918,-26.855,-39.062,-68.359,0.000
1709299753.189,-61.035,-21.973,-41.016,-59.570,0.000
1709299753.193,-66.406,-31.738,-44.922,-57.129,0.000
1709299753.197,-77.148,-41.504,-34.668,-69.336,0.000
1709299753.201,-81.055,-46.387,-39.551,-79.102,0.000
1709299753.205,-71.777,-48.340,-45.410,-71.777,0.000
1709299753.209,-66.406,-37.598,-44.922,-73.730,0.000
1709299753.212,-69.336,-24.902,-52.246,-79.590,0.000
1709299753.216,-68.359,-26.367,-63.965,-83.008,0.000
1709299753.220,-63.965,-32.227,-59.082,-75.195,0.000
1709299753.224,-51.270,-38.574,-36.133,-55.664,0.000
1709299753.228,-41.504,-48.340,-31.250,-38.086,0.000
1709299753.232,-29.297,-45.898,-30.762,-41.504,0.000
1709299753.236,-20.996,-44.434,-27.344,-46.875,0.000
1709299753.239,-40.527,-49.805,-31.738,-40.527,0.000
1709299753.243,-40.527,-39.062,-33.203,-41.016,0.000
1709299753.247,-21.973,-36.621,-30.762,-38.086,0.000
1709299753.251,-18.555,-39.551,-41.016,-31.250,0.000
1709299753.255,-30.273,-39.551,-48.340,-42.969,0.000
1709299753.259,-33.203,-38.086,-34.180,-55.664,0.000
1709299753.263,-24.414,-30.273,-28.320,-46.387,0.000
1709299753.267,-26.367,-41.992,-30.762,-35.645,0.000
1709299753.271,-32.715,-45.898,-31.738,-34.180,0.000
1709299753.275,-28.320,-38.574,-32.715,-36.133,0.000
1709299753.279,-31.250,-38.086,-35.645,-43.457,0.000
1709299753.283,-42.480,-32.227,-38.574,-46.875,0.000
1709299753.287,-36.621,-30.273,-46.875,-38.574,0.000
1709299753.291,-30.273,-34.180,-49.805,-46.387,0.000
1709299753.295,-27.832,-38.574,-36.133,-56.152,0.000
1709299753.298,-33.691,-40.039,-28.320,-52.734,0.000
1709299753.302,-58.105,-39.062,-33.691,-58.105,0.000
1709299753.306,-65.918,-38.574,-53.223,-73.242,0.000
1709299753.310,-70.801,-38.574,-47.852,-76.660,0.000
1709299753.314,-68.848,-41.504,-42.480,-81.543,0.000
1709299753.318,-60.547,-37.109,-57.129,-88.379,0.000
1709299753.322,-59.570,-39.062,-54.199,-72.754,0.000
1709299753.326,-61.523,-42.480,-36.621,-61.523,0.000
1709299753.330,-48.828,-33.203,-28.320,-58.594,0.000
1709299753.334,-59.082,-38.086,-33.691,-60.547,0.000
1709299753.338,-69.336,-41.016,-37.109,-68.359,0.000
1709299753.342,-61.523,-42.969,-34.180,-59.082,0.000
1709299753.346,-57.617,-48.828,-34.180,-37.598,0.000
1709299753.349,-45.410,-45.410,-32.715,-32.227,0.000
1709299753.353,-37.109,-33.691,-35.645,-32.715,0.000
1709299753.357,-52.734,-25.879,-42.480,-39.551,0.000
1709299753.361,-55.176,-32.715,-33.203,-44.922,0.000
1709299753.365,-43.457,-40.039,-25.391,-33.691,0.000
1709299753.369,-37.109,-41.016,-34.180,-28.320,0.000
1709299753.373,-28.809,-44.922,-42.480,-29.785,0.000
1709299753.377,-13.672,-35.645,-29.785,-31.250,0.000
1709299753.381,0.488,-25.391,-20.996,-39.062,0.000
1709299753.385,-11.230,-29.297,-21.484,-40.039,0.000
1709299753.389,-25.391,-31.250,-21.484,-18.066,0.000
1709299753.393,-22.461,-33.691,-31.250,-16.113,0.000
1709299753.396,-17.578,-30.762,-38.574,-35.156,0.000
1709299753.400,-18.066,-42.480,-33.691,-25.879,0.000
1709299753.404,-28.809,-63.477,-34.180,-25.879,0.000
1709299753.408,-32.227,-41.016,-36.133,-39.062,0.000
1709299753.412,-21.484,-23.438,-26.367,-45.410,0.000
1709299753.416,-20.508,-32.715,-28.320,-47.363,0.000
1709299753.420,-42.480,-28.320,-39.062,-42.969,0.000
1709299753.424,-41.992,-33.203,-39.062,-34.668,0.000
1709299753.428,-35.156,-36.621,-28.320,-31.738,0.000
1709299753.432,-39.062,-24.902,-25.391,-32.715,0.000
1709299753.436,-30.762,-25.391,-26.367,-35.645,0.000
1709299753.439,-34.180,-37.109,-29.785,-44.434,0.000
1709299753.443,-47.363,-37.598,-37.109,-28.809,0.000
1709299753.447,-42.480,-20.996,-25.391,-12.207,0.000
1709299753.451,-38.574,-10.254,-22.461,-34.180,0.000
1709299753.455,-39.062,-19.043,-25.391,-60.059,0.000
1709299753.459,-44.434,-32.715,-22.949,-54.688,0.000
1709299753.463,-45.898,-31.738,-37.109,-45.898,0.000
1709299753.467,-38.574,-36.133,-36.133,-43.945,0.000
1709299753.471,-45.898,-37.598,-28.320,-49.805,0.000
1709299753.474,-41.504,-31.738,-31.250,-52.246,0.000
1709299753.478,-35.156,-33.203,-38.086,-53.711,0.000
1709299753.482,-49.805,-32.715,-36.621,-56.641,0.000
1709299753.486,-48.340,-34.180,-28.809,-45.898,0.000
1709299753.490,-33.203,-30.273,-36.133,-41.016,0.000
1709299753.494,-23.926,-20.020,-40.527,-42.969,0.000
1709299753.498,-26.367,-33.203,-30.762,-40.527,0.000
1709299753.502,-32.227,-45.898,-31.738,-40.527,0.000
1709299753.506,-17.090,-51.270,-31.738,-40.039,0.000
1709299753.509,-26.855,-35.645,-36.133,-33.203,0.000
1709299753.513,-35.156,-16.113,-38.574,-29.785,0.000
1709299753.517,-20.996,-18.066,-24.414,-34.668,0.000
1709299753.521,-27.344,-25.391,-21.973,-48.340,0.000
1709299753.525,-44.922,-28.809,-31.250,-41.992,0.000
1709299753.529,-49.316,-27.832,-32.715,-28.320,0.000
1709299753.533,-44.434,-32.715,-38.086,-47.363,0.000
1709299753.537,-45.410,-39.062,-46.875,-58.105,0.000
1709299753.541,-46.387,-34.180,-43.457,-56.152,0.000
1709299753.544,-46.875,-32.715,-39.551,-56.152,0.000
1709299753.548,-44.922,-32.227,-34.668,-47.363,0.000
1709299753.552,-45.410,-34.180,-51.270,-44.922,0.000
1709299753.556,-42.969,-36.621,-50.293,-50.293,0.000
1709299753.560,-45.410,-37.598,-35.156,-50.781,0.000
1709299753.564,-41.992,-36.621,-38.574,-42.480,0.000
1709299753.568,-34.668,-38.086,-36.621,-27.832,0.000
1709299753.572,-23.926,-41.504,-36.621,-31.250,0.000
1709299753.576,-27.344,-45.410,-29.785,-36.621,0.000
1709299753.579,-39.062,-49.316,-29.297,-30.762,0.000
1709299753.583,-41.504,-40.527,-32.715,-39.551,0.000
1709299753.587,-40.039,-39.062,-33.203,-42.969,0.000
1709299753.591,-36.133,-38.574,-35.156,-37.598,0.000
1709299753.595,-42.480,-26.855,-28.809,-46.387,0.000
1709299753.599,-45.898,-27.344,-30.273,-43.457,0.000
1709299753.603,-38.086,-30.273,-39.062,-31.738,0.000
1709299753.606,-24.414,-31.738,-37.598,-32.227,0.000
1709299753.610,-19.043,-26.855,-31.250,-25.879,0.000
1709299753.614,-24.902,-29.785,-33.691,-22.949,0.000
1709299753.618,-33.691,-40.039,-41.992,-45.410,0.000
1709299753.622,-37.109,-37.109,-46.387,-52.734,0.000
1709299753.626,-27.344,-24.902,-39.062,-37.598,0.000
1709299753.630,-37.109,-31.738,-32.227,-37.109,0.000
1709299753.634,-49.316,-43.945,-32.227,-43.457,0.000
1709299753.638,-44.434,-42.969,-32.715,-52.246,0.000
1709299753.642,-40.039,-48.828,-36.133,-47.852,0.000
1709299753.646,-36.133,-50.781,-40.039,-38.086,0.000
1709299753.650,-39.551,-35.156,-34.180,-41.992,0.000
1709299753.654,-40.527,-28.809,-35.645,-46.387,0.000
1709299753.658,-37.598,-31.250,-46.387,-43.945,0.000
1709299753.662,-35.645,-32.715,-47.852,-41.992,0.000
1709299753.665,-40.527,-26.855,-38.086,-37.598,0.000
1709299753.669,-31.738,-24.414,-33.203,-35.645,0.000
1709299753.673,-25.879,-35.156,-34.668,-40.039,0.000
1709299753.677,-36.133,-45.898,-39.062,-49.316,0.000
1709299753.681,-28.809,-41.504,-42.480,-53.711,0.000
1709299753.685,-27.344,-37.598,-41.016,-40.527,0.000
1709299753.689,-35.156,-43.457,-38.086,-38.086,0.000
1709299753.693,-30.273,-41.016,-35.645,-43.945,0.000
1709299753.697,-32.227,-36.133,-41.992,-38.086,0.000
1709299753.701,-32.715,-35.156,-39.551,-38.086,0.000
1709299753.705,-24.414,-35.645,-30.762,-33.691,0.000
1709299753.709,-28.320,-37.109,-35.156,-32.227,0.000
1709299753.713,-38.086,-27.832,-36.133,-33.203,0.000
1709299753.716,-34.668,-22.461,-25.391,-23.438,0.000
1709299753.720,-33.691,-36.133,-24.902,-22.949,0.000
1709299753.724,-46.387,-42.480,-29.297,-34.180,0.000
1709299753.728,-52.246,-34.180,-35.156,-33.691,0.000
1709299753.732,-44.434,-31.738,-43.457,-38.086,0.000
1709299753.736,-42.969,-30.762,-41.992,-41.504,0.000
1709299753.740,-35.156,-32.227,-39.062,-42.480,0.000
1709299753.744,-22.461,-38.086,-47.852,-31.738,0.000
1709299753.748,-30.273,-33.691,-45.898,-20.508,0.000
1709299753.752,-34.180,-23.438,-20.508,-30.762,0.000
1709299753.756,-26.855,-28.320,-13.672,-33.691,0.000
1709299753.760,-21.484,-33.203,-23.926,-37.598,0.000
1709299753.763,-27.344,-37.109,-25.879,-25.879,0.000
1709299753.767,-28.320,-39.551,-36.133,-20.020,0.000
1709299753.771,-26.855,-41.992,-40.527,-37.109,0.000
1709299753.775,-37.109,-43.457,-26.367,-48.340,0.000
1709299753.779,-44.922,-31.250,-27.344,-59.570,0.000
1709299753.783,-46.875,-27.832,-41.504,-59.082,0.000
1709299753.787,-49.805,-25.879,-40.527,-52.734,0.000
1709299753.791,-47.363,-24.414,-35.645,-48.340,0.000
1709299753.795,-45.410,-26.855,-41.992,-48.828,0.000
1709299753.799,-43.945,-31.250,-39.062,-55.664,0.000
1709299753.803,-43.457,-37.109,-35.156,-60.059,0.000
1709299753.807,-44.922,-42.480,-39.551,-55.176,0.000
1709299753.810,-46.875,-43.945,-37.598,-40.527,0.000
1709299753.814,-35.156,-34.180,-37.598,-42.480,0.000
1709299753.818,-40.527,-34.668,-38.086,-50.781,0.000
1709299753.822,-59.082,-41.992,-41.992,-41.016,0.000
1709299753.826,-45.410,-42.969,-46.387,-38.086,0.000
1709299753.830,-38.574,-41.992,-36.133,-48.828,0.000
1709299753.834,-38.574,-38.086,-22.461,-44.922,0.000
1709299753.838,-33.691,-33.203,-32.227,-43.945,0.000
1709299753.842,-33.203,-36.133,-47.852,-45.898,0.000
1709299753.845,-39.551,-41.016,-39.551,-33.691,0.000
1709299753.849,-43.457,-53.223,-41.992,-38.086,0.000
1709299753.853,-37.598,-57.617,-48.340,-35.156,0.000
1709299753.857,-38.574,-38.086,-47.363,-36.133,0.000
1709299753.861,-37.109,-32.715,-40.039,-51.270,0.000
1709299753.865,-33.203,-35.645,-35.645,-43.457,0.000
1709299753.869,-29.785,-36.133,-41.016,-34.180,0.000
1709299753.873,-23.926,-41.992,-42.480,-38.086,0.000
1709299753.877,-37.598,-41.992,-40.527,-48.828,0.000
1709299753.881,-50.293,-41.016,-36.621,-56.641,0.000
1709299753.885,-50.293,-44.434,-40.527,-54.688,0.000
1709299753.889,-41.992,-44.434,-38.086,-41.992,0.000
1709299753.893,-44.922,-44.922,-27.344,-44.434,0.000
1709299753.897,-50.293,-44.922,-27.344,-47.363,0.000
1709299753.901,-40.039,-40.039,-33.691,-30.273,0.000
1709299753.905,-41.016,-40.527,-35.645,-31.738,0.000
1709299753.909,-46.387,-48.828,-29.785,-46.875,0.000
1709299753.913,-41.992,-48.340,-41.992,-49.316,0.000
1709299753.916,-36.133,-36.621,-45.898,-43.457,0.000
1709299753.920,-30.762,-27.832,-38.086,-41.992,0.000
1709299753.924,-31.250,-24.902,-32.715,-38.086,0.000
1709299753.928,-29.297,-22.461,-35.645,-33.691,0.000
1709299753.932,-23.926,-19.531,-45.410,-34.180,0.000
1709299753.936,-14.648,-28.320,-39.062,-41.504,0.000
1709299753.940,-21.973,-50.781,-38.574,-52.246,0.000
1709299753.943,-34.180,-56.641,-36.621,-46.387,0.000
1709299753.947,-32.715,-43.945,-35.645,-41.504,0.000
1709299753.951,-39.062,-29.297,-30.273,-48.340,0.000
1709299753.955,-40.039,-25.879,-33.203,-44.434,0.000
1709299753.959,-39.551,-33.691,-41.016,-37.598,0.000
1709299753.963,-46.387,-37.109,-34.180,-46.387,0.000
1709299753.967,-42.969,-35.645,-29.297,-50.293,0.000
1709299753.971,-38.086,-42.480,-26.367,-40.527,0.000
1709299753.975,-38.086,-42.969,-32.715,-37.109,0.000
1709299753.979,-44.434,-44.434,-36.133,-49.316,0.000
1709299753.983,-47.852,-46.387,-31.250,-48.340,0.000
1709299753.987,-45.410,-45.410,-31.250,-39.551,0.000
1709299753.991,-34.668,-41.016,-32.715,-33.203,0.000
1709299753.995,-30.762,-34.180,-39.062,-35.156,0.000
1709299753.999,-23.926,-27.832,-38.086,-38.574,0.000
1709299754.003,-30.273,-32.715,-32.227,-35.156,0.000
1709299754.006,-53.223,-50.293,-30.762,-40.039,0.000
1709299754.010,-49.805,-54.688,-33.203,-44.434,0.000
1709299754.015,-43.945,-50.781,-35.156,-39.551,0.000
1709299754.018,-50.781,-43.457,-37.598,-41.504,0.000
1709299754.022,-58.105,-47.852,-40.527,-44.922,0.000
1709299754.026,-60.059,-48.828,-40.039,-43.945,0.000
1709299754.030,-52.246,-37.598,-44.434,-39.551,0.000
1709299754.034,-38.574,-37.598,-34.180,-33.691,0.000
1709299754.038,-43.945,-48.340,-23.926,-35.645,0.000
1709299754.042,-51.758,-39.551,-23.438,-37.109,0.000
1709299754.046,-45.898,-25.391,-25.391,-41.016,0.000
1709299754.050,-32.715,-30.762,-29.297,-31.738,0.000
1709299754.054,-34.180,-31.250,-36.133,-23.438,0.000
1709299754.058,-40.039,-30.273,-32.715,-30.273,0.000
1709299754.062,-43.945,-44.434,-32.715,-41.016,0.000
1709299754.066,-54.688,-52.246,-32.715,-44.434,0.000
1709299754.069,-49.316,-44.922,-28.809,-41.504,0.000
1709299754.073,-39.551,-47.852,-30.273,-39.062,0.000
1709299754.077,-36.621,-45.898,-33.203,-41.016,0.000
1709299754.081,-38.574,-41.992,-35.156,-40.039,0.000
1709299754.085,-33.203,-49.805,-39.062,-36.133,0.000
1709299754.089,-27.832,-57.129,-38.086,-31.250,0.000
1709299754.093,-33.203,-50.293,-38.086,-31.250,0.000
1709299754.097,-42.480,-33.691,-47.363,-40.039,0.000
1709299754.101,-45.898,-32.715,-40.527,-51.270,0.000
1709299754.105,-50.293,-43.945,-27.832,-50.781,0.000
1709299754.109,-52.246,-39.551,-33.203,-48.340,0.000
1709299754.112,-48.340,-33.203,-33.691,-54.688,0.000
1709299754.116,-40.527,-35.645,-26.855,-70.312,0.000
1709299754.120,-55.664,-56.152,-37.598,-74.219,0.000
1709299754.124,-63.477,-53.711,-46.387,-61.035,0.000
1709299754.128,-55.176,-35.645,-41.016,-49.805,0.000
1709299754.132,-47.852,-32.227,-43.457,-52.246,0.000
1709299754.136,-41.016,-35.156,-43.457,-57.617,0.000
1709299754.140,-40.039,-40.527,-41.992,-52.734,0.000
1709299754.144,-45.410,-34.668,-42.969,-49.805,0.000
1709299754.148,-48.828,-34.180,-47.363,-45.898,0.000
1709299754.151,-38.574,-34.668,-46.387,-35.645,0.000
1709299754.155,-26.855,-35.156,-35.645,-28.320,0.000
1709299754.159,-25.879,-37.598,-31.738,-28.320,0.000
1709299754.163,-33.203,-42.480,-45.898,-20.996,0.000
1709299754.167,-27.832,-40.039,-49.316,-13.672,0.000
1709299754.171,-13.184,-38.086,-41.504,-22.461,0.000
1709299754.175,-27.832,-44.922,-29.297,-29.297,0.000
1709299754.179,-39.551,-39.062,-15.625,-35.156,0.000
1709299754.183,-32.227,-28.320,-19.531,-28.809,0.000
1709299754.187,-32.227,-33.203,-21.973,-19.043,0.000
1709299754.190,-35.645,-42.480,-23.926,-20.508,0.000
1709299754.194,-38.574,-49.805,-33.203,-28.320,0.000
1709299754.198,-41.504,-51.758,-34.668,-28.320,0.000
1709299754.202,-45.410,-41.016,-28.809,-25.879,0.000
1709299754.206,-44.434,-36.133,-36.133,-30.762,0.000
1709299754.210,-38.574,-42.969,-36.621,-28.320,0.000
1709299754.214,-32.715,-40.039,-32.715,-28.320,0.000
1709299754.218,-37.109,-22.461,-35.156,-36.133,0.000
1709299754.222,-48.828,-20.020,-40.527,-45.898,0.000
1709299754.225,-54.199,-25.879,-43.457,-48.828,0.000
1709299754.229,-45.410,-29.785,-32.715,-33.203,0.000
1709299754.233,-39.551,-34.180,-31.738,-31.738,0.000
1709299754.237,-30.762,-37.109,-43.457,-45.410,0.000
1709299754.241,-35.156,-39.551,-36.133,-49.805,0.000
1709299754.245,-51.270,-36.133,-23.926,-51.270,0.000
1709299754.249,-42.480,-34.668,-32.715,-45.410,0.000
1709299754.252,-35.645,-42.969,-35.156,-38.086,0.000
1709299754.256,-30.273,-42.969,-40.527,-40.039,0.000
1709299754.260,-33.203,-29.785,-49.805,-51.758,0.000
1709299754.264,-40.527,-26.367,-39.062,-51.270,0.000
1709299754.268,-38.574,-30.762,-35.645,-41.016,0.000
1709299754.272,-27.344,-30.762,-39.062,-37.598,0.000
1709299754.276,-19.531,-35.645,-32.227,-36.133,0.000
1709299754.280,-23.926,-35.645,-29.785,-29.297,0.000
1709299754.284,-31.738,-28.809,-39.062,-31.250,0.000
1709299754.288,-35.156,-36.621,-38.574,-44.922,0.000
1709299754.292,-29.785,-39.551,-27.344,-40.527,0.000
1709299754.295,-26.855,-37.598,-30.273,-43.457,0.000
1709299754.299,-34.668,-34.180,-35.645,-57.617,0.000
1709299754.303,-34.180,-26.855,-35.645,-47.363,0.000
1709299754.307,-30.273,-28.320,-37.598,-27.832,0.000
1709299754.311,-34.180,-44.434,-38.086,-38.574,0.000
1709299754.315,-21.973,-54.199,-30.273,-44.434,0.000
1709299754.319,-33.203,-34.180,-27.832,-40.039,0.000
1709299754.322,-49.316,-16.113,-33.691,-48.340,0.000
1709299754.326,-40.039,-16.602,-38.574,-48.828,0.000
1709299754.330,-32.227,-20.020,-38.574,-34.668,0.000
1709299754.334,-35.156,-25.879,-28.809,-37.598,0.000
1709299754.338,-38.086,-30.273,-27.344,-52.246,0.000
1709299754.342,-44.922,-36.133,-37.109,-60.547,0.000
1709299754.345,-49.316,-41.016,-40.039,-55.176,0.000
1709299754.349,-36.621,-37.109,-45.898,-45.410,0.000
1709299754.353,-29.297,-36.621,-36.621,-47.363,0.000
1709299754.357,-36.621,-33.203,-30.762,-53.711,0.000
1709299754.361,-41.992,-35.156,-44.922,-54.688,0.000
1709299754.365,-29.785,-31.250,-39.062,-39.551,0.000
1709299754.369,-11.719,-24.902,-30.273,-33.691,0.000
1709299754.373,-24.414,-32.715,-49.316,-34.180,0.000
1709299754.377,-30.273,-31.250,-47.363,-34.668,0.000
1709299754.381,-33.203,-23.926,-27.344,-41.992,0.000
1709299754.384,-41.504,-34.668,-28.320,-41.992,0.000
1709299754.389,-37.598,-49.805,-41.016,-35.645,0.000
1709299754.393,-36.621,-44.922,-38.574,-33.203,0.000
1709299754.397,-26.367,-28.809,-29.785,-40.527,0.000
1709299754.401,-33.691,-27.832,-29.785,-45.898,0.000
1709299754.404,-45.410,-39.551,-32.715,-38.574,0.000
1709299754.408,-39.062,-43.457,-40.039,-33.203,0.000
1709299754.412,-31.738,-36.621,-39.062,-35.156,0.000
1709299754.416,-28.320,-35.645,-29.785,-38.086,0.000
1709299754.420,-30.762,-45.410,-27.832,-39.062,0.000
1709299754.424,-33.203,-54.199,-38.086,-32.715,0.000
1709299754.428,-37.109,-41.992,-37.598,-28.320,0.000
1709299754.432,-37.109,-30.273,-22.949,-36.133,0.000
1709299754.436,-31.250,-34.180,-25.879,-49.805,0.000
1709299754.440,-43.945,-48.340,-39.551,-54.688,0.000
1709299754.444,-51.270,-49.805,-44.434,-41.504,0.000
1709299754.448,-46.875,-38.574,-39.062,-45.410,0.000
1709299754.452,-45.898,-34.668,-29.785,-54.688,0.000
1709299754.455,-42.480,-35.645,-30.273,-51.270,0.000
1709299754.459,-42.969,-39.062,-37.109,-42.969,0.000
1709299754.463,-39.551,-43.457,-40.527,-42.480,0.000
1709299754.467,-41.016,-44.922,-41.504,-50.293,0.000
1709299754.471,-43.945,-37.598,-39.551,-42.480,0.000
1709299754.475,-38.574,-32.227,-40.527,-50.293,0.000
1709299754.479,-37.598,-28.809,-37.598,-55.176,0.000
1709299754.483,-41.504,-25.879,-38.086,-43.945,0.000
1709299754.487,-41.504,-36.133,-40.527,-43.457,0.000
1709299754.491,-41.504,-38.574,-40.039,-48.828,0.000
1709299754.495,-38.086,-36.621,-42.480,-52.734,0.000
1709299754.499,-39.062,-43.457,-45.410,-52.734,0.000
1709299754.502,-47.852,-40.039,-46.875,-51.270,0.000
1709299754.506,-46.387,-26.855,-38.574,-51.270,0.000
1709299754.510,-26.367,-24.902,-33.203,-48.828,0.000
1709299754.514,-35.156,-36.133,-25.391,-37.598,0.000
1709299754.518,-48.340,-32.227,-26.855,-34.668,0.000
1709299754.522,-43.945,-30.273,-40.039,-48.828,0.000
1709299754.526,-43.945,-37.109,-36.621,-43.945,0.000
1709299754.530,-36.133,-35.156,-34.180,-27.832,0.000
1709299754.534,-26.367,-30.762,-37.109,-24.902,0.000
1709299754.538,-25.879,-37.598,-31.738,-33.691,0.000
1709299754.541,-32.715,-38.574,-37.598,-43.945,0.000
1709299754.545,-39.062,-31.250,-34.180,-37.598,0.000
1709299754.549,-30.273,-37.109,-28.320,-25.391,0.000
1709299754.553,-25.879,-36.133,-30.762,-31.738,0.000
1709299754.557,-13.184,-25.879,-19.531,-28.320,0.000
1709299754.561,-9.766,-26.855,-15.625,-17.578,0.000
1709299754.565,-20.508,-31.250,-15.137,-38.574,0.000
1709299754.569,-13.672,-24.902,-25.391,-41.992,0.000
1709299754.573,-12.695,-24.414,-37.598,-28.809,0.000
1709299754.576,0.000,-27.832,-39.062,-39.551,0.000
1709299754.580,0.000,-30.762,-35.156,-50.781,0.000
1709299754.584,0.000,-37.109,-33.203,-42.969,0.000
1709299754.588,0.000,-34.180,-37.598,-42.969,0.000
1709299754.592,0.000,-33.691,-38.574,-55.176,0.000
1709299754.596,0.000,-34.668,-34.180,-62.500,0.000
1709299754.600,0.000,-44.434,-35.156,-64.941,0.000
1709299754.604,0.000,-48.828,-32.227,-47.363,0.000
1709299754.608,0.000,-30.762,-26.855,-32.715,0.000
1709299754.612,0.000,-31.738,-33.691,-39.551,0.000
1709299754.616,0.000,-50.781,-40.527,-46.387,0.000
1709299754.619,0.000,-44.434,-41.016,-50.781,0.000
1709299754.623,-43.945,-35.156,-46.875,-51.758,0.000
1709299754.627,-45.898,-43.945,-42.969,-50.293,0.000
1709299754.631,-37.598,-48.828,-40.527,-41.504,0.000
1709299754.635,-33.203,-32.715,-39.551,-34.668,0.000
1709299754.639,-41.992,-20.020,-43.457,-39.551,0.000
1709299754.643,-45.410,-38.086,-37.109,-42.969,0.000
1709299754.647,-41.992,-45.410,-26.367,-48.828,0.000
1709299754.650,-45.898,-31.738,-33.691,-44.434,0.000
1709299754.654,-34.668,-27.832,-39.062,-43.945,0.000
1709299754.658,-24.902,-17.578,-33.691,-45.410,0.000
1709299754.662,-33.203,-20.996,-25.391,-28.320,0.000
1709299754.666,-40.527,-24.902,-24.414,-28.320,0.000
1709299754.670,-33.203,-33.691,-27.344,-30.273,0.000
1709299754.674,-27.832,-45.898,-34.180,-21.973,0.000
1709299754.677,-40.039,-41.992,-40.039,-33.691,0.000
1709299754.681,-42.969,-30.273,-41.992,-53.223,0.000
1709299754.685,-39.062,-28.320,-35.156,-55.664,0.000
1709299754.689,-35.156,-37.109,-40.527,-54.688,0.000
1709299754.693,-34.668,-27.832,-42.969,-46.387,0.000
1709299754.697,-36.621,-17.090,-35.156,-47.852,0.000
1709299754.701,-39.551,-20.996,-35.645,-56.641,0.000
1709299754.705,-39.551,-30.273,-39.062,-56.152,0.000
1709299754.709,-37.598,-35.645,-44.922,-53.711,0.000
1709299754.713,-32.715,-28.320,-46.875,-53.223,0.000
1709299754.716,-40.527,-28.320,-42.480,-64.453,0.000
1709299754.720,-58.594,-47.852,-29.297,-61.523,0.000
1709299754.724,-58.594,-59.570,-33.691,-50.293,0.000
1709299754.728,-48.828,-43.457,-34.668,-44.922,0.000
1709299754.732,-44.922,-40.527,-34.668,-42.480,0.000
1709299754.736,-49.316,-43.945,-53.223,-53.223,0.000
1709299754.739,-53.711,-42.480,-48.340,-52.246,0.000
1709299754.743,-56.641,-45.898,-36.621,-46.387,0.000
1709299754.747,-48.340,-41.016,-43.945,-39.551,0.000
1709299754.751,-40.039,-59.082,-40.039,-43.457,0.000
1709299754.755,-35.645,-62.988,-34.180,-49.805,0.000
1709299754.759,-40.527,-31.250,-27.832,-51.270,0.000
1709299754.763,-50.293,-24.902,-22.461,-50.781,0.000
1709299754.767,-48.340,-31.738,-38.086,-40.039,0.000
1709299754.771,-44.922,-40.039,-42.969,-32.227,0.000
1709299754.775,-40.039,-47.852,-37.598,-33.203,0.000
1709299754.779,-44.434,-43.945,-37.109,-47.852,0.000
1709299754.783,-56.152,-40.039,-42.480,-50.293,0.000
1709299754.787,-48.828,-41.016,-38.574,-40.039,0.000
1709299754.791,-41.504,-32.227,-25.391,-34.668,0.000
1709299754.795,-50.293,-28.809,-27.344,-32.715,0.000
1709299754.799,-47.363,-37.598,-44.922,-28.809,0.000
1709299754.802,-47.363,-40.039,-46.875,-36.133,0.000
1709299754.806,-47.852,-37.109,-32.715,-43.457,0.000
1709299754.811,-41.016,-36.133,-29.785,-39.062,0.000
1709299754.814,-40.039,-41.016,-37.109,-46.875,0.000
1709299754.818,-45.898,-41.504,-46.875,-46.387,0.000
1709299754.822,-45.898,-36.621,-34.668,-41.504,0.000
1709299754.826,-41.016,-30.273,-22.949,-43.945,0.000
1709299754.830,-36.621,-23.438,-24.902,-39.062,0.000
1709299754.834,-33.203,-42.969,-30.273,-37.109,0.000
1709299754.838,-36.133,-50.781,-39.062,-45.898,0.000
1709299754.842,-44.434,-28.320,-32.715,-49.316,0.000
1709299754.846,-54.688,-30.762,-30.762,-53.223,0.000
1709299754.850,-59.082,-39.551,-41.992,-47.363,0.000
1709299754.853,-53.711,-33.203,-41.504,-47.852,0.000
1709299754.858,-50.293,-33.203,-36.133,-73.242,0.000
1709299754.861,-54.199,-28.809,-28.320,-75.195,0.000
1709299754.865,-68.359,-30.273,-27.832,-64.453,0.000
1709299754.869,-63.965,-36.133,-46.387,-61.035,0.000
1709299754.873,-60.547,-41.992,-52.246,-55.176,0.000
1709299754.877,-62.988,-46.875,-39.062,-55.664,0.000
1709299754.881,-64.941,-47.363,-38.574,-56.641,0.000
1709299754.885,-58.594,-41.504,-42.969,-48.340,0.000
1709299754.889,-53.223,-34.180,-39.062,-31.738,0.000
1709299754.893,-52.734,-36.133,-32.715,-35.645,0.000
1709299754.897,-43.945,-41.504,-34.668,-49.316,0.000
1709299754.901,-46.875,-40.527,-41.016,-53.223,0.000
1709299754.904,-49.316,-35.156,-41.504,-50.781,0.000
1709299754.908,-41.016,-40.527,-37.109,-45.898,0.000
1709299754.912,-35.645,-49.805,-30.762,-40.527,0.000
1709299754.916,-35.156,-40.039,-25.879,-34.668,0.000
1709299754.920,-32.715,-25.391,-36.621,-36.621,0.000
1709299754.924,-33.691,-32.715,-36.133,-29.297,0.000
1709299754.928,-23.926,-50.293,-34.668,-23.926,0.000
1709299754.932,-23.438,-38.574,-42.969,-33.691,0.000
1709299754.936,-40.039,-26.367,-30.762,-28.320,0.000
1709299754.940,-34.180,-30.273,-33.203,-35.156,0.000
1709299754.944,-33.691,-23.438,-35.156,-49.316,0.000
1709299754.947,-37.598,-22.949,-43.945,-39.062,0.000
1709299754.951,0.000,-32.715,-62.012,-38.574,0.000
1709299754.955,0.000,-43.945,-40.527,-51.758,0.000
1709299754.959,0.000,-39.551,-20.508,-51.758,0.000
1709299754.963,0.000,-36.621,-21.484,-54.199,0.000
1709299754.967,0.000,-38.086,-20.020,-52.734,0.000
1709299754.971,0.000,-39.551,-30.273,-44.434,0.000
1709299754.975,0.000,-48.828,-40.527,-51.270,0.000
1709299754.979,0.000,-45.898,-35.156,-51.758,0.000
1709299754.982,0.000,-42.480,-36.621,-55.664,0.000
1709299754.986,0.000,-42.969,-40.527,-58.594,0.000
1709299754.990,0.000,-38.086,-38.086,-43.457,0.000
1709299754.994,0.000,-36.621,-40.039,-40.527,0.000
1709299754.998,-60.547,-37.109,-46.875,-49.805,0.000
1709299755.002,-55.664,-43.945,-43.945,-58.105,0.000
1709299755.006,-52.246,-47.363,-35.645,-59.570,0.000
1709299755.010,-51.758,-40.039,-39.551,-59.570,0.000
1709299755.013,-53.711,-37.109,-39.062,-53.711,0.000
1709299755.017,-55.664,-44.434,-33.691,-56.641,0.000
1709299755.021,-51.270,-42.480,-36.621,-51.758,0.000
1709299755.025,-42.480,-36.621,-29.785,-28.320,0.000
1709299755.029,-44.922,-36.621,-29.785,-28.809,0.000
1709299755.033,-50.293,-43.945,-39.062,-37.109,0.000
1709299755.037,-53.711,-56.152,-38.086,-42.969,0.000
1709299755.041,-53.223,-54.688,-37.598,-50.293,0.000
1709299755.044,-38.086,-48.340,-40.039,-52.734,0.000
1709299755.048,-39.551,-46.875,-46.875,-47.852,0.000
1709299755.052,-51.270,-42.969,-45.898,-40.527,0.000
1709299755.056,-44.434,-38.574,-42.480,-41.504,0.000
1709299755.060,-34.180,-42.969,-41.992,-41.992,0.000
1709299755.064,-42.480,-62.012,-41.016,-44.434,0.000
1709299755.068,-52.246,-63.477,-38.086,-32.227,0.000
1709299755.072,-47.363,-45.898,-34.668,-22.949,0.000
1709299755.076,-44.434,-37.109,-30.273,-39.062,0.000
1709299755.080,-44.434,-41.992,-35.156,-48.828,0.000
1709299755.083,-35.645,-42.480,-35.645,-35.156,0.000
1709299755.087,-28.809,-47.852,-38.086,-30.762,0.000
1709299755.091,-32.227,-41.016,-40.039,-43.457,0.000
1709299755.095,-35.156,-27.832,-39.551,-47.852,0.000
1709299755.099,-30.762,-37.598,-35.645,-55.176,0.000
1709299755.103,-36.133,-46.387,-28.320,-58.594,0.000
1709299755.106,-53.223,-41.016,-29.297,-50.293,0.000
1709299755.110,-44.922,-36.133,-31.250,-42.969,0.000
1709299755.114,-38.574,-39.062,-45.410,-45.410,0.000
1709299755.118,-39.062,-42.480,-41.992,-48.340,0.000
1709299755.122,-39.551,-46.387,-25.879,-48.828,0.000
1709299755.126,-40.527,-41.016,-30.762,-46.387,0.000
1709299755.130,-37.598,-37.109,-47.852,-43.457,0.000
1709299755.134,-37.598,-45.898,-42.480,-45.898,0.000
1709299755.137,-41.504,-46.387,-40.039,-48.828,0.000
1709299755.141,-42.480,-32.227,-44.922,-46.875,0.000
1709299755.145,-44.434,-24.414,-42.969,-45.410,0.000
1709299755.149,-42.480,-30.273,-43.457,-45.898,0.000
1709299755.153,-23.926,-51.270,-27.344,-43.945,0.000
1709299755.157,-32.715,-55.176,-26.855,-36.621,0.000
1709299755.161,-44.922,-32.227,-30.762,-25.879,0.000
1709299755.165,-37.598,-22.949,-29.785,-30.273,0.000
1709299755.168,-29.785,-36.133,-41.992,-25.879,0.000
1709299755.172,-26.367,-41.992,-34.180,-19.043,0.000
1709299755.176,-38.574,-33.203,-22.461,-24.414,0.000
1709299755.180,-41.504,-26.367,-33.691,-25.879,0.000
1709299755.184,-34.668,-27.344,-38.574,-26.855,0.000
1709299755.188,-29.297,-34.668,-32.715,-23.438,0.000
1709299755.192,-20.020,-32.715,-29.785,-27.832,0.000
1709299755.196,-28.809,-26.367,-39.062,-46.875,0.000
1709299755.200,-44.434,-31.738,-51.758,-49.805,0.000
1709299755.204,-37.598,-35.645,-49.805,-37.598,0.000
1709299755.208,-31.738,-41.504,-47.363,-35.156,0.000
1709299755.212,-40.039,-44.922,-45.410,-46.387,0.000
1709299755.216,-40.527,-35.156,-41.016,-54.688,0.000
1709299755.220,-40.039,-31.250,-45.410,-65.918,0.000
1709299755.223,-43.945,-42.480,-44.922,-73.730,0.000
1709299755.227,-38.086,-38.574,-48.340,-57.617,0.000
1709299755.232,-33.691,-24.902,-41.016,-51.758,0.000
1709299755.236,-29.785,-32.227,-29.785,-55.664,0.000
1709299755.240,-30.762,-41.016,-39.551,-58.594,0.000
1709299755.244,-30.273,-39.551,-45.410,-53.711,0.000
1709299755.248,-16.602,-31.738,-38.574,-41.504,0.000
1709299755.252,-24.902,-25.879,-31.738,-38.574,0.000
1709299755.256,-36.621,-30.273,-29.297,-48.828,0.000
1709299755.260,-31.250,-28.320,-28.809,-53.711,0.000
1709299755.264,-30.273,-29.297,-30.273,-41.504,0.000
1709299755.268,-30.273,-34.180,-27.832,-21.484,0.000
1709299755.271,-25.879,-32.227,-34.180,-12.695,0.000
1709299755.275,-21.973,-31.250,-51.758,-23.926,0.000
1709299755.279,-20.996,-32.715,-46.875,-37.598,0.000
1709299755.283,-27.832,-40.527,-23.438,-39.062,0.000
1709299755.287,-34.180,-39.551,-11.719,-31.738,0.000
1709299755.291,-32.715,-34.668,-18.555,-27.344,0.000
1709299755.295,-29.785,-34.668,-21.973,-33.203,0.000
1709299755.299,-31.250,-36.621,-28.320,-46.387,0.000
1709299755.303,-30.762,-36.621,-30.273,-44.434,0.000
1709299755.307,-29.785,-27.832,-26.367,-35.645,0.000
1709299755.311,-13.184,-35.645,-34.668,-29.297,0.000
1709299755.315,-6.348,-45.410,-37.598,-34.668,0.000
1709299755.318,-27.832,-25.391,-26.855,-50.293,0.000
1709299755.322,-30.273,-18.066,-21.484,-46.387,0.000
1709299755.326,-27.832,-28.809,-30.762,-39.062,0.000
1709299755.330,-26.855,-31.250,-34.180,-40.039,0.000
1709299755.334,-24.414,-25.879,-30.273,-40.039,0.000
1709299755.338,-39.551,-28.809,-33.691,-53.223,0.000
1709299755.342,-45.410,-43.945,-36.133,-59.082,0.000
1709299755.346,-40.527,-50.781,-32.715,-50.781,0.000
1709299755.350,-38.574,-47.363,-30.762,-48.340,0.000
1709299755.353,-30.762,-39.062,-28.320,-39.551,0.000
1709299755.357,-29.297,-38.086,-24.414,-38.086,0.000
1709299755.361,-30.762,-48.340,-33.691,-56.152,0.000
1709299755.365,-32.227,-47.363,-36.621,-55.664,0.000
1709299755.369,-25.391,-40.527,-38.574,-31.738,0.000
1709299755.373,0.000,-48.828,-41.016,-25.879,0.000
1709299755.377,0.000,-44.434,-41.992,-41.504,0.000
1709299755.381,0.000,-29.785,-36.621,-43.945,0.000
1709299755.385,0.000,-39.062,-41.504,-34.668,0.000
1709299755.388,0.000,-42.969,-35.645,-22.949,0.000
1709299755.392,0.000,-33.691,-19.043,-25.391,0.000
1709299755.396,0.000,-36.133,-27.832,-32.715,0.000
1709299755.400,0.000,-33.203,-32.227,-20.020,0.000
1709299755.404,0.000,-29.297,-34.668,-23.438,0.000
1709299755.408,0.000,-38.086,-39.062,-25.391,0.000
1709299755.412,0.000,-37.598,-42.480,-21.973,0.000
1709299755.416,0.000,-49.316,-44.434,-35.645,0.000
1709299755.420,-35.645,-51.270,-37.598,-48.340,0.000
1709299755.424,-36.133,-41.016,-36.133,-48.340,0.000
1709299755.428,-35.645,-47.363,-41.016,-38.086,0.000
1709299755.432,-31.250,-45.410,-33.691,-35.156,0.000
1709299755.436,-27.832,-36.621,-38.086,-34.668,0.000
1709299755.440,-30.273,-34.180,-50.293,-45.410,0.000
1709299755.444,-31.250,-31.250,-38.086,-51.270,0.000
1709299755.448,-32.227,-27.832,-41.016,-40.527,0.000
1709299755.452,-26.367,-31.250,-44.922,-42.969,0.000
1709299755.455,-19.043,-39.062,-38.574,-51.758,0.000
1709299755.459,-35.645,-39.062,-41.504,-49.316,0.000
1709299755.463,-36.133,-31.738,-30.273,-42.969,0.000
1709299755.467,-31.250,-30.273,-32.227,-43.457,0.000
1709299755.471,-34.180,-29.785,-48.828,-35.156,0.000
1709299755.474,-37.598,-34.180,-37.109,-35.156,0.000
1709299755.478,-43.457,-36.621,-43.945,-47.852,0.000
1709299755.482,-46.875,-35.156,-46.875,-50.781,0.000
1709299755.486,-53.711,-38.086,-26.855,-41.504,0.000
1709299755.490,-59.570,-45.410,-34.668,-30.273,0.000
1709299755.494,-56.152,-54.199,-38.086,-41.504,0.000
1709299755.498,-51.758,-47.363,-32.715,-57.129,0.000
1709299755.502,-59.082,-45.410,-29.785,-48.340,0.000
1709299755.506,-54.688,-45.898,-27.832,-33.691,0.000
1709299755.510,-47.363,-44.922,-28.320,-32.715,0.000
