timestamps,TP9,AF7,AF8,TP10,Right AUX
1709141644.095,-34.668,-42.969,-39.551,-33.691,0.000
1709141644.099,-34.180,-40.527,-35.645,-47.363,0.000
1709141644.103,-40.527,-44.434,-30.273,-42.969,0.000
1709141644.107,-37.598,-37.109,-25.879,-32.715,0.000
1709141644.111,-34.180,-35.156,-27.832,-25.391,0.000
1709141644.115,-25.879,-36.621,-30.273,-26.367,0.000
1709141644.118,-24.902,-32.715,-28.320,-27.832,0.000
1709141644.122,-31.250,-27.832,-30.273,-31.738,0.000
1709141644.126,-27.832,-32.715,-43.945,-26.855,0.000
1709141644.130,-22.461,-47.363,-37.109,-18.555,0.000
1709141644.134,-22.949,-50.293,-25.879,-20.020,0.000
1709141644.138,-25.391,-44.922,-34.668,-22.949,0.000
1709141644.141,-31.738,-37.598,-43.457,-32.715,0.000
1709141644.145,-35.156,-35.645,-50.781,-39.062,0.000
1709141644.148,-37.598,-44.434,-51.758,-37.109,0.000
1709141644.152,-39.551,-42.480,-50.293,-34.668,0.000
1709141644.156,-35.156,-36.133,-46.387,-40.039,0.000
1709141644.160,-35.156,-33.691,-34.668,-41.016,0.000
1709141644.164,-40.527,-40.527,-35.645,-35.156,0.000
1709141644.168,-35.645,-41.504,-35.645,-38.574,0.000
1709141644.172,-27.832,-40.039,-40.527,-42.480,0.000
1709141644.176,-29.297,-44.434,-37.598,-49.316,0.000
1709141644.180,-33.203,-45.410,-36.133,-48.828,0.000
1709141644.184,-37.598,-46.387,-43.457,-47.363,0.000
1709141644.189,-42.480,-42.480,-48.340,-48.828,0.000
1709141644.193,-37.109,-38.574,-44.922,-52.734,0.000
1709141644.197,-34.180,-43.457,-43.945,-54.688,0.000
1709141644.201,-40.039,-37.598,-55.176,-50.781,0.000
1709141644.204,-41.016,-34.180,-33.691,-45.898,0.000
1709141644.208,-46.875,-42.969,-16.113,-40.527,0.000
1709141644.212,-54.688,-44.434,-31.250,-42.480,0.000
1709141644.216,-48.340,-47.363,-37.109,-44.922,0.000
1709141644.220,-42.969,-52.246,-28.320,-39.062,0.000
1709141644.224,-39.551,-48.340,-27.832,-36.133,0.000
1709141644.228,-37.109,-34.668,-36.133,-36.621,0.000
1709141644.232,-30.762,-37.109,-36.133,-35.156,0.000
1709141644.236,-29.297,-42.969,-41.016,-39.062,0.000
1709141644.240,-34.180,-34.668,-47.363,-37.598,0.000
1709141644.244,-32.715,-38.574,-43.457,-36.133,0.000
1709141644.248,-37.598,-53.223,-36.621,-34.668,0.000
1709141644.252,-39.551,-41.016,-31.250,-35.156,0.000
1709141644.256,-40.039,-39.062,-33.691,-50.293,0.000
1709141644.260,-42.480,-52.246,-45.410,-61.035,0.000
1709141644.264,-54.199,-34.668,-58.594,-62.988,0.000
1709141644.268,-58.594,-26.855,-45.898,-56.152,0.000
1709141644.272,-55.176,-40.039,-36.621,-46.875,0.000
1709141644.276,-51.758,-38.086,-43.457,-57.129,0.000
1709141644.279,-42.969,-31.738,-47.363,-51.270,0.000
1709141644.284,0.000,-34.180,-43.457,-39.551,0.000
1709141644.288,0.000,-45.410,-49.316,-40.527,0.000
1709141644.291,0.000,-44.434,-63.477,-43.945,0.000
1709141644.295,0.000,-38.086,-52.734,-50.781,0.000
1709141644.299,0.000,-48.340,-35.156,-52.734,0.000
1709141644.303,0.000,-38.086,-33.691,-56.152,0.000
1709141644.307,0.000,-33.691,-32.715,-56.641,0.000
1709141644.311,0.000,-40.527,-35.156,-51.270,0.000
1709141644.315,0.000,-31.738,-35.645,-37.598,0.000
1709141644.319,0.000,-31.738,-32.715,-33.203,0.000
1709141644.323,0.000,-41.016,-40.039,-33.691,0.000
1709141644.327,0.000,-42.480,-35.645,-27.832,0.000
1709141644.330,-32.227,-33.691,-22.461,-23.438,0.000
1709141644.334,-31.738,-36.133,-38.086,-29.297,0.000
1709141644.338,-30.273,-43.457,-54.688,-34.180,0.000
1709141644.342,-27.344,-30.762,-33.691,-30.762,0.000
1709141644.346,-32.715,-24.902,-24.414,-35.645,0.000
1709141644.350,-38.086,-36.621,-35.156,-39.062,0.000
1709141644.354,-41.016,-34.668,-38.086,-42.969,0.000
1709141644.358,-37.598,-35.645,-31.738,-41.016,0.000
1709141644.362,-41.992,-41.016,-29.785,-38.086,0.000
1709141644.366,-50.293,-38.086,-31.250,-53.711,0.000
1709141644.370,-45.410,-38.574,-33.691,-59.082,0.000
1709141644.373,-41.016,-41.504,-34.180,-50.781,0.000
1709141644.377,-36.621,-44.434,-40.039,-48.828,0.000
1709141644.381,-26.855,-48.828,-59.082,-54.688,0.000
1709141644.385,-39.062,-41.016,-52.734,-55.176,0.000
1709141644.389,-42.969,-30.762,-37.109,-56.152,0.000
1709141644.393,-29.297,-26.855,-29.297,-50.293,0.000
1709141644.397,-33.691,-40.039,-22.461,-38.574,0.000
1709141644.400,-35.645,-44.922,-36.133,-45.410,0.000
1709141644.404,-30.273,-35.645,-33.691,-42.969,0.000
1709141644.408,-35.156,-36.133,-32.227,-42.480,0.000
1709141644.412,-33.691,-45.410,-35.645,-45.410,0.000
1709141644.416,-29.785,-32.715,-33.203,-43.457,0.000
1709141644.420,-38.086,-26.855,-31.250,-46.875,0.000
1709141644.423,-44.922,-39.551,-33.691,-47.852,0.000
1709141644.427,-41.016,-35.156,-33.203,-45.410,0.000
1709141644.431,-40.527,-28.809,-31.738,-33.203,0.000
1709141644.435,-46.875,-39.062,-34.180,-34.180,0.000
1709141644.439,-39.551,-48.828,-27.832,-42.480,0.000
1709141644.443,-41.016,-42.969,-28.809,-45.898,0.000
1709141644.447,-48.828,-37.598,-40.527,-33.691,0.000
1709141644.451,-44.922,-34.668,-51.270,-30.762,0.000
1709141644.455,-40.039,-34.668,-44.922,-42.480,0.000
1709141644.458,-34.180,-39.062,-32.227,-35.645,0.000
1709141644.462,-31.250,-38.574,-46.875,-32.715,0.000
1709141644.466,-30.762,-33.691,-55.664,-33.691,0.000
1709141644.469,-24.902,-41.504,-35.645,-30.762,0.000
1709141644.473,-14.648,-50.293,-36.133,-34.180,0.000
1709141644.477,-9.766,-34.180,-51.270,-32.715,0.000
1709141644.481,-20.996,-35.645,-53.711,-21.973,0.000
1709141644.485,-23.926,-33.691,-35.156,-15.625,0.000
1709141644.489,-20.996,-23.438,-31.738,-12.207,0.000
1709141644.493,-23.438,-28.320,-38.574,-12.207,0.000
1709141644.497,-39.551,-23.926,-39.062,-33.203,0.000
1709141644.500,-47.363,-26.855,-51.758,-43.457,0.000
1709141644.504,-43.945,-37.109,-52.734,-40.039,0.000
1709141644.508,-46.387,-38.574,-35.156,-41.016,0.000
1709141644.512,-43.457,-34.180,-32.715,-39.551,0.000
1709141644.515,0.000,-41.504,-38.086,-44.922,0.000
1709141644.519,0.000,-42.480,-36.133,-50.293,0.000
1709141644.523,0.000,-43.945,-34.668,-47.852,0.000
1709141644.527,0.000,-43.457,-37.109,-41.504,0.000
1709141644.531,0.000,-45.410,-33.691,-37.598,0.000
1709141644.535,0.000,-54.199,-34.668,-31.738,0.000
1709141644.539,0.000,-43.457,-39.551,-41.016,0.000
1709141644.542,0.000,-38.574,-45.898,-38.086,0.000
1709141644.546,0.000,-40.039,-57.129,-32.715,0.000
1709141644.550,0.000,-35.645,-39.062,-40.039,0.000
1709141644.554,0.000,-35.156,-22.949,-40.039,0.000
1709141644.558,0.000,-36.133,-33.203,-49.316,0.000
1709141644.563,-40.039,-46.387,-36.133,-48.828,0.000
1709141644.567,-43.945,-53.711,-30.762,-43.945,0.000
1709141644.571,-42.969,-48.340,-37.598,-39.062,0.000
1709141644.575,-34.180,-43.945,-37.598,-35.645,0.000
1709141644.579,-27.832,-42.480,-36.621,-28.320,0.000
1709141644.583,-21.973,-40.527,-40.527,-18.066,0.000
1709141644.587,-24.902,-27.344,-40.039,-18.066,0.000
1709141644.591,-27.344,-30.273,-55.664,-20.020,0.000
1709141644.595,-23.926,-40.039,-47.852,-21.973,0.000
1709141644.599,-20.020,-33.691,-27.832,-26.367,0.000
1709141644.602,-20.508,-35.156,-32.715,-36.621,0.000
1709141644.606,-33.203,-47.363,-38.574,-40.039,0.000
1709141644.611,-29.785,-47.363,-33.691,-31.250,0.000
1709141644.615,-28.809,-40.527,-38.086,-41.504,0.000
1709141644.619,-41.504,-32.715,-39.551,-55.664,0.000
1709141644.623,-43.945,-30.762,-37.109,-58.105,0.000
1709141644.627,-37.109,-29.297,-41.504,-47.852,0.000
1709141644.631,-33.691,-23.438,-43.457,-39.062,0.000
1709141644.635,-35.645,-28.320,-47.852,-42.480,0.000
1709141644.639,-32.227,-33.203,-40.039,-53.223,0.000
1709141644.642,-32.227,-34.668,-26.367,-48.340,0.000
1709141644.646,-31.738,-23.926,-30.273,-40.039,0.000
1709141644.650,-37.598,-23.438,-41.016,-47.363,0.000
1709141644.654,-38.086,-19.043,-36.133,-45.410,0.000
1709141644.659,-38.574,-16.113,-31.250,-50.293,0.000
1709141644.662,-52.246,-25.391,-37.109,-60.059,0.000
1709141644.666,-42.969,-31.738,-30.273,-49.316,0.000
1709141644.670,-34.668,-31.250,-29.297,-31.738,0.000
1709141644.674,-35.156,-30.273,-43.945,-31.250,0.000
1709141644.678,-33.691,-34.668,-41.504,-40.039,0.000
1709141644.682,-35.645,-34.668,-40.527,-42.969,0.000
1709141644.686,-33.203,-34.668,-42.969,-39.551,0.000
1709141644.690,-30.273,-35.156,-31.250,-29.297,0.000
1709141644.694,-32.715,-42.969,-19.531,-32.227,0.000
1709141644.698,-38.574,-49.805,-20.508,-40.527,0.000
1709141644.702,-44.434,-43.945,-27.832,-41.992,0.000
1709141644.705,-43.457,-32.715,-20.996,-41.992,0.000
1709141644.709,-34.668,-30.762,-17.578,-38.574,0.000
1709141644.713,-38.574,-34.180,-30.762,-35.156,0.000
1709141644.717,-48.828,-34.180,-29.785,-33.203,0.000
1709141644.721,-36.133,-48.828,-36.621,-35.645,0.000
1709141644.725,-31.738,-47.852,-44.434,-33.691,0.000
1709141644.729,-34.668,-17.090,-28.809,-26.367,0.000
1709141644.733,-36.133,-17.578,-16.602,-13.672,0.000
1709141644.737,-43.457,-32.715,-11.719,-20.508,0.000
1709141644.740,-49.316,-35.156,-11.230,-40.527,0.000
1709141644.744,-45.898,-41.992,-13.672,-32.227,0.000
1709141644.748,-46.387,-50.781,-8.789,-26.855,0.000
1709141644.752,-44.922,-64.941,-3.906,-33.691,0.000
1709141644.756,-45.410,-68.848,-6.836,-36.621,0.000
1709141644.760,-48.340,-75.195,-3.418,-40.039,0.000
1709141644.764,-54.688,-81.543,-2.930,-42.480,0.000
1709141644.767,-58.105,-73.730,-8.301,-31.738,0.000
1709141644.771,-56.152,-80.566,-5.371,-25.391,0.000
1709141644.775,-56.152,-86.426,-8.301,-25.879,0.000
1709141644.779,-58.594,-79.590,-6.836,-18.555,0.000
1709141644.783,-59.082,-76.172,5.371,-16.602,0.000
1709141644.787,-54.688,-78.613,7.324,-16.602,0.000
1709141644.791,-42.969,-84.961,3.418,-12.207,0.000
1709141644.795,-51.758,-89.844,3.906,-19.043,0.000
1709141644.798,-57.617,-83.496,9.277,-18.555,0.000
1709141644.802,-59.082,-85.938,11.230,-11.230,0.000
1709141644.806,-67.383,-97.168,11.230,-14.160,0.000
1709141644.810,-66.406,-102.051,18.555,-16.602,0.000
1709141644.814,-68.848,-99.609,17.090,-19.043,0.000
1709141644.818,-62.012,-101.562,17.578,-21.973,0.000
1709141644.821,-65.430,-105.957,12.207,-19.531,0.000
1709141644.825,-65.430,-103.516,8.789,-6.348,0.000
1709141644.829,-56.641,-101.074,18.555,-15.137,0.000
1709141644.833,-54.688,-94.727,14.160,-18.066,0.000
1709141644.837,-54.688,-96.680,9.766,-14.648,0.000
1709141644.841,-55.176,-95.703,15.625,-20.020,0.000
1709141644.844,-46.387,-91.797,11.230,-23.926,0.000
1709141644.848,-50.293,-99.609,3.418,-22.949,0.000
1709141644.852,-61.523,-103.027,2.441,-20.508,0.000
1709141644.856,-63.965,-101.562,6.836,-26.855,0.000
1709141644.860,-68.848,-104.004,0.977,-34.668,0.000
1709141644.864,-68.359,-101.074,-9.277,-32.227,0.000
1709141644.868,-72.754,-101.074,0.000,-22.461,0.000
1709141644.871,-81.543,-100.586,9.766,-33.691,0.000
1709141644.875,-74.707,-94.238,8.789,-47.363,0.000
1709141644.879,-70.312,-96.191,8.789,-48.340,0.000
1709141644.883,-73.242,-96.191,3.906,-46.387,0.000
1709141644.887,-79.590,-99.609,4.395,-42.480,0.000
1709141644.890,-81.543,-107.910,0.000,-41.016,0.000
1709141644.894,-86.914,-104.980,-7.812,-50.293,0.000
1709141644.898,-90.820,-107.422,-1.953,-60.547,0.000
1709141644.902,-87.402,-106.445,1.953,-57.129,0.000
1709141644.905,-94.238,-100.586,1.953,-54.688,0.000
1709141644.909,-87.402,-105.957,2.441,-51.270,0.000
1709141644.913,-77.148,-104.004,1.465,-53.223,0.000
1709141644.917,-96.680,-92.285,2.441,-65.918,0.000
1709141644.921,-107.422,-90.332,2.930,-67.383,0.000
1709141644.925,-103.027,-90.820,3.906,-58.105,0.000
1709141644.929,-103.027,-87.891,14.648,-54.688,0.000
1709141644.933,-106.934,-93.750,17.578,-62.500,0.000
1709141644.938,-104.004,-100.586,8.301,-73.242,0.000
1709141644.942,-97.656,-96.680,-3.418,-79.590,0.000
1709141644.946,-100.098,-85.938,0.488,-69.824,0.000
1709141644.950,-102.539,-79.102,10.254,-66.406,0.000
1709141644.954,-107.910,-80.078,1.953,-70.801,0.000
1709141644.958,-110.352,-80.566,-5.371,-75.195,0.000
1709141644.962,-109.863,-80.566,-4.395,-80.078,0.000
1709141644.965,-113.281,-82.031,3.418,-84.961,0.000
1709141644.969,-108.398,-83.496,0.000,-86.426,0.000
1709141644.973,-104.492,-74.707,-2.441,-76.172,0.000
1709141644.977,-100.586,-73.730,-1.953,-77.148,0.000
1709141644.981,-85.938,-84.473,-14.648,-77.637,0.000
1709141644.986,-95.703,-87.402,-18.555,-85.449,0.000
1709141644.990,-95.215,-85.449,-0.488,-83.496,0.000
1709141644.994,-87.891,-76.660,4.883,-73.242,0.000
1709141644.998,-84.961,-62.500,-4.883,-80.566,0.000
1709141645.002,-79.102,-56.641,1.953,-88.867,0.000
1709141645.005,-82.031,-63.965,3.418,-82.520,0.000
1709141645.009,-81.543,-67.383,-4.395,-76.172,0.000
1709141645.013,-77.148,-64.453,-3.418,-88.867,0.000
1709141645.017,-72.266,-62.012,3.418,-81.543,0.000
1709141645.021,-76.172,-58.594,7.812,-78.125,0.000
1709141645.025,-83.496,-58.594,-4.395,-84.961,0.000
1709141645.029,-84.961,-61.035,-20.508,-72.266,0.000
1709141645.033,-70.801,-65.918,-27.344,-63.477,0.000
1709141645.037,-66.406,-69.336,-16.113,-72.754,0.000
1709141645.041,-89.355,-60.547,0.977,-89.355,0.000
1709141645.045,-92.773,-56.152,-1.465,-96.680,0.000
1709141645.049,-86.426,-58.105,-5.859,-81.543,0.000
1709141645.053,-90.820,-58.105,0.977,-77.148,0.000
1709141645.057,-86.426,-63.965,-7.812,-73.730,0.000
1709141645.060,-84.961,-70.801,-25.879,-72.754,0.000
1709141645.064,-94.238,-83.008,-19.531,-72.754,0.000
1709141645.068,-94.238,-75.684,-7.812,-69.336,0.000
1709141645.072,-85.938,-62.012,-10.254,-83.496,0.000
1709141645.076,-85.938,-56.641,-12.695,-88.379,0.000
1709141645.080,-80.078,-42.969,-19.531,-84.473,0.000
1709141645.084,-68.359,-38.086,-31.738,-73.242,0.000
1709141645.088,-66.406,-46.875,-32.715,-68.848,0.000
1709141645.092,-71.777,-52.246,-22.949,-72.266,0.000
1709141645.096,-63.965,-52.734,-11.230,-64.453,0.000
1709141645.100,-57.617,-54.199,-20.508,-58.594,0.000
1709141645.103,-58.594,-52.734,-20.996,-68.359,0.000
1709141645.107,-51.758,-77.148,-8.789,-62.988,0.000
1709141645.111,-43.457,-79.590,-14.648,-51.270,0.000
1709141645.115,-51.758,-44.922,-17.578,-64.941,0.000
1709141645.119,-46.875,-40.039,-14.648,-64.453,0.000
1709141645.123,-40.039,-45.898,-13.672,-52.734,0.000
1709141645.129,-43.945,-42.969,-20.020,-47.852,0.000
1709141645.133,-36.133,-43.457,-25.391,-34.668,0.000
1709141645.137,-26.855,-57.617,-36.133,-15.625,0.000
1709141645.141,-33.203,-52.734,-44.434,-20.020,0.000
1709141645.145,-34.180,-54.199,-38.574,-36.133,0.000
1709141645.149,-17.090,-59.082,-26.367,-41.992,0.000
1709141645.153,-3.418,-42.480,-21.484,-38.086,0.000
1709141645.156,-7.324,-34.668,-35.156,-12.695,0.000
1709141645.160,3.418,-37.598,-47.852,-13.672,0.000
1709141645.164,15.137,-39.062,-53.711,-25.391,0.000
1709141645.168,4.395,-38.574,-63.965,-13.184,0.000
1709141645.172,12.695,-40.039,-58.594,-7.324,0.000
1709141645.175,28.320,-28.320,-69.336,3.906,0.000
1709141645.179,27.344,-23.438,-70.312,0.977,0.000
1709141645.183,14.648,-36.133,-43.457,-3.906,0.000
1709141645.187,17.578,-27.344,-48.340,7.812,0.000
1709141645.191,23.438,-19.531,-62.012,13.184,0.000
1709141645.194,16.602,-26.367,-57.129,8.301,0.000
1709141645.198,17.578,-23.438,-49.805,9.277,0.000
1709141645.202,22.461,-19.043,-47.852,9.277,0.000
1709141645.206,17.090,-28.809,-50.781,2.441,0.000
1709141645.210,15.137,-27.344,-56.641,5.859,0.000
1709141645.214,21.973,-33.203,-63.965,11.230,0.000
1709141645.218,19.531,-38.086,-83.984,5.371,0.000
1709141645.221,19.531,-25.879,-78.125,-3.418,0.000
1709141645.224,22.461,-19.043,-50.293,-16.113,0.000
1709141645.228,20.508,-19.043,-47.852,-20.020,0.000
1709141645.232,16.602,-18.066,-56.152,-5.371,0.000
1709141645.236,12.695,-28.320,-58.594,-6.348,0.000
1709141645.240,7.324,-30.273,-62.988,6.348,0.000
1709141645.244,9.277,-16.602,-64.941,19.531,0.000
1709141645.248,6.836,-12.695,-58.594,10.254,0.000
1709141645.252,4.883,-10.742,-54.688,7.324,0.000
1709141645.256,12.207,-17.578,-59.082,8.789,0.000
1709141645.260,14.648,-22.461,-67.871,2.441,0.000
1709141645.263,10.742,-23.926,-73.730,2.930,0.000
1709141645.266,11.719,-29.785,-61.523,9.766,0.000
1709141645.270,9.766,-35.645,-47.363,8.789,0.000
1709141645.274,9.277,-33.203,-47.363,1.953,0.000
1709141645.278,-4.883,-29.297,-50.293,-2.441,0.000
1709141645.282,-5.371,-29.297,-50.293,-2.930,0.000
1709141645.286,-2.441,-26.855,-52.734,-3.418,0.000
1709141645.290,-18.555,-25.391,-52.246,-9.277,0.000
1709141645.293,-22.949,-28.320,-54.199,-18.555,0.000
1709141645.297,-8.301,-25.879,-61.035,-16.113,0.000
1709141645.301,-3.906,-40.039,-57.617,-10.742,0.000
1709141645.305,-10.742,-40.039,-56.152,-12.695,0.000
1709141645.309,-9.766,-23.926,-58.105,-14.648,0.000
1709141645.314,-10.254,-29.785,-44.922,-17.578,0.000
1709141645.318,-7.812,-33.203,-33.203,-15.137,0.000
1709141645.322,-10.742,-36.133,-40.527,-14.160,0.000
1709141645.326,-7.812,-37.109,-52.734,-18.555,0.000
1709141645.330,-2.930,-26.367,-52.246,-10.254,0.000
1709141645.334,-12.207,-32.715,-50.293,-10.254,0.000
1709141645.338,-8.301,-37.598,-53.223,-13.184,0.000
1709141645.341,-3.906,-30.273,-58.105,-14.648,0.000
1709141645.345,-23.438,-36.621,-57.129,-13.184,0.000
1709141645.349,-27.832,-39.062,-49.316,-1.465,0.000
1709141645.353,-21.484,-33.203,-46.387,-8.789,0.000
1709141645.357,-22.949,-38.086,-46.875,-25.879,0.000
1709141645.362,-22.949,-44.922,-49.316,-14.648,0.000
1709141645.366,-22.461,-49.316,-46.875,-16.113,0.000
1709141645.369,-27.832,-40.527,-44.434,-34.180,0.000
1709141645.373,-21.973,-31.250,-45.898,-22.949,0.000
1709141645.377,-24.414,-36.133,-47.852,-20.996,0.000
1709141645.381,-16.113,-33.203,-50.293,-34.180,0.000
1709141645.385,-2.441,-27.344,-48.828,-26.855,0.000
1709141645.389,-13.672,-29.297,-52.246,-22.461,0.000
1709141645.393,-9.277,-37.109,-53.223,-14.160,0.000
1709141645.397,-0.488,-27.344,-55.176,-18.066,0.000
1709141645.401,-12.207,-14.648,-47.852,-37.109,0.000
1709141645.405,-22.461,-33.203,-36.621,-40.527,0.000
1709141645.409,-18.555,-39.062,-42.969,-37.598,0.000
1709141645.413,-9.277,-33.691,-41.504,-26.367,0.000
1709141645.417,-6.348,-34.668,-36.621,-29.297,0.000
1709141645.421,-16.602,-48.340,-55.664,-28.809,0.000
1709141645.424,-20.020,-53.711,-65.918,-20.996,0.000
1709141645.428,-19.043,-32.227,-44.922,-25.879,0.000
1709141645.432,-25.391,-30.762,-30.273,-31.738,0.000
1709141645.436,-20.996,-38.574,-33.203,-26.855,0.000
1709141645.440,-25.391,-37.109,-43.457,-20.508,0.000
1709141645.444,-18.066,-32.227,-52.246,-29.297,0.000
1709141645.448,-11.719,-46.387,-49.316,-27.832,0.000
1709141645.452,-21.973,-51.270,-34.180,-18.066,0.000
1709141645.456,-20.508,-32.227,-32.715,-23.926,0.000
1709141645.460,-20.996,-27.344,-36.133,-29.785,0.000
1709141645.463,-26.855,-34.668,-43.945,-23.926,0.000
1709141645.467,-29.297,-42.969,-46.875,-15.137,0.000
1709141645.471,-25.391,-32.715,-38.086,-16.602,0.000
1709141645.475,-26.855,-30.273,-41.992,-25.879,0.000
1709141645.479,-29.785,-33.691,-48.828,-37.598,0.000
1709141645.483,-30.273,-40.527,-47.363,-24.414,0.000
1709141645.487,-28.809,-43.457,-35.645,-17.578,0.000
1709141645.491,-29.297,-41.016,-32.715,-28.809,0.000
1709141645.495,-41.504,-43.457,-38.574,-29.785,0.000
1709141645.499,-45.898,-36.621,-44.922,-27.344,0.000
1709141645.502,-42.969,-27.832,-53.711,-25.879,0.000
1709141645.506,-42.480,-32.715,-55.176,-32.227,0.000
1709141645.510,-39.062,-37.109,-38.086,-40.039,0.000
1709141645.514,-34.180,-25.879,-29.297,-33.691,0.000
1709141645.518,-24.414,-24.414,-30.762,-29.785,0.000
1709141645.522,-22.461,-30.762,-28.320,-30.273,0.000
1709141645.525,-31.738,-40.039,-36.133,-36.133,0.000
1709141645.529,-37.109,-41.016,-36.133,-27.344,0.000
1709141645.533,-28.320,-41.016,-30.762,-19.531,0.000
1709141645.537,-15.625,-37.109,-31.250,-34.668,0.000
1709141645.541,-29.785,-30.762,-45.410,-41.992,0.000
1709141645.545,-35.156,-32.227,-36.621,-37.109,0.000
1709141645.548,-24.414,-45.410,-29.297,-26.855,0.000
1709141645.552,-25.879,-45.898,-44.922,-40.527,0.000
1709141645.556,-31.738,-33.691,-43.457,-49.805,0.000
1709141645.560,-35.645,-37.598,-43.945,-48.828,0.000
1709141645.564,-41.992,-44.922,-39.551,-52.734,0.000
1709141645.568,-51.758,-43.945,-32.227,-49.316,0.000
1709141645.572,-55.176,-36.621,-41.016,-41.504,0.000
1709141645.575,-48.828,-36.133,-55.176,-34.668,0.000
1709141645.579,-45.898,-37.598,-52.246,-35.645,0.000
1709141645.583,-43.457,-40.039,-44.434,-33.203,0.000
1709141645.587,-34.180,-37.598,-44.922,-29.785,0.000
1709141645.591,-43.945,-34.668,-44.922,-31.738,0.000
1709141645.594,-45.898,-46.875,-23.926,-33.691,0.000
1709141645.598,-44.922,-54.688,-22.461,-39.062,0.000
1709141645.602,-48.340,-38.574,-47.363,-48.340,0.000
1709141645.606,-44.922,-33.203,-39.062,-49.316,0.000
1709141645.610,-38.086,-44.922,-32.227,-46.387,0.000
1709141645.614,-31.250,-52.246,-42.969,-39.062,0.000
1709141645.618,-32.715,-44.922,-46.387,-24.902,0.000
1709141645.621,-30.273,-28.320,-41.504,-24.902,0.000
1709141645.625,-25.391,-24.414,-37.109,-34.180,0.000
1709141645.629,-17.090,-32.227,-47.363,-23.438,0.000
1709141645.633,-18.066,-35.645,-46.387,-18.555,0.000
1709141645.637,-14.160,-36.621,-41.504,-36.621,0.000
1709141645.640,-18.555,-36.621,-41.016,-45.898,0.000
1709141645.644,-16.113,-32.715,-35.645,-36.621,0.000
1709141645.648,-10.742,-30.273,-37.598,-29.297,0.000
1709141645.652,-31.250,-29.785,-33.203,-40.527,0.000
1709141645.655,-28.809,-41.016,-25.879,-43.457,0.000
1709141645.659,-19.531,-42.969,-27.832,-37.109,0.000
1709141645.663,-34.180,-34.668,-40.039,-51.758,0.000
1709141645.667,-38.574,-32.715,-47.363,-60.547,0.000
1709141645.671,-34.180,-40.039,-43.457,-58.105,0.000
1709141645.675,-37.598,-49.805,-41.504,-54.199,0.000
1709141645.679,-47.363,-33.691,-42.969,-48.828,0.000
1709141645.683,-48.828,-27.832,-26.855,-55.664,0.000
1709141645.688,-38.086,-41.992,-25.391,-56.641,0.000
1709141645.692,-42.480,-41.504,-35.156,-46.875,0.000
1709141645.696,-42.969,-36.621,-36.133,-47.363,0.000
1709141645.700,-45.410,-39.551,-39.551,-52.246,0.000
1709141645.704,-51.270,-41.016,-44.434,-51.270,0.000
1709141645.708,-43.945,-38.086,-45.898,-46.875,0.000
1709141645.712,-35.156,-34.668,-35.156,-37.109,0.000
1709141645.716,-31.250,-36.133,-26.367,-35.645,0.000
1709141645.720,-37.598,-38.086,-30.762,-36.621,0.000
1709141645.723,-42.969,-41.016,-40.039,-31.250,0.000
1709141645.727,-35.156,-36.133,-41.504,-29.297,0.000
1709141645.731,-30.273,-37.109,-33.203,-33.203,0.000
1709141645.736,-32.715,-41.992,-30.762,-36.133,0.000
1709141645.740,-34.668,-37.109,-33.203,-38.574,0.000
1709141645.744,-37.598,-39.062,-25.879,-36.133,0.000
1709141645.748,-34.180,-45.410,-20.020,-40.527,0.000
1709141645.752,-33.691,-41.992,-27.832,-47.363,0.000
1709141645.756,-39.551,-41.992,-33.203,-47.363,0.000
1709141645.759,-40.039,-47.363,-36.133,-56.641,0.000
1709141645.763,-42.480,-42.480,-38.086,-57.129,0.000
1709141645.767,-46.875,-33.691,-36.133,-41.992,0.000
1709141645.771,-46.875,-37.598,-35.645,-32.227,0.000
1709141645.775,-41.016,-48.828,-29.785,-46.875,0.000
1709141645.779,-40.039,-49.805,-32.227,-63.965,0.000
1709141645.783,-39.551,-35.645,-44.922,-61.523,0.000
1709141645.787,-42.480,-35.645,-40.527,-46.387,0.000
1709141645.791,-41.016,-43.945,-38.086,-44.922,0.000
1709141645.795,-36.133,-36.133,-38.086,-47.852,0.000
1709141645.799,-41.504,-37.109,-28.320,-45.898,0.000
1709141645.803,-47.363,-43.945,-33.203,-47.363,0.000
1709141645.807,-48.828,-41.992,-44.922,-47.852,0.000
1709141645.811,-47.852,-32.715,-30.273,-46.387,0.000
1709141645.815,-36.133,-43.457,-27.832,-35.645,0.000
1709141645.818,-39.551,-55.176,-42.969,-38.086,0.000
1709141645.822,-44.434,-46.875,-35.645,-38.574,0.000
1709141645.826,-32.227,-39.551,-35.156,-24.414,0.000
1709141645.830,-31.250,-37.109,-46.387,-27.344,0.000
1709141645.834,-30.273,-34.180,-36.133,-32.715,0.000
1709141645.838,-22.461,-25.391,-24.902,-32.715,0.000
1709141645.842,-15.137,-26.855,-30.762,-36.133,0.000
1709141645.846,-16.602,-43.945,-32.715,-45.410,0.000
1709141645.850,-19.043,-41.504,-34.180,-49.316,0.000
1709141645.854,-15.625,-31.738,-40.039,-53.223,0.000
1709141645.857,-20.996,-38.086,-37.109,-46.387,0.000
1709141645.861,-34.180,-30.273,-35.156,-41.992,0.000
1709141645.865,-40.039,-19.531,-42.480,-57.617,0.000
1709141645.869,-37.598,-27.344,-48.828,-56.152,0.000
1709141645.873,-54.199,-35.645,-57.617,-61.035,0.000
1709141645.877,-50.781,-26.855,-61.035,-75.195,0.000
1709141645.880,-35.156,-29.297,-44.434,-70.801,0.000
1709141645.884,-39.062,-40.039,-28.809,-57.617,0.000
1709141645.888,-33.691,-33.203,-27.344,-58.594,0.000
1709141645.892,-43.457,-25.391,-34.180,-64.453,0.000
1709141645.896,-50.293,-46.387,-38.086,-70.312,0.000
1709141645.900,-39.551,-63.477,-38.574,-62.012,0.000
1709141645.904,-36.621,-43.945,-43.457,-53.223,0.000
1709141645.908,-41.504,-31.250,-50.781,-56.152,0.000
1709141645.912,-41.504,-30.762,-56.152,-52.246,0.000
1709141645.916,-39.551,-35.645,-49.316,-56.152,0.000
1709141645.920,-34.668,-37.598,-24.414,-51.758,0.000
1709141645.923,-34.668,-35.645,-18.555,-44.922,0.000
1709141645.927,-35.645,-41.992,-27.832,-34.668,0.000
1709141645.931,-27.832,-43.457,-33.203,-28.809,0.000
1709141645.934,-18.066,-40.527,-37.109,-41.992,0.000
1709141645.938,-29.297,-32.227,-44.434,-42.969,0.000
1709141645.942,-43.945,-32.227,-46.875,-38.574,0.000
1709141645.946,-42.480,-43.945,-41.016,-29.297,0.000
1709141645.950,-43.457,-43.945,-34.180,-20.996,0.000
1709141645.954,-39.062,-38.574,-21.484,-27.832,0.000
1709141645.958,-41.504,-38.086,-26.855,-36.133,0.000
1709141645.962,-45.410,-39.551,-34.668,-50.293,0.000
1709141645.966,-33.203,-40.039,-43.945,-43.945,0.000
1709141645.969,-29.785,-28.320,-45.410,-32.227,0.000
1709141645.973,-42.480,-29.785,-40.527,-43.457,0.000
1709141645.977,-36.133,-34.180,-47.363,-40.039,0.000
1709141645.980,-27.344,-26.855,-42.969,-30.273,0.000
1709141645.984,-33.203,-23.438,-33.691,-38.574,0.000
1709141645.988,-37.109,-30.273,-28.320,-44.922,0.000
1709141645.992,-38.086,-43.945,-35.645,-36.621,0.000
1709141645.996,-37.109,-44.922,-41.992,-36.621,0.000
1709141646.000,-27.832,-38.086,-37.598,-47.852,0.000
1709141646.004,-27.344,-26.367,-29.785,-46.875,0.000
1709141646.008,-43.457,-24.414,-25.391,-41.016,0.000
1709141646.012,-36.621,-21.973,-32.227,-48.340,0.000
1709141646.015,-25.391,-26.855,-47.363,-48.340,0.000
1709141646.018,-32.227,-36.133,-51.758,-39.551,0.000
1709141646.022,-35.645,-35.156,-29.785,-38.086,0.000
1709141646.026,-31.250,-37.109,-22.949,-31.738,0.000
1709141646.030,-20.508,-40.527,-27.344,-32.227,0.000
1709141646.034,-17.578,-31.250,-28.809,-33.203,0.000
1709141646.038,-26.855,-31.738,-41.504,-31.250,0.000
1709141646.042,-33.691,-37.598,-40.527,-29.297,0.000
1709141646.046,-32.227,-34.180,-41.504,-24.902,0.000
1709141646.050,-30.762,-38.086,-43.457,-22.949,0.000
1709141646.054,-33.691,-45.410,-25.391,-24.414,0.000
1709141646.058,-35.156,-49.805,-24.902,-28.320,0.000
1709141646.063,-40.039,-51.270,-33.203,-28.809,0.000
1709141646.067,-26.367,-36.133,-29.785,-21.484,0.000
1709141646.071,-22.949,-29.785,-31.250,-22.949,0.000
1709141646.075,-33.203,-32.715,-37.598,-34.180,0.000
1709141646.079,-27.344,-29.297,-31.250,-32.227,0.000
1709141646.082,-31.738,-33.691,-30.762,-28.320,0.000
1709141646.086,-41.016,-34.668,-28.809,-32.227,0.000
1709141646.090,-41.016,-33.203,-27.832,-41.992,0.000
1709141646.094,-31.250,-39.062,-27.832,-45.898,0.000
1709141646.098,-34.180,-43.457,-28.320,-45.898,0.000
1709141646.102,-37.598,-40.527,-41.016,-45.410,0.000
1709141646.106,-37.109,-35.156,-34.668,-33.691,0.000
1709141646.111,-41.992,-40.039,-27.344,-26.367,0.000
1709141646.115,-41.992,-38.086,-25.391,-29.297,0.000
1709141646.118,-33.691,-27.344,-31.738,-25.879,0.000
1709141646.122,-25.879,-27.344,-39.062,-25.391,0.000
1709141646.126,-28.320,-37.109,-36.621,-33.203,0.000
1709141646.130,-32.715,-41.016,-39.062,-29.297,0.000
1709141646.134,-35.645,-31.250,-41.016,-25.391,0.000
1709141646.138,-23.438,-26.367,-40.039,-32.715,0.000
1709141646.142,-16.113,-26.855,-28.809,-23.926,0.000
1709141646.146,-31.250,-32.227,-22.461,-17.578,0.000
1709141646.150,-31.250,-27.344,-23.438,-19.043,0.000
1709141646.154,-29.785,-29.785,-22.461,-26.855,0.000
1709141646.158,-33.203,-39.551,0.000,-31.738,0.000
1709141646.162,-27.832,-43.945,0.000,-24.414,0.000
1709141646.166,-31.738,-40.039,0.000,-30.762,0.000
1709141646.170,-37.109,-31.250,0.000,-26.855,0.000
1709141646.174,-28.809,-29.297,0.000,-15.625,0.000
1709141646.178,-21.484,-41.992,0.000,-17.090,0.000
1709141646.182,-28.809,-42.480,0.000,-26.855,0.000
1709141646.186,-35.156,-31.250,0.000,-36.621,0.000
1709141646.189,-30.273,-31.738,0.000,-30.273,0.000
1709141646.193,-35.156,-31.738,0.000,-30.762,0.000
1709141646.197,-33.203,-32.715,0.000,-40.527,0.000
1709141646.201,-32.227,-33.691,0.000,-51.270,0.000
1709141646.208,-45.410,-30.273,-32.227,-54.199,0.000
1709141646.212,-46.387,-31.738,-39.551,-46.387,0.000
1709141646.216,-32.715,-32.227,-42.480,-41.016,0.000
1709141646.219,-44.434,-29.785,-37.109,-44.922,0.000
1709141646.223,-55.664,-42.969,-41.992,-49.805,0.000
1709141646.227,-49.316,-47.852,-42.969,-47.852,0.000
1709141646.231,-41.992,-48.828,-34.668,-45.898,0.000
1709141646.235,-37.598,-50.293,-38.086,-39.062,0.000
1709141646.239,-33.203,-36.621,-39.062,-32.227,0.000
1709141646.243,-29.297,-27.344,-38.086,-42.969,0.000
1709141646.247,-27.832,-31.738,-44.434,-43.945,0.000
1709141646.251,-22.461,-36.133,-41.504,-35.156,0.000
1709141646.254,-23.438,-35.645,-38.574,-40.039,0.000
1709141646.258,-24.414,-36.133,-39.062,-44.922,0.000
1709141646.262,-25.879,-40.039,-40.527,-41.992,0.000
1709141646.266,-26.367,-38.086,-38.574,-36.133,0.000
1709141646.269,-28.320,-39.551,-25.879,-43.457,0.000
1709141646.273,-24.902,-39.062,-27.344,-42.480,0.000
1709141646.277,-34.668,-41.016,-35.645,-49.316,0.000
1709141646.281,-46.875,-41.992,-46.875,-57.129,0.000
1709141646.285,-37.109,-47.363,-40.527,-44.434,0.000
1709141646.289,-37.598,-50.293,-29.297,-43.945,0.000
1709141646.293,-33.691,-43.457,-37.109,-46.387,0.000
1709141646.297,-40.039,-41.504,-41.992,-46.387,0.000
1709141646.300,-48.828,-34.668,-47.363,-48.828,0.000
1709141646.304,-49.805,-29.785,-42.480,-39.551,0.000
1709141646.307,-41.992,-25.879,-26.855,-33.203,0.000
1709141646.311,-40.527,-32.715,-30.273,-30.762,0.000
1709141646.315,-53.223,-42.969,-45.898,-48.340,0.000
1709141646.319,-48.828,-39.551,-39.551,-64.941,0.000
1709141646.323,-46.387,-37.598,-28.809,-52.734,0.000
1709141646.327,-47.852,-38.086,-38.574,-39.551,0.000
1709141646.331,-50.293,-41.992,-45.898,-50.781,0.000
1709141646.335,-44.434,-44.434,-35.156,-51.270,0.000
1709141646.339,-33.203,-51.758,-29.297,-49.805,0.000
1709141646.343,-48.828,-52.246,-29.785,-58.594,0.000
1709141646.345,-57.129,-33.203,-29.785,-55.664,0.000
1709141646.349,-46.387,-32.715,-35.156,-51.270,0.000
1709141646.353,-38.086,-45.410,-37.598,-49.316,0.000
1709141646.357,-38.574,-40.527,-40.527,-48.828,0.000
1709141646.361,-43.457,-31.250,-52.246,-48.340,0.000
1709141646.365,-41.504,-41.992,-50.293,-41.504,0.000
1709141646.369,-44.434,-54.199,-46.387,-39.062,0.000
1709141646.373,-45.898,-47.852,-53.223,-51.270,0.000
1709141646.377,-34.668,-41.992,-45.410,-48.828,0.000
1709141646.380,-24.902,-42.480,-39.551,-35.645,0.000
1709141646.384,-27.344,-46.387,-46.875,-35.156,0.000
1709141646.388,-26.367,-48.828,-47.852,-38.574,0.000
1709141646.391,-12.695,-43.945,-41.504,-44.434,0.000
1709141646.395,-5.371,-38.574,-33.691,-43.945,0.000
1709141646.399,-29.785,-39.551,-35.156,-46.875,0.000
1709141646.403,-50.293,-44.434,-31.738,-42.480,0.000
1709141646.407,-51.758,-58.105,-25.879,-38.086,0.000
1709141646.410,-45.898,-61.523,-35.156,-38.086,0.000
1709141646.414,-41.992,-43.457,-41.504,-33.203,0.000
1709141646.418,-41.992,-38.086,-32.715,-39.062,0.000
1709141646.422,-37.109,-41.016,-20.020,-44.922,0.000
1709141646.426,-41.504,-33.691,-29.785,-50.781,0.000
1709141646.430,-46.875,-32.715,-40.527,-50.293,0.000
1709141646.434,-46.387,-40.039,-36.133,-43.457,0.000
1709141646.439,-40.039,-46.387,-43.457,-38.574,0.000
1709141646.443,-38.086,-45.898,-51.270,-38.574,0.000
1709141646.447,-32.227,-47.363,-37.598,-39.062,0.000
1709141646.451,-27.832,-48.828,-29.297,-36.133,0.000
1709141646.455,-24.414,-43.457,-43.457,-44.434,0.000
1709141646.459,-29.785,-40.039,-41.504,-49.805,0.000
1709141646.462,-22.949,-38.574,-34.180,-47.852,0.000
1709141646.466,-28.809,-38.086,-41.992,-48.828,0.000
1709141646.470,-43.945,-28.320,-44.922,-42.480,0.000
1709141646.474,-41.504,-34.668,-42.969,-50.293,0.000
1709141646.478,-45.410,-36.133,-46.387,-64.941,0.000
1709141646.482,-46.875,-30.762,-41.992,-57.129,0.000
1709141646.487,-42.480,-45.898,-25.391,-47.363,0.000
1709141646.491,-40.039,-50.293,-34.668,-49.805,0.000
1709141646.494,-38.086,-32.715,-46.387,-44.434,0.000
1709141646.498,-30.762,-26.367,-36.133,-43.457,0.000
1709141646.502,-23.926,-28.809,-37.109,-37.109,0.000
1709141646.506,-25.391,-34.668,-43.945,-38.086,0.000
1709141646.510,-28.320,-34.668,-38.574,-40.527,0.000
1709141646.514,-26.855,-31.250,-40.039,-35.156,0.000
1709141646.518,-26.855,-35.156,-40.527,-27.344,0.000
1709141646.522,-32.227,-31.738,-30.273,-36.133,0.000
1709141646.526,-17.090,-22.949,-29.297,-51.758,0.000
1709141646.530,-22.949,-20.996,-32.227,-48.828,0.000
1709141646.534,-41.504,-31.250,-39.551,-39.551,0.000
1709141646.538,-36.621,-30.273,-45.410,-34.668,0.000
1709141646.542,-36.621,-33.691,-43.945,-39.551,0.000
1709141646.546,-37.109,-47.852,-44.922,-33.691,0.000
1709141646.549,-44.434,-51.758,-52.246,-34.668,0.000
1709141646.553,-51.758,-58.105,-49.316,-39.551,0.000
1709141646.557,-48.340,-55.176,-37.109,-38.086,0.000
1709141646.561,-41.504,-38.574,-24.902,-41.504,0.000
1709141646.565,-39.551,-44.434,-30.273,-39.062,0.000
1709141646.569,-36.621,-46.875,-46.387,-36.133,0.000
1709141646.573,-34.180,-33.203,-41.504,-40.039,0.000
1709141646.577,-41.016,-36.621,-32.227,-41.016,0.000
1709141646.581,-37.598,-42.480,-31.250,-47.852,0.000
1709141646.584,-38.086,-30.762,-34.180,-44.922,0.000
1709141646.588,-39.551,-29.297,-30.762,-34.180,0.000
1709141646.592,-36.621,-44.434,-30.762,-35.645,0.000
1709141646.596,-36.621,-37.109,-38.574,-37.598,0.000
1709141646.600,-43.457,-30.762,-28.809,-39.062,0.000
1709141646.604,-45.898,-42.969,-10.254,-41.504,0.000
1709141646.608,-39.551,-34.668,-25.391,-33.203,0.000
1709141646.612,-38.086,-27.832,-36.621,-24.902,0.000
1709141646.616,-42.969,-43.457,-19.531,-37.109,0.000
1709141646.620,-43.945,-41.016,-23.926,-38.574,0.000
1709141646.624,-50.781,-37.109,-38.574,-41.016,0.000
1709141646.627,-50.781,-40.527,-33.203,-54.688,0.000
1709141646.631,-46.387,-38.574,-41.016,-55.664,0.000
1709141646.635,-46.875,-41.992,-42.480,-43.457,0.000
1709141646.639,-55.664,-40.527,-32.227,-37.109,0.000
1709141646.643,-54.199,-32.227,-40.527,-40.527,0.000
1709141646.646,-37.109,-36.621,-35.156,-42.969,0.000
1709141646.650,-30.273,-39.551,-22.461,-38.086,0.000
1709141646.654,-41.504,-33.203,-38.574,-21.973,0.000
1709141646.658,-46.387,-35.645,-43.945,-29.785,0.000
1709141646.662,-47.852,-43.457,-28.809,-46.387,0.000
1709141646.666,-49.805,-42.969,-23.438,-44.434,0.000
1709141646.670,-46.875,-42.969,-20.508,-41.504,0.000
1709141646.673,-41.504,-44.434,-24.414,-36.133,0.000
1709141646.677,-36.621,-39.062,-32.227,-40.039,0.000
1709141646.681,-37.598,-40.527,-32.715,-38.574,0.000
1709141646.685,-41.016,-48.340,-34.668,-36.621,0.000
1709141646.689,-32.227,-50.293,-37.109,-41.504,0.000
1709141646.693,-29.785,-47.852,-34.668,-40.039,0.000
1709141646.697,-23.438,-40.527,-23.926,-36.133,0.000
1709141646.701,-23.438,-38.086,-27.344,-50.293,0.000
1709141646.704,-23.438,-32.227,-36.621,-64.941,0.000
1709141646.708,-9.277,-32.715,-39.062,-61.523,0.000
1709141646.712,-19.531,-38.574,-47.363,-49.805,0.000
1709141646.716,-24.414,-36.621,-58.105,-42.969,0.000
1709141646.719,-24.902,-30.273,-54.199,-51.758,0.000
1709141646.723,-28.320,-28.809,-37.109,-57.129,0.000
1709141646.727,-25.879,-37.109,-44.922,-47.363,0.000
1709141646.731,-33.691,-41.504,-42.969,-47.363,0.000
1709141646.735,-26.855,-42.969,-30.762,-46.875,0.000
1709141646.739,-20.020,-45.410,-32.227,-49.805,0.000
1709141646.743,-33.691,-36.133,-32.227,-44.434,0.000
1709141646.746,-39.062,-35.645,-40.039,-34.668,0.000
1709141646.750,-30.273,-37.109,-38.574,-31.738,0.000
1709141646.754,-20.996,-42.480,-38.574,-25.879,0.000
1709141646.758,-22.949,-44.434,-45.898,-29.297,0.000
1709141646.762,-30.273,-37.598,-30.273,-30.762,0.000
1709141646.765,-33.691,-45.410,-27.832,-26.367,0.000
1709141646.769,-29.297,-48.828,-35.156,-32.715,0.000
1709141646.773,-33.691,-42.480,-40.527,-41.016,0.000
1709141646.777,-32.227,-38.574,-51.270,-44.434,0.000
1709141646.781,-22.461,-35.156,-48.340,-42.480,0.000
1709141646.784,-37.109,-35.156,-37.109,-38.086,0.000
1709141646.788,-39.062,-35.645,-35.156,-37.109,0.000
1709141646.792,-30.273,-42.480,-43.457,-35.645,0.000
1709141646.796,-27.832,-43.945,-37.598,-38.574,0.000
1709141646.800,-39.551,-36.133,-31.250,-36.621,0.000
1709141646.804,-41.992,-34.180,-37.109,-38.574,0.000
1709141646.808,-35.645,-31.738,-37.109,-42.480,0.000
1709141646.813,-28.320,-38.574,-31.738,-28.809,0.000
1709141646.817,-29.297,-48.340,-35.645,-32.227,0.000
1709141646.821,-43.945,-47.363,-47.852,-49.316,0.000
1709141646.825,-45.410,-35.645,-62.500,-49.805,0.000
1709141646.829,-34.668,-29.785,-44.434,-42.969,0.000
1709141646.833,-27.344,-36.621,-21.973,-32.715,0.000
1709141646.837,-36.621,-39.062,-31.250,-33.203,0.000
1709141646.841,-41.992,-42.969,-38.574,-47.852,0.000
1709141646.844,-32.715,-41.504,-29.297,-45.898,0.000
1709141646.848,-21.484,-37.109,-36.621,-38.574,0.000
1709141646.852,-33.203,-41.016,-43.457,-42.969,0.000
1709141646.856,-49.805,-42.480,-36.621,-45.898,0.000
1709141646.864,-41.992,-38.574,-36.133,-42.480,0.000
1709141646.868,-35.645,-47.363,-35.156,-45.410,0.000
1709141646.872,-40.527,-60.547,-41.992,-49.316,0.000
1709141646.875,-44.922,-55.664,-40.527,-57.617,0.000
1709141646.879,-44.434,-41.016,-37.598,-51.270,0.000
1709141646.883,-39.551,-31.250,-33.691,-43.457,0.000
1709141646.887,-41.016,-31.250,-24.902,-48.340,0.000
1709141646.891,-42.969,-30.762,-33.691,-45.410,0.000
1709141646.895,-35.645,-30.273,-37.598,-33.203,0.000
1709141646.899,-34.668,-41.992,-34.180,-28.320,0.000
1709141646.903,-29.297,-41.504,-41.992,-39.551,0.000
1709141646.907,-33.203,-43.457,-42.480,-40.039,0.000
1709141646.910,-47.363,-50.293,-35.645,-35.645,0.000
1709141646.914,-41.504,-45.410,-41.504,-40.527,0.000
1709141646.918,-37.598,-48.828,-36.621,-50.781,0.000
1709141646.922,-41.016,-40.039,-27.344,-54.199,0.000
1709141646.926,-41.992,-27.832,-36.621,-53.223,0.000
1709141646.930,-40.039,-31.738,-33.203,-43.457,0.000
1709141646.934,-37.109,-36.621,-24.902,-42.480,0.000
1709141646.938,-39.062,-38.574,-29.297,-52.246,0.000
1709141646.942,-40.039,-35.156,-43.457,-50.293,0.000
1709141646.946,-36.133,-34.180,-57.129,-46.387,0.000
1709141646.950,-39.551,-47.363,-36.621,-49.805,0.000
1709141646.953,-36.621,-43.945,-23.438,-37.598,0.000
1709141646.957,-29.785,-33.691,-26.367,-24.414,0.000
1709141646.961,-38.086,-32.715,-27.832,-37.598,0.000
1709141646.965,-44.922,-35.645,-39.062,-45.410,0.000
1709141646.969,-41.504,-37.598,-37.109,-49.316,0.000
1709141646.973,-31.250,-35.156,-37.109,-54.688,0.000
1709141646.976,-45.410,-36.133,-41.504,-50.293,0.000
1709141646.980,-47.363,-29.297,-32.227,-48.828,0.000
1709141646.984,-42.480,-38.086,-44.434,-41.992,0.000
1709141646.988,-62.500,-45.898,-42.480,-47.363,0.000
1709141646.992,-69.824,-37.598,-28.809,-62.988,0.000
1709141646.996,-59.570,-35.156,-32.715,-56.641,0.000
1709141647.000,-55.176,-33.203,-40.527,-52.246,0.000
1709141647.003,-53.711,-36.133,-44.434,-46.875,0.000
1709141647.007,-50.781,-39.062,-37.109,-50.781,0.000
1709141647.011,-48.340,-34.668,-41.016,-42.969,0.000
1709141647.015,-39.551,-24.414,-44.434,-34.668,0.000
1709141647.019,-38.086,-39.062,-40.527,-42.969,0.000
1709141647.023,-52.734,-46.875,-44.434,-53.223,0.000
1709141647.027,-45.898,-35.156,-33.203,-57.617,0.000
1709141647.030,-35.156,-33.203,-24.414,-46.875,0.000
1709141647.034,-47.852,-25.391,-41.016,-37.109,0.000
1709141647.038,-49.316,-23.926,-35.156,-38.574,0.000
1709141647.042,-45.898,-34.668,-39.551,-52.246,0.000
1709141647.046,-51.270,-45.410,-50.781,-65.918,0.000
1709141647.050,-45.410,-32.227,-35.156,-57.617,0.000
1709141647.054,-40.527,-34.668,-35.645,-46.387,0.000
1709141647.058,-42.480,-42.480,-35.156,-46.387,0.000
1709141647.061,-47.363,-39.551,-27.832,-56.152,0.000
1709141647.065,-52.734,-40.527,-36.133,-69.336,0.000
1709141647.069,-50.781,-38.574,-43.945,-71.289,0.000
1709141647.073,-41.016,-47.852,-41.504,-54.199,0.000
1709141647.077,-40.527,-44.922,-48.340,-49.805,0.000
1709141647.081,-42.480,-23.926,-39.062,-55.664,0.000
1709141647.085,-40.527,-24.902,-32.227,-50.781,0.000
1709141647.089,-37.109,-30.762,-41.016,-59.082,0.000
1709141647.093,-38.574,-35.645,-31.738,-52.734,0.000
1709141647.096,-47.852,-40.527,-22.949,-40.039,0.000
1709141647.099,-43.457,-42.480,-20.996,-38.086,0.000
1709141647.103,-39.551,-47.363,-29.785,-41.016,0.000
1709141647.107,-42.480,-44.434,-38.574,-45.898,0.000
1709141647.111,-41.016,-45.410,-41.016,-41.016,0.000
1709141647.115,-36.133,-50.293,-43.945,-44.922,0.000
1709141647.119,-40.039,-44.922,-39.551,-44.922,0.000
1709141647.123,-48.340,-54.199,-40.039,-39.551,0.000
1709141647.127,-42.480,-51.758,-46.387,-42.969,0.000
1709141647.131,-42.480,-41.504,-40.039,-42.480,0.000
1709141647.135,-41.504,-43.945,-31.738,-39.551,0.000
1709141647.139,-33.691,-40.039,-40.039,-43.457,0.000
1709141647.144,-41.504,-41.992,-37.598,-51.270,0.000
1709141647.148,-44.434,-40.527,-30.762,-49.805,0.000
1709141647.152,-42.969,-34.180,-34.180,-47.363,0.000
1709141647.156,-28.809,-38.574,-38.086,-57.617,0.000
1709141647.160,-22.949,-51.758,-38.574,-54.199,0.000
1709141647.163,-47.852,-51.758,-41.016,-47.852,0.000
1709141647.167,-47.363,-38.574,-48.828,-45.898,0.000
1709141647.171,-43.457,-19.531,-42.480,-41.992,0.000
1709141647.175,-42.969,-18.066,-38.574,-45.898,0.000
1709141647.179,-41.016,-35.645,-41.504,-46.387,0.000
1709141647.183,-39.551,-40.039,-17.090,-43.945,0.000
1709141647.187,-32.715,-37.109,-9.277,-45.898,0.000
1709141647.191,-36.133,-42.969,-28.320,-48.828,0.000
1709141647.195,-44.434,-42.969,-45.410,-47.852,0.000
1709141647.199,-32.227,-38.086,-52.734,-45.898,0.000
1709141647.203,-30.762,-41.504,-51.270,-48.828,0.000
1709141647.207,-45.898,-52.734,-55.176,-48.828,0.000
1709141647.211,-46.387,-49.316,-47.363,-47.852,0.000
1709141647.215,-41.992,-38.086,-34.180,-44.922,0.000
1709141647.219,-32.227,-41.992,-36.133,-41.016,0.000
1709141647.223,-29.297,-58.105,-42.969,-41.992,0.000
1709141647.227,-34.668,-53.711,-32.715,-33.691,0.000
1709141647.231,-26.855,-42.480,-30.273,-30.762,0.000
1709141647.234,-18.555,-45.410,-37.598,-27.344,0.000
1709141647.239,-24.414,-51.270,-50.781,-24.414,0.000
1709141647.243,-36.133,-38.086,-51.758,-36.621,0.000
1709141647.246,-48.340,-27.344,-43.457,-49.316,0.000
1709141647.250,-52.246,-32.227,-44.434,-46.387,0.000
1709141647.254,-44.434,-38.574,-38.086,-40.039,0.000
1709141647.258,-38.574,-48.828,-38.086,-42.480,0.000
1709141647.262,-43.457,-48.340,-36.621,-50.781,0.000
1709141647.266,-48.340,-42.969,-32.227,-54.688,0.000
1709141647.270,-33.691,-44.922,-38.574,-44.434,0.000
1709141647.274,-33.691,-49.805,-39.062,-28.809,0.000
1709141647.278,-48.828,-44.434,-41.992,-39.551,0.000
1709141647.282,-45.898,-34.668,-45.898,-48.828,0.000
1709141647.285,-42.480,-31.738,-39.551,-44.434,0.000
1709141647.289,-39.062,-35.156,-35.156,-48.828,0.000
1709141647.293,-27.344,-34.668,-43.945,-40.527,0.000
1709141647.297,-25.391,-32.227,-43.945,-35.156,0.000
1709141647.301,-30.762,-33.691,-34.668,-38.574,0.000
1709141647.305,-38.574,-35.645,-41.016,-47.852,0.000
1709141647.309,-40.527,-32.715,-45.410,-61.523,0.000
1709141647.313,-37.598,-36.621,-44.434,-62.500,0.000
1709141647.317,-43.457,-45.898,-44.922,-46.875,0.000
1709141647.321,-42.480,-41.016,-49.316,-43.945,0.000
1709141647.324,-41.016,-34.668,-44.922,-50.781,0.000
1709141647.328,-41.016,-32.227,-33.203,-50.293,0.000
1709141647.332,-35.156,-39.062,-26.367,-41.016,0.000
1709141647.336,-32.715,-51.758,-31.250,-36.133,0.000
1709141647.340,-27.344,-51.758,-40.039,-43.457,0.000
1709141647.344,-34.668,-54.688,-43.457,-48.340,0.000
1709141647.348,-46.875,-44.434,-41.992,-43.457,0.000
1709141647.351,-50.781,-42.480,-37.109,-46.387,0.000
1709141647.355,-49.805,-51.270,-27.832,-47.363,0.000
1709141647.359,-31.250,-39.062,-25.879,-28.809,0.000
1709141647.363,-30.273,-34.668,-36.621,-26.855,0.000
1709141647.367,-30.273,-33.203,-46.875,-32.227,0.000
1709141647.371,-26.855,-31.738,-36.621,-30.762,0.000
1709141647.375,-23.438,-41.992,-22.949,-32.227,0.000
1709141647.378,-22.949,-43.945,-29.785,-38.574,0.000
1709141647.382,-36.621,-35.645,-38.574,-52.246,0.000
1709141647.386,-35.645,-33.691,-43.945,-58.594,0.000
1709141647.390,-31.738,-31.250,-43.457,-46.875,0.000
1709141647.394,-30.273,-37.598,-42.480,-34.668,0.000
1709141647.398,-30.762,-44.434,-47.852,-41.504,0.000
1709141647.402,-34.180,-30.762,-58.594,-46.875,0.000
1709141647.405,-32.227,-29.297,-46.387,-40.039,0.000
1709141647.409,-25.391,-29.785,-35.156,-47.852,0.000
1709141647.413,-24.902,-28.809,-36.621,-50.781,0.000
1709141647.417,-38.086,-33.691,-35.156,-41.016,0.000
1709141647.421,-33.691,-27.344,-41.504,-36.621,0.000
1709141647.424,-29.297,-40.527,-41.504,-42.969,0.000
1709141647.428,-41.016,-45.898,-30.762,-53.711,0.000
1709141647.432,-41.504,-41.016,-33.203,-53.223,0.000
1709141647.436,-34.668,-43.945,-37.109,-51.270,0.000
1709141647.440,-40.527,-34.668,-55.176,-46.387,0.000
1709141647.444,-52.246,-25.879,-60.547,-43.457,0.000
1709141647.447,-45.410,-33.691,-31.250,-37.598,0.000
1709141647.451,-40.039,-44.922,-29.297,-22.461,0.000
1709141647.455,-48.828,-42.969,-33.203,-24.902,0.000
1709141647.459,-49.805,-48.340,-28.809,-33.203,0.000
1709141647.463,-47.363,-52.734,-31.738,-31.738,0.000
1709141647.467,-53.223,-42.969,-39.062,-32.715,0.000
1709141647.470,-58.105,-39.551,-46.875,-26.367,0.000
1709141647.474,-55.664,-50.293,-49.316,-22.949,0.000
1709141647.478,-42.969,-48.828,-51.758,-27.832,0.000
1709141647.482,-45.410,-38.086,-53.711,-22.949,0.000
1709141647.485,-55.664,-42.969,-43.945,-24.414,0.000
1709141647.489,-49.805,-47.852,-31.738,-41.504,0.000
1709141647.493,-47.363,-46.387,-35.156,-41.016,0.000
1709141647.497,-44.922,-44.922,-41.992,-45.898,0.000
1709141647.501,-42.480,-42.969,-46.387,-52.246,0.000
1709141647.505,-38.574,-52.246,-38.574,-41.504,0.000
1709141647.509,-41.016,-54.688,-32.715,-43.945,0.000
1709141647.513,-41.504,-36.621,-31.250,-47.363,0.000
1709141647.516,-28.809,-29.785,-41.992,-46.387,0.000
1709141647.520,-20.508,-28.320,-51.270,-42.969,0.000
1709141647.523,-19.043,-28.809,-38.574,-47.852,0.000
1709141647.527,-18.066,-39.551,-36.621,-47.852,0.000
1709141647.531,-20.020,-42.969,-40.527,-40.039,0.000
1709141647.535,-29.297,-52.734,-44.434,-38.574,0.000
1709141647.539,-39.062,-50.293,-40.039,-34.180,0.000
1709141647.543,-34.180,-42.480,-34.180,-28.809,0.000
1709141647.547,-26.367,-45.898,-37.109,-28.809,0.000
1709141647.551,-34.180,-36.133,-49.805,-37.598,0.000
1709141647.555,-39.062,-32.227,-41.504,-36.133,0.000
1709141647.559,-40.527,-43.945,-39.062,-33.203,0.000
1709141647.564,-38.574,-49.805,-47.852,-41.016,0.000
1709141647.568,-33.691,-37.109,-34.180,-37.109,0.000
1709141647.572,-35.645,-36.133,-32.715,-36.133,0.000
1709141647.576,-39.551,-42.969,-29.785,-39.551,0.000
1709141647.579,-40.039,-45.898,-29.785,-37.598,0.000
1709141647.583,-36.133,-54.199,-34.180,-38.086,0.000
1709141647.587,-46.387,-49.805,-43.457,-41.504,0.000
1709141647.591,-43.457,-38.086,-48.828,-42.480,0.000
1709141647.595,-35.156,-38.086,-32.715,-39.551,0.000
1709141647.599,-37.109,-49.316,-26.367,-37.598,0.000
1709141647.603,-40.527,-44.922,-38.086,-35.645,0.000
1709141647.607,-20.508,-29.785,-41.016,-29.785,0.000
1709141647.611,-17.090,-30.273,-45.898,-32.715,0.000
1709141647.615,-38.086,-36.133,-33.691,-41.992,0.000
1709141647.619,-36.133,-38.086,-32.715,-46.875,0.000
1709141647.623,-29.297,-37.598,-41.504,-46.875,0.000
1709141647.627,-20.020,-37.598,-30.762,-37.598,0.000
1709141647.631,-20.996,-35.645,-28.809,-36.133,0.000
1709141647.635,-29.785,-31.250,-24.902,-38.574,0.000
1709141647.639,-25.391,-30.762,-33.203,-39.062,0.000
1709141647.643,-23.926,-42.480,-41.016,-39.551,0.000
1709141647.647,-34.668,-41.016,-27.832,-36.621,0.000
1709141647.651,-33.203,-20.996,-43.945,-40.527,0.000
1709141647.654,-31.738,-27.344,-59.082,-44.434,0.000
1709141647.659,-36.133,-39.062,-36.133,-54.688,0.000
1709141647.663,-33.691,-39.551,-20.996,-56.641,0.000
1709141647.667,-29.785,-32.227,-26.855,-50.293,0.000
1709141647.671,-28.809,-29.297,-36.621,-42.969,0.000
1709141647.674,-37.598,-38.086,-34.668,-38.574,0.000
1709141647.678,-34.668,-44.434,-39.551,-45.410,0.000
1709141647.682,-38.086,-37.109,-31.250,-51.758,0.000
1709141647.686,-52.246,-40.039,-21.973,-50.293,0.000
1709141647.690,-48.340,-50.293,-30.273,-41.016,0.000
1709141647.694,-35.156,-50.781,-36.133,-39.551,0.000
1709141647.698,-31.738,-48.340,-27.832,-53.223,0.000
1709141647.702,-40.039,-44.922,-24.902,-50.781,0.000
1709141647.706,-36.133,-42.480,-35.645,-39.062,0.000
1709141647.710,-40.039,-37.109,-31.738,-37.598,0.000
1709141647.714,-47.363,-33.691,-21.973,-39.551,0.000
1709141647.717,-37.109,-33.203,-24.414,-36.133,0.000
1709141647.721,-35.156,-34.668,-22.949,-37.109,0.000
1709141647.725,-42.480,-40.527,-19.043,-45.898,0.000
1709141647.729,-40.527,-41.504,-24.902,-55.664,0.000
1709141647.733,-31.250,-41.504,-33.203,-37.109,0.000
1709141647.737,-30.273,-40.039,-32.227,-25.879,0.000
1709141647.741,-43.457,-40.527,-38.086,-50.781,0.000
1709141647.745,-38.574,-40.039,-45.898,-49.805,0.000
1709141647.749,-26.367,-36.621,-41.504,-39.551,0.000
1709141647.752,-32.227,-39.551,-31.738,-43.457,0.000
1709141647.756,-28.809,-30.762,-24.902,-42.969,0.000
1709141647.760,-40.527,-26.367,-19.043,-43.945,0.000
1709141647.764,-48.828,-37.598,-32.227,-44.434,0.000
1709141647.768,-35.645,-38.086,-38.086,-30.273,0.000
1709141647.772,-36.621,-34.180,-34.180,-28.320,0.000
1709141647.776,-44.434,-36.133,-29.785,-34.180,0.000
1709141647.779,-48.340,-42.969,-34.180,-37.109,0.000
1709141647.783,-47.363,-34.180,-38.086,-46.875,0.000
1709141647.787,-52.734,-25.391,-35.645,-50.293,0.000
1709141647.791,-56.152,-37.598,-38.086,-39.062,0.000
1709141647.795,-45.898,-39.551,-45.410,-34.180,0.000
1709141647.799,-42.480,-51.758,-41.504,-41.016,0.000
1709141647.802,-35.645,-69.824,-29.297,-40.527,0.000
1709141647.806,-36.133,-49.805,-36.621,-43.457,0.000
1709141647.810,-46.387,-29.785,-41.504,-45.410,0.000
1709141647.814,-35.156,-27.832,-38.086,-42.480,0.000
1709141647.818,-30.273,-32.227,-33.203,-44.922,0.000
1709141647.822,-39.062,-38.086,-31.738,-44.434,0.000
1709141647.826,-43.457,-44.922,-47.363,-32.715,0.000
1709141647.830,-37.598,-49.316,-47.363,-42.969,0.000
1709141647.834,-34.180,-41.992,-25.391,-48.828,0.000
1709141647.838,-42.969,-30.273,-23.926,-48.340,0.000
1709141647.842,-48.340,-38.574,-38.574,-51.270,0.000
1709141647.845,-49.805,-44.434,-48.340,-50.293,0.000
1709141647.849,-37.598,-32.715,-33.203,-49.316,0.000
1709141647.853,-28.320,-31.738,-25.391,-38.574,0.000
1709141647.857,-27.832,-35.156,-33.203,-34.180,0.000
1709141647.861,-27.832,-33.203,-33.691,-41.504,0.000
1709141647.865,-20.508,-36.621,-35.645,-35.645,0.000
1709141647.869,-22.461,-52.246,-39.062,-19.531,0.000
1709141647.873,-31.250,-45.410,-42.480,-15.625,0.000
1709141647.877,-31.250,-29.785,-41.016,-27.344,0.000
1709141647.880,-39.062,-31.738,-35.645,-42.480,0.000
1709141647.884,-36.621,-31.250,-41.992,-50.293,0.000
1709141647.888,-34.668,-38.086,-49.805,-41.016,0.000
1709141647.891,-34.180,-43.945,-31.250,-44.922,0.000
1709141647.895,-34.180,-35.645,-16.113,-48.340,0.000
1709141647.899,-40.527,-35.645,-21.973,-46.875,0.000
1709141647.903,-44.922,-41.992,-35.156,-56.641,0.000
1709141647.907,-46.875,-43.457,-42.480,-62.500,0.000
1709141647.910,-40.039,-44.434,-44.922,-56.152,0.000
1709141647.914,-27.344,-45.410,-52.734,-51.758,0.000
1709141647.918,-28.809,-38.086,-55.664,-50.781,0.000
1709141647.922,-29.785,-41.016,-51.270,-48.828,0.000
1709141647.926,-27.344,-41.016,-46.387,-48.828,0.000
1709141647.930,-30.762,-33.691,-36.133,-34.668,0.000
1709141647.934,-31.250,-41.992,-30.762,-38.086,0.000
1709141647.939,-40.039,-47.852,-33.203,-54.199,0.000
1709141647.943,-38.574,-41.992,-28.809,-46.875,0.000
1709141647.947,-29.297,-28.320,-24.902,-40.527,0.000
1709141647.951,-35.645,-24.902,-41.504,-48.828,0.000
1709141647.955,-41.992,-29.785,-49.805,-49.805,0.000
1709141647.959,-43.945,-29.785,-40.039,-49.805,0.000
1709141647.963,-27.344,-29.785,-37.109,-48.340,0.000
1709141647.966,-32.227,-31.738,-32.227,-47.852,0.000
1709141647.970,-44.434,-31.250,-32.227,-45.898,0.000
1709141647.974,-31.250,-33.691,-34.668,-37.598,0.000
1709141647.978,-31.250,-46.387,-33.203,-41.016,0.000
1709141647.982,-35.645,-53.711,-35.645,-41.504,0.000
1709141647.987,-32.715,-56.641,-38.574,-37.598,0.000
1709141647.991,-33.203,-49.805,-38.574,-37.598,0.000
1709141647.995,-35.156,-48.340,-43.945,-33.691,0.000
1709141647.998,-35.156,-56.641,-43.457,-34.180,0.000
1709141648.002,-37.109,-47.852,-34.668,-36.621,0.000
1709141648.006,-41.016,-41.992,-35.645,-34.180,0.000
1709141648.010,-36.133,-36.621,-30.273,-35.645,0.000
1709141648.014,-35.156,-33.203,-30.273,-42.969,0.000
1709141648.018,-46.875,-43.457,-44.434,-35.645,0.000
1709141648.022,-48.828,-43.945,-28.320,-32.227,0.000
1709141648.026,-50.781,-34.180,-20.020,-44.922,0.000
1709141648.030,-50.293,-37.598,-30.762,-48.340,0.000
1709141648.034,-46.387,-44.922,-35.645,-42.480,0.000
1709141648.038,-34.668,-39.551,-31.738,-47.852,0.000
1709141648.042,-30.762,-39.551,-27.344,-49.316,0.000
1709141648.046,-44.922,-47.852,-37.109,-42.969,0.000
1709141648.050,-47.852,-41.016,-47.363,-40.527,0.000
1709141648.053,-41.992,-47.363,-41.016,-43.457,0.000
1709141648.057,-37.109,-54.688,-34.180,-51.758,0.000
1709141648.061,-42.480,-40.039,-48.340,-53.223,0.000
1709141648.065,-43.457,-38.574,-45.410,-45.410,0.000
1709141648.069,-40.527,-39.551,-38.086,-38.086,0.000
1709141648.073,-41.016,-40.527,-47.363,-40.527,0.000
1709141648.077,-33.691,-41.016,-49.316,-39.551,0.000
1709141648.081,-34.180,-39.551,-31.738,-40.039,0.000
1709141648.085,-38.574,-39.551,-35.645,-54.199,0.000
1709141648.088,-35.156,-38.086,-39.062,-52.246,0.000
1709141648.092,-38.574,-41.504,-37.109,-48.340,0.000
1709141648.096,-38.086,-44.434,-51.758,-44.922,0.000
1709141648.100,-40.527,-37.109,-45.410,-39.551,0.000
1709141648.104,-34.180,-33.691,-38.574,-49.316,0.000
1709141648.108,-33.691,-41.992,-31.250,-39.062,0.000
1709141648.112,-41.504,-40.039,-37.109,-21.973,0.000
1709141648.116,-31.738,-45.410,-44.434,-35.645,0.000
1709141648.120,-31.250,-53.711,-30.273,-41.992,0.000
1709141648.124,-31.250,-46.875,-22.461,-36.133,0.000
1709141648.127,-25.391,-51.758,-32.715,-31.738,0.000
1709141648.131,-30.762,-44.434,-39.062,-38.574,0.000
1709141648.135,-37.598,-37.109,-40.039,-40.039,0.000
1709141648.139,-41.504,-41.992,-38.086,-35.645,0.000
1709141648.143,-33.203,-35.156,-34.180,-37.598,0.000
1709141648.147,-29.785,-27.832,-43.457,-32.227,0.000
1709141648.150,-34.668,-36.133,-41.992,-33.203,0.000
1709141648.154,-30.273,-35.156,-32.227,-32.715,0.000
1709141648.158,-40.039,-40.039,-33.203,-44.922,0.000
1709141648.162,-48.340,-52.734,-34.668,-52.734,0.000
1709141648.166,-44.922,-47.363,-40.527,-44.434,0.000
1709141648.170,-46.875,-33.203,-37.598,-42.480,0.000
1709141648.173,-48.828,-30.762,-35.645,-46.387,0.000
1709141648.177,-45.898,-48.340,-38.086,-50.293,0.000
1709141648.181,-42.480,-52.734,-35.156,-42.969,0.000
1709141648.185,-31.738,-40.527,-42.969,-45.410,0.000
1709141648.189,-47.852,-39.551,-49.805,-42.480,0.000
1709141648.193,-61.035,-38.574,-42.969,-44.922,0.000
1709141648.197,-44.922,-38.574,-38.086,-45.410,0.000
1709141648.201,-34.180,-42.969,-31.250,-41.992,0.000
1709141648.204,-42.480,-40.039,-22.949,-45.410,0.000
1709141648.208,-47.852,-42.480,-30.762,-44.434,0.000
1709141648.212,-42.969,-44.922,-44.434,-41.992,0.000
1709141648.216,-44.922,-43.945,-40.527,-32.227,0.000
1709141648.219,-42.969,-45.898,-24.414,-31.738,0.000
1709141648.223,-43.945,-39.551,-16.113,-25.391,0.000
1709141648.227,-42.969,-37.109,-24.414,-27.344,0.000
1709141648.231,-42.480,-41.504,-40.527,-32.227,0.000
1709141648.235,-48.340,-42.969,-45.898,-38.086,0.000
1709141648.239,-46.875,-49.805,-32.715,-49.805,0.000
1709141648.243,-53.223,-48.340,-26.855,-35.645,0.000
1709141648.247,-62.500,-41.016,-41.504,-30.762,0.000
1709141648.250,-57.129,-42.969,-53.711,-46.387,0.000
1709141648.254,-47.363,-41.992,-43.457,-53.223,0.000
1709141648.258,-29.785,-44.922,-38.086,-43.945,0.000
1709141648.262,-43.457,-43.945,-42.969,-47.852,0.000
1709141648.265,-55.176,-44.434,-45.898,-48.828,0.000
1709141648.269,-48.340,-55.176,-54.688,-41.504,0.000
1709141648.273,-45.898,-51.270,-36.133,-44.434,0.000
1709141648.277,-38.086,-39.062,-24.902,-50.293,0.000
1709141648.281,-37.109,-39.062,-47.363,-56.641,0.000
1709141648.285,-41.504,-49.316,-47.852,-51.758,0.000
1709141648.289,-43.945,-49.316,-36.621,-43.945,0.000
1709141648.293,-40.039,-37.598,-28.320,-43.457,0.000
1709141648.296,-37.109,-32.715,-34.180,-45.898,0.000
1709141648.300,-41.016,-43.457,-41.992,-42.969,0.000
1709141648.304,-32.715,-55.176,-34.180,-43.457,0.000
1709141648.308,-32.227,-55.176,-34.180,-46.875,0.000
1709141648.314,-41.504,-43.945,-31.738,-52.734,0.000
1709141648.317,-38.574,-31.250,-32.227,-53.711,0.000
1709141648.321,-34.180,-26.367,-22.461,-42.969,0.000
1709141648.325,-31.250,-26.367,-25.879,-37.598,0.000
1709141648.329,-38.574,-35.156,-42.480,-40.527,0.000
1709141648.333,-16.602,-30.273,-38.574,-34.180,0.000
1709141648.337,-1.953,-24.902,-39.062,-49.805,0.000
1709141648.341,-31.250,-40.039,-41.016,-55.664,0.000
1709141648.345,-38.574,-39.062,-39.062,-43.457,0.000
1709141648.349,-36.621,-30.762,-31.250,-32.715,0.000
1709141648.353,-36.133,-37.109,-24.902,-28.320,0.000
1709141648.356,-33.203,-41.992,-27.344,-37.109,0.000
1709141648.361,-33.691,-42.480,-27.832,-34.668,0.000
1709141648.365,-35.645,-36.133,-22.949,-36.133,0.000
1709141648.369,-33.203,-32.715,-23.926,-37.109,0.000
1709141648.373,-33.691,-37.598,-31.738,-39.062,0.000
1709141648.377,-42.969,-47.852,-29.785,-41.016,0.000
1709141648.381,-42.480,-44.434,-34.180,-36.621,0.000
1709141648.385,-41.992,-30.762,-51.270,-40.527,0.000
1709141648.389,-41.992,-28.320,-49.316,-43.945,0.000
1709141648.393,-38.574,-32.227,-24.414,-37.598,0.000
1709141648.397,-43.945,-36.133,-18.555,-31.738,0.000
1709141648.400,-46.387,-36.133,-28.809,-43.457,0.000
1709141648.404,-37.109,-41.992,-31.250,-49.316,0.000
1709141648.408,-41.504,-43.945,-41.504,-42.480,0.000
1709141648.412,-48.340,-43.945,-42.969,-42.969,0.000
1709141648.416,-41.992,-49.316,-34.180,-45.410,0.000
1709141648.420,-31.738,-53.711,-40.527,-49.316,0.000
1709141648.424,-32.715,-46.387,-45.898,-49.316,0.000
1709141648.428,-49.805,-34.668,-41.504,-46.387,0.000
1709141648.432,-46.387,-30.273,-32.227,-54.688,0.000
1709141648.436,-38.574,-30.762,-33.203,-64.453,0.000
1709141648.440,-47.363,-42.969,-29.785,-57.617,0.000
1709141648.444,-50.293,-37.598,-23.438,-55.664,0.000
1709141648.448,-41.504,-32.227,-33.203,-61.035,0.000
1709141648.451,-30.273,-34.180,-38.086,-46.387,0.000
1709141648.455,-29.297,-34.668,-39.062,-44.922,0.000
1709141648.459,-40.527,-41.504,-45.898,-57.129,0.000
1709141648.463,-33.691,-40.039,-44.922,-57.129,0.000
1709141648.467,-37.598,-41.992,-38.574,-51.270,0.000
1709141648.471,-47.363,-42.480,-43.457,-47.363,0.000
1709141648.475,-39.062,-41.992,-40.527,-50.293,0.000
1709141648.479,-38.086,-35.645,-27.344,-52.734,0.000
1709141648.483,-39.062,-31.250,-22.461,-40.527,0.000
1709141648.487,-46.875,-39.551,-31.250,-33.691,0.000
1709141648.490,-41.016,-38.574,-40.039,-49.316,0.000
1709141648.494,-35.645,-39.551,-38.574,-53.223,0.000
1709141648.498,-37.598,-42.969,-32.715,-57.617,0.000
1709141648.502,-33.203,-36.133,-29.785,-54.688,0.000
1709141648.506,-29.297,-31.250,-35.645,-43.457,0.000
1709141648.510,-28.809,-39.062,-32.715,-36.133,0.000
1709141648.514,-31.738,-38.086,-26.855,-40.527,0.000
1709141648.517,-35.156,-38.574,-37.598,-46.875,0.000
1709141648.521,-39.062,-47.363,-40.039,-45.410,0.000
1709141648.525,-38.086,-41.016,-26.855,-44.922,0.000
1709141648.529,-38.574,-29.297,-29.785,-35.156,0.000
1709141648.533,-50.293,-34.180,-35.156,-30.273,0.000
1709141648.537,-55.664,-38.574,-28.809,-45.898,0.000
1709141648.541,-48.340,-31.738,-25.391,-59.570,0.000
1709141648.545,-25.879,-29.785,-29.785,-50.781,0.000
1709141648.548,-30.273,-33.691,-37.109,-37.598,0.000
1709141648.552,-47.852,-39.551,-46.875,-40.039,0.000
1709141648.556,-43.945,-39.551,-43.945,-41.504,0.000
1709141648.560,-36.133,-30.273,-39.062,-49.316,0.000
1709141648.564,-34.668,-37.109,-46.875,-49.805,0.000
1709141648.567,-38.086,-46.387,-39.551,-43.457,0.000
1709141648.571,-40.039,-43.945,-22.949,-41.504,0.000
1709141648.575,-42.480,-42.480,-22.949,-41.504,0.000
1709141648.579,-36.133,-35.645,-37.109,-51.758,0.000
1709141648.583,-33.691,-37.598,-46.387,-52.246,0.000
1709141648.587,-40.039,-43.457,-39.551,-44.922,0.000
1709141648.591,-34.668,-36.621,-40.527,-42.969,0.000
1709141648.594,-32.227,-36.133,-42.480,-37.598,0.000
1709141648.598,-33.203,-41.992,-40.039,-39.062,0.000
1709141648.602,-18.555,-39.062,-37.598,-46.387,0.000
1709141648.606,-21.484,-31.250,-30.762,-47.363,0.000
1709141648.610,-30.273,-31.250,-32.715,-47.363,0.000
1709141648.614,-26.855,-41.016,-37.598,-52.246,0.000
1709141648.617,-33.203,-46.875,-41.016,-33.691,0.000
1709141648.621,-35.645,-45.898,-41.016,-30.762,0.000
1709141648.625,-39.551,-43.457,-36.133,-42.969,0.000
1709141648.629,-43.457,-39.551,-30.273,-40.527,0.000
1709141648.633,-42.480,-36.621,-39.062,-38.574,0.000
1709141648.637,-48.340,-46.875,-39.062,-39.062,0.000
1709141648.640,-41.504,-45.898,-32.227,-42.969,0.000
1709141648.644,-38.574,-35.645,-30.273,-36.133,0.000
1709141648.648,-32.715,-40.527,-34.180,-31.738,0.000
1709141648.652,-29.785,-39.062,-41.504,-37.109,0.000
1709141648.656,-49.316,-36.133,-46.875,-46.875,0.000
1709141648.659,-47.852,-42.480,-30.762,-35.156,0.000
1709141648.663,-48.340,-45.898,-23.438,-25.879,0.000
1709141648.667,-44.434,-38.574,-34.180,-33.203,0.000
1709141648.671,-36.621,-37.598,-31.250,-33.691,0.000
1709141648.675,-47.363,-42.969,-29.297,-41.016,0.000
1709141648.679,-43.945,-33.691,-25.391,-47.363,0.000
1709141648.683,-38.574,-32.715,-19.531,-49.316,0.000
1709141648.688,-44.434,-46.387,-18.555,-49.316,0.000
1709141648.692,-41.992,-49.805,-24.902,-45.410,0.000
1709141648.696,-43.457,-44.922,-38.574,-50.781,0.000
1709141648.700,-35.645,-41.016,-42.969,-60.547,0.000
1709141648.704,-42.480,-38.574,-35.156,-64.453,0.000
1709141648.708,-51.758,-44.434,-32.715,-60.547,0.000
1709141648.712,-45.898,-41.992,-34.180,-57.129,0.000
1709141648.716,-54.199,-38.086,-36.621,-62.988,0.000
1709141648.719,-59.570,-42.969,-30.273,-62.012,0.000
1709141648.723,-51.758,-44.922,-24.414,-45.410,0.000
1709141648.727,-40.039,-33.691,-33.691,-35.645,0.000
1709141648.731,-39.551,-34.668,-43.457,-43.945,0.000
1709141648.736,-50.293,-45.898,-30.762,-49.805,0.000
1709141648.740,-42.969,-45.410,-23.926,-43.945,0.000
1709141648.744,-44.434,-46.387,-35.645,-43.945,0.000
1709141648.748,-50.293,-49.805,-46.387,-46.875,0.000
1709141648.752,-40.039,-41.016,-40.039,-46.387,0.000
1709141648.756,-32.715,-36.621,-30.273,-49.316,0.000
1709141648.759,-31.250,-43.457,-33.691,-49.316,0.000
1709141648.763,-51.270,-55.664,-38.086,-52.734,0.000
1709141648.767,-46.875,-54.199,-41.504,-47.363,0.000
1709141648.771,-36.621,-47.363,-46.875,-38.574,0.000
1709141648.775,-41.504,-41.504,-44.434,-53.711,0.000
1709141648.779,-41.992,-39.062,-41.016,-50.293,0.000
1709141648.783,-45.410,-43.945,-43.945,-41.016,0.000
1709141648.787,-51.270,-50.293,-43.945,-52.734,0.000
1709141648.791,-48.828,-40.039,-48.828,-54.688,0.000
1709141648.795,-41.016,-40.039,-41.016,-48.340,0.000
1709141648.799,-38.086,-43.945,-31.250,-44.434,0.000
1709141648.803,-39.551,-36.133,-34.180,-46.387,0.000
1709141648.807,-40.527,-43.457,-22.949,-48.340,0.000
1709141648.811,-44.434,-43.457,-22.949,-49.805,0.000
1709141648.814,-47.852,-39.062,-36.133,-46.875,0.000
1709141648.818,-46.875,-46.387,-42.969,-45.410,0.000
1709141648.822,-40.527,-54.688,-43.457,-55.176,0.000
1709141648.826,-38.086,-37.598,-34.180,-54.688,0.000
1709141648.830,-45.410,-29.785,-33.691,-56.641,0.000
1709141648.834,-42.969,-41.504,-39.062,-64.941,0.000
1709141648.838,-43.945,-39.551,-45.410,-58.594,0.000
1709141648.842,-45.898,-31.738,-46.387,-51.270,0.000
1709141648.846,-38.574,-35.156,-35.645,-41.992,0.000
1709141648.850,-42.480,-36.621,-29.785,-36.621,0.000
1709141648.854,-41.992,-37.109,-30.762,-38.574,0.000
1709141648.857,-29.297,-47.363,-37.598,-35.645,0.000
1709141648.861,-34.180,-44.434,-39.062,-31.250,0.000
1709141648.865,-47.852,-33.691,-20.996,-35.156,0.000
1709141648.869,-42.480,-37.109,-20.020,-26.367,0.000
1709141648.873,-34.180,-38.574,-40.527,-18.555,0.000
1709141648.877,-33.203,-35.645,-49.316,-22.461,0.000
1709141648.881,-22.461,-36.621,-41.504,-20.996,0.000
1709141648.885,-20.508,-31.250,-32.227,-16.602,0.000
1709141648.888,-30.273,-30.762,-37.109,-10.742,0.000
1709141648.892,-24.414,-32.227,-35.156,-7.324,0.000
1709141648.896,-30.273,-38.086,-25.879,-17.578,0.000
1709141648.900,-36.621,-43.457,-30.273,-27.832,0.000
1709141648.904,-33.691,-41.016,-39.551,-17.578,0.000
1709141648.908,-33.691,-45.410,-26.367,-17.090,0.000
1709141648.912,-43.945,-54.688,-28.809,-37.598,0.000
1709141648.916,-43.457,-44.922,-36.133,-40.527,0.000
1709141648.920,-45.410,-41.504,-25.391,-40.039,0.000
1709141648.923,-52.246,-46.875,-33.691,-44.922,0.000
1709141648.927,-45.410,-45.410,-51.270,-48.828,0.000
1709141648.931,-43.457,-52.734,-52.246,-55.664,0.000
1709141648.935,-45.898,-42.480,-37.109,-56.152,0.000
1709141648.939,-51.758,-37.598,-36.133,-58.105,0.000
1709141648.943,-52.734,-46.387,-42.969,-65.430,0.000
1709141648.947,-42.969,-37.109,-37.598,-62.012,0.000
1709141648.951,-50.293,-28.809,-43.945,-53.711,0.000
1709141648.955,-53.711,-37.598,-46.387,-60.059,0.000
1709141648.958,-49.316,-43.945,-37.598,-56.152,0.000
1709141648.962,-48.340,-33.203,-42.480,-48.828,0.000
1709141648.966,-40.527,-34.180,-37.109,-49.805,0.000
1709141648.969,-33.691,-41.504,-36.133,-53.711,0.000
1709141648.973,-25.391,-36.621,-47.363,-54.688,0.000
1709141648.977,-29.785,-32.715,-38.574,-39.551,0.000
1709141648.981,-31.250,-35.645,-35.645,-37.598,0.000
1709141648.985,-29.297,-36.133,-38.086,-41.016,0.000
1709141648.989,-25.391,-39.062,-28.809,-29.297,0.000
1709141648.993,-21.484,-35.156,-31.738,-22.949,0.000
1709141648.997,-32.715,-27.832,-26.855,-30.273,0.000
1709141649.000,-32.227,-29.297,-31.738,-40.527,0.000
1709141649.004,-36.133,-38.574,-49.316,-47.363,0.000
1709141649.008,-50.781,-50.293,-42.480,-41.504,0.000
1709141649.012,-40.039,-54.199,-31.250,-35.645,0.000
1709141649.015,-31.250,-37.598,-37.109,-31.250,0.000
1709141649.019,-34.180,-31.738,-39.062,-34.180,0.000
1709141649.023,-38.574,-38.086,-33.203,-49.805,0.000
1709141649.027,-44.922,-37.598,-35.156,-52.246,0.000
1709141649.031,-38.086,-34.180,-38.086,-52.734,0.000
1709141649.034,-32.715,-35.156,-37.109,-56.152,0.000
1709141649.038,-44.922,-48.828,-34.180,-47.363,0.000
1709141649.042,-47.852,-44.434,-37.109,-46.875,0.000
1709141649.046,-44.922,-31.250,-40.527,-50.781,0.000
1709141649.050,-38.086,-43.457,-46.875,-48.340,0.000
1709141649.054,-25.879,-49.316,-46.875,-54.688,0.000
1709141649.058,-37.598,-38.574,-32.715,-67.871,0.000
1709141649.063,-49.316,-34.668,-33.203,-59.570,0.000
1709141649.067,-42.480,-36.621,-41.016,-51.758,0.000
1709141649.071,-35.645,-37.109,-32.715,-51.758,0.000
1709141649.075,-37.109,-38.574,-28.809,-47.852,0.000
1709141649.079,-35.156,-36.133,-31.250,-39.551,0.000
1709141649.083,-38.086,-33.691,-35.645,-30.273,0.000
1709141649.087,-42.480,-33.203,-40.527,-38.574,0.000
1709141649.091,-37.109,-38.086,-37.598,-44.434,0.000
1709141649.095,-34.668,-48.828,-33.203,-40.039,0.000
1709141649.098,-41.016,-38.086,-34.668,-41.016,0.000
1709141649.102,-35.645,-41.016,-35.645,-45.898,0.000
1709141649.106,-31.738,-45.410,-36.133,-40.039,0.000
1709141649.111,-35.645,-25.391,-44.922,-36.621,0.000
1709141649.115,-24.902,-23.438,-44.922,-36.133,0.000
1709141649.119,-26.855,-31.738,-37.109,-37.598,0.000
1709141649.123,-37.598,-29.297,-34.180,-36.621,0.000
1709141649.127,-35.645,-36.621,-36.133,-28.809,0.000
1709141649.131,-33.203,-39.062,-37.598,-32.227,0.000
1709141649.135,-37.109,-40.527,-31.250,-41.016,0.000
1709141649.138,-40.527,-40.527,-35.156,-45.410,0.000
1709141649.142,-36.133,-27.832,-42.480,-39.551,0.000
1709141649.146,-34.180,-31.250,-34.668,-20.996,0.000
1709141649.150,-30.762,-40.527,-32.715,-31.250,0.000
1709141649.154,-29.785,-42.969,-30.762,-43.945,0.000
1709141649.158,-34.180,-34.180,-28.809,-44.434,0.000
1709141649.162,-32.715,-30.273,-34.668,-45.410,0.000
1709141649.166,-34.668,-37.598,-37.109,-47.363,0.000
1709141649.170,-34.668,-46.387,-37.598,-54.688,0.000
1709141649.174,-25.391,-40.039,-34.180,-48.828,0.000
1709141649.178,-20.020,-34.668,-31.738,-36.133,0.000
1709141649.182,-25.879,-41.992,-39.062,-37.109,0.000
1709141649.186,-24.414,-43.945,-39.062,-36.133,0.000
1709141649.190,-22.949,-47.363,-37.109,-24.414,0.000
1709141649.194,-20.996,-36.621,-43.457,-31.250,0.000
1709141649.197,-19.531,-28.320,-36.133,-37.598,0.000
1709141649.201,-45.410,-29.297,-15.625,-37.598,0.000
1709141649.205,-51.270,-30.273,-17.090,-41.992,0.000
1709141649.209,-45.410,-38.574,-24.414,-39.551,0.000
1709141649.213,-39.551,-29.785,-28.809,-33.691,0.000
1709141649.217,-31.250,-30.762,-29.297,-29.785,0.000
1709141649.221,-30.273,-38.086,-20.508,-37.598,0.000
1709141649.225,-31.250,-39.551,-26.367,-37.598,0.000
1709141649.229,-29.297,-41.504,-38.086,-26.855,0.000
1709141649.233,-28.809,-39.062,-30.273,-25.391,0.000
1709141649.237,-35.645,-34.180,-25.391,-25.391,0.000
1709141649.240,-34.668,-40.039,-33.203,-34.668,0.000
1709141649.244,-30.273,-45.898,-29.297,-41.504,0.000
1709141649.248,-39.551,-33.203,-38.574,-50.293,0.000
1709141649.252,-35.156,-20.020,-49.316,-52.734,0.000
1709141649.256,-20.020,-20.020,-38.574,-46.875,0.000
1709141649.260,-27.832,-33.203,-28.809,-45.410,0.000
1709141649.263,-33.203,-34.668,-23.926,-39.551,0.000
1709141649.267,-25.879,-28.320,-27.344,-30.762,0.000
1709141649.271,-22.949,-28.809,-25.879,-32.227,0.000
1709141649.275,-23.926,-38.574,-29.297,-36.621,0.000
1709141649.279,-29.785,-41.016,-33.203,-24.902,0.000
1709141649.283,-36.133,-32.227,-29.785,-22.949,0.000
1709141649.287,-35.156,-44.434,-34.668,-35.645,0.000
1709141649.291,-31.738,-49.805,-52.734,-39.062,0.000
1709141649.295,-28.320,-37.598,-56.152,-38.086,0.000
1709141649.298,-29.785,-36.133,-41.504,-41.992,0.000
1709141649.302,-31.738,-35.645,-35.156,-41.992,0.000
1709141649.306,-42.480,-41.016,-40.527,-45.410,0.000
1709141649.310,-50.781,-48.340,-30.273,-47.363,0.000
1709141649.314,-47.363,-46.387,-15.625,-42.480,0.000
1709141649.317,-44.922,-43.457,-24.414,-46.387,0.000
1709141649.321,-38.574,-48.340,-28.320,-41.992,0.000
1709141649.325,-44.434,-57.129,-35.645,-30.273,0.000
1709141649.329,-41.504,-45.898,-41.992,-36.133,0.000
1709141649.333,-32.715,-40.527,-44.922,-40.527,0.000
1709141649.337,-43.945,-43.457,-49.316,-40.527,0.000
1709141649.341,-38.086,-45.410,-40.527,-41.016,0.000
1709141649.344,-37.109,-44.922,-38.086,-33.691,0.000
1709141649.348,-40.039,-37.598,-33.203,-37.109,0.000
1709141649.352,-33.203,-38.574,-27.344,-44.922,0.000
1709141649.356,-41.992,-47.852,-33.691,-54.688,0.000
1709141649.360,-46.387,-47.363,-34.668,-64.453,0.000
1709141649.364,-46.875,-45.410,-39.551,-69.336,0.000
1709141649.367,-50.781,-43.457,-52.246,-58.105,0.000
1709141649.371,-49.316,-37.598,-52.246,-47.852,0.000
1709141649.375,-43.945,-28.809,-44.922,-56.641,0.000
1709141649.379,-42.480,-24.414,-57.129,-64.453,0.000
1709141649.383,-52.246,-40.039,-66.406,-71.777,0.000
1709141649.387,-43.457,-44.434,-40.527,-63.477,0.000
1709141649.390,-26.367,-34.668,-27.832,-52.246,0.000
1709141649.394,-21.484,-39.551,-38.086,-55.664,0.000
1709141649.398,-29.297,-42.480,-43.457,-54.688,0.000
1709141649.402,-46.387,-41.016,-38.086,-52.246,0.000
1709141649.405,-37.598,-44.922,-44.922,-50.293,0.000
1709141649.409,-30.762,-44.434,-65.430,-44.922,0.000
1709141649.413,-52.734,-38.574,-46.387,-44.434,0.000
1709141649.417,-58.105,-32.715,-28.809,-51.758,0.000
1709141649.421,-50.293,-31.250,-37.109,-54.688,0.000
1709141649.425,-46.875,-40.039,-39.551,-50.781,0.000
1709141649.429,-41.992,-43.945,-43.945,-49.316,0.000
1709141649.433,-40.039,-39.551,-43.945,-49.316,0.000
1709141649.438,-40.039,-46.387,-40.039,-47.852,0.000
1709141649.442,-38.086,-44.434,-35.645,-33.691,0.000
1709141649.446,-37.109,-38.086,-40.527,-37.598,0.000
1709141649.450,-39.551,-34.180,-47.852,-42.969,0.000
1709141649.454,-41.016,-37.109,-55.176,-35.645,0.000
1709141649.458,-34.668,-44.922,-48.340,-42.969,0.000
1709141649.462,-38.086,-55.176,-34.180,-46.875,0.000
1709141649.466,-43.457,-62.012,-27.832,-43.457,0.000
1709141649.469,-46.387,-59.082,-23.438,-42.969,0.000
1709141649.473,-52.734,-58.105,-40.039,-42.480,0.000
1709141649.477,-42.969,-38.574,-50.293,-43.457,0.000
1709141649.481,-32.227,-20.020,-43.457,-43.457,0.000
1709141649.486,-43.457,-36.621,-35.156,-48.340,0.000
1709141649.490,-46.875,-43.945,-38.574,-55.664,0.000
1709141649.494,-39.551,-35.645,-47.363,-53.223,0.000
1709141649.498,-36.621,-44.434,-43.457,-55.176,0.000
1709141649.502,-36.133,-48.340,-30.762,-53.711,0.000
1709141649.505,-28.320,-36.133,-19.531,-41.504,0.000
1709141649.509,-27.832,-33.203,-27.344,-36.133,0.000
1709141649.513,-25.391,-33.203,-47.363,-37.109,0.000
1709141649.517,-21.973,-30.273,-44.434,-34.668,0.000
1709141649.521,-27.832,-32.227,-28.809,-33.691,0.000
1709141649.525,-30.762,-28.809,-26.855,-36.133,0.000
1709141649.529,-32.227,-33.203,-35.156,-38.086,0.000
1709141649.533,-27.344,-41.016,-36.621,-38.086,0.000
1709141649.537,-25.879,-37.109,-32.227,-37.598,0.000
1709141649.541,-26.367,-31.250,-35.156,-40.039,0.000
1709141649.545,-29.297,-31.738,-37.109,-39.062,0.000
1709141649.549,-31.738,-38.086,-30.273,-37.598,0.000
1709141649.553,-31.738,-29.785,-28.809,-38.086,0.000
1709141649.557,-50.781,-21.973,-26.367,-41.992,0.000
1709141649.561,-54.688,-24.414,-28.809,-42.969,0.000
1709141649.564,-42.969,-32.227,-38.086,-37.598,0.000
1709141649.568,-42.969,-31.738,-35.645,-36.621,0.000
1709141649.572,-42.969,-25.879,-46.875,-34.668,0.000
1709141649.576,-39.062,-36.133,-48.340,-39.062,0.000
1709141649.580,-45.410,-43.945,-25.879,-48.828,0.000
1709141649.584,-52.246,-34.180,-27.832,-50.293,0.000
1709141649.588,-49.805,-31.738,-40.527,-42.480,0.000
1709141649.592,-45.410,-44.434,-36.133,-40.039,0.000
1709141649.596,-47.852,-41.504,-38.086,-40.527,0.000
1709141649.600,-52.246,-40.039,-40.039,-43.945,0.000
1709141649.604,-45.410,-37.598,-27.344,-49.805,0.000
1709141649.607,-41.016,-29.297,-36.621,-38.086,0.000
1709141649.611,-50.781,-42.969,-42.969,-22.949,0.000
1709141649.615,-38.086,-38.086,-26.855,-29.297,0.000
1709141649.619,-26.855,-28.809,-24.902,-26.367,0.000
1709141649.623,-42.969,-40.527,-28.809,-20.020,0.000
1709141649.627,-36.621,-41.992,-29.785,-23.438,0.000
1709141649.631,-30.273,-32.227,-35.645,-30.762,0.000
1709141649.634,-38.086,-27.832,-37.598,-38.086,0.000
1709141649.638,-35.645,-32.227,-36.133,-32.227,0.000
1709141649.642,-41.992,-34.180,-33.691,-33.691,0.000
1709141649.646,-42.480,-36.621,-32.227,-34.180,0.000
1709141649.650,-31.738,-43.457,-36.621,-32.715,0.000
1709141649.654,-31.250,-35.156,-36.133,-31.250,0.000
1709141649.658,-27.344,-26.367,-35.156,-33.691,0.000
1709141649.662,-26.855,-36.133,-33.691,-41.016,0.000
1709141649.666,-41.992,-40.039,-35.645,-36.133,0.000
1709141649.670,-41.992,-24.902,-43.945,-31.738,0.000
1709141649.673,-34.668,-21.484,-42.480,-35.645,0.000
1709141649.677,-40.527,-26.367,-35.156,-50.293,0.000
1709141649.681,-42.969,-36.621,-29.297,-58.594,0.000
1709141649.685,-30.762,-40.039,-37.109,-55.176,0.000
1709141649.689,-35.156,-34.668,-43.945,-44.922,0.000
1709141649.692,-44.922,-38.086,-40.527,-40.527,0.000
1709141649.696,-37.109,-40.527,-30.273,-39.062,0.000
1709141649.700,-29.297,-39.062,-28.320,-29.785,0.000
1709141649.704,-28.809,-40.527,-35.645,-35.156,0.000
1709141649.708,-29.297,-36.133,-30.273,-37.109,0.000
1709141649.712,-18.066,-39.551,-28.320,-31.250,0.000
1709141649.716,-28.320,-43.945,-31.250,-37.109,0.000
1709141649.719,-40.039,-38.574,-23.438,-45.898,0.000
1709141649.723,-35.156,-34.180,-29.785,-50.781,0.000
1709141649.727,-44.922,-33.203,-46.875,-44.922,0.000
1709141649.731,-45.898,-32.227,-45.410,-38.086,0.000
1709141649.735,-45.410,-46.875,-33.203,-45.898,0.000
1709141649.738,-49.316,-54.688,-31.738,-43.457,0.000
1709141649.742,-51.270,-37.109,-35.645,-36.621,0.000
1709141649.746,-44.434,-29.297,-41.992,-32.715,0.000
1709141649.750,-41.992,-38.574,-33.691,-35.156,0.000
1709141649.754,-46.875,-45.898,-32.715,-42.969,0.000
1709141649.758,-50.781,-43.945,-39.062,-48.828,0.000
1709141649.762,-47.363,-40.039,-36.621,-53.711,0.000
1709141649.765,-40.527,-30.762,-46.387,-48.828,0.000
1709141649.769,-36.621,-22.949,-43.945,-52.246,0.000
1709141649.773,-34.180,-20.508,-39.062,-62.500,0.000
1709141649.777,-44.922,-16.113,-42.480,-58.594,0.000
1709141649.780,-41.992,-22.461,-34.668,-48.340,0.000
1709141649.784,-30.762,-34.668,-25.879,-39.062,0.000
1709141649.788,-31.250,-29.297,-29.785,-39.551,0.000
1709141649.792,-27.832,-25.391,-23.438,-42.480,0.000
1709141649.796,-30.762,-28.809,-26.367,-48.340,0.000
1709141649.800,-37.109,-33.691,-38.574,-44.434,0.000
1709141649.804,-28.320,-38.574,-28.320,-29.785,0.000
1709141649.808,-19.043,-34.668,-30.273,-32.715,0.000
1709141649.813,-17.090,-48.828,-40.527,-35.645,0.000
1709141649.817,-16.602,-56.641,-31.250,-35.645,0.000
1709141649.821,-27.344,-47.363,-27.832,-36.621,0.000
1709141649.825,-37.598,-45.410,-35.645,-37.598,0.000
1709141649.829,-30.762,-33.691,-38.086,-34.668,0.000
1709141649.833,-24.902,-32.715,-41.504,-36.133,0.000
1709141649.837,-22.461,-40.039,-45.410,-30.273,0.000
1709141649.841,-25.391,-33.203,-50.293,-33.691,0.000
1709141649.845,-23.926,-38.086,-46.387,-36.133,0.000
1709141649.848,-18.555,-39.062,-36.133,-19.531,0.000
1709141649.852,-35.156,-34.668,-40.527,-17.578,0.000
1709141649.856,-25.879,-33.691,-42.969,-16.602,0.000
1709141649.861,-20.020,-42.969,-39.062,-15.137,0.000
1709141649.865,-31.250,-39.551,-32.715,-23.438,0.000
1709141649.869,-37.109,-20.996,-34.180,-29.297,0.000
1709141649.873,-41.504,-21.973,-34.180,-37.598,0.000
1709141649.877,-32.715,-33.691,-35.645,-45.410,0.000
1709141649.881,-28.809,-38.086,-43.945,-39.551,0.000
1709141649.884,-32.227,-38.574,-46.875,-36.621,0.000
1709141649.888,-36.133,-42.480,-45.898,-41.992,0.000
1709141649.892,-36.621,-44.434,-36.621,-37.109,0.000
1709141649.896,-33.691,-36.621,-40.527,-34.668,0.000
1709141649.900,-37.109,-26.367,-41.992,-46.875,0.000
1709141649.904,-35.156,-31.250,-41.016,-44.434,0.000
1709141649.908,-35.645,-41.016,-32.715,-34.180,0.000
1709141649.912,-47.852,-40.527,-23.438,-35.156,0.000
1709141649.916,-46.875,-32.715,-37.109,-54.199,0.000
1709141649.920,-44.922,-40.039,-46.387,-55.176,0.000
1709141649.924,-45.898,-46.875,-33.691,-50.293,0.000
1709141649.928,-50.781,-35.156,-18.555,-49.316,0.000
1709141649.932,-50.293,-33.203,-40.527,-48.340,0.000
1709141649.936,-44.922,-39.062,-48.828,-56.641,0.000
1709141649.939,-41.016,-49.316,-34.668,-51.758,0.000
1709141649.943,-46.387,-51.270,-39.551,-52.246,0.000
1709141649.947,-57.617,-38.086,-41.992,-57.617,0.000
1709141649.951,-52.246,-37.109,-42.480,-45.410,0.000
1709141649.956,0.000,-37.598,-47.363,-45.898,0.000
1709141649.959,0.000,-32.227,-38.086,-50.293,0.000
1709141649.963,0.000,-35.645,-30.762,-48.828,0.000
1709141649.967,0.000,-34.180,-30.762,-43.457,0.000
1709141649.971,0.000,-29.785,-29.785,-42.480,0.000
1709141649.975,0.000,-33.203,-29.785,-52.734,0.000
1709141649.979,0.000,-37.109,-30.273,-50.781,0.000
1709141649.983,0.000,-45.898,-30.273,-38.574,0.000
1709141649.987,0.000,-40.527,-37.598,-33.203,0.000
1709141649.991,0.000,-23.926,-43.945,-31.738,0.000
1709141649.995,0.000,-23.926,-41.016,-28.320,0.000
1709141649.999,0.000,-31.738,-26.367,-31.738,0.000
1709141650.002,-43.945,-30.762,-24.414,-38.574,0.000
1709141650.006,-35.645,-26.855,-40.039,-36.621,0.000
1709141650.010,-37.598,-34.180,-30.273,-31.738,0.000
1709141650.014,-38.086,-40.039,-19.043,-45.410,0.000
1709141650.018,-44.434,-31.250,-25.879,-56.152,0.000
1709141650.021,-62.500,-26.855,-27.832,-62.500,0.000
1709141650.025,-63.965,-32.227,-37.598,-59.082,0.000
1709141650.029,-56.152,-35.645,-36.133,-44.922,0.000
1709141650.033,-53.223,-37.598,-26.367,-45.898,0.000
1709141650.037,-36.621,-34.668,-40.039,-53.223,0.000
1709141650.041,-31.738,-40.039,-32.715,-50.293,0.000
1709141650.045,-46.387,-50.293,-23.926,-48.340,0.000
1709141650.048,-47.852,-38.574,-40.039,-43.945,0.000
1709141650.052,-51.758,-27.832,-40.039,-44.434,0.000
1709141650.056,-52.246,-21.484,-36.133,-45.410,0.000
1709141650.060,-50.293,-23.926,-35.156,-47.852,0.000
1709141650.064,-47.363,-44.922,-40.039,-56.641,0.000
1709141650.068,-38.574,-46.387,-41.504,-59.082,0.000
1709141650.072,-33.691,-44.434,-35.645,-56.152,0.000
1709141650.075,-39.551,-49.805,-41.992,-53.711,0.000
1709141650.079,-43.945,-35.645,-42.480,-62.500,0.000
1709141650.083,-40.039,-32.715,-38.086,-52.734,0.000
1709141650.087,-35.645,-44.922,-50.293,-41.016,0.000
1709141650.091,-33.691,-36.621,-48.828,-55.664,0.000
1709141650.094,-32.715,-36.133,-36.133,-49.805,0.000
1709141650.098,-29.785,-45.410,-34.668,-45.898,0.000
1709141650.102,-19.043,-43.945,-35.645,-45.898,0.000
1709141650.106,-20.020,-34.180,-30.762,-28.320,0.000
1709141650.110,-31.738,-33.691,-23.438,-24.414,0.000
1709141650.114,-25.391,-42.969,-33.203,-33.691,0.000
1709141650.118,-17.578,-31.738,-48.340,-33.203,0.000
1709141650.122,-13.672,-27.832,-38.086,-25.391,0.000
1709141650.126,-14.160,-33.203,-31.738,-21.973,0.000
1709141650.129,-20.020,-37.598,-34.668,-24.902,0.000
1709141650.133,-20.020,-41.992,-36.133,-32.715,0.000
1709141650.137,-28.320,-35.156,-41.016,-40.527,0.000
1709141650.140,-37.109,-25.391,-43.457,-51.270,0.000
1709141650.144,-41.016,-35.645,-46.387,-48.828,0.000
1709141650.148,-44.434,-39.551,-43.457,-44.922,0.000
1709141650.152,-34.180,-35.156,-37.598,-46.387,0.000
1709141650.156,-26.367,-39.062,-38.574,-47.363,0.000
1709141650.160,-30.762,-42.480,-41.504,-39.062,0.000
1709141650.164,-37.598,-40.039,-23.926,-25.879,0.000
1709141650.167,-39.062,-35.156,-23.926,-32.227,0.000
1709141650.171,-32.715,-29.297,-47.852,-36.133,0.000
1709141650.175,-28.320,-31.250,-46.875,-40.039,0.000
1709141650.179,-25.391,-41.504,-45.898,-47.852,0.000
1709141650.183,-24.414,-41.504,-49.805,-44.434,0.000
1709141650.188,-19.531,-29.785,-32.715,-31.250,0.000
1709141650.192,-18.555,-24.902,-38.086,-32.715,0.000
1709141650.196,-27.832,-26.855,-47.363,-35.645,0.000
1709141650.200,-31.738,-30.273,-31.738,-46.387,0.000
1709141650.204,-36.133,-31.738,-34.668,-50.293,0.000
1709141650.208,-33.691,-39.551,-41.992,-41.992,0.000
1709141650.212,-33.203,-42.969,-43.457,-52.734,0.000
1709141650.216,-32.227,-35.645,-49.805,-56.641,0.000
1709141650.220,-34.668,-41.016,-34.668,-50.781,0.000
1709141650.224,-39.551,-35.645,-25.391,-37.598,0.000
1709141650.228,-36.133,-33.203,-36.133,-38.086,0.000
1709141650.231,-26.855,-30.762,-39.062,-44.922,0.000
1709141650.236,-29.785,-28.809,-30.762,-46.387,0.000
1709141650.240,-33.691,-31.738,-33.691,-35.645,0.000
1709141650.244,-32.715,-37.109,-35.156,-29.785,0.000
1709141650.248,-37.598,-44.434,-26.855,-28.809,0.000
1709141650.252,-40.039,-40.527,-29.297,-24.414,0.000
1709141650.256,-33.203,-34.668,-34.180,-27.344,0.000
1709141650.260,-21.484,-31.738,-43.945,-28.320,0.000
1709141650.263,-31.738,-26.855,-40.527,-31.738,0.000
1709141650.267,-43.945,-34.668,-26.855,-34.180,0.000
1709141650.271,-32.715,-39.062,-28.320,-23.438,0.000
1709141650.275,-39.551,-25.391,-28.809,-35.156,0.000
1709141650.279,-49.805,-26.367,-26.855,-47.363,0.000
1709141650.284,0.000,-34.180,-21.484,-49.316,0.000
1709141650.287,0.000,-36.133,-29.297,-48.340,0.000
1709141650.291,0.000,-34.180,-38.574,-49.805,0.000
1709141650.295,0.000,-39.062,-42.480,-51.270,0.000
1709141650.299,0.000,-43.457,-47.363,-53.711,0.000
1709141650.303,0.000,-34.668,-39.062,-57.129,0.000
1709141650.307,0.000,-35.156,-30.762,-58.105,0.000
1709141650.311,0.000,-39.551,-38.086,-62.988,0.000
1709141650.315,0.000,-39.062,-49.316,-45.410,0.000
1709141650.319,0.000,-35.645,-40.039,-38.086,0.000
1709141650.323,0.000,-35.645,-31.250,-46.387,0.000
1709141650.327,0.000,-45.410,-29.785,-50.781,0.000
1709141650.330,-42.480,-40.527,-28.809,-42.969,0.000
1709141650.334,-39.551,-41.992,-28.809,-40.527,0.000
1709141650.338,-43.945,-41.504,-34.668,-45.410,0.000
1709141650.342,-57.617,-26.855,-43.457,-48.828,0.000
1709141650.346,-56.641,-38.574,-35.156,-57.617,0.000
1709141650.350,-46.387,-46.387,-34.180,-59.082,0.000
1709141650.354,-42.480,-32.227,-39.551,-60.547,0.000
1709141650.358,-41.504,-34.180,-31.738,-50.781,0.000
1709141650.362,-40.527,-39.062,-43.457,-34.668,0.000
1709141650.366,-38.086,-33.691,-37.598,-40.527,0.000
1709141650.369,-41.504,-30.762,-24.902,-41.016,0.000
1709141650.373,-38.086,-36.621,-33.691,-41.504,0.000
1709141650.377,-33.203,-40.527,-34.668,-41.504,0.000
1709141650.381,-34.180,-31.250,-31.738,-31.738,0.000
1709141650.385,-34.180,-31.250,-26.855,-32.227,0.000
1709141650.389,-36.621,-33.691,-27.832,-36.621,0.000
1709141650.393,-36.133,-32.715,-29.297,-40.527,0.000
1709141650.396,-35.645,-37.598,-28.320,-44.434,0.000
1709141650.400,-43.457,-33.691,-30.273,-50.293,0.000
1709141650.404,-46.875,-35.156,-38.574,-45.410,0.000
1709141650.408,-47.363,-40.039,-50.781,-42.480,0.000
1709141650.412,-48.340,-42.480,-56.152,-48.828,0.000
1709141650.416,-41.504,-49.805,-45.410,-48.340,0.000
1709141650.420,-29.297,-42.969,-42.480,-56.152,0.000
1709141650.423,-21.973,-34.668,-37.598,-53.711,0.000
1709141650.427,-26.367,-33.203,-29.785,-35.156,0.000
1709141650.431,-25.879,-30.273,-31.738,-30.762,0.000
1709141650.435,-20.020,-30.273,-39.551,-34.668,0.000
1709141650.439,-23.438,-29.297,-39.551,-35.645,0.000
1709141650.443,-30.762,-29.785,-24.902,-37.109,0.000
1709141650.447,-33.691,-33.203,-26.855,-40.039,0.000
1709141650.450,-40.527,-36.621,-40.527,-38.086,0.000
1709141650.454,-48.340,-43.457,-46.875,-47.852,0.000
1709141650.458,-47.363,-47.363,-32.715,-44.922,0.000
1709141650.462,-48.828,-37.109,-27.832,-37.598,0.000
1709141650.466,-47.852,-37.109,-37.598,-49.805,0.000
1709141650.469,-41.504,-31.250,-33.691,-49.316,0.000
1709141650.473,-41.992,-29.297,-29.297,-45.410,0.000
1709141650.477,-41.016,-33.691,-27.344,-41.504,0.000
1709141650.481,-41.992,-31.738,-23.926,-39.062,0.000
1709141650.485,-38.574,-34.180,-24.902,-39.551,0.000
1709141650.489,-37.109,-31.250,-28.809,-39.551,0.000
1709141650.493,-41.016,-34.180,-35.645,-38.086,0.000
1709141650.496,-35.645,-35.645,-40.039,-41.016,0.000
1709141650.500,-42.480,-29.785,-35.156,-46.387,0.000
1709141650.504,-38.086,-30.762,-31.250,-38.574,0.000
1709141650.508,-33.203,-39.551,-36.133,-27.832,0.000
1709141650.512,-35.156,-42.480,-43.457,-42.969,0.000
1709141650.518,-30.762,-37.598,-45.898,-54.199,0.000
1709141650.522,-39.062,-42.969,-25.879,-44.434,0.000
1709141650.526,-46.387,-44.922,-16.113,-45.410,0.000
1709141650.529,-41.504,-28.809,-21.973,-37.598,0.000
1709141650.533,-40.039,-28.809,-30.273,-42.480,0.000
1709141650.537,-40.527,-37.109,-39.062,-38.574,0.000
1709141650.541,-40.527,-34.180,-41.016,-33.203,0.000
1709141650.545,-42.969,-26.855,-36.133,-39.062,0.000
1709141650.549,-32.715,-28.809,-33.203,-31.250,0.000
1709141650.553,-34.180,-29.785,-38.574,-33.203,0.000
1709141650.557,-40.527,-20.020,-32.715,-40.039,0.000
1709141650.561,-41.504,-20.508,-25.391,-37.598,0.000
1709141650.566,-41.504,-32.715,-35.645,-42.480,0.000
1709141650.570,-39.062,-37.109,-39.551,-39.551,0.000
1709141650.573,-35.645,-30.762,-19.531,-28.809,0.000
1709141650.577,-36.621,-33.691,-19.043,-36.133,0.000
1709141650.581,-39.551,-36.621,-28.809,-42.480,0.000
1709141650.585,-34.180,-34.668,-28.809,-29.297,0.000
1709141650.589,-34.180,-39.062,-31.738,-28.809,0.000
1709141650.593,-32.715,-43.457,-28.320,-32.227,0.000
1709141650.597,-29.785,-40.527,-32.227,-33.203,0.000
1709141650.601,-28.320,-33.691,-22.949,-38.574,0.000
1709141650.605,-33.203,-33.691,-17.090,-47.363,0.000
1709141650.609,-39.062,-34.668,-30.273,-49.805,0.000
1709141650.613,-35.645,-38.086,-27.832,-44.434,0.000
1709141650.617,-34.668,-51.758,-42.480,-43.945,0.000
1709141650.621,-27.344,-52.734,-53.711,-47.363,0.000
1709141650.625,-31.250,-29.785,-34.668,-55.664,0.000
1709141650.629,-49.316,-28.320,-31.250,-54.688,0.000
1709141650.633,-54.688,-40.039,-32.227,-50.293,0.000
1709141650.636,-55.176,-39.062,-33.691,-54.688,0.000
1709141650.640,-46.875,-31.738,-40.527,-58.594,0.000
1709141650.644,-35.645,-37.109,-34.180,-46.875,0.000
1709141650.648,-46.875,-51.758,-22.949,-40.527,0.000
1709141650.652,-60.547,-47.852,-26.367,-53.711,0.000
1709141650.656,-59.082,-43.945,-34.180,-58.105,0.000
1709141650.662,-60.547,-44.922,-36.621,-62.988,0.000
1709141650.666,-60.547,-45.410,-43.457,-65.430,0.000
1709141650.670,-58.594,-35.645,-48.340,-56.641,0.000
1709141650.674,-47.852,-37.109,-40.527,-51.270,0.000
1709141650.678,-36.621,-51.758,-32.715,-52.246,0.000
1709141650.682,-35.645,-33.691,-37.109,-42.480,0.000
1709141650.686,-44.922,-29.785,-48.828,-35.645,0.000
1709141650.690,-47.852,-41.992,-39.062,-32.227,0.000
1709141650.694,-41.016,-41.992,-30.762,-20.508,0.000
1709141650.698,-41.992,-34.180,-34.180,-31.250,0.000
1709141650.702,-38.574,-31.738,-28.809,-44.434,0.000
1709141650.705,-24.414,-37.109,-35.645,-42.480,0.000
1709141650.709,-26.855,-33.203,-43.457,-37.109,0.000
1709141650.713,-38.574,-34.668,-30.273,-34.180,0.000
1709141650.717,-29.297,-46.875,-29.785,-40.039,0.000
1709141650.721,-23.926,-40.039,-44.434,-41.016,0.000
1709141650.725,-29.297,-33.691,-31.738,-32.715,0.000
1709141650.728,-37.109,-45.898,-26.367,-28.809,0.000
1709141650.732,-41.504,-44.922,-33.203,-41.992,0.000
1709141650.736,-47.852,-43.945,-28.320,-51.270,0.000
1709141650.740,-49.316,-42.969,-27.832,-48.828,0.000
1709141650.744,-52.246,-38.574,-29.785,-56.152,0.000
1709141650.748,-54.199,-36.621,-29.297,-60.547,0.000
1709141650.752,-50.293,-34.668,-38.574,-42.480,0.000
1709141650.755,-47.363,-44.434,-41.504,-31.738,0.000
1709141650.759,-45.410,-48.340,-34.180,-44.922,0.000
1709141650.763,-41.992,-44.434,-41.016,-52.246,0.000
1709141650.766,-47.852,-43.945,-56.152,-55.664,0.000
1709141650.770,-57.129,-45.898,-62.012,-58.105,0.000
1709141650.774,-53.223,-54.688,-46.875,-59.082,0.000
1709141650.778,-52.246,-50.781,-28.809,-65.430,0.000
1709141650.782,-54.199,-42.969,-29.297,-56.641,0.000
1709141650.786,-42.969,-38.086,-29.785,-51.270,0.000
1709141650.790,-42.969,-29.785,-29.297,-54.688,0.000
1709141650.794,-56.641,-30.273,-34.668,-50.781,0.000
1709141650.798,-50.781,-39.551,-41.504,-49.805,0.000
1709141650.800,-48.828,-36.133,-40.039,-51.758,0.000
1709141650.804,-53.223,-29.785,-33.691,-52.734,0.000
1709141650.808,-45.410,-32.227,-35.645,-49.316,0.000
1709141650.812,-45.410,-39.551,-40.039,-49.805,0.000
1709141650.816,-51.758,-40.039,-55.176,-50.781,0.000
1709141650.820,-47.852,-42.480,-62.012,-53.711,0.000
1709141650.824,-42.480,-51.270,-36.133,-42.480,0.000
1709141650.828,-45.898,-41.016,-23.438,-30.273,0.000
1709141650.832,-42.969,-24.902,-23.926,-42.480,0.000
1709141650.836,-48.340,-32.227,-24.902,-48.828,0.000
1709141650.839,-53.223,-50.781,-38.574,-51.270,0.000
1709141650.843,-45.410,-47.363,-35.156,-52.246,0.000
1709141650.846,-45.898,-33.203,-36.133,-44.434,0.000
1709141650.850,-41.504,-35.156,-41.504,-33.691,0.000
1709141650.854,-31.738,-47.852,-41.992,-39.062,0.000
1709141650.858,-32.715,-40.527,-48.340,-46.875,0.000
1709141650.862,-42.480,-35.645,-42.480,-52.246,0.000
1709141650.865,-46.387,-38.086,-27.344,-54.688,0.000
1709141650.869,-41.992,-30.273,-28.320,-39.551,0.000
1709141650.873,-38.086,-36.621,-31.738,-31.738,0.000
1709141650.877,-26.367,-40.039,-34.668,-46.875,0.000
1709141650.881,-36.133,-38.086,-37.109,-45.898,0.000
1709141650.885,-47.852,-39.551,-38.574,-39.062,0.000
1709141650.889,-42.480,-39.551,-45.410,-35.645,0.000
1709141650.891,-29.785,-50.781,-49.805,-31.250,0.000
1709141650.895,-22.461,-49.805,-46.387,-41.016,0.000
1709141650.899,-29.297,-34.180,-39.062,-46.387,0.000
1709141650.903,-29.785,-30.273,-35.645,-45.898,0.000
1709141650.907,-30.273,-31.738,-45.898,-41.016,0.000
1709141650.911,-32.227,-39.062,-49.316,-40.527,0.000
1709141650.915,-31.738,-45.898,-34.668,-45.410,0.000
1709141650.919,-36.133,-41.016,-41.016,-51.758,0.000
1709141650.923,-33.691,-39.551,-44.922,-46.875,0.000
1709141650.926,-32.227,-43.945,-40.527,-33.203,0.000
1709141650.930,-34.668,-47.852,-40.527,-30.273,0.000
1709141650.934,-30.273,-51.758,-36.133,-30.762,0.000
1709141650.939,-23.926,-37.109,-26.855,-29.785,0.000
1709141650.943,-30.273,-20.020,-21.484,-32.227,0.000
1709141650.947,-30.762,-26.367,-28.320,-34.668,0.000
1709141650.951,-26.855,-36.621,-28.809,-38.574,0.000
1709141650.955,-23.926,-34.668,-35.156,-35.156,0.000
1709141650.959,-19.043,-35.645,-35.156,-30.762,0.000
1709141650.963,-33.691,-46.875,-28.320,-36.133,0.000
1709141650.967,-44.922,-43.457,-34.180,-41.504,0.000
1709141650.971,-43.457,-45.898,-35.645,-41.016,0.000
1709141650.975,-39.062,-46.387,-34.668,-34.668,0.000
1709141650.978,-35.156,-38.086,-29.297,-37.598,0.000
1709141650.982,-36.621,-34.180,-31.250,-34.668,0.000
1709141650.987,-36.133,-32.715,-44.922,-31.738,0.000
1709141650.991,-31.738,-36.133,-38.086,-31.250,0.000
1709141650.995,-28.320,-33.691,-32.227,-28.809,0.000
1709141650.999,-26.367,-32.227,-41.504,-36.133,0.000
1709141651.003,-25.391,-49.805,-39.062,-33.691,0.000
1709141651.007,-28.320,-41.016,-31.738,-26.367,0.000
1709141651.010,-21.484,-21.484,-47.363,-25.879,0.000
1709141651.014,-18.066,-36.621,-46.875,-26.367,0.000
1709141651.018,-30.273,-43.457,-26.367,-21.973,0.000
1709141651.022,-32.227,-34.668,-31.738,-12.207,0.000
1709141651.026,-23.926,-34.180,-39.551,-15.625,0.000
1709141651.030,-19.531,-39.062,-32.227,-20.508,0.000
1709141651.034,-20.020,-36.133,-29.785,-20.508,0.000
1709141651.038,-23.438,-32.227,-28.809,-20.508,0.000
1709141651.042,-26.367,-37.109,-27.344,-25.391,0.000
1709141651.046,-27.344,-35.645,-35.645,-30.273,0.000
1709141651.050,-23.926,-34.668,-34.180,-30.273,0.000
1709141651.054,-13.672,-43.945,-34.668,-27.344,0.000
1709141651.058,-27.344,-45.410,-41.504,-36.133,0.000
1709141651.062,-50.293,-35.156,-30.762,-46.387,0.000
1709141651.065,-41.504,-36.621,-18.555,-36.133,0.000
1709141651.069,-30.762,-34.180,-21.973,-29.785,0.000
1709141651.073,-29.785,-29.785,-35.156,-38.574,0.000
1709141651.077,-35.156,-30.273,-34.180,-43.457,0.000
1709141651.084,-40.527,-29.785,-33.691,-46.875,0.000
1709141651.088,-36.621,-28.320,-39.551,-41.504,0.000
1709141651.091,-37.109,-28.320,-35.645,-38.086,0.000
1709141651.095,-43.457,-33.691,-34.180,-45.410,0.000
1709141651.099,-47.852,-42.480,-35.645,-52.246,0.000
1709141651.103,-41.016,-45.898,-41.504,-44.922,0.000
1709141651.107,-35.645,-36.133,-42.969,-42.969,0.000
1709141651.111,-48.828,-42.969,-36.133,-47.852,0.000
1709141651.115,-50.781,-42.969,-36.621,-42.480,0.000
1709141651.119,-42.480,-36.133,-39.551,-49.316,0.000
1709141651.123,-41.016,-40.039,-44.922,-55.176,0.000
1709141651.127,-34.180,-49.805,-54.199,-44.922,0.000
1709141651.130,-33.203,-59.570,-39.062,-37.109,0.000
1709141651.133,-31.738,-41.504,-34.668,-37.109,0.000
1709141651.137,-27.344,-26.367,-42.480,-37.598,0.000
1709141651.141,-35.645,-31.250,-35.156,-41.016,0.000
1709141651.145,-38.574,-35.156,-33.691,-41.504,0.000
1709141651.149,-20.020,-32.227,-34.180,-34.668,0.000
1709141651.153,-21.973,-29.297,-30.273,-33.691,0.000
1709141651.157,-30.273,-38.086,-25.879,-32.715,0.000
1709141651.161,-29.785,-45.410,-31.738,-33.691,0.000
1709141651.165,-38.086,-35.156,-47.852,-32.227,0.000
1709141651.169,-32.715,-28.809,-43.945,-27.344,0.000
1709141651.173,-26.367,-32.715,-35.156,-18.555,0.000
1709141651.175,-25.391,-30.273,-33.203,-19.531,0.000
1709141651.179,-29.297,-24.414,-37.109,-34.180,0.000
1709141651.183,-32.227,-28.320,-41.016,-40.527,0.000
1709141651.187,-34.180,-36.621,-37.109,-38.574,0.000
1709141651.191,-31.738,-32.715,-29.785,-35.156,0.000
1709141651.195,-34.180,-36.621,-32.227,-41.504,0.000
1709141651.199,-34.668,-43.945,-33.203,-47.363,0.000
1709141651.203,-37.109,-50.781,-34.668,-46.387,0.000
1709141651.207,-39.062,-48.828,-49.316,-50.293,0.000
1709141651.210,-41.504,-46.875,-37.598,-52.734,0.000
1709141651.214,-47.363,-46.875,-19.531,-51.758,0.000
1709141651.218,-45.898,-38.574,-23.926,-53.223,0.000
1709141651.221,-46.875,-36.621,-37.109,-52.734,0.000
1709141651.225,-44.434,-41.992,-41.992,-49.316,0.000
1709141651.229,-43.945,-43.945,-36.133,-48.828,0.000
1709141651.233,-42.969,-32.227,-34.180,-51.758,0.000
1709141651.236,-35.156,-34.180,-37.598,-48.828,0.000
1709141651.240,-32.715,-43.945,-42.480,-43.945,0.000
1709141651.244,-25.391,-35.156,-39.551,-27.832,0.000
1709141651.248,-16.602,-28.320,-28.809,-28.320,0.000
1709141651.252,-26.367,-35.645,-24.414,-44.434,0.000
1709141651.256,-31.250,-42.480,-28.320,-54.199,0.000
1709141651.260,-25.391,-43.945,-28.320,-56.641,0.000
1709141651.264,-36.621,-48.828,-30.762,-51.758,0.000
1709141651.266,-47.363,-47.363,-32.227,-52.734,0.000
1709141651.270,-43.945,-36.133,-30.273,-47.852,0.000
1709141651.274,-31.250,-24.902,-37.598,-42.480,0.000
1709141651.278,-31.250,-23.438,-42.969,-51.758,0.000
1709141651.282,-45.898,-30.273,-41.992,-60.059,0.000
1709141651.286,-43.457,-30.762,-47.363,-42.480,0.000
1709141651.290,-27.344,-30.273,-41.504,-32.227,0.000
1709141651.294,-24.414,-33.691,-39.551,-44.922,0.000
1709141651.297,-35.645,-37.598,-35.156,-41.504,0.000
1709141651.301,-36.621,-41.504,-33.203,-29.297,0.000
1709141651.305,-31.250,-42.969,-34.668,-33.203,0.000
1709141651.309,-27.344,-39.062,-41.016,-49.316,0.000
1709141651.314,-29.785,-35.645,-39.551,-53.711,0.000
1709141651.318,-30.273,-35.645,-36.133,-55.176,0.000
1709141651.322,-40.527,-33.691,-39.062,-55.664,0.000
1709141651.326,-57.129,-37.109,-48.340,-58.105,0.000
1709141651.330,-49.316,-41.016,-39.551,-52.246,0.000
1709141651.334,-39.062,-32.715,-29.297,-41.992,0.000
1709141651.338,-35.156,-31.250,-30.762,-41.504,0.000
1709141651.342,-41.016,-38.086,-35.645,-47.852,0.000
1709141651.346,-44.434,-34.668,-43.945,-49.805,0.000
1709141651.350,-43.457,-35.156,-36.133,-38.574,0.000
1709141651.353,-41.016,-38.574,-37.109,-44.434,0.000
1709141651.357,-37.598,-32.227,-38.574,-52.734,0.000
1709141651.362,-37.598,-34.180,-38.086,-55.664,0.000
1709141651.366,-32.715,-37.109,-39.551,-47.852,0.000
1709141651.370,-33.691,-28.320,-34.668,-41.992,0.000
1709141651.374,-37.109,-32.715,-29.297,-45.898,0.000
1709141651.378,-38.574,-41.016,-24.902,-43.945,0.000
1709141651.382,-42.969,-38.574,-32.715,-42.480,0.000
1709141651.385,-40.039,-35.156,-36.133,-31.250,0.000
1709141651.389,-31.738,-31.738,-32.715,-27.832,0.000
1709141651.393,-24.902,-36.133,-43.945,-35.156,0.000
1709141651.397,-22.949,-40.527,-38.086,-29.297,0.000
1709141651.401,-26.855,-29.297,-37.109,-39.062,0.000
1709141651.405,-30.762,-26.855,-38.086,-49.316,0.000
1709141651.409,-38.574,-32.227,-27.832,-43.457,0.000
1709141651.413,-38.086,-31.738,-29.297,-40.527,0.000
1709141651.417,-29.785,-29.297,-24.414,-47.363,0.000
1709141651.421,-35.156,-36.621,-33.203,-45.898,0.000
1709141651.425,-40.039,-46.387,-46.875,-42.969,0.000
1709141651.429,-32.227,-43.457,-35.645,-45.410,0.000
1709141651.432,-21.973,-32.715,-22.949,-43.457,0.000
1709141651.436,-32.715,-25.391,-36.133,-41.992,0.000
1709141651.440,-36.133,-35.156,-43.945,-33.203,0.000
1709141651.444,-33.203,-52.246,-30.762,-35.645,0.000
1709141651.448,-37.109,-42.480,-34.180,-46.875,0.000
1709141651.452,-31.738,-33.203,-38.086,-41.992,0.000
1709141651.456,-24.902,-32.715,-40.039,-31.738,0.000
1709141651.460,-29.297,-31.250,-41.992,-35.645,0.000
1709141651.463,-34.668,-32.715,-37.598,-42.969,0.000
1709141651.467,-37.109,-39.551,-35.156,-45.410,0.000
1709141651.471,-38.574,-38.574,-30.762,-41.016,0.000
1709141651.475,-37.109,-29.785,-28.320,-37.109,0.000
1709141651.479,-39.551,-33.203,-24.902,-44.922,0.000
1709141651.483,-43.457,-35.156,-28.320,-33.691,0.000
1709141651.487,-47.852,-29.785,-30.762,-31.250,0.000
1709141651.491,-47.852,-35.156,-24.902,-49.316,0.000
1709141651.495,-47.363,-39.062,-35.645,-49.805,0.000
1709141651.499,-51.270,-36.621,-44.434,-47.852,0.000
1709141651.502,-44.434,-37.109,-30.762,-45.410,0.000
1709141651.506,-40.527,-42.480,-26.855,-44.434,0.000
1709141651.510,-39.551,-41.504,-36.621,-34.668,0.000
1709141651.514,-35.156,-38.574,-45.898,-33.203,0.000
1709141651.518,-27.344,-48.340,-48.828,-50.781,0.000
1709141651.522,-23.926,-47.852,-32.715,-49.805,0.000
1709141651.526,-30.762,-42.969,-33.203,-48.828,0.000
1709141651.529,-31.738,-38.086,-38.086,-46.387,0.000
1709141651.533,-35.645,-30.273,-34.668,-46.875,0.000
1709141651.537,-34.668,-37.109,-41.504,-54.199,0.000
1709141651.541,-24.414,-44.434,-33.691,-51.270,0.000
1709141651.545,-30.762,-36.133,-27.832,-58.594,0.000
1709141651.548,-30.762,-23.438,-33.691,-60.059,0.000
1709141651.552,-25.391,-32.715,-41.504,-56.152,0.000
1709141651.556,-35.645,-43.945,-45.410,-61.035,0.000
1709141651.560,-34.668,-38.574,-37.598,-56.152,0.000
1709141651.564,-37.598,-39.551,-34.668,-46.387,0.000
1709141651.568,-43.945,-42.969,-41.016,-50.781,0.000
1709141651.572,-43.945,-44.434,-49.316,-56.152,0.000
1709141651.576,-46.387,-39.551,-41.992,-44.922,0.000
1709141651.580,-39.551,-26.367,-20.996,-43.457,0.000
1709141651.584,-39.062,-25.879,-20.508,-43.945,0.000
1709141651.587,-50.293,-37.598,-31.738,-47.852,0.000
1709141651.591,-57.617,-43.945,-40.039,-53.711,0.000
1709141651.594,-53.711,-38.574,-48.340,-58.105,0.000
1709141651.598,-45.898,-35.156,-44.434,-57.617,0.000
1709141651.602,-46.387,-40.527,-40.527,-52.734,0.000
1709141651.606,-53.711,-36.621,-36.133,-47.363,0.000
1709141651.610,-48.340,-37.109,-35.156,-43.457,0.000
1709141651.614,-43.945,-56.152,-34.668,-47.363,0.000
1709141651.618,-37.598,-54.688,-35.645,-38.086,0.000
1709141651.622,-34.180,-39.551,-31.738,-34.180,0.000
1709141651.626,-41.504,-42.969,-27.832,-47.363,0.000
1709141651.630,-37.109,-39.062,-30.273,-42.969,0.000
1709141651.633,-30.762,-25.391,-31.738,-38.574,0.000
1709141651.637,-21.973,-27.344,-36.621,-45.898,0.000
1709141651.640,-18.066,-32.715,-40.527,-38.574,0.000
1709141651.644,-32.715,-36.133,-49.316,-27.832,0.000
1709141651.648,-31.250,-29.297,-45.898,-18.555,0.000
1709141651.652,-22.949,-24.902,-34.180,-21.973,0.000
1709141651.656,-20.508,-33.203,-30.762,-28.320,0.000
1709141651.660,-20.508,-49.316,-33.203,-20.020,0.000
1709141651.664,-17.578,-51.758,-34.668,-13.672,0.000
1709141651.668,-16.602,-41.992,-37.598,-27.344,0.000
1709141651.672,-25.391,-40.039,-39.551,-32.227,0.000
1709141651.675,-26.855,-35.156,-22.461,-31.738,0.000
1709141651.679,-31.738,-38.574,-26.367,-38.574,0.000
1709141651.683,-30.273,-34.180,-36.133,-37.109,0.000
1709141651.689,-28.809,-29.297,-29.297,-35.156,0.000
1709141651.693,-32.227,-43.457,-41.016,-42.480,0.000
1709141651.696,-38.574,-42.480,-38.574,-59.570,0.000
1709141651.700,-42.969,-41.992,-26.367,-60.059,0.000
1709141651.704,-36.621,-51.758,-24.414,-45.898,0.000
1709141651.708,-37.598,-53.711,-22.461,-39.062,0.000
1709141651.712,-44.922,-46.875,-33.203,-37.598,0.000
1709141651.716,-51.270,-37.109,-35.645,-50.293,0.000
1709141651.720,-49.805,-41.016,-32.227,-46.387,0.000
1709141651.724,-47.852,-48.828,-41.016,-28.320,0.000
1709141651.728,-47.852,-47.363,-30.762,-32.227,0.000
1709141651.732,-41.992,-44.922,-27.344,-38.086,0.000
1709141651.736,-43.457,-37.598,-40.039,-38.574,0.000
1709141651.740,-46.387,-34.180,-30.273,-45.898,0.000
1709141651.744,-46.387,-39.551,-25.391,-54.688,0.000
1709141651.748,-40.039,-41.504,-32.715,-49.316,0.000
1709141651.752,-34.180,-32.715,-31.738,-41.992,0.000
1709141651.756,-49.316,-34.180,-33.691,-43.457,0.000
1709141651.760,-61.523,-34.180,-41.016,-44.434,0.000
1709141651.764,-57.129,-32.227,-32.227,-41.016,0.000
1709141651.768,-46.875,-43.457,-24.414,-27.832,0.000
1709141651.771,-42.480,-41.504,-22.949,-20.996,0.000
1709141651.775,-42.480,-36.621,-33.203,-38.574,0.000
1709141651.779,-40.527,-39.062,-37.109,-43.945,0.000
1709141651.784,-41.016,-50.781,-40.039,-33.691,0.000
1709141651.787,-41.992,-40.527,-44.922,-31.738,0.000
1709141651.791,-34.668,-22.949,-42.969,-35.156,0.000
1709141651.795,-31.738,-32.227,-36.133,-34.180,0.000
1709141651.799,-34.180,-33.203,-26.855,-37.598,0.000
1709141651.803,-33.203,-27.832,-28.320,-37.598,0.000
1709141651.807,-37.109,-41.016,-44.922,-33.691,0.000
1709141651.811,-41.504,-45.410,-50.293,-40.039,0.000
1709141651.815,-39.062,-38.574,-30.273,-34.668,0.000
1709141651.819,-34.668,-45.898,-28.320,-32.715,0.000
1709141651.823,-39.062,-42.969,-32.227,-45.898,0.000
1709141651.827,-43.945,-47.363,-40.527,-43.457,0.000
1709141651.830,-32.715,-51.758,-39.551,-36.621,0.000
1709141651.834,-32.227,-37.598,-25.391,-38.086,0.000
1709141651.838,-27.832,-32.227,-31.250,-35.645,0.000
1709141651.842,-23.438,-39.062,-36.621,-27.832,0.000
1709141651.846,-35.645,-31.738,-33.203,-22.461,0.000
1709141651.850,-37.598,-28.320,-25.391,-29.785,0.000
1709141651.854,-38.086,-33.691,-26.855,-37.109,0.000
1709141651.858,-40.527,-40.039,-44.922,-36.133,0.000
1709141651.862,-39.062,-44.922,-50.293,-32.227,0.000
1709141651.866,-43.457,-39.551,-35.645,-43.945,0.000
1709141651.869,-39.551,-34.180,-30.273,-42.480,0.000
1709141651.873,-33.203,-39.551,-33.691,-34.180,0.000
1709141651.877,-35.156,-38.574,-39.062,-37.109,0.000
1709141651.881,-30.762,-33.691,-32.715,-35.645,0.000
1709141651.885,-30.762,-35.645,-31.738,-32.715,0.000
1709141651.889,-31.250,-41.992,-37.109,-27.344,0.000
1709141651.893,-32.715,-40.039,-25.391,-35.645,0.000
1709141651.897,-35.156,-33.691,-23.438,-38.086,0.000
1709141651.900,-33.203,-29.785,-34.180,-41.992,0.000
1709141651.904,-26.367,-25.879,-34.668,-39.551,0.000
1709141651.908,-27.344,-33.691,-45.410,-29.785,0.000
1709141651.912,-26.367,-36.621,-52.734,-40.527,0.000
1709141651.916,-19.531,-38.086,-32.227,-44.922,0.000
1709141651.920,-32.715,-41.504,-18.555,-48.828,0.000
1709141651.923,-36.133,-33.691,-23.438,-47.363,0.000
1709141651.927,-32.227,-27.832,-28.320,-38.574,0.000
1709141651.931,-34.180,-33.203,-36.133,-41.992,0.000
1709141651.935,-35.645,-37.109,-44.434,-48.340,0.000
1709141651.939,-43.457,-43.945,-47.852,-56.152,0.000
1709141651.943,-55.176,-37.598,-38.086,-62.012,0.000
1709141651.947,-58.105,-39.551,-38.086,-45.410,0.000
1709141651.951,-51.270,-48.828,-49.805,-38.574,0.000
1709141651.955,-49.805,-41.504,-42.480,-59.570,0.000
1709141651.958,-53.711,-33.203,-30.273,-62.500,0.000
1709141651.962,-52.734,-35.156,-22.949,-61.035,0.000
1709141651.966,-59.082,-39.551,-26.367,-56.641,0.000
1709141651.969,-59.082,-36.621,-34.668,-51.270,0.000
1709141651.973,-48.340,-36.621,-40.039,-51.270,0.000
1709141651.977,-47.852,-38.574,-36.133,-47.852,0.000
1709141651.981,-53.711,-39.551,-35.645,-50.293,0.000
1709141651.985,-54.199,-39.062,-47.363,-52.734,0.000
1709141651.989,-42.480,-39.062,-36.621,-49.805,0.000
1709141651.993,-33.203,-39.551,-29.785,-30.273,0.000
1709141651.997,-33.691,-44.922,-34.668,-24.902,0.000
1709141652.001,-32.227,-54.688,-23.438,-39.062,0.000
1709141652.004,-38.574,-50.293,-20.508,-37.109,0.000
1709141652.008,-34.180,-46.875,-27.344,-30.762,0.000
1709141652.012,-15.625,-40.527,-32.715,-25.391,0.000
1709141652.015,-17.578,-28.320,-35.156,-30.762,0.000
1709141652.019,-24.414,-28.809,-37.598,-47.852,0.000
1709141652.023,-27.344,-32.715,-43.945,-43.945,0.000
1709141652.027,-35.645,-32.227,-57.129,-40.039,0.000
1709141652.031,-32.227,-26.367,-51.270,-46.875,0.000
1709141652.035,-23.926,-31.738,-36.133,-43.457,0.000
1709141652.038,-27.344,-30.762,-36.621,-43.457,0.000
1709141652.042,-32.227,-22.461,-28.809,-44.922,0.000
1709141652.046,-40.039,-28.320,-29.785,-52.246,0.000
1709141652.050,-47.363,-33.691,-37.109,-56.641,0.000
1709141652.054,-45.410,-39.551,-32.227,-51.270,0.000
1709141652.058,-44.434,-39.062,-32.715,-41.992,0.000
1709141652.064,-43.945,-32.227,0.000,-40.527,0.000
1709141652.068,-42.969,-35.156,0.000,-38.086,0.000
1709141652.071,-42.480,-38.574,0.000,-38.086,0.000
1709141652.075,-39.062,-39.551,0.000,-36.621,0.000
1709141652.079,-35.645,-30.273,0.000,-38.574,0.000
1709141652.083,-39.551,-29.785,0.000,-45.410,0.000
1709141652.087,-38.086,-30.273,0.000,-46.387,0.000
1709141652.091,-35.156,-32.715,0.000,-51.758,0.000
1709141652.095,-33.691,-39.062,0.000,-49.316,0.000
1709141652.099,-24.902,-34.668,0.000,-44.922,0.000
1709141652.103,-31.738,-33.691,0.000,-41.016,0.000
1709141652.107,-41.992,-34.668,0.000,-35.156,0.000
1709141652.112,-29.297,-35.156,-47.852,-31.738,0.000
1709141652.116,-21.973,-38.086,-41.016,-30.273,0.000
1709141652.120,-19.531,-37.109,-41.992,-31.738,0.000
1709141652.124,-24.414,-34.180,-33.203,-36.621,0.000
1709141652.127,-30.273,-30.273,-29.297,-36.133,0.000
1709141652.131,-29.297,-28.320,-37.109,-30.273,0.000
1709141652.135,-29.785,-31.738,-38.086,-34.668,0.000
1709141652.139,-38.574,-48.340,-35.645,-48.828,0.000
1709141652.143,-42.480,-55.664,-41.992,-38.086,0.000
1709141652.147,-37.598,-38.086,-40.039,-27.832,0.000
1709141652.151,-33.203,-32.227,-29.297,-39.551,0.000
1709141652.155,-26.367,-42.969,-33.203,-42.480,0.000
1709141652.159,-30.273,-43.945,-45.410,-41.016,0.000
1709141652.163,-27.832,-42.480,-52.246,-41.504,0.000
1709141652.167,-31.738,-50.781,-51.758,-45.410,0.000
1709141652.171,-41.016,-44.922,-41.016,-38.574,0.000
1709141652.175,-29.785,-38.086,-38.574,-29.297,0.000
1709141652.178,-30.273,-41.016,-43.945,-35.645,0.000
1709141652.182,-37.109,-34.180,-48.828,-47.363,0.000
1709141652.186,-33.203,-31.250,-42.480,-46.387,0.000
1709141652.190,-34.180,-37.598,-30.273,-30.762,0.000
1709141652.194,-33.691,-35.645,-37.598,-32.715,0.000
1709141652.198,-31.250,-27.832,-37.598,-46.387,0.000
1709141652.202,-27.344,-33.203,-26.367,-49.316,0.000
1709141652.206,-23.926,-34.180,-29.297,-49.316,0.000
1709141652.210,-35.645,-44.922,-33.203,-41.992,0.000
1709141652.213,-45.410,-54.688,-24.902,-46.387,0.000
1709141652.217,-47.852,-49.805,-36.133,-52.246,0.000
1709141652.221,-48.340,-45.898,-44.922,-45.410,0.000
1709141652.225,-51.270,-52.734,-33.203,-40.039,0.000
1709141652.229,-54.688,-55.664,-31.738,-50.293,0.000
1709141652.233,-49.316,-48.340,-31.738,-45.898,0.000
1709141652.237,-45.410,-49.316,-31.738,-38.086,0.000
1709141652.241,-42.969,-50.781,-29.785,-40.527,0.000
1709141652.245,-34.180,-52.734,-31.250,-30.273,0.000
1709141652.249,-39.062,-45.898,-27.832,-29.785,0.000
1709141652.252,-40.039,-41.992,-29.785,-34.180,0.000
1709141652.256,-33.203,-44.922,-37.109,-41.504,0.000
1709141652.260,-30.273,-49.805,-33.203,-45.898,0.000
1709141652.264,-34.668,-48.828,-33.203,-45.898,0.000
1709141652.268,-37.109,-40.527,-25.391,-45.410,0.000
1709141652.272,-31.738,-49.805,-25.391,-44.922,0.000
1709141652.276,-26.855,-49.805,-35.645,-48.828,0.000
1709141652.279,-31.250,-46.387,-34.180,-35.645,0.000
1709141652.283,-30.273,-57.617,-40.527,-29.297,0.000
1709141652.287,-24.902,-45.410,-51.270,-30.762,0.000
1709141652.291,-34.180,-27.832,-38.086,-37.598,0.000
1709141652.295,-36.621,-33.691,-18.066,-40.527,0.000
1709141652.298,-37.598,-40.039,-31.250,-41.504,0.000
1709141652.302,-34.180,-36.133,-41.504,-42.969,0.000
1709141652.306,-37.109,-40.039,-29.785,-38.574,0.000
1709141652.310,-32.715,-33.203,-30.762,-38.086,0.000
1709141652.314,-26.367,-24.414,-32.715,-40.527,0.000
1709141652.318,-39.551,-35.645,-36.621,-41.992,0.000
1709141652.322,-44.434,-42.969,-35.156,-42.969,0.000
1709141652.326,-41.992,-41.504,-40.039,-33.691,0.000
1709141652.330,-44.434,-36.621,-40.039,-38.574,0.000
1709141652.333,-34.668,-34.668,-25.879,-53.223,0.000
1709141652.337,-25.879,-42.480,-33.691,-50.781,0.000
1709141652.341,-33.203,-39.551,-45.898,-48.340,0.000
1709141652.344,-43.457,-34.668,-42.480,-51.270,0.000
1709141652.348,-32.715,-36.133,-27.832,-44.922,0.000
1709141652.352,-20.996,-49.316,-26.367,-40.039,0.000
1709141652.356,-25.391,-42.480,-31.250,-41.016,0.000
1709141652.360,-22.949,-23.438,-35.156,-35.156,0.000
1709141652.364,-24.902,-25.391,-43.457,-43.945,0.000
1709141652.368,-26.367,-28.320,-44.434,-41.504,0.000
1709141652.372,-20.020,-32.715,-35.645,-30.273,0.000
1709141652.375,-20.996,-36.133,-31.250,-35.156,0.000
1709141652.379,-26.855,-35.645,-46.387,-37.109,0.000
1709141652.383,-31.250,-35.645,-45.410,-34.668,0.000
1709141652.387,-26.855,-32.715,-29.785,-26.855,0.000
1709141652.390,-27.344,-32.715,-43.457,-36.621,0.000
1709141652.394,-34.668,-36.133,-54.688,-47.852,0.000
1709141652.398,-28.809,-31.738,-42.480,-47.852,0.000
1709141652.402,-22.461,-27.832,-41.992,-52.246,0.000
1709141652.406,-30.762,-32.715,-36.133,-52.246,0.000
1709141652.410,-36.621,-33.691,-37.109,-49.805,0.000
1709141652.413,-36.621,-32.715,-49.316,-48.828,0.000
1709141652.417,-45.410,-31.738,-46.387,-47.363,0.000
1709141652.421,-49.316,-34.180,-40.039,-49.316,0.000
1709141652.425,-50.781,-53.223,-45.898,-45.410,0.000
1709141652.429,-47.363,-55.176,-50.781,-40.039,0.000
1709141652.433,-43.945,-35.645,-44.922,-42.480,0.000
1709141652.438,-47.852,-35.645,-39.551,-49.316,0.000
1709141652.442,-49.316,-36.621,-35.645,-48.340,0.000
1709141652.446,-41.016,-34.180,-43.457,-48.828,0.000
1709141652.450,-41.016,-39.062,-45.898,-54.688,0.000
1709141652.454,-41.504,-42.480,-34.180,-54.688,0.000
1709141652.458,-41.504,-37.598,-20.508,-47.852,0.000
1709141652.462,-41.504,-32.715,-25.391,-43.457,0.000
1709141652.466,-36.133,-35.156,-32.227,-42.969,0.000
1709141652.470,-31.250,-43.457,-33.203,-37.109,0.000
1709141652.474,-29.785,-43.457,-49.805,-30.762,0.000
1709141652.477,-34.180,-30.762,-49.805,-36.133,0.000
1709141652.481,-34.180,-21.973,-30.273,-41.504,0.000
1709141652.486,-33.203,-39.062,-31.738,-30.762,0.000
1709141652.490,-38.574,-34.668,-28.320,-28.320,0.000
1709141652.494,-44.434,-23.438,-21.484,-31.738,0.000
1709141652.498,-42.969,-30.273,-33.203,-34.668,0.000
1709141652.502,-42.969,-31.738,-30.273,-31.738,0.000
1709141652.506,-45.410,-41.504,-32.227,-36.133,0.000
1709141652.510,-44.434,-51.758,-46.875,-44.922,0.000
1709141652.513,-49.316,-47.363,-47.363,-45.898,0.000
1709141652.517,-43.945,-34.180,-39.551,-52.734,0.000
1709141652.521,-43.945,-32.715,-30.273,-45.898,0.000
1709141652.525,-52.246,-32.227,-33.203,-41.016,0.000
1709141652.529,-46.387,-30.273,-47.363,-55.176,0.000
1709141652.533,-49.316,-32.715,-56.641,-59.082,0.000
1709141652.537,-43.945,-41.992,-43.457,-46.387,0.000
1709141652.541,-47.852,-46.875,-38.574,-46.875,0.000
1709141652.545,-51.758,-44.922,-35.645,-51.270,0.000
1709141652.549,-42.480,-43.945,-27.344,-40.039,0.000
1709141652.553,-39.062,-40.527,-41.016,-37.598,0.000
1709141652.557,-37.598,-36.621,-31.250,-47.363,0.000
1709141652.561,-40.527,-41.016,-26.367,-51.270,0.000
1709141652.565,-37.109,-48.828,-28.809,-36.133,0.000
1709141652.569,-29.785,-38.574,-29.785,-23.438,0.000
1709141652.573,-31.738,-36.133,-40.039,-36.621,0.000
1709141652.576,-27.832,-40.527,-31.738,-39.551,0.000
1709141652.580,-20.020,-35.645,-27.344,-32.227,0.000
1709141652.584,-20.996,-31.250,-35.645,-25.879,0.000
1709141652.588,-25.879,-37.109,-30.273,-24.414,0.000
1709141652.592,-32.227,-45.410,-23.438,-27.832,0.000
1709141652.596,-30.762,-40.039,-25.879,-39.062,0.000
1709141652.600,-26.367,-43.945,-30.273,-49.316,0.000
1709141652.604,-27.832,-52.246,-40.527,-42.480,0.000
1709141652.608,-28.320,-49.805,-43.945,-28.809,0.000
1709141652.612,-27.832,-43.945,-37.598,-32.227,0.000
1709141652.615,-32.227,-35.156,-39.062,-47.852,0.000
1709141652.619,-31.250,-37.109,-36.621,-51.270,0.000
1709141652.623,-37.109,-40.527,-32.715,-56.152,0.000
1709141652.627,-39.062,-36.621,-35.645,-46.875,0.000
1709141652.631,-17.090,-35.645,-40.039,-43.457,0.000
1709141652.635,-19.531,-36.621,-35.645,-47.363,0.000
1709141652.639,-42.969,-35.156,-27.344,-48.828,0.000
1709141652.643,-42.969,-28.809,-20.996,-47.852,0.000
1709141652.646,-45.898,-25.391,-26.367,-44.922,0.000
1709141652.650,-52.734,-40.039,-28.320,-47.363,0.000
1709141652.654,-55.664,-46.387,-39.551,-46.387,0.000
1709141652.658,-52.246,-31.738,-48.340,-51.270,0.000
1709141652.662,-48.340,-32.715,-38.574,-52.734,0.000
1709141652.666,-45.410,-32.227,-33.203,-45.410,0.000
1709141652.670,-39.062,-21.973,-34.668,-42.969,0.000
1709141652.673,-32.227,-20.020,-36.133,-41.504,0.000
1709141652.677,-35.645,-29.785,-39.551,-38.574,0.000
1709141652.681,-41.992,-33.691,-41.504,-36.133,0.000
1709141652.685,-38.086,-31.738,-40.039,-41.016,0.000
1709141652.689,-30.273,-31.250,-50.293,-41.504,0.000
1709141652.693,-32.715,-36.133,-51.270,-39.551,0.000
1709141652.697,-36.621,-48.340,-38.574,-31.250,0.000
1709141652.700,-31.250,-51.758,-34.668,-25.391,0.000
1709141652.704,-24.414,-40.527,-35.156,-35.156,0.000
1709141652.708,-30.273,-37.109,-38.574,-34.668,0.000
1709141652.712,-31.250,-34.668,-38.086,-31.250,0.000
1709141652.716,-26.855,-33.203,-36.133,-35.156,0.000
1709141652.719,-24.414,-37.598,-34.180,-40.527,0.000
1709141652.723,-22.949,-41.992,-34.668,-33.691,0.000
1709141652.727,-35.156,-54.199,-43.457,-33.203,0.000
1709141652.731,-35.156,-44.434,-60.059,-41.504,0.000
1709141652.735,-34.668,-28.320,-56.641,-44.922,0.000
1709141652.739,-41.016,-37.109,-34.180,-56.641,0.000
1709141652.742,-39.062,-41.992,-29.297,-48.340,0.000
1709141652.746,-38.574,-37.109,-38.574,-40.039,0.000
1709141652.750,-43.457,-38.574,-43.945,-57.617,0.000
1709141652.754,-43.945,-40.527,-33.691,-60.547,0.000
1709141652.758,-39.551,-40.527,-27.832,-58.105,0.000
1709141652.762,-39.062,-36.621,-40.527,-51.758,0.000
1709141652.765,-39.551,-31.738,-44.434,-47.852,0.000
1709141652.769,-41.504,-34.180,-35.156,-49.805,0.000
1709141652.773,-33.691,-25.391,-50.781,-44.922,0.000
1709141652.777,-30.762,-25.879,-57.617,-43.945,0.000
1709141652.781,-39.551,-37.109,-29.785,-37.109,0.000
1709141652.785,-38.574,-44.434,-20.508,-34.180,0.000
1709141652.788,-33.203,-39.551,-29.297,-31.250,0.000
1709141652.792,-36.133,-34.180,-36.133,-34.180,0.000
1709141652.796,-39.551,-42.969,-33.691,-42.969,0.000
1709141652.800,-39.062,-47.852,-35.156,-47.363,0.000
1709141652.804,-42.969,-47.363,-34.180,-51.758,0.000
1709141652.808,-39.062,-51.270,-34.668,-48.828,0.000
1709141652.813,-37.109,-41.016,-34.180,-43.945,0.000
1709141652.817,-42.480,-28.320,-33.691,-48.828,0.000
1709141652.821,-43.945,-31.738,-42.969,-47.852,0.000
1709141652.825,-44.922,-34.180,-38.086,-41.504,0.000
1709141652.829,-48.828,-34.668,-38.086,-45.410,0.000
1709141652.833,-32.227,-37.598,-41.992,-42.969,0.000
1709141652.837,-32.715,-43.457,-40.527,-44.922,0.000
1709141652.841,-50.293,-42.480,-41.504,-50.293,0.000
1709141652.845,-47.363,-35.645,-34.180,-43.945,0.000
1709141652.848,-39.551,-33.203,-31.250,-31.738,0.000
1709141652.852,-34.180,-28.809,-34.668,-37.109,0.000
1709141652.856,-41.992,-35.156,-37.109,-52.734,0.000
1709141652.861,-42.969,-38.574,-36.133,-42.480,0.000
1709141652.865,-39.062,-30.762,-37.598,-32.227,0.000
1709141652.869,-41.992,-31.738,-32.227,-38.574,0.000
1709141652.873,-36.133,-42.969,-24.902,-42.480,0.000
1709141652.877,-32.715,-47.852,-36.621,-44.922,0.000
1709141652.880,-40.039,-35.645,-41.504,-40.527,0.000
1709141652.884,-42.969,-33.203,-27.832,-38.086,0.000
1709141652.888,-41.992,-40.527,-21.973,-46.875,0.000
1709141652.892,-33.203,-39.551,-25.391,-39.551,0.000
1709141652.896,-28.809,-34.668,-32.715,-31.738,0.000
1709141652.900,-30.273,-40.039,-37.109,-42.969,0.000
1709141652.904,-29.297,-38.086,-36.133,-52.246,0.000
1709141652.911,-37.109,-29.785,-38.574,-52.734,0.000
1709141652.915,-43.457,-32.715,-39.062,-56.152,0.000
1709141652.919,-45.410,-35.156,-43.457,-64.941,0.000
1709141652.922,-44.922,-35.645,-34.668,-66.895,0.000
1709141652.926,-42.969,-37.598,-32.227,-54.199,0.000
1709141652.930,-44.434,-36.621,-41.504,-39.551,0.000
1709141652.934,-36.621,-44.434,-40.527,-31.738,0.000
1709141652.938,-30.273,-47.852,-37.598,-48.340,0.000
1709141652.942,-38.086,-47.852,-30.273,-56.152,0.000
1709141652.946,-36.133,-50.293,-29.785,-48.828,0.000
1709141652.950,-27.832,-45.410,-32.715,-55.664,0.000
1709141652.954,-40.527,-51.270,-46.387,-55.664,0.000
1709141652.957,-43.945,-47.852,-57.129,-53.223,0.000
