timestamps,TP9,AF7,AF8,TP10,Right AUX
1709206255.679,-30.762,-47.852,-37.109,-22.461,0.000
1709206255.683,-37.598,-38.574,-41.504,-25.879,0.000
1709206255.687,-40.527,-46.387,-38.086,-39.062,0.000
1709206255.691,-44.922,-55.664,-30.273,-53.223,0.000
1709206255.695,-43.945,-58.105,-30.273,-44.922,0.000
1709206255.699,-39.551,-62.012,-37.109,-35.156,0.000
1709206255.702,-33.691,-40.039,-39.062,-32.227,0.000
1709206255.706,-29.297,-56.641,-40.039,-26.855,0.000
1709206255.710,-38.086,-62.988,-47.363,-25.879,0.000
1709206255.714,-29.297,-31.250,-47.363,-29.297,0.000
1709206255.718,-23.926,-50.293,-47.852,-33.691,0.000
1709206255.722,-42.969,-46.387,-49.316,-38.086,0.000
1709206255.722,-42.969,-46.387,-49.316,-38.086,0.000
1709206255.726,-35.156,-32.227,-44.434,-36.621,0.000
1709206255.730,-25.391,-31.250,-36.133,-41.504,0.000
1709206255.734,-31.738,-44.434,-38.086,-43.457,0.000
1709206255.738,-30.762,-42.480,-35.645,-40.039,0.000
1709206255.741,-28.320,-27.344,-31.738,-41.992,0.000
1709206255.745,-40.039,-41.504,-38.574,-48.828,0.000
1709206255.749,-49.316,-58.105,-38.086,-52.734,0.000
1709206255.753,-46.875,-63.965,-40.527,-56.641,0.000
1709206255.757,-49.316,-33.203,-43.945,-65.918,0.000
1709206255.761,-55.176,-31.250,-37.109,-63.477,0.000
1709206255.765,-62.500,-59.570,-35.645,-55.176,0.000
1709206255.769,-69.336,-55.664,-36.621,-62.988,0.000
1709206255.773,-70.801,-40.039,-31.250,-62.500,0.000
1709206255.777,-70.801,-48.340,-29.297,-51.270,0.000
1709206255.781,-67.871,-61.523,-32.227,-46.387,0.000
1709206255.784,-65.430,-47.363,-34.668,-42.480,0.000
1709206255.788,-60.547,-41.016,-32.715,-39.062,0.000
1709206255.792,-65.430,-54.199,-35.645,-39.062,0.000
1709206255.796,-65.918,-72.266,-38.086,-35.156,0.000
1709206255.800,-50.293,-54.199,-37.598,-38.086,0.000
1709206255.804,-46.875,-30.273,-36.133,-41.992,0.000
1709206255.808,-52.734,-48.828,-28.809,-37.598,0.000
1709206255.812,-46.875,-41.504,-26.367,-35.156,0.000
1709206255.816,-42.480,-23.438,-31.250,-30.273,0.000
1709206255.820,-38.574,-26.855,-34.180,-26.367,0.000
1709206255.823,-33.203,-47.852,-36.133,-23.926,0.000
1709206255.827,-33.691,-55.664,-35.156,-24.902,0.000
1709206255.831,-35.156,-41.992,-36.133,-28.809,0.000
1709206255.835,-40.527,-42.480,-41.016,-32.227,0.000
1709206255.839,-42.480,-68.848,-39.551,-37.109,0.000
1709206255.843,-43.457,-70.801,-38.086,-41.992,0.000
1709206255.847,-47.363,-29.297,-43.457,-48.828,0.000
1709206255.851,-50.293,-26.855,-42.480,-53.223,0.000
1709206255.855,-49.316,-49.316,-41.992,-46.875,0.000
1709206255.859,-51.758,-53.711,-47.852,-41.504,0.000
1709206255.863,-53.223,-53.711,-43.457,-49.316,0.000
1709206255.866,-49.805,-51.758,-44.434,-57.617,0.000
1709206255.870,-47.852,-53.223,-44.434,-53.711,0.000
1709206255.874,-59.570,-49.805,-41.992,-43.457,0.000
1709206255.878,-57.129,-42.969,-45.410,-48.340,0.000
1709206255.882,-57.129,-45.898,-38.574,-50.781,0.000
1709206255.886,-66.406,-70.312,-37.598,-42.480,0.000
1709206255.890,-59.082,-62.500,-37.598,-42.480,0.000
1709206255.894,-60.059,-30.762,-26.367,-39.551,0.000
1709206255.898,-57.617,-37.598,-29.297,-35.645,0.000
1709206255.902,-58.105,-55.664,-34.668,-26.367,0.000
1709206255.905,-60.059,-42.969,-34.668,-30.762,0.000
1709206255.909,-45.410,-24.902,-36.621,-37.109,0.000
1709206255.913,-45.898,-37.598,-32.227,-31.250,0.000
1709206255.917,-58.105,-54.199,-32.715,-32.715,0.000
1709206255.921,-50.293,-51.758,-35.645,-29.785,0.000
1709206255.925,-39.551,-41.992,-41.016,-34.668,0.000
1709206255.929,-35.645,-48.340,-41.992,-39.062,0.000
1709206255.933,-38.086,-71.289,-38.574,-41.992,0.000
1709206255.937,-48.828,-55.664,-40.039,-45.898,0.000
1709206255.941,-48.828,-36.621,-41.016,-49.805,0.000
1709206255.945,-39.062,-59.082,-40.527,-47.852,0.000
1709206255.948,-29.785,-60.547,-38.574,-32.227,0.000
1709206255.952,-27.832,-34.180,-37.598,-36.133,0.000
1709206255.956,-32.227,-47.363,-40.039,-43.457,0.000
1709206255.960,-32.715,-62.500,-45.898,-34.180,0.000
1709206255.964,-7.812,-51.270,-41.992,-22.949,0.000
1709206255.968,-3.418,-38.574,-35.156,-20.508,0.000
1709206255.972,-29.785,-44.922,-35.156,-20.020,0.000
1709206255.976,-26.367,-55.176,-31.738,-20.996,0.000
1709206255.980,-20.508,-54.199,-32.715,-21.973,0.000
1709206255.984,-19.043,-39.551,-28.809,-17.578,0.000
1709206255.987,-17.578,-26.855,-23.438,-27.344,0.000
1709206255.991,-18.066,-57.617,-24.902,-26.367,0.000
1709206255.995,-32.227,-62.500,-29.785,-27.344,0.000
1709206255.999,-55.176,-34.180,-35.156,-50.781,0.000
1709206256.003,-62.988,-43.457,-34.668,-56.641,0.000
1709206256.007,-59.570,-51.270,-37.598,-54.688,0.000
1709206256.011,-60.059,-46.387,-38.086,-61.035,0.000
1709206256.015,-60.059,-41.504,-36.621,-70.312,0.000
1709206256.019,-53.223,-53.223,-44.434,-67.383,0.000
1709206256.023,-49.316,-60.059,-50.293,-63.965,0.000
1709206256.027,-43.945,-50.781,-52.246,-69.824,0.000
1709206256.030,-40.039,-46.387,-54.199,-73.242,0.000
1709206256.034,-44.434,-46.875,-47.852,-70.801,0.000
1709206256.038,-37.598,-49.316,-43.457,-57.129,0.000
1709206256.042,-37.109,-19.531,-48.340,-57.617,0.000
1709206256.046,-46.387,-17.578,-49.316,-60.059,0.000
1709206256.050,-40.527,-38.574,-47.852,-48.340,0.000
1709206256.054,-39.062,-46.387,-43.457,-43.457,0.000
1709206256.058,-39.062,-40.039,-37.109,-34.668,0.000
1709206256.062,-36.133,-40.039,-42.480,-36.133,0.000
1709206256.066,-38.086,-51.758,-50.781,-44.434,0.000
1709206256.070,-41.992,-46.875,-45.410,-45.898,0.000
1709206256.073,-50.781,-56.152,-44.434,-55.664,0.000
1709206256.077,-60.059,-53.711,-47.363,-60.059,0.000
1709206256.081,-62.012,-66.406,-41.992,-45.898,0.000
1709206256.085,-51.270,-51.758,-44.434,-42.480,0.000
1709206256.089,-53.223,-31.738,-49.805,-61.523,0.000
1709206256.093,-68.359,-60.547,-49.805,-64.453,0.000
1709206256.097,-70.312,-59.570,-52.734,-60.059,0.000
1709206256.101,-66.895,-42.969,-47.852,-50.293,0.000
1709206256.105,-56.641,-37.598,-42.969,-44.922,0.000
1709206256.109,-49.805,-51.758,-42.480,-44.922,0.000
1709206256.112,-41.992,-50.293,-35.645,-43.945,0.000
1709206256.116,-27.832,-37.598,-31.738,-41.504,0.000
1709206256.120,-43.457,-44.434,-39.551,-38.574,0.000
1709206256.124,-46.387,-45.898,-36.133,-35.645,0.000
1709206256.128,-33.203,-43.945,-30.273,-26.855,0.000
1709206256.132,-29.785,-22.461,-32.715,-27.344,0.000
1709206256.136,-28.809,-22.461,-30.762,-32.715,0.000
1709206256.140,-40.527,-47.852,-36.133,-41.504,0.000
1709206256.144,-36.621,-39.062,-36.133,-38.086,0.000
1709206256.148,-32.715,-30.273,-37.598,-35.156,0.000
1709206256.152,-31.738,-37.598,-39.062,-40.527,0.000
1709206256.155,-21.973,-40.039,-27.832,-30.273,0.000
1709206256.159,-27.344,-28.809,-28.320,-19.531,0.000
1709206256.163,-23.438,-22.949,-26.367,-19.043,0.000
1709206256.167,-17.578,-33.203,-20.996,-24.414,0.000
1709206256.171,-24.414,-68.359,-34.668,-36.621,0.000
1709206256.175,-30.273,-60.547,-42.969,-38.574,0.000
1709206256.179,-34.668,-14.648,-38.086,-41.016,0.000
1709206256.183,-14.648,-31.738,-35.156,-42.480,0.000
1709206256.187,-17.578,-37.109,-37.109,-44.434,0.000
1709206256.191,-42.480,-25.879,-43.457,-47.363,0.000
1709206256.194,-42.969,-30.273,-43.945,-55.176,0.000
1709206256.198,-31.738,-41.992,-39.551,-50.781,0.000
1709206256.202,-26.855,-41.504,-43.945,-41.992,0.000
1709206256.206,-36.133,-39.062,-46.875,-42.480,0.000
1709206256.210,-39.062,-34.180,-38.574,-46.387,0.000
1709206256.214,-42.480,-47.363,-40.527,-48.340,0.000
1709206256.218,-44.922,-59.082,-45.410,-41.016,0.000
1709206256.222,-40.527,-25.391,-43.457,-46.387,0.000
1709206256.226,-37.109,-17.578,-42.969,-61.523,0.000
1709206256.230,-36.621,-42.480,-44.434,-64.941,0.000
1709206256.234,-38.086,-39.062,-41.504,-52.246,0.000
1709206256.237,-42.480,-24.414,-44.434,-40.527,0.000
1709206256.241,-46.387,-35.645,-45.410,-46.875,0.000
1709206256.245,-40.039,-50.293,-47.852,-57.617,0.000
1709206256.249,-30.273,-48.828,-47.363,-54.688,0.000
1709206256.253,-45.410,-44.922,-34.180,-43.457,0.000
1709206256.257,-51.270,-52.734,-36.133,-36.621,0.000
1709206256.261,-45.410,-69.336,-43.945,-32.227,0.000
1709206256.265,-48.828,-68.848,-44.922,-45.898,0.000
1709206256.269,-53.223,-51.270,-42.480,-49.805,0.000
1709206256.273,-48.828,-52.246,-40.527,-37.598,0.000
1709206256.276,-44.434,-75.195,-36.133,-35.156,0.000
1709206256.280,-44.922,-52.734,-34.668,-41.992,0.000
1709206256.284,-44.434,-26.855,-39.551,-46.875,0.000
1709206256.288,0.000,-42.480,-41.504,-43.945,0.000
1709206256.292,0.000,-47.852,-37.598,-34.668,0.000
1709206256.296,0.000,-44.434,-38.086,-34.668,0.000
1709206256.300,0.000,-36.133,-38.574,-32.227,0.000
1709206256.304,0.000,-40.527,-34.668,-25.391,0.000
1709206256.308,0.000,-58.594,-33.691,-33.691,0.000
1709206256.312,0.000,-50.293,-33.203,-37.598,0.000
1709206256.316,0.000,-32.227,-39.062,-35.645,0.000
1709206256.319,0.000,-55.176,-41.504,-32.715,0.000
1709206256.323,0.000,-68.848,-40.039,-26.367,0.000
1709206256.327,0.000,-38.086,-41.504,-31.250,0.000
1709206256.331,0.000,-36.621,-38.086,-32.227,0.000
1709206256.335,-45.410,-57.617,-37.109,-30.273,0.000
1709206256.339,-50.293,-57.617,-44.434,-33.691,0.000
1709206256.343,-43.457,-49.316,-39.551,-41.992,0.000
1709206256.347,-34.180,-49.316,-40.527,-42.969,0.000
1709206256.351,-31.250,-54.688,-40.527,-32.715,0.000
1709206256.355,-34.180,-62.012,-38.086,-37.598,0.000
1709206256.359,-37.109,-44.434,-39.551,-39.062,0.000
1709206256.362,-30.273,-34.180,-38.574,-35.156,0.000
1709206256.366,-27.832,-65.918,-42.480,-22.461,0.000
1709206256.370,-26.367,-68.848,-43.457,-13.672,0.000
1709206256.374,-33.691,-41.016,-36.621,-30.273,0.000
1709206256.378,-45.898,-57.617,-33.203,-44.434,0.000
1709206256.382,-50.781,-64.941,-28.809,-38.086,0.000
1709206256.386,-52.734,-61.035,-27.344,-36.133,0.000
1709206256.390,-49.805,-75.195,-26.855,-39.062,0.000
1709206256.394,-46.387,-91.797,-16.113,-33.203,0.000
1709206256.398,-58.594,-99.121,-10.742,-25.391,0.000
1709206256.401,-58.105,-110.840,-14.648,-20.020,0.000
1709206256.405,-60.547,-112.305,-20.508,-22.461,0.000
1709206256.409,-68.359,-124.512,-22.461,-28.320,0.000
1709206256.413,-66.895,-143.066,-20.508,-16.602,0.000
1709206256.417,-73.242,-110.840,-21.484,-19.531,0.000
1709206256.421,-71.289,-115.723,-16.113,-36.133,0.000
1709206256.425,-65.918,-141.113,-14.648,-36.133,0.000
1709206256.429,-68.359,-138.672,-18.066,-31.738,0.000
1709206256.433,-74.707,-141.602,-16.113,-31.250,0.000
1709206256.437,-75.195,-156.250,-15.625,-20.020,0.000
1709206256.441,-72.754,-152.344,-19.531,-7.812,0.000
1709206256.444,-75.195,-145.020,-19.043,-7.324,0.000
1709206256.448,-59.570,-154.785,-15.625,-8.789,0.000
1709206256.452,-63.965,-159.668,-14.648,-23.438,0.000
1709206256.456,-72.754,-181.152,-17.578,-7.812,0.000
1709206256.460,-64.453,-170.898,-16.602,4.395,0.000
1709206256.464,-63.965,-147.949,-20.996,-13.184,0.000
1709206256.468,-63.965,-164.551,-23.926,-13.184,0.000
1709206256.472,-57.129,-160.156,-15.137,-1.465,0.000
1709206256.476,-49.316,-154.785,-13.672,1.953,0.000
1709206256.480,-48.340,-153.809,-15.137,0.000,0.000
1709206256.484,-41.016,-164.551,-15.625,7.324,0.000
1709206256.487,-45.898,-166.992,-13.184,8.301,0.000
1709206256.491,-41.992,-157.715,-17.578,2.441,0.000
1709206256.495,-45.898,-163.086,-19.531,-3.906,0.000
1709206256.499,-52.246,-168.457,-13.184,3.418,0.000
1709206256.503,-44.434,-166.016,-15.137,13.672,0.000
1709206256.507,-43.457,-137.695,-19.043,11.719,0.000
1709206256.511,-41.504,-128.418,-18.066,9.277,0.000
1709206256.515,-40.527,-146.484,-18.555,13.184,0.000
1709206256.519,-36.621,-147.461,-17.090,19.531,0.000
1709206256.523,-20.508,-128.906,-17.090,15.137,0.000
1709206256.526,-23.438,-126.465,-20.508,8.789,0.000
1709206256.530,-29.297,-129.883,-15.137,17.090,0.000
1709206256.534,-26.367,-118.164,-16.602,11.230,0.000
1709206256.538,-41.016,-124.512,-25.391,-4.395,0.000
1709206256.542,-42.480,-130.371,-29.297,-5.859,0.000
1709206256.546,-40.527,-144.531,-33.691,-4.883,0.000
1709206256.550,-38.574,-129.395,-31.738,-7.324,0.000
1709206256.554,-33.203,-84.473,-26.855,-15.137,0.000
1709206256.558,-25.879,-94.727,-28.809,-16.113,0.000
1709206256.562,-24.414,-85.938,-32.715,-18.555,0.000
1709206256.566,-23.438,-63.965,-35.156,-19.043,0.000
1709206256.569,0.000,-66.406,-34.180,-18.066,0.000
1709206256.573,0.000,-80.566,-27.344,-12.695,0.000
1709206256.577,0.000,-74.219,-31.738,-4.395,0.000
1709206256.581,0.000,-50.781,-38.574,-3.418,0.000
1709206256.585,0.000,-53.223,-33.691,-6.836,0.000
1709206256.589,0.000,-80.078,-34.180,-11.719,0.000
1709206256.593,0.000,-87.402,-36.133,-3.906,0.000
1709206256.597,0.000,-43.945,-30.762,-3.906,0.000
1709206256.601,0.000,-33.691,-29.785,-5.859,0.000
1709206256.605,0.000,-63.477,-33.691,2.441,0.000
1709206256.608,0.000,-63.965,-34.668,2.930,0.000
1709206256.612,0.000,-54.199,-39.551,-2.441,0.000
1709206256.616,-43.457,-61.523,-45.898,-18.066,0.000
1709206256.620,-33.203,-69.336,-42.480,-27.832,0.000
1709206256.624,-20.508,-61.523,-44.434,-24.902,0.000
1709206256.628,-21.484,-51.758,-47.852,-23.438,0.000
1709206256.632,-33.691,-60.059,-43.945,-22.461,0.000
1709206256.636,-38.574,-83.496,-35.156,-12.207,0.000
1709206256.640,-38.574,-70.312,-37.598,-13.184,0.000
1709206256.644,-35.645,-43.457,-39.551,-21.973,0.000
1709206256.648,-23.438,-54.688,-32.227,-28.809,0.000
1709206256.651,-14.160,-65.918,-28.320,-27.832,0.000
1709206256.655,-26.367,-48.340,-25.879,-20.996,0.000
1709206256.659,-25.391,-38.086,-24.414,-17.578,0.000
1709206256.663,-1.953,-60.547,-29.297,-21.484,0.000
1709206256.667,-9.277,-68.848,-35.156,-30.273,0.000
1709206256.671,-24.902,-52.734,-31.250,-20.996,0.000
1709206256.675,-30.273,-49.805,-27.832,-21.484,0.000
1709206256.679,-33.691,-59.082,-26.855,-20.020,0.000
1709206256.683,-31.738,-71.289,-26.855,-9.766,0.000
1709206256.687,-30.273,-54.199,-29.297,-9.277,0.000
1709206256.691,-27.344,-30.762,-32.227,-18.555,0.000
1709206256.694,-33.203,-55.664,-37.598,-24.902,0.000
1709206256.698,-34.668,-71.289,-32.227,-13.184,0.000
1709206256.702,-39.551,-39.062,-29.785,-24.414,0.000
1709206256.706,-45.410,-42.969,-32.715,-43.457,0.000
1709206256.710,-40.039,-62.500,-28.320,-36.133,0.000
1709206256.714,-33.203,-55.664,-25.879,-37.598,0.000
1709206256.718,-33.691,-40.527,-22.461,-39.551,0.000
1709206256.722,-47.852,-50.781,-28.809,-34.668,0.000
1709206256.726,-41.016,-56.152,-29.297,-36.133,0.000
1709206256.730,-44.434,-54.199,-24.902,-35.645,0.000
1709206256.734,-60.059,-49.805,-30.273,-36.133,0.000
1709206256.737,-48.340,-35.645,-28.320,-32.227,0.000
1709206256.741,-42.969,-58.594,-27.832,-15.137,0.000
1709206256.745,-43.945,-64.453,-33.203,-18.555,0.000
1709206256.749,-45.898,-27.344,-40.527,-41.992,0.000
1709206256.753,-37.598,-31.738,-39.062,-32.227,0.000
1709206256.757,-36.133,-42.969,-33.203,-28.320,0.000
1709206256.761,-32.227,-30.762,-33.691,-36.621,0.000
1709206256.765,-28.809,-39.062,-36.133,-35.645,0.000
1709206256.769,-35.156,-59.570,-34.180,-33.691,0.000
1709206256.773,-43.945,-64.941,-36.621,-39.551,0.000
1709206256.776,-59.082,-59.570,-41.504,-50.781,0.000
1709206256.780,-47.363,-48.828,-37.598,-46.875,0.000
1709206256.784,-40.527,-55.176,-41.992,-49.805,0.000
1709206256.788,-60.059,-67.383,-49.316,-55.664,0.000
1709206256.792,-64.941,-36.621,-49.805,-66.406,0.000
1709206256.796,-58.594,-16.113,-46.387,-66.895,0.000
1709206256.800,-46.387,-29.785,-43.457,-52.734,0.000
1709206256.804,0.000,-35.645,-46.875,-46.875,0.000
1709206256.808,0.000,-18.555,-41.016,-42.480,0.000
1709206256.812,0.000,-32.227,-41.016,-40.039,0.000
1709206256.816,0.000,-50.293,-42.480,-42.969,0.000
1709206256.819,0.000,-44.434,-36.133,-43.945,0.000
1709206256.823,0.000,-44.922,-35.156,-41.016,0.000
1709206256.827,0.000,-36.621,-42.480,-45.898,0.000
1709206256.831,0.000,-49.805,-42.480,-38.574,0.000
1709206256.835,0.000,-50.293,-33.691,-25.391,0.000
1709206256.839,0.000,-26.367,-36.133,-35.156,0.000
1709206256.843,0.000,-29.785,-35.156,-35.645,0.000
1709206256.847,0.000,-22.949,-25.879,-30.273,0.000
1709206256.851,-26.367,-20.996,-28.809,-33.691,0.000
1709206256.855,-39.062,-24.414,-30.762,-34.180,0.000
1709206256.859,-48.828,-41.504,-26.855,-25.879,0.000
1709206256.862,-49.316,-47.852,-31.250,-35.156,0.000
1709206256.866,-44.434,-38.574,-33.203,-45.410,0.000
1709206256.870,-39.551,-45.410,-32.227,-39.062,0.000
1709206256.874,-46.387,-54.688,-30.273,-39.062,0.000
1709206256.878,-48.828,-60.547,-27.344,-30.762,0.000
1709206256.882,-46.387,-34.180,-28.320,-24.902,0.000
1709206256.886,-47.363,-29.785,-27.344,-25.879,0.000
1709206256.890,-43.945,-56.152,-31.738,-31.738,0.000
1709206256.894,-42.969,-52.246,-36.621,-44.434,0.000
1709206256.898,-51.270,-28.809,-35.645,-42.480,0.000
1709206256.901,-44.434,-31.738,-38.574,-31.250,0.000
1709206256.905,-43.457,-46.387,-43.457,-36.621,0.000
1709206256.909,-47.363,-44.434,-40.527,-50.781,0.000
1709206256.913,-53.223,-43.945,-44.434,-54.688,0.000
1709206256.917,-66.895,-55.664,-45.898,-48.828,0.000
1709206256.921,-58.105,-77.148,-41.504,-39.551,0.000
1709206256.925,-54.688,-58.105,-39.551,-44.434,0.000
1709206256.929,-51.758,-14.648,-39.551,-55.664,0.000
1709206256.933,-50.293,-40.039,-40.527,-53.223,0.000
1709206256.937,-52.734,-49.805,-41.016,-58.594,0.000
1709206256.941,-50.781,-34.180,-47.852,-57.617,0.000
1709206256.944,-39.551,-35.156,-42.480,-46.875,0.000
1709206256.948,-40.039,-43.457,-42.969,-48.828,0.000
1709206256.952,-43.945,-45.898,-55.176,-51.270,0.000
1709206256.956,-42.969,-38.574,-55.176,-51.758,0.000
1709206256.960,-43.945,-39.551,-47.363,-54.199,0.000
1709206256.964,-42.969,-68.848,-40.039,-51.270,0.000
1709206256.968,-39.062,-79.102,-36.621,-36.621,0.000
1709206256.972,-32.715,-34.180,-34.668,-34.180,0.000
1709206256.976,-37.109,-38.086,-34.180,-41.504,0.000
1709206256.980,-46.387,-63.965,-33.691,-40.039,0.000
1709206256.983,-41.992,-56.641,-35.156,-33.691,0.000
1709206256.987,-35.645,-46.387,-36.133,-33.691,0.000
1709206256.991,-34.180,-57.617,-36.133,-38.086,0.000
1709206256.995,-32.227,-73.730,-37.109,-32.227,0.000
1709206256.999,-40.527,-59.570,-35.645,-24.902,0.000
1709206257.003,-45.898,-53.223,-37.109,-30.762,0.000
1709206257.007,-39.062,-63.477,-38.086,-26.855,0.000
1709206257.011,-41.992,-78.125,-41.016,-20.020,0.000
1709206257.015,-49.805,-66.406,-38.574,-26.367,0.000
1709206257.019,-52.734,-38.086,-34.668,-34.668,0.000
1709206257.022,-41.504,-45.410,-35.645,-51.270,0.000
1709206257.026,-46.875,-66.895,-38.086,-63.477,0.000
1709206257.030,-65.918,-52.246,-42.480,-60.059,0.000
1709206257.034,-57.129,-36.133,-41.504,-53.711,0.000
1709206257.038,-45.410,-53.711,-36.621,-44.434,0.000
1709206257.042,-50.293,-56.152,-39.062,-45.410,0.000
1709206257.046,-58.594,-48.340,-42.969,-49.805,0.000
1709206257.050,-53.223,-46.875,-48.340,-50.293,0.000
1709206257.054,-38.086,-53.711,-47.852,-47.363,0.000
1709206257.058,-37.109,-60.059,-41.504,-37.109,0.000
1709206257.062,-44.434,-47.852,-35.645,-36.621,0.000
1709206257.065,-45.898,-45.898,-36.621,-49.316,0.000
1709206257.069,-45.898,-71.289,-44.434,-48.828,0.000
1709206257.073,-51.270,-80.078,-42.480,-36.133,0.000
1709206257.077,-62.500,-45.898,-42.480,-34.668,0.000
1709206257.081,-54.199,-43.457,-39.551,-36.133,0.000
1709206257.085,-32.715,-55.664,-39.551,-38.574,0.000
1709206257.089,-36.133,-52.246,-42.969,-44.434,0.000
1709206257.093,-46.387,-42.480,-38.086,-51.758,0.000
1709206257.097,-45.410,-47.852,-37.598,-43.945,0.000
1709206257.101,-44.922,-56.152,-44.922,-34.180,0.000
1709206257.105,-44.922,-55.176,-46.875,-43.457,0.000
1709206257.108,-43.945,-44.922,-48.340,-53.223,0.000
1709206257.112,-46.387,-38.086,-51.270,-54.688,0.000
1709206257.116,-45.898,-63.477,-47.852,-47.363,0.000
1709206257.120,-40.039,-57.617,-44.922,-53.711,0.000
1709206257.124,-36.621,-20.996,-44.922,-64.453,0.000
1709206257.128,-33.691,-28.320,-48.340,-58.594,0.000
1709206257.132,-35.645,-41.016,-46.875,-52.246,0.000
1709206257.136,-44.922,-35.645,-47.363,-47.363,0.000
1709206257.140,-28.320,-32.227,-45.410,-36.133,0.000
1709206257.144,-19.043,-34.180,-39.062,-26.367,0.000
1709206257.148,-34.668,-41.992,-43.457,-28.809,0.000
1709206257.151,-32.227,-48.340,-47.363,-30.273,0.000
1709206257.155,-32.715,-37.598,-42.969,-31.250,0.000
1709206257.159,-37.598,-42.969,-41.504,-29.785,0.000
1709206257.163,-30.762,-57.617,-40.527,-18.555,0.000
1709206257.167,-21.973,-19.531,-37.109,-19.531,0.000
1709206257.171,-20.508,-20.020,-36.621,-28.809,0.000
1709206257.175,-20.996,-53.711,-37.598,-34.668,0.000
1709206257.179,0.000,-54.199,-34.180,-29.297,0.000
1709206257.183,0.000,-30.762,-32.227,-29.785,0.000
1709206257.187,0.000,-38.086,-34.180,-36.621,0.000
1709206257.190,0.000,-48.828,-36.621,-37.109,0.000
1709206257.194,0.000,-43.457,-44.434,-40.039,0.000
1709206257.198,0.000,-45.898,-41.016,-34.180,0.000
1709206257.202,0.000,-41.504,-38.086,-40.039,0.000
1709206257.206,0.000,-64.453,-45.898,-46.875,0.000
1709206257.210,0.000,-60.059,-39.062,-33.691,0.000
1709206257.214,0.000,-39.062,-31.738,-34.668,0.000
1709206257.218,0.000,-50.781,-35.645,-46.875,0.000
1709206257.222,0.000,-40.039,-39.062,-50.293,0.000
1709206257.225,-34.180,-22.949,-38.086,-49.805,0.000
1709206257.229,-45.898,-28.809,-36.621,-56.152,0.000
1709206257.233,-45.898,-52.734,-40.039,-56.152,0.000
1709206257.237,-46.387,-51.758,-42.480,-53.223,0.000
1709206257.241,-51.270,-39.551,-43.457,-43.945,0.000
1709206257.245,-43.457,-44.922,-43.457,-40.039,0.000
1709206257.249,-41.504,-50.293,-42.969,-34.668,0.000
1709206257.253,-48.340,-55.664,-46.875,-20.508,0.000
1709206257.257,-31.738,-32.715,-48.340,-30.273,0.000
1709206257.261,-37.598,-26.855,-41.504,-33.691,0.000
1709206257.265,-60.059,-49.805,-35.156,-25.391,0.000
1709206257.268,-56.152,-47.363,-38.086,-36.621,0.000
1709206257.272,1.465,-25.879,-37.109,-32.227,0.000
1709206257.276,-20.508,-31.738,-34.668,-14.160,0.000
1709206257.280,-28.809,-48.340,-38.574,-9.277,0.000
1709206257.284,-25.391,-41.992,-36.621,-11.230,0.000
1709206257.288,-22.461,-37.598,-36.133,-19.043,0.000
1709206257.292,-16.113,-43.945,-40.039,-32.715,0.000
1709206257.296,-22.461,-71.289,-38.574,-39.062,0.000
1709206257.300,-32.227,-54.688,-36.133,-35.645,0.000
1709206257.304,-31.738,-11.719,-41.992,-44.434,0.000
1709206257.308,-30.762,-35.156,-44.922,-50.293,0.000
1709206257.311,-31.250,-29.297,-39.062,-49.316,0.000
1709206257.315,-38.086,-12.695,-36.621,-46.875,0.000
1709206257.319,-43.945,-22.461,-39.551,-39.551,0.000
1709206257.323,-42.969,-33.203,-45.898,-47.852,0.000
1709206257.327,-44.434,-35.156,-50.781,-60.547,0.000
1709206257.331,-36.621,-26.367,-50.781,-60.547,0.000
1709206257.335,-47.363,-23.438,-46.875,-60.059,0.000
1709206257.339,-62.988,-41.016,-43.945,-48.340,0.000
1709206257.343,-60.059,-56.641,-47.363,-37.598,0.000
1709206257.347,-56.641,-31.738,-48.828,-48.828,0.000
1709206257.350,-49.316,-25.879,-41.504,-49.805,0.000
1709206257.354,-59.082,-43.945,-39.062,-47.363,0.000
1709206257.358,-66.895,-36.621,-43.457,-50.293,0.000
1709206257.362,-61.035,-24.414,-44.434,-53.711,0.000
1709206257.366,-62.500,-24.414,-44.922,-61.035,0.000
1709206257.370,-62.012,-39.062,-44.434,-57.617,0.000
1709206257.374,-51.270,-46.387,-39.062,-52.734,0.000
1709206257.378,-47.852,-26.367,-33.691,-44.922,0.000
1709206257.382,-47.852,-35.645,-36.621,-43.945,0.000
1709206257.386,-50.781,-79.590,-40.039,-51.270,0.000
1709206257.389,-40.527,-59.570,-36.133,-49.316,0.000
1709206257.393,-45.410,-31.250,-35.156,-48.340,0.000
1709206257.397,-59.082,-54.688,-37.598,-37.598,0.000
1709206257.401,-40.039,-64.941,-32.227,-23.438,0.000
1709206257.405,-30.273,-55.176,-29.785,-24.414,0.000
1709206257.409,-32.715,-41.992,-35.645,-34.668,0.000
1709206257.413,-29.785,-50.293,-31.738,-43.945,0.000
1709206257.417,-20.508,-61.523,-26.367,-47.852,0.000
1709206257.421,-21.973,-57.617,-32.715,-43.457,0.000
1709206257.425,-29.297,-55.176,-29.785,-40.527,0.000
1709206257.429,-20.020,-67.383,-24.902,-41.016,0.000
1709206257.432,-11.719,-80.078,-31.738,-36.133,0.000
1709206257.436,-18.555,-63.477,-38.086,-34.180,0.000
1709206257.440,-25.391,-41.992,-35.156,-33.203,0.000
1709206257.444,-20.508,-62.012,-34.180,-31.738,0.000
1709206257.448,-5.371,-77.148,-44.922,-29.785,0.000
1709206257.452,-17.090,-53.711,-43.945,-31.738,0.000
1709206257.456,-42.969,-48.828,-38.574,-32.715,0.000
1709206257.460,-38.086,-53.223,-44.434,-38.574,0.000
1709206257.464,-32.715,-55.176,-41.504,-39.062,0.000
1709206257.468,-29.297,-39.062,-41.016,-35.156,0.000
1709206257.472,-29.297,-41.992,-41.504,-35.645,0.000
1709206257.475,-36.133,-59.082,-38.574,-29.785,0.000
1709206257.479,-30.273,-58.594,-39.551,-28.320,0.000
1709206257.483,-31.738,-41.992,-43.945,-38.086,0.000
1709206257.487,-42.969,-35.645,-48.340,-46.387,0.000
1709206257.491,-46.387,-70.312,-42.480,-38.086,0.000
1709206257.495,-52.734,-62.012,-40.039,-33.691,0.000
1709206257.499,-56.152,-21.973,-38.574,-40.039,0.000
1709206257.503,-40.039,-33.691,-38.574,-39.551,0.000
1709206257.507,-27.832,-47.852,-47.363,-54.688,0.000
1709206257.511,-41.016,-41.992,-42.480,-59.570,0.000
1709206257.515,-49.805,-39.062,-40.527,-59.082,0.000
1709206257.518,-53.711,-58.594,-43.945,-60.547,0.000
1709206257.522,-52.246,-64.941,-43.457,-50.781,0.000
1709206257.526,-50.293,-51.270,-45.898,-51.758,0.000
1709206257.530,-51.270,-47.852,-50.293,-54.199,0.000
1709206257.534,-50.781,-60.059,-46.875,-47.363,0.000
1709206257.538,-49.316,-69.336,-43.457,-40.527,0.000
1709206257.542,-41.504,-36.621,-39.551,-39.062,0.000
1709206257.546,-37.109,-32.715,-38.574,-47.363,0.000
1709206257.550,-37.109,-50.293,-41.016,-53.223,0.000
1709206257.554,-41.016,-47.852,-43.945,-53.711,0.000
1709206257.557,-44.434,-41.504,-45.410,-52.246,0.000
1709206257.561,-26.855,-39.062,-37.109,-43.945,0.000
1709206257.565,-25.391,-43.945,-34.668,-42.969,0.000
1709206257.569,-34.668,-41.992,-38.086,-53.711,0.000
1709206257.573,-29.297,-47.852,-43.945,-57.617,0.000
1709206257.577,-32.227,-56.641,-41.992,-52.246,0.000
1709206257.581,-28.809,-67.383,-36.133,-39.551,0.000
1709206257.585,-28.320,-52.246,-43.457,-41.992,0.000
1709206257.589,-25.391,-26.367,-47.852,-52.246,0.000
1709206257.593,-25.879,-48.340,-46.387,-42.480,0.000
1709206257.597,-30.273,-50.293,-51.270,-42.969,0.000
1709206257.600,-33.203,-37.598,-50.293,-50.293,0.000
1709206257.604,-30.762,-25.391,-45.898,-48.828,0.000
1709206257.608,-11.719,-37.109,-48.340,-43.457,0.000
1709206257.612,-15.137,-50.293,-53.223,-46.875,0.000
1709206257.616,-43.945,-47.363,-46.387,-51.270,0.000
1709206257.620,-49.805,-54.688,-41.016,-55.664,0.000
1709206257.624,-45.410,-56.641,-43.457,-57.129,0.000
1709206257.628,-50.293,-56.152,-41.016,-46.875,0.000
1709206257.632,-51.270,-25.879,-35.156,-42.480,0.000
1709206257.636,-48.828,-29.785,-41.504,-46.875,0.000
1709206257.640,-45.410,-48.828,-42.480,-49.316,0.000
1709206257.643,-44.922,-31.738,-35.156,-51.758,0.000
1709206257.647,-43.945,-23.926,-34.668,-51.270,0.000
1709206257.651,-48.828,-41.016,-35.156,-61.523,0.000
1709206257.655,-61.035,-59.570,-42.480,-71.777,0.000
1709206257.659,-56.641,-49.316,-51.758,-65.918,0.000
1709206257.663,-54.199,-43.945,-53.223,-55.176,0.000
1709206257.667,-55.664,-58.594,-46.387,-52.246,0.000
1709206257.671,-37.109,-81.543,-43.945,-39.062,0.000
1709206257.675,-41.992,-63.477,-46.387,-28.809,0.000
1709206257.679,-57.617,-23.926,-42.969,-30.273,0.000
1709206257.682,-51.270,-51.758,-38.574,-25.391,0.000
1709206257.686,-43.457,-50.293,-37.109,-22.949,0.000
1709206257.690,-35.645,-37.598,-38.574,-18.066,0.000
1709206257.694,-37.109,-42.969,-36.133,-19.531,0.000
1709206257.698,-35.645,-41.992,-29.785,-18.555,0.000
1709206257.702,-32.715,-45.410,-28.320,-15.137,0.000
1709206257.706,-43.945,-42.969,-32.227,-23.438,0.000
1709206257.710,-47.363,-44.434,-41.504,-31.738,0.000
1709206257.714,-42.480,-56.152,-43.945,-23.438,0.000
1709206257.718,-46.387,-62.500,-35.645,-11.719,0.000
1709206257.721,-32.715,-27.344,-34.180,-25.391,0.000
1709206257.725,-23.926,-21.973,-35.645,-34.668,0.000
1709206257.729,-43.945,-53.711,-32.715,-29.785,0.000
1709206257.733,-42.969,-55.664,-31.738,-25.879,0.000
1709206257.737,-41.016,-39.551,-30.273,-22.949,0.000
1709206257.741,-41.992,-35.156,-31.738,-26.367,0.000
1709206257.745,-37.109,-45.898,-33.203,-34.180,0.000
1709206257.749,-37.109,-54.199,-34.180,-39.551,0.000
1709206257.753,-30.273,-46.387,-37.598,-33.691,0.000
1709206257.757,-29.785,-41.016,-37.598,-28.320,0.000
1709206257.761,-42.480,-55.176,-39.062,-36.133,0.000
1709206257.764,-34.180,-42.480,-36.621,-41.504,0.000
1709206257.768,-27.344,-25.879,-34.668,-46.875,0.000
1709206257.772,-38.086,-35.645,-39.551,-59.082,0.000
1709206257.776,-46.387,-66.406,-39.062,-47.363,0.000
1709206257.780,-35.645,-53.223,-35.156,-37.109,0.000
1709206257.784,-17.578,-24.414,-34.668,-40.527,0.000
1709206257.788,-29.785,-50.781,-35.645,-40.527,0.000
1709206257.792,-36.621,-51.270,-33.691,-37.109,0.000
1709206257.796,-40.039,-43.945,-41.016,-37.109,0.000
1709206257.800,-41.504,-55.664,-46.387,-37.109,0.000
1709206257.804,-34.668,-62.012,-41.992,-32.227,0.000
1709206257.807,-37.598,-69.824,-46.875,-41.992,0.000
1709206257.811,-43.945,-59.570,-44.922,-43.945,0.000
1709206257.815,-36.133,-40.039,-40.527,-35.645,0.000
1709206257.819,-27.832,-53.223,-36.621,-27.344,0.000
1709206257.823,-28.320,-65.430,-37.109,-21.484,0.000
1709206257.827,-25.391,-29.297,-37.598,-28.320,0.000
1709206257.831,-21.484,-27.832,-39.062,-37.598,0.000
1709206257.835,-25.879,-47.363,-39.062,-39.551,0.000
1709206257.839,-8.789,-39.062,-34.668,-39.062,0.000
1709206257.843,-21.484,-34.180,-35.645,-41.016,0.000
1709206257.847,-44.922,-44.434,-35.156,-39.551,0.000
1709206257.850,-35.645,-51.270,-36.133,-39.062,0.000
1709206257.854,-34.668,-50.781,-34.180,-42.480,0.000
1709206257.858,-38.574,-29.785,-34.668,-37.598,0.000
1709206257.862,-38.086,-20.508,-42.969,-38.574,0.000
1709206257.866,-34.668,-63.477,-41.992,-44.922,0.000
1709206257.870,-36.621,-68.848,-36.621,-45.410,0.000
1709206257.874,-44.922,-24.902,-39.062,-41.992,0.000
1709206257.878,-45.410,-31.250,-41.504,-37.109,0.000
1709206257.882,-45.898,-44.922,-40.039,-47.363,0.000
1709206257.886,-45.898,-30.273,-37.109,-45.898,0.000
1709206257.889,-49.805,-28.320,-36.133,-41.992,0.000
1709206257.893,-48.340,-46.387,-39.062,-32.227,0.000
1709206257.897,-36.621,-50.781,-36.133,-24.902,0.000
1709206257.901,-28.809,-45.898,-28.320,-31.738,0.000
1709206257.905,-23.926,-37.109,-27.832,-31.250,0.000
1709206257.909,-21.484,-42.480,-26.855,-22.461,0.000
1709206257.913,-39.062,-62.500,-28.320,-12.695,0.000
1709206257.917,-53.223,-34.180,-31.738,-16.113,0.000
1709206257.921,-50.781,-39.551,-28.320,-19.531,0.000
1709206257.925,-49.805,-58.594,-25.879,-20.508,0.000
1709206257.929,-53.223,-47.852,-26.855,-29.785,0.000
1709206257.932,-53.711,-45.410,-26.367,-33.691,0.000
1709206257.936,-54.199,-52.246,-24.902,-30.273,0.000
1709206257.940,-48.340,-55.176,-25.879,-26.367,0.000
1709206257.944,-42.969,-46.387,-34.668,-36.133,0.000
1709206257.948,-43.945,-44.434,-35.156,-43.945,0.000
1709206257.952,-26.367,-38.086,-28.320,-35.645,0.000
1709206257.956,-28.320,-63.477,-34.668,-36.133,0.000
1709206257.960,-46.875,-62.988,-41.992,-43.457,0.000
1709206257.964,-33.691,-27.344,-43.945,-43.945,0.000
1709206257.968,-23.926,-39.062,-36.133,-47.852,0.000
1709206257.972,-22.949,-33.691,-32.227,-47.852,0.000
1709206257.975,-28.320,-27.832,-35.156,-44.922,0.000
1709206257.979,-33.691,-40.527,-37.109,-47.852,0.000
1709206257.983,-33.203,-51.758,-37.598,-41.504,0.000
1709206257.987,-38.574,-50.781,-36.133,-36.621,0.000
1709206257.991,-35.156,-41.992,-31.250,-30.762,0.000
1709206257.995,-33.203,-43.457,-32.227,-28.809,0.000
1709206257.999,-37.598,-58.105,-35.645,-31.250,0.000
1709206258.003,-35.156,-68.848,-37.109,-16.602,0.000
1709206258.007,-35.645,-38.574,-37.109,-15.137,0.000
1709206258.011,-38.086,-24.414,-32.715,-29.297,0.000
1709206258.014,-38.086,-52.246,-33.691,-28.809,0.000
1709206258.018,-30.762,-55.176,-39.062,-24.414,0.000
1709206258.022,-17.090,-37.109,-39.062,-28.320,0.000
1709206258.026,-23.438,-40.527,-36.621,-35.645,0.000
1709206258.030,-35.156,-52.734,-38.574,-39.551,0.000
1709206258.034,-33.203,-55.664,-39.062,-41.016,0.000
1709206258.038,-33.691,-52.734,-38.574,-38.086,0.000
1709206258.042,-42.480,-48.340,-45.898,-36.133,0.000
1709206258.046,-41.992,-65.430,-40.527,-29.785,0.000
1709206258.050,-41.992,-56.641,-40.527,-28.320,0.000
1709206258.054,-45.898,-26.367,-50.293,-49.316,0.000
1709206258.057,-44.434,-47.852,-44.434,-56.152,0.000
1709206258.061,-40.039,-41.992,-40.039,-47.852,0.000
1709206258.065,-40.039,-22.949,-44.922,-46.387,0.000
1709206258.069,-31.250,-32.715,-48.828,-55.664,0.000
1709206258.073,-46.387,-43.945,-45.410,-51.758,0.000
1709206258.077,-61.523,-45.898,-41.992,-41.016,0.000
1709206258.081,-45.898,-33.203,-41.992,-44.922,0.000
1709206258.085,-39.551,-36.133,-37.598,-41.504,0.000
1709206258.089,-38.086,-56.641,-36.133,-41.016,0.000
1709206258.093,-40.527,-73.730,-44.434,-37.109,0.000
1709206258.096,-45.410,-43.945,-45.898,-39.062,0.000
1709206258.100,-48.828,-18.555,-41.504,-54.688,0.000
1709206258.104,-45.898,-39.062,-45.898,-61.523,0.000
1709206258.108,-30.273,-41.016,-42.480,-60.547,0.000
1709206258.112,-26.367,-28.320,-36.621,-54.199,0.000
1709206258.116,-27.832,-38.574,-41.016,-45.410,0.000
1709206258.120,-29.785,-54.199,-46.875,-42.480,0.000
1709206258.124,-29.785,-49.805,-44.434,-41.016,0.000
1709206258.128,-18.555,-37.109,-35.156,-33.691,0.000
1709206258.132,-14.160,-38.574,-32.227,-31.738,0.000
1709206258.135,-25.879,-65.918,-36.133,-25.391,0.000
1709206258.139,-17.578,-55.664,-39.062,-15.137,0.000
1709206258.143,-18.555,-24.902,-41.504,-29.297,0.000
1709206258.147,-38.574,-37.598,-39.551,-45.410,0.000
1709206258.151,-38.086,-62.500,-39.551,-41.992,0.000
1709206258.155,-39.062,-57.617,-41.016,-45.898,0.000
1709206258.159,-43.457,-36.621,-44.922,-58.594,0.000
1709206258.163,-42.969,-38.574,-43.457,-50.781,0.000
1709206258.167,-37.109,-44.922,-40.039,-47.852,0.000
1709206258.171,-38.574,-41.504,-38.086,-56.641,0.000
1709206258.175,-48.340,-37.109,-39.062,-54.688,0.000
1709206258.178,-54.199,-52.246,-40.527,-50.781,0.000
1709206258.182,-47.363,-68.848,-36.133,-44.922,0.000
1709206258.186,-37.109,-44.922,-35.645,-45.898,0.000
1709206258.190,-43.945,-31.738,-30.762,-46.875,0.000
1709206258.194,-44.434,-61.035,-25.879,-36.133,0.000
1709206258.198,-36.621,-69.336,-28.320,-23.438,0.000
1709206258.202,-43.457,-38.086,-35.156,-28.320,0.000
1709206258.206,-45.410,-49.805,-40.527,-35.645,0.000
1709206258.210,-38.086,-64.453,-35.645,-39.062,0.000
1709206258.214,-39.551,-48.828,-36.621,-44.922,0.000
1709206258.218,-43.945,-33.691,-40.039,-46.875,0.000
1709206258.221,-40.039,-35.156,-43.457,-42.480,0.000
1709206258.225,-41.992,-49.316,-42.969,-41.016,0.000
1709206258.229,-46.387,-55.664,-39.062,-44.922,0.000
1709206258.233,-46.875,-42.969,-42.969,-46.875,0.000
1709206258.237,-50.293,-31.738,-45.410,-50.293,0.000
1709206258.241,-41.504,-69.336,-47.852,-35.645,0.000
1709206258.245,-30.762,-67.383,-49.805,-25.391,0.000
1709206258.249,-41.992,-27.344,-46.387,-36.621,0.000
1709206258.253,-47.852,-38.574,-45.898,-39.551,0.000
1709206258.257,-38.574,-44.922,-46.387,-40.527,0.000
1709206258.261,-29.785,-29.297,-42.969,-38.574,0.000
1709206258.264,-30.273,-33.691,-41.016,-36.621,0.000
1709206258.268,-28.809,-49.805,-41.992,-39.062,0.000
1709206258.272,-27.344,-45.898,-40.039,-44.434,0.000
1709206258.276,-29.785,-47.363,-40.527,-41.016,0.000
1709206258.280,-36.133,-39.551,-44.434,-31.250,0.000
1709206258.284,-33.203,-40.527,-38.574,-23.926,0.000
1709206258.288,-33.203,-64.453,-32.715,-13.672,0.000
1709206258.292,-42.969,-39.551,-36.133,-20.996,0.000
1709206258.296,-44.922,-32.715,-36.133,-29.785,0.000
1709206258.300,-38.086,-55.176,-35.645,-28.809,0.000
1709206258.303,-39.551,-51.270,-37.598,-37.109,0.000
1709206258.307,-55.176,-40.039,-32.715,-37.598,0.000
1709206258.311,-56.641,-43.945,-29.297,-33.203,0.000
1709206258.315,-57.617,-59.570,-35.645,-36.133,0.000
1709206258.319,-59.570,-52.246,-41.016,-37.598,0.000
1709206258.323,-47.363,-48.340,-39.062,-37.109,0.000
1709206258.327,-41.504,-56.641,-38.086,-35.156,0.000
1709206258.331,-45.898,-72.754,-42.480,-24.414,0.000
1709206258.335,-47.852,-60.547,-47.852,-13.184,0.000
1709206258.339,-46.875,-31.738,-47.363,-15.137,0.000
1709206258.343,-44.922,-41.016,-44.434,-16.602,0.000
1709206258.346,-40.527,-33.691,-40.039,-21.484,0.000
1709206258.350,-30.762,-30.273,-46.387,-31.738,0.000
1709206258.354,-21.484,-36.621,-51.758,-38.574,0.000
1709206258.358,-41.016,-49.805,-44.434,-34.180,0.000
1709206258.362,-57.617,-47.363,-40.039,-34.180,0.000
1709206258.366,-47.363,-34.180,-39.062,-43.945,0.000
1709206258.370,-46.387,-43.457,-37.109,-43.457,0.000
1709206258.374,-51.758,-52.246,-38.574,-29.785,0.000
1709206258.378,-48.828,-68.359,-37.598,-22.461,0.000
1709206258.382,-43.457,-44.434,-37.598,-31.738,0.000
1709206258.386,-30.762,-20.020,-38.574,-38.086,0.000
1709206258.389,-29.297,-40.527,-37.598,-45.410,0.000
1709206258.393,-27.344,-41.504,-37.109,-58.594,0.000
1709206258.397,-27.344,-25.879,-34.668,-56.641,0.000
1709206258.401,-45.410,-30.273,-36.133,-46.875,0.000
1709206258.405,-48.340,-44.922,-38.086,-42.969,0.000
1709206258.409,-48.828,-45.898,-37.598,-39.062,0.000
1709206258.413,-53.223,-43.457,-37.598,-38.086,0.000
1709206258.417,-50.293,-49.805,-41.016,-35.156,0.000
1709206258.421,-44.922,-70.801,-41.016,-19.531,0.000
1709206258.425,-34.180,-53.711,-41.504,-15.625,0.000
1709206258.428,-26.367,-17.090,-44.434,-45.898,0.000
1709206258.432,-42.969,-43.457,-43.945,-64.453,0.000
1709206258.436,-49.316,-65.430,-42.969,-49.805,0.000
1709206258.440,-44.434,-40.527,-43.945,-43.945,0.000
1709206258.444,-58.594,-18.555,-41.504,-42.480,0.000
1709206258.448,-59.082,-33.203,-28.809,-34.668,0.000
1709206258.452,-53.711,-48.340,-27.344,-38.086,0.000
1709206258.456,-49.316,-32.227,-35.645,-37.598,0.000
1709206258.460,-46.875,-26.367,-35.645,-34.180,0.000
1709206258.464,-41.992,-49.316,-38.574,-43.457,0.000
1709206258.468,-33.691,-63.477,-38.574,-42.480,0.000
1709206258.471,-38.086,-39.062,-35.156,-43.945,0.000
1709206258.475,-31.738,-31.738,-35.156,-49.316,0.000
1709206258.479,-35.645,-52.734,-36.621,-37.109,0.000
1709206258.483,-44.434,-53.711,-40.039,-32.227,0.000
1709206258.487,-33.203,-40.039,-40.527,-36.621,0.000
1709206258.491,-32.715,-45.898,-37.598,-45.410,0.000
1709206258.495,-21.484,-61.035,-34.180,-43.945,0.000
1709206258.499,-33.691,-55.664,-42.480,-39.551,0.000
1709206258.503,-48.828,-47.852,-44.434,-52.246,0.000
1709206258.507,-38.086,-48.828,-36.133,-48.828,0.000
1709206258.510,-34.180,-71.289,-34.180,-37.598,0.000
1709206258.514,-31.250,-60.059,-34.180,-35.645,0.000
1709206258.518,-39.062,-31.250,-40.039,-41.016,0.000
1709206258.522,-51.758,-41.504,-42.480,-49.805,0.000
1709206258.526,-51.758,-62.012,-36.621,-49.316,0.000
1709206258.530,-41.504,-38.574,-34.668,-41.992,0.000
1709206258.534,-37.598,-16.113,-41.016,-37.598,0.000
1709206258.538,-31.738,-40.527,-44.434,-49.805,0.000
1709206258.542,-34.668,-54.199,-37.598,-58.594,0.000
1709206258.546,-48.828,-41.016,-32.227,-53.711,0.000
1709206258.550,-48.340,-44.434,-33.691,-49.316,0.000
1709206258.553,-42.480,-60.059,-38.574,-43.945,0.000
1709206258.557,-38.086,-61.523,-41.016,-47.363,0.000
1709206258.561,-40.039,-45.898,-40.527,-51.758,0.000
1709206258.565,-43.945,-33.203,-43.457,-53.223,0.000
1709206258.569,-38.574,-56.152,-40.039,-55.664,0.000
1709206258.573,-19.043,-64.941,-39.062,-48.828,0.000
1709206258.577,-27.832,-40.039,-45.410,-47.363,0.000
1709206258.581,-39.062,-36.133,-37.109,-43.945,0.000
1709206258.585,-25.879,-49.316,-29.785,-38.086,0.000
1709206258.589,-23.438,-49.805,-33.691,-42.969,0.000
1709206258.592,-35.156,-34.180,-41.016,-43.945,0.000
1709206258.596,-33.691,-38.574,-39.551,-36.133,0.000
1709206258.600,-31.250,-49.316,-32.715,-33.691,0.000
1709206258.604,-29.297,-47.363,-35.645,-44.922,0.000
1709206258.608,-24.902,-47.852,-40.039,-44.922,0.000
1709206258.612,-42.480,-48.340,-41.016,-47.852,0.000
1709206258.616,-49.805,-63.965,-42.480,-44.922,0.000
1709206258.620,-41.992,-62.500,-43.457,-32.715,0.000
1709206258.624,-37.598,-20.996,-41.504,-37.109,0.000
1709206258.628,-34.668,-28.809,-38.086,-37.598,0.000
1709206258.632,-34.180,-47.363,-37.109,-42.480,0.000
1709206258.635,-36.621,-39.062,-36.621,-40.527,0.000
1709206258.639,-30.762,-32.227,-36.133,-29.785,0.000
1709206258.643,-24.902,-44.434,-38.574,-31.250,0.000
1709206258.647,-22.949,-55.664,-34.180,-24.902,0.000
1709206258.651,-27.832,-52.734,-31.738,-22.461,0.000
1709206258.655,-21.484,-37.109,-31.250,-25.391,0.000
1709206258.659,-27.832,-37.109,-31.250,-20.020,0.000
1709206258.663,-37.598,-57.617,-31.250,-19.043,0.000
1709206258.667,-31.738,-29.785,-29.785,-31.738,0.000
1709206258.671,-33.691,-15.625,-28.809,-40.039,0.000
1709206258.675,-39.551,-45.898,-34.180,-42.969,0.000
1709206258.678,-40.527,-49.805,-33.203,-41.016,0.000
1709206258.682,-34.668,-38.086,-33.691,-44.922,0.000
1709206258.686,-41.992,-45.898,-39.551,-54.199,0.000
1709206258.690,-44.434,-47.363,-38.086,-49.805,0.000
1709206258.694,-45.898,-34.668,-36.621,-41.504,0.000
1709206258.698,-56.641,-39.062,-40.527,-37.109,0.000
1709206258.702,-46.875,-38.086,-42.480,-45.898,0.000
1709206258.706,-38.086,-56.641,-40.039,-45.898,0.000
1709206258.710,-35.156,-54.688,-43.457,-38.574,0.000
1709206258.714,-34.180,-31.738,-54.199,-51.270,0.000
1709206258.717,-41.016,-48.340,-52.246,-51.270,0.000
1709206258.721,-34.180,-44.922,-38.086,-39.062,0.000
1709206258.725,-31.250,-30.273,-39.551,-41.504,0.000
1709206258.729,-40.039,-26.855,-46.875,-43.945,0.000
1709206258.733,-28.809,-47.852,-45.898,-38.086,0.000
1709206258.737,-36.133,-49.805,-41.016,-45.898,0.000
1709206258.741,-46.387,-39.551,-42.480,-47.852,0.000
1709206258.745,-44.434,-50.293,-44.434,-42.480,0.000
1709206258.749,-49.316,-53.223,-37.598,-41.016,0.000
1709206258.753,-49.316,-62.988,-40.527,-25.391,0.000
1709206258.757,-50.781,-38.574,-45.898,-22.949,0.000
1709206258.760,-47.363,-17.578,-40.527,-24.414,0.000
1709206258.764,-45.410,-40.039,-33.203,-23.438,0.000
1709206258.768,-41.016,-42.969,-29.297,-28.809,0.000
1709206258.772,-43.457,-30.762,-29.297,-29.785,0.000
1709206258.776,-34.668,-42.480,-30.273,-24.902,0.000
1709206258.780,-39.062,-60.059,-25.391,-19.043,0.000
1709206258.784,-56.641,-46.387,-27.832,-30.273,0.000
1709206258.788,-51.270,-37.598,-28.809,-36.621,0.000
1709206258.792,-48.828,-46.875,-29.297,-39.062,0.000
1709206258.796,-48.340,-71.289,-37.598,-34.668,0.000
1709206258.799,-50.781,-61.523,-44.922,-36.621,0.000
1709206258.803,-51.270,-20.508,-39.062,-55.664,0.000
1709206258.807,-41.992,-42.480,-33.203,-52.734,0.000
1709206258.811,-34.180,-46.387,-35.156,-45.410,0.000
1709206258.815,-39.551,-33.203,-38.086,-45.410,0.000
1709206258.819,0.000,-35.156,-32.715,-48.340,0.000
1709206258.823,0.000,-49.805,-31.250,-50.293,0.000
1709206258.827,0.000,-53.223,-33.203,-46.875,0.000
1709206258.831,0.000,-41.016,-34.180,-40.527,0.000
1709206258.835,0.000,-54.688,-33.203,-35.645,0.000
1709206258.839,0.000,-73.730,-27.832,-33.691,0.000
1709206258.842,0.000,-69.336,-30.273,-30.273,0.000
1709206258.846,0.000,-46.875,-38.574,-40.527,0.000
1709206258.850,0.000,-41.016,-38.574,-47.363,0.000
1709206258.854,0.000,-65.430,-34.668,-35.645,0.000
1709206258.858,0.000,-70.312,-38.574,-29.785,0.000
1709206258.862,0.000,-30.273,-39.551,-36.133,0.000
1709206258.866,-44.434,-24.902,-35.156,-30.273,0.000
1709206258.870,-29.785,-45.898,-31.250,-26.855,0.000
1709206258.874,-30.762,-49.805,-34.180,-35.156,0.000
1709206258.878,-49.316,-34.668,-38.086,-30.762,0.000
1709206258.881,-48.340,-35.645,-34.668,-30.762,0.000
1709206258.885,-50.293,-72.266,-33.203,-32.715,0.000
1709206258.889,-52.734,-60.547,-39.062,-32.715,0.000
1709206258.893,-47.852,-36.133,-40.039,-38.086,0.000
1709206258.897,-41.992,-56.641,-42.969,-39.062,0.000
1709206258.901,-46.387,-65.430,-48.340,-36.621,0.000
1709206258.905,-43.457,-51.758,-43.945,-42.969,0.000
1709206258.909,-36.621,-37.598,-38.086,-58.105,0.000
1709206258.913,-27.344,-49.316,-40.527,-65.430,0.000
1709206258.917,-27.344,-51.270,-37.109,-55.176,0.000
1709206258.921,-44.922,-38.574,-35.156,-38.574,0.000
1709206258.924,-42.480,-37.109,-37.598,-42.480,0.000
1709206258.928,-33.203,-45.898,-36.133,-50.293,0.000
1709206258.932,-27.832,-54.199,-38.086,-40.527,0.000
1709206258.936,-29.297,-35.156,-37.109,-31.250,0.000
1709206258.940,-33.203,-19.531,-36.621,-32.715,0.000
1709206258.944,-37.109,-41.504,-40.527,-28.809,0.000
1709206258.948,-33.691,-48.828,-40.039,-27.344,0.000
1709206258.952,-35.156,-24.414,-41.016,-31.250,0.000
1709206258.956,-42.969,-17.090,-45.898,-32.715,0.000
1709206258.960,-32.715,-33.203,-42.969,-31.250,0.000
1709206258.964,-31.738,-36.621,-38.086,-41.504,0.000
1709206258.967,-41.016,-33.203,-37.598,-46.387,0.000
1709206258.971,-42.969,-46.387,-38.574,-41.016,0.000
1709206258.975,-47.852,-61.035,-45.898,-44.922,0.000
1709206258.979,-42.480,-61.523,-43.945,-45.898,0.000
1709206258.983,-42.969,-51.270,-37.598,-38.086,0.000
1709206258.987,-41.992,-46.875,-36.621,-37.109,0.000
1709206258.991,-39.062,-78.125,-36.621,-36.133,0.000
1709206258.995,-54.688,-85.938,-36.133,-42.969,0.000
1709206258.999,-58.105,-45.898,-35.156,-50.293,0.000
1709206259.003,-42.480,-43.945,-31.250,-41.016,0.000
1709206259.007,-45.898,-62.012,-30.762,-34.180,0.000
1709206259.010,-47.363,-56.152,-33.203,-40.039,0.000
1709206259.014,-48.828,-48.340,-33.203,-47.363,0.000
1709206259.018,-49.316,-63.965,-29.785,-41.992,0.000
1709206259.022,-39.551,-64.941,-26.367,-29.785,0.000
1709206259.026,-24.902,-55.664,-29.297,-37.109,0.000
1709206259.030,-25.879,-43.945,-31.738,-49.316,0.000
1709206259.034,-48.340,-49.316,-39.551,-52.734,0.000
1709206259.038,-46.875,-71.289,-41.992,-44.922,0.000
1709206259.042,-43.457,-39.062,-38.086,-41.992,0.000
1709206259.046,-44.922,-31.250,-41.992,-48.828,0.000
1709206259.049,-46.875,-51.758,-42.480,-46.387,0.000
1709206259.053,-45.410,-43.945,-38.086,-44.434,0.000
1709206259.057,-44.434,-38.086,-38.086,-45.898,0.000
1709206259.061,-45.898,-50.781,-40.527,-47.363,0.000
1709206259.065,-35.156,-57.129,-37.109,-37.109,0.000
1709206259.069,-48.340,-50.293,-31.250,-28.809,0.000
1709206259.073,-60.547,-51.758,-34.180,-37.598,0.000
1709206259.077,-52.734,-49.316,-39.062,-46.387,0.000
1709206259.081,-46.875,-68.848,-35.645,-36.133,0.000
1709206259.085,-41.016,-61.523,-32.227,-22.461,0.000
1709206259.089,-32.227,-31.738,-33.203,-39.062,0.000
1709206259.092,-31.738,-41.992,-37.598,-44.434,0.000
1709206259.096,-58.105,-39.551,-41.992,-40.039,0.000
1709206259.100,-57.617,-32.227,-42.480,-36.621,0.000
1709206259.104,-47.852,-33.691,-37.598,-34.668,0.000
1709206259.108,-52.246,-52.734,-35.156,-34.668,0.000
1709206259.112,-48.828,-59.082,-39.551,-36.621,0.000
1709206259.116,-60.059,-50.781,-45.410,-41.504,0.000
1709206259.120,-47.852,-52.734,-43.457,-38.086,0.000
1709206259.124,-36.621,-58.594,-33.203,-34.668,0.000
1709206259.128,-50.781,-65.430,-32.715,-29.785,0.000
1709206259.131,-53.223,-42.969,-37.109,-36.133,0.000
1709206259.135,-52.734,-38.086,-35.645,-37.109,0.000
1709206259.139,-44.434,-60.547,-36.133,-33.691,0.000
1709206259.143,-39.551,-54.688,-34.180,-32.227,0.000
1709206259.147,-38.574,-34.668,-30.273,-27.832,0.000
1709206259.151,-37.598,-37.598,-26.855,-26.367,0.000
1709206259.155,-39.551,-58.594,-26.367,-16.113,0.000
1709206259.159,-36.133,-47.363,-23.438,-16.602,0.000
1709206259.163,-23.926,-28.809,-26.855,-30.273,0.000
1709206259.167,-22.461,-43.945,-31.738,-46.875,0.000
1709206259.171,-39.062,-66.895,-29.297,-35.645,0.000
1709206259.174,-45.898,-55.664,-33.203,-27.344,0.000
1709206259.178,-37.109,-23.438,-36.133,-39.062,0.000
1709206259.182,-31.738,-41.504,-36.621,-39.062,0.000
1709206259.186,-37.598,-39.551,-41.504,-41.016,0.000
1709206259.190,-35.645,-27.344,-39.062,-41.992,0.000
1709206259.194,-30.762,-31.250,-41.016,-43.945,0.000
1709206259.198,-25.391,-42.480,-42.969,-41.992,0.000
1709206259.202,-13.184,-47.852,-43.457,-43.457,0.000
1709206259.206,-21.973,-32.715,-42.480,-49.805,0.000
1709206259.210,-37.109,-30.762,-41.992,-47.363,0.000
1709206259.213,-33.691,-56.152,-41.504,-44.922,0.000
1709206259.217,-42.969,-72.266,-45.410,-44.434,0.000
1709206259.221,-46.387,-34.668,-51.270,-43.945,0.000
1709206259.225,-33.691,-16.602,-49.316,-47.852,0.000
1709206259.229,-35.645,-42.969,-44.434,-54.688,0.000
1709206259.233,-26.855,-47.852,-45.898,-53.223,0.000
1709206259.237,-25.391,-45.410,-43.945,-49.316,0.000
1709206259.241,-46.875,-52.246,-43.457,-62.500,0.000
1709206259.245,-44.434,-57.129,-47.363,-66.895,0.000
1709206259.249,-35.645,-57.617,-44.434,-59.570,0.000
1709206259.253,-41.016,-53.711,-45.410,-57.617,0.000
1709206259.256,-48.828,-52.246,-43.457,-56.152,0.000
1709206259.260,-47.852,-62.012,-37.598,-40.527,0.000
1709206259.264,-39.551,-51.270,-41.016,-34.180,0.000
1709206259.268,-25.879,-26.855,-43.945,-43.457,0.000
1709206259.272,-41.992,-34.668,-40.039,-42.969,0.000
1709206259.276,-61.035,-49.805,-36.621,-40.527,0.000
1709206259.280,-50.781,-29.785,-33.203,-38.086,0.000
1709206259.284,-44.922,-3.906,-32.227,-51.758,0.000
1709206259.288,0.000,-24.414,-34.180,-50.781,0.000
1709206259.292,0.000,-33.203,-32.227,-35.645,0.000
1709206259.296,0.000,-37.598,-27.344,-32.227,0.000
1709206259.299,0.000,-35.156,-32.715,-33.203,0.000
1709206259.303,0.000,-28.320,-44.434,-35.645,0.000
1709206259.307,0.000,-41.992,-41.992,-40.039,0.000
1709206259.311,0.000,-29.785,-38.086,-47.363,0.000
1709206259.315,0.000,-15.137,-41.504,-46.387,0.000
1709206259.319,0.000,-37.598,-34.668,-39.551,0.000
1709206259.323,0.000,-39.062,-27.832,-32.227,0.000
1709206259.327,0.000,-11.230,-33.691,-36.133,0.000
1709206259.331,0.000,-19.531,-42.969,-51.758,0.000
1709206259.335,-46.875,-41.992,-42.969,-46.387,0.000
1709206259.338,-47.363,-41.016,-41.504,-33.203,0.000
1709206259.342,-55.664,-22.949,-40.527,-40.039,0.000
1709206259.346,-35.156,-24.902,-40.527,-44.434,0.000
1709206259.350,-22.461,-39.062,-36.133,-34.180,0.000
1709206259.354,-42.480,-44.434,-34.668,-28.320,0.000
1709206259.358,-40.039,-36.621,-36.133,-37.598,0.000
1709206259.362,-30.762,-24.902,-37.109,-40.039,0.000
1709206259.366,-29.785,-59.570,-39.062,-24.414,0.000
1709206259.370,-33.691,-58.594,-38.086,-15.137,0.000
1709206259.374,-41.016,-13.184,-36.133,-33.691,0.000
1709206259.378,-45.410,-29.785,-38.574,-40.527,0.000
1709206259.381,-49.316,-42.969,-46.387,-37.598,0.000
1709206259.385,-36.621,-34.668,-44.434,-42.480,0.000
1709206259.389,-35.156,-34.180,-30.273,-41.016,0.000
1709206259.393,-54.688,-39.062,-27.832,-45.410,0.000
1709206259.397,-61.523,-44.434,-36.133,-58.105,0.000
1709206259.401,-54.688,-45.410,-36.621,-55.664,0.000
1709206259.405,-41.504,-36.133,-40.039,-60.059,0.000
1709206259.409,-41.016,-43.457,-40.527,-57.129,0.000
1709206259.413,-40.527,-65.430,-35.156,-42.480,0.000
1709206259.417,-41.992,-34.668,-34.668,-45.410,0.000
1709206259.421,-41.992,-20.508,-33.203,-53.223,0.000
1709206259.424,-28.809,-45.410,-38.086,-43.945,0.000
1709206259.428,-29.297,-47.363,-43.945,-46.875,0.000
1709206259.432,-22.949,-29.785,-40.039,-53.711,0.000
1709206259.436,-28.320,-33.691,-34.668,-41.016,0.000
1709206259.440,-41.992,-49.316,-36.621,-40.527,0.000
1709206259.444,-36.621,-47.363,-36.621,-51.758,0.000
1709206259.448,-33.691,-45.410,-37.109,-49.316,0.000
1709206259.452,-30.762,-45.410,-41.992,-46.875,0.000
1709206259.456,-35.645,-65.918,-37.598,-39.062,0.000
1709206259.460,-38.086,-62.988,-34.668,-18.066,0.000
1709206259.463,-33.203,-33.203,-34.180,-19.043,0.000
1709206259.467,-35.645,-42.969,-31.738,-29.297,0.000
1709206259.471,-22.949,-39.062,-34.668,-27.832,0.000
1709206259.475,-30.273,-31.250,-36.133,-18.555,0.000
1709206259.479,-43.945,-32.227,-32.227,-22.461,0.000
1709206259.483,-35.156,-41.992,-30.273,-28.320,0.000
1709206259.487,-37.598,-49.805,-34.180,-37.109,0.000
1709206259.491,-43.457,-42.969,-38.574,-43.945,0.000
1709206259.495,-53.223,-54.199,-40.039,-42.480,0.000
1709206259.499,-49.316,-59.570,-37.109,-43.457,0.000
1709206259.503,-49.805,-56.152,-37.109,-38.086,0.000
1709206259.506,-55.176,-34.180,-40.039,-43.945,0.000
1709206259.510,-52.734,-26.855,-37.109,-55.176,0.000
1709206259.514,-49.316,-49.316,-33.203,-47.363,0.000
1709206259.518,-35.156,-45.410,-32.715,-45.410,0.000
1709206259.522,-28.809,-39.551,-38.086,-47.363,0.000
1709206259.526,-43.945,-45.898,-44.434,-42.480,0.000
1709206259.530,-35.645,-36.133,-35.156,-28.809,0.000
1709206259.534,-25.391,-23.438,-30.273,-23.438,0.000
1709206259.538,-39.062,-29.785,-38.086,-37.598,0.000
1709206259.542,-45.898,-49.805,-41.016,-51.270,0.000
1709206259.545,-43.457,-73.730,-43.945,-42.969,0.000
1709206259.549,-43.945,-62.988,-45.898,-31.738,0.000
1709206259.553,-38.086,-24.902,-40.527,-32.227,0.000
1709206259.557,-38.086,-47.852,-35.156,-34.180,0.000
1709206259.561,-30.273,-46.387,-37.109,-36.621,0.000
1709206259.565,-24.414,-35.156,-38.574,-39.062,0.000
1709206259.569,-43.945,-39.062,-37.109,-33.203,0.000
1709206259.573,-46.387,-49.805,-40.039,-36.621,0.000
1709206259.577,-47.363,-62.500,-42.480,-41.016,0.000
1709206259.581,-53.223,-57.129,-41.504,-39.062,0.000
1709206259.585,-50.293,-45.410,-41.016,-44.922,0.000
1709206259.588,-42.480,-53.223,-42.969,-51.270,0.000
1709206259.592,-46.387,-73.242,-44.922,-47.852,0.000
1709206259.596,-49.805,-50.293,-48.340,-46.875,0.000
1709206259.600,-43.457,-35.156,-44.922,-48.828,0.000
1709206259.604,-49.316,-49.805,-40.527,-39.062,0.000
1709206259.608,-58.105,-45.410,-41.504,-41.504,0.000
1709206259.612,-54.199,-39.062,-36.621,-46.875,0.000
1709206259.616,-53.711,-42.480,-30.273,-47.852,0.000
1709206259.620,-42.969,-54.199,-30.273,-36.621,0.000
1709206259.624,-37.598,-55.176,-32.715,-30.762,0.000
1709206259.627,-35.156,-37.598,-34.180,-38.086,0.000
1709206259.631,-32.715,-43.945,-32.715,-46.387,0.000
1709206259.635,-50.781,-76.660,-29.297,-40.527,0.000
1709206259.639,-51.758,-72.754,-33.203,-36.133,0.000
1709206259.643,-44.922,-31.738,-37.109,-30.273,0.000
1709206259.647,-38.086,-29.297,-30.762,-25.879,0.000
1709206259.651,-30.273,-58.105,-28.809,-27.832,0.000
1709206259.655,-29.785,-48.828,-31.738,-33.691,0.000
1709206259.659,-34.668,-28.320,-30.762,-38.086,0.000
1709206259.663,-34.180,-40.039,-34.668,-34.180,0.000
1709206259.667,-37.598,-42.480,-38.086,-34.668,0.000
1709206259.670,-32.715,-38.086,-37.109,-31.250,0.000
1709206259.674,-31.250,-36.133,-28.320,-29.785,0.000
1709206259.678,-39.551,-43.457,-30.762,-32.715,0.000
1709206259.682,-36.621,-56.641,-34.180,-32.715,0.000
1709206259.686,-23.438,-34.180,-27.344,-32.227,0.000
1709206259.690,-31.738,-20.996,-26.855,-37.598,0.000
1709206259.694,-47.852,-48.340,-33.691,-41.504,0.000
1709206259.698,-45.898,-58.105,-39.062,-41.992,0.000
1709206259.702,-34.180,-27.832,-36.621,-41.992,0.000
1709206259.706,-32.227,-26.855,-38.086,-52.734,0.000
1709206259.710,-39.551,-46.387,-36.133,-63.477,0.000
1709206259.713,-43.945,-41.992,-34.668,-58.105,0.000
1709206259.717,-43.945,-37.109,-40.527,-49.316,0.000
1709206259.721,-49.805,-40.527,-37.598,-40.527,0.000
1709206259.725,-49.805,-46.387,-30.762,-36.621,0.000
1709206259.729,-43.457,-55.176,-31.250,-35.156,0.000
1709206259.733,-49.805,-47.852,-33.691,-42.480,0.000
1709206259.737,-41.016,-35.156,-31.738,-43.457,0.000
1709206259.741,-38.574,-67.383,-31.738,-32.715,0.000
1709206259.745,-57.129,-67.383,-34.180,-33.203,0.000
1709206259.749,-54.199,-24.902,-35.156,-40.527,0.000
1709206259.753,-40.527,-32.227,-32.227,-36.133,0.000
1709206259.756,-35.645,-37.598,-35.645,-34.668,0.000
1709206259.760,-42.480,-30.273,-41.992,-30.762,0.000
1709206259.764,-39.551,-29.297,-44.434,-40.039,0.000
1709206259.768,-35.156,-44.922,-43.457,-49.805,0.000
1709206259.772,-30.762,-44.922,-41.504,-38.086,0.000
1709206259.776,-36.133,-42.969,-38.574,-33.203,0.000
1709206259.780,-41.992,-37.109,-34.180,-39.062,0.000
1709206259.784,-41.504,-40.039,-34.668,-43.457,0.000
1709206259.788,-42.480,-60.547,-37.109,-34.180,0.000
1709206259.792,-31.250,-23.926,-38.086,-35.156,0.000
1709206259.795,-29.785,-9.766,-39.551,-42.480,0.000
1709206259.799,-49.316,-41.504,-41.992,-33.203,0.000
1709206259.803,-51.270,-41.992,-40.527,-36.621,0.000
1709206259.807,-40.527,-27.344,-41.016,-45.410,0.000
1709206259.811,-44.434,-44.434,-40.527,-45.410,0.000
1709206259.815,-43.457,-44.434,-42.480,-36.621,0.000
1709206259.819,-41.504,-30.273,-43.945,-34.668,0.000
1709206259.823,-35.645,-29.785,-37.598,-46.875,0.000
1709206259.827,-33.691,-28.320,-35.156,-56.641,0.000
1709206259.831,-34.668,-52.734,-36.621,-50.293,0.000
1709206259.835,-32.715,-50.781,-38.086,-40.527,0.000
1709206259.838,-43.457,-28.320,-34.668,-46.875,0.000
1709206259.842,-38.574,-46.387,-36.621,-47.852,0.000
1709206259.846,-39.062,-42.480,-41.992,-51.270,0.000
1709206259.850,-54.688,-33.691,-38.086,-52.734,0.000
1709206259.854,-49.805,-33.691,-39.551,-52.734,0.000
1709206259.858,-41.504,-40.039,-41.504,-46.387,0.000
1709206259.862,-39.062,-39.551,-39.062,-45.898,0.000
1709206259.866,-32.227,-35.156,-35.645,-53.223,0.000
1709206259.870,-29.297,-42.480,-32.227,-54.199,0.000
1709206259.874,-38.086,-47.852,-40.039,-53.711,0.000
1709206259.877,-33.203,-51.758,-37.109,-30.273,0.000
1709206259.881,-34.180,-30.273,-35.156,-21.973,0.000
1709206259.885,-42.480,-20.508,-43.945,-40.527,0.000
1709206259.889,-21.973,-42.480,-44.434,-37.598,0.000
1709206259.893,-24.414,-50.781,-41.016,-32.715,0.000
1709206259.897,-40.039,-39.551,-35.645,-35.645,0.000
1709206259.901,-33.691,-34.180,-34.668,-28.320,0.000
1709206259.905,-42.969,-50.781,-45.898,-25.391,0.000
1709206259.909,-44.434,-54.688,-46.875,-35.645,0.000
1709206259.913,-43.945,-49.316,-45.410,-43.457,0.000
1709206259.917,-51.270,-51.758,-45.410,-49.316,0.000
1709206259.920,-40.527,-67.871,-40.527,-39.551,0.000
1709206259.924,-30.273,-66.895,-43.945,-31.738,0.000
1709206259.928,-31.250,-31.250,-48.340,-50.293,0.000
1709206259.932,-40.039,-43.945,-45.410,-48.340,0.000
1709206259.936,-32.227,-50.781,-40.527,-38.086,0.000
1709206259.940,-36.621,-40.527,-42.969,-39.551,0.000
1709206259.944,-55.664,-34.668,-38.086,-35.645,0.000
1709206259.948,-51.758,-42.480,-31.738,-37.109,0.000
1709206259.952,-55.664,-53.711,-39.062,-46.875,0.000
1709206259.956,-56.641,-36.621,-38.086,-51.758,0.000
1709206259.959,-51.270,-35.156,-36.621,-50.293,0.000
1709206259.963,-41.992,-53.223,-36.133,-39.551,0.000
1709206259.967,-38.086,-72.266,-33.691,-28.809,0.000
1709206259.971,-29.297,-47.852,-38.086,-32.227,0.000
1709206259.975,-34.668,-30.273,-39.551,-36.133,0.000
1709206259.979,-51.270,-52.734,-38.086,-28.809,0.000
1709206259.983,-43.457,-50.781,-40.039,-23.926,0.000
1709206259.987,-40.527,-30.273,-39.062,-25.391,0.000
1709206259.991,-40.527,-29.785,-39.551,-37.109,0.000
1709206259.995,-38.574,-49.316,-39.062,-40.527,0.000
1709206259.999,-40.039,-51.270,-35.645,-31.738,0.000
1709206260.002,-41.016,-32.227,-40.039,-29.785,0.000
1709206260.006,-31.738,-35.645,-39.062,-28.809,0.000
1709206260.010,-29.297,-72.266,-36.133,-22.461,0.000
1709206260.014,-36.621,-72.266,-39.551,-27.832,0.000
1709206260.018,-20.996,-27.344,-38.574,-35.156,0.000
1709206260.022,-4.395,-32.227,-34.180,-27.832,0.000
1709206260.026,-21.973,-61.035,-34.180,-24.902,0.000
1709206260.030,-27.344,-55.664,-35.156,-27.832,0.000
1709206260.034,-26.855,-41.992,-36.621,-25.879,0.000
1709206260.038,-31.250,-60.547,-39.062,-24.902,0.000
1709206260.042,-26.367,-52.734,-33.203,-24.414,0.000
1709206260.045,-17.578,-34.180,-28.320,-23.438,0.000
1709206260.049,-26.855,-41.992,-34.180,-31.250,0.000
1709206260.053,-36.621,-49.805,-33.691,-45.410,0.000
1709206260.057,-37.598,-64.941,-31.738,-54.688,0.000
1709206260.061,-44.434,-56.152,-39.062,-62.012,0.000
1709206260.065,-56.641,-42.480,-42.969,-60.059,0.000
1709206260.069,-47.363,-61.523,-39.062,-57.129,0.000
1709206260.073,-47.852,-71.777,-43.457,-54.688,0.000
1709206260.077,-64.941,-41.016,-48.340,-55.176,0.000
1709206260.081,-51.758,-30.762,-49.805,-59.082,0.000
1709206260.084,-44.434,-53.223,-49.805,-56.152,0.000
1709206260.088,-47.363,-51.270,-51.270,-55.176,0.000
1709206260.092,-41.016,-44.434,-47.363,-52.734,0.000
1709206260.096,-43.945,-56.152,-36.621,-42.969,0.000
1709206260.100,-41.016,-56.152,-34.180,-36.133,0.000
1709206260.104,-36.133,-54.688,-37.109,-39.551,0.000
1709206260.108,-36.621,-48.340,-40.527,-37.598,0.000
1709206260.112,-27.344,-35.645,-40.527,-32.715,0.000
1709206260.116,-27.344,-65.430,-37.598,-10.254,0.000
1709206260.120,-23.438,-68.848,-34.668,0.488,0.000
1709206260.124,-14.160,-18.066,-39.551,-24.414,0.000
1709206260.127,-23.926,-31.738,-41.016,-28.809,0.000
1709206260.131,-28.809,-50.781,-35.156,-28.320,0.000
1709206260.135,-25.879,-40.527,-33.691,-26.367,0.000
1709206260.139,-25.391,-37.598,-34.668,-27.344,0.000
1709206260.143,-21.973,-41.992,-34.180,-39.551,0.000
1709206260.147,-21.484,-53.711,-33.691,-37.598,0.000
1709206260.151,-35.645,-54.199,-34.180,-27.832,0.000
1709206260.155,-40.527,-46.875,-36.133,-25.879,0.000
1709206260.159,-38.574,-50.293,-34.668,-31.250,0.000
1709206260.163,-44.434,-61.035,-31.738,-41.504,0.000
1709206260.167,-36.621,-37.598,-37.109,-53.223,0.000
1709206260.170,-39.551,-29.785,-41.992,-53.223,0.000
1709206260.174,-54.199,-55.176,-41.016,-52.246,0.000
1709206260.178,-51.758,-61.035,-39.062,-53.223,0.000
1709206260.182,-48.828,-47.852,-35.156,-50.293,0.000
1709206260.186,-50.781,-45.898,-34.668,-54.199,0.000
1709206260.190,-53.711,-57.617,-35.156,-57.617,0.000
1709206260.194,-53.711,-59.570,-31.738,-44.434,0.000
1709206260.198,-49.805,-56.641,-31.250,-42.480,0.000
1709206260.202,-42.969,-49.316,-35.156,-67.383,0.000
1709206260.206,-39.551,-63.477,-36.621,-55.664,0.000
1709206260.209,-39.551,-68.359,-36.621,-40.527,0.000
1709206260.213,-46.387,-45.410,-36.133,-60.059,0.000
1709206260.217,-54.688,-45.410,-34.180,-59.082,0.000
1709206260.221,-39.062,-37.598,-36.621,-60.547,0.000
1709206260.225,-34.180,-35.156,-39.551,-57.617,0.000
1709206260.229,-51.758,-42.969,-35.645,-54.688,0.000
1709206260.233,-46.387,-52.246,-33.691,-53.223,0.000
1709206260.237,-38.574,-55.176,-37.598,-46.875,0.000
1709206260.241,-45.410,-47.363,-40.527,-39.551,0.000
1709206260.245,-42.480,-47.363,-33.691,-35.156,0.000
1709206260.249,-39.062,-41.504,-31.250,-33.691,0.000
1709206260.252,-39.062,-55.664,-32.227,-20.020,0.000
1709206260.256,-41.992,-34.668,-33.203,-14.648,0.000
1709206260.260,-45.898,-12.207,-38.086,-26.367,0.000
1709206260.264,-39.062,-40.039,-35.156,-35.156,0.000
1709206260.268,-29.785,-42.969,-32.715,-39.551,0.000
1709206260.272,-45.898,-29.297,-36.621,-42.969,0.000
1709206260.276,-61.523,-34.668,-38.086,-47.363,0.000
1709206260.280,-52.734,-52.246,-34.668,-47.363,0.000
1709206260.284,-49.805,-51.270,-34.180,-50.293,0.000
1709206260.288,-53.711,-39.551,-34.180,-51.270,0.000
1709206260.291,-57.129,-51.758,-33.691,-47.363,0.000
1709206260.295,-52.734,-80.566,-30.762,-30.762,0.000
1709206260.299,-50.781,-62.012,-33.691,-30.762,0.000
1709206260.303,-56.152,-17.090,-38.574,-47.852,0.000
1709206260.307,-48.340,-39.062,-29.297,-43.457,0.000
1709206260.311,-35.645,-42.480,-27.344,-33.203,0.000
1709206260.315,-31.250,-30.273,-32.227,-33.691,0.000
1709206260.319,-40.527,-27.832,-35.645,-52.246,0.000
1709206260.323,-52.246,-43.457,-37.598,-49.805,0.000
1709206260.327,-46.387,-48.828,-41.504,-41.992,0.000
1709206260.331,-44.434,-33.203,-43.457,-42.969,0.000
1709206260.334,-53.223,-42.480,-46.387,-49.805,0.000
1709206260.338,-58.594,-64.453,-48.340,-52.246,0.000
1709206260.342,-45.898,-71.289,-42.969,-38.086,0.000
1709206260.346,-41.504,-39.551,-43.457,-38.574,0.000
1709206260.350,-42.969,-34.180,-47.852,-41.016,0.000
1709206260.354,-32.715,-62.012,-43.457,-33.691,0.000
1709206260.358,-30.762,-57.617,-42.480,-39.062,0.000
1709206260.362,-33.203,-39.551,-47.363,-53.223,0.000
1709206260.366,-20.508,-45.898,-45.898,-55.664,0.000
1709206260.370,-23.926,-59.570,-42.969,-42.969,0.000
1709206260.373,-32.715,-55.664,-40.039,-44.434,0.000
1709206260.377,-30.762,-40.039,-40.039,-46.387,0.000
1709206260.381,-29.297,-37.598,-41.016,-33.203,0.000
1709206260.385,-21.973,-61.035,-37.109,-25.391,0.000
1709206260.389,-20.020,-48.340,-41.504,-25.391,0.000
1709206260.393,-15.625,-17.090,-46.387,-23.438,0.000
1709206260.397,-12.207,-31.250,-41.016,-28.809,0.000
1709206260.401,-15.137,-53.711,-39.062,-25.391,0.000
1709206260.405,-20.020,-41.504,-42.480,-16.602,0.000
1709206260.409,-20.508,-19.531,-45.898,-25.391,0.000
1709206260.413,-21.484,-36.621,-39.062,-30.762,0.000
1709206260.416,-11.719,-48.340,-37.109,-23.926,0.000
1709206260.420,-19.043,-32.715,-40.527,-19.531,0.000
1709206260.424,-28.809,-22.461,-38.086,-24.902,0.000
1709206260.428,-28.809,-34.180,-30.273,-32.715,0.000
1709206260.432,-31.250,-56.152,-32.715,-36.133,0.000
1709206260.436,-20.508,-51.270,-38.574,-28.320,0.000
1709206260.440,-25.879,-34.180,-32.715,-30.762,0.000
1709206260.444,-28.809,-46.387,-28.809,-33.203,0.000
1709206260.448,-28.809,-59.570,-34.668,-28.809,0.000
1709206260.452,-39.062,-41.016,-39.551,-39.062,0.000
1709206260.456,-45.898,-42.480,-36.621,-41.016,0.000
1709206260.459,-50.781,-60.547,-35.645,-43.457,0.000
1709206260.463,-41.504,-59.082,-31.250,-46.387,0.000
1709206260.467,-23.926,-44.922,-36.621,-45.410,0.000
1709206260.471,-39.062,-49.316,-44.434,-54.199,0.000
1709206260.475,-57.617,-58.105,-42.480,-54.199,0.000
1709206260.479,-48.828,-62.988,-41.992,-53.223,0.000
1709206260.483,-43.945,-48.340,-41.992,-46.875,0.000
1709206260.487,-39.062,-37.109,-35.156,-41.992,0.000
1709206260.491,-33.691,-67.383,-33.691,-41.504,0.000
1709206260.495,-44.434,-70.801,-37.598,-38.574,0.000
1709206260.499,-45.410,-40.527,-40.527,-41.016,0.000
1709206260.502,-39.551,-32.715,-41.016,-37.109,0.000
1709206260.506,-43.945,-29.297,-34.180,-33.691,0.000
1709206260.510,-28.320,-31.738,-30.273,-30.762,0.000
1709206260.514,-20.996,-34.668,-29.297,-20.996,0.000
1709206260.518,-35.156,-41.016,-26.855,-18.555,0.000
1709206260.522,-31.250,-43.457,-30.273,-25.391,0.000
1709206260.526,-32.227,-42.969,-34.180,-25.391,0.000
1709206260.530,-31.250,-35.645,-30.762,-21.484,0.000
1709206260.534,-25.879,-33.691,-25.391,-19.043,0.000
1709206260.538,-31.738,-56.641,-25.391,-13.672,0.000
1709206260.541,-35.156,-40.039,-32.715,-20.508,0.000
1709206260.545,-26.367,-26.855,-33.691,-39.062,0.000
1709206260.549,-20.020,-42.480,-30.762,-39.551,0.000
1709206260.553,0.000,-48.340,-31.250,-37.109,0.000
1709206260.557,0.000,-39.062,-36.133,-39.551,0.000
1709206260.561,0.000,-46.387,-33.203,-37.598,0.000
1709206260.565,0.000,-52.246,-38.574,-39.551,0.000
1709206260.569,0.000,-40.039,-43.945,-41.016,0.000
1709206260.573,0.000,-48.828,-41.504,-44.434,0.000
1709206260.577,0.000,-45.898,-41.016,-54.199,0.000
1709206260.581,0.000,-58.594,-41.992,-40.527,0.000
1709206260.584,0.000,-58.594,-41.016,-25.879,0.000
1709206260.588,0.000,-27.832,-35.645,-36.133,0.000
1709206260.592,0.000,-42.480,-36.621,-34.180,0.000
1709206260.596,0.000,-50.293,-39.062,-30.762,0.000
1709206260.600,-53.711,-36.621,-39.551,-39.062,0.000
1709206260.604,-44.434,-26.855,-39.062,-37.598,0.000
1709206260.608,-35.156,-43.457,-37.598,-41.016,0.000
1709206260.612,-39.551,-53.711,-33.203,-44.922,0.000
1709206260.616,-47.363,-48.340,-35.645,-40.039,0.000
1709206260.620,-33.203,-48.828,-34.668,-26.367,0.000
1709206260.623,-20.020,-49.316,-27.832,-28.809,0.000
1709206260.627,-36.133,-58.594,-27.832,-30.762,0.000
1709206260.631,-41.016,-29.785,-28.809,-36.133,0.000
1709206260.635,-34.668,-23.438,-24.902,-42.969,0.000
1709206260.639,-34.180,-51.270,-23.926,-26.855,0.000
1709206260.643,-32.715,-48.340,-27.344,-19.531,0.000
1709206260.647,-35.156,-33.691,-28.320,-23.438,0.000
1709206260.651,-40.527,-40.527,-30.762,-23.926,0.000
1709206260.655,-30.762,-53.223,-36.621,-23.438,0.000
1709206260.659,-20.996,-42.969,-33.691,-22.461,0.000
1709206260.663,-22.461,-37.109,-34.668,-20.996,0.000
1709206260.667,-16.113,-42.480,-38.086,-25.879,0.000
1709206260.670,1.953,-64.453,-33.203,-20.020,0.000
1709206260.674,-12.695,-59.082,-30.762,-15.625,0.000
1709206260.678,-38.086,-19.531,-29.785,-31.250,0.000
1709206260.682,-39.551,-42.969,-31.738,-33.691,0.000
1709206260.686,-37.598,-42.480,-39.062,-39.551,0.000
1709206260.690,-38.086,-26.855,-38.574,-49.805,0.000
1709206260.694,0.000,-36.621,-36.133,-41.992,0.000
1709206260.698,0.000,-43.457,-34.180,-29.785,0.000
1709206260.702,0.000,-46.875,-41.016,-28.320,0.000
1709206260.706,0.000,-39.551,-44.922,-28.809,0.000
1709206260.709,0.000,-47.363,-40.527,-49.316,0.000
1709206260.713,0.000,-65.430,-40.527,-60.059,0.000
1709206260.717,0.000,-57.129,-41.016,-52.246,0.000
1709206260.721,0.000,-37.109,-37.109,-52.246,0.000
1709206260.725,0.000,-42.480,-33.691,-44.922,0.000
1709206260.729,0.000,-59.570,-33.691,-41.504,0.000
1709206260.733,0.000,-59.570,-35.645,-36.133,0.000
1709206260.737,0.000,-23.926,-38.086,-41.016,0.000
