timestamps,TP9,AF7,AF8,TP10,Right AUX
1709298869.802,-27.344,-33.691,-29.297,-13.672,0.000
1709298869.806,-38.574,-38.574,-35.645,-35.645,0.000
1709298869.810,-41.016,-36.133,-35.156,-38.086,0.000
1709298869.814,-39.551,-34.668,-35.156,-32.227,0.000
1709298869.818,-38.574,-35.645,-35.156,-28.320,0.000
1709298869.821,-38.086,-50.781,-32.715,-36.621,0.000
1709298869.825,-40.527,-62.988,-33.691,-46.387,0.000
1709298869.829,-48.340,-41.016,-38.574,-50.781,0.000
1709298869.833,-58.594,-43.945,-36.133,-44.922,0.000
1709298869.837,-48.828,-49.316,-31.738,-30.762,0.000
1709298869.841,-40.527,-43.457,-29.297,-37.109,0.000
1709298869.845,-51.758,-58.594,-33.691,-39.551,0.000
1709298869.849,-61.035,-51.270,-37.598,-40.039,0.000
1709298869.853,-56.641,-35.645,-32.715,-38.574,0.000
1709298869.857,-53.223,-41.992,-29.785,-34.180,0.000
1709298869.861,-51.758,-33.203,-31.250,-41.016,0.000
1709298869.864,-53.223,-34.668,-37.109,-51.270,0.000
1709298869.868,-57.129,-39.551,-38.086,-58.594,0.000
1709298869.872,-55.176,-36.621,-31.250,-62.500,0.000
1709298869.876,-53.711,-51.270,-36.621,-47.363,0.000
1709298869.880,-52.734,-52.246,-42.480,-36.621,0.000
1709298869.884,-49.805,-50.781,-38.086,-50.293,0.000
1709298869.888,-50.293,-53.711,-40.039,-56.152,0.000
1709298869.892,-45.898,-33.691,-44.922,-46.387,0.000
1709298869.896,-32.227,-17.090,-42.969,-23.438,0.000
1709298869.900,-23.438,-10.254,-37.598,-15.625,0.000
1709298869.903,-27.832,-26.855,-42.480,-34.180,0.000
1709298869.907,-35.156,-39.062,-44.922,-40.527,0.000
1709298869.911,-29.297,-34.180,-37.598,-25.879,0.000
1709298869.915,-17.578,-46.875,-37.598,-15.137,0.000
1709298869.919,-15.625,-59.570,-37.598,-13.672,0.000
1709298869.923,-25.879,-47.852,-26.367,-16.113,0.000
1709298869.927,-34.668,-42.969,-28.320,-25.391,0.000
1709298869.931,-30.762,-41.504,-24.902,-25.879,0.000
1709298869.935,-32.227,-24.902,-23.438,-17.578,0.000
1709298869.939,-34.668,-37.109,-31.250,-12.207,0.000
1709298869.943,-40.527,-53.223,-33.691,-21.484,0.000
1709298869.946,-48.828,-41.992,-41.992,-37.598,0.000
1709298869.950,-51.758,-28.320,-37.598,-36.621,0.000
1709298869.954,-50.293,-30.762,-32.227,-27.832,0.000
1709298869.958,-49.316,-39.062,-33.203,-26.855,0.000
1709298869.962,-45.898,-42.969,-38.574,-37.109,0.000
1709298869.966,-42.480,-45.898,-30.273,-43.457,0.000
1709298869.970,-49.316,-43.945,-25.391,-46.387,0.000
1709298869.974,-55.664,-43.457,-39.551,-53.223,0.000
1709298869.978,-58.105,-44.922,-31.738,-44.434,0.000
1709298869.982,-61.035,-53.223,-32.227,-47.363,0.000
1709298869.985,-54.199,-58.105,-41.016,-60.059,0.000
1709298869.989,-55.664,-42.969,-33.691,-62.988,0.000
1709298869.993,-64.941,-38.086,-38.086,-52.246,0.000
1709298869.997,-52.246,-35.645,-41.504,-41.016,0.000
1709298870.001,-49.316,-34.668,-36.621,-47.363,0.000
1709298870.005,-52.734,-46.875,-41.992,-54.199,0.000
1709298870.009,-45.898,-45.410,-43.457,-47.363,0.000
1709298870.013,-35.645,-39.551,-38.574,-25.879,0.000
1709298870.017,-26.367,-34.668,-40.039,-17.090,0.000
1709298870.021,-22.949,-39.551,-45.410,-21.484,0.000
1709298870.025,-22.461,-45.898,-28.320,-14.160,0.000
1709298870.028,-23.438,-59.570,-20.996,-11.719,0.000
1709298870.032,-22.949,-59.082,-32.715,-14.648,0.000
1709298870.036,-15.625,-29.297,-35.645,-4.395,0.000
1709298870.040,-14.648,-29.297,-37.598,-2.930,0.000
1709298870.044,-16.113,-39.551,-41.504,-17.578,0.000
1709298870.048,-16.602,-37.598,-38.574,-20.020,0.000
1709298870.052,-14.648,-30.762,-40.039,-12.695,0.000
1709298870.056,-8.301,-41.016,-43.945,-10.254,0.000
1709298870.060,-14.160,-36.133,-37.598,-18.066,0.000
1709298870.064,-22.949,-42.969,-38.086,-27.344,0.000
1709298870.068,-30.762,-36.621,-40.527,-40.527,0.000
1709298870.071,-36.621,-11.230,-37.109,-35.645,0.000
1709298870.075,-37.109,-22.461,-41.992,-23.926,0.000
1709298870.079,-42.480,-35.156,-48.340,-25.879,0.000
1709298870.083,-47.852,-34.668,-52.246,-33.691,0.000
1709298870.087,-49.316,-43.945,-46.387,-39.062,0.000
1709298870.091,-46.875,-49.316,-39.062,-38.086,0.000
1709298870.095,-34.180,-43.457,-38.574,-31.738,0.000
1709298870.099,-20.996,-52.734,-38.086,-22.461,0.000
1709298870.103,-21.484,-43.457,-40.527,-34.180,0.000
1709298870.107,-27.344,-22.461,-40.039,-49.316,0.000
1709298870.110,-30.273,-24.414,-38.086,-44.434,0.000
1709298870.114,-22.949,-26.855,-44.434,-25.391,0.000
1709298870.118,-15.137,-31.250,-48.828,-10.742,0.000
1709298870.122,-23.926,-21.973,-41.504,-20.020,0.000
1709298870.126,-31.250,-29.297,-33.691,-27.832,0.000
1709298870.130,-26.367,-48.340,-28.320,-24.414,0.000
1709298870.134,-26.855,-37.109,-25.879,-22.461,0.000
1709298870.138,-31.738,-33.691,-26.855,-23.926,0.000
1709298870.142,-41.992,-39.551,-31.250,-30.273,0.000
1709298870.146,-47.852,-43.457,-34.180,-31.250,0.000
1709298870.150,-58.105,-37.109,-44.434,-44.434,0.000
1709298870.153,-58.594,-37.109,-51.758,-47.852,0.000
1709298870.157,-45.410,-44.922,-52.734,-38.086,0.000
1709298870.161,-44.922,-42.969,-47.363,-28.809,0.000
1709298870.165,-47.852,-35.156,-44.434,-35.645,0.000
1709298870.169,-48.828,-36.621,-47.363,-55.664,0.000
1709298870.173,-52.734,-55.664,-43.945,-55.664,0.000
1709298870.177,-48.828,-48.828,-35.645,-44.434,0.000
1709298870.181,-29.785,-30.762,-21.973,-31.250,0.000
1709298870.185,-34.668,-40.527,-27.344,-38.574,0.000
1709298870.189,-50.293,-35.156,-38.574,-45.898,0.000
1709298870.193,-46.875,-40.039,-29.785,-35.645,0.000
1709298870.196,-40.039,-46.875,-27.832,-28.809,0.000
1709298870.200,-35.156,-29.785,-25.879,-31.250,0.000
1709298870.204,-33.203,-38.574,-28.320,-36.133,0.000
1709298870.208,-44.434,-51.270,-35.156,-32.227,0.000
1709298870.212,-52.734,-41.992,-33.203,-32.715,0.000
1709298870.216,-52.734,-39.062,-34.180,-33.691,0.000
1709298870.220,-55.176,-40.527,-29.785,-37.109,0.000
1709298870.224,-63.965,-38.086,-33.203,-52.246,0.000
1709298870.228,-62.988,-41.504,-29.297,-51.270,0.000
1709298870.232,-52.246,-57.617,-22.949,-40.039,0.000
1709298870.235,-52.246,-52.734,-29.297,-47.363,0.000
1709298870.239,-50.781,-32.227,-35.156,-48.340,0.000
1709298870.243,-46.875,-36.133,-45.410,-41.016,0.000
1709298870.247,-46.875,-29.297,-38.086,-47.852,0.000
1709298870.251,-48.828,-31.738,-31.250,-42.969,0.000
1709298870.255,-41.992,-36.621,-32.227,-27.344,0.000
1709298870.259,-37.598,-24.414,-36.133,-39.551,0.000
1709298870.263,-32.227,-12.695,-36.133,-48.340,0.000
1709298870.267,-35.645,-30.273,-37.598,-62.988,0.000
1709298870.271,-40.527,-51.270,-41.504,-66.406,0.000
1709298870.275,-36.621,-32.715,-34.180,-47.852,0.000
1709298870.278,-35.156,-24.902,-31.250,-39.551,0.000
1709298870.282,-43.945,-52.734,-37.109,-49.316,0.000
1709298870.286,-50.293,-52.734,-40.039,-61.523,0.000
1709298870.290,-50.293,-38.086,-41.504,-62.012,0.000
1709298870.294,-45.410,-42.480,-35.156,-47.852,0.000
1709298870.298,-42.969,-38.574,-21.484,-26.855,0.000
1709298870.302,-50.293,-33.203,-26.367,-34.668,0.000
1709298870.306,-56.152,-34.180,-40.039,-47.852,0.000
1709298870.310,-62.012,-43.945,-39.062,-51.758,0.000
1709298870.314,-63.477,-57.129,-30.273,-51.758,0.000
1709298870.317,-59.082,-60.059,-33.691,-43.945,0.000
1709298870.321,-53.223,-37.109,-34.668,-37.598,0.000
1709298870.325,-48.828,-29.297,-29.297,-42.969,0.000
1709298870.329,-51.270,-49.316,-27.832,-45.410,0.000
1709298870.333,-59.570,-35.156,-28.809,-37.109,0.000
1709298870.337,-61.035,-25.879,-31.738,-31.250,0.000
1709298870.341,-58.105,-50.293,-33.691,-36.133,0.000
1709298870.345,-64.941,-43.945,-39.551,-47.852,0.000
1709298870.349,-71.777,-39.062,-38.086,-53.711,0.000
1709298870.353,-68.848,-46.875,-39.062,-42.969,0.000
1709298870.357,-61.035,-32.227,-47.363,-40.039,0.000
1709298870.360,-45.898,-32.715,-39.551,-41.504,0.000
1709298870.364,0.000,-38.086,-33.691,-47.363,0.000
1709298870.368,0.000,-42.480,-41.504,-55.664,0.000
1709298870.372,0.000,-44.922,-41.016,-48.828,0.000
1709298870.376,0.000,-39.062,-42.480,-33.691,0.000
1709298870.380,0.000,-41.992,-40.527,-30.762,0.000
1709298870.384,0.000,-44.434,-29.297,-39.551,0.000
1709298870.388,0.000,-45.410,-30.273,-37.598,0.000
1709298870.392,0.000,-44.922,-27.832,-42.969,0.000
1709298870.396,0.000,-28.320,-30.762,-46.387,0.000
1709298870.399,0.000,-23.438,-28.809,-24.902,0.000
1709298870.403,0.000,-32.227,-17.578,-20.508,0.000
1709298870.407,0.000,-35.156,-24.902,-35.156,0.000
1709298870.411,-40.527,-37.598,-26.855,-34.180,0.000
1709298870.415,-38.086,-49.805,-19.531,-33.691,0.000
1709298870.419,-40.527,-66.895,-17.090,-34.668,0.000
1709298870.423,-46.875,-62.012,-12.695,-23.926,0.000
1709298870.427,-46.387,-62.500,-17.578,-32.227,0.000
1709298870.431,-44.922,-72.754,-21.973,-30.762,0.000
1709298870.435,-50.781,-73.242,-29.785,-16.602,0.000
1709298870.439,-54.688,-76.172,-21.973,-9.277,0.000
1709298870.442,-62.500,-74.707,-6.836,-2.930,0.000
1709298870.446,-59.082,-73.730,-4.395,-3.906,0.000
1709298870.450,-47.363,-84.961,-3.906,-9.277,0.000
1709298870.454,-41.992,-77.637,-14.160,0.000,0.000
1709298870.458,0.000,-71.777,0.000,0.000,0.000
1709298870.462,0.000,-95.703,0.000,0.000,0.000
1709298870.466,0.000,-109.863,0.000,0.000,0.000
1709298870.470,0.000,-80.078,0.000,0.000,0.000
1709298870.474,0.000,-65.918,0.000,0.000,0.000
1709298870.478,0.000,-78.125,0.000,0.000,0.000
1709298870.482,0.000,-83.496,0.000,0.000,0.000
1709298870.485,0.000,-88.379,0.000,0.000,0.000
1709298870.489,0.000,-98.145,0.000,0.000,0.000
1709298870.493,0.000,-103.027,0.000,0.000,0.000
1709298870.497,0.000,-105.469,0.000,0.000,0.000
1709298870.501,0.000,-105.957,0.000,0.000,0.000
1709298870.505,-37.598,-100.586,-11.230,-8.301,0.000
1709298870.509,-37.598,-96.680,-8.301,-16.113,0.000
1709298870.513,-36.621,-93.750,-14.160,-4.395,0.000
1709298870.517,-31.738,-103.516,-9.277,15.137,0.000
1709298870.521,-28.809,-113.770,4.395,21.484,0.000
1709298870.525,-22.461,-102.539,-3.418,12.695,0.000
1709298870.528,-29.297,-97.656,-6.348,-4.883,0.000
1709298870.532,-31.250,-111.816,-7.812,4.395,0.000
1709298870.536,-23.438,-119.141,-8.301,27.344,0.000
1709298870.540,-15.137,-100.586,5.371,36.621,0.000
1709298870.544,-13.672,-97.656,9.277,27.344,0.000
1709298870.548,-23.438,-93.750,-9.766,8.301,0.000
1709298870.552,-39.062,-79.102,-17.090,-0.488,0.000
1709298870.556,-34.180,-85.938,2.930,6.836,0.000
1709298870.560,-22.461,-94.727,4.395,15.137,0.000
1709298870.564,-38.574,-93.750,-6.348,1.465,0.000
1709298870.567,-44.434,-91.797,-0.488,-1.465,0.000
1709298870.571,-42.480,-86.426,2.441,11.230,0.000
1709298870.575,-42.480,-80.078,3.906,7.812,0.000
1709298870.579,-36.621,-81.055,-0.488,1.953,0.000
1709298870.583,-26.367,-82.520,-7.324,15.137,0.000
1709298870.587,-27.344,-83.496,-9.277,2.441,0.000
1709298870.591,-29.297,-76.660,-7.812,-17.090,0.000
1709298870.595,-29.297,-73.730,-12.695,-10.742,0.000
1709298870.599,-26.367,-82.520,-20.996,-2.930,0.000
1709298870.603,-27.344,-79.102,-20.996,-11.230,0.000
1709298870.607,-39.551,-73.242,-25.879,-27.344,0.000
1709298870.610,-29.785,-70.801,-24.902,-15.137,0.000
1709298870.614,-22.461,-52.734,-11.230,1.953,0.000
1709298870.618,-28.320,-60.059,-13.672,1.465,0.000
1709298870.622,-22.949,-68.359,-19.043,-4.395,0.000
1709298870.626,-17.578,-50.781,-19.531,-9.277,0.000
1709298870.630,-16.113,-59.082,-29.297,-7.324,0.000
1709298870.634,-9.277,-61.523,-36.133,-8.301,0.000
1709298870.638,-5.371,-43.457,-30.273,-2.930,0.000
1709298870.642,-11.230,-43.457,-37.598,-5.371,0.000
1709298870.646,-15.625,-50.781,-44.922,-17.090,0.000
1709298870.649,-17.090,-49.805,-31.738,-16.113,0.000
1709298870.653,-15.625,-50.781,-29.785,-3.906,0.000
1709298870.657,-17.090,-61.523,-36.133,-10.742,0.000
1709298870.661,-20.020,-58.105,-29.785,-21.484,0.000
1709298870.665,-28.809,-38.574,-33.691,-30.273,0.000
1709298870.669,-40.527,-39.062,-47.363,-40.527,0.000
1709298870.673,-40.527,-51.270,-47.363,-20.508,0.000
1709298870.677,-32.227,-49.805,-44.922,-13.672,0.000
1709298870.681,-32.715,-48.828,-36.133,-28.320,0.000
1709298870.685,-35.156,-52.734,-36.133,-19.531,0.000
1709298870.689,-33.691,-57.129,-40.039,-23.926,0.000
1709298870.692,-40.039,-51.270,-30.273,-31.738,0.000
1709298870.696,-42.969,-42.480,-34.180,-20.508,0.000
1709298870.700,-40.527,-41.992,-39.062,-15.137,0.000
1709298870.704,-44.922,-44.434,-37.109,-23.926,0.000
1709298870.708,-50.781,-51.758,-35.156,-36.621,0.000
1709298870.712,-45.898,-52.734,-35.156,-35.156,0.000
1709298870.716,-41.992,-60.059,-26.367,-17.090,0.000
1709298870.720,-34.668,-62.500,-18.555,-10.742,0.000
1709298870.724,-35.156,-62.988,-26.367,-21.484,0.000
1709298870.728,-45.410,-56.152,-29.297,-23.438,0.000
1709298870.731,-47.363,-27.344,-31.738,-22.461,0.000
1709298870.735,-43.945,-26.855,-38.086,-14.160,0.000
1709298870.739,-33.203,-37.598,-36.621,-13.184,0.000
1709298870.743,-27.832,-44.434,-35.156,-22.949,0.000
1709298870.747,-33.203,-44.922,-29.785,-30.273,0.000
1709298870.751,-31.250,-43.457,-32.227,-28.320,0.000
1709298870.755,-25.391,-47.363,-41.992,-26.367,0.000
1709298870.759,-27.344,-47.363,-37.598,-26.367,0.000
1709298870.763,-36.133,-55.664,-41.992,-28.320,0.000
1709298870.767,-34.180,-53.711,-47.852,-36.621,0.000
1709298870.771,-28.320,-44.922,-48.828,-36.621,0.000
1709298870.774,-25.391,-56.641,-45.898,-28.809,0.000
1709298870.778,-24.414,-54.199,-41.992,-30.273,0.000
1709298870.782,-36.133,-32.715,-47.852,-42.480,0.000
1709298870.786,-43.457,-34.180,-41.504,-53.711,0.000
1709298870.790,-41.016,-46.387,-31.250,-48.340,0.000
1709298870.794,-38.574,-40.039,-38.086,-37.598,0.000
1709298870.798,-34.180,-33.691,-37.109,-33.203,0.000
1709298870.802,-24.902,-41.992,-30.273,-38.574,0.000
1709298870.806,-25.391,-41.016,-36.621,-40.527,0.000
1709298870.810,-31.250,-35.156,-39.062,-37.109,0.000
1709298870.813,-31.738,-37.598,-38.086,-36.621,0.000
1709298870.817,-33.691,-33.691,-41.992,-27.344,0.000
1709298870.821,-38.086,-28.809,-44.434,-18.555,0.000
1709298870.825,-46.875,-33.203,-47.363,-30.273,0.000
1709298870.829,-45.410,-36.133,-42.480,-42.969,0.000
1709298870.833,-42.480,-35.156,-38.086,-36.621,0.000
1709298870.837,-41.016,-36.621,-39.062,-34.180,0.000
1709298870.841,-42.480,-32.227,-35.156,-37.109,0.000
1709298870.845,-44.922,-44.434,-35.156,-42.969,0.000
1709298870.849,-38.574,-51.758,-41.992,-42.480,0.000
1709298870.853,-47.852,-38.574,-42.969,-33.203,0.000
1709298870.856,-51.270,-41.992,-45.898,-24.414,0.000
1709298870.860,-45.410,-35.156,-37.598,-19.043,0.000
1709298870.864,-60.059,-24.414,-33.691,-44.922,0.000
1709298870.868,-63.477,-19.531,-32.227,-58.594,0.000
1709298870.872,-62.012,-29.297,-28.809,-46.387,0.000
1709298870.876,-57.129,-38.574,-29.785,-41.992,0.000
1709298870.880,-46.875,-36.133,-28.809,-41.992,0.000
1709298870.884,-47.363,-37.598,-40.039,-49.316,0.000
1709298870.888,-51.758,-38.574,-41.016,-59.570,0.000
1709298870.892,-55.664,-31.250,-35.645,-53.223,0.000
1709298870.896,-49.805,-33.203,-38.574,-35.645,0.000
1709298870.899,-40.527,-41.992,-39.062,-32.227,0.000
1709298870.903,-34.668,-41.992,-44.434,-36.621,0.000
1709298870.907,-33.203,-36.621,-43.457,-49.316,0.000
1709298870.911,-32.715,-47.363,-40.527,-45.898,0.000
1709298870.915,-40.039,-60.059,-47.363,-37.109,0.000
1709298870.919,-40.039,-45.410,-49.316,-41.016,0.000
1709298870.923,-33.691,-46.387,-43.457,-32.715,0.000
1709298870.927,0.000,-56.641,0.000,0.000,0.000
1709298870.931,0.000,-46.875,0.000,0.000,0.000
1709298870.935,0.000,-37.598,0.000,0.000,0.000
1709298870.939,0.000,-38.086,0.000,0.000,0.000
1709298870.942,0.000,-40.527,0.000,0.000,0.000
1709298870.946,0.000,-43.457,0.000,0.000,0.000
1709298870.950,0.000,-52.246,0.000,0.000,0.000
1709298870.954,0.000,-57.617,0.000,0.000,0.000
1709298870.958,0.000,-61.523,0.000,0.000,0.000
1709298870.962,0.000,-57.129,0.000,0.000,0.000
1709298870.966,0.000,-53.223,0.000,0.000,0.000
1709298870.970,0.000,-48.828,0.000,0.000,0.000
1709298870.974,-54.199,-45.898,-44.434,-53.223,0.000
1709298870.978,-55.176,-47.852,-46.387,-43.457,0.000
1709298870.981,-51.270,-41.504,-40.527,-44.434,0.000
1709298870.985,-45.898,-47.852,-35.156,-43.457,0.000
1709298870.989,-47.852,-51.758,-41.504,-54.199,0.000
1709298870.993,-50.781,-30.762,-51.270,-57.617,0.000
1709298870.997,-51.270,-31.250,-50.293,-49.316,0.000
1709298871.001,-49.805,-41.992,-44.922,-39.062,0.000
1709298871.005,-45.898,-34.668,-43.945,-37.598,0.000
1709298871.009,-51.270,-35.156,-42.480,-58.594,0.000
1709298871.013,-51.270,-41.016,-40.039,-48.828,0.000
1709298871.017,-41.992,-45.410,-39.062,-36.133,0.000
1709298871.021,-42.480,-55.664,-41.992,-42.480,0.000
1709298871.024,-41.992,-50.781,-44.434,-45.898,0.000
1709298871.028,-37.109,-40.527,-44.922,-47.852,0.000
1709298871.032,-32.227,-46.387,-44.434,-41.504,0.000
1709298871.036,-28.320,-44.922,-44.922,-28.320,0.000
1709298871.040,-29.297,-40.527,-52.246,-16.113,0.000
1709298871.044,-33.203,-31.738,-58.594,-22.461,0.000
1709298871.048,-36.621,-23.926,-51.758,-32.715,0.000
1709298871.052,-29.297,-41.992,-39.062,-20.020,0.000
1709298871.056,-20.996,-41.016,-46.387,-18.555,0.000
1709298871.060,-27.832,-25.391,-53.223,-30.273,0.000
1709298871.063,-30.762,-29.297,-53.711,-39.062,0.000
1709298871.067,-33.203,-32.227,-52.734,-51.270,0.000
1709298871.071,-33.691,-36.133,-50.293,-50.781,0.000
1709298871.075,-27.832,-35.156,-56.641,-38.574,0.000
1709298871.079,-17.090,-31.250,-61.035,-32.715,0.000
1709298871.083,-12.695,-35.156,-51.758,-38.574,0.000
1709298871.087,-27.344,-45.898,-43.945,-51.758,0.000
1709298871.091,-34.668,-43.945,-41.504,-49.316,0.000
1709298871.095,-26.855,-28.809,-39.551,-32.715,0.000
1709298871.099,-26.855,-29.785,-51.270,-30.762,0.000
1709298871.103,-24.902,-38.574,-59.082,-34.668,0.000
1709298871.106,-25.879,-42.480,-51.758,-37.109,0.000
1709298871.110,-30.762,-36.133,-47.363,-33.691,0.000
1709298871.114,-22.461,-36.133,-43.945,-35.156,0.000
1709298871.118,-25.879,-37.598,-54.199,-36.621,0.000
1709298871.122,-24.902,-38.574,-64.941,-29.297,0.000
1709298871.126,-18.555,-34.668,-57.129,-29.785,0.000
1709298871.130,-22.949,-25.391,-55.176,-34.668,0.000
1709298871.134,-25.879,-29.785,-51.270,-29.785,0.000
1709298871.138,-20.996,-35.156,-43.945,-12.695,0.000
1709298871.142,-22.461,-36.133,-58.105,-11.719,0.000
1709298871.145,-29.785,-49.805,-65.430,-17.090,0.000
1709298871.149,-35.156,-65.430,-41.992,-18.066,0.000
1709298871.153,-43.457,-56.152,-44.434,-31.738,0.000
1709298871.157,-52.734,-43.457,-52.246,-28.809,0.000
1709298871.161,-39.062,-43.457,-52.246,-22.461,0.000
1709298871.165,-32.715,-43.457,-52.734,-34.180,0.000
1709298871.169,-51.270,-40.527,-42.480,-53.223,0.000
1709298871.173,-52.734,-41.504,-46.387,-47.363,0.000
1709298871.177,-42.969,-41.016,-46.387,-25.391,0.000
1709298871.181,-24.902,-48.828,-38.574,-15.625,0.000
1709298871.184,-24.414,-41.016,-46.387,-25.879,0.000
1709298871.188,-33.203,-26.855,-48.340,-40.527,0.000
1709298871.192,-25.391,-24.414,-40.527,-32.715,0.000
1709298871.196,-25.391,-39.062,-36.621,-19.531,0.000
1709298871.200,-28.320,-47.363,-39.062,-12.207,0.000
1709298871.204,-27.344,-53.223,-39.062,-26.367,0.000
1709298871.208,-35.645,-58.594,-40.527,-38.574,0.000
1709298871.212,-43.945,-50.293,-43.457,-41.992,0.000
1709298871.216,-42.969,-46.875,-28.809,-29.297,0.000
1709298871.220,-42.480,-58.105,-21.973,-24.414,0.000
1709298871.224,-47.852,-62.012,-22.949,-37.598,0.000
1709298871.227,-47.852,-53.223,-25.879,-41.504,0.000
1709298871.231,-47.363,-59.082,-28.320,-36.621,0.000
1709298871.235,-44.434,-54.688,-31.250,-28.809,0.000
1709298871.239,-37.598,-53.711,-30.273,-21.484,0.000
1709298871.243,-36.133,-57.617,-34.180,-14.648,0.000
1709298871.247,-39.551,-27.832,-38.574,-26.367,0.000
1709298871.251,-41.016,-29.297,-35.156,-29.785,0.000
1709298871.255,-41.992,-54.199,-34.668,-20.996,0.000
1709298871.259,-33.691,-41.504,-32.227,-13.184,0.000
1709298871.263,-26.367,-38.086,-41.992,-19.531,0.000
1709298871.267,-35.156,-48.340,-38.574,-42.969,0.000
1709298871.270,-45.410,-45.410,-38.574,-45.898,0.000
1709298871.274,-47.363,-43.945,-48.340,-37.598,0.000
1709298871.278,-37.598,-35.156,-38.574,-23.438,0.000
1709298871.282,-28.809,-34.180,-37.109,-25.391,0.000
1709298871.286,-34.180,-55.664,-39.062,-41.016,0.000
1709298871.290,-46.875,-59.082,-36.133,-51.270,0.000
1709298871.294,-42.480,-41.992,-30.762,-50.293,0.000
1709298871.298,-31.250,-38.574,-30.273,-36.133,0.000
1709298871.302,-42.480,-49.805,-33.691,-40.527,0.000
1709298871.306,-51.270,-54.688,-28.320,-50.781,0.000
1709298871.310,-51.758,-45.410,-24.902,-45.410,0.000
1709298871.313,-47.363,-50.781,-18.066,-35.156,0.000
1709298871.317,-41.016,-49.805,-18.066,-35.645,0.000
1709298871.321,-41.016,-43.457,-19.043,-41.504,0.000
1709298871.325,-43.945,-43.945,-19.531,-46.387,0.000
1709298871.329,-46.387,-38.574,-30.273,-43.457,0.000
1709298871.333,-49.805,-40.527,-31.738,-25.879,0.000
1709298871.337,-47.852,-39.062,-27.344,-26.855,0.000
1709298871.341,-36.133,-48.828,-26.367,-38.574,0.000
1709298871.345,-35.645,-52.246,-33.691,-35.156,0.000
1709298871.349,-42.480,-41.016,-44.922,-45.410,0.000
1709298871.352,-47.852,-41.016,-40.039,-60.547,0.000
1709298871.356,-45.898,-38.574,-28.320,-56.641,0.000
1709298871.360,-35.645,-44.434,-33.691,-51.270,0.000
1709298871.364,-35.645,-48.340,-46.387,-60.547,0.000
1709298871.368,-42.969,-31.738,-46.875,-71.289,0.000
1709298871.372,-48.340,-39.551,-41.992,-68.848,0.000
1709298871.376,-49.805,-58.594,-46.875,-53.711,0.000
1709298871.380,-43.945,-46.875,-44.434,-39.551,0.000
1709298871.384,-43.945,-38.086,-40.527,-48.340,0.000
1709298871.388,-44.434,-36.621,-40.039,-41.992,0.000
1709298871.392,-36.621,-33.203,-36.133,-23.926,0.000
1709298871.395,-35.156,-33.203,-35.156,-23.926,0.000
1709298871.399,-33.691,-42.969,-36.133,-34.180,0.000
1709298871.403,-46.875,-48.828,-35.645,-41.992,0.000
1709298871.407,-48.828,-50.293,-28.809,-41.016,0.000
1709298871.411,-47.852,-51.270,-23.926,-44.434,0.000
1709298871.415,-63.965,-41.504,-26.367,-42.480,0.000
1709298871.419,-62.500,-41.504,-32.227,-46.387,0.000
1709298871.423,-59.082,-62.500,-26.367,-46.875,0.000
1709298871.427,-64.453,-60.059,-23.438,-51.758,0.000
1709298871.431,-67.383,-42.969,-30.762,-57.129,0.000
1709298871.434,-57.129,-37.598,-35.156,-41.504,0.000
1709298871.438,-51.270,-45.410,-26.367,-32.227,0.000
1709298871.442,-57.129,-61.035,-27.344,-36.133,0.000
1709298871.446,-61.523,-61.523,-30.762,-48.828,0.000
1709298871.450,-66.895,-40.039,-36.621,-56.641,0.000
1709298871.454,-62.012,-28.320,-40.039,-40.527,0.000
1709298871.458,-59.082,-37.109,-34.668,-23.438,0.000
1709298871.462,-60.547,-45.898,-39.062,-36.133,0.000
1709298871.466,-53.223,-41.992,-41.992,-48.828,0.000
1709298871.470,-58.105,-41.504,-43.457,-45.410,0.000
1709298871.474,-62.988,-51.270,-48.340,-40.039,0.000
1709298871.477,-48.828,-62.012,-55.176,-20.020,0.000
1709298871.481,-39.062,-63.477,-41.504,-22.461,0.000
1709298871.485,-49.805,-51.270,-33.203,-42.969,0.000
1709298871.489,-47.852,-46.875,-35.645,-48.340,0.000
1709298871.493,-40.527,-42.480,-39.062,-39.062,0.000
1709298871.497,-41.992,-43.457,-47.852,-27.832,0.000
1709298871.501,-36.621,-48.340,-49.805,-29.785,0.000
1709298871.505,-33.203,-51.758,-39.062,-42.480,0.000
1709298871.509,-36.133,-45.898,-34.668,-50.293,0.000
1709298871.513,-41.504,-38.574,-46.387,-34.180,0.000
1709298871.516,-50.293,-40.039,-43.945,-27.344,0.000
1709298871.520,-47.852,-43.457,-33.691,-35.156,0.000
1709298871.524,-42.480,-43.945,-30.762,-41.504,0.000
1709298871.528,-52.246,-29.785,-29.297,-40.527,0.000
1709298871.532,-52.734,-31.738,-32.715,-32.715,0.000
1709298871.536,-50.781,-37.598,-26.367,-35.156,0.000
1709298871.540,-57.129,-37.109,-14.648,-35.645,0.000
1709298871.544,-53.711,-43.457,-28.320,-31.738,0.000
1709298871.548,-50.781,-50.293,-32.715,-39.551,0.000
1709298871.552,-49.316,-54.199,-33.691,-48.340,0.000
1709298871.556,-46.387,-45.898,-40.039,-35.156,0.000
1709298871.559,-48.340,-43.457,-38.086,-35.156,0.000
1709298871.563,-48.340,-44.922,-43.457,-47.363,0.000
1709298871.567,-55.176,-50.293,-45.898,-52.246,0.000
1709298871.571,-53.711,-54.199,-46.875,-39.551,0.000
1709298871.575,-51.270,-41.016,-43.457,-20.996,0.000
1709298871.579,-50.781,-19.531,-34.668,-23.926,0.000
1709298871.583,-49.316,-20.508,-34.668,-38.086,0.000
1709298871.587,-42.969,-35.645,-34.180,-42.969,0.000
1709298871.591,-42.969,-36.133,-38.574,-38.574,0.000
1709298871.595,-49.316,-37.598,-51.758,-24.414,0.000
1709298871.598,-40.527,-38.574,-40.527,-20.508,0.000
1709298871.602,-38.574,-47.852,-27.344,-36.621,0.000
1709298871.606,-40.527,-51.758,-35.645,-40.527,0.000
1709298871.610,-33.691,-43.945,-32.715,-35.645,0.000
1709298871.614,-21.484,-57.129,-16.113,-25.879,0.000
1709298871.618,-15.625,-59.082,-27.344,-15.625,0.000
1709298871.622,-15.625,-41.992,-46.387,-26.855,0.000
1709298871.626,-25.391,-28.809,-46.387,-41.504,0.000
1709298871.630,-27.832,-22.461,-34.668,-40.527,0.000
1709298871.634,-19.043,-25.879,-30.273,-32.715,0.000
1709298871.638,-15.625,-29.785,-32.227,-19.043,0.000
1709298871.641,-16.602,-41.016,-29.785,-20.020,0.000
1709298871.645,-19.043,-49.316,-35.156,-27.344,0.000
1709298871.649,-26.855,-49.316,-32.715,-33.203,0.000
1709298871.653,-22.461,-53.711,-25.879,-29.785,0.000
1709298871.657,-18.555,-53.223,-42.480,-20.508,0.000
1709298871.661,-25.879,-42.969,-38.086,-26.367,0.000
1709298871.665,-28.809,-45.410,-16.602,-33.691,0.000
1709298871.669,-33.691,-47.363,-20.996,-39.551,0.000
1709298871.673,-39.062,-41.016,-18.555,-35.156,0.000
1709298871.677,-42.969,-37.598,-20.508,-23.926,0.000
1709298871.681,-55.664,-35.156,-23.926,-27.832,0.000
1709298871.684,-67.383,-35.156,-27.344,-47.363,0.000
1709298871.688,-68.359,-36.621,-37.109,-63.965,0.000
1709298871.692,-67.383,-32.715,-41.016,-53.711,0.000
1709298871.696,-60.547,-37.109,-36.133,-33.691,0.000
1709298871.700,-56.152,-38.086,-34.180,-41.992,0.000
1709298871.704,-53.711,-52.734,-36.621,-53.223,0.000
1709298871.708,-53.711,-53.711,-34.668,-45.410,0.000
1709298871.712,-62.988,-31.738,-41.504,-47.363,0.000
1709298871.716,-55.176,-34.180,-35.156,-41.016,0.000
1709298871.720,-31.738,-44.434,-20.508,-16.602,0.000
1709298871.724,-31.250,-46.875,-26.855,-15.137,0.000
1709298871.727,-32.715,-54.199,-36.621,-21.484,0.000
1709298871.731,-33.203,-52.734,-43.945,-20.508,0.000
1709298871.735,-33.203,-41.992,-37.598,-17.578,0.000
1709298871.739,-27.832,-33.203,-34.668,-14.648,0.000
1709298871.743,-25.391,-22.949,-33.203,-17.578,0.000
1709298871.747,-24.902,-21.973,-32.227,-20.020,0.000
1709298871.751,-24.414,-38.574,-37.598,-18.555,0.000
1709298871.755,-20.508,-43.457,-38.086,-10.742,0.000
1709298871.759,-19.531,-32.227,-35.156,-18.555,0.000
1709298871.763,-27.832,-36.621,-41.504,-35.645,0.000
1709298871.766,-29.785,-32.227,-35.156,-43.457,0.000
1709298871.770,-34.668,-28.320,-30.762,-41.504,0.000
1709298871.774,-44.434,-36.621,-38.086,-35.645,0.000
1709298871.778,-43.945,-35.645,-40.039,-36.133,0.000
1709298871.782,-41.504,-28.320,-26.367,-37.598,0.000
1709298871.786,-48.828,-38.574,-19.531,-43.457,0.000
1709298871.790,-62.012,-54.688,-28.809,-45.898,0.000
1709298871.794,-62.500,-47.852,-19.043,-48.828,0.000
1709298871.798,-54.688,-38.086,-20.508,-41.504,0.000
1709298871.802,-56.641,-43.457,-37.109,-36.621,0.000
1709298871.806,-64.941,-43.457,-38.086,-55.176,0.000
1709298871.809,-63.477,-33.691,-36.621,-63.477,0.000
1709298871.813,-65.430,-37.598,-38.086,-61.523,0.000
1709298871.817,-63.965,-37.598,-37.598,-54.688,0.000
1709298871.821,-55.664,-29.785,-37.598,-49.316,0.000
1709298871.825,-55.176,-30.273,-36.621,-46.387,0.000
1709298871.829,-55.176,-30.762,-38.086,-60.059,0.000
1709298871.833,-53.711,-34.668,-42.480,-63.965,0.000
1709298871.837,-43.457,-41.992,-40.039,-38.574,0.000
1709298871.841,-32.715,-43.457,-32.227,-22.461,0.000
1709298871.845,-36.133,-40.039,-33.691,-24.902,0.000
1709298871.848,-42.480,-39.062,-34.180,-42.480,0.000
1709298871.852,-45.410,-33.203,-31.250,-44.434,0.000
1709298871.856,-38.086,-36.621,-25.879,-18.555,0.000
1709298871.860,-31.250,-49.316,-27.344,-15.625,0.000
1709298871.864,-34.180,-57.617,-32.715,-38.574,0.000
1709298871.868,-38.086,-53.223,-31.250,-45.410,0.000
1709298871.872,-41.504,-49.316,-35.645,-35.156,0.000
1709298871.876,-39.551,-52.246,-38.574,-18.066,0.000
1709298871.880,-37.598,-36.621,-31.250,-13.184,0.000
1709298871.884,-40.039,-30.273,-27.344,-21.484,0.000
1709298871.887,-46.387,-39.551,-37.598,-21.484,0.000
1709298871.891,-57.129,-41.504,-41.504,-19.043,0.000
1709298871.895,-56.152,-45.898,-33.203,-20.020,0.000
1709298871.899,-46.875,-55.664,-30.273,-13.184,0.000
1709298871.903,-40.527,-46.875,-30.273,-13.672,0.000
1709298871.907,-44.434,-36.621,-31.250,-30.762,0.000
1709298871.911,-37.598,-42.969,-34.180,-38.574,0.000
1709298871.915,-21.484,-42.480,-36.621,-23.926,0.000
1709298871.919,-28.809,-36.621,-45.410,-16.113,0.000
1709298871.923,-31.738,-42.480,-39.551,-26.367,0.000
1709298871.927,-31.738,-39.062,-36.133,-33.203,0.000
1709298871.930,-48.828,-30.762,-44.434,-34.668,0.000
1709298871.934,-47.852,-30.273,-34.668,-31.738,0.000
1709298871.938,-31.738,-26.367,-36.133,-26.855,0.000
1709298871.942,-30.762,-21.484,-53.223,-26.367,0.000
1709298871.946,-30.273,-34.180,-36.621,-34.180,0.000
1709298871.950,-26.855,-42.480,-24.902,-45.410,0.000
1709298871.954,-26.855,-31.250,-29.297,-49.316,0.000
1709298871.958,-23.926,-27.832,-34.668,-41.504,0.000
1709298871.962,-19.531,-34.180,-37.109,-28.809,0.000
1709298871.966,-25.879,-45.898,-31.738,-41.504,0.000
1709298871.970,-39.551,-54.688,-27.832,-45.898,0.000
1709298871.973,-44.434,-48.828,-28.320,-27.344,0.000
1709298871.977,-44.434,-48.340,-30.273,-20.508,0.000
1709298871.981,-48.340,-61.035,-27.832,-30.273,0.000
1709298871.985,-61.035,-52.246,-31.738,-44.434,0.000
1709298871.989,-66.406,-53.223,-38.574,-45.410,0.000
1709298871.993,-58.105,-63.965,-26.855,-27.832,0.000
1709298871.997,-62.500,-59.082,-27.344,-19.043,0.000
1709298872.001,-61.523,-55.176,-39.551,-30.273,0.000
1709298872.005,-56.641,-56.641,-36.133,-27.832,0.000
1709298872.009,-60.547,-51.270,-38.086,-35.156,0.000
1709298872.013,-67.383,-43.945,-42.480,-41.992,0.000
1709298872.016,-56.641,-49.316,-36.133,-22.461,0.000
1709298872.020,-46.387,-49.805,-35.645,-24.902,0.000
1709298872.024,-62.012,-35.645,-43.945,-53.223,0.000
1709298872.028,-71.289,-31.738,-46.387,-67.871,0.000
1709298872.032,-66.895,-29.785,-43.457,-65.918,0.000
1709298872.036,-59.570,-34.668,-40.527,-49.316,0.000
1709298872.040,-51.270,-43.945,-35.156,-37.109,0.000
1709298872.044,-41.504,-42.480,-39.551,-49.316,0.000
1709298872.048,-42.969,-56.152,-54.688,-60.547,0.000
1709298872.052,-43.457,-57.129,0.000,-62.500,0.000
1709298872.056,-34.180,-42.480,0.000,-59.570,0.000
1709298872.059,-33.203,-37.109,0.000,-57.129,0.000
1709298872.063,-31.738,-39.062,0.000,-64.453,0.000
1709298872.067,-32.715,-41.016,0.000,-62.988,0.000
1709298872.071,-35.156,-42.969,0.000,-49.316,0.000
1709298872.075,-32.715,-54.688,0.000,-45.898,0.000
1709298872.079,-29.297,-50.781,0.000,-39.551,0.000
1709298872.083,-36.621,-40.527,0.000,-45.410,0.000
1709298872.087,-49.805,-42.969,0.000,-58.105,0.000
1709298872.091,-50.781,-51.758,0.000,-45.898,0.000
1709298872.095,-50.293,-55.176,0.000,-37.598,0.000
1709298872.098,-45.410,-41.992,-42.969,-35.156,0.000
1709298872.102,-41.504,-30.762,-37.598,-37.598,0.000
1709298872.106,-42.969,-35.156,-40.527,-45.898,0.000
1709298872.110,-44.434,-45.410,-40.039,-35.645,0.000
1709298872.114,-46.875,-50.293,-38.574,-26.367,0.000
1709298872.118,-41.504,-47.363,-46.387,-28.809,0.000
1709298872.122,-32.715,-40.039,-43.457,-40.039,0.000
1709298872.126,-43.457,-40.039,-37.598,-45.410,0.000
1709298872.130,-44.434,-42.480,-38.574,-33.691,0.000
1709298872.134,-34.668,-33.203,-37.598,-33.203,0.000
1709298872.138,-35.156,-31.250,-48.340,-34.668,0.000
1709298872.141,-35.156,-41.016,-53.223,-33.203,0.000
1709298872.145,-34.668,-46.875,-42.480,-47.363,0.000
1709298872.149,-38.086,-32.715,-27.344,-64.453,0.000
1709298872.153,-35.645,-29.785,-29.785,-57.617,0.000
1709298872.157,-31.738,-47.852,-41.992,-43.457,0.000
1709298872.161,-37.109,-43.457,-36.133,-51.270,0.000
1709298872.165,-47.852,-27.344,-29.785,-62.988,0.000
1709298872.169,-48.828,-25.879,-38.086,-57.617,0.000
1709298872.173,-36.621,-31.250,-40.527,-43.457,0.000
1709298872.177,-40.039,-30.762,-37.598,-37.109,0.000
1709298872.181,-36.133,-31.738,-39.062,-32.715,0.000
1709298872.184,-32.227,-26.855,-40.527,-36.133,0.000
1709298872.188,-38.086,-19.043,-42.969,-41.992,0.000
1709298872.192,-34.180,-21.973,0.000,-39.062,0.000
1709298872.196,-32.715,-28.809,0.000,-30.762,0.000
1709298872.200,-31.738,-33.691,0.000,-20.996,0.000
1709298872.204,-28.320,-35.156,0.000,-17.578,0.000
1709298872.208,-23.926,-34.180,0.000,-25.391,0.000
1709298872.212,-31.250,-48.828,0.000,-25.391,0.000
1709298872.216,-43.457,-55.176,0.000,-19.043,0.000
1709298872.220,-33.691,-26.855,0.000,-5.371,0.000
1709298872.224,-31.738,-16.113,0.000,-17.578,0.000
1709298872.227,-42.969,-27.832,0.000,-43.945,0.000
1709298872.231,-46.387,-37.598,0.000,-35.645,0.000
1709298872.235,-44.922,-48.828,0.000,-30.762,0.000
1709298872.239,-35.156,-41.504,-40.527,-37.109,0.000
1709298872.243,-29.297,-26.855,-27.832,-39.551,0.000
1709298872.247,-23.438,-36.621,-25.879,-43.457,0.000
1709298872.251,-24.414,-37.109,-39.551,-49.805,0.000
1709298872.255,-30.762,-16.113,-47.363,-54.199,0.000
1709298872.259,-33.203,-16.113,-42.969,-53.711,0.000
1709298872.263,-45.410,-29.297,-44.434,-53.711,0.000
1709298872.266,-54.688,-24.414,-48.340,-61.523,0.000
1709298872.270,-49.805,-18.066,-52.734,-65.918,0.000
1709298872.274,-42.969,-33.691,-41.504,-47.852,0.000
1709298872.278,-43.457,-41.504,-36.621,-32.715,0.000
1709298872.282,-52.246,-35.645,-40.527,-39.551,0.000
1709298872.286,-51.270,-34.180,-35.645,-40.039,0.000
1709298872.290,-42.480,-37.598,-33.203,-32.227,0.000
1709298872.294,-44.434,-42.969,-38.574,-30.762,0.000
1709298872.298,-46.387,-39.551,-39.062,-37.109,0.000
1709298872.302,-38.574,-53.223,-37.109,-37.598,0.000
1709298872.305,-36.621,-64.941,-36.133,-36.621,0.000
1709298872.309,-51.270,-48.828,-33.691,-39.551,0.000
1709298872.313,-61.035,-36.133,-39.551,-41.016,0.000
1709298872.317,-58.105,-29.785,-32.227,-31.738,0.000
1709298872.321,-47.363,-25.879,-27.832,-22.949,0.000
1709298872.325,-43.457,-37.109,-41.992,-29.785,0.000
1709298872.329,-37.598,-43.457,-34.668,-32.715,0.000
1709298872.333,-37.598,-40.039,-37.109,-30.762,0.000
1709298872.337,-31.738,-56.152,-42.969,-19.043,0.000
1709298872.341,-20.020,-58.105,-30.273,-22.949,0.000
1709298872.345,-30.762,-31.738,-31.738,-39.551,0.000
1709298872.348,-38.086,-36.133,-35.645,-44.922,0.000
1709298872.352,-40.039,-44.434,-38.574,-40.039,0.000
1709298872.356,-41.992,-31.250,-41.992,-32.227,0.000
1709298872.360,-37.109,-36.133,-49.805,-26.855,0.000
1709298872.364,-40.039,-41.992,-53.711,-36.133,0.000
1709298872.368,-44.922,-25.391,-40.527,-50.781,0.000
1709298872.372,-40.039,-18.066,-36.621,-41.016,0.000
1709298872.376,-40.527,-30.273,-27.832,-37.109,0.000
1709298872.380,-45.898,-34.180,-25.391,-43.457,0.000
1709298872.384,-45.410,-31.738,-39.062,-42.969,0.000
1709298872.388,-48.340,-38.086,-42.969,-50.293,0.000
1709298872.391,-39.551,-46.387,-42.969,-50.293,0.000
1709298872.395,-39.062,-48.340,-46.387,-47.852,0.000
1709298872.399,-37.109,-44.922,-36.133,-42.480,0.000
1709298872.403,-36.621,-48.340,-31.250,-35.645,0.000
1709298872.407,-53.223,-49.805,-40.527,-49.805,0.000
1709298872.411,-50.781,-40.039,-38.574,-54.199,0.000
1709298872.415,-48.828,-36.133,-34.180,-37.598,0.000
1709298872.419,-49.316,-41.504,-29.785,-37.109,0.000
1709298872.423,-41.504,-50.293,-22.461,-40.039,0.000
1709298872.427,-38.086,-51.758,-29.297,-38.574,0.000
1709298872.431,-39.062,-56.641,-39.551,-33.203,0.000
1709298872.434,-39.062,-46.875,-32.227,-11.719,0.000
1709298872.438,-39.551,-32.227,-33.691,-15.625,0.000
1709298872.442,-45.410,-46.875,-39.551,-40.039,0.000
1709298872.446,-44.434,-47.852,-27.344,-45.898,0.000
1709298872.450,-42.969,-52.734,-28.809,-45.898,0.000
1709298872.454,-42.969,-54.688,-38.574,-39.551,0.000
1709298872.458,-36.621,-29.297,-33.203,-22.949,0.000
1709298872.462,-41.016,-25.879,-40.527,-21.973,0.000
1709298872.466,-34.180,-40.527,-38.574,-29.297,0.000
1709298872.470,-24.414,-35.156,-31.738,-34.668,0.000
1709298872.473,-38.086,-37.109,-41.992,-39.062,0.000
1709298872.477,-35.156,-54.199,-43.457,-20.508,0.000
1709298872.481,-27.832,-53.223,-38.086,-20.508,0.000
1709298872.485,-40.039,-41.504,-33.203,-37.598,0.000
1709298872.489,-45.898,-34.668,-31.738,-35.645,0.000
1709298872.493,-44.434,-33.691,-36.133,-31.738,0.000
1709298872.497,-47.852,-45.898,-35.156,-36.133,0.000
1709298872.501,-42.480,-51.758,-27.832,-43.945,0.000
1709298872.505,-43.945,-41.992,-29.297,-40.039,0.000
1709298872.509,-49.316,-30.762,-27.344,-40.527,0.000
1709298872.513,-41.016,-29.785,-28.320,-29.297,0.000
1709298872.516,-43.457,-31.738,-33.203,-19.043,0.000
1709298872.520,-42.969,-37.598,-31.738,-26.367,0.000
1709298872.524,-45.410,-42.480,-36.133,-41.016,0.000
1709298872.528,-58.105,-46.875,-41.992,-52.246,0.000
1709298872.532,-58.594,-43.457,-48.828,-45.898,0.000
1709298872.536,-46.875,-43.457,-41.992,-27.832,0.000
1709298872.540,-38.086,-50.293,-35.156,-22.461,0.000
1709298872.544,-46.387,-55.176,-32.715,-30.273,0.000
1709298872.548,-53.711,-52.734,-37.598,-30.762,0.000
1709298872.552,-50.781,-43.945,-43.457,-20.508,0.000
1709298872.555,-58.594,-40.527,-36.621,-24.902,0.000
1709298872.559,-48.340,-31.738,-28.320,-24.902,0.000
1709298872.563,-29.785,-50.293,-30.762,-13.184,0.000
1709298872.567,-39.062,-52.734,-42.480,-17.578,0.000
1709298872.571,-49.805,-35.156,-41.504,-23.926,0.000
1709298872.575,-45.898,-33.203,-39.062,-22.461,0.000
1709298872.579,-42.969,-40.527,-43.457,-24.414,0.000
1709298872.583,-39.551,-53.223,-43.457,-17.578,0.000
1709298872.587,-32.227,-36.621,-39.062,-23.926,0.000
1709298872.591,-31.250,-29.297,-36.621,-31.738,0.000
1709298872.595,-34.180,-31.250,-41.504,-22.949,0.000
1709298872.598,-32.227,-28.809,-38.086,-29.297,0.000
1709298872.602,-26.855,-31.738,-34.668,-32.227,0.000
1709298872.606,-11.719,-45.410,-29.297,-20.996,0.000
1709298872.610,-19.531,-49.316,-27.344,-30.273,0.000
1709298872.614,-42.480,-30.762,-30.762,-43.945,0.000
1709298872.618,-38.574,-26.855,-39.062,-41.016,0.000
1709298872.622,-32.715,-28.809,-46.387,-38.086,0.000
1709298872.626,-28.809,-21.973,-35.156,-41.992,0.000
1709298872.630,-28.320,-29.297,-25.879,-48.340,0.000
1709298872.634,-44.434,-38.574,-41.016,-50.781,0.000
1709298872.637,-47.363,-43.457,-47.363,-44.922,0.000
1709298872.641,-45.410,-45.898,-36.621,-36.133,0.000
1709298872.645,-51.270,-43.457,-44.434,-41.016,0.000
1709298872.649,-51.270,-40.527,-43.457,-46.875,0.000
1709298872.653,-48.828,-43.945,-25.879,-41.992,0.000
1709298872.657,-42.480,-39.062,-26.855,-28.320,0.000
1709298872.661,-43.457,-22.949,-32.227,-21.484,0.000
1709298872.665,-48.340,-33.203,-30.762,-16.113,0.000
1709298872.669,-45.898,-46.387,-30.762,-32.227,0.000
1709298872.673,-52.246,-45.410,-25.879,-55.664,0.000
1709298872.676,-54.688,-56.641,-21.484,-48.828,0.000
1709298872.680,-51.270,-52.246,-41.504,-34.668,0.000
1709298872.684,-60.059,-40.039,-47.852,-40.527,0.000
1709298872.688,-60.547,-31.738,-34.180,-58.594,0.000
1709298872.692,-64.453,-27.832,-34.180,-60.059,0.000
1709298872.696,-69.824,-40.527,-38.574,-45.410,0.000
1709298872.700,-54.199,-41.992,-48.828,-39.551,0.000
1709298872.704,-38.574,-42.480,-44.434,-40.527,0.000
1709298872.708,-41.504,-42.480,-33.203,-42.480,0.000
1709298872.712,-54.199,-40.039,-37.109,-54.199,0.000
1709298872.716,-44.434,-34.668,-40.039,-43.457,0.000
1709298872.719,-27.832,-32.227,-33.203,-17.090,0.000
1709298872.723,-28.809,-41.504,-27.832,-19.043,0.000
1709298872.727,-31.738,-44.434,-31.738,-27.344,0.000
1709298872.731,-36.133,-43.457,-36.133,-26.855,0.000
1709298872.735,-35.645,-35.156,-35.645,-31.738,0.000
1709298872.739,-30.273,-32.715,-34.668,-34.180,0.000
1709298872.743,-30.762,-34.180,-30.273,-36.133,0.000
1709298872.747,-32.227,-31.738,-28.809,-50.781,0.000
1709298872.751,-36.621,-28.320,-31.738,-48.340,0.000
1709298872.755,0.000,-31.250,-39.551,-33.203,0.000
1709298872.759,0.000,-31.250,-56.641,-22.461,0.000
1709298872.762,0.000,-33.203,-48.828,-28.809,0.000
1709298872.766,0.000,-51.270,-28.809,-32.227,0.000
1709298872.770,0.000,-52.734,-20.996,-25.879,0.000
1709298872.774,0.000,-37.598,-19.531,-26.855,0.000
1709298872.778,0.000,-31.250,-28.809,-25.391,0.000
1709298872.782,0.000,-47.363,-31.250,-17.090,0.000
1709298872.786,0.000,-56.641,-30.762,-28.320,0.000
1709298872.790,0.000,-46.387,-33.691,-41.016,0.000
1709298872.794,0.000,-46.875,-25.391,-42.969,0.000
1709298872.798,0.000,-51.758,-31.250,-40.527,0.000
1709298872.802,-48.340,-47.852,-39.551,-33.691,0.000
1709298872.805,-45.898,-45.898,-38.086,-41.504,0.000
1709298872.809,-55.664,-41.992,-36.621,-54.688,0.000
1709298872.813,-56.152,-35.645,-35.645,-51.758,0.000
1709298872.817,-56.641,-38.086,-32.715,-37.109,0.000
1709298872.821,-45.410,-37.109,-35.156,-28.809,0.000
1709298872.825,-36.621,-30.762,-49.316,-27.832,0.000
1709298872.829,-36.621,-30.762,-43.457,-32.227,0.000
1709298872.833,-39.062,-38.086,-36.133,-31.738,0.000
1709298872.837,-41.016,-39.062,-46.387,-28.320,0.000
1709298872.841,-42.480,-40.039,-46.387,-33.691,0.000
1709298872.844,-57.617,-50.293,-48.828,-45.898,0.000
1709298872.848,-60.059,-50.293,-44.434,-56.641,0.000
1709298872.852,-54.199,-44.434,-43.945,-60.547,0.000
1709298872.856,-48.828,-42.969,-50.293,-39.062,0.000
1709298872.860,-37.598,-64.453,-41.992,-30.273,0.000
1709298872.864,-39.551,-59.570,-33.691,-44.922,0.000
1709298872.868,-48.340,-30.273,-38.086,-53.711,0.000
1709298872.872,-52.734,-25.391,-45.898,-52.246,0.000
1709298872.876,-48.340,-36.133,-42.969,-33.203,0.000
1709298872.880,-47.852,-37.109,-42.969,-20.996,0.000
1709298872.884,-46.387,-35.645,-48.340,-24.902,0.000
1709298872.887,-53.711,-54.688,-48.828,-41.016,0.000
1709298872.891,-61.523,-64.453,-52.734,-49.316,0.000
1709298872.895,-55.664,-53.711,-39.062,-40.039,0.000
1709298872.899,-60.059,-43.945,-36.133,-35.156,0.000
1709298872.903,-53.223,-39.551,-53.223,-32.715,0.000
1709298872.907,-48.828,-47.363,-40.039,-42.969,0.000
1709298872.911,-50.293,-50.293,-38.086,-53.711,0.000
1709298872.915,-41.016,-37.109,-38.086,-41.504,0.000
1709298872.919,-41.504,-37.109,-34.180,-34.180,0.000
1709298872.923,-46.875,-41.504,-39.551,-33.203,0.000
1709298872.927,-47.363,-54.199,-39.551,-39.551,0.000
1709298872.930,-48.340,-55.176,-34.668,-49.316,0.000
1709298872.934,-57.129,-41.016,-36.133,-46.875,0.000
1709298872.938,-61.035,-38.574,-40.039,-47.852,0.000
1709298872.942,-50.781,-39.062,-43.457,-43.457,0.000
1709298872.946,-52.246,-40.527,-42.969,-47.852,0.000
1709298872.950,-48.340,-39.551,-41.504,-44.434,0.000
1709298872.954,-30.762,-40.039,-49.316,-29.297,0.000
1709298872.958,-25.879,-41.992,-32.227,-24.414,0.000
1709298872.962,-32.227,-34.180,-29.785,-29.785,0.000
1709298872.966,-34.668,-28.320,-44.922,-42.480,0.000
1709298872.969,-33.691,-37.109,-40.527,-52.246,0.000
1709298872.973,-32.227,-42.969,-50.293,-51.270,0.000
1709298872.977,-27.832,-43.945,-55.176,-31.738,0.000
1709298872.981,-29.785,-46.875,-38.086,-24.902,0.000
1709298872.985,-33.691,-41.992,-32.227,-33.203,0.000
1709298872.989,-40.527,-54.199,-34.668,-45.410,0.000
1709298872.993,-50.781,-65.918,-41.992,-33.691,0.000
1709298872.997,-52.246,-46.875,-44.922,-25.391,0.000
1709298873.001,-44.922,-34.668,-43.945,-37.109,0.000
1709298873.005,-42.480,-39.062,-38.574,-43.457,0.000
1709298873.008,-51.758,-43.945,-46.875,-48.340,0.000
1709298873.012,-55.176,-37.109,-48.828,-42.480,0.000
1709298873.016,-53.711,-36.621,-39.062,-40.527,0.000
1709298873.020,-52.734,-40.527,-42.969,-51.270,0.000
1709298873.024,-51.270,-50.293,-53.223,-57.617,0.000
1709298873.028,-53.711,-49.805,-51.270,-53.711,0.000
1709298873.032,-54.199,-40.039,-37.109,-54.688,0.000
1709298873.036,-46.387,-41.504,-34.180,-55.176,0.000
1709298873.040,-43.457,-47.363,-39.551,-38.086,0.000
1709298873.044,-37.598,-52.246,-41.504,-36.621,0.000
1709298873.048,-36.621,-53.223,-43.945,-47.852,0.000
1709298873.051,-33.691,-46.387,-42.969,-43.945,0.000
1709298873.055,-29.785,-43.945,-36.621,-24.414,0.000
1709298873.059,-38.574,-42.480,-36.621,-22.461,0.000
1709298873.063,-47.363,-40.039,-38.086,-27.832,0.000
1709298873.067,-45.410,-36.621,-33.203,-23.438,0.000
1709298873.071,-53.711,-34.180,-32.715,-28.809,0.000
1709298873.075,-59.082,-38.574,-40.039,-27.832,0.000
1709298873.079,-51.758,-38.086,-40.527,-22.949,0.000
1709298873.083,-49.805,-37.598,-43.945,-24.902,0.000
1709298873.087,-46.387,-42.969,-38.574,-21.484,0.000
1709298873.091,-43.945,-47.363,-34.668,-15.625,0.000
1709298873.094,-42.969,-40.527,-34.180,-13.672,0.000
1709298873.098,-42.480,-37.598,-39.062,-13.184,0.000
1709298873.102,-35.156,-47.363,-36.621,-17.090,0.000
1709298873.106,-35.156,-56.152,-41.016,-27.832,0.000
1709298873.110,-47.852,-48.828,-41.016,-44.434,0.000
1709298873.114,-54.199,-41.016,-28.320,-41.992,0.000
1709298873.118,-55.176,-38.574,-35.645,-27.832,0.000
1709298873.122,-53.223,-37.598,-36.621,-34.668,0.000
1709298873.126,-47.363,-32.715,-30.273,-42.480,0.000
1709298873.130,-47.363,-26.855,-36.621,-43.457,0.000
1709298873.133,-44.434,-27.344,-35.156,-40.039,0.000
1709298873.137,-38.086,-30.273,-27.344,-28.809,0.000
1709298873.141,-37.598,-31.250,-29.785,-32.715,0.000
1709298873.145,-33.691,-28.809,-35.156,-35.645,0.000
1709298873.149,-26.855,-27.344,-34.180,-31.250,0.000
1709298873.153,-25.879,-34.180,-35.645,-29.297,0.000
1709298873.157,-29.297,-27.344,-30.762,-22.949,0.000
1709298873.161,-27.344,-23.438,-24.414,-15.137,0.000
1709298873.165,-22.949,-39.062,-21.484,-11.719,0.000
1709298873.169,-25.391,-37.598,-18.555,-25.391,0.000
1709298873.173,-25.391,-24.414,-23.926,-34.668,0.000
1709298873.176,-32.715,-25.879,-26.367,-21.973,0.000
1709298873.180,-39.551,-26.855,-29.297,-7.812,0.000
1709298873.184,-30.273,-29.297,-31.250,-19.531,0.000
1709298873.188,-29.297,-40.527,-32.715,-31.738,0.000
1709298873.192,-38.574,-46.387,-37.598,-28.320,0.000
1709298873.196,-38.086,-50.781,-29.297,-17.578,0.000
1709298873.200,-26.855,-43.457,-28.809,-12.207,0.000
1709298873.204,-32.715,-34.668,-32.227,-24.414,0.000
1709298873.208,-39.062,-37.598,-24.414,-29.785,0.000
1709298873.212,-44.922,-36.133,-27.344,-31.738,0.000
1709298873.216,-51.270,-32.715,-33.691,-34.180,0.000
1709298873.219,-51.758,-36.621,-24.902,-29.297,0.000
1709298873.223,-57.617,-40.039,-20.996,-33.691,0.000
1709298873.227,-49.316,-38.574,-25.879,-42.969,0.000
1709298873.231,-45.898,-48.340,-32.227,-50.293,0.000
1709298873.235,-48.828,-49.805,-34.668,-43.457,0.000
1709298873.239,-48.828,-35.645,-40.527,-39.551,0.000
1709298873.243,-41.504,-29.297,-30.273,-39.551,0.000
1709298873.247,-42.480,-32.715,-20.996,-44.434,0.000
1709298873.251,-46.875,-39.062,-25.879,-48.340,0.000
1709298873.255,-35.645,-41.504,-36.133,-26.367,0.000
1709298873.258,-30.762,-36.133,-44.922,-12.207,0.000
1709298873.262,-24.414,-37.598,-34.668,-20.996,0.000
1709298873.266,-29.297,-41.016,-26.855,-32.715,0.000
1709298873.270,-34.180,-32.227,-27.832,-32.715,0.000
1709298873.274,-24.902,-31.738,-31.738,-28.320,0.000
1709298873.278,-24.902,-33.691,-32.227,-28.320,0.000
1709298873.282,-30.762,-31.738,-28.320,-30.273,0.000
1709298873.286,-29.785,-41.992,-34.668,-30.762,0.000
1709298873.290,-29.297,-47.363,-43.457,-38.086,0.000
1709298873.294,-29.297,-46.387,-44.434,-42.480,0.000
1709298873.298,-34.180,-36.133,-42.969,-27.832,0.000
1709298873.301,-34.180,-34.180,-47.363,-27.344,0.000
1709298873.305,-28.320,-44.434,-54.199,-40.527,0.000
1709298873.309,-35.645,-41.504,-47.363,-42.969,0.000
1709298873.313,-39.062,-32.715,-36.133,-37.109,0.000
1709298873.317,-31.738,-30.273,-40.039,-16.602,0.000
1709298873.321,-23.926,-31.738,-41.992,-11.230,0.000
1709298873.325,-21.973,-43.457,-39.062,-35.156,0.000
1709298873.329,-22.461,-45.410,-46.387,-53.223,0.000
1709298873.333,-32.227,-39.062,-44.922,-55.664,0.000
1709298873.337,-35.645,-41.992,-46.875,-49.805,0.000
1709298873.340,-25.391,-41.504,-48.340,-31.738,0.000
1709298873.344,-31.250,-60.059,-31.738,-24.414,0.000
1709298873.348,-50.293,-55.664,-29.297,-41.504,0.000
1709298873.352,-54.199,-33.691,-39.551,-51.758,0.000
1709298873.356,-50.293,-36.621,-43.457,-43.457,0.000
1709298873.360,-49.316,-32.227,-36.133,-30.273,0.000
1709298873.364,-50.293,-33.691,-30.762,-28.809,0.000
1709298873.368,-48.828,-37.598,-34.180,-34.180,0.000
1709298873.372,-51.270,-34.668,-28.809,-41.992,0.000
1709298873.376,-53.711,-30.273,-32.715,-42.480,0.000
1709298873.380,-44.434,-33.203,-40.527,-29.785,0.000
1709298873.383,-38.574,-36.621,-32.715,-35.156,0.000
1709298873.387,-42.480,-40.039,-33.691,-41.016,0.000
1709298873.391,-39.062,-43.945,-34.180,-35.645,0.000
1709298873.395,-31.250,-48.828,-36.133,-30.273,0.000
1709298873.399,-38.574,-50.293,-40.527,-24.414,0.000
1709298873.403,-42.480,-42.969,-31.738,-39.062,0.000
1709298873.407,-37.109,-33.203,-42.480,-54.688,0.000
1709298873.411,-36.133,-29.297,-41.992,-46.875,0.000
1709298873.415,-43.457,-29.297,-22.461,-39.062,0.000
1709298873.419,-40.039,-34.180,-27.344,-28.809,0.000
1709298873.422,-34.668,-37.109,-32.715,-25.391,0.000
1709298873.426,-42.480,-29.785,-40.039,-39.551,0.000
1709298873.430,-52.246,-31.250,-49.316,-48.340,0.000
1709298873.434,-42.480,-36.133,-28.320,-32.715,0.000
1709298873.438,-33.203,-36.621,-24.902,-31.250,0.000
1709298873.442,-33.203,-38.574,-37.109,-50.293,0.000
1709298873.446,-38.574,-37.598,-33.203,-52.734,0.000
1709298873.450,-49.805,-25.391,-27.832,-48.828,0.000
1709298873.454,-52.734,-33.203,-33.691,-53.711,0.000
1709298873.458,-42.969,-43.457,-41.992,-43.457,0.000
1709298873.462,-38.574,-49.316,-41.504,-37.109,0.000
1709298873.465,-48.340,-47.852,-40.039,-52.246,0.000
1709298873.469,-46.387,-38.574,-31.250,-44.922,0.000
1709298873.473,-42.969,-35.156,-35.645,-38.086,0.000
1709298873.477,-47.363,-43.457,-39.062,-43.457,0.000
1709298873.481,-45.410,-60.059,-33.203,-46.387,0.000
1709298873.485,-51.758,-49.316,-36.133,-61.523,0.000
1709298873.489,-53.223,-34.668,-32.227,-59.570,0.000
1709298873.493,-46.387,-40.527,-30.762,-43.457,0.000
1709298873.497,-39.062,-35.156,-34.180,-35.156,0.000
1709298873.501,-32.227,-23.438,-29.297,-31.250,0.000
1709298873.505,-36.133,-20.996,-30.273,-31.738,0.000
1709298873.508,-40.039,-26.367,-34.180,-37.598,0.000
1709298873.512,-42.480,-38.086,-33.691,-35.645,0.000
1709298873.516,-40.527,-41.016,-32.715,-20.020,0.000
1709298873.520,-42.480,-36.133,-32.227,-20.020,0.000
1709298873.524,-39.062,-44.434,-28.320,-30.762,0.000
1709298873.528,-32.227,-48.828,-40.527,-43.945,0.000
1709298873.532,-48.340,-39.062,-46.387,-41.016,0.000
1709298873.536,-47.363,-35.156,-31.738,-16.113,0.000
1709298873.540,-34.668,-45.410,-27.344,-11.230,0.000
1709298873.544,-31.738,-45.898,-37.598,-28.809,0.000
1709298873.547,-26.855,-35.156,-34.180,-39.551,0.000
1709298873.551,-24.902,-31.738,-20.996,-39.062,0.000
1709298873.555,-26.855,-29.297,-24.902,-29.785,0.000
1709298873.559,-22.461,-22.461,-29.297,-21.484,0.000
1709298873.563,-28.320,-18.555,-24.902,-23.438,0.000
1709298873.567,-37.598,-20.508,-27.832,-32.715,0.000
1709298873.571,-30.273,-22.949,-25.391,-23.926,0.000
1709298873.575,-34.668,-26.367,-23.926,-16.602,0.000
1709298873.579,-41.992,-30.273,-27.832,-19.531,0.000
1709298873.583,-38.574,-34.668,-25.879,-15.137,0.000
1709298873.587,-44.922,-31.738,-29.297,-24.902,0.000
1709298873.590,-52.734,-25.391,-30.273,-46.387,0.000
1709298873.594,-49.805,-24.902,-29.297,-44.922,0.000
1709298873.598,-40.527,-25.879,-35.645,-31.738,0.000
1709298873.602,-34.668,-33.203,-32.715,-29.297,0.000
1709298873.606,-34.668,-35.645,-21.484,-23.438,0.000
1709298873.610,-39.551,-27.832,-35.645,-25.879,0.000
1709298873.614,-36.621,-20.020,-30.273,-27.344,0.000
1709298873.618,-37.598,-25.879,-6.348,-24.902,0.000
1709298873.622,-45.898,-32.715,-12.695,-25.391,0.000
1709298873.626,-40.527,-35.156,-31.738,-32.227,0.000
1709298873.629,-37.109,-36.133,-30.762,-39.062,0.000
1709298873.633,-46.387,-38.086,-20.020,-41.992,0.000
1709298873.637,-46.387,-41.016,-24.902,-38.574,0.000
1709298873.641,-39.062,-27.832,-26.855,-27.832,0.000
1709298873.645,-34.180,-21.484,-25.879,-24.902,0.000
1709298873.649,-40.527,-29.785,-23.438,-38.574,0.000
1709298873.653,-39.062,-30.273,-28.320,-34.180,0.000
1709298873.657,-31.738,-20.508,-30.762,-20.508,0.000
1709298873.661,-31.738,-36.133,-23.438,-20.020,0.000
1709298873.665,-35.156,-50.781,-28.809,-30.273,0.000
1709298873.669,-37.598,-36.621,-28.809,-40.527,0.000
1709298873.672,-43.945,-27.344,-17.090,-25.879,0.000
1709298873.676,-49.805,-29.297,-25.391,-21.973,0.000
1709298873.680,-39.551,-30.762,-26.855,-29.297,0.000
1709298873.684,-30.273,-26.855,-24.414,-28.809,0.000
1709298873.688,-29.297,-23.926,-27.344,-32.715,0.000
1709298873.692,-35.156,-30.273,-31.738,-33.203,0.000
1709298873.696,-39.062,-37.598,-36.133,-29.297,0.000
1709298873.700,-34.668,-38.086,-31.250,-11.719,0.000
1709298873.704,-25.879,-32.715,-26.855,-13.184,0.000
1709298873.708,-26.855,-25.879,-22.461,-37.598,0.000
1709298873.711,-28.809,-26.855,-24.414,-38.574,0.000
1709298873.715,-28.320,-26.367,-24.414,-23.438,0.000
1709298873.719,-24.414,-20.020,-19.531,-9.766,0.000
1709298873.723,-18.066,-24.414,-26.855,-14.160,0.000
1709298873.727,-22.461,-34.668,-39.062,-27.832,0.000
1709298873.731,-21.973,-31.738,-35.156,-27.832,0.000
1709298873.735,-14.160,-34.668,-33.203,-21.484,0.000
1709298873.739,-12.695,-21.484,-28.320,-23.926,0.000
1709298873.743,-21.484,-17.578,-27.832,-36.621,0.000
1709298873.747,-25.391,-24.414,-26.855,-43.945,0.000
1709298873.751,-29.297,-19.043,-28.320,-40.527,0.000
1709298873.754,-24.902,-21.484,-34.668,-24.902,0.000
1709298873.758,-21.973,-38.086,-35.645,-29.297,0.000
1709298873.762,-32.715,-42.969,-33.691,-33.203,0.000
1709298873.766,-34.668,-36.621,-39.551,-26.367,0.000
1709298873.770,-35.156,-40.527,-44.922,-30.762,0.000
1709298873.774,-37.598,-32.227,-35.645,-36.621,0.000
1709298873.778,-32.227,-27.832,-30.273,-35.156,0.000
1709298873.782,-25.879,-35.156,-28.809,-35.156,0.000
1709298873.786,-35.645,-28.320,-28.809,-47.363,0.000
1709298873.790,-42.480,-32.715,-33.203,-59.082,0.000
1709298873.793,-38.086,-33.203,-28.320,-46.387,0.000
1709298873.797,-30.273,-29.297,-26.855,-20.996,0.000
1709298873.801,-30.762,-31.250,-28.809,-11.230,0.000
1709298873.805,-31.738,-26.367,-30.762,-19.043,0.000
1709298873.809,-31.250,-25.879,-28.320,-26.367,0.000
1709298873.813,-28.809,-35.156,-21.973,-29.785,0.000
1709298873.817,-24.902,-38.574,-23.926,-22.461,0.000
1709298873.821,-21.484,-32.715,-21.484,-8.789,0.000
1709298873.825,-19.531,-21.484,-22.461,-7.812,0.000
1709298873.829,-22.461,-20.996,-30.273,-28.809,0.000
1709298873.833,-23.438,-30.273,-37.598,-30.762,0.000
1709298873.836,-17.090,-29.785,-32.715,-5.859,0.000
1709298873.840,-18.555,-21.484,-24.902,-5.859,0.000
1709298873.844,-29.297,-35.156,-31.250,-11.719,0.000
1709298873.848,-32.227,-54.688,-42.969,-14.648,0.000
1709298873.852,-31.738,-35.156,-42.480,-32.227,0.000
1709298873.856,-37.598,-29.297,-24.414,-25.879,0.000
1709298873.860,-36.133,-38.574,-20.996,-18.555,0.000
1709298873.864,-28.320,-40.039,-35.156,-33.203,0.000
1709298873.868,-36.133,-30.273,-38.574,-45.898,0.000
1709298873.872,-44.434,-29.297,-28.809,-41.016,0.000
1709298873.875,-46.387,-48.828,-30.762,-32.227,0.000
1709298873.879,-49.316,-48.828,-41.016,-37.598,0.000
1709298873.883,-33.203,-39.062,-28.809,-30.762,0.000
1709298873.887,-21.973,-44.434,-25.391,-27.344,0.000
1709298873.891,-31.738,-39.062,-31.738,-41.992,0.000
1709298873.895,-43.945,-31.738,-29.785,-37.109,0.000
1709298873.899,-43.945,-28.320,-50.781,-28.320,0.000
1709298873.903,-37.598,-43.457,-50.781,-29.297,0.000
1709298873.907,-29.297,-53.711,-27.344,-29.297,0.000
1709298873.911,-32.227,-30.273,-28.320,-35.156,0.000
1709298873.915,-53.223,-31.250,-33.203,-32.227,0.000
1709298873.918,-58.105,-40.039,-34.180,-35.645,0.000
1709298873.922,-54.688,-30.273,-37.598,-44.922,0.000
1709298873.926,-50.781,-37.109,-44.922,-42.969,0.000
1709298873.930,-51.270,-44.434,-43.945,-45.898,0.000
1709298873.934,-60.059,-36.621,-41.992,-50.781,0.000
1709298873.938,-55.176,-29.785,-38.574,-40.527,0.000
1709298873.942,-43.457,-31.250,-36.133,-27.832,0.000
1709298873.946,-35.156,-41.504,-41.016,-33.203,0.000
1709298873.950,-34.668,-51.758,-41.504,-44.922,0.000
1709298873.954,-39.062,-56.152,-49.316,-49.805,0.000
1709298873.958,-33.203,-49.805,-48.340,-29.297,0.000
1709298873.961,-38.086,-45.410,-38.574,-22.949,0.000
1709298873.965,-47.363,-49.316,-41.504,-44.922,0.000
1709298873.969,-45.410,-49.316,-44.922,-59.570,0.000
1709298873.973,-44.922,-52.734,-43.945,-58.594,0.000
1709298873.977,-51.758,-46.875,-37.109,-47.363,0.000
1709298873.981,-52.246,-47.363,-40.039,-46.387,0.000
1709298873.985,-50.781,-49.316,-45.898,-55.176,0.000
1709298873.989,-51.758,-50.293,-43.945,-63.965,0.000
1709298873.993,-49.805,-55.176,-40.527,-55.176,0.000
1709298873.997,-48.340,-57.617,-46.875,-41.504,0.000
1709298874.001,-43.457,-48.340,-44.922,-43.457,0.000
1709298874.004,-40.039,-38.574,-42.969,-44.434,0.000
1709298874.008,-43.457,-44.922,-53.711,-58.105,0.000
1709298874.012,-46.875,-57.617,-48.828,-55.664,0.000
1709298874.016,-48.340,-60.547,-47.852,-47.852,0.000
1709298874.020,-46.387,-52.734,-49.316,-50.293,0.000
1709298874.024,-46.387,-45.410,-47.363,-46.387,0.000
1709298874.028,-50.781,-32.715,-53.711,-46.875,0.000
1709298874.032,-51.270,-28.320,-42.969,-56.641,0.000
1709298874.036,-52.246,-37.598,-34.668,-56.152,0.000
1709298874.040,-47.852,-42.969,-35.156,-45.410,0.000
1709298874.043,-42.480,-41.016,-40.039,-49.316,0.000
1709298874.047,-40.527,-38.574,-49.316,-45.410,0.000
1709298874.051,-40.039,-41.016,-44.922,-41.016,0.000
1709298874.055,-44.434,-34.668,-44.434,-40.039,0.000
1709298874.059,-45.410,-32.715,-40.039,-26.855,0.000
1709298874.063,-31.250,-34.180,-37.598,-32.715,0.000
1709298874.067,-31.250,-39.551,-39.062,-32.715,0.000
1709298874.071,-43.945,-50.781,-37.109,-34.180,0.000
1709298874.075,-47.363,-53.223,-36.621,-39.062,0.000
1709298874.079,-42.969,-39.062,-39.551,-21.973,0.000
1709298874.083,-44.922,-33.691,-47.363,-22.461,0.000
1709298874.086,-52.246,-45.410,-42.969,-40.039,0.000
1709298874.090,-57.617,-45.898,-39.062,-47.363,0.000
1709298874.094,-62.012,-34.180,-48.340,-35.645,0.000
1709298874.098,-62.012,-26.855,-41.016,-28.809,0.000
1709298874.102,-52.734,-36.621,-40.039,-33.691,0.000
1709298874.106,-52.734,-37.598,-35.645,-35.645,0.000
1709298874.110,-56.152,-39.062,-22.949,-41.016,0.000
1709298874.114,-47.363,-59.082,-34.668,-34.180,0.000
1709298874.118,-43.945,-49.805,-37.598,-19.043,0.000
1709298874.122,-53.711,-37.109,-33.203,-19.043,0.000
1709298874.125,-51.270,-48.340,-39.062,-30.273,0.000
1709298874.129,-45.410,-48.340,-37.598,-36.133,0.000
1709298874.133,-52.734,-41.992,-36.621,-32.715,0.000
1709298874.137,-51.758,-48.828,-31.738,-25.391,0.000
1709298874.141,-54.688,-54.688,-25.391,-26.367,0.000
1709298874.145,-56.641,-52.246,-33.691,-41.992,0.000
1709298874.149,-53.223,-45.898,-35.156,-53.711,0.000
1709298874.153,-55.176,-40.039,-41.504,-43.457,0.000
1709298874.157,-53.711,-36.133,-43.457,-28.320,0.000
1709298874.161,-45.898,-32.227,-39.551,-33.691,0.000
1709298874.164,-40.039,-41.016,-40.527,-51.270,0.000
1709298874.168,-46.875,-45.410,-39.551,-66.406,0.000
1709298874.172,-52.734,-47.363,-47.363,-63.477,0.000
1709298874.176,-48.828,-51.758,-46.875,-46.875,0.000
1709298874.180,-48.340,-46.875,-35.156,-37.109,0.000
1709298874.184,-57.617,-48.340,-40.527,-41.016,0.000
1709298874.188,-53.223,-44.434,-42.969,-54.688,0.000
1709298874.192,-47.363,-36.621,-39.551,-60.547,0.000
1709298874.196,-48.828,-36.621,-42.480,-42.480,0.000
1709298874.200,-47.363,-33.203,-39.062,-23.926,0.000
1709298874.204,-38.086,-34.668,-31.738,-23.438,0.000
1709298874.207,-35.156,-35.156,-31.250,-26.367,0.000
1709298874.211,-47.363,-33.691,-32.227,-34.180,0.000
1709298874.215,-47.363,-27.344,-37.109,-35.645,0.000
1709298874.219,-38.574,-19.043,-38.574,-26.855,0.000
1709298874.223,-33.691,-39.062,-47.363,-29.297,0.000
1709298874.227,-36.621,-44.434,-44.922,-36.621,0.000
1709298874.231,-46.875,-27.832,-37.109,-50.293,0.000
1709298874.235,-50.293,-27.832,-44.922,-48.828,0.000
1709298874.239,-40.527,-34.180,-42.480,-28.809,0.000
1709298874.243,-33.203,-28.809,-45.410,-16.602,0.000
1709298874.247,-43.457,-24.414,-41.992,-27.832,0.000
1709298874.250,-39.062,-26.855,-40.039,-41.016,0.000
1709298874.254,-37.109,-33.691,-50.293,-38.086,0.000
1709298874.258,-44.922,-45.410,-37.598,-24.902,0.000
1709298874.262,-33.203,-46.875,-27.832,-18.555,0.000
1709298874.266,-31.250,-48.828,-20.996,-28.320,0.000
1709298874.270,-41.504,-46.387,-16.113,-28.320,0.000
1709298874.274,-47.852,-35.156,-30.762,-24.414,0.000
1709298874.278,-44.434,-32.227,-36.621,-19.531,0.000
1709298874.282,-42.480,-30.762,-41.504,-27.344,0.000
1709298874.286,-39.062,-41.504,-47.363,-29.297,0.000
1709298874.290,-39.551,-41.992,-41.992,-20.508,0.000
1709298874.293,-46.387,-34.180,-44.922,-42.480,0.000
1709298874.297,-37.109,-35.645,-41.016,-43.457,0.000
1709298874.301,-37.598,-32.227,-41.504,-37.109,0.000
1709298874.305,-47.852,-44.922,-52.734,-50.781,0.000
1709298874.309,-39.062,-60.059,-47.363,-48.340,0.000
1709298874.313,-42.969,-59.570,-38.574,-46.875,0.000
1709298874.317,-47.852,-52.246,-37.109,-40.527,0.000
1709298874.321,-40.527,-43.945,-38.574,-34.668,0.000
1709298874.325,-40.039,-38.574,-37.109,-42.969,0.000
1709298874.329,-37.109,-41.016,-41.992,-51.270,0.000
1709298874.332,-40.527,-43.457,-38.086,-46.387,0.000
1709298874.336,-46.875,-35.645,-34.668,-41.504,0.000
1709298874.340,-39.551,-27.832,-37.109,-40.527,0.000
1709298874.344,-31.250,-26.855,-35.156,-36.133,0.000
1709298874.348,-34.180,-37.598,-38.086,-31.738,0.000
1709298874.352,-31.250,-40.039,-43.457,-23.438,0.000
1709298874.356,-20.996,-36.133,-36.133,-22.461,0.000
1709298874.360,-25.879,-37.598,-27.832,-22.949,0.000
1709298874.364,-33.691,-34.180,-33.203,-21.973,0.000
1709298874.368,-28.320,-30.273,-25.879,-20.508,0.000
1709298874.372,-26.367,-32.715,-31.250,-28.809,0.000
1709298874.375,-25.391,-45.410,-34.180,-24.414,0.000
1709298874.379,-27.344,-41.016,-29.297,-11.719,0.000
1709298874.383,-35.156,-30.762,-36.133,-19.531,0.000
1709298874.387,-31.738,-36.133,-39.551,-29.297,0.000
1709298874.391,-21.973,-43.457,-38.086,-33.203,0.000
1709298874.395,-13.184,-37.598,-30.762,-24.414,0.000
1709298874.399,-12.207,-23.438,-32.715,-8.301,0.000
1709298874.403,-21.484,-26.367,-32.715,-12.695,0.000
1709298874.407,-36.133,-30.762,-34.180,-32.715,0.000
1709298874.411,-39.551,-34.668,-35.156,-45.410,0.000
1709298874.415,-28.809,-36.621,-30.273,-31.738,0.000
1709298874.418,-35.156,-41.992,-38.086,-21.484,0.000
1709298874.422,-37.109,-45.410,-29.297,-18.066,0.000
1709298874.426,-38.086,-34.180,-25.879,-25.391,0.000
1709298874.430,-44.922,-29.297,-33.691,-48.340,0.000
1709298874.434,-45.410,-32.227,-29.297,-45.410,0.000
1709298874.438,-45.410,-37.109,-31.250,-33.691,0.000
1709298874.442,-39.551,-46.387,-28.809,-36.133,0.000
1709298874.446,-41.016,-40.527,-32.227,-36.133,0.000
1709298874.450,-49.805,-33.691,-38.574,-51.758,0.000
1709298874.454,-51.758,-29.297,-31.738,-61.523,0.000
1709298874.457,-50.293,-35.156,-30.762,-44.434,0.000
1709298874.461,-44.434,-43.457,-29.785,-31.738,0.000
1709298874.465,-36.621,-36.621,-30.762,-28.320,0.000
1709298874.469,-37.109,-32.715,-35.645,-30.273,0.000
1709298874.473,-47.852,-28.320,-33.691,-40.527,0.000
1709298874.477,-44.434,-32.715,-37.109,-36.133,0.000
1709298874.481,-39.062,-43.457,-46.875,-39.062,0.000
1709298874.485,-43.945,-38.574,-37.109,-50.293,0.000
1709298874.489,-40.039,-28.320,-27.832,-54.688,0.000
1709298874.493,-35.645,-34.668,-32.227,-39.551,0.000
1709298874.497,-34.180,-41.504,-39.062,-25.879,0.000
1709298874.500,-28.809,-28.320,-44.922,-20.508,0.000
1709298874.504,-39.551,-35.156,-37.109,-21.484,0.000
1709298874.508,-47.852,-56.152,-34.668,-38.086,0.000
1709298874.512,-49.805,-46.387,-38.574,-30.762,0.000
1709298874.516,-45.898,-32.715,-35.156,-21.973,0.000
1709298874.520,-47.363,-42.969,-38.574,-35.156,0.000
1709298874.524,-43.457,-44.922,-35.645,-31.250,0.000
1709298874.528,-44.434,-32.227,-32.227,-35.645,0.000
1709298874.532,-51.758,-29.297,-34.668,-53.223,0.000
1709298874.536,0.000,-34.668,0.000,-43.945,0.000
1709298874.539,0.000,-32.715,0.000,-28.320,0.000
1709298874.543,0.000,-41.992,0.000,-30.273,0.000
1709298874.547,0.000,-49.316,0.000,-43.945,0.000
1709298874.551,0.000,-40.527,0.000,-46.387,0.000
1709298874.555,0.000,-39.062,0.000,-39.062,0.000
1709298874.559,0.000,-39.062,0.000,-31.738,0.000
1709298874.563,0.000,-31.738,0.000,-32.715,0.000
1709298874.567,0.000,-32.715,0.000,-42.480,0.000
1709298874.571,0.000,-39.062,0.000,-47.852,0.000
1709298874.575,0.000,-49.316,0.000,-43.945,0.000
1709298874.579,0.000,-54.199,0.000,-42.969,0.000
1709298874.582,-37.109,-47.852,-51.270,-43.945,0.000
1709298874.586,-40.039,-33.203,-33.203,-37.598,0.000
1709298874.590,-40.039,-26.855,-24.414,-43.945,0.000
1709298874.594,-35.645,-27.832,-22.949,-44.434,0.000
1709298874.598,-31.738,-27.832,-29.785,-25.391,0.000
1709298874.602,-31.250,-37.598,-36.621,-20.508,0.000
1709298874.606,-28.809,-46.875,-35.156,-33.203,0.000
1709298874.610,-29.785,-46.387,-27.832,-39.551,0.000
1709298874.614,-36.133,-50.781,-25.879,-33.691,0.000
1709298874.618,-34.668,-43.945,-29.785,-19.043,0.000
1709298874.622,-29.297,-34.180,-29.297,-17.578,0.000
1709298874.625,-22.461,-35.156,-30.762,-18.066,0.000
1709298874.629,-22.461,-26.855,-33.203,-22.461,0.000
1709298874.633,-32.715,-25.391,-32.715,-28.320,0.000
1709298874.637,-37.598,-27.832,-31.250,-27.344,0.000
1709298874.641,-26.367,-27.832,-28.809,-26.855,0.000
1709298874.645,-23.926,-34.180,-29.297,-33.203,0.000
1709298874.649,-36.133,-27.344,-34.180,-41.992,0.000
1709298874.653,-39.551,-29.785,-40.039,-43.457,0.000
1709298874.657,-35.645,-40.527,-46.387,-41.016,0.000
1709298874.661,-34.180,-36.621,-43.457,-18.555,0.000
1709298874.665,-39.062,-38.574,-37.598,-14.160,0.000
1709298874.668,-41.504,-36.621,-44.922,-44.922,0.000
1709298874.672,-43.945,-40.527,-36.133,-58.105,0.000
1709298874.676,-43.457,-44.434,-26.855,-42.480,0.000
1709298874.680,-39.551,-37.109,-30.762,-26.367,0.000
1709298874.684,-41.016,-39.062,-33.691,-25.879,0.000
1709298874.688,-42.480,-42.969,-33.203,-37.598,0.000
1709298874.692,-42.969,-36.621,-29.297,-36.621,0.000
1709298874.696,-48.828,-43.457,-29.297,-27.832,0.000
1709298874.700,-48.828,-48.828,-32.715,-28.809,0.000
1709298874.704,-40.039,-41.016,-37.598,-27.832,0.000
1709298874.708,-37.598,-41.016,-40.527,-28.809,0.000
1709298874.711,-47.852,-43.945,-35.645,-33.691,0.000
1709298874.715,-44.922,-32.227,-36.133,-36.621,0.000
1709298874.719,-41.992,-40.039,-34.668,-20.020,0.000
1709298874.723,-45.410,-50.293,-34.668,-22.949,0.000
1709298874.727,-47.363,-41.504,-41.992,-46.387,0.000
1709298874.731,-47.363,-41.504,-37.598,-47.852,0.000
1709298874.735,-37.109,-42.969,-36.621,-31.738,0.000
1709298874.739,-35.156,-30.273,-39.062,-22.461,0.000
1709298874.743,-41.016,-25.879,-31.738,-26.367,0.000
1709298874.747,-45.898,-34.180,-35.645,-35.156,0.000
1709298874.751,-44.434,-32.715,-41.016,-33.691,0.000
1709298874.754,-32.715,-34.668,-41.992,-18.066,0.000
1709298874.758,-32.227,-32.715,-36.621,-17.578,0.000
1709298874.762,-35.645,-29.297,-36.133,-24.414,0.000
1709298874.766,-39.062,-39.551,-39.551,-34.180,0.000
1709298874.770,-36.133,-48.340,-33.691,-36.621,0.000
1709298874.774,-42.480,-38.086,-30.762,-30.273,0.000
1709298874.778,-50.781,-30.273,-31.250,-34.668,0.000
1709298874.782,-49.316,-24.902,-37.109,-33.691,0.000
1709298874.786,-45.898,-31.738,-38.574,-36.621,0.000
1709298874.790,-44.922,-52.734,-39.551,-49.316,0.000
1709298874.793,-53.223,-44.434,-38.086,-49.805,0.000
1709298874.797,-52.734,-39.062,-36.621,-28.809,0.000
1709298874.801,-41.504,-36.621,-33.691,-13.672,0.000
1709298874.805,-41.504,-29.785,-31.738,-31.738,0.000
1709298874.809,-44.434,-31.738,-43.457,-45.898,0.000
1709298874.813,-41.016,-37.598,-42.969,-43.457,0.000
1709298874.817,-43.945,-53.711,-30.273,-41.992,0.000
1709298874.821,-49.805,-53.711,-31.738,-43.457,0.000
1709298874.825,-45.410,-43.945,-30.273,-45.410,0.000
1709298874.829,-47.363,-50.781,-34.668,-47.852,0.000
1709298874.833,-55.176,-62.012,-34.180,-44.434,0.000
1709298874.836,-45.898,-52.246,-24.902,-42.969,0.000
1709298874.840,-41.504,-37.598,-25.391,-35.645,0.000
1709298874.844,-33.691,-41.992,-27.832,-19.043,0.000
1709298874.848,-36.621,-43.457,-32.227,-31.738,0.000
1709298874.852,-48.340,-33.203,-32.227,-40.039,0.000
1709298874.856,-34.180,-43.457,-33.203,-20.996,0.000
1709298874.860,-32.715,-53.223,-37.598,-16.113,0.000
