timestamps,TP9,AF7,AF8,TP10,Right AUX
1709200835.496,-38.574,-33.203,-50.781,-44.434,0.000
1709200835.500,-45.898,-23.438,-48.828,-43.945,0.000
1709200835.504,-42.969,-35.156,-38.086,-48.828,0.000
1709200835.508,-42.480,-31.738,-35.645,-56.641,0.000
1709200835.512,-40.039,-40.527,-37.109,-49.316,0.000
1709200835.516,-46.387,-49.805,-36.133,-48.340,0.000
1709200835.519,-50.781,-44.434,-42.969,-44.434,0.000
1709200835.523,-38.086,-32.715,-41.504,-29.785,0.000
1709200835.527,-33.203,-25.391,-35.156,-40.039,0.000
1709200835.531,-37.598,-35.645,-39.062,-48.340,0.000
1709200835.535,-46.875,-36.133,-35.645,-46.387,0.000
1709200835.539,-58.105,-37.598,-36.133,-42.480,0.000
1709200835.543,-59.082,-34.180,-41.992,-41.016,0.000
1709200835.547,-46.875,-35.645,-42.969,-42.480,0.000
1709200835.551,-40.039,-41.504,-36.133,-42.480,0.000
1709200835.555,-43.457,-46.875,-45.898,-37.598,0.000
1709200835.559,-45.410,-50.293,-47.363,-36.621,0.000
1709200835.562,-44.922,-49.805,-27.832,-32.715,0.000
1709200835.566,-37.109,-48.828,-30.273,-24.414,0.000
1709200835.570,-35.156,-32.715,-33.203,-35.156,0.000
1709200835.574,-43.457,-33.691,-32.715,-45.898,0.000
1709200835.578,-49.805,-48.340,-35.156,-45.410,0.000
1709200835.582,-47.363,-49.805,-39.551,-42.480,0.000
1709200835.586,-41.016,-42.969,-44.922,-36.621,0.000
1709200835.590,-39.062,-45.410,-39.062,-33.203,0.000
1709200835.594,-34.180,-56.152,-30.762,-25.879,0.000
1709200835.598,-35.156,-42.969,-32.227,-26.855,0.000
1709200835.602,-34.668,-27.832,-32.227,-28.809,0.000
1709200835.605,-22.949,-32.227,-27.832,-24.902,0.000
1709200835.609,-15.137,-47.363,-34.180,-20.508,0.000
1709200835.613,-17.578,-46.387,-42.969,-25.391,0.000
1709200835.617,-28.809,-35.645,-26.855,-28.809,0.000
1709200835.621,-44.922,-36.133,-20.996,-28.809,0.000
1709200835.625,-42.480,-39.062,-38.086,-24.902,0.000
1709200835.629,-32.227,-29.297,-39.551,-22.949,0.000
1709200835.633,-31.738,-30.762,-27.832,-28.809,0.000
1709200835.637,-32.715,-44.922,-25.391,-34.180,0.000
1709200835.641,-38.574,-37.598,-30.273,-42.969,0.000
1709200835.644,-38.086,-27.832,-29.785,-38.086,0.000
1709200835.648,-32.227,-29.785,-32.715,-36.133,0.000
1709200835.652,-41.992,-42.969,-29.785,-43.457,0.000
1709200835.656,-58.594,-47.852,-24.414,-46.387,0.000
1709200835.660,-60.059,-42.969,-35.645,-49.316,0.000
1709200835.664,-46.875,-34.668,-42.480,-41.992,0.000
1709200835.668,-40.527,-49.316,-29.785,-38.086,0.000
1709200835.672,-47.852,-63.965,-27.344,-46.875,0.000
1709200835.676,-49.316,-55.664,-35.645,-48.828,0.000
1709200835.680,-49.805,-62.500,-29.785,-41.992,0.000
1709200835.684,0.000,-56.152,-34.668,-49.805,0.000
1709200835.687,0.000,-35.645,-47.363,-45.898,0.000
1709200835.691,0.000,-36.133,-39.551,-42.480,0.000
1709200835.695,0.000,-45.898,-35.645,-43.457,0.000
1709200835.699,0.000,-51.758,-36.621,-36.621,0.000
1709200835.703,0.000,-53.711,-39.551,-46.875,0.000
1709200835.707,0.000,-46.875,-39.062,-49.805,0.000
1709200835.711,0.000,-45.898,-41.504,-43.945,0.000
1709200835.715,0.000,-61.523,-47.852,-40.527,0.000
1709200835.719,0.000,-55.664,-42.480,-41.992,0.000
1709200835.723,0.000,-38.574,-48.340,-48.828,0.000
1709200835.727,0.000,-51.270,-41.016,-41.992,0.000
1709200835.730,-28.809,-49.805,-28.809,-38.574,0.000
1709200835.734,-33.691,-38.574,-32.227,-46.387,0.000
1709200835.738,-42.969,-36.133,-28.320,-40.039,0.000
1709200835.742,-41.992,-35.156,-28.320,-29.297,0.000
1709200835.746,-32.227,-39.551,-38.086,-35.156,0.000
1709200835.750,-34.668,-46.387,-42.969,-36.133,0.000
1709200835.754,-32.715,-46.387,-34.180,-39.551,0.000
1709200835.758,-36.133,-42.969,-30.762,-45.410,0.000
1709200835.762,-44.922,-41.992,-37.109,-34.180,0.000
1709200835.766,-42.969,-35.645,-45.410,-33.203,0.000
1709200835.769,-41.992,-36.133,-36.133,-40.527,0.000
1709200835.773,-45.898,-41.504,-31.250,-45.898,0.000
1709200835.777,-52.734,-42.969,-45.410,-49.805,0.000
1709200835.781,-46.387,-35.156,-38.574,-41.504,0.000
1709200835.785,-37.598,-27.832,-32.715,-33.203,0.000
1709200835.789,-41.992,-32.715,-37.109,-34.668,0.000
1709200835.793,-43.457,-40.527,-38.086,-34.668,0.000
1709200835.797,-50.781,-44.434,-32.715,-34.180,0.000
1709200835.801,-46.387,-42.969,-25.879,-27.344,0.000
1709200835.805,-38.086,-50.781,-31.738,-21.973,0.000
1709200835.809,-40.527,-42.480,-38.086,-25.391,0.000
1709200835.812,-33.691,-28.809,-29.785,-31.250,0.000
1709200835.816,-37.598,-41.992,-35.645,-39.062,0.000
1709200835.820,-39.062,-41.504,-33.691,-35.645,0.000
1709200835.824,-26.367,-30.762,-28.809,-25.879,0.000
1709200835.828,-23.926,-36.133,-26.855,-29.297,0.000
1709200835.832,-30.762,-40.039,-26.367,-42.969,0.000
1709200835.836,-33.691,-34.668,-33.691,-41.992,0.000
1709200835.840,-37.598,-32.227,-33.203,-40.527,0.000
1709200835.844,-36.133,-47.852,-32.715,-46.387,0.000
1709200835.848,-31.738,-46.875,-35.645,-35.645,0.000
1709200835.852,-36.621,-41.504,-39.551,-26.855,0.000
1709200835.855,-46.387,-41.504,-44.922,-35.156,0.000
1709200835.859,-45.410,-34.180,-47.852,-36.621,0.000
1709200835.863,-40.039,-44.434,-40.527,-27.832,0.000
1709200835.867,-24.902,-43.945,-28.809,-22.949,0.000
1709200835.871,-21.484,-33.203,-37.598,-38.574,0.000
1709200835.875,-33.691,-37.109,-41.992,-51.758,0.000
1709200835.879,-41.504,-41.992,-28.809,-54.688,0.000
1709200835.883,-46.387,-35.645,-37.109,-51.270,0.000
1709200835.887,-44.434,-32.715,-47.852,-43.457,0.000
1709200835.891,-41.992,-37.109,-42.969,-45.898,0.000
1709200835.894,-48.828,-49.316,-36.621,-46.387,0.000
1709200835.898,-56.152,-50.781,-42.969,-43.945,0.000
1709200835.902,-47.363,-33.203,-41.504,-49.316,0.000
1709200835.906,-38.574,-44.922,-36.621,-48.340,0.000
1709200835.910,-40.039,-53.223,-40.039,-55.176,0.000
1709200835.914,-45.410,-30.762,-47.852,-64.941,0.000
1709200835.918,-49.805,-22.949,-53.711,-58.594,0.000
1709200835.922,-47.852,-37.598,-50.781,-52.246,0.000
1709200835.926,-40.039,-39.551,-37.598,-56.152,0.000
1709200835.930,-38.086,-27.344,-33.203,-49.316,0.000
1709200835.934,-44.922,-41.016,-26.367,-45.410,0.000
1709200835.937,-49.316,-62.012,-19.531,-52.246,0.000
1709200835.941,-47.363,-65.430,-32.227,-37.598,0.000
1709200835.945,-43.945,-35.156,-42.969,-29.297,0.000
1709200835.949,-36.621,-17.090,-34.668,-30.273,0.000
1709200835.953,-40.039,-28.809,-35.645,-22.949,0.000
1709200835.957,-46.875,-30.762,-36.621,-21.484,0.000
1709200835.961,-41.504,-36.621,-37.598,-28.320,0.000
1709200835.965,-32.227,-47.363,-44.434,-30.762,0.000
1709200835.969,-26.367,-51.758,-26.855,-30.273,0.000
1709200835.973,-24.902,-49.316,-19.531,-36.133,0.000
1709200835.977,-33.203,-41.992,-27.344,-46.875,0.000
1709200835.980,-36.621,-42.480,-32.715,-49.316,0.000
1709200835.984,-28.320,-45.898,-40.039,-27.344,0.000
1709200835.988,-27.344,-36.621,-34.180,-21.484,0.000
1709200835.992,-30.273,-31.250,-40.527,-26.367,0.000
1709200835.996,-28.809,-40.527,-52.734,-28.809,0.000
1709200836.000,-28.809,-40.527,-45.898,-32.227,0.000
1709200836.004,-32.227,-30.273,-36.133,-26.367,0.000
1709200836.008,-32.227,-34.180,-40.527,-28.809,0.000
1709200836.012,-24.902,-31.250,-36.621,-32.715,0.000
1709200836.016,-30.762,-41.016,-27.344,-36.621,0.000
1709200836.020,-49.316,-44.922,-31.738,-47.363,0.000
1709200836.023,-53.223,-28.320,-35.645,-45.410,0.000
1709200836.027,-49.316,-37.109,-42.969,-37.109,0.000
1709200836.031,-45.410,-44.434,-44.434,-38.574,0.000
1709200836.035,-55.176,-37.109,-39.551,-42.969,0.000
1709200836.039,-62.012,-39.551,-43.457,-46.875,0.000
1709200836.043,-53.711,-49.316,-40.039,-35.645,0.000
1709200836.047,-38.086,-42.969,-43.945,-23.926,0.000
1709200836.051,-33.203,-39.551,-45.898,-33.691,0.000
1709200836.055,-50.293,-42.969,-35.645,-48.340,0.000
1709200836.059,-58.105,-47.852,-39.062,-52.734,0.000
1709200836.062,-53.711,-51.270,-38.574,-46.387,0.000
1709200836.066,-57.129,-47.852,-40.527,-46.875,0.000
1709200836.070,-52.734,-35.156,-41.016,-45.410,0.000
1709200836.074,-46.387,-27.832,-28.320,-43.457,0.000
1709200836.078,-48.828,-39.551,-23.926,-41.992,0.000
1709200836.082,-44.922,-34.180,-30.273,-38.574,0.000
1709200836.086,-41.016,-31.738,-43.457,-42.969,0.000
1709200836.090,-40.039,-48.828,-37.109,-32.715,0.000
1709200836.094,-34.180,-46.875,-27.832,-19.043,0.000
1709200836.098,-40.527,-41.992,-27.344,-22.461,0.000
1709200836.102,-46.387,-47.363,-26.367,-25.879,0.000
1709200836.105,-41.504,-39.062,-36.621,-31.250,0.000
1709200836.109,-34.668,-34.668,-39.062,-38.574,0.000
1709200836.113,-31.250,-38.086,-32.227,-34.668,0.000
1709200836.117,-40.039,-41.504,-28.320,-37.598,0.000
1709200836.121,-43.945,-46.387,-31.738,-38.086,0.000
1709200836.125,-38.086,-44.922,-38.574,-27.832,0.000
1709200836.129,-31.250,-31.250,-46.387,-30.273,0.000
1709200836.133,-28.320,-34.180,-39.551,-34.668,0.000
1709200836.137,-37.109,-45.898,-28.320,-28.809,0.000
1709200836.141,-37.109,-31.738,-31.250,-38.574,0.000
1709200836.145,-29.785,-27.344,-34.668,-44.434,0.000
1709200836.148,-26.855,-34.180,-31.738,-29.785,0.000
1709200836.152,-26.367,-34.668,-33.691,-41.992,0.000
1709200836.156,-37.598,-35.645,-41.016,-57.617,0.000
1709200836.160,-41.992,-35.156,-36.133,-48.340,0.000
1709200836.164,-26.855,-32.715,-36.133,-37.598,0.000
1709200836.168,-28.320,-34.668,-44.922,-35.645,0.000
1709200836.172,-41.504,-44.434,-36.133,-48.828,0.000
1709200836.176,-47.363,-50.781,-29.785,-60.059,0.000
1709200836.180,-56.641,-44.434,-42.969,-48.828,0.000
1709200836.184,-53.223,-30.762,-50.781,-47.852,0.000
1709200836.187,-44.922,-33.203,-38.086,-50.293,0.000
1709200836.191,-42.969,-41.992,-26.855,-42.480,0.000
1709200836.195,-50.293,-51.758,-31.738,-33.203,0.000
1709200836.199,-61.035,-49.805,-33.691,-40.039,0.000
1709200836.203,-58.594,-31.250,-28.809,-44.434,0.000
1709200836.207,-44.922,-34.180,-30.273,-28.320,0.000
1709200836.211,-40.039,-34.180,-36.621,-27.832,0.000
1709200836.215,-48.340,-25.391,-33.203,-40.039,0.000
1709200836.219,-54.199,-31.738,-39.062,-35.645,0.000
1709200836.223,-49.316,-38.086,-39.062,-29.785,0.000
1709200836.227,-44.922,-39.062,-25.391,-26.855,0.000
1709200836.230,-43.945,-36.133,-29.785,-26.855,0.000
1709200836.234,-45.410,-37.598,-32.227,-28.809,0.000
1709200836.238,-45.410,-43.945,-32.715,-31.738,0.000
1709200836.242,-47.363,-39.551,-38.574,-34.668,0.000
1709200836.246,-40.527,-30.273,-34.180,-26.855,0.000
1709200836.250,-34.180,-32.227,-30.273,-19.531,0.000
1709200836.254,-35.156,-44.922,-37.109,-27.344,0.000
1709200836.258,-40.527,-39.062,-42.480,-39.551,0.000
1709200836.262,-45.898,-32.715,-34.180,-40.039,0.000
1709200836.266,-50.293,-48.340,-40.039,-41.992,0.000
1709200836.270,-43.457,-59.570,-36.133,-39.551,0.000
1709200836.273,-47.363,-55.176,-32.715,-41.992,0.000
1709200836.277,-57.129,-41.504,-41.504,-49.805,0.000
1709200836.281,-62.500,-44.922,-35.156,-45.898,0.000
1709200836.285,-62.500,-43.457,-36.621,-48.340,0.000
1709200836.289,-47.852,-37.109,-39.062,-50.781,0.000
1709200836.293,-49.316,-34.668,-36.621,-41.992,0.000
1709200836.297,-58.594,-36.621,-40.527,-40.527,0.000
1709200836.301,-55.176,-42.480,-43.457,-42.480,0.000
1709200836.305,-45.410,-39.062,-39.551,-44.922,0.000
1709200836.309,-42.480,-47.363,-33.691,-49.805,0.000
1709200836.312,-47.852,-48.340,-33.691,-44.434,0.000
1709200836.316,-52.246,-41.016,-35.156,-36.621,0.000
1709200836.320,-59.570,-35.645,-38.086,-45.410,0.000
1709200836.324,-60.059,-37.598,-36.133,-56.152,0.000
1709200836.328,-44.922,-46.875,-29.785,-37.598,0.000
1709200836.332,-45.410,-39.551,-39.551,-33.691,0.000
1709200836.336,-54.688,-41.992,-46.387,-46.875,0.000
1709200836.340,-59.082,-49.316,-43.457,-50.781,0.000
1709200836.344,-47.363,-41.992,-47.852,-40.527,0.000
1709200836.348,-33.691,-41.016,-46.875,-25.391,0.000
1709200836.352,-42.969,-41.016,-32.715,-22.461,0.000
1709200836.355,-51.758,-52.246,-21.973,-31.250,0.000
1709200836.359,-49.316,-74.707,-20.020,-28.809,0.000
1709200836.363,-52.734,-76.660,-20.508,-29.785,0.000
1709200836.367,-46.387,-71.289,-17.578,-31.250,0.000
1709200836.371,-36.133,-78.125,-18.555,-13.184,0.000
1709200836.375,-37.109,-91.797,-12.695,-6.348,0.000
1709200836.379,-45.410,-105.957,-5.371,-7.812,0.000
1709200836.383,-46.387,-114.746,-4.883,-5.371,0.000
1709200836.387,-37.109,-113.770,-2.930,-3.418,0.000
1709200836.391,-38.574,-119.629,-0.488,3.418,0.000
1709200836.395,-43.945,-121.094,-2.930,4.395,0.000
1709200836.398,-43.945,-120.117,-3.418,0.977,0.000
1709200836.402,-42.969,-131.348,-0.488,4.395,0.000
1709200836.406,-43.945,-132.812,-5.859,1.953,0.000
1709200836.410,-47.852,-122.559,-6.348,-0.488,0.000
1709200836.414,-50.781,-121.094,1.953,-7.812,0.000
1709200836.418,-62.988,-137.207,0.000,-13.672,0.000
1709200836.422,-72.266,-149.902,-6.348,0.977,0.000
1709200836.426,-64.941,-137.207,-3.418,3.418,0.000
1709200836.430,-63.477,-133.301,-3.906,-13.184,0.000
1709200836.434,-71.289,-149.902,-8.789,-20.996,0.000
1709200836.438,-73.730,-153.809,0.000,-22.461,0.000
1709200836.441,-80.566,-145.020,2.930,-26.367,0.000
1709200836.445,-79.590,-142.090,7.812,-17.090,0.000
1709200836.449,-78.613,-150.879,16.113,-10.254,0.000
1709200836.453,-82.031,-157.227,10.742,-18.066,0.000
1709200836.457,-73.730,-150.391,5.859,-6.348,0.000
1709200836.461,-64.941,-143.555,18.066,4.395,0.000
1709200836.465,-45.898,-144.043,22.949,15.137,0.000
1709200836.469,-36.621,-135.254,18.066,22.461,0.000
1709200836.473,-32.715,-131.348,16.113,20.996,0.000
1709200836.477,-20.020,-130.371,13.672,32.227,0.000
1709200836.480,-19.043,-121.582,9.766,30.762,0.000
1709200836.484,-14.160,-124.512,1.953,27.344,0.000
1709200836.488,-0.488,-121.582,-2.930,35.645,0.000
1709200836.492,4.883,-113.281,-5.371,36.621,0.000
1709200836.496,-12.207,-114.746,-13.672,25.879,0.000
1709200836.500,-17.090,-112.305,-17.578,19.043,0.000
1709200836.504,-2.930,-109.863,-12.695,27.344,0.000
1709200836.508,3.906,-113.770,-16.602,28.809,0.000
1709200836.512,-2.930,-106.934,-23.438,22.949,0.000
1709200836.516,-12.207,-98.633,-26.367,18.555,0.000
1709200836.520,-12.695,-98.633,-26.367,19.043,0.000
1709200836.523,-8.301,-100.586,-23.926,29.297,0.000
1709200836.527,-2.441,-94.727,-35.156,27.344,0.000
1709200836.531,1.465,-75.684,-36.621,8.301,0.000
1709200836.535,-5.859,-72.754,-25.879,-1.465,0.000
1709200836.539,-18.066,-83.496,-30.762,0.000,0.000
1709200836.543,-26.367,-85.938,-39.062,-5.371,0.000
1709200836.547,-20.020,-80.078,-39.062,-4.395,0.000
1709200836.551,-7.324,-83.496,-32.715,-3.418,0.000
1709200836.555,-10.742,-94.238,-29.297,0.977,0.000
1709200836.559,-20.996,-76.172,-28.320,2.930,0.000
1709200836.563,-20.996,-51.758,-29.785,-14.160,0.000
1709200836.566,-14.648,-62.988,-29.785,-13.672,0.000
1709200836.570,-5.859,-73.730,-28.320,-2.930,0.000
1709200836.574,-9.277,-64.941,-24.414,-7.812,0.000
1709200836.578,-17.090,-63.477,-25.879,-12.695,0.000
1709200836.582,-20.508,-66.406,-30.273,-5.859,0.000
1709200836.586,-17.090,-58.105,-27.344,0.000,0.000
1709200836.590,-6.836,-50.293,-21.484,1.465,0.000
1709200836.594,-10.254,-58.105,-23.926,-11.719,0.000
1709200836.598,-25.879,-67.383,-27.832,-18.555,0.000
1709200836.602,-23.926,-65.918,-29.297,-11.230,0.000
1709200836.605,-14.648,-54.199,-27.832,-7.812,0.000
1709200836.609,-20.996,-51.270,-22.949,-11.719,0.000
1709200836.613,-22.461,-58.594,-29.297,-10.742,0.000
1709200836.617,-22.461,-59.082,-32.715,-12.695,0.000
1709200836.621,-30.762,-50.781,-28.809,-22.949,0.000
1709200836.625,-30.273,-55.664,-33.203,-22.461,0.000
1709200836.629,-22.461,-55.664,-27.832,-20.508,0.000
1709200836.633,-20.508,-37.109,-27.344,-21.484,0.000
1709200836.637,-20.508,-33.203,-31.738,-19.043,0.000
1709200836.641,-27.832,-42.480,-25.391,-23.438,0.000
1709200836.645,-30.273,-51.270,-24.902,-14.648,0.000
1709200836.648,-26.367,-48.828,-30.273,-12.207,0.000
1709200836.652,-24.902,-34.668,-28.809,-22.461,0.000
1709200836.656,-27.832,-42.480,-21.973,-23.438,0.000
1709200836.660,-30.273,-52.734,-24.902,-20.508,0.000
1709200836.664,-20.508,-50.781,-26.855,-11.230,0.000
1709200836.668,0.000,-42.480,-28.320,-11.719,0.000
1709200836.672,0.000,-43.457,-30.273,-20.996,0.000
1709200836.676,0.000,-48.828,-29.297,-22.461,0.000
1709200836.680,0.000,-53.711,-32.715,-22.461,0.000
1709200836.684,0.000,-54.688,-35.645,-20.020,0.000
1709200836.688,0.000,-48.340,-33.691,-13.184,0.000
1709200836.691,0.000,-52.246,-26.855,-7.324,0.000
1709200836.695,0.000,-40.039,-28.320,-16.113,0.000
1709200836.699,0.000,-42.969,-30.762,-18.555,0.000
1709200836.703,0.000,-56.641,-31.250,-21.973,0.000
1709200836.707,0.000,-53.223,-34.180,-21.973,0.000
1709200836.711,0.000,-47.852,-33.203,-20.508,0.000
1709200836.715,-33.203,-46.875,-33.691,-34.180,0.000
1709200836.719,-39.062,-48.340,-34.668,-33.691,0.000
1709200836.723,-44.922,-47.363,-36.621,-32.715,0.000
1709200836.727,-34.180,-47.363,-41.016,-40.527,0.000
1709200836.730,-23.926,-42.480,-37.598,-41.992,0.000
1709200836.734,-30.273,-52.246,-39.551,-37.598,0.000
1709200836.738,-40.039,-61.523,-47.363,-37.598,0.000
1709200836.742,-38.574,-48.828,-39.062,-40.039,0.000
1709200836.746,-29.297,-39.551,-33.691,-34.180,0.000
1709200836.750,-22.949,-46.875,-34.180,-26.855,0.000
1709200836.754,-26.855,-44.434,-34.180,-28.809,0.000
1709200836.758,-30.273,-41.016,-35.156,-37.109,0.000
1709200836.762,-23.926,-42.969,-41.992,-32.227,0.000
1709200836.766,-16.602,-37.598,-44.922,-28.320,0.000
1709200836.770,-21.484,-38.574,-38.574,-31.250,0.000
1709200836.773,-28.320,-41.504,-37.109,-32.715,0.000
1709200836.777,-30.762,-44.434,-38.086,-35.156,0.000
1709200836.781,-31.738,-46.875,-40.039,-30.273,0.000
1709200836.785,-30.273,-40.039,-41.504,-23.438,0.000
1709200836.789,-28.809,-48.340,-33.203,-23.926,0.000
1709200836.793,-36.621,-62.500,-31.250,-30.273,0.000
1709200836.797,-40.039,-58.594,-40.039,-29.297,0.000
1709200836.801,-38.574,-45.410,-37.109,-29.785,0.000
1709200836.805,-32.715,-53.223,-35.645,-28.809,0.000
1709200836.809,-19.531,-51.270,-40.039,-31.250,0.000
1709200836.813,-20.020,-40.527,-28.320,-34.668,0.000
1709200836.816,-25.879,-37.109,-28.320,-38.086,0.000
1709200836.820,-30.762,-38.086,-41.992,-42.969,0.000
1709200836.824,-26.855,-44.434,-34.180,-32.715,0.000
1709200836.828,-20.020,-46.875,-21.484,-23.926,0.000
1709200836.832,-19.043,-38.086,-30.762,-27.344,0.000
1709200836.836,-21.973,-34.668,-31.738,-31.250,0.000
1709200836.840,-32.715,-53.223,-20.020,-21.973,0.000
1709200836.844,-35.156,-55.664,-25.879,-14.648,0.000
1709200836.848,-20.508,-41.992,-29.785,-21.973,0.000
1709200836.852,-11.230,-44.434,-29.297,-30.273,0.000
1709200836.856,-12.695,-44.922,-26.367,-26.855,0.000
1709200836.859,-24.902,-35.645,-26.367,-26.367,0.000
1709200836.863,-30.762,-28.809,-30.762,-32.715,0.000
1709200836.867,-28.320,-36.133,-33.203,-30.273,0.000
1709200836.871,-32.715,-38.086,-32.227,-32.715,0.000
1709200836.875,-41.504,-39.062,-30.762,-42.969,0.000
1709200836.879,-46.387,-48.828,-35.645,-47.363,0.000
1709200836.883,-42.969,-52.734,-40.039,-42.969,0.000
1709200836.887,-41.504,-55.664,-38.574,-29.297,0.000
1709200836.891,-39.062,-43.945,-35.156,-28.320,0.000
1709200836.895,-41.992,-41.016,-35.645,-41.992,0.000
1709200836.898,-48.828,-47.852,-34.180,-44.434,0.000
1709200836.902,0.000,-43.457,0.000,-41.992,0.000
1709200836.906,0.000,-46.387,0.000,-37.109,0.000
1709200836.910,0.000,-55.176,0.000,-37.598,0.000
1709200836.914,0.000,-54.688,0.000,-42.969,0.000
1709200836.918,0.000,-43.457,0.000,-50.781,0.000
1709200836.922,0.000,-37.598,0.000,-41.992,0.000
1709200836.926,0.000,-34.180,0.000,-29.297,0.000
1709200836.930,0.000,-41.016,0.000,-25.879,0.000
1709200836.934,0.000,-48.340,0.000,-33.691,0.000
1709200836.938,0.000,-42.969,0.000,-46.875,0.000
1709200836.941,0.000,-46.387,0.000,-49.316,0.000
1709200836.945,0.000,-43.945,0.000,-45.898,0.000
1709200836.949,-39.062,-44.922,-32.715,-38.574,0.000
1709200836.953,-29.785,-54.688,-31.738,-26.367,0.000
1709200836.957,-40.039,-53.223,-39.062,-27.344,0.000
1709200836.961,-50.293,-49.316,-36.133,-38.574,0.000
1709200836.965,-35.645,-50.781,-32.227,-31.250,0.000
1709200836.969,-24.414,-47.852,-35.156,-25.879,0.000
1709200836.973,-25.879,-42.969,-35.156,-36.133,0.000
1709200836.977,-39.062,-47.363,-45.410,-41.016,0.000
1709200836.980,-45.410,-52.734,-52.734,-45.898,0.000
1709200836.984,-40.039,-49.316,-41.016,-41.504,0.000
1709200836.988,-34.668,-49.805,-34.180,-43.457,0.000
1709200836.992,-38.086,-50.781,-40.527,-50.781,0.000
1709200836.996,-48.340,-47.363,-37.109,-51.270,0.000
1709200837.000,-47.363,-48.828,-28.320,-49.805,0.000
1709200837.004,-41.504,-47.852,-32.227,-41.016,0.000
1709200837.008,-39.062,-53.223,-33.691,-35.156,0.000
1709200837.012,-32.715,-45.410,-30.762,-31.738,0.000
1709200837.016,-36.621,-32.227,-35.156,-37.109,0.000
1709200837.020,-51.270,-44.922,-36.133,-29.785,0.000
1709200837.023,-49.316,-45.898,-33.203,-22.949,0.000
1709200837.027,-39.062,-29.785,-38.086,-34.668,0.000
1709200837.031,-32.227,-37.598,-32.227,-38.086,0.000
1709200837.035,-37.598,-40.527,-36.621,-46.875,0.000
1709200837.039,-43.945,-39.062,-40.039,-46.875,0.000
1709200837.043,-47.852,-36.621,-30.762,-41.016,0.000
1709200837.047,-41.504,-43.457,-29.297,-39.062,0.000
1709200837.051,-37.109,-59.570,-34.668,-38.574,0.000
1709200837.055,-46.387,-57.129,-38.574,-37.598,0.000
1709200837.059,-55.176,-41.992,-29.297,-32.227,0.000
1709200837.063,-53.223,-40.527,-26.855,-36.133,0.000
1709200837.066,-49.316,-44.922,-39.062,-34.180,0.000
1709200837.070,-50.781,-35.645,-47.363,-33.691,0.000
1709200837.074,-47.363,-34.668,-39.551,-43.457,0.000
1709200837.078,-47.363,-49.805,-35.645,-44.434,0.000
1709200837.082,-50.293,-57.129,-37.598,-44.434,0.000
1709200837.086,-52.734,-45.898,-41.992,-49.316,0.000
1709200837.090,-47.363,-42.480,-43.457,-48.828,0.000
1709200837.094,-41.504,-53.223,-41.016,-49.316,0.000
1709200837.098,-51.270,-49.805,-44.434,-54.688,0.000
1709200837.102,-52.246,-44.434,-37.598,-42.969,0.000
1709200837.105,-40.527,-45.410,-41.016,-32.715,0.000
1709200837.109,-33.691,-53.223,-43.945,-26.367,0.000
1709200837.113,-37.109,-48.828,-32.715,-24.414,0.000
1709200837.117,-41.992,-29.297,-34.668,-30.762,0.000
1709200837.121,-45.898,-38.574,-43.945,-35.645,0.000
1709200837.125,-43.945,-45.898,-52.734,-34.668,0.000
1709200837.129,-34.668,-36.621,-47.852,-25.879,0.000
1709200837.133,-30.273,-42.969,-34.180,-25.391,0.000
1709200837.137,-34.668,-51.758,-32.227,-29.297,0.000
1709200837.141,-41.504,-40.527,-33.691,-21.973,0.000
1709200837.145,-44.922,-32.227,-40.039,-31.738,0.000
1709200837.148,-44.434,-36.133,-39.062,-42.969,0.000
1709200837.152,-36.621,-46.875,-36.621,-38.086,0.000
1709200837.156,-41.016,-47.852,-44.434,-41.992,0.000
1709200837.160,-51.758,-46.387,-43.945,-47.852,0.000
1709200837.164,-52.246,-45.898,-38.574,-52.734,0.000
1709200837.168,-48.828,-41.992,-42.969,-44.434,0.000
1709200837.172,-44.922,-41.504,-43.945,-39.062,0.000
1709200837.176,-45.898,-36.133,-33.691,-49.316,0.000
1709200837.180,-49.316,-36.133,-32.715,-50.293,0.000
1709200837.184,-53.223,-39.062,-38.574,-40.039,0.000
1709200837.188,-41.504,-39.551,-40.039,-33.691,0.000
1709200837.191,-30.762,-36.621,-38.574,-38.086,0.000
1709200837.195,-34.668,-47.363,-34.180,-47.852,0.000
1709200837.199,-46.875,-54.199,-35.156,-49.316,0.000
1709200837.203,-48.828,-51.758,-41.992,-45.410,0.000
1709200837.207,-40.527,-41.504,-39.551,-41.016,0.000
1709200837.211,-36.621,-40.527,-32.715,-39.062,0.000
1709200837.215,-39.551,-59.570,-30.762,-31.738,0.000
1709200837.219,-42.480,-56.152,-32.227,-25.879,0.000
1709200837.223,-41.016,-45.898,-45.898,-41.992,0.000
1709200837.227,-34.668,-46.875,-48.828,-50.781,0.000
1709200837.231,-24.902,-38.086,-30.273,-44.434,0.000
1709200837.234,-26.367,-39.551,-32.715,-38.086,0.000
1709200837.238,-41.504,-43.457,-39.062,-39.551,0.000
1709200837.242,-45.898,-37.109,-36.133,-33.691,0.000
1709200837.246,-29.297,-38.574,-36.133,-33.691,0.000
1709200837.250,-24.414,-49.805,-40.527,-43.457,0.000
1709200837.254,-38.086,-51.270,-42.969,-50.293,0.000
1709200837.258,-47.363,-45.410,-34.668,-50.293,0.000
1709200837.262,-53.711,-46.875,-35.645,-36.621,0.000
1709200837.266,-52.246,-33.691,-41.016,-38.086,0.000
1709200837.270,-40.527,-29.297,-39.062,-42.480,0.000
1709200837.273,-27.832,-43.457,-36.621,-35.156,0.000
1709200837.277,-33.203,-53.711,-34.668,-37.598,0.000
1709200837.281,-44.922,-47.363,-31.250,-42.969,0.000
1709200837.285,-42.480,-42.969,-38.086,-42.969,0.000
1709200837.289,-38.086,-44.922,-44.922,-38.086,0.000
1709200837.293,-35.645,-40.039,-37.109,-38.574,0.000
1709200837.297,-41.992,-50.293,-32.715,-38.574,0.000
1709200837.301,-47.852,-55.176,-36.133,-36.133,0.000
1709200837.305,-39.062,-46.875,-33.691,-28.809,0.000
1709200837.309,-31.738,-47.852,-33.691,-25.391,0.000
1709200837.313,-30.762,-45.898,-29.785,-37.598,0.000
1709200837.316,-34.668,-38.086,-28.320,-47.852,0.000
1709200837.320,-39.551,-43.945,-31.250,-42.969,0.000
1709200837.324,-34.668,-49.316,-33.203,-30.762,0.000
1709200837.328,-31.250,-40.039,-29.297,-28.320,0.000
1709200837.332,-36.133,-34.180,-19.043,-35.156,0.000
1709200837.336,-41.504,-40.039,-19.531,-32.715,0.000
1709200837.340,-44.922,-38.574,-25.391,-32.715,0.000
1709200837.344,-46.387,-33.691,-30.762,-37.109,0.000
1709200837.348,-43.945,-34.180,-39.551,-41.992,0.000
1709200837.352,-46.387,-33.203,-44.922,-41.016,0.000
1709200837.356,-46.387,-28.809,-41.016,-47.852,0.000
1709200837.359,-47.852,-37.598,-32.227,-51.758,0.000
1709200837.363,-47.363,-48.340,-30.273,-47.852,0.000
1709200837.367,-39.062,-46.875,-43.457,-41.504,0.000
1709200837.371,-35.645,-35.156,-43.945,-39.062,0.000
1709200837.375,-41.504,-43.945,-36.133,-42.969,0.000
1709200837.379,-53.223,-65.918,-34.180,-39.551,0.000
1709200837.383,-54.199,-58.594,-41.016,-36.133,0.000
1709200837.387,-38.574,-44.922,-47.852,-27.832,0.000
1709200837.391,-27.832,-49.316,-40.527,-29.297,0.000
1709200837.395,-33.203,-60.547,-41.504,-34.180,0.000
1709200837.398,-38.574,-53.223,-39.551,-29.785,0.000
1709200837.402,-40.039,-39.062,-35.156,-30.762,0.000
1709200837.406,-33.691,-42.480,-41.992,-36.133,0.000
1709200837.410,-25.879,-38.574,-42.480,-38.574,0.000
1709200837.414,-32.227,-44.922,-42.480,-39.062,0.000
1709200837.418,-41.016,-51.758,-47.363,-49.805,0.000
1709200837.422,-39.551,-42.969,-49.805,-49.805,0.000
1709200837.426,-30.273,-40.039,-40.527,-46.875,0.000
1709200837.430,-26.855,-41.016,-33.203,-50.293,0.000
1709200837.434,-37.109,-50.293,-36.133,-53.711,0.000
1709200837.438,-49.805,-55.176,-41.016,-50.293,0.000
1709200837.441,-56.152,-56.641,-34.668,-43.457,0.000
1709200837.445,-51.270,-41.504,-30.762,-44.434,0.000
1709200837.449,-43.945,-26.367,-39.062,-39.551,0.000
1709200837.453,-48.340,-36.133,-40.527,-41.992,0.000
1709200837.457,-52.734,-45.410,-42.969,-46.387,0.000
1709200837.461,-53.223,-35.645,-46.875,-45.898,0.000
1709200837.465,-44.434,-37.109,-44.434,-42.969,0.000
1709200837.469,-36.133,-43.945,-37.598,-34.668,0.000
1709200837.473,-30.762,-45.898,-38.086,-34.180,0.000
1709200837.477,-37.598,-56.152,-40.527,-47.363,0.000
1709200837.481,-45.410,-64.941,-40.527,-53.711,0.000
1709200837.484,-43.457,-62.500,-41.992,-54.199,0.000
1709200837.488,-38.086,-52.734,-39.062,-44.922,0.000
1709200837.492,-34.668,-41.992,-41.504,-37.598,0.000
1709200837.496,-40.039,-46.387,-47.852,-40.527,0.000
1709200837.500,-47.852,-60.547,-42.969,-31.250,0.000
1709200837.504,-50.293,-49.316,-35.645,-18.066,0.000
1709200837.508,-45.898,-33.203,-32.227,-31.738,0.000
1709200837.512,-47.363,-33.203,-40.527,-42.480,0.000
1709200837.516,-48.828,-38.086,-40.039,-40.039,0.000
1709200837.520,-45.410,-42.969,-35.645,-44.434,0.000
1709200837.523,-42.969,-43.457,-35.645,-37.598,0.000
1709200837.527,-44.922,-56.152,-36.133,-34.180,0.000
1709200837.531,-43.457,-65.430,-41.504,-34.180,0.000
1709200837.535,-44.922,-50.781,-35.156,-38.574,0.000
1709200837.539,-48.828,-44.922,-31.250,-42.969,0.000
1709200837.543,-46.387,-48.340,-32.227,-36.621,0.000
1709200837.547,-46.387,-52.734,-32.715,-36.133,0.000
1709200837.551,-41.992,-47.363,-32.715,-45.898,0.000
1709200837.555,-45.410,-42.480,-27.832,-55.176,0.000
1709200837.559,-52.246,-48.340,-37.109,-46.387,0.000
1709200837.563,-49.316,-42.480,-42.969,-38.086,0.000
1709200837.566,-43.457,-37.598,-36.133,-38.574,0.000
1709200837.570,-37.109,-44.922,-33.691,-40.527,0.000
1709200837.574,-37.109,-44.434,-36.621,-40.039,0.000
1709200837.578,-38.086,-49.805,-36.621,-41.504,0.000
1709200837.582,-33.691,-51.758,-33.691,-42.969,0.000
1709200837.586,-35.156,-38.574,-37.598,-45.410,0.000
1709200837.590,-32.715,-42.969,-44.922,-39.551,0.000
1709200837.594,-25.879,-46.875,-40.527,-33.691,0.000
1709200837.598,-35.156,-41.016,-47.363,-47.852,0.000
1709200837.602,-41.992,-41.504,-40.039,-46.875,0.000
1709200837.606,-39.551,-37.598,-29.785,-40.527,0.000
1709200837.609,-37.109,-34.668,-39.062,-46.387,0.000
1709200837.613,-37.598,-38.574,-37.598,-44.922,0.000
1709200837.617,-43.945,-45.898,-46.875,-35.156,0.000
1709200837.621,-45.410,-58.105,-47.363,-38.574,0.000
1709200837.625,-45.898,-68.848,-33.691,-38.574,0.000
1709200837.629,-48.828,-60.059,-38.574,-41.992,0.000
1709200837.633,-38.574,-52.246,-35.645,-47.363,0.000
1709200837.637,-38.086,-51.270,-33.691,-45.898,0.000
1709200837.641,-47.363,-40.039,-37.109,-41.016,0.000
1709200837.645,-44.434,-46.875,-40.527,-39.062,0.000
1709200837.648,-32.715,-53.223,-43.457,-37.109,0.000
1709200837.652,-34.668,-46.387,-33.203,-33.203,0.000
1709200837.656,-52.734,-43.457,-34.668,-39.062,0.000
1709200837.660,-56.641,-41.992,-41.504,-47.363,0.000
1709200837.664,-48.828,-53.711,-36.621,-45.410,0.000
1709200837.668,-44.922,-54.688,-37.598,-42.480,0.000
1709200837.672,-43.945,-41.016,-41.016,-45.898,0.000
1709200837.676,-42.480,-35.156,-31.250,-44.434,0.000
1709200837.680,-40.527,-50.293,-30.273,-36.621,0.000
1709200837.684,-39.062,-51.270,-33.691,-36.133,0.000
1709200837.688,-25.391,-42.480,-35.156,-38.086,0.000
1709200837.691,-21.484,-54.199,-39.551,-41.504,0.000
1709200837.695,-36.621,-51.270,-42.480,-47.852,0.000
1709200837.699,-45.898,-43.945,-51.758,-52.246,0.000
1709200837.703,-43.457,-39.551,-57.129,-58.105,0.000
1709200837.707,-30.762,-33.691,-45.410,-48.340,0.000
1709200837.711,-22.461,-38.086,-41.016,-37.598,0.000
1709200837.715,-26.855,-41.504,-38.574,-39.551,0.000
1709200837.719,-43.457,-44.922,-36.133,-51.270,0.000
1709200837.723,-47.363,-51.270,-35.156,-48.340,0.000
1709200837.727,-44.434,-56.152,-39.062,-35.156,0.000
1709200837.731,-44.922,-42.969,-49.805,-36.621,0.000
1709200837.734,-46.875,-36.621,-45.898,-39.062,0.000
1709200837.738,-56.152,-43.945,-40.527,-33.691,0.000
1709200837.742,-60.547,-42.969,-42.480,-37.598,0.000
1709200837.746,-52.246,-35.156,-37.109,-46.875,0.000
1709200837.750,-42.969,-33.691,-34.180,-42.480,0.000
1709200837.754,-39.062,-40.039,-34.180,-39.062,0.000
1709200837.758,-39.062,-50.293,-34.668,-43.945,0.000
1709200837.762,-43.457,-55.176,-27.832,-49.805,0.000
1709200837.766,-44.434,-45.410,-32.715,-49.316,0.000
1709200837.770,-29.297,-49.805,-38.574,-28.320,0.000
1709200837.773,-27.832,-48.828,-35.645,-16.113,0.000
1709200837.777,-37.598,-32.715,-35.645,-26.367,0.000
1709200837.781,-39.551,-35.156,-38.574,-27.344,0.000
1709200837.785,-41.504,-41.504,-32.715,-26.855,0.000
1709200837.789,-30.273,-41.504,-26.855,-25.391,0.000
1709200837.793,-26.855,-37.109,-39.062,-23.438,0.000
1709200837.797,-31.250,-44.922,-46.387,-19.531,0.000
1709200837.801,-33.203,-42.480,-36.133,-25.391,0.000
1709200837.805,-36.133,-40.527,-33.203,-31.738,0.000
1709200837.809,-23.926,-46.875,-34.668,-25.391,0.000
1709200837.813,-20.020,-48.340,-33.203,-29.297,0.000
1709200837.816,-34.668,-52.246,-44.434,-32.227,0.000
1709200837.820,-44.922,-42.969,-46.875,-34.668,0.000
1709200837.824,-43.945,-41.992,-34.668,-33.203,0.000
1709200837.828,-36.133,-49.805,-34.180,-21.484,0.000
1709200837.832,-30.273,-43.457,-34.668,-19.531,0.000
1709200837.836,-30.762,-38.574,-34.180,-20.020,0.000
1709200837.840,-38.086,-49.805,-37.109,-24.414,0.000
1709200837.844,-41.992,-57.129,-37.598,-33.691,0.000
1709200837.848,-36.621,-46.875,-38.574,-27.344,0.000
1709200837.852,-30.273,-41.016,-36.133,-28.320,0.000
1709200837.856,-30.273,-47.852,-30.762,-38.574,0.000
1709200837.859,-44.434,-49.805,-29.785,-38.086,0.000
1709200837.863,-47.363,-43.945,-34.180,-33.691,0.000
1709200837.867,-28.320,-40.527,-34.180,-37.109,0.000
1709200837.871,-23.438,-37.598,-37.109,-43.457,0.000
1709200837.875,-39.062,-43.945,-38.574,-42.969,0.000
1709200837.879,-48.340,-44.922,-41.016,-45.898,0.000
1709200837.883,-42.969,-38.086,-47.363,-47.852,0.000
1709200837.887,-36.621,-45.898,-43.945,-43.945,0.000
1709200837.891,-35.156,-46.875,-39.551,-39.062,0.000
1709200837.895,-42.480,-30.762,-42.969,-44.434,0.000
1709200837.899,-52.734,-23.926,-33.691,-51.270,0.000
1709200837.902,-53.223,-40.039,-28.809,-56.152,0.000
1709200837.906,-51.270,-47.363,-36.621,-53.223,0.000
1709200837.910,-48.828,-46.875,-42.480,-42.480,0.000
1709200837.914,-47.363,-41.504,-33.691,-40.039,0.000
1709200837.918,-53.711,-49.316,-26.367,-40.039,0.000
1709200837.922,-58.105,-56.152,-30.273,-34.180,0.000
1709200837.926,-56.641,-41.016,-35.156,-31.250,0.000
1709200837.930,-54.199,-43.945,-27.832,-33.203,0.000
1709200837.934,-46.875,-46.875,-19.531,-29.785,0.000
1709200837.938,-45.898,-40.527,-21.973,-28.809,0.000
1709200837.941,-48.828,-39.551,-25.391,-34.180,0.000
1709200837.945,-50.781,-41.504,-35.645,-33.691,0.000
1709200837.949,-43.945,-43.457,-38.086,-25.879,0.000
1709200837.953,-40.039,-41.992,-35.156,-26.855,0.000
1709200837.957,-44.434,-41.992,-31.738,-26.855,0.000
1709200837.961,-39.551,-44.922,-35.156,-20.508,0.000
1709200837.965,-36.621,-56.641,-42.969,-9.277,0.000
1709200837.969,-29.297,-48.340,-53.223,-4.395,0.000
1709200837.973,-22.461,-32.715,-48.340,-15.137,0.000
1709200837.977,-28.320,-36.621,-27.344,-26.367,0.000
1709200837.981,-35.645,-39.551,-32.227,-27.344,0.000
1709200837.984,-41.992,-42.969,-41.016,-27.832,0.000
1709200837.988,-37.109,-33.691,-38.086,-31.250,0.000
1709200837.992,-34.668,-38.086,-36.621,-31.250,0.000
1709200837.996,-40.039,-56.152,-36.133,-29.297,0.000
1709200838.000,-45.410,-49.316,-35.156,-26.367,0.000
1709200838.004,-45.898,-41.992,-37.109,-32.227,0.000
1709200838.008,-36.621,-39.551,-39.062,-30.762,0.000
1709200838.012,-35.645,-37.109,-40.039,-16.602,0.000
1709200838.016,-38.574,-37.598,-39.062,-20.508,0.000
1709200838.020,-45.898,-42.969,-35.645,-31.738,0.000
1709200838.024,-45.410,-44.434,-36.621,-33.691,0.000
1709200838.027,-38.086,-47.852,-41.016,-25.391,0.000
1709200838.031,-34.668,-45.898,-37.598,-20.020,0.000
1709200838.035,-37.109,-40.527,-33.691,-22.461,0.000
1709200838.039,-39.551,-47.363,-39.551,-17.578,0.000
1709200838.043,-42.969,-49.805,-36.621,-12.207,0.000
1709200838.047,-43.457,-53.711,-39.551,-12.207,0.000
1709200838.051,-46.387,-57.129,-49.316,-21.484,0.000
1709200838.055,-48.340,-60.059,-50.781,-20.508,0.000
1709200838.059,-46.875,-57.617,-41.992,-20.020,0.000
1709200838.063,-47.363,-41.504,-31.250,-36.621,0.000
1709200838.066,-44.922,-44.434,-36.621,-40.039,0.000
1709200838.070,-34.180,-52.734,-38.086,-37.598,0.000
1709200838.074,-25.391,-51.270,-40.039,-45.898,0.000
1709200838.078,-31.250,-46.875,-40.527,-55.176,0.000
1709200838.082,-42.480,-47.363,-33.691,-50.781,0.000
1709200838.086,-41.504,-44.922,-30.273,-45.410,0.000
1709200838.090,-32.715,-34.180,-30.762,-45.410,0.000
1709200838.094,-30.273,-43.457,-34.180,-43.457,0.000
1709200838.098,-31.250,-46.875,-37.598,-43.457,0.000
1709200838.102,-29.297,-44.434,-31.738,-40.527,0.000
1709200838.106,-23.926,-42.969,-31.250,-43.457,0.000
1709200838.109,-14.160,-32.715,-38.086,-46.387,0.000
1709200838.113,-9.766,-30.273,-29.297,-35.645,0.000
1709200838.117,-15.625,-26.855,-22.949,-32.715,0.000
1709200838.121,-25.879,-20.508,-37.598,-40.039,0.000
1709200838.125,-24.414,-21.973,-44.434,-34.668,0.000
1709200838.129,-20.020,-32.715,-33.691,-33.203,0.000
1709200838.133,-28.320,-35.645,-32.227,-33.203,0.000
1709200838.137,-28.809,-41.992,-32.227,-28.320,0.000
1709200838.141,-34.180,-60.059,-31.250,-33.691,0.000
1709200838.145,-36.621,-58.105,-39.062,-23.926,0.000
1709200838.149,-40.527,-38.086,-37.109,-16.113,0.000
1709200838.152,-43.945,-24.902,-28.809,-36.133,0.000
1709200838.156,-43.945,-38.574,-27.344,-42.480,0.000
1709200838.160,-57.129,-51.758,-30.273,-44.922,0.000
1709200838.164,-59.570,-45.898,-37.109,-47.852,0.000
1709200838.168,-45.898,-43.945,-35.156,-39.062,0.000
1709200838.172,-37.598,-39.062,-35.645,-33.691,0.000
1709200838.176,-37.109,-30.762,-37.598,-44.922,0.000
1709200838.180,-35.156,-37.598,-34.180,-42.480,0.000
1709200838.184,-37.109,-49.316,-33.203,-35.645,0.000
1709200838.188,-35.156,-41.016,-30.762,-33.203,0.000
1709200838.191,-25.391,-26.855,-28.809,-23.438,0.000
1709200838.195,-24.902,-21.484,-29.297,-26.855,0.000
1709200838.199,-29.785,-22.461,-36.133,-31.250,0.000
1709200838.203,-31.250,-33.203,-36.133,-39.062,0.000
1709200838.207,-30.762,-31.738,-27.344,-41.016,0.000
1709200838.211,-25.391,-33.203,-30.273,-33.691,0.000
1709200838.215,-31.738,-36.621,-39.062,-37.109,0.000
1709200838.219,-42.969,-35.645,-36.621,-47.363,0.000
1709200838.223,-49.316,-40.039,-30.273,-58.105,0.000
1709200838.227,-46.387,-42.969,-31.738,-48.828,0.000
1709200838.231,-38.574,-48.828,-35.156,-42.969,0.000
1709200838.234,-46.387,-61.035,-34.180,-43.457,0.000
1709200838.238,-62.500,-59.570,-32.715,-46.387,0.000
1709200838.242,-58.594,-40.527,-33.691,-47.852,0.000
1709200838.246,-49.316,-46.875,-41.992,-45.898,0.000
1709200838.250,-46.875,-52.734,-41.504,-50.781,0.000
1709200838.254,-52.246,-42.480,-40.527,-48.828,0.000
1709200838.258,-47.852,-55.176,-41.504,-42.969,0.000
1709200838.262,-43.457,-68.848,-33.691,-36.621,0.000
1709200838.266,-47.852,-42.480,-31.738,-33.203,0.000
1709200838.270,-40.039,-26.367,-32.227,-23.438,0.000
1709200838.274,-34.180,-37.109,-37.598,-14.160,0.000
1709200838.277,-41.504,-48.828,-30.762,-26.367,0.000
1709200838.281,-49.805,-47.363,-22.461,-23.926,0.000
1709200838.285,-38.574,-33.203,-18.555,-8.789,0.000
1709200838.289,-38.086,-26.367,-16.602,-19.043,0.000
1709200838.293,-46.875,-37.598,-24.902,-31.250,0.000
1709200838.297,-50.293,-51.758,-27.832,-30.762,0.000
1709200838.301,-55.176,-44.434,-22.461,-30.762,0.000
1709200838.305,-53.223,-40.039,-27.832,-35.156,0.000
1709200838.309,-45.898,-48.828,-33.203,-33.203,0.000
1709200838.313,-38.086,-48.828,-27.344,-31.250,0.000
1709200838.317,-37.109,-44.434,-22.461,-42.480,0.000
1709200838.320,-41.016,-49.316,-24.902,-51.270,0.000
1709200838.324,-35.645,-47.363,-27.832,-48.340,0.000
1709200838.328,-27.832,-44.922,-22.949,-38.574,0.000
1709200838.332,-31.738,-42.969,-23.926,-40.527,0.000
1709200838.336,-29.785,-43.945,-24.414,-44.922,0.000
1709200838.340,-32.715,-45.410,-16.113,-36.621,0.000
1709200838.344,-36.621,-31.738,-18.555,-28.320,0.000
1709200838.348,-33.691,-20.020,-32.227,-29.785,0.000
1709200838.352,-34.668,-32.227,-34.180,-29.785,0.000
1709200838.356,-34.668,-38.086,-36.133,-34.180,0.000
1709200838.359,-31.250,-32.715,-41.504,-29.785,0.000
1709200838.363,-33.203,-29.785,-39.062,-24.902,0.000
1709200838.367,-33.691,-35.645,-33.691,-23.438,0.000
1709200838.371,-31.738,-38.574,-38.086,-14.160,0.000
1709200838.375,-33.691,-40.039,-31.738,-15.625,0.000
1709200838.379,-41.992,-41.992,-32.715,-23.926,0.000
1709200838.383,-46.387,-51.270,-41.016,-32.227,0.000
1709200838.387,-50.293,-59.570,-36.621,-32.715,0.000
1709200838.391,-50.293,-51.758,-29.785,-35.645,0.000
1709200838.395,-51.270,-53.711,-29.785,-38.086,0.000
1709200838.399,-60.059,-55.664,-37.598,-32.715,0.000
1709200838.402,-65.918,-52.734,-33.203,-37.109,0.000
1709200838.406,-64.941,-47.852,-30.273,-43.457,0.000
1709200838.410,-64.453,-60.059,-37.598,-46.387,0.000
1709200838.414,-64.453,-69.336,-35.156,-41.016,0.000
1709200838.418,-69.336,-58.105,-32.715,-49.316,0.000
1709200838.422,-76.660,-57.129,-29.785,-57.129,0.000
1709200838.426,-72.266,-57.129,-32.715,-60.547,0.000
1709200838.430,-61.523,-62.500,-41.016,-57.617,0.000
1709200838.434,-60.547,-61.035,-40.039,-47.363,0.000
1709200838.438,-64.941,-45.410,-42.480,-58.594,0.000
1709200838.441,-59.570,-49.805,-47.852,-64.941,0.000
1709200838.445,-54.688,-50.781,-42.480,-62.500,0.000
1709200838.449,-47.363,-42.969,-39.062,-62.012,0.000
1709200838.453,-33.691,-40.527,-42.969,-52.734,0.000
1709200838.457,-40.527,-47.852,-37.598,-51.270,0.000
1709200838.461,-55.664,-39.551,-41.504,-58.594,0.000
1709200838.465,-49.316,-22.461,-51.758,-53.223,0.000
1709200838.469,-30.762,-25.879,-48.828,-41.504,0.000
1709200838.473,-25.879,-42.480,-52.734,-35.645,0.000
1709200838.477,-35.156,-45.410,-49.805,-33.691,0.000
1709200838.481,-37.109,-37.109,-39.062,-38.574,0.000
1709200838.484,-36.621,-41.992,-41.504,-44.434,0.000
1709200838.488,-34.180,-46.875,-48.340,-44.434,0.000
1709200838.492,-26.855,-48.340,-51.270,-42.480,0.000
1709200838.496,-29.297,-47.852,-49.805,-42.480,0.000
1709200838.500,-44.434,-48.340,-53.223,-44.434,0.000
1709200838.504,-47.363,-52.246,-50.781,-45.898,0.000
1709200838.508,-42.480,-47.852,-47.363,-42.480,0.000
1709200838.512,-36.621,-38.574,-46.875,-38.086,0.000
1709200838.516,-30.762,-41.016,-38.086,-27.344,0.000
1709200838.520,-29.785,-40.039,-45.898,-26.855,0.000
1709200838.524,-29.297,-34.668,-49.805,-40.527,0.000
1709200838.527,-32.227,-37.109,-30.273,-46.387,0.000
1709200838.531,-17.090,-47.852,-26.855,-40.039,0.000
1709200838.535,-15.137,-65.430,-31.250,-22.949,0.000
1709200838.539,-36.621,-45.410,-35.156,-24.902,0.000
1709200838.543,-44.434,-25.391,-40.039,-50.781,0.000
1709200838.547,-42.969,-43.457,-45.410,-58.105,0.000
1709200838.551,-33.203,-38.574,-46.875,-49.805,0.000
1709200838.555,-28.320,-34.180,-41.504,-46.387,0.000
1709200838.559,-31.250,-36.133,-39.551,-42.480,0.000
1709200838.563,-30.762,-34.668,-37.109,-37.598,0.000
1709200838.567,-38.086,-44.922,-34.668,-27.832,0.000
1709200838.570,-36.133,-34.668,-31.738,-28.320,0.000
1709200838.574,-27.832,-27.832,-36.133,-37.109,0.000
1709200838.578,-41.016,-41.992,-49.316,-45.898,0.000
1709200838.582,-50.293,-44.922,-44.922,-54.688,0.000
1709200838.586,-43.457,-41.504,-34.668,-40.527,0.000
1709200838.590,-41.992,-44.434,-32.715,-35.156,0.000
1709200838.594,-38.574,-52.734,-29.297,-39.062,0.000
1709200838.598,-35.645,-47.363,-28.320,-37.109,0.000
1709200838.602,-36.621,-44.922,-27.832,-45.410,0.000
1709200838.606,-37.109,-44.922,-28.809,-45.898,0.000
1709200838.609,-32.715,-41.504,-29.297,-32.715,0.000
1709200838.613,-21.973,-46.387,-31.738,-27.344,0.000
1709200838.617,-28.809,-44.434,-27.832,-45.898,0.000
1709200838.621,-39.551,-41.504,-21.973,-50.293,0.000
1709200838.625,-38.086,-43.945,-21.484,-40.039,0.000
1709200838.629,-34.180,-40.039,-29.785,-36.133,0.000
1709200838.633,-29.297,-37.109,-35.645,-39.062,0.000
1709200838.637,-33.203,-44.922,-35.156,-44.434,0.000
1709200838.641,-39.551,-47.363,-36.133,-42.480,0.000
1709200838.645,-38.086,-41.992,-26.367,-31.250,0.000
1709200838.649,-35.645,-34.180,-23.926,-29.785,0.000
1709200838.652,-33.203,-42.969,-30.762,-26.367,0.000
1709200838.656,-28.809,-55.176,-27.832,-30.762,0.000
1709200838.660,-24.414,-42.480,-29.297,-41.016,0.000
1709200838.664,-26.367,-38.086,-34.668,-43.457,0.000
1709200838.668,-23.438,-47.363,-36.133,-38.086,0.000
1709200838.672,-18.555,-39.062,-33.691,-23.926,0.000
1709200838.676,-17.090,-28.809,-34.668,-25.879,0.000
1709200838.680,-17.578,-37.109,-38.086,-34.180,0.000
1709200838.684,-23.926,-42.480,-39.551,-38.574,0.000
1709200838.688,-29.297,-34.180,-39.062,-43.457,0.000
1709200838.692,-24.902,-28.809,-40.039,-41.016,0.000
1709200838.695,-23.438,-29.785,-34.668,-29.785,0.000
1709200838.699,-36.621,-43.945,-29.785,-33.691,0.000
1709200838.703,-44.922,-47.852,-33.691,-49.805,0.000
1709200838.707,-55.176,-33.203,-42.480,-54.199,0.000
1709200838.711,-47.852,-28.320,-41.504,-47.852,0.000
1709200838.715,-38.574,-42.480,-30.273,-29.297,0.000
1709200838.719,-49.805,-41.992,-30.762,-18.555,0.000
1709200838.723,-62.012,-30.273,-37.109,-38.086,0.000
1709200838.727,-61.035,-43.457,-34.180,-43.945,0.000
1709200838.731,0.000,-47.852,-34.180,-40.039,0.000
1709200838.735,0.000,-42.480,-41.016,-41.504,0.000
1709200838.738,0.000,-40.039,-39.551,-34.180,0.000
1709200838.742,0.000,-40.527,-35.156,-34.180,0.000
1709200838.746,0.000,-39.551,-37.109,-40.039,0.000
1709200838.750,0.000,-43.457,-39.551,-32.715,0.000
1709200838.754,0.000,-45.898,-29.785,-24.902,0.000
1709200838.758,0.000,-45.898,-24.414,-26.855,0.000
1709200838.762,0.000,-50.781,-30.273,-21.484,0.000
1709200838.766,0.000,-40.039,-38.086,-21.484,0.000
1709200838.770,0.000,-42.969,-34.180,-33.203,0.000
1709200838.774,0.000,-53.223,-31.250,-27.344,0.000
1709200838.778,-32.715,-50.781,-27.344,-23.926,0.000
1709200838.781,-38.574,-58.105,-30.273,-33.203,0.000
1709200838.785,-38.086,-57.617,-38.574,-31.738,0.000
1709200838.789,-31.250,-48.340,-40.527,-24.902,0.000
1709200838.793,-40.527,-50.293,-38.086,-28.809,0.000
1709200838.797,-42.480,-44.434,-40.039,-30.273,0.000
1709200838.801,-45.410,-44.434,-39.062,-33.691,0.000
1709200838.805,-52.734,-57.129,-33.691,-38.574,0.000
1709200838.809,-43.945,-49.805,-43.457,-29.785,0.000
1709200838.813,-28.809,-36.133,-46.875,-27.832,0.000
1709200838.817,-35.156,-37.598,-44.922,-39.062,0.000
1709200838.820,-46.875,-56.152,-49.316,-35.645,0.000
1709200838.824,-48.340,-48.340,-49.805,-26.855,0.000
1709200838.828,-41.504,-34.180,-43.945,-37.598,0.000
1709200838.832,-38.574,-43.457,-38.086,-46.875,0.000
1709200838.836,-41.504,-45.410,-50.293,-42.969,0.000
1709200838.840,-41.504,-52.734,-50.781,-37.598,0.000
1709200838.844,-45.898,-60.059,-41.992,-44.434,0.000
1709200838.848,-49.805,-43.945,-50.781,-53.711,0.000
1709200838.852,-41.992,-37.598,-55.664,-49.316,0.000
1709200838.856,-43.457,-35.156,-62.012,-48.828,0.000
1709200838.860,-55.664,-29.297,-57.617,-59.082,0.000
1709200838.863,-56.152,-36.621,-42.969,-63.477,0.000
1709200838.867,-52.246,-43.457,-47.363,-57.129,0.000
1709200838.871,-47.363,-40.527,-41.992,-45.898,0.000
1709200838.875,-41.992,-35.156,-41.504,-51.758,0.000
1709200838.879,-44.922,-35.156,-47.852,-51.270,0.000
1709200838.883,-51.758,-40.039,-37.109,-45.898,0.000
1709200838.887,-51.270,-40.039,-39.062,-45.898,0.000
1709200838.891,-44.922,-40.039,-45.898,-40.527,0.000
1709200838.895,-42.480,-51.270,-41.016,-39.062,0.000
1709200838.899,-50.293,-47.363,-46.875,-51.270,0.000
1709200838.903,-60.059,-31.738,-44.434,-57.129,0.000
1709200838.906,-55.176,-32.715,-50.781,-44.922,0.000
1709200838.910,-46.875,-38.086,-52.246,-47.852,0.000
1709200838.914,-55.176,-44.434,-37.109,-45.898,0.000
1709200838.918,-56.641,-42.480,-47.363,-37.598,0.000
1709200838.922,-56.152,-46.875,-43.457,-46.387,0.000
1709200838.926,-54.199,-44.922,-32.227,-41.992,0.000
1709200838.930,-37.109,-39.062,-36.621,-26.855,0.000
1709200838.934,-27.832,-35.645,-39.551,-25.391,0.000
1709200838.938,-27.344,-43.945,-37.109,-35.156,0.000
1709200838.942,-36.133,-44.434,-47.363,-50.781,0.000
1709200838.945,-39.062,-27.344,-52.734,-49.805,0.000
1709200838.949,-28.320,-25.879,-43.945,-39.551,0.000
1709200838.953,-25.391,-29.297,-54.199,-35.645,0.000
1709200838.957,-34.668,-36.133,-61.523,-44.922,0.000
1709200838.961,-39.551,-33.691,-45.898,-57.129,0.000
1709200838.965,-40.527,-28.320,-41.992,-56.641,0.000
1709200838.969,-41.992,-38.086,-48.340,-50.293,0.000
1709200838.973,-38.574,-39.551,-46.387,-43.457,0.000
1709200838.977,-37.109,-26.855,-37.109,-45.898,0.000
1709200838.981,-44.434,-29.785,-44.922,-47.363,0.000
1709200838.985,-57.129,-44.434,-53.223,-39.551,0.000
1709200838.988,-52.734,-40.527,-39.551,-31.738,0.000
1709200838.992,-41.016,-28.320,-40.039,-27.344,0.000
1709200838.996,-40.527,-38.086,-49.316,-24.414,0.000
1709200839.000,-48.828,-50.781,-54.688,-35.156,0.000
1709200839.004,-59.082,-45.898,-44.434,-51.270,0.000
1709200839.008,-50.781,-46.875,-32.227,-47.852,0.000
1709200839.012,-36.621,-49.316,-39.062,-44.434,0.000
1709200839.016,-40.527,-37.109,-39.062,-49.316,0.000
1709200839.020,-52.734,-44.434,-42.969,-48.340,0.000
1709200839.024,-54.688,-47.363,-43.457,-42.969,0.000
1709200839.028,-44.922,-45.410,-32.227,-42.480,0.000
1709200839.031,-44.922,-50.781,-34.180,-46.387,0.000
1709200839.035,-44.922,-37.109,-29.297,-49.805,0.000
1709200839.039,-42.969,-29.297,-21.484,-43.945,0.000
1709200839.043,-49.805,-38.086,-27.832,-44.434,0.000
1709200839.047,-47.852,-42.480,-35.645,-45.410,0.000
1709200839.051,-44.922,-36.133,-33.203,-41.992,0.000
1709200839.055,-41.992,-41.992,-25.391,-47.363,0.000
1709200839.059,-43.945,-44.922,-24.902,-47.852,0.000
1709200839.063,-52.246,-39.062,-35.156,-53.711,0.000
1709200839.067,-51.758,-41.992,-38.574,-55.176,0.000
1709200839.071,-43.457,-41.992,-24.414,-57.129,0.000
1709200839.074,-41.992,-43.945,-23.438,-58.594,0.000
1709200839.078,-47.852,-41.504,-34.180,-54.688,0.000
1709200839.082,-49.316,-45.410,-29.297,-55.664,0.000
1709200839.086,-53.223,-48.828,-31.738,-60.059,0.000
1709200839.090,-45.410,-52.734,-36.133,-46.875,0.000
1709200839.094,-36.133,-49.316,-28.809,-33.691,0.000
1709200839.098,-45.410,-41.992,-31.250,-43.457,0.000
1709200839.102,-59.570,-50.781,-30.273,-49.316,0.000
1709200839.106,0.000,-42.480,-32.715,-46.387,0.000
1709200839.110,0.000,-34.180,-37.109,-34.668,0.000
1709200839.113,0.000,-35.645,-42.480,-33.691,0.000
1709200839.117,0.000,-44.922,-43.457,-36.621,0.000
1709200839.121,0.000,-49.316,-39.551,-30.762,0.000
1709200839.125,0.000,-42.969,-41.016,-25.879,0.000
1709200839.129,0.000,-36.621,-39.062,-19.531,0.000
1709200839.133,0.000,-41.504,-34.180,-20.020,0.000
1709200839.137,0.000,-46.387,-39.551,-20.020,0.000
1709200839.141,0.000,-43.945,-40.527,-15.625,0.000
1709200839.145,0.000,-41.504,-32.715,-26.855,0.000
1709200839.149,0.000,-45.898,-36.133,-22.949,0.000
1709200839.153,-28.809,-54.199,-41.504,-5.371,0.000
1709200839.156,-25.391,-44.922,-38.086,-20.996,0.000
1709200839.160,-34.668,-50.781,-43.457,-29.785,0.000
1709200839.164,-39.551,-48.828,-41.992,-21.484,0.000
1709200839.168,-34.180,-40.039,-41.992,-26.855,0.000
1709200839.172,-31.250,-40.527,-51.758,-32.227,0.000
1709200839.176,-30.762,-34.180,-40.039,-34.668,0.000
1709200839.180,-31.250,-40.039,-31.250,-31.250,0.000
1709200839.184,-23.438,-43.945,-26.855,-21.484,0.000
1709200839.188,-30.762,-31.738,-33.203,-32.227,0.000
1709200839.192,-32.715,-32.715,-36.621,-33.691,0.000
1709200839.196,-24.902,-37.598,-31.738,-23.926,0.000
1709200839.199,-25.391,-38.574,-32.715,-27.344,0.000
1709200839.203,-23.438,-35.156,-32.227,-30.762,0.000
1709200839.207,-26.367,-36.621,-33.691,-18.066,0.000
1709200839.211,-23.926,-33.691,-33.691,-7.812,0.000
1709200839.215,-22.461,-30.762,-34.180,-17.578,0.000
1709200839.219,-25.879,-38.574,-38.086,-30.273,0.000
1709200839.223,-30.273,-45.898,-36.621,-36.133,0.000
1709200839.227,-34.180,-45.898,-26.855,-30.273,0.000
1709200839.231,-24.902,-29.785,-24.414,-28.320,0.000
1709200839.235,-21.973,-30.273,-30.273,-36.621,0.000
1709200839.238,-27.344,-50.293,-39.062,-34.668,0.000
1709200839.242,-23.926,-49.316,-47.852,-34.180,0.000
1709200839.246,-29.297,-34.180,-48.828,-41.504,0.000
1709200839.250,-30.762,-32.227,-37.598,-42.480,0.000
1709200839.254,-22.461,-41.016,-31.250,-38.086,0.000
1709200839.258,-21.484,-44.434,-32.715,-35.156,0.000
1709200839.262,-22.949,-39.551,-31.250,-29.785,0.000
1709200839.266,-22.949,-48.828,-35.645,-29.297,0.000
1709200839.270,-21.973,-57.617,-41.992,-21.484,0.000
1709200839.274,-22.461,-56.152,-37.109,-20.508,0.000
1709200839.278,-21.484,-46.387,-33.203,-40.039,0.000
1709200839.281,-29.785,-45.410,-36.621,-45.410,0.000
1709200839.285,-30.273,-46.387,-37.598,-30.273,0.000
1709200839.289,-20.508,-42.480,-31.738,-21.484,0.000
1709200839.293,-20.996,-42.480,-36.621,-27.832,0.000
1709200839.297,-29.785,-47.363,-49.805,-31.250,0.000
1709200839.301,-36.621,-39.551,-42.480,-25.879,0.000
1709200839.305,-41.992,-39.062,-35.645,-28.809,0.000
1709200839.309,-36.133,-41.992,-37.109,-29.785,0.000
1709200839.313,-28.809,-44.922,-34.180,-19.531,0.000
1709200839.317,-37.109,-51.270,-31.250,-9.277,0.000
1709200839.320,-41.016,-41.504,-33.691,-20.508,0.000
1709200839.324,-41.992,-38.574,-34.668,-30.762,0.000
1709200839.328,-40.527,-43.457,-31.738,-18.066,0.000
1709200839.332,-32.227,-38.086,-42.480,-18.066,0.000
1709200839.336,-29.297,-35.156,-46.875,-34.180,0.000
1709200839.340,-36.621,-51.758,-31.250,-34.668,0.000
1709200839.344,-38.086,-59.570,-28.320,-27.832,0.000
1709200839.348,-36.621,-43.457,-37.109,-25.391,0.000
1709200839.352,-33.691,-33.691,-43.457,-32.715,0.000
1709200839.356,-31.250,-41.504,-39.551,-32.715,0.000
1709200839.360,-37.598,-51.270,-24.414,-24.414,0.000
1709200839.363,-43.945,-40.039,-22.461,-29.297,0.000
1709200839.367,-49.316,-26.855,-32.715,-35.645,0.000
1709200839.371,-48.340,-40.039,-40.527,-43.945,0.000
1709200839.375,-39.551,-44.434,-41.504,-41.992,0.000
1709200839.379,-37.109,-38.086,-41.992,-39.551,0.000
1709200839.383,-43.457,-44.434,-38.574,-48.828,0.000
1709200839.387,-42.480,-47.852,-29.785,-46.875,0.000
1709200839.391,-40.039,-44.434,-35.156,-44.922,0.000
1709200839.395,-35.156,-40.039,-42.480,-44.434,0.000
1709200839.399,-37.109,-34.180,-38.086,-42.969,0.000
1709200839.403,-49.316,-40.039,-34.180,-43.457,0.000
1709200839.406,-46.387,-42.480,-28.320,-39.551,0.000
1709200839.410,-40.527,-34.180,-21.973,-30.762,0.000
1709200839.414,-43.945,-41.504,-32.227,-37.109,0.000
1709200839.418,-52.734,-44.922,-42.480,-48.828,0.000
1709200839.422,-52.246,-45.410,-37.109,-38.574,0.000
1709200839.426,-43.457,-40.527,-28.320,-26.855,0.000
1709200839.430,-39.062,-33.203,-28.320,-20.996,0.000
1709200839.434,-36.133,-32.715,-32.227,-20.996,0.000
1709200839.438,-35.645,-31.738,-28.809,-27.344,0.000
1709200839.442,-44.434,-29.297,-35.156,-23.438,0.000
1709200839.446,-51.270,-41.992,-37.598,-27.832,0.000
1709200839.449,-47.363,-50.293,-33.691,-34.668,0.000
1709200839.453,-37.598,-50.781,-29.785,-17.090,0.000
1709200839.457,-33.691,-42.969,-28.809,-15.137,0.000
1709200839.461,-45.898,-39.062,-39.062,-33.203,0.000
1709200839.465,-53.223,-62.012,-34.180,-29.297,0.000
1709200839.469,-42.969,-59.082,-33.203,-22.461,0.000
1709200839.473,-29.297,-40.039,-41.016,-28.809,0.000
1709200839.477,-32.715,-48.828,-47.363,-37.598,0.000
1709200839.481,-50.293,-55.176,-48.340,-46.875,0.000
1709200839.485,-50.781,-52.734,-42.969,-49.805,0.000
1709200839.488,-45.898,-41.504,-52.246,-44.434,0.000
1709200839.492,-38.086,-35.156,-48.828,-36.621,0.000
1709200839.496,-30.273,-39.551,-36.133,-44.434,0.000
1709200839.500,-36.621,-45.410,-36.133,-49.805,0.000
1709200839.504,-49.805,-42.480,-35.156,-55.176,0.000
1709200839.508,-51.270,-47.852,-39.062,-50.781,0.000
1709200839.512,-45.410,-58.594,-40.039,-36.621,0.000
1709200839.516,-46.387,-49.316,-39.551,-39.551,0.000
1709200839.520,-51.758,-46.387,-41.016,-44.434,0.000
1709200839.524,-51.758,-55.176,-35.645,-46.387,0.000
1709200839.528,-53.711,-52.246,-38.574,-45.898,0.000
1709200839.531,-54.688,-42.480,-39.062,-41.992,0.000
1709200839.535,-54.199,-43.945,-39.551,-37.598,0.000
1709200839.539,-56.152,-47.852,-49.805,-33.691,0.000
1709200839.543,-55.664,-43.945,-34.180,-32.715,0.000
1709200839.547,-51.270,-41.992,-26.367,-30.762,0.000
1709200839.551,-50.293,-40.527,-40.527,-29.785,0.000
1709200839.555,-58.105,-52.246,-36.621,-22.461,0.000
1709200839.559,-54.199,-56.152,-23.438,-22.461,0.000
1709200839.563,-53.711,-42.969,-26.855,-41.992,0.000
1709200839.567,-51.270,-47.852,-32.715,-43.945,0.000
1709200839.570,-45.410,-49.316,-30.273,-44.434,0.000
1709200839.574,-43.945,-44.434,-33.203,-45.410,0.000
1709200839.578,-44.434,-33.691,-36.133,-41.016,0.000
1709200839.582,-52.246,-35.645,-41.992,-45.410,0.000
1709200839.586,-48.828,-40.527,-44.922,-50.293,0.000
1709200839.590,-34.668,-36.621,-38.086,-49.316,0.000
1709200839.594,-35.645,-37.109,-34.668,-55.664,0.000
1709200839.598,-43.945,-37.109,-36.621,-61.523,0.000
1709200839.602,-50.781,-41.992,-37.109,-55.664,0.000
1709200839.606,-42.480,-38.574,-33.691,-51.270,0.000
1709200839.610,-36.621,-37.598,-32.227,-53.223,0.000
1709200839.613,-38.574,-44.922,-30.273,-50.781,0.000
1709200839.617,-35.645,-42.480,-40.039,-47.363,0.000
1709200839.621,-38.574,-34.668,-39.551,-48.828,0.000
1709200839.625,-32.227,-35.156,-23.926,-44.922,0.000
1709200839.629,-29.785,-43.945,-28.320,-41.992,0.000
1709200839.633,-31.250,-39.551,-38.574,-48.828,0.000
1709200839.637,-31.250,-38.574,-35.156,-47.363,0.000
1709200839.641,-40.527,-47.363,-34.668,-41.016,0.000
1709200839.645,-46.875,-45.410,-37.109,-32.227,0.000
1709200839.649,-42.480,-41.992,-31.738,-26.367,0.000
1709200839.653,-39.062,-41.504,-31.250,-30.273,0.000
1709200839.656,-43.945,-37.109,-31.738,-25.879,0.000
1709200839.660,-50.293,-50.781,-31.738,-20.020,0.000
1709200839.664,-57.129,-57.129,-34.180,-18.066,0.000
1709200839.668,-52.734,-38.574,-38.086,-25.391,0.000
1709200839.672,-37.598,-33.691,-30.762,-20.020,0.000
1709200839.676,-30.762,-33.203,-28.320,-15.137,0.000
1709200839.680,-35.156,-33.203,-33.203,-30.273,0.000
1709200839.684,-40.527,-31.250,-30.762,-39.062,0.000
1709200839.688,-42.480,-45.898,-33.203,-39.551,0.000
1709200839.692,-43.945,-52.246,-40.039,-35.645,0.000
1709200839.696,-42.969,-35.645,-39.551,-40.039,0.000
1709200839.699,-50.293,-36.621,-35.645,-48.340,0.000
1709200839.703,-62.988,-50.781,-43.457,-48.828,0.000
1709200839.707,-58.594,-45.898,-43.945,-44.434,0.000
1709200839.711,-50.293,-36.133,-34.668,-46.875,0.000
1709200839.715,-42.969,-40.527,-34.180,-49.805,0.000
1709200839.719,-40.039,-49.316,-38.086,-48.340,0.000
1709200839.723,-41.016,-43.945,-46.875,-49.316,0.000
1709200839.727,-37.598,-42.480,-44.434,-43.457,0.000
1709200839.731,-30.273,-39.062,-33.691,-44.434,0.000
1709200839.735,-21.973,-38.574,-35.645,-42.480,0.000
1709200839.738,-29.297,-51.758,-40.039,-44.434,0.000
1709200839.742,-37.598,-41.504,-39.551,-50.293,0.000
1709200839.746,-39.062,-40.527,-38.086,-53.223,0.000
1709200839.750,-46.875,-50.781,-40.527,-47.852,0.000
1709200839.754,-53.223,-42.969,-44.434,-46.387,0.000
1709200839.758,-50.293,-43.457,-41.504,-48.828,0.000
1709200839.762,-56.641,-49.316,-43.457,-47.852,0.000
1709200839.766,-60.547,-47.852,-40.039,-47.363,0.000
1709200839.770,-55.664,-43.945,-42.480,-40.527,0.000
1709200839.774,-50.781,-47.852,-45.410,-38.086,0.000
1709200839.778,-50.293,-52.734,-32.227,-40.527,0.000
1709200839.781,-58.105,-58.105,-25.391,-38.086,0.000
1709200839.785,-67.871,-58.594,-27.344,-37.109,0.000
1709200839.789,-58.594,-53.711,-30.273,-30.762,0.000
1709200839.793,-41.504,-51.758,-31.738,-17.578,0.000
1709200839.797,-42.480,-51.270,-34.180,-21.484,0.000
1709200839.801,-49.316,-42.969,-35.645,-35.156,0.000
1709200839.805,-43.457,-34.668,-28.809,-33.691,0.000
1709200839.809,-41.504,-36.133,-28.809,-31.250,0.000
1709200839.813,-42.969,-41.504,-37.109,-32.715,0.000
1709200839.817,-36.133,-37.598,-36.621,-34.180,0.000
1709200839.821,-36.621,-34.180,-39.551,-32.715,0.000
1709200839.824,-39.062,-46.387,-42.969,-36.133,0.000
1709200839.828,-33.203,-55.176,-43.945,-40.527,0.000
1709200839.832,-23.926,-45.898,-39.551,-36.621,0.000
1709200839.836,-24.902,-33.691,-31.738,-41.992,0.000
1709200839.840,-24.902,-48.340,-38.086,-43.457,0.000
1709200839.844,-28.809,-55.664,-38.086,-40.527,0.000
1709200839.848,-29.297,-31.738,-33.203,-41.016,0.000
1709200839.852,-22.949,-30.762,-36.621,-39.062,0.000
1709200839.856,-23.926,-34.668,-41.992,-43.457,0.000
1709200839.860,-29.785,-38.086,-41.992,-50.781,0.000
1709200839.863,-34.180,-45.410,-45.410,-47.852,0.000
1709200839.867,-30.762,-45.898,-46.387,-33.203,0.000
1709200839.871,-18.555,-44.922,-39.551,-25.879,0.000
1709200839.875,-17.578,-42.480,-33.203,-27.832,0.000
1709200839.879,-30.273,-38.086,-41.504,-33.203,0.000
1709200839.883,-36.133,-41.992,-48.828,-38.574,0.000
1709200839.887,-31.250,-42.480,-35.645,-29.297,0.000
1709200839.891,-25.879,-33.203,-35.156,-26.367,0.000
1709200839.895,-30.273,-30.762,-36.621,-28.320,0.000
1709200839.899,-29.297,-37.598,-35.156,-23.926,0.000
1709200839.903,-37.109,-46.875,-40.039,-28.809,0.000
1709200839.906,-44.922,-37.598,-37.598,-29.785,0.000
1709200839.910,-40.039,-34.668,-40.527,-25.879,0.000
1709200839.914,-27.344,-42.969,-38.086,-26.855,0.000
1709200839.918,-29.297,-44.922,-31.738,-26.855,0.000
1709200839.922,-37.598,-37.109,-34.668,-26.855,0.000
1709200839.926,-41.504,-29.297,-32.227,-31.738,0.000
1709200839.930,-37.598,-36.621,-31.738,-21.973,0.000
1709200839.934,-30.762,-43.945,-39.551,-28.320,0.000
1709200839.938,-29.785,-30.273,-44.434,-39.062,0.000
1709200839.942,-30.273,-37.109,-44.434,-34.180,0.000
1709200839.946,-37.598,-43.945,-39.551,-34.180,0.000
1709200839.949,-41.504,-34.180,-41.504,-47.852,0.000
1709200839.953,-28.320,-38.086,-42.969,-55.176,0.000
1709200839.957,-26.367,-46.387,-45.898,-47.363,0.000
1709200839.961,-33.691,-44.434,-44.434,-43.945,0.000
1709200839.965,-32.715,-41.992,-35.645,-41.504,0.000
1709200839.969,-34.668,-43.945,-40.039,-48.340,0.000
1709200839.973,-32.715,-42.480,-48.828,-51.270,0.000
1709200839.977,-27.832,-46.875,-42.969,-42.480,0.000
1709200839.981,-34.668,-45.898,-38.086,-47.363,0.000
1709200839.985,-46.875,-42.480,-42.969,-52.734,0.000
1709200839.988,-46.387,-48.340,-46.387,-53.223,0.000
1709200839.992,-29.297,-37.598,-45.410,-48.340,0.000
1709200839.996,-27.832,-29.785,-37.598,-36.621,0.000
1709200840.000,-41.504,-47.363,-39.062,-36.621,0.000
1709200840.004,-39.062,-45.898,-45.410,-28.809,0.000
1709200840.008,-30.762,-39.062,-41.992,-20.996,0.000
1709200840.012,-32.715,-43.945,-34.180,-24.414,0.000
1709200840.016,-37.109,-45.898,-36.621,-26.367,0.000
1709200840.020,-44.922,-53.711,-43.945,-30.762,0.000
1709200840.024,-47.852,-47.852,-38.574,-32.227,0.000
1709200840.028,-48.828,-38.574,-38.574,-32.227,0.000
1709200840.031,-47.852,-43.457,-40.039,-27.832,0.000
1709200840.035,-39.062,-43.945,-38.086,-23.438,0.000
1709200840.039,-36.621,-39.551,-36.133,-29.785,0.000
1709200840.043,-45.898,-37.598,-37.109,-38.574,0.000
1709200840.047,-54.688,-41.504,-38.086,-40.039,0.000
1709200840.051,-49.805,-43.457,-32.227,-35.645,0.000
1709200840.055,-42.480,-47.363,-41.504,-41.016,0.000
1709200840.059,-42.480,-48.828,-40.527,-45.898,0.000
1709200840.063,-47.363,-46.387,-26.855,-44.922,0.000
1709200840.067,-49.316,-54.199,-28.809,-41.504,0.000
1709200840.071,-42.969,-41.992,-38.086,-31.738,0.000
1709200840.074,-36.133,-31.250,-38.086,-38.086,0.000
1709200840.078,-33.691,-41.504,-32.715,-37.109,0.000
1709200840.082,-42.480,-46.875,-36.133,-36.133,0.000
1709200840.086,-51.270,-45.410,-41.016,-45.898,0.000
1709200840.090,-47.852,-38.574,-35.156,-41.992,0.000
1709200840.094,-39.062,-39.062,-34.668,-35.645,0.000
1709200840.098,-35.645,-45.410,-40.527,-42.480,0.000
1709200840.102,-42.480,-36.133,-39.062,-50.293,0.000
1709200840.106,-47.852,-28.809,-32.715,-49.805,0.000
1709200840.110,-40.039,-39.551,-21.484,-40.527,0.000
1709200840.113,-30.762,-40.527,-24.414,-35.156,0.000
1709200840.117,-32.227,-37.598,-29.297,-40.527,0.000
1709200840.121,-37.598,-38.086,-27.344,-47.852,0.000
1709200840.125,-40.527,-46.875,-35.156,-39.062,0.000
1709200840.129,-46.387,-47.363,-40.039,-31.738,0.000
1709200840.133,-47.852,-37.598,-38.086,-51.758,0.000
1709200840.137,0.000,-41.504,0.000,-49.316,0.000
1709200840.141,0.000,-40.527,0.000,-41.504,0.000
1709200840.145,0.000,-39.551,0.000,-41.992,0.000
1709200840.149,0.000,-41.992,0.000,-39.062,0.000
1709200840.153,0.000,-48.340,0.000,-34.180,0.000
1709200840.156,0.000,-52.246,0.000,-29.785,0.000
1709200840.160,0.000,-40.039,0.000,-30.273,0.000
1709200840.164,0.000,-37.598,0.000,-42.480,0.000
1709200840.168,0.000,-48.340,0.000,-41.992,0.000
1709200840.172,0.000,-41.992,0.000,-27.832,0.000
1709200840.176,0.000,-32.227,0.000,-30.273,0.000
1709200840.180,0.000,-33.691,0.000,-42.480,0.000
1709200840.184,-45.410,-41.016,-37.598,-46.387,0.000
1709200840.188,-53.711,-44.922,-41.016,-45.898,0.000
1709200840.192,-41.992,-36.133,-37.109,-50.293,0.000
1709200840.196,-33.203,-41.992,-34.668,-54.688,0.000
1709200840.199,-34.180,-42.480,-41.504,-58.105,0.000
1709200840.203,-41.992,-36.133,-33.203,-54.199,0.000
1709200840.207,-41.016,-33.203,-22.949,-50.781,0.000
1709200840.211,-35.645,-34.180,-33.203,-48.340,0.000
1709200840.215,-36.621,-50.293,-44.922,-43.457,0.000
1709200840.219,-41.504,-48.828,-45.410,-47.363,0.000
1709200840.223,-49.316,-33.203,-43.457,-55.664,0.000
1709200840.227,-52.246,-43.457,-45.410,-57.617,0.000
1709200840.231,-45.898,-46.875,-49.805,-53.223,0.000
1709200840.235,-33.691,-42.480,-45.410,-41.992,0.000
1709200840.239,-39.062,-49.805,-37.109,-28.320,0.000
1709200840.242,-49.316,-52.734,-37.109,-23.438,0.000
1709200840.246,-59.082,-53.711,-45.898,-35.156,0.000
1709200840.250,-57.617,-48.828,-49.316,-41.504,0.000
1709200840.254,-46.875,-32.227,-43.945,-36.133,0.000
1709200840.258,-43.457,-39.551,-41.992,-38.086,0.000
1709200840.262,-46.875,-59.082,-38.086,-33.203,0.000
1709200840.266,-46.387,-47.852,-41.504,-30.762,0.000
1709200840.270,-41.016,-43.457,-45.410,-32.227,0.000
1709200840.274,-34.180,-50.293,-37.598,-18.555,0.000
1709200840.278,-33.691,-51.270,-35.156,-25.391,0.000
1709200840.281,-41.016,-51.758,-38.086,-32.715,0.000
1709200840.285,-45.410,-56.152,-38.086,-30.762,0.000
1709200840.289,-45.898,-50.293,-42.480,-28.320,0.000
1709200840.293,-41.504,-34.180,-45.898,-27.832,0.000
1709200840.297,-39.551,-36.621,-45.410,-33.203,0.000
1709200840.301,-46.387,-48.340,-44.922,-44.434,0.000
1709200840.305,-50.781,-57.617,-37.109,-46.387,0.000
1709200840.309,-49.316,-56.641,-27.344,-37.109,0.000
1709200840.313,-45.410,-35.645,-24.902,-43.457,0.000
1709200840.317,-50.293,-41.016,-34.180,-44.922,0.000
1709200840.321,-58.105,-53.711,-40.039,-43.457,0.000
1709200840.324,-62.988,-46.875,-31.738,-48.828,0.000
1709200840.328,-67.383,-39.551,-28.320,-52.734,0.000
1709200840.332,-62.012,-49.316,-26.855,-53.711,0.000
1709200840.336,-57.617,-50.293,-27.344,-61.035,0.000
1709200840.340,-56.641,-36.621,-35.156,-63.477,0.000
1709200840.344,-56.641,-39.551,-38.574,-60.547,0.000
1709200840.348,-53.711,-44.922,-33.203,-62.500,0.000
1709200840.352,-45.410,-46.875,-31.250,-52.734,0.000
1709200840.356,-45.410,-42.969,-28.809,-50.781,0.000
1709200840.360,-57.617,-32.715,-29.297,-58.105,0.000
1709200840.364,-72.754,-34.668,-34.180,-61.035,0.000
1709200840.367,-71.777,-41.016,-32.715,-61.523,0.000
1709200840.371,-67.383,-35.645,-35.645,-56.152,0.000
1709200840.375,-60.547,-31.250,-44.922,-50.293,0.000
1709200840.379,-56.152,-42.969,-37.109,-55.176,0.000
1709200840.383,-60.547,-54.199,-31.738,-59.570,0.000
1709200840.387,-68.359,-49.805,-37.109,-56.641,0.000
1709200840.391,-67.383,-45.898,-38.086,-55.664,0.000
1709200840.395,-59.570,-50.293,-40.527,-56.152,0.000
1709200840.399,-62.012,-58.594,-41.992,-58.594,0.000
1709200840.403,-69.336,-49.316,-44.922,-55.664,0.000
1709200840.406,-68.359,-41.016,-41.992,-43.457,0.000
1709200840.410,-56.152,-58.105,-32.715,-35.156,0.000
1709200840.414,-47.363,-58.594,-40.039,-35.156,0.000
1709200840.418,-44.922,-36.133,-47.363,-41.504,0.000
1709200840.422,-44.434,-40.527,-41.504,-44.922,0.000
1709200840.426,-48.340,-47.363,-40.527,-50.293,0.000
1709200840.430,-50.781,-45.410,-44.922,-47.363,0.000
1709200840.434,-39.062,-41.504,-49.316,-45.410,0.000
1709200840.438,-29.785,-35.156,-48.828,-45.410,0.000
1709200840.442,-36.621,-44.434,-39.062,-36.621,0.000
1709200840.446,-42.969,-50.293,-36.621,-40.527,0.000
1709200840.449,-38.086,-31.738,-40.527,-45.898,0.000
1709200840.453,-36.133,-30.762,-35.156,-33.691,0.000
1709200840.457,-32.227,-40.527,-34.180,-28.809,0.000
1709200840.461,-32.227,-40.039,-42.480,-41.992,0.000
1709200840.465,-39.062,-38.086,-40.039,-50.293,0.000
1709200840.469,-29.785,-41.504,-33.691,-36.133,0.000
1709200840.473,-22.949,-41.504,-41.504,-33.691,0.000
1709200840.477,-24.902,-42.480,-49.805,-45.898,0.000
1709200840.481,-30.273,-47.363,-47.363,-41.992,0.000
1709200840.485,-34.180,-52.734,-46.387,-28.809,0.000
1709200840.488,-38.574,-44.434,-40.039,-29.785,0.000
1709200840.492,-38.086,-26.367,-32.227,-33.203,0.000
1709200840.496,-28.320,-33.203,-37.598,-28.320,0.000
1709200840.500,-23.926,-44.922,-40.039,-22.949,0.000
1709200840.504,-30.762,-45.410,-32.227,-21.484,0.000
1709200840.508,-33.691,-46.875,-30.273,-24.414,0.000
1709200840.512,-33.203,-54.199,-34.668,-32.715,0.000
1709200840.516,-35.645,-48.340,-40.527,-44.434,0.000
1709200840.520,-38.086,-42.969,-40.527,-50.781,0.000
1709200840.524,-37.598,-46.387,-39.062,-57.129,0.000
1709200840.528,-38.574,-45.410,-41.504,-55.664,0.000
1709200840.531,-41.016,-45.410,-40.039,-49.805,0.000
1709200840.535,-39.551,-42.969,-39.551,-49.316,0.000
1709200840.539,-42.969,-40.527,-43.945,-54.199,0.000
1709200840.543,-44.922,-55.176,-45.898,-55.176,0.000
1709200840.547,-54.199,-63.965,-41.992,-58.105,0.000
1709200840.551,-50.293,-46.875,-37.598,-48.340,0.000
1709200840.555,-39.062,-43.457,-48.340,-41.504,0.000
