timestamps,TP9,AF7,AF8,TP10,Right AUX
1709299665.337,-37.109,-45.410,-28.809,-38.574,0.000
1709299665.341,-37.109,-40.527,-31.738,-36.621,0.000
1709299665.345,-40.527,-35.156,-31.738,-40.527,0.000
1709299665.348,-40.527,-32.715,-36.621,-40.527,0.000
1709299665.352,-35.156,-30.762,-38.574,-35.156,0.000
1709299665.356,-31.250,-35.156,-31.738,-36.133,0.000
1709299665.360,-36.621,-48.828,-35.645,-47.363,0.000
1709299665.364,-43.457,-56.152,-42.969,-52.734,0.000
1709299665.368,-39.551,-64.453,-42.480,-40.039,0.000
1709299665.372,-38.086,-56.641,-41.992,-43.457,0.000
1709299665.376,-41.992,-29.297,-45.410,-59.082,0.000
1709299665.380,-49.805,-29.785,-51.270,-62.012,0.000
1709299665.384,-53.223,-36.621,-50.293,-59.082,0.000
1709299665.388,-43.945,-23.926,-46.387,-51.270,0.000
1709299665.391,-36.133,-24.902,-41.504,-52.246,0.000
1709299665.395,-41.016,-36.621,-38.086,-54.688,0.000
1709299665.399,-43.945,-50.781,-42.969,-49.805,0.000
1709299665.403,-44.434,-47.852,-42.969,-48.340,0.000
1709299665.407,-40.039,-35.156,-39.551,-44.434,0.000
1709299665.411,-28.320,-38.086,-31.738,-32.227,0.000
1709299665.415,-29.785,-44.434,-33.203,-25.879,0.000
1709299665.419,-38.086,-38.574,-40.039,-37.109,0.000
1709299665.423,-34.668,-36.621,-37.109,-40.039,0.000
1709299665.427,-34.668,-32.715,-38.086,-27.832,0.000
1709299665.430,-30.273,-34.180,-37.598,-17.578,0.000
1709299665.434,-27.832,-35.156,-38.086,-18.066,0.000
1709299665.438,-34.180,-35.645,-33.203,-27.344,0.000
1709299665.442,-35.156,-41.504,-25.879,-27.832,0.000
1709299665.446,-34.180,-45.898,-26.367,-14.648,0.000
1709299665.450,-30.762,-45.410,-33.691,-7.812,0.000
1709299665.454,-21.973,-47.852,-36.133,-21.484,0.000
1709299665.458,-14.648,-48.828,-33.203,-18.555,0.000
1709299665.462,-25.879,-42.480,-33.691,-12.207,0.000
1709299665.466,-36.133,-29.785,-37.598,-18.066,0.000
1709299665.469,-30.273,-27.832,-34.180,-11.230,0.000
1709299665.473,-25.391,-31.738,-28.320,-18.066,0.000
1709299665.477,-27.832,-27.344,-30.762,-26.367,0.000
1709299665.481,-25.879,-31.250,-30.273,-25.879,0.000
1709299665.485,-26.367,-35.156,-33.691,-33.203,0.000
1709299665.489,-26.855,-43.945,-43.457,-38.086,0.000
1709299665.493,-29.785,-49.316,-41.504,-47.363,0.000
1709299665.497,-41.016,-49.805,-33.203,-55.664,0.000
1709299665.501,-42.480,-39.062,-33.691,-51.270,0.000
1709299665.504,-37.598,-26.855,-35.156,-41.016,0.000
1709299665.508,-44.434,-29.297,-36.621,-47.363,0.000
1709299665.512,-44.434,-38.574,-39.062,-54.688,0.000
1709299665.516,-40.039,-48.828,-33.691,-55.176,0.000
1709299665.520,-46.875,-41.992,-34.180,-52.734,0.000
1709299665.524,-51.270,-39.062,-33.203,-44.922,0.000
1709299665.528,-50.293,-45.410,-35.645,-39.062,0.000
1709299665.531,-45.898,-47.852,-37.598,-37.109,0.000
1709299665.535,-42.480,-40.039,-33.691,-47.363,0.000
1709299665.539,-41.992,-41.504,-41.504,-49.316,0.000
1709299665.543,-47.363,-49.316,-39.551,-41.016,0.000
1709299665.547,-47.852,-32.715,-34.668,-27.344,0.000
1709299665.551,-39.062,-25.391,-26.855,-18.066,0.000
1709299665.555,-36.621,-35.156,-25.879,-32.227,0.000
1709299665.559,-46.387,-41.016,-35.645,-44.434,0.000
1709299665.563,-49.805,-51.270,-29.785,-37.598,0.000
1709299665.567,-49.316,-48.340,-31.250,-36.621,0.000
1709299665.570,-44.922,-44.434,-37.109,-38.086,0.000
1709299665.574,-39.551,-40.039,-40.039,-37.109,0.000
1709299665.578,-39.551,-23.926,-36.621,-36.133,0.000
1709299665.582,-37.109,-32.715,-33.691,-37.598,0.000
1709299665.586,-36.621,-43.945,-40.527,-41.504,0.000
1709299665.590,-33.691,-41.016,-43.457,-37.598,0.000
1709299665.594,-28.320,-45.410,-39.551,-34.180,0.000
1709299665.597,-30.762,-45.898,-35.645,-39.551,0.000
1709299665.601,-33.203,-48.340,-31.250,-42.969,0.000
1709299665.605,-35.156,-53.711,-33.691,-33.203,0.000
1709299665.609,-40.527,-55.664,-39.551,-24.414,0.000
1709299665.613,-44.434,-48.340,-41.016,-41.992,0.000
1709299665.617,-47.363,-34.668,-35.156,-52.734,0.000
1709299665.621,-53.223,-25.879,-36.621,-47.852,0.000
1709299665.625,-55.176,-36.621,-43.457,-47.363,0.000
1709299665.629,-41.992,-32.227,-32.227,-40.039,0.000
1709299665.632,-36.621,-25.879,-25.391,-41.016,0.000
1709299665.636,-41.992,-37.109,-24.902,-44.922,0.000
1709299665.640,-48.340,-52.246,-31.250,-50.781,0.000
1709299665.644,-41.992,-57.617,-38.574,-46.387,0.000
1709299665.648,-37.598,-44.922,-36.621,-39.551,0.000
1709299665.652,-39.551,-51.270,-40.039,-44.434,0.000
1709299665.656,-46.387,-56.152,-45.410,-58.105,0.000
1709299665.660,-46.387,-41.016,-35.645,-64.941,0.000
1709299665.664,-38.086,-36.621,-34.180,-56.152,0.000
1709299665.668,-34.668,-39.551,-38.086,-41.016,0.000
1709299665.672,-35.156,-36.621,-38.086,-32.715,0.000
1709299665.676,-40.527,-35.645,-40.527,-46.387,0.000
1709299665.680,-40.039,-38.574,-38.086,-56.152,0.000
1709299665.683,-38.086,-41.504,-35.645,-41.992,0.000
1709299665.687,-40.039,-41.504,-38.086,-35.645,0.000
1709299665.691,-40.527,-54.199,-43.945,-43.945,0.000
1709299665.695,-42.480,-53.223,-41.992,-47.852,0.000
1709299665.699,-44.922,-42.480,-41.016,-47.852,0.000
1709299665.703,-41.504,-40.039,-48.828,-40.527,0.000
1709299665.707,-41.504,-43.945,-40.527,-31.250,0.000
1709299665.711,-37.598,-46.875,-27.344,-26.855,0.000
1709299665.715,-37.598,-34.668,-36.133,-24.902,0.000
1709299665.719,-43.945,-29.785,-41.016,-37.598,0.000
1709299665.723,-37.598,-34.668,-30.273,-35.645,0.000
1709299665.727,-34.180,-31.738,-27.344,-21.973,0.000
1709299665.730,-38.086,-33.691,-33.691,-24.414,0.000
1709299665.734,-36.133,-58.594,-35.645,-33.203,0.000
1709299665.738,-34.668,-62.988,-40.039,-37.109,0.000
1709299665.742,-30.273,-33.203,-41.992,-19.043,0.000
1709299665.746,-28.320,-43.945,-40.039,-11.230,0.000
1709299665.750,-25.879,-51.758,-39.551,-21.973,0.000
1709299665.754,-20.020,-27.344,-31.250,-19.531,0.000
1709299665.758,-25.391,-20.508,-37.109,-36.621,0.000
1709299665.762,-22.949,-21.484,-37.109,-39.062,0.000
1709299665.766,-20.020,-14.648,-24.414,-32.227,0.000
1709299665.770,-20.996,-16.602,-23.438,-30.273,0.000
1709299665.773,-26.855,-34.668,-32.227,-41.504,0.000
1709299665.777,-26.367,-37.598,-33.203,-55.176,0.000
1709299665.781,-20.020,-48.340,-29.297,-44.922,0.000
1709299665.785,-25.391,-49.316,-34.668,-35.156,0.000
1709299665.789,-31.250,-41.504,-38.574,-30.762,0.000
1709299665.793,-34.668,-47.363,-41.016,-39.551,0.000
1709299665.797,-34.180,-35.645,-38.086,-42.480,0.000
1709299665.801,-34.668,-31.738,-34.668,-39.062,0.000
1709299665.805,-33.691,-32.227,-52.246,-27.344,0.000
1709299665.809,-35.156,-29.785,-55.664,-25.391,0.000
1709299665.813,-41.504,-34.180,-38.574,-37.598,0.000
1709299665.816,-43.457,-53.711,-35.645,-45.410,0.000
1709299665.820,-38.086,-65.430,-33.203,-44.922,0.000
1709299665.824,-45.410,-50.781,-30.762,-44.922,0.000
1709299665.828,-49.805,-44.922,-29.297,-44.434,0.000
1709299665.832,-41.016,-48.340,-24.902,-26.367,0.000
1709299665.836,-38.086,-42.480,-25.391,-23.926,0.000
1709299665.840,-45.898,-41.992,-34.180,-47.852,0.000
1709299665.844,-39.551,-29.785,-28.809,-40.039,0.000
1709299665.848,-30.762,-26.855,-18.555,-23.926,0.000
1709299665.851,-36.133,-51.758,-31.250,-32.715,0.000
1709299665.855,-36.621,-60.547,-38.574,-35.645,0.000
1709299665.859,-35.645,-61.523,-34.180,-30.762,0.000
1709299665.863,-40.527,-54.688,-30.762,-26.855,0.000
1709299665.867,-37.598,-41.016,-33.691,-24.902,0.000
1709299665.871,-32.227,-34.668,-35.645,-22.461,0.000
1709299665.875,-35.156,-39.062,-30.762,-22.461,0.000
1709299665.879,-35.156,-42.969,-30.762,-17.578,0.000
1709299665.883,-41.016,-33.203,-37.109,-18.066,0.000
1709299665.887,-32.227,-26.367,-36.133,-14.648,0.000
1709299665.891,-31.250,-29.785,-39.551,-22.461,0.000
1709299665.894,-38.086,-35.645,-45.898,-41.992,0.000
1709299665.898,-28.320,-46.875,-35.645,-37.598,0.000
1709299665.902,-33.203,-56.641,-32.715,-33.203,0.000
1709299665.906,-38.574,-31.738,-41.016,-29.785,0.000
1709299665.910,-25.879,-28.809,-39.551,-23.438,0.000
1709299665.914,-18.066,-43.945,-32.715,-16.113,0.000
1709299665.918,-23.438,-38.086,-36.133,-14.160,0.000
1709299665.921,-21.973,-31.250,-38.574,-9.766,0.000
1709299665.925,-20.996,-24.414,-35.156,-0.488,0.000
1709299665.929,-19.043,-25.391,-34.180,-8.301,0.000
1709299665.933,-17.578,-27.344,-35.156,-16.113,0.000
1709299665.937,-20.508,-27.344,-36.133,-21.973,0.000
1709299665.941,-26.367,-34.668,-42.969,-23.438,0.000
1709299665.945,-25.879,-50.293,-41.992,-13.672,0.000
1709299665.948,-22.461,-51.270,-31.738,-5.371,0.000
1709299665.952,-24.902,-48.340,-47.852,-10.742,0.000
1709299665.956,-19.531,-35.156,-51.270,-21.973,0.000
1709299665.960,-19.043,-8.789,-37.109,-25.879,0.000
1709299665.964,-25.879,-14.648,-36.133,-18.066,0.000
1709299665.968,-27.344,-34.668,-30.762,-14.160,0.000
1709299665.972,-24.902,-31.738,-32.227,-21.973,0.000
1709299665.976,-24.902,-26.367,-34.668,-34.180,0.000
1709299665.980,-30.273,-29.785,-29.297,-36.133,0.000
1709299665.984,-36.621,-42.969,-25.879,-27.344,0.000
1709299665.988,-30.762,-45.898,-27.832,-22.949,0.000
1709299665.991,-24.902,-29.297,-27.832,-26.367,0.000
1709299665.995,-31.250,-40.527,-30.273,-29.785,0.000
1709299665.999,-28.320,-40.039,-32.715,-31.250,0.000
1709299666.003,-25.391,-19.531,-35.156,-30.762,0.000
1709299666.007,-21.973,-15.625,-41.992,-25.391,0.000
1709299666.011,-21.484,-22.461,-38.086,-21.973,0.000
1709299666.014,-29.785,-39.551,-29.297,-22.949,0.000
1709299666.018,-25.879,-37.598,-28.809,-33.691,0.000
1709299666.022,-19.043,-26.367,-38.086,-26.855,0.000
1709299666.026,-21.484,-37.109,-41.504,-13.672,0.000
1709299666.030,-27.344,-42.480,-29.785,-23.438,0.000
1709299666.034,-30.762,-37.598,-21.973,-24.902,0.000
1709299666.038,-35.156,-59.082,-31.738,-28.320,0.000
1709299666.042,-30.762,-65.430,-29.785,-20.508,0.000
1709299666.046,-36.621,-59.570,-24.414,-10.254,0.000
1709299666.050,-53.223,-65.918,-34.180,-21.973,0.000
1709299666.054,-59.082,-50.293,-39.551,-24.902,0.000
1709299666.058,-51.270,-41.016,-33.203,-15.625,0.000
1709299666.062,-47.363,-55.176,-26.855,-15.625,0.000
1709299666.066,-59.082,-64.941,-26.367,-26.367,0.000
1709299666.069,-62.988,-69.824,-22.949,-25.879,0.000
1709299666.073,-66.895,-78.613,-27.832,-29.297,0.000
1709299666.077,-70.801,-77.148,-28.809,-39.062,0.000
1709299666.081,-70.312,-82.520,-24.414,-35.156,0.000
1709299666.085,-82.031,-94.238,-17.578,-34.668,0.000
1709299666.089,-88.379,-89.844,-11.230,-37.109,0.000
1709299666.093,-84.961,-93.262,-5.371,-40.527,0.000
1709299666.097,-90.332,-95.703,-10.742,-52.246,0.000
1709299666.101,-86.914,-78.613,-7.324,-49.805,0.000
1709299666.105,-75.684,-89.844,1.465,-29.785,0.000
1709299666.109,-76.660,-107.422,-7.812,-41.016,0.000
1709299666.113,-81.543,-93.262,-9.277,-52.246,0.000
1709299666.116,-75.684,-91.797,-2.441,-32.227,0.000
1709299666.120,-74.219,-92.773,-1.953,-30.273,0.000
1709299666.124,-71.289,-83.984,-11.719,-31.250,0.000
1709299666.128,-66.895,-84.473,-13.184,-17.090,0.000
1709299666.132,-64.453,-91.309,1.953,-21.973,0.000
1709299666.136,-61.523,-97.656,-0.488,-36.621,0.000
1709299666.140,-48.828,-101.562,-3.418,-26.367,0.000
1709299666.144,-42.969,-99.609,-1.953,-12.695,0.000
1709299666.148,-45.410,-100.098,2.441,-4.883,0.000
1709299666.152,-40.527,-95.703,0.000,1.465,0.000
1709299666.156,-46.387,-91.309,-7.812,-16.113,0.000
1709299666.160,-43.457,-94.727,0.000,-17.578,0.000
1709299666.163,-35.156,-95.215,5.371,4.395,0.000
1709299666.167,-28.809,-94.727,-2.930,6.836,0.000
1709299666.171,-23.438,-83.008,-8.301,6.836,0.000
1709299666.175,-20.996,-79.590,-7.812,7.812,0.000
1709299666.179,-19.531,-87.402,-10.742,5.371,0.000
1709299666.183,-19.531,-87.891,-10.742,9.766,0.000
1709299666.187,-16.602,-83.496,-4.395,21.973,0.000
1709299666.191,-17.578,-77.148,0.977,24.414,0.000
1709299666.195,-8.789,-78.613,-0.488,22.949,0.000
1709299666.199,0.977,-89.844,4.395,34.668,0.000
1709299666.202,-2.441,-88.379,5.859,43.457,0.000
1709299666.206,-5.371,-84.961,-2.930,46.875,0.000
1709299666.210,-2.441,-89.355,-4.395,39.551,0.000
1709299666.214,7.812,-79.590,-3.906,20.508,0.000
1709299666.218,5.371,-66.406,0.488,20.508,0.000
1709299666.222,2.441,-63.477,-0.488,32.715,0.000
1709299666.226,0.000,-64.453,-3.418,33.691,0.000
1709299666.230,0.000,-59.082,-2.441,32.227,0.000
1709299666.234,0.000,-55.664,-2.441,25.391,0.000
1709299666.238,0.000,-61.035,-1.953,12.695,0.000
1709299666.241,0.000,-67.871,-1.465,11.719,0.000
1709299666.245,0.000,-65.430,-11.719,15.137,0.000
1709299666.249,0.000,-53.223,-23.438,8.789,0.000
1709299666.253,0.000,-51.758,-23.926,5.371,0.000
1709299666.257,0.000,-59.570,-22.461,-1.953,0.000
1709299666.261,0.000,-60.059,-25.391,-5.371,0.000
1709299666.265,0.000,-53.223,-33.203,-0.488,0.000
1709299666.269,0.000,-51.758,-32.715,-5.859,0.000
1709299666.272,-1.953,-53.711,-20.020,3.906,0.000
1709299666.276,3.906,-56.641,-16.113,11.230,0.000
1709299666.280,-1.465,-54.199,-22.949,0.977,0.000
1709299666.284,2.441,-46.875,-22.461,6.836,0.000
1709299666.288,11.230,-37.598,-13.672,16.113,0.000
1709299666.292,2.441,-37.109,-15.625,-1.465,0.000
1709299666.296,-1.465,-41.504,-22.461,-4.883,0.000
1709299666.300,-10.254,-36.133,-22.461,2.441,0.000
1709299666.304,-21.973,-49.316,-20.508,-12.695,0.000
1709299666.308,-20.020,-54.688,-22.461,-17.578,0.000
1709299666.312,-34.180,-47.363,-30.762,-25.879,0.000
1709299666.315,-40.527,-45.410,-30.762,-38.574,0.000
1709299666.319,-40.039,-39.062,-27.344,-41.992,0.000
1709299666.323,-49.316,-41.992,-25.879,-49.316,0.000
1709299666.327,-52.734,-45.410,-33.691,-41.504,0.000
1709299666.331,-42.480,-55.664,-38.574,-32.227,0.000
1709299666.335,-36.621,-55.176,-26.367,-37.598,0.000
1709299666.339,-39.551,-52.734,-18.066,-36.133,0.000
1709299666.342,-39.062,-54.199,-26.855,-22.461,0.000
1709299666.346,-25.391,-40.039,-31.738,-15.625,0.000
1709299666.350,-13.672,-32.715,-24.902,-24.902,0.000
1709299666.354,-22.461,-33.691,-24.902,-37.598,0.000
1709299666.358,-23.438,-28.809,-25.391,-38.574,0.000
1709299666.362,-22.949,-31.250,-29.785,-45.898,0.000
1709299666.365,-28.320,-42.969,-38.574,-45.898,0.000
1709299666.369,-23.926,-39.551,-35.645,-31.250,0.000
1709299666.373,-25.879,-31.250,-33.691,-29.785,0.000
1709299666.377,-39.062,-33.203,-35.645,-44.434,0.000
1709299666.381,-37.109,-38.574,-27.344,-41.504,0.000
1709299666.385,-29.785,-46.875,-28.320,-27.344,0.000
1709299666.389,-30.762,-52.246,-28.809,-31.250,0.000
1709299666.393,-37.109,-51.270,-33.691,-39.062,0.000
1709299666.397,-38.574,-34.668,-50.293,-40.039,0.000
1709299666.401,-44.922,-28.320,-46.875,-38.086,0.000
1709299666.405,-45.898,-34.180,-28.320,-35.156,0.000
1709299666.408,-41.504,-34.180,-27.344,-36.621,0.000
1709299666.413,-44.434,-39.062,-24.902,-40.527,0.000
1709299666.417,-43.945,-50.781,-15.137,-40.039,0.000
1709299666.420,-42.969,-46.387,-11.230,-32.227,0.000
1709299666.424,-39.551,-37.598,-15.137,-21.973,0.000
1709299666.428,-39.551,-35.156,-17.578,-26.367,0.000
1709299666.432,-45.410,-37.598,-27.832,-35.645,0.000
1709299666.436,-47.363,-39.062,-36.621,-41.016,0.000
1709299666.440,-41.992,-41.504,-32.715,-43.457,0.000
1709299666.444,-40.527,-62.988,-30.762,-37.109,0.000
1709299666.448,-38.086,-54.199,-40.039,-19.531,0.000
1709299666.452,-31.250,-33.203,-40.527,-19.043,0.000
1709299666.456,-31.250,-31.250,-31.250,-41.504,0.000
1709299666.460,-28.809,-26.855,-32.227,-38.574,0.000
1709299666.464,-29.297,-27.344,-42.969,-32.715,0.000
1709299666.468,-28.320,-27.344,-38.086,-36.621,0.000
1709299666.472,-22.949,-33.691,-32.227,-36.621,0.000
1709299666.475,-26.855,-41.992,-38.574,-44.922,0.000
1709299666.479,-33.203,-49.805,-37.598,-49.316,0.000
1709299666.483,-32.715,-46.387,-35.645,-45.898,0.000
1709299666.487,-22.461,-32.715,-33.691,-33.203,0.000
1709299666.491,-16.602,-40.039,-26.367,-23.926,0.000
1709299666.495,-35.645,-37.109,-28.320,-44.434,0.000
1709299666.499,-40.527,-33.203,-35.645,-51.758,0.000
1709299666.503,-38.086,-39.551,-38.086,-39.062,0.000
1709299666.507,-46.875,-43.457,-36.133,-38.574,0.000
1709299666.511,-44.434,-47.852,-39.551,-40.039,0.000
1709299666.515,-44.434,-43.457,-43.457,-49.805,0.000
1709299666.519,-48.340,-37.598,-33.203,-51.758,0.000
1709299666.522,-52.734,-31.738,-32.227,-48.828,0.000
1709299666.526,-52.734,-38.086,-34.668,-49.805,0.000
1709299666.530,-54.688,-42.969,-35.645,-51.758,0.000
1709299666.534,-53.711,-47.852,-49.316,-56.152,0.000
1709299666.538,-47.852,-49.316,-40.039,-58.105,0.000
1709299666.542,-50.781,-50.781,-25.391,-55.664,0.000
1709299666.546,-56.152,-57.129,-35.156,-49.805,0.000
1709299666.550,-50.781,-48.340,-36.621,-46.875,0.000
1709299666.554,-40.527,-45.410,-33.691,-35.156,0.000
1709299666.558,-35.156,-55.664,-34.180,-35.156,0.000
1709299666.561,-30.762,-48.340,-24.902,-33.203,0.000
1709299666.565,-33.203,-38.086,-24.902,-31.738,0.000
1709299666.569,-36.133,-29.785,-31.738,-34.668,0.000
1709299666.573,-31.250,-29.785,-34.668,-27.344,0.000
1709299666.577,-28.809,-40.039,-27.832,-34.668,0.000
1709299666.581,-26.367,-46.387,-27.344,-30.762,0.000
1709299666.585,-24.902,-50.781,-38.574,-23.926,0.000
1709299666.589,-19.531,-51.270,-53.223,-38.574,0.000
1709299666.593,-26.367,-45.410,-50.293,-41.504,0.000
1709299666.597,-37.598,-56.641,-36.621,-42.480,0.000
1709299666.600,-39.551,-66.895,-33.203,-41.992,0.000
1709299666.604,-38.574,-39.551,-30.762,-32.715,0.000
1709299666.608,-41.016,-33.203,-32.227,-37.109,0.000
1709299666.612,-43.457,-41.016,-30.273,-47.363,0.000
1709299666.616,-43.945,-42.969,-21.484,-48.828,0.000
1709299666.620,-48.340,-40.527,-24.902,-54.199,0.000
1709299666.624,-45.898,-47.852,-30.273,-55.176,0.000
1709299666.628,-41.504,-55.664,-30.273,-35.645,0.000
1709299666.632,-48.828,-41.504,-41.992,-47.363,0.000
1709299666.636,-51.758,-34.180,-43.457,-63.965,0.000
1709299666.639,-38.086,-44.434,-34.668,-49.805,0.000
1709299666.643,-40.527,-42.480,-41.016,-45.898,0.000
1709299666.647,0.000,-32.227,-39.062,-42.969,0.000
1709299666.651,0.000,-34.668,-42.969,-41.992,0.000
1709299666.655,0.000,-37.598,-48.340,-46.875,0.000
1709299666.659,0.000,-43.945,-35.156,-47.363,0.000
1709299666.663,0.000,-40.527,-34.668,-46.875,0.000
1709299666.667,0.000,-27.344,-38.574,-45.898,0.000
1709299666.671,0.000,-40.039,-37.598,-33.691,0.000
1709299666.675,0.000,-47.852,-27.344,-28.320,0.000
1709299666.678,0.000,-28.320,-33.691,-36.621,0.000
1709299666.682,0.000,-31.250,-58.105,-35.156,0.000
1709299666.686,0.000,-41.504,-43.945,-31.738,0.000
1709299666.690,0.000,-35.645,-30.762,-34.668,0.000
1709299666.695,-40.527,-38.086,-31.738,-44.922,0.000
1709299666.698,-49.316,-55.176,-27.832,-46.387,0.000
1709299666.702,-54.688,-59.082,-31.250,-41.016,0.000
1709299666.706,-48.340,-41.016,-35.645,-35.156,0.000
1709299666.710,-42.480,-41.992,-36.133,-28.320,0.000
1709299666.714,-41.016,-54.688,-39.551,-24.414,0.000
1709299666.718,-43.945,-40.039,-38.574,-26.855,0.000
1709299666.722,-37.109,-31.738,-34.180,-28.320,0.000
1709299666.726,-29.785,-28.809,-33.203,-25.391,0.000
1709299666.730,-38.086,-27.344,-33.691,-31.738,0.000
1709299666.734,-42.969,-34.668,-33.691,-38.086,0.000
1709299666.738,-42.969,-40.527,-33.691,-38.086,0.000
1709299666.742,-45.898,-42.969,-28.320,-32.227,0.000
1709299666.746,-43.457,-45.410,-34.180,-30.762,0.000
1709299666.750,-44.434,-44.434,-36.133,-35.645,0.000
1709299666.754,-48.340,-44.434,-40.039,-42.480,0.000
1709299666.757,-55.176,-47.363,-46.875,-46.875,0.000
1709299666.761,-55.664,-44.434,-43.457,-48.828,0.000
1709299666.765,-52.246,-41.016,-43.457,-58.594,0.000
1709299666.769,-46.387,-42.969,-36.621,-51.270,0.000
1709299666.773,-42.480,-32.227,-40.527,-47.363,0.000
1709299666.777,-45.898,-20.996,-41.992,-46.387,0.000
1709299666.781,-54.688,-28.320,-41.504,-47.363,0.000
1709299666.785,-52.246,-32.715,-46.387,-52.246,0.000
1709299666.789,-42.480,-31.250,-41.016,-41.504,0.000
1709299666.793,-47.363,-27.832,-45.898,-49.316,0.000
1709299666.797,-44.922,-29.785,-51.758,-54.199,0.000
1709299666.801,-47.852,-32.227,-37.109,-55.664,0.000
1709299666.805,-57.129,-37.598,-32.227,-55.664,0.000
1709299666.809,-53.223,-35.645,-31.250,-43.945,0.000
1709299666.812,-51.758,-21.484,-27.344,-40.039,0.000
1709299666.816,-56.152,-46.387,-41.016,-60.059,0.000
1709299666.820,-57.129,-55.664,-46.387,-65.918,0.000
1709299666.824,-54.688,-28.320,-38.574,-46.387,0.000
1709299666.828,-47.363,-34.180,-34.668,-42.969,0.000
1709299666.832,-44.922,-38.086,-28.809,-38.086,0.000
1709299666.836,0.000,-28.809,-32.715,-41.992,0.000
1709299666.840,0.000,-31.250,-33.203,-51.270,0.000
1709299666.844,0.000,-34.668,-30.273,-45.410,0.000
1709299666.848,0.000,-31.738,-34.668,-38.086,0.000
1709299666.852,0.000,-39.062,-36.621,-40.527,0.000
1709299666.856,0.000,-45.410,-31.738,-39.551,0.000
1709299666.859,0.000,-45.898,-31.738,-41.504,0.000
1709299666.863,0.000,-44.434,-32.227,-44.434,0.000
1709299666.867,0.000,-40.039,-34.668,-25.879,0.000
1709299666.871,0.000,-41.504,-34.180,-21.973,0.000
1709299666.875,0.000,-45.410,-26.367,-35.645,0.000
1709299666.879,0.000,-49.805,-35.645,-49.316,0.000
1709299666.883,-56.152,-54.688,-42.480,-60.059,0.000
1709299666.887,-50.293,-45.898,-40.039,-49.805,0.000
1709299666.891,-46.875,-29.785,-40.039,-48.828,0.000
1709299666.895,-44.434,-31.738,-41.504,-48.828,0.000
1709299666.899,-42.480,-41.992,-43.945,-45.898,0.000
1709299666.902,-41.504,-34.180,-47.363,-47.363,0.000
1709299666.906,-30.273,-26.855,-48.828,-46.875,0.000
1709299666.910,-28.809,-32.227,-40.039,-39.062,0.000
1709299666.914,-35.156,-32.227,-41.504,-31.738,0.000
1709299666.918,-32.227,-23.438,-43.945,-39.551,0.000
1709299666.922,-30.273,-22.461,-43.945,-36.133,0.000
1709299666.926,-32.715,-31.738,-37.109,-32.715,0.000
1709299666.930,-37.598,-35.156,-37.109,-37.598,0.000
1709299666.934,-39.062,-41.016,-40.039,-41.504,0.000
1709299666.938,-42.969,-49.805,-38.086,-50.293,0.000
1709299666.941,-52.734,-36.133,-40.039,-51.758,0.000
1709299666.945,-49.316,-34.668,-38.086,-43.457,0.000
1709299666.949,-44.922,-38.574,-34.668,-34.180,0.000
1709299666.953,-42.969,-30.273,-37.109,-32.227,0.000
1709299666.957,-40.039,-30.762,-34.668,-27.344,0.000
1709299666.961,-44.922,-36.133,-32.715,-34.668,0.000
1709299666.965,-44.922,-38.086,-40.039,-43.945,0.000
1709299666.969,-37.109,-34.180,-35.645,-31.738,0.000
1709299666.973,-34.180,-27.832,-25.879,-22.949,0.000
1709299666.977,-40.039,-31.250,-26.855,-28.320,0.000
1709299666.981,-44.922,-40.527,-28.809,-35.156,0.000
1709299666.985,-40.039,-41.016,-33.691,-29.785,0.000
1709299666.989,-31.250,-37.109,-34.180,-21.484,0.000
1709299666.993,-28.809,-36.621,-33.203,-23.926,0.000
1709299666.997,-30.762,-39.551,-47.852,-25.879,0.000
1709299667.001,-39.551,-43.945,-47.363,-35.156,0.000
1709299667.005,-41.992,-49.316,-36.621,-31.250,0.000
1709299667.009,-36.133,-38.086,-36.621,-20.508,0.000
1709299667.012,-32.715,-21.973,-35.156,-20.996,0.000
1709299667.016,-31.738,-27.832,-33.203,-25.879,0.000
1709299667.020,-37.109,-33.691,-33.691,-34.668,0.000
1709299667.024,-40.039,-31.738,-29.785,-15.625,0.000
1709299667.028,-33.691,-42.480,-34.668,-10.254,0.000
1709299667.032,-31.738,-41.504,-36.621,-24.902,0.000
1709299667.036,-33.203,-26.855,-26.367,-23.926,0.000
1709299667.039,-32.227,-28.320,-25.391,-16.113,0.000
1709299667.043,-36.133,-32.227,-30.273,-17.578,0.000
1709299667.047,-30.762,-32.715,-26.367,-18.066,0.000
1709299667.051,-19.531,-28.809,-24.414,-10.254,0.000
1709299667.055,-29.785,-40.527,-37.598,-20.996,0.000
1709299667.059,-29.297,-44.434,-35.156,-23.926,0.000
1709299667.063,-26.367,-37.109,-26.367,-25.391,0.000
1709299667.067,-28.809,-44.434,-29.297,-20.508,0.000
1709299667.070,-25.391,-38.574,-32.227,-16.602,0.000
1709299667.074,-23.926,-33.691,-30.273,-34.180,0.000
1709299667.078,-30.762,-32.227,-32.715,-44.922,0.000
1709299667.082,-34.180,-20.508,-24.414,-33.203,0.000
1709299667.086,-30.762,-19.531,-26.367,-29.785,0.000
1709299667.090,-30.762,-26.367,-36.133,-31.738,0.000
1709299667.094,-29.297,-30.762,-35.156,-29.297,0.000
1709299667.098,-29.785,-30.273,-34.668,-39.062,0.000
1709299667.102,-34.668,-35.156,-37.109,-48.340,0.000
1709299667.105,-38.086,-43.945,-39.062,-39.551,0.000
1709299667.109,-36.621,-35.156,-35.645,-27.344,0.000
1709299667.113,-34.180,-40.039,-32.715,-32.227,0.000
1709299667.117,-35.156,-45.898,-39.062,-36.133,0.000
1709299667.121,-38.574,-36.621,-44.434,-37.109,0.000
1709299667.125,-33.691,-39.062,-41.504,-26.855,0.000
1709299667.128,-27.344,-45.898,-33.691,-20.508,0.000
1709299667.132,-26.855,-44.922,-30.762,-27.832,0.000
1709299667.136,-32.715,-34.668,-25.879,-17.090,0.000
1709299667.140,-37.109,-37.598,-35.156,-10.742,0.000
1709299667.144,-37.109,-37.598,-44.922,-29.785,0.000
1709299667.148,-31.738,-25.879,-26.855,-24.902,0.000
1709299667.152,-31.250,-25.879,-15.625,-20.508,0.000
1709299667.156,-32.227,-30.762,-23.438,-33.691,0.000
1709299667.160,-35.156,-34.668,-30.762,-37.109,0.000
1709299667.164,-42.480,-38.574,-42.480,-32.227,0.000
1709299667.168,-38.086,-37.598,-38.086,-27.832,0.000
1709299667.172,-40.039,-36.621,-38.086,-35.156,0.000
1709299667.176,-48.828,-29.297,-40.039,-49.805,0.000
1709299667.179,-47.852,-25.391,-25.879,-56.152,0.000
1709299667.183,-41.016,-30.273,-26.367,-46.875,0.000
1709299667.187,-41.016,-30.762,-38.086,-41.992,0.000
1709299667.191,-42.969,-42.969,-38.086,-52.734,0.000
1709299667.195,-41.016,-50.293,-32.227,-57.129,0.000
1709299667.199,-45.410,-37.109,-32.715,-52.734,0.000
1709299667.203,-49.316,-30.762,-33.203,-49.805,0.000
1709299667.207,-43.457,-31.250,-30.762,-41.016,0.000
1709299667.211,-34.180,-30.762,-28.320,-32.715,0.000
1709299667.215,-33.691,-33.203,-29.785,-27.344,0.000
1709299667.219,-38.574,-29.785,-37.109,-36.621,0.000
1709299667.223,-34.668,-27.344,-35.645,-40.527,0.000
1709299667.227,-31.250,-27.832,-28.809,-29.785,0.000
1709299667.230,-34.180,-39.551,-32.715,-29.297,0.000
1709299667.234,-34.668,-44.434,-31.250,-34.668,0.000
1709299667.238,-41.504,-32.715,-31.250,-41.504,0.000
1709299667.242,-52.246,-36.621,-38.574,-41.992,0.000
1709299667.246,-57.129,-41.992,-39.551,-34.668,0.000
1709299667.250,-49.316,-39.551,-34.180,-30.273,0.000
1709299667.254,-37.109,-39.062,-33.691,-35.645,0.000
1709299667.258,-32.715,-39.551,-39.551,-45.898,0.000
1709299667.262,-32.227,-38.574,-41.504,-54.199,0.000
1709299667.266,-39.551,-35.645,-38.574,-52.246,0.000
1709299667.270,-42.969,-45.410,-36.621,-41.504,0.000
1709299667.273,-43.945,-41.992,-47.363,-39.551,0.000
1709299667.277,-43.945,-33.691,-47.852,-49.805,0.000
1709299667.281,-43.945,-37.598,-28.809,-59.570,0.000
1709299667.285,-43.457,-36.133,-28.809,-54.688,0.000
1709299667.289,-37.109,-28.320,-37.598,-35.645,0.000
1709299667.293,-34.180,-34.180,-36.133,-37.109,0.000
1709299667.297,-34.668,-48.340,-39.062,-55.176,0.000
1709299667.301,-43.457,-53.223,-43.457,-68.359,0.000
1709299667.305,-47.852,-44.922,-49.805,-60.547,0.000
1709299667.309,-39.062,-29.785,-43.457,-46.875,0.000
1709299667.312,-40.039,-43.457,-32.227,-52.734,0.000
1709299667.316,-47.852,-55.664,-35.156,-66.406,0.000
1709299667.320,-50.781,-28.809,-36.133,-53.711,0.000
1709299667.324,-52.246,-28.809,-38.574,-44.434,0.000
1709299667.328,-44.434,-39.062,-35.645,-41.504,0.000
1709299667.332,-38.574,-32.715,-38.086,-28.320,0.000
1709299667.336,-44.434,-34.180,-37.109,-32.715,0.000
1709299667.340,-57.617,-41.504,-38.574,-54.688,0.000
1709299667.344,-59.570,-50.781,-41.992,-44.922,0.000
1709299667.348,-53.711,-50.293,-37.109,-26.855,0.000
1709299667.351,-46.875,-40.527,-37.598,-29.297,0.000
1709299667.355,-45.898,-33.203,-35.645,-32.227,0.000
1709299667.359,-47.852,-31.250,-37.109,-24.414,0.000
1709299667.363,-41.992,-31.738,-37.598,-24.902,0.000
1709299667.367,-40.527,-38.574,-39.062,-28.320,0.000
1709299667.371,-40.039,-54.688,-41.016,-30.762,0.000
1709299667.375,-36.133,-49.805,-31.250,-30.273,0.000
1709299667.379,-38.086,-40.527,-27.832,-28.320,0.000
1709299667.383,-43.945,-42.969,-33.203,-40.039,0.000
1709299667.387,-42.969,-47.852,-30.762,-41.504,0.000
1709299667.390,-41.992,-46.875,-30.762,-31.738,0.000
1709299667.394,-45.898,-39.551,-40.039,-37.598,0.000
1709299667.398,-53.223,-44.434,-41.016,-48.828,0.000
1709299667.402,-52.734,-51.270,-37.109,-44.434,0.000
1709299667.406,-43.457,-47.363,-29.785,-39.062,0.000
1709299667.410,-41.504,-41.016,-25.391,-38.086,0.000
1709299667.414,-42.480,-43.945,-31.738,-32.715,0.000
1709299667.418,-41.504,-47.852,-39.062,-42.480,0.000
1709299667.421,-44.922,-35.645,-35.156,-44.434,0.000
1709299667.425,-51.270,-27.832,-38.574,-39.551,0.000
1709299667.429,-54.688,-25.391,-37.598,-41.504,0.000
1709299667.433,-57.617,-30.273,-38.574,-55.664,0.000
1709299667.437,-57.617,-48.828,-44.434,-58.105,0.000
1709299667.441,-63.477,-41.992,-40.527,-51.270,0.000
1709299667.445,-62.012,-23.438,-39.062,-49.316,0.000
1709299667.448,-55.664,-26.855,-41.016,-42.969,0.000
1709299667.452,-51.270,-25.391,-43.945,-41.992,0.000
1709299667.456,-51.758,-30.273,-39.062,-46.875,0.000
1709299667.460,-55.176,-46.387,-28.809,-47.363,0.000
1709299667.464,-40.039,-49.316,-23.926,-35.156,0.000
1709299667.468,-32.715,-40.527,-28.809,-26.367,0.000
1709299667.472,-37.109,-35.645,-36.621,-20.508,0.000
1709299667.476,-33.691,-33.203,-31.250,-21.973,0.000
1709299667.480,-28.320,-43.945,-20.996,-30.762,0.000
1709299667.484,-32.227,-45.898,-29.785,-33.691,0.000
1709299667.488,-29.785,-31.738,-32.715,-31.738,0.000
1709299667.491,-34.180,-35.645,-26.855,-35.645,0.000
1709299667.495,-41.016,-41.992,-29.297,-39.062,0.000
1709299667.499,-36.133,-39.062,-31.738,-30.273,0.000
1709299667.503,-40.527,-28.320,-33.203,-36.621,0.000
1709299667.507,-47.363,-23.926,-36.621,-54.688,0.000
1709299667.511,-50.781,-26.367,-40.527,-52.734,0.000
1709299667.514,-55.176,-26.367,-44.434,-48.340,0.000
1709299667.518,-50.293,-30.762,-42.480,-57.129,0.000
1709299667.522,-48.828,-40.527,-42.969,-61.035,0.000
1709299667.526,-48.828,-42.969,-44.434,-49.316,0.000
1709299667.530,-46.387,-32.227,-42.969,-50.293,0.000
1709299667.534,-41.992,-31.738,-47.852,-53.223,0.000
1709299667.538,-37.598,-41.504,-41.992,-39.062,0.000
1709299667.542,-42.969,-39.551,-31.738,-43.457,0.000
1709299667.546,-45.410,-29.297,-32.715,-41.016,0.000
1709299667.550,-40.039,-36.133,-38.574,-31.738,0.000
1709299667.554,-27.344,-43.945,-37.598,-23.438,0.000
1709299667.558,-29.785,-41.504,-29.785,-28.809,0.000
1709299667.562,-43.457,-38.574,-26.367,-32.715,0.000
1709299667.566,-37.598,-38.086,-31.738,-20.996,0.000
1709299667.569,-33.203,-46.387,-38.574,-20.020,0.000
1709299667.573,-33.691,-47.363,-36.133,-17.578,0.000
1709299667.577,-35.156,-30.762,-33.691,-20.996,0.000
1709299667.581,-39.062,-26.855,-39.551,-32.227,0.000
1709299667.585,-41.992,-39.551,-42.969,-26.855,0.000
1709299667.589,-38.086,-41.016,-39.062,-27.344,0.000
1709299667.593,-46.875,-37.598,-45.410,-37.598,0.000
1709299667.597,-51.270,-40.527,-52.246,-47.363,0.000
1709299667.601,-55.664,-44.434,-52.734,-56.152,0.000
1709299667.605,-59.082,-45.410,-46.387,-49.316,0.000
1709299667.609,-51.270,-44.434,-41.504,-38.574,0.000
1709299667.613,-47.852,-52.734,-35.156,-28.320,0.000
1709299667.617,-39.062,-45.410,-30.762,-23.926,0.000
1709299667.620,-25.879,-35.645,-30.273,-33.203,0.000
1709299667.624,-25.879,-37.109,-29.297,-42.480,0.000
1709299667.628,-39.062,-32.227,-33.203,-42.969,0.000
1709299667.632,-36.133,-35.645,-35.156,-39.551,0.000
1709299667.636,-26.367,-38.086,-35.645,-36.621,0.000
1709299667.640,-30.762,-41.016,-35.156,-37.598,0.000
1709299667.644,-36.133,-48.828,-38.086,-31.738,0.000
1709299667.648,-33.203,-40.527,-39.062,-25.391,0.000
1709299667.652,-30.273,-29.297,-36.621,-30.762,0.000
1709299667.656,-30.273,-22.949,-41.504,-40.039,0.000
1709299667.660,-30.273,-29.297,-46.387,-39.551,0.000
1709299667.663,-34.180,-39.062,-42.480,-30.273,0.000
1709299667.667,-45.410,-44.434,-36.133,-30.762,0.000
1709299667.671,-42.969,-43.945,-23.926,-30.762,0.000
1709299667.675,-36.133,-45.410,-26.855,-31.738,0.000
1709299667.679,-38.574,-46.875,-39.062,-40.039,0.000
1709299667.683,-37.598,-43.945,-31.250,-36.621,0.000
1709299667.687,-45.410,-44.922,-32.227,-26.367,0.000
1709299667.691,-53.223,-33.203,-43.457,-23.438,0.000
1709299667.695,-45.898,-28.320,-42.480,-27.832,0.000
1709299667.699,-44.922,-32.715,-37.598,-35.156,0.000
1709299667.703,-49.805,-33.691,-39.062,-36.621,0.000
1709299667.706,-45.410,-37.109,-36.621,-22.461,0.000
1709299667.710,-47.852,-40.527,-42.480,-22.949,0.000
1709299667.714,-45.898,-23.926,-42.480,-41.992,0.000
1709299667.718,-34.180,-22.461,-43.457,-45.898,0.000
1709299667.722,-41.016,-30.762,-43.457,-49.316,0.000
1709299667.726,-42.969,-32.715,-32.715,-54.688,0.000
1709299667.730,-41.016,-29.297,-38.574,-51.270,0.000
1709299667.734,-51.270,-31.250,-40.039,-55.664,0.000
1709299667.738,-48.828,-32.715,-41.504,-60.059,0.000
1709299667.742,-40.527,-33.203,-39.551,-54.199,0.000
1709299667.746,-43.945,-46.875,-27.832,-43.945,0.000
1709299667.749,-52.734,-42.969,-36.621,-45.410,0.000
1709299667.753,-50.781,-42.969,-49.805,-45.410,0.000
1709299667.757,-45.410,-47.363,-41.992,-44.922,0.000
1709299667.761,-51.270,-41.504,-36.621,-60.059,0.000
1709299667.765,-44.434,-37.109,-35.156,-49.805,0.000
1709299667.769,-34.668,-36.133,-33.203,-34.180,0.000
1709299667.773,-32.715,-47.852,-34.668,-41.992,0.000
1709299667.777,-32.715,-51.758,-35.156,-52.734,0.000
1709299667.781,-32.227,-42.480,-26.855,-45.898,0.000
1709299667.784,-30.762,-39.551,-31.738,-34.668,0.000
1709299667.788,-35.645,-37.598,-35.645,-37.109,0.000
1709299667.792,-36.621,-40.039,-32.715,-30.762,0.000
1709299667.796,-36.621,-36.621,-26.855,-22.461,0.000
1709299667.800,-40.527,-32.227,-32.227,-23.926,0.000
1709299667.804,-44.922,-34.668,-38.086,-31.738,0.000
1709299667.808,-43.457,-33.203,-36.621,-30.762,0.000
1709299667.812,-41.992,-32.227,-36.621,-20.020,0.000
1709299667.816,-37.109,-30.762,-36.133,-21.973,0.000
1709299667.819,-37.109,-37.109,-32.227,-38.574,0.000
1709299667.823,-49.316,-35.156,-28.809,-55.664,0.000
1709299667.827,-44.434,-24.414,-29.297,-43.457,0.000
1709299667.831,-38.574,-39.062,-29.785,-40.039,0.000
1709299667.835,-44.922,-45.898,-39.062,-52.734,0.000
1709299667.839,-53.223,-34.180,-36.621,-55.664,0.000
1709299667.843,-55.176,-29.785,-37.109,-40.527,0.000
1709299667.847,-43.457,-27.832,-52.734,-25.391,0.000
1709299667.851,-37.109,-31.738,-46.387,-37.598,0.000
1709299667.854,-42.969,-38.574,-33.203,-50.781,0.000
1709299667.858,-51.758,-41.504,-37.598,-63.477,0.000
1709299667.862,-55.664,-34.668,-33.691,-63.965,0.000
1709299667.866,-49.805,-40.527,-31.250,-49.316,0.000
1709299667.870,-41.992,-41.016,-30.762,-39.551,0.000
1709299667.874,-52.734,-32.715,-36.621,-48.340,0.000
1709299667.877,-60.059,-39.062,-48.828,-55.176,0.000
1709299667.881,-65.430,-43.945,-36.133,-65.430,0.000
1709299667.885,-63.477,-49.805,-27.344,-53.223,0.000
1709299667.889,-58.594,-43.457,-27.832,-32.715,0.000
1709299667.893,-58.105,-35.645,-27.344,-38.086,0.000
1709299667.897,-62.012,-51.758,-32.227,-40.527,0.000
1709299667.901,-67.383,-46.875,-35.645,-45.410,0.000
1709299667.905,-62.012,-43.457,-41.992,-43.457,0.000
1709299667.909,-55.664,-61.523,-36.133,-27.832,0.000
1709299667.913,-56.152,-59.570,-30.762,-38.086,0.000
1709299667.917,-62.500,-47.363,-36.621,-56.152,0.000
1709299667.921,-62.988,-42.480,-31.738,-52.734,0.000
1709299667.925,-50.781,-39.062,-25.391,-44.434,0.000
1709299667.929,-41.016,-37.109,-26.367,-35.156,0.000
1709299667.932,-48.340,-33.691,-34.180,-38.574,0.000
1709299667.936,-49.805,-36.133,-35.156,-37.598,0.000
1709299667.940,-44.434,-34.180,-31.738,-35.645,0.000
1709299667.944,-35.156,-30.762,-27.344,-29.785,0.000
1709299667.948,-31.250,-31.250,-22.949,-15.137,0.000
1709299667.952,-35.156,-24.902,-35.156,-18.555,0.000
1709299667.956,-39.551,-25.879,-41.992,-30.762,0.000
1709299667.960,-41.504,-36.133,-30.762,-31.738,0.000
1709299667.964,-33.691,-37.109,-28.320,-23.438,0.000
1709299667.968,-31.250,-35.156,-26.367,-21.484,0.000
1709299667.972,-34.180,-38.086,-21.484,-22.461,0.000
1709299667.976,-38.086,-44.922,-26.855,-35.645,0.000
1709299667.980,-41.016,-37.598,-30.762,-42.480,0.000
1709299667.984,-38.574,-26.855,-26.855,-39.062,0.000
1709299667.987,-38.574,-29.785,-34.180,-34.180,0.000
1709299667.991,-43.945,-36.621,-41.016,-26.367,0.000
1709299667.995,-52.734,-40.039,-41.992,-32.227,0.000
1709299667.999,-49.805,-36.621,-43.945,-49.316,0.000
1709299668.003,-49.316,-44.922,-38.574,-51.270,0.000
1709299668.007,-51.758,-50.293,-33.691,-42.969,0.000
1709299668.011,-51.270,-44.434,-31.738,-30.273,0.000
1709299668.015,-50.293,-50.293,-38.574,-31.738,0.000
1709299668.019,-40.039,-51.758,-38.574,-41.992,0.000
1709299668.023,-37.598,-50.781,-35.645,-42.969,0.000
1709299668.027,-48.828,-54.688,-41.016,-43.945,0.000
1709299668.030,-41.992,-47.852,-40.527,-31.250,0.000
1709299668.034,-33.203,-36.621,-36.133,-20.020,0.000
1709299668.038,-40.527,-41.992,-29.297,-27.832,0.000
1709299668.042,-43.945,-46.875,-27.344,-39.062,0.000
1709299668.046,-41.992,-43.945,-28.809,-36.133,0.000
1709299668.050,-50.293,-44.434,-42.969,-27.344,0.000
1709299668.054,-57.129,-51.758,-45.898,-40.039,0.000
1709299668.058,-57.129,-55.664,-29.785,-57.617,0.000
1709299668.062,-52.246,-50.293,-25.391,-54.688,0.000
1709299668.066,-51.758,-48.828,-23.926,-48.340,0.000
1709299668.070,-57.129,-42.969,-29.297,-47.363,0.000
1709299668.073,-47.852,-27.832,-32.715,-47.852,0.000
1709299668.077,-49.316,-29.297,-34.180,-54.688,0.000
1709299668.081,-48.828,-32.715,-34.668,-44.922,0.000
1709299668.085,-47.363,-37.598,-36.133,-34.668,0.000
1709299668.089,-46.387,-37.598,-41.504,-39.551,0.000
1709299668.093,-38.574,-31.250,-41.992,-35.645,0.000
1709299668.097,-39.551,-36.133,-38.086,-38.086,0.000
1709299668.101,-41.992,-41.016,-34.668,-42.969,0.000
1709299668.105,-38.574,-33.203,-30.762,-37.598,0.000
1709299668.108,-38.574,-32.715,-40.527,-35.156,0.000
1709299668.112,-35.645,-39.551,-43.945,-41.016,0.000
1709299668.116,-39.062,-48.340,-37.109,-48.340,0.000
1709299668.120,-42.969,-36.621,-32.715,-48.828,0.000
1709299668.124,-42.480,-27.832,-32.227,-45.410,0.000
1709299668.128,-42.969,-31.738,-41.016,-26.367,0.000
1709299668.132,-38.086,-36.133,-35.645,-20.508,0.000
1709299668.136,-44.434,-45.410,-33.203,-37.109,0.000
1709299668.140,-51.270,-37.598,-44.922,-41.992,0.000
1709299668.144,-53.223,-21.484,-44.922,-43.457,0.000
1709299668.149,0.000,-31.738,-40.039,0.000,0.000
1709299668.153,0.000,-45.410,-43.457,0.000,0.000
1709299668.157,0.000,-41.016,-47.852,0.000,0.000
1709299668.161,0.000,-36.621,-41.504,0.000,0.000
1709299668.164,0.000,-33.203,-25.391,0.000,0.000
1709299668.168,0.000,-35.156,-22.949,0.000,0.000
1709299668.172,0.000,-41.016,-27.832,0.000,0.000
1709299668.176,0.000,-38.086,-38.086,0.000,0.000
1709299668.180,0.000,-23.438,-38.574,0.000,0.000
1709299668.184,0.000,-27.344,-33.691,0.000,0.000
1709299668.188,0.000,-38.574,-34.180,0.000,0.000
1709299668.192,0.000,-43.945,-36.133,0.000,0.000
1709299668.196,-61.523,-36.621,-40.527,-36.621,0.000
1709299668.199,-61.523,-33.691,-39.551,-37.109,0.000
1709299668.203,-63.965,-45.410,-35.645,-45.898,0.000
1709299668.207,-63.477,-43.457,-27.832,-50.293,0.000
1709299668.211,-48.340,-45.898,-31.250,-37.598,0.000
1709299668.215,-44.922,-51.758,-37.598,-42.480,0.000
1709299668.219,-52.246,-44.922,-39.062,-43.457,0.000
1709299668.223,-47.852,-37.598,-35.645,-41.016,0.000
1709299668.227,-44.922,-41.504,-38.574,-39.551,0.000
1709299668.231,-40.039,-47.852,-41.016,-33.203,0.000
1709299668.235,-31.250,-34.180,-38.086,-41.504,0.000
1709299668.239,-36.621,-20.996,-41.016,-41.016,0.000
1709299668.242,-45.898,-25.879,-40.039,-41.016,0.000
1709299668.246,-43.457,-29.297,-38.574,-37.109,0.000
1709299668.250,-40.039,-27.832,-31.738,-32.227,0.000
1709299668.254,-48.828,-30.273,-35.156,-40.527,0.000
1709299668.258,-53.711,-32.715,-43.457,-45.898,0.000
1709299668.261,-53.711,-37.109,-35.156,-41.992,0.000
1709299668.265,-54.688,-43.945,-34.668,-42.480,0.000
1709299668.269,-45.410,-46.875,-35.156,-34.180,0.000
1709299668.273,-44.434,-44.922,-35.645,-28.320,0.000
1709299668.277,-42.480,-48.340,-41.016,-27.344,0.000
1709299668.281,-36.621,-42.969,-34.180,-23.438,0.000
1709299668.285,-41.992,-46.387,-18.555,-24.414,0.000
1709299668.289,-45.898,-55.176,-24.902,-32.227,0.000
1709299668.293,-41.992,-46.875,-35.645,-41.016,0.000
1709299668.297,-37.109,-32.715,-39.062,-40.527,0.000
1709299668.301,-40.527,-29.785,-39.062,-37.109,0.000
1709299668.305,-42.969,-37.598,-34.668,-41.992,0.000
1709299668.309,-32.227,-35.645,-32.715,-38.574,0.000
1709299668.313,-28.809,-38.086,-37.598,-34.180,0.000
1709299668.316,-38.086,-44.434,-49.316,-48.828,0.000
1709299668.320,-39.062,-39.062,-49.316,-49.316,0.000
1709299668.324,-46.875,-47.852,-42.480,-39.062,0.000
1709299668.328,-39.062,-64.453,-43.457,-27.832,0.000
1709299668.332,-31.250,-46.875,-41.504,-30.273,0.000
1709299668.336,-49.805,-28.809,-38.086,-47.363,0.000
1709299668.340,-60.059,-31.738,-31.738,-59.082,0.000
1709299668.344,-51.270,-30.762,-26.367,-50.781,0.000
1709299668.348,-44.922,-43.457,-37.109,-37.109,0.000
1709299668.352,-48.340,-52.246,-41.016,-34.668,0.000
1709299668.356,-47.852,-46.387,-36.133,-41.992,0.000
1709299668.360,-46.875,-35.156,-39.062,-51.270,0.000
1709299668.364,-49.316,-28.320,-41.992,-48.340,0.000
1709299668.367,-48.828,-28.809,-48.340,-29.785,0.000
1709299668.371,-52.734,-30.273,-46.875,-27.344,0.000
1709299668.375,-60.547,-34.668,-34.180,-42.480,0.000
1709299668.379,-66.406,-46.875,-36.133,-50.781,0.000
1709299668.383,-52.246,-43.945,-38.086,-46.387,0.000
1709299668.387,-41.504,-41.992,-24.414,-38.086,0.000
1709299668.391,-46.875,-46.875,-36.133,-33.203,0.000
1709299668.395,-43.457,-48.828,-46.387,-34.668,0.000
1709299668.399,-44.434,-58.105,-40.527,-50.293,0.000
1709299668.403,-50.781,-47.852,-32.715,-48.828,0.000
1709299668.407,-44.922,-34.668,-34.180,-36.621,0.000
1709299668.410,-30.273,-38.086,-36.621,-33.203,0.000
1709299668.414,-33.203,-45.898,-39.062,-22.461,0.000
1709299668.418,-46.875,-41.504,-43.457,-34.668,0.000
1709299668.422,-44.434,-36.621,-43.945,-49.805,0.000
1709299668.426,-38.574,-39.551,-43.457,-35.645,0.000
1709299668.430,-36.621,-45.898,-45.410,-27.344,0.000
1709299668.434,-38.086,-55.664,-47.852,-41.992,0.000
1709299668.438,-44.434,-47.363,-36.621,-43.457,0.000
1709299668.442,-46.387,-29.785,-33.691,-54.688,0.000
1709299668.445,-43.945,-25.391,-35.645,-59.570,0.000
1709299668.449,-50.781,-32.227,-41.504,-50.781,0.000
1709299668.453,-50.293,-36.621,-42.969,-44.922,0.000
1709299668.457,-45.410,-40.039,-38.086,-39.551,0.000
1709299668.461,-48.340,-45.410,-33.691,-53.223,0.000
1709299668.465,-52.246,-45.898,-39.062,-54.688,0.000
1709299668.469,-50.293,-40.527,-50.293,-31.250,0.000
1709299668.473,-53.223,-34.668,-34.180,-28.809,0.000
1709299668.477,-59.082,-39.551,-21.973,-41.016,0.000
1709299668.480,-56.641,-39.062,-27.832,-43.945,0.000
1709299668.484,-54.688,-41.016,-26.367,-35.156,0.000
1709299668.488,-57.617,-50.293,-27.344,-33.691,0.000
1709299668.492,-56.152,-44.434,-29.785,-34.668,0.000
1709299668.496,-48.340,-46.387,-31.250,-40.527,0.000
1709299668.500,-44.922,-52.734,-38.086,-41.504,0.000
1709299668.504,-56.641,-49.805,-36.621,-33.691,0.000
1709299668.508,-53.711,-42.969,-30.273,-31.738,0.000
1709299668.512,-37.598,-41.016,-28.320,-22.949,0.000
1709299668.516,-33.203,-43.945,-39.062,-15.137,0.000
1709299668.520,-34.180,-40.039,-43.457,-22.949,0.000
1709299668.523,-39.551,-41.016,-40.039,-30.762,0.000
1709299668.527,-41.504,-34.180,-37.598,-25.879,0.000
1709299668.531,-35.645,-24.414,-25.879,-19.043,0.000
1709299668.535,-35.645,-26.855,-19.043,-27.344,0.000
1709299668.539,-41.504,-30.762,-28.320,-41.016,0.000
1709299668.543,-42.480,-38.574,-39.062,-46.387,0.000
1709299668.547,-38.574,-41.016,-36.133,-36.133,0.000
1709299668.551,-36.621,-34.180,-27.832,-26.367,0.000
1709299668.554,-36.133,-29.785,-34.180,-36.621,0.000
1709299668.558,-32.227,-30.762,-42.969,-40.039,0.000
1709299668.562,-36.133,-39.551,-41.992,-43.457,0.000
1709299668.566,-35.645,-41.992,-40.039,-40.527,0.000
1709299668.570,0.000,-35.156,-48.340,-39.062,0.000
1709299668.574,0.000,-28.809,-51.270,-36.133,0.000
1709299668.578,0.000,-25.879,-33.203,-43.945,0.000
1709299668.581,0.000,-27.344,-26.855,-55.664,0.000
1709299668.585,0.000,-32.715,-26.855,-50.781,0.000
1709299668.589,0.000,-39.551,-27.832,-40.527,0.000
1709299668.593,0.000,-34.180,-29.297,-30.762,0.000
1709299668.597,0.000,-30.273,-30.273,-37.109,0.000
1709299668.601,0.000,-34.668,-34.668,-42.480,0.000
1709299668.605,0.000,-38.574,-35.156,-29.297,0.000
1709299668.609,0.000,-34.668,-41.504,-20.020,0.000
1709299668.613,0.000,-29.785,-36.133,-24.902,0.000
1709299668.616,-43.457,-38.574,-28.809,-33.203,0.000
1709299668.620,-42.480,-43.945,-28.320,-29.785,0.000
1709299668.624,-57.129,-41.016,-26.855,-29.297,0.000
1709299668.628,-63.965,-41.992,-37.598,-37.109,0.000
1709299668.632,-49.316,-51.270,-40.527,-23.926,0.000
1709299668.636,-45.898,-61.523,-36.621,-17.578,0.000
1709299668.640,-52.734,-49.316,-32.227,-35.156,0.000
1709299668.643,-51.270,-42.480,-41.992,-41.016,0.000
1709299668.647,-39.551,-43.457,-44.922,-40.039,0.000
1709299668.651,-27.832,-49.805,-32.715,-34.180,0.000
1709299668.655,-27.832,-50.293,-42.480,-28.809,0.000
1709299668.659,-30.762,-31.250,-41.992,-30.273,0.000
1709299668.663,-28.809,-27.832,-33.691,-27.832,0.000
1709299668.667,-26.855,-27.344,-43.457,-35.156,0.000
1709299668.671,-35.645,-27.832,-50.781,-45.898,0.000
1709299668.675,-46.387,-36.621,-54.199,-48.828,0.000
1709299668.679,-46.387,-46.875,-57.617,-51.270,0.000
1709299668.683,-46.387,-41.992,-44.922,-41.992,0.000
1709299668.687,-45.898,-44.434,-37.109,-35.156,0.000
1709299668.691,-41.992,-47.363,-35.645,-41.016,0.000
1709299668.695,-41.992,-37.109,-34.668,-47.363,0.000
1709299668.698,-52.246,-39.551,-34.180,-51.270,0.000
1709299668.702,-51.758,-48.340,-32.227,-48.340,0.000
1709299668.706,-44.922,-41.992,-27.832,-39.551,0.000
1709299668.710,-54.199,-41.016,-32.227,-41.016,0.000
1709299668.714,-61.035,-40.527,-41.992,-45.898,0.000
1709299668.718,-58.594,-31.738,-45.898,-42.480,0.000
1709299668.722,-51.758,-36.133,-35.156,-37.109,0.000
1709299668.726,-46.875,-41.992,-27.344,-29.297,0.000
1709299668.730,-49.805,-49.805,-35.156,-21.484,0.000
1709299668.734,-54.199,-47.852,-33.203,-24.902,0.000
1709299668.738,-50.293,-42.480,-30.273,-40.527,0.000
1709299668.742,-45.898,-43.945,-31.738,-41.016,0.000
1709299668.745,-49.316,-46.875,-41.992,-37.598,0.000
1709299668.749,-51.758,-45.410,-44.922,-38.574,0.000
1709299668.753,-55.176,-42.480,-33.203,-35.645,0.000
1709299668.757,-56.152,-37.109,-37.109,-57.617,0.000
1709299668.761,-57.617,-29.785,-41.504,-70.801,0.000
1709299668.765,-56.152,-27.344,-37.109,-52.734,0.000
1709299668.769,-41.504,-33.203,-30.273,-30.762,0.000
1709299668.773,-39.062,-44.434,-32.227,-28.320,0.000
1709299668.777,-49.805,-48.340,-35.156,-38.086,0.000
1709299668.781,-54.199,-43.457,-30.273,-44.434,0.000
1709299668.785,-49.805,-38.574,-33.203,-41.992,0.000
1709299668.789,-40.527,-36.621,-29.297,-27.832,0.000
1709299668.792,-33.203,-32.715,-31.738,-24.902,0.000
1709299668.796,-30.273,-27.344,-31.250,-37.109,0.000
1709299668.800,-35.645,-28.809,-23.438,-45.410,0.000
1709299668.804,-34.668,-30.762,-26.855,-40.039,0.000
1709299668.808,-25.391,-24.902,-33.203,-28.320,0.000
1709299668.812,-19.043,-33.203,-34.180,-20.508,0.000
1709299668.816,-23.926,-45.898,-38.574,-26.855,0.000
1709299668.820,-31.738,-38.574,-38.574,-31.738,0.000
1709299668.824,-34.180,-26.855,-30.273,-28.809,0.000
1709299668.828,-39.551,-29.297,-20.508,-34.668,0.000
1709299668.831,-46.875,-41.992,-23.438,-39.551,0.000
1709299668.835,-52.246,-45.410,-27.832,-42.969,0.000
1709299668.839,-54.199,-28.809,-23.926,-57.617,0.000
1709299668.843,-60.059,-25.391,-33.203,-61.035,0.000
1709299668.847,-62.988,-31.250,-37.598,-38.574,0.000
1709299668.851,-55.176,-31.738,-43.945,-33.691,0.000
1709299668.855,-49.805,-38.086,-41.992,-47.852,0.000
1709299668.859,-46.387,-38.574,-25.879,-46.387,0.000
1709299668.863,-47.363,-40.039,-26.855,-40.527,0.000
1709299668.866,-59.082,-41.992,-39.551,-41.992,0.000
1709299668.870,-60.059,-39.551,-40.039,-37.598,0.000
1709299668.874,-58.105,-37.109,-28.809,-31.738,0.000
1709299668.878,-70.312,-44.434,-34.180,-33.691,0.000
1709299668.882,-76.660,-52.246,-45.898,-47.363,0.000
1709299668.886,-80.566,-40.527,-42.969,-54.688,0.000
1709299668.890,-77.148,-34.668,-39.551,-43.945,0.000
1709299668.894,-68.848,-38.574,-34.180,-40.039,0.000
1709299668.898,-71.777,-40.527,-30.273,-44.434,0.000
1709299668.901,-65.430,-39.062,-33.203,-41.016,0.000
1709299668.905,-63.477,-41.016,-40.527,-38.574,0.000
1709299668.909,-60.059,-47.852,-45.410,-47.363,0.000
1709299668.913,-52.246,-50.781,-36.133,-39.551,0.000
1709299668.917,-46.875,-46.387,-23.926,-30.273,0.000
1709299668.921,-50.781,-50.293,-24.902,-36.133,0.000
1709299668.925,-49.316,-46.387,-27.832,-34.180,0.000
1709299668.929,-44.922,-30.762,-26.855,-39.551,0.000
1709299668.933,-48.828,-35.156,-27.344,-35.645,0.000
1709299668.937,-49.316,-46.387,-27.832,-27.832,0.000
1709299668.940,-54.688,-43.945,-28.809,-44.434,0.000
1709299668.944,-55.176,-43.457,-29.785,-44.434,0.000
1709299668.948,-49.316,-53.223,-28.320,-25.391,0.000
1709299668.952,-41.016,-50.781,-32.715,-20.996,0.000
1709299668.956,-41.016,-41.504,-36.133,-27.832,0.000
1709299668.960,-45.410,-35.645,-32.227,-33.691,0.000
1709299668.964,-47.363,-39.062,-34.180,-37.598,0.000
1709299668.968,-43.457,-43.457,-33.691,-25.391,0.000
1709299668.971,-40.039,-38.086,-34.180,-24.414,0.000
1709299668.975,-48.828,-41.504,-45.898,-41.992,0.000
1709299668.979,-51.270,-39.062,-38.086,-49.316,0.000
1709299668.983,-45.898,-38.574,-27.832,-45.898,0.000
1709299668.987,-36.133,-41.504,-34.180,-34.668,0.000
1709299668.991,-37.598,-34.668,-35.645,-34.668,0.000
1709299668.994,-38.574,-26.855,-36.133,-39.062,0.000
1709299668.998,-32.227,-32.715,-36.133,-38.574,0.000
1709299669.002,-28.320,-31.738,-33.691,-38.086,0.000
1709299669.006,-31.250,-31.738,-43.457,-49.316,0.000
1709299669.010,-36.133,-41.992,-45.410,-49.805,0.000
1709299669.014,-38.086,-38.086,-41.992,-45.898,0.000
1709299669.018,-48.340,-31.250,-44.922,-56.641,0.000
1709299669.022,-44.434,-29.297,-47.363,-51.270,0.000
1709299669.026,-37.598,-35.645,-56.641,-40.039,0.000
1709299669.030,-43.945,-40.527,-52.246,-30.762,0.000
1709299669.033,-42.969,-43.457,-34.668,-39.062,0.000
1709299669.038,-41.016,-38.086,-31.738,-53.711,0.000
1709299669.042,-44.922,-31.250,-32.715,-51.270,0.000
1709299669.046,-50.293,-29.785,-33.691,-48.828,0.000
1709299669.049,-49.316,-26.855,-35.156,-47.852,0.000
1709299669.053,-36.133,-25.879,-41.992,-47.852,0.000
1709299669.057,-33.691,-29.785,-41.016,-56.152,0.000
1709299669.061,-57.129,-41.504,-30.762,-61.035,0.000
1709299669.065,-66.406,-48.340,-30.762,-48.828,0.000
1709299669.069,-52.246,-47.363,-39.062,-47.852,0.000
1709299669.073,-45.410,-35.645,-47.363,-35.156,0.000
1709299669.077,-47.852,-29.785,-50.781,-29.297,0.000
1709299669.081,-46.875,-32.227,-48.340,-40.039,0.000
1709299669.085,-39.062,-30.762,-36.133,-32.227,0.000
1709299669.089,-30.273,-34.668,-33.691,-33.691,0.000
1709299669.093,-33.203,-40.039,-33.691,-41.504,0.000
1709299669.097,-40.039,-29.297,-33.203,-41.016,0.000
1709299669.100,-46.387,-23.926,-37.598,-43.457,0.000
1709299669.104,-41.992,-30.273,-34.668,-44.434,0.000
1709299669.108,-40.527,-34.180,-38.086,-35.156,0.000
1709299669.112,-44.434,-33.691,-42.480,-30.273,0.000
1709299669.116,-39.062,-29.785,-38.574,-27.832,0.000
1709299669.120,-40.039,-30.273,-36.621,-18.555,0.000
1709299669.124,-49.316,-33.691,-38.574,-28.809,0.000
1709299669.128,-46.875,-43.945,-41.016,-34.180,0.000
1709299669.132,-35.156,-57.617,-38.086,-30.273,0.000
1709299669.136,-45.410,-46.387,-34.668,-43.457,0.000
1709299669.140,-62.500,-26.855,-35.645,-53.711,0.000
1709299669.144,-58.105,-31.738,-39.551,-55.664,0.000
1709299669.147,-48.340,-36.621,-43.945,-50.781,0.000
1709299669.151,-44.434,-28.320,-36.621,-30.273,0.000
1709299669.155,-50.293,-43.457,-30.273,-29.297,0.000
1709299669.159,-50.293,-50.293,-34.668,-41.504,0.000
1709299669.163,-50.781,-28.809,-40.039,-32.715,0.000
1709299669.167,-56.641,-28.320,-31.738,-32.227,0.000
1709299669.171,-54.199,-39.551,-28.320,-37.598,0.000
1709299669.175,-52.246,-40.039,-30.273,-33.203,0.000
1709299669.179,-52.734,-37.109,-33.691,-46.387,0.000
1709299669.183,-53.711,-39.062,-50.293,-54.688,0.000
1709299669.186,-49.316,-43.945,-45.898,-36.621,0.000
1709299669.190,-44.434,-40.527,-29.297,-22.461,0.000
1709299669.194,-43.945,-36.621,-29.297,-28.320,0.000
1709299669.198,-42.480,-40.039,-36.133,-30.762,0.000
1709299669.202,-46.875,-41.992,-35.645,-30.762,0.000
1709299669.206,-52.734,-45.410,-35.156,-39.062,0.000
1709299669.210,-49.316,-43.457,-33.203,-38.574,0.000
1709299669.214,-42.969,-33.203,-34.180,-43.945,0.000
1709299669.218,-46.875,-35.645,-41.992,-53.223,0.000
1709299669.222,-46.387,-33.691,-42.480,-50.781,0.000
1709299669.225,-36.621,-36.621,-35.645,-41.992,0.000
1709299669.229,-39.062,-57.617,-41.504,-49.805,0.000
1709299669.233,-47.852,-59.082,-44.922,-55.176,0.000
1709299669.237,-50.781,-44.434,-42.969,-50.293,0.000
1709299669.241,-50.781,-33.203,-45.898,-50.781,0.000
1709299669.245,-45.410,-32.227,-36.621,-46.875,0.000
1709299669.249,-42.480,-31.738,-29.785,-35.645,0.000
1709299669.253,-42.480,-32.715,-37.109,-29.297,0.000
1709299669.257,-39.062,-41.016,-37.109,-31.250,0.000
1709299669.261,-36.621,-42.969,-39.062,-38.086,0.000
1709299669.265,-42.969,-44.922,-36.621,-44.434,0.000
1709299669.268,-45.410,-40.527,-28.809,-45.410,0.000
1709299669.272,-45.898,-32.227,-27.344,-36.133,0.000
1709299669.276,-50.781,-28.320,-32.715,-41.016,0.000
1709299669.280,-48.340,-29.297,-33.203,-44.922,0.000
1709299669.284,-49.805,-35.645,-28.320,-45.898,0.000
1709299669.288,-56.152,-34.668,-32.715,-46.875,0.000
1709299669.292,-47.852,-29.785,-35.645,-39.551,0.000
1709299669.296,-39.551,-35.645,-27.832,-26.855,0.000
1709299669.299,-46.387,-42.480,-31.738,-24.414,0.000
1709299669.303,-52.734,-33.691,-45.410,-39.551,0.000
1709299669.307,-54.199,-23.926,-40.527,-43.945,0.000
1709299669.311,-47.852,-26.367,-41.016,-36.133,0.000
1709299669.315,-42.480,-31.250,-37.598,-37.598,0.000
1709299669.319,-42.480,-43.457,-33.691,-48.340,0.000
1709299669.323,-44.434,-51.758,-45.898,-42.969,0.000
1709299669.327,-42.480,-39.551,-46.387,-39.551,0.000
1709299669.330,-44.922,-40.527,-46.875,-39.551,0.000
1709299669.334,-43.457,-44.922,-39.062,-39.062,0.000
1709299669.338,-44.434,-39.551,-33.691,-56.152,0.000
1709299669.342,-50.781,-41.504,-39.551,-57.617,0.000
1709299669.346,-52.734,-42.480,-41.016,-57.129,0.000
1709299669.350,-47.363,-43.945,-25.879,-52.246,0.000
1709299669.354,-43.945,-47.363,-29.297,-47.363,0.000
1709299669.358,-43.945,-44.434,-36.621,-54.199,0.000
1709299669.362,-45.410,-40.039,-27.344,-52.246,0.000
1709299669.365,-51.270,-39.551,-42.480,-50.293,0.000
1709299669.369,-48.828,-41.016,-46.875,-43.457,0.000
1709299669.373,-46.875,-43.945,-37.598,-40.527,0.000
1709299669.377,-53.223,-39.062,-35.156,-48.828,0.000
1709299669.381,-56.641,-41.016,-28.809,-46.387,0.000
1709299669.385,-52.246,-49.316,-26.855,-43.945,0.000
1709299669.389,-45.410,-41.504,-33.203,-41.504,0.000
1709299669.393,-41.992,-34.180,-35.156,-37.598,0.000
1709299669.396,-47.363,-35.645,-37.598,-38.574,0.000
1709299669.400,-52.734,-43.457,-37.598,-49.316,0.000
1709299669.404,-53.223,-50.293,-34.180,-48.828,0.000
1709299669.408,-57.617,-49.316,-35.156,-44.922,0.000
1709299669.412,-60.547,-52.734,-35.156,-42.480,0.000
1709299669.416,-64.453,-53.711,-41.992,-38.086,0.000
1709299669.420,-63.965,-45.410,-42.969,-44.922,0.000
1709299669.424,-65.430,-41.992,-39.551,-56.641,0.000
1709299669.428,-62.988,-37.598,-39.551,-46.387,0.000
1709299669.432,-54.199,-39.551,-43.945,-34.668,0.000
1709299669.436,-57.129,-50.293,-46.875,-40.527,0.000
1709299669.440,-62.988,-46.875,-40.527,-50.781,0.000
1709299669.444,-60.059,-41.504,-40.039,-43.457,0.000
1709299669.448,-56.641,-41.016,-47.852,-31.738,0.000
1709299669.451,-56.152,-41.016,-42.480,-31.738,0.000
1709299669.455,-53.223,-40.527,-32.227,-34.180,0.000
1709299669.460,-54.199,-35.645,-27.832,-33.203,0.000
1709299669.463,-54.688,-41.992,-39.062,-39.062,0.000
1709299669.467,-50.781,-40.039,-42.480,-47.363,0.000
1709299669.471,-47.852,-43.945,-36.621,-41.016,0.000
1709299669.475,-45.898,-59.082,-44.922,-46.875,0.000
1709299669.479,-44.434,-48.340,-41.992,-47.852,0.000
1709299669.483,-39.551,-38.574,-35.156,-39.551,0.000
1709299669.487,-38.086,-38.574,-42.969,-31.738,0.000
1709299669.491,-44.922,-35.156,-35.645,-31.250,0.000
1709299669.495,-38.086,-34.668,-30.273,-44.434,0.000
1709299669.499,-31.250,-35.645,-35.156,-55.664,0.000
1709299669.503,-37.598,-24.414,-27.832,-43.945,0.000
1709299669.507,-39.551,-19.531,-31.250,-32.227,0.000
1709299669.510,-44.922,-29.297,-38.086,-38.086,0.000
1709299669.514,-40.527,-30.762,-36.621,-36.621,0.000
1709299669.518,-44.922,-39.062,-40.039,-41.504,0.000
1709299669.522,-56.152,-37.598,-33.203,-43.457,0.000
1709299669.526,-52.246,-31.738,-26.855,-35.645,0.000
1709299669.530,-44.434,-28.320,-30.762,-24.414,0.000
1709299669.534,-32.715,-30.762,-29.297,-10.742,0.000
1709299669.538,-24.902,-41.016,-20.508,-4.883,0.000
1709299669.542,-29.297,-36.621,-29.297,-12.207,0.000
1709299669.546,-39.062,-40.039,-42.969,-25.879,0.000
1709299669.550,-35.156,-42.969,-31.738,-23.438,0.000
1709299669.553,-30.273,-26.855,-32.715,-22.461,0.000
1709299669.557,-37.109,-19.531,-38.574,-28.320,0.000
1709299669.561,-42.969,-25.879,-40.039,-32.715,0.000
1709299669.565,-41.992,-28.809,-43.945,-32.227,0.000
1709299669.569,-35.156,-29.297,-27.832,-18.555,0.000
1709299669.573,-32.227,-40.039,-21.973,-9.766,0.000
1709299669.577,-40.527,-46.875,-32.227,-23.438,0.000
1709299669.581,-46.387,-43.945,-33.203,-36.133,0.000
1709299669.585,-40.039,-44.922,-29.297,-26.367,0.000
1709299669.589,-39.551,-41.504,-34.180,-28.320,0.000
1709299669.592,-45.898,-33.691,-31.738,-37.598,0.000
1709299669.596,-51.270,-32.227,-29.297,-45.410,0.000
1709299669.600,-49.316,-29.297,-38.086,-57.129,0.000
1709299669.604,-52.734,-27.832,-39.062,-59.082,0.000
1709299669.608,-56.641,-28.320,-38.574,-42.480,0.000
1709299669.612,-52.246,-35.156,-45.898,-36.133,0.000
1709299669.616,-45.898,-39.062,-40.527,-51.270,0.000
1709299669.620,-47.363,-31.738,-25.391,-58.594,0.000
1709299669.624,-50.781,-34.668,-27.344,-55.664,0.000
1709299669.628,-51.270,-49.316,-38.086,-45.410,0.000
1709299669.631,-43.457,-51.758,-47.852,-35.156,0.000
1709299669.635,-38.574,-40.527,-50.781,-43.457,0.000
1709299669.639,-41.992,-33.691,-32.227,-49.316,0.000
1709299669.643,-42.969,-35.156,-23.926,-50.293,0.000
1709299669.647,-47.363,-34.180,-28.320,-48.828,0.000
1709299669.651,-46.387,-29.785,-28.809,-39.062,0.000
1709299669.655,-45.898,-36.621,-26.855,-31.250,0.000
1709299669.659,-51.758,-42.480,-32.227,-29.785,0.000
1709299669.662,-57.617,-39.551,-36.621,-31.738,0.000
1709299669.666,-60.547,-31.738,-39.062,-35.645,0.000
1709299669.670,-58.594,-34.180,-41.016,-24.414,0.000
1709299669.674,-56.641,-45.898,-32.715,-10.254,0.000
1709299669.678,-62.012,-43.945,-38.574,-35.156,0.000
1709299669.682,-67.383,-31.738,-42.969,-46.387,0.000
1709299669.686,-64.941,-31.738,-31.250,-21.973,0.000
1709299669.690,-59.082,-31.250,-33.691,-21.484,0.000
1709299669.693,-49.316,-26.367,-34.180,-36.133,0.000
1709299669.697,-53.223,-31.250,-33.203,-36.621,0.000
1709299669.701,-63.477,-34.668,-37.598,-41.992,0.000
1709299669.705,-62.988,-35.645,-44.434,-48.340,0.000
1709299669.709,-61.523,-40.039,-50.781,-40.527,0.000
1709299669.713,-55.176,-43.457,-42.969,-47.852,0.000
1709299669.717,-60.059,-45.898,-40.039,-59.082,0.000
1709299669.721,-65.918,-44.922,-48.340,-60.547,0.000
1709299669.725,-59.082,-42.969,-45.898,-73.730,0.000
1709299669.729,-54.199,-41.016,-31.738,-62.988,0.000
1709299669.733,-47.363,-26.367,-32.715,-50.293,0.000
1709299669.736,-51.758,-20.996,-47.852,-62.988,0.000
1709299669.740,-61.523,-27.344,-45.898,-66.406,0.000
1709299669.744,-50.293,-33.203,-33.691,-58.594,0.000
1709299669.748,-32.227,-35.156,-34.180,-49.316,0.000
1709299669.752,-32.227,-45.410,-31.250,-34.668,0.000
1709299669.756,-41.992,-45.898,-28.809,-38.086,0.000
1709299669.759,-43.945,-29.785,-30.273,-52.246,0.000
1709299669.763,-42.480,-25.879,-30.762,-56.641,0.000
1709299669.767,-37.109,-24.902,-32.715,-47.363,0.000
1709299669.771,-34.180,-32.715,-28.320,-28.320,0.000
1709299669.775,-41.016,-43.945,-34.668,-24.414,0.000
1709299669.779,-49.316,-42.969,-39.062,-31.738,0.000
1709299669.783,-46.387,-40.039,-33.203,-32.715,0.000
1709299669.787,-35.156,-41.016,-30.762,-21.973,0.000
1709299669.791,-40.527,-44.434,-30.273,-13.184,0.000
1709299669.795,-48.828,-44.434,-31.250,-13.184,0.000
1709299669.799,-45.898,-42.480,-28.320,-14.160,0.000
1709299669.803,-44.434,-43.457,-29.785,-18.555,0.000
1709299669.807,-41.992,-51.758,-25.391,-11.230,0.000
1709299669.811,-47.852,-52.246,-26.367,-3.906,0.000
1709299669.815,-48.828,-42.969,-30.273,-20.020,0.000
1709299669.818,-48.828,-48.340,-28.320,-28.320,0.000
1709299669.822,-56.641,-46.875,-45.410,-20.508,0.000
1709299669.826,-66.895,-38.086,-41.504,-31.738,0.000
1709299669.830,-65.430,-41.016,-13.184,-41.992,0.000
1709299669.835,-56.641,-49.316,-24.414,-33.203,0.000
1709299669.839,-55.176,-47.852,-36.621,-40.039,0.000
1709299669.843,-57.617,-42.480,-30.273,-49.805,0.000
1709299669.847,-58.105,-38.574,-34.180,-40.527,0.000
1709299669.850,-50.293,-34.668,-35.156,-35.645,0.000
1709299669.854,-48.340,-56.152,-32.227,-40.039,0.000
1709299669.858,-48.340,-62.988,-34.180,-46.387,0.000
1709299669.862,-47.363,-42.969,-45.410,-53.711,0.000
1709299669.866,-51.270,-45.410,-44.434,-49.316,0.000
1709299669.870,-50.781,-46.387,-31.250,-51.758,0.000
1709299669.874,-54.199,-38.574,-36.621,-59.082,0.000
1709299669.878,-58.105,-34.668,-38.086,-54.688,0.000
1709299669.882,-58.594,-42.969,-37.598,-51.758,0.000
1709299669.886,-56.641,-47.852,-45.410,-47.852,0.000
1709299669.890,-57.129,-39.062,-41.504,-48.340,0.000
1709299669.894,-50.293,-36.621,-36.133,-39.062,0.000
1709299669.897,-51.758,-41.504,-41.016,-39.551,0.000
1709299669.901,-62.012,-42.969,-48.340,-53.711,0.000
1709299669.905,-57.617,-36.621,-44.434,-54.688,0.000
1709299669.909,-47.363,-39.062,-32.715,-45.898,0.000
1709299669.913,-45.410,-40.527,-24.414,-22.949,0.000
1709299669.917,-54.199,-27.344,-41.016,-30.273,0.000
1709299669.921,-57.129,-30.273,-43.457,-46.387,0.000
1709299669.925,-56.152,-40.527,-30.762,-37.109,0.000
1709299669.929,-52.246,-31.738,-30.762,-34.668,0.000
1709299669.933,-49.805,-27.832,-38.086,-31.250,0.000
1709299669.936,-47.363,-27.832,-46.875,-31.738,0.000
1709299669.940,-54.199,-24.902,-41.504,-39.551,0.000
1709299669.944,-62.012,-28.320,-29.297,-41.504,0.000
1709299669.948,-59.082,-30.762,-25.879,-35.645,0.000
1709299669.952,-59.570,-30.273,-33.203,-37.598,0.000
1709299669.956,-60.547,-43.945,-35.156,-40.527,0.000
1709299669.960,-51.758,-56.152,-36.133,-39.062,0.000
1709299669.964,-49.316,-42.969,-40.527,-41.992,0.000
1709299669.968,-52.246,-31.738,-32.715,-40.039,0.000
1709299669.972,-49.316,-30.273,-27.344,-31.738,0.000
1709299669.975,-54.199,-31.250,-30.273,-41.016,0.000
1709299669.979,-56.641,-33.691,-36.621,-57.617,0.000
1709299669.983,-55.664,-32.227,-30.273,-46.387,0.000
1709299669.987,-55.176,-29.785,-24.902,-30.762,0.000
1709299669.991,-51.270,-31.250,-32.227,-28.320,0.000
1709299669.995,-49.316,-36.621,-36.621,-34.668,0.000
1709299669.999,-49.805,-44.434,-34.668,-41.504,0.000
1709299670.003,-47.852,-43.457,-35.156,-39.551,0.000
1709299670.007,-43.457,-36.621,-35.156,-33.203,0.000
1709299670.011,-37.109,-38.086,-34.180,-29.785,0.000
1709299670.014,-28.320,-40.039,-33.203,-25.879,0.000
1709299670.018,-33.203,-42.480,-39.551,-30.273,0.000
1709299670.022,-38.086,-42.480,-40.527,-40.039,0.000
1709299670.026,-35.645,-40.527,-31.738,-37.598,0.000
1709299670.030,-35.156,-39.062,-31.250,-25.391,0.000
1709299670.034,-38.086,-37.109,-33.203,-18.066,0.000
1709299670.038,-44.922,-37.109,-37.598,-23.926,0.000
1709299670.042,-48.340,-41.992,-33.203,-40.039,0.000
1709299670.045,-47.852,-48.340,-28.320,-38.574,0.000
1709299670.049,-45.410,-38.574,-33.203,-24.902,0.000
1709299670.053,-42.480,-39.551,-31.250,-20.508,0.000
1709299670.057,-41.992,-53.223,-32.715,-31.738,0.000
1709299670.061,-50.781,-47.852,-31.250,-36.133,0.000
1709299670.065,-62.012,-41.992,-34.668,-40.039,0.000
1709299670.069,-56.641,-46.387,-38.086,-45.410,0.000
1709299670.073,-57.617,-42.480,-34.668,-37.598,0.000
1709299670.076,-69.336,-28.320,-37.598,-41.016,0.000
1709299670.080,-71.777,-28.809,-30.273,-44.922,0.000
1709299670.084,-63.965,-31.250,-30.273,-41.504,0.000
1709299670.088,-64.941,-35.156,-34.668,-46.387,0.000
1709299670.092,-68.359,-41.992,-37.109,-42.480,0.000
1709299670.096,-62.500,-41.016,-42.480,-40.527,0.000
1709299670.100,-58.105,-38.574,-41.016,-45.898,0.000
1709299670.104,-62.500,-43.945,-32.227,-47.852,0.000
1709299670.108,-62.500,-48.828,-35.156,-47.363,0.000
1709299670.112,-45.898,-40.527,-41.504,-39.551,0.000
1709299670.116,-40.039,-27.344,-44.922,-40.527,0.000
1709299670.120,-40.527,-27.344,-50.293,-31.250,0.000
1709299670.124,-39.551,-36.133,-38.574,-34.180,0.000
1709299670.128,-44.434,-37.598,-29.785,-41.992,0.000
1709299670.132,-44.434,-38.086,-37.598,-32.227,0.000
1709299670.136,-39.551,-37.109,-36.133,-26.855,0.000
1709299670.139,-41.992,-33.691,-34.180,-41.016,0.000
1709299670.143,-47.852,-41.992,-45.410,-52.246,0.000
1709299670.147,-44.434,-46.387,-39.062,-45.898,0.000
1709299670.151,-48.340,-41.504,-38.086,-48.340,0.000
1709299670.155,-47.852,-38.574,-40.527,-45.898,0.000
1709299670.159,-41.992,-41.992,-38.086,-46.875,0.000
1709299670.164,0.000,-38.086,-35.156,-50.293,0.000
1709299670.168,0.000,-33.691,-31.250,-44.922,0.000
1709299670.172,0.000,-44.434,-36.621,-36.133,0.000
1709299670.176,0.000,-40.527,-37.598,-32.715,0.000
1709299670.180,0.000,-27.344,-19.531,-33.691,0.000
1709299670.183,0.000,-35.156,-21.484,-38.574,0.000
1709299670.187,0.000,-42.969,-37.109,-39.551,0.000
1709299670.191,0.000,-39.062,-45.898,-41.016,0.000
1709299670.195,0.000,-37.109,-44.434,-42.480,0.000
1709299670.199,0.000,-39.551,-37.109,-39.062,0.000
1709299670.203,0.000,-34.180,-32.715,-39.062,0.000
1709299670.207,0.000,-36.133,-33.691,-39.551,0.000
1709299670.211,-60.059,-50.293,-33.203,-38.574,0.000
1709299670.215,-59.570,-48.828,-24.902,-35.645,0.000
1709299670.219,-60.059,-40.527,-21.484,-30.762,0.000
1709299670.223,-58.105,-43.945,-21.973,-32.715,0.000
1709299670.227,-56.641,-42.969,-26.855,-33.691,0.000
1709299670.231,-49.316,-44.922,-31.250,-25.391,0.000
1709299670.234,-47.852,-48.340,-33.203,-21.484,0.000
1709299670.238,-46.387,-35.645,-34.180,-34.668,0.000
1709299670.242,-41.992,-31.250,-40.039,-37.109,0.000
1709299670.246,-40.039,-47.363,-41.504,-31.738,0.000
1709299670.250,-35.645,-41.016,-33.691,-32.715,0.000
1709299670.254,-37.109,-30.762,-34.668,-34.668,0.000
1709299670.258,-34.668,-28.809,-33.203,-23.438,0.000
1709299670.262,-33.203,-40.039,-47.852,-25.391,0.000
1709299670.266,-30.273,-45.410,-53.711,-44.434,0.000
1709299670.270,-21.484,-32.227,-32.715,-41.016,0.000
1709299670.274,-24.902,-26.367,-27.832,-32.227,0.000
1709299670.277,-32.715,-20.996,-28.809,-27.344,0.000
1709299670.281,-31.738,-19.043,-30.273,-25.879,0.000
1709299670.285,-27.832,-31.250,-35.156,-31.250,0.000
1709299670.289,-35.645,-41.504,-41.992,-28.320,0.000
1709299670.293,-46.875,-34.668,-42.480,-26.367,0.000
1709299670.297,-50.781,-24.902,-47.852,-29.785,0.000
1709299670.301,-54.199,-24.902,-51.758,-35.645,0.000
1709299670.305,-49.805,-24.414,-34.668,-38.086,0.000
1709299670.309,-50.781,-28.809,-27.832,-35.156,0.000
1709299670.312,-57.129,-31.250,-28.809,-21.484,0.000
1709299670.316,-62.500,-37.598,-31.738,-31.250,0.000
1709299670.320,-66.895,-41.504,-31.738,-54.199,0.000
1709299670.324,-65.918,-31.738,-37.598,-57.617,0.000
1709299670.328,-60.547,-35.156,-40.527,-56.641,0.000
1709299670.332,-56.152,-45.898,-29.785,-33.691,0.000
1709299670.336,-62.988,-36.621,-35.645,-29.297,0.000
1709299670.340,-68.359,-15.625,-44.434,-44.922,0.000
1709299670.344,-62.500,-14.160,-42.969,-40.039,0.000
1709299670.348,-56.641,-21.973,-34.668,-39.551,0.000
1709299670.351,-56.641,-26.855,-31.738,-38.086,0.000
1709299670.355,-60.547,-42.480,-39.062,-39.551,0.000
1709299670.359,-67.383,-41.504,-44.434,-47.363,0.000
1709299670.363,-66.895,-27.832,-44.434,-51.758,0.000
1709299670.367,-60.059,-31.738,-38.574,-45.898,0.000
1709299670.371,-50.781,-34.180,-41.016,-28.320,0.000
1709299670.375,-43.457,-41.992,-44.434,-15.625,0.000
1709299670.379,-50.293,-47.852,-39.551,-26.855,0.000
1709299670.383,-54.688,-42.969,-44.922,-46.387,0.000
1709299670.387,-57.129,-41.504,-49.316,-49.316,0.000
1709299670.390,-55.176,-43.945,-36.621,-37.598,0.000
1709299670.394,-50.293,-36.133,-36.133,-24.902,0.000
