timestamps,TP9,AF7,AF8,TP10,Right AUX
1709200863.762,-33.203,-30.762,-45.410,-27.832,0.000
1709200863.766,-34.180,-35.156,-49.316,-20.508,0.000
1709200863.769,-28.809,-33.203,-41.992,-23.926,0.000
1709200863.773,-24.902,-40.527,-36.133,-35.156,0.000
1709200863.777,-31.738,-54.199,-46.875,-47.363,0.000
1709200863.781,-34.668,-60.547,-44.922,-48.828,0.000
1709200863.785,-36.621,-53.223,-37.109,-38.574,0.000
1709200863.789,-34.180,-34.180,-37.109,-40.039,0.000
1709200863.793,-35.156,-35.156,-41.016,-46.387,0.000
1709200863.797,-50.781,-48.340,-45.410,-51.270,0.000
1709200863.801,-57.129,-51.758,-41.992,-49.316,0.000
1709200863.805,-49.805,-41.016,-39.551,-42.969,0.000
1709200863.809,-46.875,-46.875,-40.039,-38.086,0.000
1709200863.812,-30.762,-59.570,-37.109,-32.227,0.000
1709200863.816,-31.738,-45.898,-40.039,-42.480,0.000
1709200863.820,-48.828,-30.762,-44.434,-43.457,0.000
1709200863.824,-41.992,-31.250,-44.922,-32.715,0.000
1709200863.828,-25.879,-30.762,-41.016,-26.367,0.000
1709200863.832,-16.602,-27.832,-49.316,-16.602,0.000
1709200863.836,-20.996,-28.809,-62.012,-20.996,0.000
1709200863.840,-22.949,-30.273,-43.457,-29.785,0.000
1709200863.844,-21.484,-32.715,-32.715,-24.414,0.000
1709200863.848,-23.438,-36.621,-42.969,-27.344,0.000
1709200863.851,-18.555,-36.621,-46.387,-31.250,0.000
1709200863.855,-18.555,-35.156,-48.340,-32.227,0.000
1709200863.859,-21.484,-31.250,-44.922,-35.156,0.000
1709200863.863,-28.320,-31.738,-39.551,-36.133,0.000
1709200863.867,-27.344,-37.109,-41.992,-36.133,0.000
1709200863.871,-21.973,-41.016,-41.016,-29.785,0.000
1709200863.875,-21.484,-39.551,-32.227,-27.344,0.000
1709200863.879,-25.391,-42.969,-31.250,-33.203,0.000
1709200863.883,-33.203,-39.551,-32.227,-35.156,0.000
1709200863.887,-31.738,-39.551,-32.227,-27.832,0.000
1709200863.891,-25.879,-43.945,-32.715,-17.090,0.000
1709200863.894,-21.484,-30.273,-28.320,-21.973,0.000
1709200863.898,-27.832,-34.180,-34.668,-32.227,0.000
1709200863.902,-32.715,-41.504,-40.527,-27.344,0.000
1709200863.906,-36.621,-39.551,-31.250,-28.320,0.000
1709200863.910,-36.133,-36.621,-36.621,-33.691,0.000
1709200863.914,-33.203,-44.434,-47.363,-32.227,0.000
1709200863.918,-37.109,-50.293,-36.133,-27.832,0.000
1709200863.922,-39.062,-42.480,-29.297,-24.414,0.000
1709200863.926,-43.457,-30.762,-33.691,-28.809,0.000
1709200863.930,-30.273,-26.367,-28.809,-21.484,0.000
1709200863.934,-25.879,-36.621,-31.738,-9.277,0.000
1709200863.937,-39.551,-33.691,-41.504,-16.602,0.000
1709200863.941,-44.434,-34.668,-40.039,-28.809,0.000
1709200863.945,-44.434,-49.316,-37.598,-19.531,0.000
1709200863.949,-41.016,-32.715,-39.062,-15.137,0.000
1709200863.953,-28.809,-20.508,-32.715,-18.066,0.000
1709200863.957,-28.809,-29.785,-34.668,-20.508,0.000
1709200863.961,-34.180,-51.758,-37.109,-17.578,0.000
1709200863.965,-28.320,-52.246,-35.156,-17.578,0.000
1709200863.969,-20.020,-22.949,-36.133,-24.902,0.000
1709200863.973,-26.855,-23.438,-32.227,-35.645,0.000
1709200863.976,-31.250,-39.551,-24.902,-29.297,0.000
1709200863.980,-39.062,-48.340,-31.738,-30.762,0.000
1709200863.984,-45.410,-40.527,-38.574,-49.805,0.000
1709200863.988,-43.457,-36.621,-44.922,-51.758,0.000
1709200863.992,-39.062,-45.410,-40.039,-51.270,0.000
1709200863.996,-37.109,-47.852,-24.414,-52.246,0.000
1709200864.000,-49.316,-43.945,-32.715,-56.641,0.000
1709200864.004,-48.828,-46.875,-38.086,-58.594,0.000
1709200864.008,-38.574,-45.898,-30.762,-42.480,0.000
1709200864.012,-32.715,-35.645,-35.645,-32.715,0.000
1709200864.016,-33.691,-40.527,-46.875,-43.945,0.000
1709200864.019,-40.039,-46.387,-41.016,-50.293,0.000
1709200864.023,-41.504,-46.387,-36.133,-31.250,0.000
1709200864.027,-33.203,-37.109,-40.527,-20.996,0.000
1709200864.031,-27.832,-22.461,-41.992,-30.762,0.000
1709200864.035,-26.367,-38.574,-38.086,-29.785,0.000
1709200864.039,-31.738,-55.176,-31.250,-22.949,0.000
1709200864.043,-35.156,-41.992,-38.574,-29.297,0.000
1709200864.047,-40.039,-31.738,-50.293,-37.109,0.000
1709200864.051,-35.645,-35.156,-50.293,-35.156,0.000
1709200864.055,-26.367,-35.156,-42.969,-37.109,0.000
1709200864.059,-36.133,-30.273,-44.434,-35.156,0.000
1709200864.062,-42.480,-28.809,-62.012,-27.832,0.000
1709200864.066,-39.551,-31.250,-66.406,-27.832,0.000
1709200864.070,-29.785,-34.668,-52.734,-25.879,0.000
1709200864.074,-23.438,-20.996,-41.504,-27.344,0.000
1709200864.078,-29.297,-21.484,-37.109,-29.297,0.000
1709200864.082,-37.598,-30.762,-40.039,-30.762,0.000
1709200864.086,-37.598,-31.250,-42.969,-32.715,0.000
1709200864.090,-34.668,-29.297,-47.852,-29.297,0.000
1709200864.094,-36.133,-30.762,-48.340,-33.691,0.000
1709200864.098,-45.898,-44.922,-41.016,-33.691,0.000
1709200864.101,-59.570,-46.387,-39.062,-34.668,0.000
1709200864.105,-55.664,-39.062,-38.086,-35.645,0.000
1709200864.109,-52.734,-42.969,-36.133,-38.574,0.000
1709200864.113,-44.922,-41.992,-37.109,-37.109,0.000
1709200864.117,-44.434,-33.203,-33.691,-36.133,0.000
1709200864.121,-64.941,-35.156,-39.062,-55.176,0.000
1709200864.125,-66.895,-45.410,-45.410,-63.965,0.000
1709200864.129,-57.129,-42.480,-35.645,-55.664,0.000
1709200864.133,-52.734,-41.992,-30.762,-51.758,0.000
1709200864.137,-51.758,-40.527,-37.598,-55.176,0.000
1709200864.141,-62.012,-45.410,-39.062,-67.383,0.000
1709200864.144,-66.406,-51.270,-32.715,-71.289,0.000
1709200864.148,-58.105,-36.621,-35.645,-58.105,0.000
1709200864.152,-46.387,-31.738,-32.227,-49.316,0.000
1709200864.156,-41.504,-46.387,-24.902,-50.293,0.000
1709200864.160,-47.363,-48.340,-32.227,-46.875,0.000
1709200864.164,-49.316,-32.227,-38.574,-43.945,0.000
1709200864.168,-49.316,-34.180,-49.805,-36.621,0.000
1709200864.172,-42.969,-41.992,-49.805,-26.855,0.000
1709200864.176,-36.133,-34.668,-41.992,-29.297,0.000
1709200864.180,-41.992,-29.785,-44.922,-38.086,0.000
1709200864.184,-43.457,-32.227,-38.086,-35.645,0.000
1709200864.187,-39.062,-38.574,-31.738,-26.855,0.000
1709200864.191,-31.250,-44.434,-26.367,-21.484,0.000
1709200864.195,-29.297,-44.922,-22.461,-18.066,0.000
1709200864.199,-42.480,-47.363,-24.414,-26.367,0.000
1709200864.203,-56.641,-47.363,-31.250,-32.715,0.000
1709200864.207,-54.199,-39.062,-38.574,-30.762,0.000
1709200864.211,-43.945,-36.621,-29.785,-31.250,0.000
1709200864.215,-40.039,-41.504,-20.996,-33.203,0.000
1709200864.219,-53.223,-42.969,-35.645,-41.992,0.000
1709200864.223,-60.059,-37.109,-41.992,-48.340,0.000
1709200864.226,-53.223,-45.410,-31.250,-47.363,0.000
1709200864.230,-48.340,-59.082,-33.691,-45.410,0.000
1709200864.234,-48.828,-61.523,-44.922,-48.828,0.000
1709200864.238,-52.246,-59.570,-41.504,-57.129,0.000
1709200864.242,-47.852,-45.410,-35.156,-56.641,0.000
1709200864.246,-46.387,-47.363,-30.273,-57.129,0.000
1709200864.250,-41.504,-47.852,-29.297,-52.246,0.000
1709200864.254,-33.203,-38.086,-29.785,-44.922,0.000
1709200864.258,-34.668,-41.504,-27.344,-52.246,0.000
1709200864.262,-37.109,-45.410,-29.785,-54.688,0.000
1709200864.266,-38.574,-48.340,-27.832,-52.246,0.000
1709200864.269,-26.367,-35.156,-23.438,-48.828,0.000
1709200864.273,-18.066,-27.832,-28.809,-46.875,0.000
1709200864.277,-27.832,-45.898,-38.086,-54.688,0.000
1709200864.281,-34.180,-40.527,-35.156,-51.270,0.000
1709200864.285,-48.340,-20.508,-39.551,-51.758,0.000
1709200864.289,-46.387,-29.297,-40.039,-51.758,0.000
1709200864.293,-36.621,-41.016,-45.898,-54.199,0.000
1709200864.297,-42.480,-42.480,-47.852,-62.012,0.000
1709200864.301,-52.734,-34.180,-32.715,-58.594,0.000
1709200864.305,-57.617,-30.273,-28.809,-55.664,0.000
1709200864.309,-50.293,-48.828,-34.668,-39.551,0.000
1709200864.312,-39.062,-47.363,-41.504,-34.668,0.000
1709200864.316,-31.738,-30.762,-35.645,-43.457,0.000
1709200864.320,-41.016,-38.086,-33.691,-42.969,0.000
1709200864.324,-43.457,-42.480,-39.551,-43.945,0.000
1709200864.328,-33.203,-40.039,-37.109,-36.133,0.000
1709200864.332,-30.273,-34.180,-35.156,-28.320,0.000
1709200864.336,-28.809,-46.875,-30.273,-31.738,0.000
1709200864.340,-35.645,-53.223,-31.250,-35.645,0.000
1709200864.344,-41.504,-41.504,-34.668,-30.762,0.000
1709200864.348,-39.551,-43.945,-37.598,-35.645,0.000
1709200864.352,-34.180,-45.898,-34.180,-34.668,0.000
1709200864.355,-36.621,-43.457,-33.691,-24.902,0.000
1709200864.359,-45.898,-46.875,-43.457,-37.109,0.000
1709200864.363,-52.734,-54.688,-45.410,-47.363,0.000
1709200864.367,-48.828,-51.758,-36.133,-41.016,0.000
1709200864.371,-37.598,-43.457,-33.203,-33.691,0.000
1709200864.375,-36.621,-36.133,-32.227,-36.133,0.000
1709200864.379,-41.504,-43.457,-31.250,-36.133,0.000
1709200864.383,-46.875,-51.270,-37.598,-39.062,0.000
1709200864.387,-42.480,-51.758,-41.016,-39.062,0.000
1709200864.391,-39.551,-58.594,-38.086,-29.785,0.000
1709200864.394,-38.086,-42.969,-36.133,-37.109,0.000
1709200864.398,-36.133,-43.457,-36.133,-33.691,0.000
1709200864.402,-41.016,-46.875,-32.715,-28.320,0.000
1709200864.406,-46.875,-32.715,-29.297,-42.480,0.000
1709200864.410,-38.574,-38.574,-29.297,-35.645,0.000
1709200864.414,-38.574,-40.527,-29.785,-29.297,0.000
1709200864.418,-49.316,-42.480,-29.297,-33.203,0.000
1709200864.422,-52.246,-41.504,-28.809,-40.039,0.000
1709200864.426,-58.594,-42.969,-30.762,-43.945,0.000
1709200864.430,-58.105,-47.363,-28.809,-35.156,0.000
1709200864.434,-49.316,-48.340,-30.762,-25.879,0.000
1709200864.437,-53.711,-59.570,-33.203,-29.297,0.000
1709200864.441,-63.477,-67.383,-29.785,-36.133,0.000
1709200864.445,-58.105,-49.316,-27.832,-31.738,0.000
1709200864.449,-52.246,-30.762,-26.855,-33.691,0.000
1709200864.453,-48.828,-42.480,-37.598,-36.133,0.000
1709200864.457,-47.363,-52.734,-38.086,-27.344,0.000
1709200864.461,-54.199,-43.457,-30.762,-28.809,0.000
1709200864.465,-62.988,-39.062,-35.156,-36.133,0.000
1709200864.469,-57.129,-38.574,-37.109,-35.156,0.000
1709200864.473,-34.180,-42.969,-41.016,-28.809,0.000
1709200864.476,-25.391,-40.039,-38.086,-28.809,0.000
1709200864.480,-40.527,-40.527,-30.762,-43.457,0.000
1709200864.484,-48.340,-48.828,-26.855,-43.945,0.000
1709200864.488,-43.457,-64.453,-31.250,-25.879,0.000
1709200864.492,-35.156,-70.801,-29.297,-21.484,0.000
1709200864.496,-24.902,-61.035,-20.996,-31.738,0.000
1709200864.500,-34.180,-74.219,-20.020,-34.668,0.000
1709200864.504,-45.410,-89.844,-17.578,-21.973,0.000
1709200864.508,-29.297,-100.098,-15.625,-7.812,0.000
1709200864.512,-25.391,-98.633,-15.137,-9.766,0.000
1709200864.516,-33.203,-97.656,-16.602,-8.789,0.000
1709200864.519,-35.156,-106.934,-10.742,-1.465,0.000
1709200864.523,-42.969,-115.234,-10.742,4.395,0.000
1709200864.527,-48.340,-127.441,-19.531,5.859,0.000
1709200864.531,-41.016,-132.812,-14.648,17.090,0.000
1709200864.535,-31.250,-136.230,-9.766,37.109,0.000
1709200864.539,-30.762,-130.859,-6.836,34.180,0.000
1709200864.543,-38.086,-140.137,0.000,23.438,0.000
1709200864.547,-41.504,-149.902,3.418,25.391,0.000
1709200864.551,-41.016,-146.484,7.324,34.180,0.000
1709200864.555,-39.551,-144.531,2.930,36.621,0.000
1709200864.559,-42.480,-152.344,0.000,30.762,0.000
1709200864.562,-52.734,-167.969,7.812,20.996,0.000
1709200864.566,-53.223,-162.109,9.766,21.973,0.000
1709200864.570,-45.898,-151.855,5.859,29.785,0.000
1709200864.574,-40.039,-153.320,0.977,28.320,0.000
1709200864.578,-33.203,-159.668,0.000,32.227,0.000
1709200864.582,-39.062,-151.855,4.883,30.762,0.000
1709200864.586,-33.691,-132.324,8.301,35.645,0.000
1709200864.590,-21.973,-139.648,3.418,43.945,0.000
1709200864.594,-22.461,-153.320,-1.953,35.156,0.000
1709200864.598,-19.531,-141.602,-4.883,29.785,0.000
1709200864.601,-20.020,-138.184,-0.977,32.227,0.000
1709200864.605,-20.508,-141.602,-3.906,37.598,0.000
1709200864.609,-13.672,-137.207,-8.301,43.457,0.000
1709200864.613,-5.371,-127.441,-2.930,43.457,0.000
1709200864.617,-7.812,-125.000,-5.371,30.762,0.000
1709200864.621,-15.625,-126.953,-7.324,29.785,0.000
1709200864.625,-13.672,-120.605,-7.324,32.227,0.000
1709200864.629,-12.207,-112.305,-10.254,19.043,0.000
1709200864.633,-9.766,-107.910,-12.207,16.602,0.000
1709200864.637,-15.137,-118.652,-16.113,13.184,0.000
1709200864.641,-26.367,-121.582,-16.602,1.465,0.000
1709200864.644,-30.762,-106.934,-20.020,0.488,0.000
1709200864.648,-24.414,-99.121,-30.273,0.000,0.000
1709200864.652,-17.578,-104.004,-15.625,11.230,0.000
1709200864.656,-19.531,-101.074,-6.836,17.578,0.000
1709200864.660,-31.738,-86.426,-17.578,0.977,0.000
1709200864.664,-26.367,-86.426,-13.184,1.953,0.000
1709200864.668,-7.812,-88.379,-8.301,5.859,0.000
1709200864.672,-8.789,-86.426,-14.648,7.812,0.000
1709200864.676,-11.230,-75.684,-13.184,13.672,0.000
1709200864.680,-14.160,-68.848,-11.719,10.742,0.000
1709200864.684,-21.973,-76.660,-8.789,15.625,0.000
1709200864.687,-18.555,-71.289,-5.371,20.996,0.000
1709200864.691,-10.742,-61.523,-12.207,13.184,0.000
1709200864.695,-7.324,-69.824,-18.066,11.230,0.000
1709200864.699,-10.742,-64.453,-14.160,12.207,0.000
1709200864.703,-20.508,-59.570,-13.672,9.766,0.000
1709200864.707,-27.832,-60.547,-21.973,6.348,0.000
1709200864.711,-13.184,-59.082,-21.973,8.301,0.000
1709200864.715,-15.625,-62.500,-26.367,-2.441,0.000
1709200864.719,-29.785,-64.941,-28.320,-13.672,0.000
1709200864.723,-36.133,-64.941,-28.320,-20.020,0.000
1709200864.726,-49.805,-67.383,-33.691,-27.344,0.000
1709200864.730,-49.805,-66.406,-25.391,-16.602,0.000
1709200864.734,-39.062,-57.129,-23.926,-26.367,0.000
1709200864.738,-38.574,-57.129,-28.809,-44.434,0.000
1709200864.742,-50.781,-65.918,-39.062,-45.410,0.000
1709200864.746,-47.363,-63.965,-40.527,-41.016,0.000
1709200864.750,-32.715,-45.898,-23.438,-35.156,0.000
1709200864.754,-40.527,-47.363,-25.391,-40.039,0.000
1709200864.758,-47.852,-58.594,-27.832,-40.527,0.000
1709200864.762,-44.434,-53.223,-30.273,-36.621,0.000
1709200864.766,-44.922,-53.711,-38.086,-39.062,0.000
1709200864.769,-36.621,-50.781,-34.180,-33.691,0.000
1709200864.773,-24.414,-46.875,-32.715,-25.391,0.000
1709200864.777,-20.508,-41.992,-30.273,-24.414,0.000
1709200864.781,-30.273,-36.133,-28.809,-31.250,0.000
1709200864.785,-34.668,-45.410,-28.809,-36.133,0.000
1709200864.789,-26.855,-58.105,-29.785,-24.902,0.000
1709200864.793,-24.414,-49.316,-34.180,-26.855,0.000
1709200864.797,-24.902,-39.551,-37.598,-38.574,0.000
1709200864.801,-34.668,-51.270,-45.410,-37.598,0.000
1709200864.805,-37.598,-57.129,-43.945,-34.180,0.000
1709200864.809,-25.391,-41.992,-31.738,-26.855,0.000
1709200864.812,-27.344,-41.992,-29.785,-31.250,0.000
1709200864.816,-39.551,-66.406,-37.109,-29.785,0.000
1709200864.820,-50.781,-66.895,-40.527,-29.297,0.000
1709200864.824,-56.641,-40.527,-39.551,-42.480,0.000
1709200864.828,-56.641,-37.109,-41.016,-44.922,0.000
1709200864.832,-49.805,-42.480,-38.574,-42.480,0.000
1709200864.836,-44.434,-42.480,-37.109,-44.922,0.000
1709200864.840,-50.293,-43.457,-42.480,-43.457,0.000
1709200864.844,-52.246,-44.922,-44.434,-33.691,0.000
1709200864.848,-44.434,-46.387,-44.434,-33.691,0.000
1709200864.851,-37.598,-41.992,-45.410,-32.715,0.000
1709200864.855,-33.203,-40.039,-38.086,-33.203,0.000
1709200864.859,-31.250,-42.969,-31.250,-43.945,0.000
1709200864.863,-44.922,-50.781,-34.180,-32.715,0.000
1709200864.867,-55.176,-43.457,-34.668,-31.250,0.000
1709200864.871,-42.969,-27.344,-39.062,-42.480,0.000
1709200864.875,-32.227,-38.086,-49.805,-41.992,0.000
1709200864.879,-40.039,-42.480,-46.875,-47.363,0.000
1709200864.883,-51.270,-42.969,-41.504,-56.152,0.000
1709200864.887,-57.617,-45.898,-45.410,-60.059,0.000
1709200864.891,-53.223,-48.828,-47.852,-51.758,0.000
1709200864.894,-47.852,-36.621,-47.852,-49.805,0.000
1709200864.898,-50.781,-28.320,-49.316,-56.152,0.000
1709200864.902,-51.270,-41.504,-48.340,-54.688,0.000
1709200864.906,-53.711,-52.734,-45.410,-49.805,0.000
1709200864.910,-44.922,-45.410,-37.109,-35.156,0.000
1709200864.914,-38.086,-27.344,-37.109,-42.969,0.000
1709200864.918,-48.828,-34.668,-42.480,-59.570,0.000
1709200864.922,-56.152,-47.852,-31.250,-45.898,0.000
1709200864.926,-54.199,-47.852,-30.273,-42.969,0.000
1709200864.930,-45.410,-44.434,-39.062,-43.457,0.000
1709200864.933,-39.062,-47.363,-43.945,-42.969,0.000
1709200864.937,-41.992,-47.852,-45.898,-45.898,0.000
1709200864.941,-49.316,-44.434,-41.504,-39.062,0.000
1709200864.945,-54.688,-41.504,-40.039,-34.668,0.000
1709200864.949,-44.434,-36.621,-38.086,-35.156,0.000
1709200864.953,-36.621,-45.410,-36.621,-31.738,0.000
1709200864.957,-40.039,-43.457,-36.621,-28.809,0.000
1709200864.961,-45.410,-29.297,-33.691,-27.832,0.000
1709200864.965,-58.594,-41.992,-38.086,-32.715,0.000
1709200864.969,-62.500,-58.105,-39.062,-32.715,0.000
1709200864.973,-48.828,-48.340,-40.039,-30.273,0.000
1709200864.976,-45.898,-44.434,-45.410,-40.039,0.000
1709200864.980,-60.547,-52.734,-53.711,-50.293,0.000
1709200864.984,-68.848,-56.152,-53.711,-62.988,0.000
1709200864.988,-63.477,-55.176,-44.434,-68.848,0.000
1709200864.992,-51.758,-49.316,-43.457,-59.082,0.000
1709200864.996,-42.969,-59.082,-50.293,-55.176,0.000
1709200865.000,-42.969,-69.336,-52.246,-57.617,0.000
1709200865.004,-53.711,-56.152,-50.293,-56.152,0.000
1709200865.008,-45.898,-41.016,-46.387,-43.457,0.000
1709200865.012,-34.180,-46.875,-44.434,-31.738,0.000
1709200865.016,-36.621,-58.105,-47.363,-32.227,0.000
1709200865.019,-37.109,-46.387,-48.340,-39.062,0.000
1709200865.023,-39.551,-46.875,-40.527,-40.039,0.000
1709200865.027,-39.551,-45.898,-34.180,-28.809,0.000
1709200865.031,-28.809,-35.645,-41.016,-25.879,0.000
1709200865.035,-23.926,-27.344,-34.180,-30.273,0.000
1709200865.039,-32.715,-35.156,-31.250,-29.297,0.000
1709200865.043,-35.645,-38.086,-34.180,-29.785,0.000
1709200865.047,-36.621,-37.109,-34.668,-40.527,0.000
1709200865.051,-35.645,-38.086,-35.645,-36.133,0.000
1709200865.055,-35.156,-33.691,-38.086,-38.086,0.000
1709200865.058,-38.086,-43.945,-35.156,-34.668,0.000
1709200865.062,-45.410,-41.504,-28.320,-32.715,0.000
1709200865.066,-55.664,-32.715,-31.738,-53.223,0.000
1709200865.070,-55.176,-45.898,-33.203,-57.617,0.000
1709200865.074,-50.781,-46.387,-35.156,-53.711,0.000
1709200865.078,-46.387,-40.527,-39.551,-49.316,0.000
1709200865.082,-47.363,-44.922,-34.180,-48.828,0.000
1709200865.086,-50.781,-52.734,-30.273,-49.316,0.000
1709200865.090,-54.199,-51.270,-41.992,-40.527,0.000
1709200865.094,-46.387,-38.574,-41.992,-38.086,0.000
1709200865.098,-39.551,-32.715,-37.598,-49.316,0.000
1709200865.101,-39.062,-36.621,-34.668,-44.922,0.000
1709200865.105,-33.691,-40.039,-33.691,-28.809,0.000
1709200865.109,-30.273,-27.344,-29.785,-29.785,0.000
1709200865.113,-25.879,-30.273,-25.391,-34.180,0.000
1709200865.117,-24.902,-45.410,-38.086,-36.133,0.000
1709200865.121,-27.832,-45.898,-37.598,-41.992,0.000
1709200865.125,-31.738,-36.133,-31.250,-37.598,0.000
1709200865.129,-29.785,-30.762,-30.762,-29.785,0.000
1709200865.133,-23.438,-34.180,-37.109,-25.391,0.000
1709200865.137,-21.484,-38.086,-40.527,-23.438,0.000
1709200865.141,-28.809,-43.945,-39.062,-35.156,0.000
1709200865.144,-37.598,-40.039,-41.504,-47.363,0.000
1709200865.148,-32.715,-44.922,-43.457,-34.180,0.000
1709200865.152,-28.320,-42.969,-44.434,-26.855,0.000
1709200865.156,-26.855,-32.227,-48.340,-32.715,0.000
1709200865.160,-20.508,-40.039,-47.363,-27.832,0.000
1709200865.164,-19.531,-46.875,-37.598,-27.344,0.000
1709200865.168,-25.879,-39.062,0.000,-36.133,0.000
1709200865.172,-24.414,-40.039,0.000,-41.016,0.000
1709200865.176,-24.414,-55.664,0.000,-40.039,0.000
1709200865.180,-32.227,-56.152,0.000,-44.434,0.000
1709200865.183,-43.457,-48.828,0.000,-51.270,0.000
1709200865.187,-57.129,-58.594,0.000,-58.594,0.000
1709200865.191,-53.711,-57.129,0.000,-55.176,0.000
1709200865.195,-46.387,-53.223,0.000,-43.457,0.000
1709200865.199,-46.387,-44.922,0.000,-44.922,0.000
1709200865.203,-54.688,-47.852,0.000,-49.805,0.000
1709200865.207,-58.594,-53.223,0.000,-49.805,0.000
1709200865.211,-52.734,-49.316,0.000,-52.246,0.000
1709200865.215,-48.828,-45.410,-44.434,-51.758,0.000
1709200865.219,-48.340,-45.898,-40.039,-51.758,0.000
1709200865.223,-56.641,-52.246,-32.227,-44.434,0.000
1709200865.226,-64.941,-49.316,-35.645,-41.992,0.000
1709200865.230,-60.059,-47.852,-42.969,-41.992,0.000
1709200865.234,-55.176,-45.898,-42.969,-36.621,0.000
1709200865.238,-55.664,-54.688,-46.875,-34.180,0.000
1709200865.242,-58.105,-49.316,-44.434,-42.480,0.000
1709200865.246,-57.617,-32.715,-44.434,-48.340,0.000
1709200865.250,-49.805,-40.527,-45.410,-45.410,0.000
1709200865.254,-42.969,-44.434,-34.180,-44.434,0.000
1709200865.258,-42.480,-43.457,-29.785,-42.969,0.000
1709200865.262,-44.922,-38.086,-32.715,-46.875,0.000
1709200865.266,-46.387,-38.574,-34.180,-35.156,0.000
1709200865.269,-49.805,-42.969,-35.156,-27.344,0.000
1709200865.273,-36.621,-37.598,-33.691,-29.785,0.000
1709200865.277,-28.320,-41.504,-25.879,-33.691,0.000
1709200865.281,-44.922,-56.152,-26.855,-41.016,0.000
1709200865.285,-57.617,-53.223,-30.762,-34.180,0.000
1709200865.289,-55.664,-37.109,-33.203,-37.109,0.000
1709200865.293,-52.734,-41.992,-33.691,-47.363,0.000
1709200865.297,-49.316,-50.781,-25.879,-35.645,0.000
1709200865.301,-54.688,-52.246,-29.785,-32.715,0.000
1709200865.305,-57.129,-49.805,-36.133,-41.504,0.000
1709200865.308,-53.223,-47.363,-33.691,-44.922,0.000
1709200865.312,-48.340,-52.734,-31.738,-36.133,0.000
1709200865.316,-34.180,-49.316,-27.344,-31.738,0.000
1709200865.320,-48.828,-48.340,-26.367,-36.133,0.000
1709200865.324,-64.453,-56.152,-27.832,-35.645,0.000
1709200865.328,-61.035,-69.824,-24.414,-32.715,0.000
1709200865.332,-62.012,-60.059,-29.785,-30.762,0.000
1709200865.336,-55.176,-36.133,-38.086,-36.621,0.000
1709200865.340,-55.176,-39.551,-34.180,-35.156,0.000
1709200865.344,-65.430,-51.758,-37.598,-33.691,0.000
1709200865.348,-62.500,-48.828,-39.551,-42.969,0.000
1709200865.351,-49.805,-46.875,-39.551,-43.457,0.000
1709200865.355,-47.363,-46.387,-44.434,-43.457,0.000
1709200865.359,-50.781,-41.504,-37.598,-47.363,0.000
1709200865.363,-53.223,-44.434,-28.320,-41.504,0.000
1709200865.367,-54.688,-45.898,-25.879,-30.762,0.000
1709200865.371,-52.734,-54.688,-29.297,-28.320,0.000
1709200865.375,-47.852,-61.523,-34.180,-29.785,0.000
1709200865.379,-44.922,-45.410,-35.156,-31.250,0.000
1709200865.383,-42.969,-39.551,-34.668,-25.879,0.000
1709200865.387,-44.434,-57.129,-31.738,-21.484,0.000
1709200865.390,-36.133,-57.129,-28.320,-20.996,0.000
1709200865.394,-23.438,-36.133,-29.785,-24.902,0.000
1709200865.398,-25.391,-41.016,-35.645,-28.809,0.000
1709200865.402,-33.203,-53.223,-38.086,-34.180,0.000
1709200865.406,-39.062,-48.340,-35.156,-38.574,0.000
1709200865.410,-35.645,-36.621,-36.133,-34.180,0.000
1709200865.414,-27.344,-37.598,-37.598,-32.227,0.000
1709200865.418,-37.109,-48.340,-39.551,-40.039,0.000
1709200865.422,-44.922,-49.805,-49.316,-51.758,0.000
1709200865.426,-48.340,-47.852,-49.316,-56.641,0.000
1709200865.430,-48.340,-42.480,-37.109,-50.293,0.000
1709200865.433,-36.621,-49.805,-36.621,-32.227,0.000
1709200865.437,-40.039,-49.316,-42.969,-36.133,0.000
1709200865.441,-45.898,-38.086,-43.945,-53.711,0.000
1709200865.445,-49.316,-43.945,-48.828,-57.129,0.000
1709200865.449,-43.945,-42.969,-41.016,-50.293,0.000
1709200865.453,-33.691,-32.227,-30.762,-39.551,0.000
1709200865.457,-29.785,-39.551,-29.785,-37.109,0.000
1709200865.461,-31.738,-55.664,-25.391,-31.250,0.000
1709200865.465,-44.434,-53.223,-31.250,-37.109,0.000
1709200865.469,-45.898,-44.922,-35.645,-38.086,0.000
1709200865.473,-46.387,-38.574,-37.109,-32.227,0.000
1709200865.476,-47.363,-43.457,-36.621,-45.898,0.000
1709200865.480,-50.293,-55.664,-34.668,-46.387,0.000
1709200865.484,-56.152,-41.016,-37.598,-51.270,0.000
1709200865.488,-52.246,-40.039,-38.574,-53.711,0.000
1709200865.492,-45.898,-48.828,-39.062,-44.922,0.000
1709200865.496,-46.875,-37.598,-41.016,-41.992,0.000
1709200865.500,-49.316,-38.086,-47.363,-44.434,0.000
1709200865.504,-51.758,-48.340,-41.016,-43.457,0.000
1709200865.508,-49.805,-47.363,-34.180,-34.668,0.000
1709200865.512,-41.504,-47.852,-38.574,-35.156,0.000
1709200865.516,-40.039,-46.875,-36.133,-41.504,0.000
1709200865.519,-41.504,-39.551,-34.668,-47.363,0.000
1709200865.523,-44.922,-45.898,-37.598,-36.621,0.000
1709200865.527,-46.875,-46.875,-39.551,-27.344,0.000
1709200865.531,-41.992,-33.203,-40.527,-33.691,0.000
1709200865.535,-32.227,-34.180,-38.086,-29.785,0.000
1709200865.539,-30.273,-41.016,-41.016,-36.133,0.000
1709200865.543,-33.203,-37.109,-43.457,-41.992,0.000
1709200865.547,-39.062,-28.809,-38.086,-38.574,0.000
1709200865.551,-44.434,-38.086,-34.668,-36.621,0.000
1709200865.555,-39.551,-46.387,-37.109,-36.133,0.000
1709200865.558,-41.016,-43.945,-41.016,-37.598,0.000
1709200865.562,-50.293,-45.898,-43.945,-40.527,0.000
1709200865.566,-53.223,-51.758,-49.316,-40.527,0.000
1709200865.570,-48.340,-51.758,-46.387,-34.668,0.000
1709200865.574,-36.621,-46.875,-41.504,-37.109,0.000
1709200865.578,-27.832,-56.641,-45.898,-39.062,0.000
1709200865.582,-38.086,-54.688,-44.922,-35.156,0.000
1709200865.586,-40.039,-42.969,-40.039,-31.250,0.000
1709200865.590,-37.598,-41.016,-42.480,-34.668,0.000
1709200865.594,-34.180,-43.945,-42.480,-34.180,0.000
1709200865.598,-27.344,-44.922,-41.504,-26.367,0.000
1709200865.601,-25.391,-33.203,-37.598,-24.902,0.000
1709200865.605,-34.180,-42.480,-32.715,-31.738,0.000
1709200865.609,-44.922,-55.176,-40.039,-37.598,0.000
1709200865.613,-39.551,-57.129,-49.316,-23.438,0.000
1709200865.617,-32.715,-48.340,-43.457,-24.902,0.000
1709200865.621,-41.992,-36.133,-39.551,-39.551,0.000
1709200865.625,-52.246,-47.852,-43.457,-36.621,0.000
1709200865.629,-51.758,-53.711,-41.992,-33.691,0.000
1709200865.633,-47.852,-53.223,-44.922,-32.227,0.000
1709200865.637,-52.246,-51.758,-59.082,-39.062,0.000
1709200865.640,-57.129,-51.758,-50.781,-40.039,0.000
1709200865.644,-64.453,-55.664,-34.668,-41.016,0.000
1709200865.648,-66.895,-62.500,-40.039,-48.340,0.000
1709200865.652,-50.781,-61.523,-37.109,-43.945,0.000
1709200865.656,-42.969,-64.453,-33.691,-37.598,0.000
1709200865.660,-44.922,-65.918,-33.203,-28.809,0.000
1709200865.664,-50.781,-50.781,-31.250,-36.133,0.000
1709200865.668,-55.176,-45.898,-33.203,-46.875,0.000
1709200865.672,-46.875,-49.316,-40.527,-40.527,0.000
1709200865.676,-34.668,-51.270,-39.062,-35.645,0.000
1709200865.680,-43.945,-47.852,-35.156,-43.945,0.000
1709200865.683,-51.270,-52.734,-35.645,-48.340,0.000
1709200865.687,-49.316,-55.176,-31.738,-37.598,0.000
1709200865.691,-48.340,-45.410,-36.621,-40.527,0.000
1709200865.695,-37.598,-38.574,-42.480,-49.316,0.000
1709200865.699,-39.062,-41.016,-45.898,-41.016,0.000
1709200865.703,-46.387,-49.805,-45.898,-35.156,0.000
1709200865.707,-42.480,-40.039,-44.434,-40.527,0.000
1709200865.711,-34.180,-24.414,-42.969,-41.504,0.000
1709200865.715,-31.738,-29.785,-41.992,-35.156,0.000
1709200865.719,-37.598,-43.945,-48.340,-36.133,0.000
1709200865.722,-41.992,-41.504,-49.805,-43.457,0.000
1709200865.726,-41.016,-37.109,-41.992,-40.527,0.000
1709200865.730,-28.809,-36.621,-41.016,-36.621,0.000
1709200865.734,-28.320,-41.016,-40.039,-41.992,0.000
1709200865.738,-37.598,-43.457,-38.086,-37.598,0.000
1709200865.742,-36.621,-43.457,-36.621,-30.762,0.000
1709200865.746,-41.504,-48.828,-35.645,-27.832,0.000
1709200865.750,-40.527,-46.387,-34.180,-29.297,0.000
1709200865.754,-31.738,-40.039,-39.062,-33.691,0.000
1709200865.758,-37.109,-39.062,-43.945,-32.715,0.000
1709200865.762,-49.805,-50.781,-39.551,-28.809,0.000
1709200865.765,-51.270,-49.316,-36.621,-27.832,0.000
1709200865.769,-46.387,-36.133,-41.016,-41.504,0.000
1709200865.773,-38.086,-48.828,-40.527,-44.922,0.000
1709200865.777,-36.133,-52.734,-30.273,-41.016,0.000
1709200865.781,-41.016,-39.062,-27.832,-46.387,0.000
1709200865.785,-52.734,-34.668,-38.086,-52.246,0.000
1709200865.789,-56.152,-36.621,-42.480,-46.875,0.000
1709200865.793,-44.922,-44.434,-40.527,-41.016,0.000
1709200865.797,-41.016,-41.992,-36.133,-41.992,0.000
1709200865.801,-40.527,-46.387,-36.621,-44.434,0.000
1709200865.805,-48.828,-49.316,-40.039,-55.176,0.000
1709200865.808,-53.223,-52.734,-35.156,-43.457,0.000
1709200865.812,-40.039,-45.898,-33.691,-29.785,0.000
1709200865.816,-25.391,-35.645,-41.016,-41.992,0.000
1709200865.820,-27.344,-48.340,-43.457,-51.758,0.000
1709200865.824,-42.480,-48.340,-36.133,-55.176,0.000
1709200865.828,-49.316,-43.945,-34.668,-50.293,0.000
1709200865.832,-41.016,-48.340,-40.039,-45.898,0.000
1709200865.836,-39.551,-52.734,-36.133,-45.898,0.000
1709200865.840,-48.340,-55.176,-34.668,-50.293,0.000
1709200865.844,-51.270,-55.664,-33.203,-48.828,0.000
1709200865.848,-57.129,-52.734,-35.156,-48.340,0.000
1709200865.851,-49.805,-54.688,-37.598,-34.180,0.000
1709200865.855,-41.016,-57.617,-35.645,-22.949,0.000
1709200865.859,-46.387,-50.781,-32.715,-36.621,0.000
1709200865.863,-49.316,-48.340,-31.738,-44.434,0.000
1709200865.867,-41.016,-48.828,-39.551,-43.945,0.000
1709200865.871,-37.109,-53.223,-35.645,-43.457,0.000
1709200865.875,-32.715,-44.434,-32.227,-38.574,0.000
1709200865.879,-34.668,-39.062,-37.598,-31.738,0.000
1709200865.883,-38.574,-42.480,-31.738,-28.809,0.000
1709200865.887,-42.969,-43.945,-30.762,-26.855,0.000
1709200865.890,-34.180,-45.898,-27.832,-18.066,0.000
1709200865.894,-19.043,-41.504,-31.738,-21.484,0.000
1709200865.898,-14.160,-46.387,-40.527,-20.508,0.000
1709200865.902,-18.066,-39.062,-33.203,-22.949,0.000
1709200865.906,-27.344,-30.762,-25.879,-39.551,0.000
1709200865.910,-28.809,-39.062,-29.785,-39.062,0.000
1709200865.914,-25.391,-47.363,-42.969,-37.109,0.000
1709200865.918,-20.508,-52.734,-45.410,-30.762,0.000
1709200865.922,-25.879,-44.922,-38.574,-30.762,0.000
1709200865.926,-41.504,-44.434,-41.504,-47.363,0.000
1709200865.930,-40.039,-50.781,-52.246,-51.758,0.000
1709200865.933,-22.949,-43.457,-46.387,-42.480,0.000
1709200865.937,-18.066,-41.016,-31.738,-46.387,0.000
1709200865.941,-29.297,-45.898,-33.203,-54.199,0.000
1709200865.945,-41.016,-45.410,-39.062,-45.410,0.000
1709200865.949,-39.551,-35.156,-36.621,-41.504,0.000
1709200865.953,-36.621,-34.668,-31.738,-42.969,0.000
1709200865.957,-41.504,-43.457,-31.250,-48.828,0.000
1709200865.961,-47.363,-35.645,-33.691,-59.570,0.000
1709200865.965,-63.477,-33.691,-42.969,-64.941,0.000
1709200865.969,-62.988,-45.898,-46.387,-64.941,0.000
1709200865.973,-52.246,-44.434,-40.039,-53.711,0.000
1709200865.976,-51.270,-42.480,-43.945,-49.805,0.000
1709200865.980,-53.711,-45.410,-49.316,-56.152,0.000
1709200865.984,-55.664,-45.410,-42.480,-51.270,0.000
1709200865.988,-57.129,-50.293,-38.574,-41.016,0.000
1709200865.992,-49.316,-48.340,-34.180,-38.574,0.000
1709200865.996,-41.504,-35.645,-29.297,-41.992,0.000
1709200866.000,-42.969,-41.016,-31.250,-44.922,0.000
1709200866.004,-45.410,-48.340,-30.273,-42.969,0.000
1709200866.008,-52.734,-48.340,-32.715,-40.039,0.000
1709200866.012,-57.129,-41.016,-37.109,-36.133,0.000
1709200866.015,-46.387,-38.086,-33.203,-33.691,0.000
1709200866.019,-43.945,-39.062,-36.133,-35.156,0.000
1709200866.023,-55.664,-28.809,-42.480,-33.691,0.000
1709200866.027,-48.340,-28.809,-40.527,-36.133,0.000
1709200866.031,-36.133,-38.086,-36.133,-30.762,0.000
1709200866.035,-31.250,-34.180,-29.785,-18.555,0.000
1709200866.039,-31.250,-30.762,-32.715,-18.066,0.000
1709200866.043,-35.645,-36.133,-34.668,-22.461,0.000
1709200866.047,-37.598,-52.734,-29.297,-22.949,0.000
1709200866.051,-35.156,-58.594,-31.738,-20.508,0.000
1709200866.055,-31.250,-41.992,-36.133,-36.621,0.000
1709200866.058,-35.645,-41.016,-42.969,-43.457,0.000
1709200866.062,-51.270,-50.781,-54.688,-41.504,0.000
1709200866.066,-58.594,-46.875,-54.688,-43.457,0.000
1709200866.070,-46.387,-37.598,-44.922,-31.738,0.000
1709200866.074,-35.156,-40.527,-45.410,-25.879,0.000
1709200866.078,-35.156,-49.805,-43.457,-27.832,0.000
1709200866.082,-38.574,-45.410,-42.969,-38.086,0.000
1709200866.086,-46.387,-39.551,-41.504,-44.922,0.000
1709200866.090,-51.270,-45.898,-41.016,-39.551,0.000
1709200866.094,-45.410,-57.129,-42.969,-33.203,0.000
1709200866.097,-42.480,-52.246,-38.574,-38.574,0.000
1709200866.101,-46.875,-50.781,-37.598,-52.246,0.000
1709200866.105,-62.012,-62.500,-44.434,-49.316,0.000
1709200866.109,-63.477,-53.223,-42.480,-46.875,0.000
1709200866.113,-47.852,-46.387,-38.086,-42.969,0.000
1709200866.117,-45.898,-47.363,-41.016,-39.551,0.000
1709200866.121,-57.617,-54.199,-47.852,-47.363,0.000
1709200866.125,-59.082,-55.664,-43.457,-44.922,0.000
1709200866.129,-56.641,-45.898,-39.551,-40.039,0.000
1709200866.133,-52.246,-38.086,-43.945,-42.480,0.000
1709200866.137,-49.316,-47.852,-41.016,-41.016,0.000
1709200866.140,-48.340,-54.688,-39.062,-33.203,0.000
1709200866.144,-52.246,-40.527,-44.922,-40.527,0.000
1709200866.148,-62.012,-36.133,-44.922,-48.340,0.000
1709200866.152,-58.105,-41.992,-33.203,-40.039,0.000
1709200866.156,-48.828,-43.945,-34.668,-30.273,0.000
1709200866.160,-52.734,-48.340,-41.504,-42.480,0.000
1709200866.164,-54.688,-46.875,-39.062,-50.293,0.000
1709200866.168,-57.617,-46.387,-37.109,-38.086,0.000
1709200866.172,-54.688,-48.828,-40.039,-33.203,0.000
1709200866.176,-44.922,-37.598,-39.062,-32.227,0.000
1709200866.180,-52.246,-39.062,-42.480,-43.945,0.000
1709200866.183,-63.965,-57.617,-43.945,-42.480,0.000
1709200866.187,-69.336,-51.758,-43.945,-38.086,0.000
1709200866.191,-60.059,-41.504,-43.457,-53.711,0.000
1709200866.195,-45.410,-48.340,-37.598,-49.316,0.000
1709200866.199,-47.363,-50.781,-34.668,-45.898,0.000
1709200866.203,-55.664,-52.734,-35.156,-50.293,0.000
1709200866.207,-54.688,-45.898,-44.922,-56.152,0.000
1709200866.211,-43.457,-41.992,-41.016,-47.852,0.000
1709200866.215,-34.668,-46.387,-30.273,-36.621,0.000
1709200866.219,-30.762,-50.781,-37.109,-41.504,0.000
1709200866.222,-35.645,-45.898,-40.039,-51.270,0.000
1709200866.226,-43.457,-40.527,-43.945,-57.129,0.000
1709200866.230,-44.434,-42.480,-46.875,-42.480,0.000
1709200866.234,-35.156,-25.879,-40.039,-37.598,0.000
1709200866.238,-32.227,-26.367,-37.598,-49.316,0.000
1709200866.242,-41.504,-44.922,-47.852,-55.664,0.000
1709200866.246,-49.805,-39.551,-42.969,-50.781,0.000
1709200866.250,-43.457,-34.668,-30.762,-45.410,0.000
1709200866.254,-35.645,-47.363,-36.133,-37.109,0.000
1709200866.258,-33.203,-51.758,-41.504,-36.621,0.000
1709200866.262,-33.691,-40.527,-39.062,-39.062,0.000
1709200866.265,-35.156,-32.227,-46.875,-39.551,0.000
1709200866.269,-37.109,-34.668,-57.617,-44.434,0.000
1709200866.273,-31.738,-40.039,-45.410,-38.086,0.000
1709200866.277,-23.438,-31.250,-36.621,-40.527,0.000
1709200866.281,-28.809,-20.508,-38.574,-50.781,0.000
1709200866.285,-38.086,-30.762,-37.598,-48.828,0.000
1709200866.289,-36.621,-37.598,-42.969,-46.387,0.000
1709200866.293,-30.762,-32.227,-44.922,-45.898,0.000
1709200866.297,-28.809,-32.715,-40.039,-43.945,0.000
1709200866.301,-33.203,-40.527,-31.738,-41.504,0.000
1709200866.305,-47.363,-43.457,-31.250,-41.504,0.000
1709200866.308,-58.105,-39.551,-34.180,-47.852,0.000
1709200866.312,-54.199,-41.016,-40.527,-50.781,0.000
1709200866.316,-48.340,-47.852,-46.387,-47.363,0.000
1709200866.320,-51.758,-49.805,-46.875,-40.039,0.000
1709200866.324,-53.711,-35.645,-37.109,-40.527,0.000
1709200866.328,-48.828,-29.785,-32.715,-46.875,0.000
1709200866.332,-44.922,-43.457,-38.574,-46.387,0.000
1709200866.336,-34.180,-48.340,-41.016,-49.805,0.000
1709200866.340,-35.645,-41.504,-41.992,-56.152,0.000
1709200866.344,-45.410,-44.922,-38.086,-60.059,0.000
1709200866.347,-48.340,-49.805,-40.527,-53.223,0.000
1709200866.351,-44.922,-44.922,-42.969,-46.387,0.000
1709200866.355,-38.574,-44.922,-41.992,-48.340,0.000
1709200866.359,-32.715,-46.875,-43.945,-44.922,0.000
1709200866.363,-32.715,-56.152,-43.945,-35.156,0.000
1709200866.367,-44.922,-60.059,-53.223,-41.992,0.000
1709200866.371,-46.875,-42.969,-46.387,-43.457,0.000
1709200866.375,-40.527,-47.852,-35.645,-34.668,0.000
1709200866.379,-38.574,-54.199,-33.691,-41.992,0.000
1709200866.383,-40.527,-49.316,-38.574,-46.387,0.000
1709200866.387,-43.457,-46.387,-46.875,-42.480,0.000
1709200866.390,-42.480,-52.734,-37.598,-39.062,0.000
1709200866.394,-42.969,-50.293,-34.180,-41.016,0.000
1709200866.398,-40.039,-41.016,-41.016,-48.340,0.000
1709200866.402,-45.898,-41.504,-36.621,-54.199,0.000
1709200866.406,-60.059,-48.828,-35.156,-49.316,0.000
1709200866.410,-51.758,-46.387,-34.668,-39.551,0.000
1709200866.414,-53.223,-33.691,-41.992,-43.945,0.000
1709200866.418,-56.641,-38.574,-47.852,-47.852,0.000
1709200866.422,-50.781,-53.223,-40.039,-48.340,0.000
1709200866.426,-68.848,-56.152,-40.527,-58.105,0.000
1709200866.429,-67.383,-51.758,-49.805,-55.664,0.000
1709200866.433,-51.270,-49.805,-46.875,-38.574,0.000
1709200866.437,-40.039,-47.363,-32.227,-28.320,0.000
1709200866.441,-39.551,-43.945,-30.273,-35.645,0.000
1709200866.445,-44.434,-48.340,-35.645,-44.434,0.000
1709200866.449,-44.434,-52.246,-40.039,-43.457,0.000
1709200866.453,-36.133,-50.781,-36.133,-32.715,0.000
1709200866.457,-26.367,-45.410,-38.086,-25.879,0.000
1709200866.461,-35.645,-41.016,-40.039,-32.227,0.000
1709200866.465,-42.480,-47.363,-26.855,-32.715,0.000
1709200866.469,-41.992,-48.340,-29.785,-29.297,0.000
1709200866.472,-40.039,-35.156,-38.574,-25.391,0.000
1709200866.476,-29.297,-31.738,-38.086,-26.367,0.000
1709200866.480,-34.668,-39.062,-40.527,-29.785,0.000
1709200866.484,-38.574,-50.293,-36.621,-29.785,0.000
1709200866.488,-28.320,-53.711,-36.133,-26.367,0.000
1709200866.492,-37.109,-37.598,-41.992,-23.438,0.000
1709200866.496,-43.457,-34.668,-48.828,-29.297,0.000
1709200866.500,-39.062,-42.480,-40.527,-35.645,0.000
1709200866.504,-40.527,-38.574,-27.832,-42.969,0.000
1709200866.508,-53.223,-34.668,-34.180,-51.270,0.000
1709200866.512,-53.711,-46.387,-35.156,-50.781,0.000
1709200866.515,-43.457,-47.363,-43.457,-45.410,0.000
1709200866.519,-42.480,-31.738,-47.852,-45.898,0.000
1709200866.523,-60.059,-38.086,-39.062,-50.293,0.000
1709200866.527,-64.941,-46.875,-41.504,-46.387,0.000
1709200866.531,-63.477,-41.504,-44.434,-43.457,0.000
1709200866.535,-49.805,-37.598,-41.992,-46.875,0.000
1709200866.539,-41.016,-34.668,-35.645,-42.969,0.000
1709200866.543,-62.500,-44.922,-40.039,-44.922,0.000
1709200866.547,-63.477,-49.316,-42.969,-42.969,0.000
1709200866.551,-53.223,-37.109,-39.062,-30.273,0.000
1709200866.554,-39.062,-33.203,-37.598,-26.367,0.000
1709200866.558,-36.133,-53.223,-35.645,-24.414,0.000
1709200866.562,-39.551,-47.852,-37.109,-28.809,0.000
1709200866.566,-37.598,-31.250,-42.480,-36.621,0.000
1709200866.570,-37.109,-40.527,-43.457,-31.738,0.000
1709200866.574,-22.461,-31.738,-37.598,-20.508,0.000
1709200866.578,-12.695,-29.785,-35.156,-19.531,0.000
1709200866.582,-27.344,-37.109,-38.574,-33.691,0.000
1709200866.586,-32.715,-37.109,-41.504,-31.250,0.000
1709200866.590,-32.715,-35.156,-39.551,-29.785,0.000
1709200866.594,-21.484,-38.086,-35.645,-35.156,0.000
1709200866.597,-9.766,-33.691,-28.320,-38.086,0.000
1709200866.601,-16.602,-34.668,-28.809,-39.062,0.000
1709200866.605,-30.762,-41.016,-34.180,-34.668,0.000
1709200866.609,-42.480,-29.785,-37.598,-38.574,0.000
1709200866.613,-35.156,-30.273,-37.598,-42.480,0.000
1709200866.617,-20.508,-39.551,-34.180,-37.598,0.000
1709200866.621,-14.648,-38.086,-32.715,-35.156,0.000
1709200866.625,-30.762,-40.039,-40.039,-45.898,0.000
1709200866.629,-47.363,-44.434,-42.969,-51.270,0.000
1709200866.633,-42.480,-48.828,-36.621,-44.922,0.000
1709200866.637,-35.645,-50.293,-41.016,-44.434,0.000
1709200866.640,-41.992,-47.852,-39.551,-48.828,0.000
1709200866.644,-45.898,-47.363,-33.203,-52.246,0.000
1709200866.648,-41.016,-55.664,-33.203,-38.574,0.000
1709200866.652,-45.410,-49.316,-39.551,-36.133,0.000
1709200866.656,-37.109,-36.621,-40.527,-44.922,0.000
1709200866.660,-33.203,-40.039,-42.969,-50.781,0.000
1709200866.664,-34.180,-37.598,-43.457,-43.457,0.000
1709200866.668,-28.320,-40.527,-31.738,-27.832,0.000
1709200866.672,-28.320,-38.086,-36.133,-27.832,0.000
1709200866.676,-29.785,-42.969,-41.504,-38.574,0.000
1709200866.679,-30.273,-44.922,-43.457,-41.016,0.000
1709200866.683,-38.574,-41.992,-46.875,-47.852,0.000
1709200866.687,-45.898,-51.758,-45.898,-58.594,0.000
1709200866.691,-44.434,-54.688,-47.363,-60.547,0.000
1709200866.695,-37.598,-45.410,-45.898,-40.039,0.000
1709200866.699,-27.832,-33.691,-51.270,-35.156,0.000
1709200866.703,-29.785,-42.480,-56.641,-47.363,0.000
1709200866.707,-40.039,-56.641,-55.176,-45.410,0.000
1709200866.711,-30.273,-41.992,-54.199,-38.574,0.000
1709200866.715,-25.391,-31.738,-51.270,-42.480,0.000
1709200866.719,-20.996,-34.180,-47.363,-52.734,0.000
1709200866.722,-33.203,-41.504,-47.363,-54.688,0.000
1709200866.726,-50.781,-36.133,-44.434,-50.293,0.000
1709200866.730,-53.223,-32.227,-45.410,-52.734,0.000
1709200866.734,-49.316,-45.898,-54.688,-48.828,0.000
1709200866.738,-36.621,-49.805,-53.711,-30.762,0.000
1709200866.742,-42.969,-42.969,-50.781,-38.574,0.000
1709200866.746,-46.387,-32.715,-49.316,-51.270,0.000
1709200866.750,-43.457,-35.645,-45.410,-39.062,0.000
1709200866.754,-35.645,-39.551,-54.199,-33.691,0.000
1709200866.758,-28.320,-44.922,-56.152,-35.645,0.000
1709200866.762,-39.062,-40.039,-44.922,-44.922,0.000
1709200866.765,-50.293,-38.574,-44.434,-44.922,0.000
1709200866.769,-49.316,-41.504,-47.852,-39.062,0.000
1709200866.773,-40.527,-37.109,-50.781,-35.645,0.000
1709200866.777,-29.297,-32.227,-38.574,-27.344,0.000
1709200866.781,-34.180,-29.297,-32.715,-26.855,0.000
1709200866.785,-46.875,-40.039,-47.852,-31.738,0.000
1709200866.789,-47.852,-29.785,-51.758,-39.062,0.000
1709200866.793,-42.969,-28.320,-47.363,-46.387,0.000
1709200866.797,-34.180,-47.363,-45.898,-44.922,0.000
1709200866.801,-36.621,-41.016,-48.828,-43.945,0.000
1709200866.804,-44.922,-33.691,-50.781,-50.293,0.000
1709200866.808,-41.992,-39.551,-51.758,-51.758,0.000
1709200866.812,-34.668,-45.898,-57.617,-47.363,0.000
1709200866.816,-28.809,-41.992,-58.105,-41.504,0.000
1709200866.820,-30.273,-28.320,-53.223,-39.551,0.000
1709200866.824,-37.598,-35.156,-43.457,-45.410,0.000
1709200866.828,-41.016,-52.734,-26.367,-44.434,0.000
1709200866.832,-35.645,-45.898,-24.902,-41.992,0.000
1709200866.836,-33.203,-27.832,-30.762,-41.504,0.000
1709200866.840,-26.855,-21.973,-31.738,-29.297,0.000
1709200866.844,-36.133,-38.574,-32.715,-30.273,0.000
1709200866.847,-48.828,-50.293,-26.855,-39.062,0.000
1709200866.851,-40.039,-50.781,-29.785,-38.086,0.000
1709200866.855,-41.992,-50.293,-26.367,-31.250,0.000
1709200866.859,-38.574,-39.062,-16.113,-28.809,0.000
1709200866.863,-40.039,-41.016,-21.973,-38.086,0.000
1709200866.867,-47.852,-43.945,-24.902,-37.109,0.000
1709200866.871,-46.387,-47.363,-30.762,-23.438,0.000
1709200866.875,-41.016,-49.316,-34.668,-20.508,0.000
1709200866.879,-37.109,-38.574,-25.879,-21.484,0.000
1709200866.883,-44.922,-35.156,-26.855,-36.621,0.000
1709200866.886,-50.293,-44.434,-30.762,-42.969,0.000
1709200866.890,-48.340,-46.875,-32.715,-24.414,0.000
1709200866.894,-45.898,-32.715,-36.621,-24.414,0.000
1709200866.898,-38.574,-36.133,-37.598,-35.645,0.000
1709200866.902,-44.434,-60.059,-33.691,-47.363,0.000
1709200866.906,-54.199,-58.594,-29.785,-49.316,0.000
1709200866.910,-48.828,-46.387,-35.156,-42.969,0.000
1709200866.914,-37.109,-43.457,-39.551,-39.551,0.000
1709200866.918,-28.809,-40.527,-31.738,-35.645,0.000
1709200866.922,-33.691,-48.828,-33.691,-40.527,0.000
1709200866.926,-43.945,-44.434,-37.598,-45.410,0.000
1709200866.929,-44.434,-34.180,-29.297,-39.062,0.000
1709200866.933,-33.203,-41.016,-20.996,-31.738,0.000
1709200866.937,-28.809,-37.109,-30.762,-27.344,0.000
1709200866.941,-40.527,-33.203,-40.039,-36.133,0.000
1709200866.945,-45.898,-42.969,-31.738,-33.203,0.000
1709200866.949,0.000,-42.969,-30.762,0.000,0.000
1709200866.953,0.000,-42.969,-29.297,0.000,0.000
1709200866.957,0.000,-38.574,-24.902,0.000,0.000
1709200866.961,0.000,-38.086,-28.320,0.000,0.000
1709200866.965,0.000,-41.992,-40.527,0.000,0.000
1709200866.969,0.000,-43.457,-38.574,0.000,0.000
1709200866.972,0.000,-44.434,-41.016,0.000,0.000
1709200866.976,0.000,-46.875,-52.734,0.000,0.000
1709200866.980,0.000,-45.898,-33.691,0.000,0.000
1709200866.984,0.000,-37.109,-31.738,0.000,0.000
1709200866.988,0.000,-43.945,-39.551,0.000,0.000
1709200866.992,0.000,-48.828,-23.438,0.000,0.000
1709200866.996,-38.086,-44.922,-23.926,-25.879,0.000
1709200867.000,-41.016,-42.480,-29.785,-28.809,0.000
1709200867.004,-41.504,-43.945,-31.738,-26.367,0.000
1709200867.008,-45.410,-49.316,-35.156,-34.180,0.000
1709200867.012,-45.410,-41.504,-40.527,-38.574,0.000
1709200867.015,-41.992,-37.109,-43.945,-43.457,0.000
1709200867.019,-40.527,-36.133,-38.574,-39.062,0.000
1709200867.023,-45.898,-57.129,-43.945,-29.785,0.000
1709200867.027,-52.246,-60.059,-47.363,-35.645,0.000
1709200867.031,-47.363,-31.738,-36.621,-47.363,0.000
1709200867.035,-37.598,-28.809,-33.691,-42.969,0.000
1709200867.039,-33.203,-37.109,-49.316,-39.062,0.000
1709200867.043,-40.039,-42.480,-48.828,-43.457,0.000
1709200867.047,-50.781,-34.668,-32.715,-47.852,0.000
1709200867.051,-38.086,-35.156,-36.621,-40.039,0.000
1709200867.054,-28.320,-41.016,-35.645,-30.762,0.000
1709200867.058,-32.227,-39.551,-32.227,-29.785,0.000
1709200867.062,-37.109,-42.480,-36.133,-28.809,0.000
1709200867.066,-44.922,-47.363,-39.062,-33.691,0.000
1709200867.070,-39.062,-47.852,-37.109,-27.832,0.000
1709200867.074,-37.109,-35.645,-40.039,-31.250,0.000
1709200867.078,-37.109,-36.133,-37.109,-32.715,0.000
1709200867.082,-39.551,-47.363,-35.156,-29.785,0.000
1709200867.086,-50.781,-43.457,-35.645,-38.574,0.000
1709200867.090,-45.410,-36.621,-32.715,-38.574,0.000
1709200867.094,-43.945,-38.574,-34.180,-35.156,0.000
1709200867.097,-59.570,-48.828,-43.457,-42.969,0.000
1709200867.101,-48.340,-43.457,-37.109,-39.551,0.000
1709200867.105,-46.387,-37.598,-38.086,-31.738,0.000
1709200867.109,-57.129,-50.293,-51.270,-37.598,0.000
1709200867.113,-50.781,-64.453,-39.062,-35.156,0.000
1709200867.117,-36.133,-52.734,-34.180,-36.133,0.000
1709200867.121,-40.039,-38.086,-42.969,-43.457,0.000
1709200867.125,-44.922,-44.922,-34.668,-45.410,0.000
1709200867.129,-40.527,-50.781,-35.645,-42.480,0.000
1709200867.133,-38.086,-46.875,-47.852,-43.945,0.000
1709200867.136,-41.016,-34.180,-46.387,-52.734,0.000
1709200867.140,-46.387,-39.062,-37.598,-54.199,0.000
1709200867.144,-50.781,-49.316,-38.574,-53.711,0.000
1709200867.148,-47.363,-35.645,-42.480,-48.828,0.000
1709200867.152,-43.457,-36.621,-36.133,-49.316,0.000
1709200867.156,-50.781,-60.059,-34.668,-49.805,0.000
1709200867.160,-54.199,-61.523,-36.621,-38.086,0.000
1709200867.164,-50.781,-45.410,-33.203,-40.039,0.000
1709200867.168,-56.152,-43.945,-33.691,-56.641,0.000
1709200867.172,-55.664,-46.875,-35.645,-55.664,0.000
1709200867.176,-40.527,-41.992,-36.133,-49.805,0.000
1709200867.179,-28.320,-41.016,-37.598,-53.711,0.000
1709200867.183,-44.922,-42.969,-36.621,-45.898,0.000
1709200867.187,-58.105,-44.922,-44.434,-41.504,0.000
1709200867.191,-47.363,-39.551,-57.129,-36.621,0.000
1709200867.195,-41.504,-35.156,-42.480,-28.809,0.000
1709200867.199,-37.598,-40.527,-21.973,-33.691,0.000
1709200867.203,-41.504,-53.711,-26.855,-27.832,0.000
1709200867.207,-48.340,-53.711,-28.320,-18.066,0.000
1709200867.211,-52.246,-39.062,-24.902,-26.367,0.000
1709200867.215,-48.828,-49.316,-28.809,-30.762,0.000
1709200867.219,-37.598,-56.152,-26.855,-22.949,0.000
1709200867.222,-43.457,-41.992,-25.391,-27.344,0.000
1709200867.226,-50.781,-42.480,-29.297,-35.645,0.000
1709200867.230,-54.199,-51.758,-34.668,-38.574,0.000
1709200867.234,-52.734,-47.852,-42.480,-40.527,0.000
1709200867.238,-45.410,-38.574,-40.527,-42.480,0.000
1709200867.242,-42.969,-39.062,-29.785,-47.852,0.000
1709200867.246,-50.781,-47.363,-34.668,-53.223,0.000
1709200867.250,-60.547,-49.316,-38.086,-52.246,0.000
1709200867.254,-56.641,-39.062,-34.668,-45.898,0.000
1709200867.258,-50.781,-38.574,-32.715,-41.016,0.000
1709200867.261,-54.688,-56.152,-33.203,-32.715,0.000
1709200867.265,-60.547,-52.246,-37.109,-37.109,0.000
1709200867.269,-57.617,-34.180,-38.086,-60.547,0.000
1709200867.273,-42.480,-33.691,-39.062,-61.035,0.000
1709200867.277,-35.156,-37.109,-42.480,-44.434,0.000
1709200867.281,-44.434,-43.945,-37.598,-39.551,0.000
1709200867.285,-54.688,-56.641,-39.551,-41.992,0.000
1709200867.289,-60.547,-57.617,-39.551,-43.457,0.000
1709200867.293,-48.340,-49.805,-31.738,-39.551,0.000
1709200867.297,-38.574,-47.852,-41.504,-41.504,0.000
1709200867.301,-42.480,-49.805,-43.457,-37.598,0.000
1709200867.304,-43.457,-48.340,-32.227,-37.598,0.000
1709200867.308,-48.340,-48.828,-34.180,-30.762,0.000
1709200867.312,-52.246,-44.922,-39.551,-25.391,0.000
1709200867.316,-46.875,-37.598,-37.109,-36.133,0.000
1709200867.320,-40.527,-46.387,-35.645,-31.250,0.000
1709200867.324,-41.016,-42.480,-35.156,-33.203,0.000
1709200867.328,-43.945,-39.551,-33.691,-40.527,0.000
1709200867.332,-39.062,-38.086,-33.691,-40.527,0.000
1709200867.336,-27.344,-38.574,-34.180,-36.621,0.000
1709200867.340,-28.809,-41.504,-39.551,-32.715,0.000
1709200867.344,-40.527,-41.504,-40.039,-36.133,0.000
1709200867.347,-42.480,-42.969,-30.762,-35.645,0.000
1709200867.351,-34.180,-45.410,-24.902,-28.320,0.000
1709200867.355,-29.785,-46.387,-21.973,-21.973,0.000
1709200867.359,-28.809,-32.227,-23.926,-22.949,0.000
1709200867.363,-28.809,-29.297,-30.273,-27.344,0.000
1709200867.367,-36.621,-41.992,-26.367,-33.203,0.000
1709200867.371,-45.410,-42.480,-29.297,-42.480,0.000
1709200867.375,-32.715,-26.367,-35.645,-30.762,0.000
1709200867.379,-14.160,-25.879,-36.621,-26.367,0.000
1709200867.383,-27.832,-38.086,-35.156,-43.457,0.000
1709200867.386,-49.316,-44.922,-32.715,-39.062,0.000
1709200867.390,-49.316,-47.852,-32.715,-35.156,0.000
1709200867.394,-51.758,-39.551,-32.715,-36.621,0.000
1709200867.398,-44.434,-44.922,-41.504,-30.762,0.000
1709200867.402,-37.109,-48.828,-39.551,-22.461,0.000
1709200867.406,-43.457,-32.227,-27.832,-36.621,0.000
1709200867.410,-47.852,-33.203,-26.855,-39.551,0.000
1709200867.414,-38.574,-37.109,-24.414,-29.297,0.000
1709200867.418,-27.344,-33.691,-31.250,-40.039,0.000
1709200867.422,-30.273,-39.551,-41.504,-44.922,0.000
1709200867.426,-34.180,-42.480,-38.574,-40.527,0.000
1709200867.429,-30.762,-37.598,-32.715,-36.621,0.000
1709200867.433,-30.762,-37.598,-37.598,-39.062,0.000
1709200867.437,-26.855,-41.016,-36.133,-41.504,0.000
1709200867.441,-29.785,-41.992,-35.156,-38.086,0.000
1709200867.445,-41.992,-49.805,-47.852,-35.156,0.000
1709200867.449,-46.875,-42.969,-49.805,-37.109,0.000
1709200867.453,-53.223,-39.062,-42.969,-39.062,0.000
1709200867.457,-52.734,-47.852,-40.527,-35.156,0.000
1709200867.461,-49.316,-48.828,-41.504,-32.715,0.000
1709200867.465,-55.664,-40.527,-43.945,-41.504,0.000
1709200867.469,-63.477,-42.480,-46.875,-46.875,0.000
1709200867.472,-57.617,-47.852,-50.781,-43.457,0.000
1709200867.476,-54.688,-44.434,-45.898,-47.852,0.000
1709200867.480,-49.316,-45.410,-43.457,-53.223,0.000
1709200867.484,-60.547,-52.734,-48.340,-60.547,0.000
1709200867.488,-66.406,-57.617,-45.898,-52.246,0.000
1709200867.492,-60.059,-45.898,-42.969,-41.016,0.000
1709200867.496,-56.641,-34.180,-40.039,-41.016,0.000
1709200867.500,-48.340,-41.992,-40.039,-38.574,0.000
1709200867.504,-52.734,-49.805,-38.574,-49.316,0.000
1709200867.508,-62.988,-56.152,-35.645,-55.664,0.000
1709200867.511,-58.105,-47.852,-36.133,-43.457,0.000
1709200867.515,-48.828,-44.434,-41.016,-39.062,0.000
1709200867.519,-42.480,-48.828,-49.805,-42.969,0.000
1709200867.523,-40.039,-41.992,-41.992,-39.062,0.000
1709200867.527,-46.387,-44.434,-28.809,-32.715,0.000
1709200867.531,-50.293,-53.711,-27.832,-31.738,0.000
1709200867.535,-38.574,-54.199,-32.227,-25.391,0.000
1709200867.539,-29.297,-42.480,-30.273,-21.973,0.000
1709200867.543,-31.250,-37.109,-28.809,-33.691,0.000
1709200867.547,-41.016,-49.316,-37.109,-41.992,0.000
1709200867.551,-45.898,-45.898,-35.645,-33.203,0.000
1709200867.554,-40.527,-39.551,-36.621,-37.598,0.000
1709200867.558,-42.480,-51.270,-41.504,-45.410,0.000
1709200867.562,-47.852,-58.105,-41.016,-45.898,0.000
1709200867.566,-48.340,-51.758,-44.434,-47.852,0.000
1709200867.570,-40.527,-43.945,-40.527,-42.480,0.000
1709200867.574,-29.785,-39.062,-38.086,-38.574,0.000
1709200867.578,-21.973,-40.039,-35.645,-30.762,0.000
1709200867.582,-26.855,-38.086,-39.551,-28.320,0.000
1709200867.586,-33.691,-33.691,-44.434,-41.504,0.000
1709200867.590,-39.062,-41.992,-38.574,-46.387,0.000
1709200867.593,-43.457,-44.434,-31.250,-34.668,0.000
1709200867.597,-33.691,-41.504,-32.715,-27.832,0.000
1709200867.601,-27.344,-41.504,-31.250,-25.879,0.000
1709200867.605,-35.645,-42.969,-34.180,-31.250,0.000
1709200867.609,-37.109,-40.039,-37.109,-39.551,0.000
1709200867.613,-47.852,-32.227,-39.551,-38.086,0.000
1709200867.617,-45.898,-31.738,-42.969,-37.598,0.000
1709200867.621,-40.039,-36.133,-39.551,-38.574,0.000
1709200867.625,-43.457,-44.922,-35.645,-35.156,0.000
1709200867.629,-47.363,-46.387,-35.645,-38.086,0.000
1709200867.633,-42.480,-41.504,-41.016,-40.039,0.000
1709200867.636,-37.109,-42.969,-51.270,-40.039,0.000
1709200867.640,-41.504,-42.969,-54.688,-38.086,0.000
1709200867.644,-47.852,-37.109,-41.016,-38.086,0.000
1709200867.648,-47.852,-39.062,-33.691,-36.621,0.000
1709200867.652,-45.410,-40.527,-38.086,-33.691,0.000
1709200867.656,-38.574,-41.016,-40.527,-37.109,0.000
1709200867.660,-33.203,-41.504,-38.574,-44.434,0.000
1709200867.664,-35.645,-51.270,-40.039,-48.340,0.000
1709200867.668,-39.062,-58.105,-47.852,-43.457,0.000
1709200867.672,-41.992,-56.641,-41.992,-34.180,0.000
1709200867.676,-34.180,-44.922,-32.227,-26.855,0.000
1709200867.679,-27.344,-35.156,-39.062,-34.180,0.000
1709200867.683,-30.273,-50.781,-41.504,-35.156,0.000
1709200867.687,-39.551,-47.363,-38.574,-34.180,0.000
1709200867.691,-45.410,-31.250,-43.945,-45.898,0.000
1709200867.695,-35.645,-30.273,-42.480,-39.062,0.000
1709200867.699,-26.367,-31.250,-36.133,-27.832,0.000
1709200867.703,-33.691,-35.156,-39.062,-36.133,0.000
1709200867.707,-39.062,-34.668,-41.992,-39.551,0.000
1709200867.711,-33.691,-32.715,-36.133,-35.645,0.000
1709200867.715,-32.715,-35.156,-39.062,-36.133,0.000
1709200867.718,-24.902,-36.621,-38.574,-31.738,0.000
1709200867.722,-23.438,-33.203,-33.691,-26.855,0.000
1709200867.726,-30.762,-33.203,-35.156,-27.344,0.000
1709200867.730,-40.039,-39.062,-38.086,-22.461,0.000
1709200867.734,-42.480,-26.855,-39.062,-21.973,0.000
1709200867.738,-37.598,-22.949,-41.016,-29.297,0.000
1709200867.742,-48.340,-37.109,-35.645,-41.016,0.000
1709200867.746,-62.500,-48.828,-32.715,-48.340,0.000
1709200867.750,-58.594,-41.992,-38.086,-47.363,0.000
1709200867.754,-49.805,-39.062,-29.785,-37.598,0.000
1709200867.758,-48.828,-41.504,-31.250,-33.203,0.000
1709200867.761,-42.969,-32.227,-38.086,-36.133,0.000
1709200867.765,-44.922,-40.527,-26.367,-46.387,0.000
1709200867.769,-51.758,-43.457,-23.438,-51.758,0.000
1709200867.773,-46.875,-43.945,-37.109,-33.691,0.000
1709200867.777,-41.504,-39.062,-40.039,-28.809,0.000
1709200867.781,-38.086,-21.484,-32.715,-40.527,0.000
1709200867.785,-39.551,-29.785,-32.715,-42.969,0.000
1709200867.789,-52.734,-50.293,-43.945,-45.898,0.000
1709200867.793,-50.781,-45.898,-35.645,-41.992,0.000
1709200867.797,-44.922,-29.785,-35.645,-41.016,0.000
1709200867.801,-48.340,-36.621,-37.109,-45.410,0.000
1709200867.804,-48.828,-40.039,-32.227,-42.969,0.000
1709200867.808,-43.945,-31.250,-26.855,-38.086,0.000
1709200867.812,-35.645,-33.691,-22.949,-35.645,0.000
1709200867.816,-32.227,-38.574,-32.715,-29.785,0.000
1709200867.820,-28.320,-42.480,-34.180,-22.461,0.000
1709200867.824,-34.668,-35.645,-40.039,-31.250,0.000
1709200867.828,-42.969,-26.855,-43.457,-44.922,0.000
1709200867.832,-37.109,-32.715,-32.227,-38.086,0.000
1709200867.836,-32.715,-33.691,-29.785,-22.461,0.000
1709200867.840,-33.691,-36.133,-37.109,-33.691,0.000
1709200867.843,-44.922,-38.574,-43.945,-49.805,0.000
1709200867.847,-49.805,-39.062,-43.945,-47.852,0.000
1709200867.851,-43.457,-37.109,-36.133,-49.805,0.000
1709200867.855,-38.574,-31.250,-31.250,-41.504,0.000
1709200867.859,-32.715,-31.250,-40.039,-33.203,0.000
1709200867.863,-40.527,-48.828,-47.852,-32.227,0.000
1709200867.867,-44.922,-48.828,-44.434,-23.926,0.000
1709200867.871,-36.133,-30.762,-43.457,-32.227,0.000
1709200867.875,-29.297,-28.320,-38.574,-32.715,0.000
1709200867.879,-36.133,-30.762,-40.527,-38.086,0.000
1709200867.883,-47.363,-38.086,-45.410,-42.480,0.000
1709200867.886,-55.176,-38.574,-40.527,-38.086,0.000
1709200867.890,-53.711,-46.387,-43.945,-36.133,0.000
1709200867.894,-43.945,-45.898,-40.527,-35.645,0.000
1709200867.898,-44.434,-35.156,-31.738,-33.203,0.000
1709200867.902,-52.734,-41.992,-32.227,-29.297,0.000
1709200867.906,-55.664,-51.758,-29.785,-41.016,0.000
1709200867.910,-51.270,-45.410,-27.832,-44.434,0.000
1709200867.914,-40.527,-31.738,-34.668,-35.645,0.000
1709200867.918,-28.320,-31.250,-37.598,-27.344,0.000
1709200867.922,-29.785,-41.504,-35.156,-24.902,0.000
1709200867.925,-34.180,-41.016,-27.344,-22.949,0.000
1709200867.929,-36.133,-41.992,-35.156,-19.043,0.000
1709200867.933,-35.156,-43.945,-40.039,-27.832,0.000
1709200867.937,-25.391,-43.945,-28.320,-33.691,0.000
1709200867.941,-28.320,-41.504,-29.785,-34.180,0.000
1709200867.945,-37.109,-35.156,-29.785,-32.715,0.000
1709200867.949,-43.457,-40.039,-28.320,-31.738,0.000
1709200867.953,-44.434,-49.316,-34.180,-34.668,0.000
1709200867.957,-34.180,-41.504,-36.621,-34.668,0.000
1709200867.961,-29.785,-34.668,-41.016,-36.133,0.000
1709200867.965,-35.645,-44.922,-40.527,-37.598,0.000
1709200867.968,-46.387,-49.805,-37.109,-26.855,0.000
1709200867.972,-44.434,-45.898,-43.945,-25.879,0.000
1709200867.976,-36.133,-42.480,-45.410,-43.945,0.000
1709200867.980,-41.016,-41.992,-48.340,-56.641,0.000
1709200867.984,-44.922,-42.480,-52.246,-58.105,0.000
1709200867.988,-38.574,-40.527,-46.387,-55.664,0.000
1709200867.992,-46.387,-39.062,-44.922,-52.734,0.000
1709200867.996,-48.828,-40.527,-44.434,-48.828,0.000
1709200868.000,-33.203,-41.504,-39.551,-38.086,0.000
1709200868.004,-36.133,-40.527,-41.992,-41.992,0.000
1709200868.008,-44.434,-38.086,-45.410,-55.664,0.000
1709200868.011,-51.270,-43.457,-40.527,-46.387,0.000
1709200868.015,-41.016,-44.434,-41.992,-36.133,0.000
1709200868.019,-36.621,-39.062,-49.805,-46.387,0.000
1709200868.023,-41.504,-42.480,-40.527,-56.641,0.000
1709200868.027,-43.457,-44.922,-37.109,-57.129,0.000
1709200868.031,-40.039,-43.457,-35.645,-50.781,0.000
1709200868.035,-34.668,-37.109,-28.320,-47.363,0.000
1709200868.039,-30.273,-29.297,-29.297,-37.109,0.000
1709200868.043,-32.715,-41.504,-28.809,-32.715,0.000
1709200868.047,-47.363,-56.152,-30.762,-38.574,0.000
1709200868.050,-58.105,-46.387,-39.551,-43.945,0.000
1709200868.054,-49.805,-43.457,-42.480,-42.969,0.000
1709200868.058,-42.480,-60.059,-38.574,-28.320,0.000
1709200868.062,-35.645,-51.270,-30.762,-22.461,0.000
1709200868.066,-35.156,-28.809,-29.785,-29.297,0.000
1709200868.070,-49.316,-38.574,-34.180,-39.062,0.000
1709200868.074,-39.062,-40.527,-31.738,-51.270,0.000
1709200868.078,-35.156,-30.273,-33.203,-56.152,0.000
1709200868.082,-57.617,-34.668,-36.621,-55.176,0.000
1709200868.086,-61.523,-38.574,-34.668,-57.617,0.000
1709200868.090,-62.012,-43.457,-39.062,-63.965,0.000
1709200868.093,-59.082,-47.363,-46.875,-59.570,0.000
1709200868.097,-46.387,-42.969,-41.504,-53.711,0.000
1709200868.101,-41.992,-46.387,-41.992,-55.176,0.000
1709200868.105,-49.805,-53.223,-48.340,-48.340,0.000
1709200868.109,-48.340,-37.598,-41.016,-43.457,0.000
1709200868.113,-39.551,-35.645,-44.922,-44.434,0.000
1709200868.117,-39.062,-47.363,-52.734,-44.922,0.000
1709200868.121,-44.434,-48.340,-50.781,-45.898,0.000
1709200868.125,-49.316,-45.898,-45.410,-42.480,0.000
1709200868.129,-53.711,-49.316,-34.668,-39.062,0.000
1709200868.133,-54.688,-53.223,-32.227,-29.785,0.000
1709200868.136,-48.340,-45.898,-35.156,-27.832,0.000
1709200868.140,-48.828,-48.340,-32.715,-43.457,0.000
1709200868.144,-55.664,-50.781,-32.227,-48.340,0.000
1709200868.148,-52.246,-53.711,-32.715,-33.203,0.000
1709200868.152,-49.805,-54.199,-29.785,-22.949,0.000
1709200868.156,-35.645,-38.574,-31.250,-26.367,0.000
1709200868.160,-27.344,-36.621,-32.227,-22.949,0.000
1709200868.164,-41.992,-43.457,-38.086,-29.297,0.000
1709200868.168,-42.969,-47.363,-37.598,-32.227,0.000
1709200868.172,-47.363,-42.480,-29.297,-31.250,0.000
1709200868.175,-51.270,-43.945,-31.738,-27.344,0.000
1709200868.179,-38.086,-47.363,-35.156,-23.926,0.000
1709200868.183,-35.645,-43.457,-38.574,-34.668,0.000
1709200868.187,-41.992,-43.457,-33.203,-39.551,0.000
1709200868.191,-42.969,-43.945,-39.551,-35.156,0.000
1709200868.195,-38.086,-49.316,-50.293,-27.832,0.000
1709200868.199,-31.738,-39.062,-29.297,-31.738,0.000
1709200868.203,-34.668,-37.598,-25.391,-49.805,0.000
1709200868.207,-45.410,-46.875,-38.086,-54.199,0.000
1709200868.211,-45.410,-44.434,-35.156,-51.270,0.000
1709200868.215,-34.180,-33.691,-29.785,-42.969,0.000
1709200868.218,-30.762,-34.668,-34.180,-42.969,0.000
1709200868.222,-27.832,-44.434,-44.434,-41.504,0.000
1709200868.226,-27.832,-39.551,-44.922,-37.598,0.000
1709200868.230,-31.738,-37.109,-42.480,-34.180,0.000
1709200868.234,-29.297,-42.969,-41.504,-27.832,0.000
1709200868.238,-22.461,-51.270,-44.922,-22.461,0.000
1709200868.242,-15.137,-45.410,-47.363,-9.766,0.000
1709200868.246,-24.902,-31.738,-45.898,-22.461,0.000
1709200868.250,-35.645,-37.598,-43.457,-37.598,0.000
1709200868.254,-28.809,-41.504,-42.480,-32.227,0.000
1709200868.258,-27.832,-41.992,-41.992,-26.367,0.000
1709200868.261,-28.809,-42.480,-40.527,-30.273,0.000
1709200868.265,-35.156,-54.688,-46.387,-50.293,0.000
1709200868.269,-50.781,-52.734,-41.504,-57.129,0.000
1709200868.273,-54.199,-42.969,-42.969,-53.223,0.000
1709200868.277,-50.293,-46.387,-49.316,-55.176,0.000
1709200868.281,-46.875,-48.828,-41.504,-50.781,0.000
1709200868.285,-50.293,-49.316,-40.527,-41.504,0.000
1709200868.289,-57.129,-40.527,-43.457,-52.246,0.000
1709200868.293,-63.477,-42.480,-37.598,-58.105,0.000
1709200868.297,-62.500,-53.711,-37.598,-48.340,0.000
1709200868.300,-52.734,-45.898,-37.598,-45.410,0.000
1709200868.304,-49.316,-38.086,-41.016,-49.316,0.000
1709200868.308,-55.664,-49.805,-48.340,-51.758,0.000
1709200868.312,-53.223,-49.805,-47.363,-45.410,0.000
1709200868.316,-44.922,-50.293,-45.898,-43.945,0.000
1709200868.320,-36.621,-44.922,-45.410,-40.527,0.000
1709200868.324,-40.527,-44.434,-41.992,-34.668,0.000
1709200868.328,-50.293,-56.152,-36.133,-40.527,0.000
1709200868.332,-41.504,-45.898,-40.527,-34.668,0.000
1709200868.336,-25.391,-30.762,-44.434,-22.949,0.000
1709200868.340,-17.090,-30.273,-27.344,-17.090,0.000
1709200868.343,-17.578,-42.969,-23.438,-6.836,0.000
1709200868.347,-33.691,-41.504,-37.598,-12.207,0.000
1709200868.351,-39.551,-38.574,-36.133,-26.367,0.000
1709200868.355,0.000,-47.852,-39.062,-29.785,0.000
1709200868.359,0.000,-39.551,-42.480,-23.438,0.000
1709200868.363,0.000,-29.785,-37.109,-21.973,0.000
1709200868.367,0.000,-35.156,-36.133,-27.832,0.000
1709200868.371,0.000,-46.875,-33.203,-34.180,0.000
1709200868.375,0.000,-55.664,-43.945,-35.645,0.000
1709200868.379,0.000,-49.805,-42.969,-38.086,0.000
1709200868.382,0.000,-41.504,-36.133,-41.504,0.000
1709200868.386,0.000,-50.293,-36.621,-44.434,0.000
1709200868.390,0.000,-56.152,-42.969,-40.527,0.000
1709200868.394,0.000,-40.527,-53.223,-40.039,0.000
1709200868.398,0.000,-31.250,-41.992,-37.598,0.000
1709200868.402,-28.320,-42.480,-33.203,-39.062,0.000
1709200868.406,-42.480,-50.293,-39.551,-52.734,0.000
1709200868.410,-60.547,-43.945,-43.457,-59.570,0.000
1709200868.414,-54.199,-50.781,-41.504,-59.082,0.000
1709200868.418,-41.016,-52.734,-41.016,-52.246,0.000
1709200868.422,-40.039,-50.781,-42.480,-46.875,0.000
1709200868.425,-46.875,-51.758,-43.457,-45.898,0.000
1709200868.429,-52.246,-46.875,-41.016,-42.480,0.000
1709200868.433,-48.340,-54.688,-39.062,-30.273,0.000
1709200868.437,-40.039,-45.898,-42.480,-25.391,0.000
1709200868.441,-27.344,-31.250,-41.016,-28.809,0.000
1709200868.445,-30.762,-43.945,-41.992,-36.621,0.000
1709200868.449,-44.922,-48.340,-45.898,-46.387,0.000
1709200868.453,-40.527,-40.039,-42.969,-40.527,0.000
1709200868.457,-25.879,-36.621,-39.062,-37.109,0.000
1709200868.461,-25.391,-46.387,-45.898,-38.574,0.000
1709200868.465,-31.738,-49.316,-46.875,-39.062,0.000
1709200868.468,-33.203,-44.434,-33.203,-42.480,0.000
1709200868.472,-31.738,-37.109,-22.949,-41.992,0.000
1709200868.476,-24.414,-40.039,-29.785,-31.738,0.000
1709200868.480,-25.879,-44.922,-30.273,-20.508,0.000
1709200868.484,-35.156,-34.180,-26.855,-27.344,0.000
1709200868.488,-40.039,-45.898,-32.715,-29.785,0.000
1709200868.492,-43.457,-44.922,-28.809,-25.391,0.000
1709200868.496,-35.645,-31.738,-32.227,-34.668,0.000
1709200868.500,-29.297,-28.809,-42.969,-35.156,0.000
1709200868.504,-34.668,-31.738,-37.109,-34.668,0.000
1709200868.508,-39.062,-43.457,-27.832,-42.969,0.000
1709200868.511,-50.781,-47.852,-29.297,-50.781,0.000
1709200868.515,-54.688,-42.480,-37.598,-56.152,0.000
1709200868.519,-52.734,-34.180,-37.109,-58.105,0.000
1709200868.523,-58.105,-41.016,-29.785,-49.805,0.000
1709200868.527,-54.688,-39.551,-27.344,-37.598,0.000
1709200868.531,-53.223,-32.227,-28.320,-42.480,0.000
1709200868.535,-50.781,-40.039,-31.250,-41.016,0.000
1709200868.539,-41.504,-44.434,-37.598,-35.645,0.000
1709200868.543,-41.504,-41.504,-35.645,-39.062,0.000
1709200868.547,-51.758,-38.086,-34.180,-45.898,0.000
1709200868.550,-54.688,-39.062,-40.527,-42.969,0.000
1709200868.554,-48.340,-42.480,-37.598,-35.645,0.000
1709200868.558,-36.133,-38.574,-30.762,-30.762,0.000
1709200868.562,-38.086,-40.527,-30.762,-36.621,0.000
1709200868.566,-43.945,-47.852,-26.855,-41.016,0.000
1709200868.570,-44.922,-44.434,-25.879,-25.879,0.000
1709200868.574,-55.664,-31.738,-31.250,-30.762,0.000
1709200868.578,-50.781,-28.809,-31.738,-42.969,0.000
1709200868.582,-41.504,-37.598,-25.391,-30.273,0.000
1709200868.586,-45.898,-43.457,-26.367,-33.691,0.000
1709200868.590,-46.387,-42.969,-28.809,-37.109,0.000
1709200868.593,-40.527,-41.504,-28.809,-29.297,0.000
1709200868.597,-31.738,-40.527,-29.785,-25.879,0.000
1709200868.601,-29.785,-35.156,-35.645,-29.785,0.000
1709200868.605,-32.715,-39.551,-37.598,-37.598,0.000
1709200868.609,-39.062,-43.457,-31.250,-49.316,0.000
1709200868.613,-45.898,-43.457,-32.227,-40.039,0.000
1709200868.617,-38.086,-37.598,-35.645,-29.785,0.000
1709200868.621,-34.668,-34.668,-41.504,-44.434,0.000
1709200868.625,-42.480,-46.387,-38.086,-42.969,0.000
1709200868.629,-46.387,-44.922,-33.691,-44.922,0.000
1709200868.632,-48.340,-40.527,-42.969,-54.199,0.000
1709200868.636,-41.504,-41.504,-48.340,-47.363,0.000
1709200868.640,-44.922,-48.340,-45.410,-53.711,0.000
1709200868.644,-48.340,-47.852,-41.992,-60.059,0.000
1709200868.648,-45.898,-40.039,-38.086,-43.945,0.000
1709200868.652,-48.340,-42.969,-40.039,-37.598,0.000
1709200868.656,-42.969,-48.340,-41.016,-36.621,0.000
1709200868.660,-39.062,-49.316,-40.039,-29.297,0.000
1709200868.664,-43.945,-37.598,-33.691,-36.621,0.000
1709200868.668,-46.875,-27.832,-24.414,-50.293,0.000
1709200868.672,-45.410,-41.504,-30.273,-52.734,0.000
1709200868.675,-43.457,-44.922,-37.109,-41.992,0.000
1709200868.679,-40.527,-36.621,-42.969,-31.738,0.000
1709200868.683,0.000,-37.598,-41.992,-31.250,0.000
1709200868.687,0.000,-44.434,-39.062,-38.086,0.000
1709200868.691,0.000,-41.992,-42.969,-40.527,0.000
1709200868.695,0.000,-38.574,-35.645,-36.133,0.000
1709200868.699,0.000,-43.457,-30.762,-39.062,0.000
1709200868.703,0.000,-50.781,-41.992,-40.039,0.000
1709200868.707,0.000,-47.363,-45.410,-42.969,0.000
1709200868.711,0.000,-34.668,-42.480,-51.270,0.000
1709200868.715,0.000,-36.621,-37.109,-42.969,0.000
1709200868.718,0.000,-38.574,-28.809,-37.109,0.000
1709200868.722,0.000,-34.668,-28.320,-38.086,0.000
1709200868.726,0.000,-31.738,-37.598,-41.992,0.000
1709200868.730,-42.480,-39.062,-41.992,-42.969,0.000
1709200868.734,-40.039,-45.898,-41.992,-36.621,0.000
1709200868.738,-35.156,-40.527,-42.480,-39.062,0.000
1709200868.742,-34.668,-46.387,-41.504,-41.016,0.000
1709200868.746,-36.621,-53.223,-45.410,-38.574,0.000
1709200868.750,-40.527,-51.270,-42.969,-45.898,0.000
1709200868.754,-38.574,-42.480,-36.133,-43.945,0.000
1709200868.757,-34.668,-37.109,-37.109,-39.551,0.000
1709200868.761,-37.109,-43.457,-39.062,-47.363,0.000
1709200868.765,-41.992,-44.434,-33.691,-50.781,0.000
1709200868.769,-45.410,-33.691,-31.738,-53.711,0.000
1709200868.773,-50.781,-38.574,-39.551,-54.688,0.000
1709200868.777,-50.781,-51.270,-50.293,-44.922,0.000
1709200868.781,-43.945,-45.410,-41.992,-35.156,0.000
1709200868.785,-39.062,-34.180,-31.738,-36.133,0.000
1709200868.789,-41.992,-40.527,-33.691,-33.691,0.000
1709200868.793,-43.945,-49.805,-37.109,-35.645,0.000
1709200868.797,-32.227,-43.457,-34.180,-32.227,0.000
1709200868.800,-25.391,-42.969,-38.086,-24.902,0.000
1709200868.804,-37.598,-52.246,-46.875,-29.785,0.000
1709200868.808,-41.016,-63.477,-41.504,-31.738,0.000
1709200868.812,-37.598,-56.641,-35.156,-28.809,0.000
1709200868.816,-38.086,-41.992,-40.039,-33.203,0.000
1709200868.820,-36.621,-47.363,-45.898,-41.504,0.000
