timestamps,TP9,AF7,AF8,TP10,Right AUX
1709206012.887,0.000,-46.387,-46.387,-51.270,0.000
1709206012.891,0.000,-48.828,-48.340,-45.898,0.000
1709206012.895,0.000,-41.504,-43.457,-38.574,0.000
1709206012.899,0.000,-34.180,-42.969,-43.945,0.000
1709206012.903,0.000,-41.992,-47.852,-42.969,0.000
1709206012.907,0.000,-49.316,-52.246,-38.086,0.000
1709206012.911,0.000,-43.457,-51.758,-43.945,0.000
1709206012.915,0.000,-38.086,-47.852,-51.758,0.000
1709206012.919,0.000,-43.945,-46.875,-51.270,0.000
1709206012.923,0.000,-52.246,-45.410,-40.039,0.000
1709206012.926,0.000,-41.504,-42.969,-44.434,0.000
1709206012.930,0.000,-35.156,-38.086,-41.992,0.000
1709206012.934,-28.320,-38.574,-40.039,-27.832,0.000
1709206012.938,-28.809,-35.645,-39.551,-29.785,0.000
1709206012.942,-31.250,-34.180,-41.016,-29.297,0.000
1709206012.946,-43.457,-46.875,-43.457,-24.902,0.000
1709206012.950,-44.434,-55.176,-40.039,-24.414,0.000
1709206012.954,-33.203,-49.316,-40.527,-38.086,0.000
1709206012.958,-33.691,-39.551,-42.480,-51.758,0.000
1709206012.962,-35.156,-40.039,-36.621,-46.875,0.000
1709206012.966,-39.551,-59.082,-38.086,-31.250,0.000
1709206012.969,-49.316,-51.270,-43.457,-33.203,0.000
1709206012.973,-40.527,-32.227,-37.598,-45.898,0.000
1709206012.977,-36.621,-39.062,-38.574,-41.504,0.000
1709206012.981,-44.922,-44.922,-41.992,-46.875,0.000
1709206012.985,-50.781,-48.340,-40.039,-53.711,0.000
1709206012.989,-52.734,-44.434,-33.691,-47.363,0.000
1709206012.993,-43.945,-48.828,-38.574,-45.410,0.000
1709206012.997,-42.969,-56.152,-46.387,-54.199,0.000
1709206013.001,-47.363,-52.734,-41.992,-54.199,0.000
1709206013.005,-50.293,-55.176,-40.527,-49.316,0.000
1709206013.009,-42.969,-59.082,-42.480,-43.945,0.000
1709206013.012,-37.598,-59.082,-41.016,-38.086,0.000
1709206013.016,-44.922,-43.457,-40.527,-35.645,0.000
1709206013.020,-46.875,-42.969,-36.621,-39.062,0.000
1709206013.024,-49.316,-51.758,-34.180,-44.434,0.000
1709206013.028,-49.316,-47.363,-40.527,-44.922,0.000
1709206013.032,-39.062,-37.598,-39.062,-43.457,0.000
1709206013.036,-36.133,-40.527,-39.551,-49.316,0.000
1709206013.040,-40.039,-49.805,-38.574,-43.457,0.000
1709206013.044,-44.922,-46.387,-36.133,-36.133,0.000
1709206013.048,-46.875,-45.410,-37.109,-32.715,0.000
1709206013.051,-41.992,-41.016,-34.668,-34.668,0.000
1709206013.055,-41.504,-48.828,-35.156,-30.273,0.000
1709206013.059,-42.969,-46.387,-37.598,-28.809,0.000
1709206013.063,-46.387,-27.832,-38.086,-41.016,0.000
1709206013.067,-50.781,-35.645,-39.551,-40.039,0.000
1709206013.071,-52.734,-41.504,-48.828,-41.016,0.000
1709206013.075,-55.176,-47.363,-59.570,-45.898,0.000
1709206013.079,-51.758,-44.434,-53.223,-46.875,0.000
1709206013.083,-44.922,-40.039,-43.945,-43.457,0.000
1709206013.087,-53.711,-47.852,-42.969,-44.434,0.000
1709206013.091,-54.688,-47.852,-43.457,-48.828,0.000
1709206013.094,-42.969,-45.898,-39.062,-42.480,0.000
1709206013.098,-41.016,-49.805,-41.016,-36.621,0.000
1709206013.102,-48.828,-55.176,-38.574,-30.273,0.000
1709206013.106,-52.246,-44.922,-30.273,-34.180,0.000
1709206013.110,-44.434,-38.574,-29.785,-40.527,0.000
1709206013.114,-37.109,-43.945,-28.320,-34.180,0.000
1709206013.118,-37.598,-42.480,-32.227,-39.551,0.000
1709206013.122,-45.898,-39.062,-40.039,-50.293,0.000
1709206013.126,-49.805,-40.039,-36.621,-46.875,0.000
1709206013.130,-49.316,-40.527,-30.273,-43.457,0.000
1709206013.133,-44.434,-38.086,-32.715,-33.691,0.000
1709206013.137,-40.527,-36.133,-34.180,-36.621,0.000
1709206013.141,-49.805,-37.109,-30.273,-38.574,0.000
1709206013.145,-56.641,-48.340,-24.414,-34.668,0.000
1709206013.149,-54.688,-46.875,-29.297,-57.129,0.000
1709206013.153,-44.922,-35.156,-36.621,-62.500,0.000
1709206013.157,-36.621,-42.969,-37.598,-55.664,0.000
1709206013.161,-41.504,-41.992,-38.574,-54.688,0.000
1709206013.165,-44.434,-36.621,-34.668,-41.992,0.000
1709206013.169,-37.598,-31.738,-31.738,-44.922,0.000
1709206013.173,-44.434,-41.992,-34.668,-56.152,0.000
1709206013.176,-53.223,-45.898,-33.691,-48.340,0.000
1709206013.180,-50.293,-35.645,-33.691,-49.316,0.000
1709206013.184,-43.945,-40.527,-41.504,-45.410,0.000
1709206013.188,-43.457,-50.781,-37.109,-23.438,0.000
1709206013.192,-43.945,-61.035,-30.273,-13.184,0.000
1709206013.196,-39.551,-55.664,-32.715,-19.531,0.000
1709206013.200,-42.969,-49.316,-30.762,-33.691,0.000
1709206013.204,-49.316,-61.035,-29.297,-39.551,0.000
1709206013.208,-48.828,-63.965,-23.926,-30.762,0.000
1709206013.212,-47.363,-64.941,-19.043,-24.414,0.000
1709206013.216,-50.293,-81.055,-19.531,-20.996,0.000
1709206013.219,-53.711,-94.238,-20.508,-27.832,0.000
1709206013.223,-53.711,-103.516,-20.508,-33.691,0.000
1709206013.227,-55.664,-102.539,-18.066,-30.762,0.000
1709206013.231,-58.594,-101.562,-16.602,-31.250,0.000
1709206013.235,-51.270,-114.746,-17.090,-22.461,0.000
1709206013.239,-49.316,-118.164,-14.648,-18.066,0.000
1709206013.243,-51.758,-113.770,-10.254,-19.043,0.000
1709206013.247,-59.570,-124.512,-10.254,-20.996,0.000
1709206013.251,-69.336,-139.160,-13.672,-11.230,0.000
1709206013.255,-51.270,-125.488,-14.160,3.418,0.000
1709206013.258,-32.715,-122.559,-17.090,1.465,0.000
1709206013.262,0.000,-136.719,-18.555,-3.418,0.000
1709206013.266,0.000,-130.371,-16.602,-1.465,0.000
1709206013.270,0.000,-125.977,-16.602,2.441,0.000
1709206013.274,0.000,-127.930,-16.602,-2.441,0.000
1709206013.278,0.000,-133.301,-18.066,0.000,0.000
1709206013.282,0.000,-136.230,-12.207,15.625,0.000
1709206013.286,0.000,-135.742,-12.695,17.578,0.000
1709206013.290,0.000,-139.648,-24.902,11.230,0.000
1709206013.294,0.000,-143.066,-25.879,10.254,0.000
1709206013.298,0.000,-143.066,-21.973,8.789,0.000
1709206013.301,0.000,-128.906,-25.391,-3.418,0.000
1709206013.305,0.000,-122.070,-22.461,-3.906,0.000
1709206013.309,-54.199,-129.395,-19.531,3.418,0.000
1709206013.313,-51.758,-127.930,-26.855,-0.977,0.000
1709206013.317,-54.199,-120.117,-30.762,-15.137,0.000
1709206013.321,-52.734,-117.188,-24.902,-17.090,0.000
1709206013.325,-60.059,-120.117,-27.344,-14.160,0.000
1709206013.329,-61.523,-120.605,-35.156,-28.320,0.000
1709206013.333,-48.828,-105.957,-31.738,-28.809,0.000
1709206013.337,-43.457,-91.797,-28.809,-30.273,0.000
1709206013.340,-43.945,-99.121,-24.902,-21.484,0.000
1709206013.344,-48.340,-101.074,-30.762,-7.324,0.000
1709206013.348,-44.922,-86.426,-35.156,-15.137,0.000
1709206013.352,-38.086,-82.520,-27.832,-9.277,0.000
1709206013.356,-33.203,-81.055,-30.273,-6.836,0.000
1709206013.360,-31.250,-84.961,-40.039,-17.578,0.000
1709206013.364,-33.691,-81.055,-41.016,-17.578,0.000
1709206013.368,-31.738,-75.195,-36.133,-12.207,0.000
1709206013.372,-21.973,-75.684,-37.109,-7.812,0.000
1709206013.376,-15.625,-74.707,-39.062,-20.508,0.000
1709206013.380,-14.160,-70.801,-34.668,-24.902,0.000
1709206013.383,-22.949,-71.289,-32.715,-13.672,0.000
1709206013.387,-36.133,-79.102,-41.504,-10.254,0.000
1709206013.391,-31.250,-65.918,-42.480,-17.090,0.000
1709206013.395,-21.484,-55.664,-36.621,-21.973,0.000
1709206013.399,-17.578,-62.500,-35.156,-13.672,0.000
1709206013.403,-18.555,-57.617,-34.180,-11.230,0.000
1709206013.407,-24.902,-50.781,-30.762,-16.113,0.000
1709206013.411,-20.996,-54.199,-32.715,-24.902,0.000
1709206013.415,-17.090,-62.012,-37.598,-21.484,0.000
1709206013.419,-23.926,-66.895,-41.016,-24.414,0.000
1709206013.423,-32.715,-64.453,-38.574,-30.273,0.000
1709206013.426,-37.598,-57.129,-34.668,-27.344,0.000
1709206013.430,-37.598,-63.965,-32.715,-8.789,0.000
1709206013.434,-41.016,-63.965,-40.527,-9.277,0.000
1709206013.438,-41.504,-55.176,-40.527,-39.062,0.000
1709206013.442,-43.945,-57.617,-34.668,-41.504,0.000
1709206013.446,-54.199,-62.012,-35.645,-28.320,0.000
1709206013.450,-57.129,-64.453,-33.691,-30.762,0.000
1709206013.454,-55.176,-67.383,-37.598,-35.645,0.000
1709206013.458,-51.270,-74.219,-39.551,-37.109,0.000
1709206013.462,-55.176,-76.660,-39.551,-38.574,0.000
1709206013.465,-68.359,-80.566,-39.551,-37.598,0.000
1709206013.469,-70.801,-85.938,-37.598,-37.109,0.000
1709206013.473,-62.012,-86.914,-39.551,-34.668,0.000
1709206013.477,-63.965,-91.309,-39.062,-20.508,0.000
1709206013.481,-66.406,-81.543,-38.086,-30.762,0.000
1709206013.485,-61.035,-75.684,-43.945,-64.453,0.000
1709206013.489,-61.035,-80.566,-41.992,-65.430,0.000
1709206013.493,-53.223,-76.660,-41.992,-50.293,0.000
1709206013.497,-41.016,-68.848,-47.852,-43.945,0.000
1709206013.501,-36.133,-69.336,-47.363,-43.457,0.000
1709206013.505,-42.480,-75.195,-46.875,-44.434,0.000
1709206013.508,-46.387,-68.359,-41.992,-34.668,0.000
1709206013.512,-41.504,-60.059,-38.086,-33.203,0.000
1709206013.516,-38.574,-60.547,-41.992,-36.133,0.000
1709206013.520,-42.969,-67.383,-40.039,-26.367,0.000
1709206013.524,-52.734,-60.547,-34.668,-23.438,0.000
1709206013.528,-53.223,-44.922,-39.062,-37.598,0.000
1709206013.532,-54.688,-53.711,-47.852,-54.688,0.000
1709206013.536,-57.129,-60.547,-43.945,-50.293,0.000
1709206013.540,-53.223,-54.199,-39.551,-43.945,0.000
1709206013.544,-48.828,-48.828,-41.016,-36.621,0.000
1709206013.548,-43.945,-54.688,-37.598,-28.809,0.000
1709206013.551,-40.527,-56.641,-36.621,-31.250,0.000
1709206013.555,-33.203,-47.363,-40.039,-28.809,0.000
1709206013.559,-25.391,-48.828,-37.598,-29.785,0.000
1709206013.563,-24.414,-58.594,-33.203,-34.180,0.000
1709206013.567,-33.691,-66.895,-32.715,-29.785,0.000
1709206013.571,-32.227,-52.246,-28.809,-24.902,0.000
1709206013.575,-25.391,-39.551,-31.250,-28.809,0.000
1709206013.579,-31.250,-56.641,-39.062,-31.738,0.000
1709206013.583,-33.691,-58.105,-37.598,-34.180,0.000
1709206013.587,-40.527,-46.387,-36.621,-41.504,0.000
1709206013.590,-40.527,-47.852,-39.062,-44.434,0.000
1709206013.594,-23.926,-49.805,-38.086,-38.086,0.000
1709206013.598,-19.531,-43.945,-32.227,-37.109,0.000
1709206013.602,-30.273,-43.945,-33.691,-36.133,0.000
1709206013.606,-33.691,-50.781,-38.086,-34.180,0.000
1709206013.610,-31.250,-62.012,-39.062,-36.621,0.000
1709206013.614,-36.621,-54.199,-39.062,-37.598,0.000
1709206013.618,-38.574,-41.992,-40.527,-42.480,0.000
1709206013.622,-29.297,-47.852,-34.180,-38.086,0.000
1709206013.626,-33.691,-58.105,-32.715,-33.691,0.000
1709206013.629,-41.016,-51.758,-34.180,-32.715,0.000
1709206013.633,-28.809,-31.250,-27.832,-28.320,0.000
1709206013.637,-27.344,-34.180,-28.320,-29.297,0.000
1709206013.641,-31.250,-42.969,-35.645,-28.320,0.000
1709206013.645,-36.621,-39.551,-40.039,-28.809,0.000
1709206013.649,-40.039,-45.410,-40.527,-37.598,0.000
1709206013.653,-34.668,-52.246,-43.945,-38.086,0.000
1709206013.657,-34.180,-53.711,-47.363,-30.273,0.000
1709206013.661,-36.621,-51.758,-44.434,-44.434,0.000
1709206013.665,-42.969,-50.293,-44.922,-57.129,0.000
1709206013.669,-44.922,-53.223,-44.434,-41.016,0.000
1709206013.672,-40.039,-55.176,-41.016,-31.738,0.000
1709206013.676,-27.832,-41.504,-41.016,-32.227,0.000
1709206013.680,-31.738,-42.480,-41.016,-39.062,0.000
1709206013.684,0.000,-51.758,-39.551,-40.039,0.000
1709206013.688,0.000,-49.316,-37.598,-36.133,0.000
1709206013.692,0.000,-46.875,-49.805,-42.969,0.000
1709206013.696,0.000,-46.387,-50.781,-39.551,0.000
1709206013.700,0.000,-48.340,-40.527,-28.809,0.000
1709206013.704,0.000,-51.270,-43.945,-31.250,0.000
1709206013.708,0.000,-46.875,-42.969,-38.574,0.000
1709206013.712,0.000,-42.480,-37.109,-39.062,0.000
1709206013.715,0.000,-52.734,-36.133,-35.156,0.000
1709206013.719,0.000,-46.387,-32.715,-32.227,0.000
1709206013.723,0.000,-29.297,-32.715,-41.016,0.000
1709206013.727,0.000,-37.598,-35.156,-34.668,0.000
1709206013.731,-45.410,-43.457,-33.203,-30.762,0.000
1709206013.735,-44.434,-37.109,-32.227,-33.203,0.000
1709206013.739,-39.062,-40.527,-33.691,-40.527,0.000
1709206013.743,-33.203,-44.434,-29.785,-40.527,0.000
1709206013.747,-36.133,-47.363,-27.832,-23.438,0.000
1709206013.751,-36.133,-51.270,-31.250,-26.855,0.000
1709206013.755,-34.180,-49.316,-35.645,-34.668,0.000
1709206013.758,-38.574,-53.223,-37.109,-42.480,0.000
1709206013.762,-39.062,-57.129,-31.738,-45.898,0.000
1709206013.766,-48.340,-40.527,-28.809,-45.410,0.000
1709206013.770,-48.340,-33.691,-35.645,-50.781,0.000
1709206013.774,-33.691,-47.363,-41.992,-55.176,0.000
1709206013.778,-37.109,-43.457,-40.039,-62.012,0.000
1709206013.782,-39.062,-38.086,-38.086,-58.105,0.000
1709206013.786,-40.527,-43.457,-45.898,-50.293,0.000
1709206013.790,-41.016,-48.340,-45.410,-45.410,0.000
1709206013.794,-33.691,-51.270,-42.480,-42.969,0.000
1709206013.797,-39.062,-55.176,-44.434,-45.898,0.000
1709206013.801,-41.016,-57.617,-42.969,-60.059,0.000
1709206013.805,-41.992,-64.941,-42.969,-56.641,0.000
1709206013.809,-50.781,-62.012,-44.922,-44.434,0.000
1709206013.813,-43.945,-40.039,-45.410,-47.852,0.000
1709206013.817,-38.574,-38.086,-36.621,-44.922,0.000
1709206013.821,-40.527,-45.898,-36.133,-44.922,0.000
1709206013.825,-40.039,-41.504,-40.527,-40.527,0.000
1709206013.829,-38.086,-40.039,-44.434,-39.551,0.000
1709206013.833,-30.273,-42.969,-45.898,-45.410,0.000
1709206013.837,-27.344,-44.922,-42.969,-41.992,0.000
1709206013.840,-31.250,-43.945,-38.086,-35.156,0.000
1709206013.844,-32.227,-41.016,-37.598,-25.879,0.000
1709206013.848,-31.738,-38.574,-41.992,-20.508,0.000
1709206013.852,-36.621,-46.387,-41.992,-21.973,0.000
1709206013.856,-36.621,-33.203,-36.133,-29.297,0.000
1709206013.860,-37.598,-25.879,-32.227,-35.645,0.000
1709206013.864,-42.969,-44.434,-38.086,-41.016,0.000
1709206013.868,-41.016,-43.457,-40.039,-39.062,0.000
1709206013.872,-37.598,-38.574,-39.551,-36.621,0.000
1709206013.876,-28.809,-45.410,-40.527,-32.227,0.000
1709206013.880,-20.996,-46.875,-38.086,-27.344,0.000
1709206013.883,-32.715,-45.410,-40.039,-26.855,0.000
1709206013.887,-42.969,-42.969,-40.527,-41.016,0.000
1709206013.891,-34.180,-42.969,-38.574,-55.176,0.000
1709206013.895,-30.273,-53.711,-37.598,-41.016,0.000
1709206013.899,-35.645,-47.363,-40.527,-38.086,0.000
1709206013.903,-35.156,-31.738,-37.598,-52.246,0.000
1709206013.907,-30.273,-36.621,-29.785,-50.293,0.000
1709206013.911,-26.367,-40.527,-26.855,-40.039,0.000
1709206013.915,-22.949,-41.016,-29.297,-40.527,0.000
1709206013.919,-23.926,-40.527,-31.738,-37.109,0.000
1709206013.922,-33.691,-52.246,-32.715,-35.645,0.000
1709206013.926,-35.645,-54.688,-36.133,-41.504,0.000
1709206013.930,-30.762,-45.410,-37.109,-43.457,0.000
1709206013.934,-24.902,-43.457,-37.109,-43.457,0.000
1709206013.938,-29.785,-47.852,-41.016,-46.387,0.000
1709206013.942,-37.598,-52.734,-41.992,-54.199,0.000
1709206013.946,-42.969,-41.016,-34.180,-56.152,0.000
1709206013.950,-60.059,-39.062,-41.992,-64.453,0.000
1709206013.954,-56.641,-52.734,-41.016,-64.453,0.000
1709206013.958,-49.805,-57.129,-36.133,-56.641,0.000
1709206013.961,-54.688,-48.828,-40.039,-61.035,0.000
1709206013.965,-59.082,-47.852,-40.039,-59.082,0.000
1709206013.969,-60.547,-55.664,-40.527,-62.012,0.000
1709206013.973,-61.035,-51.270,-40.527,-56.152,0.000
1709206013.977,-60.059,-44.922,-41.016,-47.363,0.000
1709206013.981,-62.012,-48.340,-43.945,-49.805,0.000
1709206013.985,-63.477,-62.012,-45.410,-40.039,0.000
1709206013.989,-61.035,-57.617,-43.457,-26.855,0.000
1709206013.993,-52.734,-43.945,-42.969,-27.344,0.000
1709206013.997,-48.340,-49.805,-41.504,-34.668,0.000
1709206014.001,-57.617,-57.617,-44.922,-45.898,0.000
1709206014.004,-62.500,-48.828,-46.875,-53.223,0.000
1709206014.008,-59.570,-43.945,-48.340,-52.246,0.000
1709206014.012,-56.641,-53.223,-44.922,-49.805,0.000
1709206014.016,-50.781,-54.199,-38.574,-50.781,0.000
1709206014.020,-49.805,-46.875,-37.598,-55.176,0.000
1709206014.024,-62.500,-45.410,-40.527,-62.500,0.000
1709206014.028,-66.895,-48.828,-42.480,-60.547,0.000
1709206014.032,-54.688,-54.688,-37.598,-47.363,0.000
1709206014.036,-45.410,-56.641,-40.039,-44.434,0.000
1709206014.040,-47.852,-47.363,-44.922,-45.898,0.000
1709206014.044,-50.293,-47.852,-39.062,-39.062,0.000
1709206014.047,-41.016,-57.617,-38.086,-30.273,0.000
1709206014.051,-35.645,-39.551,-40.527,-38.086,0.000
1709206014.055,-38.086,-25.879,-39.551,-43.457,0.000
1709206014.059,-30.762,-38.086,-39.062,-52.246,0.000
1709206014.063,-30.273,-43.457,-41.504,-53.223,0.000
1709206014.067,-32.227,-38.086,-37.109,-38.574,0.000
1709206014.071,-31.738,-37.598,-31.250,-29.297,0.000
1709206014.075,-29.785,-48.340,-35.156,-35.645,0.000
1709206014.079,-28.809,-51.758,-35.156,-42.480,0.000
1709206014.083,-35.156,-42.480,-34.668,-38.086,0.000
1709206014.086,-36.621,-37.598,-31.738,-35.645,0.000
1709206014.090,-40.039,-50.293,-33.203,-30.762,0.000
1709206014.094,-42.480,-53.711,-38.086,-26.367,0.000
1709206014.098,-37.598,-32.227,-34.668,-28.809,0.000
1709206014.102,-38.574,-36.621,-35.156,-32.715,0.000
1709206014.106,-52.734,-48.340,-34.180,-41.504,0.000
1709206014.110,-56.152,-45.898,-30.762,-47.363,0.000
1709206014.114,-59.570,-44.922,-36.621,-51.758,0.000
1709206014.118,-65.430,-47.852,-35.645,-49.316,0.000
1709206014.122,-67.383,-54.688,-31.738,-42.480,0.000
1709206014.126,-70.801,-52.246,-31.250,-46.875,0.000
1709206014.129,-68.359,-47.363,-33.203,-50.293,0.000
1709206014.133,-53.711,-41.992,-32.715,-40.039,0.000
1709206014.137,-48.828,-43.945,-31.738,-32.715,0.000
1709206014.141,-57.129,-41.016,-40.527,-41.992,0.000
1709206014.145,-59.082,-33.203,-43.457,-46.875,0.000
1709206014.149,-57.129,-33.203,-41.016,-41.992,0.000
1709206014.153,-50.293,-30.273,-41.504,-32.715,0.000
1709206014.157,-46.875,-31.738,-42.969,-39.551,0.000
1709206014.161,-49.316,-43.457,-41.504,-53.711,0.000
1709206014.165,-52.734,-47.363,-37.109,-48.828,0.000
1709206014.169,-50.781,-43.457,-38.086,-40.039,0.000
1709206014.172,-39.062,-46.387,-39.062,-47.363,0.000
1709206014.176,-41.992,-45.410,-37.109,-61.523,0.000
1709206014.180,-49.805,-54.688,-40.527,-51.758,0.000
1709206014.184,-46.387,-49.316,-36.133,-43.945,0.000
1709206014.188,-43.945,-29.297,-28.320,-47.363,0.000
1709206014.192,-41.992,-37.109,-30.762,-43.945,0.000
1709206014.196,-40.039,-41.016,-39.062,-45.410,0.000
1709206014.200,-44.434,-40.527,-41.992,-51.758,0.000
1709206014.204,-54.688,-45.410,-39.062,-54.199,0.000
1709206014.208,-45.410,-48.828,-33.691,-40.039,0.000
1709206014.212,-31.738,-48.828,-36.133,-41.504,0.000
1709206014.215,-37.598,-44.922,-41.992,-49.805,0.000
1709206014.219,-44.922,-44.434,-41.504,-44.434,0.000
1709206014.223,-49.805,-51.270,-40.527,-51.758,0.000
1709206014.227,-56.641,-57.129,-41.016,-41.504,0.000
1709206014.231,-54.688,-45.410,-45.898,-41.992,0.000
1709206014.235,-43.945,-35.156,-43.945,-45.898,0.000
1709206014.239,-47.852,-43.945,-43.457,-44.922,0.000
1709206014.243,-54.199,-47.852,-40.039,-54.199,0.000
1709206014.247,-54.199,-40.527,-36.621,-58.105,0.000
1709206014.251,-51.270,-40.527,-40.039,-57.617,0.000
1709206014.254,-40.527,-43.457,-40.527,-53.711,0.000
1709206014.258,-39.551,-39.551,-41.016,-54.199,0.000
1709206014.262,-47.852,-41.504,-41.992,-51.758,0.000
1709206014.266,-52.246,-47.852,-41.992,-58.105,0.000
1709206014.270,-48.340,-53.223,-38.574,-49.805,0.000
1709206014.274,-34.668,-45.410,-35.156,-31.738,0.000
1709206014.278,-28.320,-33.691,-39.062,-44.922,0.000
1709206014.282,-32.715,-42.969,-43.945,-50.293,0.000
1709206014.286,-40.527,-45.898,-43.945,-47.852,0.000
1709206014.290,-36.133,-42.480,-40.039,-51.270,0.000
1709206014.294,-32.227,-42.969,-41.016,-51.758,0.000
1709206014.297,-30.273,-41.504,-38.574,-57.129,0.000
1709206014.301,-25.391,-40.527,-35.156,-62.988,0.000
1709206014.305,-34.180,-44.922,-41.504,-58.105,0.000
1709206014.309,-31.738,-41.504,-38.574,-44.922,0.000
1709206014.313,-21.484,-42.480,-28.809,-36.133,0.000
1709206014.317,-28.809,-52.246,-29.297,-28.809,0.000
1709206014.321,-37.109,-43.457,-35.156,-37.598,0.000
1709206014.325,-48.828,-34.668,-35.156,-46.387,0.000
1709206014.329,-55.664,-43.945,-35.645,-35.156,0.000
1709206014.333,-42.969,-44.434,-35.645,-24.414,0.000
1709206014.336,-38.086,-45.410,-32.715,-33.691,0.000
1709206014.340,-50.293,-49.316,-33.691,-58.594,0.000
1709206014.344,-58.594,-60.059,-35.645,-68.848,0.000
1709206014.348,-59.082,-62.988,-36.133,-62.500,0.000
1709206014.352,-57.129,-52.246,-39.062,-55.176,0.000
1709206014.356,-57.617,-51.758,-41.992,-61.035,0.000
1709206014.360,-59.570,-60.547,-40.039,-61.523,0.000
1709206014.364,-64.453,-62.012,-39.551,-57.617,0.000
1709206014.368,-63.965,-50.781,-35.645,-58.105,0.000
1709206014.372,-62.988,-51.758,-30.762,-48.828,0.000
1709206014.376,-63.477,-58.594,-37.598,-51.270,0.000
1709206014.379,-58.105,-50.293,-40.039,-53.223,0.000
1709206014.383,-60.059,-49.805,-40.527,-53.223,0.000
1709206014.387,-63.477,-57.129,-46.875,-48.340,0.000
1709206014.391,-47.852,-53.711,-44.434,-41.016,0.000
1709206014.395,-38.574,-45.898,-47.852,-40.039,0.000
1709206014.399,-36.621,-36.133,-49.805,-39.551,0.000
1709206014.403,-33.203,-36.133,-46.387,-38.574,0.000
1709206014.407,-42.480,-48.340,-49.316,-41.016,0.000
1709206014.411,-37.598,-47.852,-49.316,-32.227,0.000
1709206014.415,-28.320,-40.527,-49.805,-30.762,0.000
1709206014.419,-22.949,-44.922,-49.316,-39.062,0.000
1709206014.422,-22.461,-52.246,-45.898,-19.043,0.000
1709206014.426,-35.645,-36.621,-46.387,-26.855,0.000
1709206014.430,-31.250,-29.297,-46.875,-44.922,0.000
1709206014.434,-19.043,-40.527,-45.898,-38.574,0.000
1709206014.438,-12.695,-39.062,-40.039,-37.598,0.000
1709206014.442,-12.207,-34.668,-34.180,-34.180,0.000
1709206014.446,-22.949,-40.527,-34.180,-33.203,0.000
1709206014.450,-31.738,-47.363,-33.203,-34.180,0.000
1709206014.454,-27.832,-51.758,-34.668,-39.551,0.000
1709206014.458,-28.320,-43.945,-33.691,-39.062,0.000
1709206014.461,-44.922,-38.086,-33.203,-46.875,0.000
1709206014.465,-55.664,-55.664,-39.551,-46.875,0.000
1709206014.469,-51.270,-50.293,-36.133,-42.480,0.000
1709206014.473,-45.410,-32.715,-35.645,-53.223,0.000
1709206014.477,-50.781,-48.828,-43.945,-60.059,0.000
1709206014.481,0.000,-59.082,-41.992,-61.035,0.000
1709206014.485,0.000,-53.711,-36.621,-68.848,0.000
1709206014.489,0.000,-52.246,-35.156,-71.777,0.000
1709206014.493,0.000,-55.664,-31.738,-58.105,0.000
1709206014.497,0.000,-56.641,-30.762,-53.223,0.000
1709206014.501,0.000,-60.059,-33.203,-53.711,0.000
1709206014.504,0.000,-59.082,-32.227,-49.805,0.000
1709206014.508,0.000,-57.129,-33.691,-43.945,0.000
1709206014.512,0.000,-61.035,-34.180,-36.133,0.000
1709206014.516,0.000,-46.387,-33.691,-28.809,0.000
1709206014.520,0.000,-39.062,-35.645,-30.273,0.000
1709206014.524,0.000,-48.828,-34.668,-32.227,0.000
1709206014.528,-50.293,-45.410,-34.668,-37.109,0.000
1709206014.532,-44.434,-41.992,-37.109,-32.227,0.000
1709206014.536,-37.109,-49.316,-39.062,-24.414,0.000
1709206014.540,-31.738,-51.270,-42.480,-18.555,0.000
1709206014.544,-36.621,-50.293,-42.969,-18.066,0.000
1709206014.547,-37.598,-47.852,-38.574,-17.090,0.000
1709206014.551,-26.367,-41.016,-33.691,-16.602,0.000
1709206014.555,-28.320,-51.758,-35.156,-24.902,0.000
1709206014.559,-32.227,-52.246,-37.109,-30.273,0.000
1709206014.563,-33.691,-47.363,-43.945,-43.945,0.000
1709206014.567,-36.621,-56.641,-45.898,-41.016,0.000
1709206014.571,-36.621,-50.781,-43.945,-32.715,0.000
1709206014.575,-31.250,-43.457,-42.969,-27.344,0.000
1709206014.579,-30.273,-38.574,-44.434,-37.598,0.000
1709206014.583,-34.668,-45.898,-43.457,-58.105,0.000
1709206014.586,-39.062,-49.316,-36.621,-50.293,0.000
1709206014.590,-45.898,-46.875,-41.992,-47.363,0.000
1709206014.594,-38.086,-47.363,-41.504,-45.410,0.000
1709206014.598,-27.344,-47.363,-38.574,-45.410,0.000
1709206014.602,-40.039,-52.246,-39.062,-44.434,0.000
1709206014.606,-49.316,-43.945,-36.133,-38.574,0.000
1709206014.610,-42.969,-41.992,-36.133,-39.551,0.000
1709206014.614,-38.574,-52.734,-32.715,-34.668,0.000
1709206014.618,-38.086,-47.852,-33.691,-31.250,0.000
1709206014.622,-37.598,-42.480,-30.762,-27.344,0.000
1709206014.626,-37.598,-44.922,-31.250,-46.387,0.000
1709206014.629,-38.086,-52.734,-39.062,-57.617,0.000
1709206014.633,-22.949,-50.293,-36.621,-42.969,0.000
1709206014.637,-16.602,-38.086,-36.621,-38.086,0.000
1709206014.641,-18.555,-38.086,-36.621,-33.203,0.000
1709206014.645,-24.902,-53.711,-35.156,-13.672,0.000
1709206014.649,-29.785,-54.688,-31.738,-2.441,0.000
1709206014.653,-27.832,-35.156,-32.715,-27.832,0.000
1709206014.657,-30.273,-34.668,-35.645,-37.598,0.000
1709206014.661,-36.133,-35.156,-31.250,-29.297,0.000
1709206014.665,-38.574,-33.691,-30.273,-24.902,0.000
1709206014.669,-34.180,-32.715,-30.273,-21.973,0.000
1709206014.672,-33.691,-36.133,-33.203,-34.180,0.000
1709206014.676,-31.250,-39.551,-34.180,-39.551,0.000
1709206014.680,-28.809,-31.738,-34.668,-33.691,0.000
1709206014.684,-34.180,-36.133,-39.551,-40.527,0.000
1709206014.688,-38.574,-44.434,-38.086,-44.922,0.000
1709206014.692,-45.410,-49.805,-37.109,-37.598,0.000
1709206014.696,-45.898,-39.062,-34.180,-35.156,0.000
1709206014.700,-37.598,-27.832,-31.738,-37.598,0.000
1709206014.704,-38.086,-36.133,-36.133,-38.086,0.000
1709206014.708,-42.969,-42.480,-40.039,-47.363,0.000
1709206014.711,-39.062,-34.668,-40.039,-49.316,0.000
1709206014.715,-36.133,-34.668,-41.992,-49.805,0.000
1709206014.719,-38.086,-44.434,-42.969,-45.898,0.000
1709206014.723,-43.945,-42.969,-40.039,-35.645,0.000
1709206014.727,-55.664,-35.645,-34.668,-41.992,0.000
1709206014.731,-53.223,-35.156,-35.156,-41.016,0.000
1709206014.735,-44.434,-47.363,-33.691,-35.645,0.000
1709206014.739,-46.387,-50.293,-33.203,-43.945,0.000
1709206014.743,-48.828,-40.527,-35.156,-44.434,0.000
1709206014.747,-50.293,-43.945,-35.156,-39.551,0.000
1709206014.750,-43.945,-54.199,-32.227,-32.715,0.000
1709206014.754,-30.273,-47.363,-32.227,-29.297,0.000
1709206014.758,-18.555,-31.250,-38.574,-35.156,0.000
1709206014.762,-22.949,-32.227,-41.992,-40.039,0.000
1709206014.766,-37.109,-39.551,-37.598,-45.410,0.000
1709206014.770,-33.691,-38.574,-35.156,-42.480,0.000
1709206014.774,-28.809,-36.621,-39.551,-39.062,0.000
1709206014.778,-33.203,-46.387,-44.922,-36.133,0.000
1709206014.782,-33.691,-53.223,-45.898,-32.715,0.000
1709206014.786,-38.574,-47.852,-43.457,-35.156,0.000
1709206014.790,-42.480,-40.527,-44.922,-46.387,0.000
1709206014.793,-35.156,-44.434,-47.363,-51.270,0.000
1709206014.797,-22.461,-52.734,-47.852,-42.969,0.000
1709206014.801,-23.926,-41.992,-48.828,-36.621,0.000
1709206014.805,-34.180,-41.992,-51.270,-35.645,0.000
1709206014.809,-38.086,-57.617,-50.293,-37.598,0.000
1709206014.813,-39.551,-52.246,-44.922,-48.340,0.000
1709206014.817,-48.340,-45.410,-45.410,-71.289,0.000
1709206014.821,-54.688,-47.363,-46.875,-72.266,0.000
1709206014.825,-62.500,-55.176,-42.969,-63.965,0.000
1709206014.829,-63.965,-59.082,-39.551,-55.176,0.000
1709206014.833,-54.199,-52.246,-41.992,-43.945,0.000
1709206014.836,-54.688,-42.969,-42.969,-50.293,0.000
1709206014.840,-61.035,-57.129,-41.016,-52.734,0.000
1709206014.844,-61.523,-60.059,-39.551,-45.410,0.000
1709206014.848,-51.270,-43.457,-38.086,-45.898,0.000
1709206014.852,-41.992,-50.293,-32.715,-35.645,0.000
1709206014.856,-37.598,-50.781,-36.621,-34.668,0.000
1709206014.860,-37.109,-42.969,-40.527,-27.832,0.000
1709206014.864,-40.527,-41.992,-35.645,-23.438,0.000
1709206014.868,-46.875,-50.781,-34.668,-33.203,0.000
1709206014.872,-44.922,-50.781,-37.109,-41.016,0.000
1709206014.875,-33.691,-42.480,-38.086,-50.781,0.000
1709206014.879,-34.668,-39.551,-40.527,-52.734,0.000
1709206014.883,-38.086,-44.434,-41.992,-48.340,0.000
1709206014.887,-38.086,-49.316,-37.109,-33.203,0.000
1709206014.891,-33.203,-37.598,-36.133,-27.344,0.000
1709206014.895,-24.902,-31.738,-35.156,-41.504,0.000
1709206014.899,-30.273,-41.504,-34.180,-45.410,0.000
1709206014.903,0.000,-41.992,-33.203,-37.109,0.000
1709206014.907,0.000,-43.457,-36.621,-39.062,0.000
1709206014.911,0.000,-44.434,-43.457,-44.434,0.000
1709206014.915,0.000,-40.039,-46.875,-52.734,0.000
1709206014.918,0.000,-41.504,-46.875,-53.223,0.000
1709206014.922,0.000,-41.992,-44.922,-48.340,0.000
1709206014.926,0.000,-38.574,-44.434,-60.059,0.000
1709206014.930,0.000,-44.922,-41.504,-36.133,0.000
1709206014.934,0.000,-40.039,-39.062,-20.996,0.000
1709206014.938,0.000,-25.391,-43.945,-47.852,0.000
1709206014.942,0.000,-38.086,-46.387,-48.828,0.000
1709206014.946,0.000,-46.875,-43.945,-37.109,0.000
1709206014.950,-61.035,-41.016,-45.898,-39.551,0.000
1709206014.954,-46.875,-32.227,-41.504,-40.039,0.000
1709206014.958,-45.898,-41.992,-35.156,-46.875,0.000
1709206014.961,-55.664,-52.246,-38.086,-58.594,0.000
1709206014.965,-58.594,-53.223,-42.969,-58.594,0.000
1709206014.969,-57.617,-54.688,-39.062,-56.641,0.000
1709206014.973,-59.570,-55.176,-35.645,-47.852,0.000
1709206014.977,-51.758,-59.082,-35.156,-34.668,0.000
1709206014.981,-54.688,-47.363,-33.691,-41.016,0.000
1709206014.985,-61.035,-38.574,-36.621,-51.270,0.000
1709206014.989,-52.734,-40.039,-37.109,-39.551,0.000
1709206014.993,-43.457,-36.133,-35.156,-21.484,0.000
1709206014.997,-41.504,-31.738,-39.062,-18.555,0.000
1709206015.000,-41.504,-40.527,-39.551,-29.785,0.000
1709206015.004,-44.434,-46.387,-33.691,-28.809,0.000
1709206015.008,-47.852,-42.480,-34.668,-23.438,0.000
1709206015.012,-40.527,-41.992,-35.156,-26.367,0.000
1709206015.016,-41.016,-48.340,-32.227,-29.297,0.000
1709206015.020,-42.969,-58.594,-36.621,-37.109,0.000
1709206015.024,-42.969,-49.316,-39.062,-40.527,0.000
1709206015.028,-43.457,-26.367,-41.016,-49.316,0.000
1709206015.032,-35.156,-29.297,-38.086,-47.852,0.000
1709206015.036,-28.809,-31.738,-31.738,-35.156,0.000
1709206015.040,-32.227,-26.855,-35.645,-27.832,0.000
1709206015.043,-36.133,-27.344,-41.016,-24.414,0.000
1709206015.047,-37.109,-41.504,-41.504,-31.738,0.000
1709206015.051,-30.762,-42.969,-38.574,-34.180,0.000
1709206015.055,-23.926,-33.203,-37.109,-25.391,0.000
1709206015.059,-29.785,-35.156,-37.598,-29.297,0.000
1709206015.063,-33.691,-43.945,-35.156,-45.898,0.000
1709206015.067,-30.273,-52.246,-30.762,-31.738,0.000
1709206015.071,-39.062,-42.969,-35.156,-26.367,0.000
1709206015.075,-38.574,-29.297,-32.227,-35.156,0.000
1709206015.079,-39.062,-39.062,-27.832,-31.738,0.000
1709206015.082,-48.340,-51.270,-35.156,-47.363,0.000
1709206015.086,-49.805,-50.781,-40.039,-63.965,0.000
1709206015.090,-54.199,-53.711,-39.062,-62.500,0.000
1709206015.094,-52.246,-59.082,-37.109,-57.129,0.000
1709206015.098,-50.293,-53.223,-41.016,-56.641,0.000
1709206015.102,-56.641,-49.316,-45.898,-52.734,0.000
1709206015.106,-62.988,-49.316,-45.410,-50.781,0.000
1709206015.110,-63.965,-60.547,-43.457,-38.574,0.000
1709206015.114,-55.176,-52.246,-39.062,-19.531,0.000
1709206015.118,-43.457,-29.297,-33.691,-25.879,0.000
1709206015.122,-38.574,-43.457,-32.715,-32.227,0.000
1709206015.125,-43.457,-54.688,-34.668,-13.672,0.000
1709206015.129,-50.781,-43.457,-33.203,-4.395,0.000
1709206015.133,-46.387,-39.062,-34.180,-22.461,0.000
1709206015.137,-39.062,-46.387,-39.551,-35.645,0.000
1709206015.141,-36.621,-48.340,-39.062,-38.574,0.000
1709206015.145,-36.133,-46.875,-33.691,-34.668,0.000
1709206015.149,-30.273,-39.062,-32.227,-21.973,0.000
1709206015.153,-26.367,-41.504,-35.156,-22.949,0.000
1709206015.157,-29.297,-50.781,-36.621,-27.832,0.000
1709206015.161,-37.109,-50.293,-45.898,-41.992,0.000
1709206015.164,-37.598,-40.039,-50.781,-47.852,0.000
1709206015.168,-34.668,-41.016,-47.363,-46.387,0.000
1709206015.172,-32.715,-52.734,-45.410,-41.992,0.000
1709206015.176,-36.621,-43.945,-42.480,-45.898,0.000
1709206015.180,-47.363,-44.922,-45.410,-53.223,0.000
1709206015.184,-50.293,-56.152,-44.922,-47.852,0.000
1709206015.188,-46.387,-54.199,-41.504,-52.734,0.000
1709206015.192,-33.203,-50.293,-40.039,-57.617,0.000
1709206015.196,-32.715,-50.293,-42.969,-53.223,0.000
1709206015.200,-36.621,-47.363,-38.574,-56.641,0.000
1709206015.204,-41.992,-48.828,-33.691,-59.570,0.000
1709206015.207,-52.734,-48.340,-41.992,-58.594,0.000
1709206015.211,-51.270,-52.734,-41.992,-56.641,0.000
1709206015.215,-48.828,-60.059,-41.992,-47.852,0.000
1709206015.219,-53.223,-56.152,-46.875,-52.246,0.000
1709206015.223,-52.734,-53.223,-42.480,-66.895,0.000
1709206015.227,-61.035,-60.059,-41.504,-74.219,0.000
1709206015.231,-61.035,-64.941,-38.086,-60.059,0.000
1709206015.235,-51.758,-53.223,-36.621,-55.664,0.000
1709206015.239,-56.641,-40.039,-36.621,-60.059,0.000
1709206015.243,-61.035,-45.898,-38.574,-50.293,0.000
1709206015.247,-69.336,-53.711,-43.945,-56.641,0.000
1709206015.250,-63.477,-52.734,-42.480,-62.500,0.000
1709206015.254,-50.293,-47.852,-44.434,-48.340,0.000
1709206015.258,-40.527,-46.387,-40.527,-38.574,0.000
1709206015.262,-37.109,-54.688,-38.086,-26.855,0.000
1709206015.266,-42.969,-53.711,-43.457,-29.785,0.000
1709206015.270,-42.969,-46.387,-45.898,-40.039,0.000
1709206015.274,-34.180,-47.363,-46.387,-34.668,0.000
1709206015.278,-26.367,-39.062,-40.039,-33.203,0.000
1709206015.282,-30.273,-34.180,-38.086,-32.227,0.000
1709206015.286,-39.062,-39.551,-36.621,-22.949,0.000
1709206015.290,-39.551,-45.410,-36.621,-15.137,0.000
1709206015.293,-32.227,-46.875,-41.504,-25.879,0.000
1709206015.297,-25.879,-46.387,-42.480,-39.551,0.000
1709206015.301,-29.297,-47.852,-41.016,-40.039,0.000
1709206015.305,-34.180,-63.477,-42.480,-29.785,0.000
1709206015.309,-34.668,-60.059,-39.062,-17.578,0.000
1709206015.313,-38.086,-35.156,-43.457,-32.715,0.000
1709206015.317,-36.621,-40.039,-47.852,-37.598,0.000
1709206015.321,-35.156,-50.293,-47.852,-37.109,0.000
1709206015.325,-40.527,-47.363,-41.992,-38.086,0.000
1709206015.329,-45.410,-44.434,-38.086,-39.062,0.000
1709206015.333,-41.992,-51.270,-43.945,-46.875,0.000
1709206015.336,-40.527,-52.734,-43.457,-39.551,0.000
1709206015.340,-52.734,-49.316,-43.457,-35.156,0.000
1709206015.344,-59.082,-48.340,-40.527,-38.086,0.000
1709206015.348,-55.176,-41.016,-42.480,-41.992,0.000
1709206015.352,-43.457,-41.992,-43.457,-44.922,0.000
1709206015.356,-41.504,-39.551,-44.922,-58.105,0.000
1709206015.360,-40.039,-33.691,-45.898,-67.383,0.000
1709206015.364,-41.992,-41.992,-42.969,-54.199,0.000
1709206015.368,-47.363,-42.969,-41.016,-49.805,0.000
1709206015.372,-42.969,-35.645,-41.504,-46.875,0.000
1709206015.375,-33.691,-34.180,-41.992,-40.039,0.000
1709206015.379,-33.691,-41.016,-40.527,-39.551,0.000
1709206015.383,-40.039,-41.504,-43.945,-45.898,0.000
1709206015.387,-44.434,-38.574,-44.922,-38.574,0.000
1709206015.391,-41.016,-42.969,-41.504,-27.344,0.000
1709206015.395,-28.809,-53.711,-41.992,-26.367,0.000
1709206015.399,-20.508,-50.781,-37.598,-16.113,0.000
1709206015.403,-20.508,-30.273,-34.668,-11.230,0.000
1709206015.407,-20.020,-39.062,-39.062,-8.789,0.000
1709206015.411,-13.672,-52.246,-39.062,-17.090,0.000
1709206015.414,-14.648,-47.363,-38.086,-30.273,0.000
1709206015.418,-18.555,-41.016,-39.062,-26.367,0.000
1709206015.422,-20.020,-44.922,-35.156,-25.391,0.000
1709206015.426,-27.344,-52.246,-38.086,-39.062,0.000
1709206015.430,-31.738,-44.922,-44.434,-38.574,0.000
1709206015.434,-20.508,-37.598,-40.527,-32.715,0.000
1709206015.438,-22.949,-44.434,-43.457,-47.852,0.000
1709206015.442,-44.434,-59.082,-49.805,-41.504,0.000
1709206015.446,-52.246,-51.758,-44.922,-29.785,0.000
1709206015.450,-43.457,-35.645,-41.992,-30.762,0.000
1709206015.454,-40.527,-43.457,-45.898,-42.480,0.000
1709206015.457,-39.062,-41.016,-48.828,-56.152,0.000
1709206015.461,-35.156,-31.738,-47.363,-50.781,0.000
1709206015.465,-43.945,-38.574,-46.387,-48.340,0.000
1709206015.469,-44.922,-46.875,-50.781,-48.340,0.000
1709206015.473,-38.086,-41.504,-48.340,-43.945,0.000
1709206015.477,-35.645,-36.621,-44.434,-47.363,0.000
1709206015.481,-37.109,-42.480,-45.898,-54.688,0.000
1709206015.485,-48.828,-49.316,-45.410,-49.316,0.000
1709206015.489,-52.246,-51.758,-46.875,-42.969,0.000
1709206015.493,-49.805,-37.598,-44.922,-40.039,0.000
1709206015.496,-50.293,-37.109,-40.039,-33.691,0.000
1709206015.500,-49.316,-42.969,-39.062,-36.133,0.000
1709206015.504,-44.922,-36.621,-41.016,-33.691,0.000
1709206015.508,-36.621,-33.691,-45.410,-40.527,0.000
1709206015.512,-30.273,-35.645,-46.875,-51.758,0.000
1709206015.516,-34.180,-41.504,-47.363,-50.781,0.000
1709206015.520,-36.133,-43.945,-46.387,-44.434,0.000
1709206015.524,-35.156,-40.527,-47.363,-38.086,0.000
1709206015.528,-34.180,-37.109,-41.992,-31.738,0.000
1709206015.532,-27.344,-45.898,-32.715,-24.414,0.000
1709206015.536,-19.531,-46.387,-35.645,-27.344,0.000
1709206015.539,-22.461,-41.016,-41.504,-42.480,0.000
1709206015.543,-33.691,-43.945,-42.969,-52.246,0.000
1709206015.547,-35.156,-47.363,-43.457,-40.527,0.000
1709206015.551,-29.297,-35.645,-44.434,-32.227,0.000
1709206015.555,-22.949,-32.227,-43.945,-40.039,0.000
1709206015.559,-24.414,-43.457,-41.016,-46.387,0.000
1709206015.563,-29.297,-43.945,-43.945,-46.875,0.000
1709206015.567,-29.785,-36.133,-45.898,-49.316,0.000
1709206015.571,-29.785,-33.691,-36.133,-43.457,0.000
1709206015.575,-26.855,-42.969,-37.598,-42.480,0.000
1709206015.579,-29.297,-50.293,-44.922,-51.758,0.000
1709206015.582,-36.133,-46.875,-46.875,-53.223,0.000
1709206015.586,-45.898,-40.527,-46.387,-49.316,0.000
1709206015.590,-48.340,-50.293,-48.340,-41.016,0.000
1709206015.594,-44.922,-56.152,-48.340,-35.645,0.000
1709206015.598,-40.039,-41.016,-38.574,-41.504,0.000
1709206015.602,-44.922,-43.945,-37.598,-32.715,0.000
1709206015.606,-51.758,-51.270,-38.574,-38.086,0.000
1709206015.610,-54.688,-49.316,-35.645,-53.711,0.000
1709206015.614,-48.828,-42.969,-35.645,-42.969,0.000
1709206015.618,-42.480,-44.922,-43.457,-41.016,0.000
1709206015.622,-43.457,-47.852,-44.434,-45.410,0.000
1709206015.625,-41.504,-41.016,-39.062,-42.480,0.000
1709206015.629,-41.016,-36.133,-39.551,-37.109,0.000
1709206015.633,-32.715,-33.691,-39.062,-35.156,0.000
1709206015.637,-19.043,-40.527,-37.109,-27.344,0.000
1709206015.641,-26.367,-35.156,-35.156,-27.832,0.000
1709206015.645,-35.156,-27.832,-34.180,-39.551,0.000
1709206015.649,-30.762,-39.062,-36.133,-37.598,0.000
1709206015.653,-20.996,-41.504,-40.527,-31.250,0.000
1709206015.657,-24.414,-37.109,-43.945,-40.039,0.000
1709206015.661,-39.062,-44.434,-48.828,-53.223,0.000
1709206015.664,-42.480,-48.828,-46.387,-47.852,0.000
1709206015.668,-39.062,-50.293,-40.039,-43.457,0.000
1709206015.672,-34.668,-44.922,-37.109,-44.434,0.000
1709206015.676,-29.297,-37.598,-34.180,-57.129,0.000
1709206015.680,-26.367,-46.387,-35.156,-53.711,0.000
1709206015.684,-38.574,-43.945,-34.668,-44.922,0.000
1709206015.688,-45.898,-27.832,-35.645,-55.176,0.000
1709206015.692,-45.410,-37.109,-41.504,-54.199,0.000
1709206015.696,-42.480,-41.016,-38.574,-46.875,0.000
1709206015.700,-36.621,-41.016,-31.738,-41.016,0.000
1709206015.704,-47.363,-43.457,-31.738,-37.109,0.000
1709206015.707,-49.805,-50.781,-34.180,-31.738,0.000
1709206015.711,-50.293,-56.152,-34.668,-33.691,0.000
1709206015.715,-49.316,-45.410,-36.133,-48.340,0.000
1709206015.719,-40.527,-47.363,-36.133,-53.711,0.000
1709206015.723,-53.711,-55.176,-36.133,-44.434,0.000
1709206015.727,-64.453,-58.105,-41.504,-28.809,0.000
1709206015.731,-57.617,-44.922,-43.945,-20.508,0.000
1709206015.735,-49.805,-35.156,-39.551,-26.367,0.000
1709206015.739,-42.969,-47.852,-37.109,-23.438,0.000
1709206015.743,-44.922,-50.293,-41.992,-21.973,0.000
1709206015.747,-40.527,-41.016,-36.621,-24.414,0.000
1709206015.750,-30.273,-39.062,-31.738,-28.809,0.000
1709206015.754,-25.391,-41.504,-26.855,-24.902,0.000
1709206015.758,-25.879,-42.969,-28.809,-28.320,0.000
1709206015.762,-30.273,-40.527,-38.086,-36.133,0.000
1709206015.766,-42.480,-41.016,-43.457,-34.180,0.000
1709206015.770,-43.457,-49.805,-47.363,-30.762,0.000
1709206015.774,-35.645,-47.363,-45.898,-26.855,0.000
1709206015.778,-29.297,-28.320,-43.945,-30.762,0.000
1709206015.782,-24.902,-33.203,-47.363,-34.668,0.000
1709206015.786,-28.809,-40.039,-45.898,-37.598,0.000
1709206015.789,-31.738,-38.086,-44.434,-43.457,0.000
1709206015.793,-30.762,-36.133,-41.504,-39.062,0.000
1709206015.797,-37.109,-39.062,-38.086,-36.133,0.000
1709206015.801,-39.062,-44.922,-45.410,-41.992,0.000
1709206015.805,-34.180,-41.016,-43.457,-41.016,0.000
1709206015.809,-41.504,-39.062,-35.645,-41.016,0.000
1709206015.813,-50.781,-49.316,-35.156,-48.828,0.000
1709206015.817,-50.781,-58.594,-37.109,-45.898,0.000
1709206015.821,-46.387,-52.246,-35.645,-48.340,0.000
1709206015.825,-46.875,-38.574,-36.133,-47.363,0.000
1709206015.828,-50.781,-43.457,-42.480,-37.598,0.000
1709206015.832,-42.480,-52.734,-46.387,-44.922,0.000
1709206015.836,-39.551,-50.781,-46.387,-47.852,0.000
1709206015.840,-43.945,-51.270,-49.805,-45.898,0.000
1709206015.844,-46.875,-47.363,-45.410,-39.551,0.000
1709206015.848,-49.805,-45.898,-42.480,-40.527,0.000
1709206015.852,-51.270,-37.109,-44.434,-41.992,0.000
1709206015.856,-45.898,-32.715,-41.504,-38.574,0.000
1709206015.860,-42.480,-48.828,-41.992,-46.387,0.000
1709206015.864,-43.457,-46.387,-41.992,-44.434,0.000
1709206015.868,-48.340,-30.273,-38.086,-36.621,0.000
1709206015.871,-44.434,-35.645,-41.016,-38.086,0.000
1709206015.875,-31.250,-41.992,-39.551,-36.621,0.000
1709206015.879,-30.273,-41.504,-38.574,-41.016,0.000
1709206015.883,-39.551,-34.668,-41.504,-47.852,0.000
1709206015.887,-41.504,-40.039,-39.551,-34.180,0.000
1709206015.891,-36.621,-48.828,-39.551,-23.438,0.000
1709206015.895,-31.738,-41.992,-42.480,-26.367,0.000
1709206015.899,-23.438,-33.691,-41.016,-22.949,0.000
1709206015.903,-18.555,-35.645,-41.504,-21.484,0.000
1709206015.907,-29.297,-45.410,-47.852,-21.484,0.000
1709206015.911,-26.855,-45.898,-45.898,-15.137,0.000
1709206015.914,-18.555,-38.086,-48.340,-27.832,0.000
1709206015.918,-25.879,-39.551,-53.711,-42.969,0.000
1709206015.922,-35.156,-45.410,-51.270,-40.039,0.000
1709206015.926,-41.992,-37.598,-48.340,-39.551,0.000
1709206015.930,-41.504,-31.250,-47.363,-41.992,0.000
1709206015.934,-41.016,-42.480,-43.945,-38.086,0.000
1709206015.938,-44.922,-51.270,-47.852,-44.922,0.000
1709206015.942,-52.246,-41.992,-46.875,-47.852,0.000
1709206015.946,-55.176,-42.969,-40.039,-43.945,0.000
1709206015.950,-65.430,-52.246,-41.016,-51.758,0.000
1709206015.953,-64.941,-50.293,-37.598,-52.734,0.000
1709206015.957,-57.617,-43.945,-38.574,-47.852,0.000
1709206015.961,-64.941,-44.922,-39.062,-52.734,0.000
1709206015.965,-67.871,-67.383,-38.574,-47.852,0.000
1709206015.969,-75.684,-69.824,-40.039,-39.062,0.000
1709206015.973,-70.312,-46.875,-42.969,-47.363,0.000
1709206015.977,-63.477,-46.875,-42.480,-60.547,0.000
1709206015.981,-72.754,-51.758,-42.480,-65.918,0.000
1709206015.985,-70.312,-48.828,-42.969,-54.199,0.000
1709206015.989,-61.035,-51.758,-40.527,-48.828,0.000
1709206015.993,-51.270,-54.688,-39.551,-43.457,0.000
1709206015.996,-41.016,-51.270,-39.062,-41.504,0.000
1709206016.000,-41.016,-52.246,-39.551,-45.410,0.000
1709206016.004,-37.109,-49.805,-38.086,-41.504,0.000
1709206016.008,-29.297,-41.992,-34.180,-31.250,0.000
1709206016.012,-20.020,-44.922,-34.180,-15.137,0.000
1709206016.016,-10.742,-40.039,-35.156,-11.230,0.000
1709206016.020,-13.672,-35.156,-36.133,-27.344,0.000
1709206016.024,-18.066,-43.457,-35.156,-33.691,0.000
1709206016.028,-17.090,-46.387,-33.691,-31.250,0.000
1709206016.032,-7.324,-34.180,-33.203,-32.715,0.000
1709206016.036,-9.277,-29.785,-33.203,-33.203,0.000
1709206016.039,-22.461,-32.715,-35.156,-32.227,0.000
1709206016.043,-32.227,-40.527,-34.180,-31.738,0.000
1709206016.047,-37.109,-46.387,-34.668,-30.273,0.000
1709206016.051,-38.574,-38.574,-40.039,-35.156,0.000
1709206016.055,-35.156,-43.457,-41.992,-30.762,0.000
1709206016.059,-35.156,-45.410,-39.551,-14.648,0.000
1709206016.063,-35.645,-30.273,-37.598,-22.949,0.000
1709206016.067,-42.969,-34.668,-33.691,-30.762,0.000
1709206016.071,-41.992,-39.062,-35.645,-36.621,0.000
1709206016.075,-34.180,-32.715,-35.645,-37.598,0.000
1709206016.079,-30.762,-27.344,-34.180,-28.809,0.000
1709206016.082,-28.809,-31.250,-30.762,-23.926,0.000
1709206016.086,-36.133,-30.273,-30.273,-17.090,0.000
1709206016.090,-33.203,-29.297,-34.668,-22.949,0.000
1709206016.094,-26.855,-39.062,-39.062,-29.297,0.000
1709206016.098,-37.109,-41.504,-42.480,-35.645,0.000
1709206016.102,-45.410,-49.316,-41.016,-33.691,0.000
1709206016.106,-45.410,-40.527,-41.016,-29.297,0.000
1709206016.110,-44.922,-25.391,-38.574,-33.691,0.000
1709206016.114,-45.898,-35.156,-40.039,-31.250,0.000
1709206016.118,-47.852,-43.457,-45.410,-44.434,0.000
1709206016.121,-44.922,-38.574,-42.969,-47.852,0.000
1709206016.125,-51.270,-37.109,-38.574,-53.223,0.000
1709206016.129,-53.711,-43.457,-38.086,-60.059,0.000
1709206016.133,-45.410,-46.387,-41.016,-55.664,0.000
1709206016.137,-41.992,-42.969,-43.945,-57.129,0.000
1709206016.141,-38.574,-44.922,-41.016,-50.293,0.000
1709206016.145,-38.574,-54.199,-41.992,-45.898,0.000
1709206016.149,-34.180,-54.688,-43.457,-52.246,0.000
1709206016.153,-34.180,-41.016,-41.504,-68.848,0.000
1709206016.157,-33.203,-43.945,-39.062,-63.477,0.000
1709206016.160,-25.879,-44.922,-37.109,-54.688,0.000
1709206016.164,-26.855,-45.898,-36.621,-46.387,0.000
1709206016.168,-29.785,-39.551,-41.016,-38.574,0.000
1709206016.172,-29.785,-37.598,-44.434,-45.410,0.000
1709206016.176,-24.414,-43.457,-44.434,-42.969,0.000
1709206016.180,-26.855,-42.969,-44.922,-33.203,0.000
1709206016.184,-36.133,-50.293,-43.457,-29.785,0.000
1709206016.188,-39.551,-51.758,-41.992,-32.227,0.000
1709206016.192,-35.156,-61.035,-37.109,-22.949,0.000
1709206016.196,-37.109,-54.199,-36.133,-22.949,0.000
1709206016.200,-41.504,-42.969,-41.504,-32.227,0.000
1709206016.203,-40.039,-49.316,-37.598,-24.902,0.000
1709206016.207,-43.945,-45.898,-33.691,-19.531,0.000
1709206016.211,-41.992,-42.480,-37.109,-13.672,0.000
1709206016.215,-36.621,-45.410,-36.621,-13.672,0.000
1709206016.219,-41.504,-54.688,-34.180,-31.250,0.000
1709206016.223,-56.641,-62.500,-37.598,-51.270,0.000
1709206016.227,-60.059,-51.270,-38.086,-47.852,0.000
1709206016.231,-46.875,-41.504,-41.016,-47.852,0.000
1709206016.235,-36.621,-53.711,-43.945,-47.852,0.000
1709206016.239,-37.598,-46.387,-41.504,-41.504,0.000
1709206016.243,-47.363,-24.902,-43.945,-54.199,0.000
1709206016.246,-49.316,-34.668,-47.852,-58.594,0.000
1709206016.250,-49.805,-45.410,-48.340,-54.688,0.000
1709206016.254,-53.711,-44.922,-50.293,-56.152,0.000
1709206016.258,-51.758,-41.992,-47.363,-57.617,0.000
1709206016.262,-48.340,-44.434,-39.551,-48.340,0.000
1709206016.266,-50.781,-41.504,-38.574,-41.992,0.000
1709206016.270,-51.758,-43.457,-38.086,-43.945,0.000
1709206016.274,-38.574,-44.922,-37.598,-42.969,0.000
1709206016.278,-36.133,-48.340,-38.574,-53.711,0.000
1709206016.282,-53.711,-55.176,-43.945,-63.965,0.000
1709206016.286,-62.012,-49.316,-47.852,-66.406,0.000
1709206016.289,-54.199,-49.805,-43.457,-61.523,0.000
1709206016.293,-41.992,-56.641,-40.039,-51.270,0.000
1709206016.297,-45.410,-60.059,-39.062,-46.387,0.000
1709206016.301,-49.316,-50.781,-39.062,-58.594,0.000
1709206016.305,-48.340,-42.969,-36.133,-57.617,0.000
1709206016.309,-53.223,-53.223,-36.621,-46.875,0.000
1709206016.313,-58.105,-53.711,-37.598,-41.016,0.000
1709206016.317,-49.805,-46.875,-41.016,-40.527,0.000
1709206016.321,-46.875,-46.875,-43.457,-40.527,0.000
1709206016.325,-56.152,-52.246,-42.480,-31.250,0.000
1709206016.328,-51.758,-55.664,-44.434,-41.992,0.000
1709206016.332,-43.945,-44.922,-46.875,-50.293,0.000
1709206016.336,-37.598,-41.992,-46.875,-45.410,0.000
1709206016.340,-40.039,-57.129,-41.504,-38.574,0.000
1709206016.344,-40.527,-52.246,-40.527,-35.645,0.000
1709206016.348,-34.668,-31.250,-45.898,-37.109,0.000
1709206016.352,-38.574,-36.621,-48.828,-41.992,0.000
1709206016.356,-38.086,-41.504,-53.711,-54.688,0.000
1709206016.360,-36.621,-36.133,-57.617,-57.617,0.000
1709206016.364,-38.086,-36.133,-50.293,-54.688,0.000
1709206016.368,-39.062,-35.645,-42.969,-49.316,0.000
1709206016.371,-41.992,-40.039,-44.922,-42.969,0.000
1709206016.375,-38.086,-42.969,-45.410,-45.898,0.000
1709206016.379,-32.715,-39.551,-40.527,-42.480,0.000
1709206016.383,-33.691,-40.039,-33.203,-41.992,0.000
1709206016.387,-33.691,-42.969,-28.320,-34.180,0.000
1709206016.391,-25.879,-33.203,-37.598,-25.879,0.000
1709206016.395,-30.762,-28.320,-39.062,-32.715,0.000
1709206016.399,-34.180,-36.621,-34.180,-30.273,0.000
1709206016.403,-36.133,-40.527,-40.039,-30.273,0.000
1709206016.407,-41.992,-40.527,-39.062,-31.250,0.000
1709206016.411,-40.527,-44.922,-31.250,-29.785,0.000
1709206016.414,-39.551,-49.805,-34.180,-34.668,0.000
1709206016.418,-46.387,-50.293,-36.621,-38.086,0.000
1709206016.422,-45.410,-48.340,-32.227,-37.109,0.000
1709206016.426,-33.203,-41.992,-30.762,-45.410,0.000
1709206016.430,-45.898,-50.781,-38.574,-43.945,0.000
1709206016.434,-49.316,-47.852,-43.457,-31.250,0.000
1709206016.438,-38.574,-30.762,-45.410,-38.574,0.000
1709206016.442,-42.480,-41.016,-49.805,-42.480,0.000
1709206016.446,-43.457,-43.945,-48.828,-27.832,0.000
1709206016.450,-42.969,-43.945,-47.363,-21.973,0.000
1709206016.453,-38.086,-45.898,-49.316,-27.832,0.000
1709206016.457,-28.809,-42.480,-45.898,-37.109,0.000
1709206016.461,-31.738,-42.969,-41.016,-33.203,0.000
1709206016.465,-45.898,-41.992,-36.621,-33.203,0.000
1709206016.469,-49.316,-43.945,-37.109,-34.180,0.000
1709206016.473,-48.828,-50.781,-39.551,-29.297,0.000
1709206016.477,-43.945,-56.152,-34.668,-27.832,0.000
1709206016.481,-44.434,-38.086,-34.180,-32.715,0.000
1709206016.485,-55.664,-32.227,-41.504,-43.945,0.000
1709206016.489,-58.105,-44.922,-42.969,-58.105,0.000
1709206016.493,-45.410,-41.504,-39.551,-53.223,0.000
1709206016.496,-38.086,-35.645,-41.992,-42.480,0.000
1709206016.500,-39.551,-42.480,-38.086,-44.922,0.000
1709206016.504,-47.852,-49.316,-33.691,-45.898,0.000
1709206016.508,-53.223,-44.922,-35.645,-37.109,0.000
1709206016.512,-42.969,-37.598,-39.551,-33.691,0.000
1709206016.516,-39.062,-37.109,-46.875,-35.645,0.000
1709206016.520,-49.805,-47.363,-43.945,-27.344,0.000
1709206016.524,-58.105,-49.805,-41.016,-20.020,0.000
1709206016.528,-47.852,-32.715,-40.039,-30.762,0.000
1709206016.532,-41.016,-35.156,-36.621,-41.992,0.000
1709206016.535,-41.992,-44.434,-38.086,-40.527,0.000
1709206016.539,-32.227,-40.527,-33.203,-26.855,0.000
1709206016.543,-30.273,-40.527,-30.762,-27.344,0.000
1709206016.547,-33.691,-42.480,-35.156,-31.250,0.000
1709206016.551,-32.715,-40.039,-36.133,-24.414,0.000
1709206016.555,-29.785,-38.086,-36.621,-34.668,0.000
1709206016.559,-34.180,-41.504,-41.992,-53.223,0.000
1709206016.563,-49.805,-51.758,-41.992,-55.176,0.000
1709206016.567,-53.711,-59.082,-35.645,-36.133,0.000
1709206016.571,-49.805,-54.688,-32.227,-34.180,0.000
1709206016.575,-51.270,-45.898,-32.715,-49.805,0.000
1709206016.578,-50.293,-46.875,-36.621,-54.688,0.000
1709206016.582,-50.781,-56.152,-39.551,-56.641,0.000
1709206016.586,-51.758,-49.805,-36.133,-49.316,0.000
1709206016.590,-46.875,-39.062,-38.574,-49.316,0.000
1709206016.594,-41.016,-48.340,-37.598,-51.270,0.000
1709206016.598,-41.504,-49.805,-36.621,-59.570,0.000
1709206016.602,-43.457,-42.480,-38.574,-60.059,0.000
1709206016.606,-46.387,-42.480,-41.016,-53.711,0.000
1709206016.610,-47.363,-50.293,-39.551,-48.828,0.000
1709206016.614,-34.668,-49.805,-40.039,-42.480,0.000
1709206016.617,-32.227,-34.180,-41.016,-51.270,0.000
1709206016.621,-39.551,-39.551,-40.039,-48.340,0.000
1709206016.625,-35.645,-47.363,-38.574,-42.480,0.000
1709206016.629,-30.762,-39.062,-32.715,-41.016,0.000
1709206016.633,-29.785,-31.250,-34.668,-31.250,0.000
1709206016.637,-28.320,-35.156,-41.016,-34.668,0.000
1709206016.641,-35.156,-41.504,-44.922,-55.176,0.000
1709206016.645,-45.410,-37.109,-41.504,-59.082,0.000
1709206016.649,-45.410,-34.668,-41.504,-47.852,0.000
1709206016.653,-31.738,-37.109,-44.922,-42.969,0.000
1709206016.657,-25.391,-41.504,-39.551,-38.574,0.000
1709206016.660,-33.203,-48.340,-39.551,-43.457,0.000
1709206016.664,-34.668,-43.945,-38.086,-42.480,0.000
1709206016.668,-34.180,-40.039,-34.668,-38.574,0.000
1709206016.672,-33.203,-43.457,-32.715,-24.902,0.000
1709206016.676,-33.691,-36.133,-34.668,-21.973,0.000
1709206016.680,-38.086,-46.875,-36.133,-34.668,0.000
1709206016.684,-42.480,-55.176,-36.133,-42.969,0.000
1709206016.688,-46.387,-49.316,-38.086,-42.969,0.000
1709206016.692,-39.551,-47.363,-31.250,-40.039,0.000
1709206016.696,-23.926,-45.410,-30.762,-41.016,0.000
1709206016.700,-30.273,-48.828,-36.133,-41.504,0.000
1709206016.703,-43.457,-54.199,-34.180,-40.527,0.000
1709206016.707,-43.457,-46.875,-35.645,-35.156,0.000
1709206016.711,-36.621,-42.969,-39.062,-37.598,0.000
1709206016.715,-33.203,-57.617,-37.598,-36.621,0.000
1709206016.719,-33.691,-53.223,-40.527,-37.109,0.000
1709206016.723,-35.645,-26.367,-39.551,-56.152,0.000
1709206016.727,-41.504,-28.809,-37.598,-54.199,0.000
1709206016.731,-45.410,-39.062,-42.480,-44.922,0.000
1709206016.735,-35.645,-35.645,-46.387,-38.574,0.000
1709206016.739,-27.344,-33.203,-44.922,-37.598,0.000
1709206016.743,-35.645,-34.180,-46.875,-57.617,0.000
1709206016.746,-52.246,-35.156,-49.316,-62.012,0.000
1709206016.750,-48.828,-37.109,-45.898,-46.875,0.000
1709206016.754,-43.457,-37.598,-42.969,-37.598,0.000
1709206016.758,-44.922,-39.062,-42.969,-39.062,0.000
1709206016.762,-42.969,-47.363,-38.574,-33.691,0.000
1709206016.766,-48.828,-40.527,-34.668,-31.250,0.000
1709206016.770,-49.805,-33.203,-35.156,-35.645,0.000
1709206016.774,-42.969,-41.504,-35.156,-32.227,0.000
1709206016.778,0.000,-45.410,0.000,-32.227,0.000
1709206016.782,0.000,-45.410,0.000,-32.715,0.000
1709206016.785,0.000,-46.387,0.000,-25.879,0.000
1709206016.789,0.000,-47.852,0.000,-20.020,0.000
1709206016.793,0.000,-45.898,0.000,-35.645,0.000
1709206016.797,0.000,-44.434,0.000,-43.945,0.000
1709206016.801,0.000,-46.387,0.000,-42.480,0.000
1709206016.805,0.000,-52.246,0.000,-33.203,0.000
1709206016.809,0.000,-50.781,0.000,-19.531,0.000
1709206016.813,0.000,-39.551,0.000,-32.227,0.000
1709206016.817,0.000,-47.852,0.000,-34.180,0.000
1709206016.821,0.000,-58.594,0.000,-34.180,0.000
1709206016.825,-40.527,-54.688,-42.480,-36.133,0.000
1709206016.828,-45.410,-48.340,-41.504,-36.133,0.000
1709206016.832,-46.387,-50.781,-46.875,-54.199,0.000
1709206016.836,-45.410,-47.363,-48.340,-55.176,0.000
1709206016.840,-45.898,-42.480,-38.086,-39.551,0.000
1709206016.844,-46.875,-49.805,-37.598,-48.828,0.000
1709206016.848,-44.434,-55.176,-45.410,-58.594,0.000
1709206016.852,-32.715,-52.246,-39.551,-33.691,0.000
1709206016.856,-32.715,-41.016,-42.480,-33.203,0.000
1709206016.860,-41.016,-36.621,-47.363,-48.340,0.000
1709206016.864,-37.109,-38.574,-45.410,-40.527,0.000
1709206016.867,-38.574,-37.598,-47.852,-43.945,0.000
1709206016.871,-37.109,-35.645,-45.898,-45.898,0.000
1709206016.875,-27.832,-34.180,-42.969,-40.527,0.000
1709206016.879,-28.809,-36.621,-41.016,-29.785,0.000
1709206016.883,-37.598,-45.898,-42.969,-33.691,0.000
1709206016.887,-41.504,-45.898,-42.480,-35.645,0.000
1709206016.891,-33.203,-40.039,-37.109,-29.297,0.000
1709206016.895,-30.762,-49.316,-39.551,-27.832,0.000
1709206016.899,-29.785,-47.852,-45.898,-26.367,0.000
1709206016.903,-39.551,-36.621,-47.852,-32.227,0.000
1709206016.907,-50.781,-42.969,-45.898,-40.039,0.000
1709206016.910,-54.688,-43.457,-41.992,-39.551,0.000
1709206016.914,-47.852,-40.527,-41.504,-39.551,0.000
1709206016.918,-46.875,-39.062,-42.969,-45.410,0.000
1709206016.922,-63.965,-42.480,-49.805,-49.316,0.000
1709206016.926,-62.988,-46.875,-53.223,-49.316,0.000
1709206016.930,-53.711,-42.480,-49.805,-44.434,0.000
1709206016.934,-52.734,-39.062,-50.293,-52.246,0.000
1709206016.938,-52.246,-44.922,-48.828,-56.152,0.000
1709206016.942,-62.500,-59.082,-47.852,-44.434,0.000
1709206016.946,-70.801,-56.152,-50.781,-54.688,0.000
1709206016.949,-65.918,-38.574,-47.852,-62.988,0.000
1709206016.953,-62.988,-44.434,-42.480,-60.059,0.000
1709206016.957,-58.594,-53.711,-40.527,-61.523,0.000
1709206016.961,-52.246,-45.898,-42.480,-59.082,0.000
1709206016.965,-46.875,-45.410,-40.527,-54.199,0.000
1709206016.969,-47.363,-42.480,-39.551,-50.781,0.000
1709206016.973,-52.246,-41.992,-44.434,-50.293,0.000
1709206016.977,-42.480,-41.992,-45.898,-37.109,0.000
1709206016.981,-36.133,-36.133,-42.480,-31.738,0.000
1709206016.985,-35.156,-48.340,-39.062,-34.668,0.000
1709206016.989,-29.785,-45.898,-37.109,-40.039,0.000
1709206016.992,-26.367,-27.832,-38.086,-48.340,0.000
1709206016.996,-24.902,-29.785,-42.969,-52.246,0.000
1709206017.000,-27.344,-43.945,-44.434,-45.410,0.000
1709206017.004,-38.574,-39.551,-42.480,-34.668,0.000
1709206017.008,-48.340,-31.250,-46.387,-36.133,0.000
1709206017.012,-52.246,-41.016,-46.387,-39.062,0.000
1709206017.016,-42.480,-41.504,-39.062,-41.016,0.000
1709206017.020,-38.574,-37.109,-37.109,-47.852,0.000
1709206017.024,-41.504,-41.016,-35.156,-42.969,0.000
1709206017.028,-48.828,-43.457,-35.645,-38.574,0.000
1709206017.032,-44.922,-42.969,-38.574,-32.227,0.000
1709206017.035,-47.363,-43.457,-40.527,-29.785,0.000
1709206017.039,-59.570,-43.457,-42.480,-40.527,0.000
1709206017.043,-54.199,-42.480,-39.551,-48.340,0.000
1709206017.047,-50.781,-48.340,-40.527,-43.457,0.000
1709206017.051,-38.086,-35.645,-41.504,-41.504,0.000
1709206017.055,-33.203,-33.203,-38.574,-43.457,0.000
1709206017.059,-42.480,-49.805,-37.109,-47.852,0.000
1709206017.063,-49.316,-50.293,-32.715,-45.410,0.000
1709206017.067,-53.711,-41.504,-36.621,-38.574,0.000
1709206017.071,-50.293,-40.039,-41.504,-38.574,0.000
1709206017.074,-54.199,-48.340,-41.016,-39.551,0.000
1709206017.078,-55.664,-49.316,-40.527,-41.504,0.000
1709206017.082,-52.734,-45.410,-39.062,-39.062,0.000
1709206017.086,-52.246,-42.480,-37.109,-35.645,0.000
1709206017.090,-52.246,-50.781,-37.109,-28.320,0.000
1709206017.094,-41.504,-49.805,-40.527,-31.738,0.000
1709206017.098,-34.668,-32.227,-36.133,-40.039,0.000
1709206017.102,-41.016,-37.109,-33.691,-38.086,0.000
1709206017.106,-41.016,-41.016,-29.297,-38.574,0.000
1709206017.110,-34.668,-35.645,-27.832,-37.109,0.000
1709206017.114,-29.785,-42.969,-34.180,-41.504,0.000
1709206017.117,-21.973,-48.828,-31.250,-32.715,0.000
1709206017.121,-30.273,-46.387,-32.715,-25.879,0.000
1709206017.125,-46.875,-48.340,-33.203,-29.785,0.000
1709206017.129,-45.410,-42.480,-31.250,-30.273,0.000
1709206017.133,-31.250,-39.062,-32.227,-38.086,0.000
1709206017.137,-20.020,-49.805,-32.715,-38.086,0.000
1709206017.141,-33.203,-38.086,-35.156,-39.551,0.000
1709206017.145,-39.551,-31.738,-36.621,-43.945,0.000
1709206017.149,-38.086,-43.457,-33.691,-30.273,0.000
1709206017.153,-42.480,-44.922,-33.203,-30.273,0.000
1709206017.157,-42.480,-46.875,-36.133,-34.668,0.000
1709206017.160,-50.781,-52.734,-41.504,-46.387,0.000
1709206017.164,-61.035,-56.641,-44.922,-57.617,0.000
1709206017.168,-58.594,-56.641,-43.945,-61.523,0.000
1709206017.172,-51.758,-61.035,-44.434,-62.500,0.000
1709206017.176,-50.781,-61.035,-46.387,-54.688,0.000
1709206017.180,-53.711,-64.453,-47.363,-43.457,0.000
1709206017.184,-58.105,-58.105,-46.875,-34.180,0.000
1709206017.188,-61.523,-38.086,-42.480,-40.527,0.000
1709206017.192,-58.105,-45.410,-40.039,-51.270,0.000
1709206017.196,-50.781,-55.176,-47.363,-54.199,0.000
1709206017.200,-58.105,-49.316,-47.363,-51.758,0.000
1709206017.203,-56.641,-44.434,-39.551,-53.711,0.000
1709206017.207,-52.734,-51.758,-36.133,-42.969,0.000
1709206017.211,-52.734,-56.152,-41.016,-38.086,0.000
1709206017.215,-46.387,-50.781,-44.434,-43.457,0.000
1709206017.219,-40.039,-48.828,-41.016,-48.340,0.000
1709206017.223,-29.297,-44.434,-39.062,-43.945,0.000
1709206017.227,-30.762,-51.758,-38.086,-31.738,0.000
1709206017.231,-34.668,-48.340,-45.410,-34.180,0.000
1709206017.235,-29.785,-39.551,-49.316,-48.828,0.000
1709206017.239,-28.809,-47.852,-45.410,-48.340,0.000
1709206017.242,-34.180,-48.828,-41.992,-48.828,0.000
1709206017.246,-44.434,-41.992,-43.457,-41.504,0.000
1709206017.250,-39.062,-42.480,-43.945,-44.434,0.000
1709206017.254,-26.855,-51.270,-43.457,-56.641,0.000
1709206017.258,-33.691,-49.805,-43.945,-55.664,0.000
1709206017.262,-47.852,-50.293,-44.922,-60.059,0.000
1709206017.266,-54.688,-52.246,-45.410,-61.523,0.000
1709206017.270,-47.363,-58.594,-41.992,-42.480,0.000
1709206017.274,-41.504,-61.523,-40.527,-34.668,0.000
1709206017.278,-44.922,-42.480,-41.992,-48.828,0.000
1709206017.281,-41.992,-41.016,-39.551,-42.969,0.000
1709206017.285,-44.434,-47.852,-37.598,-40.527,0.000
1709206017.289,-43.457,-38.574,-31.250,-34.668,0.000
1709206017.293,-33.691,-31.738,-28.809,-25.879,0.000
1709206017.297,-40.527,-43.945,-37.109,-27.344,0.000
1709206017.301,-48.828,-50.293,-37.109,-33.203,0.000
1709206017.305,-46.875,-44.922,-35.156,-42.969,0.000
1709206017.309,-47.852,-48.828,-40.039,-38.086,0.000
1709206017.313,-41.504,-49.805,-39.062,-28.809,0.000
1709206017.317,-36.133,-55.176,-34.668,-17.090,0.000
1709206017.321,-40.039,-51.270,-36.621,-17.578,0.000
1709206017.324,-36.133,-32.715,-32.715,-29.297,0.000
1709206017.328,-41.504,-40.527,-33.691,-34.668,0.000
1709206017.332,-43.457,-49.805,-39.062,-35.645,0.000
1709206017.336,-36.621,-41.504,-37.598,-28.320,0.000
1709206017.340,-31.250,-39.551,-35.156,-22.461,0.000
1709206017.344,-31.738,-39.551,-31.738,-22.461,0.000
1709206017.348,-27.832,-40.527,-35.156,-29.297,0.000
1709206017.352,-19.531,-44.434,-45.410,-30.762,0.000
1709206017.356,-17.090,-43.457,-42.969,-28.320,0.000
1709206017.360,-21.973,-50.781,-37.598,-26.855,0.000
1709206017.363,-25.879,-49.316,-40.527,-22.949,0.000
1709206017.367,-25.879,-34.668,-39.062,-27.344,0.000
1709206017.371,-29.297,-33.203,-38.086,-34.668,0.000
1709206017.375,-26.855,-41.016,-38.574,-35.156,0.000
1709206017.379,-31.738,-34.180,-37.598,-31.738,0.000
1709206017.383,-34.668,-25.879,-43.457,-38.086,0.000
1709206017.387,-30.273,-36.133,-40.039,-46.875,0.000
1709206017.391,-33.203,-44.922,-40.039,-48.340,0.000
1709206017.395,-32.227,-46.875,-44.434,-36.133,0.000
1709206017.399,-27.344,-45.898,-40.527,-33.691,0.000
1709206017.403,-30.762,-45.898,-37.109,-34.668,0.000
1709206017.406,-41.992,-49.805,-37.598,-25.391,0.000
1709206017.410,-42.480,-52.734,-39.551,-33.691,0.000
1709206017.414,-34.668,-46.875,-37.598,-42.480,0.000
1709206017.418,-43.457,-45.898,-37.598,-45.410,0.000
1709206017.422,-50.293,-58.105,-37.109,-41.016,0.000
1709206017.426,-56.641,-57.617,-41.504,-47.852,0.000
1709206017.430,-63.477,-48.828,-42.969,-52.734,0.000
1709206017.434,-57.617,-51.270,-42.969,-47.363,0.000
1709206017.438,-51.758,-55.664,-42.969,-49.805,0.000
1709206017.442,-50.293,-47.363,-39.551,-50.781,0.000
1709206017.446,-55.664,-46.875,-40.527,-52.734,0.000
1709206017.449,-51.758,-51.270,-41.504,-47.363,0.000
1709206017.453,-41.504,-46.875,-38.574,-45.898,0.000
1709206017.457,-44.434,-52.734,-38.086,-34.180,0.000
1709206017.461,-44.434,-48.340,-36.621,-21.484,0.000
1709206017.465,-37.109,-26.367,-34.180,-27.344,0.000
1709206017.469,-34.668,-32.715,-34.180,-29.297,0.000
1709206017.473,-28.320,-48.340,-32.227,-27.344,0.000
1709206017.477,-32.227,-40.527,-32.227,-31.250,0.000
1709206017.481,-40.527,-29.785,-41.504,-34.668,0.000
1709206017.485,-38.574,-36.621,-48.828,-50.781,0.000
1709206017.489,-35.156,-40.039,-47.852,-56.152,0.000
1709206017.492,-27.832,-34.180,-46.875,-48.340,0.000
1709206017.496,-28.320,-34.180,-45.410,-46.875,0.000
1709206017.500,-32.715,-35.645,-41.992,-38.574,0.000
1709206017.504,-33.203,-40.527,-42.969,-23.438,0.000
1709206017.508,-24.414,-24.902,-38.086,-17.090,0.000
1709206017.512,-21.973,-22.461,-37.109,-29.785,0.000
1709206017.516,-34.180,-39.551,-39.551,-40.527,0.000
1709206017.520,-40.039,-40.039,-37.109,-49.805,0.000
1709206017.524,-36.621,-34.668,-41.016,-48.828,0.000
1709206017.528,-36.133,-38.574,-46.875,-47.852,0.000
1709206017.532,-41.504,-46.387,-40.039,-43.945,0.000
1709206017.535,-47.852,-48.340,-39.062,-43.945,0.000
1709206017.539,-60.059,-43.945,-41.504,-46.875,0.000
1709206017.543,-56.152,-38.086,-40.527,-35.645,0.000
1709206017.547,-44.922,-48.340,-38.574,-28.809,0.000
1709206017.551,-48.340,-50.293,-39.062,-36.133,0.000
1709206017.555,-57.617,-40.039,-42.969,-48.340,0.000
1709206017.559,-59.082,-43.457,-45.410,-50.781,0.000
1709206017.563,-53.223,-41.504,-44.434,-42.480,0.000
1709206017.567,-49.805,-35.156,-41.016,-47.852,0.000
1709206017.571,-39.062,-31.250,-42.480,-51.270,0.000
1709206017.575,-37.598,-38.574,-47.363,-45.898,0.000
1709206017.578,-46.387,-41.016,-43.945,-53.223,0.000
1709206017.582,-45.410,-37.109,-41.504,-48.828,0.000
1709206017.586,-34.668,-38.574,-39.062,-40.527,0.000
1709206017.590,-24.902,-42.969,-39.062,-48.828,0.000
1709206017.594,-21.973,-50.293,-39.551,-47.363,0.000
1709206017.598,-26.367,-44.434,-38.086,-34.180,0.000
1709206017.602,-34.180,-39.062,-40.527,-38.574,0.000
1709206017.606,-31.738,-43.457,-40.039,-35.645,0.000
1709206017.610,-25.879,-50.781,-40.527,-35.645,0.000
1709206017.614,-25.879,-37.109,-40.039,-45.898,0.000
1709206017.617,-29.785,-28.809,-37.109,-42.480,0.000
1709206017.621,-37.109,-38.574,-33.691,-35.156,0.000
1709206017.625,-39.551,-39.551,-35.645,-33.203,0.000
1709206017.629,-35.156,-32.715,-40.039,-41.992,0.000
1709206017.633,-35.645,-36.621,-39.551,-52.246,0.000
1709206017.637,-41.992,-50.293,-39.062,-46.875,0.000
1709206017.641,-42.480,-48.828,-30.273,-38.574,0.000
1709206017.645,-38.574,-38.086,-27.344,-34.180,0.000
1709206017.649,-39.062,-37.598,-31.738,-32.715,0.000
1709206017.653,-51.758,-55.176,-31.250,-32.227,0.000
1709206017.657,-52.734,-50.781,-33.203,-20.020,0.000
1709206017.660,-49.805,-31.250,-30.762,-18.066,0.000
1709206017.664,-51.270,-36.133,-26.855,-20.996,0.000
1709206017.668,0.000,-42.480,0.000,-28.809,0.000
1709206017.672,0.000,-40.039,0.000,-36.133,0.000
1709206017.676,0.000,-37.109,0.000,-37.109,0.000
1709206017.680,0.000,-43.945,0.000,-43.945,0.000
1709206017.684,0.000,-41.016,0.000,-39.062,0.000
1709206017.688,0.000,-38.574,0.000,-35.156,0.000
1709206017.692,0.000,-39.062,0.000,-41.504,0.000
1709206017.696,0.000,-39.062,0.000,-40.039,0.000
1709206017.700,0.000,-50.293,0.000,-23.438,0.000
1709206017.703,0.000,-38.086,0.000,-16.602,0.000
1709206017.707,0.000,-27.832,0.000,-29.785,0.000
1709206017.711,0.000,-38.574,0.000,-29.785,0.000
1709206017.715,-24.414,-39.551,-36.133,-27.344,0.000
1709206017.719,-34.668,-37.598,-33.691,-39.062,0.000
1709206017.723,-33.691,-41.992,-32.715,-38.574,0.000
1709206017.727,-40.527,-51.758,-36.621,-39.062,0.000
1709206017.731,-38.574,-57.617,-41.504,-45.898,0.000
1709206017.735,-25.391,-49.805,-37.598,-38.086,0.000
1709206017.739,-36.621,-44.922,-41.016,-32.227,0.000
1709206017.743,-39.551,-55.176,-41.016,-17.090,0.000
1709206017.746,-32.227,-56.152,-38.086,-8.789,0.000
1709206017.750,-40.527,-36.621,-36.621,-23.926,0.000
1709206017.754,-56.152,-42.480,-40.527,-45.898,0.000
1709206017.758,-59.570,-58.594,-41.504,-53.223,0.000
1709206017.762,-57.129,-54.199,-31.250,-44.922,0.000
1709206017.766,-57.129,-50.781,-28.320,-40.039,0.000
1709206017.770,-62.988,-58.594,-31.738,-38.574,0.000
1709206017.774,-62.012,-54.688,-33.691,-35.645,0.000
1709206017.778,-59.082,-46.387,-31.250,-37.109,0.000
1709206017.782,-63.477,-47.852,-32.227,-34.668,0.000
1709206017.785,-54.688,-47.363,-34.180,-36.621,0.000
1709206017.789,-48.828,-51.758,-35.156,-32.715,0.000
1709206017.793,-53.223,-40.039,-37.598,-31.250,0.000
1709206017.797,-60.547,-36.621,-41.016,-46.875,0.000
1709206017.801,-54.199,-43.457,-41.992,-49.316,0.000
1709206017.805,-41.016,-41.992,-38.086,-39.062,0.000
1709206017.809,-42.480,-38.574,-37.109,-38.086,0.000
1709206017.813,-40.527,-38.086,-36.621,-38.086,0.000
1709206017.817,-40.039,-46.387,-38.086,-29.297,0.000
1709206017.821,-39.551,-43.945,-41.992,-33.203,0.000
1709206017.825,-31.250,-35.156,-40.527,-53.223,0.000
1709206017.828,-32.715,-37.598,-45.898,-68.848,0.000
1709206017.832,-38.086,-50.293,-51.758,-63.477,0.000
1709206017.836,-41.992,-50.293,-50.781,-52.734,0.000
1709206017.840,-44.434,-35.645,-50.293,-49.805,0.000
1709206017.844,-28.809,-35.645,-50.293,-41.504,0.000
1709206017.848,-20.508,-38.574,-46.875,-43.457,0.000
1709206017.852,-26.367,-39.062,-42.969,-47.363,0.000
1709206017.856,-35.645,-37.109,-44.434,-42.969,0.000
1709206017.860,-39.551,-43.945,-45.410,-42.480,0.000
1709206017.864,-36.621,-44.922,-42.480,-47.363,0.000
1709206017.868,-40.039,-43.457,-38.574,-47.363,0.000
1709206017.871,-51.270,-42.969,-39.551,-48.340,0.000
1709206017.875,-48.828,-36.621,-37.598,-44.434,0.000
1709206017.879,-49.316,-39.551,-34.668,-25.879,0.000
1709206017.883,-56.641,-35.645,-35.156,-17.090,0.000
1709206017.887,-51.270,-33.691,-36.621,-26.367,0.000
1709206017.891,-52.734,-41.504,-37.109,-33.691,0.000
1709206017.895,-57.129,-45.410,-32.715,-30.762,0.000
1709206017.899,-51.758,-36.621,-30.273,-24.902,0.000
1709206017.903,-45.898,-33.691,-26.367,-15.625,0.000
1709206017.907,-37.109,-41.504,-28.320,-9.766,0.000
1709206017.911,-36.133,-44.434,-33.203,-20.996,0.000
1709206017.914,-37.109,-35.645,-33.203,-27.832,0.000
1709206017.918,-36.133,-37.109,-31.738,-14.160,0.000
1709206017.922,-34.180,-49.805,-31.250,-19.043,0.000
1709206017.926,-21.484,-46.387,-32.715,-37.109,0.000
1709206017.930,-22.949,-35.156,-35.645,-41.992,0.000
1709206017.934,-33.203,-38.086,-30.762,-40.039,0.000
1709206017.938,-35.156,-43.457,-26.855,-30.762,0.000
1709206017.942,-31.738,-37.598,-32.227,-28.809,0.000
1709206017.946,-26.367,-29.297,-36.621,-40.527,0.000
