timestamps,TP9,AF7,AF8,TP10,Right AUX
1709206127.694,-62.500,-56.641,-44.922,-44.922,0.000
1709206127.698,-51.758,-54.199,-41.992,-35.645,0.000
1709206127.702,-46.387,-55.176,-45.410,-43.457,0.000
1709206127.706,-46.875,-55.664,-47.363,-61.035,0.000
1709206127.710,-51.758,-56.152,-46.875,-57.617,0.000
1709206127.714,-50.781,-52.734,-42.969,-46.875,0.000
1709206127.718,-39.551,-52.246,-35.156,-29.297,0.000
1709206127.722,-32.227,-46.387,-30.762,-23.438,0.000
1709206127.725,-38.574,-38.086,-36.621,-40.039,0.000
1709206127.729,-48.828,-46.387,-39.551,-42.480,0.000
1709206127.733,-52.734,-49.316,-36.133,-34.180,0.000
1709206127.737,-47.852,-44.922,-35.156,-32.227,0.000
1709206127.741,-37.109,-47.363,-34.180,-32.715,0.000
1709206127.745,-40.039,-48.340,-40.527,-36.621,0.000
1709206127.749,-40.527,-45.898,-46.387,-44.434,0.000
1709206127.753,-33.691,-41.992,-39.551,-42.480,0.000
1709206127.757,-41.504,-43.945,-35.156,-35.156,0.000
1709206127.761,-42.969,-51.270,-34.180,-29.785,0.000
1709206127.765,-42.969,-54.199,-32.715,-39.551,0.000
1709206127.768,-53.711,-47.363,-34.180,-51.270,0.000
1709206127.772,-51.270,-46.387,-39.062,-47.852,0.000
1709206127.776,-44.434,-47.363,-41.016,-48.828,0.000
1709206127.780,-50.293,-44.922,-40.039,-52.734,0.000
1709206127.784,-57.617,-44.434,-43.945,-68.848,0.000
1709206127.788,-58.594,-48.828,-45.410,-68.359,0.000
1709206127.792,-57.129,-45.410,-45.898,-60.547,0.000
1709206127.796,-53.223,-40.039,-45.410,-66.895,0.000
1709206127.800,-52.246,-38.086,-38.574,-62.500,0.000
1709206127.804,-56.641,-44.434,-35.645,-62.012,0.000
1709206127.808,-60.059,-56.641,-34.180,-56.641,0.000
1709206127.811,-46.875,-50.293,-28.320,-44.434,0.000
1709206127.815,-41.504,-47.363,-37.598,-49.805,0.000
1709206127.819,-55.664,-55.176,-39.062,-52.734,0.000
1709206127.823,-55.176,-58.594,-30.762,-42.969,0.000
1709206127.827,-51.758,-49.805,-36.133,-42.969,0.000
1709206127.831,-39.551,-45.410,-32.227,-40.527,0.000
1709206127.835,-34.180,-51.758,-32.227,-35.645,0.000
1709206127.839,-34.180,-49.316,-38.574,-39.062,0.000
1709206127.843,-31.738,-41.016,-38.086,-40.527,0.000
1709206127.847,-41.992,-39.062,-38.086,-38.086,0.000
1709206127.850,-39.551,-46.387,-30.762,-27.344,0.000
1709206127.854,-30.273,-50.781,-28.809,-21.484,0.000
1709206127.858,-35.156,-47.852,-34.668,-29.785,0.000
1709206127.862,-40.039,-41.504,-37.109,-37.109,0.000
1709206127.866,-44.922,-57.129,-33.691,-29.297,0.000
1709206127.870,-50.293,-61.035,-34.180,-25.391,0.000
1709206127.874,-38.574,-40.527,-42.480,-41.504,0.000
1709206127.878,-23.926,-41.016,-39.551,-38.574,0.000
1709206127.882,-32.227,-45.898,-36.133,-37.109,0.000
1709206127.886,-43.945,-46.875,-44.922,-45.898,0.000
1709206127.890,-42.969,-43.457,-48.340,-42.969,0.000
1709206127.893,-35.156,-41.992,-44.434,-42.480,0.000
1709206127.897,-33.203,-47.363,-38.086,-46.387,0.000
1709206127.901,-38.574,-48.340,-36.621,-42.480,0.000
1709206127.905,-44.434,-46.875,-40.039,-39.551,0.000
1709206127.909,-44.922,-46.387,-40.039,-41.504,0.000
1709206127.913,-30.273,-51.270,-42.480,-22.949,0.000
1709206127.917,-24.902,-46.387,-45.410,-17.090,0.000
1709206127.921,-32.715,-37.109,-39.062,-29.297,0.000
1709206127.925,-27.832,-37.598,-34.180,-25.391,0.000
1709206127.929,-25.879,-41.992,-30.762,-28.809,0.000
1709206127.933,-31.250,-43.945,-37.598,-35.645,0.000
1709206127.936,-22.461,-49.805,-41.992,-36.133,0.000
1709206127.940,-33.691,-54.688,-38.574,-43.945,0.000
1709206127.944,-48.828,-51.270,-36.133,-43.945,0.000
1709206127.948,-51.758,-56.152,-38.574,-39.551,0.000
1709206127.952,-51.270,-55.176,-39.551,-40.039,0.000
1709206127.956,-45.898,-57.129,-38.574,-35.156,0.000
1709206127.960,-43.945,-53.711,-40.039,-34.180,0.000
1709206127.964,-53.223,-39.062,-41.016,-48.828,0.000
1709206127.968,-60.059,-43.945,-42.480,-47.363,0.000
1709206127.972,-61.523,-46.387,-45.410,-41.504,0.000
1709206127.975,-62.500,-46.387,-48.340,-48.828,0.000
1709206127.979,-54.199,-48.340,-43.457,-52.246,0.000
1709206127.983,-55.176,-49.316,-44.434,-54.688,0.000
1709206127.987,-49.316,-50.781,-41.992,-60.547,0.000
1709206127.991,-38.574,-51.270,-40.527,-59.082,0.000
1709206127.995,-55.664,-54.199,-42.480,-55.176,0.000
1709206127.999,-52.734,-56.152,-39.551,-55.176,0.000
1709206128.003,-41.992,-56.641,-44.922,-43.945,0.000
1709206128.007,-45.898,-44.434,-43.457,-36.621,0.000
1709206128.011,-45.898,-41.016,-33.203,-40.527,0.000
1709206128.015,-39.062,-50.293,-34.668,-37.598,0.000
1709206128.018,-24.902,-48.340,-37.598,-35.156,0.000
1709206128.022,-24.414,-41.504,-39.062,-45.898,0.000
1709206128.026,-42.969,-38.086,-40.039,-42.480,0.000
1709206128.030,-45.410,-45.898,-39.062,-38.574,0.000
1709206128.034,-39.551,-47.852,-40.039,-36.621,0.000
1709206128.038,-41.016,-46.875,-41.992,-40.039,0.000
1709206128.042,-28.809,-46.875,-43.945,-58.594,0.000
1709206128.046,-41.016,-58.594,-46.387,-51.758,0.000
1709206128.050,-54.199,-66.406,-49.316,-34.180,0.000
1709206128.054,-40.039,-44.434,-45.410,-34.668,0.000
1709206128.058,-26.855,-39.062,-41.504,-35.645,0.000
1709206128.061,-31.250,-53.223,-40.527,-31.250,0.000
1709206128.065,-41.504,-55.664,-41.016,-32.715,0.000
1709206128.069,-45.410,-50.293,-38.086,-30.762,0.000
1709206128.073,-42.480,-49.805,-40.527,-26.855,0.000
1709206128.077,-29.785,-45.410,-41.504,-31.250,0.000
1709206128.081,-22.949,-41.504,-34.180,-35.156,0.000
1709206128.085,-28.320,-41.504,-36.133,-31.250,0.000
1709206128.089,-32.227,-49.805,-42.480,-26.855,0.000
1709206128.093,-33.691,-58.594,-40.039,-13.672,0.000
1709206128.097,-33.203,-44.922,-36.133,-17.578,0.000
1709206128.100,-33.691,-35.156,-40.039,-41.016,0.000
1709206128.104,-26.367,-43.457,-43.945,-39.551,0.000
1709206128.108,-36.133,-44.922,-43.457,-28.809,0.000
1709206128.112,-40.039,-39.551,-38.086,-29.297,0.000
1709206128.116,-24.902,-33.691,-34.180,-35.156,0.000
1709206128.120,-31.738,-38.086,-41.016,-49.316,0.000
1709206128.124,-33.203,-45.898,-44.434,-56.641,0.000
1709206128.128,-36.133,-46.387,-38.086,-49.316,0.000
1709206128.132,-41.016,-51.270,-40.039,-53.711,0.000
1709206128.136,-36.133,-61.035,-47.363,-46.875,0.000
1709206128.140,-39.551,-57.617,-46.875,-36.621,0.000
1709206128.143,-38.574,-47.363,-40.527,-50.781,0.000
1709206128.147,-39.551,-47.363,-39.551,-48.828,0.000
1709206128.151,-37.109,-47.852,-39.062,-39.551,0.000
1709206128.155,-27.832,-45.898,-29.297,-43.457,0.000
1709206128.159,-38.086,-43.945,-28.809,-50.293,0.000
1709206128.163,-41.504,-46.387,-30.762,-45.410,0.000
1709206128.167,-30.762,-50.781,-28.320,-40.527,0.000
1709206128.171,-44.434,-55.664,-28.809,-39.062,0.000
1709206128.175,-53.711,-51.270,-32.715,-40.039,0.000
1709206128.179,-47.852,-42.969,-35.156,-43.457,0.000
1709206128.183,-41.992,-47.363,-38.574,-41.504,0.000
1709206128.186,-50.781,-51.270,-41.016,-44.434,0.000
1709206128.190,-47.852,-42.969,-32.715,-36.621,0.000
1709206128.194,-21.484,-41.016,-29.785,-20.996,0.000
1709206128.198,-14.160,-48.340,-29.785,-12.695,0.000
1709206128.202,-20.020,-37.109,-23.926,-20.508,0.000
1709206128.206,-23.926,-33.691,-21.973,-24.902,0.000
1709206128.210,-27.344,-43.457,-24.414,-17.578,0.000
1709206128.214,-24.414,-41.016,-23.926,-10.742,0.000
1709206128.218,-13.184,-38.086,-23.438,-12.207,0.000
1709206128.222,-16.602,-42.480,-30.273,-25.391,0.000
1709206128.225,-37.109,-49.805,-31.738,-32.715,0.000
1709206128.229,-30.273,-50.781,-27.832,-32.227,0.000
1709206128.233,-31.738,-45.410,-28.809,-32.715,0.000
1709206128.237,-45.898,-42.969,-32.715,-41.504,0.000
1709206128.241,-37.598,-54.688,-32.227,-38.574,0.000
1709206128.245,-41.016,-52.246,-33.203,-33.691,0.000
1709206128.249,-50.293,-34.180,-37.598,-44.434,0.000
1709206128.253,-44.434,-42.480,-41.016,-51.758,0.000
1709206128.257,-32.227,-51.758,-45.898,-62.012,0.000
1709206128.261,-33.691,-52.246,-42.480,-58.105,0.000
1709206128.265,-50.781,-51.758,-40.527,-53.711,0.000
1709206128.268,-51.270,-54.199,-40.039,-49.805,0.000
1709206128.272,-38.574,-59.082,-41.016,-51.270,0.000
1709206128.276,-41.504,-52.734,-40.527,-57.617,0.000
1709206128.280,-47.852,-47.363,-35.156,-54.199,0.000
1709206128.284,-50.781,-50.781,-36.133,-58.594,0.000
1709206128.288,-53.711,-58.594,-31.738,-42.969,0.000
1709206128.292,-55.176,-51.758,-32.715,-35.645,0.000
1709206128.296,-52.246,-42.480,-40.527,-51.758,0.000
1709206128.300,-34.180,-51.270,-34.668,-41.016,0.000
1709206128.304,-34.180,-49.316,-34.180,-40.039,0.000
1709206128.308,-53.711,-43.945,-36.621,-45.898,0.000
1709206128.311,-44.922,-41.992,-33.203,-34.668,0.000
1709206128.315,-40.527,-49.805,-40.039,-28.809,0.000
1709206128.319,-40.039,-59.082,-42.480,-30.273,0.000
1709206128.323,-38.574,-58.105,-43.457,-37.598,0.000
1709206128.327,-46.875,-43.945,-43.457,-39.062,0.000
1709206128.331,-49.805,-48.828,-39.062,-37.598,0.000
1709206128.335,-45.410,-60.547,-39.551,-35.156,0.000
1709206128.339,-36.133,-46.387,-39.551,-38.574,0.000
1709206128.343,-35.645,-43.457,-40.527,-45.410,0.000
1709206128.347,-37.598,-41.992,-39.551,-39.551,0.000
1709206128.351,-36.133,-39.551,-37.598,-40.039,0.000
1709206128.354,-34.668,-49.316,-39.551,-42.480,0.000
1709206128.358,-20.996,-48.340,-40.527,-37.109,0.000
1709206128.362,-31.250,-43.457,-34.180,-32.715,0.000
1709206128.366,-47.363,-50.781,-27.344,-31.738,0.000
1709206128.370,-46.875,-59.082,-27.344,-34.180,0.000
1709206128.374,-47.852,-57.617,-29.297,-45.410,0.000
1709206128.378,-38.574,-58.105,-30.762,-37.598,0.000
1709206128.382,-43.945,-52.246,-35.156,-36.133,0.000
1709206128.386,-50.781,-45.898,-39.551,-48.828,0.000
1709206128.390,-52.246,-52.246,-36.133,-44.922,0.000
1709206128.393,-53.223,-51.758,-38.086,-38.574,0.000
1709206128.397,-44.922,-49.316,-41.992,-40.527,0.000
1709206128.401,-35.156,-44.922,-31.250,-42.969,0.000
1709206128.405,-40.527,-43.457,-27.344,-48.828,0.000
1709206128.409,-52.734,-48.340,-37.109,-52.734,0.000
1709206128.413,-48.340,-46.387,-41.504,-52.246,0.000
1709206128.417,-32.715,-44.434,-38.574,-45.410,0.000
1709206128.421,-41.992,-58.105,-37.598,-37.598,0.000
1709206128.425,-51.270,-56.152,-37.109,-40.039,0.000
1709206128.429,-40.527,-38.086,-38.086,-39.062,0.000
1709206128.433,-31.738,-47.363,-35.645,-30.273,0.000
1709206128.436,-25.391,-54.199,-39.062,-25.879,0.000
1709206128.440,-25.879,-45.410,-39.551,-34.668,0.000
1709206128.444,-28.320,-39.062,-38.574,-36.133,0.000
1709206128.448,-25.879,-41.504,-45.410,-32.715,0.000
1709206128.452,-19.531,-41.504,-38.574,-35.156,0.000
1709206128.456,-10.742,-34.180,-36.621,-35.156,0.000
1709206128.460,-10.742,-43.945,-40.527,-35.156,0.000
1709206128.464,-16.113,-51.270,-37.109,-39.551,0.000
1709206128.468,-24.414,-56.641,-39.551,-30.762,0.000
1709206128.472,-29.297,-50.781,-42.969,-26.855,0.000
1709206128.475,-30.762,-41.504,-41.992,-39.551,0.000
1709206128.479,-22.461,-43.457,-42.480,-38.086,0.000
1709206128.483,-22.949,-45.898,-41.016,-34.668,0.000
1709206128.487,-42.969,-48.340,-40.039,-35.156,0.000
1709206128.491,-41.016,-43.457,-45.898,-35.645,0.000
1709206128.495,-30.273,-41.992,-38.574,-27.344,0.000
1709206128.499,-22.461,-37.598,-28.809,-21.973,0.000
1709206128.503,-25.879,-39.551,-31.250,-24.902,0.000
1709206128.507,-36.133,-48.828,-34.180,-28.320,0.000
1709206128.511,-31.250,-55.664,-30.762,-24.414,0.000
1709206128.515,-20.020,-51.270,-32.227,-20.020,0.000
1709206128.518,-15.625,-41.504,-36.133,-21.973,0.000
1709206128.522,-14.648,-38.086,-34.668,-28.320,0.000
1709206128.526,-28.320,-55.176,-39.551,-30.762,0.000
1709206128.530,-43.457,-61.035,-44.434,-37.598,0.000
1709206128.534,-28.809,-41.504,-42.480,-40.527,0.000
1709206128.538,-22.949,-45.410,-39.551,-34.668,0.000
1709206128.542,-29.785,-49.316,-40.039,-37.109,0.000
1709206128.546,-39.551,-43.945,-39.062,-32.715,0.000
1709206128.550,-46.387,-41.992,-34.668,-19.043,0.000
1709206128.554,-32.227,-42.480,-36.621,-6.348,0.000
1709206128.558,-23.438,-51.758,-39.062,-7.812,0.000
1709206128.561,-19.043,-49.316,-41.992,-13.184,0.000
1709206128.565,-16.602,-42.480,-42.480,-17.090,0.000
1709206128.569,-20.508,-47.363,-39.551,-15.625,0.000
1709206128.573,-24.414,-46.875,-41.992,-1.465,0.000
1709206128.577,-26.855,-40.527,-45.410,-3.418,0.000
1709206128.581,-20.996,-41.992,-36.133,-12.695,0.000
1709206128.585,-20.020,-44.922,-35.156,-9.277,0.000
1709206128.589,-26.367,-38.574,-39.062,-4.883,0.000
1709206128.593,-22.949,-37.598,-39.062,-6.836,0.000
1709206128.597,-18.555,-38.086,-35.156,-6.836,0.000
1709206128.601,-18.555,-45.410,-29.297,-12.207,0.000
1709206128.604,-2.930,-53.223,-34.180,-16.113,0.000
1709206128.608,-1.953,-48.340,-36.621,-8.789,0.000
1709206128.612,-17.578,-47.852,-27.344,-7.324,0.000
1709206128.616,-14.648,-68.359,-16.602,4.883,0.000
1709206128.620,-18.066,-78.613,-11.230,5.371,0.000
1709206128.624,-31.250,-69.336,-18.555,-14.648,0.000
1709206128.628,-41.504,-77.148,-23.438,-14.648,0.000
1709206128.632,-41.992,-84.473,-18.066,-16.113,0.000
1709206128.636,-42.969,-82.031,-13.184,-28.320,0.000
1709206128.640,-49.316,-83.984,-9.766,-36.133,0.000
1709206128.643,-61.035,-97.168,-12.695,-39.551,0.000
1709206128.647,-74.219,-108.887,-20.020,-37.109,0.000
1709206128.651,-74.219,-116.211,-19.043,-44.434,0.000
1709206128.655,-71.289,-115.723,-12.695,-48.828,0.000
1709206128.659,-74.219,-118.164,-13.184,-45.898,0.000
1709206128.663,-80.566,-135.254,-19.531,-27.832,0.000
1709206128.667,-90.820,-134.766,-18.555,-20.020,0.000
1709206128.671,-85.938,-133.789,-17.090,-39.551,0.000
1709206128.675,-78.613,-145.508,-15.625,-35.645,0.000
1709206128.679,-88.379,-150.879,-16.602,-22.461,0.000
1709206128.683,-82.031,-151.367,-17.090,-20.508,0.000
1709206128.686,-72.266,-154.297,-6.348,-14.160,0.000
1709206128.690,-69.824,-159.180,-10.254,1.465,0.000
1709206128.694,-62.988,-155.273,-11.230,17.090,0.000
1709206128.698,-54.199,-155.273,-0.977,15.137,0.000
1709206128.702,-50.781,-159.180,-2.441,10.742,0.000
1709206128.706,-43.945,-163.574,-1.953,24.902,0.000
1709206128.710,-40.039,-161.133,-0.977,29.785,0.000
1709206128.714,-43.945,-143.555,-6.348,12.695,0.000
1709206128.718,-37.598,-141.113,-6.348,6.836,0.000
1709206128.722,-41.016,-148.438,-3.418,2.930,0.000
1709206128.726,-41.504,-146.973,-2.930,6.348,0.000
1709206128.729,-44.434,-148.926,-7.812,8.789,0.000
1709206128.733,-72.266,-157.715,-15.625,7.812,0.000
1709206128.737,-73.242,-151.855,-15.137,6.836,0.000
1709206128.741,-58.594,-142.578,-9.766,1.953,0.000
1709206128.745,-64.941,-143.555,-8.789,0.977,0.000
1709206128.749,-70.801,-138.672,-8.301,-12.695,0.000
1709206128.753,-62.988,-136.719,-14.160,-21.973,0.000
1709206128.757,-55.664,-128.418,-19.531,-18.066,0.000
1709206128.761,-51.758,-116.699,-19.043,-23.438,0.000
1709206128.765,-51.758,-116.699,-25.391,-28.809,0.000
1709206128.768,-50.293,-119.629,-25.879,-28.320,0.000
1709206128.772,-51.270,-106.445,-22.461,-19.043,0.000
1709206128.776,-36.133,-98.145,-27.344,-14.160,0.000
1709206128.780,-14.648,-102.539,-28.809,-17.090,0.000
1709206128.784,-25.879,-91.309,-27.344,-22.949,0.000
1709206128.788,-43.945,-83.008,-38.574,-36.621,0.000
1709206128.792,-39.551,-86.426,-36.133,-33.691,0.000
1709206128.796,-39.062,-93.262,-26.367,-20.020,0.000
1709206128.800,-37.109,-91.797,-31.250,-16.602,0.000
1709206128.804,-39.551,-80.566,-38.574,-31.250,0.000
1709206128.808,-46.387,-83.008,-38.086,-34.668,0.000
1709206128.811,-40.039,-81.055,-33.203,-32.715,0.000
1709206128.815,-38.086,-78.613,-35.156,-40.039,0.000
1709206128.819,-42.969,-78.125,-41.504,-36.133,0.000
1709206128.823,-41.504,-82.031,-39.551,-28.320,0.000
1709206128.827,-44.922,-83.496,-36.621,-24.902,0.000
1709206128.831,-40.527,-76.660,-36.621,-22.949,0.000
1709206128.835,-27.344,-63.477,-30.762,-21.484,0.000
1709206128.839,-31.250,-59.570,-25.879,-18.555,0.000
1709206128.843,-39.062,-68.848,-23.926,-10.742,0.000
1709206128.847,-42.969,-63.965,-28.809,-12.207,0.000
1709206128.851,-41.016,-56.152,-32.715,-21.484,0.000
1709206128.854,-37.598,-63.965,-29.785,-29.297,0.000
1709206128.858,-32.715,-59.570,-33.691,-36.621,0.000
1709206128.862,-25.391,-53.223,-38.086,-38.086,0.000
1709206128.866,-30.273,-53.711,-35.156,-38.574,0.000
1709206128.870,-41.504,-56.641,-35.645,-41.016,0.000
1709206128.874,-38.086,-58.594,-38.574,-35.156,0.000
1709206128.878,-35.645,-57.617,-40.039,-45.410,0.000
1709206128.882,-41.992,-59.570,-43.457,-58.594,0.000
1709206128.886,-49.316,-71.777,-44.434,-51.758,0.000
1709206128.890,-52.246,-70.801,-46.875,-55.176,0.000
1709206128.893,-32.227,-54.199,-44.434,-67.383,0.000
1709206128.897,-28.320,-51.270,-42.480,-61.035,0.000
1709206128.901,-49.316,-62.012,-43.457,-48.340,0.000
1709206128.905,-54.688,-64.453,-38.086,-43.457,0.000
1709206128.909,-54.688,-51.758,-34.180,-53.711,0.000
1709206128.913,-41.504,-47.852,-35.156,-56.152,0.000
1709206128.917,-30.762,-52.246,-33.203,-44.922,0.000
1709206128.921,-37.109,-49.316,-31.738,-42.969,0.000
1709206128.925,-40.527,-38.574,-33.203,-49.805,0.000
1709206128.929,-35.645,-42.480,-36.133,-51.758,0.000
1709206128.933,-36.621,-51.270,-35.156,-45.898,0.000
1709206128.936,-36.133,-46.387,-33.203,-41.016,0.000
1709206128.940,-29.785,-46.387,-30.762,-36.621,0.000
1709206128.944,-29.297,-49.805,-31.738,-28.809,0.000
1709206128.948,-24.902,-50.781,-35.156,-29.297,0.000
1709206128.952,-39.062,-41.992,-36.133,-28.809,0.000
1709206128.956,-53.711,-44.434,-36.133,-32.715,0.000
1709206128.960,-46.875,-54.199,-37.109,-41.992,0.000
1709206128.964,-45.898,-55.176,-35.645,-39.551,0.000
1709206128.968,-54.688,-56.641,-36.133,-44.434,0.000
1709206128.972,-50.781,-53.711,-37.598,-50.781,0.000
1709206128.976,-39.062,-50.781,-35.156,-40.039,0.000
1709206128.979,-37.109,-48.340,-30.762,-34.180,0.000
1709206128.983,-38.086,-43.457,-33.203,-35.645,0.000
1709206128.987,-37.109,-44.922,-40.527,-44.922,0.000
1709206128.991,-31.738,-55.176,-42.969,-41.992,0.000
1709206128.995,-42.969,-52.246,-41.016,-32.227,0.000
1709206128.999,-50.781,-40.039,-41.016,-43.457,0.000
1709206129.003,-39.551,-42.480,-40.527,-43.457,0.000
1709206129.007,-38.574,-48.340,-44.922,-40.039,0.000
1709206129.011,-34.668,-46.387,-37.598,-38.574,0.000
1709206129.015,-27.344,-37.598,-29.297,-39.062,0.000
1709206129.018,-29.297,-42.480,-30.762,-50.293,0.000
1709206129.022,-32.227,-51.270,-26.367,-57.129,0.000
1709206129.026,-40.039,-47.363,-24.414,-56.152,0.000
1709206129.030,-33.691,-44.922,-32.227,-51.758,0.000
1709206129.034,-42.969,-48.828,-39.062,-55.176,0.000
1709206129.038,-56.152,-53.711,-37.598,-39.062,0.000
1709206129.042,-46.387,-44.922,-40.527,-34.180,0.000
1709206129.046,-42.969,-40.527,-42.969,-56.152,0.000
1709206129.050,-60.547,-49.805,-41.992,-55.176,0.000
1709206129.054,-60.547,-45.898,-38.086,-51.758,0.000
1709206129.058,-38.086,-39.551,-38.086,-51.758,0.000
1709206129.061,-40.527,-40.527,-40.527,-41.992,0.000
1709206129.065,-47.852,-46.875,-37.598,-50.293,0.000
1709206129.069,-37.598,-46.875,-42.480,-61.523,0.000
1709206129.073,-26.855,-40.039,-45.410,-51.270,0.000
1709206129.077,-40.039,-41.016,-41.992,-43.457,0.000
1709206129.081,-35.645,-51.270,-37.598,-38.086,0.000
1709206129.085,-36.133,-51.758,-38.574,-30.762,0.000
1709206129.089,-46.875,-40.527,-41.504,-33.691,0.000
1709206129.093,-45.410,-45.410,-46.387,-33.691,0.000
1709206129.097,-43.945,-51.270,-42.969,-41.016,0.000
1709206129.101,-38.574,-43.457,-32.227,-51.758,0.000
1709206129.104,-37.109,-30.762,-34.180,-52.246,0.000
1709206129.108,-45.410,-40.039,-32.715,-48.828,0.000
1709206129.112,-54.199,-48.828,-40.039,-41.504,0.000
1709206129.116,-54.199,-41.992,-44.922,-44.434,0.000
1709206129.120,-44.434,-41.016,-41.016,-45.410,0.000
1709206129.124,-39.062,-41.992,-38.574,-50.781,0.000
1709206129.128,-34.668,-51.758,-35.645,-54.688,0.000
1709206129.132,-44.434,-49.805,-36.621,-45.410,0.000
1709206129.136,-56.641,-40.039,-31.250,-44.922,0.000
1709206129.140,-51.270,-44.434,-29.785,-42.969,0.000
1709206129.143,-59.570,-55.176,-30.762,-44.434,0.000
1709206129.147,0.000,-59.570,-33.203,-48.340,0.000
1709206129.151,0.000,-55.176,-32.715,-42.969,0.000
1709206129.155,0.000,-58.105,-31.250,-33.691,0.000
1709206129.159,0.000,-55.176,-30.762,-37.598,0.000
1709206129.163,0.000,-51.758,-33.203,-41.504,0.000
1709206129.167,0.000,-54.199,-38.574,-37.109,0.000
1709206129.171,0.000,-57.129,-41.016,-39.551,0.000
1709206129.175,0.000,-52.734,-41.992,-38.574,0.000
1709206129.179,0.000,-32.227,-45.410,-46.875,0.000
1709206129.183,0.000,-32.227,-45.410,-42.969,0.000
1709206129.186,0.000,-40.527,-34.668,-25.879,0.000
1709206129.190,0.000,-40.527,-34.668,-24.414,0.000
1709206129.194,-34.180,-44.434,-39.062,-24.902,0.000
1709206129.198,-31.738,-50.293,-37.598,-30.762,0.000
1709206129.202,-29.297,-48.340,-34.180,-37.598,0.000
1709206129.206,-35.645,-45.410,-36.621,-38.086,0.000
1709206129.210,-43.945,-51.270,-44.922,-42.969,0.000
1709206129.214,-46.875,-56.641,-44.434,-37.109,0.000
1709206129.218,-43.945,-61.523,-41.992,-24.414,0.000
1709206129.222,-28.320,-48.828,-43.945,-28.809,0.000
1709206129.226,-28.809,-37.598,-41.504,-35.156,0.000
1709206129.229,-47.363,-52.734,-45.898,-41.016,0.000
1709206129.233,-42.969,-47.363,-47.852,-41.016,0.000
1709206129.237,-28.809,-41.016,-43.945,-35.156,0.000
1709206129.241,-23.438,-42.969,-45.410,-42.480,0.000
1709206129.245,-32.227,-44.434,-48.340,-48.340,0.000
1709206129.249,-33.691,-42.480,-50.293,-46.875,0.000
1709206129.253,-30.273,-38.574,-48.828,-41.992,0.000
1709206129.257,-29.297,-43.457,-48.340,-42.480,0.000
1709206129.261,-31.738,-54.688,-48.340,-34.180,0.000
1709206129.265,-37.109,-53.711,-46.875,-24.902,0.000
1709206129.268,-34.180,-41.504,-49.316,-36.133,0.000
1709206129.272,-43.945,-45.410,-43.457,-43.457,0.000
1709206129.276,-44.434,-54.199,-41.504,-44.434,0.000
1709206129.280,-35.156,-48.828,-38.086,-43.945,0.000
1709206129.284,-47.363,-42.969,-33.691,-43.945,0.000
1709206129.288,-48.828,-45.898,-30.273,-37.598,0.000
1709206129.292,-46.387,-43.945,-30.762,-39.062,0.000
1709206129.296,-47.363,-42.969,-40.039,-48.340,0.000
1709206129.300,-42.969,-43.457,-42.969,-46.387,0.000
1709206129.304,-39.551,-49.805,-40.039,-50.781,0.000
1709206129.308,-44.922,-59.082,-39.062,-55.176,0.000
1709206129.311,-55.664,-58.594,-38.086,-48.340,0.000
1709206129.315,-41.992,-43.945,-32.715,-45.410,0.000
1709206129.319,-26.855,-41.992,-38.574,-48.828,0.000
1709206129.323,-39.551,-52.734,-42.969,-40.527,0.000
1709206129.327,-48.828,-45.410,-37.598,-41.016,0.000
1709206129.331,-43.945,-47.852,-40.039,-38.574,0.000
1709206129.335,-33.691,-54.199,-45.898,-36.133,0.000
1709206129.339,-22.949,-48.340,-49.316,-37.109,0.000
1709206129.343,-22.461,-46.387,-47.852,-36.621,0.000
1709206129.347,-31.250,-44.922,-42.969,-31.738,0.000
1709206129.351,-29.297,-44.922,-39.062,-22.949,0.000
1709206129.354,-28.320,-41.992,-41.992,-19.531,0.000
1709206129.358,-34.668,-37.598,-41.504,-26.367,0.000
1709206129.362,-25.879,-39.551,-39.062,-48.340,0.000
1709206129.366,-31.738,-52.246,-41.992,-52.246,0.000
1709206129.370,-49.316,-58.105,-42.480,-44.922,0.000
1709206129.374,-42.969,-41.016,-36.621,-45.898,0.000
1709206129.378,-30.273,-39.062,-40.039,-42.969,0.000
1709206129.382,-27.832,-46.387,-42.480,-41.504,0.000
1709206129.386,-49.805,-45.898,-36.133,-47.852,0.000
1709206129.390,-63.477,-50.293,-40.039,-58.105,0.000
1709206129.393,-47.363,-55.176,-43.457,-51.758,0.000
1709206129.397,-37.598,-53.223,-39.062,-41.992,0.000
1709206129.401,-34.180,-56.152,-40.527,-40.527,0.000
1709206129.405,-34.180,-51.270,-42.480,-41.992,0.000
1709206129.409,-49.805,-46.387,-38.574,-43.945,0.000
1709206129.413,-34.668,-54.199,-36.621,-40.527,0.000
1709206129.417,-21.973,-46.387,-37.109,-45.410,0.000
1709206129.421,-40.527,-40.527,-39.551,-45.898,0.000
1709206129.425,-42.480,-53.711,-42.480,-41.992,0.000
1709206129.429,-48.828,-57.617,-46.875,-50.293,0.000
1709206129.433,-50.293,-44.434,-43.945,-49.805,0.000
1709206129.436,-43.945,-42.480,-40.039,-41.016,0.000
1709206129.440,-47.852,-51.270,-41.016,-41.504,0.000
1709206129.444,-48.340,-46.875,-38.086,-34.668,0.000
1709206129.448,-50.781,-47.363,-38.086,-33.203,0.000
1709206129.452,-55.664,-41.016,-37.598,-41.504,0.000
1709206129.456,-39.062,-41.016,-35.645,-41.992,0.000
1709206129.460,-34.668,-47.363,-42.969,-45.410,0.000
1709206129.464,-63.965,-36.621,-45.898,-54.688,0.000
1709206129.468,-72.754,-40.527,-41.016,-58.594,0.000
1709206129.472,-63.965,-46.387,-35.156,-49.805,0.000
1709206129.476,-59.570,-39.062,-32.715,-49.805,0.000
1709206129.479,-49.316,-43.945,-37.109,-55.176,0.000
1709206129.483,-44.434,-53.711,-41.016,-51.758,0.000
1709206129.487,-41.504,-42.480,-41.504,-47.852,0.000
1709206129.491,-43.457,-34.180,-38.574,-46.387,0.000
1709206129.495,-53.711,-41.504,-38.574,-47.363,0.000
1709206129.499,-50.781,-41.992,-41.016,-49.805,0.000
1709206129.503,-47.852,-45.898,-36.133,-40.039,0.000
1709206129.507,-50.781,-44.922,-36.621,-36.133,0.000
1709206129.511,-37.109,-43.945,-38.574,-41.504,0.000
1709206129.515,-38.574,-57.129,-36.133,-34.668,0.000
1709206129.518,-46.387,-61.523,-37.598,-30.273,0.000
1709206129.522,-39.062,-54.199,-36.621,-36.621,0.000
1709206129.526,-37.598,-48.340,-36.133,-40.527,0.000
1709206129.530,-43.457,-57.617,-39.551,-31.738,0.000
1709206129.534,-48.340,-55.664,-40.039,-21.973,0.000
1709206129.538,-41.504,-46.387,-35.645,-27.832,0.000
1709206129.542,-42.480,-51.270,-37.598,-41.504,0.000
1709206129.546,-51.270,-59.082,-41.016,-44.922,0.000
1709206129.550,-48.340,-57.129,-39.551,-39.062,0.000
1709206129.554,-47.363,-44.434,-39.551,-38.574,0.000
1709206129.558,-53.711,-47.363,-40.527,-41.504,0.000
1709206129.561,-54.199,-52.246,-39.551,-40.039,0.000
1709206129.565,-60.059,-50.781,-35.156,-35.645,0.000
1709206129.569,-60.059,-40.039,-37.598,-45.898,0.000
1709206129.573,-48.828,-40.527,-38.574,-49.805,0.000
1709206129.577,-38.086,-45.898,-36.133,-42.969,0.000
1709206129.581,-38.086,-39.551,-32.715,-39.062,0.000
1709206129.585,-40.527,-44.922,-33.203,-39.551,0.000
1709206129.589,-42.480,-55.664,-39.062,-44.922,0.000
1709206129.593,-35.156,-60.059,-40.039,-40.527,0.000
1709206129.597,-36.621,-58.105,-37.598,-39.062,0.000
1709206129.601,-51.270,-48.340,-43.457,-45.410,0.000
1709206129.604,-47.363,-47.852,-39.062,-51.758,0.000
1709206129.608,-44.922,-49.805,-32.227,-52.246,0.000
1709206129.612,-50.293,-51.270,-32.227,-45.410,0.000
1709206129.616,-54.199,-50.293,-26.855,-41.016,0.000
1709206129.620,-47.852,-50.781,-31.738,-45.410,0.000
1709206129.624,-41.992,-55.664,-32.715,-38.574,0.000
1709206129.628,-36.133,-51.270,-31.250,-33.691,0.000
1709206129.632,-41.992,-41.992,-32.715,-39.062,0.000
1709206129.636,-44.922,-54.688,-34.180,-34.668,0.000
1709206129.640,-38.086,-56.641,-34.180,-29.785,0.000
1709206129.643,-43.457,-39.551,-33.691,-31.738,0.000
1709206129.647,-49.316,-43.945,-39.551,-33.691,0.000
1709206129.651,-50.293,-54.688,-42.480,-26.855,0.000
1709206129.655,-38.574,-51.270,-35.645,-19.531,0.000
1709206129.659,-33.203,-43.457,-33.203,-30.762,0.000
1709206129.663,-33.691,-46.875,-35.156,-35.156,0.000
1709206129.667,-35.645,-46.875,-35.645,-27.832,0.000
1709206129.671,-49.316,-46.387,-40.527,-43.457,0.000
1709206129.675,-44.434,-47.363,-42.480,-54.688,0.000
1709206129.679,-44.922,-53.223,-41.016,-56.641,0.000
1709206129.683,-52.734,-52.246,-38.086,-54.688,0.000
1709206129.686,-44.434,-41.504,-39.551,-53.223,0.000
1709206129.690,-38.574,-37.109,-39.062,-52.246,0.000
1709206129.694,-39.551,-42.969,-40.039,-46.387,0.000
1709206129.698,-37.109,-54.688,-31.738,-36.621,0.000
1709206129.702,-29.785,-47.852,-26.855,-33.691,0.000
1709206129.706,-32.227,-42.969,-37.598,-41.992,0.000
1709206129.710,-43.945,-44.434,-42.480,-43.945,0.000
1709206129.714,-35.645,-42.480,-36.621,-38.574,0.000
1709206129.718,-28.320,-42.969,-31.738,-40.527,0.000
1709206129.722,-45.898,-40.039,-35.645,-42.969,0.000
1709206129.726,-42.969,-43.457,-36.133,-51.758,0.000
1709206129.729,-33.203,-47.363,-35.156,-54.199,0.000
1709206129.733,-23.438,-45.410,-38.574,-41.504,0.000
1709206129.737,-29.785,-41.992,-38.086,-46.387,0.000
1709206129.741,-40.527,-51.270,-39.062,-48.828,0.000
1709206129.745,-39.062,-50.293,-40.527,-39.551,0.000
1709206129.749,-44.434,-35.645,-41.992,-51.270,0.000
1709206129.753,-49.316,-45.898,-41.016,-51.758,0.000
1709206129.757,-34.668,-50.781,-36.621,-37.598,0.000
1709206129.761,-21.484,-41.504,-35.156,-27.344,0.000
1709206129.765,-40.527,-41.016,-31.738,-26.855,0.000
1709206129.769,-50.781,-48.828,-33.691,-25.879,0.000
1709206129.772,-38.086,-49.316,-36.133,-20.508,0.000
1709206129.776,-37.109,-47.852,-36.133,-30.273,0.000
1709206129.780,-36.133,-44.922,-41.016,-34.668,0.000
1709206129.784,-41.992,-44.922,-41.504,-40.039,0.000
1709206129.788,-52.246,-54.688,-38.086,-38.574,0.000
1709206129.792,-49.805,-49.316,-38.574,-35.645,0.000
1709206129.796,-44.922,-38.574,-42.480,-39.062,0.000
1709206129.800,-46.875,-46.875,-36.133,-40.039,0.000
1709206129.804,-55.664,-55.176,-33.203,-51.758,0.000
1709206129.808,-43.457,-53.223,-39.551,-51.270,0.000
1709206129.811,-35.156,-54.199,-41.016,-49.316,0.000
1709206129.815,-47.363,-57.129,-41.992,-48.828,0.000
1709206129.819,-42.480,-50.781,-42.969,-41.992,0.000
1709206129.823,-40.039,-45.410,-40.527,-45.410,0.000
1709206129.827,-43.945,-40.527,-37.598,-50.781,0.000
1709206129.831,-41.504,-42.969,-39.062,-44.922,0.000
1709206129.835,-35.156,-42.480,-42.480,-40.527,0.000
1709206129.839,-31.738,-33.203,-40.527,-53.711,0.000
1709206129.843,-35.156,-41.016,-37.598,-52.734,0.000
1709206129.847,-35.156,-48.340,-37.598,-43.945,0.000
1709206129.851,-24.902,-42.480,-31.738,-36.133,0.000
1709206129.854,-37.598,-39.062,-34.180,-32.227,0.000
1709206129.858,-39.551,-43.945,-38.086,-39.551,0.000
1709206129.862,-31.250,-47.363,-36.621,-37.109,0.000
1709206129.866,-48.340,-47.363,-40.039,-35.645,0.000
1709206129.870,-51.270,-49.316,-40.527,-38.086,0.000
1709206129.874,-40.039,-56.641,-40.039,-39.062,0.000
1709206129.878,-31.250,-64.941,-35.645,-32.227,0.000
1709206129.882,-25.879,-53.711,-37.109,-31.738,0.000
1709206129.886,-30.762,-41.016,-41.504,-52.734,0.000
1709206129.890,-23.926,-44.922,-37.598,-54.688,0.000
1709206129.893,-35.156,-48.828,-37.598,-42.969,0.000
1709206129.897,0.000,-43.457,-37.598,-41.504,0.000
1709206129.901,0.000,-35.156,-36.621,-45.410,0.000
1709206129.905,0.000,-42.480,-34.668,-50.293,0.000
1709206129.909,0.000,-50.293,-30.273,-43.457,0.000
1709206129.913,0.000,-50.781,-35.645,-35.156,0.000
1709206129.917,0.000,-51.758,-38.574,-41.016,0.000
1709206129.921,0.000,-54.688,-39.062,-44.434,0.000
1709206129.925,0.000,-50.293,-41.992,-39.551,0.000
1709206129.929,0.000,-40.039,-41.016,-48.828,0.000
1709206129.933,0.000,-37.598,-39.062,-52.734,0.000
1709206129.936,0.000,-37.598,-41.016,-45.410,0.000
1709206129.940,0.000,-40.039,-37.109,-45.898,0.000
1709206129.944,-26.855,-36.621,-39.551,-50.293,0.000
1709206129.948,-43.945,-41.016,-46.875,-47.852,0.000
1709206129.952,-56.641,-43.945,-39.551,-43.457,0.000
1709206129.956,-38.086,-39.062,-31.250,-37.598,0.000
1709206129.960,-35.645,-41.016,-36.621,-37.598,0.000
1709206129.964,-34.180,-47.363,-37.598,-38.086,0.000
1709206129.968,-41.992,-56.641,-29.785,-26.367,0.000
1709206129.972,-43.945,-46.875,-38.086,-30.273,0.000
1709206129.976,-41.992,-38.086,-46.875,-42.480,0.000
1709206129.979,-40.039,-39.062,-42.480,-35.645,0.000
1709206129.983,-36.133,-39.551,-41.504,-30.273,0.000
1709206129.987,-40.039,-41.504,-44.434,-38.574,0.000
1709206129.991,-24.902,-37.598,-42.480,-41.992,0.000
1709206129.995,-25.391,-41.992,-38.086,-38.574,0.000
1709206129.999,-39.062,-45.410,-41.016,-43.457,0.000
1709206130.003,-47.852,-38.574,-40.039,-50.293,0.000
1709206130.007,-52.734,-36.621,-40.527,-58.105,0.000
1709206130.011,-49.805,-49.805,-43.457,-50.781,0.000
1709206130.015,-41.016,-55.176,-37.598,-35.645,0.000
1709206130.018,-41.504,-41.504,-38.574,-45.410,0.000
1709206130.022,-44.434,-42.969,-39.062,-48.340,0.000
1709206130.026,-34.668,-46.875,-33.691,-40.527,0.000
1709206130.030,-31.738,-42.480,-39.062,-42.480,0.000
1709206130.034,-44.922,-41.016,-44.434,-48.340,0.000
1709206130.038,-43.457,-45.898,-38.086,-45.410,0.000
1709206130.042,-38.086,-45.898,-39.551,-46.387,0.000
1709206130.046,-34.668,-42.969,-43.945,-46.875,0.000
1709206130.050,-42.480,-48.340,-40.039,-44.434,0.000
1709206130.054,-53.711,-54.199,-44.922,-47.363,0.000
1709206130.058,-42.480,-50.781,-45.410,-41.992,0.000
1709206130.061,-34.668,-44.434,-37.109,-37.109,0.000
1709206130.065,-40.527,-45.898,-39.551,-33.203,0.000
1709206130.069,-51.270,-54.199,-44.922,-33.203,0.000
1709206130.073,-41.992,-55.664,-40.527,-33.691,0.000
1709206130.077,-23.438,-43.457,-39.062,-34.668,0.000
1709206130.081,-43.945,-50.781,-42.969,-41.504,0.000
1709206130.085,-46.387,-56.152,-42.969,-43.457,0.000
1709206130.089,-32.715,-41.504,-36.133,-39.551,0.000
1709206130.093,-39.551,-37.598,-35.156,-38.086,0.000
1709206130.097,-41.992,-41.504,-38.574,-42.480,0.000
1709206130.101,-41.992,-50.293,-37.598,-42.969,0.000
1709206130.104,-41.504,-55.664,-34.668,-37.598,0.000
1709206130.108,-43.457,-48.828,-40.527,-40.039,0.000
1709206130.112,-43.945,-47.852,-42.969,-46.387,0.000
1709206130.116,-27.832,-56.152,-45.410,-41.016,0.000
1709206130.120,-34.180,-55.176,-46.387,-42.969,0.000
1709206130.124,-41.504,-41.992,-47.363,-48.340,0.000
1709206130.128,-44.434,-51.758,-51.758,-41.016,0.000
1709206130.132,-47.363,-58.105,-45.410,-36.621,0.000
1709206130.136,-34.180,-46.875,-39.062,-35.156,0.000
1709206130.140,-28.809,-38.574,-41.992,-30.273,0.000
1709206130.144,-30.273,-45.898,-42.480,-32.715,0.000
1709206130.147,-44.922,-57.617,-34.668,-39.062,0.000
1709206130.151,-46.875,-51.758,-28.320,-31.250,0.000
1709206130.155,-41.016,-41.016,-26.855,-35.156,0.000
1709206130.159,-38.574,-34.668,-32.227,-50.781,0.000
1709206130.163,-41.016,-44.922,-37.109,-40.527,0.000
1709206130.167,-47.363,-45.410,-34.668,-35.645,0.000
1709206130.171,-34.180,-35.156,-31.250,-40.527,0.000
1709206130.175,-30.762,-42.969,-31.250,-38.086,0.000
1709206130.179,-44.434,-43.457,-34.180,-41.016,0.000
1709206130.183,-45.410,-41.016,-37.109,-42.480,0.000
1709206130.186,-46.387,-56.152,-40.039,-40.039,0.000
1709206130.190,-40.527,-63.477,-39.551,-42.480,0.000
1709206130.194,-34.668,-52.734,-37.109,-45.898,0.000
1709206130.198,-37.109,-50.781,-34.180,-45.898,0.000
1709206130.202,-43.945,-56.152,-35.156,-49.316,0.000
1709206130.206,-49.805,-62.500,-38.574,-42.969,0.000
1709206130.210,-44.922,-56.152,-39.062,-27.832,0.000
1709206130.214,-48.340,-38.086,-34.668,-29.297,0.000
1709206130.218,-49.316,-41.504,-30.273,-36.621,0.000
1709206130.222,-37.109,-50.293,-35.645,-50.781,0.000
1709206130.226,-41.016,-54.688,-40.527,-51.270,0.000
1709206130.229,-48.828,-50.293,-49.805,-51.270,0.000
1709206130.233,-42.480,-54.199,-49.805,-55.664,0.000
1709206130.237,-38.086,-55.176,-41.992,-47.363,0.000
1709206130.241,-34.180,-48.340,-40.039,-47.852,0.000
1709206130.245,-35.156,-55.664,-39.551,-49.316,0.000
1709206130.249,-49.316,-58.594,-47.363,-47.852,0.000
1709206130.253,-46.875,-56.641,-44.434,-35.156,0.000
1709206130.257,-34.180,-51.270,-35.156,-29.297,0.000
1709206130.261,-28.809,-44.434,-38.574,-35.645,0.000
1709206130.265,-36.133,-48.340,-41.504,-41.016,0.000
1709206130.269,-55.664,-56.641,-41.504,-54.688,0.000
1709206130.272,-54.199,-52.734,-40.039,-53.223,0.000
1709206130.276,-41.016,-44.922,-38.574,-40.039,0.000
1709206130.280,-34.180,-53.711,-47.852,-35.645,0.000
1709206130.284,-38.086,-60.547,-47.363,-40.527,0.000
1709206130.288,-50.293,-53.711,-36.133,-44.434,0.000
1709206130.292,-51.270,-54.199,-37.598,-36.621,0.000
1709206130.296,-35.156,-60.059,-40.527,-41.504,0.000
1709206130.300,-36.621,-60.059,-41.504,-47.363,0.000
1709206130.304,-51.758,-51.270,-42.969,-52.246,0.000
1709206130.308,-51.758,-50.781,-43.945,-56.152,0.000
1709206130.311,-39.062,-48.340,-38.086,-54.688,0.000
1709206130.315,-36.133,-46.875,-32.227,-57.617,0.000
1709206130.319,-38.574,-44.434,-28.809,-55.176,0.000
1709206130.323,-35.156,-46.875,-33.203,-45.898,0.000
1709206130.327,-42.969,-47.363,-39.551,-46.875,0.000
1709206130.331,-48.828,-44.922,-38.086,-47.852,0.000
1709206130.335,-44.922,-50.293,-38.574,-47.363,0.000
1709206130.339,-36.133,-51.758,-41.016,-51.270,0.000
1709206130.343,-39.062,-56.641,-42.969,-44.434,0.000
1709206130.347,-50.781,-45.410,-41.504,-41.992,0.000
1709206130.351,-48.340,-33.691,-39.551,-53.223,0.000
1709206130.354,-43.457,-49.316,-39.062,-43.945,0.000
1709206130.358,-46.387,-58.105,-40.039,-40.527,0.000
1709206130.362,-25.879,-54.199,-38.574,-41.992,0.000
1709206130.366,-29.785,-49.316,-41.016,-46.875,0.000
1709206130.370,-65.430,-55.176,-42.480,-59.570,0.000
1709206130.374,-53.223,-60.059,-38.574,-52.734,0.000
1709206130.378,-43.945,-51.758,-42.969,-43.457,0.000
1709206130.382,-49.805,-49.316,-44.434,-48.828,0.000
1709206130.386,-49.316,-62.500,-40.039,-45.410,0.000
1709206130.390,-45.410,-58.594,-37.598,-28.320,0.000
1709206130.394,-44.434,-48.340,-38.086,-28.320,0.000
1709206130.397,-43.457,-54.199,-40.527,-33.691,0.000
1709206130.401,-39.551,-51.758,-43.457,-33.203,0.000
1709206130.405,-44.434,-51.758,-50.781,-30.273,0.000
1709206130.409,-49.805,-49.805,-45.898,-25.879,0.000
1709206130.413,-39.551,-48.340,-37.109,-22.949,0.000
1709206130.417,-16.602,-49.316,-40.527,-27.832,0.000
1709206130.421,-14.160,-49.316,-37.598,-32.715,0.000
1709206130.425,-38.086,-49.805,-31.738,-34.180,0.000
1709206130.429,-44.922,-53.711,-32.227,-29.785,0.000
1709206130.433,-45.410,-61.035,-33.203,-19.531,0.000
1709206130.436,-43.457,-55.176,-34.180,-18.555,0.000
1709206130.440,-44.922,-45.410,-36.133,-31.738,0.000
1709206130.444,-52.246,-46.875,-32.715,-36.133,0.000
1709206130.448,-56.641,-51.758,-29.297,-30.273,0.000
1709206130.452,-45.898,-45.410,-39.062,-28.809,0.000
1709206130.456,-31.738,-46.875,-38.086,-28.320,0.000
1709206130.460,-36.133,-56.641,-39.551,-37.109,0.000
1709206130.464,-39.551,-53.711,-43.457,-40.527,0.000
1709206130.468,-48.828,-47.852,-40.527,-33.691,0.000
1709206130.472,-56.152,-42.969,-39.062,-39.551,0.000
1709206130.476,-38.574,-46.387,-36.621,-39.551,0.000
1709206130.479,-34.668,-54.199,-40.527,-36.621,0.000
1709206130.483,-43.457,-44.922,-38.086,-40.527,0.000
1709206130.487,-34.668,-36.133,-33.203,-40.039,0.000
1709206130.491,-31.738,-46.875,-33.203,-32.227,0.000
1709206130.495,-32.227,-55.176,-34.180,-16.113,0.000
1709206130.499,-25.391,-41.504,-40.039,-18.555,0.000
1709206130.503,-30.762,-42.480,-40.527,-28.809,0.000
1709206130.507,-30.273,-46.875,-38.086,-30.273,0.000
1709206130.511,-31.250,-44.434,-35.156,-33.203,0.000
1709206130.515,-43.457,-38.574,-37.598,-30.762,0.000
1709206130.519,-34.668,-39.062,-44.434,-30.273,0.000
1709206130.522,-43.457,-48.828,-43.457,-32.715,0.000
1709206130.526,-47.363,-50.293,-32.715,-40.039,0.000
1709206130.530,-38.086,-42.969,-29.785,-48.828,0.000
1709206130.534,-37.109,-45.898,-37.109,-46.875,0.000
1709206130.538,-36.621,-63.477,-41.992,-38.574,0.000
1709206130.542,-39.062,-53.711,-43.457,-41.504,0.000
1709206130.546,-44.434,-40.527,-45.898,-51.270,0.000
1709206130.550,-27.344,-51.758,-42.969,-54.688,0.000
1709206130.554,-34.180,-50.781,-39.551,-54.688,0.000
1709206130.558,-50.293,-41.992,-43.457,-53.223,0.000
1709206130.561,-44.434,-44.434,-41.992,-55.664,0.000
1709206130.565,-53.223,-57.617,-40.527,-57.129,0.000
1709206130.569,-43.945,-63.477,-44.922,-54.199,0.000
1709206130.573,-36.621,-55.664,-40.527,-62.988,0.000
1709206130.577,-47.363,-44.434,-33.691,-62.988,0.000
1709206130.581,-49.805,-52.734,-34.668,-51.758,0.000
1709206130.585,-54.199,-60.059,-41.992,-49.805,0.000
1709206130.589,-58.105,-41.016,-39.062,-52.734,0.000
1709206130.593,-50.293,-42.969,-28.809,-47.852,0.000
1709206130.597,-37.598,-50.781,-29.785,-41.504,0.000
1709206130.601,-35.645,-48.340,-30.273,-41.016,0.000
1709206130.604,-52.734,-47.363,-35.645,-43.457,0.000
1709206130.608,-52.246,-50.781,-36.133,-45.898,0.000
1709206130.612,-41.992,-51.270,-26.367,-44.922,0.000
1709206130.616,-42.480,-50.293,-28.320,-41.504,0.000
1709206130.620,-40.527,-50.781,-35.156,-36.133,0.000
1709206130.624,-38.574,-45.410,-33.691,-35.156,0.000
1709206130.628,-43.945,-54.688,-38.574,-31.250,0.000
1709206130.632,-51.270,-52.734,-40.527,-29.297,0.000
1709206130.636,-45.898,-38.086,-38.574,-36.133,0.000
1709206130.640,-41.992,-48.340,-40.039,-37.109,0.000
1709206130.644,-41.504,-56.152,-32.715,-39.062,0.000
1709206130.647,-33.691,-46.387,-32.227,-44.922,0.000
1709206130.651,-44.434,-41.504,-35.645,-47.852,0.000
1709206130.655,-50.293,-51.270,-30.762,-38.574,0.000
1709206130.659,-40.039,-51.270,-33.691,-41.504,0.000
1709206130.663,-43.945,-42.969,-42.480,-51.758,0.000
1709206130.667,-48.340,-46.875,-41.992,-45.898,0.000
1709206130.671,-48.340,-52.246,-38.574,-33.691,0.000
1709206130.675,-49.805,-47.363,-36.133,-36.133,0.000
1709206130.679,-54.199,-34.180,-39.062,-45.898,0.000
1709206130.683,-42.969,-43.457,-37.598,-44.922,0.000
1709206130.686,-47.852,-47.363,-36.621,-45.898,0.000
1709206130.690,-48.340,-36.133,-42.969,-57.129,0.000
1709206130.694,-44.922,-31.738,-41.992,-63.965,0.000
1709206130.698,-55.176,-35.645,-36.133,-61.035,0.000
1709206130.702,-37.109,-37.598,-29.297,-54.199,0.000
1709206130.706,-35.645,-36.621,-31.250,-46.387,0.000
1709206130.710,-44.922,-46.875,-37.598,-41.016,0.000
1709206130.714,-41.504,-52.734,-34.180,-42.969,0.000
1709206130.718,-36.621,-56.641,-32.715,-32.715,0.000
1709206130.722,-42.969,-56.641,-39.551,-34.668,0.000
1709206130.726,-54.688,-44.434,-39.551,-47.363,0.000
1709206130.729,-52.246,-49.316,-29.785,-41.992,0.000
1709206130.733,-30.762,-56.152,-30.273,-37.109,0.000
1709206130.737,-36.621,-55.176,-34.668,-32.227,0.000
1709206130.741,-49.316,-50.293,-37.598,-30.273,0.000
1709206130.745,-51.270,-52.734,-45.898,-32.715,0.000
1709206130.749,-57.129,-60.059,-48.340,-37.109,0.000
1709206130.753,-47.852,-50.781,-47.852,-39.062,0.000
1709206130.757,-44.434,-50.293,-42.480,-46.387,0.000
1709206130.761,-50.781,-62.988,-40.527,-43.945,0.000
1709206130.765,-42.480,-61.035,-40.527,-31.250,0.000
1709206130.769,-42.969,-42.480,-37.598,-37.598,0.000
1709206130.772,-48.828,-42.969,-41.504,-41.504,0.000
1709206130.776,-41.504,-49.316,-44.434,-38.086,0.000
1709206130.780,-25.391,-46.387,-43.457,-44.922,0.000
1709206130.784,-36.621,-43.457,-41.992,-44.434,0.000
1709206130.788,0.000,-47.363,-43.457,-44.922,0.000
1709206130.792,0.000,-49.805,-47.852,-48.828,0.000
1709206130.796,0.000,-41.016,-42.969,-45.898,0.000
1709206130.800,0.000,-39.551,-37.109,-50.781,0.000
1709206130.804,0.000,-50.781,-37.598,-54.688,0.000
1709206130.808,0.000,-56.641,-35.645,-51.758,0.000
1709206130.811,0.000,-49.805,-35.156,-50.781,0.000
1709206130.815,0.000,-41.504,-35.156,-51.758,0.000
1709206130.819,0.000,-49.805,-40.527,-48.340,0.000
1709206130.823,0.000,-61.035,-43.945,-42.480,0.000
1709206130.827,0.000,-50.293,-43.457,-40.527,0.000
1709206130.831,0.000,-49.805,-51.270,-50.293,0.000
1709206130.835,-39.062,-49.805,-51.758,-50.781,0.000
1709206130.839,-35.156,-41.016,-46.387,-49.805,0.000
1709206130.843,-39.062,-39.062,-44.922,-50.781,0.000
1709206130.847,-40.039,-43.457,-41.016,-40.527,0.000
1709206130.851,-40.527,-49.805,-40.039,-37.598,0.000
1709206130.854,-36.133,-53.711,-41.504,-45.410,0.000
1709206130.858,-24.902,-50.293,-39.551,-42.480,0.000
1709206130.862,-17.578,-44.922,-34.180,-44.434,0.000
1709206130.866,-30.273,-57.617,-38.574,-43.457,0.000
1709206130.870,-29.785,-58.105,-42.969,-26.855,0.000
1709206130.874,-24.902,-36.621,-45.898,-37.109,0.000
1709206130.878,-18.555,-40.527,-46.387,-43.457,0.000
1709206130.882,-26.367,-46.387,-45.898,-38.574,0.000
1709206130.886,-43.945,-39.551,-41.992,-36.621,0.000
1709206130.890,-40.527,-39.551,-40.039,-29.297,0.000
1709206130.894,-41.504,-41.504,-49.316,-26.855,0.000
1709206130.897,-41.504,-41.504,-41.504,-36.133,0.000
1709206130.901,-36.133,-42.480,-34.180,-45.410,0.000
1709206130.905,-39.062,-36.133,-35.156,-51.270,0.000
1709206130.909,-44.922,-36.621,-41.016,-62.012,0.000
1709206130.913,-49.316,-53.223,-42.480,-44.922,0.000
1709206130.917,-46.875,-48.828,-40.527,-33.691,0.000
1709206130.921,-47.363,-37.598,-38.574,-50.781,0.000
1709206130.925,-34.180,-44.434,-33.691,-59.082,0.000
1709206130.929,0.000,-44.434,-35.156,-58.594,0.000
1709206130.933,0.000,-37.109,-34.668,-44.434,0.000
1709206130.937,0.000,-41.504,-37.598,-42.480,0.000
1709206130.940,0.000,-53.711,-37.598,-48.340,0.000
1709206130.944,0.000,-62.500,-35.645,-46.387,0.000
1709206130.948,0.000,-60.059,-37.598,-40.527,0.000
1709206130.952,0.000,-54.199,-38.086,-47.363,0.000
1709206130.956,0.000,-57.617,-37.109,-45.898,0.000
1709206130.960,0.000,-58.105,-36.133,-36.133,0.000
1709206130.964,0.000,-46.387,-33.691,-39.551,0.000
1709206130.968,0.000,-48.340,-28.320,-30.762,0.000
1709206130.972,0.000,-48.828,-31.250,-20.996,0.000
1709206130.976,-32.227,-41.504,-36.621,-31.250,0.000
1709206130.979,-49.805,-38.086,-34.668,-42.969,0.000
1709206130.983,-48.340,-42.480,-38.086,-46.875,0.000
1709206130.987,-42.480,-47.852,-46.875,-49.316,0.000
1709206130.991,-50.781,-41.016,-47.852,-39.062,0.000
1709206130.995,-60.059,-41.504,-48.828,-42.480,0.000
1709206130.999,-55.176,-45.898,-50.293,-52.246,0.000
1709206131.003,-38.574,-48.828,-47.852,-41.504,0.000
1709206131.007,-35.645,-45.410,-50.781,-33.203,0.000
1709206131.011,-46.875,-42.480,-53.711,-33.691,0.000
1709206131.015,-43.457,-47.363,-47.363,-38.574,0.000
1709206131.019,-41.504,-47.852,-34.668,-41.016,0.000
1709206131.022,-32.227,-43.945,-34.180,-35.645,0.000
1709206131.026,-36.133,-44.922,-36.133,-36.621,0.000
1709206131.030,-27.344,-51.270,-31.738,-36.621,0.000
1709206131.034,-32.715,-46.387,-34.668,-33.203,0.000
1709206131.038,-42.969,-42.969,-32.227,-33.691,0.000
1709206131.042,-48.828,-47.363,-31.738,-37.598,0.000
1709206131.046,-51.270,-50.781,-37.109,-29.297,0.000
1709206131.050,-43.457,-52.734,-39.551,-23.438,0.000
1709206131.054,-47.363,-49.316,-39.062,-33.203,0.000
1709206131.058,-47.852,-47.852,-38.086,-31.738,0.000
1709206131.061,-48.340,-49.316,-35.156,-34.180,0.000
1709206131.065,-45.898,-46.387,-36.621,-42.969,0.000
1709206131.069,-39.551,-41.016,-34.180,-45.410,0.000
1709206131.073,-39.062,-48.340,-37.598,-42.480,0.000
1709206131.077,-41.992,-53.223,-45.410,-39.551,0.000
1709206131.081,-36.621,-46.387,-40.527,-40.039,0.000
1709206131.085,-36.133,-46.875,-30.762,-35.156,0.000
1709206131.089,-32.715,-50.293,-34.668,-30.273,0.000
1709206131.093,-42.969,-57.617,-37.109,-19.043,0.000
1709206131.097,-53.223,-49.316,-35.645,-17.578,0.000
1709206131.101,-47.363,-34.180,-40.527,-36.133,0.000
1709206131.104,-45.410,-39.551,-35.645,-41.504,0.000
1709206131.108,-44.922,-44.434,-32.715,-44.922,0.000
1709206131.112,-39.551,-48.340,-37.109,-41.992,0.000
1709206131.116,-39.062,-47.852,-43.945,-41.992,0.000
1709206131.120,-40.527,-48.340,-44.434,-45.410,0.000
1709206131.124,-36.133,-52.734,-38.086,-42.969,0.000
1709206131.128,-45.898,-47.363,-39.062,-50.781,0.000
1709206131.132,-58.594,-44.922,-40.527,-49.805,0.000
1709206131.136,-55.176,-53.711,-40.527,-42.969,0.000
1709206131.140,-35.645,-56.152,-44.434,-39.062,0.000
1709206131.144,-42.969,-44.922,-45.898,-37.598,0.000
1709206131.147,-62.012,-45.898,-44.922,-42.969,0.000
1709206131.151,-55.664,-47.363,-46.875,-44.434,0.000
1709206131.155,-47.852,-42.480,-45.898,-48.340,0.000
1709206131.159,-49.316,-38.086,-48.828,-51.270,0.000
1709206131.163,-50.781,-36.621,-46.875,-46.875,0.000
1709206131.167,-42.969,-39.062,-43.457,-52.734,0.000
1709206131.171,-44.434,-42.969,-41.504,-54.199,0.000
1709206131.175,-48.340,-43.457,-36.621,-45.410,0.000
1709206131.179,-49.316,-47.363,-35.156,-43.457,0.000
1709206131.183,-53.223,-55.176,-32.715,-44.434,0.000
1709206131.186,-45.410,-49.805,-34.180,-48.340,0.000
1709206131.190,-57.617,-43.457,-36.133,-48.828,0.000
1709206131.194,-64.941,-45.898,-34.668,-44.434,0.000
1709206131.198,-55.176,-51.758,-31.250,-29.785,0.000
1709206131.202,-46.875,-48.828,-35.156,-25.391,0.000
1709206131.206,-48.828,-46.875,-34.668,-25.879,0.000
1709206131.210,-47.363,-53.223,-38.574,-24.902,0.000
1709206131.214,-41.016,-45.898,-42.969,-35.156,0.000
1709206131.218,-31.738,-38.086,-41.016,-43.945,0.000
1709206131.222,-34.180,-43.457,-41.016,-40.527,0.000
1709206131.226,-52.734,-52.246,-34.180,-35.156,0.000
1709206131.229,-54.199,-55.664,-31.738,-34.180,0.000
1709206131.233,-44.922,-43.945,-35.645,-29.297,0.000
1709206131.237,-29.785,-35.645,-35.156,-29.785,0.000
1709206131.241,-29.297,-45.898,-30.762,-27.832,0.000
1709206131.245,-37.109,-45.410,-31.738,-24.902,0.000
1709206131.249,-34.180,-30.273,-31.738,-30.762,0.000
1709206131.253,-28.320,-39.062,-29.785,-31.250,0.000
1709206131.257,-29.297,-47.363,-29.297,-39.062,0.000
1709206131.261,-22.949,-42.480,-31.250,-43.457,0.000
1709206131.265,-31.738,-38.086,-32.715,-44.922,0.000
1709206131.269,-59.082,-47.363,-33.203,-50.781,0.000
1709206131.272,-57.129,-53.223,-32.227,-47.852,0.000
1709206131.276,-47.363,-52.246,-27.832,-44.434,0.000
1709206131.280,-45.410,-52.246,-35.156,-54.688,0.000
1709206131.284,-41.992,-46.875,-40.039,-53.223,0.000
1709206131.288,-43.945,-54.688,-40.039,-30.273,0.000
1709206131.292,-47.363,-49.805,-38.574,-29.297,0.000
1709206131.296,-39.551,-41.016,-39.551,-51.758,0.000
1709206131.300,-35.645,-51.758,-41.992,-52.246,0.000
1709206131.304,-26.855,-51.758,-38.086,-38.574,0.000
1709206131.308,-30.762,-43.945,-42.480,-28.809,0.000
1709206131.311,-42.480,-47.852,-49.805,-27.344,0.000
1709206131.315,-38.086,-53.223,-41.504,-26.367,0.000
1709206131.319,-28.320,-42.480,-37.109,-27.832,0.000
1709206131.323,-28.320,-42.969,-38.086,-36.621,0.000
1709206131.327,-40.039,-43.945,-39.062,-49.316,0.000
1709206131.331,-38.574,-43.457,-40.039,-47.363,0.000
1709206131.335,-35.156,-44.434,-37.598,-35.645,0.000
1709206131.339,-33.203,-30.273,-38.574,-41.504,0.000
1709206131.343,-35.156,-31.250,-41.016,-51.270,0.000
1709206131.347,-37.598,-41.016,-38.086,-49.316,0.000
1709206131.351,-37.109,-41.016,-34.180,-40.039,0.000
1709206131.354,-26.855,-36.621,-32.715,-35.645,0.000
1709206131.358,-25.879,-36.133,-30.762,-37.598,0.000
1709206131.362,-49.805,-42.969,-30.273,-44.922,0.000
1709206131.366,-58.594,-49.805,-32.227,-51.270,0.000
1709206131.370,-63.965,-51.270,-33.691,-45.898,0.000
1709206131.374,-59.082,-49.316,-37.598,-49.805,0.000
1709206131.378,-52.734,-60.547,-40.039,-47.363,0.000
1709206131.382,-55.176,-57.129,-40.039,-48.340,0.000
1709206131.386,-62.988,-41.504,-38.086,-55.176,0.000
1709206131.390,-55.176,-42.480,-33.691,-51.758,0.000
1709206131.394,-45.898,-46.875,-33.203,-49.805,0.000
1709206131.397,-38.574,-41.016,-37.598,-43.945,0.000
1709206131.401,-31.738,-34.180,-37.598,-45.898,0.000
1709206131.405,-53.223,-41.992,-34.668,-43.457,0.000
1709206131.409,-57.129,-46.875,-33.203,-38.086,0.000
1709206131.413,-48.340,-47.852,-39.551,-39.062,0.000
1709206131.417,-36.133,-51.758,-40.527,-34.180,0.000
1709206131.421,-28.809,-54.199,-38.574,-33.203,0.000
1709206131.425,-39.062,-52.734,-44.434,-27.344,0.000
1709206131.429,-52.734,-35.156,-40.527,-30.762,0.000
1709206131.433,-51.758,-29.297,-35.156,-35.156,0.000
1709206131.436,-34.668,-34.180,-36.621,-36.621,0.000
1709206131.440,-34.668,-39.551,-42.480,-46.387,0.000
1709206131.444,-36.133,-41.504,-46.387,-46.875,0.000
1709206131.448,-34.668,-43.457,-39.551,-37.598,0.000
1709206131.452,-47.852,-47.852,-38.086,-34.180,0.000
1709206131.456,-50.293,-45.898,-38.574,-48.828,0.000
1709206131.460,-41.016,-48.828,-37.109,-50.293,0.000
1709206131.464,-43.457,-48.828,-34.180,-42.969,0.000
1709206131.468,-53.711,-56.641,-35.156,-46.875,0.000
1709206131.472,-58.594,-51.758,-43.945,-60.547,0.000
1709206131.476,-55.664,-35.156,-39.551,-65.918,0.000
1709206131.479,-44.922,-41.504,-32.715,-54.199,0.000
1709206131.483,-45.898,-52.734,-39.062,-55.176,0.000
1709206131.487,-51.758,-54.688,-44.922,-52.734,0.000
1709206131.491,-47.363,-47.363,-46.875,-47.852,0.000
1709206131.495,-48.340,-48.340,-51.758,-47.363,0.000
1709206131.499,-55.664,-52.246,-51.758,-49.805,0.000
1709206131.503,-48.340,-44.922,-36.621,-59.570,0.000
1709206131.507,-50.781,-43.945,-32.715,-61.035,0.000
1709206131.511,-55.176,-54.688,-38.574,-45.410,0.000
1709206131.515,-51.270,-57.129,-41.992,-35.645,0.000
1709206131.519,-41.992,-44.922,-42.969,-43.945,0.000
1709206131.522,-39.062,-44.922,-44.434,-63.965,0.000
1709206131.526,-45.410,-47.852,-49.316,-66.895,0.000
1709206131.530,-43.457,-49.805,-49.316,-49.805,0.000
1709206131.534,-37.598,-47.363,-55.176,-46.387,0.000
1709206131.538,-36.621,-43.945,-54.199,-45.410,0.000
1709206131.542,-39.062,-42.480,-50.781,-52.246,0.000
1709206131.546,-42.480,-45.898,-47.852,-60.547,0.000
1709206131.550,-38.574,-47.852,-41.992,-55.664,0.000
1709206131.554,-37.598,-45.898,-46.387,-50.293,0.000
1709206131.558,-41.016,-47.363,-44.922,-44.922,0.000
1709206131.561,-40.039,-41.016,-36.133,-39.551,0.000
1709206131.565,-44.922,-39.551,-40.527,-41.016,0.000
1709206131.569,-37.109,-46.387,-42.969,-43.945,0.000
1709206131.573,-37.109,-57.129,-42.969,-46.875,0.000
1709206131.577,-48.828,-54.199,-43.945,-54.688,0.000
1709206131.581,-50.293,-50.781,-37.109,-56.641,0.000
1709206131.585,-48.340,-52.246,-35.645,-51.758,0.000
1709206131.589,-48.340,-48.828,-36.133,-41.992,0.000
1709206131.593,-48.340,-48.828,-33.691,-39.062,0.000
1709206131.597,-36.621,-55.664,-26.855,-35.156,0.000
1709206131.601,-36.133,-60.059,-25.879,-27.832,0.000
1709206131.604,-23.438,-55.664,-37.598,-27.832,0.000
1709206131.608,-26.855,-46.875,-34.668,-16.113,0.000
1709206131.612,-49.805,-44.434,-27.344,-9.277,0.000
1709206131.616,-41.016,-56.152,-31.250,-26.855,0.000
1709206131.620,-34.180,-54.199,-26.855,-22.949,0.000
1709206131.624,-40.039,-38.574,-24.414,-27.832,0.000
1709206131.628,-45.410,-44.922,-23.438,-33.691,0.000
1709206131.632,-43.457,-53.711,-21.973,-24.414,0.000
1709206131.636,-36.621,-48.828,-24.902,-22.461,0.000
1709206131.640,-41.016,-45.898,-25.879,-27.344,0.000
1709206131.644,-49.805,-46.875,-29.297,-40.039,0.000
1709206131.647,-51.758,-47.363,-27.344,-42.480,0.000
1709206131.651,-53.711,-46.875,-25.391,-43.457,0.000
1709206131.655,-44.434,-41.016,-33.203,-42.969,0.000
1709206131.659,-37.598,-36.133,-34.668,-41.016,0.000
1709206131.663,-32.227,-36.133,-37.598,-37.109,0.000
1709206131.667,-43.457,-35.156,-41.016,-40.527,0.000
1709206131.671,-49.316,-34.180,-35.645,-58.594,0.000
1709206131.675,-32.715,-35.645,-33.691,-55.176,0.000
1709206131.679,0.000,-29.785,-36.133,-48.828,0.000
1709206131.683,0.000,-29.297,-40.527,-48.340,0.000
1709206131.687,0.000,-31.250,-45.410,-51.270,0.000
1709206131.690,0.000,-38.574,-43.457,-52.246,0.000
1709206131.694,0.000,-49.316,-44.922,-49.805,0.000
1709206131.698,0.000,-49.316,-47.852,-47.363,0.000
1709206131.702,0.000,-39.551,-42.480,-42.969,0.000
1709206131.706,0.000,-40.039,-34.668,-33.203,0.000
1709206131.710,0.000,-42.969,-39.551,-27.832,0.000
1709206131.714,0.000,-33.203,-44.922,-41.016,0.000
1709206131.718,0.000,-32.227,-39.062,-41.992,0.000
1709206131.722,0.000,-43.457,-33.691,-36.621,0.000
1709206131.726,-41.992,-43.457,-36.621,-40.527,0.000
1709206131.729,-45.410,-39.062,-40.039,-50.781,0.000
1709206131.733,-50.293,-50.781,-41.504,-49.805,0.000
1709206131.737,-47.363,-53.711,-40.039,-45.898,0.000
1709206131.741,-42.480,-49.805,-37.598,-46.387,0.000
1709206131.745,-43.457,-50.781,-38.086,-37.109,0.000
1709206131.749,-46.387,-48.340,-38.086,-31.250,0.000
1709206131.753,-41.504,-54.199,-35.156,-24.902,0.000
1709206131.757,-39.062,-42.969,-31.250,-21.484,0.000
1709206131.761,-32.227,-32.715,-33.203,-35.645,0.000
1709206131.765,-41.504,-51.270,-37.598,-43.945,0.000
1709206131.769,-56.152,-56.641,-35.156,-48.828,0.000
1709206131.772,-45.898,-49.316,-33.203,-52.246,0.000
1709206131.776,-42.969,-41.504,-39.551,-45.410,0.000
1709206131.780,-39.062,-49.316,-43.945,-44.922,0.000
1709206131.784,-42.969,-53.711,-44.434,-49.316,0.000
1709206131.788,-42.969,-41.992,-42.480,-44.434,0.000
1709206131.792,-33.203,-45.410,-35.645,-36.133,0.000
1709206131.796,-26.367,-52.246,-33.691,-30.273,0.000
1709206131.800,-35.645,-51.758,-35.156,-30.273,0.000
1709206131.804,-49.316,-38.574,-32.227,-36.621,0.000
1709206131.808,-52.246,-38.086,-33.203,-40.039,0.000
1709206131.811,-56.152,-48.828,-38.574,-37.598,0.000
1709206131.815,-36.621,-45.410,-36.621,-30.273,0.000
1709206131.819,-26.367,-39.062,-31.250,-29.297,0.000
1709206131.823,-37.109,-41.992,-32.715,-36.133,0.000
1709206131.827,-34.668,-44.922,-34.180,-41.992,0.000
1709206131.831,-31.250,-44.434,-35.156,-36.133,0.000
1709206131.835,-27.344,-41.016,-25.391,-30.762,0.000
1709206131.839,-23.438,-41.992,-25.391,-37.598,0.000
1709206131.843,-14.648,-50.781,-31.250,-35.645,0.000
1709206131.847,-20.996,-46.387,-29.297,-32.715,0.000
1709206131.851,-35.645,-28.809,-30.273,-40.039,0.000
1709206131.854,-40.039,-37.598,-34.668,-31.738,0.000
1709206131.858,-40.527,-46.875,-38.086,-36.621,0.000
1709206131.862,-43.457,-46.875,-38.574,-51.270,0.000
1709206131.866,-37.598,-43.457,-34.668,-54.199,0.000
1709206131.870,-41.992,-45.898,-31.738,-50.781,0.000
1709206131.874,-61.035,-47.852,-36.133,-42.969,0.000
1709206131.878,-44.434,-35.156,-37.109,-40.039,0.000
1709206131.882,-25.391,-36.621,-38.086,-34.668,0.000
1709206131.886,-26.855,-51.270,-38.086,-33.203,0.000
1709206131.890,-31.738,-54.688,-39.062,-35.156,0.000
1709206131.894,-36.133,-36.621,-41.992,-38.086,0.000
1709206131.897,-31.250,-22.949,-37.109,-39.551,0.000
1709206131.901,-36.621,-41.504,-37.109,-29.297,0.000
1709206131.905,-49.316,-48.340,-40.527,-30.273,0.000
1709206131.909,-51.758,-30.273,-46.387,-51.758,0.000
1709206131.913,-36.621,-32.715,-49.316,-48.828,0.000
1709206131.917,-26.367,-40.039,-41.504,-44.434,0.000
1709206131.921,-37.109,-41.504,-43.457,-47.852,0.000
1709206131.925,-33.203,-37.598,-42.969,-50.781,0.000
1709206131.929,-36.621,-35.156,-40.039,-53.223,0.000
1709206131.933,-38.086,-39.551,-42.969,-37.598,0.000
1709206131.937,-37.109,-42.969,-45.898,-39.551,0.000
1709206131.940,-34.668,-38.086,-41.016,-58.105,0.000
1709206131.944,-38.086,-44.434,-39.551,-64.453,0.000
1709206131.948,-49.316,-51.758,-41.992,-53.223,0.000
1709206131.952,-50.781,-43.457,-38.574,-45.898,0.000
1709206131.956,-50.781,-44.922,-37.109,-48.828,0.000
1709206131.960,-54.199,-51.270,-34.668,-49.805,0.000
1709206131.964,-41.504,-43.945,-37.598,-53.223,0.000
1709206131.968,-43.457,-40.527,-39.062,-47.363,0.000
1709206131.972,-57.129,-41.504,-42.480,-44.434,0.000
1709206131.976,-51.270,-45.898,-43.457,-37.109,0.000
1709206131.979,-42.480,-55.664,-31.738,-27.344,0.000
1709206131.983,-41.504,-46.875,-31.738,-40.527,0.000
1709206131.987,-47.852,-44.922,-37.598,-48.828,0.000
1709206131.991,-53.711,-61.523,-34.668,-31.738,0.000
1709206131.995,-47.363,-60.059,-31.250,-8.789,0.000
1709206131.999,-44.922,-51.758,-34.180,-14.160,0.000
1709206132.003,-39.551,-48.340,-32.227,-19.043,0.000
1709206132.007,-26.367,-42.969,-34.180,-8.789,0.000
1709206132.011,-30.273,-42.480,-35.156,-9.277,0.000
1709206132.015,-47.852,-45.410,-29.297,-8.789,0.000
1709206132.019,-46.387,-45.898,-30.273,-7.324,0.000
1709206132.022,-44.922,-49.316,-39.551,-17.578,0.000
1709206132.026,-45.410,-47.852,-46.387,-20.996,0.000
1709206132.030,-41.504,-41.016,-42.969,-14.160,0.000
1709206132.034,-38.574,-42.480,-40.039,-23.926,0.000
1709206132.038,-35.156,-55.664,-45.410,-36.621,0.000
1709206132.042,-40.527,-49.805,-42.480,-38.086,0.000
1709206132.046,-48.340,-36.133,-37.109,-53.711,0.000
1709206132.050,-55.176,-47.363,-42.480,-63.965,0.000
1709206132.054,-49.805,-56.152,-43.945,-60.059,0.000
1709206132.058,-46.875,-52.734,-41.504,-62.988,0.000
1709206132.062,-56.152,-45.898,-41.992,-61.035,0.000
1709206132.065,-46.875,-43.945,-40.039,-56.152,0.000
1709206132.069,-49.805,-45.410,-34.668,-50.781,0.000
1709206132.073,-69.336,-54.688,-37.598,-49.316,0.000
1709206132.077,-60.059,-53.711,-38.086,-58.594,0.000
1709206132.081,-55.664,-50.781,-36.133,-59.570,0.000
1709206132.085,-67.871,-58.105,-44.922,-63.965,0.000
1709206132.089,-72.754,-41.016,-43.457,-66.406,0.000
1709206132.093,-66.406,-39.551,-37.109,-51.758,0.000
1709206132.097,-58.105,-50.293,-38.574,-48.340,0.000
1709206132.101,-54.199,-42.969,-33.691,-51.758,0.000
1709206132.104,-51.270,-42.480,-31.250,-52.246,0.000
1709206132.108,-49.316,-50.781,-35.156,-44.922,0.000
1709206132.112,-49.805,-53.223,-34.180,-33.203,0.000
1709206132.116,-51.270,-50.293,-35.156,-28.320,0.000
1709206132.120,-45.410,-51.758,-41.016,-39.062,0.000
1709206132.124,-51.758,-50.293,-38.086,-53.711,0.000
1709206132.128,-55.176,-60.059,-37.109,-50.293,0.000
1709206132.132,-41.016,-56.641,-43.945,-40.039,0.000
1709206132.136,-41.992,-43.457,-40.039,-42.969,0.000
1709206132.140,-39.062,-49.316,-36.621,-33.691,0.000
1709206132.144,-37.598,-48.828,-38.086,-27.832,0.000
1709206132.147,-43.945,-42.969,-42.969,-36.133,0.000
1709206132.151,-36.133,-39.551,-41.992,-33.203,0.000
1709206132.155,-26.855,-43.945,-37.598,-33.203,0.000
1709206132.159,-22.461,-40.039,-38.574,-32.715,0.000
1709206132.163,-22.949,-38.574,-38.574,-30.762,0.000
1709206132.167,-32.227,-51.270,-44.434,-32.715,0.000
1709206132.171,-32.715,-60.547,-43.457,-25.391,0.000
1709206132.175,-31.250,-56.152,-38.086,-17.090,0.000
1709206132.179,-41.016,-30.762,-46.387,-25.391,0.000
1709206132.183,-27.344,-25.879,-40.039,-34.668,0.000
1709206132.187,-30.273,-41.504,-33.691,-39.062,0.000
1709206132.190,-55.664,-41.992,-38.086,-49.805,0.000
1709206132.194,-45.410,-36.621,-41.504,-52.734,0.000
1709206132.198,-27.832,-42.969,-38.574,-48.340,0.000
1709206132.202,-31.250,-49.805,-34.180,-44.434,0.000
1709206132.206,-48.340,-53.223,-34.180,-45.410,0.000
1709206132.210,-58.594,-54.688,-36.621,-50.781,0.000
1709206132.214,-49.316,-53.711,-33.203,-51.270,0.000
1709206132.218,-36.621,-54.688,-33.203,-34.180,0.000
1709206132.222,-43.457,-44.434,-39.062,-24.414,0.000
1709206132.226,-48.340,-40.039,-40.039,-41.992,0.000
1709206132.229,-43.945,-48.828,-38.086,-44.922,0.000
1709206132.233,-45.410,-44.434,-38.086,-34.668,0.000
1709206132.237,-33.203,-40.527,-39.062,-42.969,0.000
1709206132.241,-21.484,-41.504,-41.016,-42.969,0.000
1709206132.245,-33.691,-47.852,-35.645,-27.344,0.000
1709206132.249,-38.086,-47.852,-32.715,-26.367,0.000
1709206132.253,-35.156,-38.574,-34.668,-25.879,0.000
1709206132.257,-28.809,-34.180,-29.297,-22.461,0.000
1709206132.261,-27.832,-46.387,-28.809,-21.973,0.000
1709206132.265,-34.668,-50.293,-33.691,-20.020,0.000
1709206132.269,-43.945,-37.109,-40.527,-27.832,0.000
1709206132.272,-45.898,-31.250,-45.898,-27.344,0.000
1709206132.276,-40.039,-28.809,-39.551,-36.621,0.000
1709206132.280,-32.227,-31.738,-36.621,-55.664,0.000
1709206132.284,-29.297,-39.062,-33.691,-56.152,0.000
1709206132.288,-40.039,-39.062,-28.809,-48.828,0.000
1709206132.292,-36.133,-42.480,-34.668,-45.898,0.000
1709206132.296,-35.156,-45.898,-38.574,-45.410,0.000
1709206132.300,-51.270,-40.039,-37.598,-41.504,0.000
1709206132.304,-47.852,-41.016,-36.621,-41.016,0.000
1709206132.308,-47.852,-47.363,-38.574,-45.410,0.000
1709206132.312,-45.898,-43.457,-41.992,-41.992,0.000
1709206132.315,-45.898,-35.156,-39.062,-37.109,0.000
1709206132.319,-46.875,-41.992,-33.691,-38.086,0.000
1709206132.323,-45.898,-51.270,-34.668,-42.480,0.000
1709206132.327,-52.246,-41.504,-40.039,-52.246,0.000
1709206132.331,-51.270,-38.086,-35.645,-50.293,0.000
1709206132.335,-26.855,-40.527,-38.086,-41.016,0.000
1709206132.339,-29.785,-41.016,-42.969,-46.387,0.000
1709206132.343,-48.340,-44.434,-38.086,-49.316,0.000
1709206132.347,-47.363,-36.621,-40.527,-45.410,0.000
1709206132.351,-41.016,-41.016,-43.945,-34.180,0.000
1709206132.354,-38.086,-52.734,-46.387,-27.832,0.000
1709206132.358,-46.387,-46.387,-49.805,-30.762,0.000
1709206132.362,-47.363,-44.922,-47.363,-32.715,0.000
1709206132.366,-47.852,-59.082,-45.410,-36.133,0.000
1709206132.370,-47.363,-57.617,-39.062,-25.879,0.000
1709206132.374,-37.598,-37.598,-32.227,-22.949,0.000
1709206132.378,-26.367,-39.551,-36.133,-25.879,0.000
1709206132.382,-25.391,-42.969,-39.551,-21.484,0.000
1709206132.386,-25.391,-39.062,-40.527,-30.762,0.000
1709206132.390,-11.230,-44.922,-40.039,-40.039,0.000
1709206132.394,-22.461,-47.852,-45.410,-31.250,0.000
1709206132.397,-36.621,-49.805,-47.363,-30.273,0.000
1709206132.401,-27.344,-55.664,-42.969,-34.180,0.000
1709206132.405,-27.832,-50.293,-42.480,-32.227,0.000
1709206132.409,-35.156,-44.922,-38.086,-29.785,0.000
1709206132.413,-33.203,-59.570,-36.133,-24.902,0.000
1709206132.417,-31.738,-58.594,-39.062,-28.809,0.000
1709206132.421,-30.762,-45.410,-40.527,-38.086,0.000
1709206132.425,-31.250,-52.734,-35.156,-34.668,0.000
1709206132.429,-43.457,-52.246,-36.621,-36.133,0.000
1709206132.433,-38.086,-46.387,-42.480,-41.016,0.000
1709206132.437,-19.043,-42.480,-38.086,-38.086,0.000
1709206132.440,-34.180,-47.363,-35.645,-41.504,0.000
1709206132.444,-52.734,-55.664,-42.480,-42.480,0.000
1709206132.448,-51.758,-57.617,-40.527,-32.227,0.000
1709206132.452,-49.805,-49.316,-36.133,-28.809,0.000
1709206132.456,-38.086,-52.734,-37.109,-29.785,0.000
1709206132.460,-36.133,-58.594,-35.645,-32.227,0.000
1709206132.464,-46.387,-39.062,-37.598,-42.480,0.000
1709206132.468,-52.734,-40.527,-40.039,-49.805,0.000
1709206132.472,-53.223,-49.805,-41.016,-47.852,0.000
1709206132.476,-44.922,-45.410,-47.852,-43.457,0.000
1709206132.479,-50.293,-40.039,-49.316,-47.363,0.000
1709206132.483,-55.664,-44.922,-40.527,-45.898,0.000
1709206132.487,-49.805,-44.922,-38.574,-42.969,0.000
1709206132.491,-34.180,-36.133,-42.480,-42.480,0.000
1709206132.495,-39.551,-39.551,-40.527,-36.133,0.000
1709206132.499,-46.875,-45.898,-42.480,-38.086,0.000
1709206132.503,-36.621,-53.711,-45.898,-38.574,0.000
1709206132.507,-41.992,-49.805,-41.992,-34.180,0.000
1709206132.511,-45.898,-34.668,-36.621,-41.016,0.000
1709206132.515,-36.621,-37.109,-39.062,-43.945,0.000
1709206132.519,-35.156,-45.898,-39.551,-50.293,0.000
1709206132.522,-39.062,-44.922,-40.039,-59.082,0.000
1709206132.526,-43.945,-39.062,-36.621,-57.617,0.000
1709206132.530,-54.199,-42.969,-33.203,-52.734,0.000
1709206132.534,-44.922,-42.480,-37.598,-44.434,0.000
1709206132.538,-39.062,-44.922,-41.992,-39.062,0.000
1709206132.542,-46.387,-48.828,-41.992,-52.246,0.000
1709206132.546,-51.758,-49.316,-32.715,-56.641,0.000
1709206132.550,-59.082,-49.805,-40.527,-41.992,0.000
1709206132.554,-50.293,-41.504,-46.875,-51.270,0.000
1709206132.558,-33.691,-43.457,-41.504,-60.059,0.000
1709206132.562,-45.898,-50.293,-41.504,-52.734,0.000
1709206132.565,-45.898,-45.898,-40.039,-45.898,0.000
1709206132.569,-46.875,-45.410,-40.527,-42.969,0.000
1709206132.573,-55.176,-47.852,-40.527,-41.504,0.000
1709206132.577,-41.504,-40.039,-33.691,-35.156,0.000
1709206132.581,-39.062,-39.551,-36.133,-40.039,0.000
1709206132.585,-49.316,-44.922,-40.039,-43.945,0.000
1709206132.589,-54.199,-47.852,-33.203,-39.062,0.000
1709206132.593,-48.340,-55.176,-34.668,-35.156,0.000
1709206132.597,-35.156,-47.852,-41.504,-29.785,0.000
1709206132.601,-50.293,-40.039,-47.363,-45.410,0.000
1709206132.605,-58.594,-51.758,-44.922,-59.570,0.000
1709206132.608,-41.016,-55.664,-43.457,-55.664,0.000
1709206132.612,-48.828,-55.176,-45.898,-44.434,0.000
1709206132.616,-50.781,-50.293,-42.969,-39.551,0.000
1709206132.620,-38.086,-47.852,-42.969,-47.363,0.000
1709206132.624,-40.039,-46.387,-38.574,-47.852,0.000
1709206132.628,-42.969,-43.945,-31.250,-38.574,0.000
1709206132.632,-49.316,-49.805,-41.504,-39.551,0.000
1709206132.636,-40.039,-53.223,-42.480,-35.645,0.000
1709206132.640,-25.879,-49.316,-37.109,-33.203,0.000
1709206132.644,-30.762,-42.480,-44.922,-46.875,0.000
1709206132.647,-40.527,-48.828,-46.387,-49.316,0.000
1709206132.651,-44.922,-56.152,-41.992,-40.039,0.000
1709206132.655,-43.457,-53.223,-39.551,-33.203,0.000
1709206132.659,-23.926,-44.922,-35.156,-34.180,0.000
1709206132.663,-29.785,-47.852,-33.691,-41.016,0.000
1709206132.667,-55.664,-54.688,-31.738,-43.945,0.000
1709206132.671,-54.688,-54.688,-37.598,-40.039,0.000
1709206132.675,-56.152,-56.152,-42.969,-47.363,0.000
1709206132.679,-47.852,-53.223,-37.598,-47.363,0.000
1709206132.683,-38.574,-55.664,-36.621,-40.527,0.000
1709206132.687,-51.270,-62.500,-38.574,-51.270,0.000
1709206132.690,-52.246,-53.711,-38.086,-53.223,0.000
1709206132.694,-33.691,-50.293,-37.109,-49.805,0.000
1709206132.698,-42.480,-58.105,-38.574,-41.992,0.000
1709206132.702,-40.039,-46.875,-38.086,-39.551,0.000
1709206132.706,-30.273,-41.992,-41.016,-46.875,0.000
1709206132.710,-47.363,-46.875,-38.574,-45.898,0.000
1709206132.714,-48.828,-44.434,-32.227,-41.016,0.000
1709206132.718,-41.016,-38.086,-34.668,-36.133,0.000
1709206132.722,-37.109,-39.551,-37.598,-42.969,0.000
1709206132.726,-39.062,-48.828,-38.086,-39.062,0.000
1709206132.730,-43.945,-45.898,-33.691,-23.438,0.000
1709206132.733,-37.598,-44.434,-35.645,-18.555,0.000
1709206132.737,-38.086,-43.945,-41.016,-22.461,0.000
1709206132.741,-39.062,-51.270,-33.691,-20.508,0.000
1709206132.745,-40.039,-56.641,-38.574,-25.391,0.000
1709206132.749,-44.922,-41.992,-40.039,-38.574,0.000
1709206132.753,-41.992,-43.945,-34.180,-40.527,0.000
