timestamps,TP9,AF7,AF8,TP10,Right AUX
1709299700.675,-30.273,-18.555,-35.156,-34.180,0.000
1709299700.679,-31.738,-38.086,-33.691,-34.668,0.000
1709299700.683,-28.809,-51.270,-32.715,-36.133,0.000
1709299700.687,-25.879,-42.969,-31.250,-36.133,0.000
1709299700.691,-23.926,-31.250,-31.250,-34.668,0.000
1709299700.695,-28.809,-42.969,-37.109,-35.645,0.000
1709299700.699,-30.273,-51.270,-39.062,-39.551,0.000
1709299700.703,-25.879,-38.574,-35.156,-40.527,0.000
1709299700.707,-32.715,-34.668,-32.227,-38.086,0.000
1709299700.711,-29.297,-33.203,-34.668,-28.809,0.000
1709299700.715,-25.879,-31.738,-40.039,-30.273,0.000
1709299700.718,-31.250,-36.621,-41.504,-40.527,0.000
1709299700.722,-26.367,-27.832,-30.273,-38.574,0.000
1709299700.726,-22.949,-39.551,-31.250,-34.668,0.000
1709299700.730,-20.508,-51.758,-39.551,-28.809,0.000
1709299700.734,-27.344,-35.156,-36.621,-22.949,0.000
1709299700.738,-37.598,-40.527,-35.645,-30.273,0.000
1709299700.742,-34.180,-34.668,-30.762,-26.367,0.000
1709299700.746,-32.227,-24.414,-35.645,-23.438,0.000
1709299700.750,-28.320,-37.109,-35.156,-21.973,0.000
1709299700.754,-28.320,-34.668,-25.391,-9.277,0.000
1709299700.758,-29.297,-25.391,-29.785,-13.184,0.000
1709299700.762,-32.227,-35.645,-30.273,-26.855,0.000
1709299700.765,-29.785,-37.109,-33.203,-29.297,0.000
1709299700.769,-28.809,-23.438,-32.227,-23.926,0.000
1709299700.773,-42.969,-31.250,-39.062,-24.902,0.000
1709299700.777,-41.504,-36.133,-50.293,-27.832,0.000
1709299700.781,-33.203,-30.762,-37.598,-33.691,0.000
1709299700.785,-40.039,-39.551,-34.180,-43.945,0.000
1709299700.789,-38.086,-33.203,-42.480,-41.504,0.000
1709299700.793,-33.203,-24.414,-41.016,-31.250,0.000
1709299700.797,-35.645,-34.668,-38.086,-29.785,0.000
1709299700.801,-31.738,-40.039,-42.969,-31.738,0.000
1709299700.804,-28.809,-35.645,-39.551,-39.551,0.000
1709299700.808,-29.297,-29.297,-38.086,-40.527,0.000
1709299700.812,-35.645,-27.832,-42.480,-39.551,0.000
1709299700.816,-39.062,-21.973,-39.062,-47.363,0.000
1709299700.820,-41.016,-18.555,-35.645,-50.293,0.000
1709299700.824,-41.992,-24.902,-33.203,-51.270,0.000
1709299700.828,-39.551,-34.180,-37.109,-45.898,0.000
1709299700.832,-38.574,-38.574,-39.062,-36.621,0.000
1709299700.836,-43.945,-31.250,-44.922,-41.992,0.000
1709299700.839,-39.551,-39.551,-39.551,-46.387,0.000
1709299700.843,-37.598,-55.176,-26.855,-40.039,0.000
1709299700.847,-45.898,-42.969,-31.738,-49.316,0.000
1709299700.851,-48.828,-27.832,-37.598,-46.875,0.000
1709299700.855,-49.805,-31.738,-36.133,-33.203,0.000
1709299700.859,-52.734,-34.180,-33.203,-42.480,0.000
1709299700.864,-55.176,-36.133,-30.273,-49.316,0.000
1709299700.867,-56.152,-40.039,-27.832,-44.434,0.000
1709299700.871,-59.082,-42.969,-28.320,-35.645,0.000
1709299700.875,-53.223,-39.551,-27.832,-21.973,0.000
1709299700.879,-45.898,-46.387,-26.855,-17.090,0.000
1709299700.883,-43.945,-49.805,-24.902,-27.832,0.000
1709299700.887,-47.363,-41.504,-24.902,-24.902,0.000
1709299700.891,-48.340,-39.062,-22.461,-16.602,0.000
1709299700.895,-42.480,-30.762,-25.391,-22.461,0.000
1709299700.899,-39.551,-36.133,-35.645,-22.949,0.000
1709299700.903,-34.180,-34.668,-28.809,-28.320,0.000
1709299700.906,-37.598,-34.180,-26.855,-39.062,0.000
1709299700.910,-41.016,-46.387,-29.785,-35.156,0.000
1709299700.914,-34.668,-43.945,-28.809,-25.391,0.000
1709299700.918,-30.762,-39.551,-34.180,-31.738,0.000
1709299700.922,-23.438,-38.086,-28.809,-35.645,0.000
1709299700.926,-27.832,-33.203,-24.414,-33.203,0.000
1709299700.930,-31.250,-34.180,-35.645,-34.668,0.000
1709299700.933,-28.320,-36.621,-38.574,-36.621,0.000
1709299700.937,-29.785,-34.180,-41.016,-42.480,0.000
1709299700.941,-27.344,-24.414,-44.434,-47.363,0.000
1709299700.945,-30.273,-20.996,-34.668,-50.781,0.000
1709299700.949,-33.203,-39.062,-29.297,-43.457,0.000
1709299700.953,-32.227,-50.293,-32.227,-42.480,0.000
1709299700.956,-37.598,-46.875,-41.016,-53.223,0.000
1709299700.960,-41.016,-49.316,-41.504,-53.711,0.000
1709299700.964,-39.551,-41.992,-34.668,-60.547,0.000
1709299700.968,-38.086,-37.598,-38.574,-55.176,0.000
1709299700.972,-41.992,-43.457,-43.457,-45.410,0.000
1709299700.976,-42.480,-43.457,-43.457,-37.109,0.000
1709299700.980,-37.598,-39.551,-40.039,-33.203,0.000
1709299700.984,-47.363,-41.504,-34.668,-47.852,0.000
1709299700.988,-55.176,-55.176,-38.574,-47.852,0.000
1709299700.992,-47.363,-56.152,-42.480,-36.133,0.000
1709299700.996,-43.457,-42.969,-34.668,-27.832,0.000
1709299700.999,-40.039,-33.203,-34.668,-32.715,0.000
1709299701.004,-40.039,-33.691,-33.203,-37.109,0.000
1709299701.008,-34.668,-41.016,-30.273,-30.273,0.000
1709299701.011,-37.109,-39.551,-38.086,-33.691,0.000
1709299701.015,-41.504,-32.227,-32.227,-32.715,0.000
1709299701.019,-46.387,-38.574,-35.156,-40.527,0.000
1709299701.023,-52.734,-53.223,-44.922,-50.293,0.000
1709299701.027,-48.828,-51.758,-41.504,-49.805,0.000
1709299701.031,-44.922,-49.316,-43.457,-54.688,0.000
1709299701.035,-33.203,-48.340,-43.945,-42.480,0.000
1709299701.039,-29.785,-41.504,-46.875,-33.203,0.000
1709299701.043,-32.227,-31.250,-45.898,-33.203,0.000
1709299701.047,-26.855,-37.598,-39.551,-40.527,0.000
1709299701.051,-21.484,-41.504,-38.086,-36.133,0.000
1709299701.055,-20.020,-27.344,-40.527,-24.414,0.000
1709299701.059,-22.461,-29.785,-38.574,-32.715,0.000
1709299701.062,-31.250,-42.480,-42.969,-48.340,0.000
1709299701.066,-31.250,-39.551,-39.551,-47.363,0.000
1709299701.070,-29.785,-43.945,-34.180,-42.480,0.000
1709299701.074,-37.109,-44.434,-39.551,-45.898,0.000
1709299701.078,-35.156,-36.621,-34.180,-47.363,0.000
1709299701.082,-32.227,-36.621,-23.438,-41.504,0.000
1709299701.086,-38.086,-34.668,-33.203,-34.668,0.000
1709299701.090,-37.109,-31.738,-33.691,-30.273,0.000
1709299701.094,-36.621,-31.250,-29.297,-31.250,0.000
1709299701.098,-44.434,-37.598,-31.738,-41.504,0.000
1709299701.102,-44.922,-39.062,-31.250,-39.551,0.000
1709299701.106,-39.551,-34.668,-33.203,-36.621,0.000
1709299701.109,-41.992,-33.203,-34.180,-38.574,0.000
1709299701.113,-40.039,-38.086,-31.250,-29.297,0.000
1709299701.117,-37.109,-32.227,-35.156,-29.297,0.000
1709299701.121,-31.250,-31.738,-34.180,-36.621,0.000
1709299701.125,-32.715,-44.434,-31.738,-40.039,0.000
1709299701.129,-40.527,-55.664,-39.551,-35.645,0.000
1709299701.133,-33.691,-44.922,-41.992,-35.156,0.000
1709299701.137,-30.273,-28.809,-40.039,-41.504,0.000
1709299701.141,-39.551,-26.855,-41.992,-44.922,0.000
1709299701.145,-35.156,-32.715,-41.016,-47.363,0.000
1709299701.148,-39.551,-41.016,-34.180,-45.410,0.000
1709299701.152,-45.410,-35.156,-30.273,-43.945,0.000
1709299701.156,-30.273,-28.320,-36.133,-40.527,0.000
1709299701.160,-28.809,-41.016,-41.504,-49.805,0.000
1709299701.164,-32.715,-53.711,-41.504,-60.059,0.000
1709299701.168,-31.738,-48.340,-36.133,-61.035,0.000
1709299701.172,-23.926,-51.270,-29.785,-41.504,0.000
1709299701.176,-19.531,-42.480,-38.086,-27.832,0.000
1709299701.180,-19.531,-25.879,-38.086,-34.180,0.000
1709299701.184,-14.160,-32.227,-29.785,-41.504,0.000
1709299701.188,-15.137,-42.969,-27.832,-38.574,0.000
1709299701.191,-21.484,-44.434,-32.227,-22.461,0.000
1709299701.195,-27.344,-29.297,-42.969,-17.578,0.000
1709299701.199,-23.926,-24.902,-40.527,-10.742,0.000
1709299701.203,-20.996,-25.879,-32.715,-9.277,0.000
1709299701.207,-24.414,-30.762,-26.367,-15.137,0.000
1709299701.211,-22.461,-39.551,-19.531,-14.648,0.000
1709299701.215,-22.949,-31.250,-26.367,-14.648,0.000
1709299701.219,-30.273,-30.762,-36.133,-13.672,0.000
1709299701.223,-37.109,-43.457,-27.832,-27.832,0.000
1709299701.226,-41.016,-45.410,-22.949,-39.062,0.000
1709299701.230,-42.969,-44.922,-27.832,-37.598,0.000
1709299701.234,-42.969,-55.664,-30.762,-34.180,0.000
1709299701.238,-43.457,-45.410,-31.738,-33.203,0.000
1709299701.242,-45.898,-30.273,-32.227,-38.086,0.000
1709299701.246,-45.410,-38.086,-34.668,-35.156,0.000
1709299701.250,-44.434,-35.645,-34.180,-23.926,0.000
1709299701.254,-38.086,-36.621,-31.250,-18.555,0.000
1709299701.257,-23.926,-45.410,-30.762,-24.902,0.000
1709299701.261,-33.691,-40.039,-30.762,-31.250,0.000
1709299701.265,-40.039,-39.551,-35.645,-29.297,0.000
1709299701.269,-30.762,-47.363,-36.133,-30.273,0.000
1709299701.273,-26.367,-34.668,-26.855,-23.438,0.000
1709299701.277,-26.855,-17.090,-28.809,-20.508,0.000
1709299701.281,-28.320,-21.484,-33.203,-27.832,0.000
1709299701.284,-37.109,-27.832,-30.762,-44.434,0.000
1709299701.288,-44.922,-35.645,-40.527,-54.688,0.000
1709299701.292,-41.992,-27.832,-39.551,-44.434,0.000
1709299701.296,-48.340,-36.621,-31.738,-48.828,0.000
1709299701.300,-51.758,-43.457,-41.016,-69.824,0.000
1709299701.304,-50.781,-38.574,-42.480,-78.125,0.000
1709299701.308,-55.664,-36.621,-41.992,-67.383,0.000
1709299701.312,-60.059,-34.180,-42.969,-67.871,0.000
1709299701.316,-47.363,-32.227,-42.480,-65.918,0.000
1709299701.320,-40.039,-37.598,-47.852,-65.430,0.000
1709299701.323,-46.387,-45.410,-49.316,-75.684,0.000
1709299701.327,-49.805,-34.668,-46.875,-68.359,0.000
1709299701.331,-42.969,-23.926,-44.922,-53.223,0.000
1709299701.335,-39.062,-28.809,-43.457,-50.781,0.000
1709299701.339,-41.992,-21.973,-41.504,-53.711,0.000
1709299701.343,-42.480,-29.297,-44.922,-62.988,0.000
1709299701.346,-38.574,-38.086,-48.828,-60.547,0.000
1709299701.350,-28.809,-29.297,-39.062,-35.645,0.000
1709299701.354,-24.414,-29.297,-40.039,-30.273,0.000
1709299701.358,-33.203,-22.461,-47.852,-41.992,0.000
1709299701.362,-34.180,-29.785,-41.504,-47.852,0.000
1709299701.366,-40.527,-40.527,-35.645,-50.781,0.000
1709299701.370,-44.922,-26.855,-35.156,-43.457,0.000
1709299701.374,-39.551,-24.414,-35.156,-37.109,0.000
1709299701.378,-38.574,-26.367,-40.039,-38.574,0.000
1709299701.382,-37.598,-31.738,-44.922,-40.039,0.000
1709299701.386,-38.574,-50.293,-40.039,-40.527,0.000
1709299701.390,-45.410,-54.688,-29.297,-38.086,0.000
1709299701.394,-51.758,-37.109,-22.461,-33.691,0.000
1709299701.398,-47.363,-40.039,-22.949,-25.879,0.000
1709299701.402,-47.852,-48.828,-20.508,-24.414,0.000
1709299701.405,-54.688,-46.387,-16.602,-33.691,0.000
1709299701.409,-53.711,-50.781,-15.137,-22.949,0.000
1709299701.413,-48.340,-64.453,-13.184,-3.418,0.000
1709299701.417,-46.387,-69.336,-10.742,-7.324,0.000
1709299701.421,-50.781,-64.941,-8.789,-18.555,0.000
1709299701.425,-50.293,-67.871,-2.930,-13.672,0.000
1709299701.429,-50.781,-83.496,-1.465,-2.930,0.000
1709299701.433,-54.199,-92.773,0.488,6.836,0.000
1709299701.437,-58.594,-85.938,0.977,0.488,0.000
1709299701.441,-64.941,-79.590,-4.395,-8.789,0.000
1709299701.445,-67.383,-79.590,-14.160,-14.160,0.000
1709299701.449,-64.941,-90.820,-14.160,-4.395,0.000
1709299701.453,-54.199,-99.609,-1.953,7.812,0.000
1709299701.456,-49.316,-94.238,-6.836,6.836,0.000
1709299701.460,-48.340,-89.844,-11.719,6.836,0.000
1709299701.464,-44.922,-87.891,-7.324,-1.465,0.000
1709299701.468,-42.969,-89.844,-3.418,0.488,0.000
1709299701.472,-42.480,-92.285,-2.930,9.766,0.000
1709299701.476,-40.039,-104.004,-4.395,19.043,0.000
1709299701.480,-38.574,-108.398,-8.789,5.859,0.000
1709299701.484,-39.551,-102.051,-13.184,-15.137,0.000
1709299701.488,-40.039,-99.121,-5.859,-14.648,0.000
1709299701.492,-34.180,-94.238,-10.254,-3.418,0.000
1709299701.496,-28.320,-93.262,-12.695,2.930,0.000
1709299701.500,-24.902,-94.727,-6.348,-3.906,0.000
1709299701.503,-22.461,-94.238,-15.625,2.441,0.000
1709299701.507,-18.555,-88.379,-13.672,16.113,0.000
1709299701.511,-12.695,-88.379,1.465,23.926,0.000
1709299701.515,-8.301,-97.168,8.789,28.320,0.000
1709299701.519,-4.883,-99.121,6.836,24.902,0.000
1709299701.523,-8.789,-85.449,0.977,17.090,0.000
1709299701.527,-10.254,-82.520,0.977,17.090,0.000
1709299701.531,-11.230,-89.844,-3.418,27.344,0.000
1709299701.535,-8.301,-97.168,-7.324,31.738,0.000
1709299701.539,-8.301,-93.262,-0.977,25.391,0.000
1709299701.542,-16.113,-85.449,0.000,11.719,0.000
1709299701.546,-19.531,-94.238,-2.930,21.973,0.000
1709299701.550,-10.254,-97.168,0.977,41.016,0.000
1709299701.554,-11.719,-95.215,-9.766,21.484,0.000
1709299701.558,-16.602,-92.285,-15.137,3.418,0.000
1709299701.562,-16.113,-82.031,-6.836,2.441,0.000
1709299701.566,-21.484,-79.102,-4.883,1.465,0.000
1709299701.570,-16.602,-80.566,-11.719,3.906,0.000
1709299701.574,-8.301,-79.102,-14.160,14.160,0.000
1709299701.577,-4.883,-75.195,-13.184,19.043,0.000
1709299701.581,-4.883,-69.336,-12.695,3.418,0.000
1709299701.585,-13.184,-69.336,-17.578,-10.254,0.000
1709299701.589,-4.395,-63.477,-14.160,-5.371,0.000
1709299701.593,3.418,-60.547,-12.207,5.371,0.000
1709299701.597,-2.930,-54.199,-31.250,7.324,0.000
1709299701.601,-5.859,-52.246,-25.879,-4.395,0.000
1709299701.605,-5.859,-59.082,-13.184,-3.906,0.000
1709299701.609,-7.812,-56.641,-23.438,3.906,0.000
1709299701.612,-11.230,-56.152,0.000,-8.301,0.000
1709299701.616,-10.254,-61.523,0.000,-12.695,0.000
1709299701.620,-19.043,-63.965,0.000,-11.230,0.000
1709299701.624,-22.461,-61.035,0.000,-16.602,0.000
1709299701.628,-18.066,-57.129,0.000,-16.602,0.000
1709299701.632,-4.883,-51.758,0.000,-0.977,0.000
1709299701.636,-8.789,-56.152,0.000,7.324,0.000
1709299701.640,-21.484,-52.734,0.000,-2.930,0.000
1709299701.644,-21.973,-34.668,0.000,-16.602,0.000
1709299701.648,-21.484,-33.691,0.000,-14.160,0.000
1709299701.652,-14.160,-38.574,0.000,1.953,0.000
1709299701.655,-7.324,-38.574,0.000,2.930,0.000
1709299701.660,-6.836,-39.551,-23.926,-12.695,0.000
1709299701.664,-24.902,-29.297,-33.691,-26.855,0.000
1709299701.668,-30.273,-26.855,-31.738,-26.855,0.000
1709299701.672,-23.438,-31.250,-20.996,-14.160,0.000
1709299701.676,-18.066,-28.809,-20.996,-9.277,0.000
1709299701.679,-11.719,-28.809,-28.809,-27.344,0.000
1709299701.683,-16.113,-35.645,-30.273,-35.645,0.000
1709299701.687,-17.578,-39.551,-28.809,-37.109,0.000
1709299701.691,-15.625,-36.621,-29.785,-41.992,0.000
1709299701.695,-8.301,-38.086,-26.367,-31.738,0.000
1709299701.699,-6.348,-66.895,-25.391,-26.855,0.000
1709299701.703,-18.066,-58.594,-31.738,-31.738,0.000
1709299701.706,-24.902,-22.949,-36.621,-37.109,0.000
1709299701.710,-21.973,-22.949,-35.645,-24.902,0.000
1709299701.714,-23.438,-29.785,-32.715,-28.320,0.000
1709299701.718,-28.320,-28.320,-41.504,-41.992,0.000
1709299701.722,-26.367,-33.203,-39.062,-39.062,0.000
1709299701.726,-26.855,-45.898,-34.180,-38.574,0.000
1709299701.730,-37.109,-48.340,-43.945,-41.992,0.000
1709299701.734,-38.574,-41.504,-46.387,-35.645,0.000
1709299701.738,-41.504,-39.062,-41.504,-42.969,0.000
1709299701.741,-50.781,-42.969,-40.527,-49.316,0.000
1709299701.745,-47.852,-43.457,-34.180,-40.039,0.000
1709299701.749,-48.340,-51.270,-35.645,-42.480,0.000
1709299701.754,-52.734,-56.641,-42.969,-37.109,0.000
1709299701.757,-48.340,-71.289,-40.039,-28.809,0.000
1709299701.761,-50.293,-78.125,-36.621,-33.691,0.000
1709299701.765,-52.734,-51.758,-40.527,-33.203,0.000
1709299701.769,-47.852,-34.180,-47.363,-20.996,0.000
1709299701.773,-46.875,-40.039,-40.039,-19.043,0.000
1709299701.777,-46.875,-37.598,-25.879,-23.438,0.000
1709299701.781,-51.758,-37.598,-24.414,-37.109,0.000
1709299701.785,-57.617,-46.875,-28.809,-44.434,0.000
1709299701.789,-55.664,-42.480,-34.180,-34.180,0.000
1709299701.793,-50.781,-40.527,-36.621,-33.691,0.000
1709299701.796,-41.016,-41.504,-36.621,-40.527,0.000
1709299701.801,-38.574,-45.898,-32.227,-50.781,0.000
1709299701.805,-43.457,-49.805,-33.203,-58.594,0.000
1709299701.808,-37.598,-53.711,-35.156,-54.688,0.000
1709299701.812,-28.809,-57.617,-28.320,-42.480,0.000
1709299701.816,-28.809,-41.016,-23.926,-37.109,0.000
1709299701.820,-27.832,-43.457,-22.949,-37.598,0.000
1709299701.824,-33.203,-45.898,-28.809,-49.805,0.000
1709299701.828,-34.668,-22.949,-31.738,-51.270,0.000
1709299701.832,-22.949,-28.809,-29.297,-34.668,0.000
1709299701.836,-18.555,-42.480,-28.809,-27.344,0.000
1709299701.840,-24.902,-35.156,-28.809,-32.715,0.000
1709299701.844,-25.879,-40.527,-33.691,-44.434,0.000
1709299701.848,-20.020,-45.410,-35.645,-41.016,0.000
1709299701.852,-20.508,-39.062,-34.668,-25.391,0.000
1709299701.855,-17.090,-38.574,-26.367,-20.020,0.000
1709299701.859,-18.555,-44.434,-21.484,-16.602,0.000
1709299701.863,-19.531,-41.016,-26.855,-21.484,0.000
1709299701.867,-16.602,-27.344,-32.715,-39.551,0.000
1709299701.871,-16.602,-22.949,-32.715,-46.387,0.000
1709299701.875,-10.254,-23.926,-26.367,-23.926,0.000
1709299701.879,-17.578,-35.645,-20.508,-10.742,0.000
1709299701.883,-25.879,-36.621,-20.020,-31.738,0.000
1709299701.887,-28.320,-30.762,-28.809,-45.898,0.000
1709299701.891,-26.367,-33.691,-33.691,-43.457,0.000
1709299701.894,-17.090,-34.668,-33.691,-34.180,0.000
1709299701.898,-23.926,-29.297,-36.133,-38.574,0.000
1709299701.902,-27.832,-37.598,-38.086,-51.270,0.000
1709299701.906,-19.531,-47.363,-38.574,-41.504,0.000
1709299701.910,-32.715,-43.945,-34.180,-37.598,0.000
1709299701.914,-42.969,-24.902,-32.227,-43.457,0.000
1709299701.918,-36.133,-25.391,-38.086,-42.969,0.000
1709299701.922,-42.480,-34.180,-38.086,-37.109,0.000
1709299701.926,-47.363,-29.297,-37.598,-32.227,0.000
1709299701.930,-41.016,-32.715,-40.039,-29.785,0.000
1709299701.933,-36.133,-34.180,-34.668,-26.855,0.000
1709299701.937,-39.551,-39.062,-36.133,-26.367,0.000
1709299701.941,-36.621,-38.574,-41.016,-22.461,0.000
1709299701.945,-27.344,-27.832,-32.715,-29.297,0.000
1709299701.949,-37.598,-41.992,-28.320,-44.922,0.000
1709299701.953,-47.852,-55.176,-34.668,-38.574,0.000
1709299701.957,-37.598,-43.945,-27.344,-35.645,0.000
1709299701.961,-35.156,-43.945,-23.926,-40.527,0.000
1709299701.965,-35.156,-52.734,-31.738,-38.574,0.000
1709299701.969,-28.809,-51.270,-38.086,-27.344,0.000
1709299701.972,-27.832,-37.109,-34.180,-25.391,0.000
1709299701.976,-31.250,-27.832,-28.809,-29.785,0.000
1709299701.980,-36.133,-27.344,-26.367,-22.949,0.000
1709299701.984,-37.598,-34.180,-26.855,-25.391,0.000
1709299701.988,-41.504,-43.457,-25.879,-36.133,0.000
1709299701.992,-40.527,-44.922,-32.227,-31.250,0.000
1709299701.996,-37.109,-45.410,-30.273,-20.020,0.000
1709299702.000,-41.504,-44.434,-25.391,-24.902,0.000
1709299702.003,-43.945,-45.898,-32.227,-34.668,0.000
1709299702.007,-35.156,-54.199,-28.320,-33.203,0.000
1709299702.011,-31.250,-62.988,-27.344,-22.461,0.000
1709299702.015,-47.363,-64.941,-35.645,-23.438,0.000
1709299702.019,-50.293,-43.945,-38.574,-36.133,0.000
1709299702.023,-39.551,-36.621,-29.785,-31.738,0.000
1709299702.027,-46.875,-51.270,-33.203,-35.156,0.000
1709299702.031,-45.410,-48.828,-38.086,-43.945,0.000
1709299702.034,-37.598,-35.156,-35.645,-42.969,0.000
1709299702.038,-32.227,-32.715,-34.180,-28.809,0.000
1709299702.042,-27.832,-34.180,-34.180,-32.715,0.000
1709299702.046,-23.926,-33.203,-29.785,-39.062,0.000
1709299702.050,-22.949,-41.016,-31.250,-25.879,0.000
1709299702.054,-24.902,-42.480,-39.551,-26.367,0.000
1709299702.058,-23.438,-38.086,-45.898,-27.832,0.000
1709299702.062,-24.902,-41.504,-40.039,-26.855,0.000
1709299702.066,-28.320,-45.898,-35.156,-30.762,0.000
1709299702.070,-31.738,-45.410,-41.992,-26.855,0.000
1709299702.073,-34.180,-40.527,-41.016,-24.414,0.000
1709299702.077,-24.414,-41.504,-31.738,-27.344,0.000
1709299702.081,0.000,-41.992,-31.250,-34.180,0.000
1709299702.085,0.000,-37.598,-36.133,-24.902,0.000
1709299702.089,0.000,-47.852,-41.504,-13.184,0.000
1709299702.093,0.000,-43.945,-32.715,-20.020,0.000
1709299702.096,0.000,-22.461,-22.949,-22.461,0.000
1709299702.100,0.000,-23.926,-27.344,-26.855,0.000
1709299702.104,0.000,-37.598,-31.738,-38.086,0.000
1709299702.108,0.000,-43.457,-35.645,-46.875,0.000
1709299702.112,0.000,-39.062,-34.668,-35.156,0.000
1709299702.116,0.000,-41.016,-31.250,-15.625,0.000
1709299702.120,0.000,-41.504,-31.250,-24.902,0.000
1709299702.124,0.000,-33.203,-37.109,-39.551,0.000
1709299702.128,-44.922,-30.762,-49.805,-41.992,0.000
1709299702.132,-37.109,-42.480,-42.480,-42.480,0.000
1709299702.136,-33.203,-35.645,-29.297,-41.992,0.000
1709299702.140,-34.180,-14.160,-28.809,-39.551,0.000
1709299702.144,-27.832,-24.902,-35.645,-41.016,0.000
1709299702.148,-26.855,-34.180,-40.527,-36.133,0.000
1709299702.152,-37.109,-33.691,-38.574,-36.133,0.000
1709299702.155,-32.227,-41.504,-38.574,-33.203,0.000
1709299702.159,-32.715,-52.734,-35.156,-31.738,0.000
1709299702.163,-41.016,-38.574,-27.344,-37.109,0.000
1709299702.167,-41.992,-23.926,-23.926,-41.016,0.000
1709299702.171,-45.410,-28.809,-37.109,-43.457,0.000
1709299702.175,-46.875,-40.527,-39.551,-41.992,0.000
1709299702.179,-41.504,-46.387,-33.691,-43.457,0.000
1709299702.183,-42.969,-52.246,-35.645,-58.594,0.000
1709299702.187,-46.387,-52.246,-40.039,-60.059,0.000
1709299702.191,-43.457,-39.551,-42.480,-47.852,0.000
1709299702.195,-42.969,-27.344,-34.668,-45.410,0.000
1709299702.199,-45.898,-44.434,-34.668,-52.734,0.000
1709299702.203,-48.340,-51.758,-33.691,-58.105,0.000
1709299702.206,-50.293,-33.203,-37.109,-60.059,0.000
1709299702.210,-48.828,-30.273,-51.758,-48.828,0.000
1709299702.214,-41.016,-32.715,-52.734,-41.504,0.000
1709299702.218,-37.109,-41.504,-39.551,-44.922,0.000
1709299702.222,-41.504,-46.387,-32.227,-43.945,0.000
1709299702.226,-41.992,-47.363,-34.668,-42.480,0.000
1709299702.230,-33.203,-42.969,-34.180,-37.109,0.000
1709299702.234,-31.738,-30.762,-29.297,-30.273,0.000
1709299702.238,-31.738,-23.926,-35.645,-26.855,0.000
1709299702.242,-28.809,-37.598,-36.133,-34.668,0.000
1709299702.246,-33.691,-45.410,-33.691,-42.480,0.000
1709299702.249,-36.621,-30.762,-38.574,-45.410,0.000
1709299702.253,-39.551,-33.203,-42.480,-36.621,0.000
1709299702.257,-34.180,-36.621,-42.969,-31.738,0.000
1709299702.261,-24.414,-37.109,-38.086,-36.621,0.000
1709299702.265,-30.762,-43.457,-41.504,-44.922,0.000
1709299702.269,-38.086,-35.645,-47.363,-56.641,0.000
1709299702.273,-32.227,-22.461,-45.410,-59.082,0.000
1709299702.277,-29.785,-21.484,-40.039,-55.664,0.000
1709299702.281,-35.645,-25.391,-35.156,-53.223,0.000
1709299702.285,-40.527,-26.855,-39.062,-52.734,0.000
1709299702.289,-50.293,-32.715,-41.992,-49.805,0.000
1709299702.292,-53.711,-42.969,-42.480,-37.598,0.000
1709299702.296,-41.016,-52.246,-37.598,-29.785,0.000
1709299702.300,-38.086,-37.598,-31.250,-41.992,0.000
1709299702.304,-50.781,-25.879,-32.227,-62.500,0.000
1709299702.308,-48.828,-36.133,-32.715,-58.594,0.000
1709299702.312,-36.621,-38.574,-34.668,-42.480,0.000
1709299702.316,-32.715,-48.828,-34.180,-34.180,0.000
1709299702.320,-29.297,-62.012,-25.391,-35.645,0.000
1709299702.324,-33.691,-50.781,-28.320,-40.039,0.000
1709299702.328,-34.180,-34.180,-41.016,-39.062,0.000
1709299702.331,-35.156,-25.879,-33.203,-34.180,0.000
1709299702.335,-29.297,-28.320,-26.367,-20.996,0.000
1709299702.339,-13.672,-31.250,-36.133,-16.602,0.000
1709299702.343,-20.020,-37.109,-48.340,-26.367,0.000
1709299702.347,-34.668,-39.551,-56.152,-40.039,0.000
1709299702.351,-29.785,-30.273,-50.781,-44.434,0.000
1709299702.355,-26.367,-32.715,-46.387,-40.039,0.000
1709299702.359,-27.344,-24.414,-44.434,-42.969,0.000
1709299702.362,-25.879,-23.438,-47.363,-45.410,0.000
1709299702.366,-25.391,-34.668,-52.246,-47.363,0.000
1709299702.370,-31.250,-31.738,-53.711,-45.410,0.000
1709299702.374,-31.250,-37.598,-54.199,-43.457,0.000
1709299702.378,-35.156,-39.551,-48.828,-53.711,0.000
1709299702.382,-38.086,-34.180,-53.223,-61.035,0.000
1709299702.386,-35.645,-33.203,-47.363,-60.547,0.000
1709299702.390,-29.785,-35.645,-37.598,-42.969,0.000
1709299702.394,-35.645,-33.203,-42.480,-39.551,0.000
1709299702.398,-46.875,-36.133,-46.387,-48.340,0.000
1709299702.402,-40.527,-44.434,-41.504,-60.059,0.000
1709299702.405,-39.062,-51.270,-41.016,-64.941,0.000
1709299702.409,-48.828,-49.805,-45.898,-60.547,0.000
1709299702.413,-49.316,-53.711,-41.992,-46.875,0.000
1709299702.417,-42.969,-50.293,-37.598,-36.621,0.000
1709299702.421,-44.434,-36.621,-39.062,-41.016,0.000
1709299702.425,-47.363,-36.133,-41.504,-40.039,0.000
1709299702.429,-48.340,-40.527,-31.738,-41.504,0.000
1709299702.432,-45.410,-46.387,-33.691,-30.762,0.000
1709299702.436,-49.805,-47.852,-45.410,-39.551,0.000
1709299702.440,-43.457,-42.480,-44.922,-51.758,0.000
1709299702.444,-36.621,-31.250,-39.062,-55.664,0.000
1709299702.448,-39.062,-25.391,-39.062,-55.664,0.000
1709299702.452,-30.273,-27.832,-38.086,-38.574,0.000
1709299702.455,-23.926,-31.250,-34.180,-33.691,0.000
1709299702.459,-21.484,-30.762,-40.039,-41.504,0.000
1709299702.463,-25.391,-24.902,-41.504,-45.898,0.000
1709299702.467,-20.508,-23.438,-43.457,-40.527,0.000
1709299702.471,-19.043,-28.809,-45.898,-34.668,0.000
1709299702.475,-23.438,-32.715,-37.598,-23.438,0.000
1709299702.479,-21.484,-44.434,-39.551,-20.508,0.000
1709299702.483,-27.344,-34.180,-55.664,-34.668,0.000
1709299702.487,-32.715,-27.344,-46.387,-46.387,0.000
1709299702.491,-32.715,-36.133,-35.645,-44.434,0.000
1709299702.495,-27.832,-15.625,-40.039,-28.809,0.000
1709299702.498,-31.738,-13.184,-38.574,-33.691,0.000
1709299702.504,-38.086,-24.902,-38.086,-45.898,0.000
1709299702.508,-34.180,-25.879,-41.016,-47.852,0.000
1709299702.511,-29.785,-30.273,-40.527,-44.922,0.000
1709299702.515,-33.691,-38.086,-35.156,-41.504,0.000
1709299702.519,-38.574,-40.039,-29.785,-40.039,0.000
1709299702.523,-35.645,-36.621,-33.203,-36.133,0.000
1709299702.527,-42.969,-41.016,-38.086,-42.969,0.000
1709299702.531,-50.293,-46.387,-25.879,-37.109,0.000
1709299702.535,-49.316,-47.852,-20.508,-44.434,0.000
1709299702.539,-46.875,-45.410,-21.484,-49.805,0.000
1709299702.543,-49.316,-46.875,-24.414,-43.457,0.000
1709299702.547,-50.781,-56.641,-32.715,-49.316,0.000
1709299702.551,0.000,-49.316,-22.461,-40.527,0.000
1709299702.555,0.000,-32.715,-19.531,-39.062,0.000
1709299702.559,0.000,-47.852,-21.484,-38.086,0.000
1709299702.562,0.000,-45.410,-19.531,-39.551,0.000
1709299702.566,0.000,-31.738,-25.879,-43.457,0.000
1709299702.570,0.000,-38.086,-27.344,-42.969,0.000
1709299702.574,0.000,-34.180,-27.832,-49.805,0.000
1709299702.578,0.000,-39.062,-39.062,-52.734,0.000
1709299702.582,0.000,-41.016,-37.598,-53.223,0.000
1709299702.586,0.000,-39.062,-26.367,-60.059,0.000
1709299702.590,0.000,-37.109,-25.879,-56.641,0.000
1709299702.594,0.000,-43.457,-29.297,-47.363,0.000
1709299702.595,-46.875,-52.246,-32.227,-49.316,0.000
1709299702.599,-46.875,-36.133,-27.832,-52.246,0.000
1709299702.603,-44.922,-35.645,-28.809,-73.730,0.000
1709299702.607,-41.504,-41.504,-35.156,-78.613,0.000
1709299702.611,-39.062,-46.875,-35.156,-57.129,0.000
1709299702.615,-39.062,-59.570,-33.691,-56.641,0.000
1709299702.619,-34.180,-42.480,-30.273,-59.082,0.000
1709299702.623,-25.391,-32.715,-32.715,-64.453,0.000
1709299702.626,-32.227,-33.691,-37.598,-61.523,0.000
1709299702.630,-44.434,-26.855,-39.551,-45.410,0.000
1709299702.634,-42.969,-25.879,-31.738,-37.109,0.000
1709299702.638,-40.527,-32.227,-25.879,-39.551,0.000
1709299702.642,-37.598,-33.203,0.000,-47.852,0.000
1709299702.646,-31.738,-30.762,0.000,-37.109,0.000
1709299702.650,-40.039,-39.551,0.000,-33.691,0.000
1709299702.654,-51.758,-40.039,0.000,-40.039,0.000
1709299702.658,-54.199,-37.598,0.000,-36.133,0.000
1709299702.662,-54.688,-41.992,0.000,-43.457,0.000
1709299702.666,-61.523,-42.969,0.000,-59.082,0.000
1709299702.670,-61.035,-41.992,0.000,-51.758,0.000
1709299702.674,-52.246,-45.898,0.000,-31.738,0.000
1709299702.678,-41.992,-47.363,0.000,-31.250,0.000
1709299702.681,-38.086,-46.387,0.000,-38.086,0.000
1709299702.685,-44.922,-47.363,0.000,-49.805,0.000
1709299702.690,-48.340,-45.898,-36.621,-54.199,0.000
1709299702.694,-43.457,-34.180,-33.203,-47.363,0.000
1709299702.698,-38.086,-29.785,-32.715,-42.969,0.000
1709299702.702,-42.480,-34.668,-38.086,-49.316,0.000
1709299702.706,-42.969,-33.691,-33.691,-48.340,0.000
1709299702.710,-40.527,-38.574,-37.598,-36.133,0.000
1709299702.714,-37.598,-41.992,-40.527,-38.086,0.000
1709299702.717,-33.691,-44.434,-36.621,-31.250,0.000
1709299702.721,-34.180,-45.410,-40.527,-24.902,0.000
1709299702.725,-34.668,-34.180,-51.270,-36.621,0.000
1709299702.729,-38.574,-36.133,-53.223,-38.086,0.000
1709299702.733,-36.133,-41.992,-42.969,-29.785,0.000
1709299702.737,-29.785,-41.504,-36.621,-25.391,0.000
1709299702.741,-30.273,-45.410,-35.156,-29.785,0.000
1709299702.745,-32.227,-51.270,-42.480,-31.738,0.000
1709299702.749,-33.691,-55.664,-43.457,-27.832,0.000
1709299702.752,-29.297,-39.551,-38.086,-28.320,0.000
1709299702.756,-30.762,-27.832,-36.621,-35.156,0.000
1709299702.760,-34.180,-24.902,-43.945,-38.086,0.000
1709299702.764,-34.668,-23.438,-39.062,-45.898,0.000
1709299702.768,-33.691,-26.367,-32.715,-41.016,0.000
1709299702.772,-34.180,-31.250,-45.898,-34.180,0.000
1709299702.776,-32.715,-38.574,-55.176,-26.367,0.000
1709299702.780,-26.855,-41.504,-43.945,-25.391,0.000
1709299702.783,-29.297,-37.598,-40.039,-44.434,0.000
1709299702.787,-26.855,-35.645,-46.875,-43.457,0.000
1709299702.791,-32.227,-34.668,-47.363,-44.434,0.000
1709299702.795,-39.062,-36.133,-45.410,-48.340,0.000
1709299702.799,-31.738,-40.039,-49.805,-44.922,0.000
1709299702.803,-25.391,-46.875,-42.480,-50.781,0.000
1709299702.807,-28.809,-48.828,-28.809,-39.551,0.000
1709299702.811,-29.297,-39.551,-40.039,-35.156,0.000
1709299702.815,-26.367,-36.621,-52.734,-38.086,0.000
1709299702.819,-30.762,-48.340,-49.316,-33.203,0.000
1709299702.822,-31.738,-52.734,-38.574,-34.668,0.000
1709299702.826,-33.691,-47.852,-38.574,-40.527,0.000
1709299702.831,-30.762,-39.551,-37.109,-24.902,0.000
1709299702.835,-30.273,-24.902,-38.574,-17.090,0.000
1709299702.839,-34.180,-17.090,-41.992,-16.602,0.000
1709299702.842,-36.133,-24.414,-34.668,-25.391,0.000
1709299702.846,-37.109,-35.156,-30.762,-41.016,0.000
1709299702.850,-24.902,-31.250,-29.785,-20.996,0.000
1709299702.854,-29.785,-29.297,-27.344,-12.207,0.000
1709299702.858,-32.715,-41.504,-34.668,-23.926,0.000
1709299702.862,-29.297,-43.457,-36.133,-23.438,0.000
1709299702.866,-33.203,-38.574,-37.109,-18.066,0.000
1709299702.870,-28.809,-41.016,-34.668,-19.531,0.000
1709299702.874,-26.855,-37.109,-38.574,-28.320,0.000
1709299702.878,-28.320,-29.297,-48.340,-34.180,0.000
1709299702.882,-25.391,-29.785,-44.434,-33.203,0.000
1709299702.886,-26.855,-31.738,-38.574,-35.645,0.000
1709299702.890,-33.691,-41.016,-39.551,-47.852,0.000
1709299702.894,-32.227,-50.293,-39.551,-44.434,0.000
1709299702.898,-28.809,-38.574,-45.898,-33.203,0.000
1709299702.901,-30.273,-31.738,-49.316,-32.227,0.000
1709299702.905,-26.855,-39.551,-47.363,-46.875,0.000
1709299702.909,-31.250,-30.762,-47.852,-54.199,0.000
1709299702.913,-34.668,-29.785,-46.387,-34.668,0.000
1709299702.917,-27.832,-36.133,-50.781,-32.227,0.000
1709299702.921,-26.855,-37.109,-41.992,-54.199,0.000
1709299702.925,-32.715,-36.621,-37.109,-55.664,0.000
1709299702.929,-35.156,-37.109,-48.340,-42.480,0.000
1709299702.933,-34.668,-38.086,-45.410,-38.574,0.000
1709299702.937,-36.621,-36.621,-38.086,-42.969,0.000
1709299702.941,-42.969,-47.852,-31.738,-41.992,0.000
1709299702.945,-48.340,-56.641,-30.273,-45.898,0.000
1709299702.949,-49.805,-47.852,-28.809,-44.434,0.000
1709299702.952,-39.551,-44.922,-28.320,-36.133,0.000
1709299702.956,-41.016,-43.457,-21.484,-29.297,0.000
1709299702.960,-54.199,-56.641,-27.832,-32.715,0.000
1709299702.964,-48.828,-56.152,-40.527,-41.504,0.000
1709299702.968,-46.875,-27.344,-37.598,-38.086,0.000
1709299702.972,-41.016,-22.461,-39.062,-38.574,0.000
1709299702.976,-26.855,-27.832,-38.574,-28.809,0.000
1709299702.980,-23.438,-26.855,-39.551,-24.902,0.000
1709299702.984,-29.297,-28.809,-41.504,-31.738,0.000
1709299702.988,-32.715,-31.250,-32.715,-34.668,0.000
1709299702.992,-24.414,-35.645,-36.621,-28.809,0.000
1709299702.996,-15.625,-36.133,-49.316,-16.602,0.000
1709299702.999,-17.578,-30.762,-51.758,-20.508,0.000
1709299703.003,-22.949,-33.203,-54.688,-32.227,0.000
1709299703.007,-26.367,-33.203,-57.129,-35.645,0.000
1709299703.011,-28.809,-26.367,-59.570,-39.551,0.000
1709299703.015,-29.785,-28.320,-51.758,-44.434,0.000
1709299703.019,-31.738,-35.156,-62.012,-46.387,0.000
1709299703.023,-33.691,-35.156,-66.406,-47.852,0.000
1709299703.027,-32.715,-28.809,-45.898,-48.340,0.000
1709299703.031,-35.156,-36.133,-48.340,-68.848,0.000
1709299703.035,-35.156,-33.691,-51.758,-64.453,0.000
1709299703.039,-31.738,-22.461,-45.898,-38.574,0.000
1709299703.042,-38.086,-34.180,-42.969,-50.293,0.000
1709299703.046,-41.504,-36.621,-46.875,-48.340,0.000
1709299703.050,-32.715,-32.227,-47.852,-25.391,0.000
1709299703.054,-20.020,-32.227,-50.781,-20.996,0.000
1709299703.058,-26.855,-36.621,-47.363,-32.715,0.000
1709299703.062,-42.969,-36.133,-40.527,-49.316,0.000
1709299703.066,-45.898,-36.621,-36.133,-55.664,0.000
1709299703.070,-39.062,-37.598,-28.320,-51.270,0.000
1709299703.074,-38.574,-41.992,-17.578,-40.039,0.000
1709299703.077,-50.293,-52.246,-18.555,-35.645,0.000
1709299703.081,-45.410,-46.387,-23.438,-31.738,0.000
1709299703.085,-43.457,-44.434,-28.809,-41.504,0.000
1709299703.089,-36.621,-49.316,-32.715,-37.109,0.000
1709299703.093,-27.344,-45.410,-33.691,-17.578,0.000
1709299703.097,-39.062,-44.434,-30.762,-28.320,0.000
1709299703.101,-40.527,-53.711,-26.367,-44.922,0.000
1709299703.105,-35.156,-43.457,-21.973,-38.574,0.000
1709299703.109,-40.527,-33.691,-28.320,-42.480,0.000
1709299703.112,-40.527,-39.551,-30.762,-45.410,0.000
1709299703.116,-40.039,-40.527,-30.273,-41.504,0.000
1709299703.120,-48.828,-37.109,-37.598,-51.270,0.000
1709299703.124,-48.340,-42.480,-39.551,-55.664,0.000
1709299703.128,-50.293,-46.387,-29.785,-53.711,0.000
1709299703.132,-52.734,-38.086,-28.809,-60.059,0.000
1709299703.136,-51.758,-38.086,-40.039,-57.617,0.000
1709299703.140,-53.223,-49.316,-37.109,-59.570,0.000
1709299703.144,-58.105,-42.480,-34.180,-73.242,0.000
1709299703.147,-53.223,-33.691,-35.156,-70.801,0.000
1709299703.151,-51.270,-42.969,-37.598,-68.848,0.000
1709299703.155,-46.387,-43.945,-33.691,-50.781,0.000
1709299703.159,-31.250,-36.133,-30.273,-47.852,0.000
1709299703.163,-34.668,-45.410,-34.180,-71.777,0.000
1709299703.167,-55.664,-58.105,-28.320,-74.219,0.000
1709299703.171,-53.711,-54.688,-15.137,-69.336,0.000
1709299703.175,-46.387,-52.734,-8.301,-60.547,0.000
1709299703.178,-60.059,-52.246,-12.695,-50.781,0.000
1709299703.182,-62.012,-64.453,-19.043,-46.387,0.000
1709299703.186,-61.523,-61.523,-29.297,-50.293,0.000
1709299703.190,-60.547,-40.527,-20.508,-46.387,0.000
1709299703.194,-51.758,-34.180,-13.184,-35.156,0.000
1709299703.198,-50.293,-39.062,-14.160,-29.297,0.000
1709299703.202,-52.734,-39.551,-13.672,-40.527,0.000
1709299703.205,-57.129,-40.039,-26.367,-48.828,0.000
1709299703.209,-54.688,-42.969,-27.832,-38.086,0.000
1709299703.213,-38.086,-32.227,-22.461,-27.832,0.000
1709299703.217,-36.621,-26.855,-26.367,-22.949,0.000
1709299703.221,-46.875,-34.180,-39.062,-38.574,0.000
1709299703.225,-53.223,-40.527,-42.480,-47.852,0.000
1709299703.229,-51.758,-34.668,-37.109,-43.457,0.000
1709299703.233,-47.363,-27.344,-36.133,-45.898,0.000
1709299703.237,-45.898,-31.738,-32.715,-44.922,0.000
1709299703.241,-44.434,-38.574,-30.273,-49.805,0.000
1709299703.244,-43.945,-37.109,-34.180,-59.082,0.000
1709299703.248,-45.898,-35.645,-37.598,-63.477,0.000
1709299703.253,-49.316,-42.969,-46.387,-59.570,0.000
1709299703.257,-45.410,-37.109,-45.410,-59.082,0.000
1709299703.261,-44.922,-37.598,-42.480,-66.895,0.000
1709299703.264,-42.480,-40.039,-36.133,-72.754,0.000
1709299703.268,-40.039,-51.758,-34.180,-68.359,0.000
1709299703.272,-37.598,-62.500,-28.809,-54.199,0.000
1709299703.276,-33.691,-49.805,-20.996,-42.480,0.000
1709299703.280,-37.109,-40.039,-25.391,-47.852,0.000
1709299703.284,-36.133,-37.109,-19.531,-61.523,0.000
1709299703.288,-34.180,-35.156,-22.461,-53.223,0.000
1709299703.292,-41.504,-32.715,-37.109,-50.781,0.000
1709299703.296,-41.016,-38.574,-40.039,-49.316,0.000
1709299703.300,-36.133,-40.527,-44.434,-45.410,0.000
1709299703.304,-32.715,-36.133,-38.086,-47.852,0.000
1709299703.308,-32.715,-37.109,-30.762,-46.875,0.000
1709299703.312,-38.574,-34.668,-36.621,-42.480,0.000
1709299703.315,-38.086,-34.668,-33.691,-31.738,0.000
1709299703.319,-26.367,-37.598,-30.762,-25.391,0.000
1709299703.323,-27.832,-39.551,-39.062,-41.504,0.000
1709299703.327,-36.133,-41.504,-44.434,-51.758,0.000
1709299703.331,-36.621,-40.527,-41.504,-36.133,0.000
1709299703.335,-38.574,-40.039,-46.387,-22.949,0.000
1709299703.339,-35.156,-44.434,-49.316,-31.250,0.000
1709299703.343,-32.227,-35.156,-36.133,-32.227,0.000
1709299703.347,-35.156,-25.879,-34.180,-24.902,0.000
1709299703.351,-27.832,-31.738,-40.039,-22.461,0.000
1709299703.355,-24.902,-38.086,-41.016,-22.461,0.000
1709299703.359,-27.344,-33.203,-32.715,-23.926,0.000
1709299703.362,-30.273,-38.086,-31.738,-32.715,0.000
1709299703.366,-42.480,-45.898,-41.504,-40.039,0.000
1709299703.370,-39.551,-41.016,-36.621,-33.203,0.000
1709299703.374,-35.156,-43.945,-39.062,-36.133,0.000
1709299703.378,-38.086,-46.387,-49.805,-35.645,0.000
1709299703.382,-43.945,-54.688,-53.711,-41.992,0.000
1709299703.386,-46.875,-56.641,-40.039,-60.059,0.000
1709299703.390,-41.016,-42.480,-21.484,-56.152,0.000
1709299703.394,-40.039,-38.086,-25.391,-46.387,0.000
1709299703.398,-41.504,-33.203,-33.691,-48.828,0.000
1709299703.401,-42.969,-30.762,-36.621,-56.641,0.000
1709299703.405,-44.922,-35.156,-33.203,-68.848,0.000
1709299703.409,-47.852,-39.551,-33.203,-66.895,0.000
1709299703.413,-47.363,-41.016,-36.133,-49.316,0.000
1709299703.417,-44.922,-42.480,-28.320,-45.410,0.000
1709299703.421,-48.828,-50.781,-27.344,-49.316,0.000
1709299703.425,-48.828,-41.504,-27.832,-48.828,0.000
1709299703.429,-46.875,-33.691,-25.879,-46.875,0.000
1709299703.433,-46.387,-39.062,-27.832,-39.062,0.000
1709299703.437,-42.969,-37.598,-24.902,-25.391,0.000
1709299703.442,-42.969,-41.016,-23.438,-22.949,0.000
1709299703.446,-43.945,-42.480,-33.203,-26.855,0.000
1709299703.450,-48.828,-43.945,-34.180,-33.203,0.000
1709299703.454,-48.340,-39.551,-21.973,-28.320,0.000
1709299703.458,-46.875,-31.738,-22.461,-9.766,0.000
1709299703.462,-42.969,-34.668,-33.691,-8.789,0.000
1709299703.466,-33.691,-35.156,-34.668,-18.555,0.000
1709299703.469,-37.598,-46.387,-26.855,-13.184,0.000
1709299703.473,-25.879,-56.641,-28.320,-8.789,0.000
1709299703.477,-20.020,-39.062,-28.809,-19.531,0.000
1709299703.481,-36.621,-26.855,-23.438,-24.414,0.000
1709299703.485,-43.945,-28.809,-25.879,-29.297,0.000
1709299703.489,-49.316,-34.180,-29.297,-26.855,0.000
1709299703.493,-47.363,-37.109,-29.297,-18.066,0.000
1709299703.497,-39.062,-37.109,-31.250,-23.926,0.000
1709299703.500,-48.340,-38.574,-36.621,-35.156,0.000
1709299703.504,-49.316,-38.086,-31.250,-34.180,0.000
1709299703.508,-44.434,-43.457,-25.879,-39.551,0.000
1709299703.512,-47.852,-40.039,-30.273,-43.457,0.000
1709299703.516,-48.340,-31.250,-36.621,-37.109,0.000
1709299703.520,-41.016,-29.785,-37.598,-25.879,0.000
1709299703.524,-37.109,-33.691,-39.062,-33.691,0.000
1709299703.528,-36.621,-36.133,-40.039,-37.109,0.000
1709299703.532,-39.551,-33.691,-31.738,-27.344,0.000
1709299703.535,-45.898,-40.039,-32.715,-32.715,0.000
1709299703.539,-34.180,-41.504,-30.273,-30.762,0.000
1709299703.543,-29.297,-32.227,-27.832,-36.133,0.000
1709299703.547,-35.645,-30.762,-32.715,-41.992,0.000
1709299703.551,-45.410,-43.945,-32.227,-33.203,0.000
1709299703.555,-45.410,-49.805,-34.668,-24.414,0.000
1709299703.559,-41.016,-52.246,-34.180,-16.602,0.000
1709299703.563,-43.457,-49.805,-21.973,-20.996,0.000
1709299703.566,-49.316,-50.781,-24.902,-40.039,0.000
1709299703.570,-55.176,-48.828,-31.738,-40.527,0.000
1709299703.574,-47.363,-46.875,-30.762,-19.531,0.000
1709299703.578,-44.434,-52.734,-34.180,-12.695,0.000
1709299703.582,-52.246,-46.875,-31.738,-32.715,0.000
1709299703.586,-59.082,-39.551,-28.809,-42.969,0.000
1709299703.589,-59.082,-39.062,-29.785,-40.527,0.000
1709299703.593,-51.758,-38.086,-30.762,-35.645,0.000
1709299703.597,-51.270,-33.691,-30.762,-30.273,0.000
1709299703.601,-54.688,-38.574,-31.250,-40.039,0.000
1709299703.605,-57.129,-50.293,-36.133,-51.270,0.000
1709299703.609,-56.152,-55.664,-44.434,-51.270,0.000
1709299703.613,-48.340,-50.781,-41.016,-36.133,0.000
1709299703.617,-42.480,-47.852,-27.832,-33.691,0.000
1709299703.621,-34.668,-44.922,-29.785,-37.109,0.000
1709299703.625,-30.273,-41.016,-38.574,-44.434,0.000
1709299703.629,-35.156,-41.992,-40.527,-51.270,0.000
1709299703.633,-36.133,-42.480,-40.039,-46.875,0.000
1709299703.637,-35.645,-41.016,-39.551,-38.574,0.000
1709299703.641,-26.855,-35.156,-32.715,-22.949,0.000
1709299703.644,-12.207,-32.715,-24.414,-21.973,0.000
1709299703.648,-9.766,-29.785,-30.273,-25.391,0.000
1709299703.652,-16.113,-33.203,-33.691,-23.926,0.000
1709299703.656,-15.625,-41.016,-29.785,-28.320,0.000
1709299703.660,-21.973,-41.992,-32.227,-33.203,0.000
1709299703.664,-24.414,-38.574,-33.203,-31.250,0.000
1709299703.668,-24.414,-32.715,-37.109,-35.156,0.000
1709299703.672,-28.320,-27.344,-38.574,-36.621,0.000
1709299703.676,0.000,-27.832,-37.109,-30.762,0.000
1709299703.680,0.000,-34.668,-36.133,-34.668,0.000
1709299703.684,0.000,-41.504,-28.809,-37.598,0.000
1709299703.688,0.000,-46.387,-32.227,-41.992,0.000
1709299703.692,0.000,-47.363,-38.574,-30.273,0.000
1709299703.695,0.000,-40.039,-34.180,-15.625,0.000
1709299703.699,0.000,-29.785,-32.715,-19.043,0.000
1709299703.703,0.000,-37.109,-32.227,-35.156,0.000
1709299703.707,0.000,-33.203,-33.691,-35.156,0.000
1709299703.711,0.000,-37.598,-36.621,-23.926,0.000
1709299703.715,0.000,-41.504,-41.504,-25.879,0.000
1709299703.719,0.000,-28.320,-43.457,-33.203,0.000
1709299703.723,-43.457,-32.227,-39.551,-41.016,0.000
1709299703.727,-49.805,-21.973,-40.039,-45.410,0.000
1709299703.731,-49.805,-12.695,-44.922,-45.898,0.000
1709299703.735,-40.039,-20.020,-41.992,-27.344,0.000
1709299703.738,-37.598,-14.648,-29.785,-19.531,0.000
1709299703.742,-37.598,-24.902,-27.344,-36.133,0.000
1709299703.746,-34.180,-32.715,-32.227,-49.805,0.000
1709299703.750,-31.738,-27.344,-35.156,-41.504,0.000
1709299703.754,-27.832,-36.133,-34.180,-31.738,0.000
1709299703.758,-21.973,-33.203,-38.574,-33.203,0.000
1709299703.762,-8.789,-22.461,-41.992,-35.156,0.000
1709299703.766,-3.906,-21.484,-34.180,-33.203,0.000
1709299703.770,-15.137,-41.992,-31.738,-29.785,0.000
1709299703.774,-16.602,-39.062,-25.879,-19.043,0.000
1709299703.778,-15.625,-23.438,-27.832,-24.414,0.000
1709299703.781,-24.414,-26.367,-31.738,-39.062,0.000
1709299703.785,-28.809,-21.973,-38.574,-43.457,0.000
1709299703.789,-25.391,-26.367,-40.527,-46.875,0.000
1709299703.793,-28.320,-28.809,-30.762,-50.781,0.000
1709299703.797,-35.645,-25.391,-42.969,-43.945,0.000
1709299703.801,-36.621,-26.855,-45.410,-37.109,0.000
1709299703.805,-38.086,-30.762,-42.969,-47.852,0.000
1709299703.809,-45.410,-36.133,-39.062,-52.246,0.000
1709299703.813,-47.852,-35.645,-32.715,-42.480,0.000
1709299703.816,-44.434,-43.457,-45.410,-30.273,0.000
1709299703.820,-37.109,-41.992,-40.039,-25.879,0.000
1709299703.824,-41.992,-36.133,-30.273,-47.363,0.000
1709299703.828,-53.223,-40.527,-32.715,-67.383,0.000
1709299703.832,-50.293,-35.645,-30.762,-56.641,0.000
1709299703.836,-54.688,-47.852,-27.832,-40.527,0.000
1709299703.840,-61.035,-54.199,-35.156,-47.852,0.000
1709299703.844,-52.734,-34.668,-37.598,-37.598,0.000
1709299703.848,-53.223,-27.344,-35.156,-28.809,0.000
1709299703.852,-53.711,-32.715,-42.480,-48.340,0.000
1709299703.855,-46.387,-42.969,-41.504,-41.016,0.000
1709299703.859,-40.039,-43.945,-23.926,-24.902,0.000
1709299703.863,-35.156,-38.574,-28.809,-36.133,0.000
1709299703.867,-38.574,-43.945,-36.621,-47.852,0.000
1709299703.871,-40.527,-44.434,-33.691,-47.363,0.000
1709299703.875,-30.762,-36.621,-38.086,-49.805,0.000
1709299703.879,-20.020,-39.551,-40.039,-41.504,0.000
1709299703.883,-21.973,-51.270,-42.969,-52.246,0.000
1709299703.886,-27.344,-47.852,-45.410,-56.641,0.000
1709299703.890,-25.391,-38.086,-44.922,-41.504,0.000
1709299703.894,-27.344,-49.805,-40.527,-39.062,0.000
1709299703.898,-27.832,-53.711,-39.062,-38.574,0.000
1709299703.902,-28.809,-46.387,-42.969,-42.480,0.000
1709299703.906,-20.020,-50.781,-33.691,-40.527,0.000
1709299703.910,-8.789,-53.711,-26.367,-31.738,0.000
1709299703.913,-20.508,-44.922,-32.715,-39.551,0.000
1709299703.917,-31.250,-30.762,-33.691,-41.992,0.000
1709299703.921,-27.832,-36.133,-31.250,-38.574,0.000
1709299703.925,-29.297,-37.598,-38.086,-50.781,0.000
1709299703.929,-36.133,-35.156,-42.480,-54.688,0.000
1709299703.933,-39.551,-38.086,-37.109,-48.340,0.000
1709299703.937,-45.898,-45.410,-35.645,-50.781,0.000
1709299703.941,-43.457,-50.781,-42.480,-62.012,0.000
1709299703.945,-43.457,-50.781,-51.758,-69.824,0.000
1709299703.949,-46.875,-48.828,-41.992,-65.918,0.000
1709299703.953,-38.574,-36.621,-34.668,-45.410,0.000
1709299703.956,-28.809,-37.109,-27.832,-40.039,0.000
1709299703.960,-33.203,-43.945,-26.367,-47.852,0.000
1709299703.964,-39.062,-35.156,-31.738,-44.434,0.000
1709299703.968,-37.598,-30.273,-28.809,-47.363,0.000
1709299703.972,-38.574,-42.969,-31.250,-53.223,0.000
1709299703.975,-39.551,-52.734,-40.039,-40.039,0.000
1709299703.979,-35.156,-43.457,-36.621,-34.668,0.000
1709299703.983,-32.227,-42.480,-29.785,-46.875,0.000
1709299703.987,-32.715,-44.434,-31.738,-47.852,0.000
1709299703.991,-35.645,-40.527,-33.691,-46.875,0.000
1709299703.995,-36.133,-44.922,-28.320,-40.527,0.000
1709299703.999,-27.832,-55.176,-32.715,-39.551,0.000
1709299704.003,-23.926,-45.898,-33.203,-42.480,0.000
1709299704.007,-26.855,-36.621,-27.832,-46.875,0.000
1709299704.011,-28.809,-36.621,-27.344,-39.062,0.000
1709299704.015,-26.855,-35.645,-32.227,-21.973,0.000
1709299704.019,-19.043,-36.133,-39.551,-30.762,0.000
1709299704.023,-19.043,-46.875,-28.320,-37.109,0.000
1709299704.027,-16.602,-38.086,-32.227,-30.762,0.000
1709299704.031,-20.996,-29.785,-32.227,-36.133,0.000
1709299704.034,-30.762,-42.969,-25.879,-38.574,0.000
1709299704.038,-39.551,-39.551,-33.203,-38.086,0.000
1709299704.042,-42.969,-26.855,-34.180,-47.363,0.000
1709299704.046,-48.340,-32.715,-34.180,-58.594,0.000
1709299704.050,-44.922,-41.016,-34.180,-55.664,0.000
1709299704.054,-41.504,-41.016,-41.992,-42.969,0.000
1709299704.058,-54.688,-56.152,-45.410,-44.434,0.000
1709299704.062,-54.199,-53.711,-35.156,-47.852,0.000
1709299704.066,-54.199,-35.156,-33.691,-55.664,0.000
1709299704.070,-60.547,-36.621,-32.715,-56.152,0.000
1709299704.074,-59.570,-37.109,-32.715,-40.527,0.000
1709299704.078,-50.293,-32.227,-34.668,-28.320,0.000
1709299704.082,-49.316,-36.621,-39.551,-37.598,0.000
1709299704.085,-57.129,-38.574,-37.598,-40.039,0.000
1709299704.089,-47.363,-25.879,-30.762,-34.180,0.000
1709299704.093,-42.480,-26.367,-35.156,-39.551,0.000
1709299704.097,-43.945,-41.992,-29.785,-37.109,0.000
1709299704.101,-42.480,-41.992,-32.715,-25.879,0.000
1709299704.105,-39.062,-35.645,-40.039,-22.461,0.000
1709299704.109,-38.086,-35.645,-36.133,-43.457,0.000
1709299704.113,-34.668,-48.828,-32.227,-44.434,0.000
1709299704.117,-24.902,-56.152,-24.902,-27.344,0.000
1709299704.121,-25.879,-33.203,-23.926,-31.738,0.000
1709299704.125,-28.809,-26.855,-26.855,-35.645,0.000
1709299704.129,-25.391,-37.598,-30.762,-27.344,0.000
1709299704.133,-25.879,-34.180,-31.250,-23.926,0.000
1709299704.136,-24.414,-26.367,-26.855,-27.832,0.000
1709299704.140,-18.555,-31.250,-23.438,-26.855,0.000
1709299704.144,-21.973,-30.273,-25.391,-24.902,0.000
1709299704.148,-27.344,-30.762,-27.832,-23.438,0.000
1709299704.152,-26.855,-37.109,-28.320,-29.785,0.000
1709299704.156,-28.320,-36.133,-25.879,-34.180,0.000
1709299704.160,-25.879,-34.180,-27.832,-26.855,0.000
1709299704.164,-29.297,-35.156,-30.762,-33.691,0.000
1709299704.168,-36.621,-37.109,-33.691,-49.316,0.000
1709299704.172,-39.551,-40.527,-33.203,-43.945,0.000
1709299704.175,-41.504,-46.387,-44.922,-28.320,0.000
1709299704.179,-41.992,-37.598,-50.293,-28.320,0.000
1709299704.183,-45.410,-30.273,-33.691,-36.621,0.000
1709299704.187,-51.270,-31.738,-31.250,-46.875,0.000
1709299704.191,-43.945,-29.785,-28.809,-39.062,0.000
1709299704.195,-37.109,-33.203,-35.645,-31.738,0.000
1709299704.199,-29.297,-41.016,-35.645,-31.250,0.000
1709299704.203,-21.973,-42.480,-25.879,-39.551,0.000
1709299704.207,-32.715,-43.457,-25.879,-44.922,0.000
1709299704.210,-39.062,-38.574,-29.297,-36.621,0.000
1709299704.214,-37.109,-35.645,-35.645,-29.785,0.000
1709299704.218,-44.434,-39.551,-41.504,-19.531,0.000
1709299704.222,-48.828,-44.434,-43.945,-33.691,0.000
1709299704.226,-44.434,-45.898,-40.039,-59.082,0.000
1709299704.230,-36.133,-40.527,-33.691,-57.617,0.000
1709299704.234,-39.551,-32.715,-34.668,-51.270,0.000
1709299704.238,-50.293,-34.180,-41.504,-57.129,0.000
1709299704.241,-49.316,-45.410,-35.156,-53.711,0.000
1709299704.245,-50.781,-50.781,-30.762,-47.363,0.000
1709299704.249,-50.293,-44.922,-39.062,-40.527,0.000
1709299704.253,-42.480,-31.738,-41.504,-34.180,0.000
1709299704.257,-32.227,-28.320,-41.504,-30.762,0.000
1709299704.261,-27.832,-34.180,-43.945,-28.809,0.000
1709299704.265,-35.156,-42.480,-31.250,-21.973,0.000
1709299704.269,-35.156,-42.480,-20.996,-22.949,0.000
1709299704.273,-38.574,-34.668,-34.180,-20.508,0.000
1709299704.277,-32.715,-39.551,-31.738,-4.395,0.000
1709299704.280,-23.438,-42.480,-12.695,-2.441,0.000
1709299704.284,-32.715,-35.156,-23.926,-27.344,0.000
1709299704.288,-28.809,-40.039,-36.133,-40.527,0.000
1709299704.292,-27.344,-46.387,-30.762,-31.738,0.000
1709299704.296,-41.016,-45.898,-37.109,-37.598,0.000
1709299704.300,-48.828,-39.551,-39.551,-43.457,0.000
1709299704.304,-52.734,-39.062,-33.691,-40.039,0.000
1709299704.308,-50.293,-57.617,-40.039,-35.156,0.000
1709299704.311,-54.688,-54.199,-38.086,-42.480,0.000
1709299704.315,-60.547,-30.762,-28.809,-51.270,0.000
1709299704.319,-58.105,-25.391,-31.738,-54.688,0.000
1709299704.323,-61.035,-30.273,-30.273,-62.500,0.000
1709299704.327,-61.035,-41.992,-28.809,-59.570,0.000
1709299704.331,-60.547,-43.945,-32.227,-62.012,0.000
1709299704.334,-53.223,-39.551,-33.691,-56.152,0.000
1709299704.338,-50.781,-41.016,-40.039,-47.363,0.000
1709299704.342,-49.805,-44.434,-42.480,-52.246,0.000
1709299704.346,-45.410,-42.969,-31.250,-63.477,0.000
1709299704.350,-45.898,-39.551,-22.461,-57.617,0.000
1709299704.354,-38.574,-40.527,-25.879,-38.086,0.000
1709299704.358,-35.156,-43.945,-31.738,-33.691,0.000
1709299704.362,-36.621,-42.969,-34.180,-46.875,0.000
1709299704.366,-35.156,-44.922,-32.715,-56.641,0.000
1709299704.370,-38.574,-46.387,-33.203,-49.805,0.000
1709299704.373,-40.039,-44.434,-38.086,-41.504,0.000
1709299704.378,-35.156,-44.434,-37.109,-24.902,0.000
1709299704.382,-32.227,-34.180,-35.645,-16.602,0.000
1709299704.386,-38.574,-29.785,-34.668,-32.227,0.000
1709299704.390,-35.645,-28.809,-34.668,-41.504,0.000
1709299704.393,-26.855,-28.320,-37.109,-28.320,0.000
1709299704.397,-27.832,-33.203,-37.109,-20.508,0.000
1709299704.401,-25.391,-31.250,-37.109,-29.785,0.000
1709299704.405,-28.320,-33.691,-32.715,-33.691,0.000
1709299704.409,-34.180,-38.086,-32.227,-32.715,0.000
1709299704.413,-29.785,-44.922,-34.180,-23.438,0.000
1709299704.417,-28.320,-45.898,-33.691,-28.320,0.000
1709299704.421,-32.227,-39.062,-27.832,-42.480,0.000
1709299704.425,-33.203,-34.180,-33.691,-41.504,0.000
1709299704.429,-35.645,-39.062,-44.434,-45.410,0.000
1709299704.433,-35.156,-48.828,-33.203,-49.316,0.000
1709299704.437,-37.598,-32.227,-24.902,-47.852,0.000
1709299704.441,-39.062,-24.414,-40.039,-50.781,0.000
1709299704.444,-32.227,-32.715,-43.945,-57.129,0.000
1709299704.448,-23.926,-32.715,-25.879,-55.176,0.000
1709299704.452,-24.902,-36.133,-25.391,-50.781,0.000
1709299704.456,-27.344,-33.691,-38.574,-37.109,0.000
1709299704.460,-30.762,-20.996,-45.410,-39.062,0.000
1709299704.464,-44.922,-21.484,-41.992,-64.453,0.000
1709299704.468,-51.758,-36.621,-37.598,-69.824,0.000
1709299704.472,-52.734,-36.621,-33.203,-58.594,0.000
1709299704.476,-46.875,-30.273,-35.156,-47.363,0.000
1709299704.480,-42.480,-33.203,-44.434,-45.898,0.000
1709299704.484,-37.598,-36.621,-46.875,-43.457,0.000
1709299704.488,-36.133,-39.062,-38.574,-46.387,0.000
1709299704.491,-40.039,-53.711,-35.156,-40.039,0.000
1709299704.495,-42.969,-52.734,-37.598,-26.855,0.000
1709299704.499,-38.574,-33.203,-37.109,-30.273,0.000
1709299704.503,-31.738,-35.645,-39.062,-28.809,0.000
1709299704.507,-37.109,-40.039,-37.109,-46.387,0.000
1709299704.511,-44.434,-35.156,-37.598,-61.035,0.000
1709299704.515,-44.922,-41.016,-38.574,-41.016,0.000
1709299704.519,-39.551,-46.387,-34.180,-27.832,0.000
1709299704.523,-29.297,-30.762,-39.551,-42.969,0.000
1709299704.527,-27.344,-21.973,-39.551,-62.988,0.000
1709299704.531,-36.133,-28.809,-32.715,-52.734,0.000
1709299704.534,-34.180,-29.785,-35.645,-38.086,0.000
1709299704.538,-31.738,-32.227,-40.039,-31.250,0.000
1709299704.542,-40.039,-39.551,-42.969,-42.480,0.000
1709299704.546,-46.875,-38.574,-32.227,-42.480,0.000
1709299704.550,-41.504,-32.715,-24.902,-37.109,0.000
1709299704.554,-37.109,-27.832,-29.297,-51.270,0.000
1709299704.558,-34.180,-29.297,-29.297,-50.293,0.000
1709299704.562,-39.062,-38.574,-32.715,-47.852,0.000
1709299704.566,-47.363,-36.621,-35.645,-59.570,0.000
1709299704.569,-48.828,-37.598,-37.109,-52.246,0.000
1709299704.573,-42.969,-42.969,-32.715,-42.480,0.000
1709299704.577,-35.645,-39.551,-42.969,-36.621,0.000
1709299704.581,-36.621,-35.645,-38.574,-33.203,0.000
1709299704.585,-35.645,-31.738,-25.879,-41.504,0.000
1709299704.589,-32.227,-32.227,-28.320,-41.504,0.000
1709299704.593,-33.691,-32.227,-34.180,-27.832,0.000
1709299704.597,-27.344,-30.273,-40.039,-26.855,0.000
1709299704.601,-16.602,-43.945,-30.762,-20.508,0.000
1709299704.605,-21.484,-50.293,-30.273,-23.438,0.000
1709299704.609,-30.273,-35.156,-33.691,-30.762,0.000
1709299704.612,-31.250,-34.668,-31.250,-23.438,0.000
1709299704.616,-32.227,-33.691,-40.039,-32.227,0.000
1709299704.620,-29.785,-24.414,-39.551,-35.645,0.000
1709299704.624,-35.645,-23.438,-33.203,-35.645,0.000
1709299704.628,-42.969,-20.996,-38.086,-45.410,0.000
1709299704.632,-39.551,-19.043,-31.738,-41.016,0.000
1709299704.636,-41.016,-30.762,-28.320,-28.320,0.000
1709299704.640,-48.828,-40.527,-28.809,-26.367,0.000
1709299704.643,-42.480,-35.645,-36.621,-36.621,0.000
1709299704.647,-32.227,-24.902,-44.434,-39.551,0.000
1709299704.651,-35.156,-19.043,-34.668,-34.668,0.000
1709299704.655,-41.504,-32.227,-37.109,-34.180,0.000
1709299704.659,-42.969,-45.898,-43.457,-32.715,0.000
1709299704.663,-45.898,-41.016,-42.480,-41.016,0.000
1709299704.667,-47.852,-42.480,-45.410,-48.828,0.000
1709299704.671,-45.898,-45.410,-40.527,-47.852,0.000
1709299704.675,-43.945,-34.668,-31.738,-41.992,0.000
1709299704.678,-48.828,-45.410,-37.109,-43.945,0.000
1709299704.682,-55.176,-55.176,-40.039,-47.852,0.000
1709299704.686,-54.199,-25.879,-31.250,-52.246,0.000
1709299704.690,-46.875,-17.578,-33.203,-55.176,0.000
1709299704.694,-42.480,-27.344,-37.109,-38.574,0.000
1709299704.698,-36.133,-26.855,-31.250,-40.039,0.000
1709299704.702,-34.180,-33.691,-30.273,-47.852,0.000
1709299704.705,-39.062,-39.062,-30.273,-52.246,0.000
1709299704.709,-34.180,-32.715,-35.156,-47.363,0.000
1709299704.713,-29.785,-35.645,-40.039,-30.762,0.000
1709299704.717,-27.832,-33.691,-42.969,-28.809,0.000
1709299704.721,-29.297,-24.902,-39.062,-38.574,0.000
1709299704.725,-30.273,-28.320,-27.344,-38.086,0.000
1709299704.729,-32.227,-31.250,-28.809,-26.367,0.000
1709299704.733,-36.621,-36.621,-31.738,-33.691,0.000
1709299704.737,-34.668,-39.551,-33.691,-38.086,0.000
1709299704.741,-39.062,-34.180,-39.551,-36.621,0.000
1709299704.744,-39.551,-30.762,-36.621,-32.227,0.000
1709299704.748,-36.133,-32.227,-35.156,-39.551,0.000
1709299704.753,-34.180,-34.668,0.000,-44.434,0.000
1709299704.757,-36.621,-33.691,0.000,-40.039,0.000
1709299704.761,-42.969,-28.809,0.000,-30.273,0.000
1709299704.765,-39.551,-29.785,0.000,-31.738,0.000
1709299704.768,-41.992,-32.227,0.000,-39.551,0.000
1709299704.772,-47.852,-35.645,0.000,-32.715,0.000
1709299704.776,-43.457,-42.480,0.000,-35.156,0.000
1709299704.780,-39.062,-38.086,0.000,-40.527,0.000
1709299704.784,-43.945,-41.504,0.000,-44.434,0.000
1709299704.788,-50.293,-46.875,0.000,-43.945,0.000
1709299704.792,-49.316,-36.133,0.000,-41.016,0.000
1709299704.796,-35.156,-23.926,0.000,-38.574,0.000
1709299704.801,-38.086,-30.273,-33.691,-37.109,0.000
1709299704.805,-41.016,-41.016,-32.227,-45.898,0.000
1709299704.809,-33.691,-36.133,-22.949,-44.434,0.000
1709299704.813,-39.551,-35.645,-29.297,-28.809,0.000
1709299704.817,-41.992,-33.691,-27.832,-19.043,0.000
1709299704.820,-45.898,-26.855,-27.344,-24.902,0.000
1709299704.824,-59.570,-29.785,-36.621,-37.598,0.000
1709299704.828,-55.176,-37.598,-36.133,-37.598,0.000
1709299704.832,-48.828,-49.316,-32.227,-23.926,0.000
1709299704.836,-46.875,-50.293,-34.180,-20.508,0.000
1709299704.840,-44.434,-40.527,-38.574,-29.785,0.000
1709299704.844,-40.039,-35.156,-40.039,-29.297,0.000
1709299704.849,-36.621,-39.062,-45.898,-33.203,0.000
1709299704.853,-46.387,-45.898,-42.480,-54.199,0.000
1709299704.857,-51.270,-36.621,-35.645,-52.734,0.000
1709299704.860,-47.363,-33.203,-40.527,-41.992,0.000
1709299704.864,-35.156,-33.691,-36.133,-47.852,0.000
1709299704.868,-38.574,-33.691,-31.250,-46.387,0.000
1709299704.872,-49.805,-38.574,-39.062,-42.969,0.000
1709299704.876,-43.457,-35.156,-40.039,-32.715,0.000
1709299704.880,-36.621,-38.086,-32.715,-30.762,0.000
1709299704.884,-39.551,-36.621,-33.203,-39.551,0.000
1709299704.888,-39.062,-37.598,-38.086,-38.574,0.000
1709299704.892,-33.203,-48.828,-39.062,-38.574,0.000
1709299704.895,-38.574,-41.016,-40.039,-39.551,0.000
1709299704.899,-37.109,-30.762,-43.457,-30.273,0.000
1709299704.903,-32.715,-41.992,-46.875,-35.645,0.000
1709299704.907,-29.297,-41.992,-41.016,-56.152,0.000
1709299704.911,-24.902,-38.086,-27.832,-53.223,0.000
1709299704.915,-27.832,-35.645,-22.949,-38.574,0.000
1709299704.919,-32.227,-28.320,-22.461,-34.668,0.000
1709299704.923,-34.668,-33.691,-29.297,-37.598,0.000
1709299704.927,-39.062,-39.551,-35.156,-35.156,0.000
1709299704.931,-45.410,-36.133,-38.086,-34.180,0.000
1709299704.935,-37.109,-33.691,-41.992,-37.598,0.000
1709299704.938,-29.785,-39.551,-38.086,-26.855,0.000
1709299704.942,-28.320,-38.086,-30.762,-15.625,0.000
1709299704.946,-15.137,-25.879,-34.668,-24.414,0.000
1709299704.950,-15.625,-28.320,-36.621,-29.785,0.000
1709299704.954,-23.926,-37.598,-31.738,-21.973,0.000
1709299704.958,-23.438,-29.785,-28.809,-13.184,0.000
1709299704.962,-19.043,-25.391,-26.855,-12.695,0.000
1709299704.966,-19.043,-30.273,-31.738,-29.297,0.000
1709299704.970,-28.809,-37.109,-32.227,-36.133,0.000
1709299704.973,-33.203,-38.086,-27.832,-27.832,0.000
1709299704.977,-28.320,-29.785,-31.250,-27.832,0.000
1709299704.981,-26.367,-26.855,-28.320,-22.461,0.000
1709299704.985,-27.832,-24.414,-24.414,-30.762,0.000
1709299704.989,-30.273,-29.785,-30.273,-33.691,0.000
1709299704.993,-23.438,-33.203,-24.414,-24.902,0.000
1709299704.997,-18.066,-27.344,-24.902,-22.461,0.000
1709299705.000,-33.203,-33.691,-32.715,-27.344,0.000
1709299705.004,-37.598,-39.551,-36.621,-40.527,0.000
1709299705.008,-24.414,-32.227,-36.621,-42.969,0.000
1709299705.012,-24.902,-36.133,-26.855,-35.645,0.000
1709299705.016,-33.691,-53.223,-33.691,-35.645,0.000
1709299705.020,-31.738,-44.434,-39.062,-43.457,0.000
1709299705.024,-32.715,-23.438,-35.645,-47.852,0.000
1709299705.028,-36.133,-19.531,-29.297,-47.363,0.000
1709299705.032,-38.086,-31.250,-31.250,-37.598,0.000
1709299705.035,-42.969,-40.039,-37.598,-49.805,0.000
1709299705.039,-43.945,-35.645,-31.250,-56.152,0.000
1709299705.043,-44.434,-30.273,-29.785,-49.316,0.000
1709299705.047,-44.434,-25.879,-31.250,-64.453,0.000
1709299705.051,-45.898,-24.902,-31.250,-71.777,0.000
1709299705.055,-38.574,-30.762,-31.250,-55.176,0.000
1709299705.059,-29.785,-35.156,-40.039,-49.805,0.000
1709299705.063,-29.297,-30.762,-36.133,-57.129,0.000
1709299705.067,-24.902,-28.809,-25.879,-42.480,0.000
1709299705.070,-23.438,-35.156,-30.762,-30.762,0.000
1709299705.074,-22.461,-37.598,-24.902,-27.344,0.000
1709299705.078,-24.414,-32.715,-26.367,-21.484,0.000
1709299705.083,-26.855,-33.203,-32.227,-23.926,0.000
1709299705.086,-27.832,-41.504,-35.645,-28.320,0.000
1709299705.090,-27.832,-41.504,-32.227,-30.273,0.000
1709299705.094,-27.832,-40.039,-23.438,-24.902,0.000
1709299705.098,-27.832,-41.992,-25.879,-27.832,0.000
1709299705.102,-29.785,-40.527,-32.227,-22.949,0.000
1709299705.106,-41.504,-33.203,-41.504,-16.602,0.000
1709299705.110,-50.293,-37.598,-37.109,-37.598,0.000
1709299705.114,-48.340,-43.457,-25.391,-50.293,0.000
1709299705.118,-48.340,-43.457,-26.855,-41.504,0.000
1709299705.122,-57.129,-49.805,-33.203,-36.133,0.000
1709299705.126,-56.641,-41.504,-39.062,-47.852,0.000
1709299705.130,-51.270,-44.434,-41.016,-56.641,0.000
1709299705.134,-49.805,-48.828,-37.598,-44.922,0.000
1709299705.138,-51.758,-42.969,-33.203,-35.156,0.000
1709299705.141,-43.457,-44.434,-30.762,-36.133,0.000
1709299705.145,-39.062,-42.969,-29.785,-36.621,0.000
1709299705.149,-43.945,-34.180,-41.016,-42.969,0.000
1709299705.153,-42.969,-40.039,-42.969,-43.457,0.000
1709299705.157,-40.039,-42.969,-34.180,-33.691,0.000
1709299705.161,-35.645,-35.156,-42.480,-31.738,0.000
1709299705.165,-36.621,-38.086,-45.410,-29.297,0.000
1709299705.169,-43.457,-45.898,-42.969,-31.738,0.000
1709299705.173,-45.898,-49.316,-54.199,-44.922,0.000
1709299705.177,-43.945,-37.109,-48.828,-45.410,0.000
1709299705.181,-39.062,-30.273,-41.016,-38.574,0.000
1709299705.185,-36.133,-34.180,-39.551,-42.969,0.000
1709299705.188,-30.273,-32.227,-34.180,-54.688,0.000
1709299705.192,-21.973,-29.297,-34.180,-45.898,0.000
1709299705.196,-11.719,-26.855,-35.156,-23.438,0.000
1709299705.200,-13.672,-25.391,-45.898,-22.461,0.000
1709299705.204,-25.391,-27.832,-44.922,-23.926,0.000
1709299705.208,-25.391,-33.691,-31.250,-12.207,0.000
1709299705.212,-22.461,-40.527,-23.926,-14.160,0.000
1709299705.216,-31.738,-41.016,-29.785,-33.691,0.000
1709299705.220,-33.203,-35.156,-27.832,-38.574,0.000
1709299705.224,-36.621,-32.715,-27.344,-48.828,0.000
1709299705.228,-52.246,-35.156,-38.574,-61.523,0.000
1709299705.231,-51.270,-36.133,-35.645,-52.734,0.000
1709299705.235,-47.363,-42.480,-31.738,-46.387,0.000
1709299705.239,-49.316,-43.945,-31.738,-42.480,0.000
1709299705.243,-51.270,-38.086,-32.715,-41.504,0.000
1709299705.247,-49.805,-34.668,-31.250,-45.410,0.000
1709299705.251,-45.410,-27.344,-28.809,-50.781,0.000
1709299705.255,-48.340,-32.715,-31.738,-45.410,0.000
1709299705.259,-41.992,-40.039,-35.645,-41.992,0.000
1709299705.263,-39.551,-32.227,-37.598,-45.410,0.000
1709299705.267,-51.270,-32.227,-41.504,-53.223,0.000
1709299705.270,-49.805,-30.762,-43.945,-66.895,0.000
1709299705.274,-40.527,-25.879,-33.691,-49.316,0.000
1709299705.278,-36.133,-28.809,-37.109,-35.645,0.000
1709299705.282,-34.180,-32.227,-41.016,-42.969,0.000
1709299705.286,-37.109,-35.156,-35.156,-42.480,0.000
1709299705.290,-33.203,-39.551,-32.227,-34.180,0.000
1709299705.294,-21.973,-44.922,-25.391,-28.320,0.000
1709299705.298,-16.113,-37.598,-24.414,-29.297,0.000
1709299705.302,-22.461,-32.227,-24.902,-34.180,0.000
1709299705.306,-26.367,-28.809,-27.832,-37.109,0.000
1709299705.309,-17.090,-34.180,-31.738,-36.133,0.000
1709299705.313,-20.996,-41.992,-28.809,-46.387,0.000
1709299705.317,-31.738,-28.320,-27.344,-49.316,0.000
1709299705.321,-34.668,-23.926,-29.297,-45.410,0.000
1709299705.325,-31.738,-26.367,-28.320,-43.945,0.000
1709299705.329,-35.645,-24.414,-29.297,-43.457,0.000
1709299705.333,-45.898,-28.320,-31.250,-43.945,0.000
1709299705.337,-36.621,-31.250,-33.203,-31.250,0.000
1709299705.341,-33.203,-34.180,-33.691,-29.785,0.000
1709299705.344,-41.504,-31.738,-33.203,-37.598,0.000
1709299705.348,-47.852,-36.133,-35.645,-42.969,0.000
1709299705.352,-46.875,-45.898,-42.969,-48.340,0.000
1709299705.356,-38.086,-44.922,-44.922,-50.293,0.000
1709299705.360,-29.785,-36.621,-36.621,-45.898,0.000
1709299705.364,-24.902,-36.621,-30.273,-40.039,0.000
1709299705.368,-26.855,-38.574,-33.691,-47.852,0.000
1709299705.371,-36.621,-33.203,-32.715,-43.457,0.000
1709299705.375,-34.180,-31.250,-40.527,-32.227,0.000
1709299705.379,-30.273,-36.621,-49.316,-33.691,0.000
1709299705.383,-26.367,-36.133,-30.762,-40.527,0.000
1709299705.387,-26.855,-35.156,-19.043,-33.203,0.000
1709299705.391,-24.902,-39.062,-25.391,-28.320,0.000
1709299705.395,-23.926,-39.062,-32.227,-35.156,0.000
1709299705.399,-21.973,-40.527,-39.062,-34.180,0.000
1709299705.403,-18.555,-41.504,-42.969,-27.344,0.000
1709299705.407,-20.508,-39.551,-42.969,-29.297,0.000
1709299705.410,-21.484,-36.621,-49.316,-29.785,0.000
1709299705.414,-23.438,-36.133,-47.363,-18.066,0.000
1709299705.418,-20.508,-38.086,-36.621,-16.113,0.000
1709299705.422,-21.484,-37.109,-33.691,-23.438,0.000
1709299705.426,-20.508,-44.434,-34.668,-26.855,0.000
1709299705.430,-26.855,-52.734,-31.738,-36.621,0.000
1709299705.434,-41.016,-47.363,-36.621,-26.855,0.000
1709299705.438,-42.969,-40.527,-44.434,-24.414,0.000
1709299705.441,-35.156,-32.227,-42.480,-36.621,0.000
1709299705.445,-24.902,-25.391,-38.086,-28.320,0.000
1709299705.449,-28.809,-31.738,-38.086,-32.227,0.000
1709299705.453,-40.527,-41.016,-36.621,-45.898,0.000
1709299705.457,-35.156,-41.016,-40.039,-43.945,0.000
1709299705.460,-26.367,-39.551,-35.645,-40.527,0.000
1709299705.464,-23.438,-39.062,-27.832,-35.645,0.000
1709299705.468,-24.414,-40.039,-27.832,-31.250,0.000
1709299705.472,-36.133,-45.898,-24.414,-34.180,0.000
1709299705.476,-40.039,-49.805,-26.367,-31.738,0.000
1709299705.480,-36.621,-47.363,-27.344,-24.902,0.000
1709299705.484,-43.457,-39.551,-28.320,-28.809,0.000
1709299705.488,-47.852,-36.133,-34.180,-33.203,0.000
1709299705.492,-45.898,-36.621,-32.227,-36.133,0.000
1709299705.496,-38.086,-45.410,-27.344,-31.738,0.000
1709299705.500,-25.391,-47.852,-30.273,-28.809,0.000
1709299705.504,-30.762,-40.527,-30.273,-35.156,0.000
1709299705.508,-34.668,-33.203,-37.598,-50.781,0.000
1709299705.512,-32.715,-28.320,-40.527,-54.688,0.000
1709299705.515,-39.062,-36.133,-35.156,-44.922,0.000
1709299705.519,-39.062,-28.809,-36.621,-41.016,0.000
1709299705.523,-43.945,-27.344,-40.039,-59.082,0.000
1709299705.527,-50.781,-35.645,-41.504,-55.176,0.000
1709299705.531,-48.340,-39.062,-40.039,-37.109,0.000
1709299705.535,-43.945,-41.016,-41.016,-37.598,0.000
1709299705.539,-50.781,-38.574,-44.434,-35.645,0.000
1709299705.543,-49.316,-24.902,-37.109,-34.180,0.000
1709299705.547,-42.969,-19.531,-31.738,-40.527,0.000
1709299705.552,-46.875,-32.715,-30.273,-42.480,0.000
1709299705.556,-49.316,-35.645,-30.273,-44.922,0.000
1709299705.560,-44.922,-35.156,-31.738,-42.969,0.000
1709299705.563,-46.875,-41.504,-32.227,-38.086,0.000
1709299705.567,-49.805,-43.457,-32.227,-29.297,0.000
1709299705.571,-45.898,-47.363,-36.133,-38.574,0.000
1709299705.575,-43.457,-49.805,-42.969,-47.852,0.000
1709299705.579,-50.293,-42.969,-33.203,-44.434,0.000
1709299705.583,-54.199,-37.109,-31.250,-38.086,0.000
1709299705.587,-55.664,-37.109,-37.598,-36.621,0.000
1709299705.591,-50.293,-31.250,-31.250,-46.875,0.000
1709299705.595,-42.969,-25.391,-26.367,-40.039,0.000
1709299705.599,-47.852,-31.250,-31.738,-33.203,0.000
1709299705.603,-49.316,-36.133,-35.156,-41.504,0.000
1709299705.606,-43.945,-32.715,-31.250,-56.152,0.000
1709299705.610,-45.410,-30.762,-28.320,-55.176,0.000
1709299705.614,-48.828,-31.738,-29.297,-43.945,0.000
1709299705.618,-39.062,-29.785,-24.902,-34.180,0.000
1709299705.622,-41.016,-35.645,-26.367,-41.992,0.000
1709299705.626,-45.410,-40.527,-31.250,-52.246,0.000
1709299705.630,-39.551,-33.203,-30.762,-38.574,0.000
1709299705.634,-40.527,-33.203,-28.809,-32.715,0.000
1709299705.638,-41.992,-36.621,-27.832,-36.621,0.000
1709299705.642,-46.875,-34.180,-23.438,-36.621,0.000
1709299705.645,-46.387,-38.086,-31.738,-39.062,0.000
1709299705.649,-46.387,-41.016,-37.598,-47.363,0.000
1709299705.653,-47.852,-39.062,-32.715,-49.316,0.000
1709299705.657,-39.551,-35.645,-30.762,-43.457,0.000
1709299705.661,-39.551,-36.133,-26.367,-45.898,0.000
1709299705.665,-36.133,-37.598,-33.203,-46.875,0.000
1709299705.669,-37.109,-35.156,-38.574,-50.293,0.000
1709299705.673,-39.062,-34.668,-32.227,-39.551,0.000
1709299705.677,-31.250,-33.203,-32.227,-21.484,0.000
1709299705.681,-35.645,-33.691,-37.598,-28.320,0.000
1709299705.685,-41.504,-48.340,-34.180,-37.598,0.000
1709299705.688,-44.434,-43.945,-35.645,-42.480,0.000
1709299705.692,-44.922,-38.086,-34.668,-28.320,0.000
1709299705.696,-34.668,-44.922,-25.391,-10.254,0.000
1709299705.700,-38.574,-24.414,-22.461,-19.531,0.000
1709299705.704,-47.363,-15.137,-24.414,-29.297,0.000
1709299705.708,-47.852,-23.438,-29.785,-36.621,0.000
1709299705.712,-46.875,-33.691,-28.809,-40.527,0.000
1709299705.716,-36.133,-38.086,-30.762,-40.527,0.000
1709299705.719,-26.367,-36.133,-39.551,-27.344,0.000
1709299705.723,-21.484,-40.039,-33.203,-25.391,0.000
1709299705.727,-24.414,-39.551,-24.902,-41.992,0.000
1709299705.731,-31.738,-26.367,-27.344,-39.551,0.000
1709299705.735,-35.645,-25.391,-32.715,-37.598,0.000
