timestamps,TP9,AF7,AF8,TP10,Right AUX
1709297982.298,-54.199,-39.551,-40.039,-58.594,0.000
1709297982.302,-54.199,-42.480,-38.086,-46.875,0.000
1709297982.306,-49.805,-41.016,-34.668,-39.551,0.000
1709297982.310,-49.316,-41.016,-38.086,-45.410,0.000
1709297982.314,-53.711,-41.504,-42.969,-56.152,0.000
1709297982.318,-56.152,-39.062,-40.527,-55.176,0.000
1709297982.321,-52.734,-40.039,-46.875,-45.898,0.000
1709297982.325,-50.781,-37.109,-44.922,-39.551,0.000
1709297982.329,-54.688,-32.715,-39.551,-35.156,0.000
1709297982.333,-50.293,-33.203,-44.922,-38.086,0.000
1709297982.337,-46.387,-32.715,-44.922,-47.852,0.000
1709297982.341,-41.992,-33.203,-40.039,-40.527,0.000
1709297982.345,-34.668,-33.203,-39.551,-29.785,0.000
1709297982.349,-38.574,-33.691,-38.574,-41.992,0.000
1709297982.353,-47.363,-34.668,-38.086,-48.828,0.000
1709297982.357,-52.734,-33.691,-40.527,-46.875,0.000
1709297982.361,-50.781,-31.738,-40.039,-41.992,0.000
1709297982.364,-48.828,-33.691,-41.504,-40.039,0.000
1709297982.368,-53.223,-34.180,-42.969,-44.434,0.000
1709297982.372,-58.594,-35.645,-45.410,-45.410,0.000
1709297982.376,-61.523,-43.945,-49.316,-46.387,0.000
1709297982.380,-53.223,-38.086,-47.852,-46.875,0.000
1709297982.384,-40.527,-32.227,-43.457,-44.922,0.000
1709297982.388,-37.598,-34.668,-42.969,-37.598,0.000
1709297982.392,-40.527,-35.645,-49.805,-37.109,0.000
1709297982.396,-44.922,-32.715,-48.340,-40.527,0.000
1709297982.400,-43.945,-35.645,-39.062,-37.109,0.000
1709297982.404,-43.945,-39.551,-40.039,-24.414,0.000
1709297982.407,-42.480,-36.133,-40.527,-20.020,0.000
1709297982.411,-42.480,-33.203,-37.109,-29.297,0.000
1709297982.415,-39.062,-34.180,-34.668,-33.203,0.000
1709297982.419,-33.203,-36.621,-35.645,-22.461,0.000
1709297982.423,-38.574,-34.180,-35.645,-15.625,0.000
1709297982.427,-39.551,-34.668,-37.598,-21.973,0.000
1709297982.431,-40.527,-40.527,-44.434,-38.574,0.000
1709297982.435,-45.898,-40.527,-42.969,-38.086,0.000
1709297982.439,-46.875,-35.156,-42.480,-20.020,0.000
1709297982.443,-48.340,-34.668,-44.922,-14.160,0.000
1709297982.446,-46.875,-37.109,-41.992,-23.438,0.000
1709297982.450,-44.922,-37.109,-35.645,-32.227,0.000
1709297982.454,-53.223,-39.551,-33.691,-42.480,0.000
1709297982.458,-63.965,-37.109,-35.645,-40.039,0.000
1709297982.462,-64.941,-37.598,-40.527,-30.762,0.000
1709297982.466,-61.035,-42.969,-41.992,-31.738,0.000
1709297982.470,-55.664,-36.621,-37.109,-34.180,0.000
1709297982.474,-56.641,-32.227,-36.621,-41.016,0.000
1709297982.478,-57.129,-30.273,-30.762,-33.691,0.000
1709297982.482,-51.758,-29.785,-32.715,-17.578,0.000
1709297982.486,-48.828,-37.598,-43.457,-17.090,0.000
1709297982.489,-46.875,-38.574,-41.016,-25.879,0.000
1709297982.493,-56.641,-38.086,-39.551,-36.133,0.000
1709297982.497,-58.594,-39.062,-43.457,-47.363,0.000
1709297982.501,-50.293,-33.691,-41.992,-47.363,0.000
1709297982.505,-49.805,-31.250,-38.574,-37.598,0.000
1709297982.509,-48.340,-31.250,-35.156,-47.363,0.000
1709297982.513,-53.711,-31.250,-37.109,-53.223,0.000
1709297982.517,-51.758,-33.691,-42.480,-45.410,0.000
1709297982.521,-49.805,-32.715,-43.945,-37.598,0.000
1709297982.525,-58.594,-32.227,-44.922,-34.180,0.000
1709297982.528,-62.988,-35.156,-45.898,-39.062,0.000
1709297982.532,-61.523,-37.109,-46.875,-48.828,0.000
1709297982.536,-55.664,-34.668,-41.504,-53.711,0.000
1709297982.540,-56.641,-34.668,-38.574,-47.363,0.000
1709297982.544,-55.664,-39.551,-42.480,-46.387,0.000
1709297982.548,-56.641,-41.016,-38.086,-34.180,0.000
1709297982.552,-62.012,-42.480,-36.621,-33.203,0.000
1709297982.556,-56.152,-39.551,-39.062,-39.062,0.000
1709297982.560,-46.387,-39.551,-41.992,-21.973,0.000
1709297982.564,-42.969,-42.480,-49.316,-19.043,0.000
1709297982.568,-44.434,-40.527,-47.852,-27.344,0.000
1709297982.571,-49.316,-41.504,-43.457,-38.086,0.000
1709297982.575,-45.410,-42.969,-42.480,-55.176,0.000
1709297982.579,-45.410,-43.457,-44.434,-53.223,0.000
1709297982.583,-48.828,-42.969,-42.969,-32.227,0.000
1709297982.587,-44.922,-44.922,-41.504,-22.461,0.000
1709297982.591,-48.828,-44.434,-43.457,-34.668,0.000
1709297982.595,-46.875,-41.016,-41.504,-43.945,0.000
1709297982.599,-43.457,-43.457,-42.480,-34.180,0.000
1709297982.603,-45.410,-45.898,-45.410,-16.113,0.000
1709297982.607,-44.434,-44.434,-50.781,-22.461,0.000
1709297982.611,-39.551,-41.016,-49.316,-43.457,0.000
1709297982.614,-37.598,-40.039,-43.945,-44.922,0.000
1709297982.618,-43.457,-36.133,-41.992,-39.062,0.000
1709297982.622,-38.086,-31.250,-38.086,-33.203,0.000
1709297982.626,-32.227,-32.227,-37.598,-25.391,0.000
1709297982.630,-33.691,-30.273,-39.062,-24.414,0.000
1709297982.634,-30.762,-33.203,-40.527,-30.273,0.000
1709297982.638,-36.133,-38.574,-43.457,-41.504,0.000
1709297982.642,-38.574,-39.551,-39.551,-30.273,0.000
1709297982.646,-33.691,-38.574,-35.645,-17.090,0.000
1709297982.650,-31.250,-37.109,-36.621,-29.297,0.000
1709297982.653,-32.227,-38.086,-37.598,-45.410,0.000
1709297982.657,-30.762,-38.574,-34.180,-45.410,0.000
1709297982.661,-29.297,-40.039,-37.109,-21.484,0.000
1709297982.665,-34.668,-40.039,-42.969,-14.160,0.000
1709297982.669,-37.598,-38.086,-39.551,-29.785,0.000
1709297982.673,-38.086,-35.156,-35.156,-30.273,0.000
1709297982.677,-40.039,-34.668,-37.598,-35.645,0.000
1709297982.681,-40.527,-35.645,-36.621,-37.109,0.000
1709297982.685,-35.645,-33.691,-34.668,-26.367,0.000
1709297982.689,-36.621,-33.203,-35.156,-27.344,0.000
1709297982.693,-38.574,-34.180,-34.180,-36.133,0.000
1709297982.696,-38.574,-33.691,-37.598,-41.504,0.000
1709297982.700,-40.527,-32.715,-39.551,-34.668,0.000
1709297982.704,-41.016,-34.668,-41.504,-28.809,0.000
1709297982.708,-38.086,-34.180,-39.551,-27.344,0.000
1709297982.712,-37.598,-33.691,-36.133,-34.668,0.000
1709297982.716,-36.621,-34.668,-34.180,-31.250,0.000
1709297982.720,-26.367,-28.809,-28.809,-15.137,0.000
1709297982.724,-25.391,-26.855,-25.879,-17.578,0.000
1709297982.728,-35.156,-29.785,-27.832,-23.926,0.000
1709297982.732,-37.598,-31.738,-32.715,-31.738,0.000
1709297982.736,-37.598,-33.203,-36.621,-38.086,0.000
1709297982.739,-38.574,-38.086,-34.668,-25.879,0.000
1709297982.743,-38.086,-37.598,-32.227,-16.602,0.000
1709297982.747,-41.504,-32.227,-35.156,-30.273,0.000
1709297982.751,-43.457,-33.691,-33.691,-33.691,0.000
1709297982.755,-42.969,-34.180,-33.691,-29.297,0.000
1709297982.759,-46.387,-35.156,-38.574,-36.621,0.000
1709297982.763,-46.387,-41.992,-40.527,-34.180,0.000
1709297982.767,0.000,-40.039,-39.062,-26.855,0.000
1709297982.771,0.000,-35.645,-35.645,-29.785,0.000
1709297982.775,0.000,-38.086,-37.598,-49.805,0.000
1709297982.779,0.000,-36.621,-41.016,-48.340,0.000
1709297982.782,0.000,-31.250,-36.621,-34.668,0.000
1709297982.786,0.000,-32.227,-36.133,-42.480,0.000
1709297982.790,0.000,-35.645,-41.016,-59.082,0.000
1709297982.794,0.000,-38.086,-43.945,-62.988,0.000
1709297982.798,0.000,-40.039,-40.527,-50.293,0.000
1709297982.802,0.000,-37.109,-40.527,-41.016,0.000
1709297982.806,0.000,-35.645,-40.527,-40.039,0.000
1709297982.810,0.000,-35.156,-35.156,-44.922,0.000
1709297982.814,-46.387,-37.109,-35.645,-56.152,0.000
1709297982.818,-38.574,-35.156,-33.691,-45.898,0.000
1709297982.822,-40.527,-38.086,-36.621,-32.227,0.000
1709297982.825,-44.434,-40.527,-40.039,-28.320,0.000
1709297982.829,-46.387,-42.969,-40.527,-28.320,0.000
1709297982.833,-46.387,-45.410,-42.969,-40.039,0.000
1709297982.837,-45.410,-41.992,-43.945,-53.223,0.000
1709297982.841,-46.387,-42.480,-43.945,-41.992,0.000
1709297982.845,-43.457,-41.504,-39.062,-25.391,0.000
1709297982.849,-39.551,-44.434,-37.598,-34.668,0.000
1709297982.853,-36.621,-48.828,-41.504,-47.363,0.000
1709297982.857,-36.133,-46.875,-44.434,-42.969,0.000
1709297982.861,-34.668,-46.875,-43.945,-30.762,0.000
1709297982.864,-31.250,-39.062,-37.109,-23.926,0.000
1709297982.868,-37.598,-40.039,-32.715,-27.832,0.000
1709297982.872,-39.551,-42.480,-36.133,-42.969,0.000
1709297982.876,-37.598,-42.969,-43.945,-43.457,0.000
1709297982.880,-38.574,-43.945,-45.410,-38.574,0.000
1709297982.884,-28.320,-39.551,-39.551,-28.320,0.000
1709297982.888,-30.762,-37.109,-34.180,-26.855,0.000
1709297982.892,-45.410,-41.504,-35.645,-46.875,0.000
1709297982.896,-38.574,-39.551,-38.086,-52.734,0.000
1709297982.900,-32.227,-33.203,-34.668,-38.574,0.000
1709297982.904,-39.062,-36.621,-34.668,-33.691,0.000
1709297982.907,-41.016,-39.062,-37.109,-38.574,0.000
1709297982.911,-42.969,-36.621,-36.621,-47.852,0.000
1709297982.915,-46.387,-37.109,-41.504,-47.363,0.000
1709297982.919,-41.504,-37.598,-46.387,-41.016,0.000
1709297982.923,-41.992,-38.574,-41.992,-31.250,0.000
1709297982.927,-41.992,-40.039,-40.527,-28.320,0.000
1709297982.931,-41.992,-42.480,-43.945,-35.645,0.000
1709297982.935,-43.457,-46.387,-45.410,-42.969,0.000
1709297982.939,-41.504,-41.992,-43.945,-42.969,0.000
1709297982.943,-39.551,-37.109,-41.992,-29.297,0.000
1709297982.946,-41.016,-39.062,-42.969,-35.156,0.000
1709297982.950,-41.992,-39.062,-44.434,-43.945,0.000
1709297982.954,-46.875,-38.574,-46.387,-46.875,0.000
1709297982.958,-50.293,-36.133,-43.457,-43.457,0.000
1709297982.962,-46.875,-34.180,-42.480,-28.320,0.000
1709297982.966,-45.410,-37.598,-44.434,-20.020,0.000
1709297982.970,-48.340,-39.062,-45.898,-33.691,0.000
1709297982.974,-50.293,-40.527,-41.992,-46.875,0.000
1709297982.978,-50.293,-40.527,-39.551,-33.203,0.000
1709297982.982,-46.387,-36.621,-45.410,-29.297,0.000
1709297982.986,-38.574,-36.133,-44.434,-32.227,0.000
1709297982.989,-38.574,-38.086,-42.969,-34.668,0.000
1709297982.993,-37.109,-36.133,-41.016,-41.504,0.000
1709297982.997,-35.156,-35.645,-37.109,-43.945,0.000
1709297983.001,-33.691,-36.133,-36.621,-36.133,0.000
1709297983.005,-35.156,-37.109,-40.039,-26.367,0.000
1709297983.009,-32.227,-36.621,-41.992,-24.902,0.000
1709297983.013,-20.996,-32.227,-36.133,-33.691,0.000
1709297983.017,-29.297,-34.180,-35.645,-38.086,0.000
1709297983.021,-34.180,-32.715,-35.156,-19.531,0.000
1709297983.025,-19.531,-28.320,-33.691,-10.742,0.000
1709297983.028,-18.066,-30.273,-37.598,-17.578,0.000
1709297983.032,-22.949,-31.738,-40.527,-36.133,0.000
1709297983.036,-27.344,-32.715,-39.062,-30.762,0.000
1709297983.040,-28.320,-33.691,-41.504,-20.996,0.000
1709297983.044,-22.949,-35.156,-44.922,-25.879,0.000
1709297983.048,-31.250,-44.434,-45.410,-34.180,0.000
1709297983.052,-36.133,-41.992,-41.992,-47.852,0.000
1709297983.056,-32.715,-35.645,-40.527,-46.875,0.000
1709297983.060,-39.551,-39.062,-43.457,-39.551,0.000
1709297983.064,-38.574,-38.574,-43.457,-23.438,0.000
1709297983.068,-35.645,-30.762,-37.598,-23.926,0.000
1709297983.071,-37.109,-28.320,-36.621,-36.621,0.000
1709297983.075,-38.574,-33.203,-39.062,-40.527,0.000
1709297983.079,-42.969,-32.715,-38.086,-41.504,0.000
1709297983.083,-42.480,-31.738,-38.086,-36.621,0.000
1709297983.087,-49.316,-33.691,-39.551,-31.738,0.000
1709297983.091,-43.945,-31.738,-34.668,-35.645,0.000
1709297983.095,-39.062,-33.203,-32.715,-42.480,0.000
1709297983.099,-47.852,-37.598,-36.621,-33.691,0.000
1709297983.103,-50.781,-36.133,-37.598,-26.367,0.000
1709297983.107,-46.875,-34.668,-37.109,-31.738,0.000
1709297983.111,-47.852,-31.738,-36.621,-35.156,0.000
1709297983.114,-54.688,-29.297,-36.133,-41.504,0.000
1709297983.118,-51.758,-32.715,-37.598,-44.434,0.000
1709297983.122,-44.434,-27.832,-36.133,-34.668,0.000
1709297983.126,-42.480,-29.297,-35.156,-24.414,0.000
1709297983.130,-43.945,-33.203,-40.039,-32.227,0.000
1709297983.134,-38.086,-30.273,-39.551,-43.945,0.000
1709297983.138,-40.527,-31.250,-34.668,-27.344,0.000
1709297983.142,-47.852,-34.180,-32.715,-13.184,0.000
1709297983.146,-42.480,-36.133,-30.762,-13.184,0.000
1709297983.150,-44.922,-38.086,-31.738,-30.273,0.000
1709297983.154,-39.062,-39.551,-40.039,-27.344,0.000
1709297983.157,-17.578,-37.598,-38.574,-4.395,0.000
1709297983.161,-12.207,-40.527,-24.902,0.000,0.000
1709297983.165,-38.574,-45.898,-21.484,-14.160,0.000
1709297983.169,-47.363,-49.316,-26.367,-21.484,0.000
1709297983.173,-34.180,-50.781,-31.250,-20.020,0.000
1709297983.177,-43.945,-60.059,-32.227,-35.156,0.000
1709297983.181,-42.969,-71.289,-28.809,-26.855,0.000
1709297983.185,-37.598,-79.102,-22.461,-11.719,0.000
1709297983.189,-44.434,-83.984,-16.602,-11.719,0.000
1709297983.193,-42.480,-87.402,-10.254,-11.230,0.000
1709297983.196,-40.039,-97.168,-7.324,-13.184,0.000
1709297983.200,-47.363,-103.516,-4.395,-9.766,0.000
1709297983.204,-48.340,-104.492,1.953,-5.859,0.000
1709297983.208,-49.805,-108.887,6.348,-2.930,0.000
1709297983.212,-53.223,-111.328,6.836,-21.484,0.000
1709297983.216,-52.246,-112.305,9.766,-32.227,0.000
1709297983.220,-54.199,-114.258,17.578,-19.043,0.000
1709297983.224,-50.781,-113.770,21.484,-9.277,0.000
1709297983.228,-51.270,-121.094,17.578,-10.742,0.000
1709297983.232,-50.781,-119.629,17.090,-18.555,0.000
1709297983.236,-34.668,-111.328,21.484,-9.766,0.000
1709297983.239,-23.438,-113.281,24.902,10.254,0.000
1709297983.243,-33.203,-120.605,24.414,12.207,0.000
1709297983.247,-30.273,-122.559,21.484,10.254,0.000
1709297983.251,-15.625,-121.094,23.438,14.648,0.000
1709297983.255,-5.859,-120.117,21.973,6.348,0.000
1709297983.259,-3.418,-120.605,20.020,23.926,0.000
1709297983.263,2.441,-120.605,17.578,54.199,0.000
1709297983.267,22.949,-115.234,12.207,57.129,0.000
1709297983.271,30.273,-112.793,13.672,50.293,0.000
1709297983.275,33.691,-111.328,15.625,51.270,0.000
1709297983.278,40.527,-106.445,10.742,57.129,0.000
1709297983.282,45.898,-103.027,6.348,67.871,0.000
1709297983.286,54.688,-96.191,4.395,82.520,0.000
1709297983.290,46.875,-90.820,6.836,73.242,0.000
1709297983.294,44.434,-91.797,0.977,57.129,0.000
1709297983.298,59.570,-89.355,-5.371,74.219,0.000
1709297983.302,59.570,-84.961,-0.977,84.473,0.000
1709297983.306,47.852,-82.520,-3.418,77.637,0.000
1709297983.310,31.250,-86.426,-7.324,61.523,0.000
1709297983.314,41.504,-81.543,-8.301,46.387,0.000
1709297983.318,60.547,-73.242,-7.812,64.941,0.000
1709297983.321,47.363,-70.801,-10.742,70.312,0.000
1709297983.325,36.621,-70.801,-15.625,63.477,0.000
1709297983.329,35.645,-70.312,-17.578,55.176,0.000
1709297983.333,33.691,-65.430,-17.090,43.457,0.000
1709297983.337,39.062,-64.453,-15.137,48.828,0.000
1709297983.341,39.551,-67.871,-19.531,62.012,0.000
1709297983.345,35.156,-66.895,-26.855,64.453,0.000
1709297983.349,33.203,-65.430,-35.645,49.316,0.000
1709297983.353,22.461,-67.871,-41.504,36.133,0.000
1709297983.357,24.414,-68.359,-39.062,28.320,0.000
1709297983.360,28.320,-63.965,-34.180,38.574,0.000
1709297983.364,28.809,-60.059,-30.762,56.152,0.000
1709297983.368,28.320,-60.547,-34.668,47.363,0.000
1709297983.372,26.855,-61.035,-35.156,26.367,0.000
1709297983.376,26.855,-59.082,-32.227,16.113,0.000
1709297983.380,19.531,-58.594,-33.691,29.785,0.000
1709297983.384,17.578,-57.617,-33.203,42.969,0.000
1709297983.388,17.578,-50.293,-33.203,33.691,0.000
1709297983.392,8.301,-49.805,-36.133,13.672,0.000
1709297983.396,4.883,-53.223,-34.668,18.555,0.000
1709297983.399,11.719,-46.875,-31.250,27.832,0.000
1709297983.403,10.254,-41.992,-34.668,20.996,0.000
1709297983.407,5.859,-41.504,-38.574,3.906,0.000
1709297983.411,-2.930,-43.457,-40.039,-20.508,0.000
1709297983.415,-8.789,-49.805,-39.062,-18.555,0.000
1709297983.419,-4.883,-47.852,-40.039,-13.672,0.000
1709297983.423,0.977,-41.992,-39.551,-5.371,0.000
1709297983.427,3.906,-38.574,-39.062,2.930,0.000
1709297983.431,-4.395,-39.062,-41.992,-7.812,0.000
1709297983.435,-5.371,-39.062,-43.457,-16.113,0.000
1709297983.439,0.977,-41.504,-41.504,-19.043,0.000
1709297983.442,-3.418,-41.504,-38.086,-14.160,0.000
1709297983.446,-12.207,-36.621,-36.133,-11.719,0.000
1709297983.450,-19.531,-36.133,-31.738,-17.578,0.000
1709297983.454,-24.902,-39.062,-32.715,-20.508,0.000
1709297983.458,-23.926,-41.016,-31.738,-10.254,0.000
1709297983.462,-22.949,-43.457,-32.715,-5.371,0.000
1709297983.466,-27.832,-48.340,-35.645,-24.414,0.000
1709297983.470,-32.227,-46.875,-33.691,-30.762,0.000
1709297983.474,-35.645,-40.039,-30.273,-28.809,0.000
1709297983.478,-41.992,-40.039,-31.738,-23.438,0.000
1709297983.482,-45.410,-42.480,-36.133,-17.578,0.000
1709297983.485,-39.551,-41.992,-32.715,-14.648,0.000
1709297983.489,-30.273,-42.480,-31.250,-15.625,0.000
1709297983.493,-25.391,-36.621,-35.645,-31.738,0.000
1709297983.497,-24.902,-32.715,-36.621,-35.156,0.000
1709297983.501,-33.691,-38.574,-37.109,-28.809,0.000
1709297983.505,-31.738,-36.133,-41.504,-19.531,0.000
1709297983.509,-16.602,-36.621,-42.480,-21.484,0.000
1709297983.513,-38.086,-44.922,-38.086,-49.805,0.000
1709297983.517,-46.387,-44.922,-36.133,-44.434,0.000
1709297983.521,-27.832,-41.016,-33.691,-23.926,0.000
1709297983.525,-34.180,-40.527,-32.715,-24.902,0.000
1709297983.528,-35.156,-44.922,-31.250,-17.090,0.000
1709297983.532,-30.762,-51.270,-35.645,-22.949,0.000
1709297983.536,-37.598,-50.781,-34.180,-28.320,0.000
1709297983.540,-41.504,-45.410,-30.273,-32.715,0.000
1709297983.544,-34.180,-45.898,-30.273,-20.020,0.000
1709297983.548,-24.414,-44.922,-30.762,-6.836,0.000
1709297983.552,-27.832,-42.480,-28.320,-20.508,0.000
1709297983.556,-34.668,-45.898,-28.809,-24.902,0.000
1709297983.560,-35.645,-46.387,-28.809,-18.555,0.000
1709297983.564,-34.668,-44.922,-26.855,-11.230,0.000
1709297983.567,-31.738,-43.945,-27.344,-24.414,0.000
1709297983.571,-32.227,-44.434,-27.344,-48.340,0.000
1709297983.575,-37.598,-42.969,-26.855,-44.434,0.000
1709297983.579,-40.527,-41.016,-24.414,-37.109,0.000
1709297983.583,-35.156,-39.551,-25.391,-23.438,0.000
1709297983.587,-28.809,-37.598,-23.926,-11.719,0.000
1709297983.591,-34.180,-40.527,-23.926,-12.695,0.000
1709297983.595,-36.621,-43.457,-23.926,-18.555,0.000
1709297983.599,-39.551,-41.992,-23.926,-26.367,0.000
1709297983.603,-47.363,-48.828,-30.273,-17.090,0.000
1709297983.607,-42.480,-48.340,-29.785,-12.207,0.000
1709297983.610,-33.203,-41.016,-29.297,-27.832,0.000
1709297983.614,-40.527,-43.457,-28.320,-35.156,0.000
1709297983.618,-48.340,-45.898,-31.738,-27.832,0.000
1709297983.622,-44.434,-46.875,-40.039,-18.066,0.000
1709297983.626,-40.527,-44.434,-40.039,-20.020,0.000
1709297983.630,-40.527,-42.480,-37.598,-26.367,0.000
1709297983.634,-43.457,-41.504,-36.133,-39.551,0.000
1709297983.638,-50.293,-40.527,-38.086,-41.504,0.000
1709297983.642,-46.387,-39.062,-37.598,-27.832,0.000
1709297983.646,-40.527,-37.598,-34.668,-28.320,0.000
1709297983.649,-34.180,-40.039,-34.180,-27.832,0.000
1709297983.653,-30.762,-41.016,-33.691,-39.551,0.000
1709297983.657,-39.551,-40.039,-37.598,-51.758,0.000
1709297983.661,-45.898,-41.504,-37.109,-41.504,0.000
1709297983.665,-43.457,-40.527,-35.156,-34.668,0.000
1709297983.669,-43.945,-37.598,-35.645,-33.203,0.000
1709297983.673,-54.688,-43.457,-38.574,-43.457,0.000
1709297983.677,-59.082,-39.062,-40.527,-43.945,0.000
1709297983.681,-56.641,-42.969,-40.039,-31.738,0.000
1709297983.685,-45.898,-45.898,-39.551,-31.250,0.000
1709297983.689,-36.621,-34.668,-37.109,-35.645,0.000
1709297983.692,-39.551,-35.156,-36.621,-47.852,0.000
1709297983.696,-47.852,-40.039,-33.203,-50.781,0.000
1709297983.700,-56.152,-44.922,-33.691,-38.086,0.000
1709297983.704,-52.246,-41.016,-38.574,-31.250,0.000
1709297983.708,-40.527,-37.598,-35.645,-34.668,0.000
1709297983.712,-39.062,-41.992,-36.133,-46.387,0.000
1709297983.716,-38.086,-39.551,-33.203,-40.527,0.000
1709297983.720,-28.320,-39.062,-31.250,-29.297,0.000
1709297983.724,-30.762,-41.992,-32.715,-22.461,0.000
1709297983.728,-42.969,-42.969,-35.156,-20.020,0.000
1709297983.731,-42.969,-44.922,-38.086,-26.855,0.000
1709297983.735,-31.738,-41.016,-35.645,-28.320,0.000
1709297983.739,-27.344,-37.598,-30.762,-17.578,0.000
1709297983.743,-33.203,-36.133,-29.785,-13.672,0.000
1709297983.747,-31.738,-34.180,-30.762,-19.043,0.000
1709297983.751,-29.785,-33.691,-36.133,-25.879,0.000
1709297983.755,-36.133,-36.621,-41.016,-43.457,0.000
1709297983.759,-41.016,-39.551,-39.062,-40.527,0.000
1709297983.763,-40.527,-41.992,-43.457,-28.809,0.000
1709297983.767,-41.992,-41.992,-48.828,-35.645,0.000
1709297983.770,-48.828,-42.480,-46.875,-28.809,0.000
1709297983.774,-44.922,-42.480,-38.574,-21.484,0.000
1709297983.778,-32.715,-39.062,-35.645,-30.762,0.000
1709297983.782,-30.762,-34.180,-35.645,-30.762,0.000
1709297983.786,-31.738,-35.156,-35.645,-29.785,0.000
1709297983.790,-39.062,-38.086,-37.109,-36.133,0.000
1709297983.794,-36.133,-37.598,-36.133,-39.551,0.000
1709297983.798,-34.668,-40.039,-39.062,-39.551,0.000
1709297983.802,-41.016,-44.434,-44.434,-35.156,0.000
1709297983.806,-35.645,-45.898,-40.039,-22.949,0.000
1709297983.810,-27.832,-43.457,-33.203,-21.484,0.000
1709297983.813,-30.273,-42.480,-37.598,-33.203,0.000
1709297983.817,-36.621,-40.039,-39.062,-44.922,0.000
1709297983.821,-49.316,-38.086,-38.574,-50.293,0.000
1709297983.825,-47.852,-36.621,-37.109,-39.062,0.000
1709297983.829,-45.410,-38.086,-36.133,-45.410,0.000
1709297983.833,-49.805,-42.969,-41.504,-57.617,0.000
1709297983.837,-47.363,-41.016,-37.109,-57.129,0.000
1709297983.841,-50.781,-41.016,-36.621,-56.152,0.000
1709297983.845,-42.480,-37.109,-34.180,-42.480,0.000
1709297983.849,-40.527,-35.645,-33.691,-41.016,0.000
1709297983.853,-46.875,-40.039,-38.086,-50.293,0.000
1709297983.856,-41.504,-41.992,-41.992,-51.270,0.000
1709297983.860,-38.086,-38.086,-42.480,-36.621,0.000
1709297983.864,-38.086,-37.109,-41.992,-30.273,0.000
1709297983.868,-41.016,-39.062,-40.527,-38.086,0.000
1709297983.872,-41.992,-39.062,-37.598,-49.805,0.000
1709297983.876,-41.992,-41.992,-39.062,-48.340,0.000
1709297983.880,-43.457,-41.992,-37.109,-29.297,0.000
1709297983.884,-39.551,-41.016,-34.668,-29.297,0.000
1709297983.888,-44.434,-38.086,-34.668,-24.414,0.000
1709297983.892,-50.781,-38.086,-37.109,-32.715,0.000
1709297983.896,-46.875,-39.551,-38.086,-42.480,0.000
1709297983.899,-42.480,-34.180,-34.668,-25.391,0.000
1709297983.903,-39.551,-31.738,-29.297,-10.254,0.000
1709297983.907,-37.109,-32.715,-29.297,-19.043,0.000
1709297983.911,-40.527,-32.715,-39.551,-37.109,0.000
1709297983.915,-40.039,-32.227,-40.527,-37.598,0.000
1709297983.919,-41.504,-35.645,-35.645,-25.391,0.000
1709297983.923,-48.340,-34.668,-36.133,-17.090,0.000
1709297983.927,-54.688,-31.738,-35.645,-17.578,0.000
1709297983.931,-60.547,-33.203,-32.715,-30.273,0.000
1709297983.935,-57.129,-33.203,-34.668,-39.062,0.000
1709297983.938,-54.688,-33.691,-39.551,-41.992,0.000
1709297983.942,-54.199,-33.691,-42.969,-40.039,0.000
1709297983.946,-48.340,-32.227,-40.527,-37.598,0.000
1709297983.950,-50.293,-31.250,-38.574,-36.133,0.000
1709297983.954,-50.293,-33.203,-42.969,-47.852,0.000
1709297983.958,-46.387,-33.203,-40.039,-44.434,0.000
1709297983.962,-45.898,-29.297,-34.668,-27.832,0.000
1709297983.966,-41.992,-31.738,-34.180,-19.043,0.000
1709297983.970,-41.992,-34.180,-32.227,-21.973,0.000
1709297983.974,-48.828,-33.203,-34.180,-43.457,0.000
1709297983.978,-50.293,-35.645,-34.668,-31.250,0.000
1709297983.981,-44.434,-30.273,-29.297,-9.766,0.000
1709297983.985,-42.480,-29.785,-32.227,-25.391,0.000
1709297983.989,-43.457,-31.250,-36.133,-47.852,0.000
1709297983.993,-47.363,-29.785,-36.133,-57.617,0.000
1709297983.997,-39.551,-30.762,-38.574,-50.293,0.000
1709297984.001,-42.480,-34.668,-40.527,-37.598,0.000
1709297984.005,-53.711,-37.598,-37.598,-30.762,0.000
1709297984.009,-56.152,-38.086,-40.527,-37.109,0.000
1709297984.013,-63.965,-39.551,-47.363,-46.875,0.000
1709297984.017,-62.012,-39.062,-41.016,-50.781,0.000
1709297984.020,-60.547,-40.039,-41.016,-54.688,0.000
1709297984.024,-64.453,-40.039,-43.457,-50.781,0.000
1709297984.028,-63.477,-39.062,-44.922,-53.223,0.000
1709297984.032,-51.758,-34.668,-44.434,-65.918,0.000
1709297984.036,-51.758,-33.691,-41.016,-69.824,0.000
1709297984.040,-62.012,-38.574,-42.480,-55.176,0.000
1709297984.044,-53.223,-38.086,-41.016,-37.598,0.000
1709297984.048,-44.922,-34.668,-40.039,-33.203,0.000
1709297984.052,-45.898,-31.738,-44.434,-45.898,0.000
1709297984.056,-47.363,-33.691,-45.898,-48.340,0.000
1709297984.059,-48.340,-39.062,-48.828,-41.016,0.000
1709297984.063,-41.992,-36.133,-48.340,-31.250,0.000
1709297984.067,-39.551,-39.551,-40.527,-30.762,0.000
1709297984.071,-45.410,-45.410,-41.992,-48.340,0.000
1709297984.075,-43.945,-41.016,-45.410,-46.387,0.000
1709297984.079,-35.645,-38.574,-40.039,-29.785,0.000
1709297984.083,-30.273,-38.086,-41.016,-22.461,0.000
1709297984.087,-31.250,-33.203,-43.945,-29.297,0.000
1709297984.091,-35.156,-36.133,-46.875,-47.852,0.000
1709297984.095,-26.855,-39.062,-44.922,-46.875,0.000
1709297984.099,-25.391,-40.527,-40.039,-33.691,0.000
1709297984.102,-26.367,-40.039,-42.969,-24.902,0.000
1709297984.106,-23.438,-32.715,-40.039,-30.273,0.000
1709297984.110,-28.320,-31.250,-34.668,-37.109,0.000
1709297984.114,-27.832,-33.691,-37.598,-38.086,0.000
1709297984.118,-20.020,-34.668,-39.551,-33.203,0.000
1709297984.122,-26.855,-33.691,-41.016,-26.367,0.000
1709297984.126,-33.691,-32.715,-42.480,-28.809,0.000
1709297984.130,-28.809,-33.203,-40.039,-30.762,0.000
1709297984.134,-28.320,-30.762,-40.039,-36.133,0.000
1709297984.138,-38.086,-32.715,-39.551,-36.621,0.000
1709297984.141,-41.504,-33.203,-41.016,-27.832,0.000
1709297984.145,-31.250,-31.738,-43.457,-15.625,0.000
1709297984.149,-16.602,-34.180,-47.363,-22.461,0.000
1709297984.153,-17.090,-36.133,-41.992,-30.762,0.000
1709297984.157,-18.555,-36.621,-37.109,-31.250,0.000
1709297984.161,-22.949,-35.156,-41.504,-22.461,0.000
1709297984.165,-36.621,-35.645,-40.527,-17.578,0.000
1709297984.169,-37.598,-35.645,-40.527,-36.621,0.000
1709297984.173,-28.809,-33.691,-37.109,-46.387,0.000
1709297984.177,-30.273,-32.227,-34.180,-42.480,0.000
1709297984.181,-28.320,-32.227,-35.156,-33.203,0.000
1709297984.184,-22.949,-31.250,-34.668,-24.902,0.000
1709297984.188,-23.438,-33.691,-33.691,-20.508,0.000
1709297984.192,-24.902,-40.039,-32.715,-28.809,0.000
1709297984.196,-24.414,-40.039,-36.621,-36.133,0.000
1709297984.200,-20.996,-36.133,-35.645,-22.461,0.000
1709297984.204,-20.996,-36.133,-33.691,-10.742,0.000
1709297984.208,-27.344,-36.133,-34.668,-17.578,0.000
1709297984.212,-30.273,-31.738,-32.227,-32.227,0.000
1709297984.216,-29.297,-32.715,-33.203,-33.203,0.000
1709297984.220,-19.043,-34.180,-32.227,-20.996,0.000
1709297984.224,-14.160,-32.227,-35.645,-14.160,0.000
1709297984.227,-28.809,-29.297,-40.527,-23.438,0.000
1709297984.231,-33.203,-26.367,-38.086,-38.086,0.000
1709297984.235,-28.320,-29.297,-37.109,-41.504,0.000
1709297984.239,-31.250,-32.715,-38.574,-34.668,0.000
1709297984.243,-32.227,-33.203,-31.250,-32.715,0.000
1709297984.247,-35.156,-31.738,-33.203,-40.527,0.000
1709297984.251,-42.969,-32.715,-38.574,-39.062,0.000
1709297984.255,-41.504,-32.715,-40.527,-35.645,0.000
1709297984.259,-37.598,-36.621,-40.527,-32.715,0.000
1709297984.263,-32.715,-36.133,-38.086,-29.785,0.000
1709297984.266,-24.902,-31.250,-41.992,-37.598,0.000
1709297984.270,-22.461,-30.762,-41.504,-44.922,0.000
1709297984.274,-22.461,-28.809,-38.086,-43.457,0.000
1709297984.278,-30.762,-30.273,-40.039,-39.551,0.000
1709297984.282,-32.715,-36.621,-41.992,-28.809,0.000
1709297984.286,-28.320,-39.551,-41.992,-29.785,0.000
1709297984.290,-26.855,-35.645,-40.527,-52.246,0.000
1709297984.294,-26.367,-35.156,-40.527,-57.129,0.000
1709297984.298,-21.973,-35.156,-39.551,-31.738,0.000
1709297984.302,-21.484,-32.715,-40.527,-20.020,0.000
1709297984.306,-24.902,-36.133,-39.062,-29.297,0.000
1709297984.309,-30.273,-39.551,-38.086,-38.086,0.000
1709297984.313,-40.527,-41.992,-41.016,-45.898,0.000
1709297984.317,-39.551,-41.504,-38.574,-36.621,0.000
1709297984.321,-40.527,-35.645,-36.133,-26.367,0.000
1709297984.325,-48.828,-35.156,-36.621,-18.555,0.000
1709297984.329,-47.363,-38.574,-34.668,-33.203,0.000
1709297984.333,-39.551,-40.039,-35.645,-52.734,0.000
1709297984.337,-49.805,-39.551,-37.109,-50.293,0.000
1709297984.341,-56.152,-40.527,-38.086,-39.551,0.000
1709297984.345,-49.316,-41.016,-39.551,-31.250,0.000
1709297984.349,-46.875,-37.109,-40.039,-41.504,0.000
1709297984.352,-45.410,-36.621,-38.574,-46.387,0.000
1709297984.356,-43.945,-38.086,-36.133,-38.086,0.000
1709297984.360,-38.574,-34.180,-37.109,-23.926,0.000
1709297984.364,-33.203,-36.133,-38.086,-22.461,0.000
1709297984.368,-27.832,-40.039,-36.133,-25.879,0.000
1709297984.372,-27.344,-38.086,-38.574,-32.715,0.000
1709297984.376,-27.344,-37.109,-41.504,-36.621,0.000
1709297984.380,-32.715,-40.527,-41.016,-34.668,0.000
1709297984.384,-34.668,-40.039,-43.457,-20.508,0.000
1709297984.388,-31.738,-38.574,-42.480,-16.602,0.000
1709297984.391,-27.344,-40.039,-38.086,-33.691,0.000
1709297984.395,-30.273,-40.527,-37.109,-36.133,0.000
1709297984.399,-34.668,-39.551,-38.574,-21.973,0.000
1709297984.403,-36.621,-39.551,-41.504,-16.113,0.000
1709297984.407,-36.621,-42.480,-44.434,-39.062,0.000
1709297984.411,-39.551,-45.898,-47.852,-59.570,0.000
1709297984.415,-46.875,-47.852,-45.410,-60.059,0.000
1709297984.419,-44.922,-43.457,-44.922,-44.922,0.000
1709297984.423,-39.062,-36.621,-45.410,-24.414,0.000
1709297984.427,-32.227,-37.109,-47.852,-28.320,0.000
1709297984.430,-36.133,-37.109,-49.805,-40.039,0.000
1709297984.434,-39.062,-39.062,-47.363,-38.086,0.000
1709297984.438,-28.320,-38.574,-43.945,-36.133,0.000
1709297984.442,-27.832,-39.062,-41.016,-28.809,0.000
1709297984.446,-38.086,-42.480,-41.504,-34.668,0.000
1709297984.450,-44.922,-45.410,-42.480,-41.992,0.000
1709297984.454,-41.504,-44.434,-43.457,-47.363,0.000
1709297984.458,-45.898,-44.434,-39.551,-46.387,0.000
1709297984.462,-53.711,-48.340,-38.574,-38.574,0.000
1709297984.466,-49.316,-45.898,-41.016,-40.527,0.000
1709297984.469,-53.223,-41.504,-43.945,-52.734,0.000
1709297984.473,-60.059,-40.527,-46.387,-54.199,0.000
1709297984.477,-59.570,-38.574,-42.969,-33.691,0.000
1709297984.481,-55.176,-38.574,-42.969,-31.250,0.000
1709297984.485,-41.992,-41.016,-42.969,-48.828,0.000
1709297984.489,-48.340,-42.480,-42.969,-54.688,0.000
1709297984.493,-59.570,-43.457,-44.922,-57.129,0.000
1709297984.497,-52.734,-43.457,-36.133,-48.340,0.000
1709297984.501,-53.223,-40.527,-32.715,-37.598,0.000
1709297984.505,-59.082,-36.621,-37.598,-39.062,0.000
1709297984.508,-46.875,-41.016,-41.016,-44.434,0.000
1709297984.512,-38.574,-44.922,-41.992,-44.922,0.000
1709297984.516,-38.574,-44.434,-38.574,-33.691,0.000
1709297984.520,-31.250,-41.504,-41.992,-31.738,0.000
1709297984.524,-30.762,-37.109,-43.945,-41.992,0.000
1709297984.528,-35.156,-35.645,-36.621,-46.875,0.000
1709297984.532,-36.133,-39.551,-39.062,-40.039,0.000
1709297984.536,-48.828,-42.969,-43.945,-39.551,0.000
1709297984.540,-49.316,-37.598,-41.016,-33.203,0.000
1709297984.544,-35.645,-34.668,-37.109,-32.715,0.000
1709297984.548,-39.551,-38.574,-38.574,-39.062,0.000
1709297984.552,-46.387,-38.086,-36.621,-37.598,0.000
1709297984.555,-50.781,-35.156,-35.645,-39.062,0.000
1709297984.559,-46.875,-32.715,-40.527,-36.133,0.000
1709297984.563,-34.180,-30.762,-39.062,-35.156,0.000
1709297984.567,-30.762,-30.762,-34.668,-35.645,0.000
1709297984.571,-34.668,-34.180,-39.062,-50.293,0.000
1709297984.575,-34.668,-34.180,-38.574,-44.434,0.000
1709297984.579,-29.297,-33.203,-38.574,-30.273,0.000
1709297984.583,-35.156,-37.109,-43.457,-33.691,0.000
1709297984.587,-38.086,-31.250,-43.457,-36.621,0.000
1709297984.591,-37.598,-29.785,-40.527,-53.711,0.000
1709297984.595,-41.016,-34.668,-36.621,-45.410,0.000
1709297984.598,-47.852,-35.645,-35.645,-26.855,0.000
1709297984.602,-54.688,-39.551,-39.062,-30.762,0.000
1709297984.606,-51.758,-41.504,-41.016,-36.621,0.000
1709297984.610,-41.504,-41.504,-40.039,-37.109,0.000
1709297984.614,-44.434,-41.992,-40.039,-33.203,0.000
1709297984.618,-48.340,-38.086,-40.527,-16.113,0.000
1709297984.622,-34.180,-31.738,-38.574,-13.672,0.000
1709297984.626,-39.062,-40.527,-40.039,-8.789,0.000
1709297984.630,-35.645,-44.922,-38.086,-0.977,0.000
1709297984.634,-20.508,-38.086,-35.645,-25.391,0.000
1709297984.637,-17.578,-34.668,-32.715,-33.691,0.000
1709297984.641,-23.438,-33.691,-31.250,-11.719,0.000
1709297984.645,-34.180,-34.668,-34.668,-8.789,0.000
1709297984.649,-33.691,-32.715,-37.109,-29.297,0.000
1709297984.653,-24.414,-29.785,-35.645,-33.203,0.000
1709297984.657,-18.555,-31.738,-33.203,-21.484,0.000
1709297984.661,-13.184,-31.250,-35.645,-14.160,0.000
1709297984.665,-20.020,-30.273,-37.109,-18.555,0.000
1709297984.669,-35.156,-33.691,-35.645,-32.715,0.000
1709297984.673,-42.480,-33.691,-37.109,-39.551,0.000
1709297984.677,-41.992,-34.668,-38.086,-29.297,0.000
1709297984.680,-37.109,-36.133,-38.574,-25.879,0.000
1709297984.684,-29.297,-36.133,-43.945,-23.926,0.000
1709297984.688,-23.926,-36.133,-43.945,-26.367,0.000
1709297984.692,-19.043,-33.691,-37.109,-28.320,0.000
1709297984.696,-17.578,-35.645,-33.203,-12.207,0.000
1709297984.700,-20.508,-34.180,-31.738,-4.395,0.000
1709297984.704,-25.391,-32.227,-28.809,-19.531,0.000
1709297984.708,-29.785,-31.738,-27.832,-32.715,0.000
1709297984.712,-36.621,-33.203,-30.273,-38.086,0.000
1709297984.716,-46.875,-39.062,-30.762,-23.438,0.000
1709297984.720,-49.805,-36.621,-30.762,-13.184,0.000
1709297984.723,-41.504,-29.297,-30.273,-28.809,0.000
1709297984.727,-39.062,-27.832,-27.832,-41.504,0.000
1709297984.731,-43.457,-31.250,-32.227,-52.734,0.000
1709297984.735,-41.016,-36.621,-39.062,-53.711,0.000
1709297984.739,-41.016,-36.133,-36.621,-39.551,0.000
1709297984.743,-37.109,-35.645,-33.203,-32.715,0.000
1709297984.747,-39.551,-32.227,-32.715,-40.527,0.000
1709297984.751,-43.457,-32.227,-33.691,-40.527,0.000
1709297984.755,-37.109,-33.691,-36.621,-37.598,0.000
1709297984.759,-37.109,-38.574,-35.645,-35.645,0.000
1709297984.762,-36.133,-40.527,-32.715,-19.043,0.000
1709297984.766,-38.574,-37.109,-38.574,-32.227,0.000
1709297984.770,-43.457,-37.598,-41.992,-45.410,0.000
1709297984.774,-46.387,-39.062,-38.574,-34.180,0.000
1709297984.778,-47.852,-34.180,-38.574,-27.344,0.000
1709297984.782,-42.480,-30.762,-37.109,-20.996,0.000
1709297984.786,-38.086,-35.156,-40.039,-32.715,0.000
1709297984.790,-38.574,-35.156,-38.574,-41.992,0.000
1709297984.794,-43.945,-33.691,-38.086,-37.598,0.000
1709297984.798,-43.945,-34.668,-42.969,-35.645,0.000
1709297984.801,-42.480,-33.203,-41.016,-30.273,0.000
1709297984.805,-41.504,-26.855,-36.621,-22.949,0.000
1709297984.809,-45.898,-32.227,-38.574,-33.691,0.000
1709297984.813,-52.246,-38.086,-36.621,-43.457,0.000
1709297984.817,-45.898,-41.016,-35.645,-31.738,0.000
1709297984.821,-43.945,-42.969,-38.086,-18.066,0.000
1709297984.825,-39.551,-36.621,-34.180,-10.254,0.000
1709297984.829,-31.250,-36.621,-29.785,-18.066,0.000
1709297984.833,-35.156,-43.945,-30.273,-31.738,0.000
1709297984.837,-42.969,-44.434,-35.156,-35.645,0.000
1709297984.841,-43.457,-39.062,-34.180,-26.367,0.000
1709297984.844,-37.598,-41.016,-37.109,-27.832,0.000
1709297984.848,-37.598,-42.969,-36.621,-34.180,0.000
1709297984.852,-41.016,-42.969,-35.156,-23.926,0.000
1709297984.856,-40.039,-39.551,-37.109,-11.230,0.000
1709297984.860,-39.551,-34.668,-34.668,-3.418,0.000
1709297984.864,-38.086,-35.645,-31.250,-1.953,0.000
1709297984.868,-42.480,-38.086,-27.832,-7.812,0.000
1709297984.872,-40.039,-37.598,-31.250,-22.461,0.000
1709297984.876,-31.738,-36.133,-36.621,-34.668,0.000
1709297984.879,-27.344,-32.715,-40.039,-26.367,0.000
1709297984.883,-21.973,-27.344,-38.574,-19.531,0.000
1709297984.887,-27.832,-31.250,-38.574,-31.738,0.000
1709297984.891,-34.668,-38.086,-40.039,-44.922,0.000
1709297984.895,-35.645,-38.574,-41.504,-37.598,0.000
1709297984.899,-35.156,-36.621,-41.504,-25.391,0.000
1709297984.903,-29.785,-39.062,-40.527,-35.645,0.000
1709297984.907,-32.715,-41.016,-35.156,-42.480,0.000
1709297984.911,-41.504,-39.551,-35.156,-42.969,0.000
1709297984.915,-33.691,-38.574,-39.062,-39.062,0.000
1709297984.919,-26.367,-39.062,-35.156,-24.902,0.000
1709297984.923,-39.551,-40.039,-29.785,-26.855,0.000
1709297984.926,-49.316,-41.992,-27.832,-29.297,0.000
1709297984.930,-45.410,-39.062,-30.273,-33.691,0.000
1709297984.934,-46.387,-34.668,-34.180,-42.480,0.000
1709297984.938,-35.645,-33.203,-34.180,-27.832,0.000
1709297984.942,-21.973,-31.738,-28.320,-14.648,0.000
1709297984.946,-21.484,-29.785,-30.273,-26.367,0.000
1709297984.950,-21.973,-34.180,-37.598,-44.434,0.000
1709297984.954,-18.066,-39.062,-39.062,-31.738,0.000
1709297984.958,-19.043,-43.945,-36.621,-9.766,0.000
1709297984.962,-17.578,-43.945,-36.621,-9.277,0.000
1709297984.965,-10.742,-33.691,-37.109,-6.836,0.000
1709297984.970,-17.090,-31.250,-36.621,-21.973,0.000
1709297984.973,-19.043,-32.715,-40.039,-32.715,0.000
1709297984.977,-9.766,-32.227,-40.527,-24.902,0.000
1709297984.981,-16.602,-32.715,-41.504,-15.625,0.000
1709297984.985,-26.855,-33.203,-48.340,-19.531,0.000
1709297984.989,-24.414,-36.133,-49.316,-29.785,0.000
1709297984.993,-26.855,-36.621,-44.922,-25.391,0.000
1709297984.997,-31.250,-36.133,-48.828,-28.320,0.000
1709297985.001,-27.832,-38.086,-52.246,-24.902,0.000
1709297985.005,-27.832,-37.109,-52.734,-17.090,0.000
1709297985.009,-35.645,-34.668,-53.711,-29.297,0.000
1709297985.012,-45.410,-33.691,-53.223,-44.922,0.000
1709297985.016,0.000,-35.156,-49.316,-42.969,0.000
1709297985.020,0.000,-39.062,-44.922,-32.227,0.000
1709297985.024,0.000,-36.133,-45.898,-30.762,0.000
1709297985.028,0.000,-35.156,-45.898,-34.668,0.000
1709297985.032,0.000,-32.715,-43.945,-38.086,0.000
1709297985.036,0.000,-29.785,-40.039,-41.504,0.000
1709297985.040,0.000,-32.227,-41.016,-43.945,0.000
1709297985.044,0.000,-30.273,-40.527,-38.574,0.000
1709297985.048,0.000,-32.227,-36.133,-34.180,0.000
1709297985.052,0.000,-36.621,-39.062,-48.828,0.000
1709297985.055,0.000,-39.062,-41.016,-44.434,0.000
1709297985.059,0.000,-39.551,-39.062,-32.227,0.000
1709297985.063,-28.320,-39.062,-37.598,-29.785,0.000
1709297985.067,-30.273,-34.668,-35.645,-31.738,0.000
1709297985.071,-35.645,-31.250,-32.227,-43.457,0.000
1709297985.075,-45.898,-33.691,-30.273,-43.457,0.000
1709297985.079,-41.504,-32.715,-32.227,-30.273,0.000
1709297985.083,-30.273,-27.832,-32.227,-20.508,0.000
1709297985.087,-27.832,-27.832,-34.180,-32.715,0.000
1709297985.091,-33.691,-27.344,-38.086,-43.945,0.000
1709297985.095,-37.598,-25.391,-40.039,-35.156,0.000
1709297985.098,-36.621,-25.391,-41.504,-38.086,0.000
1709297985.102,-36.133,-28.809,-41.016,-37.598,0.000
1709297985.106,-40.039,-34.668,-42.480,-44.434,0.000
1709297985.110,-41.992,-34.668,-46.387,-55.176,0.000
1709297985.114,-42.480,-36.133,-45.410,-49.805,0.000
1709297985.118,-46.387,-38.086,-45.410,-41.504,0.000
1709297985.122,-45.410,-37.598,-49.805,-46.387,0.000
1709297985.126,-50.293,-35.645,-46.875,-56.152,0.000
1709297985.130,-55.176,-35.645,-42.480,-51.270,0.000
1709297985.134,-53.711,-37.109,-42.480,-52.246,0.000
1709297985.137,-48.828,-33.203,-39.062,-42.969,0.000
1709297985.141,-45.410,-31.250,-36.133,-30.273,0.000
1709297985.145,-46.387,-34.180,-40.527,-44.434,0.000
1709297985.149,-45.898,-37.598,-40.039,-50.293,0.000
1709297985.153,-53.223,-41.504,-42.480,-46.387,0.000
1709297985.157,-54.688,-40.527,-41.992,-42.969,0.000
1709297985.161,-49.805,-43.457,-37.598,-33.691,0.000
1709297985.165,-53.223,-41.504,-42.969,-43.945,0.000
1709297985.169,-49.316,-40.039,-46.387,-59.570,0.000
1709297985.173,-54.199,-42.969,-47.852,-62.012,0.000
1709297985.177,-60.059,-42.969,-47.852,-62.012,0.000
1709297985.180,-55.176,-43.457,-46.875,-41.992,0.000
1709297985.184,-52.734,-43.457,-41.992,-27.344,0.000
1709297985.188,-46.387,-49.316,-40.527,-35.156,0.000
1709297985.192,-46.875,-48.340,-42.969,-49.805,0.000
1709297985.196,-55.664,-45.898,-45.410,-47.363,0.000
1709297985.200,-44.922,-45.898,-45.898,-25.391,0.000
1709297985.204,-40.527,-42.480,-43.945,-25.391,0.000
1709297985.208,-47.363,-40.039,-45.898,-46.387,0.000
1709297985.212,-46.875,-38.574,-41.016,-58.105,0.000
1709297985.216,-47.363,-42.480,-41.016,-56.641,0.000
1709297985.219,-44.922,-41.504,-40.527,-43.945,0.000
1709297985.223,-38.086,-32.715,-36.133,-37.598,0.000
1709297985.227,-33.691,-35.156,-35.645,-34.668,0.000
1709297985.231,-39.062,-38.086,-37.598,-41.016,0.000
1709297985.235,-42.969,-35.645,-38.086,-43.457,0.000
1709297985.239,-33.691,-36.133,-33.691,-27.344,0.000
1709297985.243,-32.715,-37.598,-34.180,-28.809,0.000
1709297985.247,-32.227,-39.551,-39.551,-35.645,0.000
1709297985.251,-27.832,-40.527,-43.457,-44.922,0.000
1709297985.255,-33.691,-41.016,-39.062,-37.109,0.000
1709297985.258,-37.598,-39.551,-39.062,-23.438,0.000
1709297985.262,-31.250,-41.504,-38.574,-23.926,0.000
1709297985.266,-32.227,-39.551,-37.598,-21.973,0.000
1709297985.270,-28.320,-34.668,-39.551,-22.949,0.000
1709297985.274,-22.461,-31.250,-41.016,-20.996,0.000
1709297985.278,-32.715,-30.762,-45.410,-24.414,0.000
1709297985.282,-46.875,-34.180,-44.922,-30.762,0.000
1709297985.286,-45.410,-37.598,-41.992,-33.691,0.000
1709297985.290,-40.527,-38.086,-46.875,-36.133,0.000
1709297985.294,-33.691,-34.180,-48.340,-23.926,0.000
1709297985.298,-21.973,-33.691,-44.922,-12.695,0.000
1709297985.301,-18.066,-31.738,-40.527,-6.348,0.000
1709297985.305,-32.715,-31.738,-41.016,-14.160,0.000
1709297985.309,-33.203,-41.016,-40.039,-28.809,0.000
1709297985.313,-25.879,-43.945,-37.598,-35.156,0.000
1709297985.317,-28.320,-35.645,-36.621,-31.250,0.000
1709297985.321,-22.949,-29.785,-36.133,-21.484,0.000
1709297985.325,-21.484,-30.273,-35.156,-11.719,0.000
1709297985.329,-21.973,-27.832,-37.109,-13.672,0.000
1709297985.333,-15.625,-29.297,-41.016,-22.461,0.000
1709297985.337,-12.207,-29.297,-41.504,-20.020,0.000
1709297985.340,-11.230,-28.809,-42.480,-13.184,0.000
1709297985.344,-8.301,-28.809,-41.992,-9.766,0.000
1709297985.348,-15.137,-30.762,-42.969,-25.391,0.000
1709297985.352,-25.879,-30.273,-45.410,-36.133,0.000
1709297985.356,-30.273,-28.809,-41.992,-26.855,0.000
1709297985.360,-28.320,-30.273,-41.504,-21.484,0.000
1709297985.364,-28.809,-32.715,-45.898,-26.855,0.000
1709297985.368,-34.668,-36.133,-44.434,-41.992,0.000
1709297985.372,-37.598,-36.621,-42.480,-53.711,0.000
1709297985.376,-43.457,-37.109,-43.945,-38.574,0.000
1709297985.380,-45.898,-35.645,-46.387,-24.902,0.000
1709297985.383,-41.016,-38.086,-51.270,-38.086,0.000
1709297985.387,-38.574,-40.039,-50.293,-40.039,0.000
1709297985.391,-31.738,-40.039,-45.898,-34.668,0.000
1709297985.395,-31.250,-41.504,-47.363,-39.062,0.000
1709297985.399,-31.738,-42.480,-52.734,-41.016,0.000
1709297985.403,-27.344,-41.992,-50.781,-39.551,0.000
1709297985.407,-29.785,-42.480,-47.852,-41.504,0.000
1709297985.411,-40.039,-44.922,-46.875,-44.434,0.000
1709297985.415,-39.551,-46.875,-45.898,-38.086,0.000
1709297985.419,-34.668,-48.340,-42.969,-33.691,0.000
1709297985.423,-34.180,-46.387,-37.598,-9.766,0.000
1709297985.426,-33.691,-42.969,-40.039,-11.719,0.000
1709297985.430,-31.738,-42.969,-42.480,-33.203,0.000
1709297985.434,-31.250,-42.480,-39.551,-30.762,0.000
1709297985.438,-36.621,-42.480,-40.039,-30.273,0.000
1709297985.442,-31.738,-41.504,-44.922,-27.344,0.000
1709297985.446,-33.203,-39.062,-47.363,-29.297,0.000
1709297985.450,-36.133,-39.062,-43.945,-38.086,0.000
1709297985.454,-38.086,-41.992,-41.992,-47.852,0.000
1709297985.458,-40.039,-42.969,-41.992,-36.621,0.000
1709297985.462,-34.180,-42.969,-44.922,-21.973,0.000
1709297985.466,-44.922,-42.969,-47.852,-22.949,0.000
1709297985.469,-58.594,-42.480,-44.922,-26.855,0.000
1709297985.473,-53.711,-41.504,-43.945,-35.645,0.000
1709297985.477,-45.898,-39.551,-46.387,-34.668,0.000
1709297985.481,-48.340,-39.062,-45.898,-32.715,0.000
1709297985.485,-51.270,-37.109,-42.480,-32.227,0.000
1709297985.489,-47.363,-33.203,-39.062,-45.410,0.000
1709297985.493,-39.551,-33.691,-38.086,-55.176,0.000
1709297985.497,-41.016,-39.062,-40.039,-45.410,0.000
1709297985.501,-44.434,-43.945,-44.434,-33.203,0.000
1709297985.505,-40.527,-36.133,-40.527,-27.832,0.000
1709297985.508,-37.598,-34.180,-36.621,-35.156,0.000
1709297985.512,-43.945,-37.109,-38.574,-38.086,0.000
1709297985.516,-38.574,-36.133,-33.691,-37.109,0.000
1709297985.520,-26.367,-35.645,-30.273,-36.621,0.000
1709297985.524,-32.715,-39.062,-32.227,-33.691,0.000
1709297985.528,-38.574,-44.434,-32.227,-43.457,0.000
1709297985.532,-34.180,-41.504,-30.762,-48.828,0.000
1709297985.536,-33.203,-39.551,-31.738,-42.480,0.000
1709297985.540,-40.527,-44.434,-34.668,-42.480,0.000
1709297985.544,-40.527,-39.551,-36.621,-37.598,0.000
1709297985.548,-43.457,-37.598,-40.039,-51.270,0.000
1709297985.551,-53.223,-41.992,-40.527,-63.477,0.000
1709297985.555,-48.828,-38.086,-40.039,-56.641,0.000
1709297985.559,-37.598,-34.668,-41.992,-46.875,0.000
1709297985.563,-33.203,-34.668,-38.574,-38.086,0.000
1709297985.567,-34.668,-32.715,-35.156,-39.062,0.000
1709297985.571,-34.180,-36.133,-34.668,-37.109,0.000
1709297985.575,-33.691,-39.551,-36.133,-30.273,0.000
1709297985.579,-34.180,-37.109,-36.621,-25.879,0.000
1709297985.583,-28.809,-35.156,-38.086,-35.645,0.000
1709297985.587,-31.250,-39.062,-42.480,-44.922,0.000
1709297985.590,-39.551,-41.016,-43.457,-49.316,0.000
1709297985.594,-39.062,-41.504,-42.969,-57.129,0.000
1709297985.598,-32.227,-41.504,-38.574,-42.480,0.000
1709297985.602,-36.621,-41.504,-37.598,-18.555,0.000
1709297985.606,-35.156,-40.039,-35.156,-17.578,0.000
1709297985.610,-30.273,-39.551,-30.273,-32.715,0.000
1709297985.614,-39.062,-38.574,-29.785,-32.227,0.000
1709297985.618,-41.992,-37.109,-30.273,-20.508,0.000
1709297985.622,-36.621,-39.551,-31.250,-9.766,0.000
1709297985.626,0.000,-38.086,-33.691,-4.395,0.000
1709297985.629,0.000,-36.133,-34.180,-26.367,0.000
1709297985.633,0.000,-33.691,-35.645,-31.250,0.000
1709297985.637,0.000,-36.621,-37.598,-20.508,0.000
1709297985.641,0.000,-37.598,-38.574,-24.414,0.000
1709297985.645,0.000,-40.039,-40.527,-23.438,0.000
1709297985.649,0.000,-39.062,-39.062,-23.926,0.000
1709297985.653,0.000,-36.621,-39.551,-35.645,0.000
1709297985.657,0.000,-36.133,-41.016,-26.855,0.000
1709297985.661,0.000,-34.180,-36.621,-16.602,0.000
1709297985.665,0.000,-35.645,-35.156,-32.227,0.000
1709297985.668,0.000,-37.109,-36.621,-42.480,0.000
1709297985.672,-32.715,-39.551,-37.598,-44.922,0.000
1709297985.676,-33.691,-40.039,-36.621,-36.133,0.000
1709297985.680,-33.203,-35.156,-36.621,-24.902,0.000
1709297985.684,-32.227,-30.273,-39.062,-27.344,0.000
1709297985.688,-29.785,-28.320,-34.180,-35.156,0.000
1709297985.692,-27.344,-29.297,-37.598,-46.875,0.000
1709297985.696,-26.367,-30.273,-42.969,-46.875,0.000
1709297985.700,-25.879,-29.297,-37.109,-35.645,0.000
1709297985.704,-30.762,-29.297,-33.203,-26.855,0.000
1709297985.708,-33.691,-32.227,-36.621,-31.738,0.000
1709297985.711,-31.250,-33.691,-39.062,-43.945,0.000
1709297985.715,-29.785,-30.762,-34.668,-36.133,0.000
1709297985.719,-31.250,-29.297,-31.250,-19.043,0.000
1709297985.723,-32.715,-34.668,-33.203,-20.508,0.000
1709297985.727,-29.785,-34.668,-34.668,-35.156,0.000
1709297985.731,-35.156,-37.109,-34.180,-35.156,0.000
1709297985.735,-44.922,-40.039,-33.203,-27.832,0.000
1709297985.739,-40.039,-35.645,-26.367,-16.602,0.000
1709297985.743,-33.203,-35.645,-25.391,-13.672,0.000
1709297985.747,-31.250,-37.598,-27.832,-28.809,0.000
1709297985.751,-36.133,-39.551,-23.926,-28.809,0.000
1709297985.754,-40.527,-39.551,-26.367,-26.367,0.000
1709297985.758,-38.086,-41.504,-34.180,-30.762,0.000
1709297985.762,-37.598,-41.504,-33.203,-24.414,0.000
1709297985.766,-34.668,-36.133,-29.785,-28.320,0.000
1709297985.770,-39.062,-37.598,-37.109,-45.898,0.000
1709297985.774,-43.945,-38.086,-41.016,-48.340,0.000
1709297985.778,-39.062,-39.551,-39.062,-37.598,0.000
1709297985.782,-42.480,-41.992,-43.457,-33.691,0.000
1709297985.786,-39.062,-34.668,-41.504,-29.785,0.000
1709297985.790,-37.598,-33.691,-38.574,-37.109,0.000
1709297985.794,-40.039,-38.086,-42.969,-39.062,0.000
1709297985.797,-34.668,-36.621,-43.945,-29.785,0.000
1709297985.801,-26.367,-34.180,-38.086,-19.043,0.000
1709297985.805,-24.414,-36.621,-36.133,-13.184,0.000
1709297985.809,-30.273,-34.668,-37.598,-35.645,0.000
1709297985.813,-25.879,-29.297,-40.039,-45.410,0.000
1709297985.817,-21.973,-28.320,-39.551,-31.250,0.000
1709297985.821,-29.297,-29.297,-38.086,-23.926,0.000
1709297985.825,-33.691,-31.738,-39.062,-28.320,0.000
1709297985.829,-37.598,-34.668,-37.109,-40.527,0.000
1709297985.833,-41.016,-41.504,-39.551,-50.781,0.000
1709297985.837,-30.762,-38.086,-39.551,-38.574,0.000
1709297985.840,-24.902,-37.109,-40.039,-15.625,0.000
1709297985.844,-29.297,-45.410,-41.992,-20.020,0.000
1709297985.848,-35.156,-47.363,-42.480,-36.621,0.000
1709297985.852,-42.969,-49.805,-41.992,-44.922,0.000
1709297985.856,-51.270,-49.805,-41.016,-36.133,0.000
1709297985.860,-49.805,-44.922,-41.504,-28.320,0.000
1709297985.864,-44.434,-42.480,-40.527,-40.527,0.000
1709297985.868,-41.992,-39.551,-36.133,-48.828,0.000
1709297985.872,-37.598,-40.527,-32.227,-51.758,0.000
1709297985.876,-34.180,-40.039,-30.762,-49.316,0.000
1709297985.879,-36.133,-39.551,-33.691,-42.480,0.000
1709297985.883,-49.316,-43.945,-37.598,-39.062,0.000
1709297985.887,-60.059,-43.945,-43.457,-40.527,0.000
1709297985.891,-46.387,-38.086,-43.945,-52.734,0.000
1709297985.895,-41.504,-35.645,-43.457,-59.570,0.000
1709297985.899,-53.711,-39.551,-47.363,-54.199,0.000
1709297985.903,-48.340,-40.039,-50.293,-50.781,0.000
1709297985.907,-38.574,-36.621,-42.969,-46.875,0.000
1709297985.911,-35.156,-35.645,-35.645,-54.199,0.000
1709297985.915,-35.156,-34.180,-35.645,-48.828,0.000
1709297985.919,-37.598,-34.180,-36.621,-36.133,0.000
1709297985.922,-36.621,-32.715,-32.227,-23.438,0.000
1709297985.926,-32.227,-37.109,-30.762,-31.738,0.000
1709297985.930,-33.691,-42.480,-34.668,-46.387,0.000
1709297985.934,-35.156,-37.598,-36.621,-35.645,0.000
1709297985.938,-32.227,-34.668,-33.691,-29.297,0.000
1709297985.942,-32.715,-38.086,-34.668,-23.438,0.000
1709297985.946,-30.762,-40.039,-40.039,-20.020,0.000
1709297985.950,-30.762,-41.992,-40.527,-33.691,0.000
1709297985.954,-38.086,-46.387,-33.203,-42.480,0.000
1709297985.958,-41.016,-42.480,-29.297,-35.645,0.000
1709297985.962,-38.086,-39.062,-31.738,-33.203,0.000
1709297985.965,-30.273,-35.645,-31.738,-28.809,0.000
1709297985.969,-31.250,-32.715,-35.645,-46.875,0.000
1709297985.973,-41.016,-39.551,-36.621,-58.594,0.000
1709297985.977,-40.527,-39.551,-34.668,-36.133,0.000
1709297985.981,-37.109,-41.016,-35.156,-31.738,0.000
1709297985.985,-41.504,-45.898,-41.016,-44.434,0.000
1709297985.989,-45.410,-42.969,-45.898,-52.734,0.000
1709297985.993,-49.805,-39.062,-38.086,-45.410,0.000
1709297985.997,-49.316,-35.156,-33.203,-29.785,0.000
1709297986.001,-41.992,-32.227,-34.180,-26.367,0.000
1709297986.004,-42.480,-37.109,-40.039,-37.598,0.000
1709297986.008,-45.410,-38.574,-40.527,-49.316,0.000
1709297986.012,-55.176,-36.133,-35.645,-52.246,0.000
1709297986.016,-56.641,-40.039,-38.086,-42.969,0.000
1709297986.020,-43.457,-39.551,-37.109,-24.902,0.000
1709297986.024,-32.715,-31.250,-31.250,-17.090,0.000
1709297986.028,-36.133,-30.273,-35.645,-35.645,0.000
1709297986.032,-42.969,-32.715,-42.969,-51.270,0.000
1709297986.036,-48.828,-39.551,-46.387,-38.574,0.000
1709297986.040,-44.922,-44.434,-48.828,-24.902,0.000
1709297986.044,-36.621,-37.598,-42.969,-36.133,0.000
1709297986.047,-40.527,-35.645,-35.156,-38.574,0.000
1709297986.051,-46.875,-41.016,-39.062,-34.668,0.000
1709297986.055,-44.922,-39.551,-38.086,-33.691,0.000
1709297986.059,-43.457,-41.016,-37.109,-31.250,0.000
1709297986.063,-44.434,-43.945,-40.039,-20.508,0.000
1709297986.067,-52.246,-40.527,-40.527,-21.973,0.000
1709297986.071,-59.570,-39.551,-42.969,-41.504,0.000
1709297986.075,-53.223,-37.598,-39.551,-36.621,0.000
1709297986.079,-42.480,-32.715,-34.180,-26.855,0.000
1709297986.083,-41.992,-34.668,-34.668,-29.297,0.000
1709297986.087,-50.293,-39.062,-33.691,-34.668,0.000
1709297986.090,-51.270,-38.574,-33.203,-41.992,0.000
1709297986.094,-44.922,-40.039,-31.738,-38.574,0.000
1709297986.098,-37.598,-34.180,-30.273,-30.273,0.000
1709297986.102,-32.715,-28.809,-34.180,-28.809,0.000
1709297986.106,-34.668,-31.250,-36.621,-35.156,0.000
1709297986.110,-39.551,-28.809,-36.133,-44.922,0.000
1709297986.114,-43.457,-27.344,-33.691,-43.945,0.000
1709297986.118,-40.039,-25.391,-33.691,-36.133,0.000
1709297986.122,-34.668,-20.020,-38.086,-31.738,0.000
1709297986.126,-37.598,-24.902,-38.574,-32.227,0.000
1709297986.130,-40.039,-25.879,-34.668,-40.527,0.000
1709297986.133,-39.551,-24.414,-33.691,-47.852,0.000
1709297986.137,-35.156,-25.879,-36.133,-41.992,0.000
1709297986.141,-35.156,-31.250,-35.156,-33.203,0.000
1709297986.145,-38.574,-32.715,-31.250,-35.156,0.000
1709297986.149,-37.598,-30.273,-34.668,-50.781,0.000
1709297986.153,-39.551,-32.227,-39.062,-56.152,0.000
1709297986.157,-42.480,-29.785,-40.039,-51.270,0.000
1709297986.161,-46.387,-34.180,-42.480,-44.434,0.000
1709297986.165,-51.758,-33.203,-42.969,-44.922,0.000
1709297986.169,-54.199,-29.297,-42.480,-54.688,0.000
1709297986.173,-53.711,-29.785,-38.574,-47.363,0.000
1709297986.176,-50.781,-25.391,-33.691,-41.016,0.000
1709297986.180,-47.363,-29.297,-36.133,-36.621,0.000
1709297986.184,-47.363,-31.250,-37.109,-30.762,0.000
1709297986.188,-40.527,-27.832,-33.691,-39.551,0.000
1709297986.192,-34.180,-29.785,-37.109,-48.340,0.000
1709297986.196,-32.715,-35.156,-42.969,-44.434,0.000
1709297986.200,-36.133,-37.109,-41.504,-34.180,0.000
1709297986.204,-42.969,-36.621,-40.527,-36.133,0.000
1709297986.208,-37.598,-33.203,-36.621,-53.711,0.000
1709297986.212,-40.039,-32.227,-32.227,-55.664,0.000
1709297986.215,-45.898,-33.691,-35.156,-38.574,0.000
1709297986.219,-42.480,-30.762,-37.109,-21.973,0.000
1709297986.223,-43.945,-32.227,-35.645,-31.250,0.000
1709297986.227,-41.992,-37.109,-38.086,-45.898,0.000
1709297986.231,-43.945,-38.574,-39.062,-47.852,0.000
1709297986.235,-42.969,-34.668,-34.180,-34.180,0.000
1709297986.239,-44.922,-35.156,-35.645,-27.344,0.000
1709297986.243,-51.758,-35.156,-38.086,-34.668,0.000
1709297986.247,-54.199,-34.668,-37.109,-45.898,0.000
1709297986.251,-47.363,-34.180,-41.504,-50.781,0.000
1709297986.255,-35.156,-35.645,-44.922,-53.711,0.000
1709297986.258,-30.762,-37.109,-38.086,-43.457,0.000
1709297986.262,-32.227,-31.738,-34.668,-18.066,0.000
1709297986.266,-39.551,-30.273,-37.598,-29.785,0.000
1709297986.270,-45.410,-34.668,-41.504,-53.223,0.000
1709297986.274,-45.898,-37.109,-40.039,-47.363,0.000
1709297986.278,-54.199,-37.598,-37.598,-40.527,0.000
1709297986.282,-60.059,-36.133,-39.062,-45.898,0.000
1709297986.286,-56.152,-36.133,-37.109,-54.199,0.000
1709297986.290,-55.664,-34.668,-36.133,-57.129,0.000
1709297986.294,-54.688,-32.715,-38.574,-59.082,0.000
1709297986.297,-47.363,-35.156,-40.039,-47.852,0.000
1709297986.301,-50.293,-41.016,-40.039,-42.969,0.000
1709297986.305,-55.176,-43.945,-37.598,-38.574,0.000
1709297986.309,-49.316,-41.016,-37.109,-42.969,0.000
1709297986.313,-42.969,-41.504,-38.574,-55.664,0.000
1709297986.317,-36.621,-40.039,-41.016,-54.199,0.000
1709297986.321,-24.902,-34.668,-41.504,-48.340,0.000
1709297986.325,-31.250,-38.574,-46.387,-47.363,0.000
1709297986.329,-38.574,-37.109,-45.898,-49.316,0.000
1709297986.333,-30.762,-35.645,-43.457,-43.945,0.000
1709297986.336,-29.785,-37.598,-41.992,-32.715,0.000
1709297986.340,-29.297,-34.180,-35.645,-16.113,0.000
1709297986.344,-23.926,-32.715,-34.180,-13.672,0.000
1709297986.348,-22.949,-32.227,-33.203,-22.461,0.000
1709297986.352,-34.180,-33.691,-32.715,-22.461,0.000
1709297986.356,-37.598,-35.156,-32.227,-7.324,0.000
1709297986.360,-27.344,-33.691,-31.250,-10.254,0.000
1709297986.364,-27.344,-35.645,-33.691,-21.973,0.000
1709297986.368,-37.109,-39.062,-36.621,-28.809,0.000
1709297986.372,-39.062,-35.156,-38.086,-40.039,0.000
1709297986.375,-31.738,-30.762,-35.156,-26.367,0.000
1709297986.379,-31.250,-32.227,-32.715,-13.184,0.000
1709297986.383,-34.180,-32.227,-30.762,-20.020,0.000
1709297986.387,-37.598,-34.668,-32.227,-30.273,0.000
1709297986.391,-37.109,-33.203,-34.668,-31.250,0.000
1709297986.395,-34.668,-33.691,-32.227,-15.625,0.000
1709297986.399,-30.762,-35.645,-31.250,-1.953,0.000
1709297986.403,-29.297,-31.738,-29.297,-16.113,0.000
1709297986.407,-28.320,-30.762,-31.250,-25.879,0.000
1709297986.411,-27.344,-31.738,-31.738,-29.785,0.000
1709297986.415,-25.879,-31.738,-30.273,-29.785,0.000
1709297986.418,-33.203,-34.668,-35.156,-20.508,0.000
1709297986.422,-38.086,-34.668,-36.621,-16.113,0.000
1709297986.426,-33.203,-36.133,-36.133,-10.742,0.000
1709297986.430,-39.062,-35.645,-41.504,-9.277,0.000
1709297986.434,-43.457,-30.273,-41.504,-20.508,0.000
1709297986.438,-33.203,-31.250,-41.016,-20.508,0.000
1709297986.442,-32.715,-30.762,-37.598,-12.695,0.000
1709297986.446,-32.227,-31.250,-41.992,-16.602,0.000
1709297986.450,-24.414,-27.344,-40.039,-27.344,0.000
1709297986.454,-25.391,-25.879,-33.203,-35.645,0.000
1709297986.458,-25.879,-26.855,-36.133,-19.531,0.000
1709297986.461,-23.438,-24.902,-36.621,-8.301,0.000
1709297986.465,-18.066,-25.391,-34.668,-20.996,0.000
1709297986.469,-15.625,-27.344,-28.809,-31.250,0.000
1709297986.473,-14.648,-30.273,-28.320,-32.227,0.000
1709297986.477,-12.695,-29.297,-28.809,-30.273,0.000
1709297986.481,-9.766,-23.926,-29.297,-10.742,0.000
1709297986.485,-13.672,-22.949,-30.762,-6.348,0.000
1709297986.489,-23.926,-26.367,-31.250,-35.156,0.000
1709297986.493,-26.855,-30.273,-33.691,-44.434,0.000
1709297986.497,-28.320,-34.180,-33.203,-41.016,0.000
1709297986.501,-29.297,-37.598,-33.691,-25.879,0.000
1709297986.504,-33.691,-36.133,-33.691,-15.137,0.000
1709297986.508,-26.855,-39.062,-36.133,-29.785,0.000
1709297986.512,-23.438,-43.457,-41.504,-36.133,0.000
1709297986.516,-34.668,-44.922,-39.551,-29.297,0.000
1709297986.520,-24.414,-41.504,-34.180,-11.230,0.000
1709297986.524,-20.996,-39.551,-31.250,-1.465,0.000
1709297986.528,-40.527,-39.062,-28.809,-22.949,0.000
1709297986.532,-46.387,-35.156,-32.227,-32.227,0.000
1709297986.536,-41.504,-33.203,-33.203,-24.414,0.000
1709297986.540,-38.086,-36.621,-31.738,-21.484,0.000
1709297986.543,-37.598,-41.016,-32.227,-26.367,0.000
1709297986.547,-49.316,-41.504,-27.344,-31.250,0.000
1709297986.551,-51.758,-38.086,-28.320,-36.621,0.000
1709297986.555,-44.922,-33.691,-28.809,-36.621,0.000
1709297986.559,-43.457,-33.203,-29.785,-19.531,0.000
1709297986.563,-41.016,-33.203,-33.203,-17.578,0.000
1709297986.567,-38.574,-34.668,-29.785,-27.344,0.000
1709297986.571,-40.039,-39.062,-27.344,-35.645,0.000
1709297986.575,-39.062,-36.621,-28.320,-32.227,0.000
1709297986.579,-37.109,-35.645,-31.250,-16.113,0.000
1709297986.583,-42.969,-39.062,-33.203,-14.160,0.000
1709297986.586,-50.293,-41.016,-37.109,-37.109,0.000
1709297986.590,-57.617,-43.457,-41.504,-49.805,0.000
1709297986.594,-55.176,-39.062,-39.062,-34.668,0.000
1709297986.598,-47.852,-39.062,-37.598,-29.785,0.000
1709297986.602,-57.129,-43.945,-42.480,-25.879,0.000
1709297986.606,-57.617,-41.504,-42.480,-38.086,0.000
1709297986.610,-55.176,-41.016,-43.457,-46.875,0.000
1709297986.614,-57.617,-42.480,-44.434,-34.180,0.000
1709297986.618,-56.641,-43.457,-37.598,-27.832,0.000
1709297986.622,-58.594,-42.480,-33.691,-23.438,0.000
1709297986.626,-57.129,-41.504,-38.086,-35.156,0.000
1709297986.629,-47.363,-43.945,-43.457,-50.293,0.000
1709297986.633,-40.527,-44.434,-42.969,-50.781,0.000
1709297986.637,-42.969,-41.504,-36.621,-23.926,0.000
1709297986.641,-42.969,-41.992,-33.691,-15.137,0.000
1709297986.645,-44.434,-42.480,-38.574,-33.691,0.000
1709297986.649,-43.945,-44.922,-42.480,-32.227,0.000
1709297986.653,-44.434,-43.945,-40.527,-21.484,0.000
1709297986.657,-48.828,-40.527,-39.062,-20.996,0.000
1709297986.661,-45.410,-43.457,-39.551,-27.344,0.000
1709297986.665,-51.758,-46.875,-38.574,-35.156,0.000
1709297986.668,-55.176,-41.992,-39.551,-43.945,0.000
1709297986.672,-45.898,-36.621,-41.016,-47.363,0.000
1709297986.676,-42.480,-37.598,-40.039,-44.922,0.000
1709297986.680,-40.527,-31.738,-38.574,-33.691,0.000
1709297986.684,-37.598,-28.320,-36.621,-32.227,0.000
1709297986.688,-37.109,-29.785,-35.156,-49.316,0.000
1709297986.692,-37.109,-31.738,-34.668,-56.641,0.000
1709297986.696,-32.227,-38.086,-35.156,-40.527,0.000
1709297986.700,-34.180,-38.574,-35.645,-24.414,0.000
1709297986.704,-41.992,-36.621,-31.250,-26.855,0.000
1709297986.708,-44.922,-40.039,-28.809,-32.715,0.000
1709297986.711,-36.133,-40.527,-34.668,-34.668,0.000
1709297986.715,-29.297,-39.551,-38.574,-35.645,0.000
1709297986.719,-24.414,-30.762,-33.203,-27.832,0.000
1709297986.723,-21.484,-28.320,-30.273,-28.320,0.000
1709297986.727,-36.621,-37.109,-33.691,-31.738,0.000
1709297986.731,-40.039,-37.598,-32.715,-41.992,0.000
1709297986.735,-32.715,-33.691,-31.250,-41.992,0.000
1709297986.739,-35.156,-35.156,-32.227,-25.391,0.000
1709297986.743,-38.574,-38.086,-40.039,-35.156,0.000
1709297986.747,-37.598,-35.645,-46.387,-49.805,0.000
1709297986.750,-39.062,-36.133,-42.969,-54.688,0.000
1709297986.754,-49.316,-41.504,-46.875,-47.363,0.000
1709297986.758,-42.969,-42.969,-45.410,-37.109,0.000
1709297986.762,-31.738,-41.992,-40.527,-34.180,0.000
1709297986.766,-36.133,-41.504,-41.016,-43.945,0.000
1709297986.770,-41.504,-43.945,-41.016,-45.898,0.000
1709297986.774,-40.527,-43.945,-41.016,-43.945,0.000
1709297986.778,-40.039,-38.574,-41.016,-49.805,0.000
1709297986.782,-37.598,-38.086,-41.992,-47.363,0.000
1709297986.786,-30.762,-35.156,-40.039,-45.410,0.000
1709297986.789,-27.344,-29.297,-38.574,-49.316,0.000
1709297986.793,-33.203,-35.645,-37.109,-53.223,0.000
1709297986.797,-34.180,-37.598,-36.133,-31.738,0.000
1709297986.801,-32.227,-35.156,-39.062,-29.297,0.000
1709297986.805,-33.691,-37.598,-41.016,-44.922,0.000
1709297986.809,-33.691,-37.109,-40.039,-52.734,0.000
1709297986.813,-43.457,-39.062,-40.527,-54.688,0.000
1709297986.817,-42.480,-40.039,-41.016,-44.922,0.000
1709297986.821,-38.574,-36.621,-37.598,-41.992,0.000
1709297986.825,-50.781,-37.598,-36.133,-43.945,0.000
1709297986.829,-53.223,-38.574,-40.039,-46.387,0.000
1709297986.832,-47.363,-40.039,-38.574,-47.852,0.000
1709297986.836,-45.898,-41.016,-33.203,-36.621,0.000
1709297986.840,-38.086,-39.551,-31.250,-24.902,0.000
1709297986.844,-35.645,-37.598,-33.691,-31.738,0.000
1709297986.848,-49.316,-35.156,-39.062,-42.969,0.000
1709297986.852,-55.176,-40.039,-43.457,-50.293,0.000
1709297986.856,-42.480,-40.527,-42.480,-43.457,0.000
1709297986.860,-33.203,-31.250,-40.039,-19.531,0.000
1709297986.864,-42.969,-28.320,-41.016,-29.785,0.000
1709297986.868,-46.387,-35.156,-39.062,-42.480,0.000
1709297986.872,-39.062,-38.574,-34.668,-38.086,0.000
1709297986.875,-39.551,-38.574,-33.691,-32.715,0.000
1709297986.879,-38.086,-41.504,-34.180,-19.531,0.000
1709297986.883,-37.598,-37.109,-35.645,-21.484,0.000
1709297986.887,-47.852,-33.203,-39.062,-36.133,0.000
1709297986.891,-47.363,-32.715,-37.598,-43.945,0.000
1709297986.895,-38.574,-30.273,-39.551,-35.156,0.000
1709297986.899,-40.527,-29.785,-42.480,-23.926,0.000
1709297986.903,-44.922,-32.715,-40.039,-20.020,0.000
1709297986.907,-44.434,-32.715,-37.598,-31.738,0.000
1709297986.911,-45.410,-36.133,-36.133,-44.922,0.000
1709297986.915,-41.504,-37.598,-37.109,-42.969,0.000
1709297986.918,-45.410,-35.156,-39.062,-41.504,0.000
1709297986.922,-48.828,-34.180,-38.574,-27.832,0.000
1709297986.926,-49.316,-34.180,-38.086,-23.926,0.000
1709297986.930,-52.246,-35.156,-39.551,-49.316,0.000
1709297986.934,-44.922,-35.645,-40.039,-54.688,0.000
1709297986.938,-34.180,-31.250,-39.062,-40.039,0.000
1709297986.942,-29.785,-28.320,-41.992,-26.367,0.000
1709297986.946,-34.180,-30.273,-42.969,-31.738,0.000
1709297986.950,-36.621,-29.785,-40.527,-32.227,0.000
1709297986.954,-41.016,-34.180,-41.992,-29.297,0.000
1709297986.958,-40.039,-35.156,-41.992,-37.109,0.000
1709297986.961,-37.598,-37.598,-39.062,-37.109,0.000
1709297986.965,-35.645,-35.645,-36.621,-36.621,0.000
1709297986.969,-38.574,-34.180,-37.598,-44.434,0.000
1709297986.973,-38.574,-36.621,-36.133,-43.945,0.000
1709297986.977,-33.203,-32.715,-38.086,-32.715,0.000
1709297986.981,-34.668,-35.645,-40.039,-37.598,0.000
1709297986.985,-36.133,-36.133,-37.598,-44.434,0.000
1709297986.989,-36.133,-33.691,-40.527,-44.434,0.000
1709297986.993,-37.109,-37.598,-42.480,-41.992,0.000
1709297986.997,-36.621,-33.691,-41.992,-40.527,0.000
1709297987.000,-39.062,-30.273,-38.574,-39.551,0.000
1709297987.004,-48.828,-34.180,-33.203,-42.969,0.000
1709297987.008,-54.199,-34.180,-33.691,-43.457,0.000
1709297987.012,-50.781,-35.645,-41.992,-32.227,0.000
1709297987.016,-44.434,-34.668,-41.992,-29.297,0.000
1709297987.020,-41.016,-35.156,-35.645,-30.273,0.000
1709297987.024,-49.316,-41.992,-41.992,-35.645,0.000
1709297987.028,-52.734,-40.039,-46.875,-50.293,0.000
1709297987.032,-40.527,-34.668,-47.852,-42.480,0.000
1709297987.036,-32.227,-29.785,-46.387,-36.621,0.000
1709297987.040,-36.621,-32.715,-41.016,-31.738,0.000
1709297987.043,-40.039,-36.621,-42.969,-20.020,0.000
1709297987.047,-41.504,-32.715,-42.480,-20.020,0.000
1709297987.051,-49.316,-32.715,-41.016,-37.598,0.000
1709297987.055,-47.852,-36.133,-39.062,-37.109,0.000
1709297987.059,-46.875,-34.668,-42.480,-27.344,0.000
1709297987.063,-51.758,-36.621,-46.387,-35.645,0.000
1709297987.067,-43.945,-41.992,-41.016,-36.621,0.000
1709297987.071,-28.320,-40.527,-37.109,-40.039,0.000
1709297987.075,-32.227,-35.156,-40.039,-37.598,0.000
1709297987.079,0.000,-34.668,-38.574,-26.855,0.000
1709297987.082,0.000,-35.645,-36.133,-23.926,0.000
1709297987.086,0.000,-32.227,-37.109,-33.691,0.000
1709297987.090,0.000,-31.738,-37.598,-36.133,0.000
1709297987.094,0.000,-35.645,-37.598,-31.250,0.000
1709297987.098,0.000,-39.062,-38.574,-35.645,0.000
1709297987.102,0.000,-37.598,-37.598,-24.902,0.000
1709297987.106,0.000,-38.086,-35.645,-35.156,0.000
1709297987.110,0.000,-36.133,-33.203,-52.734,0.000
1709297987.114,0.000,-28.809,-29.785,-37.598,0.000
1709297987.118,0.000,-37.109,-29.785,-26.855,0.000
1709297987.121,0.000,-47.363,-35.156,-27.832,0.000
1709297987.125,-25.391,-44.922,-36.621,-41.016,0.000
1709297987.129,-18.555,-40.039,-28.809,-42.480,0.000
1709297987.133,-22.461,-40.527,-33.691,-37.598,0.000
1709297987.137,-30.273,-40.039,-37.598,-35.156,0.000
1709297987.141,-32.227,-39.062,-36.621,-34.180,0.000
1709297987.145,-34.180,-41.992,-39.551,-38.086,0.000
1709297987.149,-35.645,-41.016,-36.133,-37.598,0.000
1709297987.153,-27.832,-37.598,-30.273,-38.086,0.000
1709297987.157,-21.484,-36.621,-27.832,-29.785,0.000
1709297987.161,-19.531,-36.621,-30.762,-15.137,0.000
1709297987.164,-21.973,-36.133,-30.273,-20.508,0.000
1709297987.168,-25.879,-32.227,-28.809,-29.297,0.000
1709297987.172,-24.414,-29.297,-32.227,-32.227,0.000
1709297987.176,-18.555,-29.297,-30.273,-23.438,0.000
1709297987.180,-24.414,-31.738,-28.809,-16.113,0.000
1709297987.184,-24.414,-34.180,-36.133,-35.156,0.000
1709297987.188,-19.043,-40.039,-39.062,-47.363,0.000
1709297987.192,-19.043,-38.086,-40.039,-37.109,0.000
1709297987.196,-19.043,-35.156,-40.039,-31.250,0.000
1709297987.200,-19.531,-37.598,-41.016,-29.785,0.000
1709297987.204,-27.344,-38.574,-42.969,-26.855,0.000
1709297987.207,-40.527,-39.551,-39.062,-31.738,0.000
1709297987.211,-41.992,-42.480,-42.969,-44.922,0.000
1709297987.215,-35.645,-39.551,-44.922,-47.363,0.000
1709297987.219,-29.785,-36.621,-43.457,-32.715,0.000
1709297987.223,-28.320,-36.133,-43.457,-20.508,0.000
1709297987.227,-21.484,-35.156,-43.945,-37.598,0.000
1709297987.231,-25.391,-41.016,-46.875,-48.828,0.000
1709297987.235,-35.645,-42.480,-46.387,-29.297,0.000
1709297987.239,-29.785,-40.527,-43.457,-18.066,0.000
1709297987.243,-22.949,-41.504,-39.551,-17.090,0.000
1709297987.247,-22.461,-37.598,-40.527,-20.996,0.000
1709297987.250,-22.949,-33.691,-39.551,-19.531,0.000
1709297987.254,-20.020,-36.621,-36.621,-16.602,0.000
1709297987.258,-18.555,-37.598,-35.645,-19.531,0.000
1709297987.262,-25.391,-39.062,-34.668,-17.578,0.000
1709297987.266,-27.344,-39.551,-34.180,-27.344,0.000
1709297987.270,-24.414,-37.598,-34.180,-41.504,0.000
1709297987.274,-22.949,-38.574,-38.574,-37.109,0.000
1709297987.278,-24.414,-38.086,-39.062,-22.461,0.000
1709297987.282,-17.578,-34.668,-36.621,-17.090,0.000
1709297987.286,-20.508,-33.691,-40.039,-27.344,0.000
1709297987.290,-34.180,-32.715,-39.551,-29.785,0.000
1709297987.293,-33.203,-31.738,-38.574,-29.785,0.000
1709297987.297,-26.367,-31.250,-39.062,-24.902,0.000
1709297987.301,-26.367,-31.738,-41.016,-14.648,0.000
1709297987.305,-24.902,-30.273,-38.574,-22.461,0.000
1709297987.309,-23.438,-29.785,-34.668,-35.156,0.000
1709297987.313,-23.438,-32.227,-33.691,-29.785,0.000
1709297987.317,-27.832,-31.250,-31.738,-28.320,0.000
1709297987.321,-34.180,-30.762,-33.203,-31.250,0.000
1709297987.325,-32.227,-30.762,-34.180,-26.367,0.000
1709297987.329,-34.668,-29.785,-34.668,-34.180,0.000
1709297987.332,-40.039,-31.738,-40.527,-54.199,0.000
1709297987.336,-35.156,-30.762,-37.109,-42.969,0.000
1709297987.340,-35.156,-32.227,-33.691,-25.391,0.000
1709297987.344,-43.945,-33.691,-34.668,-22.949,0.000
1709297987.348,-43.457,-31.250,-30.273,-31.738,0.000
1709297987.352,-38.574,-36.621,-32.715,-32.715,0.000
1709297987.356,-42.969,-39.551,-35.645,-26.367,0.000
