timestamps,TP9,AF7,AF8,TP10,Right AUX
1709291518.338,-124.512,-33.203,-18.066,-101.074,0.000
1709291518.342,-133.789,-36.133,-14.160,-95.703,0.000
1709291518.346,-142.090,-25.391,-28.809,-108.887,0.000
1709291518.350,-158.691,-34.668,-29.785,-143.555,0.000
1709291518.354,-191.406,-52.734,-19.043,-183.105,0.000
1709291518.357,-204.102,-56.641,-16.113,-191.406,0.000
1709291518.361,-200.195,-38.086,-21.973,-191.406,0.000
1709291518.365,-232.422,-23.438,-31.738,-216.797,0.000
1709291518.369,-253.906,-42.480,-29.297,-236.816,0.000
1709291518.373,-258.301,-55.664,-28.809,-238.281,0.000
1709291518.377,-244.141,-29.297,-21.973,-230.469,0.000
1709291518.381,-228.516,-29.297,-6.348,-200.195,0.000
1709291518.385,-237.793,-49.805,-22.461,-191.895,0.000
1709291518.389,-244.629,-36.621,-39.551,-211.426,0.000
1709291518.393,-243.652,-20.508,-42.480,-223.145,0.000
1709291518.397,-222.168,-26.367,-40.039,-213.867,0.000
1709291518.400,-203.613,-39.551,-25.391,-193.848,0.000
1709291518.404,-188.965,-42.480,-20.508,-164.062,0.000
1709291518.408,-178.223,-39.551,-26.367,-163.086,0.000
1709291518.412,-191.406,-32.715,-39.062,-191.895,0.000
1709291518.416,-185.059,-40.039,-41.992,-180.664,0.000
1709291518.420,-157.715,-30.762,-30.762,-143.066,0.000
1709291518.424,-133.789,-21.973,-27.344,-106.934,0.000
1709291518.428,-125.000,-23.926,-22.949,-95.215,0.000
1709291518.432,-119.629,-24.902,-21.973,-103.516,0.000
1709291518.436,-101.074,-26.367,-27.832,-101.562,0.000
1709291518.440,-91.309,-33.691,-28.809,-77.148,0.000
1709291518.443,-81.055,-43.945,-27.344,-55.664,0.000
1709291518.447,-62.500,-36.133,-20.996,-36.133,0.000
1709291518.451,-49.316,-38.574,-21.973,-30.762,0.000
1709291518.455,-44.922,-38.086,-32.715,-51.270,0.000
1709291518.459,-43.457,-42.969,-33.203,-44.922,0.000
1709291518.463,-24.902,-59.570,-34.180,-13.672,0.000
1709291518.467,-15.137,-36.621,-35.645,-7.324,0.000
1709291518.471,-9.277,-26.367,-27.832,-4.395,0.000
1709291518.475,-3.418,-40.039,-29.297,1.465,0.000
1709291518.479,21.973,-33.203,-24.414,16.602,0.000
1709291518.483,37.109,-22.949,-30.273,25.879,0.000
1709291518.486,16.113,-42.969,-41.992,20.996,0.000
1709291518.490,1.953,-62.988,-41.016,10.742,0.000
1709291518.494,17.578,-55.176,-39.062,19.531,0.000
1709291518.498,26.367,-53.711,-35.645,26.855,0.000
1709291518.502,38.086,-59.570,-36.621,32.227,0.000
1709291518.506,43.457,-70.801,-40.039,44.922,0.000
1709291518.510,33.691,-48.828,-40.527,38.574,0.000
1709291518.514,35.645,-24.414,-38.574,33.691,0.000
1709291518.518,43.945,-38.086,-41.504,34.180,0.000
1709291518.522,47.852,-48.828,-41.504,47.852,0.000
1709291518.525,53.223,-41.992,-38.086,66.895,0.000
1709291518.529,47.363,-33.203,-33.691,71.289,0.000
1709291518.533,36.133,-39.551,-33.691,52.734,0.000
1709291518.537,38.574,-41.992,-35.156,34.180,0.000
1709291518.541,40.039,-43.457,-34.180,43.457,0.000
1709291518.545,42.969,-51.270,-37.109,54.199,0.000
1709291518.549,37.598,-51.270,-40.039,46.875,0.000
1709291518.553,35.645,-44.922,-38.574,41.504,0.000
1709291518.557,33.203,-25.879,-34.668,34.668,0.000
1709291518.560,20.996,-39.551,-45.410,13.672,0.000
1709291518.564,27.344,-58.594,-46.387,32.227,0.000
1709291518.568,20.996,-50.781,-42.480,48.828,0.000
1709291518.572,26.855,-41.992,-44.922,25.391,0.000
1709291518.576,41.016,-35.156,-43.945,20.020,0.000
1709291518.580,28.809,-40.527,-41.992,28.320,0.000
1709291518.584,30.273,-32.715,-36.621,34.668,0.000
1709291518.588,37.598,-27.344,-42.969,36.133,0.000
1709291518.592,43.457,-37.598,-43.457,31.250,0.000
1709291518.595,34.180,-50.781,-35.156,35.645,0.000
1709291518.599,19.531,-29.297,-34.180,50.781,0.000
1709291518.603,18.066,-11.719,-37.598,43.945,0.000
1709291518.607,24.902,-27.832,-37.109,47.852,0.000
1709291518.611,20.996,-35.156,-31.738,36.621,0.000
1709291518.615,13.184,-37.598,-32.227,1.465,0.000
1709291518.618,8.789,-35.645,-33.203,6.348,0.000
1709291518.622,4.395,-33.691,-32.227,20.996,0.000
1709291518.626,7.812,-32.227,-33.203,16.113,0.000
1709291518.630,3.418,-31.250,-37.598,6.348,0.000
1709291518.634,-3.906,-32.715,-40.039,-2.441,0.000
1709291518.638,12.207,-34.180,-30.273,22.949,0.000
1709291518.642,13.184,-45.410,-32.227,35.645,0.000
1709291518.646,14.160,-29.785,-33.203,34.180,0.000
1709291518.650,14.160,-10.742,-28.320,34.668,0.000
1709291518.654,-12.207,-42.480,-35.645,16.602,0.000
1709291518.658,-12.207,-42.969,-41.992,14.160,0.000
1709291518.661,-4.883,-19.531,-41.992,11.230,0.000
1709291518.666,-12.207,-39.062,-42.969,15.625,0.000
1709291518.670,-15.625,-51.270,-43.945,5.371,0.000
1709291518.674,-10.254,-28.809,-39.551,-4.883,0.000
1709291518.677,0.977,-17.578,-39.551,12.207,0.000
1709291518.681,8.789,-32.227,-44.434,18.066,0.000
1709291518.685,6.348,-52.734,-46.875,14.160,0.000
1709291518.689,0.977,-36.621,-50.293,10.254,0.000
1709291518.693,2.441,-20.508,-46.875,-1.465,0.000
1709291518.697,11.230,-31.738,-38.574,-3.418,0.000
1709291518.701,15.625,-40.527,-41.504,18.066,0.000
1709291518.705,10.254,-14.160,-45.898,23.926,0.000
1709291518.709,-1.953,-10.742,-44.434,11.230,0.000
1709291518.713,-8.789,-36.133,-37.598,9.277,0.000
1709291518.717,-20.020,-32.227,-34.180,-6.348,0.000
1709291518.721,-24.902,-18.555,-39.062,-17.090,0.000
1709291518.725,-25.879,-28.320,-43.457,-9.277,0.000
1709291518.728,-28.809,-42.969,-43.945,-14.648,0.000
1709291518.732,-33.691,-46.387,-45.410,-35.645,0.000
1709291518.736,-34.180,-34.668,-40.039,-40.527,0.000
1709291518.740,-33.691,-32.715,-37.109,-33.203,0.000
1709291518.744,-27.832,-43.457,-41.992,-14.160,0.000
1709291518.748,-25.391,-45.410,-33.691,6.348,0.000
1709291518.752,-28.809,-27.832,-39.062,-13.672,0.000
1709291518.756,-16.602,-34.668,-46.387,-24.902,0.000
1709291518.760,-24.414,-47.363,-43.945,-22.949,0.000
1709291518.764,-30.273,-30.762,-48.828,-15.625,0.000
1709291518.768,-21.484,-13.672,-42.480,-7.812,0.000
1709291518.772,-25.391,-16.602,-35.645,-4.883,0.000
1709291518.775,-28.809,-29.785,-36.621,-18.066,0.000
1709291518.779,-23.926,-30.762,-34.668,-26.855,0.000
1709291518.783,-22.949,-27.344,-37.109,-16.113,0.000
1709291518.787,-35.645,-28.320,-40.527,-16.602,0.000
1709291518.791,-44.434,-50.293,-40.039,-22.461,0.000
1709291518.795,-41.016,-45.410,-42.969,-38.574,0.000
1709291518.799,-40.527,-18.066,-45.410,-43.457,0.000
1709291518.803,-33.203,-23.926,-37.109,-24.414,0.000
1709291518.807,-41.016,-34.668,-39.062,-25.391,0.000
1709291518.811,-46.387,-26.855,-39.551,-41.992,0.000
1709291518.815,-34.180,-24.414,-32.715,-44.922,0.000
1709291518.818,-31.250,-38.086,-34.668,-48.340,0.000
1709291518.822,-36.621,-38.574,-41.016,-33.203,0.000
1709291518.826,-33.691,-40.527,-41.504,-22.461,0.000
1709291518.830,-34.180,-39.062,-40.527,-33.203,0.000
1709291518.834,-45.898,-36.621,-41.016,-42.969,0.000
1709291518.838,-42.969,-41.992,-40.527,-30.273,0.000
1709291518.842,-22.949,-17.090,-41.016,-20.020,0.000
1709291518.846,-13.672,-10.254,-39.551,-10.742,0.000
1709291518.850,-22.949,-35.645,-39.062,-10.742,0.000
1709291518.853,-29.297,-35.645,-41.016,-26.367,0.000
1709291518.857,-30.762,-21.973,-36.621,-41.992,0.000
1709291518.861,-24.414,-31.250,-34.668,-38.574,0.000
1709291518.865,-28.320,-36.621,-41.016,-27.344,0.000
1709291518.869,-38.086,-28.809,-39.062,-18.066,0.000
1709291518.873,-35.156,-29.297,-28.320,-25.391,0.000
1709291518.877,-29.785,-33.691,-26.855,-33.203,0.000
1709291518.881,-40.039,-48.828,-34.180,-27.832,0.000
1709291518.885,-27.344,-31.250,-33.691,-24.414,0.000
1709291518.889,-18.066,-13.184,-36.621,-26.855,0.000
1709291518.892,-27.832,-29.785,-41.504,-28.809,0.000
1709291518.896,-12.695,-33.203,-26.367,-20.508,0.000
1709291518.900,-14.160,-33.203,-26.367,-16.113,0.000
1709291518.904,-26.367,-28.809,-35.156,-30.273,0.000
1709291518.908,-28.809,-33.203,-33.203,-28.320,0.000
1709291518.912,-28.809,-34.668,-31.250,-35.645,0.000
1709291518.916,-30.273,-27.344,-33.203,-62.012,0.000
1709291518.920,-46.875,-30.273,-48.340,-59.570,0.000
1709291518.924,-39.062,-38.574,-51.270,-35.645,0.000
1709291518.927,-31.738,-42.480,-44.922,-18.555,0.000
1709291518.931,-32.715,-8.301,-43.945,-31.250,0.000
1709291518.935,-22.461,-12.207,-41.504,-43.457,0.000
1709291518.939,-23.438,-37.598,-40.527,-42.969,0.000
1709291518.943,-29.785,-35.645,-37.109,-19.531,0.000
1709291518.947,-28.809,-32.715,-29.785,-13.672,0.000
1709291518.951,-33.691,-29.785,-37.598,-45.410,0.000
1709291518.954,-39.551,-42.969,-41.992,-47.852,0.000
1709291518.958,-22.461,-31.250,-32.715,-29.785,0.000
1709291518.962,-12.695,-25.391,-36.133,-23.438,0.000
1709291518.966,-26.855,-40.039,-34.180,-24.902,0.000
1709291518.970,-41.992,-47.852,-37.109,-27.832,0.000
1709291518.974,-47.363,-24.902,-43.457,-33.691,0.000
1709291518.978,-39.551,-20.020,-36.621,-37.598,0.000
1709291518.982,-39.551,-40.527,-38.574,-31.738,0.000
1709291518.986,-39.551,-23.926,-37.598,-19.531,0.000
1709291518.990,-48.828,-12.207,-33.203,-26.855,0.000
1709291518.993,-56.641,-19.531,-31.738,-49.316,0.000
1709291518.997,-36.133,-25.879,-32.227,-38.086,0.000
1709291519.001,-20.020,-31.250,-36.621,-19.531,0.000
1709291519.005,-29.297,-26.855,-40.527,-19.043,0.000
1709291519.009,-38.086,-29.785,-41.992,-25.391,0.000
1709291519.013,-30.762,-52.246,-41.992,-36.133,0.000
1709291519.017,-23.438,-61.035,-41.504,-32.715,0.000
1709291519.020,-21.973,-21.973,-33.691,-22.461,0.000
1709291519.024,-32.715,-30.762,-38.086,-23.926,0.000
1709291519.028,-40.039,-51.270,-48.340,-35.645,0.000
1709291519.032,-23.926,-24.414,-53.711,-24.902,0.000
1709291519.036,-29.785,-15.137,-48.828,-20.508,0.000
1709291519.040,-43.945,-38.086,-35.645,-24.414,0.000
1709291519.044,-42.969,-47.852,-33.203,-19.043,0.000
1709291519.048,-50.781,-38.086,-35.156,-19.043,0.000
1709291519.052,-51.758,-26.855,-36.621,-41.504,0.000
1709291519.056,-39.551,-32.715,-34.668,-41.016,0.000
1709291519.060,-47.852,-58.594,-34.668,-36.621,0.000
1709291519.064,-47.852,-47.852,-32.715,-26.855,0.000
1709291519.068,-38.574,-20.508,-27.832,-24.902,0.000
1709291519.072,-41.504,-24.902,-30.273,-38.574,0.000
1709291519.076,-43.945,-48.828,-32.715,-32.227,0.000
1709291519.079,-43.945,-34.180,-41.016,-28.320,0.000
1709291519.083,-35.645,-22.949,-46.387,-29.297,0.000
1709291519.087,-42.480,-34.668,-43.457,-40.039,0.000
1709291519.091,-55.176,-43.457,-43.945,-47.852,0.000
1709291519.095,-41.504,-44.922,-41.992,-51.270,0.000
1709291519.099,-33.691,-29.785,-41.016,-54.688,0.000
1709291519.103,-38.574,-33.203,-47.363,-46.387,0.000
1709291519.107,-34.180,-47.852,-47.852,-35.156,0.000
1709291519.111,-43.945,-43.457,-44.922,-41.992,0.000
1709291519.115,-40.039,-22.949,-44.434,-52.734,0.000
1709291519.119,-28.809,-33.691,-44.922,-46.387,0.000
1709291519.123,-24.414,-49.316,-42.969,-19.531,0.000
1709291519.127,-20.508,-14.160,-33.691,-7.812,0.000
1709291519.130,-27.344,-25.879,-37.598,-17.578,0.000
1709291519.134,-35.645,-47.852,-45.410,-30.762,0.000
1709291519.138,-33.203,-38.574,-40.527,-42.480,0.000
1709291519.142,-20.020,-34.668,-33.691,-25.879,0.000
1709291519.146,-9.277,-38.086,-34.668,-6.836,0.000
1709291519.150,-24.902,-52.734,-37.598,-12.207,0.000
1709291519.154,-28.809,-50.781,-39.062,-25.879,0.000
1709291519.158,-13.672,-30.273,-37.109,-20.996,0.000
1709291519.162,-18.555,-20.020,-30.273,-13.672,0.000
1709291519.166,-28.320,-50.293,-28.809,-10.254,0.000
1709291519.170,-32.227,-39.551,-33.203,-26.855,0.000
1709291519.174,-32.227,-17.578,-34.668,-42.969,0.000
1709291519.177,-32.227,-37.598,-30.762,-43.457,0.000
1709291519.181,-29.785,-33.203,-28.320,-39.551,0.000
1709291519.185,-25.879,-19.043,-22.949,-24.414,0.000
1709291519.189,-28.320,-26.367,-26.367,-16.602,0.000
1709291519.193,-28.320,-39.062,-26.367,-20.996,0.000
1709291519.197,-30.762,-41.016,-24.902,-30.762,0.000
1709291519.201,-29.785,-40.039,-29.785,-23.438,0.000
1709291519.205,-28.809,-42.480,-31.738,-12.207,0.000
1709291519.209,-30.762,-45.410,-35.156,-18.555,0.000
1709291519.213,-29.785,-45.898,-33.691,-22.949,0.000
1709291519.217,-24.902,-29.785,-31.738,-35.156,0.000
1709291519.220,-20.020,-16.113,-39.062,-27.344,0.000
1709291519.224,-19.531,-31.738,-37.109,-11.230,0.000
1709291519.228,-29.297,-35.645,-33.691,-17.578,0.000
1709291519.232,-39.551,-20.020,-31.738,-26.367,0.000
1709291519.236,-36.133,-24.414,-29.785,-33.691,0.000
1709291519.240,-32.227,-33.203,-29.785,-33.203,0.000
1709291519.244,-22.949,-17.578,-22.949,-14.648,0.000
1709291519.248,-26.855,-22.949,-30.273,-14.648,0.000
1709291519.252,-53.223,-36.621,-44.922,-39.062,0.000
1709291519.256,-47.852,-42.480,-43.945,-33.203,0.000
1709291519.259,-39.062,-30.273,-45.898,-20.996,0.000
1709291519.263,-40.039,-22.949,-44.434,-26.367,0.000
1709291519.267,-37.109,-34.668,-42.480,-20.508,0.000
1709291519.271,-40.039,-27.344,-39.551,-28.809,0.000
1709291519.275,-33.203,-20.508,-38.574,-41.992,0.000
1709291519.279,-25.879,-28.809,-41.016,-40.039,0.000
1709291519.283,-24.414,-34.180,-31.738,-35.156,0.000
1709291519.287,-23.926,-28.320,-27.832,-30.762,0.000
1709291519.290,-23.926,-25.391,-34.668,-30.273,0.000
1709291519.294,-35.156,-33.691,-37.598,-38.574,0.000
1709291519.298,-38.086,-38.086,-38.086,-36.133,0.000
1709291519.302,-25.879,-42.969,-45.410,-16.113,0.000
1709291519.306,-22.949,-18.066,-42.969,-8.789,0.000
1709291519.310,-40.527,-15.625,-41.016,-24.902,0.000
1709291519.314,-53.223,-27.832,-38.086,-38.086,0.000
1709291519.318,-40.039,-25.879,-35.156,-36.133,0.000
1709291519.321,-30.762,-27.344,-40.527,-27.832,0.000
1709291519.325,-33.203,-31.250,-41.504,-25.879,0.000
1709291519.329,-39.551,-33.203,-27.344,-20.996,0.000
1709291519.333,-32.227,-17.578,-21.973,-27.832,0.000
1709291519.337,-29.297,-12.695,-42.480,-41.504,0.000
1709291519.341,-30.762,-25.391,-40.527,-26.367,0.000
1709291519.345,-28.809,-52.734,-37.598,-18.066,0.000
1709291519.349,-30.273,-38.086,-42.480,-26.855,0.000
1709291519.353,-36.621,-12.695,-43.945,-50.781,0.000
1709291519.357,-41.016,-29.785,-44.434,-51.270,0.000
1709291519.361,-36.133,-38.574,-38.574,-29.785,0.000
1709291519.364,-32.227,-20.508,-33.691,-13.184,0.000
1709291519.368,-34.668,-16.113,-34.668,-11.719,0.000
1709291519.372,-32.227,-27.344,-28.320,-13.672,0.000
1709291519.376,-30.762,-35.645,-29.785,-29.297,0.000
1709291519.380,-37.598,-35.156,-31.250,-38.086,0.000
1709291519.384,-30.762,-22.949,-28.320,-20.996,0.000
1709291519.388,-26.367,-30.273,-31.738,-12.207,0.000
1709291519.391,-33.691,-43.457,-31.250,-4.883,0.000
1709291519.395,-31.738,-18.066,-25.879,-20.996,0.000
1709291519.399,-20.020,-14.648,-33.691,-39.551,0.000
1709291519.403,-18.066,-33.691,-33.691,-19.043,0.000
1709291519.407,-27.832,-26.367,-34.180,-11.719,0.000
1709291519.411,-32.227,-23.926,-41.504,-25.879,0.000
1709291519.415,-34.180,-37.598,-44.434,-42.969,0.000
1709291519.419,-29.785,-39.551,-45.898,-41.504,0.000
1709291519.423,-24.414,-29.297,-36.133,-16.113,0.000
1709291519.427,-34.180,-22.949,-31.250,-8.789,0.000
1709291519.431,-36.133,-30.762,-32.227,-22.461,0.000
1709291519.435,-48.340,-47.363,-29.297,-44.922,0.000
1709291519.439,-44.922,-39.062,-34.668,-46.875,0.000
1709291519.443,-34.180,-28.809,-42.480,-33.203,0.000
1709291519.446,-35.645,-33.691,-40.039,-33.691,0.000
1709291519.450,-38.574,-53.223,-30.273,-37.598,0.000
1709291519.454,-47.363,-38.086,-33.691,-47.852,0.000
1709291519.458,-35.156,-25.391,-38.574,-54.199,0.000
1709291519.462,-21.973,-42.969,-33.203,-27.832,0.000
1709291519.466,-27.344,-45.898,-31.250,-12.695,0.000
1709291519.470,-33.203,-33.691,-29.785,-20.020,0.000
1709291519.474,-30.762,-30.762,-23.438,-31.250,0.000
1709291519.478,-21.973,-32.227,-27.344,-27.832,0.000
1709291519.482,-17.578,-38.574,-36.133,-13.184,0.000
1709291519.486,-32.715,-33.203,-38.086,-16.113,0.000
1709291519.490,-35.156,-17.578,-36.133,-27.344,0.000
1709291519.494,-30.273,-29.297,-32.227,-30.762,0.000
1709291519.498,-41.016,-49.316,-36.621,-23.438,0.000
1709291519.501,-37.598,-28.809,-43.945,-30.273,0.000
1709291519.505,-30.762,-29.297,-42.969,-30.762,0.000
1709291519.509,-30.762,-40.527,-39.062,-28.320,0.000
1709291519.513,-35.156,-24.902,-40.039,-38.574,0.000
1709291519.517,-46.387,-26.367,-40.039,-37.598,0.000
1709291519.521,-42.969,-39.551,-32.227,-15.625,0.000
1709291519.525,-47.363,-44.922,-31.250,-14.160,0.000
1709291519.529,-45.898,-37.109,-28.320,-19.531,0.000
1709291519.533,-30.273,-13.672,-23.438,-18.066,0.000
1709291519.537,-37.109,-14.648,-36.621,-39.062,0.000
1709291519.541,-37.598,-44.922,-39.551,-30.273,0.000
1709291519.545,-29.785,-28.320,-39.551,-18.555,0.000
1709291519.548,-28.809,-8.789,-41.504,-17.090,0.000
1709291519.552,-25.879,-28.809,-34.180,-23.926,0.000
1709291519.556,-27.832,-28.320,-38.574,-46.387,0.000
1709291519.560,-30.273,-21.484,-43.457,-34.180,0.000
1709291519.564,-16.113,-25.391,-41.992,-7.324,0.000
1709291519.568,-11.230,-40.527,-42.480,-4.883,0.000
1709291519.572,-52.246,-48.828,-41.016,-32.715,0.000
1709291519.576,-75.195,-49.805,-36.133,-60.547,0.000
1709291519.580,-60.059,-45.898,-33.691,-44.434,0.000
1709291519.584,-41.016,-48.828,-33.203,-17.578,0.000
1709291519.587,-50.293,-65.430,-31.738,-12.695,0.000
1709291519.591,-62.012,-45.410,-37.109,-22.949,0.000
1709291519.595,-64.453,-49.316,-37.598,-29.785,0.000
1709291519.599,-59.570,-79.102,-37.598,-30.762,0.000
1709291519.603,0.000,-84.961,0.000,-24.414,0.000
1709291519.607,0.000,-71.777,0.000,-18.555,0.000
1709291519.611,0.000,-83.008,0.000,-20.508,0.000
1709291519.615,0.000,-94.238,0.000,-14.160,0.000
1709291519.619,0.000,-83.496,0.000,-7.324,0.000
1709291519.623,0.000,-86.914,0.000,10.254,0.000
1709291519.627,0.000,-91.797,0.000,14.160,0.000
1709291519.630,0.000,-100.098,0.000,25.879,0.000
1709291519.634,0.000,-85.449,0.000,19.043,0.000
1709291519.638,0.000,-70.801,0.000,19.043,0.000
1709291519.642,0.000,-81.543,0.000,43.457,0.000
1709291519.646,0.000,-86.426,0.000,35.645,0.000
1709291519.650,-15.137,-80.078,-18.066,41.992,0.000
1709291519.654,10.254,-80.078,-19.531,49.805,0.000
1709291519.658,8.301,-82.031,-23.438,40.527,0.000
1709291519.661,12.207,-75.684,-22.949,42.480,0.000
1709291519.665,10.742,-77.148,-17.578,61.035,0.000
1709291519.669,12.207,-76.660,-13.672,74.219,0.000
1709291519.673,5.371,-81.543,-20.508,45.410,0.000
1709291519.677,4.395,-94.238,-22.461,40.527,0.000
1709291519.681,9.277,-63.965,-15.137,49.316,0.000
1709291519.685,15.137,-57.129,-13.672,56.152,0.000
1709291519.689,15.625,-74.219,-19.043,50.781,0.000
1709291519.693,12.695,-72.754,-17.578,42.969,0.000
1709291519.696,17.578,-55.664,-12.695,33.691,0.000
1709291519.700,13.672,-44.922,-14.160,35.156,0.000
1709291519.704,5.859,-50.781,-13.672,54.688,0.000
1709291519.708,-15.137,-48.828,-22.461,44.922,0.000
1709291519.712,-15.137,-55.664,-23.438,25.879,0.000
1709291519.716,5.371,-57.617,-20.020,17.090,0.000
1709291519.720,-0.977,-62.012,-16.602,23.438,0.000
1709291519.724,-3.906,-45.898,-12.695,50.293,0.000
1709291519.728,-3.418,-22.949,-12.207,56.641,0.000
1709291519.731,-10.742,-42.480,-16.113,39.062,0.000
1709291519.735,-3.418,-52.734,-22.949,19.043,0.000
1709291519.739,-2.930,-35.156,-22.949,19.531,0.000
1709291519.743,-0.488,-28.320,-18.555,35.156,0.000
1709291519.747,2.930,-29.785,-21.973,35.645,0.000
1709291519.751,-0.488,-31.250,-25.391,22.949,0.000
1709291519.755,-5.371,-30.273,-20.508,8.789,0.000
1709291519.758,3.418,-23.438,-17.578,1.953,0.000
1709291519.762,10.742,-36.621,-26.855,14.160,0.000
1709291519.766,-11.719,-51.270,-24.902,35.156,0.000
1709291519.770,-27.344,-27.344,-19.531,22.461,0.000
1709291519.774,-13.672,-25.879,-22.949,3.906,0.000
1709291519.778,-10.742,-45.410,-28.809,-1.465,0.000
1709291519.782,-3.418,-37.598,-25.391,9.766,0.000
1709291519.786,4.395,-28.320,-20.508,31.738,0.000
1709291519.790,-4.883,-41.992,-26.367,26.367,0.000
1709291519.794,-28.809,-42.480,-27.344,-19.043,0.000
1709291519.798,-29.785,-38.086,-24.414,-31.738,0.000
1709291519.802,-34.668,-41.016,-26.367,-13.184,0.000
1709291519.806,-27.344,-36.133,-23.926,5.859,0.000
1709291519.810,-23.438,-52.246,-21.973,13.184,0.000
1709291519.813,-30.762,-51.758,-23.438,-1.953,0.000
1709291519.817,-21.973,-38.086,-20.996,-11.230,0.000
1709291519.821,-5.371,-49.805,-19.531,-3.906,0.000
1709291519.825,-2.930,-66.895,-17.578,16.602,0.000
1709291519.829,-14.648,-47.363,-18.555,11.719,0.000
1709291519.833,-13.672,-29.785,-15.137,-7.324,0.000
1709291519.837,-9.766,-46.387,-19.043,-11.230,0.000
1709291519.841,-13.184,-48.828,-26.855,-0.977,0.000
1709291519.845,-7.812,-40.527,-25.879,0.000,0.000
1709291519.849,-10.254,-42.969,-24.414,-3.418,0.000
1709291519.853,-17.578,-46.387,-20.996,-4.395,0.000
1709291519.857,-21.484,-49.316,-20.996,-8.789,0.000
1709291519.861,-27.344,-48.828,-23.438,-10.254,0.000
1709291519.864,-24.902,-35.645,-29.785,-9.277,0.000
1709291519.868,-28.809,-46.387,-26.367,6.836,0.000
1709291519.872,-33.203,-63.477,-27.344,4.395,0.000
1709291519.876,-23.438,-30.273,-41.016,-25.391,0.000
1709291519.880,-22.461,-34.180,-40.527,-20.020,0.000
1709291519.884,-25.391,-51.270,-28.809,-0.488,0.000
1709291519.888,-23.438,-34.180,-26.367,7.324,0.000
1709291519.892,-33.203,-33.203,-28.809,-9.766,0.000
1709291519.896,-29.785,-44.922,-35.156,-26.367,0.000
1709291519.900,-14.648,-46.387,-35.645,-23.926,0.000
1709291519.904,-20.996,-45.410,-32.227,-4.395,0.000
1709291519.908,-33.691,-40.527,-18.555,7.324,0.000
1709291519.911,-36.133,-31.250,-20.508,-2.441,0.000
1709291519.915,-39.062,-50.293,-30.273,-5.859,0.000
1709291519.919,-33.691,-32.715,-21.484,1.953,0.000
1709291519.923,-20.508,-11.230,-16.602,-2.441,0.000
1709291519.927,-19.043,-30.762,-23.438,-15.137,0.000
1709291519.931,-30.762,-36.133,-28.320,-20.996,0.000
1709291519.935,-29.785,-26.855,-26.855,-34.668,0.000
1709291519.939,-25.879,-30.273,-26.367,-39.551,0.000
1709291519.943,-31.250,-32.227,-29.785,-22.949,0.000
1709291519.947,-28.320,-31.250,-37.598,-20.020,0.000
1709291519.951,-36.133,-37.109,-39.551,-21.973,0.000
1709291519.955,-43.457,-35.645,-37.598,-24.902,0.000
1709291519.959,-34.180,-41.016,-36.621,-28.809,0.000
1709291519.962,-24.414,-47.852,-30.762,-15.137,0.000
1709291519.966,-23.926,-28.809,-33.203,-10.742,0.000
1709291519.970,-20.020,-23.926,-41.016,-22.949,0.000
1709291519.974,-13.672,-32.715,-40.527,-34.668,0.000
1709291519.978,-22.461,-36.133,-33.691,-36.621,0.000
1709291519.982,-24.902,-22.461,-35.645,-35.645,0.000
1709291519.986,-17.578,-22.949,-37.598,-22.461,0.000
1709291519.990,-17.090,-35.645,-37.109,-21.973,0.000
1709291519.994,-24.902,-27.832,-41.016,-36.133,0.000
1709291519.998,-34.180,-32.715,-38.574,-40.039,0.000
1709291520.001,-36.621,-39.062,-39.062,-39.062,0.000
1709291520.005,-32.227,-44.434,-36.133,-18.066,0.000
1709291520.009,-31.250,-29.785,-33.203,-15.137,0.000
1709291520.013,-30.273,-12.207,-36.133,-35.156,0.000
1709291520.017,-29.297,-24.414,-30.273,-43.457,0.000
1709291520.021,-28.809,-32.715,-27.832,-21.973,0.000
1709291520.025,-25.391,-21.484,-29.297,-5.859,0.000
1709291520.029,-24.902,-20.508,-28.320,-20.020,0.000
1709291520.033,-36.621,-34.668,-29.297,-28.320,0.000
1709291520.036,-44.922,-40.039,-28.320,-44.922,0.000
1709291520.040,-44.434,-32.227,-22.461,-45.898,0.000
1709291520.044,-36.621,-34.668,-22.461,-25.391,0.000
1709291520.048,-25.879,-49.805,-20.996,-17.578,0.000
1709291520.052,-23.438,-55.664,-32.715,-19.531,0.000
1709291520.056,-23.438,-23.926,-39.551,-27.344,0.000
1709291520.060,-32.715,-22.461,-33.691,-30.273,0.000
1709291520.064,-38.574,-38.086,-31.738,-19.531,0.000
1709291520.068,-44.922,-42.969,-37.598,-34.668,0.000
1709291520.071,-49.316,-36.621,-37.598,-45.410,0.000
1709291520.075,-36.621,-25.879,-30.273,-34.180,0.000
1709291520.079,-37.109,-36.621,-33.691,-34.180,0.000
1709291520.083,-40.527,-38.086,-37.598,-36.621,0.000
1709291520.087,-28.809,-28.809,-33.203,-30.273,0.000
1709291520.091,-29.785,-38.574,-32.715,-28.320,0.000
1709291520.095,-41.992,-51.758,-43.945,-41.992,0.000
1709291520.099,-40.527,-37.598,-46.387,-50.293,0.000
1709291520.103,-35.645,-19.531,-36.133,-39.062,0.000
1709291520.106,-30.273,-29.297,-30.762,-37.598,0.000
1709291520.110,-35.156,-34.180,-37.109,-29.297,0.000
1709291520.114,-31.738,-23.438,-37.109,-26.367,0.000
1709291520.118,-26.855,-24.902,-34.180,-42.480,0.000
1709291520.122,-38.086,-36.621,-32.227,-37.598,0.000
1709291520.126,-34.668,-37.109,-33.691,-25.391,0.000
1709291520.129,-26.367,-28.320,-37.598,-30.762,0.000
1709291520.133,-30.273,-30.762,-42.480,-53.711,0.000
1709291520.137,-35.156,-49.805,-36.133,-59.570,0.000
1709291520.141,-38.086,-62.988,-29.785,-38.086,0.000
1709291520.145,-41.016,-24.414,-33.691,-40.039,0.000
1709291520.149,-32.227,-13.672,-38.574,-30.273,0.000
1709291520.153,-30.762,-35.645,-38.086,-25.391,0.000
1709291520.157,-45.410,-40.039,-43.457,-38.574,0.000
1709291520.161,-35.156,-34.668,-41.504,-31.250,0.000
1709291520.165,-30.273,-34.180,-38.574,-20.020,0.000
1709291520.169,-29.297,-33.691,-37.109,-17.578,0.000
1709291520.173,-31.738,-29.297,-39.551,-25.391,0.000
1709291520.177,-32.227,-27.344,-40.039,-36.133,0.000
1709291520.181,-30.762,-37.109,-38.086,-38.574,0.000
1709291520.185,-36.133,-48.340,-40.039,-16.602,0.000
1709291520.188,-32.715,-35.156,-40.039,-5.371,0.000
1709291520.192,-32.715,-24.414,-36.621,-32.227,0.000
1709291520.196,-30.273,-33.691,-31.738,-42.480,0.000
1709291520.200,-33.691,-49.805,-32.715,-22.461,0.000
1709291520.204,-36.621,-35.156,-36.621,-14.160,0.000
1709291520.208,-35.645,-18.066,-36.133,-34.180,0.000
1709291520.213,-41.016,-24.414,-37.598,-44.434,0.000
1709291520.217,-37.598,-29.785,-43.457,-40.527,0.000
1709291520.221,-23.926,-23.926,-37.598,-34.180,0.000
1709291520.225,-23.438,-22.461,-32.715,-25.391,0.000
1709291520.229,-27.344,-34.668,-38.574,-6.348,0.000
1709291520.233,-34.180,-41.016,-35.156,-13.672,0.000
1709291520.236,-44.434,-33.691,-34.180,-42.480,0.000
1709291520.240,-34.668,-30.273,-37.109,-40.527,0.000
1709291520.244,-10.254,-29.297,-37.598,-18.555,0.000
1709291520.248,-13.184,-40.039,-41.016,-0.977,0.000
1709291520.252,-27.344,-24.902,-35.156,-17.090,0.000
1709291520.256,-25.391,-18.066,-35.156,-29.785,0.000
1709291520.260,-33.203,-37.598,-43.457,-31.250,0.000
1709291520.264,-31.250,-33.691,-40.039,-25.879,0.000
1709291520.268,-29.297,-27.832,-39.551,-17.578,0.000
1709291520.272,-40.527,-27.832,-41.504,-35.156,0.000
1709291520.276,-44.434,-33.203,-42.480,-41.504,0.000
1709291520.280,-53.711,-34.180,-44.922,-47.363,0.000
1709291520.284,-44.922,-18.066,-39.062,-39.062,0.000
1709291520.288,-15.137,-16.602,-35.156,-19.043,0.000
1709291520.292,-28.809,-37.598,-41.016,-26.367,0.000
1709291520.295,-64.941,-31.738,-35.645,-50.293,0.000
1709291520.299,-57.617,-22.461,-31.738,-63.965,0.000
1709291520.303,-33.691,-34.180,-30.273,-31.738,0.000
1709291520.308,-31.738,-56.152,-29.785,4.395,0.000
1709291520.311,-33.691,-29.785,-35.645,-5.371,0.000
1709291520.315,-21.484,-13.184,-46.387,-30.273,0.000
1709291520.319,-36.621,-26.855,-59.570,-55.176,0.000
1709291520.323,-56.152,-30.762,-59.570,-57.129,0.000
1709291520.327,-49.805,-32.227,-54.688,-41.016,0.000
1709291520.331,-44.922,-22.461,-49.316,-43.457,0.000
1709291520.335,-40.039,-28.320,-41.992,-36.133,0.000
1709291520.339,-24.414,-38.574,-29.785,-16.602,0.000
1709291520.343,-19.531,-16.113,-28.809,-23.926,0.000
1709291520.347,-33.691,-16.602,-34.180,-20.508,0.000
1709291520.351,-46.875,-30.273,-38.574,-30.762,0.000
1709291520.354,-49.805,-31.738,-41.016,-41.504,0.000
1709291520.358,-56.152,-24.414,-43.945,-54.199,0.000
1709291520.362,-57.617,-22.949,-42.969,-58.105,0.000
1709291520.366,-39.062,-31.738,-36.133,-42.480,0.000
1709291520.370,-24.414,-26.367,-31.250,-25.879,0.000
1709291520.374,-23.438,-30.273,-34.180,-27.832,0.000
1709291520.378,-22.461,-30.762,-42.480,-42.969,0.000
1709291520.382,-25.391,-37.598,-34.180,-22.461,0.000
1709291520.385,-10.742,-18.555,-25.879,6.836,0.000
1709291520.389,-16.602,3.418,-28.809,-3.906,0.000
1709291520.393,-39.062,-16.113,-24.902,-11.719,0.000
1709291520.397,-34.668,-22.949,-25.391,-32.715,0.000
1709291520.401,-20.508,-11.719,-28.809,-27.832,0.000
1709291520.405,-31.250,-12.695,-32.227,-11.230,0.000
1709291520.409,-27.344,-23.438,-23.926,-2.441,0.000
1709291520.413,-18.066,-26.855,-23.926,-13.672,0.000
1709291520.417,-24.902,-21.973,-36.133,-38.574,0.000
1709291520.420,-45.410,-26.855,-38.574,-45.898,0.000
1709291520.424,-51.758,-34.668,-38.574,-31.250,0.000
1709291520.428,-37.109,-39.551,-35.645,-17.578,0.000
1709291520.432,-30.762,-9.766,-27.344,-32.715,0.000
1709291520.436,-35.645,-3.906,-27.344,-46.875,0.000
1709291520.440,-29.785,-24.902,-31.250,-37.598,0.000
1709291520.444,-7.324,-24.414,-38.086,-22.461,0.000
1709291520.447,-13.184,-21.973,-36.621,-16.602,0.000
1709291520.451,-40.039,-26.367,-36.133,-13.672,0.000
1709291520.455,-39.551,-34.180,-29.785,-24.902,0.000
1709291520.459,-39.062,-29.785,-27.832,-33.203,0.000
1709291520.463,-21.484,-26.367,-35.645,-15.137,0.000
1709291520.467,-11.719,-36.621,-34.180,-4.883,0.000
1709291520.471,-28.809,-48.340,-32.227,-26.367,0.000
1709291520.475,-38.086,-37.598,-31.250,-19.531,0.000
1709291520.479,-38.574,-27.344,-37.109,-16.113,0.000
1709291520.483,-23.438,-30.762,-34.668,-13.672,0.000
1709291520.487,-10.254,-43.457,-31.738,0.977,0.000
1709291520.490,-22.949,-28.320,-39.062,-10.742,0.000
1709291520.494,-39.062,-18.555,-41.016,-37.109,0.000
1709291520.498,-42.480,-43.945,-34.668,-50.293,0.000
1709291520.502,-39.062,-48.828,-32.715,-42.969,0.000
1709291520.506,-30.762,-36.133,-33.203,-25.879,0.000
1709291520.509,-34.668,-33.203,-28.809,-17.578,0.000
1709291520.513,-39.551,-51.758,-32.715,-33.691,0.000
1709291520.517,-38.086,-65.918,-39.551,-42.480,0.000
1709291520.521,-38.086,-32.715,-40.039,-48.340,0.000
1709291520.525,-28.320,-28.320,-36.133,-29.297,0.000
1709291520.529,-31.738,-41.992,-40.039,-31.738,0.000
1709291520.533,-47.852,-34.668,-46.387,-56.641,0.000
1709291520.537,-48.828,-40.527,-43.457,-54.199,0.000
1709291520.541,-30.273,-54.688,-39.551,-46.875,0.000
1709291520.545,-26.855,-46.875,-38.086,-33.691,0.000
1709291520.549,-25.879,-31.250,-42.969,-26.367,0.000
1709291520.553,-21.973,-30.273,-39.551,-31.738,0.000
1709291520.557,-33.203,-37.109,-30.273,-41.504,0.000
1709291520.561,-29.785,-57.129,-35.156,-45.410,0.000
1709291520.564,-16.602,-40.039,-35.156,-12.695,0.000
1709291520.568,-16.602,-14.160,-26.367,7.324,0.000
1709291520.572,-26.855,-29.785,-27.832,-18.066,0.000
1709291520.576,-35.645,-47.852,-33.691,-40.527,0.000
1709291520.580,-36.133,-29.785,-34.180,-38.574,0.000
1709291520.584,-31.738,-19.531,-27.832,-14.160,0.000
1709291520.588,-20.020,-29.785,-32.715,-0.977,0.000
1709291520.592,-30.762,-29.297,-34.668,-27.344,0.000
1709291520.596,-41.016,-27.832,-31.250,-40.527,0.000
1709291520.600,-29.785,-33.203,-39.551,-25.391,0.000
1709291520.604,-17.090,-41.992,-44.434,-14.160,0.000
1709291520.608,-21.484,-51.758,-33.203,-9.766,0.000
1709291520.612,-20.508,-45.898,-32.227,-26.855,0.000
1709291520.615,-18.066,-30.273,-37.109,-46.875,0.000
1709291520.619,-23.926,-42.480,-37.109,-41.016,0.000
1709291520.623,-38.574,-58.105,-36.621,-30.762,0.000
1709291520.627,-37.109,-27.344,-40.039,-15.137,0.000
1709291520.631,-38.574,-26.367,-45.898,-22.461,0.000
1709291520.635,-47.363,-45.410,-41.992,-41.992,0.000
1709291520.639,-34.180,-33.203,-32.715,-34.180,0.000
1709291520.643,-19.043,-28.809,-33.691,-23.926,0.000
1709291520.647,-11.230,-32.227,-31.738,-8.789,0.000
1709291520.651,-11.230,-37.598,-25.391,5.371,0.000
1709291520.655,-16.113,-44.922,-30.273,-12.695,0.000
1709291520.658,-14.648,-39.551,-35.645,-33.203,0.000
1709291520.662,0.977,-33.691,-36.621,-17.090,0.000
1709291520.666,-7.812,-54.199,-37.598,-3.906,0.000
1709291520.670,-15.625,-46.875,-33.691,-3.418,0.000
1709291520.674,-5.371,-34.668,-34.180,-26.367,0.000
1709291520.678,-11.230,-41.504,-36.621,-31.738,0.000
1709291520.682,-18.066,-35.645,-31.738,-28.809,0.000
1709291520.686,-9.277,-18.555,-34.180,-8.789,0.000
1709291520.690,-11.230,-21.973,-35.156,7.324,0.000
1709291520.694,-23.438,-42.480,-35.645,-17.090,0.000
1709291520.698,-19.531,-43.457,-36.621,-28.809,0.000
1709291520.701,-7.324,-33.691,-37.598,-17.090,0.000
1709291520.705,0.488,-24.414,-30.273,0.000,0.000
1709291520.709,-15.137,-28.320,-26.367,7.324,0.000
1709291520.713,-25.879,-51.758,-43.457,-9.766,0.000
1709291520.717,-9.766,-21.973,-40.039,-21.484,0.000
1709291520.721,-12.207,-9.277,-25.391,-8.789,0.000
1709291520.725,-16.602,-32.227,-29.785,-0.977,0.000
1709291520.729,-2.930,-27.832,-31.738,-6.348,0.000
1709291520.733,-9.766,-19.043,-31.738,-20.996,0.000
1709291520.736,-8.301,-29.297,-31.250,-33.691,0.000
1709291520.740,-12.695,-45.410,-23.438,-34.668,0.000
1709291520.744,-28.320,-43.945,-21.973,-15.137,0.000
1709291520.748,-38.086,-35.645,-30.273,-14.648,0.000
1709291520.752,-26.367,-32.715,-28.809,-33.203,0.000
1709291520.756,-15.625,-38.086,-23.438,-34.668,0.000
1709291520.760,-14.648,-20.508,-23.438,-29.785,0.000
1709291520.764,-4.883,1.465,-30.762,-28.320,0.000
1709291520.768,-8.789,-5.371,-39.551,-25.391,0.000
1709291520.772,-21.484,-21.484,-35.645,-37.598,0.000
1709291520.775,-25.391,-26.367,-31.738,-34.668,0.000
1709291520.779,-30.273,-26.855,-35.645,-31.738,0.000
1709291520.783,-26.855,-35.156,-39.551,-30.273,0.000
1709291520.787,-19.043,-37.598,-41.992,-21.484,0.000
1709291520.791,-17.090,-30.762,-36.621,-25.879,0.000
1709291520.795,-20.020,-36.621,-30.273,-36.133,0.000
1709291520.799,-38.574,-49.316,-28.809,-51.758,0.000
1709291520.803,-35.156,-58.594,-31.250,-27.344,0.000
1709291520.807,-17.578,-32.715,-33.203,-8.789,0.000
1709291520.810,-20.508,-35.645,-31.738,-27.832,0.000
1709291520.814,-27.344,-45.410,-28.809,-40.527,0.000
1709291520.818,-27.344,-34.668,-30.273,-31.738,0.000
1709291520.822,-32.227,-30.762,-31.738,-29.297,0.000
1709291520.826,-37.598,-28.320,-28.320,-28.320,0.000
1709291520.830,-34.180,-37.598,-36.133,-25.879,0.000
1709291520.834,-25.879,-34.668,-39.062,-35.645,0.000
1709291520.838,-17.090,-22.461,-33.691,-41.992,0.000
1709291520.841,-5.859,-26.367,-34.180,-25.391,0.000
1709291520.845,-14.160,-42.480,-36.133,-4.883,0.000
1709291520.849,-16.602,-35.645,-36.621,-6.836,0.000
1709291520.853,-24.414,-14.160,-32.227,-17.578,0.000
1709291520.857,-32.227,-17.578,-35.156,-19.531,0.000
1709291520.861,-28.320,-40.039,-43.457,-24.414,0.000
1709291520.865,-33.203,-22.461,-36.133,-24.414,0.000
1709291520.868,-30.273,-16.113,-34.668,-29.297,0.000
1709291520.872,-38.086,-24.902,-42.969,-39.551,0.000
1709291520.876,-41.016,-21.973,-43.945,-44.434,0.000
1709291520.880,-34.180,-17.578,-40.039,-35.156,0.000
1709291520.884,-36.621,-19.043,-37.598,-27.832,0.000
1709291520.888,-31.738,-31.738,-41.992,-29.785,0.000
1709291520.892,-38.086,-43.457,-43.457,-22.949,0.000
1709291520.896,-50.781,-19.043,-38.086,-42.969,0.000
1709291520.900,-32.227,-18.555,-40.039,-49.805,0.000
1709291520.904,-22.949,-31.738,-43.945,-34.180,0.000
1709291520.907,-42.969,-22.461,-44.922,-26.855,0.000
1709291520.911,-46.387,-28.320,-43.945,-25.879,0.000
1709291520.916,-40.039,-43.945,-41.992,-39.551,0.000
1709291520.920,-49.805,-41.016,-44.434,-37.598,0.000
1709291520.923,-37.109,-38.086,-49.805,-32.227,0.000
1709291520.927,-30.762,-41.504,-41.504,-28.809,0.000
1709291520.931,-57.129,-37.598,-36.133,-35.156,0.000
1709291520.935,-71.777,-50.781,-39.551,-58.594,0.000
1709291520.939,-48.340,-47.363,-38.574,-54.688,0.000
1709291520.943,-41.016,-30.762,-37.598,-37.109,0.000
1709291520.947,-60.547,-41.504,-41.992,-47.363,0.000
1709291520.951,-68.359,-62.012,-41.992,-49.316,0.000
1709291520.955,-62.012,-34.668,-33.203,-41.016,0.000
1709291520.959,-49.316,-23.438,-28.809,-43.945,0.000
1709291520.963,-35.645,-41.016,-34.180,-34.668,0.000
1709291520.967,-38.574,-43.457,-36.133,-23.926,0.000
1709291520.970,-48.340,-37.598,-34.668,-36.133,0.000
1709291520.974,-42.969,-32.715,-37.109,-49.316,0.000
1709291520.978,-37.109,-41.504,-39.551,-38.086,0.000
1709291520.982,-43.457,-50.293,-37.598,-30.273,0.000
1709291520.986,-48.828,-44.434,-36.621,-22.949,0.000
1709291520.990,-37.598,-32.715,-32.715,-23.926,0.000
1709291520.994,-27.344,-38.574,-27.344,-38.086,0.000
1709291520.998,-41.504,-51.270,-27.832,-38.086,0.000
1709291521.002,-49.805,-21.973,-31.738,-38.086,0.000
1709291521.006,-30.762,-22.461,-34.180,-21.973,0.000
1709291521.010,-26.367,-38.086,-32.715,-18.555,0.000
1709291521.014,-43.457,-30.273,-23.926,-24.902,0.000
1709291521.017,-37.109,-26.367,-25.879,-31.250,0.000
1709291521.021,-35.645,-29.297,-25.879,-37.598,0.000
1709291521.025,-40.039,-35.156,-23.926,-22.461,0.000
1709291521.029,-30.273,-39.062,-25.879,-15.625,0.000
1709291521.033,-30.762,-30.762,-19.043,-20.996,0.000
1709291521.037,-29.785,-26.367,-19.531,-30.762,0.000
1709291521.041,-26.367,-50.293,-26.855,-34.668,0.000
1709291521.045,-24.902,-32.227,-29.785,-10.742,0.000
1709291521.049,-28.320,-15.625,-32.227,-16.602,0.000
1709291521.053,-22.949,-39.062,-33.203,-32.715,0.000
1709291521.057,-23.438,-47.363,-32.715,-37.109,0.000
1709291521.060,-30.273,-39.062,-35.645,-30.273,0.000
1709291521.064,-26.367,-39.062,-33.691,-3.906,0.000
1709291521.068,-29.297,-43.945,-34.668,-12.695,0.000
1709291521.072,-37.598,-40.527,-41.504,-34.180,0.000
1709291521.076,-41.992,-45.410,-34.668,-44.434,0.000
1709291521.080,-41.992,-41.504,-32.715,-51.270,0.000
1709291521.084,-36.133,-37.598,-37.598,-29.785,0.000
1709291521.088,-27.832,-48.340,-38.086,-16.113,0.000
1709291521.092,-27.344,-25.879,-35.645,-28.809,0.000
1709291521.096,-37.598,-29.785,-36.621,-57.617,0.000
1709291521.100,-32.715,-49.805,-31.738,-58.105,0.000
1709291521.103,-40.039,-42.480,-34.668,-33.203,0.000
1709291521.107,-40.527,-29.297,-41.016,-33.691,0.000
1709291521.111,-25.391,-35.156,-37.109,-34.668,0.000
1709291521.115,-32.715,-47.852,-33.691,-55.664,0.000
1709291521.119,-30.273,-37.109,-32.715,-57.617,0.000
1709291521.123,-31.250,-38.086,-30.273,-33.203,0.000
1709291521.127,-36.621,-41.016,-26.367,-36.133,0.000
1709291521.131,-33.203,-51.270,-34.180,-36.133,0.000
1709291521.135,-30.273,-42.480,-37.109,-17.578,0.000
1709291521.138,-32.227,-22.949,-33.203,-33.691,0.000
1709291521.142,-40.039,-32.227,-31.250,-45.410,0.000
1709291521.146,-40.039,-40.039,-30.273,-31.250,0.000
1709291521.150,-37.109,-34.180,-28.320,-32.715,0.000
1709291521.154,-42.969,-38.574,-31.738,-39.062,0.000
1709291521.158,-48.340,-47.852,-36.621,-46.875,0.000
1709291521.162,-41.992,-36.621,-31.738,-43.945,0.000
1709291521.166,-26.367,-29.297,-30.273,-39.062,0.000
1709291521.169,-37.109,-38.574,-39.551,-55.664,0.000
1709291521.173,-59.082,-45.898,-39.062,-59.570,0.000
1709291521.177,-49.805,-52.734,-35.645,-37.109,0.000
1709291521.181,-44.922,-29.785,-39.062,-29.785,0.000
1709291521.185,-37.598,-25.391,-42.480,-36.621,0.000
1709291521.189,-36.133,-38.086,-39.062,-30.762,0.000
1709291521.193,-43.945,-40.039,-35.156,-31.738,0.000
1709291521.197,-34.180,-28.809,-37.109,-43.457,0.000
1709291521.200,-37.109,-18.066,-39.062,-38.086,0.000
1709291521.204,-34.668,-24.902,-41.992,-22.461,0.000
1709291521.208,-27.344,-24.414,-44.922,-22.949,0.000
1709291521.212,-40.039,-28.809,-46.875,-33.203,0.000
1709291521.216,-47.852,-34.668,-46.387,-40.527,0.000
1709291521.220,-35.645,-43.457,-38.574,-38.086,0.000
1709291521.224,-31.738,-27.344,-35.156,-26.855,0.000
1709291521.228,-47.363,-17.090,-41.016,-26.855,0.000
1709291521.232,-51.270,-39.551,-40.039,-45.410,0.000
1709291521.236,-51.270,-45.898,-36.621,-52.734,0.000
1709291521.239,-45.410,-31.250,-34.668,-47.852,0.000
1709291521.243,-36.133,-25.879,-29.297,-30.762,0.000
1709291521.247,-33.203,-33.691,-34.180,-28.809,0.000
1709291521.251,-46.387,-35.645,-32.715,-33.691,0.000
1709291521.255,-52.246,-26.855,-23.926,-40.039,0.000
1709291521.259,-38.574,-27.344,-32.227,-41.992,0.000
1709291521.263,-28.320,-49.805,-35.156,-21.973,0.000
1709291521.266,-26.855,-60.059,-24.902,2.930,0.000
1709291521.270,-32.227,-22.461,-24.902,-17.578,0.000
1709291521.274,-37.109,-11.230,-25.879,-39.551,0.000
1709291521.278,-27.832,-30.762,-20.508,-30.273,0.000
1709291521.282,-25.879,-25.879,-25.879,-18.555,0.000
1709291521.286,-40.039,-31.738,-32.715,-22.949,0.000
1709291521.290,-48.828,-36.621,-31.738,-33.691,0.000
1709291521.294,-41.504,-29.785,-32.715,-36.133,0.000
1709291521.298,-44.922,-29.785,-31.250,-47.852,0.000
1709291521.302,-38.574,-25.879,-31.250,-43.945,0.000
1709291521.306,-23.438,-23.438,-33.691,-20.996,0.000
1709291521.310,-41.992,-40.039,-31.250,-27.832,0.000
1709291521.314,-61.035,-38.574,-29.785,-37.109,0.000
1709291521.318,-58.594,-22.949,-32.715,-39.062,0.000
1709291521.321,-33.203,-28.809,-35.156,-42.969,0.000
1709291521.325,-30.762,-42.969,-29.785,-24.902,0.000
1709291521.329,-41.504,-35.156,-30.762,-17.090,0.000
1709291521.333,-43.457,-19.531,-30.273,-38.086,0.000
1709291521.337,-43.945,-23.438,-27.344,-48.340,0.000
1709291521.341,-50.781,-34.668,-32.227,-37.109,0.000
1709291521.345,-32.227,-22.461,-31.738,-13.184,0.000
1709291521.349,-20.996,-14.160,-20.508,-14.160,0.000
1709291521.353,-27.832,-26.367,-18.555,-34.180,0.000
1709291521.357,-30.273,-39.551,-22.949,-55.176,0.000
1709291521.361,-36.133,-36.621,-32.715,-56.641,0.000
1709291521.365,-33.203,-23.926,-36.621,-35.156,0.000
1709291521.369,-26.855,-36.133,-38.574,-25.879,0.000
1709291521.373,-31.250,-52.246,-41.992,-29.297,0.000
1709291521.376,-33.691,-22.461,-38.086,-45.410,0.000
1709291521.380,-39.551,-23.926,-35.645,-43.457,0.000
1709291521.384,-42.969,-39.551,-30.762,-30.762,0.000
1709291521.388,-35.156,-31.250,-26.855,-18.066,0.000
1709291521.392,-35.645,-20.508,-27.832,-26.367,0.000
1709291521.396,-36.133,-30.273,-33.691,-50.781,0.000
1709291521.400,-26.855,-37.598,-35.645,-41.992,0.000
1709291521.404,-30.273,-34.668,-33.203,-24.414,0.000
1709291521.408,-37.598,-30.762,-35.645,-28.809,0.000
1709291521.412,-36.133,-22.949,-30.762,-27.344,0.000
1709291521.416,-39.551,-46.387,-33.203,-34.180,0.000
1709291521.420,-41.992,-41.504,-37.598,-41.504,0.000
1709291521.423,-37.109,-21.484,-39.062,-32.227,0.000
1709291521.427,-33.203,-32.715,-43.945,-25.391,0.000
1709291521.431,-32.715,-29.785,-44.922,-28.809,0.000
1709291521.435,-26.855,-18.555,-43.457,-36.133,0.000
1709291521.439,-28.320,-31.738,-44.434,-44.434,0.000
1709291521.443,-38.086,-32.715,-41.016,-38.574,0.000
1709291521.447,-33.691,-30.762,-42.969,-23.926,0.000
1709291521.451,-28.320,-41.992,-47.852,-36.621,0.000
1709291521.455,-31.250,-25.879,-42.969,-43.457,0.000
1709291521.459,-37.109,-27.832,-39.062,-34.180,0.000
1709291521.463,-45.898,-52.246,-37.598,-21.484,0.000
1709291521.466,-38.086,-26.855,-34.180,-9.766,0.000
1709291521.470,-41.504,-21.973,-36.621,-20.996,0.000
1709291521.474,-49.805,-40.527,-39.062,-40.527,0.000
1709291521.478,-38.086,-39.062,-41.504,-38.574,0.000
1709291521.482,-32.227,-27.344,-35.645,-36.133,0.000
1709291521.486,-30.762,-27.344,-26.855,-25.879,0.000
1709291521.490,-26.855,-40.039,-28.320,-21.484,0.000
1709291521.494,-35.156,-36.133,-35.645,-45.410,0.000
1709291521.498,-45.898,-32.715,-37.109,-44.922,0.000
1709291521.501,-57.129,-35.645,-33.203,-51.758,0.000
1709291521.505,-44.434,-43.457,-29.297,-42.480,0.000
1709291521.509,-29.297,-39.062,-29.785,-36.133,0.000
1709291521.513,-32.715,-19.531,-35.645,-40.527,0.000
1709291521.517,-38.086,-31.250,-40.527,-42.480,0.000
1709291521.521,-34.668,-45.898,-32.715,-42.480,0.000
1709291521.525,-32.715,-34.180,-29.785,-24.902,0.000
1709291521.529,-34.180,-35.645,-30.762,-17.090,0.000
1709291521.533,-28.809,-41.992,-33.691,-28.320,0.000
1709291521.536,-24.902,-40.527,-35.156,-50.293,0.000
1709291521.540,-26.367,-42.969,-38.574,-52.734,0.000
1709291521.544,-23.438,-49.316,-38.574,-28.809,0.000
1709291521.548,-26.367,-46.875,-33.203,-20.996,0.000
1709291521.552,-29.297,-51.270,-35.156,-24.414,0.000
1709291521.556,-29.785,-27.344,-30.273,-31.250,0.000
1709291521.560,-21.484,-21.484,-29.785,-31.250,0.000
1709291521.564,-26.855,-38.086,-39.062,-29.297,0.000
1709291521.568,-37.598,-34.180,-38.086,-23.438,0.000
1709291521.571,-30.273,-32.227,-31.738,-28.809,0.000
1709291521.575,-21.484,-29.785,-37.598,-48.340,0.000
1709291521.579,-13.672,-35.645,-38.086,-43.457,0.000
1709291521.583,-16.113,-35.156,-29.785,-24.414,0.000
1709291521.587,-14.160,-33.691,-34.180,-17.578,0.000
1709291521.591,-16.602,-45.898,-39.062,-15.625,0.000
1709291521.595,-31.738,-51.270,-31.250,-22.461,0.000
1709291521.599,-33.203,-36.133,-21.973,-20.020,0.000
1709291521.603,-19.043,-23.438,-28.809,-13.672,0.000
1709291521.606,-16.602,-29.297,-32.715,-17.090,0.000
1709291521.610,-23.438,-41.992,-33.691,-20.996,0.000
1709291521.614,-34.668,-40.039,-34.668,-32.715,0.000
1709291521.618,-30.273,-29.297,-31.738,-31.250,0.000
1709291521.622,-13.672,-28.809,-32.715,-19.531,0.000
1709291521.626,-16.602,-30.273,-35.645,-16.113,0.000
1709291521.629,-32.227,-26.855,-42.969,-32.715,0.000
1709291521.633,-41.992,-24.414,-43.457,-45.410,0.000
1709291521.637,-50.293,-45.410,-41.504,-50.781,0.000
1709291521.641,-46.875,-58.105,-38.086,-39.551,0.000
1709291521.645,-39.062,-20.020,-38.086,-25.391,0.000
1709291521.649,-31.738,-8.789,-35.645,-24.902,0.000
1709291521.653,-31.250,-29.785,-32.227,-40.527,0.000
1709291521.657,-38.086,-25.391,-34.668,-44.922,0.000
1709291521.661,-35.156,-20.020,-39.062,-36.133,0.000
1709291521.664,-29.785,-31.250,-36.621,-27.832,0.000
1709291521.668,-39.551,-33.203,-39.551,-23.926,0.000
1709291521.672,-49.805,-29.785,-43.457,-45.410,0.000
1709291521.676,-50.293,-32.715,-40.527,-68.359,0.000
1709291521.680,-49.316,-38.086,-40.527,-65.918,0.000
1709291521.684,-46.875,-50.781,-50.293,-40.527,0.000
1709291521.688,-47.852,-46.875,-55.176,-24.902,0.000
1709291521.692,-41.016,-24.902,-44.922,-35.645,0.000
1709291521.696,-37.598,-31.250,-43.945,-36.621,0.000
1709291521.699,-40.527,-57.617,-47.363,-30.762,0.000
1709291521.703,-33.691,-41.992,-39.551,-22.949,0.000
1709291521.707,-27.832,-25.391,-38.574,-22.461,0.000
1709291521.711,-32.227,-32.227,-38.086,-29.297,0.000
1709291521.715,-48.828,-28.809,-32.227,-39.551,0.000
1709291521.719,-48.828,-20.996,-40.527,-39.551,0.000
1709291521.723,-31.250,-26.367,-41.016,-21.973,0.000
1709291521.727,-31.250,-30.273,-35.645,-22.949,0.000
1709291521.731,-40.527,-29.297,-31.738,-15.625,0.000
1709291521.735,-36.621,-18.555,-33.203,-16.113,0.000
1709291521.739,-20.508,-12.207,-34.180,-25.879,0.000
1709291521.743,-18.066,-32.227,-32.227,0.977,0.000
1709291521.747,-30.762,-38.086,-29.785,4.883,0.000
1709291521.751,-26.367,-18.555,-30.273,-25.391,0.000
1709291521.754,-31.250,-27.344,-27.832,-37.598,0.000
1709291521.758,-29.785,-38.574,-24.414,-33.691,0.000
1709291521.762,-5.859,-26.367,-23.926,-11.719,0.000
1709291521.766,-11.719,-25.879,-28.809,-1.953,0.000
1709291521.770,-18.066,-36.133,-30.762,-4.883,0.000
1709291521.774,-4.395,-38.574,-32.715,-23.438,0.000
1709291521.778,-15.625,-34.180,-29.785,-29.297,0.000
1709291521.782,-25.391,-31.738,-21.973,-9.277,0.000
1709291521.786,-15.625,-36.621,-20.020,3.418,0.000
1709291521.790,-20.508,-40.527,-28.809,-5.859,0.000
1709291521.794,-35.156,-21.973,-34.180,-27.344,0.000
1709291521.798,-30.762,-20.020,-37.598,-37.598,0.000
1709291521.801,-24.902,-28.809,-40.527,-26.367,0.000
1709291521.805,-25.391,-34.180,-41.504,-16.602,0.000
1709291521.809,-27.344,-35.156,-38.574,-19.043,0.000
1709291521.813,-30.762,-27.832,-32.227,-26.855,0.000
1709291521.817,-34.668,-31.738,-30.273,-43.945,0.000
1709291521.821,-34.180,-32.715,-29.297,-28.320,0.000
1709291521.825,-28.320,-36.133,-32.227,-10.254,0.000
1709291521.829,-22.949,-31.250,-31.738,-27.344,0.000
1709291521.833,-14.648,-35.156,-31.250,-44.922,0.000
1709291521.837,-24.902,-55.176,-34.668,-41.504,0.000
1709291521.841,-30.762,-26.855,-35.156,-41.016,0.000
1709291521.844,-31.738,-12.695,-30.273,-25.879,0.000
1709291521.848,-35.156,-28.320,-29.785,-11.719,0.000
1709291521.852,-34.668,-30.273,-30.273,-34.668,0.000
1709291521.856,-41.016,-30.762,-37.109,-36.133,0.000
1709291521.860,-36.133,-41.016,-40.039,-26.855,0.000
1709291521.864,-41.016,-46.875,-35.156,-33.691,0.000
1709291521.868,-46.387,-34.668,-30.762,-33.691,0.000
1709291521.872,-38.574,-26.855,-27.832,-34.180,0.000
1709291521.876,-34.180,-33.203,-27.832,-48.340,0.000
1709291521.880,-30.273,-36.621,-33.203,-48.828,0.000
1709291521.884,-23.926,-24.902,-39.551,-27.832,0.000
1709291521.887,-26.367,-15.137,-40.527,-13.672,0.000
1709291521.891,-41.504,-26.367,-37.109,-20.508,0.000
1709291521.895,-36.133,-57.617,-31.250,-26.367,0.000
1709291521.899,-29.297,-37.109,-24.414,-21.973,0.000
1709291521.903,-32.227,-14.648,-24.414,-10.254,0.000
1709291521.907,-29.297,-26.855,-31.250,-5.371,0.000
1709291521.911,-20.508,-28.809,-33.691,-23.438,0.000
1709291521.915,-23.926,-26.367,-34.180,-43.945,0.000
1709291521.919,-25.879,-27.344,-35.645,-40.039,0.000
1709291521.922,-20.020,-31.738,-34.180,-20.020,0.000
1709291521.926,-27.344,-42.480,-32.227,-8.789,0.000
1709291521.930,-33.691,-22.461,-40.039,-33.691,0.000
1709291521.934,-33.691,-22.949,-43.945,-49.805,0.000
1709291521.938,-32.227,-34.668,-39.551,-38.574,0.000
1709291521.942,-27.832,-30.762,-37.109,-33.203,0.000
1709291521.946,-33.691,-31.250,-41.016,-16.113,0.000
1709291521.950,-29.785,-28.809,-39.551,-13.672,0.000
1709291521.953,-44.434,-34.180,-41.016,-41.504,0.000
1709291521.957,-42.480,-32.227,-41.016,-36.133,0.000
1709291521.961,-32.715,-25.391,-38.574,-16.602,0.000
1709291521.965,-37.598,-30.762,-39.062,-27.832,0.000
1709291521.969,-37.598,-50.781,-40.527,-31.738,0.000
1709291521.973,-43.945,-40.527,-42.480,-36.133,0.000
1709291521.977,-44.434,-17.090,-37.598,-40.527,0.000
1709291521.981,-25.879,-28.320,-37.598,-29.297,0.000
1709291521.985,-20.996,-36.621,-38.086,-17.578,0.000
1709291521.989,-33.203,-28.320,-34.668,-13.672,0.000
1709291521.992,-31.738,-23.438,-28.809,-21.973,0.000
1709291521.996,-31.738,-30.762,-30.762,-39.551,0.000
1709291522.000,-27.832,-39.062,-41.504,-38.086,0.000
1709291522.004,-27.344,-27.832,-41.504,-14.648,0.000
1709291522.008,-34.668,-26.855,-35.156,-13.672,0.000
1709291522.012,-27.344,-36.621,-38.086,-26.367,0.000
1709291522.016,-35.156,-38.086,-40.527,-39.062,0.000
1709291522.019,-39.551,-26.367,-37.598,-40.527,0.000
1709291522.023,-31.738,-20.020,-37.598,-37.598,0.000
1709291522.027,-39.062,-33.203,-39.551,-27.344,0.000
1709291522.031,-46.387,-32.227,-41.992,-25.879,0.000
1709291522.035,-37.109,-18.555,-33.203,-34.180,0.000
1709291522.039,-29.297,-20.508,-30.273,-21.484,0.000
1709291522.042,-31.738,-25.391,-36.621,-21.973,0.000
1709291522.046,-22.949,-26.367,-32.715,-31.250,0.000
1709291522.050,-17.578,-17.578,-27.832,-20.996,0.000
1709291522.054,-13.672,-16.113,-21.973,-24.902,0.000
1709291522.058,-17.090,-30.762,-25.879,-31.738,0.000
1709291522.062,-28.320,-29.785,-32.227,-25.879,0.000
1709291522.066,-33.203,-20.508,-27.832,-23.926,0.000
1709291522.070,-37.598,-27.344,-35.156,-32.715,0.000
1709291522.074,-43.945,-42.969,-37.109,-37.109,0.000
1709291522.078,-32.227,-36.621,-36.133,-40.527,0.000
1709291522.082,-23.926,-23.926,-36.133,-37.109,0.000
1709291522.086,0.000,-33.691,-34.180,-20.020,0.000
1709291522.090,0.000,-39.062,-33.203,-16.602,0.000
1709291522.094,0.000,-28.320,-36.133,-23.438,0.000
1709291522.098,0.000,-29.297,-41.504,-31.738,0.000
1709291522.101,0.000,-46.387,-39.062,-31.250,0.000
1709291522.105,0.000,-46.387,-35.156,-7.812,0.000
1709291522.109,0.000,-27.832,-32.715,-12.207,0.000
1709291522.113,0.000,-19.043,-28.809,-37.109,0.000
1709291522.117,0.000,-41.504,-22.949,-36.621,0.000
1709291522.121,0.000,-67.383,-15.137,2.441,0.000
1709291522.125,0.000,-48.340,-17.090,40.039,0.000
1709291522.129,0.000,-27.344,-30.762,6.836,0.000
1709291522.133,-49.316,-29.785,-40.039,-55.664,0.000
1709291522.137,-58.594,-19.043,-38.574,-63.965,0.000
1709291522.141,-58.105,-13.184,-39.551,-62.012,0.000
1709291522.145,-51.758,-21.484,-40.527,-57.129,0.000
1709291522.149,-71.777,-21.973,-40.039,-73.242,0.000
1709291522.152,-94.238,-14.648,-40.039,-103.516,0.000
1709291522.156,-87.891,-1.953,-45.410,-110.840,0.000
1709291522.160,-89.844,7.324,-48.828,-116.211,0.000
1709291522.164,-89.355,-6.348,-53.223,-108.887,0.000
1709291522.168,-85.449,11.719,-55.664,-112.305,0.000
1709291522.172,-98.145,28.320,-62.988,-144.531,0.000
1709291522.176,-102.539,13.672,-62.012,-147.949,0.000
1709291522.180,-102.539,13.672,-54.199,-140.137,0.000
1709291522.184,-107.910,22.461,-60.547,-149.414,0.000
1709291522.188,-104.980,21.484,-64.941,-153.320,0.000
1709291522.192,-111.328,25.879,-64.453,-156.738,0.000
1709291522.195,-129.395,24.902,-63.965,-174.805,0.000
1709291522.199,-116.211,18.066,-55.664,-155.273,0.000
1709291522.203,-93.750,29.297,-54.199,-128.906,0.000
1709291522.207,-91.797,29.297,-59.082,-133.789,0.000
1709291522.211,-83.496,15.625,-61.035,-127.441,0.000
1709291522.215,-68.359,17.578,-57.617,-125.977,0.000
1709291522.219,-60.547,19.043,-51.270,-108.887,0.000
1709291522.223,-55.664,2.441,-52.246,-82.520,0.000
1709291522.227,-56.641,5.859,-49.316,-63.965,0.000
1709291522.231,-68.848,31.738,-41.992,-77.637,0.000
1709291522.235,-62.988,24.902,-47.363,-104.492,0.000
1709291522.238,-40.527,15.137,-45.410,-92.773,0.000
1709291522.242,-35.645,13.672,-45.898,-76.172,0.000
1709291522.246,-42.969,-9.277,-53.711,-70.312,0.000
1709291522.250,-56.641,-7.812,-48.828,-79.590,0.000
1709291522.254,-55.664,-9.277,-46.387,-83.496,0.000
1709291522.258,-47.363,-7.324,-49.805,-75.195,0.000
1709291522.262,-40.527,14.648,-45.898,-69.824,0.000
1709291522.266,-36.133,2.930,-43.457,-65.430,0.000
1709291522.270,-41.504,-17.090,-49.316,-57.129,0.000
1709291522.273,-34.668,-0.488,-52.734,-62.012,0.000
1709291522.277,-31.738,7.812,-51.758,-75.195,0.000
1709291522.281,-39.062,-8.301,-49.316,-72.754,0.000
1709291522.285,-31.738,-11.230,-44.922,-55.176,0.000
1709291522.289,-15.137,-7.812,-39.551,-62.500,0.000
1709291522.293,-23.438,-4.883,-33.203,-65.430,0.000
1709291522.297,-28.809,-5.371,-38.086,-47.852,0.000
1709291522.301,-21.484,-19.043,-50.293,-27.344,0.000
1709291522.305,-23.438,1.465,-41.504,-24.414,0.000
1709291522.309,-26.855,10.742,-34.668,-28.320,0.000
1709291522.312,-31.738,-4.883,-37.109,-39.551,0.000
1709291522.316,-37.598,-10.254,-38.086,-50.293,0.000
1709291522.320,-34.180,-16.602,-36.133,-37.598,0.000
1709291522.324,-40.039,-5.371,-36.621,-29.785,0.000
1709291522.328,-36.621,-5.859,-40.039,-29.785,0.000
1709291522.332,-28.320,-5.859,-32.715,-36.621,0.000
1709291522.336,-34.180,-9.277,-37.598,-46.387,0.000
1709291522.340,-25.879,-28.320,-47.363,-45.898,0.000
1709291522.344,-22.949,-42.969,-43.945,-26.367,0.000
1709291522.347,-38.086,-23.926,-41.016,-19.531,0.000
1709291522.351,-46.387,-2.441,-41.504,-38.574,0.000
1709291522.355,-42.480,-26.367,-41.504,-48.828,0.000
1709291522.359,-31.250,-31.250,-43.457,-36.133,0.000
1709291522.363,-21.484,-17.578,-47.852,-24.902,0.000
1709291522.367,-32.715,-18.555,-45.898,-32.715,0.000
1709291522.371,-42.969,-25.879,-46.387,-52.246,0.000
1709291522.375,-41.504,-31.250,-50.293,-61.523,0.000
1709291522.379,-52.734,-22.461,-46.387,-47.363,0.000
1709291522.383,-47.363,-19.043,-47.363,-36.133,0.000
1709291522.386,-36.621,-33.691,-47.852,-34.180,0.000
1709291522.390,-50.781,-41.016,-46.387,-33.203,0.000
1709291522.394,-53.223,-16.113,-42.480,-47.363,0.000
1709291522.398,-35.156,-15.137,-44.434,-62.012,0.000
1709291522.402,-24.414,-28.809,-42.480,-38.086,0.000
1709291522.406,-20.996,-20.996,-37.109,-14.160,0.000
1709291522.410,-23.438,-24.902,-38.574,-25.391,0.000
1709291522.414,-37.598,-40.527,-39.062,-42.969,0.000
1709291522.418,-24.414,-32.227,-37.109,-45.410,0.000
1709291522.422,-24.902,-22.949,-36.621,-27.344,0.000
1709291522.426,-37.109,-24.414,-36.133,-13.184,0.000
1709291522.430,-20.508,-25.879,-29.297,-15.137,0.000
1709291522.434,-17.090,-45.898,-32.227,-30.273,0.000
1709291522.438,-27.832,-39.062,-42.480,-41.504,0.000
1709291522.442,-27.832,-19.531,-39.551,-28.809,0.000
1709291522.446,-29.297,-30.273,-39.062,-9.766,0.000
1709291522.450,-23.438,-55.664,-43.457,-10.254,0.000
1709291522.453,-27.832,-40.527,-35.645,-21.973,0.000
1709291522.457,-30.273,-17.090,-30.762,-30.762,0.000
1709291522.462,-32.227,-26.855,-37.109,-34.180,0.000
1709291522.466,-38.574,-35.645,-33.691,-24.902,0.000
1709291522.470,-37.109,-25.391,-30.273,-19.531,0.000
1709291522.474,-33.203,-18.555,-38.086,-31.738,0.000
1709291522.478,-25.879,-30.273,-37.598,-39.551,0.000
1709291522.482,-23.438,-40.527,-32.227,-28.809,0.000
1709291522.486,-28.320,-32.227,-33.203,-15.625,0.000
1709291522.490,-31.250,-25.391,-30.762,-26.367,0.000
1709291522.494,-30.762,-38.574,-31.738,-32.227,0.000
1709291522.497,-21.484,-52.734,-35.645,-31.738,0.000
1709291522.501,3.906,-41.992,-27.832,1.465,0.000
1709291522.505,-19.531,-41.016,-35.156,9.277,0.000
1709291522.509,-57.617,-36.621,-34.180,-25.391,0.000
1709291522.513,-77.148,-20.020,-29.297,-47.852,0.000
1709291522.517,-64.941,-14.160,-37.598,-51.270,0.000
1709291522.521,-53.223,-12.695,-36.621,-53.711,0.000
1709291522.525,-57.617,-21.973,-33.691,-61.523,0.000
1709291522.529,-66.406,-32.227,-31.250,-61.035,0.000
1709291522.533,-104.492,-24.902,-36.621,-93.750,0.000
1709291522.537,-93.750,-17.090,-40.039,-103.027,0.000
1709291522.541,-79.590,-28.320,-34.180,-96.680,0.000
1709291522.545,-94.238,-13.184,-36.133,-94.238,0.000
1709291522.548,-71.289,4.395,-41.504,-77.637,0.000
1709291522.552,-63.965,-10.742,-31.738,-81.543,0.000
1709291522.556,-78.613,-35.156,-27.832,-89.355,0.000
1709291522.560,-71.289,-15.137,-33.203,-82.520,0.000
1709291522.564,-49.316,7.324,-33.203,-57.129,0.000
1709291522.568,-41.504,-9.766,-33.203,-52.246,0.000
1709291522.572,-54.688,-20.020,-38.086,-61.035,0.000
1709291522.576,-56.152,-20.508,-31.738,-60.547,0.000
1709291522.580,-50.781,-16.602,-33.203,-63.965,0.000
1709291522.584,-40.039,-19.531,-37.598,-58.594,0.000
1709291522.587,-48.340,-37.109,-33.691,-38.086,0.000
1709291522.591,-52.246,-11.719,-33.691,-40.527,0.000
1709291522.595,-45.898,-4.883,-34.180,-58.105,0.000
1709291522.599,-48.340,-26.855,-34.668,-60.059,0.000
1709291522.603,-43.457,-24.902,-38.574,-48.828,0.000
1709291522.607,-30.273,-15.137,-43.457,-37.598,0.000
1709291522.611,-26.367,-16.113,-36.621,-35.645,0.000
1709291522.615,-37.598,-26.367,-40.527,-41.016,0.000
1709291522.619,-26.855,-20.996,-43.945,-48.340,0.000
1709291522.623,-35.156,-26.855,-39.062,-53.711,0.000
1709291522.626,-39.062,-40.039,-39.551,-42.480,0.000
1709291522.630,-24.902,-42.969,-38.086,-31.738,0.000
1709291522.634,-41.016,-31.250,-32.715,-32.227,0.000
1709291522.638,-41.992,-19.043,-35.645,-50.293,0.000
1709291522.642,-31.250,-31.250,-37.598,-51.758,0.000
1709291522.646,-22.949,-28.809,-28.809,-27.832,0.000
1709291522.650,-26.855,-19.531,-23.438,-24.414,0.000
1709291522.654,-26.855,-22.949,-34.668,-46.875,0.000
1709291522.658,-25.391,-31.738,-37.598,-52.246,0.000
1709291522.661,-27.832,-27.344,-30.762,-37.109,0.000
1709291522.665,-31.738,-21.973,-30.273,-28.809,0.000
1709291522.669,-33.691,-34.668,-35.156,-29.297,0.000
1709291522.673,-28.809,-41.992,-40.527,-43.457,0.000
1709291522.677,-25.879,-48.828,-37.109,-43.457,0.000
1709291522.681,-25.879,-20.996,-37.109,-41.504,0.000
1709291522.685,-16.113,-20.508,-37.109,-25.879,0.000
1709291522.689,-5.371,-46.387,-29.297,-1.953,0.000
1709291522.693,-26.367,-40.527,-21.484,-46.875,0.000
1709291522.696,-48.340,-31.738,-29.785,-79.590,0.000
1709291522.700,-37.109,-29.785,-33.691,-55.664,0.000
1709291522.704,-44.434,-27.344,-35.156,-51.270,0.000
1709291522.708,-51.758,-24.414,-35.645,-52.246,0.000
1709291522.712,-55.176,-20.508,-33.691,-63.477,0.000
1709291522.716,-62.988,-28.320,-36.621,-76.172,0.000
1709291522.720,-46.387,-47.363,-42.969,-63.965,0.000
1709291522.724,-28.320,-30.762,-38.574,-45.410,0.000
1709291522.728,-31.738,-10.254,-37.598,-35.156,0.000
1709291522.731,-42.969,-22.461,-37.598,-41.016,0.000
1709291522.735,-43.457,-29.297,-33.203,-52.734,0.000
1709291522.739,-36.621,-19.043,-39.551,-49.805,0.000
1709291522.743,-38.086,-20.996,-48.340,-50.293,0.000
1709291522.747,-33.691,-22.949,-47.363,-36.133,0.000
1709291522.751,-42.969,-27.832,-39.062,-25.879,0.000
1709291522.755,-55.664,-30.762,-42.969,-37.598,0.000
1709291522.758,-44.434,-24.414,-43.945,-36.621,0.000
1709291522.762,-27.832,-32.227,-33.203,-19.531,0.000
1709291522.766,-32.227,-51.758,-31.250,-10.254,0.000
1709291522.770,-36.621,-24.414,-35.645,-30.762,0.000
1709291522.774,-39.551,-10.742,-36.621,-45.898,0.000
1709291522.778,-44.434,-26.855,-37.109,-44.922,0.000
1709291522.782,-40.527,-22.949,-42.480,-42.969,0.000
1709291522.786,-40.527,-16.602,-38.574,-25.391,0.000
1709291522.789,-30.273,-33.203,-33.691,-17.578,0.000
1709291522.793,-14.160,-30.762,-34.668,-19.531,0.000
1709291522.797,-24.414,-19.043,-34.180,-28.320,0.000
1709291522.801,-33.691,-23.438,-32.227,-31.738,0.000
1709291522.805,-22.461,-25.879,-29.785,-21.484,0.000
1709291522.809,-17.090,-41.992,-35.156,-14.648,0.000
1709291522.813,-21.484,-41.504,-34.668,-22.949,0.000
1709291522.817,-26.367,-23.926,-30.762,-41.504,0.000
1709291522.821,-22.461,-23.438,-31.250,-25.391,0.000
1709291522.824,-15.137,-43.945,-28.320,-5.371,0.000
1709291522.828,-22.949,-37.109,-30.762,-18.066,0.000
1709291522.832,-40.039,-22.949,-34.180,-41.016,0.000
1709291522.836,-49.316,-33.203,-28.809,-57.617,0.000
1709291522.840,-46.387,-34.180,-28.809,-54.688,0.000
1709291522.844,-36.621,-20.020,-33.203,-27.832,0.000
1709291522.848,-41.504,-17.578,-32.227,-11.719,0.000
1709291522.852,-45.410,-35.645,-32.715,-16.602,0.000
1709291522.856,-41.992,-46.875,-40.527,-30.273,0.000
1709291522.860,-34.668,-24.414,-35.156,-18.066,0.000
1709291522.864,-22.949,-14.648,-29.785,-7.812,0.000
1709291522.868,-16.113,-28.809,-31.738,-8.789,0.000
1709291522.872,-20.508,-38.086,-34.668,-7.812,0.000
1709291522.875,-8.301,-19.043,-29.785,-23.926,0.000
1709291522.879,-3.906,-19.043,-25.879,-28.809,0.000
1709291522.883,-17.578,-32.715,-31.738,-18.555,0.000
1709291522.887,-31.250,-29.297,-35.156,-14.648,0.000
1709291522.891,-41.016,-18.066,-34.668,-26.367,0.000
1709291522.895,-33.203,-18.066,-32.227,-24.902,0.000
1709291522.899,-18.066,-30.762,-30.762,-3.906,0.000
1709291522.903,-11.230,-36.621,-27.832,-4.883,0.000
1709291522.907,-17.090,-30.273,-32.715,-10.254,0.000
1709291522.911,-10.254,-29.297,-38.574,-5.371,0.000
1709291522.915,-15.137,-47.363,-32.715,-9.766,0.000
1709291522.919,-40.039,-35.645,-28.320,-14.160,0.000
1709291522.922,-29.785,-17.578,-27.344,-7.812,0.000
1709291522.926,-10.742,-32.227,-26.855,10.742,0.000
1709291522.930,-27.344,-38.086,-29.297,2.441,0.000
1709291522.934,-34.180,-31.738,-25.879,-13.184,0.000
1709291522.938,-15.625,-30.762,-24.414,-13.184,0.000
1709291522.942,-0.977,-37.598,-23.926,2.930,0.000
1709291522.946,-1.953,-40.039,-23.438,16.113,0.000
1709291522.950,-14.648,-39.551,-32.227,1.465,0.000
1709291522.954,-18.555,-40.039,-41.016,-10.742,0.000
1709291522.958,-9.277,-44.434,-38.574,-2.441,0.000
1709291522.962,-5.371,-54.688,-30.273,15.625,0.000
1709291522.966,-5.859,-24.902,-35.156,25.391,0.000
1709291522.969,-6.836,-14.648,-38.574,24.414,0.000
1709291522.973,-15.625,-33.691,-33.691,10.742,0.000
1709291522.977,-25.879,-39.062,-34.668,-11.230,0.000
1709291522.981,-32.227,-30.273,-37.109,-26.367,0.000
1709291522.985,-19.531,-37.109,-35.156,-13.672,0.000
1709291522.989,-10.742,-38.086,-35.156,0.000,0.000
1709291522.993,-22.461,-29.297,-36.133,-13.184,0.000
1709291522.997,-33.691,-45.410,-38.574,-24.414,0.000
1709291523.001,-24.902,-48.340,-33.691,-23.926,0.000
1709291523.005,-13.184,-49.805,-32.715,-15.625,0.000
1709291523.008,-17.578,-34.668,-38.086,-11.719,0.000
1709291523.012,-31.738,-13.184,-41.016,-34.180,0.000
1709291523.016,-31.738,-29.785,-40.039,-50.781,0.000
1709291523.020,-34.180,-50.293,-41.992,-56.641,0.000
1709291523.024,-29.297,-35.156,-43.457,-41.504,0.000
1709291523.028,-26.367,-33.203,-39.062,-29.785,0.000
1709291523.032,-40.527,-53.223,-39.062,-35.156,0.000
1709291523.036,-51.270,-54.199,-39.551,-51.758,0.000
1709291523.040,-50.781,-47.852,-32.715,-53.223,0.000
1709291523.043,-51.270,-50.781,-41.016,-32.715,0.000
1709291523.047,-56.641,-54.199,-47.363,-27.344,0.000
1709291523.051,-51.270,-58.105,-41.504,-22.461,0.000
1709291523.055,-55.176,-34.668,-39.062,-38.574,0.000
1709291523.059,-58.594,-29.785,-41.016,-55.176,0.000
1709291523.063,-52.246,-45.410,-39.062,-38.574,0.000
1709291523.067,-45.410,-50.293,-35.645,-21.484,0.000
1709291523.071,-37.109,-37.598,-37.598,-22.461,0.000
1709291523.074,-36.621,-28.320,-37.109,-41.016,0.000
1709291523.078,-41.016,-41.504,-38.086,-49.316,0.000
1709291523.082,-30.273,-39.551,-39.551,-32.227,0.000
1709291523.086,-26.855,-31.738,-41.504,-25.391,0.000
1709291523.090,-33.691,-40.039,-37.109,-41.016,0.000
1709291523.094,-39.551,-54.199,-41.504,-50.293,0.000
1709291523.098,-38.574,-46.875,-41.016,-46.387,0.000
1709291523.102,-31.250,-24.902,-31.250,-37.598,0.000
1709291523.106,-36.621,-31.738,-31.250,-44.434,0.000
1709291523.110,-39.062,-38.574,-36.133,-43.945,0.000
1709291523.113,-40.039,-27.344,-37.598,-49.316,0.000
1709291523.117,-51.270,-20.508,-32.715,-54.688,0.000
1709291523.121,-38.086,-20.508,-33.691,-41.016,0.000
1709291523.125,-40.527,-32.227,-34.180,-34.180,0.000
1709291523.129,-58.105,-36.133,-32.715,-40.039,0.000
1709291523.133,-53.711,-26.367,-30.762,-43.457,0.000
1709291523.137,-47.852,-37.109,-27.344,-39.551,0.000
1709291523.141,-44.922,-57.617,-23.926,-26.367,0.000
1709291523.144,-36.621,-27.344,-26.855,-14.648,0.000
1709291523.148,-29.785,-20.508,-27.832,-13.184,0.000
1709291523.152,-34.180,-40.039,-34.668,-29.785,0.000
1709291523.156,-44.434,-28.320,-40.039,-43.945,0.000
1709291523.160,-42.480,-24.902,-34.668,-47.363,0.000
1709291523.164,-45.410,-35.645,-32.227,-36.133,0.000
1709291523.167,-41.992,-33.691,-36.133,-20.508,0.000
1709291523.171,-38.574,-21.484,-33.691,-30.273,0.000
1709291523.175,-58.105,-33.203,-35.645,-62.500,0.000
1709291523.179,-68.848,-40.039,-33.203,-63.965,0.000
1709291523.183,-60.547,-38.086,-33.691,-45.410,0.000
1709291523.187,-52.734,-33.203,-41.016,-32.715,0.000
1709291523.191,-56.152,-20.996,-35.156,-41.504,0.000
1709291523.195,-52.734,-28.809,-28.320,-42.480,0.000
1709291523.199,-42.969,-48.340,-27.344,-28.809,0.000
1709291523.203,-29.785,-26.855,-32.227,-15.137,0.000
1709291523.207,-28.809,-9.766,-31.738,-19.531,0.000
1709291523.211,0.000,-30.762,-33.691,-32.227,0.000
1709291523.215,0.000,-38.086,-35.156,-33.691,0.000
1709291523.219,0.000,-23.926,-34.668,-34.668,0.000
1709291523.222,0.000,-25.879,-33.203,-32.715,0.000
1709291523.226,0.000,-39.551,-31.738,-19.531,0.000
1709291523.230,0.000,-43.945,-32.715,-21.973,0.000
1709291523.234,0.000,-23.438,-29.785,-42.480,0.000
1709291523.238,0.000,-10.742,-28.320,-57.129,0.000
1709291523.242,0.000,-33.203,-36.133,-41.504,0.000
1709291523.246,0.000,-45.898,-41.504,-5.859,0.000
1709291523.250,0.000,-20.996,-35.156,-9.766,0.000
1709291523.254,0.000,-28.809,-35.156,-24.902,0.000
1709291523.258,-27.344,-35.645,-37.109,-26.367,0.000
1709291523.262,-27.832,-14.160,-36.133,-19.043,0.000
1709291523.266,-22.949,-23.926,-35.645,-18.555,0.000
1709291523.270,-23.438,-41.504,-40.039,-20.020,0.000
1709291523.273,-30.273,-30.762,-45.898,-20.508,0.000
1709291523.277,-15.137,-25.391,-41.016,-24.414,0.000
1709291523.281,-16.113,-18.066,-37.109,-21.484,0.000
1709291523.285,-35.156,-17.090,-40.527,-17.090,0.000
1709291523.289,-40.527,-45.898,-41.992,-19.043,0.000
1709291523.293,-33.203,-34.668,-36.621,-14.160,0.000
1709291523.297,-23.926,-12.207,-34.668,-26.367,0.000
1709291523.301,-19.043,-20.020,-34.180,-34.668,0.000
1709291523.305,-19.531,-28.809,-30.273,-20.508,0.000
1709291523.309,-30.762,-28.809,-33.691,-22.949,0.000
1709291523.313,-35.645,-30.273,-35.645,-39.062,0.000
1709291523.316,-27.832,-37.598,-35.156,-49.805,0.000
1709291523.320,-28.809,-44.922,-38.574,-49.316,0.000
1709291523.324,-26.367,-39.551,-38.574,-30.762,0.000
1709291523.328,-34.668,-29.785,-41.504,-25.391,0.000
1709291523.332,-38.574,-36.621,-40.527,-34.180,0.000
1709291523.336,-41.504,-52.246,-39.551,-41.992,0.000
1709291523.340,-49.316,-33.691,-41.992,-48.340,0.000
1709291523.344,-39.062,-18.555,-35.645,-32.227,0.000
1709291523.348,-28.320,-27.344,-31.250,-19.531,0.000
1709291523.352,-37.109,-30.762,-42.969,-26.367,0.000
1709291523.356,-37.109,-28.320,-43.457,-26.855,0.000
1709291523.359,-9.766,-32.227,-38.574,-22.949,0.000
1709291523.363,-1.953,-35.156,-37.109,-17.090,0.000
1709291523.367,-17.578,-27.344,-34.180,-14.648,0.000
1709291523.371,-36.621,-31.250,-35.645,-33.203,0.000
1709291523.375,-48.340,-36.133,-36.133,-51.270,0.000
1709291523.379,-43.945,-42.480,-34.668,-35.156,0.000
1709291523.383,-47.852,-46.387,-33.203,-24.902,0.000
1709291523.387,-45.410,-28.320,-39.062,-20.020,0.000
1709291523.391,-45.898,-25.391,-39.551,-20.996,0.000
1709291523.395,-47.363,-34.668,-36.621,-43.945,0.000
