timestamps,TP9,AF7,AF8,TP10,Right AUX
1709297891.601,0.000,-28.809,-40.039,-48.340,0.000
1709297891.605,0.000,-30.273,-45.410,-36.133,0.000
1709297891.609,0.000,-25.391,-42.969,-24.902,0.000
1709297891.613,0.000,-24.414,-40.039,-35.156,0.000
1709297891.617,0.000,-25.391,-41.504,-48.340,0.000
1709297891.621,0.000,-23.926,-35.645,-23.926,0.000
1709297891.624,0.000,-24.902,-33.691,-23.438,0.000
1709297891.628,0.000,-23.926,-36.621,-49.316,0.000
1709297891.632,0.000,-23.926,-38.086,-43.945,0.000
1709297891.636,0.000,-25.391,-40.039,-49.316,0.000
1709297891.640,0.000,-26.367,-35.645,-29.785,0.000
1709297891.644,0.000,-28.320,-34.180,-2.441,0.000
1709297891.648,-29.297,-29.785,-40.039,-35.645,0.000
1709297891.652,-34.180,-31.738,-44.434,-55.176,0.000
1709297891.656,-38.086,-33.203,-43.457,-55.176,0.000
1709297891.660,-43.945,-33.203,-41.016,-57.129,0.000
1709297891.664,-40.527,-34.180,-40.527,-41.016,0.000
1709297891.667,-39.551,-38.574,-39.062,-26.855,0.000
1709297891.671,-48.340,-42.969,-41.504,-31.250,0.000
1709297891.675,-26.367,-37.109,-44.434,-40.039,0.000
1709297891.679,-15.137,-34.180,-40.527,-39.551,0.000
1709297891.683,-32.715,-35.156,-38.086,-19.531,0.000
1709297891.687,-29.785,-36.133,-40.527,-11.719,0.000
1709297891.691,-30.762,-41.016,-38.086,-20.996,0.000
1709297891.695,-38.086,-39.062,-38.574,-29.785,0.000
1709297891.699,-28.809,-34.668,-37.598,-26.855,0.000
1709297891.703,-24.414,-38.574,-35.645,-19.043,0.000
1709297891.707,-30.762,-39.062,-38.086,-15.137,0.000
1709297891.710,-28.809,-35.156,-33.691,-14.648,0.000
1709297891.714,-38.086,-33.691,-30.762,-25.879,0.000
1709297891.718,-51.270,-35.645,-38.086,-35.645,0.000
1709297891.722,-37.109,-35.156,-42.480,-35.645,0.000
1709297891.726,-26.855,-34.668,-43.945,-27.832,0.000
1709297891.730,-27.832,-34.180,-42.480,-10.254,0.000
1709297891.734,-30.273,-32.715,-42.969,-27.832,0.000
1709297891.738,-29.297,-34.668,-44.434,-55.664,0.000
1709297891.742,-26.855,-38.086,-45.410,-48.828,0.000
1709297891.746,-24.902,-35.645,-45.410,-39.062,0.000
1709297891.750,-21.973,-35.156,-44.922,-34.668,0.000
1709297891.753,-27.344,-39.062,-46.875,-40.527,0.000
1709297891.757,-26.367,-36.621,-43.457,-48.828,0.000
1709297891.761,-22.949,-35.156,-41.016,-43.457,0.000
1709297891.765,-30.273,-36.621,-41.504,-33.691,0.000
1709297891.769,-22.461,-36.621,-41.016,-32.715,0.000
1709297891.773,-22.949,-40.527,-39.551,-32.715,0.000
1709297891.777,-43.457,-42.480,-41.992,-42.480,0.000
1709297891.781,-30.273,-38.086,-42.480,-50.293,0.000
1709297891.785,-31.250,-38.574,-39.551,-35.645,0.000
1709297891.789,-41.016,-39.062,-37.109,-26.367,0.000
1709297891.793,-39.062,-41.016,-36.621,-26.855,0.000
1709297891.796,-39.062,-40.039,-36.621,-35.645,0.000
1709297891.800,-43.457,-40.039,-36.621,-25.879,0.000
1709297891.804,-38.086,-40.039,-37.598,-10.254,0.000
1709297891.808,-12.207,-34.180,-47.852,-14.648,0.000
1709297891.812,-3.906,-33.203,-37.598,4.883,0.000
1709297891.816,-30.273,-41.016,-21.973,-23.926,0.000
1709297891.820,-45.410,-42.969,-21.973,-62.012,0.000
1709297891.824,-48.340,-48.828,-22.461,-51.270,0.000
1709297891.828,-57.129,-61.035,-27.832,-53.223,0.000
1709297891.832,-61.035,-64.453,-21.973,-64.941,0.000
1709297891.836,-70.312,-70.801,-11.230,-76.660,0.000
1709297891.839,-72.754,-74.707,-1.465,-78.613,0.000
1709297891.843,-81.055,-80.078,7.812,-80.566,0.000
1709297891.847,-95.215,-89.355,11.230,-66.895,0.000
1709297891.851,-98.145,-93.262,16.602,-52.246,0.000
1709297891.855,-107.422,-100.098,15.137,-71.289,0.000
1709297891.859,-120.605,-106.934,14.160,-82.520,0.000
1709297891.863,-112.305,-108.887,16.113,-68.848,0.000
1709297891.867,-99.609,-113.770,18.066,-54.199,0.000
1709297891.871,-105.957,-120.605,24.414,-62.012,0.000
1709297891.875,-106.445,-121.582,26.367,-65.430,0.000
1709297891.879,-86.426,-117.188,28.809,-57.617,0.000
1709297891.882,-77.148,-119.141,24.902,-56.641,0.000
1709297891.886,-75.684,-124.512,20.020,-20.996,0.000
1709297891.890,-67.383,-120.605,24.414,11.230,0.000
1709297891.894,-47.852,-113.281,22.461,-10.742,0.000
1709297891.898,-18.555,-113.281,19.531,6.836,0.000
1709297891.902,-10.742,-114.258,22.949,35.156,0.000
1709297891.906,12.207,-114.258,8.301,49.805,0.000
1709297891.910,37.598,-110.840,-0.977,76.660,0.000
1709297891.914,31.738,-107.422,11.230,78.125,0.000
1709297891.918,32.715,-106.445,11.230,68.359,0.000
1709297891.921,41.016,-106.934,-4.883,82.031,0.000
1709297891.925,45.410,-104.980,-10.254,104.492,0.000
1709297891.929,41.016,-100.586,-12.207,110.352,0.000
1709297891.933,49.805,-95.703,-12.207,104.980,0.000
1709297891.937,64.941,-90.820,-10.254,102.051,0.000
1709297891.941,62.012,-84.473,-12.695,109.863,0.000
1709297891.945,55.176,-79.590,-15.625,117.188,0.000
1709297891.949,53.223,-79.102,-13.184,127.930,0.000
1709297891.953,37.598,-78.613,-14.648,119.141,0.000
1709297891.957,50.293,-77.637,-20.020,105.957,0.000
1709297891.961,76.172,-77.637,-20.508,107.422,0.000
1709297891.964,61.523,-73.730,-23.926,99.609,0.000
1709297891.968,43.457,-67.383,-26.367,93.750,0.000
1709297891.972,41.016,-67.383,-27.832,78.125,0.000
1709297891.976,24.414,-68.359,-30.273,49.805,0.000
1709297891.980,17.578,-67.383,-37.598,46.875,0.000
1709297891.984,21.973,-70.312,-42.480,57.617,0.000
1709297891.988,25.879,-68.848,-41.504,69.336,0.000
1709297891.992,22.461,-65.430,-41.504,55.664,0.000
1709297891.996,12.695,-65.918,-42.969,41.992,0.000
1709297892.000,13.672,-63.477,-39.551,54.688,0.000
1709297892.003,21.973,-62.988,-33.203,63.965,0.000
1709297892.007,19.043,-60.547,-31.738,60.059,0.000
1709297892.011,10.254,-55.664,-30.762,51.758,0.000
1709297892.015,8.789,-54.199,-29.785,41.992,0.000
1709297892.019,21.484,-51.270,-30.273,27.344,0.000
1709297892.023,14.648,-51.270,-32.227,30.273,0.000
1709297892.027,-4.395,-51.758,-34.180,33.203,0.000
1709297892.031,-3.906,-49.316,-33.691,23.438,0.000
1709297892.035,-9.766,-52.734,-34.668,7.324,0.000
1709297892.039,-17.090,-54.688,-36.621,-1.465,0.000
1709297892.043,-12.695,-48.828,-29.785,12.207,0.000
1709297892.046,1.465,-42.969,-29.785,25.879,0.000
1709297892.050,3.906,-44.922,-33.203,12.695,0.000
1709297892.054,0.000,-45.898,-30.762,-4.883,0.000
1709297892.058,-7.324,-43.457,-35.156,-11.230,0.000
1709297892.062,-8.789,-41.992,-35.156,-6.348,0.000
1709297892.066,-7.812,-45.898,-35.645,-0.488,0.000
1709297892.070,-13.672,-45.898,-37.109,-3.906,0.000
1709297892.074,-19.531,-45.410,-36.621,-12.695,0.000
1709297892.078,-19.043,-44.922,-35.645,-13.184,0.000
1709297892.082,-16.602,-44.434,-31.250,-7.812,0.000
1709297892.086,-11.719,-44.922,-29.297,3.418,0.000
1709297892.089,-7.324,-40.039,-28.320,3.418,0.000
1709297892.093,-11.230,-41.504,-26.367,-12.207,0.000
1709297892.097,-13.184,-44.922,-28.320,-25.391,0.000
1709297892.101,-7.812,-43.945,-29.785,-18.555,0.000
1709297892.105,0.000,-41.504,-31.738,5.371,0.000
1709297892.109,-3.418,-38.574,-31.738,-4.883,0.000
1709297892.113,-13.672,-39.062,-29.297,-28.320,0.000
1709297892.117,5.859,-36.621,-31.250,-31.738,0.000
1709297892.121,12.695,-41.016,-33.203,-22.461,0.000
1709297892.125,-19.043,-43.457,-29.785,-20.996,0.000
1709297892.129,-35.156,-41.992,-27.832,-27.832,0.000
1709297892.132,-29.785,-43.945,-26.855,-20.996,0.000
1709297892.136,-28.809,-41.016,-26.367,-20.020,0.000
1709297892.140,-26.855,-43.945,-28.809,-21.973,0.000
1709297892.144,-1.465,-44.434,-30.762,-4.883,0.000
1709297892.148,11.719,-38.086,-30.762,17.090,0.000
1709297892.152,0.488,-34.180,-31.250,2.441,0.000
1709297892.156,-8.301,-36.621,-35.156,-18.066,0.000
1709297892.160,-6.348,-41.016,-34.668,-12.695,0.000
1709297892.164,-3.418,-41.992,-33.691,-8.301,0.000
1709297892.168,-8.301,-41.504,-32.227,0.000,0.000
1709297892.172,-13.184,-46.387,-31.738,-6.348,0.000
1709297892.176,-15.137,-49.805,-33.203,-14.160,0.000
1709297892.179,-13.672,-46.875,-31.250,-19.043,0.000
1709297892.183,-14.648,-46.387,-31.738,-14.160,0.000
1709297892.187,-20.996,-45.898,-37.109,-7.324,0.000
1709297892.191,-23.438,-45.898,-38.574,-17.578,0.000
1709297892.195,-27.832,-41.016,-35.645,-24.902,0.000
1709297892.199,-21.973,-41.016,-40.527,-34.668,0.000
1709297892.203,-11.719,-43.457,-44.922,-31.738,0.000
1709297892.207,-24.414,-37.598,-41.992,-22.949,0.000
1709297892.211,-32.715,-38.086,-39.062,-25.391,0.000
1709297892.215,-27.832,-39.062,-35.645,-31.738,0.000
1709297892.219,-24.902,-38.086,-33.203,-33.691,0.000
1709297892.222,-24.902,-35.156,-33.691,-32.227,0.000
1709297892.226,-21.973,-33.203,-35.645,-28.320,0.000
1709297892.230,-21.484,-36.133,-36.621,-21.484,0.000
1709297892.234,-24.414,-36.621,-36.133,-24.414,0.000
1709297892.238,-26.855,-37.598,-38.574,-25.391,0.000
1709297892.242,-21.973,-34.180,-32.715,-2.930,0.000
1709297892.246,-20.508,-32.227,-32.227,17.090,0.000
1709297892.250,-29.297,-37.598,-38.574,9.277,0.000
1709297892.254,-33.203,-40.039,-37.598,-3.418,0.000
1709297892.258,-24.414,-36.621,-35.645,-27.832,0.000
1709297892.262,-20.020,-34.180,-36.133,-35.645,0.000
1709297892.265,-19.531,-33.203,-37.109,-15.625,0.000
1709297892.269,-19.531,-33.203,-33.691,-5.371,0.000
1709297892.273,-28.809,-36.133,-33.691,-16.113,0.000
1709297892.277,-33.691,-36.133,-34.668,-25.391,0.000
1709297892.281,-31.250,-31.738,-31.250,-17.090,0.000
1709297892.285,-25.879,-30.273,-32.227,-2.930,0.000
1709297892.289,-16.602,-31.738,-32.227,-5.371,0.000
1709297892.293,-25.391,-32.715,-34.668,-22.949,0.000
1709297892.297,-32.227,-29.785,-30.762,-32.227,0.000
1709297892.301,-25.391,-32.715,-27.832,-27.344,0.000
1709297892.304,-25.391,-35.156,-31.738,-18.066,0.000
1709297892.308,-30.273,-35.156,-33.691,-9.277,0.000
1709297892.312,-29.785,-34.180,-34.180,-20.020,0.000
1709297892.316,-37.109,-33.691,-35.156,-39.062,0.000
1709297892.320,-46.875,-38.086,-39.551,-35.156,0.000
1709297892.324,-40.527,-39.551,-42.480,-21.973,0.000
1709297892.328,-32.227,-41.504,-41.504,-17.578,0.000
1709297892.332,-28.809,-33.691,-40.527,-19.043,0.000
1709297892.336,-32.227,-25.879,-40.039,-35.156,0.000
1709297892.340,-36.621,-29.297,-38.086,-42.480,0.000
1709297892.344,-30.762,-29.297,-39.062,-28.320,0.000
1709297892.347,-25.879,-22.461,-38.086,-24.414,0.000
1709297892.351,-30.273,-20.508,-35.645,-29.297,0.000
1709297892.355,-36.133,-27.832,-29.297,-34.668,0.000
1709297892.359,-41.016,-31.738,-30.273,-42.480,0.000
1709297892.363,-41.016,-29.785,-39.062,-40.527,0.000
1709297892.367,-41.992,-29.785,-38.574,-30.273,0.000
1709297892.371,-37.109,-33.691,-40.039,-23.926,0.000
1709297892.375,-50.781,-35.645,-44.922,-37.598,0.000
1709297892.379,-67.383,-34.180,-41.016,-51.758,0.000
1709297892.383,-52.246,-32.227,-36.621,-42.480,0.000
1709297892.386,-44.922,-32.715,-38.574,-24.414,0.000
1709297892.390,-52.734,-32.715,-39.551,-20.508,0.000
1709297892.394,-55.176,-30.273,-41.992,-40.039,0.000
1709297892.398,-58.105,-33.691,-41.504,-51.270,0.000
1709297892.402,-59.082,-35.156,-38.086,-42.480,0.000
1709297892.406,-47.363,-32.227,-40.527,-28.320,0.000
1709297892.410,-41.016,-29.297,-42.480,-28.809,0.000
1709297892.414,-48.340,-29.785,-38.574,-37.598,0.000
1709297892.418,-51.270,-31.250,-32.715,-31.738,0.000
1709297892.422,-42.480,-27.832,-34.668,-29.297,0.000
1709297892.426,-39.062,-23.438,-32.227,-27.344,0.000
1709297892.429,-41.992,-26.855,-32.715,-30.762,0.000
1709297892.433,-46.387,-34.668,-37.598,-39.062,0.000
1709297892.437,-50.293,-36.621,-37.109,-49.316,0.000
1709297892.441,-54.199,-35.156,-38.574,-58.105,0.000
1709297892.445,-53.223,-33.691,-36.621,-42.969,0.000
1709297892.449,-50.293,-34.668,-33.691,-33.203,0.000
1709297892.453,-55.176,-42.969,-37.109,-52.734,0.000
1709297892.457,-60.059,-47.852,-41.016,-72.754,0.000
1709297892.461,-52.246,-46.875,-41.016,-66.895,0.000
1709297892.465,-46.875,-42.969,-35.645,-49.805,0.000
1709297892.469,-56.152,-41.016,-33.691,-42.480,0.000
1709297892.472,-54.688,-39.062,-36.621,-37.598,0.000
1709297892.476,-53.223,-38.574,-34.668,-39.062,0.000
1709297892.480,-57.129,-38.086,-37.109,-45.410,0.000
1709297892.484,-55.176,-38.086,-39.062,-47.363,0.000
1709297892.488,-56.641,-43.457,-33.203,-39.551,0.000
1709297892.492,-62.500,-40.527,-36.133,-48.828,0.000
1709297892.496,-55.664,-36.133,-40.039,-54.688,0.000
1709297892.500,-48.828,-35.645,-35.645,-43.945,0.000
1709297892.504,-50.293,-35.156,-33.203,-25.879,0.000
1709297892.508,-49.316,-38.574,-37.109,-13.184,0.000
1709297892.512,-56.152,-39.551,-38.086,-24.414,0.000
1709297892.515,-61.523,-36.133,-32.715,-49.805,0.000
1709297892.519,-56.641,-33.691,-32.227,-55.176,0.000
1709297892.523,-53.223,-35.156,-39.551,-37.109,0.000
1709297892.527,-50.293,-36.133,-42.969,-23.438,0.000
1709297892.531,-46.387,-36.133,-41.016,-23.926,0.000
1709297892.535,-49.805,-36.133,-42.969,-36.133,0.000
1709297892.539,-51.758,-37.598,-46.387,-42.480,0.000
1709297892.543,-48.340,-39.551,-46.387,-33.203,0.000
1709297892.547,-41.504,-37.109,-43.457,-21.973,0.000
1709297892.551,-37.598,-33.691,-43.457,-21.484,0.000
1709297892.555,-39.551,-35.645,-41.992,-27.832,0.000
1709297892.558,-49.316,-37.109,-39.062,-37.109,0.000
1709297892.562,-50.781,-38.574,-41.992,-37.598,0.000
1709297892.566,-44.922,-40.527,-41.992,-21.484,0.000
1709297892.570,-49.805,-37.109,-40.039,-16.113,0.000
1709297892.574,-49.805,-38.086,-39.062,-44.922,0.000
1709297892.578,-56.641,-41.992,-39.062,-64.453,0.000
1709297892.582,-55.176,-39.062,-36.621,-44.434,0.000
1709297892.586,-46.387,-36.621,-36.621,-32.715,0.000
1709297892.590,-52.734,-39.062,-38.086,-36.133,0.000
1709297892.594,-58.105,-41.016,-38.574,-45.898,0.000
1709297892.598,-61.523,-39.551,-35.156,-52.246,0.000
1709297892.601,-49.805,-37.598,-33.203,-37.598,0.000
1709297892.605,-49.316,-34.180,-38.086,-34.668,0.000
1709297892.609,-55.664,-32.715,-36.621,-37.598,0.000
1709297892.613,-62.012,-38.086,-37.598,-40.039,0.000
1709297892.617,-73.242,-38.574,-37.109,-60.059,0.000
1709297892.621,-66.895,-40.527,-37.598,-66.406,0.000
1709297892.625,-56.641,-42.480,-39.551,-49.316,0.000
1709297892.629,-57.129,-41.504,-36.621,-34.668,0.000
1709297892.633,-62.988,-42.969,-38.574,-43.457,0.000
1709297892.637,-66.406,-42.480,-43.945,-62.012,0.000
1709297892.641,-61.035,-40.527,-41.504,-55.176,0.000
1709297892.645,-57.129,-37.109,-40.527,-33.203,0.000
1709297892.648,-50.293,-33.203,-40.039,-19.531,0.000
1709297892.652,-55.664,-36.621,-36.133,-29.785,0.000
1709297892.656,-62.012,-37.109,-35.156,-34.180,0.000
1709297892.660,-41.016,-36.133,-30.273,-13.184,0.000
1709297892.664,-20.020,-35.645,-34.668,4.883,0.000
1709297892.668,-30.762,-33.203,-38.574,-11.230,0.000
1709297892.672,-61.523,-30.273,-43.945,-50.293,0.000
1709297892.676,-72.266,-29.297,-50.293,-75.195,0.000
1709297892.680,0.000,-30.273,-46.387,-87.891,0.000
1709297892.684,0.000,-30.273,-39.551,-73.730,0.000
1709297892.687,0.000,-33.691,-36.621,-58.105,0.000
1709297892.691,0.000,-34.180,-39.551,-57.617,0.000
1709297892.695,0.000,-34.180,-44.434,-72.266,0.000
1709297892.699,0.000,-39.551,-51.758,-73.242,0.000
1709297892.703,0.000,-42.969,-53.711,-53.223,0.000
1709297892.707,0.000,-38.574,-47.363,-45.898,0.000
1709297892.711,0.000,-32.715,-42.969,-52.246,0.000
1709297892.715,0.000,-34.180,-42.969,-58.105,0.000
1709297892.719,0.000,-40.527,-45.898,-61.523,0.000
1709297892.723,0.000,-37.598,-46.875,-51.270,0.000
1709297892.726,-34.180,-37.109,-48.828,-40.527,0.000
1709297892.730,-37.598,-40.039,-52.246,-41.992,0.000
1709297892.734,-40.039,-34.668,-49.805,-48.828,0.000
1709297892.738,-38.574,-30.762,-47.852,-55.176,0.000
1709297892.742,-33.691,-32.715,-44.434,-54.199,0.000
1709297892.746,-32.715,-31.250,-40.039,-39.551,0.000
1709297892.750,-43.945,-30.762,-39.062,-38.086,0.000
1709297892.754,-57.617,-37.109,-41.992,-59.082,0.000
1709297892.758,-57.617,-39.062,-39.551,-62.500,0.000
1709297892.762,-49.316,-33.203,-40.039,-41.504,0.000
1709297892.766,-45.410,-32.715,-41.992,-27.344,0.000
1709297892.769,-48.340,-39.062,-41.504,-34.180,0.000
1709297892.773,-50.293,-39.062,-40.527,-44.434,0.000
1709297892.777,-45.410,-33.691,-38.086,-43.457,0.000
1709297892.781,-43.945,-35.156,-40.039,-39.062,0.000
1709297892.785,-35.156,-36.133,-41.504,-37.109,0.000
1709297892.789,-30.273,-31.250,-39.551,-29.297,0.000
1709297892.793,-43.945,-29.785,-39.551,-40.039,0.000
1709297892.797,-48.340,-26.367,-36.133,-55.664,0.000
1709297892.801,-40.527,-21.484,-34.668,-48.828,0.000
1709297892.805,-35.156,-25.879,-37.109,-40.039,0.000
1709297892.809,-37.598,-27.832,-37.109,-33.203,0.000
1709297892.812,-39.062,-23.926,-37.109,-40.039,0.000
1709297892.816,-41.016,-25.391,-33.203,-59.570,0.000
1709297892.820,-36.621,-25.879,-28.809,-56.152,0.000
1709297892.824,-31.738,-27.344,-30.762,-41.016,0.000
1709297892.828,-33.691,-32.227,-35.645,-35.645,0.000
1709297892.832,-34.180,-34.180,-39.062,-36.621,0.000
1709297892.836,-36.621,-29.785,-36.133,-46.875,0.000
1709297892.840,-34.668,-27.344,-34.668,-49.316,0.000
1709297892.844,-30.762,-31.250,-39.062,-39.551,0.000
1709297892.848,-26.855,-34.180,-42.969,-38.086,0.000
1709297892.852,-29.785,-38.574,-41.504,-38.086,0.000
1709297892.855,-34.180,-40.039,-43.457,-41.992,0.000
1709297892.859,-28.809,-36.621,-46.875,-49.805,0.000
1709297892.863,-26.855,-34.180,-44.434,-34.180,0.000
1709297892.867,-27.344,-30.273,-42.969,-15.625,0.000
1709297892.871,-25.879,-28.320,-39.551,-23.438,0.000
1709297892.875,-25.879,-29.785,-36.621,-42.969,0.000
1709297892.879,-24.902,-32.715,-38.086,-44.922,0.000
1709297892.883,-20.996,-32.715,-40.527,-38.086,0.000
1709297892.887,-15.625,-29.785,-40.039,-22.461,0.000
1709297892.891,-15.625,-27.832,-38.574,-26.367,0.000
1709297892.895,-29.785,-31.738,-40.039,-49.805,0.000
1709297892.899,-47.852,-36.133,-44.922,-49.316,0.000
1709297892.902,-43.457,-34.180,-43.457,-40.039,0.000
1709297892.906,-35.156,-33.691,-39.551,-26.855,0.000
1709297892.910,-32.715,-33.691,-39.551,-21.973,0.000
1709297892.914,-34.180,-32.715,-38.086,-33.691,0.000
1709297892.918,-41.992,-33.691,-37.598,-50.293,0.000
1709297892.922,-37.598,-39.062,-39.551,-52.734,0.000
1709297892.926,-25.391,-37.598,-43.457,-41.016,0.000
1709297892.930,-27.832,-36.621,-46.387,-41.504,0.000
1709297892.934,-43.945,-39.551,-43.457,-41.992,0.000
1709297892.938,-50.781,-39.062,-42.480,-48.828,0.000
1709297892.941,-37.598,-37.598,-41.016,-46.387,0.000
1709297892.945,-29.785,-35.645,-37.598,-27.344,0.000
1709297892.949,-33.691,-35.156,-44.922,-39.062,0.000
1709297892.953,-37.109,-40.527,-47.363,-54.199,0.000
1709297892.957,-48.340,-47.363,-47.852,-62.012,0.000
1709297892.961,-46.875,-44.922,-50.781,-63.965,0.000
1709297892.965,-39.551,-41.016,-49.805,-47.363,0.000
1709297892.969,-46.387,-42.480,-47.363,-41.016,0.000
1709297892.973,-54.199,-43.457,-43.457,-52.734,0.000
1709297892.977,-46.387,-41.504,-41.504,-59.570,0.000
1709297892.981,-35.156,-34.668,-39.551,-53.223,0.000
1709297892.984,-31.250,-34.668,-38.086,-32.227,0.000
1709297892.988,-37.109,-37.598,-37.598,-15.625,0.000
1709297892.992,-44.922,-35.156,-38.086,-25.879,0.000
1709297892.996,-42.480,-32.715,-32.715,-47.363,0.000
1709297893.000,-41.992,-33.203,-33.691,-49.805,0.000
1709297893.004,-40.527,-31.738,-35.645,-36.621,0.000
1709297893.008,-38.086,-29.297,-35.645,-30.273,0.000
1709297893.012,-38.574,-30.762,-33.203,-37.598,0.000
1709297893.016,-38.086,-30.273,-33.203,-47.363,0.000
1709297893.020,-38.086,-35.645,-41.016,-54.688,0.000
1709297893.024,-32.227,-38.086,-40.527,-40.527,0.000
1709297893.027,-24.902,-35.156,-34.668,-23.438,0.000
1709297893.031,-33.203,-38.086,-38.574,-37.109,0.000
1709297893.035,-46.875,-37.109,-39.551,-42.480,0.000
1709297893.039,-47.852,-32.715,-41.504,-43.945,0.000
1709297893.043,-47.363,-37.109,-42.969,-31.738,0.000
1709297893.047,-44.434,-38.574,-40.527,-17.578,0.000
1709297893.051,-32.227,-37.109,-41.504,-30.273,0.000
1709297893.055,-23.926,-35.645,-43.457,-33.203,0.000
1709297893.059,-23.926,-39.551,-41.504,-33.691,0.000
1709297893.063,-29.785,-41.992,-37.598,-23.926,0.000
1709297893.066,-34.180,-42.480,-39.551,-12.695,0.000
1709297893.070,-35.645,-37.598,-40.039,-18.555,0.000
1709297893.074,-42.480,-34.180,-38.086,-31.738,0.000
1709297893.078,-49.316,-39.062,-41.992,-45.898,0.000
1709297893.082,-41.504,-42.969,-42.969,-31.738,0.000
1709297893.086,-26.367,-39.062,-37.598,-16.602,0.000
1709297893.090,-34.180,-32.227,-41.504,-24.414,0.000
1709297893.094,-35.645,-27.832,-42.480,-33.203,0.000
1709297893.098,-24.902,-26.367,-39.551,-30.273,0.000
1709297893.102,-16.113,-24.414,-39.551,-10.254,0.000
1709297893.106,-14.160,-31.250,-46.387,-4.883,0.000
1709297893.109,-20.996,-35.645,-45.898,-7.324,0.000
1709297893.113,-22.461,-27.344,-36.133,-10.254,0.000
1709297893.117,-22.949,-28.320,-37.598,-28.320,0.000
1709297893.121,-20.508,-37.598,-42.969,-28.320,0.000
1709297893.125,-22.461,-34.668,-45.898,-23.926,0.000
1709297893.129,-24.902,-28.320,-41.992,-20.996,0.000
1709297893.133,-30.273,-37.109,-41.504,-27.344,0.000
1709297893.137,-27.344,-39.551,-41.992,-41.016,0.000
1709297893.141,-26.367,-37.109,-42.480,-40.039,0.000
1709297893.145,-21.484,-35.156,-44.922,-25.879,0.000
1709297893.149,-24.414,-36.133,-42.480,-16.602,0.000
1709297893.152,-40.527,-37.109,-44.922,-32.715,0.000
1709297893.156,-42.969,-33.691,-45.410,-50.781,0.000
1709297893.160,-31.738,-35.645,-37.598,-54.199,0.000
1709297893.164,-20.020,-37.109,-35.645,-39.551,0.000
1709297893.168,-12.207,-37.598,-37.109,-32.227,0.000
1709297893.172,-15.137,-35.645,-35.645,-35.645,0.000
1709297893.176,-29.297,-34.180,-37.598,-33.691,0.000
1709297893.180,-28.809,-37.109,-38.574,-27.832,0.000
1709297893.184,-15.137,-37.109,-39.551,-22.949,0.000
1709297893.188,-16.113,-32.715,-33.691,-19.043,0.000
1709297893.191,-37.109,-35.156,-27.344,-27.344,0.000
1709297893.195,-53.711,-38.574,-30.273,-49.805,0.000
1709297893.199,-63.477,-38.574,-35.645,-43.945,0.000
1709297893.203,-55.176,-39.062,-40.527,-24.414,0.000
1709297893.207,-53.711,-38.574,-39.062,-27.832,0.000
1709297893.211,-69.824,-38.574,-33.691,-29.785,0.000
1709297893.215,-66.406,-41.016,-38.574,-35.645,0.000
1709297893.219,-55.664,-41.504,-43.945,-48.828,0.000
1709297893.223,-52.246,-43.457,-45.898,-49.805,0.000
1709297893.227,-53.223,-41.016,-44.434,-27.832,0.000
1709297893.231,-51.270,-33.203,-40.527,-15.137,0.000
1709297893.234,-45.898,-30.762,-40.527,-30.273,0.000
1709297893.238,-46.875,-34.180,-44.434,-37.109,0.000
1709297893.242,-40.039,-34.180,-44.922,-18.555,0.000
1709297893.246,-40.039,-34.180,-43.457,-9.277,0.000
1709297893.250,-54.688,-31.250,-42.480,-11.230,0.000
1709297893.254,-57.129,-31.250,-39.062,-18.066,0.000
1709297893.258,-62.500,-32.715,-35.156,-27.832,0.000
1709297893.262,-56.641,-31.738,-30.762,-16.602,0.000
1709297893.266,-47.852,-35.156,-32.715,-4.883,0.000
1709297893.270,-50.781,-35.645,-34.180,-16.602,0.000
1709297893.274,-56.152,-34.668,-36.621,-25.879,0.000
1709297893.277,-57.617,-32.227,-41.992,-36.133,0.000
1709297893.281,-50.781,-28.809,-42.480,-40.039,0.000
1709297893.285,-40.039,-32.715,-43.945,-28.320,0.000
1709297893.289,-44.922,-35.156,-43.945,-24.902,0.000
1709297893.293,-56.641,-30.762,-41.504,-38.574,0.000
1709297893.297,-55.664,-33.203,-41.992,-51.270,0.000
1709297893.301,-60.547,-39.551,-41.016,-45.410,0.000
1709297893.305,-56.152,-37.109,-42.969,-30.762,0.000
1709297893.309,-49.805,-39.062,-41.992,-26.367,0.000
1709297893.313,-55.664,-41.016,-40.527,-36.133,0.000
1709297893.317,-64.941,-42.480,-42.480,-41.992,0.000
1709297893.320,-58.594,-42.969,-42.969,-40.039,0.000
1709297893.324,-46.387,-36.133,-40.527,-28.320,0.000
1709297893.328,-41.504,-33.203,-37.598,-18.066,0.000
1709297893.332,-42.969,-34.180,-34.668,-26.367,0.000
1709297893.336,-47.852,-36.133,-34.180,-38.574,0.000
1709297893.340,-52.734,-36.133,-35.645,-35.645,0.000
1709297893.344,-52.246,-33.691,-34.668,-25.391,0.000
1709297893.348,-45.410,-31.250,-34.668,-17.090,0.000
1709297893.352,-51.270,-34.668,-35.645,-34.668,0.000
1709297893.356,-49.316,-33.691,-38.086,-63.477,0.000
1709297893.360,-41.504,-30.762,-41.992,-61.035,0.000
1709297893.363,-42.480,-37.109,-39.062,-32.715,0.000
1709297893.367,-40.039,-37.109,-38.574,-30.762,0.000
1709297893.371,-36.621,-37.109,-39.062,-43.945,0.000
1709297893.375,-44.922,-38.086,-31.738,-49.805,0.000
1709297893.379,-45.898,-32.227,-32.715,-48.828,0.000
1709297893.383,-41.016,-33.691,-32.715,-28.320,0.000
1709297893.387,-38.086,-37.598,-28.809,-14.648,0.000
1709297893.391,-39.062,-36.133,-31.738,-27.832,0.000
1709297893.395,-44.434,-33.203,-35.645,-48.340,0.000
1709297893.399,-44.434,-32.227,-39.551,-53.711,0.000
1709297893.402,-41.016,-32.715,-43.945,-51.270,0.000
1709297893.406,-37.109,-33.691,-44.922,-29.785,0.000
1709297893.410,-38.086,-33.691,-48.828,-24.414,0.000
1709297893.414,-38.574,-35.156,-45.410,-56.152,0.000
1709297893.418,-31.250,-36.621,-41.016,-64.453,0.000
1709297893.422,-22.461,-34.180,-41.992,-54.199,0.000
1709297893.426,-30.762,-37.109,-43.457,-50.781,0.000
1709297893.430,-42.480,-39.062,-44.922,-53.223,0.000
1709297893.434,-46.875,-40.527,-44.922,-61.035,0.000
1709297893.438,-49.805,-41.016,-46.387,-67.871,0.000
1709297893.442,-41.016,-38.574,-44.434,-58.105,0.000
1709297893.445,-37.109,-38.086,-42.969,-43.457,0.000
1709297893.449,-36.621,-37.598,-40.039,-33.691,0.000
1709297893.453,-33.203,-38.574,-36.133,-37.109,0.000
1709297893.457,-28.320,-34.180,-34.180,-52.246,0.000
1709297893.461,-29.785,-32.227,-37.598,-57.129,0.000
1709297893.465,-30.273,-33.203,-40.527,-40.039,0.000
1709297893.469,-23.926,-29.785,-40.039,-28.809,0.000
1709297893.473,-27.344,-31.738,-37.109,-35.645,0.000
1709297893.477,-24.414,-37.109,-37.109,-53.711,0.000
1709297893.481,-30.762,-37.598,-37.598,-47.852,0.000
1709297893.484,-33.203,-34.180,-34.668,-25.879,0.000
1709297893.488,-32.227,-32.715,-34.180,-23.438,0.000
1709297893.492,-36.133,-32.227,-33.203,-31.738,0.000
1709297893.496,-30.762,-30.273,-36.133,-39.551,0.000
1709297893.500,-32.715,-36.621,-41.992,-43.457,0.000
1709297893.504,-40.039,-39.062,-41.504,-45.410,0.000
1709297893.508,-40.527,-37.109,-39.551,-37.109,0.000
1709297893.512,-39.551,-38.574,-39.551,-39.551,0.000
1709297893.516,-41.016,-37.598,-36.133,-51.758,0.000
1709297893.520,-36.621,-35.156,-38.086,-50.781,0.000
1709297893.524,-42.480,-30.273,-40.527,-40.527,0.000
1709297893.527,-40.527,-30.762,-43.457,-38.574,0.000
1709297893.531,-31.250,-31.738,-45.410,-44.922,0.000
1709297893.535,-36.621,-36.133,-39.551,-51.758,0.000
1709297893.539,-31.738,-36.133,-37.109,-44.922,0.000
1709297893.543,-25.879,-33.691,-39.551,-19.531,0.000
1709297893.547,-27.344,-34.668,-37.598,-4.395,0.000
1709297893.551,-35.156,-32.715,-30.273,-9.766,0.000
1709297893.555,-43.945,-35.156,-33.691,-25.879,0.000
1709297893.559,-45.410,-37.598,-40.527,-34.180,0.000
1709297893.563,-43.945,-36.133,-39.551,-24.414,0.000
1709297893.567,-32.227,-37.598,-35.645,-16.602,0.000
1709297893.571,-36.133,-40.039,-35.156,-26.855,0.000
1709297893.574,-41.016,-33.203,-38.574,-36.621,0.000
1709297893.578,-37.598,-27.344,-39.062,-44.922,0.000
1709297893.582,-41.016,-26.367,-37.109,-45.410,0.000
1709297893.586,-39.551,-28.320,-36.133,-29.297,0.000
1709297893.590,-39.551,-32.715,-37.598,-34.668,0.000
1709297893.594,-42.969,-33.691,-40.039,-53.711,0.000
1709297893.598,-34.668,-33.691,-39.062,-54.199,0.000
1709297893.602,-25.391,-33.691,-38.574,-33.203,0.000
1709297893.606,-26.367,-35.156,-40.527,-15.625,0.000
1709297893.610,-28.809,-38.086,-43.945,-20.508,0.000
1709297893.613,-30.273,-37.109,-40.527,-30.762,0.000
1709297893.617,-27.832,-32.227,-37.109,-26.855,0.000
1709297893.621,-23.926,-36.133,-40.527,-24.414,0.000
1709297893.625,-27.344,-39.551,-41.016,-16.602,0.000
1709297893.629,-32.227,-37.109,-41.504,-14.160,0.000
1709297893.633,-36.621,-37.109,-42.969,-31.738,0.000
1709297893.637,-38.086,-36.133,-44.434,-43.945,0.000
1709297893.641,-37.109,-32.227,-41.504,-41.992,0.000
1709297893.645,-26.855,-31.250,-40.039,-35.645,0.000
1709297893.649,-14.648,-27.344,-35.156,-25.391,0.000
1709297893.653,-29.785,-22.949,-29.785,-28.809,0.000
1709297893.656,-36.621,-22.949,-35.645,-45.898,0.000
1709297893.660,-28.809,-22.461,-37.598,-46.387,0.000
1709297893.664,-31.738,-22.949,-35.645,-39.551,0.000
1709297893.668,-28.320,-26.367,-34.180,-23.438,0.000
1709297893.672,-24.902,-28.809,-35.645,-23.438,0.000
1709297893.676,-37.109,-29.785,-41.992,-47.363,0.000
1709297893.680,-34.180,-29.297,-38.086,-50.293,0.000
1709297893.684,-25.391,-30.273,-36.133,-29.785,0.000
1709297893.688,-25.879,-31.738,-42.480,-31.250,0.000
1709297893.692,-40.039,-34.668,-41.016,-43.457,0.000
1709297893.696,-44.922,-32.715,-40.527,-48.828,0.000
1709297893.699,-32.227,-27.832,-41.992,-65.430,0.000
1709297893.703,-24.902,-30.273,-40.039,-55.664,0.000
1709297893.707,-27.344,-38.086,-43.457,-36.133,0.000
1709297893.711,-38.574,-38.574,-41.504,-35.156,0.000
1709297893.715,-46.387,-32.227,-38.086,-38.086,0.000
1709297893.719,-44.434,-30.762,-39.551,-37.109,0.000
1709297893.723,-41.992,-33.691,-36.133,-26.855,0.000
1709297893.727,-34.668,-36.133,-37.109,-13.672,0.000
1709297893.731,-28.809,-35.645,-41.016,-19.043,0.000
1709297893.735,-38.086,-36.621,-40.527,-47.852,0.000
1709297893.739,-46.875,-38.086,-36.133,-19.531,0.000
1709297893.742,-41.992,-34.668,-33.691,-3.906,0.000
1709297893.746,-36.133,-31.738,-38.574,-36.621,0.000
1709297893.750,-42.969,-32.715,-41.016,-42.480,0.000
1709297893.754,-45.898,-34.668,-42.969,-48.340,0.000
1709297893.758,-37.109,-36.133,-42.480,-61.035,0.000
1709297893.762,-29.785,-32.715,-42.969,-59.570,0.000
1709297893.766,-20.996,-30.762,-42.969,-31.250,0.000
1709297893.770,-26.855,-32.715,-40.527,-22.461,0.000
1709297893.774,-40.039,-32.227,-38.086,-40.039,0.000
1709297893.778,-35.156,-34.668,-36.133,-58.594,0.000
1709297893.781,-31.738,-37.598,-34.180,-37.109,0.000
1709297893.785,-40.039,-35.645,-33.691,-14.648,0.000
1709297893.789,-46.875,-39.062,-38.574,-26.855,0.000
1709297893.793,-46.875,-38.574,-41.016,-43.457,0.000
1709297893.797,-39.551,-37.109,-37.598,-51.270,0.000
1709297893.801,-33.691,-43.457,-35.156,-38.574,0.000
1709297893.805,-34.668,-44.434,-38.574,-17.578,0.000
1709297893.809,-28.809,-36.133,-40.039,-19.531,0.000
1709297893.813,-35.645,-34.180,-41.992,-28.809,0.000
1709297893.817,-50.293,-33.691,-44.434,-42.480,0.000
1709297893.821,-45.898,-32.227,-41.504,-37.109,0.000
1709297893.824,-37.109,-37.598,-38.086,-10.742,0.000
1709297893.828,-40.527,-43.945,-41.016,1.465,0.000
1709297893.832,-43.945,-41.992,-44.434,-11.719,0.000
1709297893.836,-46.875,-37.598,-45.410,-34.668,0.000
1709297893.840,-56.152,-41.992,-47.363,-41.016,0.000
1709297893.844,-46.387,-44.922,-45.410,-29.785,0.000
1709297893.848,-29.785,-39.062,-41.016,-20.508,0.000
1709297893.852,-26.367,-35.645,-38.086,-25.391,0.000
1709297893.856,-27.344,-35.645,-39.551,-33.691,0.000
1709297893.860,-31.250,-38.086,-37.598,-34.668,0.000
1709297893.863,-29.785,-38.086,-33.203,-19.043,0.000
1709297893.867,-22.949,-36.621,-35.156,-19.043,0.000
1709297893.871,-24.902,-38.574,-38.574,-25.391,0.000
1709297893.875,-19.531,-32.715,-41.016,-36.133,0.000
1709297893.879,-18.066,-31.738,-44.434,-49.805,0.000
1709297893.883,-24.414,-35.156,-41.504,-33.691,0.000
1709297893.887,-23.926,-33.691,-38.086,-21.973,0.000
1709297893.891,-27.832,-30.273,-40.527,-24.414,0.000
1709297893.895,-36.133,-31.738,-40.039,-35.156,0.000
1709297893.899,-36.621,-35.645,-41.992,-34.668,0.000
1709297893.903,-27.832,-36.621,-38.574,-8.789,0.000
1709297893.906,-16.113,-36.621,-33.203,4.395,0.000
1709297893.910,-15.137,-34.668,-35.645,-7.324,0.000
1709297893.914,-22.949,-32.715,-30.273,-16.113,0.000
1709297893.918,-22.461,-34.668,-24.414,-21.973,0.000
1709297893.922,-14.160,-32.715,-26.855,-3.906,0.000
1709297893.926,-6.836,-26.855,-27.344,9.277,0.000
1709297893.930,-15.625,-24.414,-31.250,-3.906,0.000
1709297893.934,-29.785,-28.809,-36.621,-18.555,0.000
1709297893.938,-30.273,-29.297,-34.668,-37.598,0.000
1709297893.942,-29.785,-28.320,-31.738,-31.250,0.000
1709297893.946,-28.809,-30.762,-31.250,-12.695,0.000
1709297893.949,-26.367,-26.855,-26.855,-9.277,0.000
1709297893.953,-31.250,-29.297,-25.391,-26.855,0.000
1709297893.957,-28.320,-33.691,-31.738,-44.922,0.000
1709297893.961,-20.996,-34.180,-31.250,-34.668,0.000
1709297893.965,-22.949,-33.691,-31.250,-23.926,0.000
1709297893.969,-30.762,-33.691,-36.133,-23.926,0.000
1709297893.973,-39.062,-35.156,-35.156,-29.297,0.000
1709297893.977,-39.551,-41.504,-34.668,-32.227,0.000
1709297893.981,-35.156,-38.574,-33.203,-25.391,0.000
1709297893.985,-30.273,-30.273,-29.785,-22.949,0.000
1709297893.989,-27.832,-28.809,-32.715,-20.020,0.000
1709297893.992,-31.250,-26.855,-36.621,-31.738,0.000
1709297893.996,-32.715,-27.344,-36.621,-50.781,0.000
1709297894.000,-30.762,-27.344,-38.086,-47.363,0.000
1709297894.004,-23.926,-29.785,-42.969,-29.297,0.000
1709297894.008,-25.879,-32.715,-42.969,-18.066,0.000
1709297894.012,-35.156,-35.645,-41.992,-16.602,0.000
1709297894.016,-26.367,-31.250,-40.039,-37.109,0.000
1709297894.020,-19.531,-28.320,-36.133,-58.594,0.000
1709297894.024,-22.949,-33.691,-38.086,-38.086,0.000
1709297894.028,-21.973,-32.715,-35.156,-22.461,0.000
1709297894.032,-32.227,-34.180,-34.668,-35.645,0.000
1709297894.035,-42.969,-32.227,-38.086,-42.969,0.000
1709297894.039,-39.062,-31.738,-40.039,-50.293,0.000
1709297894.043,-31.250,-38.574,-38.574,-41.016,0.000
1709297894.047,-23.926,-32.227,-39.062,-27.832,0.000
1709297894.051,-24.414,-30.762,-43.457,-40.039,0.000
1709297894.055,-31.250,-27.832,-39.062,-55.664,0.000
1709297894.059,-31.250,-25.391,-38.574,-53.711,0.000
1709297894.063,-27.832,-29.297,-41.504,-46.387,0.000
1709297894.067,-34.180,-28.320,-39.551,-28.809,0.000
1709297894.071,-37.598,-31.738,-41.504,-15.137,0.000
1709297894.075,-26.855,-30.762,-41.016,-32.227,0.000
1709297894.078,-21.973,-29.297,-35.645,-24.902,0.000
1709297894.082,-18.555,-29.297,-35.156,-33.691,0.000
1709297894.086,-22.461,-27.832,-36.621,-48.828,0.000
1709297894.090,-23.438,-27.344,-40.039,-33.203,0.000
1709297894.094,-24.902,-26.855,-40.039,-42.969,0.000
1709297894.098,-34.668,-31.738,-41.992,-48.828,0.000
1709297894.102,-29.785,-30.762,-42.480,-35.156,0.000
1709297894.106,-26.855,-30.762,-41.016,-23.926,0.000
1709297894.110,-32.715,-37.598,-44.922,-28.320,0.000
1709297894.114,-33.203,-36.133,-43.457,-25.879,0.000
1709297894.117,-30.273,-30.762,-43.457,-28.320,0.000
1709297894.121,-18.066,-29.297,-42.969,-32.227,0.000
1709297894.125,-13.672,-32.227,-38.086,-16.602,0.000
1709297894.129,-13.184,-30.273,-35.156,-9.277,0.000
1709297894.133,-20.996,-30.273,-35.156,-22.461,0.000
1709297894.137,-29.785,-29.785,-38.086,-33.691,0.000
1709297894.141,-26.855,-29.785,-40.039,-30.273,0.000
1709297894.145,-26.855,-28.809,-40.039,-18.555,0.000
1709297894.149,-30.762,-32.715,-41.504,-13.672,0.000
1709297894.153,-40.039,-41.504,-42.480,-24.902,0.000
1709297894.157,-38.574,-47.363,-45.410,-37.598,0.000
1709297894.160,-44.434,-46.387,-50.293,-34.180,0.000
1709297894.164,-44.922,-44.922,-45.898,-25.391,0.000
1709297894.168,-35.156,-43.945,-42.969,-25.879,0.000
1709297894.172,-38.086,-40.039,-45.410,-34.180,0.000
1709297894.176,-45.898,-37.598,-46.875,-50.293,0.000
1709297894.180,-41.016,-38.574,-46.387,-50.293,0.000
1709297894.184,-26.855,-39.062,-47.363,-37.598,0.000
1709297894.188,-31.738,-37.109,-49.316,-35.645,0.000
1709297894.192,-36.133,-32.715,-44.922,-35.645,0.000
1709297894.196,-40.039,-32.715,-39.551,-53.711,0.000
1709297894.199,-40.527,-34.668,-39.062,-67.871,0.000
1709297894.203,-36.133,-36.133,-36.621,-41.504,0.000
1709297894.207,-35.156,-37.598,-36.133,-20.508,0.000
1709297894.211,-33.203,-37.109,-39.551,-33.691,0.000
1709297894.215,-39.551,-40.039,-38.574,-51.270,0.000
1709297894.219,-44.922,-39.551,-38.574,-53.711,0.000
1709297894.223,-34.668,-34.668,-37.109,-45.898,0.000
1709297894.227,0.000,-31.250,-34.668,-43.457,0.000
1709297894.231,0.000,-27.344,-34.180,-41.992,0.000
1709297894.235,0.000,-31.250,-32.227,-56.641,0.000
1709297894.239,0.000,-34.668,-33.203,-60.547,0.000
1709297894.242,0.000,-30.273,-34.668,-42.480,0.000
1709297894.246,0.000,-31.738,-32.715,-19.043,0.000
1709297894.250,0.000,-32.715,-33.203,-20.020,0.000
1709297894.254,0.000,-34.668,-38.574,-46.875,0.000
1709297894.258,0.000,-38.086,-42.969,-49.316,0.000
1709297894.262,0.000,-39.062,-44.434,-33.203,0.000
1709297894.266,0.000,-36.621,-40.527,-24.414,0.000
1709297894.270,0.000,-36.621,-42.480,-28.809,0.000
1709297894.274,-39.551,-40.039,-44.922,-42.969,0.000
1709297894.278,-47.363,-43.457,-39.062,-50.781,0.000
1709297894.282,-43.945,-45.410,-42.480,-46.875,0.000
1709297894.285,-34.180,-43.457,-44.434,-38.086,0.000
1709297894.289,-36.621,-37.598,-38.086,-33.203,0.000
1709297894.293,-41.992,-40.527,-37.109,-45.898,0.000
1709297894.297,-35.156,-42.480,-41.016,-52.734,0.000
1709297894.301,-23.438,-34.668,-38.086,-39.062,0.000
1709297894.305,-21.973,-31.250,-35.156,-22.949,0.000
1709297894.309,-24.902,-34.180,-35.156,-19.043,0.000
1709297894.313,-34.180,-33.691,-33.691,-36.133,0.000
1709297894.317,-37.109,-30.273,-30.273,-47.852,0.000
1709297894.321,-33.691,-31.250,-32.715,-43.945,0.000
1709297894.325,-33.203,-34.668,-37.598,-25.879,0.000
1709297894.328,-32.715,-38.086,-40.039,-12.695,0.000
1709297894.332,-35.645,-35.645,-41.504,-20.996,0.000
1709297894.336,-42.969,-31.738,-39.551,-31.738,0.000
1709297894.340,-38.086,-30.762,-40.039,-42.969,0.000
1709297894.344,-30.273,-32.227,-37.109,-30.273,0.000
1709297894.348,-32.227,-32.227,-31.250,-17.090,0.000
1709297894.352,-39.062,-31.250,-31.738,-29.297,0.000
1709297894.356,-47.363,-32.715,-34.668,-36.133,0.000
1709297894.360,-43.945,-32.715,-33.203,-34.668,0.000
1709297894.364,-26.855,-29.297,-30.273,-22.949,0.000
1709297894.368,-29.785,-32.715,-34.180,-23.926,0.000
1709297894.371,-46.875,-39.062,-38.086,-37.598,0.000
1709297894.375,-45.410,-35.156,-37.598,-49.805,0.000
1709297894.379,-32.715,-29.297,-37.109,-47.852,0.000
1709297894.383,-30.273,-27.832,-36.133,-36.133,0.000
1709297894.387,-28.320,-29.297,-37.598,-25.391,0.000
1709297894.391,-21.973,-28.320,-41.992,-29.297,0.000
1709297894.395,-27.832,-25.879,-37.598,-33.691,0.000
1709297894.399,-33.203,-29.785,-37.598,-41.504,0.000
1709297894.403,-27.344,-29.297,-39.551,-38.086,0.000
1709297894.407,-21.484,-28.320,-36.133,-13.672,0.000
1709297894.410,-31.250,-35.645,-39.062,-19.043,0.000
1709297894.414,-48.828,-41.016,-39.062,-32.227,0.000
1709297894.418,-48.828,-39.062,-37.109,-38.086,0.000
1709297894.422,-31.738,-38.086,-35.156,-37.109,0.000
1709297894.426,-27.832,-41.016,-33.691,-22.949,0.000
1709297894.430,-41.504,-39.551,-36.621,-33.203,0.000
1709297894.434,-46.387,-37.598,-33.203,-46.875,0.000
1709297894.438,-46.387,-37.109,-34.668,-57.617,0.000
1709297894.442,-45.898,-34.668,-34.668,-48.340,0.000
1709297894.446,-38.086,-33.203,-32.227,-29.785,0.000
1709297894.450,-36.621,-31.738,-36.621,-29.297,0.000
1709297894.453,-42.480,-34.180,-37.598,-41.992,0.000
1709297894.457,-43.945,-39.062,-34.180,-51.758,0.000
1709297894.461,-43.457,-36.621,-34.668,-34.668,0.000
1709297894.465,-41.016,-37.109,-39.551,-20.996,0.000
1709297894.469,-38.574,-37.109,-39.062,-17.578,0.000
1709297894.473,-43.945,-34.668,-35.645,-33.203,0.000
1709297894.477,-50.293,-40.039,-37.598,-46.387,0.000
1709297894.481,-48.340,-40.039,-38.086,-41.992,0.000
1709297894.485,-46.387,-37.598,-40.527,-38.574,0.000
1709297894.489,-51.270,-43.945,-45.410,-34.668,0.000
1709297894.493,-58.594,-43.945,-48.340,-39.062,0.000
1709297894.497,-63.965,-42.480,-49.805,-55.664,0.000
1709297894.500,-62.012,-43.945,-46.387,-61.035,0.000
1709297894.504,-55.664,-41.016,-41.016,-45.898,0.000
1709297894.508,-51.758,-38.086,-41.504,-36.621,0.000
1709297894.512,-47.852,-38.574,-39.551,-43.945,0.000
1709297894.516,-53.711,-42.480,-37.598,-58.594,0.000
1709297894.520,-59.570,-38.574,-37.598,-49.805,0.000
1709297894.524,-53.223,-35.156,-41.016,-36.133,0.000
1709297894.528,-47.852,-37.109,-43.457,-34.668,0.000
1709297894.532,-55.176,-37.598,-43.945,-41.016,0.000
1709297894.536,-63.965,-38.574,-41.504,-48.828,0.000
1709297894.540,-67.383,-39.551,-39.062,-54.688,0.000
1709297894.543,-60.059,-41.992,-42.480,-45.898,0.000
1709297894.547,-58.594,-41.992,-44.434,-31.738,0.000
1709297894.551,-56.641,-35.156,-42.480,-32.715,0.000
1709297894.555,-48.828,-31.250,-41.992,-47.363,0.000
1709297894.559,-39.551,-30.273,-39.551,-45.898,0.000
1709297894.563,-30.273,-31.250,-42.480,-36.133,0.000
1709297894.567,-28.809,-33.691,-45.410,-29.785,0.000
1709297894.571,-31.738,-30.273,-42.969,-28.320,0.000
1709297894.575,-42.969,-31.738,-41.504,-42.480,0.000
1709297894.579,-40.527,-32.227,-42.969,-45.898,0.000
1709297894.582,-29.785,-31.250,-41.992,-38.086,0.000
1709297894.586,-26.855,-32.227,-40.039,-24.414,0.000
1709297894.590,-36.133,-34.668,-42.969,-23.926,0.000
1709297894.594,-40.039,-33.203,-42.969,-29.785,0.000
1709297894.598,-33.203,-30.762,-45.410,-27.344,0.000
1709297894.602,-24.414,-33.203,-45.898,-30.762,0.000
1709297894.606,-15.137,-33.691,-50.293,-25.391,0.000
1709297894.610,-20.508,-29.785,-50.781,-16.602,0.000
1709297894.614,-39.551,-25.879,-46.387,-38.086,0.000
1709297894.618,-51.758,-26.367,-48.340,-56.641,0.000
1709297894.621,-36.133,-29.785,-47.852,-24.902,0.000
1709297894.625,-25.879,-27.344,-42.480,2.441,0.000
1709297894.629,-31.738,-28.320,-44.434,-9.766,0.000
1709297894.633,-31.738,-33.203,-44.434,-18.555,0.000
1709297894.637,-30.273,-29.785,-41.016,-33.691,0.000
1709297894.641,-34.668,-27.832,-42.969,-37.109,0.000
1709297894.645,-35.645,-31.250,-42.969,-30.273,0.000
1709297894.649,0.000,-31.250,0.000,-23.438,0.000
1709297894.653,0.000,-30.273,0.000,-35.156,0.000
1709297894.657,0.000,-30.273,0.000,-55.176,0.000
1709297894.661,0.000,-34.668,0.000,-46.875,0.000
1709297894.665,0.000,-34.180,0.000,-23.926,0.000
1709297894.668,0.000,-31.738,0.000,-7.812,0.000
1709297894.672,0.000,-28.809,0.000,-18.555,0.000
1709297894.676,0.000,-29.297,0.000,-35.156,0.000
1709297894.680,0.000,-31.738,0.000,-34.180,0.000
1709297894.684,0.000,-34.180,0.000,-25.391,0.000
1709297894.688,0.000,-36.133,0.000,-17.578,0.000
1709297894.692,0.000,-32.715,0.000,-23.438,0.000
1709297894.696,-43.457,-30.273,-34.180,-40.527,0.000
1709297894.700,-42.480,-36.621,-37.598,-51.270,0.000
1709297894.704,-34.180,-34.668,-40.527,-41.504,0.000
1709297894.708,-30.762,-34.180,-39.062,-26.855,0.000
1709297894.711,-31.738,-36.133,-43.457,-31.250,0.000
1709297894.715,-27.832,-37.109,-44.922,-34.180,0.000
1709297894.719,-32.715,-39.062,-43.945,-35.645,0.000
1709297894.723,-33.203,-37.598,-42.969,-28.320,0.000
1709297894.727,-38.574,-37.109,-39.062,-19.043,0.000
1709297894.731,-49.805,-34.668,-36.621,-26.855,0.000
1709297894.735,-47.363,-30.273,-31.250,-45.898,0.000
1709297894.739,-44.922,-31.738,-31.250,-52.734,0.000
1709297894.743,-37.598,-35.645,-39.551,-42.969,0.000
1709297894.747,-33.691,-35.645,-41.504,-23.926,0.000
1709297894.751,-39.062,-33.203,-40.527,-20.020,0.000
1709297894.754,-37.598,-33.691,-40.527,-30.273,0.000
1709297894.758,-36.621,-34.668,-42.480,-37.109,0.000
1709297894.762,-40.527,-35.156,-43.945,-26.855,0.000
1709297894.766,-36.621,-32.227,-40.527,-12.207,0.000
1709297894.770,-40.039,-28.320,-41.504,-20.996,0.000
1709297894.774,-39.551,-33.691,-38.574,-31.250,0.000
1709297894.778,-35.645,-32.227,-36.133,-36.133,0.000
1709297894.782,-33.691,-31.738,-36.621,-35.156,0.000
1709297894.786,-22.461,-31.738,-34.180,-16.602,0.000
1709297894.790,-17.578,-25.391,-30.762,-9.766,0.000
1709297894.794,-32.227,-28.320,-33.203,-40.039,0.000
1709297894.797,-51.758,-36.133,-37.598,-59.082,0.000
1709297894.801,-48.340,-38.574,-35.645,-46.387,0.000
1709297894.805,-43.945,-40.527,-34.668,-38.574,0.000
1709297894.809,-43.457,-40.039,-34.180,-35.156,0.000
1709297894.813,-42.969,-38.086,-32.715,-45.898,0.000
1709297894.817,-40.527,-36.621,-33.203,-56.641,0.000
1709297894.821,-44.922,-39.062,-36.621,-43.457,0.000
1709297894.825,-44.434,-41.992,-41.504,-32.227,0.000
1709297894.829,-45.410,-45.410,-46.875,-37.109,0.000
1709297894.833,-58.594,-44.922,-47.363,-40.039,0.000
1709297894.836,-55.664,-43.457,-45.410,-49.316,0.000
1709297894.840,-38.086,-37.598,-43.945,-52.246,0.000
1709297894.844,-30.762,-34.180,-40.039,-35.156,0.000
1709297894.848,-32.715,-35.156,-38.086,-25.879,0.000
1709297894.852,-40.039,-35.156,-41.504,-31.250,0.000
1709297894.856,-44.922,-33.691,-42.969,-40.039,0.000
1709297894.860,-41.992,-35.156,-45.898,-40.039,0.000
1709297894.864,-43.457,-35.156,-44.434,-21.973,0.000
1709297894.868,-46.875,-32.715,-42.480,-15.625,0.000
1709297894.872,-48.340,-41.016,-43.945,-37.109,0.000
1709297894.876,-46.875,-44.922,-40.527,-46.387,0.000
1709297894.879,-40.527,-40.527,-40.527,-40.527,0.000
1709297894.883,-32.227,-39.551,-41.016,-31.738,0.000
1709297894.887,-38.086,-43.945,-45.410,-25.391,0.000
1709297894.891,-47.852,-42.969,-45.898,-33.203,0.000
1709297894.895,-52.734,-40.527,-42.969,-48.828,0.000
1709297894.899,-46.875,-39.551,-47.363,-44.922,0.000
1709297894.903,-34.180,-38.574,-47.363,-33.691,0.000
1709297894.907,-29.297,-39.062,-42.969,-28.320,0.000
1709297894.911,-33.203,-37.109,-42.969,-25.879,0.000
1709297894.915,-29.297,-31.250,-44.922,-45.898,0.000
1709297894.918,-25.391,-28.320,-44.922,-52.246,0.000
1709297894.922,-27.344,-30.273,-40.527,-33.203,0.000
1709297894.926,-27.832,-31.250,-38.086,-20.996,0.000
1709297894.930,-34.180,-39.062,-41.992,-21.973,0.000
1709297894.934,-36.621,-38.574,-38.574,-36.133,0.000
1709297894.938,-37.109,-36.621,-33.691,-52.246,0.000
1709297894.942,-34.180,-38.574,-32.227,-47.363,0.000
1709297894.946,-27.344,-35.156,-35.645,-38.086,0.000
1709297894.950,-33.691,-33.203,-35.645,-32.227,0.000
1709297894.954,-47.852,-33.691,-35.645,-41.992,0.000
1709297894.958,-52.734,-36.621,-43.457,-60.059,0.000
1709297894.961,-46.387,-41.016,-43.945,-56.152,0.000
1709297894.965,-41.504,-41.016,-36.621,-35.645,0.000
1709297894.969,-36.621,-38.574,-41.016,-20.996,0.000
1709297894.973,-38.574,-36.621,-41.016,-34.668,0.000
1709297894.977,-46.387,-37.109,-38.086,-50.781,0.000
1709297894.981,-42.969,-39.551,-37.598,-38.574,0.000
1709297894.985,-26.367,-34.180,-34.668,-26.855,0.000
1709297894.989,-19.043,-29.297,-33.203,-19.043,0.000
1709297894.993,-26.855,-33.203,-37.109,-34.668,0.000
1709297894.997,-27.832,-38.086,-42.480,-45.898,0.000
1709297895.000,-19.531,-39.551,-43.945,-37.109,0.000
1709297895.004,-11.230,-41.504,-40.527,-35.156,0.000
1709297895.008,-10.254,-43.457,-36.133,-5.859,0.000
1709297895.012,-15.625,-37.598,-36.621,-6.836,0.000
1709297895.016,-32.227,-29.785,-40.039,-46.875,0.000
1709297895.020,-38.086,-30.273,-46.875,-59.082,0.000
1709297895.024,-34.668,-24.414,-45.410,-43.945,0.000
1709297895.028,-36.133,-21.484,-42.480,-32.715,0.000
1709297895.032,-33.203,-22.949,-42.969,-39.062,0.000
1709297895.036,-37.598,-23.926,-40.527,-50.781,0.000
1709297895.040,-39.062,-28.320,-40.039,-41.504,0.000
1709297895.043,-29.785,-28.320,-38.574,-21.484,0.000
1709297895.047,-19.531,-24.902,-39.551,-20.020,0.000
1709297895.051,-24.414,-27.832,-41.016,-31.250,0.000
1709297895.055,-30.273,-24.902,-37.109,-42.969,0.000
1709297895.059,-31.250,-22.949,-33.691,-35.156,0.000
1709297895.063,-26.855,-24.414,-34.180,-22.461,0.000
1709297895.067,-18.555,-22.949,-32.715,-23.926,0.000
1709297895.071,-33.691,-25.879,-32.227,-27.344,0.000
1709297895.075,-45.898,-29.297,-34.180,-39.551,0.000
1709297895.079,-45.898,-30.273,-35.645,-45.410,0.000
1709297895.083,-43.945,-32.227,-34.668,-36.621,0.000
1709297895.086,-39.551,-32.227,-37.598,-30.762,0.000
1709297895.090,-43.457,-31.738,-40.527,-34.180,0.000
1709297895.094,-41.992,-32.715,-38.086,-41.992,0.000
1709297895.098,-41.504,-33.691,-35.645,-41.504,0.000
1709297895.102,-41.016,-31.738,-32.715,-19.043,0.000
1709297895.106,-37.598,-32.227,-35.156,-5.371,0.000
1709297895.110,-29.785,-28.809,-33.203,-13.184,0.000
1709297895.114,-25.879,-26.367,-34.180,-27.832,0.000
1709297895.118,-33.203,-30.762,-37.598,-43.945,0.000
1709297895.122,-35.156,-34.668,-38.574,-41.016,0.000
1709297895.126,-32.715,-36.133,-38.574,-25.391,0.000
1709297895.129,-26.855,-32.715,-34.180,-20.996,0.000
1709297895.133,-29.297,-30.762,-32.227,-28.809,0.000
1709297895.137,-34.180,-33.691,-35.645,-32.227,0.000
1709297895.141,-29.785,-33.203,-40.039,-29.297,0.000
1709297895.145,-19.043,-29.297,-39.551,-11.230,0.000
1709297895.149,-21.973,-29.785,-40.527,-7.324,0.000
1709297895.153,-32.715,-29.785,-45.410,-32.715,0.000
1709297895.157,-32.715,-33.203,-43.945,-48.340,0.000
1709297895.161,-32.227,-31.250,-39.062,-40.527,0.000
1709297895.165,-29.297,-29.785,-36.133,-27.832,0.000
1709297895.169,-22.949,-28.809,-37.109,-27.832,0.000
1709297895.172,-22.949,-25.879,-33.691,-37.109,0.000
1709297895.176,-20.508,-22.461,-29.297,-42.969,0.000
1709297895.180,-21.973,-23.438,-34.668,-37.598,0.000
1709297895.184,-29.785,-25.879,-33.691,-22.461,0.000
1709297895.188,-26.855,-22.461,-30.273,-21.973,0.000
1709297895.192,-37.109,-27.344,-34.668,-39.062,0.000
1709297895.196,-44.922,-31.738,-37.598,-50.293,0.000
1709297895.200,-31.738,-29.785,-36.133,-50.293,0.000
1709297895.204,-38.086,-33.691,-38.086,-35.156,0.000
1709297895.208,-41.504,-40.527,-40.039,-29.785,0.000
1709297895.212,-32.715,-37.109,-39.062,-41.016,0.000
1709297895.215,-44.922,-35.645,-43.457,-58.105,0.000
1709297895.219,-56.641,-45.410,-44.922,-72.754,0.000
1709297895.223,-50.781,-46.875,-42.969,-60.059,0.000
1709297895.227,-48.828,-42.969,-41.504,-46.387,0.000
1709297895.231,-53.223,-41.992,-43.457,-48.340,0.000
1709297895.235,-54.199,-39.551,-43.457,-57.129,0.000
1709297895.239,-54.199,-41.016,-42.480,-68.848,0.000
1709297895.243,-44.434,-39.062,-38.574,-48.340,0.000
1709297895.247,-37.598,-33.203,-35.156,-35.645,0.000
1709297895.251,-41.992,-35.156,-36.621,-41.992,0.000
1709297895.254,-48.828,-35.645,-33.203,-45.410,0.000
1709297895.258,-50.293,-35.645,-35.645,-47.363,0.000
1709297895.262,-40.039,-38.574,-39.551,-35.645,0.000
1709297895.266,-37.109,-41.016,-41.016,-28.809,0.000
1709297895.270,-38.574,-40.039,-43.457,-35.645,0.000
1709297895.274,-38.086,-33.203,-39.551,-45.410,0.000
1709297895.278,-49.316,-34.668,-40.527,-64.453,0.000
1709297895.282,-46.875,-38.086,-41.504,-55.664,0.000
1709297895.286,-41.016,-34.668,-38.574,-29.785,0.000
1709297895.290,-42.969,-32.715,-35.156,-27.344,0.000
1709297895.294,-44.922,-37.598,-35.645,-40.527,0.000
1709297895.297,-44.922,-33.691,-34.180,-57.129,0.000
1709297895.301,-39.062,-32.715,-35.645,-47.852,0.000
1709297895.305,-31.250,-34.668,-38.086,-27.832,0.000
1709297895.309,-24.902,-33.203,-33.691,-24.414,0.000
1709297895.313,-38.086,-35.645,-39.551,-32.715,0.000
1709297895.317,-48.340,-33.691,-45.410,-46.387,0.000
1709297895.321,-43.457,-29.785,-41.016,-50.293,0.000
1709297895.325,-45.410,-31.738,-41.016,-38.086,0.000
1709297895.329,-52.734,-30.273,-39.062,-20.508,0.000
1709297895.333,-60.547,-29.297,-38.574,-25.879,0.000
1709297895.336,-51.270,-29.297,-37.598,-53.711,0.000
1709297895.340,-44.434,-31.738,-37.109,-53.711,0.000
1709297895.344,-41.504,-36.133,-40.039,-34.668,0.000
1709297895.348,-40.527,-33.203,-40.527,-30.273,0.000
1709297895.352,-43.945,-28.320,-41.504,-42.480,0.000
1709297895.356,-45.410,-32.715,-43.457,-40.527,0.000
1709297895.360,-42.480,-36.621,-42.969,-37.109,0.000
1709297895.364,-39.551,-30.762,-43.457,-37.598,0.000
1709297895.368,-38.086,-33.203,-41.992,-23.926,0.000
1709297895.372,-44.434,-39.062,-39.062,-22.949,0.000
1709297895.376,-46.387,-32.715,-35.645,-38.574,0.000
1709297895.379,-37.598,-32.227,-33.203,-48.828,0.000
1709297895.383,-42.969,-34.668,-35.645,-44.434,0.000
1709297895.387,-48.828,-32.227,-34.180,-22.949,0.000
1709297895.391,-47.852,-33.203,-35.156,-25.879,0.000
1709297895.395,-49.316,-34.180,-38.574,-48.828,0.000
1709297895.399,-48.828,-34.180,-40.527,-46.387,0.000
1709297895.403,-43.457,-31.250,-35.645,-27.344,0.000
1709297895.407,-41.992,-33.691,-34.180,-23.438,0.000
1709297895.411,-45.898,-39.551,-41.504,-28.320,0.000
1709297895.415,-47.852,-39.062,-41.992,-34.180,0.000
1709297895.419,-47.852,-39.551,-40.527,-40.527,0.000
1709297895.422,-41.016,-38.574,-43.945,-31.250,0.000
1709297895.426,-25.879,-32.227,-41.504,-19.043,0.000
1709297895.430,-34.180,-38.086,-41.016,-20.996,0.000
1709297895.434,-45.410,-41.992,-41.992,-23.926,0.000
1709297895.438,-46.875,-36.621,-41.504,-34.180,0.000
1709297895.442,-44.434,-34.668,-41.016,-28.809,0.000
1709297895.446,-40.039,-34.668,-41.992,-13.672,0.000
1709297895.450,-39.062,-33.203,-40.527,-17.090,0.000
1709297895.454,-42.969,-34.180,-37.109,-33.691,0.000
1709297895.458,-46.387,-35.645,-39.062,-47.852,0.000
1709297895.462,-40.527,-38.086,-43.945,-34.668,0.000
1709297895.465,-31.738,-40.039,-42.969,-19.043,0.000
1709297895.469,-28.320,-39.062,-42.969,-24.414,0.000
1709297895.473,-35.156,-41.504,-43.457,-37.109,0.000
1709297895.477,-44.434,-45.898,-45.410,-41.016,0.000
1709297895.481,-31.250,-39.062,-47.363,-32.227,0.000
1709297895.485,-19.043,-30.273,-42.480,-25.879,0.000
1709297895.489,-27.344,-32.227,-36.621,-24.414,0.000
1709297895.493,-38.086,-32.715,-37.109,-35.156,0.000
1709297895.497,-37.598,-34.180,-38.574,-48.828,0.000
1709297895.501,-33.203,-34.180,-36.133,-41.016,0.000
1709297895.505,-34.668,-34.180,-34.668,-29.785,0.000
1709297895.508,-34.668,-35.645,-32.227,-26.367,0.000
1709297895.512,-34.180,-32.715,-28.809,-32.227,0.000
1709297895.516,-38.086,-28.320,-27.832,-40.527,0.000
1709297895.520,-33.203,-28.809,-32.715,-39.551,0.000
1709297895.524,-29.297,-29.297,-40.039,-21.973,0.000
1709297895.528,-29.297,-28.320,-35.156,-15.137,0.000
1709297895.532,-31.738,-28.809,-30.273,-35.156,0.000
1709297895.536,-36.621,-26.367,-32.227,-42.480,0.000
1709297895.540,-38.574,-25.879,-34.180,-33.203,0.000
1709297895.544,-28.320,-23.926,-33.691,-33.691,0.000
1709297895.548,-26.367,-27.344,-31.738,-31.250,0.000
1709297895.551,-36.621,-33.691,-31.738,-31.250,0.000
1709297895.555,-41.016,-33.691,-28.320,-37.109,0.000
1709297895.559,-36.133,-31.250,-34.180,-37.598,0.000
1709297895.563,-31.738,-30.273,-35.645,-31.738,0.000
1709297895.567,-27.832,-30.762,-33.691,-22.461,0.000
1709297895.571,-26.855,-29.297,-36.133,-18.555,0.000
1709297895.575,-29.297,-28.320,-32.715,-35.645,0.000
1709297895.579,-33.203,-32.715,-31.738,-38.086,0.000
1709297895.583,-27.832,-32.715,-35.156,-24.902,0.000
1709297895.587,-23.926,-33.691,-35.645,-16.113,0.000
1709297895.590,-38.574,-36.621,-36.133,-13.672,0.000
1709297895.594,-44.922,-35.156,-35.156,-19.043,0.000
1709297895.598,-40.527,-35.156,-35.645,-32.227,0.000
1709297895.602,-30.762,-36.621,-36.621,-31.250,0.000
1709297895.606,-23.438,-34.180,-35.645,-14.648,0.000
1709297895.610,-28.320,-34.668,-36.621,-29.785,0.000
1709297895.614,-32.227,-37.598,-35.645,-36.133,0.000
1709297895.618,-28.320,-35.645,-36.621,-36.133,0.000
1709297895.622,-28.809,-35.645,-38.574,-38.574,0.000
1709297895.626,-30.762,-32.227,-41.992,-24.414,0.000
1709297895.630,-36.133,-29.785,-45.410,-28.809,0.000
1709297895.633,-41.504,-33.691,-40.039,-36.133,0.000
1709297895.637,-42.969,-35.156,-36.621,-46.387,0.000
1709297895.641,-37.109,-31.250,-39.551,-42.969,0.000
1709297895.645,-35.645,-33.203,-42.969,-28.809,0.000
1709297895.649,-43.457,-36.621,-43.945,-36.133,0.000
1709297895.653,-48.340,-35.645,-45.898,-49.316,0.000
1709297895.657,-54.199,-36.621,-47.363,-47.852,0.000
1709297895.661,-46.387,-36.621,-48.340,-36.133,0.000
1709297895.665,-34.668,-30.273,-45.898,-24.902,0.000
1709297895.669,-36.133,-28.809,-40.527,-17.578,0.000
1709297895.672,-41.016,-31.738,-43.945,-32.715,0.000
1709297895.676,-53.711,-33.691,-46.875,-43.945,0.000
1709297895.680,-54.199,-37.109,-43.457,-38.574,0.000
1709297895.684,-41.016,-37.109,-43.457,-25.391,0.000
1709297895.688,-42.480,-38.574,-48.828,-20.020,0.000
1709297895.692,-47.363,-36.133,-45.898,-25.391,0.000
1709297895.696,-46.875,-34.668,-42.969,-43.457,0.000
1709297895.700,-46.875,-34.180,-40.039,-46.875,0.000
1709297895.704,-38.574,-31.738,-35.645,-21.973,0.000
1709297895.708,-37.598,-32.715,-38.574,-19.043,0.000
1709297895.712,-47.852,-32.227,-36.621,-37.109,0.000
1709297895.715,-46.875,-27.832,-33.691,-48.340,0.000
1709297895.719,-40.527,-27.832,-38.086,-48.828,0.000
1709297895.723,-36.133,-32.715,-41.016,-53.223,0.000
1709297895.727,-34.668,-31.250,-39.551,-42.969,0.000
1709297895.731,-46.387,-31.250,-41.504,-43.945,0.000
1709297895.735,-49.805,-32.715,-40.527,-55.664,0.000
1709297895.739,-51.758,-33.691,-40.527,-59.082,0.000
1709297895.743,-37.598,-30.273,-38.574,-44.922,0.000
1709297895.747,-10.742,-28.320,-30.762,-10.254,0.000
1709297895.751,-27.832,-28.809,-26.367,-9.766,0.000
1709297895.754,-52.734,-33.203,-26.855,-45.410,0.000
1709297895.758,-52.246,-38.574,-30.762,-51.758,0.000
1709297895.762,-44.922,-35.645,-31.250,-25.391,0.000
1709297895.766,-32.227,-32.227,-27.344,-7.324,0.000
1709297895.770,-30.762,-33.691,-27.832,-17.090,0.000
1709297895.774,-39.551,-34.180,-30.762,-27.344,0.000
1709297895.778,-45.410,-36.133,-32.227,-34.180,0.000
1709297895.782,-39.062,-37.109,-33.691,-32.227,0.000
1709297895.786,-32.715,-32.227,-33.691,-18.066,0.000
1709297895.790,-28.809,-28.320,-35.156,-16.113,0.000
1709297895.794,-24.902,-28.320,-31.738,-25.391,0.000
1709297895.797,-23.438,-34.180,-33.691,-28.809,0.000
1709297895.801,-30.273,-35.645,-40.527,-23.438,0.000
1709297895.805,-32.227,-30.273,-35.645,-14.648,0.000
1709297895.809,-34.668,-31.250,-31.738,-10.742,0.000
1709297895.813,-46.387,-34.180,-40.527,-28.809,0.000
1709297895.817,-41.016,-36.133,-44.922,-46.387,0.000
1709297895.821,-30.273,-36.133,-45.898,-40.039,0.000
1709297895.825,-31.738,-38.574,-45.410,-20.996,0.000
1709297895.829,-21.973,-35.645,-39.551,-14.160,0.000
1709297895.833,-23.438,-37.598,-39.062,-25.391,0.000
1709297895.837,-40.039,-41.016,-43.945,-41.504,0.000
1709297895.840,-34.668,-38.086,-47.363,-49.316,0.000
1709297895.844,-26.367,-37.598,-42.480,-34.668,0.000
1709297895.848,-31.250,-36.621,-42.480,-27.344,0.000
1709297895.852,-41.016,-35.156,-41.992,-30.273,0.000
1709297895.856,-41.016,-35.645,-33.691,-29.297,0.000
1709297895.860,-33.203,-36.133,-35.645,-41.992,0.000
1709297895.864,-36.133,-37.109,-35.645,-27.832,0.000
1709297895.868,-31.738,-39.062,-35.156,-15.625,0.000
1709297895.872,-33.691,-39.062,-41.504,-28.809,0.000
1709297895.876,-43.457,-36.133,-40.527,-46.875,0.000
1709297895.880,-38.574,-33.691,-33.691,-48.828,0.000
1709297895.883,-28.809,-33.203,-35.156,-24.902,0.000
1709297895.887,-28.809,-34.180,-38.086,-14.648,0.000
1709297895.891,-41.992,-35.156,-33.203,-36.133,0.000
1709297895.895,-42.969,-30.273,-32.227,-55.176,0.000
1709297895.899,-44.434,-27.832,-34.180,-39.062,0.000
1709297895.903,-48.340,-27.344,-38.574,-24.902,0.000
1709297895.907,-43.457,-27.344,-41.504,-37.598,0.000
1709297895.911,-39.062,-28.320,-39.551,-40.527,0.000
1709297895.915,-36.621,-31.250,-34.180,-37.598,0.000
1709297895.919,-36.133,-35.156,-32.227,-35.156,0.000
1709297895.923,-41.016,-34.180,-30.273,-21.484,0.000
1709297895.927,-41.016,-36.621,-30.273,-16.602,0.000
1709297895.930,-43.457,-39.551,-34.180,-29.297,0.000
1709297895.934,-53.223,-36.133,-35.645,-46.387,0.000
1709297895.938,-58.594,-36.133,-39.062,-54.688,0.000
1709297895.942,-56.152,-39.062,-36.621,-41.992,0.000
1709297895.946,-51.758,-37.109,-35.645,-20.996,0.000
1709297895.950,-42.969,-33.203,-37.598,-25.391,0.000
1709297895.954,-47.852,-32.715,-35.645,-50.293,0.000
1709297895.958,-50.781,-30.273,-36.621,-54.688,0.000
1709297895.962,-43.945,-32.715,-38.574,-52.734,0.000
1709297895.966,-41.992,-36.621,-36.133,-40.527,0.000
1709297895.970,-50.293,-36.133,-40.039,-34.668,0.000
1709297895.973,-54.688,-33.691,-42.480,-46.875,0.000
1709297895.977,-46.875,-30.273,-37.598,-52.734,0.000
1709297895.981,-46.875,-34.668,-38.086,-51.270,0.000
1709297895.985,-43.945,-39.062,-39.062,-32.715,0.000
1709297895.989,-37.109,-41.016,-41.504,-26.855,0.000
1709297895.993,-41.504,-40.527,-45.410,-41.504,0.000
1709297895.997,-50.781,-38.574,-41.016,-52.734,0.000
1709297896.001,-54.688,-39.062,-38.574,-46.875,0.000
1709297896.005,-50.781,-40.039,-40.527,-20.020,0.000
1709297896.009,-43.457,-39.551,-41.992,-12.207,0.000
1709297896.012,-35.156,-35.156,-38.086,-31.738,0.000
1709297896.016,-33.691,-33.691,-35.645,-48.828,0.000
1709297896.020,-39.062,-32.227,-38.086,-50.293,0.000
1709297896.024,-37.109,-32.715,-41.504,-36.133,0.000
1709297896.028,-31.250,-33.691,-42.480,-33.691,0.000
1709297896.032,-45.898,-37.598,-48.828,-41.504,0.000
1709297896.036,-54.688,-39.551,-51.758,-47.852,0.000
1709297896.040,-53.711,-35.645,-46.387,-58.594,0.000
1709297896.044,-53.223,-32.715,-42.969,-56.152,0.000
1709297896.048,-45.410,-30.273,-40.039,-41.992,0.000
1709297896.052,-47.363,-33.691,-37.598,-46.387,0.000
1709297896.055,-52.734,-35.156,-38.086,-61.035,0.000
1709297896.059,-53.711,-33.203,-33.691,-54.688,0.000
1709297896.063,-49.316,-34.668,-36.621,-44.434,0.000
1709297896.067,-45.898,-38.574,-43.945,-39.062,0.000
1709297896.071,-44.434,-38.086,-42.969,-34.668,0.000
1709297896.075,-48.828,-40.039,-47.363,-49.316,0.000
1709297896.079,-45.898,-41.504,-48.340,-59.570,0.000
1709297896.083,-41.992,-39.062,-48.828,-44.434,0.000
1709297896.087,-38.574,-36.133,-48.828,-29.785,0.000
1709297896.091,-32.715,-33.691,-47.363,-32.227,0.000
1709297896.094,-36.133,-30.273,-47.363,-38.574,0.000
1709297896.098,-44.434,-30.273,-46.387,-39.551,0.000
1709297896.102,-35.156,-30.273,-44.922,-33.203,0.000
1709297896.106,-29.297,-30.762,-39.062,-3.418,0.000
1709297896.110,-43.457,-33.691,-45.410,-10.742,0.000
1709297896.114,-49.316,-35.645,-51.270,-50.781,0.000
1709297896.118,-49.316,-35.645,-45.898,-65.430,0.000
1709297896.122,-35.156,-36.133,-41.504,-49.805,0.000
1709297896.126,-31.738,-32.715,-40.527,-40.039,0.000
1709297896.130,-41.016,-21.973,-39.551,-53.223,0.000
1709297896.134,-41.992,-31.250,-39.062,-45.410,0.000
1709297896.137,-41.504,-40.039,-37.598,-41.504,0.000
1709297896.141,-36.133,-32.715,-40.527,-49.805,0.000
1709297896.145,-36.621,-27.344,-43.457,-40.527,0.000
1709297896.149,-32.715,-30.762,-42.480,-31.738,0.000
1709297896.153,-36.621,-30.273,-40.527,-46.387,0.000
1709297896.157,-40.527,-24.902,-39.551,-50.293,0.000
1709297896.161,-33.691,-29.297,-40.527,-30.273,0.000
1709297896.165,-36.621,-32.715,-42.969,-36.133,0.000
1709297896.169,-31.250,-32.227,-43.945,-25.391,0.000
1709297896.173,-33.203,-33.691,-41.992,-22.949,0.000
1709297896.177,-41.504,-32.227,-42.480,-40.039,0.000
1709297896.180,-37.598,-36.621,-44.434,-43.457,0.000
1709297896.184,-30.762,-36.621,-43.457,-24.902,0.000
1709297896.188,-32.227,-28.320,-39.551,-15.625,0.000
1709297896.192,-36.133,-29.785,-41.992,-21.484,0.000
1709297896.196,-29.785,-36.133,-40.039,-24.902,0.000
1709297896.200,-28.809,-35.156,-36.133,-38.086,0.000
1709297896.204,-38.086,-34.668,-33.203,-36.133,0.000
1709297896.208,-38.086,-40.039,-32.715,-18.066,0.000
1709297896.212,-40.527,-42.480,-38.086,-23.926,0.000
1709297896.216,-44.434,-37.109,-39.062,-41.992,0.000
1709297896.220,-40.039,-30.273,-39.551,-35.645,0.000
1709297896.223,-28.320,-29.785,-43.457,-28.320,0.000
1709297896.227,-26.367,-29.297,-44.434,-11.719,0.000
1709297896.231,-35.156,-31.250,-40.527,-1.465,0.000
1709297896.235,-37.109,-32.227,-37.598,-29.297,0.000
1709297896.239,-33.203,-30.762,-37.109,-41.504,0.000
1709297896.243,-36.133,-31.250,-42.969,-21.484,0.000
1709297896.247,-45.410,-30.273,-41.992,-12.695,0.000
1709297896.251,-44.434,-27.344,-36.133,-25.879,0.000
1709297896.255,-46.875,-28.809,-37.598,-38.574,0.000
1709297896.259,-52.734,-29.297,-36.133,-38.574,0.000
1709297896.263,-51.758,-27.832,-34.180,-34.668,0.000
1709297896.266,-41.504,-27.832,-34.668,-21.973,0.000
1709297896.270,-33.203,-24.902,-38.574,-22.949,0.000
1709297896.274,-33.203,-23.438,-37.109,-26.855,0.000
1709297896.278,-30.273,-27.344,-36.621,-31.738,0.000
1709297896.282,-27.344,-30.273,-40.527,-37.109,0.000
1709297896.286,-33.203,-32.715,-39.551,-25.879,0.000
1709297896.290,-39.062,-31.738,-40.527,-17.578,0.000
1709297896.294,-40.527,-31.250,-40.039,-27.344,0.000
1709297896.298,-43.457,-33.203,-41.016,-43.457,0.000
1709297896.302,-35.156,-30.762,-37.598,-36.133,0.000
1709297896.305,-30.762,-30.762,-35.156,-18.066,0.000
1709297896.309,-40.039,-33.203,-35.645,-17.090,0.000
1709297896.313,-41.992,-31.250,-35.645,-21.973,0.000
1709297896.317,-41.504,-27.832,-39.062,-31.738,0.000
1709297896.321,-36.133,-26.367,-39.062,-38.086,0.000
1709297896.325,-37.109,-27.344,-35.156,-38.086,0.000
1709297896.329,-38.574,-27.832,-32.715,-37.598,0.000
1709297896.333,-45.898,-31.738,-39.062,-44.922,0.000
1709297896.337,-48.828,-34.180,-39.551,-58.105,0.000
1709297896.341,-38.574,-31.738,-34.668,-49.316,0.000
1709297896.345,-30.762,-31.738,-35.156,-27.832,0.000
1709297896.348,-30.762,-28.320,-33.203,-18.066,0.000
1709297896.352,-30.762,-25.879,-33.203,-31.250,0.000
1709297896.356,-26.367,-28.320,-42.480,-49.316,0.000
1709297896.360,-20.020,-32.715,-43.945,-42.480,0.000
1709297896.364,-30.762,-39.551,-44.434,-27.344,0.000
1709297896.368,-42.480,-41.992,-48.828,-24.414,0.000
1709297896.372,-36.133,-41.016,-46.875,-41.992,0.000
1709297896.376,-41.016,-40.527,-45.410,-62.012,0.000
1709297896.380,-42.480,-37.598,-41.992,-53.223,0.000
1709297896.384,-38.086,-38.086,-40.039,-36.621,0.000
1709297896.388,-42.480,-36.133,-38.086,-27.832,0.000
1709297896.391,-48.340,-33.203,-38.086,-38.574,0.000
1709297896.395,-47.363,-33.203,-41.504,-51.270,0.000
1709297896.399,-40.527,-34.668,-39.551,-44.922,0.000
1709297896.403,-39.062,-38.574,-40.039,-44.922,0.000
1709297896.407,-37.109,-39.062,-43.457,-28.809,0.000
1709297896.411,-35.156,-37.598,-39.551,-17.090,0.000
1709297896.415,-33.691,-36.133,-41.016,-43.945,0.000
1709297896.419,-38.574,-33.203,-44.434,-56.641,0.000
1709297896.423,-39.551,-31.738,-37.109,-36.133,0.000
1709297896.427,-40.039,-32.715,-38.086,-24.902,0.000
1709297896.430,-39.062,-31.250,-44.922,-38.086,0.000
1709297896.434,-40.527,-31.738,-43.945,-51.758,0.000
1709297896.438,-46.875,-33.203,-42.480,-57.617,0.000
1709297896.442,-40.527,-30.273,-43.457,-41.016,0.000
1709297896.446,-19.043,-26.855,-39.551,-22.461,0.000
1709297896.450,-23.438,-28.320,-36.133,-26.367,0.000
1709297896.454,-45.410,-35.156,-41.016,-31.250,0.000
1709297896.458,-43.457,-35.156,-41.992,-34.668,0.000
1709297896.462,-37.598,-32.227,-39.551,-31.738,0.000
1709297896.466,-31.738,-33.203,-43.457,-19.531,0.000
1709297896.470,-24.902,-28.320,-44.434,-27.344,0.000
1709297896.473,-26.855,-27.344,-43.945,-42.480,0.000
1709297896.477,-29.297,-32.227,-45.898,-50.781,0.000
1709297896.481,-32.227,-34.668,-46.875,-41.992,0.000
1709297896.485,-33.203,-30.273,-44.922,-22.949,0.000
1709297896.489,-38.574,-31.738,-43.945,-25.879,0.000
1709297896.493,-43.457,-31.250,-44.434,-42.969,0.000
1709297896.497,-47.363,-31.250,-49.805,-56.641,0.000
1709297896.501,-41.992,-30.762,-50.293,-45.898,0.000
1709297896.505,-35.645,-26.855,-47.363,-33.203,0.000
1709297896.509,-41.016,-27.832,-43.457,-33.691,0.000
1709297896.512,-44.922,-25.879,-39.062,-36.133,0.000
1709297896.516,-46.387,-30.273,-39.551,-48.340,0.000
1709297896.520,-41.992,-33.203,-45.410,-48.828,0.000
1709297896.524,-34.668,-31.250,-48.340,-31.250,0.000
1709297896.528,-36.133,-30.273,-45.410,-20.508,0.000
1709297896.532,-46.875,-31.738,-45.410,-36.621,0.000
1709297896.536,-48.828,-33.691,-45.898,-51.758,0.000
1709297896.540,-40.527,-31.738,-44.434,-41.504,0.000
1709297896.544,-40.039,-34.180,-43.457,-26.855,0.000
1709297896.548,-34.668,-34.668,-43.945,-22.461,0.000
1709297896.552,-29.297,-32.227,-44.922,-31.250,0.000
1709297896.555,-38.086,-32.227,-42.480,-42.480,0.000
1709297896.559,-49.805,-30.762,-41.992,-51.270,0.000
1709297896.563,-48.828,-31.738,-41.992,-40.039,0.000
1709297896.567,-49.316,-36.621,-43.945,-29.785,0.000
1709297896.571,-51.758,-36.621,-41.992,-42.480,0.000
1709297896.575,-49.316,-30.273,-41.992,-52.734,0.000
1709297896.579,-41.992,-25.391,-44.434,-54.199,0.000
1709297896.583,-39.062,-24.414,-44.922,-45.410,0.000
1709297896.587,-37.109,-25.391,-49.805,-38.086,0.000
1709297896.591,-35.156,-27.344,-46.387,-42.969,0.000
1709297896.595,-36.621,-30.273,-43.945,-49.805,0.000
1709297896.598,-40.039,-31.738,-47.363,-56.641,0.000
1709297896.602,-35.156,-31.738,-43.945,-41.016,0.000
1709297896.606,-31.738,-29.785,-42.969,-28.320,0.000
1709297896.610,-28.809,-24.902,-44.434,-42.969,0.000
1709297896.614,-26.367,-22.461,-43.945,-55.176,0.000
1709297896.618,-26.367,-24.902,-41.992,-54.199,0.000
1709297896.622,-29.297,-26.367,-39.062,-40.039,0.000
1709297896.626,-36.621,-27.344,-42.969,-31.250,0.000
1709297896.630,-40.527,-34.180,-44.434,-32.715,0.000
1709297896.634,-55.176,-39.062,-45.410,-39.551,0.000
1709297896.638,-63.965,-39.062,-47.363,-49.805,0.000
1709297896.641,-58.105,-34.180,-45.410,-51.270,0.000
1709297896.645,-49.805,-35.156,-44.922,-45.898,0.000
1709297896.649,-51.758,-40.039,-48.340,-42.480,0.000
1709297896.653,-57.129,-38.086,-44.922,-46.875,0.000
1709297896.657,-49.805,-38.086,-38.574,-59.082,0.000
1709297896.661,-49.805,-36.621,-38.086,-63.965,0.000
