timestamps,TP9,AF7,AF8,TP10,Right AUX
1709141675.880,-28.809,-40.527,-31.250,-35.645,0.000
1709141675.883,-25.391,-47.363,-31.738,-33.691,0.000
1709141675.887,-28.320,-47.363,-37.598,-36.133,0.000
1709141675.891,-27.832,-38.574,-34.668,-33.203,0.000
1709141675.895,-36.133,-44.434,-40.527,-30.273,0.000
1709141675.899,-42.480,-47.363,-45.410,-28.320,0.000
1709141675.903,-38.574,-44.922,-49.805,-19.531,0.000
1709141675.907,-45.410,-37.598,-59.570,-23.438,0.000
1709141675.911,-44.434,-34.668,-58.594,-35.156,0.000
1709141675.915,-41.992,-41.016,-46.875,-39.551,0.000
1709141675.919,-47.363,-56.641,-26.367,-44.434,0.000
1709141675.923,-52.734,-61.035,-18.066,-44.434,0.000
1709141675.925,-38.574,-33.203,-21.484,-38.086,0.000
1709141675.929,-29.297,-29.297,-24.414,-40.527,0.000
1709141675.933,-34.668,-43.457,-22.949,-37.598,0.000
1709141675.937,-31.250,-42.969,-27.832,-27.832,0.000
1709141675.941,-26.855,-41.992,-30.762,-24.414,0.000
1709141675.945,-28.809,-40.039,-31.738,-25.391,0.000
1709141675.949,-33.203,-32.715,-26.855,-36.621,0.000
1709141675.953,-32.227,-32.227,-31.250,-47.363,0.000
1709141675.957,-32.715,-43.945,-34.180,-44.434,0.000
1709141675.960,-33.203,-37.109,-28.809,-30.762,0.000
1709141675.964,-33.691,-27.344,-35.645,-36.133,0.000
1709141675.968,-41.504,-41.992,-31.250,-53.223,0.000
1709141675.974,-42.480,-37.598,-33.691,-53.711,0.000
1709141675.978,-36.133,-31.250,-37.109,-45.410,0.000
1709141675.981,-43.945,-32.227,-32.227,-47.852,0.000
1709141675.985,-42.480,-27.832,-35.156,-43.945,0.000
1709141675.989,-37.109,-40.039,-46.875,-42.969,0.000
1709141675.993,-37.598,-46.387,-41.504,-50.293,0.000
1709141675.997,-38.574,-40.527,-38.086,-44.922,0.000
1709141676.001,-41.992,-38.086,-42.480,-41.016,0.000
1709141676.005,-40.039,-31.738,-37.109,-39.062,0.000
1709141676.009,-38.086,-30.762,-31.738,-34.668,0.000
1709141676.013,-44.922,-38.086,-23.438,-36.621,0.000
1709141676.017,-49.805,-40.527,-26.855,-42.969,0.000
1709141676.021,-41.992,-50.293,-26.855,-39.551,0.000
1709141676.025,-37.598,-53.711,-21.973,-36.133,0.000
1709141676.029,-37.598,-46.875,-27.832,-39.062,0.000
1709141676.033,-32.227,-45.898,-33.203,-38.574,0.000
1709141676.037,-32.227,-39.551,-35.156,-31.738,0.000
1709141676.041,-38.086,-39.551,-41.504,-29.785,0.000
1709141676.045,-31.250,-44.434,-35.156,-34.668,0.000
1709141676.049,-31.738,-41.992,-28.809,-40.039,0.000
1709141676.053,-35.645,-36.133,-41.992,-29.297,0.000
1709141676.057,-42.480,-46.875,-50.293,-22.461,0.000
1709141676.060,-46.875,-49.805,-43.457,-31.250,0.000
1709141676.064,-39.062,-38.574,-39.062,-38.574,0.000
1709141676.069,-35.645,-41.016,-40.527,-42.969,0.000
1709141676.072,-28.809,-38.086,-34.180,-37.598,0.000
1709141676.076,-32.715,-36.621,-36.621,-39.551,0.000
1709141676.080,-37.598,-45.898,-47.363,-34.180,0.000
1709141676.084,-30.762,-38.574,-44.434,-26.855,0.000
1709141676.088,-27.832,-30.273,-47.852,-40.039,0.000
1709141676.092,-34.668,-35.156,-46.387,-43.457,0.000
1709141676.096,-35.645,-31.250,-50.781,-34.668,0.000
1709141676.100,-31.738,-23.926,-56.152,-28.809,0.000
1709141676.104,-26.367,-23.438,-38.574,-32.715,0.000
1709141676.108,-21.484,-35.645,-22.949,-39.062,0.000
1709141676.112,-27.344,-40.527,-29.297,-45.410,0.000
1709141676.115,-36.621,-34.668,-43.945,-51.270,0.000
1709141676.119,-34.668,-41.016,-40.039,-45.898,0.000
1709141676.123,-27.344,-46.875,-43.945,-45.410,0.000
1709141676.127,-38.574,-41.016,-55.176,-53.711,0.000
1709141676.131,-44.922,-24.902,-43.945,-60.059,0.000
1709141676.135,-43.945,-19.043,-38.086,-61.035,0.000
1709141676.139,-44.434,-33.691,-33.691,-56.152,0.000
1709141676.143,-42.969,-38.574,-36.621,-40.039,0.000
1709141676.147,-39.551,-33.203,-43.457,-35.645,0.000
1709141676.151,-41.016,-32.715,-39.551,-47.852,0.000
1709141676.155,-40.039,-37.109,-29.785,-45.410,0.000
1709141676.158,-25.879,-52.246,-34.180,-39.062,0.000
1709141676.162,-30.273,-53.223,-47.852,-35.645,0.000
1709141676.166,-32.227,-35.645,-42.969,-35.156,0.000
1709141676.170,-26.855,-41.992,-28.809,-34.668,0.000
1709141676.174,-29.785,-47.363,-25.391,-33.203,0.000
1709141676.178,-25.391,-34.668,-29.297,-30.762,0.000
1709141676.182,-24.902,-37.109,-28.320,-24.902,0.000
1709141676.185,-30.762,-41.016,-37.109,-28.809,0.000
1709141676.189,-43.945,-37.109,-40.527,-34.180,0.000
1709141676.193,-51.758,-45.898,-35.645,-43.457,0.000
1709141676.197,-48.340,-50.293,-34.668,-48.828,0.000
1709141676.201,-45.410,-32.227,-40.527,-45.410,0.000
1709141676.205,-51.270,-33.203,-55.664,-51.758,0.000
1709141676.208,-51.270,-47.363,-56.152,-61.035,0.000
1709141676.212,-48.340,-34.668,-35.645,-59.082,0.000
1709141676.216,-49.316,-25.879,-41.016,-55.176,0.000
1709141676.220,-40.039,-43.457,-48.828,-55.664,0.000
1709141676.224,-39.551,-53.711,-39.551,-56.641,0.000
1709141676.228,-45.410,-40.039,-37.109,-62.012,0.000
1709141676.232,-41.016,-31.738,-40.039,-47.852,0.000
1709141676.236,-41.016,-35.156,-44.922,-36.621,0.000
1709141676.239,-38.086,-37.109,-33.691,-39.551,0.000
1709141676.243,-33.203,-41.992,-29.785,-34.668,0.000
1709141676.247,-28.809,-32.715,-39.062,-41.504,0.000
1709141676.251,-28.320,-25.391,-36.133,-45.410,0.000
1709141676.254,-34.180,-36.133,-29.297,-43.945,0.000
1709141676.258,-32.715,-28.320,-26.367,-37.109,0.000
1709141676.262,-30.762,-28.320,-31.250,-40.039,0.000
1709141676.266,-34.180,-39.062,-27.344,-46.387,0.000
1709141676.270,-36.133,-37.109,-21.484,-45.410,0.000
1709141676.274,-48.340,-53.711,-35.156,-50.293,0.000
1709141676.278,-59.082,-55.176,-42.969,-47.363,0.000
1709141676.282,-63.477,-40.039,-33.203,-51.270,0.000
1709141676.286,-59.082,-48.340,-20.020,-54.199,0.000
1709141676.289,-57.617,-51.270,-23.926,-57.617,0.000
1709141676.293,-54.688,-45.898,-37.109,-57.129,0.000
1709141676.297,-44.434,-44.922,-33.203,-44.922,0.000
1709141676.303,-44.922,-36.133,-38.086,-41.992,0.000
1709141676.307,-39.551,-40.527,-30.762,-35.645,0.000
1709141676.311,-35.156,-44.434,-27.832,-24.414,0.000
1709141676.315,-34.180,-43.457,-30.762,-29.785,0.000
1709141676.318,-31.738,-41.504,-30.273,-27.832,0.000
1709141676.322,-27.832,-36.133,-33.691,-28.809,0.000
1709141676.326,-28.320,-37.598,-28.809,-36.133,0.000
1709141676.330,-35.645,-34.668,-24.902,-36.621,0.000
1709141676.334,-31.250,-32.227,-34.180,-35.645,0.000
1709141676.338,-27.832,-35.156,-33.203,-24.414,0.000
1709141676.342,-38.086,-32.715,-24.414,-21.973,0.000
1709141676.346,-41.504,-29.785,-32.715,-41.016,0.000
1709141676.351,-37.598,-35.645,-39.062,-55.176,0.000
1709141676.355,-36.133,-43.457,-36.133,-56.152,0.000
1709141676.359,-40.039,-40.039,-38.574,-57.617,0.000
1709141676.362,-41.016,-31.250,-40.039,-62.012,0.000
1709141676.366,-38.086,-33.691,-43.945,-61.035,0.000
1709141676.370,-46.875,-41.504,-49.316,-62.988,0.000
1709141676.374,-59.570,-50.293,-43.945,-58.594,0.000
1709141676.378,-55.664,-42.969,-39.551,-50.293,0.000
1709141676.382,-49.316,-37.109,-40.039,-50.781,0.000
1709141676.386,-43.945,-37.109,-27.832,-38.086,0.000
1709141676.390,-35.156,-35.156,-27.344,-33.691,0.000
1709141676.394,-38.086,-44.922,-28.809,-38.574,0.000
1709141676.398,-38.574,-30.273,-37.109,-37.598,0.000
1709141676.402,-24.414,-24.902,-51.270,-37.109,0.000
1709141676.406,-20.996,-31.738,-40.039,-35.645,0.000
1709141676.410,-27.832,-29.785,-30.762,-40.039,0.000
1709141676.414,-35.156,-35.645,-40.039,-49.316,0.000
1709141676.418,-43.457,-31.738,-37.598,-45.410,0.000
1709141676.422,-41.016,-31.738,-28.809,-37.598,0.000
1709141676.426,-35.156,-43.945,-25.879,-36.621,0.000
1709141676.429,-40.527,-45.898,-34.668,-31.738,0.000
1709141676.433,-41.992,-41.504,-39.062,-31.738,0.000
1709141676.437,-41.992,-46.387,-40.527,-43.457,0.000
1709141676.441,-40.039,-36.621,-41.504,-38.086,0.000
1709141676.445,-41.016,-23.438,-38.574,-33.691,0.000
1709141676.449,-42.480,-24.414,-48.828,-44.434,0.000
1709141676.453,-37.598,-37.598,-52.734,-54.688,0.000
1709141676.457,-39.062,-36.621,-38.086,-51.270,0.000
1709141676.461,-43.945,-37.598,-26.367,-41.992,0.000
1709141676.465,-41.992,-54.688,-19.531,-32.227,0.000
1709141676.469,-39.551,-45.898,-17.578,-35.156,0.000
1709141676.472,-36.621,-30.273,-27.832,-45.410,0.000
1709141676.476,-41.016,-39.551,-40.527,-42.969,0.000
1709141676.480,-39.551,-37.598,-41.016,-46.875,0.000
1709141676.484,-28.809,-31.250,-31.738,-52.246,0.000
1709141676.488,-24.414,-33.203,-43.457,-49.805,0.000
1709141676.492,0.000,-34.668,-44.434,-42.969,0.000
1709141676.496,0.000,-31.250,-34.180,-34.180,0.000
1709141676.500,0.000,-28.320,-37.598,-30.762,0.000
1709141676.504,0.000,-41.016,-25.391,-32.227,0.000
1709141676.508,0.000,-47.363,-7.812,-35.645,0.000
1709141676.512,0.000,-36.133,-15.625,-40.039,0.000
1709141676.516,0.000,-28.809,-24.902,-45.410,0.000
1709141676.520,0.000,-40.527,-31.250,-44.922,0.000
1709141676.524,0.000,-46.387,-25.879,-39.062,0.000
1709141676.527,0.000,-36.621,-30.762,-45.898,0.000
1709141676.531,0.000,-28.809,-46.875,-49.316,0.000
1709141676.535,0.000,-37.109,-35.645,-45.410,0.000
1709141676.539,-30.762,-41.992,-23.926,-38.086,0.000
1709141676.542,-34.668,-39.551,-32.227,-43.945,0.000
1709141676.546,-33.691,-50.293,-34.180,-45.898,0.000
1709141676.550,-32.227,-45.410,-26.855,-45.898,0.000
1709141676.554,-40.039,-28.320,-37.598,-52.246,0.000
1709141676.558,-41.504,-39.062,-48.340,-49.805,0.000
1709141676.562,-48.828,-45.898,-38.574,-51.758,0.000
1709141676.566,-51.758,-34.180,-33.203,-47.852,0.000
1709141676.570,-48.828,-34.180,-34.180,-45.410,0.000
1709141676.574,-46.387,-32.227,-28.320,-47.363,0.000
1709141676.578,-39.062,-41.504,-27.344,-42.969,0.000
1709141676.582,-26.855,-58.105,-41.016,-31.250,0.000
1709141676.585,-20.996,-40.039,-42.969,-36.621,0.000
1709141676.588,-24.902,-25.879,-31.738,-53.711,0.000
1709141676.592,-25.391,-22.949,-31.250,-52.246,0.000
1709141676.596,-27.344,-33.203,-34.668,-56.641,0.000
1709141676.600,-33.203,-43.945,-32.715,-56.641,0.000
1709141676.604,-35.645,-34.180,-33.203,-44.434,0.000
1709141676.608,-29.785,-34.180,-35.645,-32.227,0.000
1709141676.612,-26.367,-36.133,-41.992,-32.715,0.000
1709141676.616,-30.273,-35.645,-42.480,-43.945,0.000
1709141676.620,-36.621,-44.434,-38.086,-42.480,0.000
1709141676.624,-42.969,-51.270,-37.109,-48.340,0.000
1709141676.627,-42.480,-35.156,-41.016,-61.035,0.000
1709141676.630,-47.852,-24.902,-41.016,-64.453,0.000
1709141676.634,-54.199,-35.645,-46.387,-63.965,0.000
1709141676.638,-55.176,-44.922,-44.434,-58.105,0.000
1709141676.642,-58.594,-46.875,-41.992,-56.152,0.000
1709141676.646,-59.082,-46.387,-52.246,-62.012,0.000
1709141676.650,-54.199,-42.969,-43.457,-58.594,0.000
1709141676.654,-52.734,-50.781,-37.598,-48.340,0.000
1709141676.658,-57.617,-50.293,-53.711,-47.852,0.000
1709141676.662,-50.781,-38.086,-59.570,-47.852,0.000
1709141676.666,-47.363,-41.992,-53.223,-49.316,0.000
1709141676.669,-49.805,-38.086,-38.086,-54.199,0.000
1709141676.673,-50.293,-35.156,-32.715,-57.129,0.000
1709141676.676,-53.223,-38.574,-42.480,-51.758,0.000
1709141676.680,-42.969,-40.039,-37.109,-45.898,0.000
1709141676.684,-30.762,-42.969,-33.691,-41.504,0.000
1709141676.688,-29.785,-35.645,-33.691,-35.645,0.000
1709141676.692,-30.762,-35.645,-32.227,-40.527,0.000
1709141676.696,-34.180,-44.434,-31.250,-40.527,0.000
1709141676.700,-35.156,-39.062,-31.250,-35.156,0.000
1709141676.703,-29.297,-29.785,-37.598,-34.668,0.000
1709141676.707,-32.227,-25.391,-38.086,-34.180,0.000
1709141676.711,-41.992,-41.992,-41.992,-39.062,0.000
1709141676.715,-44.434,-51.758,-44.922,-52.734,0.000
1709141676.719,-49.316,-44.922,-37.598,-51.758,0.000
1709141676.724,-49.316,-43.945,-22.461,-46.875,0.000
1709141676.728,-49.805,-41.016,-29.785,-56.152,0.000
1709141676.732,-54.199,-43.457,-41.504,-55.664,0.000
1709141676.736,-55.176,-40.039,-31.250,-49.316,0.000
1709141676.740,-55.664,-42.480,-37.598,-47.363,0.000
1709141676.744,-51.758,-47.852,-41.992,-43.945,0.000
1709141676.748,-55.664,-53.223,-30.762,-53.223,0.000
1709141676.752,-58.105,-50.781,-33.203,-56.641,0.000
1709141676.756,-56.152,-38.574,-33.203,-54.688,0.000
1709141676.759,-66.406,-38.574,-20.996,-49.316,0.000
1709141676.763,-62.500,-37.109,-33.691,-52.734,0.000
1709141676.767,-56.152,-35.156,-38.086,-54.199,0.000
1709141676.772,-60.547,-35.156,-28.809,-51.758,0.000
1709141676.776,-53.223,-35.645,-33.203,-54.688,0.000
1709141676.780,-49.316,-43.457,-36.621,-55.176,0.000
1709141676.784,-49.805,-44.434,-44.434,-51.270,0.000
1709141676.788,-45.410,-36.133,-45.898,-49.805,0.000
1709141676.792,-44.922,-48.340,-31.738,-45.898,0.000
1709141676.795,-42.969,-47.363,-25.879,-41.992,0.000
1709141676.799,-42.969,-38.086,-41.504,-54.199,0.000
1709141676.803,-40.527,-47.852,-43.457,-45.898,0.000
1709141676.807,-42.480,-37.598,-35.156,-41.016,0.000
1709141676.811,-48.828,-41.016,-42.969,-64.941,0.000
1709141676.815,-42.969,-47.363,-43.945,-62.500,0.000
1709141676.819,-38.086,-32.715,-36.133,-49.316,0.000
1709141676.823,-41.016,-41.504,-29.297,-47.852,0.000
1709141676.827,-32.715,-50.781,-25.879,-44.922,0.000
1709141676.831,-28.320,-43.945,-26.855,-38.086,0.000
1709141676.835,-39.062,-40.527,-27.832,-42.969,0.000
1709141676.839,-39.062,-35.156,-34.668,-47.363,0.000
1709141676.843,-35.645,-40.039,-46.875,-45.410,0.000
1709141676.847,-38.086,-38.086,-43.945,-44.434,0.000
1709141676.850,-40.527,-39.062,-30.273,-37.598,0.000
1709141676.854,-46.875,-45.898,-24.902,-46.387,0.000
1709141676.858,-45.898,-40.527,-36.133,-51.270,0.000
1709141676.862,-46.387,-34.668,-48.340,-47.852,0.000
1709141676.866,-45.410,-40.527,-44.434,-46.387,0.000
1709141676.870,-41.992,-41.016,-35.156,-46.875,0.000
1709141676.874,-43.945,-25.391,-32.227,-57.617,0.000
1709141676.878,-41.504,-28.320,-32.227,-61.035,0.000
1709141676.882,-41.016,-34.180,-32.715,-53.711,0.000
1709141676.885,-39.062,-38.574,-28.320,-49.805,0.000
1709141676.889,-39.551,-33.691,-31.250,-51.758,0.000
1709141676.893,-31.738,-27.832,-31.738,-41.504,0.000
1709141676.897,-29.297,-20.020,-30.273,-41.504,0.000
1709141676.901,-33.203,-20.020,-29.785,-51.270,0.000
1709141676.905,-23.926,-26.855,-23.926,-43.945,0.000
1709141676.909,-23.926,-28.320,-38.574,-43.945,0.000
1709141676.912,-24.902,-23.438,-50.293,-47.852,0.000
1709141676.916,-28.320,-24.902,-35.156,-42.480,0.000
1709141676.920,-32.715,-32.715,-30.762,-35.156,0.000
1709141676.924,-27.344,-27.832,-31.738,-34.180,0.000
1709141676.928,-23.926,-25.879,-34.668,-35.156,0.000
1709141676.932,-20.020,-30.273,-47.363,-36.133,0.000
1709141676.936,-11.719,-35.645,-46.875,-35.645,0.000
1709141676.940,-11.719,-43.457,-32.227,-22.461,0.000
1709141676.944,-13.184,-56.152,-18.555,-21.484,0.000
1709141676.947,-14.160,-46.875,-17.578,-35.156,0.000
1709141676.951,-21.484,-21.973,-33.691,-40.039,0.000
1709141676.955,-23.926,-22.949,-41.992,-39.062,0.000
1709141676.959,-29.785,-30.762,-24.414,-39.551,0.000
1709141676.962,-27.832,-46.875,-10.742,-39.551,0.000
1709141676.966,-31.738,-62.012,-15.137,-36.621,0.000
1709141676.970,-42.969,-48.340,-24.414,-36.133,0.000
1709141676.974,-43.945,-34.668,-25.391,-32.715,0.000
1709141676.978,-46.387,-39.551,-30.273,-31.738,0.000
1709141676.982,-37.598,-39.551,-33.203,-23.438,0.000
1709141676.986,-32.715,-40.527,-27.344,-26.367,0.000
1709141676.990,-43.457,-41.504,-31.738,-49.316,0.000
1709141676.994,-46.387,-47.852,-34.180,-47.363,0.000
1709141676.998,-39.062,-42.480,-43.945,-42.969,0.000
1709141677.001,-35.645,-24.902,-49.316,-47.363,0.000
1709141677.007,-36.621,-30.273,-30.762,-51.270,0.000
1709141677.011,-35.645,-35.156,-25.391,-58.594,0.000
1709141677.015,-27.832,-22.461,-34.180,-49.316,0.000
1709141677.019,-30.273,-25.391,-30.762,-40.039,0.000
1709141677.023,-41.992,-41.992,-25.391,-42.480,0.000
1709141677.027,-42.480,-45.898,-30.273,-46.875,0.000
1709141677.031,-37.598,-44.434,-31.738,-36.621,0.000
1709141677.034,-37.109,-43.945,-31.738,-38.574,0.000
1709141677.038,-34.180,-58.594,-27.344,-45.410,0.000
1709141677.042,-40.527,-71.777,-26.367,-36.133,0.000
1709141677.046,-48.828,-61.523,-25.879,-30.762,0.000
1709141677.050,-45.898,-63.477,-21.484,-29.297,0.000
1709141677.052,-49.805,-72.754,-28.809,-27.832,0.000
1709141677.056,-49.316,-76.172,-32.227,-20.020,0.000
1709141677.060,-46.387,-90.332,-11.719,-15.137,0.000
1709141677.064,-46.875,-89.844,-4.395,-18.066,0.000
1709141677.068,-50.293,-76.172,-8.789,-20.508,0.000
1709141677.072,-51.758,-86.426,-9.766,-20.996,0.000
1709141677.076,-43.945,-97.168,-9.277,-13.672,0.000
1709141677.080,-37.109,-92.773,-3.418,0.488,0.000
1709141677.084,-42.480,-96.680,-1.953,4.395,0.000
1709141677.088,-49.805,-110.840,-9.277,0.977,0.000
1709141677.092,-41.992,-104.980,-12.207,-0.977,0.000
1709141677.095,-33.691,-93.262,-6.348,0.977,0.000
1709141677.100,-35.645,-92.773,-6.348,10.254,0.000
1709141677.104,-37.109,-98.633,-8.301,14.648,0.000
1709141677.108,-35.156,-104.980,-7.812,12.695,0.000
1709141677.112,-27.832,-97.656,-9.277,15.137,0.000
1709141677.116,-20.996,-97.656,-3.418,19.531,0.000
1709141677.120,-20.508,-113.281,13.184,27.832,0.000
1709141677.124,-25.879,-123.535,15.137,25.879,0.000
1709141677.128,-29.785,-113.770,4.883,18.555,0.000
1709141677.132,-21.484,-106.934,9.766,15.137,0.000
1709141677.136,-14.160,-110.840,7.812,20.996,0.000
1709141677.139,-18.066,-109.375,0.977,25.879,0.000
1709141677.143,-16.602,-109.375,-4.883,26.855,0.000
1709141677.148,-13.184,-105.957,-8.301,24.902,0.000
1709141677.152,-10.254,-101.562,-12.695,23.438,0.000
1709141677.156,-11.719,-99.121,-14.648,21.973,0.000
1709141677.160,-5.371,-101.074,-11.719,23.438,0.000
1709141677.164,0.000,-103.516,-6.836,30.762,0.000
1709141677.168,-5.859,-103.027,1.465,27.344,0.000
1709141677.171,-11.719,-102.051,-3.906,20.020,0.000
1709141677.175,-1.465,-101.074,-8.789,14.648,0.000
1709141677.179,6.836,-103.516,-7.324,28.320,0.000
1709141677.183,2.930,-99.609,-8.301,37.109,0.000
1709141677.187,0.000,-90.820,-0.977,19.043,0.000
1709141677.191,-0.977,-84.473,4.883,9.277,0.000
1709141677.195,-4.883,-90.332,-0.977,-4.395,0.000
1709141677.199,-12.695,-99.121,-1.465,-4.395,0.000
1709141677.203,-12.695,-93.262,-3.906,10.742,0.000
1709141677.207,-8.301,-80.078,-12.695,14.648,0.000
1709141677.211,-14.160,-83.496,-13.672,2.441,0.000
1709141677.215,-26.855,-82.031,-11.230,-1.953,0.000
1709141677.219,-25.391,-71.777,-14.648,-2.930,0.000
1709141677.222,-15.137,-82.031,-19.531,-0.977,0.000
1709141677.226,-10.254,-84.961,-13.672,8.789,0.000
1709141677.230,-10.742,-62.988,-6.836,0.488,0.000
1709141677.234,-18.066,-55.664,-9.766,-11.719,0.000
1709141677.238,-27.832,-62.988,-18.066,-17.090,0.000
1709141677.244,-27.832,-71.289,-28.320,-16.602,0.000
1709141677.248,-24.902,-69.824,-26.367,-6.836,0.000
1709141677.252,-25.391,-60.059,-17.578,-13.672,0.000
1709141677.256,-26.367,-60.059,-15.137,-23.926,0.000
1709141677.260,-33.203,-62.988,-35.645,-20.508,0.000
1709141677.264,-31.738,-61.035,-45.898,-15.137,0.000
1709141677.268,-28.320,-59.570,-28.320,-22.949,0.000
1709141677.272,-33.203,-60.059,-20.996,-29.297,0.000
1709141677.276,-35.645,-54.199,-14.648,-24.902,0.000
1709141677.280,-26.367,-54.199,-25.879,-27.832,0.000
1709141677.283,-22.949,-56.152,-36.133,-29.297,0.000
1709141677.287,-27.344,-58.594,-31.250,-28.320,0.000
1709141677.290,-32.227,-62.012,-21.484,-30.273,0.000
1709141677.294,-37.598,-47.363,-27.832,-35.645,0.000
1709141677.298,-38.574,-50.293,-48.340,-42.480,0.000
1709141677.302,-32.715,-51.758,-36.621,-36.133,0.000
1709141677.306,-33.203,-44.434,-24.414,-25.391,0.000
1709141677.310,-34.180,-50.781,-31.250,-21.973,0.000
1709141677.314,-31.738,-49.316,-29.297,-19.531,0.000
1709141677.317,-31.250,-52.246,-26.855,-34.180,0.000
1709141677.321,-24.902,-56.641,-29.297,-39.062,0.000
1709141677.325,-28.320,-47.852,-20.996,-32.227,0.000
1709141677.329,-36.621,-48.828,-22.949,-28.809,0.000
1709141677.333,-36.621,-47.852,-36.133,-26.367,0.000
1709141677.336,-36.621,-59.082,-41.992,-36.133,0.000
1709141677.340,-36.133,-60.547,-39.062,-30.762,0.000
1709141677.344,-35.156,-37.598,-33.203,-24.902,0.000
1709141677.347,-35.645,-40.527,-30.762,-33.203,0.000
1709141677.351,-29.297,-48.340,-36.621,-36.621,0.000
1709141677.355,-30.273,-47.363,-41.992,-34.668,0.000
1709141677.359,-36.621,-45.898,-33.691,-22.461,0.000
1709141677.363,-40.039,-43.945,-28.320,-25.391,0.000
1709141677.367,-42.969,-41.992,-27.832,-33.691,0.000
1709141677.371,-41.016,-50.781,-26.367,-35.156,0.000
1709141677.375,-31.738,-48.828,-22.949,-36.621,0.000
1709141677.379,-34.668,-35.156,-17.090,-36.133,0.000
1709141677.381,-32.715,-43.945,-24.902,-41.016,0.000
1709141677.385,-29.297,-46.875,-36.621,-42.969,0.000
1709141677.389,-29.297,-41.992,-36.621,-37.598,0.000
1709141677.393,-20.020,-45.898,-30.762,-28.809,0.000
1709141677.397,-24.414,-47.852,-26.855,-30.273,0.000
1709141677.401,-34.180,-43.457,-29.297,-38.574,0.000
1709141677.405,-37.109,-40.527,-42.480,-36.621,0.000
1709141677.409,-32.227,-41.504,-45.898,-37.109,0.000
1709141677.413,-25.879,-43.945,-50.781,-50.293,0.000
1709141677.417,-32.227,-42.969,-45.410,-43.457,0.000
1709141677.420,-41.504,-48.340,-25.391,-32.715,0.000
1709141677.424,-41.992,-54.688,-35.645,-37.598,0.000
1709141677.427,-41.504,-49.805,-47.363,-43.945,0.000
1709141677.431,-53.711,-46.875,-35.645,-51.270,0.000
1709141677.435,-54.688,-49.805,-31.250,-54.199,0.000
1709141677.439,-46.875,-65.918,-32.227,-53.223,0.000
1709141677.443,-52.734,-56.641,-30.273,-49.805,0.000
1709141677.446,-56.641,-38.574,-36.621,-54.199,0.000
1709141677.450,-56.152,-50.293,-43.457,-59.570,0.000
1709141677.454,-54.688,-47.852,-43.945,-57.129,0.000
1709141677.458,-50.293,-47.852,-42.969,-47.852,0.000
1709141677.462,-51.758,-57.617,-42.969,-36.133,0.000
1709141677.466,-52.734,-51.758,-36.621,-46.387,0.000
1709141677.470,-45.410,-48.828,-32.227,-56.641,0.000
1709141677.475,-43.945,-64.453,-26.367,-47.852,0.000
1709141677.479,-49.805,-56.152,-26.367,-43.457,0.000
1709141677.483,-46.387,-33.203,-27.832,-37.598,0.000
1709141677.487,-39.062,-27.832,-22.949,-40.527,0.000
1709141677.491,-36.133,-32.715,-26.855,-47.852,0.000
1709141677.495,-34.668,-43.945,-24.414,-45.410,0.000
1709141677.499,-33.691,-41.016,-32.227,-41.992,0.000
1709141677.502,-29.297,-34.180,-29.297,-37.598,0.000
1709141677.506,-30.273,-46.387,-21.973,-32.715,0.000
1709141677.510,-24.414,-35.645,-38.086,-21.973,0.000
1709141677.514,-25.391,-39.062,-43.457,-26.855,0.000
1709141677.518,-35.156,-57.129,-32.715,-30.273,0.000
1709141677.523,-33.691,-42.480,-19.043,-23.926,0.000
1709141677.527,-29.297,-33.203,-14.648,-31.738,0.000
1709141677.530,-43.945,-36.133,-21.484,-41.504,0.000
1709141677.534,-49.316,-34.180,-27.344,-41.992,0.000
1709141677.538,-38.086,-32.715,-28.809,-37.109,0.000
1709141677.542,-32.227,-37.598,-33.203,-31.738,0.000
1709141677.546,-35.645,-34.668,-32.715,-30.762,0.000
1709141677.550,-28.809,-27.344,-28.809,-30.273,0.000
1709141677.554,-26.367,-38.086,-34.668,-21.484,0.000
1709141677.558,-32.227,-40.039,-40.527,-20.508,0.000
1709141677.562,-35.645,-30.762,-44.434,-33.691,0.000
1709141677.566,-26.367,-33.203,-37.109,-41.016,0.000
1709141677.570,-20.508,-38.086,-28.809,-51.270,0.000
1709141677.574,-41.992,-40.527,-28.320,-59.082,0.000
1709141677.578,-49.316,-49.805,-29.297,-57.129,0.000
1709141677.581,-41.992,-49.805,-30.273,-59.082,0.000
1709141677.585,-42.969,-40.527,-37.109,-63.477,0.000
1709141677.589,-45.898,-43.945,-42.480,-57.617,0.000
1709141677.593,-50.293,-41.504,-37.109,-58.594,0.000
1709141677.597,-49.316,-43.945,-35.645,-62.012,0.000
1709141677.601,-37.598,-41.992,-41.992,-42.480,0.000
1709141677.605,-21.973,-27.832,-44.922,-35.156,0.000
1709141677.609,-23.926,-35.645,-37.598,-41.016,0.000
1709141677.613,-38.574,-47.852,-41.016,-39.551,0.000
1709141677.616,-44.922,-38.086,-33.203,-39.551,0.000
1709141677.620,-55.176,-28.320,-25.879,-42.969,0.000
1709141677.624,-54.688,-35.645,-37.109,-36.133,0.000
1709141677.628,-42.480,-48.340,-38.086,-36.133,0.000
1709141677.632,-43.457,-47.852,-36.133,-51.758,0.000
1709141677.636,-38.574,-44.922,-29.785,-53.223,0.000
1709141677.640,-33.691,-42.969,-25.391,-40.527,0.000
1709141677.644,-38.086,-44.922,-35.156,-32.715,0.000
1709141677.648,-31.250,-41.504,-41.016,-29.297,0.000
1709141677.652,-30.762,-38.086,-33.691,-38.086,0.000
1709141677.656,-33.203,-39.551,-33.691,-45.410,0.000
1709141677.659,-29.297,-46.875,-58.594,-41.504,0.000
1709141677.663,-23.438,-54.688,-47.852,-38.574,0.000
1709141677.667,-24.414,-47.852,-26.367,-45.898,0.000
1709141677.671,-27.832,-41.016,-31.250,-51.758,0.000
1709141677.674,-23.438,-40.039,-28.320,-53.223,0.000
1709141677.678,-24.902,-41.992,-35.645,-53.223,0.000
1709141677.682,-36.133,-48.828,-44.434,-54.199,0.000
1709141677.686,-42.480,-45.898,-34.180,-51.758,0.000
1709141677.690,-34.668,-50.293,-38.574,-46.387,0.000
1709141677.694,-25.391,-50.293,-40.039,-47.363,0.000
1709141677.698,-27.344,-38.086,-32.227,-49.316,0.000
1709141677.702,-36.621,-34.180,-38.574,-54.199,0.000
1709141677.706,-42.480,-35.645,-41.992,-59.570,0.000
1709141677.709,-39.551,-33.691,-45.898,-55.664,0.000
1709141677.713,-40.039,-33.691,-46.387,-50.781,0.000
1709141677.717,-42.969,-42.969,-40.039,-45.898,0.000
1709141677.721,-43.457,-49.316,-36.621,-43.457,0.000
1709141677.725,-44.434,-34.668,-28.809,-46.875,0.000
1709141677.729,-46.875,-35.156,-27.344,-57.129,0.000
1709141677.733,-40.527,-42.969,-30.273,-50.781,0.000
1709141677.737,-41.504,-40.527,-34.180,-37.598,0.000
1709141677.741,-44.922,-35.645,-39.551,-49.805,0.000
1709141677.745,-40.039,-37.598,-46.875,-51.758,0.000
1709141677.749,-43.945,-46.387,-41.992,-43.945,0.000
1709141677.752,-53.223,-44.434,-31.250,-46.387,0.000
1709141677.755,-60.059,-34.668,-25.391,-49.805,0.000
1709141677.759,-58.594,-33.203,-25.391,-40.527,0.000
1709141677.763,-46.875,-39.551,-39.551,-32.227,0.000
1709141677.767,-39.062,-40.527,-36.133,-46.387,0.000
1709141677.771,-34.668,-46.387,-34.180,-55.664,0.000
1709141677.775,-35.156,-47.852,-41.504,-52.246,0.000
1709141677.779,-29.785,-49.805,-37.598,-34.180,0.000
1709141677.783,-29.297,-48.828,-42.480,-34.180,0.000
1709141677.787,-30.273,-36.133,-32.227,-50.781,0.000
1709141677.791,-23.926,-32.715,-25.391,-47.363,0.000
1709141677.794,-14.160,-29.785,-36.133,-32.715,0.000
1709141677.798,-16.113,-28.320,-48.828,-32.227,0.000
1709141677.804,0.000,-25.391,-47.363,-34.180,0.000
1709141677.808,0.000,-30.273,-43.457,-24.414,0.000
1709141677.812,0.000,-34.180,-50.293,-20.508,0.000
1709141677.816,0.000,-28.809,-38.086,-11.719,0.000
1709141677.820,0.000,-35.156,-24.902,-19.531,0.000
1709141677.823,0.000,-41.992,-28.320,-21.973,0.000
1709141677.827,0.000,-38.574,-37.598,-11.230,0.000
1709141677.831,0.000,-43.457,-41.504,-20.996,0.000
1709141677.835,0.000,-54.688,-36.133,-31.738,0.000
1709141677.839,0.000,-36.621,-34.180,-29.785,0.000
1709141677.843,0.000,-21.973,-33.203,-22.461,0.000
1709141677.847,0.000,-27.832,-28.809,-22.949,0.000
1709141677.852,-21.973,-34.668,-23.926,-25.391,0.000
1709141677.856,-32.227,-34.668,-31.250,-25.391,0.000
1709141677.859,-30.762,-36.621,-35.645,-18.066,0.000
1709141677.863,-34.180,-49.316,-29.297,-20.996,0.000
1709141677.867,-31.738,-47.852,-35.156,-28.320,0.000
1709141677.871,-27.832,-44.922,-39.551,-31.250,0.000
1709141677.875,-34.668,-46.387,-43.945,-33.691,0.000
1709141677.879,-36.621,-50.781,-42.969,-30.762,0.000
1709141677.883,-31.738,-62.500,-42.480,-25.879,0.000
1709141677.887,-33.203,-52.246,-51.270,-22.461,0.000
1709141677.891,-33.203,-30.762,-42.969,-31.250,0.000
1709141677.895,-23.926,-26.855,-32.227,-31.738,0.000
1709141677.899,-27.832,-34.668,-32.227,-26.855,0.000
1709141677.903,-35.645,-36.621,-27.832,-24.902,0.000
1709141677.907,-26.855,-41.992,-34.180,-28.809,0.000
1709141677.911,-27.832,-42.969,-56.152,-39.062,0.000
1709141677.915,-31.250,-41.504,-52.246,-41.016,0.000
1709141677.919,-29.785,-38.086,-34.668,-46.875,0.000
1709141677.922,-28.320,-35.645,-28.809,-43.457,0.000
1709141677.926,-21.973,-37.109,-32.227,-31.250,0.000
1709141677.930,-30.273,-35.645,-40.527,-31.250,0.000
1709141677.934,-35.645,-34.180,-39.551,-37.109,0.000
1709141677.938,-36.133,-38.574,-47.363,-46.387,0.000
1709141677.942,-36.621,-39.551,-42.480,-41.992,0.000
1709141677.946,-35.156,-38.086,-37.598,-30.762,0.000
1709141677.950,-40.527,-39.062,-46.387,-38.086,0.000
1709141677.954,-36.133,-35.156,-48.340,-48.828,0.000
1709141677.958,-28.809,-38.574,-38.086,-38.574,0.000
1709141677.962,-32.715,-39.551,-26.367,-34.180,0.000
1709141677.965,-28.809,-36.133,-30.762,-37.598,0.000
1709141677.969,-25.391,-41.504,-25.391,-36.133,0.000
1709141677.973,-35.645,-38.574,-27.344,-35.156,0.000
1709141677.977,-38.086,-36.621,-41.504,-28.320,0.000
1709141677.981,-29.785,-38.086,-40.039,-18.555,0.000
1709141677.985,-30.273,-41.504,-37.109,-21.484,0.000
1709141677.989,-28.809,-41.016,-50.781,-21.973,0.000
1709141677.992,-23.926,-35.156,-42.969,-26.855,0.000
1709141677.996,-25.391,-44.922,-27.832,-30.762,0.000
1709141678.000,-27.832,-51.758,-32.715,-27.344,0.000
1709141678.004,-30.273,-39.062,-35.645,-27.344,0.000
1709141678.008,-24.902,-42.480,-33.691,-33.203,0.000
1709141678.012,-20.020,-47.363,-29.297,-40.527,0.000
1709141678.016,-20.020,-40.527,-25.879,-34.180,0.000
1709141678.020,-24.414,-35.156,-25.391,-24.414,0.000
1709141678.024,-22.461,-22.461,-35.645,-31.738,0.000
1709141678.028,-19.043,-26.855,-43.457,-43.457,0.000
1709141678.031,-23.438,-40.527,-43.945,-37.598,0.000
1709141678.035,-24.414,-38.574,-37.109,-38.574,0.000
1709141678.039,-29.297,-38.574,-42.969,-45.410,0.000
1709141678.042,-38.086,-43.945,-46.875,-43.457,0.000
1709141678.046,-41.016,-39.551,-30.273,-47.852,0.000
1709141678.050,-34.668,-35.156,-22.949,-43.945,0.000
1709141678.054,-30.762,-31.738,-21.973,-43.945,0.000
1709141678.058,-32.715,-34.180,-28.809,-48.828,0.000
1709141678.062,-40.527,-52.246,-33.203,-38.574,0.000
1709141678.066,-41.504,-43.945,-38.574,-29.297,0.000
1709141678.070,-40.527,-33.203,-48.828,-31.250,0.000
1709141678.074,-37.109,-34.668,-45.410,-43.945,0.000
1709141678.078,-34.668,-28.809,-35.156,-54.199,0.000
1709141678.081,-38.574,-26.855,-26.367,-44.434,0.000
1709141678.085,-36.621,-28.809,-27.344,-32.227,0.000
1709141678.088,-39.062,-41.992,-34.668,-41.504,0.000
1709141678.092,-38.086,-39.062,-34.668,-45.410,0.000
1709141678.096,-29.785,-29.297,-45.898,-40.039,0.000
1709141678.100,-34.668,-34.668,-42.480,-35.156,0.000
1709141678.104,-51.270,-46.387,-31.738,-53.223,0.000
1709141678.108,-54.199,-50.293,-36.133,-67.871,0.000
1709141678.112,-49.805,-48.828,-40.527,-56.152,0.000
1709141678.116,-55.176,-54.688,-46.875,-61.035,0.000
1709141678.120,-60.547,-61.523,-42.969,-68.359,0.000
1709141678.124,-58.594,-61.523,-28.320,-52.734,0.000
1709141678.127,-71.289,-46.387,-27.344,-59.570,0.000
1709141678.130,-76.660,-57.129,-32.715,-74.707,0.000
1709141678.134,-70.801,-64.941,-31.738,-69.336,0.000
1709141678.138,-79.590,-44.434,-42.969,-75.684,0.000
1709141678.142,-78.613,-39.551,-59.570,-76.172,0.000
1709141678.146,-77.637,-41.992,-47.363,-75.684,0.000
1709141678.150,-73.242,-49.805,-32.715,-76.172,0.000
1709141678.154,-66.406,-59.082,-47.363,-64.453,0.000
1709141678.158,-62.988,-53.223,-42.480,-58.105,0.000
1709141678.162,-48.340,-39.551,-32.227,-60.547,0.000
1709141678.165,-40.039,-45.410,-41.992,-58.105,0.000
1709141678.169,-38.086,-43.457,-41.016,-54.688,0.000
1709141678.173,-41.504,-35.156,-38.574,-58.105,0.000
1709141678.176,-45.898,-42.969,-33.691,-63.965,0.000
1709141678.180,-42.480,-46.387,-39.062,-62.500,0.000
1709141678.184,-40.039,-44.922,-44.922,-49.316,0.000
1709141678.188,-34.180,-51.758,-46.875,-40.527,0.000
1709141678.192,-31.738,-56.152,-53.223,-44.922,0.000
1709141678.195,-32.227,-51.758,-43.457,-43.945,0.000
1709141678.199,-29.785,-41.016,-25.391,-40.039,0.000
1709141678.203,-36.133,-36.621,-19.531,-44.434,0.000
1709141678.207,-33.691,-41.016,-30.762,-41.992,0.000
1709141678.211,-28.809,-42.480,-42.969,-30.762,0.000
1709141678.215,-34.668,-36.133,-42.480,-37.598,0.000
1709141678.219,-34.668,-33.203,-39.551,-48.340,0.000
1709141678.224,-43.457,-36.133,-43.945,-49.316,0.000
1709141678.228,-37.598,-40.527,-42.480,-43.945,0.000
1709141678.232,-32.715,-37.598,-37.109,-44.922,0.000
1709141678.236,-37.598,-27.832,-49.316,-46.875,0.000
1709141678.240,-37.109,-29.297,-45.898,-36.133,0.000
1709141678.244,-41.504,-37.598,-27.344,-32.227,0.000
1709141678.248,-42.969,-26.367,-25.391,-41.992,0.000
1709141678.251,-38.574,-16.113,-28.809,-39.551,0.000
1709141678.255,-42.480,-32.715,-48.828,-34.180,0.000
1709141678.259,-42.969,-38.086,-45.898,-26.367,0.000
1709141678.263,-30.762,-34.180,-31.250,-17.090,0.000
1709141678.267,-29.785,-42.480,-43.945,-34.668,0.000
1709141678.275,-29.785,-45.410,-34.668,-45.410,0.000
1709141678.279,-42.969,-41.992,-22.949,-43.457,0.000
1709141678.282,-48.828,-40.527,-37.598,-35.156,0.000
1709141678.286,-46.875,-37.109,-45.898,-33.691,0.000
1709141678.290,-53.711,-32.227,-27.832,-39.551,0.000
1709141678.294,-58.594,-37.109,-22.949,-50.781,0.000
1709141678.298,-66.895,-33.203,-32.715,-55.664,0.000
1709141678.302,-66.895,-32.715,-38.574,-53.711,0.000
1709141678.306,-62.500,-42.969,-49.316,-48.828,0.000
1709141678.310,-62.012,-41.504,-48.340,-45.410,0.000
1709141678.314,-58.105,-37.109,-39.062,-54.199,0.000
1709141678.318,-58.105,-39.551,-43.457,-50.293,0.000
1709141678.321,-61.523,-45.410,-52.246,-48.828,0.000
1709141678.325,-46.387,-44.922,-41.504,-44.434,0.000
1709141678.329,-37.109,-48.828,-48.828,-39.062,0.000
1709141678.333,-39.062,-48.340,-43.945,-45.410,0.000
1709141678.337,-46.387,-41.016,-25.391,-55.176,0.000
1709141678.341,-40.527,-46.875,-22.949,-44.434,0.000
1709141678.345,-34.180,-51.758,-32.227,-31.250,0.000
1709141678.349,-35.156,-39.551,-47.852,-47.363,0.000
1709141678.353,-37.109,-40.039,-41.016,-51.758,0.000
1709141678.356,-34.668,-45.410,-34.668,-51.758,0.000
1709141678.360,-35.645,-36.621,-44.434,-64.453,0.000
1709141678.364,-44.434,-29.785,-48.828,-55.664,0.000
1709141678.368,-43.457,-38.574,-52.734,-54.688,0.000
1709141678.372,-46.875,-50.781,-44.922,-59.082,0.000
1709141678.376,-45.898,-57.617,-46.387,-63.965,0.000
1709141678.380,-39.551,-51.758,-42.969,-63.477,0.000
1709141678.383,-37.109,-42.969,-30.273,-50.293,0.000
1709141678.387,-43.457,-43.457,-41.504,-53.223,0.000
1709141678.391,-43.945,-39.551,-41.016,-51.270,0.000
1709141678.395,-44.922,-50.293,-29.785,-37.598,0.000
1709141678.399,-49.805,-60.547,-29.297,-33.203,0.000
1709141678.403,-57.129,-41.992,-38.086,-42.480,0.000
1709141678.407,-55.176,-48.340,-56.641,-44.434,0.000
1709141678.411,-51.270,-55.664,-56.152,-51.758,0.000
1709141678.414,-53.223,-36.133,-34.668,-53.223,0.000
1709141678.418,-56.641,-24.902,-23.926,-42.480,0.000
1709141678.422,-57.617,-34.668,-32.715,-44.922,0.000
1709141678.426,-57.617,-52.246,-32.227,-45.898,0.000
1709141678.430,-52.246,-40.527,-42.480,-48.340,0.000
1709141678.433,-43.457,-38.574,-47.363,-57.617,0.000
1709141678.437,-40.039,-45.898,-33.203,-54.688,0.000
1709141678.441,-42.480,-48.828,-35.645,-40.039,0.000
1709141678.445,-36.621,-40.039,-35.645,-34.668,0.000
1709141678.449,-26.855,-24.414,-40.039,-38.574,0.000
1709141678.453,-24.414,-28.809,-47.852,-34.668,0.000
1709141678.457,-25.879,-29.297,-44.922,-31.250,0.000
1709141678.463,-30.762,-28.320,-39.062,-42.480,0.000
1709141678.466,-38.086,-42.480,-44.922,-50.781,0.000
1709141678.470,-40.039,-37.109,-42.480,-42.969,0.000
1709141678.474,-41.016,-28.320,-29.785,-50.781,0.000
1709141678.478,-39.551,-54.688,-30.762,-54.199,0.000
1709141678.482,-37.598,-58.594,-37.109,-43.945,0.000
1709141678.486,-41.992,-37.109,-35.645,-34.180,0.000
1709141678.490,-44.922,-33.203,-37.598,-35.156,0.000
1709141678.494,-47.852,-37.109,-38.574,-52.246,0.000
1709141678.498,-41.016,-36.133,-31.738,-60.059,0.000
1709141678.502,-35.645,-40.039,-40.527,-54.688,0.000
1709141678.505,-35.645,-46.875,-54.688,-47.363,0.000
1709141678.508,-35.156,-47.852,-40.527,-45.410,0.000
1709141678.512,-32.715,-43.945,-21.973,-46.387,0.000
1709141678.516,-39.062,-34.668,-21.973,-35.156,0.000
1709141678.520,-43.457,-33.203,-31.738,-23.926,0.000
1709141678.524,-44.434,-32.227,-34.668,-30.762,0.000
1709141678.528,-44.922,-32.715,-35.156,-42.969,0.000
1709141678.531,-45.410,-36.621,-36.133,-42.969,0.000
1709141678.535,-42.480,-43.945,-33.203,-39.551,0.000
1709141678.539,-35.156,-38.574,-49.316,-35.645,0.000
1709141678.543,-34.668,-39.062,-49.805,-37.598,0.000
1709141678.547,-35.156,-48.828,-34.668,-53.223,0.000
1709141678.551,-34.668,-36.621,-48.340,-48.340,0.000
1709141678.553,-35.156,-36.133,-45.898,-43.945,0.000
1709141678.557,-40.527,-42.480,-24.902,-49.805,0.000
1709141678.561,-45.410,-42.969,-31.738,-45.410,0.000
1709141678.565,-48.828,-44.434,-54.199,-39.551,0.000
1709141678.569,-41.016,-39.062,-45.410,-36.133,0.000
1709141678.573,-32.227,-43.945,-29.297,-30.273,0.000
1709141678.577,-28.320,-53.711,-36.133,-35.156,0.000
1709141678.580,-32.715,-42.480,-43.457,-41.504,0.000
1709141678.584,-34.180,-29.785,-41.016,-37.598,0.000
1709141678.588,-28.320,-38.086,-41.504,-29.785,0.000
1709141678.592,-37.598,-45.898,-46.387,-35.645,0.000
1709141678.596,-41.016,-51.758,-46.387,-47.363,0.000
1709141678.601,-40.039,-49.316,-40.527,-46.875,0.000
1709141678.605,-41.504,-37.109,-30.762,-40.527,0.000
1709141678.609,-41.016,-40.527,-32.227,-40.039,0.000
1709141678.613,-44.922,-49.805,-31.738,-47.363,0.000
1709141678.617,-44.922,-48.340,-40.039,-44.434,0.000
1709141678.621,-42.480,-43.945,-41.992,-29.785,0.000
1709141678.624,-41.016,-47.852,-34.180,-27.832,0.000
1709141678.628,-41.992,-45.410,-39.062,-49.316,0.000
1709141678.632,-42.480,-44.922,-41.504,-54.199,0.000
1709141678.636,-38.574,-43.945,-38.086,-38.086,0.000
1709141678.640,-35.156,-38.574,-46.387,-34.180,0.000
1709141678.644,-31.250,-45.898,-50.781,-41.016,0.000
1709141678.648,-25.879,-44.434,-40.527,-34.668,0.000
1709141678.652,-28.320,-42.969,-37.598,-31.738,0.000
1709141678.656,-31.738,-52.734,-34.180,-34.180,0.000
1709141678.660,-34.668,-49.316,-37.598,-37.598,0.000
1709141678.664,-33.203,-43.457,-45.898,-39.551,0.000
1709141678.668,-29.297,-41.504,-53.711,-41.504,0.000
1709141678.672,-41.992,-43.457,-56.641,-48.340,0.000
1709141678.676,-47.363,-43.457,-42.480,-50.293,0.000
1709141678.680,-36.621,-41.016,-43.945,-35.156,0.000
1709141678.683,-34.180,-42.480,-51.270,-28.809,0.000
1709141678.687,-41.992,-41.992,-43.457,-41.016,0.000
1709141678.691,-40.527,-36.621,-35.645,-41.992,0.000
1709141678.695,-40.039,-33.203,-31.250,-41.992,0.000
1709141678.699,-49.316,-42.480,-21.484,-50.781,0.000
1709141678.703,-49.805,-45.410,-21.973,-54.199,0.000
1709141678.707,-52.246,-39.062,-33.691,-53.711,0.000
1709141678.711,-56.641,-44.434,-35.156,-51.758,0.000
1709141678.715,-50.781,-46.875,-41.016,-42.480,0.000
1709141678.719,-43.457,-34.180,-53.711,-43.457,0.000
1709141678.723,-48.340,-31.250,-43.945,-53.223,0.000
1709141678.727,-53.711,-42.969,-43.945,-57.617,0.000
1709141678.730,-47.363,-43.457,-42.969,-53.711,0.000
1709141678.734,-48.340,-27.832,-37.109,-61.523,0.000
1709141678.738,-57.129,-31.250,-49.316,-68.848,0.000
1709141678.742,-52.246,-39.062,-44.922,-68.848,0.000
1709141678.746,-41.016,-32.715,-41.992,-67.383,0.000
1709141678.750,-29.297,-33.203,-42.480,-58.594,0.000
1709141678.754,-24.414,-33.691,-39.062,-55.176,0.000
1709141678.758,-31.738,-32.227,-43.945,-50.781,0.000
1709141678.762,-30.273,-28.320,-53.223,-45.410,0.000
1709141678.765,-28.320,-26.855,-40.527,-44.922,0.000
1709141678.769,-31.250,-30.762,-42.969,-38.086,0.000
1709141678.773,-42.969,-36.621,-57.129,-33.691,0.000
1709141678.777,-50.781,-46.387,-36.133,-48.828,0.000
1709141678.781,-43.457,-46.387,-23.438,-52.734,0.000
1709141678.785,-50.293,-32.227,-28.809,-57.617,0.000
1709141678.788,-52.246,-29.785,-28.320,-59.082,0.000
1709141678.792,-52.246,-37.109,-28.809,-60.059,0.000
1709141678.796,-60.059,-41.016,-34.180,-62.012,0.000
1709141678.800,-56.152,-41.504,-33.203,-50.781,0.000
1709141678.804,-53.223,-40.039,-38.086,-45.898,0.000
1709141678.808,-50.781,-38.086,-40.527,-38.086,0.000
1709141678.812,-43.457,-36.621,-32.227,-28.320,0.000
1709141678.816,-41.016,-39.551,-33.203,-20.508,0.000
1709141678.819,-35.645,-32.715,-29.785,-16.602,0.000
1709141678.823,-35.645,-31.250,-20.996,-24.414,0.000
1709141678.827,-40.527,-38.086,-21.484,-33.691,0.000
1709141678.831,-44.922,-48.828,-32.227,-37.109,0.000
1709141678.834,-46.387,-46.875,-41.016,-40.527,0.000
1709141678.838,-41.504,-38.574,-33.691,-36.133,0.000
1709141678.842,-39.551,-34.668,-26.367,-34.668,0.000
1709141678.846,-40.527,-43.457,-50.781,-37.109,0.000
1709141678.850,-40.527,-41.016,-61.035,-40.527,0.000
1709141678.854,-31.738,-30.762,-35.645,-48.828,0.000
1709141678.858,-32.715,-36.621,-33.691,-48.340,0.000
1709141678.862,-37.109,-32.715,-39.551,-41.016,0.000
1709141678.865,-32.715,-30.273,-41.992,-37.598,0.000
1709141678.869,-32.715,-32.715,-38.086,-36.133,0.000
1709141678.873,-41.016,-36.621,-24.414,-41.992,0.000
1709141678.877,-45.410,-41.016,-32.715,-50.293,0.000
1709141678.880,-44.922,-44.922,-45.410,-57.129,0.000
1709141678.884,-40.527,-47.363,-41.992,-54.199,0.000
1709141678.888,-37.598,-43.945,-32.715,-55.176,0.000
1709141678.892,-40.527,-41.016,-28.320,-57.129,0.000
1709141678.896,-37.598,-35.645,-26.855,-56.641,0.000
1709141678.900,-41.016,-37.598,-27.344,-47.363,0.000
1709141678.904,-41.504,-43.457,-32.715,-30.762,0.000
1709141678.907,-41.992,-51.758,-40.039,-42.480,0.000
1709141678.911,-42.480,-49.805,-35.156,-59.082,0.000
1709141678.915,-43.945,-39.062,-38.574,-59.082,0.000
1709141678.919,-44.922,-35.645,-40.527,-46.875,0.000
1709141678.923,-45.410,-37.598,-30.762,-47.363,0.000
1709141678.926,-46.875,-45.898,-41.016,-48.828,0.000
1709141678.929,-42.969,-51.758,-40.039,-43.457,0.000
1709141678.933,-38.086,-46.875,-28.320,-51.270,0.000
1709141678.937,-32.227,-37.598,-29.297,-54.199,0.000
1709141678.941,-32.715,-35.645,-37.598,-51.758,0.000
1709141678.945,-26.367,-40.527,-34.180,-43.457,0.000
1709141678.949,-25.391,-39.062,-36.621,-32.715,0.000
1709141678.953,-35.645,-25.391,-51.270,-40.527,0.000
1709141678.957,-35.156,-48.828,-40.039,-43.945,0.000
1709141678.961,-37.109,-69.824,-27.832,-31.738,0.000
1709141678.965,-37.598,-47.363,-41.992,-32.715,0.000
1709141678.969,-36.621,-36.133,-47.363,-47.852,0.000
1709141678.974,-37.598,-40.527,-29.297,-49.805,0.000
1709141678.978,-41.016,-41.504,-36.621,-46.387,0.000
1709141678.982,-53.223,-33.691,-44.434,-47.852,0.000
1709141678.986,-45.898,-34.180,-30.273,-61.523,0.000
1709141678.990,-38.086,-36.133,-32.715,-61.035,0.000
1709141678.993,-45.410,-35.156,-45.410,-48.340,0.000
1709141678.997,-40.039,-35.156,-43.945,-51.270,0.000
1709141679.001,-38.574,-50.293,-34.180,-58.105,0.000
1709141679.005,-44.922,-59.570,-39.062,-48.340,0.000
1709141679.009,-38.086,-63.477,-41.016,-39.551,0.000
1709141679.013,-30.273,-49.316,-36.133,-38.574,0.000
1709141679.017,-29.785,-28.320,-33.203,-36.133,0.000
1709141679.024,-36.621,-36.133,-28.320,-37.109,0.000
1709141679.028,-30.273,-41.016,-36.133,-34.668,0.000
1709141679.032,-22.949,-39.551,-37.598,-35.156,0.000
1709141679.036,-27.832,-41.992,-30.273,-36.621,0.000
1709141679.040,-32.227,-51.758,-23.438,-29.785,0.000
1709141679.044,-37.109,-53.223,-35.645,-28.320,0.000
1709141679.048,-32.715,-42.480,-43.457,-29.297,0.000
1709141679.052,-28.320,-44.434,-32.715,-33.691,0.000
1709141679.056,-35.156,-48.828,-35.156,-32.227,0.000
1709141679.060,-41.992,-41.016,-40.039,-41.016,0.000
1709141679.064,-40.527,-47.363,-32.227,-57.129,0.000
1709141679.067,-41.016,-51.270,-29.785,-50.293,0.000
1709141679.071,-42.480,-39.062,-32.715,-54.199,0.000
1709141679.075,-41.016,-38.086,-41.504,-50.781,0.000
1709141679.079,-34.668,-41.504,-46.875,-38.574,0.000
1709141679.083,-38.574,-42.969,-48.828,-41.504,0.000
1709141679.087,-51.270,-47.852,-40.039,-42.480,0.000
1709141679.091,-49.805,-41.992,-29.785,-46.387,0.000
1709141679.095,-46.875,-41.992,-35.645,-54.199,0.000
1709141679.099,-43.945,-44.922,-32.715,-42.969,0.000
1709141679.102,-44.922,-43.457,-26.855,-32.227,0.000
1709141679.106,-43.457,-39.062,-28.809,-38.574,0.000
1709141679.110,-36.133,-47.363,-42.480,-32.715,0.000
1709141679.114,-37.598,-52.246,-48.828,-29.785,0.000
1709141679.120,-38.574,-39.551,-20.508,-22.949,0.000
1709141679.124,-39.551,-32.227,-25.391,-22.949,0.000
1709141679.128,-37.109,-39.551,-36.621,-29.297,0.000
1709141679.132,-31.250,-43.945,-21.484,-32.715,0.000
1709141679.136,-38.574,-36.133,-31.250,-44.922,0.000
1709141679.140,-49.805,-30.762,-47.852,-58.105,0.000
1709141679.144,-56.641,-37.109,-47.852,-61.523,0.000
1709141679.148,-44.922,-45.898,-27.832,-45.410,0.000
1709141679.152,-35.156,-42.480,-23.438,-35.645,0.000
1709141679.156,-33.691,-44.434,-39.062,-43.945,0.000
1709141679.159,-32.227,-49.316,-46.387,-39.551,0.000
1709141679.163,-39.062,-47.852,-39.551,-34.668,0.000
1709141679.166,-35.645,-45.410,-43.945,-27.832,0.000
1709141679.170,-40.527,-35.645,-50.293,-36.621,0.000
1709141679.174,-38.086,-31.250,-35.156,-51.270,0.000
1709141679.178,-25.879,-34.180,-33.691,-45.898,0.000
1709141679.182,-28.809,-40.527,-31.738,-33.691,0.000
1709141679.186,-33.203,-39.551,-22.461,-34.668,0.000
1709141679.190,-33.691,-38.086,-24.902,-41.016,0.000
1709141679.193,-32.715,-46.875,-42.480,-33.691,0.000
1709141679.197,-20.996,-47.852,-59.570,-31.250,0.000
1709141679.201,-24.902,-31.738,-48.340,-40.039,0.000
1709141679.205,-33.691,-25.391,-41.504,-40.527,0.000
1709141679.209,-32.227,-28.320,-40.039,-29.297,0.000
1709141679.212,-28.809,-27.832,-27.832,-31.738,0.000
1709141679.215,-26.367,-31.250,-26.855,-35.156,0.000
1709141679.219,-26.855,-39.062,-35.645,-31.738,0.000
1709141679.223,-27.832,-41.016,-39.551,-37.598,0.000
1709141679.227,-27.832,-41.504,-41.016,-33.691,0.000
1709141679.231,-28.809,-42.480,-41.016,-35.156,0.000
1709141679.235,-25.391,-37.598,-32.227,-42.480,0.000
1709141679.239,-30.762,-28.320,-27.832,-41.504,0.000
1709141679.243,-38.086,-25.879,-37.109,-39.062,0.000
1709141679.247,-38.086,-28.809,-38.086,-37.598,0.000
1709141679.251,-43.945,-30.762,-41.992,-46.387,0.000
1709141679.254,-43.945,-32.715,-49.316,-46.387,0.000
1709141679.257,-38.086,-35.645,-43.457,-40.527,0.000
1709141679.261,-42.480,-44.922,-29.297,-31.738,0.000
1709141679.265,-52.246,-44.922,-20.020,-29.785,0.000
1709141679.269,-51.758,-31.738,-20.020,-33.203,0.000
1709141679.273,-48.340,-28.320,-27.832,-29.297,0.000
1709141679.277,-50.781,-46.387,-38.086,-27.832,0.000
1709141679.281,-50.781,-49.316,-35.156,-29.297,0.000
1709141679.284,-50.781,-40.039,-37.598,-29.297,0.000
1709141679.288,-50.293,-51.270,-40.527,-37.109,0.000
1709141679.292,-50.293,-48.340,-39.062,-40.039,0.000
1709141679.296,-53.711,-45.898,-39.551,-34.668,0.000
1709141679.300,-46.387,-52.246,-39.551,-36.621,0.000
1709141679.305,-34.180,-36.133,-48.828,-36.133,0.000
1709141679.309,-29.785,-26.367,-49.316,-40.039,0.000
1709141679.313,-21.973,-29.297,-47.852,-33.691,0.000
1709141679.317,-19.531,-26.367,-61.035,-29.785,0.000
1709141679.321,-22.461,-22.461,-50.781,-39.062,0.000
1709141679.325,-20.508,-40.039,-21.973,-31.250,0.000
1709141679.329,-20.020,-42.969,-23.926,-24.902,0.000
1709141679.333,-22.461,-33.203,-27.344,-41.504,0.000
1709141679.337,-26.855,-44.434,-26.367,-51.758,0.000
1709141679.340,-31.738,-40.039,-39.062,-47.363,0.000
1709141679.344,-35.156,-37.109,-41.016,-49.805,0.000
1709141679.348,-37.109,-40.039,-49.805,-62.988,0.000
1709141679.353,-34.668,-42.969,-52.246,-67.383,0.000
1709141679.357,-36.133,-45.410,-41.016,-59.082,0.000
1709141679.361,-41.992,-35.645,-50.781,-50.781,0.000
1709141679.365,-42.969,-34.180,-49.805,-51.758,0.000
1709141679.369,-38.086,-35.645,-29.785,-43.945,0.000
1709141679.372,-38.574,-40.039,-19.531,-45.898,0.000
1709141679.376,-37.598,-34.180,-26.367,-55.176,0.000
1709141679.380,-32.227,-28.809,-33.203,-50.293,0.000
1709141679.384,-39.062,-40.039,-34.668,-38.086,0.000
1709141679.388,-40.039,-39.551,-36.133,-29.785,0.000
1709141679.392,-36.133,-35.645,-43.945,-31.250,0.000
1709141679.396,-30.762,-35.156,-47.363,-30.273,0.000
1709141679.400,-28.809,-35.156,-36.133,-38.574,0.000
1709141679.404,-33.691,-33.691,-30.762,-42.969,0.000
1709141679.408,-33.691,-28.320,-37.598,-42.969,0.000
1709141679.412,-38.086,-17.090,-38.086,-39.062,0.000
1709141679.416,-38.574,-18.066,-35.645,-36.133,0.000
1709141679.419,-41.504,-22.949,-44.922,-38.574,0.000
1709141679.423,-35.645,-20.996,-47.852,-29.297,0.000
1709141679.427,-29.785,-23.438,-36.133,-32.715,0.000
1709141679.431,-36.621,-29.785,-36.133,-45.898,0.000
1709141679.435,-41.992,-37.109,-41.504,-47.363,0.000
1709141679.439,-34.180,-33.203,-43.945,-45.898,0.000
1709141679.443,-28.809,-26.367,-43.457,-37.598,0.000
1709141679.447,-27.832,-29.785,-25.879,-34.180,0.000
1709141679.450,-31.738,-31.738,-24.414,-43.457,0.000
1709141679.454,-36.133,-27.344,-45.410,-52.734,0.000
1709141679.458,-47.363,-28.320,-43.457,-61.523,0.000
1709141679.462,-58.594,-45.898,-36.621,-70.312,0.000
1709141679.466,-59.570,-57.617,-34.180,-70.801,0.000
1709141679.470,-53.223,-56.641,-39.062,-71.777,0.000
1709141679.474,-52.246,-43.457,-49.316,-71.289,0.000
1709141679.478,-61.523,-36.133,-46.387,-62.988,0.000
1709141679.482,-56.641,-39.062,-45.898,-62.012,0.000
1709141679.486,-42.480,-34.668,-44.922,-60.547,0.000
1709141679.490,-41.016,-35.645,-48.828,-46.875,0.000
1709141679.493,-41.992,-32.715,-48.340,-45.410,0.000
1709141679.497,-43.945,-29.297,-29.785,-41.504,0.000
1709141679.501,-41.016,-27.832,-16.602,-32.715,0.000
1709141679.505,-37.109,-32.715,-25.879,-31.250,0.000
1709141679.508,-46.875,-43.945,-32.715,-32.715,0.000
1709141679.512,-40.527,-51.270,-32.227,-33.691,0.000
1709141679.516,-31.738,-39.062,-39.062,-37.598,0.000
1709141679.520,-42.480,-31.738,-37.109,-31.738,0.000
1709141679.524,-35.156,-41.016,-40.527,-23.926,0.000
1709141679.528,-27.344,-33.203,-42.969,-32.715,0.000
1709141679.532,-31.250,-27.832,-22.461,-37.598,0.000
1709141679.536,-28.809,-31.738,-18.066,-35.645,0.000
1709141679.542,-31.250,-39.551,-29.785,-41.504,0.000
1709141679.546,-37.598,-42.969,-35.156,-45.898,0.000
1709141679.550,-32.227,-42.480,-27.832,-36.133,0.000
1709141679.553,-35.156,-38.574,-23.926,-41.992,0.000
1709141679.557,-41.992,-43.945,-29.785,-48.340,0.000
1709141679.561,-40.527,-51.270,-30.273,-38.086,0.000
1709141679.565,-40.039,-48.828,-31.738,-34.668,0.000
1709141679.569,-36.621,-38.086,-33.203,-31.738,0.000
1709141679.573,-37.598,-32.715,-30.762,-34.180,0.000
1709141679.577,-46.387,-35.156,-26.855,-42.480,0.000
1709141679.581,-44.434,-29.297,-35.645,-43.945,0.000
1709141679.585,-36.133,-18.066,-39.062,-34.668,0.000
1709141679.587,-48.340,-33.203,-34.180,-33.691,0.000
1709141679.591,-48.828,-50.293,-44.434,-46.875,0.000
1709141679.595,-39.062,-44.922,-45.410,-49.316,0.000
1709141679.599,-46.875,-41.504,-35.645,-54.688,0.000
1709141679.603,-54.199,-45.410,-34.668,-52.734,0.000
1709141679.607,-50.781,-42.969,-34.180,-41.016,0.000
1709141679.611,-51.758,-50.293,-32.227,-40.527,0.000
1709141679.615,-53.711,-50.781,-40.527,-39.551,0.000
1709141679.618,-45.898,-39.062,-48.828,-40.039,0.000
1709141679.622,-36.133,-39.062,-51.758,-32.227,0.000
1709141679.626,-30.273,-43.945,-42.969,-18.066,0.000
1709141679.630,-27.832,-50.293,-35.645,-29.785,0.000
1709141679.633,-28.320,-48.340,-31.250,-39.551,0.000
1709141679.637,-33.203,-37.598,-22.461,-45.410,0.000
1709141679.641,-34.180,-36.133,-25.879,-48.828,0.000
1709141679.645,-29.297,-38.574,-35.156,-49.805,0.000
1709141679.649,-26.855,-33.691,-41.016,-57.617,0.000
1709141679.653,-36.133,-37.598,-44.434,-52.734,0.000
1709141679.656,-41.992,-41.992,-43.457,-44.922,0.000
1709141679.660,-41.992,-37.598,-29.785,-43.945,0.000
1709141679.664,-39.062,-41.992,-30.273,-40.527,0.000
1709141679.668,-31.738,-41.992,-42.969,-38.574,0.000
1709141679.672,-28.809,-33.691,-44.434,-54.199,0.000
1709141679.676,-35.645,-35.156,-38.574,-59.570,0.000
1709141679.678,-37.598,-33.203,-24.414,-36.621,0.000
1709141679.682,-38.086,-31.250,-28.809,-25.879,0.000
1709141679.686,-38.574,-38.574,-47.852,-34.180,0.000
1709141679.690,-34.668,-27.832,-42.969,-26.367,0.000
1709141679.694,-26.855,-22.949,-32.715,-25.879,0.000
1709141679.698,-34.180,-35.156,-27.832,-28.320,0.000
1709141679.701,-38.086,-37.598,-28.320,-19.531,0.000
1709141679.705,-32.227,-33.203,-34.180,-27.344,0.000
1709141679.709,-33.203,-35.156,-22.461,-29.297,0.000
1709141679.713,-29.785,-32.715,-14.160,-27.344,0.000
1709141679.717,-28.809,-31.738,-25.391,-39.551,0.000
1709141679.721,-29.297,-35.645,-35.645,-44.922,0.000
1709141679.726,-25.879,-35.645,-49.805,-38.574,0.000
1709141679.730,-18.555,-27.832,-47.852,-37.598,0.000
1709141679.734,-23.926,-25.391,-32.715,-42.480,0.000
1709141679.738,-34.180,-31.250,-23.926,-40.527,0.000
1709141679.742,-31.738,-34.668,-20.020,-38.086,0.000
1709141679.746,-31.738,-38.086,-26.855,-41.016,0.000
1709141679.749,-31.738,-34.180,-39.551,-42.969,0.000
1709141679.753,-28.809,-29.297,-45.410,-46.875,0.000
1709141679.757,-26.855,-24.902,-41.992,-48.828,0.000
1709141679.761,-25.391,-20.020,-33.691,-39.551,0.000
1709141679.765,-24.902,-24.414,-31.738,-34.668,0.000
1709141679.769,-28.320,-24.902,-38.574,-29.785,0.000
1709141679.773,-34.668,-32.227,-37.109,-30.762,0.000
1709141679.777,-41.504,-43.945,-31.738,-37.598,0.000
1709141679.781,-41.016,-42.969,-33.691,-40.039,0.000
1709141679.785,-41.992,-42.480,-32.227,-45.898,0.000
1709141679.789,-44.434,-51.758,-35.156,-46.387,0.000
1709141679.793,-48.340,-48.828,-48.340,-47.363,0.000
1709141679.797,-47.363,-30.273,-48.340,-44.434,0.000
1709141679.801,-42.480,-36.621,-37.109,-41.992,0.000
1709141679.805,-41.016,-51.270,-31.250,-50.781,0.000
1709141679.809,-41.016,-45.898,-35.156,-53.223,0.000
1709141679.813,-44.434,-41.504,-36.621,-56.641,0.000
1709141679.816,-50.293,-39.551,-33.203,-58.594,0.000
1709141679.821,-50.781,-41.016,-54.199,-53.711,0.000
1709141679.825,-52.246,-43.457,-48.828,-47.363,0.000
1709141679.829,-49.316,-45.410,-29.785,-50.293,0.000
1709141679.833,-46.387,-39.062,-35.645,-60.059,0.000
1709141679.836,-45.410,-38.574,-44.434,-57.129,0.000
1709141679.840,-44.434,-49.316,-35.156,-50.293,0.000
1709141679.844,-46.875,-41.992,-30.762,-49.805,0.000
1709141679.848,-51.270,-38.086,-45.898,-48.828,0.000
1709141679.852,-41.504,-49.805,-37.598,-39.551,0.000
1709141679.856,-33.203,-39.062,-28.320,-40.039,0.000
1709141679.860,-33.691,-33.691,-34.180,-47.852,0.000
1709141679.864,-43.457,-47.852,-41.504,-56.152,0.000
1709141679.867,-52.734,-42.969,-47.852,-60.059,0.000
1709141679.871,-46.387,-41.504,-44.434,-56.641,0.000
1709141679.875,-45.898,-37.598,-41.504,-59.082,0.000
1709141679.879,-53.223,-31.738,-32.227,-56.152,0.000
1709141679.883,-52.734,-39.062,-30.273,-42.969,0.000
1709141679.887,-41.504,-60.059,-37.598,-48.828,0.000
1709141679.891,-35.645,-60.547,-34.180,-57.129,0.000
1709141679.895,-49.316,-48.828,-28.809,-48.340,0.000
1709141679.899,-55.176,-40.527,-31.738,-49.805,0.000
1709141679.903,-47.363,-35.645,-43.457,-52.734,0.000
1709141679.906,-40.527,-37.598,-43.457,-39.551,0.000
1709141679.910,-47.852,-37.598,-43.945,-39.551,0.000
1709141679.914,-47.852,-41.016,-43.945,-46.387,0.000
1709141679.917,-44.922,-37.598,-23.926,-41.504,0.000
1709141679.921,-50.781,-39.551,-38.574,-35.645,0.000
1709141679.925,-41.504,-47.363,-49.805,-35.645,0.000
1709141679.929,-32.715,-41.992,-30.762,-40.527,0.000
1709141679.933,-39.551,-38.086,-29.785,-42.969,0.000
1709141679.937,-41.992,-45.898,-37.598,-52.734,0.000
1709141679.941,-34.180,-49.316,-38.574,-44.434,0.000
1709141679.945,-23.926,-34.180,-41.016,-29.297,0.000
1709141679.949,-20.996,-33.691,-47.852,-44.922,0.000
1709141679.953,-18.066,-37.598,-38.086,-60.547,0.000
1709141679.956,-21.973,-38.574,-38.574,-48.828,0.000
1709141679.959,-31.250,-35.645,-36.133,-41.992,0.000
1709141679.963,-24.902,-37.598,-32.227,-42.480,0.000
1709141679.967,-24.902,-42.969,-33.203,-39.062,0.000
1709141679.971,-39.551,-32.227,-31.738,-41.016,0.000
1709141679.975,-35.645,-37.109,-40.527,-36.133,0.000
1709141679.979,-28.320,-34.668,-35.645,-32.227,0.000
1709141679.983,-33.203,-23.438,-27.832,-27.832,0.000
1709141679.987,-34.668,-27.832,-37.598,-31.738,0.000
1709141679.991,-31.250,-28.809,-32.227,-43.945,0.000
1709141679.995,-44.434,-30.273,-12.695,-41.016,0.000
1709141679.999,-53.223,-32.715,-21.484,-38.574,0.000
1709141680.002,-42.480,-31.738,-30.762,-39.062,0.000
1709141680.005,0.000,-33.691,-26.367,-40.527,0.000
1709141680.009,0.000,-39.062,-27.832,-39.062,0.000
1709141680.013,0.000,-40.039,-30.273,-40.039,0.000
1709141680.017,0.000,-43.457,-28.320,-41.016,0.000
1709141680.021,0.000,-47.363,-38.574,-27.344,0.000
1709141680.025,0.000,-38.086,-47.363,-32.227,0.000
1709141680.029,0.000,-33.691,-41.016,-40.527,0.000
1709141680.033,0.000,-30.273,-34.668,-40.527,0.000
1709141680.037,0.000,-31.250,-33.203,-47.363,0.000
1709141680.040,0.000,-38.574,-35.645,-29.785,0.000
1709141680.044,0.000,-49.805,-35.645,-25.391,0.000
1709141680.048,0.000,-54.199,-37.109,-39.551,0.000
1709141680.051,-24.414,-50.293,-31.250,-35.645,0.000
1709141680.055,-39.062,-43.457,-28.320,-32.227,0.000
1709141680.059,-40.039,-39.551,-39.062,-38.574,0.000
1709141680.063,-28.809,-42.480,-43.457,-45.410,0.000
1709141680.067,-25.391,-32.715,-49.805,-41.992,0.000
1709141680.070,-31.738,-41.504,-57.617,-30.762,0.000
1709141680.074,-30.273,-41.992,-46.875,-29.785,0.000
1709141680.078,-38.086,-27.832,-38.086,-43.457,0.000
1709141680.082,-37.598,-29.297,-32.227,-47.363,0.000
1709141680.086,-30.762,-36.133,-45.898,-45.410,0.000
1709141680.090,-32.227,-39.551,-49.316,-52.734,0.000
1709141680.094,-35.156,-31.738,-28.809,-52.246,0.000
1709141680.099,-39.062,-36.621,-26.367,-51.758,0.000
1709141680.103,-39.551,-45.410,-41.504,-52.246,0.000
1709141680.107,-46.875,-40.039,-54.199,-47.363,0.000
1709141680.111,-46.387,-34.668,-45.898,-43.945,0.000
1709141680.115,-41.016,-36.621,-36.133,-36.133,0.000
1709141680.119,-36.621,-44.434,-43.457,-40.039,0.000
1709141680.123,-33.203,-39.551,-47.363,-43.457,0.000
1709141680.127,-39.551,-28.809,-32.227,-41.504,0.000
1709141680.131,-42.480,-26.367,-32.227,-44.434,0.000
1709141680.134,-35.645,-32.715,-41.504,-40.527,0.000
1709141680.138,-31.738,-37.598,-40.039,-45.898,0.000
1709141680.142,-30.273,-31.738,-50.293,-47.852,0.000
1709141680.147,-18.555,-35.156,-41.992,-39.062,0.000
1709141680.151,-20.996,-42.969,-26.367,-43.945,0.000
1709141680.155,-35.645,-40.039,-39.551,-54.199,0.000
1709141680.159,-32.227,-30.273,-46.875,-58.594,0.000
1709141680.163,-25.879,-39.551,-40.039,-51.758,0.000
1709141680.167,-20.508,-41.504,-52.246,-41.504,0.000
1709141680.171,-23.438,-32.715,-51.758,-53.223,0.000
1709141680.174,-29.785,-41.992,-32.227,-58.594,0.000
1709141680.178,-41.504,-42.969,-38.086,-42.969,0.000
1709141680.182,-45.410,-32.227,-45.898,-31.250,0.000
1709141680.186,-34.668,-32.715,-41.016,-45.898,0.000
1709141680.190,-27.832,-42.480,-40.527,-60.547,0.000
1709141680.194,-30.762,-41.016,-50.293,-60.059,0.000
1709141680.198,-37.109,-31.250,-50.781,-48.828,0.000
1709141680.202,-43.945,-32.715,-30.273,-34.180,0.000
1709141680.206,-42.480,-44.434,-30.762,-36.621,0.000
1709141680.210,-42.480,-45.410,-44.922,-51.270,0.000
1709141680.214,-44.922,-42.480,-41.016,-53.223,0.000
1709141680.218,-44.922,-44.434,-30.273,-45.410,0.000
1709141680.222,-42.480,-47.852,-40.527,-38.086,0.000
1709141680.226,-47.852,-55.664,-44.434,-29.297,0.000
1709141680.230,-46.875,-49.805,-29.297,-40.527,0.000
1709141680.233,-38.086,-36.133,-30.762,-55.176,0.000
1709141680.237,-41.016,-33.203,-42.480,-53.223,0.000
1709141680.241,-38.574,-26.367,-39.551,-48.828,0.000
1709141680.245,-35.156,-25.879,-34.668,-40.527,0.000
1709141680.249,-36.133,-37.109,-45.898,-41.016,0.000
1709141680.253,-43.457,-37.109,-41.992,-56.641,0.000
1709141680.257,-53.711,-41.016,-33.691,-60.547,0.000
1709141680.261,-51.758,-46.387,-34.180,-43.457,0.000
1709141680.265,-42.480,-44.434,-32.715,-37.598,0.000
1709141680.268,-33.691,-46.387,-32.715,-31.738,0.000
1709141680.272,-30.273,-38.574,-32.715,-30.273,0.000
1709141680.276,-33.691,-34.668,-33.691,-44.922,0.000
1709141680.280,-35.645,-41.504,-34.180,-48.828,0.000
1709141680.284,-35.156,-36.133,-37.598,-41.992,0.000
1709141680.287,-37.598,-26.855,-41.992,-38.574,0.000
1709141680.291,-44.434,-40.039,-41.016,-49.316,0.000
1709141680.295,-45.410,-43.945,-43.457,-46.387,0.000
1709141680.299,-43.945,-37.598,-46.875,-39.062,0.000
1709141680.303,-39.062,-37.598,-50.781,-37.598,0.000
1709141680.307,-36.621,-34.668,-35.156,-44.434,0.000
1709141680.311,-43.945,-34.180,-21.484,-53.711,0.000
1709141680.315,-47.363,-32.715,-23.926,-45.410,0.000
1709141680.319,-48.340,-34.180,-36.133,-38.574,0.000
1709141680.322,-47.363,-35.156,-45.410,-37.598,0.000
1709141680.326,-43.945,-36.621,-18.555,-34.668,0.000
1709141680.330,-41.504,-39.062,-8.789,-43.945,0.000
1709141680.333,-37.109,-39.062,-25.391,-53.223,0.000
1709141680.337,-32.715,-36.133,-33.691,-49.805,0.000
1709141680.341,-29.785,-39.062,-38.086,-38.086,0.000
1709141680.345,-39.062,-40.039,-31.738,-35.645,0.000
1709141680.349,-42.969,-45.410,-24.414,-44.434,0.000
1709141680.353,-43.945,-47.852,-25.879,-50.781,0.000
1709141680.357,-52.734,-46.387,-31.738,-52.246,0.000
1709141680.361,-53.711,-45.410,-39.062,-53.223,0.000
1709141680.365,-50.781,-39.551,-41.992,-57.129,0.000
1709141680.369,-46.387,-37.598,-42.480,-58.105,0.000
1709141680.373,-45.898,-39.062,-41.992,-56.641,0.000
1709141680.376,-46.875,-47.363,-42.969,-54.688,0.000
1709141680.379,-43.457,-49.316,-38.574,-49.316,0.000
1709141680.383,-41.992,-46.387,-32.227,-46.387,0.000
1709141680.387,-40.527,-50.293,-33.691,-49.805,0.000
1709141680.391,-37.598,-46.875,-43.945,-53.223,0.000
1709141680.395,-36.621,-34.668,-42.969,-56.152,0.000
1709141680.399,-33.691,-32.227,-35.156,-54.688,0.000
1709141680.403,-32.227,-38.086,-45.898,-37.109,0.000
1709141680.407,-36.133,-44.922,-50.293,-41.016,0.000
1709141680.411,-42.480,-51.270,-39.062,-48.828,0.000
1709141680.415,-42.480,-50.293,-42.480,-49.805,0.000
1709141680.419,-41.504,-36.621,-48.828,-52.734,0.000
1709141680.422,-35.645,-33.691,-35.156,-48.340,0.000
1709141680.425,-25.879,-37.598,-20.508,-42.480,0.000
1709141680.429,-29.785,-32.227,-26.855,-33.203,0.000
1709141680.433,-35.156,-30.762,-36.621,-36.621,0.000
1709141680.437,-33.691,-38.574,-32.715,-31.738,0.000
1709141680.441,-31.250,-42.480,-31.738,-38.086,0.000
1709141680.445,-28.320,-37.598,-37.109,-41.992,0.000
1709141680.449,-35.645,-36.621,-41.992,-38.574,0.000
1709141680.453,-42.480,-32.715,-35.156,-45.410,0.000
1709141680.456,-44.922,-36.621,-36.133,-41.504,0.000
1709141680.460,-49.805,-42.480,-37.598,-41.992,0.000
1709141680.464,-45.410,-42.480,-33.691,-44.434,0.000
1709141680.468,-41.992,-51.270,-39.551,-36.621,0.000
1709141680.474,-46.875,-52.246,-40.527,-41.016,0.000
1709141680.477,-49.805,-38.086,-38.086,-52.734,0.000
1709141680.481,-46.387,-31.250,-40.039,-50.293,0.000
1709141680.485,-41.992,-36.621,-47.852,-48.340,0.000
1709141680.489,-40.039,-37.109,-50.293,-55.664,0.000
1709141680.493,-38.086,-28.320,-61.035,-58.105,0.000
1709141680.497,-41.016,-25.391,-51.758,-54.688,0.000
1709141680.501,-47.363,-38.086,-39.062,-58.594,0.000
1709141680.505,-45.898,-45.898,-41.016,-59.082,0.000
1709141680.509,-46.875,-42.969,-40.527,-59.082,0.000
1709141680.513,-43.945,-40.527,-45.410,-65.430,0.000
1709141680.517,-36.621,-40.527,-44.922,-52.734,0.000
1709141680.522,-39.062,-49.316,-41.504,-37.109,0.000
1709141680.525,-34.180,-53.711,-54.688,-38.574,0.000
1709141680.529,-38.574,-49.316,-57.129,-43.945,0.000
1709141680.533,-42.480,-54.199,-38.574,-33.203,0.000
1709141680.537,-40.039,-50.293,-40.527,-28.809,0.000
1709141680.541,-33.203,-40.039,-45.898,-33.691,0.000
1709141680.545,-28.320,-33.203,-41.504,-34.180,0.000
1709141680.549,-34.668,-35.645,-38.574,-38.574,0.000
1709141680.553,-37.598,-45.898,-38.574,-40.527,0.000
1709141680.557,-41.992,-42.969,-41.016,-34.180,0.000
1709141680.561,-43.457,-46.875,-41.504,-43.457,0.000
1709141680.564,-44.434,-60.059,-41.016,-50.781,0.000
1709141680.569,-46.875,-49.316,-43.945,-52.734,0.000
1709141680.573,-44.922,-43.457,-46.387,-51.270,0.000
1709141680.577,-44.434,-42.480,-51.758,-48.828,0.000
1709141680.580,-42.480,-34.668,-52.734,-45.898,0.000
1709141680.584,-32.227,-41.992,-35.645,-33.691,0.000
1709141680.588,-36.621,-51.270,-20.508,-34.668,0.000
1709141680.592,-43.457,-32.715,-29.785,-51.270,0.000
1709141680.596,-43.457,-26.367,-40.039,-49.805,0.000
1709141680.600,-41.992,-37.109,-34.180,-40.039,0.000
1709141680.604,-38.574,-39.551,-36.133,-46.875,0.000
1709141680.608,-39.062,-39.551,-34.668,-43.945,0.000
1709141680.612,-35.156,-36.621,-33.203,-39.062,0.000
1709141680.616,-26.367,-37.598,-35.645,-34.668,0.000
1709141680.620,-29.785,-33.203,-33.691,-36.133,0.000
1709141680.623,-27.344,-32.715,-29.297,-33.203,0.000
1709141680.627,-20.020,-40.527,-31.738,-30.762,0.000
1709141680.631,-35.156,-33.203,-43.457,-41.016,0.000
1709141680.635,-46.387,-34.180,-45.410,-36.133,0.000
1709141680.639,-44.434,-32.227,-39.062,-27.344,0.000
1709141680.643,-40.039,-38.086,-37.109,-14.648,0.000
1709141680.647,-38.086,-52.246,-47.363,-12.695,0.000
1709141680.651,-41.016,-43.457,-45.410,-30.762,0.000
1709141680.655,-38.086,-41.016,-39.062,-36.133,0.000
1709141680.659,-38.086,-39.551,-41.992,-34.668,0.000
1709141680.662,-43.945,-37.109,-36.621,-37.598,0.000
1709141680.666,-32.227,-47.852,-33.691,-39.062,0.000
1709141680.670,-39.062,-50.781,-29.297,-47.852,0.000
1709141680.674,-54.688,-42.480,-42.480,-54.199,0.000
1709141680.678,-54.199,-37.598,-55.664,-56.152,0.000
1709141680.682,-53.711,-40.039,-45.410,-58.105,0.000
1709141680.686,-44.922,-39.062,-40.527,-61.035,0.000
1709141680.690,-47.852,-42.969,-38.574,-58.594,0.000
1709141680.693,-54.199,-44.922,-41.504,-56.152,0.000
1709141680.697,-49.805,-43.457,-42.969,-55.664,0.000
1709141680.701,-41.016,-41.992,-35.156,-42.969,0.000
1709141680.705,-43.457,-34.668,-39.551,-42.480,0.000
1709141680.708,-43.945,-36.621,-33.691,-42.480,0.000
1709141680.712,-38.574,-51.270,-28.320,-32.227,0.000
1709141680.716,-36.621,-50.293,-29.785,-31.738,0.000
1709141680.720,-39.062,-38.086,-20.508,-32.227,0.000
1709141680.724,-39.551,-37.109,-26.855,-34.180,0.000
1709141680.728,-32.715,-29.297,-38.086,-43.457,0.000
1709141680.732,-38.086,-35.645,-34.180,-35.645,0.000
1709141680.736,-42.480,-49.805,-36.621,-28.809,0.000
1709141680.740,-32.227,-43.945,-49.316,-34.180,0.000
1709141680.744,-31.250,-39.551,-48.828,-30.762,0.000
1709141680.748,-33.691,-42.969,-40.527,-33.691,0.000
1709141680.751,-25.879,-48.340,-37.598,-41.992,0.000
1709141680.755,0.000,-41.992,-39.062,-47.852,0.000
1709141680.759,0.000,-40.039,-35.645,-45.410,0.000
1709141680.762,0.000,-51.270,-32.227,-43.945,0.000
1709141680.766,0.000,-52.246,-40.039,-38.086,0.000
1709141680.770,0.000,-48.828,-44.434,-32.227,0.000
1709141680.774,0.000,-42.480,-41.016,-34.180,0.000
1709141680.778,0.000,-41.504,-29.785,-36.621,0.000
1709141680.782,0.000,-35.645,-32.715,-38.574,0.000
1709141680.786,0.000,-35.645,-31.250,-40.527,0.000
1709141680.790,0.000,-38.574,-36.133,-47.852,0.000
1709141680.794,0.000,-37.109,-38.086,-45.410,0.000
1709141680.798,0.000,-49.805,-25.391,-40.527,0.000
1709141680.800,-26.367,-48.828,-23.926,-33.203,0.000
1709141680.804,-29.785,-38.086,-28.320,-25.391,0.000
1709141680.808,-31.250,-36.133,-32.715,-32.227,0.000
1709141680.812,-26.855,-30.273,-35.156,-32.715,0.000
1709141680.816,-26.367,-27.344,-30.762,-27.344,0.000
1709141680.820,-25.391,-30.762,-30.762,-22.461,0.000
1709141680.824,-23.926,-35.156,-45.410,-26.367,0.000
1709141680.828,-30.273,-37.109,-56.152,-33.691,0.000
1709141680.832,-29.297,-43.457,-37.598,-34.180,0.000
1709141680.835,-23.926,-50.781,-18.555,-33.691,0.000
1709141680.839,-20.996,-48.828,-26.367,-33.203,0.000
1709141680.843,-40.039,-37.598,-31.738,-42.480,0.000
1709141680.849,-48.828,-30.273,-32.227,-52.734,0.000
1709141680.853,-38.086,-33.203,-33.691,-51.270,0.000
1709141680.857,-35.645,-32.715,-35.645,-43.945,0.000
1709141680.861,-37.109,-33.203,-41.992,-40.527,0.000
1709141680.865,-35.156,-40.039,-32.227,-41.504,0.000
1709141680.868,-29.297,-36.621,-25.879,-41.504,0.000
1709141680.872,-37.598,-40.527,-43.457,-39.551,0.000
1709141680.876,-37.109,-47.363,-46.387,-32.715,0.000
1709141680.880,-35.645,-47.363,-37.598,-24.902,0.000
1709141680.884,-38.574,-46.387,-33.691,-25.879,0.000
1709141680.888,-29.297,-36.621,-27.344,-34.668,0.000
1709141680.892,-30.762,-33.691,-39.551,-41.504,0.000
1709141680.898,0.000,-34.180,-41.504,-38.086,0.000
1709141680.902,0.000,-40.039,-31.738,-30.762,0.000
1709141680.906,0.000,-42.480,-48.828,-35.645,0.000
1709141680.910,0.000,-29.297,-43.457,-39.551,0.000
1709141680.914,0.000,-30.762,-22.949,-28.809,0.000
1709141680.918,0.000,-41.504,-25.879,-32.715,0.000
1709141680.922,0.000,-36.133,-32.227,-44.922,0.000
1709141680.926,0.000,-26.855,-31.250,-35.645,0.000
1709141680.930,0.000,-31.738,-29.297,-28.320,0.000
1709141680.933,0.000,-37.109,-35.156,-35.156,0.000
1709141680.937,0.000,-32.227,-43.945,-50.293,0.000
1709141680.941,0.000,-41.504,-42.480,-46.875,0.000
1709141680.945,-37.598,-45.898,-41.992,-42.969,0.000
1709141680.949,-40.527,-36.133,-38.574,-49.805,0.000
1709141680.953,-43.457,-43.945,-43.945,-50.293,0.000
1709141680.957,-40.039,-49.316,-48.340,-54.688,0.000
1709141680.961,-44.922,-56.152,-36.133,-55.664,0.000
1709141680.965,-45.898,-50.293,-37.109,-42.480,0.000
1709141680.969,-47.363,-31.250,-42.480,-41.016,0.000
1709141680.973,-55.176,-30.273,-44.434,-47.363,0.000
1709141680.977,-52.246,-38.574,-35.156,-36.133,0.000
1709141680.980,-49.805,-39.062,-31.250,-41.992,0.000
1709141680.984,-43.457,-35.645,-42.480,-50.293,0.000
1709141680.988,-40.527,-42.969,-40.527,-43.945,0.000
1709141680.992,-41.016,-42.969,-29.785,-49.805,0.000
1709141680.996,-28.809,-41.016,-32.715,-44.434,0.000
1709141681.000,-23.926,-46.387,-37.598,-36.621,0.000
1709141681.004,-31.738,-35.645,-30.762,-34.180,0.000
1709141681.007,-41.504,-30.762,-28.320,-32.227,0.000
1709141681.011,-43.457,-36.621,-35.156,-39.062,0.000
1709141681.015,-39.062,-43.457,-36.133,-39.062,0.000
1709141681.019,-31.738,-47.852,-26.367,-28.809,0.000
1709141681.023,-34.180,-46.387,-31.250,-19.043,0.000
1709141681.027,-42.480,-39.551,-45.410,-34.668,0.000
1709141681.031,-39.551,-33.691,-40.527,-45.898,0.000
1709141681.035,-38.086,-33.203,-46.875,-47.363,0.000
1709141681.038,-39.062,-36.621,-54.199,-53.223,0.000
1709141681.042,-38.086,-42.969,-37.109,-49.805,0.000
1709141681.046,-43.457,-49.805,-33.203,-50.781,0.000
1709141681.050,-39.062,-51.270,-46.387,-63.965,0.000
1709141681.054,-35.156,-38.086,-50.781,-66.406,0.000
1709141681.058,-51.270,-34.180,-51.270,-65.918,0.000
1709141681.062,-55.176,-34.180,-54.688,-55.176,0.000
1709141681.065,-47.852,-39.551,-44.922,-37.109,0.000
1709141681.069,-50.293,-47.852,-27.344,-55.176,0.000
1709141681.073,-58.105,-41.504,-32.715,-66.895,0.000
1709141681.077,-50.293,-40.527,-43.945,-55.664,0.000
1709141681.081,-39.551,-38.574,-44.434,-51.270,0.000
1709141681.084,-45.410,-30.273,-38.574,-53.711,0.000
1709141681.088,-48.828,-38.574,-28.809,-47.852,0.000
1709141681.092,-46.387,-46.875,-27.832,-44.434,0.000
1709141681.096,-43.457,-37.598,-33.203,-48.340,0.000
1709141681.100,-38.574,-39.062,-40.039,-46.875,0.000
1709141681.104,-32.227,-40.039,-41.992,-43.457,0.000
1709141681.107,-35.156,-37.109,-46.875,-32.715,0.000
1709141681.111,-34.180,-35.645,-58.105,-31.738,0.000
1709141681.115,-34.668,-30.762,-54.688,-44.434,0.000
1709141681.119,-35.156,-49.316,-35.156,-48.828,0.000
1709141681.123,-29.297,-53.223,-24.414,-63.477,0.000
1709141681.127,-35.645,-29.785,-29.297,-58.594,0.000
1709141681.130,-45.410,-29.297,-35.645,-54.688,0.000
1709141681.134,-38.574,-38.086,-33.203,-57.617,0.000
1709141681.138,-32.715,-42.480,-34.668,-44.434,0.000
1709141681.142,-39.551,-36.621,-38.574,-39.551,0.000
1709141681.146,-33.691,-30.273,-32.715,-38.086,0.000
1709141681.150,-22.461,-36.621,-31.738,-46.875,0.000
1709141681.154,-22.949,-37.598,-52.734,-40.039,0.000
1709141681.157,-28.809,-38.086,-59.082,-26.367,0.000
1709141681.161,-26.367,-41.016,-30.273,-27.832,0.000
1709141681.165,-18.555,-45.898,-22.461,-31.738,0.000
1709141681.169,-18.066,-41.504,-35.156,-33.203,0.000
1709141681.173,-31.738,-30.762,-40.039,-38.574,0.000
1709141681.179,-41.992,-34.180,-35.156,-47.852,0.000
1709141681.182,-40.039,-33.203,-33.203,-42.969,0.000
1709141681.186,-36.133,-32.715,-31.250,-40.527,0.000
1709141681.190,-41.992,-47.852,-29.297,-34.668,0.000
1709141681.194,-50.293,-51.270,-31.738,-31.250,0.000
1709141681.198,-48.340,-43.945,-36.621,-28.809,0.000
1709141681.202,-45.410,-41.504,-36.621,-22.949,0.000
1709141681.206,-41.016,-35.156,-38.086,-30.273,0.000
1709141681.210,-41.992,-33.203,-37.109,-41.504,0.000
1709141681.214,-34.668,-33.203,-18.555,-34.668,0.000
1709141681.218,-29.297,-39.062,-18.066,-29.297,0.000
1709141681.221,-30.273,-41.016,-33.691,-37.598,0.000
1709141681.226,-27.832,-38.086,-40.527,-40.527,0.000
1709141681.230,-31.250,-32.715,-39.551,-35.156,0.000
1709141681.234,-30.273,-39.551,-31.738,-41.992,0.000
1709141681.238,-32.227,-47.852,-43.457,-46.875,0.000
1709141681.242,-32.715,-33.203,-46.875,-36.133,0.000
1709141681.246,-35.645,-31.738,-30.273,-40.527,0.000
1709141681.250,-30.273,-37.109,-34.668,-50.781,0.000
1709141681.254,-24.414,-34.668,-39.551,-51.270,0.000
1709141681.258,-24.414,-33.691,-20.996,-47.852,0.000
1709141681.261,-32.227,-37.109,-20.996,-43.945,0.000
1709141681.265,-33.691,-42.480,-34.180,-40.039,0.000
1709141681.269,-21.484,-45.898,-30.762,-38.574,0.000
1709141681.274,-26.367,-43.945,-23.926,-41.504,0.000
1709141681.278,-33.203,-38.574,-26.855,-51.270,0.000
1709141681.282,-28.809,-45.410,-31.738,-47.852,0.000
1709141681.285,-31.250,-56.641,-38.574,-43.457,0.000
1709141681.289,-39.062,-51.758,-49.316,-46.387,0.000
1709141681.293,-32.227,-40.527,-56.152,-44.922,0.000
1709141681.297,-20.996,-35.156,-52.734,-52.246,0.000
1709141681.301,-34.668,-42.480,-32.715,-56.641,0.000
1709141681.305,-46.875,-47.363,-24.414,-42.480,0.000
1709141681.309,-50.781,-40.039,-40.039,-41.504,0.000
1709141681.313,-49.316,-41.016,-50.781,-57.129,0.000
1709141681.317,-43.945,-41.016,-41.504,-54.199,0.000
1709141681.321,-43.457,-41.016,-28.809,-44.434,0.000
1709141681.324,-42.969,-39.062,-29.297,-40.527,0.000
1709141681.328,-48.340,-33.203,-43.945,-41.992,0.000
1709141681.332,-50.293,-32.715,-35.645,-46.387,0.000
1709141681.336,-47.363,-32.715,-18.066,-49.316,0.000
1709141681.340,-54.199,-39.551,-28.320,-47.852,0.000
1709141681.344,-52.246,-44.922,-38.086,-40.527,0.000
1709141681.348,-51.758,-44.434,-41.992,-40.039,0.000
1709141681.352,-48.828,-42.969,-37.598,-32.227,0.000
1709141681.356,-48.340,-45.898,-35.645,-37.109,0.000
1709141681.360,-56.641,-46.387,-37.109,-63.477,0.000
1709141681.363,-54.199,-37.598,-44.922,-63.965,0.000
1709141681.367,-40.527,-30.762,-37.109,-51.270,0.000
1709141681.371,-38.086,-32.227,-17.090,-53.223,0.000
1709141681.375,-47.363,-38.574,-24.902,-61.035,0.000
1709141681.379,-41.016,-43.457,-41.504,-61.523,0.000
1709141681.383,-42.969,-43.945,-38.086,-55.664,0.000
1709141681.387,-38.574,-36.133,-27.832,-49.316,0.000
1709141681.390,-23.926,-33.203,-34.180,-48.828,0.000
1709141681.394,-25.879,-34.668,-44.922,-46.875,0.000
1709141681.398,-28.809,-28.320,-39.551,-44.434,0.000
1709141681.402,-30.273,-35.156,-31.738,-45.898,0.000
1709141681.406,-30.273,-50.781,-44.434,-38.574,0.000
1709141681.410,-38.574,-42.969,-34.180,-43.457,0.000
1709141681.413,-51.758,-35.645,-16.113,-50.293,0.000
1709141681.417,-53.223,-35.156,-22.949,-50.293,0.000
1709141681.421,-40.039,-38.086,-22.949,-39.062,0.000
1709141681.425,-35.645,-47.363,-24.414,-26.367,0.000
1709141681.429,-41.016,-43.457,-27.344,-29.785,0.000
1709141681.433,-47.852,-37.598,-23.438,-44.922,0.000
1709141681.437,-45.410,-35.645,-25.879,-45.410,0.000
1709141681.441,-32.227,-31.738,-22.461,-22.461,0.000
1709141681.445,-36.621,-25.391,-19.043,-10.254,0.000
1709141681.449,-38.086,-22.949,-27.344,-24.414,0.000
1709141681.452,-34.180,-33.203,-29.785,-28.809,0.000
1709141681.456,-34.668,-34.180,-37.598,-28.320,0.000
1709141681.459,-44.922,-37.109,-46.387,-36.133,0.000
1709141681.463,-43.945,-45.898,-42.480,-38.574,0.000
1709141681.467,-31.738,-45.898,-35.645,-39.551,0.000
1709141681.471,-34.180,-49.316,-29.785,-40.527,0.000
1709141681.475,-39.062,-41.504,-36.621,-37.109,0.000
1709141681.479,-41.992,-32.715,-40.039,-40.527,0.000
1709141681.483,-40.527,-38.574,-36.133,-31.250,0.000
1709141681.487,-37.598,-41.504,-41.992,-29.785,0.000
1709141681.491,-32.227,-35.156,-40.039,-45.898,0.000
1709141681.495,-26.855,-31.738,-39.062,-49.316,0.000
1709141681.498,-33.203,-38.574,-39.062,-49.805,0.000
1709141681.502,-33.691,-51.758,-46.387,-44.922,0.000
1709141681.505,-35.645,-53.223,-56.152,-45.898,0.000
1709141681.509,-45.410,-43.945,-56.641,-53.223,0.000
1709141681.513,-45.410,-38.574,-51.270,-49.805,0.000
1709141681.517,-43.457,-36.621,-41.504,-41.504,0.000
1709141681.521,-40.527,-47.852,-29.785,-33.691,0.000
1709141681.525,-32.227,-53.711,-32.227,-34.668,0.000
1709141681.529,-33.691,-45.898,-34.180,-39.062,0.000
1709141681.533,-45.898,-47.363,-36.133,-42.969,0.000
1709141681.537,-49.805,-50.781,-39.062,-46.387,0.000
1709141681.540,-41.992,-45.898,-34.668,-41.016,0.000
1709141681.544,-32.227,-47.363,-34.668,-39.551,0.000
1709141681.548,-32.715,-49.316,-35.156,-44.922,0.000
1709141681.551,-38.574,-44.922,-36.133,-44.922,0.000
1709141681.555,-38.086,-41.504,-47.363,-40.039,0.000
1709141681.559,-37.598,-44.922,-41.016,-40.039,0.000
1709141681.563,-36.133,-41.504,-27.344,-34.668,0.000
1709141681.567,-31.738,-30.273,-35.156,-34.180,0.000
1709141681.570,-26.367,-25.879,-37.109,-30.762,0.000
1709141681.574,-18.066,-28.320,-28.320,-21.484,0.000
1709141681.578,-10.254,-31.250,-25.391,-20.996,0.000
1709141681.582,-3.906,-26.855,-25.879,-16.113,0.000
1709141681.586,-11.719,-28.809,-34.180,-22.949,0.000
1709141681.590,-20.020,-39.062,-41.504,-42.969,0.000
1709141681.594,-19.531,-30.273,-40.527,-45.898,0.000
1709141681.599,-19.531,-15.625,-43.457,-36.621,0.000
1709141681.603,-19.531,-27.344,-52.246,-40.039,0.000
1709141681.607,-33.691,-48.340,-37.109,-44.922,0.000
1709141681.611,-39.551,-44.434,-14.160,-42.969,0.000
1709141681.615,-39.062,-46.387,-20.508,-42.969,0.000
1709141681.619,-41.016,-49.805,-16.113,-41.016,0.000
1709141681.623,-40.527,-35.156,-17.578,-41.016,0.000
1709141681.627,-39.551,-33.203,-31.738,-53.711,0.000
1709141681.631,-35.156,-33.691,-31.250,-50.293,0.000
1709141681.634,-33.691,-32.715,-34.180,-33.691,0.000
1709141681.638,-31.738,-31.250,-39.551,-22.949,0.000
1709141681.642,-32.227,-30.762,-39.062,-27.832,0.000
1709141681.647,-31.738,-41.992,-38.086,-34.180,0.000
1709141681.651,-32.715,-45.898,-31.738,-33.203,0.000
1709141681.655,-37.109,-31.250,-17.090,-38.574,0.000
1709141681.659,-38.574,-27.832,-15.625,-36.133,0.000
1709141681.663,-45.898,-39.062,-32.227,-30.762,0.000
1709141681.667,-41.504,-38.574,-37.598,-36.133,0.000
1709141681.670,-39.062,-33.203,-29.297,-41.992,0.000
1709141681.674,-42.480,-33.691,-24.902,-43.945,0.000
1709141681.678,-40.039,-33.691,-18.066,-31.738,0.000
1709141681.682,-36.133,-24.414,-31.738,-20.508,0.000
1709141681.686,-31.738,-24.902,-44.922,-35.645,0.000
1709141681.690,-30.273,-31.250,-33.691,-46.387,0.000
1709141681.694,-33.691,-32.227,-24.902,-47.852,0.000
1709141681.698,-40.527,-34.668,-29.297,-47.363,0.000
1709141681.702,-37.109,-30.273,-41.016,-44.434,0.000
1709141681.706,-29.785,-30.762,-44.922,-47.852,0.000
1709141681.710,-35.156,-33.203,-39.062,-48.340,0.000
1709141681.714,-36.133,-34.668,-35.645,-51.270,0.000
1709141681.718,-36.133,-40.527,-38.574,-48.340,0.000
1709141681.722,-34.180,-37.109,-36.621,-42.480,0.000
1709141681.726,-32.227,-29.297,-33.203,-36.621,0.000
1709141681.729,-31.738,-26.855,-31.250,-37.109,0.000
1709141681.733,-32.227,-24.902,-35.156,-39.062,0.000
1709141681.737,-39.062,-30.273,-46.387,-36.621,0.000
1709141681.741,-42.969,-32.227,-35.645,-34.180,0.000
1709141681.745,-40.527,-30.273,-29.297,-33.203,0.000
1709141681.749,-41.504,-35.156,-32.715,-40.039,0.000
1709141681.753,-42.480,-41.016,-32.227,-39.551,0.000
1709141681.757,-46.387,-41.504,-39.062,-38.086,0.000
1709141681.761,-43.457,-39.062,-38.086,-34.180,0.000
1709141681.765,-37.109,-37.109,-37.109,-32.715,0.000
1709141681.768,-40.527,-34.668,-38.574,-29.297,0.000
1709141681.772,-52.734,-34.180,-33.203,-30.273,0.000
1709141681.776,-53.223,-30.273,-32.715,-47.363,0.000
1709141681.780,-47.852,-34.668,-31.738,-46.387,0.000
1709141681.784,-45.410,-40.527,-39.551,-44.922,0.000
1709141681.790,-48.340,-37.109,-54.688,-55.176,0.000
1709141681.794,-45.410,-38.086,-41.016,-55.664,0.000
1709141681.798,-35.645,-39.062,-31.250,-52.734,0.000
1709141681.802,-34.180,-37.598,-38.086,-50.781,0.000
1709141681.806,-37.109,-39.062,-37.598,-52.246,0.000
1709141681.810,-37.109,-39.551,-44.922,-56.152,0.000
1709141681.814,-36.621,-40.527,-45.410,-56.641,0.000
1709141681.818,-43.457,-48.828,-36.133,-43.457,0.000
1709141681.822,-48.340,-46.387,-39.062,-46.387,0.000
1709141681.825,-46.875,-48.340,-52.246,-55.664,0.000
1709141681.829,-46.387,-56.641,-41.504,-42.480,0.000
1709141681.833,-44.434,-51.270,-36.621,-41.016,0.000
1709141681.836,-45.898,-42.480,-40.039,-51.758,0.000
1709141681.840,-41.992,-43.945,-31.250,-46.875,0.000
1709141681.844,-37.598,-48.828,-34.180,-41.016,0.000
1709141681.848,-43.945,-43.945,-39.551,-46.387,0.000
1709141681.852,-38.086,-34.668,-38.574,-50.293,0.000
1709141681.855,-30.762,-36.133,-38.574,-51.758,0.000
1709141681.859,-32.227,-45.898,-38.086,-48.340,0.000
1709141681.863,-32.715,-38.086,-35.156,-44.434,0.000
1709141681.867,-38.086,-28.320,-41.992,-43.945,0.000
1709141681.871,-41.504,-36.621,-50.293,-47.852,0.000
1709141681.875,-36.621,-43.457,-42.480,-39.062,0.000
1709141681.879,-37.109,-45.410,-29.785,-27.344,0.000
1709141681.881,-36.621,-43.945,-30.762,-36.621,0.000
1709141681.885,-37.109,-42.480,-29.297,-38.574,0.000
1709141681.889,-35.645,-42.969,-23.926,-45.898,0.000
1709141681.893,-29.297,-43.945,-30.762,-50.781,0.000
1709141681.897,-25.391,-41.992,-33.691,-38.086,0.000
1709141681.901,-20.996,-32.227,-35.156,-28.809,0.000
1709141681.905,-25.879,-29.297,-39.062,-26.367,0.000
1709141681.909,-28.809,-32.715,-36.133,-23.926,0.000
1709141681.913,-23.926,-40.039,-34.668,-31.250,0.000
1709141681.917,-28.809,-44.434,-45.410,-39.551,0.000
1709141681.921,-33.203,-34.180,-42.480,-39.551,0.000
1709141681.924,-31.250,-32.227,-31.738,-30.273,0.000
1709141681.928,-31.738,-39.551,-38.574,-35.645,0.000
1709141681.931,-35.645,-40.527,-41.016,-47.363,0.000
1709141681.935,-36.621,-50.781,-34.180,-44.434,0.000
1709141681.939,-34.668,-41.992,-27.832,-41.992,0.000
1709141681.943,-40.527,-35.645,-31.250,-49.805,0.000
1709141681.947,-39.062,-43.945,-42.969,-52.734,0.000
1709141681.951,-42.969,-40.039,-50.293,-53.711,0.000
1709141681.955,-49.805,-40.039,-40.527,-54.688,0.000
1709141681.959,-43.945,-42.969,-30.762,-51.270,0.000
1709141681.963,-39.551,-42.480,-32.715,-42.480,0.000
1709141681.967,-45.898,-38.086,-37.598,-41.992,0.000
1709141681.971,-50.293,-33.691,-45.410,-56.641,0.000
1709141681.976,-46.875,-38.574,-41.504,-49.316,0.000
1709141681.980,-42.480,-42.969,-27.344,-36.621,0.000
1709141681.983,-53.223,-42.480,-25.391,-40.527,0.000
1709141681.987,-45.898,-41.016,-29.785,-37.598,0.000
1709141681.991,-33.203,-43.457,-25.879,-39.062,0.000
1709141681.995,-37.598,-40.527,-23.438,-41.504,0.000
1709141681.999,-36.621,-37.109,-26.855,-34.180,0.000
1709141682.003,-37.598,-44.922,-34.180,-41.992,0.000
1709141682.007,-31.738,-46.875,-46.387,-44.922,0.000
1709141682.011,-24.902,-39.062,-41.016,-28.809,0.000
1709141682.015,-24.414,-35.645,-39.062,-33.691,0.000
1709141682.019,-26.367,-37.109,-43.945,-43.945,0.000
1709141682.023,-27.832,-48.340,-37.598,-38.574,0.000
1709141682.027,-23.926,-44.434,-35.156,-28.809,0.000
1709141682.031,-20.020,-38.574,-30.762,-37.598,0.000
1709141682.035,-28.320,-43.945,-27.832,-50.293,0.000
1709141682.039,-37.109,-39.551,-37.109,-50.293,0.000
1709141682.043,-33.691,-35.645,-44.434,-40.039,0.000
1709141682.047,-30.762,-30.273,-41.016,-37.598,0.000
1709141682.050,-34.668,-37.109,-34.668,-47.852,0.000
1709141682.054,-34.180,-47.363,-37.109,-42.480,0.000
1709141682.058,-34.668,-40.039,-39.062,-39.551,0.000
1709141682.062,-36.621,-32.715,-41.992,-51.270,0.000
1709141682.066,-34.668,-37.109,-40.039,-55.176,0.000
1709141682.070,-34.668,-47.363,-34.180,-46.875,0.000
1709141682.074,-41.992,-41.992,-37.109,-48.828,0.000
1709141682.078,-48.828,-36.621,-35.156,-50.293,0.000
1709141682.082,-46.875,-44.434,-33.691,-45.410,0.000
1709141682.086,-43.945,-46.387,-46.875,-39.551,0.000
1709141682.090,-43.945,-38.574,-47.852,-40.527,0.000
1709141682.094,-41.992,-31.738,-35.156,-46.387,0.000
1709141682.097,-33.203,-42.969,-29.297,-46.387,0.000
1709141682.101,-29.297,-55.176,-32.227,-42.969,0.000
1709141682.105,-34.180,-48.340,-35.156,-46.387,0.000
1709141682.109,-43.945,-41.992,-32.715,-57.129,0.000
1709141682.113,-47.363,-30.273,-32.227,-45.898,0.000
1709141682.117,-41.016,-33.203,-30.273,-37.598,0.000
1709141682.121,-37.109,-51.270,-36.133,-44.434,0.000
1709141682.124,-35.645,-44.434,-42.969,-49.316,0.000
1709141682.128,-43.945,-30.762,-47.852,-53.711,0.000
1709141682.132,-44.434,-36.133,-41.992,-58.105,0.000
1709141682.136,-35.645,-41.992,-42.969,-53.711,0.000
1709141682.140,-32.715,-41.992,-54.199,-52.246,0.000
1709141682.144,-32.227,-43.945,-42.969,-46.875,0.000
1709141682.148,-29.297,-37.109,-34.180,-37.598,0.000
1709141682.152,-28.809,-31.250,-35.645,-44.922,0.000
1709141682.156,-33.203,-39.062,-38.086,-48.828,0.000
1709141682.160,-40.527,-38.086,-35.645,-52.246,0.000
1709141682.163,0.000,-36.133,-33.203,-48.828,0.000
1709141682.167,0.000,-42.969,-42.969,-54.199,0.000
1709141682.171,0.000,-36.133,-43.945,-59.082,0.000
1709141682.175,0.000,-32.227,-45.410,-62.988,0.000
1709141682.179,0.000,-44.922,-36.621,-60.059,0.000
1709141682.183,0.000,-51.758,-34.668,-53.223,0.000
1709141682.187,0.000,-45.410,-36.621,-47.852,0.000
1709141682.191,0.000,-53.223,-39.062,-34.180,0.000
1709141682.194,0.000,-56.152,-51.758,-34.180,0.000
1709141682.198,0.000,-41.992,-38.574,-37.109,0.000
1709141682.202,0.000,-36.133,-36.621,-26.367,0.000
1709141682.206,0.000,-37.598,-41.504,-27.832,0.000
1709141682.209,-27.344,-40.039,-37.598,-42.969,0.000
1709141682.213,-28.320,-41.504,-41.992,-40.527,0.000
1709141682.217,-31.250,-42.480,-40.039,-28.809,0.000
1709141682.221,-36.133,-54.688,-32.227,-26.367,0.000
1709141682.225,-42.969,-59.082,-32.715,-32.715,0.000
1709141682.229,-47.363,-44.434,-38.574,-39.551,0.000
1709141682.233,-50.293,-42.480,-37.109,-36.133,0.000
1709141682.237,-54.199,-42.969,-32.715,-34.668,0.000
1709141682.240,-53.711,-39.551,-27.344,-41.992,0.000
1709141682.244,-45.898,-40.039,-46.387,-39.551,0.000
1709141682.248,-39.551,-46.875,-58.105,-38.574,0.000
1709141682.252,-40.527,-57.129,-46.875,-39.551,0.000
1709141682.258,-46.875,-41.992,-41.504,-40.527,0.000
1709141682.262,-51.270,-41.016,-27.344,-41.992,0.000
1709141682.266,-69.336,-60.547,-29.297,-46.387,0.000
1709141682.270,-68.359,-48.340,-31.250,-43.457,0.000
1709141682.273,-60.059,-46.875,-37.598,-44.922,0.000
1709141682.277,-51.270,-54.688,-38.574,-47.852,0.000
1709141682.281,-43.457,-39.551,-35.645,-34.668,0.000
1709141682.285,-41.992,-30.762,-32.227,-35.156,0.000
1709141682.289,-41.016,-39.062,-36.621,-56.641,0.000
1709141682.293,-42.969,-40.039,-45.410,-58.105,0.000
1709141682.297,-34.180,-36.621,-32.715,-35.645,0.000
1709141682.301,-25.391,-35.645,-27.344,-25.391,0.000
1709141682.303,-23.926,-36.133,-43.945,-27.344,0.000
1709141682.307,-26.855,-35.645,-43.945,-25.391,0.000
1709141682.311,-27.832,-34.668,-30.273,-32.715,0.000
1709141682.315,-31.738,-32.715,-26.855,-45.410,0.000
1709141682.319,-27.344,-32.227,-41.016,-48.340,0.000
1709141682.323,-21.973,-38.574,-48.340,-44.434,0.000
1709141682.326,-27.832,-37.598,-33.203,-47.363,0.000
1709141682.330,-22.949,-28.320,-38.574,-47.363,0.000
1709141682.334,-21.973,-28.809,-44.922,-54.199,0.000
1709141682.338,-26.855,-35.645,-32.715,-39.551,0.000
1709141682.342,-24.414,-26.855,-32.227,-16.113,0.000
1709141682.346,-26.367,-17.578,-41.016,-27.344,0.000
1709141682.351,-28.809,-24.414,-56.641,-27.832,0.000
1709141682.355,-32.227,-26.855,-52.246,-29.785,0.000
1709141682.359,-47.363,-24.414,-39.062,-38.086,0.000
1709141682.363,-49.316,-31.738,-34.180,-31.250,0.000
1709141682.367,-46.875,-39.551,-31.250,-37.598,0.000
1709141682.370,-51.758,-39.062,-33.691,-51.758,0.000
1709141682.374,-49.316,-34.180,-26.367,-52.734,0.000
1709141682.378,-44.922,-32.227,-31.250,-46.387,0.000
1709141682.382,-53.223,-36.133,-43.945,-40.039,0.000
1709141682.386,-56.152,-29.297,-41.504,-32.227,0.000
1709141682.390,-49.316,-29.785,-50.781,-43.457,0.000
1709141682.394,-41.016,-43.945,-46.875,-62.500,0.000
1709141682.401,-38.086,-42.969,-37.598,-54.688,0.000
1709141682.405,-40.039,-39.062,-52.734,-42.480,0.000
1709141682.409,-35.156,-30.273,-41.504,-39.062,0.000
1709141682.413,-33.203,-21.484,-24.902,-41.504,0.000
1709141682.417,-38.086,-23.438,-27.832,-42.969,0.000
1709141682.421,-29.297,-30.273,-25.391,-36.133,0.000
1709141682.425,-22.949,-35.156,-28.809,-38.574,0.000
1709141682.429,-30.762,-29.785,-40.527,-45.898,0.000
1709141682.432,-37.109,-34.180,-43.457,-49.805,0.000
1709141682.436,-38.086,-34.668,-40.039,-40.039,0.000
1709141682.440,-37.598,-30.762,-44.434,-42.480,0.000
1709141682.444,-40.527,-32.715,-46.875,-44.922,0.000
1709141682.448,-42.969,-30.273,-40.527,-37.598,0.000
1709141682.451,-34.668,-34.180,-38.086,-41.016,0.000
1709141682.455,-27.832,-41.504,-30.273,-48.340,0.000
1709141682.459,-37.598,-44.434,-22.949,-50.781,0.000
1709141682.463,-43.945,-43.945,-26.367,-37.109,0.000
1709141682.467,-36.621,-36.621,-24.902,-26.367,0.000
1709141682.471,-33.691,-36.621,-24.902,-33.691,0.000
1709141682.475,-42.969,-49.316,-34.180,-45.410,0.000
1709141682.479,-52.246,-47.363,-34.668,-41.992,0.000
1709141682.483,-48.828,-29.297,-32.227,-34.668,0.000
1709141682.487,-45.898,-29.785,-45.898,-35.156,0.000
1709141682.491,-49.316,-35.645,-42.480,-40.039,0.000
1709141682.494,-54.199,-34.668,-20.996,-36.133,0.000
1709141682.498,-56.152,-41.504,-22.949,-40.039,0.000
1709141682.502,-60.547,-54.688,-40.039,-41.504,0.000
1709141682.505,-60.547,-57.617,-45.898,-36.621,0.000
1709141682.509,-44.922,-44.922,-34.180,-39.551,0.000
1709141682.513,-49.805,-40.527,-29.297,-49.316,0.000
1709141682.517,-60.547,-44.922,-36.621,-49.316,0.000
1709141682.521,-40.039,-47.852,-48.340,-33.203,0.000
1709141682.525,-35.645,-52.734,-39.062,-21.484,0.000
1709141682.529,-43.457,-47.852,-23.438,-29.297,0.000
1709141682.533,-37.109,-37.598,-39.062,-44.434,0.000
1709141682.537,-33.691,-40.527,-39.062,-49.316,0.000
1709141682.540,-30.273,-40.039,-24.414,-44.922,0.000
1709141682.544,-18.066,-31.250,-38.574,-40.039,0.000
1709141682.547,-12.695,-25.391,-47.852,-30.273,0.000
1709141682.551,-12.207,-21.484,-39.062,-30.273,0.000
1709141682.555,-12.695,-17.090,-39.062,-39.551,0.000
1709141682.559,-16.113,-20.996,-33.691,-32.715,0.000
1709141682.563,-20.996,-21.973,-26.367,-31.738,0.000
1709141682.567,-29.297,-21.973,-31.738,-34.180,0.000
1709141682.571,-25.879,-27.832,-33.691,-34.668,0.000
1709141682.575,-25.879,-26.855,-32.715,-37.598,0.000
1709141682.579,-29.785,-33.691,-34.668,-35.645,0.000
1709141682.583,-22.461,-37.109,-36.133,-34.180,0.000
1709141682.585,-20.020,-24.902,-44.922,-40.039,0.000
1709141682.589,-18.066,-19.043,-48.340,-50.293,0.000
1709141682.593,-20.020,-23.438,-48.340,-48.828,0.000
1709141682.597,-30.273,-27.344,-48.828,-44.434,0.000
1709141682.601,-31.250,-31.250,-30.762,-35.156,0.000
1709141682.605,-39.062,-34.180,-28.320,-40.039,0.000
1709141682.609,-48.340,-40.039,-40.039,-53.223,0.000
1709141682.613,-48.340,-40.039,-41.504,-53.223,0.000
1709141682.617,-47.852,-40.527,-41.504,-61.035,0.000
1709141682.621,-52.246,-36.133,-33.691,-54.688,0.000
1709141682.624,-49.805,-26.855,-34.668,-43.457,0.000
1709141682.628,-41.016,-30.762,-36.621,-49.316,0.000
1709141682.631,-41.992,-35.156,-34.668,-52.734,0.000
1709141682.635,-42.969,-40.527,-33.691,-47.363,0.000
1709141682.639,-41.504,-42.480,-37.598,-41.992,0.000
1709141682.643,-45.410,-48.340,-51.270,-36.621,0.000
1709141682.647,-41.504,-50.781,-34.180,-43.457,0.000
1709141682.651,-36.133,-48.340,-21.484,-52.246,0.000
1709141682.654,-37.109,-39.551,-31.738,-41.992,0.000
1709141682.658,-40.039,-29.297,-39.551,-44.434,0.000
1709141682.662,-35.645,-35.156,-38.574,-58.105,0.000
1709141682.666,-31.250,-39.551,-35.156,-51.270,0.000
1709141682.670,-31.738,-39.062,-40.527,-47.363,0.000
1709141682.674,-28.320,-41.504,-39.551,-48.828,0.000
1709141682.677,-28.809,-41.992,-40.039,-42.969,0.000
1709141682.680,-34.180,-41.016,-38.574,-40.527,0.000
1709141682.684,-28.809,-38.574,-39.062,-51.270,0.000
1709141682.688,-22.461,-34.668,-52.246,-57.129,0.000
1709141682.692,-32.227,-42.480,-48.828,-52.734,0.000
1709141682.696,-44.922,-49.805,-39.062,-44.434,0.000
1709141682.700,-48.340,-40.039,-38.086,-40.039,0.000
1709141682.704,-50.293,-34.180,-38.086,-41.992,0.000
1709141682.708,-47.363,-38.086,-42.969,-41.016,0.000
1709141682.712,-44.922,-37.109,-47.852,-41.016,0.000
1709141682.716,-45.898,-34.668,-52.734,-43.457,0.000
1709141682.720,-49.316,-37.109,-52.734,-41.992,0.000
1709141682.725,-46.875,-34.668,-39.062,-37.109,0.000
1709141682.729,-45.898,-36.133,-42.969,-38.574,0.000
1709141682.733,-46.875,-33.691,-42.480,-40.527,0.000
1709141682.736,-39.551,-34.180,-31.250,-48.340,0.000
1709141682.740,-40.039,-46.387,-37.598,-49.316,0.000
1709141682.744,-48.340,-52.246,-41.992,-49.316,0.000
1709141682.748,-48.828,-49.805,-30.762,-51.758,0.000
1709141682.752,-53.223,-36.133,-41.016,-54.199,0.000
1709141682.756,-49.316,-33.691,-54.199,-58.594,0.000
1709141682.760,-47.363,-44.434,-46.875,-39.062,0.000
1709141682.764,-53.711,-44.434,-48.828,-33.203,0.000
1709141682.768,-50.781,-34.668,-47.852,-51.270,0.000
1709141682.772,-44.434,-40.527,-38.086,-51.758,0.000
1709141682.776,-40.527,-48.340,-37.109,-49.316,0.000
1709141682.780,-35.156,-36.621,-35.645,-39.062,0.000
1709141682.784,-30.273,-36.133,-29.785,-33.203,0.000
1709141682.788,-28.320,-43.457,-25.879,-42.969,0.000
1709141682.792,-22.949,-37.109,-16.602,-45.898,0.000
1709141682.796,-20.508,-33.691,-22.461,-41.992,0.000
1709141682.800,-24.414,-31.738,-40.039,-38.574,0.000
1709141682.804,-22.461,-30.762,-45.898,-21.484,0.000
1709141682.808,-18.555,-32.715,-39.062,-13.672,0.000
1709141682.811,-20.020,-37.598,-39.551,-31.250,0.000
1709141682.815,-20.020,-40.039,-40.527,-39.062,0.000
1709141682.819,-18.555,-37.109,-42.480,-40.527,0.000
1709141682.823,-31.738,-32.715,-43.945,-44.434,0.000
1709141682.827,-36.133,-29.297,-33.691,-48.340,0.000
1709141682.831,-36.621,-37.109,-34.180,-41.504,0.000
1709141682.835,-33.203,-43.457,-32.715,-38.086,0.000
1709141682.839,-25.391,-39.062,-39.551,-34.668,0.000
1709141682.843,-29.297,-37.598,-38.574,-21.484,0.000
1709141682.847,-33.203,-43.945,-27.344,-22.949,0.000
1709141682.851,-36.621,-40.039,-25.879,-28.809,0.000
1709141682.855,-39.551,-40.527,-25.391,-33.691,0.000
1709141682.859,-34.180,-42.969,-28.320,-25.879,0.000
1709141682.862,-30.273,-39.062,-43.457,-18.066,0.000
1709141682.866,-34.668,-41.992,-45.898,-25.391,0.000
1709141682.870,-36.133,-38.086,-37.598,-36.621,0.000
1709141682.874,-32.227,-30.762,-28.320,-40.527,0.000
1709141682.878,-36.133,-31.738,-23.438,-40.039,0.000
1709141682.882,-34.180,-36.133,-34.180,-35.156,0.000
1709141682.886,-26.367,-40.527,-34.180,-28.320,0.000
1709141682.890,-23.926,-39.551,-31.250,-33.203,0.000
1709141682.894,-20.020,-36.133,-37.109,-33.203,0.000
1709141682.897,-20.996,-30.273,-38.574,-26.855,0.000
1709141682.901,-17.578,-42.969,-32.227,-29.785,0.000
1709141682.905,-12.207,-53.711,-32.227,-29.785,0.000
1709141682.909,-17.090,-37.598,-39.551,-29.297,0.000
1709141682.913,-20.020,-31.738,-37.109,-35.156,0.000
1709141682.916,-17.090,-37.109,-35.156,-40.039,0.000
1709141682.920,-20.996,-47.363,-32.715,-32.715,0.000
1709141682.924,-31.250,-44.922,-32.715,-31.250,0.000
1709141682.928,-40.527,-34.668,-40.039,-45.898,0.000
1709141682.932,-46.387,-30.762,-39.062,-48.340,0.000
1709141682.936,-49.316,-32.227,-33.691,-40.039,0.000
1709141682.940,-57.617,-39.551,-33.203,-28.320,0.000
1709141682.944,-60.059,-38.086,-34.180,-23.926,0.000
1709141682.948,-51.270,-36.621,-33.691,-44.922,0.000
1709141682.952,-56.641,-38.086,-28.320,-53.223,0.000
1709141682.956,-58.594,-37.109,-35.645,-49.316,0.000
1709141682.959,-55.664,-37.109,-41.992,-39.062,0.000
1709141682.963,-56.641,-42.969,-43.457,-35.156,0.000
1709141682.966,-52.246,-46.875,-44.922,-47.852,0.000
1709141682.970,-60.547,-45.898,-44.922,-58.594,0.000
1709141682.974,-62.500,-43.945,-51.270,-59.082,0.000
1709141682.978,-56.641,-40.527,-36.621,-53.711,0.000
1709141682.982,-58.594,-47.852,-23.438,-44.922,0.000
1709141682.986,-51.758,-49.316,-32.227,-39.551,0.000
1709141682.990,-39.062,-41.504,-36.133,-45.410,0.000
1709141682.994,-37.598,-41.504,-34.180,-45.898,0.000
1709141682.998,-33.691,-31.250,-29.297,-37.109,0.000
1709141683.002,-24.902,-29.785,-27.832,-29.297,0.000
1709141683.005,-20.996,-29.785,-37.109,-33.203,0.000
1709141683.009,-20.996,-33.203,-47.852,-41.992,0.000
1709141683.013,-25.879,-39.551,-45.410,-35.156,0.000
1709141683.017,-36.621,-39.551,-44.434,-28.320,0.000
1709141683.021,-38.574,-37.109,-41.016,-27.832,0.000
1709141683.025,-36.621,-32.715,-26.367,-34.668,0.000
1709141683.029,-33.203,-30.762,-19.043,-26.367,0.000
1709141683.033,-24.414,-33.203,-20.020,-21.484,0.000
1709141683.036,-29.297,-37.598,-23.438,-35.156,0.000
1709141683.040,-29.297,-36.133,-27.832,-41.016,0.000
1709141683.044,-28.809,-35.156,-30.273,-46.875,0.000
1709141683.048,-40.039,-45.410,-30.762,-49.805,0.000
1709141683.051,-44.922,-43.457,-32.715,-51.758,0.000
1709141683.055,-41.016,-38.086,-44.922,-52.734,0.000
1709141683.059,-41.016,-49.316,-45.410,-45.410,0.000
1709141683.062,-40.527,-65.430,-33.691,-38.086,0.000
1709141683.066,-38.086,-53.223,-35.645,-43.457,0.000
1709141683.070,-43.457,-38.574,-35.156,-46.387,0.000
1709141683.074,-51.758,-32.715,-29.297,-43.457,0.000
1709141683.078,-47.852,-27.832,-28.809,-45.898,0.000
1709141683.082,-40.039,-37.598,-30.273,-53.223,0.000
1709141683.086,-41.992,-42.480,-39.551,-54.199,0.000
1709141683.090,-45.898,-45.898,-45.410,-48.340,0.000
1709141683.094,-43.945,-45.898,-43.945,-50.781,0.000
1709141683.099,-48.340,-41.016,-45.410,-52.246,0.000
1709141683.103,-50.293,-44.434,-48.340,-40.527,0.000
1709141683.107,-46.875,-52.734,-39.062,-38.086,0.000
1709141683.111,-48.828,-48.828,-38.086,-43.945,0.000
1709141683.115,-45.898,-45.410,-46.875,-40.039,0.000
1709141683.119,-43.457,-53.223,-45.410,-35.645,0.000
1709141683.122,-45.410,-48.828,-43.457,-34.668,0.000
1709141683.126,-47.852,-37.598,-43.457,-41.016,0.000
1709141683.130,-44.434,-41.504,-40.527,-54.199,0.000
1709141683.134,-33.203,-41.504,-40.527,-46.387,0.000
1709141683.138,-30.762,-33.691,-51.758,-35.645,0.000
1709141683.142,-30.762,-38.574,-53.223,-37.598,0.000
1709141683.147,-27.832,-50.781,-36.621,-41.992,0.000
1709141683.151,-29.297,-51.758,-33.203,-51.758,0.000
1709141683.155,-29.785,-39.062,-44.434,-44.922,0.000
1709141683.159,-28.809,-37.109,-30.273,-36.621,0.000
1709141683.162,-25.391,-40.527,-18.555,-33.203,0.000
1709141683.166,-26.367,-36.133,-29.297,-37.109,0.000
1709141683.170,-28.809,-33.203,-33.691,-38.086,0.000
1709141683.174,-24.902,-26.855,-28.809,-39.551,0.000
1709141683.178,-23.926,-25.879,-30.762,-40.039,0.000
1709141683.182,-25.391,-38.574,-32.715,-32.227,0.000
1709141683.186,-27.344,-43.945,-38.574,-41.992,0.000
1709141683.190,-35.645,-38.086,-38.086,-54.688,0.000
1709141683.194,-40.039,-40.039,-37.598,-56.641,0.000
1709141683.198,-40.039,-44.922,-41.016,-47.363,0.000
1709141683.202,-50.293,-42.480,-33.203,-39.062,0.000
1709141683.206,-51.270,-39.062,-36.133,-46.387,0.000
1709141683.210,-40.527,-33.691,-43.945,-48.340,0.000
1709141683.214,-33.691,-34.180,-45.898,-47.363,0.000
1709141683.217,-33.691,-32.227,-38.086,-50.781,0.000
1709141683.221,-32.715,-31.738,-32.227,-47.363,0.000
1709141683.225,-39.062,-39.551,-37.598,-42.969,0.000
1709141683.229,-45.898,-28.320,-37.598,-41.992,0.000
1709141683.233,-42.480,-29.297,-40.527,-46.387,0.000
1709141683.237,-37.598,-35.156,-44.434,-37.598,0.000
1709141683.241,-38.086,-30.273,-37.109,-39.062,0.000
1709141683.245,-36.133,-31.738,-22.949,-36.621,0.000
1709141683.249,-35.645,-25.391,-33.691,-31.738,0.000
1709141683.253,-43.945,-29.297,-38.574,-36.621,0.000
1709141683.257,-42.480,-42.480,-31.250,-38.086,0.000
1709141683.260,-38.086,-43.457,-39.551,-34.180,0.000
1709141683.264,-33.691,-35.156,-38.086,-34.180,0.000
1709141683.268,-32.715,-36.133,-35.156,-37.598,0.000
1709141683.272,-43.457,-38.086,-40.039,-34.180,0.000
1709141683.276,-40.039,-29.297,-35.645,-36.133,0.000
1709141683.280,-35.645,-29.297,-35.645,-39.551,0.000
1709141683.284,-33.691,-32.715,-37.109,-41.992,0.000
1709141683.287,-29.785,-38.574,-30.762,-43.945,0.000
1709141683.291,-33.691,-35.156,-23.438,-44.434,0.000
1709141683.295,-42.969,-37.109,-32.715,-50.781,0.000
1709141683.299,-48.828,-39.551,-44.922,-58.105,0.000
1709141683.303,-39.062,-40.039,-39.062,-51.758,0.000
1709141683.307,-39.062,-39.551,-29.297,-50.293,0.000
1709141683.311,-48.340,-34.668,-29.785,-60.547,0.000
1709141683.315,-47.363,-47.852,-43.457,-53.711,0.000
1709141683.319,-48.828,-46.875,-46.387,-51.758,0.000
1709141683.322,-42.969,-33.691,-38.086,-56.641,0.000
1709141683.326,-39.062,-32.715,-35.645,-48.340,0.000
1709141683.330,-45.410,-40.039,-34.180,-53.223,0.000
1709141683.333,-47.363,-37.598,-36.133,-57.129,0.000
1709141683.337,-52.734,-32.715,-33.203,-49.316,0.000
1709141683.341,-54.688,-36.133,-35.156,-48.828,0.000
1709141683.345,-44.434,-36.621,-46.387,-52.734,0.000
1709141683.349,-41.504,-34.668,-51.758,-59.082,0.000
1709141683.353,-44.434,-42.480,-44.922,-56.641,0.000
1709141683.357,-50.293,-46.387,-31.738,-49.805,0.000
1709141683.361,-51.758,-45.898,-46.875,-47.363,0.000
1709141683.365,-38.574,-39.551,-44.434,-48.340,0.000
1709141683.369,-28.320,-27.832,-26.855,-40.527,0.000
1709141683.373,-37.109,-32.227,-25.391,-41.504,0.000
1709141683.376,-42.480,-34.668,-28.809,-45.410,0.000
1709141683.380,-36.133,-33.203,-35.645,-36.621,0.000
1709141683.383,-33.203,-43.457,-33.203,-34.180,0.000
1709141683.387,-31.738,-41.016,-35.645,-37.109,0.000
1709141683.391,-27.832,-37.598,-39.062,-41.504,0.000
1709141683.395,-33.203,-41.504,-36.621,-38.574,0.000
1709141683.399,-34.668,-40.039,-33.691,-22.461,0.000
1709141683.403,-35.645,-38.086,-36.133,-16.113,0.000
1709141683.407,-35.156,-39.062,-29.297,-34.668,0.000
1709141683.411,-34.180,-40.527,-25.879,-47.852,0.000
1709141683.415,-33.691,-41.992,-33.203,-45.410,0.000
1709141683.419,-29.297,-35.156,-39.551,-32.715,0.000
1709141683.422,-32.227,-29.785,-46.875,-31.250,0.000
1709141683.425,-30.273,-29.297,-34.668,-39.062,0.000
1709141683.429,-25.391,-21.484,-36.133,-40.527,0.000
1709141683.433,-24.902,-35.645,-53.711,-46.875,0.000
1709141683.437,-34.668,-42.480,-43.457,-47.852,0.000
1709141683.441,-41.504,-32.227,-29.785,-49.316,0.000
1709141683.445,-38.086,-35.156,-35.645,-58.105,0.000
1709141683.449,-38.086,-37.598,-43.457,-56.641,0.000
1709141683.453,-30.273,-38.086,-41.992,-52.734,0.000
1709141683.457,-31.250,-44.434,-39.551,-51.270,0.000
1709141683.460,-41.504,-47.363,-32.227,-44.922,0.000
1709141683.464,-35.645,-41.504,-32.715,-39.551,0.000
1709141683.468,-28.809,-37.598,-43.457,-41.992,0.000
1709141683.474,-34.180,-37.109,-35.645,-43.457,0.000
1709141683.478,-41.016,-42.480,-24.414,-40.527,0.000
1709141683.482,-44.922,-45.898,-37.109,-45.898,0.000
1709141683.485,-44.434,-43.945,-39.551,-46.875,0.000
1709141683.489,-40.527,-43.945,-33.203,-43.457,0.000
1709141683.493,-37.598,-35.645,-51.270,-45.898,0.000
1709141683.497,-38.086,-28.320,-44.922,-36.133,0.000
1709141683.501,-43.945,-39.551,-27.344,-32.227,0.000
1709141683.505,-43.945,-46.875,-32.227,-33.203,0.000
1709141683.509,-45.410,-46.387,-29.785,-26.367,0.000
1709141683.513,-47.852,-47.852,-38.574,-30.762,0.000
1709141683.517,-40.527,-50.293,-41.504,-34.180,0.000
1709141683.521,-37.598,-50.781,-27.344,-33.203,0.000
1709141683.525,-34.668,-54.688,-25.391,-37.598,0.000
1709141683.529,-28.320,-54.688,-34.668,-37.598,0.000
1709141683.533,-31.250,-43.945,-47.852,-42.480,0.000
1709141683.537,-36.133,-38.086,-56.641,-42.969,0.000
1709141683.541,-35.645,-41.504,-50.781,-49.316,0.000
1709141683.545,-35.156,-42.480,-28.320,-49.805,0.000
1709141683.549,-36.621,-39.551,-21.484,-43.457,0.000
1709141683.553,-34.180,-47.363,-36.621,-43.457,0.000
1709141683.556,-33.691,-51.270,-35.156,-31.738,0.000
1709141683.560,-34.668,-43.457,-26.855,-37.109,0.000
1709141683.564,-31.738,-41.992,-31.250,-47.852,0.000
1709141683.569,-25.391,-38.574,-31.738,-44.922,0.000
1709141683.573,-27.344,-38.574,-33.691,-41.016,0.000
1709141683.576,-26.367,-43.457,-36.621,-32.715,0.000
1709141683.580,-26.855,-43.945,-28.320,-29.297,0.000
1709141683.584,-27.832,-36.133,-31.738,-40.039,0.000
1709141683.588,-27.832,-31.738,-41.504,-43.945,0.000
1709141683.592,-32.715,-37.598,-47.363,-44.434,0.000
1709141683.596,-32.227,-41.504,-50.781,-40.039,0.000
1709141683.600,-32.715,-36.621,-42.969,-28.320,0.000
1709141683.604,-35.645,-33.691,-36.621,-26.855,0.000
1709141683.608,-42.480,-47.363,-35.156,-45.410,0.000
1709141683.612,-42.969,-46.387,-31.250,-60.547,0.000
1709141683.616,-34.668,-35.645,-36.621,-58.105,0.000
1709141683.619,-36.621,-37.109,-44.922,-46.387,0.000
1709141683.623,-31.250,-35.645,-41.504,-41.992,0.000
1709141683.627,-28.809,-31.250,-39.062,-41.016,0.000
1709141683.631,-34.668,-32.227,-34.180,-43.945,0.000
1709141683.635,-30.762,-30.762,-43.945,-44.434,0.000
1709141683.639,-26.367,-26.855,-51.758,-34.668,0.000
1709141683.643,-26.855,-36.621,-51.758,-27.832,0.000
1709141683.647,-24.414,-42.969,-48.340,-30.762,0.000
1709141683.651,-31.738,-34.668,-22.949,-37.598,0.000
1709141683.655,-36.133,-41.504,-13.672,-37.109,0.000
1709141683.659,-34.668,-46.387,-18.066,-41.016,0.000
1709141683.662,-39.551,-39.551,-25.391,-41.992,0.000
1709141683.666,-41.992,-41.992,-32.715,-40.527,0.000
1709141683.670,-39.062,-40.039,-33.203,-41.992,0.000
1709141683.674,-37.109,-38.574,-38.086,-39.551,0.000
1709141683.678,-43.945,-39.062,-43.457,-30.273,0.000
1709141683.682,-40.039,-30.273,-38.086,-36.621,0.000
1709141683.685,-37.109,-25.391,-32.715,-46.875,0.000
1709141683.689,-41.504,-31.738,-41.016,-42.480,0.000
1709141683.693,-41.504,-36.133,-41.016,-40.527,0.000
1709141683.697,-43.457,-35.645,-27.344,-46.875,0.000
1709141683.701,-40.039,-41.992,-27.832,-39.062,0.000
1709141683.705,-35.645,-49.316,-32.227,-30.273,0.000
1709141683.708,-34.668,-38.574,-30.762,-35.156,0.000
1709141683.712,-28.320,-31.250,-24.414,-41.992,0.000
1709141683.716,-26.855,-40.527,-32.715,-40.527,0.000
1709141683.720,-26.855,-33.203,-42.480,-39.551,0.000
1709141683.724,-22.949,-32.715,-30.762,-39.551,0.000
1709141683.728,-25.879,-35.156,-21.484,-42.969,0.000
1709141683.732,-33.203,-28.809,-32.715,-44.434,0.000
1709141683.736,-36.621,-31.738,-47.363,-34.180,0.000
1709141683.739,-42.969,-28.320,-32.227,-39.551,0.000
1709141683.743,-44.434,-35.156,-26.367,-47.852,0.000
1709141683.747,-40.039,-35.156,-32.227,-44.922,0.000
1709141683.751,-37.598,-28.320,-30.762,-42.480,0.000
1709141683.754,-37.109,-31.250,-41.992,-36.621,0.000
1709141683.758,-29.297,-38.574,-48.340,-34.180,0.000
1709141683.762,-29.297,-35.156,-42.480,-35.645,0.000
1709141683.766,-41.016,-33.691,-38.086,-41.016,0.000
1709141683.770,-42.969,-41.504,-30.762,-49.316,0.000
1709141683.774,-38.574,-39.062,-32.227,-40.527,0.000
1709141683.778,-40.527,-40.039,-45.410,-32.227,0.000
1709141683.782,-43.457,-39.062,-42.969,-41.992,0.000
1709141683.786,-36.133,-42.480,-28.320,-48.828,0.000
1709141683.789,-31.738,-51.758,-26.367,-43.945,0.000
1709141683.793,-40.527,-42.969,-38.086,-38.086,0.000
1709141683.797,-45.410,-27.832,-42.480,-38.574,0.000
1709141683.800,-44.434,-30.273,-37.109,-34.180,0.000
1709141683.804,-37.598,-40.039,-41.016,-21.973,0.000
1709141683.808,-37.598,-34.180,-41.016,-32.227,0.000
1709141683.812,-34.668,-28.809,-30.762,-45.410,0.000
1709141683.816,-38.574,-38.086,-33.691,-40.527,0.000
1709141683.820,-46.875,-39.062,-33.203,-36.621,0.000
1709141683.824,-40.039,-37.109,-37.109,-31.738,0.000
1709141683.828,-37.109,-35.645,-45.410,-39.062,0.000
1709141683.831,-38.086,-38.086,-36.621,-46.875,0.000
1709141683.835,-35.645,-41.016,-29.297,-32.227,0.000
1709141683.839,-30.762,-40.527,-41.016,-23.926,0.000
1709141683.843,-34.180,-36.621,-46.387,-37.598,0.000
1709141683.849,-40.039,-39.062,-38.574,-51.758,0.000
1709141683.853,-32.715,-40.039,-40.039,-52.734,0.000
1709141683.856,-36.133,-41.504,-37.598,-51.270,0.000
1709141683.860,-44.922,-39.551,-39.551,-56.641,0.000
1709141683.864,-40.527,-30.273,-42.969,-56.641,0.000
1709141683.868,-33.691,-37.598,-45.898,-50.781,0.000
1709141683.872,-28.809,-34.180,-41.504,-38.086,0.000
1709141683.876,-33.691,-20.020,-31.250,-35.645,0.000
1709141683.880,-38.086,-24.414,-25.879,-39.551,0.000
1709141683.884,-26.855,-29.297,-26.367,-32.715,0.000
1709141683.888,-20.508,-24.902,-37.598,-41.504,0.000
1709141683.892,-22.461,-31.250,-26.367,-53.223,0.000
1709141683.896,-33.691,-39.062,-12.695,-47.363,0.000
1709141683.900,-40.039,-35.156,-28.320,-41.992,0.000
1709141683.904,-37.598,-26.367,-33.203,-41.992,0.000
1709141683.908,-38.086,-23.926,-33.691,-40.527,0.000
1709141683.912,-36.133,-32.715,-41.016,-28.809,0.000
1709141683.916,-35.645,-41.016,-41.992,-25.879,0.000
1709141683.920,-36.133,-47.363,-38.086,-37.109,0.000
1709141683.924,-43.945,-40.039,-34.180,-40.039,0.000
1709141683.928,-49.805,-29.785,-24.902,-36.621,0.000
1709141683.932,-50.293,-30.273,-16.113,-41.504,0.000
1709141683.936,-49.805,-29.785,-22.949,-55.664,0.000
1709141683.939,-48.340,-34.180,-33.691,-53.711,0.000
1709141683.944,-43.945,-34.180,-32.227,-39.551,0.000
1709141683.948,-36.621,-37.598,-34.180,-39.551,0.000
1709141683.952,-32.227,-42.969,-38.574,-44.434,0.000
1709141683.955,-37.109,-35.645,-41.992,-43.945,0.000
1709141683.959,-42.969,-29.297,-51.270,-38.574,0.000
1709141683.963,-39.551,-34.180,-44.434,-35.645,0.000
1709141683.967,-40.527,-38.086,-28.320,-35.645,0.000
1709141683.971,-41.016,-38.574,-32.715,-39.062,0.000
1709141683.975,-39.062,-34.180,-32.227,-34.668,0.000
1709141683.979,-39.062,-32.227,-26.855,-35.156,0.000
1709141683.983,-30.273,-33.203,-29.297,-43.457,0.000
1709141683.987,-35.156,-37.109,-35.645,-42.480,0.000
1709141683.991,-43.457,-39.062,-32.227,-41.992,0.000
1709141683.994,-37.598,-37.109,-28.320,-49.316,0.000
1709141683.998,-34.668,-39.551,-32.227,-41.016,0.000
1709141684.002,-28.809,-44.922,-38.086,-31.250,0.000
1709141684.006,-28.809,-39.551,-35.156,-37.109,0.000
1709141684.010,-34.180,-37.598,-34.668,-35.156,0.000
1709141684.014,-25.879,-29.785,-38.574,-41.016,0.000
1709141684.018,-26.367,-27.832,-37.109,-46.387,0.000
1709141684.022,-32.715,-34.180,-35.645,-36.133,0.000
1709141684.026,-25.879,-30.762,-33.691,-33.203,0.000
1709141684.030,-27.832,-31.738,-41.016,-44.434,0.000
1709141684.034,-34.180,-32.715,-42.480,-48.340,0.000
1709141684.037,-35.645,-31.738,-29.785,-38.574,0.000
1709141684.041,-35.645,-38.086,-35.156,-47.363,0.000
1709141684.045,-33.203,-43.945,-38.574,-53.711,0.000
1709141684.049,-33.203,-48.340,-34.180,-45.898,0.000
1709141684.053,-36.133,-42.480,-35.156,-53.223,0.000
1709141684.057,-35.156,-31.738,-40.039,-42.969,0.000
1709141684.061,-38.574,-36.133,-39.551,-40.527,0.000
1709141684.065,-41.504,-43.945,-30.762,-43.457,0.000
1709141684.068,-35.645,-46.875,-26.367,-41.016,0.000
1709141684.072,-37.598,-37.109,-22.461,-44.434,0.000
1709141684.076,-51.270,-27.344,-33.203,-42.480,0.000
1709141684.080,-55.664,-31.250,-48.828,-39.551,0.000
1709141684.085,-48.340,-34.180,-47.852,-43.457,0.000
1709141684.089,-49.805,-39.062,-45.410,-47.852,0.000
1709141684.093,-57.617,-47.363,-42.480,-48.828,0.000
1709141684.097,-59.082,-42.969,-36.621,-48.828,0.000
1709141684.101,-62.012,-36.621,-42.480,-48.828,0.000
1709141684.105,-52.246,-39.551,-36.133,-53.711,0.000
1709141684.109,-48.828,-44.434,-26.367,-55.664,0.000
1709141684.113,-57.617,-43.457,-31.738,-53.223,0.000
1709141684.117,-59.570,-41.504,-39.551,-52.734,0.000
1709141684.120,-55.664,-40.527,-42.480,-46.387,0.000
1709141684.124,-47.363,-38.086,-41.016,-38.086,0.000
1709141684.128,-44.922,-43.945,-45.410,-42.480,0.000
1709141684.131,-48.828,-45.898,-49.316,-54.688,0.000
1709141684.135,-52.246,-40.527,-41.016,-54.688,0.000
1709141684.139,-50.293,-39.062,-33.691,-44.434,0.000
1709141684.143,-52.734,-41.504,-40.527,-43.457,0.000
1709141684.147,-48.340,-45.410,-42.969,-54.199,0.000
1709141684.150,-39.551,-45.410,-41.016,-61.035,0.000
1709141684.154,-34.668,-48.828,-33.691,-49.805,0.000
1709141684.158,-37.109,-49.805,-23.438,-37.598,0.000
1709141684.162,-41.016,-45.898,-30.273,-37.598,0.000
1709141684.166,-36.133,-38.574,-47.852,-33.691,0.000
1709141684.170,-32.715,-27.344,-37.598,-38.574,0.000
1709141684.174,-39.062,-27.344,-34.180,-53.223,0.000
1709141684.177,-41.992,-35.645,-37.598,-54.199,0.000
1709141684.180,-43.457,-42.480,-44.922,-48.340,0.000
1709141684.184,-45.898,-47.852,-43.457,-52.734,0.000
1709141684.188,-47.363,-50.293,-23.438,-54.199,0.000
1709141684.192,-43.945,-48.340,-24.414,-56.152,0.000
1709141684.196,-34.668,-50.293,-24.902,-47.852,0.000
1709141684.200,-31.250,-47.852,-37.109,-43.945,0.000
1709141684.204,-34.668,-40.039,-48.828,-55.176,0.000
1709141684.208,-27.344,-33.691,-32.715,-50.293,0.000
1709141684.212,-19.531,-31.738,-23.926,-34.668,0.000
1709141684.216,-22.949,-35.645,-28.320,-34.668,0.000
1709141684.219,-23.926,-38.086,-38.086,-37.109,0.000
1709141684.225,-22.949,-44.922,-43.945,-35.645,0.000
1709141684.229,-25.879,-42.480,-33.691,-41.016,0.000
1709141684.233,-32.227,-33.691,-36.621,-48.340,0.000
1709141684.236,-33.691,-32.715,-37.109,-45.898,0.000
1709141684.240,-33.203,-39.551,-30.273,-38.574,0.000
1709141684.244,-30.762,-46.387,-30.762,-30.762,0.000
1709141684.248,-29.297,-37.598,-30.762,-36.621,0.000
1709141684.252,-34.668,-29.785,-42.969,-51.270,0.000
1709141684.256,-35.156,-30.273,-36.621,-44.434,0.000
1709141684.260,-38.574,-33.203,-19.043,-42.480,0.000
1709141684.264,-39.062,-28.809,-28.809,-41.504,0.000
1709141684.268,-31.738,-30.762,-35.156,-40.527,0.000
1709141684.272,-38.574,-46.387,-32.227,-49.316,0.000
1709141684.276,-36.133,-45.898,-32.227,-54.688,0.000
1709141684.280,-30.762,-34.668,-34.180,-48.340,0.000
1709141684.284,-32.715,-29.785,-46.875,-41.016,0.000
1709141684.288,-32.227,-30.762,-54.688,-42.480,0.000
1709141684.292,-34.180,-27.832,-33.691,-38.574,0.000
1709141684.296,-39.062,-35.156,-16.113,-31.738,0.000
1709141684.300,-37.598,-35.156,-16.113,-38.086,0.000
1709141684.304,-36.133,-25.879,-19.043,-38.574,0.000
1709141684.308,-39.062,-28.809,-26.855,-33.203,0.000
1709141684.312,-39.551,-35.156,-27.832,-44.434,0.000
1709141684.315,-35.645,-34.668,-31.738,-43.945,0.000
1709141684.320,-40.039,-43.945,-35.156,-43.457,0.000
1709141684.323,-37.598,-55.176,-36.621,-48.340,0.000
1709141684.327,-33.203,-49.316,-44.922,-47.363,0.000
1709141684.331,-37.598,-41.504,-56.641,-45.410,0.000
1709141684.335,-36.621,-40.039,-50.293,-38.574,0.000
1709141684.339,-31.738,-39.062,-32.715,-34.668,0.000
1709141684.343,-19.043,-34.668,-31.250,-29.785,0.000
1709141684.347,-21.484,-38.574,-26.367,-35.156,0.000
1709141684.351,-28.320,-43.945,-20.508,-32.715,0.000
1709141684.355,-27.344,-45.898,-30.273,-29.297,0.000
1709141684.359,-28.809,-41.992,-39.551,-39.062,0.000
1709141684.363,-35.156,-35.156,-37.598,-37.109,0.000
1709141684.366,-36.133,-47.852,-33.691,-38.574,0.000
1709141684.370,-35.156,-48.828,-32.227,-44.922,0.000
1709141684.374,-37.109,-31.738,-34.668,-40.039,0.000
1709141684.378,-38.086,-29.297,-36.621,-40.039,0.000
1709141684.382,-34.180,-35.156,-39.551,-41.504,0.000
1709141684.386,-28.320,-41.504,-41.016,-34.668,0.000
1709141684.390,-35.645,-45.898,-39.062,-39.062,0.000
1709141684.394,-46.875,-45.410,-32.715,-41.504,0.000
1709141684.398,-50.781,-44.922,-24.414,-30.762,0.000
1709141684.401,-42.969,-46.875,-25.391,-27.832,0.000
1709141684.405,-43.945,-49.805,-39.062,-30.762,0.000
1709141684.409,-49.805,-48.340,-39.062,-35.645,0.000
1709141684.413,0.000,-40.039,-30.762,-37.598,0.000
1709141684.417,0.000,-41.992,-37.109,-38.086,0.000
1709141684.421,0.000,-41.992,-36.133,-33.203,0.000
1709141684.424,0.000,-30.762,-33.691,-26.855,0.000
1709141684.428,0.000,-36.621,-42.480,-23.926,0.000
1709141684.432,0.000,-37.109,-40.527,-30.762,0.000
1709141684.436,0.000,-30.273,-29.785,-37.598,0.000
1709141684.440,0.000,-32.227,-28.320,-24.902,0.000
1709141684.444,0.000,-40.527,-31.250,-22.949,0.000
1709141684.448,0.000,-40.527,-26.855,-33.691,0.000
1709141684.452,0.000,-40.039,-25.391,-36.621,0.000
1709141684.456,0.000,-47.852,-36.621,-32.227,0.000
1709141684.459,-29.297,-43.457,-41.016,-24.414,0.000
1709141684.463,-24.902,-40.527,-35.645,-23.438,0.000
1709141684.467,-18.066,-47.363,-23.438,-23.926,0.000
1709141684.471,-10.254,-51.270,-24.414,-23.926,0.000
1709141684.474,-14.160,-48.340,-41.992,-21.484,0.000
1709141684.478,-18.066,-48.828,-36.133,-21.973,0.000
1709141684.482,-19.531,-52.734,-29.297,-18.066,0.000
1709141684.486,-21.484,-41.992,-33.203,-18.066,0.000
1709141684.490,-28.809,-30.762,-22.461,-33.691,0.000
1709141684.494,-24.902,-32.715,-32.227,-33.691,0.000
1709141684.498,-22.949,-40.039,-51.758,-19.043,0.000
1709141684.502,-29.785,-49.805,-38.574,-18.066,0.000
1709141684.505,-27.832,-50.293,-21.973,-27.344,0.000
1709141684.509,-31.250,-43.457,-19.531,-25.879,0.000
1709141684.513,-35.156,-46.387,-27.832,-33.203,0.000
1709141684.517,-33.691,-42.480,-27.344,-39.062,0.000
1709141684.521,-33.691,-42.480,-36.133,-27.344,0.000
1709141684.524,-36.621,-56.152,-46.875,-25.391,0.000
1709141684.528,-38.574,-51.270,-31.738,-16.113,0.000
1709141684.532,-37.109,-41.504,-23.438,-21.484,0.000
1709141684.536,-33.691,-45.898,-30.762,-38.086,0.000
1709141684.540,-33.203,-49.805,-30.762,-41.016,0.000
1709141684.544,-34.668,-43.945,-29.785,-40.039,0.000
1709141684.548,-39.551,-38.574,-33.691,-38.086,0.000
1709141684.553,-37.598,-39.062,-35.645,-41.504,0.000
1709141684.557,-32.227,-40.527,-36.621,-32.227,0.000
1709141684.561,-25.879,-44.922,-36.133,-29.785,0.000
1709141684.565,-22.949,-46.387,-40.039,-37.109,0.000
1709141684.569,-20.996,-33.691,-45.898,-42.969,0.000
1709141684.573,-21.484,-27.344,-24.414,-37.109,0.000
1709141684.577,-22.949,-30.273,-11.230,-22.461,0.000
1709141684.581,-21.973,-29.785,-30.273,-27.832,0.000
1709141684.585,-28.320,-29.785,-28.809,-34.180,0.000
1709141684.588,-41.504,-33.691,-26.855,-41.504,0.000
1709141684.592,-37.109,-33.203,-39.062,-46.387,0.000
1709141684.596,-31.250,-32.715,-29.785,-50.781,0.000
1709141684.601,-41.504,-33.691,-22.461,-47.363,0.000
1709141684.605,-45.898,-41.504,-30.273,-54.199,0.000
1709141684.609,-57.129,-39.062,-42.480,-62.500,0.000
1709141684.613,-53.711,-34.180,-44.922,-55.176,0.000
1709141684.617,-48.828,-43.457,-52.734,-55.176,0.000
1709141684.621,-55.664,-36.621,-59.570,-56.152,0.000
1709141684.625,-51.270,-23.438,-44.434,-49.805,0.000
1709141684.628,-54.688,-33.203,-29.297,-56.641,0.000
1709141684.632,-62.988,-45.410,-31.250,-65.918,0.000
1709141684.636,-62.012,-40.527,-38.086,-56.152,0.000
1709141684.640,-54.199,-34.668,-40.039,-43.457,0.000
1709141684.644,-47.363,-36.133,-45.410,-41.016,0.000
1709141684.649,-39.551,-41.504,-49.805,-37.109,0.000
1709141684.652,-37.598,-43.945,-41.992,-38.086,0.000
1709141684.656,-44.922,-47.363,-38.574,-41.992,0.000
1709141684.660,-25.879,-39.062,-47.363,-41.016,0.000
1709141684.664,-20.508,-38.574,-39.062,-41.992,0.000
1709141684.668,-27.344,-39.062,-35.156,-43.945,0.000
1709141684.672,-28.809,-32.227,-46.387,-46.387,0.000
1709141684.676,-35.645,-39.062,-40.527,-49.316,0.000
1709141684.680,-40.527,-46.875,-38.574,-47.363,0.000
1709141684.684,-40.527,-48.340,-41.992,-46.387,0.000
1709141684.688,-38.086,-54.199,-45.410,-49.316,0.000
1709141684.692,-39.551,-50.781,-52.246,-52.246,0.000
1709141684.696,-40.527,-40.039,-52.246,-55.664,0.000
1709141684.699,-47.363,-33.203,-54.688,-61.035,0.000
1709141684.703,-52.734,-34.668,-44.434,-62.012,0.000
1709141684.707,-53.223,-41.016,-40.039,-52.246,0.000
1709141684.711,-56.641,-42.969,-48.828,-52.734,0.000
1709141684.715,-59.570,-38.086,-41.504,-54.199,0.000
1709141684.719,-60.547,-27.344,-39.551,-53.223,0.000
1709141684.723,-66.895,-34.668,-46.875,-62.988,0.000
1709141684.727,-71.289,-47.852,-57.617,-58.594,0.000
1709141684.731,-67.871,-45.898,-52.734,-55.664,0.000
1709141684.735,-71.777,-47.852,-41.016,-68.848,0.000
1709141684.738,-72.754,-46.387,-42.480,-65.430,0.000
