timestamps,TP9,AF7,AF8,TP10,Right AUX
1709205979.797,-39.551,-42.480,-34.668,-30.762,0.000
1709205979.801,-41.016,-42.969,-38.574,-39.062,0.000
1709205979.805,-41.504,-45.898,-39.062,-43.457,0.000
1709205979.809,-42.480,-43.457,-38.574,-38.086,0.000
1709205979.812,-50.293,-48.828,-41.016,-41.992,0.000
1709205979.816,-44.922,-54.688,-41.016,-43.457,0.000
1709205979.820,-42.480,-51.270,-39.551,-41.016,0.000
1709205979.824,-44.922,-47.852,-36.621,-36.621,0.000
1709205979.828,-41.504,-50.293,-33.691,-32.715,0.000
1709205979.832,-44.922,-53.223,-36.621,-26.855,0.000
1709205979.836,-49.316,-37.598,-37.109,-28.320,0.000
1709205979.840,-52.246,-39.062,-35.645,-39.062,0.000
1709205979.840,-52.246,-39.062,-35.645,-39.062,0.000
1709205979.844,-46.875,-45.410,-34.668,-42.969,0.000
1709205979.848,-42.480,-39.062,-32.227,-44.922,0.000
1709205979.852,-49.805,-34.180,-34.180,-49.316,0.000
1709205979.855,-44.434,-31.250,-36.621,-44.922,0.000
1709205979.859,-31.738,-30.273,-32.715,-35.645,0.000
1709205979.863,-34.668,-33.691,-29.785,-35.156,0.000
1709205979.867,-45.898,-38.574,-32.715,-47.363,0.000
1709205979.871,-46.387,-32.715,-29.785,-46.875,0.000
1709205979.875,-35.645,-47.852,-27.832,-24.902,0.000
1709205979.879,-36.621,-52.246,-38.574,-25.879,0.000
1709205979.883,-43.945,-34.180,-39.062,-42.969,0.000
1709205979.887,-43.945,-39.062,-34.668,-44.434,0.000
1709205979.891,-39.551,-41.992,-34.668,-44.434,0.000
1709205979.895,-44.434,-37.109,-33.691,-54.688,0.000
1709205979.898,-48.340,-40.039,-37.109,-59.570,0.000
1709205979.902,-42.969,-45.410,-39.551,-53.223,0.000
1709205979.906,-39.062,-41.504,-36.133,-46.875,0.000
1709205979.910,-34.668,-34.180,-32.227,-35.645,0.000
1709205979.914,-36.621,-35.645,-34.180,-37.109,0.000
1709205979.918,-33.203,-43.457,-39.551,-41.992,0.000
1709205979.922,-32.715,-45.898,-39.062,-38.086,0.000
1709205979.926,-41.504,-34.180,-37.598,-46.387,0.000
1709205979.930,-45.410,-33.203,-38.574,-53.223,0.000
1709205979.934,-48.340,-38.086,-38.086,-51.270,0.000
1709205979.938,-47.363,-44.922,-32.227,-50.293,0.000
1709205979.941,-40.039,-44.434,-26.855,-52.734,0.000
1709205979.945,-44.922,-43.945,-24.414,-47.852,0.000
1709205979.949,-49.805,-45.410,-27.832,-43.945,0.000
1709205979.953,-43.457,-40.527,-26.855,-41.016,0.000
1709205979.957,-37.109,-41.504,-27.832,-51.758,0.000
1709205979.961,-40.039,-48.340,-37.598,-61.523,0.000
1709205979.965,-44.922,-62.500,-40.039,-49.316,0.000
1709205979.969,-45.898,-51.758,-38.574,-30.762,0.000
1709205979.973,-39.062,-31.250,-36.133,-32.715,0.000
1709205979.977,-33.691,-45.410,-39.551,-36.133,0.000
1709205979.980,-35.156,-54.199,-41.504,-30.273,0.000
1709205979.984,-34.668,-47.363,-37.598,-32.715,0.000
1709205979.988,-34.180,-46.875,-33.203,-31.738,0.000
1709205979.992,-32.715,-53.223,-30.273,-27.832,0.000
1709205979.996,-33.203,-53.223,-28.320,-29.785,0.000
1709205980.000,-35.645,-53.223,-30.762,-30.273,0.000
1709205980.004,-34.668,-58.594,-32.227,-32.715,0.000
1709205980.008,-39.062,-61.523,-29.297,-28.809,0.000
1709205980.012,-37.109,-57.129,-28.809,-13.184,0.000
1709205980.016,-31.738,-39.551,-34.668,-9.277,0.000
1709205980.019,-24.414,-35.156,-33.203,-16.113,0.000
1709205980.023,-19.043,-43.457,-29.297,-26.367,0.000
1709205980.027,-30.273,-45.410,-30.762,-29.785,0.000
1709205980.031,-34.180,-42.480,-32.715,-24.414,0.000
1709205980.035,-26.855,-44.434,-36.133,-15.625,0.000
1709205980.039,-22.461,-47.852,-39.062,-9.277,0.000
1709205980.043,-13.672,-34.668,-31.738,-6.836,0.000
1709205980.047,-10.742,-30.273,-28.809,-12.695,0.000
1709205980.051,-18.555,-41.016,-41.504,-17.578,0.000
1709205980.055,-18.066,-39.551,-42.480,-1.953,0.000
1709205980.059,-14.160,-33.203,-45.410,0.977,0.000
1709205980.063,-9.277,-18.555,-43.945,-14.160,0.000
1709205980.066,0.977,-24.414,-34.668,-15.137,0.000
1709205980.070,-10.254,-38.574,-41.504,-19.531,0.000
1709205980.074,-22.461,-38.574,-49.316,-20.020,0.000
1709205980.078,-17.090,-32.227,-45.410,-30.273,0.000
1709205980.082,-23.926,-37.109,-43.457,-45.898,0.000
1709205980.086,-33.691,-41.504,-42.969,-46.387,0.000
1709205980.090,-46.875,-43.457,-41.992,-44.922,0.000
1709205980.094,-47.852,-42.969,-40.527,-49.805,0.000
1709205980.098,-30.273,-46.387,-44.922,-46.875,0.000
1709205980.102,-35.156,-49.316,-46.875,-36.133,0.000
1709205980.105,-43.457,-39.062,-33.691,-38.574,0.000
1709205980.109,-40.527,-35.156,-27.832,-39.551,0.000
1709205980.113,-39.062,-52.246,-27.832,-17.090,0.000
1709205980.117,-39.551,-65.918,-23.926,-7.324,0.000
1709205980.121,-40.527,-60.547,-25.391,-18.555,0.000
1709205980.125,-44.434,-67.383,-27.344,-18.066,0.000
1709205980.129,-54.199,-82.520,-22.461,-17.090,0.000
1709205980.133,-54.688,-83.984,-21.484,-24.414,0.000
1709205980.137,-47.852,-81.543,-28.320,-30.762,0.000
1709205980.141,-48.828,-92.773,-29.785,-31.250,0.000
1709205980.145,-52.734,-108.887,-27.832,-20.020,0.000
1709205980.148,-56.641,-115.723,-25.879,-6.348,0.000
1709205980.152,-58.105,-112.305,-32.227,-4.883,0.000
1709205980.156,-52.246,-118.652,-41.504,-9.766,0.000
1709205980.160,-36.133,-123.535,-36.621,2.930,0.000
1709205980.164,-32.227,-116.211,-34.668,12.207,0.000
1709205980.168,-42.480,-112.793,-44.922,0.000,0.000
1709205980.172,-38.086,-118.652,-47.852,9.766,0.000
1709205980.176,-34.180,-119.141,-41.992,12.207,0.000
1709205980.180,-35.156,-114.258,-41.992,5.859,0.000
1709205980.184,-35.645,-119.629,-43.457,9.277,0.000
1709205980.188,-50.781,-128.906,-41.992,6.348,0.000
1709205980.191,-51.758,-134.277,-40.039,-0.488,0.000
1709205980.195,-43.945,-125.000,-40.039,-5.859,0.000
1709205980.199,-41.016,-114.258,-33.691,-5.371,0.000
1709205980.203,-34.668,-116.699,-24.902,2.930,0.000
1709205980.207,-41.992,-125.000,-28.320,0.977,0.000
1709205980.211,-53.223,-114.258,-26.367,-14.160,0.000
1709205980.215,-51.758,-105.957,-24.902,-11.719,0.000
1709205980.219,-51.270,-111.816,-29.785,-24.414,0.000
1709205980.223,-51.758,-112.305,-35.645,-34.668,0.000
1709205980.227,-54.688,-103.027,-39.062,-31.250,0.000
1709205980.231,-62.012,-99.121,-41.016,-25.391,0.000
1709205980.234,-57.617,-101.562,-44.434,-20.996,0.000
1709205980.238,-38.574,-102.051,-45.410,-28.320,0.000
1709205980.242,-37.109,-96.680,-45.898,-30.273,0.000
1709205980.246,-49.316,-91.309,-47.363,-37.109,0.000
1709205980.250,-52.734,-100.098,-42.480,-29.785,0.000
1709205980.254,-45.410,-86.426,-39.551,-16.602,0.000
1709205980.258,-35.156,-73.242,-42.969,-27.832,0.000
1709205980.262,-32.227,-89.844,-44.434,-22.461,0.000
1709205980.266,-36.133,-88.379,-42.969,-14.160,0.000
1709205980.270,-41.016,-79.590,-42.480,-18.066,0.000
1709205980.274,-30.762,-77.148,-41.992,-13.672,0.000
1709205980.277,-28.809,-81.055,-42.969,-15.625,0.000
1709205980.281,-29.785,-79.102,-37.598,-27.344,0.000
1709205980.285,-26.367,-73.730,-37.109,-28.809,0.000
1709205980.289,-34.180,-73.730,-41.016,-29.785,0.000
1709205980.293,-40.039,-75.684,-40.527,-26.367,0.000
1709205980.297,-39.551,-77.148,-41.992,-9.277,0.000
1709205980.301,-39.062,-59.082,-43.945,-18.555,0.000
1709205980.305,-50.293,-50.293,-46.387,-32.715,0.000
1709205980.309,-67.871,-66.406,-49.805,-29.785,0.000
1709205980.313,-65.918,-73.730,-50.781,-27.832,0.000
1709205980.316,-51.758,-66.895,-45.898,-26.367,0.000
1709205980.320,-42.969,-62.500,-40.039,-30.762,0.000
1709205980.324,-45.898,-67.871,-34.180,-35.645,0.000
1709205980.328,-49.805,-68.359,-36.133,-33.691,0.000
1709205980.332,-46.387,-70.312,-38.574,-30.273,0.000
1709205980.336,-35.156,-56.641,-32.227,-27.344,0.000
1709205980.340,-24.414,-53.711,-38.574,-20.996,0.000
1709205980.344,-20.996,-45.898,-41.504,-27.344,0.000
1709205980.348,-24.414,-27.344,-38.574,-44.922,0.000
1709205980.352,-30.273,-39.062,-37.109,-48.340,0.000
1709205980.355,-33.203,-49.316,-41.016,-54.199,0.000
1709205980.359,-27.344,-41.992,-47.363,-55.664,0.000
1709205980.363,-24.414,-38.574,-42.480,-49.316,0.000
1709205980.367,-28.809,-44.434,-37.109,-49.805,0.000
1709205980.371,-38.574,-44.434,-38.086,-50.781,0.000
1709205980.375,-43.945,-43.457,-40.527,-52.734,0.000
1709205980.379,-36.621,-45.898,-41.992,-52.734,0.000
1709205980.383,-39.062,-53.711,-42.969,-50.293,0.000
1709205980.387,-44.434,-57.129,-42.480,-50.293,0.000
1709205980.391,-37.109,-39.551,-44.434,-42.969,0.000
1709205980.395,-35.645,-38.086,-45.898,-42.969,0.000
1709205980.398,-39.062,-52.734,-38.086,-48.340,0.000
1709205980.402,-44.922,-47.363,-34.180,-43.457,0.000
1709205980.406,-49.316,-41.504,-35.156,-44.434,0.000
1709205980.410,-53.711,-46.875,-31.250,-55.176,0.000
1709205980.414,-59.570,-52.246,-26.855,-59.570,0.000
1709205980.418,-62.012,-44.922,-23.926,-50.781,0.000
1709205980.422,-68.359,-41.504,-26.367,-50.781,0.000
1709205980.426,-71.777,-54.199,-33.203,-68.848,0.000
1709205980.430,-82.520,-68.359,-34.668,-66.895,0.000
1709205980.434,-83.496,-60.547,-29.785,-50.781,0.000
1709205980.437,-74.707,-43.945,-29.297,-53.711,0.000
1709205980.441,-68.848,-46.875,-25.391,-54.688,0.000
1709205980.445,-62.500,-54.688,-20.996,-52.734,0.000
1709205980.449,-56.641,-59.082,-26.367,-47.363,0.000
1709205980.453,-56.152,-58.594,-32.227,-38.574,0.000
1709205980.457,-45.898,-60.547,-32.227,-30.273,0.000
1709205980.461,-36.133,-56.152,-29.297,-24.902,0.000
1709205980.465,-43.945,-50.781,-33.691,-24.414,0.000
1709205980.469,-45.898,-48.828,-37.109,-20.508,0.000
1709205980.473,-38.086,-55.176,-36.133,-27.832,0.000
1709205980.477,-28.320,-57.129,-35.156,-34.668,0.000
1709205980.480,-18.066,-43.457,-35.645,-41.504,0.000
1709205980.484,-12.695,-33.691,-35.645,-43.457,0.000
1709205980.488,-16.602,-36.621,-39.551,-36.621,0.000
1709205980.492,-27.344,-45.898,-41.504,-37.598,0.000
1709205980.496,-26.855,-41.504,-32.227,-41.504,0.000
1709205980.500,-31.250,-45.898,-38.086,-43.457,0.000
1709205980.504,-33.691,-55.664,-41.992,-51.270,0.000
1709205980.508,-32.227,-49.316,-39.551,-59.570,0.000
1709205980.512,-39.551,-46.875,-44.434,-56.641,0.000
1709205980.516,-39.551,-49.805,-44.922,-52.734,0.000
1709205980.520,-34.180,-57.129,-43.457,-45.898,0.000
1709205980.523,-32.227,-53.711,-44.922,-37.109,0.000
1709205980.527,-33.691,-44.922,-43.945,-38.574,0.000
1709205980.531,-41.016,-47.363,-38.086,-35.645,0.000
1709205980.535,-35.156,-52.246,-32.227,-26.367,0.000
1709205980.539,-32.715,-52.246,-31.738,-35.156,0.000
1709205980.543,-42.480,-40.039,-29.297,-48.340,0.000
1709205980.547,-45.898,-44.922,-30.273,-46.875,0.000
1709205980.551,-49.805,-54.199,-31.738,-43.457,0.000
1709205980.555,-52.734,-51.270,-32.715,-43.945,0.000
1709205980.559,-47.363,-50.293,-31.738,-43.945,0.000
1709205980.563,-38.574,-54.199,-26.367,-34.668,0.000
1709205980.566,-41.016,-59.570,-26.367,-33.691,0.000
1709205980.570,-40.527,-59.082,-22.461,-32.227,0.000
1709205980.574,-34.180,-55.664,-24.902,-19.531,0.000
1709205980.578,-33.691,-60.059,-25.879,-10.254,0.000
1709205980.582,-33.691,-62.012,-22.461,-3.418,0.000
1709205980.586,-38.574,-49.805,-30.762,-14.648,0.000
1709205980.590,-31.250,-44.922,-29.297,-22.461,0.000
1709205980.594,0.000,-47.852,-28.320,-9.766,0.000
1709205980.598,0.000,-46.875,-34.180,-3.906,0.000
1709205980.602,0.000,-41.992,-33.691,-9.766,0.000
1709205980.606,0.000,-37.109,-38.086,-17.578,0.000
1709205980.609,0.000,-43.457,-42.969,-23.926,0.000
1709205980.613,0.000,-49.316,-41.992,-23.438,0.000
1709205980.617,0.000,-42.480,-41.504,-22.949,0.000
1709205980.621,0.000,-40.039,-40.039,-27.344,0.000
1709205980.625,0.000,-50.293,-38.086,-19.531,0.000
1709205980.629,0.000,-46.875,-36.133,-14.160,0.000
1709205980.633,0.000,-30.762,-41.504,-21.484,0.000
1709205980.637,0.000,-35.645,-46.387,-22.461,0.000
1709205980.641,-22.949,-40.527,-39.551,-26.855,0.000
1709205980.644,-22.461,-37.109,-37.109,-32.227,0.000
1709205980.648,-13.184,-29.297,-41.504,-42.480,0.000
1709205980.652,-10.742,-30.273,-40.527,-41.992,0.000
1709205980.656,-16.602,-37.109,-45.898,-39.551,0.000
1709205980.660,-17.090,-39.062,-51.270,-44.922,0.000
1709205980.664,-13.184,-36.621,-47.363,-45.410,0.000
1709205980.668,-9.766,-41.504,-46.387,-40.527,0.000
1709205980.672,-6.348,-48.828,-46.875,-29.785,0.000
1709205980.676,-5.859,-39.062,-45.410,-37.109,0.000
1709205980.679,0.977,-37.109,-44.434,-42.969,0.000
1709205980.683,2.930,-43.457,-42.480,-34.180,0.000
1709205980.687,-45.898,-43.945,-49.316,-44.434,0.000
1709205980.691,-41.504,-33.203,-50.293,-47.363,0.000
1709205980.695,-27.344,-28.809,-41.504,-41.016,0.000
1709205980.699,-27.832,-43.945,-41.504,-48.828,0.000
1709205980.703,-33.203,-43.945,-45.898,-52.734,0.000
1709205980.707,-35.156,-34.668,-41.992,-51.758,0.000
1709205980.711,-38.574,-31.738,-43.945,-53.711,0.000
1709205980.715,-33.203,-43.457,-47.852,-43.945,0.000
1709205980.719,-29.297,-37.109,-45.898,-44.434,0.000
1709205980.722,-36.133,-23.926,-42.969,-62.500,0.000
1709205980.726,-45.410,-35.645,-41.504,-58.105,0.000
1709205980.730,-46.875,-40.527,-44.434,-40.527,0.000
1709205980.734,-50.781,-29.785,-48.828,-50.781,0.000
1709205980.738,-47.363,-24.414,-48.828,-67.383,0.000
1709205980.742,-48.340,-37.598,-45.410,-76.172,0.000
1709205980.746,-59.082,-41.504,-48.828,-75.684,0.000
1709205980.750,-53.223,-37.109,-54.199,-58.105,0.000
1709205980.754,-43.457,-40.527,-48.828,-55.664,0.000
1709205980.758,-46.387,-44.922,-43.457,-58.594,0.000
1709205980.762,-46.387,-50.781,-40.039,-47.363,0.000
1709205980.765,-46.875,-34.180,-41.992,-53.223,0.000
1709205980.769,-43.457,-21.973,-36.133,-55.664,0.000
1709205980.773,-45.898,-37.598,-33.203,-43.457,0.000
1709205980.777,-40.527,-33.691,-38.574,-36.133,0.000
1709205980.781,-32.715,-15.137,-38.574,-31.250,0.000
1709205980.785,-39.551,-26.367,-39.551,-33.691,0.000
1709205980.789,-35.645,-39.551,-37.598,-31.738,0.000
1709205980.793,-38.574,-35.156,-38.574,-38.086,0.000
1709205980.797,-32.715,-32.715,-42.969,-36.621,0.000
1709205980.801,-21.973,-30.762,-44.434,-34.668,0.000
1709205980.804,-28.320,-44.434,-43.457,-41.992,0.000
1709205980.808,-36.133,-40.039,-41.504,-38.574,0.000
1709205980.812,-38.086,-23.438,-40.527,-40.039,0.000
1709205980.816,-30.762,-40.527,-41.504,-41.016,0.000
1709205980.820,-30.273,-40.527,-46.387,-42.969,0.000
1709205980.824,-27.832,-33.203,-47.852,-46.875,0.000
1709205980.828,-29.785,-31.250,-50.293,-53.711,0.000
1709205980.832,-30.762,-35.645,-48.340,-46.875,0.000
1709205980.836,-27.344,-40.527,-42.969,-45.898,0.000
1709205980.840,-35.156,-34.180,-43.945,-50.781,0.000
1709205980.844,-33.203,-34.180,-42.969,-47.363,0.000
1709205980.847,-30.762,-42.480,-35.645,-42.969,0.000
1709205980.851,-41.992,-53.223,-32.715,-34.668,0.000
1709205980.855,-40.039,-40.527,-36.621,-41.504,0.000
1709205980.859,-33.203,-30.762,-45.898,-54.688,0.000
1709205980.863,-35.156,-42.480,-47.852,-50.781,0.000
1709205980.867,-43.457,-41.016,-53.223,-46.875,0.000
1709205980.871,-40.527,-36.133,-52.246,-36.621,0.000
1709205980.875,-32.715,-34.180,-42.480,-39.551,0.000
1709205980.879,-42.969,-33.203,-44.434,-56.641,0.000
1709205980.883,-50.781,-36.133,-47.852,-59.082,0.000
1709205980.886,-53.223,-38.086,-47.363,-62.988,0.000
1709205980.890,-60.547,-39.062,-44.434,-64.453,0.000
1709205980.894,-51.758,-46.875,-39.062,-45.898,0.000
1709205980.898,-49.805,-47.363,-39.551,-43.945,0.000
1709205980.902,-55.664,-38.086,-41.992,-48.828,0.000
1709205980.906,-57.129,-42.969,-41.992,-47.363,0.000
1709205980.910,-59.570,-50.781,-41.016,-44.922,0.000
1709205980.914,-57.129,-46.387,-41.504,-40.527,0.000
1709205980.918,-52.246,-39.062,-42.480,-45.410,0.000
1709205980.922,-44.434,-41.016,-37.598,-43.945,0.000
1709205980.926,-37.598,-48.340,-35.645,-39.062,0.000
1709205980.929,-42.969,-51.270,-39.062,-37.598,0.000
1709205980.933,-44.434,-45.898,-41.992,-42.969,0.000
1709205980.937,-40.039,-46.875,-41.504,-44.922,0.000
1709205980.941,-34.668,-53.711,-36.621,-35.156,0.000
1709205980.945,-42.480,-47.852,-35.156,-32.227,0.000
1709205980.949,-49.316,-44.922,-39.551,-32.227,0.000
1709205980.953,-42.969,-57.129,-38.574,-25.879,0.000
1709205980.957,-43.457,-62.500,-39.062,-19.043,0.000
1709205980.961,-45.410,-57.129,-36.621,-20.508,0.000
1709205980.965,-51.758,-56.641,-34.668,-37.109,0.000
1709205980.969,0.000,-54.199,-37.598,-47.852,0.000
1709205980.972,0.000,-53.223,-30.273,-39.551,0.000
1709205980.976,0.000,-51.270,-28.809,-42.969,0.000
1709205980.980,0.000,-47.363,-28.809,-33.691,0.000
1709205980.984,0.000,-51.270,-27.344,-23.926,0.000
1709205980.988,0.000,-54.199,-27.344,-31.738,0.000
1709205980.992,0.000,-50.293,-29.785,-31.738,0.000
1709205980.996,0.000,-48.340,-31.738,-29.785,0.000
1709205981.000,0.000,-59.082,-29.297,-23.926,0.000
1709205981.004,0.000,-57.129,-36.133,-31.250,0.000
1709205981.008,0.000,-41.016,-41.504,-54.688,0.000
1709205981.011,0.000,-46.387,-39.062,-60.059,0.000
1709205981.015,-41.992,-45.898,-40.039,-51.270,0.000
1709205981.019,-40.527,-44.434,-42.480,-47.852,0.000
1709205981.023,-30.762,-42.480,-40.039,-50.293,0.000
1709205981.027,-25.391,-35.156,-37.109,-43.457,0.000
1709205981.031,-36.621,-38.574,-41.992,-40.527,0.000
1709205981.035,-31.250,-47.852,-45.898,-40.527,0.000
1709205981.039,-26.855,-50.781,-39.062,-34.180,0.000
1709205981.043,-37.109,-50.781,-35.645,-40.039,0.000
1709205981.047,-37.109,-51.758,-40.527,-30.273,0.000
1709205981.051,-36.133,-41.504,-41.992,-24.902,0.000
1709205981.054,-43.457,-35.645,-36.133,-40.039,0.000
1709205981.058,-53.223,-43.457,-41.504,-48.340,0.000
1709205981.062,-49.805,-42.969,-45.898,-54.199,0.000
1709205981.066,-55.664,-35.156,-44.922,-49.316,0.000
1709205981.070,-59.570,-41.016,-42.480,-37.109,0.000
1709205981.074,-53.223,-48.340,-36.621,-35.156,0.000
1709205981.078,-48.340,-45.898,-39.062,-41.016,0.000
1709205981.082,-44.922,-49.805,-41.016,-41.016,0.000
1709205981.086,-43.945,-46.387,-38.086,-46.387,0.000
1709205981.090,-48.340,-54.688,-40.039,-39.551,0.000
1709205981.093,-51.758,-60.547,-39.551,-32.715,0.000
1709205981.097,-41.016,-42.480,-38.574,-40.039,0.000
1709205981.101,-37.109,-47.852,-39.551,-36.621,0.000
1709205981.105,-41.992,-54.199,-36.133,-32.715,0.000
1709205981.109,-42.480,-49.316,-35.156,-32.715,0.000
1709205981.113,-44.434,-48.340,-36.133,-36.133,0.000
1709205981.117,-41.504,-52.246,-35.156,-42.480,0.000
1709205981.121,-37.109,-58.594,-37.598,-42.480,0.000
1709205981.125,-36.133,-60.059,-40.527,-43.457,0.000
1709205981.129,-38.574,-60.547,-38.574,-41.992,0.000
1709205981.133,-47.363,-63.477,-39.551,-39.551,0.000
1709205981.136,-41.992,-59.570,-43.945,-44.922,0.000
1709205981.140,-35.645,-42.480,-45.898,-43.945,0.000
1709205981.144,-43.457,-40.527,-46.875,-39.551,0.000
1709205981.148,-53.223,-50.293,-41.992,-39.551,0.000
1709205981.152,-50.781,-47.363,-39.062,-30.273,0.000
1709205981.156,-41.504,-41.504,-44.434,-34.180,0.000
1709205981.160,-50.781,-50.781,-46.875,-55.664,0.000
1709205981.164,-58.105,-54.688,-44.434,-59.570,0.000
1709205981.168,-55.664,-42.969,-35.156,-48.340,0.000
1709205981.172,-53.711,-43.945,-30.762,-46.875,0.000
1709205981.176,-51.758,-52.734,-36.133,-53.223,0.000
1709205981.179,-53.711,-61.523,-37.598,-48.828,0.000
1709205981.183,-51.270,-52.246,-34.668,-43.457,0.000
1709205981.187,-49.805,-33.691,-38.574,-54.199,0.000
1709205981.191,-53.711,-49.805,-43.945,-59.082,0.000
1709205981.195,-51.270,-53.223,-41.992,-49.805,0.000
1709205981.199,-54.199,-44.434,-40.527,-49.316,0.000
1709205981.203,-55.176,-41.992,-34.668,-49.316,0.000
1709205981.207,-49.316,-37.598,-32.715,-43.457,0.000
1709205981.211,-52.246,-40.039,-35.645,-35.156,0.000
1709205981.215,-52.734,-45.410,-37.109,-28.320,0.000
1709205981.218,-42.480,-45.410,-41.504,-40.527,0.000
1709205981.222,-37.109,-52.734,-45.410,-52.734,0.000
1709205981.226,-36.133,-61.523,-42.480,-42.969,0.000
1709205981.230,-40.039,-38.574,-38.574,-32.715,0.000
1709205981.234,-41.016,-32.715,-39.551,-32.227,0.000
1709205981.238,-30.273,-49.805,-41.504,-23.438,0.000
1709205981.242,-33.203,-45.410,-42.480,-27.344,0.000
1709205981.246,-39.062,-30.273,-40.527,-41.992,0.000
1709205981.250,-32.227,-31.738,-42.480,-40.039,0.000
1709205981.254,-31.738,-43.457,-50.293,-38.574,0.000
1709205981.258,-28.809,-39.551,-51.758,-39.062,0.000
1709205981.261,-30.762,-38.086,-51.758,-32.227,0.000
1709205981.265,-42.969,-43.945,-54.688,-35.156,0.000
1709205981.269,-46.875,-45.898,-51.270,-47.852,0.000
1709205981.273,-42.480,-43.457,-51.270,-56.641,0.000
1709205981.277,-39.551,-40.039,-50.781,-53.223,0.000
1709205981.281,-41.504,-41.992,-50.293,-50.781,0.000
1709205981.285,-43.945,-61.035,-49.805,-43.945,0.000
1709205981.289,-50.781,-57.617,-40.527,-41.992,0.000
1709205981.293,-47.852,-36.621,-35.645,-47.363,0.000
1709205981.297,-41.992,-42.480,-34.180,-41.504,0.000
1709205981.301,-42.969,-43.945,-35.645,-35.156,0.000
1709205981.304,-49.316,-40.527,-37.109,-45.410,0.000
1709205981.308,-57.129,-39.551,-39.551,-64.941,0.000
1709205981.312,-56.152,-39.551,-40.527,-59.082,0.000
1709205981.316,-52.246,-46.875,-40.039,-48.828,0.000
1709205981.320,-54.199,-49.316,-40.039,-45.898,0.000
1709205981.324,-49.316,-42.480,-41.504,-45.898,0.000
1709205981.328,-48.340,-47.363,-44.434,-45.410,0.000
1709205981.332,-47.852,-45.410,-41.992,-39.062,0.000
1709205981.336,-40.527,-31.250,-42.969,-44.922,0.000
1709205981.339,-40.039,-30.762,-44.922,-47.852,0.000
1709205981.344,-38.574,-45.898,-37.598,-37.109,0.000
1709205981.347,-39.551,-52.734,-41.992,-37.109,0.000
1709205981.351,-43.945,-43.457,-51.758,-44.922,0.000
1709205981.355,-39.062,-41.504,-46.875,-35.645,0.000
1709205981.359,-31.738,-42.480,-39.551,-26.855,0.000
1709205981.363,-20.508,-39.551,-38.086,-34.180,0.000
1709205981.367,-22.949,-31.250,-40.527,-40.039,0.000
1709205981.371,-31.250,-34.668,-36.133,-34.180,0.000
1709205981.375,-26.367,-50.781,-34.668,-26.855,0.000
1709205981.379,-25.391,-46.387,-39.551,-33.203,0.000
1709205981.382,-30.762,-39.062,-37.598,-45.410,0.000
1709205981.386,-38.574,-54.688,-35.645,-46.875,0.000
1709205981.390,-43.945,-49.805,-42.480,-33.203,0.000
1709205981.394,-45.898,-35.645,-43.457,-27.832,0.000
1709205981.398,-43.457,-38.086,-37.598,-52.734,0.000
1709205981.402,-34.668,-38.086,-36.133,-56.641,0.000
1709205981.406,-34.180,-38.574,-36.621,-46.875,0.000
1709205981.410,-43.457,-43.945,-36.133,-40.039,0.000
1709205981.414,-43.945,-40.527,-40.039,-52.734,0.000
1709205981.418,-37.598,-43.457,-42.480,-56.152,0.000
1709205981.422,-40.527,-48.340,-41.016,-37.598,0.000
1709205981.425,-51.270,-31.250,-39.062,-38.086,0.000
1709205981.429,-51.270,-25.391,-38.574,-46.387,0.000
1709205981.433,-40.039,-35.156,-43.457,-46.387,0.000
1709205981.437,-39.062,-36.621,-41.992,-38.574,0.000
1709205981.441,-35.645,-40.527,-37.598,-37.598,0.000
1709205981.445,-30.762,-51.270,-34.180,-38.574,0.000
1709205981.449,-39.062,-44.434,-30.762,-32.227,0.000
1709205981.453,-39.551,-39.551,-33.203,-30.273,0.000
1709205981.457,-32.227,-45.898,-34.180,-28.809,0.000
1709205981.461,-31.250,-42.969,-40.039,-30.273,0.000
1709205981.465,-36.133,-53.223,-41.016,-26.367,0.000
1709205981.468,-38.086,-52.734,-39.551,-9.766,0.000
1709205981.472,-37.109,-36.133,-41.016,-16.602,0.000
1709205981.476,-28.320,-38.086,-36.133,-27.344,0.000
1709205981.480,-25.391,-41.992,-38.086,-29.785,0.000
1709205981.484,-28.809,-36.621,-42.480,-41.016,0.000
1709205981.488,-29.785,-29.785,-34.668,-37.598,0.000
1709205981.492,-24.414,-37.598,-26.855,-31.250,0.000
1709205981.496,-20.996,-39.551,-30.273,-25.879,0.000
1709205981.500,-28.809,-32.715,-33.203,-25.391,0.000
1709205981.504,-38.086,-37.598,-34.668,-32.715,0.000
1709205981.508,-39.551,-40.039,-36.133,-31.738,0.000
1709205981.511,-36.621,-46.875,-37.109,-26.367,0.000
1709205981.515,-41.504,-42.969,-42.969,-32.227,0.000
1709205981.519,-37.109,-35.156,-45.898,-30.762,0.000
1709205981.523,-20.020,-37.598,-37.109,-22.949,0.000
1709205981.527,-19.043,-37.598,-26.855,-40.527,0.000
1709205981.531,-22.461,-38.574,-27.832,-41.992,0.000
1709205981.535,-19.531,-41.992,-38.574,-35.645,0.000
1709205981.539,-23.926,-44.922,-39.551,-39.551,0.000
1709205981.543,-34.180,-43.457,-37.109,-39.062,0.000
1709205981.547,-40.039,-37.598,-37.109,-35.645,0.000
1709205981.550,-33.691,-39.551,-31.250,-32.715,0.000
1709205981.554,-29.785,-51.758,-34.668,-32.227,0.000
1709205981.558,-27.832,-53.711,-38.086,-37.109,0.000
1709205981.562,-36.133,-41.016,-38.574,-61.035,0.000
1709205981.566,-49.316,-42.480,-41.992,-59.082,0.000
1709205981.570,-44.434,-44.922,-39.062,-44.434,0.000
1709205981.574,-39.062,-40.527,-39.551,-39.062,0.000
1709205981.578,0.000,-37.109,-42.480,-41.992,0.000
1709205981.582,0.000,-44.434,-39.551,-50.293,0.000
1709205981.586,0.000,-51.758,-40.527,-52.734,0.000
1709205981.590,0.000,-43.457,-35.156,-42.480,0.000
1709205981.593,0.000,-47.363,-33.203,-44.922,0.000
1709205981.597,0.000,-59.570,-37.598,-57.617,0.000
1709205981.601,0.000,-58.105,-33.691,-53.711,0.000
1709205981.605,0.000,-44.434,-37.598,-59.570,0.000
1709205981.609,0.000,-39.062,-40.527,-60.059,0.000
1709205981.613,0.000,-45.898,-41.016,-48.340,0.000
1709205981.617,0.000,-45.898,-44.922,-57.129,0.000
1709205981.621,0.000,-38.086,-44.434,-71.777,0.000
1709205981.625,-46.387,-40.527,-44.922,-70.801,0.000
1709205981.629,-40.527,-44.434,-41.016,-55.664,0.000
1709205981.632,-31.250,-41.504,-36.621,-39.062,0.000
1709205981.636,-29.297,-39.551,-39.062,-38.086,0.000
1709205981.640,-20.996,-38.086,-37.598,-36.621,0.000
1709205981.644,-20.020,-48.828,-33.691,-20.996,0.000
1709205981.648,-30.762,-50.781,-33.691,-19.043,0.000
1709205981.652,-35.645,-40.527,-37.598,-32.227,0.000
1709205981.656,-32.227,-43.945,-35.645,-26.855,0.000
1709205981.660,-31.738,-47.852,-37.598,-20.020,0.000
1709205981.664,-39.062,-40.039,-39.062,-27.832,0.000
1709205981.668,-41.016,-39.551,-34.668,-37.598,0.000
1709205981.672,-41.992,-49.316,-34.180,-35.645,0.000
1709205981.675,-40.527,-44.922,-36.133,-38.086,0.000
1709205981.679,-33.691,-38.086,-38.574,-55.176,0.000
1709205981.683,-34.668,-40.039,-39.551,-62.500,0.000
1709205981.687,-48.828,-45.410,-38.574,-60.059,0.000
1709205981.691,-58.105,-50.293,-39.551,-52.734,0.000
1709205981.695,-53.711,-42.969,-41.504,-49.805,0.000
1709205981.699,-47.363,-41.016,-43.457,-50.781,0.000
1709205981.703,-43.945,-46.875,-41.992,-47.363,0.000
1709205981.707,-49.805,-52.246,-42.480,-47.363,0.000
1709205981.711,-55.176,-41.504,-48.828,-48.340,0.000
1709205981.714,-47.363,-36.133,-43.457,-47.363,0.000
1709205981.718,-43.945,-45.898,-39.062,-47.363,0.000
1709205981.722,-47.363,-41.992,-42.969,-43.945,0.000
1709205981.726,-48.828,-36.133,-45.410,-45.898,0.000
1709205981.730,-52.734,-51.270,-49.805,-56.152,0.000
1709205981.734,-50.781,-55.176,-47.852,-62.012,0.000
1709205981.738,-45.898,-45.410,-45.898,-55.664,0.000
1709205981.742,-50.781,-43.945,-43.945,-47.852,0.000
1709205981.746,-55.664,-39.062,-43.457,-54.199,0.000
1709205981.750,-53.223,-53.711,-44.434,-54.199,0.000
1709205981.754,-46.387,-48.828,-40.527,-42.969,0.000
1709205981.757,-43.945,-25.391,-41.992,-49.316,0.000
1709205981.761,-42.480,-35.156,-41.992,-44.922,0.000
1709205981.765,-50.781,-49.805,-39.551,-53.223,0.000
1709205981.769,-57.617,-47.852,-42.969,-62.012,0.000
1709205981.773,-52.246,-42.480,-40.527,-52.734,0.000
1709205981.777,-44.922,-46.875,-40.039,-46.387,0.000
1709205981.781,-44.922,-54.199,-43.457,-48.828,0.000
1709205981.785,-40.039,-52.246,-40.039,-48.340,0.000
1709205981.789,-41.016,-43.945,-32.715,-50.781,0.000
1709205981.793,-54.688,-49.316,-38.574,-49.316,0.000
1709205981.797,-40.039,-56.641,-37.109,-33.203,0.000
1709205981.800,-32.227,-41.992,-31.250,-35.645,0.000
1709205981.804,-40.527,-42.480,-35.156,-41.016,0.000
1709205981.808,-47.852,-57.617,-36.621,-33.203,0.000
1709205981.812,-51.758,-54.199,-36.133,-33.203,0.000
1709205981.816,-48.340,-43.457,-31.738,-35.645,0.000
1709205981.820,-41.992,-43.945,-30.273,-39.551,0.000
1709205981.824,-44.922,-50.781,-38.086,-48.828,0.000
1709205981.828,-52.734,-52.734,-41.016,-55.176,0.000
1709205981.832,-49.805,-42.480,-35.645,-50.781,0.000
1709205981.836,-44.434,-41.504,-31.250,-43.945,0.000
1709205981.839,-43.945,-51.270,-30.273,-32.227,0.000
1709205981.843,-42.969,-44.922,-36.133,-34.668,0.000
1709205981.847,-41.016,-27.832,-36.133,-50.781,0.000
1709205981.851,-40.527,-36.621,-36.133,-47.363,0.000
1709205981.855,-36.621,-42.969,-37.109,-40.527,0.000
1709205981.859,-32.715,-38.086,-35.156,-36.621,0.000
1709205981.863,-31.250,-39.062,-34.180,-32.227,0.000
1709205981.867,-37.598,-52.734,-34.668,-30.762,0.000
1709205981.871,-41.016,-57.617,-38.086,-27.344,0.000
1709205981.875,-33.691,-46.875,-34.180,-32.715,0.000
1709205981.879,-27.344,-44.434,-29.297,-36.621,0.000
1709205981.882,-26.367,-47.363,-39.551,-33.691,0.000
1709205981.886,-34.668,-55.664,-44.434,-31.738,0.000
1709205981.890,-37.598,-44.434,-38.574,-32.715,0.000
1709205981.894,-28.809,-37.109,-41.016,-37.598,0.000
1709205981.898,-28.320,-50.293,-41.016,-42.480,0.000
1709205981.902,-30.273,-52.246,-38.086,-40.527,0.000
1709205981.906,-31.250,-46.387,-36.133,-39.551,0.000
1709205981.910,-34.668,-48.828,-30.273,-33.203,0.000
1709205981.914,-34.668,-47.852,-30.762,-19.043,0.000
1709205981.918,-31.250,-43.945,-37.109,-19.531,0.000
1709205981.922,-26.367,-44.922,-35.156,-35.156,0.000
1709205981.925,-28.809,-47.852,-27.832,-43.457,0.000
1709205981.929,-42.480,-60.059,-31.738,-38.086,0.000
1709205981.933,-56.152,-60.547,-42.969,-40.039,0.000
1709205981.937,-53.223,-43.457,-43.457,-50.293,0.000
1709205981.941,-45.898,-42.969,-40.527,-47.363,0.000
1709205981.945,-48.340,-50.781,-39.551,-50.293,0.000
1709205981.949,-52.246,-44.922,-39.551,-48.828,0.000
1709205981.953,-53.223,-35.645,-36.621,-43.945,0.000
1709205981.957,-50.781,-40.039,-34.180,-45.898,0.000
1709205981.961,-46.875,-42.480,-33.691,-47.363,0.000
1709205981.964,-52.246,-42.480,-36.621,-44.434,0.000
1709205981.968,-52.734,-45.410,-38.574,-54.199,0.000
1709205981.972,-49.316,-50.781,-36.621,-60.547,0.000
1709205981.976,-48.828,-55.664,-38.086,-50.781,0.000
1709205981.980,-50.781,-41.992,-37.598,-60.059,0.000
1709205981.984,-50.293,-31.738,-40.039,-66.895,0.000
1709205981.988,-46.875,-34.180,-36.133,-50.293,0.000
1709205981.992,-54.199,-38.574,-35.156,-46.875,0.000
1709205981.996,-47.852,-32.715,-39.551,-45.410,0.000
1709205982.000,-41.016,-36.133,-43.457,-43.945,0.000
1709205982.003,-42.969,-48.828,-44.434,-40.039,0.000
1709205982.007,-51.270,-51.758,-42.480,-31.738,0.000
1709205982.011,-49.805,-48.828,-47.363,-33.691,0.000
1709205982.015,-34.668,-44.434,-45.410,-29.297,0.000
1709205982.019,-29.297,-51.270,-41.016,-30.762,0.000
1709205982.023,-30.762,-45.898,-40.039,-36.621,0.000
1709205982.027,-28.809,-34.180,-39.551,-33.691,0.000
1709205982.031,-24.902,-35.156,-33.203,-28.320,0.000
1709205982.035,-31.250,-52.734,-39.062,-22.949,0.000
1709205982.039,-32.227,-50.293,-46.387,-17.578,0.000
1709205982.042,-30.273,-38.086,-38.574,-27.344,0.000
1709205982.046,-39.062,-44.434,-37.109,-37.598,0.000
1709205982.050,-49.805,-48.340,-39.062,-42.480,0.000
1709205982.054,-49.805,-45.410,-37.598,-42.480,0.000
1709205982.058,-41.992,-41.016,-40.039,-32.715,0.000
1709205982.062,-42.480,-44.434,-37.598,-35.645,0.000
1709205982.066,-41.992,-53.223,-31.250,-31.738,0.000
1709205982.070,-42.969,-53.711,-34.180,-34.668,0.000
1709205982.074,-40.527,-46.387,-38.086,-39.551,0.000
1709205982.078,-35.645,-47.852,-36.621,-29.297,0.000
1709205982.082,-32.227,-50.781,-35.645,-30.273,0.000
1709205982.085,-27.344,-37.109,-29.785,-29.297,0.000
1709205982.089,-33.203,-40.527,-34.180,-31.250,0.000
1709205982.093,-33.203,-48.340,-39.551,-37.598,0.000
1709205982.097,-27.344,-40.527,-37.109,-41.992,0.000
1709205982.101,-25.879,-41.016,-39.551,-49.805,0.000
1709205982.105,-35.156,-46.875,-39.062,-49.805,0.000
1709205982.109,-34.180,-49.805,-36.621,-50.781,0.000
1709205982.113,-29.297,-42.480,-33.203,-47.363,0.000
1709205982.117,-37.109,-35.156,-36.133,-38.574,0.000
1709205982.121,-32.227,-39.062,-37.598,-38.574,0.000
1709205982.125,-36.621,-60.547,-40.039,-26.855,0.000
1709205982.128,-37.109,-58.594,-37.598,-20.020,0.000
1709205982.132,-28.809,-33.203,-30.762,-37.598,0.000
1709205982.136,-44.922,-42.480,-41.016,-43.945,0.000
1709205982.140,0.000,-50.781,-45.898,-45.898,0.000
1709205982.144,0.000,-41.016,-38.574,-49.805,0.000
1709205982.148,0.000,-38.086,-36.621,-42.969,0.000
1709205982.152,0.000,-41.504,-33.203,-32.715,0.000
1709205982.156,0.000,-48.340,-35.156,-27.832,0.000
1709205982.160,0.000,-46.387,-38.574,-22.949,0.000
1709205982.164,0.000,-43.945,-34.180,-26.855,0.000
1709205982.168,0.000,-50.781,-36.621,-44.922,0.000
1709205982.171,0.000,-45.410,-38.086,-42.480,0.000
1709205982.175,0.000,-29.785,-35.156,-35.645,0.000
1709205982.179,0.000,-32.715,-35.645,-33.203,0.000
1709205982.183,0.000,-39.062,-38.574,-33.691,0.000
1709205982.187,-35.645,-44.434,-41.992,-34.668,0.000
1709205982.191,-30.273,-40.039,-36.621,-26.367,0.000
1709205982.195,-33.203,-34.180,-38.574,-36.133,0.000
1709205982.199,-30.762,-45.898,-41.504,-41.016,0.000
1709205982.203,-28.809,-46.387,-43.457,-41.504,0.000
1709205982.207,-28.809,-36.133,-40.527,-35.645,0.000
1709205982.211,-33.203,-38.574,-37.598,-27.832,0.000
1709205982.215,-41.504,-54.688,-41.504,-27.832,0.000
1709205982.218,-38.086,-46.875,-39.062,-28.320,0.000
1709205982.222,-32.227,-31.738,-39.551,-52.734,0.000
1709205982.226,-41.016,-44.434,-43.457,-70.312,0.000
1709205982.230,-46.875,-45.898,-43.945,-60.547,0.000
1709205982.234,-35.645,-33.691,-41.016,-49.805,0.000
1709205982.238,-27.344,-35.645,-41.016,-44.434,0.000
1709205982.242,-25.391,-45.410,-41.992,-46.387,0.000
1709205982.246,-29.297,-41.992,-43.945,-45.898,0.000
1709205982.250,-32.715,-32.227,-45.898,-38.086,0.000
1709205982.254,-35.156,-36.621,-41.504,-41.992,0.000
1709205982.258,-33.691,-45.410,-33.203,-44.922,0.000
1709205982.261,-43.945,-48.828,-30.762,-31.738,0.000
1709205982.265,-58.105,-38.574,-32.715,-37.598,0.000
1709205982.269,-60.547,-38.086,-38.574,-60.059,0.000
1709205982.273,-62.012,-43.457,-35.645,-61.035,0.000
1709205982.277,-58.105,-38.574,-36.133,-48.340,0.000
1709205982.281,-55.664,-36.133,-41.504,-47.363,0.000
1709205982.285,-59.570,-35.156,-39.551,-48.828,0.000
1709205982.289,-57.617,-42.969,-41.504,-50.781,0.000
1709205982.293,-59.082,-48.340,-41.992,-55.176,0.000
1709205982.297,-49.805,-46.387,-41.504,-43.945,0.000
1709205982.300,-36.621,-48.828,-45.898,-43.457,0.000
1709205982.304,-27.832,-52.734,-44.922,-29.297,0.000
1709205982.308,-29.785,-45.410,-41.016,-15.625,0.000
1709205982.312,-30.762,-29.785,-41.992,-23.926,0.000
1709205982.316,-21.484,-33.203,-40.527,-29.297,0.000
1709205982.320,-22.461,-36.133,-41.504,-37.109,0.000
1709205982.324,-31.250,-33.203,-43.457,-49.316,0.000
1709205982.328,0.000,-37.109,-43.457,-58.594,0.000
1709205982.332,0.000,-43.945,-35.645,-42.969,0.000
1709205982.336,0.000,-44.922,-31.250,-31.250,0.000
1709205982.340,0.000,-37.598,-39.062,-38.574,0.000
1709205982.343,0.000,-40.527,-40.039,-46.387,0.000
1709205982.347,0.000,-52.246,-30.273,-45.898,0.000
1709205982.351,0.000,-61.523,-33.203,-41.504,0.000
1709205982.355,0.000,-43.945,-40.527,-40.527,0.000
1709205982.359,0.000,-34.668,-43.457,-54.688,0.000
1709205982.363,0.000,-51.758,-46.387,-52.734,0.000
1709205982.367,0.000,-48.828,-45.898,-41.016,0.000
1709205982.371,0.000,-36.133,-43.945,-50.293,0.000
1709205982.375,-38.086,-39.062,-44.922,-48.828,0.000
1709205982.379,-27.832,-51.270,-45.898,-43.945,0.000
1709205982.382,-33.203,-48.828,-46.875,-40.527,0.000
1709205982.386,-41.016,-41.016,-45.898,-33.203,0.000
1709205982.390,-46.875,-48.828,-43.457,-27.832,0.000
1709205982.394,-40.039,-61.035,-38.574,-15.137,0.000
1709205982.398,-32.227,-54.688,-40.527,-16.602,0.000
1709205982.402,-31.250,-45.410,-42.969,-31.738,0.000
1709205982.406,-35.156,-52.734,-43.945,-40.527,0.000
1709205982.410,-42.969,-58.594,-46.387,-48.828,0.000
1709205982.414,-42.480,-55.176,-45.898,-38.086,0.000
1709205982.418,-35.156,-47.852,-41.016,-32.715,0.000
1709205982.422,-28.320,-40.527,-39.062,-34.668,0.000
1709205982.425,-36.133,-43.457,-39.551,-41.992,0.000
1709205982.429,-47.363,-41.992,-46.387,-50.781,0.000
1709205982.433,-55.176,-38.086,-49.805,-47.852,0.000
1709205982.437,-52.734,-48.828,-46.387,-46.875,0.000
1709205982.441,-46.387,-61.035,-46.387,-39.062,0.000
1709205982.445,-41.016,-58.105,-45.898,-33.691,0.000
1709205982.449,-42.969,-47.363,-38.574,-43.945,0.000
1709205982.453,-43.457,-37.598,-26.367,-45.410,0.000
1709205982.457,-40.527,-40.039,-27.832,-36.133,0.000
1709205982.461,-40.527,-33.691,-38.086,-41.016,0.000
1709205982.464,-36.133,-35.156,-35.645,-43.457,0.000
1709205982.468,-41.504,-44.922,-34.668,-39.551,0.000
1709205982.472,-44.922,-41.016,-39.551,-36.133,0.000
1709205982.476,-34.180,-33.203,-40.039,-29.785,0.000
1709205982.480,-23.438,-40.527,-38.574,-37.109,0.000
1709205982.484,-27.832,-47.852,-40.527,-48.340,0.000
1709205982.488,-35.156,-42.969,-36.133,-43.457,0.000
1709205982.492,-33.691,-38.086,-29.785,-33.691,0.000
1709205982.496,-27.832,-30.762,-32.227,-30.762,0.000
1709205982.500,-26.855,-42.969,-37.109,-38.086,0.000
1709205982.504,-29.785,-45.410,-39.551,-35.645,0.000
1709205982.507,-26.855,-27.832,-39.551,-24.414,0.000
1709205982.511,-18.066,-33.203,-37.109,-20.020,0.000
1709205982.515,-13.672,-34.180,-32.227,-25.879,0.000
1709205982.519,-18.066,-30.273,-32.715,-36.133,0.000
1709205982.523,-22.461,-29.297,-35.156,-32.227,0.000
1709205982.527,-27.344,-31.738,-31.738,-26.855,0.000
1709205982.531,-33.691,-38.574,-30.762,-28.320,0.000
1709205982.535,-30.273,-33.203,-36.621,-33.203,0.000
1709205982.539,-26.855,-32.715,-37.109,-31.250,0.000
1709205982.543,-31.250,-41.504,-37.598,-26.855,0.000
1709205982.547,-39.551,-49.316,-39.062,-27.344,0.000
1709205982.550,-43.457,-34.668,-38.574,-40.527,0.000
1709205982.554,-40.039,-30.762,-40.527,-39.551,0.000
1709205982.558,-36.133,-42.480,-40.527,-25.879,0.000
1709205982.562,-36.621,-42.969,-38.086,-21.973,0.000
1709205982.566,-37.598,-34.180,-40.527,-24.902,0.000
1709205982.570,-39.062,-35.156,-39.062,-25.879,0.000
1709205982.574,-43.945,-43.945,-36.133,-29.785,0.000
1709205982.578,-40.527,-46.387,-36.621,-32.715,0.000
1709205982.582,-45.898,-49.805,-34.668,-24.902,0.000
1709205982.586,-55.176,-48.340,-35.645,-23.438,0.000
1709205982.590,-54.688,-61.035,-37.598,-19.531,0.000
1709205982.593,-54.688,-57.129,-37.109,-23.926,0.000
1709205982.597,-49.316,-35.156,-38.086,-33.691,0.000
1709205982.601,-43.945,-42.969,-37.598,-34.668,0.000
1709205982.605,-48.828,-43.945,-39.551,-45.410,0.000
1709205982.609,-56.152,-40.527,-41.016,-57.129,0.000
1709205982.613,-58.105,-44.434,-47.363,-51.270,0.000
1709205982.617,-46.387,-46.875,-46.387,-48.828,0.000
1709205982.621,-45.410,-47.363,-45.410,-54.199,0.000
1709205982.625,-60.547,-46.875,-49.805,-56.152,0.000
1709205982.629,-59.570,-53.223,-46.875,-51.270,0.000
1709205982.632,-49.316,-54.199,-43.457,-46.387,0.000
1709205982.636,-44.434,-50.293,-45.410,-36.621,0.000
1709205982.640,-40.527,-29.785,-40.039,-35.645,0.000
1709205982.644,-43.457,-25.879,-36.133,-42.969,0.000
1709205982.648,-55.176,-38.574,-40.039,-50.293,0.000
1709205982.652,-59.082,-43.945,-45.898,-55.664,0.000
1709205982.656,-46.387,-41.504,-40.527,-43.945,0.000
1709205982.660,-40.039,-43.945,-35.645,-41.504,0.000
1709205982.664,-44.922,-55.176,-41.504,-41.992,0.000
1709205982.668,-50.781,-50.293,-40.039,-41.504,0.000
1709205982.672,-51.758,-40.527,-35.645,-35.645,0.000
1709205982.675,-46.875,-41.016,-39.551,-41.992,0.000
1709205982.679,-38.574,-52.246,-40.039,-40.527,0.000
1709205982.683,-34.180,-46.875,-36.133,-27.832,0.000
1709205982.687,-33.691,-27.344,-38.086,-29.297,0.000
1709205982.691,-32.227,-33.691,-35.645,-24.902,0.000
1709205982.695,-33.691,-41.992,-33.691,-19.043,0.000
1709205982.699,-35.645,-39.062,-40.039,-23.438,0.000
1709205982.703,-36.133,-41.016,-37.109,-25.391,0.000
1709205982.707,-36.133,-43.945,-39.062,-25.391,0.000
1709205982.711,-38.086,-50.293,-42.969,-30.273,0.000
1709205982.714,-49.316,-46.387,-42.480,-35.645,0.000
1709205982.718,-51.758,-39.551,-39.551,-32.715,0.000
1709205982.722,-44.434,-48.828,-37.109,-36.133,0.000
1709205982.726,-42.480,-60.059,-39.551,-37.598,0.000
1709205982.730,-50.781,-49.805,-40.039,-34.180,0.000
1709205982.734,-55.664,-40.039,-40.527,-38.574,0.000
1709205982.738,-49.316,-45.898,-37.598,-37.598,0.000
1709205982.742,-41.016,-47.852,-33.691,-38.574,0.000
1709205982.746,-40.527,-42.480,-36.133,-40.039,0.000
1709205982.750,-45.410,-43.457,-33.691,-35.156,0.000
1709205982.754,-44.434,-52.246,-33.691,-29.785,0.000
1709205982.757,-41.016,-53.711,-39.062,-25.391,0.000
1709205982.761,-37.109,-51.270,-40.039,-39.062,0.000
1709205982.765,-38.574,-43.457,-34.180,-46.387,0.000
1709205982.769,-41.016,-49.805,-30.273,-30.762,0.000
1709205982.773,-38.574,-47.363,-31.738,-29.297,0.000
1709205982.777,-33.691,-38.086,-30.273,-30.762,0.000
1709205982.781,-35.156,-47.852,-31.738,-31.738,0.000
1709205982.785,-41.504,-49.316,-40.039,-27.832,0.000
1709205982.789,-45.898,-41.016,-41.504,-35.156,0.000
1709205982.793,-40.527,-41.992,-40.039,-37.598,0.000
1709205982.797,-35.645,-46.387,-39.062,-21.973,0.000
1709205982.800,-40.527,-44.434,-40.527,-36.133,0.000
1709205982.804,-40.527,-41.992,-44.434,-41.992,0.000
1709205982.808,-39.062,-41.016,-44.434,-38.086,0.000
1709205982.812,-40.527,-41.504,-35.156,-41.016,0.000
1709205982.816,-33.203,-41.504,-30.762,-35.645,0.000
1709205982.820,-37.598,-47.363,-43.457,-48.340,0.000
1709205982.824,-39.062,-48.828,-42.969,-51.758,0.000
1709205982.828,-35.645,-48.340,-39.062,-42.480,0.000
1709205982.832,-41.504,-45.898,-36.621,-31.250,0.000
1709205982.836,-42.969,-31.738,-37.109,-33.691,0.000
1709205982.839,-40.527,-27.832,-38.574,-41.504,0.000
1709205982.843,-47.852,-37.598,-41.504,-52.734,0.000
1709205982.847,-53.711,-44.434,-44.922,-57.617,0.000
1709205982.851,-58.594,-38.086,-40.527,-42.969,0.000
1709205982.855,-54.688,-41.504,-42.969,-40.527,0.000
1709205982.859,-40.527,-48.340,-44.434,-40.039,0.000
1709205982.863,-38.086,-48.340,-45.898,-41.016,0.000
1709205982.867,-42.480,-40.039,-50.293,-54.688,0.000
1709205982.871,-48.340,-38.086,-48.340,-57.129,0.000
1709205982.875,-37.109,-51.270,-44.922,-43.945,0.000
1709205982.878,-23.438,-43.457,-41.504,-37.598,0.000
1709205982.882,-30.273,-28.320,-42.969,-44.922,0.000
1709205982.886,-36.133,-36.621,-41.016,-44.434,0.000
1709205982.890,-39.062,-41.504,-37.109,-36.621,0.000
1709205982.894,-41.992,-39.062,-41.504,-40.039,0.000
1709205982.898,-40.527,-35.156,-43.457,-51.270,0.000
1709205982.902,-35.156,-38.574,-38.574,-52.246,0.000
1709205982.906,-38.574,-47.852,-33.691,-51.270,0.000
1709205982.910,-39.062,-49.805,-42.480,-52.734,0.000
1709205982.914,-36.133,-41.992,-47.852,-44.922,0.000
1709205982.918,-30.273,-37.109,-41.016,-34.180,0.000
1709205982.921,-33.203,-44.922,-38.574,-29.297,0.000
1709205982.925,-40.527,-41.504,-40.039,-34.668,0.000
1709205982.929,-44.434,-37.109,-41.992,-52.246,0.000
1709205982.933,-47.363,-44.434,-43.945,-57.129,0.000
1709205982.937,-39.551,-40.039,-41.504,-51.270,0.000
1709205982.941,-40.039,-33.691,-41.504,-59.570,0.000
1709205982.945,-38.086,-41.016,-38.086,-53.711,0.000
1709205982.949,-33.203,-46.875,-32.715,-45.410,0.000
1709205982.953,-34.668,-41.016,-37.109,-54.199,0.000
1709205982.957,-33.691,-43.945,-36.621,-53.711,0.000
1709205982.961,-34.668,-50.293,-39.551,-52.734,0.000
1709205982.964,-43.457,-62.500,-43.945,-48.340,0.000
1709205982.968,-48.828,-58.594,-41.016,-39.062,0.000
1709205982.972,-47.363,-41.016,-38.086,-42.969,0.000
1709205982.976,-41.016,-40.039,-36.621,-45.898,0.000
1709205982.980,-41.992,-39.551,-36.133,-41.504,0.000
1709205982.984,-46.387,-41.992,-38.086,-47.363,0.000
1709205982.988,-48.340,-47.852,-39.062,-43.457,0.000
1709205982.992,-46.387,-49.805,-41.016,-33.203,0.000
1709205982.996,-39.551,-43.945,-45.898,-33.691,0.000
1709205983.000,-35.156,-41.504,-45.410,-33.691,0.000
1709205983.004,-33.691,-44.434,-44.922,-31.250,0.000
1709205983.007,-35.645,-48.340,-43.457,-25.879,0.000
1709205983.011,-38.574,-50.781,-43.945,-18.555,0.000
1709205983.015,-30.273,-31.738,-47.363,-20.508,0.000
1709205983.019,-14.648,-18.066,-43.457,-33.203,0.000
1709205983.023,-13.672,-32.715,-36.133,-41.016,0.000
1709205983.027,-25.391,-40.527,-37.109,-36.621,0.000
1709205983.031,-37.598,-32.715,-45.410,-40.039,0.000
1709205983.035,-35.156,-32.715,-45.410,-42.969,0.000
1709205983.039,-28.809,-42.480,-39.551,-45.410,0.000
1709205983.043,-40.527,-43.945,-37.598,-47.852,0.000
1709205983.046,-49.316,-49.316,-34.180,-49.316,0.000
1709205983.050,-49.316,-52.246,-36.621,-53.223,0.000
1709205983.054,-45.410,-53.711,-35.645,-41.504,0.000
1709205983.058,-43.457,-44.922,-35.645,-40.527,0.000
1709205983.062,-43.457,-27.344,-40.039,-61.523,0.000
1709205983.066,-44.922,-37.598,-41.016,-62.988,0.000
1709205983.070,-53.223,-49.805,-37.598,-60.547,0.000
1709205983.074,-57.129,-46.875,-34.668,-52.246,0.000
1709205983.078,-55.664,-44.434,-39.551,-48.340,0.000
1709205983.082,-50.293,-48.828,-37.109,-49.316,0.000
1709205983.086,-51.270,-58.594,-36.621,-44.434,0.000
1709205983.089,-52.734,-49.316,-42.480,-41.016,0.000
1709205983.093,-46.875,-38.574,-35.156,-29.297,0.000
1709205983.097,-40.039,-45.410,-32.227,-25.879,0.000
1709205983.101,-38.574,-53.711,-38.574,-24.414,0.000
1709205983.105,-37.109,-44.434,-41.504,-33.691,0.000
1709205983.109,-28.320,-33.691,-38.086,-39.062,0.000
1709205983.113,-25.879,-41.016,-44.434,-24.414,0.000
1709205983.117,-21.973,-42.480,-43.945,-18.555,0.000
1709205983.121,-12.695,-38.086,-39.551,-23.438,0.000
1709205983.125,-15.137,-40.039,-42.969,-27.832,0.000
1709205983.128,-22.461,-51.270,-45.898,-33.203,0.000
1709205983.132,-30.762,-54.688,-46.387,-35.645,0.000
1709205983.136,-28.809,-39.551,-39.551,-30.762,0.000
1709205983.140,-28.809,-40.527,-45.410,-48.828,0.000
1709205983.144,-40.527,-61.523,-47.852,-54.199,0.000
1709205983.148,-51.270,-56.641,-39.062,-45.410,0.000
1709205983.152,-54.688,-40.039,-41.504,-47.852,0.000
1709205983.156,-51.270,-52.734,-43.457,-42.969,0.000
1709205983.160,-45.898,-60.547,-40.527,-43.945,0.000
1709205983.164,-42.969,-45.898,-38.086,-46.875,0.000
1709205983.167,-49.805,-45.898,-39.062,-53.711,0.000
1709205983.171,-50.781,-52.734,-45.898,-52.246,0.000
1709205983.175,-37.109,-42.969,-46.387,-42.969,0.000
1709205983.179,-32.715,-34.180,-41.504,-48.340,0.000
1709205983.183,-40.039,-37.109,-36.621,-47.363,0.000
1709205983.187,-41.504,-48.340,-29.785,-40.527,0.000
1709205983.191,-37.598,-48.340,-22.949,-35.645,0.000
1709205983.195,-38.086,-43.945,-26.367,-31.738,0.000
1709205983.199,-37.598,-42.480,-29.297,-28.320,0.000
1709205983.203,-35.645,-47.363,-25.391,-26.367,0.000
1709205983.207,-43.457,-48.340,-26.855,-31.250,0.000
1709205983.210,-51.270,-37.598,-32.715,-37.109,0.000
1709205983.214,-44.922,-39.062,-35.645,-41.016,0.000
1709205983.218,-41.016,-43.945,-39.062,-39.551,0.000
1709205983.222,-45.898,-42.969,-40.039,-36.133,0.000
1709205983.226,-52.246,-37.109,-39.062,-31.250,0.000
1709205983.230,-50.293,-33.691,-38.574,-28.320,0.000
1709205983.234,-50.781,-41.504,-37.109,-32.227,0.000
1709205983.238,-50.781,-47.363,-38.086,-42.969,0.000
1709205983.242,-43.457,-42.969,-39.062,-38.574,0.000
1709205983.246,-45.898,-40.527,-39.062,-37.109,0.000
1709205983.250,-47.852,-51.270,-36.133,-25.391,0.000
1709205983.253,-47.363,-46.387,-35.156,-19.043,0.000
1709205983.257,-41.016,-31.250,-38.574,-33.203,0.000
1709205983.261,-34.668,-39.551,-36.133,-31.738,0.000
1709205983.265,-31.738,-39.551,-39.062,-29.297,0.000
1709205983.269,-29.785,-32.715,-41.992,-26.855,0.000
1709205983.273,-34.668,-38.086,-38.574,-29.785,0.000
1709205983.277,-37.598,-42.480,-41.016,-43.457,0.000
1709205983.281,-34.180,-39.551,-42.480,-49.316,0.000
1709205983.285,-38.574,-42.969,-42.969,-54.199,0.000
1709205983.289,-36.621,-39.551,-37.598,-53.223,0.000
1709205983.293,-35.645,-39.062,-36.621,-47.363,0.000
1709205983.296,-35.645,-45.410,-37.598,-42.969,0.000
1709205983.300,-32.227,-30.762,-32.227,-49.805,0.000
1709205983.304,-35.645,-33.691,-33.203,-52.734,0.000
1709205983.308,-39.062,-50.293,-34.180,-40.039,0.000
1709205983.312,-32.715,-43.945,-29.785,-33.203,0.000
1709205983.316,-31.738,-36.621,-30.762,-33.203,0.000
1709205983.320,-41.504,-42.969,-37.598,-40.039,0.000
1709205983.324,-45.410,-43.457,-34.668,-46.875,0.000
1709205983.328,-56.152,-45.898,-35.156,-42.480,0.000
1709205983.332,-52.734,-51.270,-40.527,-41.992,0.000
1709205983.336,-45.410,-45.410,-40.039,-42.480,0.000
1709205983.339,-42.480,-48.828,-37.109,-29.297,0.000
1709205983.343,-44.434,-46.875,-37.598,-36.133,0.000
1709205983.347,-47.852,-33.691,-36.621,-48.828,0.000
1709205983.351,-39.551,-36.621,-29.785,-39.551,0.000
1709205983.355,-33.203,-42.969,-29.297,-41.504,0.000
1709205983.359,-25.879,-44.922,-31.738,-40.039,0.000
1709205983.363,-15.625,-29.785,-27.344,-28.809,0.000
1709205983.367,-23.926,-29.297,-28.320,-29.785,0.000
1709205983.371,-34.180,-32.715,-32.715,-25.879,0.000
1709205983.375,-30.762,-29.297,-36.133,-25.391,0.000
1709205983.378,-24.902,-36.621,-31.250,-32.227,0.000
1709205983.382,-27.344,-42.969,-28.809,-37.598,0.000
1709205983.386,-30.762,-43.945,-32.715,-32.227,0.000
1709205983.390,-32.715,-38.086,-28.320,-22.949,0.000
1709205983.394,-39.551,-36.621,-27.832,-30.273,0.000
1709205983.398,-38.574,-44.434,-31.738,-40.039,0.000
1709205983.402,-38.574,-46.875,-30.762,-45.898,0.000
1709205983.406,-42.969,-43.457,-33.203,-50.781,0.000
1709205983.410,-46.875,-50.781,-38.574,-53.711,0.000
1709205983.414,-41.992,-52.734,-39.551,-52.246,0.000
1709205983.418,-31.250,-42.969,-38.086,-48.340,0.000
1709205983.421,-33.203,-37.598,-35.156,-51.758,0.000
1709205983.425,-41.504,-37.598,-32.715,-52.734,0.000
1709205983.429,-49.316,-53.223,-39.062,-51.270,0.000
1709205983.433,-45.410,-56.152,-46.875,-40.039,0.000
1709205983.437,-36.133,-36.621,-44.434,-35.156,0.000
1709205983.441,-41.504,-45.410,-44.434,-42.480,0.000
1709205983.445,-39.062,-53.223,-36.621,-44.434,0.000
1709205983.449,-37.598,-46.875,-32.227,-43.457,0.000
1709205983.453,-40.527,-42.480,-39.062,-41.504,0.000
1709205983.457,-33.691,-44.922,-40.527,-31.738,0.000
1709205983.460,-35.156,-47.363,-38.574,-26.855,0.000
1709205983.464,-41.992,-44.434,-39.551,-36.621,0.000
1709205983.468,-45.410,-41.992,-46.875,-42.969,0.000
1709205983.472,-39.551,-45.898,-47.363,-41.992,0.000
1709205983.476,-38.574,-56.152,-48.828,-31.738,0.000
1709205983.480,-40.527,-47.363,-49.805,-28.809,0.000
1709205983.484,-44.434,-36.621,-46.875,-34.668,0.000
1709205983.488,-46.875,-41.992,-41.016,-27.344,0.000
1709205983.492,-43.945,-44.922,-42.480,-20.508,0.000
1709205983.496,-34.180,-41.992,-49.316,-19.531,0.000
1709205983.500,-32.715,-34.668,-44.434,-39.062,0.000
1709205983.503,-41.992,-45.898,-38.574,-47.363,0.000
1709205983.507,-37.109,-50.781,-37.109,-33.691,0.000
1709205983.511,-33.691,-41.992,-38.086,-28.320,0.000
1709205983.515,-37.109,-42.969,-36.621,-29.297,0.000
1709205983.519,-38.086,-58.105,-32.227,-26.367,0.000
1709205983.523,-33.691,-53.223,-39.551,-33.203,0.000
1709205983.527,-33.691,-31.738,-41.016,-38.086,0.000
1709205983.531,-35.645,-34.180,-32.715,-28.320,0.000
1709205983.535,-31.250,-44.922,-34.180,-28.809,0.000
1709205983.539,-35.645,-43.457,-37.109,-35.645,0.000
1709205983.542,-47.363,-37.109,-36.133,-55.664,0.000
1709205983.546,-47.363,-45.410,-36.621,-62.500,0.000
1709205983.550,-44.434,-46.387,-36.621,-50.293,0.000
1709205983.554,-50.293,-46.387,-41.504,-53.223,0.000
1709205983.558,-49.316,-54.688,-44.922,-51.758,0.000
1709205983.562,-41.992,-57.617,-43.457,-43.945,0.000
1709205983.566,-46.875,-56.152,-43.945,-46.875,0.000
1709205983.570,-56.152,-47.852,-44.922,-49.316,0.000
1709205983.574,-58.594,-39.062,-47.363,-55.664,0.000
1709205983.578,-45.410,-39.062,-44.434,-58.594,0.000
1709205983.582,-43.945,-41.992,-49.316,-52.734,0.000
1709205983.585,-58.105,-30.273,-53.223,-55.664,0.000
1709205983.589,-65.918,-37.109,-52.246,-53.223,0.000
1709205983.593,-62.500,-52.734,-52.246,-42.480,0.000
1709205983.597,-53.711,-48.828,-48.828,-36.621,0.000
1709205983.601,-47.852,-39.062,-41.992,-42.480,0.000
1709205983.605,-40.039,-42.480,-39.062,-52.246,0.000
1709205983.609,-38.086,-50.781,-40.039,-49.805,0.000
1709205983.613,-37.109,-43.457,-41.504,-41.016,0.000
1709205983.617,-33.691,-31.738,-37.598,-38.086,0.000
1709205983.621,-28.320,-32.715,-32.227,-39.062,0.000
1709205983.624,-36.621,-48.340,-34.668,-25.879,0.000
1709205983.628,-49.316,-44.434,-36.133,-28.320,0.000
1709205983.632,-45.410,-22.949,-34.668,-44.434,0.000
1709205983.636,-44.434,-30.762,-35.645,-39.551,0.000
1709205983.640,0.000,-40.527,0.000,-37.109,0.000
1709205983.644,0.000,-37.109,0.000,-41.504,0.000
1709205983.648,0.000,-40.527,0.000,-39.062,0.000
1709205983.652,0.000,-46.875,0.000,-38.574,0.000
1709205983.656,0.000,-44.922,0.000,-38.574,0.000
1709205983.660,0.000,-44.434,0.000,-41.504,0.000
1709205983.664,0.000,-44.922,0.000,-46.387,0.000
1709205983.667,0.000,-39.551,0.000,-41.504,0.000
1709205983.671,0.000,-40.039,0.000,-28.320,0.000
1709205983.675,0.000,-36.621,0.000,-41.016,0.000
1709205983.679,0.000,-25.879,0.000,-53.711,0.000
1709205983.683,0.000,-29.785,0.000,-53.223,0.000
1709205983.687,-31.250,-33.691,-34.668,-54.199,0.000
1709205983.691,-35.645,-34.180,-35.645,-48.340,0.000
1709205983.695,-24.902,-34.668,-37.109,-35.156,0.000
1709205983.699,-24.902,-39.551,-37.598,-33.203,0.000
1709205983.703,-37.109,-42.969,-42.969,-45.410,0.000
1709205983.707,-35.156,-41.992,-42.969,-40.527,0.000
1709205983.710,-37.109,-44.434,-40.527,-41.016,0.000
1709205983.714,-41.504,-54.199,-37.109,-40.527,0.000
1709205983.718,-41.504,-46.387,-33.691,-38.574,0.000
1709205983.722,-41.992,-35.645,-42.480,-62.500,0.000
1709205983.726,-44.434,-41.016,-41.992,-61.523,0.000
1709205983.730,-47.852,-41.504,-33.203,-42.969,0.000
1709205983.734,-48.828,-40.527,-34.668,-38.574,0.000
1709205983.738,-39.062,-32.715,-39.062,-44.434,0.000
1709205983.742,-40.527,-34.668,-36.133,-43.945,0.000
1709205983.746,-55.664,-40.039,-38.086,-45.410,0.000
1709205983.750,-56.641,-37.109,-41.992,-39.551,0.000
1709205983.753,-53.223,-43.457,-42.969,-36.621,0.000
1709205983.757,-51.758,-44.434,-44.434,-41.992,0.000
1709205983.761,-52.734,-47.363,-42.969,-34.668,0.000
1709205983.765,-63.477,-37.109,-42.969,-38.574,0.000
1709205983.769,-62.012,-29.785,-44.434,-49.805,0.000
1709205983.773,-56.641,-37.109,-43.945,-48.340,0.000
1709205983.777,-54.199,-37.598,-46.875,-49.805,0.000
1709205983.781,-48.828,-34.668,-47.363,-44.922,0.000
1709205983.785,-47.363,-41.016,-43.945,-42.969,0.000
1709205983.789,-45.410,-50.293,-44.434,-43.945,0.000
1709205983.792,-40.527,-42.480,-45.410,-34.668,0.000
1709205983.796,-37.598,-35.156,-42.969,-34.180,0.000
1709205983.800,-40.527,-41.504,-40.039,-46.875,0.000
1709205983.804,-47.363,-52.246,-39.551,-40.039,0.000
1709205983.808,-45.410,-51.758,-37.109,-23.438,0.000
1709205983.812,-36.621,-31.250,-34.180,-34.668,0.000
1709205983.816,-29.297,-32.715,-34.180,-38.086,0.000
1709205983.820,-31.738,-49.316,-41.992,-41.016,0.000
1709205983.824,-40.039,-45.410,-43.945,-50.293,0.000
1709205983.828,-49.316,-38.086,-41.016,-50.781,0.000
1709205983.832,-43.945,-42.969,-37.598,-46.387,0.000
1709205983.835,-32.227,-38.574,-31.250,-45.410,0.000
1709205983.839,-36.133,-31.738,-33.691,-48.828,0.000
1709205983.843,-41.504,-41.016,-45.898,-51.758,0.000
1709205983.847,-48.828,-53.223,-42.969,-49.805,0.000
1709205983.851,-53.223,-59.570,-35.156,-31.738,0.000
1709205983.855,-46.387,-50.293,-40.039,-29.297,0.000
1709205983.859,-39.062,-41.016,-42.969,-33.203,0.000
1709205983.863,-38.086,-41.992,-39.551,-27.344,0.000
1709205983.867,-41.992,-42.480,-40.527,-22.461,0.000
1709205983.871,-45.410,-42.969,-43.457,-25.879,0.000
1709205983.874,-44.922,-44.434,-42.480,-38.086,0.000
1709205983.878,-37.598,-46.875,-40.039,-39.551,0.000
1709205983.882,-36.133,-49.316,-37.109,-40.039,0.000
1709205983.886,-43.457,-49.805,-39.551,-45.898,0.000
1709205983.890,-40.527,-55.664,-43.457,-41.504,0.000
1709205983.894,-37.598,-63.965,-44.922,-27.344,0.000
1709205983.898,-39.551,-54.199,-42.480,-26.367,0.000
1709205983.902,-38.086,-46.875,-40.039,-37.598,0.000
1709205983.906,-47.363,-50.293,-41.504,-41.992,0.000
1709205983.910,-49.805,-49.316,-40.039,-39.062,0.000
1709205983.913,-40.039,-48.340,-36.621,-30.273,0.000
1709205983.917,-35.645,-41.992,-35.645,-24.414,0.000
1709205983.921,-40.039,-44.434,-32.715,-26.855,0.000
1709205983.925,-39.551,-46.387,-34.180,-46.387,0.000
1709205983.929,-32.715,-46.387,-37.109,-47.852,0.000
1709205983.933,-25.391,-48.340,-36.133,-37.598,0.000
1709205983.937,-33.691,-50.293,-38.574,-40.527,0.000
1709205983.941,-43.945,-53.223,-38.574,-36.621,0.000
1709205983.945,-44.922,-49.805,-38.086,-42.480,0.000
1709205983.949,-50.293,-45.410,-43.945,-60.547,0.000
1709205983.953,-55.176,-43.457,-48.340,-58.105,0.000
1709205983.956,-47.852,-42.480,-56.152,-49.805,0.000
1709205983.960,-36.133,-38.086,-57.617,-48.340,0.000
1709205983.964,-38.574,-39.062,-52.246,-54.199,0.000
1709205983.968,-49.805,-44.434,-45.898,-52.246,0.000
1709205983.972,-47.363,-44.922,-43.945,-38.574,0.000
1709205983.976,-39.062,-38.086,-49.316,-41.016,0.000
1709205983.980,-33.203,-38.086,-46.875,-54.199,0.000
1709205983.984,-30.762,-45.898,-45.898,-49.805,0.000
1709205983.988,-33.203,-42.969,-45.410,-44.434,0.000
1709205983.992,-28.320,-31.250,-39.551,-38.574,0.000
1709205983.996,-21.484,-29.297,-39.062,-36.133,0.000
1709205983.999,-30.762,-46.387,-42.969,-38.086,0.000
1709205984.003,-33.203,-49.316,-40.039,-30.762,0.000
1709205984.007,-32.715,-33.691,-39.551,-36.621,0.000
1709205984.011,-38.086,-45.410,-46.387,-37.598,0.000
1709205984.015,0.000,-52.734,-49.316,0.000,0.000
1709205984.019,0.000,-51.270,-49.316,0.000,0.000
1709205984.023,0.000,-51.270,-47.852,0.000,0.000
1709205984.027,0.000,-45.898,-41.016,0.000,0.000
1709205984.031,0.000,-47.852,-35.156,0.000,0.000
1709205984.035,0.000,-45.410,-34.668,0.000,0.000
1709205984.039,0.000,-39.062,-33.691,0.000,0.000
1709205984.042,0.000,-45.898,-33.203,0.000,0.000
1709205984.046,0.000,-48.340,-38.574,0.000,0.000
1709205984.050,0.000,-39.551,-41.992,0.000,0.000
1709205984.054,0.000,-41.016,-40.527,0.000,0.000
1709205984.058,0.000,-55.176,-43.945,0.000,0.000
1709205984.062,-45.410,-50.293,-40.527,-40.527,0.000
1709205984.066,-50.781,-35.645,-40.039,-39.062,0.000
1709205984.070,-57.129,-40.039,-42.480,-41.992,0.000
1709205984.074,-47.363,-48.340,-42.969,-28.809,0.000
1709205984.078,-34.668,-45.410,-39.551,-24.902,0.000
1709205984.082,-35.645,-42.969,-30.273,-44.434,0.000
1709205984.085,-44.434,-45.898,-33.691,-52.246,0.000
1709205984.089,-49.805,-57.617,-36.133,-44.434,0.000
1709205984.093,-43.457,-54.688,-34.180,-35.645,0.000
1709205984.097,-34.180,-37.109,-30.762,-37.109,0.000
1709205984.101,-42.969,-44.434,-28.320,-43.457,0.000
1709205984.105,-44.434,-45.410,-29.297,-40.527,0.000
1709205984.109,-41.016,-43.457,-35.645,-35.156,0.000
1709205984.113,-42.969,-42.480,-38.086,-32.227,0.000
1709205984.117,-31.250,-42.480,-32.715,-23.438,0.000
1709205984.121,-28.809,-41.504,-30.273,-29.785,0.000
1709205984.124,-40.527,-34.180,-32.227,-39.062,0.000
1709205984.128,-46.387,-40.527,-33.203,-25.391,0.000
1709205984.132,-45.410,-47.852,-31.738,-24.414,0.000
1709205984.136,-44.922,-52.246,-36.621,-34.180,0.000
1709205984.140,-49.316,-44.922,-42.480,-38.086,0.000
1709205984.144,-42.969,-34.668,-39.551,-40.039,0.000
1709205984.148,-53.711,-44.922,-35.645,-39.062,0.000
1709205984.152,-57.617,-42.969,-39.062,-40.527,0.000
1709205984.156,-48.828,-32.227,-47.852,-35.645,0.000
1709205984.160,-48.828,-35.156,-47.852,-33.691,0.000
1709205984.164,-39.551,-41.016,-38.574,-42.969,0.000
1709205984.167,-37.598,-41.504,-37.109,-42.480,0.000
1709205984.171,-42.480,-41.016,-37.598,-32.227,0.000
1709205984.175,-28.809,-45.898,-37.598,-29.785,0.000
1709205984.179,-20.996,-57.129,-38.086,-26.367,0.000
1709205984.183,-20.996,-49.316,-36.133,-30.273,0.000
1709205984.187,-28.809,-36.133,-39.062,-44.922,0.000
1709205984.191,-26.855,-42.480,-40.527,-41.504,0.000
1709205984.195,-28.809,-43.945,-43.945,-48.340,0.000
1709205984.199,-33.203,-38.086,-42.480,-57.129,0.000
1709205984.203,-22.949,-35.645,-38.086,-54.688,0.000
1709205984.206,-29.785,-47.852,-38.086,-47.852,0.000
1709205984.210,-44.922,-58.105,-38.574,-35.645,0.000
1709205984.214,-44.922,-53.711,-43.457,-39.062,0.000
1709205984.218,-38.574,-52.734,-41.992,-45.410,0.000
1709205984.222,-35.645,-56.641,-38.086,-45.898,0.000
1709205984.226,-34.180,-56.641,-41.016,-35.645,0.000
1709205984.230,-42.480,-44.922,-41.016,-35.156,0.000
1709205984.234,-38.086,-36.133,-35.645,-31.738,0.000
1709205984.238,-25.879,-47.852,-35.156,-34.180,0.000
1709205984.242,-35.645,-52.734,-40.527,-50.781,0.000
1709205984.245,-42.969,-51.270,-40.039,-48.828,0.000
1709205984.249,-48.828,-46.387,-40.527,-52.734,0.000
1709205984.253,-48.340,-46.387,-41.504,-48.828,0.000
1709205984.257,-38.574,-42.480,-38.574,-37.598,0.000
1709205984.261,-36.621,-37.109,-37.109,-41.504,0.000
1709205984.265,-44.434,-33.691,-33.203,-47.852,0.000
1709205984.269,-46.387,-45.410,-31.738,-38.574,0.000
1709205984.273,-43.457,-47.363,-33.203,-36.133,0.000
1709205984.277,-39.551,-24.414,-32.715,-43.945,0.000
1709205984.281,-35.645,-35.645,-34.180,-44.434,0.000
1709205984.285,-38.086,-47.363,-38.574,-50.781,0.000
1709205984.288,-44.922,-41.992,-40.527,-58.105,0.000
1709205984.292,-58.105,-39.551,-42.480,-57.129,0.000
1709205984.296,-50.781,-41.992,-43.457,-54.688,0.000
1709205984.300,-39.062,-44.922,-42.969,-59.082,0.000
1709205984.304,-39.551,-48.828,-43.945,-63.477,0.000
1709205984.308,-42.969,-39.062,-48.340,-59.082,0.000
1709205984.312,-41.016,-35.645,-41.992,-51.270,0.000
1709205984.316,-36.133,-49.316,-41.016,-50.293,0.000
1709205984.320,-34.180,-41.504,-45.410,-51.270,0.000
1709205984.324,-32.715,-29.297,-43.457,-47.363,0.000
1709205984.328,-31.250,-33.203,-42.480,-48.340,0.000
1709205984.331,-29.297,-39.062,-37.598,-43.945,0.000
1709205984.335,-32.715,-27.344,-34.668,-40.527,0.000
1709205984.339,-32.227,-29.785,-45.410,-42.969,0.000
1709205984.343,-33.203,-39.551,-46.387,-33.203,0.000
1709205984.347,-37.598,-39.062,-38.086,-18.066,0.000
1709205984.351,-37.598,-43.945,-39.551,-19.043,0.000
1709205984.355,-29.297,-46.875,-40.527,-35.156,0.000
1709205984.359,-21.973,-42.969,-38.574,-37.598,0.000
1709205984.363,-27.832,-44.922,-40.039,-35.156,0.000
1709205984.367,-32.715,-44.922,-38.086,-32.715,0.000
1709205984.371,-31.250,-35.645,-35.645,-24.414,0.000
1709205984.374,-26.855,-43.457,-36.133,-18.555,0.000
1709205984.378,-25.879,-42.969,-36.621,-15.625,0.000
1709205984.382,-30.762,-23.438,-38.574,-25.391,0.000
1709205984.386,-26.367,-31.738,-39.551,-29.785,0.000
1709205984.390,-25.879,-35.645,-38.574,-23.926,0.000
1709205984.394,-36.133,-27.832,-43.945,-18.066,0.000
1709205984.398,-34.668,-26.367,-47.852,-29.785,0.000
1709205984.402,-29.297,-32.227,-37.598,-39.062,0.000
1709205984.406,-40.039,-38.574,-35.156,-38.086,0.000
1709205984.410,-48.340,-37.109,-42.480,-35.156,0.000
1709205984.413,-45.898,-32.715,-48.340,-33.691,0.000
1709205984.417,-39.062,-41.016,-53.223,-40.039,0.000
1709205984.421,-34.668,-46.875,-51.758,-41.992,0.000
1709205984.425,-40.527,-34.180,-49.316,-54.199,0.000
1709205984.429,-44.434,-32.227,-47.363,-54.688,0.000
1709205984.433,-37.109,-33.691,-43.457,-35.156,0.000
1709205984.437,-35.156,-36.133,-39.062,-28.809,0.000
1709205984.441,-30.273,-36.621,-39.062,-27.832,0.000
1709205984.445,-24.902,-34.180,-37.598,-30.273,0.000
1709205984.449,-35.156,-42.480,-39.062,-41.504,0.000
1709205984.453,-30.273,-49.805,-43.945,-42.969,0.000
1709205984.456,-26.855,-48.828,-41.504,-38.086,0.000
1709205984.460,-28.809,-38.086,-37.109,-34.180,0.000
1709205984.464,-28.809,-46.387,-33.203,-19.531,0.000
1709205984.468,-35.645,-41.992,-32.227,-14.160,0.000
1709205984.472,-37.598,-27.832,-38.086,-31.250,0.000
1709205984.476,-28.320,-41.016,-36.133,-34.668,0.000
1709205984.480,-26.855,-39.062,-30.762,-38.574,0.000
1709205984.484,-35.156,-37.109,-34.180,-52.246,0.000
1709205984.488,-35.156,-41.992,-38.086,-48.340,0.000
1709205984.492,-40.527,-41.504,-37.109,-36.621,0.000
1709205984.496,-44.434,-39.551,-37.598,-34.180,0.000
1709205984.499,-40.527,-39.551,-38.086,-33.203,0.000
1709205984.503,-43.945,-43.945,-36.133,-31.738,0.000
1709205984.507,-50.293,-47.363,-39.062,-38.086,0.000
1709205984.511,-56.152,-49.805,-41.504,-37.109,0.000
1709205984.515,-59.570,-39.062,-36.621,-46.387,0.000
1709205984.519,-50.293,-23.438,-33.691,-52.734,0.000
1709205984.523,-36.621,-26.855,-33.691,-48.340,0.000
1709205984.527,-44.434,-33.691,-35.645,-49.805,0.000
1709205984.531,-60.059,-35.156,-39.062,-48.340,0.000
1709205984.535,-54.688,-39.062,-37.598,-48.828,0.000
1709205984.538,-47.852,-38.086,-36.621,-47.363,0.000
1709205984.542,-52.734,-36.133,-39.062,-47.363,0.000
1709205984.546,-55.664,-37.109,-38.086,-47.363,0.000
1709205984.550,-55.176,-40.527,-36.621,-49.805,0.000
1709205984.554,-51.270,-48.340,-39.062,-48.828,0.000
1709205984.558,-42.969,-41.504,-38.086,-50.293,0.000
1709205984.562,-39.062,-20.996,-30.762,-57.617,0.000
1709205984.566,-40.527,-24.902,-29.785,-52.246,0.000
1709205984.570,-48.340,-34.668,-38.086,-44.434,0.000
1709205984.574,-51.758,-37.598,-38.086,-39.062,0.000
1709205984.578,-41.016,-36.133,-29.297,-37.598,0.000
1709205984.581,-35.645,-42.480,-26.367,-38.086,0.000
1709205984.585,-39.551,-48.340,-25.879,-40.527,0.000
1709205984.589,-49.805,-50.293,-27.832,-39.062,0.000
1709205984.593,-45.898,-46.875,-31.738,-26.367,0.000
1709205984.597,-33.203,-43.945,-29.297,-26.367,0.000
1709205984.601,-34.180,-53.223,-25.879,-18.066,0.000
1709205984.605,-46.387,-42.480,-33.691,-22.949,0.000
1709205984.609,-49.316,-28.809,-37.598,-37.109,0.000
1709205984.613,-43.945,-38.574,-37.109,-28.320,0.000
1709205984.617,-42.969,-46.387,-34.668,-33.691,0.000
1709205984.620,-44.922,-45.410,-34.668,-43.945,0.000
1709205984.624,-47.852,-42.969,-34.668,-47.852,0.000
1709205984.628,-53.223,-46.387,-37.109,-51.758,0.000
1709205984.632,-53.223,-49.805,-37.109,-43.945,0.000
1709205984.636,-45.410,-41.016,-35.645,-42.969,0.000
1709205984.640,-47.363,-41.992,-37.598,-47.852,0.000
1709205984.644,-47.852,-59.082,-34.180,-37.598,0.000
1709205984.648,-48.828,-60.059,-36.621,-32.227,0.000
1709205984.652,-53.711,-38.086,-36.133,-41.016,0.000
1709205984.656,-48.828,-38.086,-37.109,-39.551,0.000
1709205984.659,-42.969,-47.363,-41.992,-36.621,0.000
1709205984.663,-46.387,-37.109,-43.945,-39.062,0.000
1709205984.667,-47.852,-32.715,-40.527,-46.387,0.000
1709205984.671,-42.969,-38.086,-35.645,-47.852,0.000
1709205984.675,-44.434,-39.551,-34.668,-41.016,0.000
1709205984.679,-43.457,-39.551,-36.133,-33.691,0.000
1709205984.683,-34.180,-40.039,-37.109,-22.461,0.000
1709205984.687,-33.203,-42.480,-35.156,-26.855,0.000
1709205984.691,-30.273,-41.016,-34.668,-30.273,0.000
1709205984.695,-17.090,-32.227,-37.109,-27.344,0.000
1709205984.699,-14.160,-35.156,-41.016,-38.086,0.000
1709205984.702,-19.043,-43.457,-39.551,-43.457,0.000
1709205984.706,-26.855,-45.898,-39.062,-31.738,0.000
1709205984.710,-29.785,-31.250,-39.551,-25.879,0.000
1709205984.714,-21.484,-25.879,-38.086,-32.715,0.000
1709205984.718,-16.602,-30.762,-38.086,-36.133,0.000
1709205984.722,-16.602,-28.809,-35.645,-36.621,0.000
1709205984.726,-27.344,-25.391,-38.574,-39.551,0.000
1709205984.730,-35.645,-21.484,-41.992,-35.645,0.000
1709205984.734,-36.133,-33.203,-45.898,-38.574,0.000
1709205984.738,-25.391,-42.969,-41.504,-35.645,0.000
1709205984.742,-26.855,-34.180,-39.551,-31.738,0.000
1709205984.745,-35.645,-35.645,-42.969,-36.621,0.000
1709205984.749,-31.738,-48.828,-39.062,-18.555,0.000
1709205984.753,-34.180,-47.363,-41.992,-18.555,0.000
1709205984.757,-34.668,-33.691,-44.434,-38.574,0.000
1709205984.761,-31.738,-37.598,-37.598,-35.156,0.000
1709205984.765,-34.668,-46.387,-37.109,-34.180,0.000
1709205984.769,-39.551,-41.504,-41.504,-30.273,0.000
1709205984.773,-41.504,-36.621,-44.434,-40.527,0.000
1709205984.777,-37.598,-47.363,-42.969,-49.316,0.000
1709205984.781,-34.180,-51.270,-41.504,-42.969,0.000
1709205984.785,-43.457,-47.852,-40.527,-42.969,0.000
1709205984.788,-53.223,-48.340,-40.039,-42.480,0.000
1709205984.792,-50.293,-48.340,-39.062,-32.715,0.000
1709205984.796,-39.551,-46.875,-37.109,-15.625,0.000
1709205984.800,-37.598,-31.250,-40.039,-20.508,0.000
1709205984.804,-48.828,-31.738,-47.363,-50.293,0.000
1709205984.808,-58.594,-46.387,-43.457,-62.012,0.000
1709205984.812,-54.688,-42.969,-39.062,-51.758,0.000
1709205984.816,-40.527,-40.039,-37.109,-43.945,0.000
1709205984.820,-29.297,-48.340,-36.621,-47.852,0.000
1709205984.824,-33.691,-45.410,-36.621,-55.664,0.000
1709205984.828,-44.434,-36.621,-37.598,-50.293,0.000
1709205984.831,-41.992,-39.062,-35.156,-47.852,0.000
1709205984.835,-35.645,-39.551,-40.039,-47.363,0.000
1709205984.839,-22.949,-41.992,-42.480,-34.180,0.000
1709205984.843,-19.043,-43.945,-38.086,-33.691,0.000
1709205984.847,-29.785,-32.715,-39.062,-46.875,0.000
1709205984.851,-41.016,-41.016,-42.480,-42.969,0.000
1709205984.855,-45.410,-47.363,-46.387,-41.504,0.000
