timestamps,TP9,AF7,AF8,TP10,Right AUX
1709206436.748,-49.316,-34.180,-31.738,-32.227,0.000
1709206436.752,-58.594,-35.645,-36.133,-34.668,0.000
1709206436.756,-46.875,-53.223,-41.504,-35.645,0.000
1709206436.759,-38.086,-71.289,-37.109,-33.691,0.000
1709206436.763,-36.133,-55.176,-37.598,-36.133,0.000
1709206436.767,-44.434,-70.312,-42.480,-54.199,0.000
1709206436.771,-52.734,-82.031,-41.992,-54.688,0.000
1709206436.775,-56.641,-104.004,-47.852,-40.039,0.000
1709206436.779,-46.875,-57.617,-46.875,-40.527,0.000
1709206436.783,-38.086,-0.488,-43.457,-56.641,0.000
1709206436.787,-46.387,-54.688,-43.945,-61.523,0.000
1709206436.791,-56.152,-89.844,-39.062,-50.781,0.000
1709206436.795,-50.781,-72.266,-42.480,-42.480,0.000
1709206436.798,-45.410,-31.250,-46.875,-45.898,0.000
1709206436.802,-47.363,-42.480,-48.340,-53.711,0.000
1709206436.806,-47.852,-63.965,-44.434,-54.688,0.000
1709206436.810,-51.270,-41.504,-44.434,-51.758,0.000
1709206436.814,-47.852,-52.246,-43.457,-49.805,0.000
1709206436.818,-43.457,-78.613,-43.945,-39.062,0.000
1709206436.822,-45.898,-111.328,-45.410,-30.273,0.000
1709206436.826,-52.246,-34.180,-37.109,-41.992,0.000
1709206436.830,-57.617,-24.414,-41.016,-62.012,0.000
1709206436.834,-56.152,-81.543,-44.922,-72.266,0.000
1709206436.838,-51.270,-62.500,-42.969,-69.824,0.000
1709206436.841,0.000,-34.668,0.000,-54.688,0.000
1709206436.845,0.000,-36.621,0.000,-51.270,0.000
1709206436.849,0.000,-84.961,0.000,-54.688,0.000
1709206436.853,0.000,-79.590,0.000,-51.758,0.000
1709206436.857,0.000,-32.715,0.000,-43.945,0.000
1709206436.861,0.000,-52.246,0.000,-39.551,0.000
1709206436.865,0.000,-97.656,0.000,-38.574,0.000
1709206436.869,0.000,-56.152,0.000,-42.969,0.000
1709206436.873,0.000,-0.488,0.000,-48.828,0.000
1709206436.877,0.000,-37.109,0.000,-42.969,0.000
1709206436.881,0.000,-56.641,0.000,-34.668,0.000
1709206436.884,0.000,-32.715,0.000,-40.039,0.000
1709206436.888,-46.387,-32.715,-52.246,-51.758,0.000
1709206436.892,-50.781,-63.477,-48.340,-50.781,0.000
1709206436.896,-50.781,-77.637,-50.781,-50.781,0.000
1709206436.900,-45.898,-38.086,-52.246,-50.293,0.000
1709206436.904,-44.434,-24.414,-44.434,-43.945,0.000
1709206436.908,-60.059,-80.078,-44.922,-50.781,0.000
1709206436.912,-67.383,-123.047,-48.340,-45.898,0.000
1709206436.916,-57.617,-47.852,-48.340,-41.016,0.000
1709206436.920,-45.410,-4.395,-46.875,-46.875,0.000
1709206436.923,-50.781,-34.180,-41.504,-51.758,0.000
1709206436.927,-61.035,-33.203,-37.109,-58.105,0.000
1709206436.931,-69.336,-25.879,-41.016,-54.688,0.000
1709206436.935,-73.730,-35.156,-45.898,-50.293,0.000
1709206436.939,-55.664,-48.340,-42.480,-49.805,0.000
1709206436.943,-49.805,-37.109,-41.992,-51.270,0.000
1709206436.947,-61.035,-28.809,-45.410,-55.664,0.000
1709206436.951,-66.895,-45.410,-47.852,-57.129,0.000
1709206436.955,-62.500,-90.820,-47.852,-41.992,0.000
1709206436.959,-51.758,-60.059,-45.410,-39.062,0.000
1709206436.963,-41.016,-2.930,-34.180,-41.992,0.000
1709206436.966,-46.387,-56.641,-33.203,-40.527,0.000
1709206436.970,-53.711,-106.445,-42.480,-35.645,0.000
1709206436.974,-49.316,-43.457,-45.898,-31.738,0.000
1709206436.978,-46.387,-11.230,-42.969,-37.109,0.000
1709206436.982,-42.969,-47.852,-47.363,-35.156,0.000
1709206436.986,-45.898,-64.941,-47.363,-47.852,0.000
1709206436.990,-49.316,-46.875,-41.504,-59.082,0.000
1709206436.994,-46.387,-39.062,-41.016,-52.734,0.000
1709206436.998,-43.945,-56.641,-41.992,-46.387,0.000
1709206437.002,-42.969,-70.312,-41.016,-42.969,0.000
1709206437.006,-49.805,-64.453,-46.387,-54.199,0.000
1709206437.009,-58.594,-59.570,-49.805,-65.918,0.000
1709206437.013,-50.293,-70.312,-44.434,-51.270,0.000
1709206437.017,-39.062,-90.332,-47.363,-39.551,0.000
1709206437.021,-29.297,-21.484,-49.316,-48.828,0.000
1709206437.025,-22.949,-28.320,-42.480,-49.316,0.000
1709206437.029,-34.180,-63.477,-37.598,-47.363,0.000
1709206437.033,-44.922,-42.480,-44.434,-51.270,0.000
1709206437.037,-41.504,-29.297,-47.852,-45.410,0.000
1709206437.041,-31.250,-36.621,-44.434,-36.621,0.000
1709206437.045,-30.273,-72.266,-42.969,-37.598,0.000
1709206437.049,-49.316,-87.402,-45.410,-43.457,0.000
1709206437.052,-54.199,-54.199,-44.434,-41.504,0.000
1709206437.056,-45.898,-31.250,-39.551,-39.062,0.000
1709206437.060,-29.297,-88.379,-40.039,-30.762,0.000
1709206437.064,-27.832,-52.246,-39.062,-26.855,0.000
1709206437.068,-37.598,5.859,-47.363,-37.109,0.000
1709206437.072,-34.180,-40.527,-53.711,-31.250,0.000
1709206437.076,-29.785,-60.059,-37.598,-24.414,0.000
1709206437.080,-36.621,-45.410,-26.367,-33.203,0.000
1709206437.084,-45.410,-45.898,-29.297,-43.945,0.000
1709206437.088,-54.199,-57.129,-26.855,-45.410,0.000
1709206437.092,-76.660,-74.707,-20.996,-58.594,0.000
1709206437.095,-87.402,-77.637,-19.531,-66.406,0.000
1709206437.099,-85.938,-53.223,-10.742,-65.430,0.000
1709206437.103,-99.121,-78.613,-2.930,-81.055,0.000
1709206437.107,-117.676,-125.488,-6.836,-89.844,0.000
1709206437.111,-132.812,-48.828,-11.230,-104.980,0.000
1709206437.115,-130.859,-37.598,-8.789,-112.305,0.000
1709206437.119,-126.465,-82.031,-12.695,-114.746,0.000
1709206437.123,-124.512,-85.938,-11.719,-114.746,0.000
1709206437.127,-120.117,-64.453,-3.418,-104.980,0.000
1709206437.131,-125.000,-86.426,-10.742,-113.770,0.000
1709206437.134,-117.676,-126.465,-19.043,-108.398,0.000
1709206437.138,-101.562,-105.469,-17.578,-95.215,0.000
1709206437.142,-88.867,-80.566,-14.648,-89.355,0.000
1709206437.146,-81.543,-87.402,-19.043,-84.473,0.000
1709206437.150,-87.402,-123.047,-19.531,-75.684,0.000
1709206437.154,-89.844,-86.426,-22.461,-71.289,0.000
1709206437.158,-73.730,-11.719,-27.344,-75.195,0.000
1709206437.162,-61.035,-33.203,-25.391,-70.801,0.000
1709206437.166,-63.965,-66.895,-21.973,-63.477,0.000
1709206437.170,-78.613,-53.711,-32.715,-67.383,0.000
1709206437.174,-78.125,-38.086,-37.109,-62.500,0.000
1709206437.177,-62.012,-46.875,-31.738,-49.316,0.000
1709206437.181,-58.105,-48.828,-30.762,-47.363,0.000
1709206437.185,-62.012,-31.250,-31.250,-57.617,0.000
1709206437.189,-70.801,-62.012,-31.738,-57.617,0.000
1709206437.193,-75.195,-87.891,-29.297,-46.875,0.000
1709206437.197,-61.035,-107.422,-29.785,-29.297,0.000
1709206437.201,-53.223,-36.133,-31.250,-41.504,0.000
1709206437.205,-56.641,0.977,-34.668,-58.594,0.000
1709206437.209,-64.941,-53.223,-39.062,-57.617,0.000
1709206437.213,-67.383,-49.805,-43.457,-55.664,0.000
1709206437.216,0.000,-26.367,-41.504,-44.922,0.000
1709206437.220,0.000,-42.480,-39.062,-31.738,0.000
1709206437.224,0.000,-74.219,-33.691,-41.504,0.000
1709206437.228,0.000,-62.988,-31.738,-57.129,0.000
1709206437.232,0.000,-51.758,-34.180,-54.688,0.000
1709206437.236,0.000,-83.984,-38.574,-66.406,0.000
1709206437.240,0.000,-127.441,-39.062,-64.453,0.000
1709206437.244,0.000,-82.520,-40.527,-62.988,0.000
1709206437.248,0.000,-24.902,-41.992,-82.520,0.000
1709206437.252,0.000,-80.078,-39.551,-78.125,0.000
1709206437.256,0.000,-99.609,-39.062,-66.406,0.000
1709206437.259,0.000,-43.457,-41.504,-62.988,0.000
1709206437.263,-37.598,-26.367,-38.086,-50.781,0.000
1709206437.267,-53.223,-63.477,-35.645,-53.223,0.000
1709206437.271,-67.383,-87.402,-44.434,-61.523,0.000
1709206437.275,-52.734,-54.199,-49.316,-50.781,0.000
1709206437.279,-31.738,-43.945,-40.039,-41.992,0.000
1709206437.283,-19.531,-88.867,-32.715,-40.527,0.000
1709206437.287,-24.414,-141.602,-31.738,-27.832,0.000
1709206437.291,-35.156,-60.059,-34.180,-28.809,0.000
1709206437.295,-36.621,-3.418,-41.016,-37.109,0.000
1709206437.298,-21.484,-34.668,-36.621,-30.273,0.000
1709206437.302,-20.508,-28.320,-31.738,-40.527,0.000
1709206437.306,-40.527,-36.621,-32.715,-46.875,0.000
1709206437.310,-53.223,-85.449,-36.621,-43.457,0.000
1709206437.314,-49.316,-87.402,-36.621,-36.621,0.000
1709206437.318,-41.016,-52.246,-34.668,-25.391,0.000
1709206437.322,-33.203,-19.043,-36.621,-18.555,0.000
1709206437.326,-37.109,-32.227,-40.527,-31.250,0.000
1709206437.330,-47.852,-92.773,-40.527,-20.996,0.000
1709206437.334,-48.340,-66.406,-36.621,-16.113,0.000
1709206437.337,-42.969,-1.465,-41.016,-26.855,0.000
1709206437.341,-35.156,-32.715,-45.898,-30.273,0.000
1709206437.345,-37.598,-118.164,-42.480,-35.645,0.000
1709206437.349,-52.734,-73.242,-46.875,-46.387,0.000
1709206437.353,-53.711,-15.625,-47.363,-57.617,0.000
1709206437.357,0.000,-50.293,-41.016,-57.617,0.000
1709206437.361,0.000,-45.410,-36.133,-44.434,0.000
1709206437.365,0.000,-28.320,-32.227,-31.738,0.000
1709206437.369,0.000,-53.711,-32.227,-38.086,0.000
1709206437.373,0.000,-65.918,-34.668,-40.527,0.000
1709206437.377,0.000,-74.219,-42.969,-36.621,0.000
1709206437.381,0.000,-50.293,-41.016,-45.410,0.000
1709206437.385,0.000,-33.203,-36.621,-47.363,0.000
1709206437.389,0.000,-50.293,-38.086,-41.504,0.000
1709206437.392,0.000,-55.176,-35.645,-26.367,0.000
1709206437.396,0.000,5.859,-37.109,-30.762,0.000
1709206437.400,0.000,10.254,-46.387,-49.805,0.000
1709206437.404,-40.527,-25.879,-43.945,-47.363,0.000
1709206437.408,-49.805,-31.738,-39.551,-39.062,0.000
1709206437.412,-54.688,-25.879,-39.551,-40.527,0.000
1709206437.416,-49.805,-19.531,-34.668,-39.551,0.000
1709206437.420,-45.898,-48.828,-39.062,-45.410,0.000
1709206437.424,-51.270,-55.664,-38.086,-56.152,0.000
1709206437.428,-63.477,-48.828,-35.156,-62.988,0.000
1709206437.432,-79.102,-54.688,-41.504,-79.590,0.000
1709206437.435,-76.660,-72.754,-37.109,-84.473,0.000
1709206437.439,-62.500,-27.344,-33.691,-69.336,0.000
1709206437.443,-67.871,23.926,-48.828,-85.938,0.000
1709206437.447,-69.824,-19.531,-50.781,-83.984,0.000
1709206437.451,-79.102,-48.340,-31.738,-69.824,0.000
1709206437.455,-89.844,-16.113,-22.461,-70.312,0.000
1709206437.459,-77.148,-3.906,-18.555,-62.012,0.000
1709206437.463,-85.449,-24.414,-15.137,-71.289,0.000
1709206437.467,-107.910,-35.645,-8.789,-88.379,0.000
1709206437.471,-129.395,-74.707,-3.418,-101.074,0.000
1709206437.475,-141.602,-92.285,-2.441,-108.398,0.000
1709206437.478,-144.531,-96.680,0.000,-119.141,0.000
1709206437.482,-156.738,-132.324,1.465,-126.953,0.000
1709206437.486,-169.434,-65.430,5.859,-140.137,0.000
1709206437.490,-190.918,-59.570,10.254,-147.461,0.000
1709206437.494,-197.754,-100.586,18.555,-143.066,0.000
1709206437.498,-198.730,-94.727,19.043,-140.137,0.000
1709206437.502,-197.266,-94.238,20.508,-147.949,0.000
1709206437.506,-191.895,-112.305,25.391,-151.367,0.000
1709206437.510,-207.031,-160.645,23.438,-159.668,0.000
1709206437.514,-222.656,-152.344,20.996,-161.621,0.000
1709206437.518,-209.961,-141.602,19.531,-148.438,0.000
1709206437.521,-197.754,-139.648,21.484,-145.020,0.000
1709206437.525,-201.660,-177.246,20.020,-134.277,0.000
1709206437.529,-202.148,-174.316,18.555,-123.535,0.000
1709206437.533,-204.590,-107.422,20.020,-144.043,0.000
1709206437.537,-198.730,-124.512,21.484,-145.508,0.000
1709206437.541,-185.059,-155.273,23.926,-135.742,0.000
1709206437.545,-183.594,-134.766,16.113,-125.977,0.000
1709206437.549,-183.105,-127.441,17.090,-109.863,0.000
1709206437.553,-178.711,-169.434,25.879,-105.957,0.000
1709206437.557,-164.551,-176.758,27.344,-83.984,0.000
1709206437.560,-153.809,-145.020,32.227,-85.938,0.000
1709206437.564,-152.344,-185.059,28.320,-98.145,0.000
1709206437.568,-151.367,-211.914,29.785,-83.496,0.000
1709206437.572,-146.484,-194.824,24.902,-82.031,0.000
1709206437.576,-137.695,-145.508,16.113,-84.961,0.000
1709206437.580,-119.629,-134.277,20.020,-82.031,0.000
1709206437.584,-112.793,-168.457,22.949,-72.266,0.000
1709206437.588,-117.676,-173.828,16.113,-59.570,0.000
1709206437.592,-110.352,-156.250,2.930,-57.617,0.000
1709206437.596,-86.426,-171.387,7.324,-52.246,0.000
1709206437.599,-73.730,-174.805,16.113,-34.180,0.000
1709206437.603,-68.848,-149.902,4.395,-24.902,0.000
1709206437.607,-64.453,-138.672,3.906,-21.484,0.000
1709206437.611,-68.848,-181.641,1.953,-8.789,0.000
1709206437.615,-51.270,-215.820,-3.418,14.160,0.000
1709206437.619,-34.668,-151.855,-7.324,24.414,0.000
1709206437.623,-19.531,-79.102,-13.672,15.625,0.000
1709206437.627,-6.348,-114.746,-15.625,20.020,0.000
1709206437.631,-11.230,-169.434,-22.949,26.855,0.000
1709206437.635,-3.418,-144.531,-29.297,31.250,0.000
1709206437.638,9.277,-111.816,-31.738,35.156,0.000
1709206437.642,16.113,-134.277,-41.016,44.434,0.000
1709206437.646,19.043,-163.086,-46.387,43.457,0.000
1709206437.650,19.531,-150.391,-47.852,43.457,0.000
1709206437.654,26.367,-137.695,-44.434,51.270,0.000
1709206437.658,38.086,-132.324,-47.852,56.641,0.000
1709206437.662,39.551,-166.992,-61.035,65.918,0.000
1709206437.666,42.969,-91.309,-64.453,69.336,0.000
1709206437.670,41.504,-45.410,-62.988,66.406,0.000
1709206437.674,32.715,-91.797,-64.453,63.477,0.000
1709206437.678,35.645,-74.219,-65.918,67.383,0.000
1709206437.681,46.875,-54.199,-68.359,64.941,0.000
1709206437.685,52.734,-70.801,-65.918,62.988,0.000
1709206437.689,52.734,-96.191,-65.918,57.129,0.000
1709206437.693,50.293,-70.312,-68.848,63.965,0.000
1709206437.697,54.688,-28.809,-65.430,71.289,0.000
1709206437.701,64.453,-22.461,-62.500,71.289,0.000
1709206437.705,68.359,-63.477,-56.641,76.660,0.000
1709206437.709,52.246,-61.523,-61.035,61.523,0.000
1709206437.713,33.203,-14.648,-66.895,54.199,0.000
1709206437.717,37.598,-13.184,-65.430,54.199,0.000
1709206437.720,49.805,-65.430,-63.477,53.711,0.000
1709206437.724,54.688,-39.062,-63.477,49.316,0.000
1709206437.728,48.828,-11.719,-62.988,44.922,0.000
1709206437.732,36.133,-46.387,-65.918,49.316,0.000
1709206437.736,41.992,-70.312,-64.941,56.152,0.000
1709206437.740,55.176,-63.477,-60.059,61.523,0.000
1709206437.744,51.270,-41.504,-60.059,56.641,0.000
1709206437.748,46.875,-55.664,-63.477,53.711,0.000
1709206437.752,38.574,-92.773,-63.477,43.457,0.000
1709206437.756,40.527,-62.012,-62.500,38.574,0.000
1709206437.760,47.852,-20.020,-66.406,44.434,0.000
1709206437.763,53.223,-23.438,-68.359,50.293,0.000
1709206437.767,40.039,-50.293,-65.918,53.223,0.000
1709206437.771,23.438,18.555,-65.918,30.762,0.000
1709206437.775,26.855,33.691,-65.430,18.066,0.000
1709206437.779,24.414,-16.602,-65.430,22.461,0.000
1709206437.783,19.043,3.906,-68.848,29.297,0.000
1709206437.787,19.531,22.461,-63.965,17.578,0.000
1709206437.791,11.719,11.719,-55.176,-5.371,0.000
1709206437.795,11.230,-10.742,-56.641,-3.418,0.000
1709206437.799,17.090,-8.301,-57.617,2.930,0.000
1709206437.803,21.973,23.438,-56.152,0.977,0.000
1709206437.806,23.438,30.273,-52.734,5.371,0.000
1709206437.810,7.812,-58.105,-57.129,4.395,0.000
1709206437.814,-1.953,-28.809,-57.129,11.719,0.000
1709206437.818,11.230,53.711,-49.316,6.348,0.000
1709206437.822,16.113,19.043,-54.199,-14.648,0.000
1709206437.826,2.441,-27.832,-56.152,-22.461,0.000
1709206437.830,-8.301,-16.113,-51.270,-23.438,0.000
1709206437.834,-18.066,-3.418,-49.805,-21.973,0.000
1709206437.838,-9.277,-27.344,-47.363,-12.695,0.000
1709206437.842,0.000,-42.969,-50.781,-15.625,0.000
1709206437.845,-6.348,-43.945,-47.852,-15.137,0.000
1709206437.849,-13.672,-43.945,-44.922,-15.625,0.000
1709206437.853,-20.020,-56.152,-43.945,-18.555,0.000
1709206437.857,-20.996,-100.098,-45.410,-0.488,0.000
1709206437.861,-17.578,-11.719,-48.340,-5.859,0.000
1709206437.865,-15.625,18.555,-47.363,-17.090,0.000
1709206437.869,-21.973,-43.457,-47.363,-5.859,0.000
1709206437.873,-23.438,-28.320,-47.852,-6.348,0.000
1709206437.877,-19.531,3.906,-49.805,-18.555,0.000
1709206437.881,-11.719,-19.043,-46.875,-27.344,0.000
1709206437.885,-12.207,-43.945,-46.875,-33.691,0.000
1709206437.888,-28.809,-29.785,-45.410,-42.480,0.000
1709206437.892,-31.250,-40.039,-44.922,-36.621,0.000
1709206437.896,-25.391,-33.691,-46.875,-23.438,0.000
1709206437.900,-27.832,-54.688,-46.875,-19.531,0.000
1709206437.904,-31.738,-25.391,-45.410,-10.254,0.000
1709206437.908,-35.156,32.715,-40.039,-14.648,0.000
1709206437.912,-35.645,-5.859,-46.387,-19.531,0.000
1709206437.916,-33.203,-36.621,-55.664,-20.996,0.000
1709206437.920,-20.996,7.812,-45.410,-23.438,0.000
1709206437.924,-16.113,16.113,-45.410,-22.461,0.000
1709206437.927,-27.344,-30.762,-49.805,-23.926,0.000
1709206437.931,-31.250,-48.828,-47.852,-20.020,0.000
1709206437.935,-24.414,-29.297,-43.945,-17.090,0.000
1709206437.939,-14.648,-19.531,-38.574,-15.137,0.000
1709206437.943,-16.602,-44.434,-45.410,-23.438,0.000
1709206437.947,-29.785,-99.609,-43.457,-14.648,0.000
1709206437.951,-39.062,-29.785,-37.598,-11.230,0.000
1709206437.955,-42.480,29.297,-41.992,-22.949,0.000
1709206437.959,-35.645,-6.348,-41.016,-36.621,0.000
1709206437.963,-34.668,7.324,-45.410,-43.945,0.000
1709206437.967,-41.992,23.438,-44.434,-38.086,0.000
1709206437.970,-47.852,-5.371,-42.969,-39.551,0.000
1709206437.974,-50.293,-27.344,-45.898,-41.016,0.000
1709206437.978,-42.969,-0.488,-45.898,-35.156,0.000
1709206437.982,-39.551,10.742,-47.852,-41.504,0.000
1709206437.986,-42.969,-26.367,-48.828,-44.434,0.000
1709206437.990,-47.363,-59.570,-48.340,-31.738,0.000
1709206437.994,-50.781,-22.949,-45.410,-29.297,0.000
1709206437.998,-38.086,31.738,-43.945,-33.203,0.000
1709206438.002,-28.809,18.555,-46.875,-23.926,0.000
1709206438.006,-29.785,-20.020,-43.457,-20.996,0.000
1709206438.009,-39.062,-9.277,-40.527,-40.527,0.000
1709206438.013,-47.363,-1.953,-46.875,-53.711,0.000
1709206438.017,-36.621,-12.695,-50.293,-47.852,0.000
1709206438.021,-30.762,-20.996,-49.805,-39.551,0.000
1709206438.025,-33.203,-3.906,-52.734,-23.926,0.000
1709206438.029,-41.016,-6.348,-50.293,-23.438,0.000
1709206438.033,-51.758,-48.340,-42.480,-29.785,0.000
1709206438.037,-48.340,-85.938,-42.969,-16.602,0.000
1709206438.041,-35.645,-13.672,-44.434,-19.531,0.000
1709206438.045,-36.133,28.809,-40.527,-40.527,0.000
1709206438.048,-44.922,-25.391,-37.109,-62.500,0.000
1709206438.052,-54.688,-47.852,-39.551,-62.500,0.000
1709206438.056,-48.828,-1.953,-39.062,-46.387,0.000
1709206438.060,-28.809,17.090,-35.645,-36.133,0.000
1709206438.064,-25.879,-28.320,-34.180,-28.809,0.000
1709206438.068,-42.480,-28.809,-33.203,-28.320,0.000
1709206438.072,-52.246,-7.324,-36.621,-35.645,0.000
1709206438.076,-45.898,-15.625,-34.180,-43.457,0.000
1709206438.080,-32.227,-58.105,-31.250,-45.898,0.000
1709206438.084,-33.691,-35.156,-34.180,-35.156,0.000
1709206438.087,-41.504,7.324,-32.227,-40.039,0.000
1709206438.091,-44.434,-27.344,-30.273,-43.457,0.000
1709206438.095,-41.016,-78.613,-30.762,-26.367,0.000
1709206438.099,-31.250,-31.738,-31.738,-29.785,0.000
1709206438.103,-24.414,-9.277,-31.250,-27.344,0.000
1709206438.107,-38.086,-60.547,-40.527,-36.133,0.000
1709206438.111,-39.551,-90.820,-38.574,-42.969,0.000
1709206438.115,-24.902,-46.875,-33.203,-22.461,0.000
1709206438.119,-11.230,-9.766,-34.668,-13.672,0.000
1709206438.123,-3.906,-42.480,-35.156,-20.508,0.000
1709206438.127,-4.883,-70.801,-35.156,-26.855,0.000
1709206438.130,-18.066,-41.504,-39.062,-27.832,0.000
1709206438.134,-25.879,-27.832,-41.504,-22.461,0.000
1709206438.138,-12.695,-41.992,-37.109,-15.625,0.000
1709206438.142,-9.766,-48.340,-38.574,-9.277,0.000
1709206438.146,-24.902,4.883,-47.852,-21.484,0.000
1709206438.150,-30.762,2.441,-45.410,-31.738,0.000
1709206438.154,-31.738,-25.391,-45.410,-26.367,0.000
1709206438.158,-33.691,-7.324,-47.852,-29.297,0.000
1709206438.162,-34.180,-10.254,-48.828,-36.621,0.000
1709206438.166,-33.203,-21.973,-41.016,-25.391,0.000
1709206438.170,-38.086,-40.527,-32.715,-29.785,0.000
1709206438.173,-45.410,-44.434,-33.203,-38.574,0.000
1709206438.177,-40.039,-4.395,-36.133,-30.762,0.000
1709206438.181,-30.762,6.348,-39.062,-28.320,0.000
1709206438.185,-34.180,-60.547,-36.133,-28.320,0.000
1709206438.189,-41.504,-38.086,-35.156,-18.555,0.000
1709206438.193,-40.527,19.531,-41.016,-17.578,0.000
1709206438.197,-35.156,-12.695,-47.852,-28.809,0.000
1709206438.201,-30.273,-39.062,-44.922,-29.297,0.000
1709206438.205,-32.715,-21.484,-43.457,-18.555,0.000
1709206438.209,-31.738,-28.320,-40.527,-11.719,0.000
1709206438.213,-28.809,-51.758,-32.227,-7.812,0.000
1709206438.216,-23.926,-53.711,-31.250,-13.184,0.000
1709206438.220,-20.508,-56.641,-35.645,-20.020,0.000
1709206438.224,-21.973,-55.176,-37.598,-20.020,0.000
1709206438.228,-36.621,-88.379,-38.574,-20.508,0.000
1709206438.232,-46.875,-126.465,-37.598,-20.996,0.000
1709206438.236,-41.992,-34.668,-40.039,-26.855,0.000
1709206438.240,-38.086,-2.930,-42.969,-22.949,0.000
1709206438.244,-41.016,-43.945,-39.062,-25.879,0.000
1709206438.248,-50.781,-44.922,-34.668,-32.227,0.000
1709206438.252,-55.664,-36.133,-35.156,-37.109,0.000
1709206438.256,-46.387,-41.016,-29.297,-47.852,0.000
1709206438.259,-41.504,-58.594,-27.832,-42.969,0.000
1709206438.263,-41.016,-51.758,-36.133,-40.527,0.000
1709206438.267,-50.781,-66.895,-41.504,-45.898,0.000
1709206438.271,-64.453,-77.148,-38.574,-46.387,0.000
1709206438.275,-63.477,-99.609,-42.480,-48.340,0.000
1709206438.279,-55.664,-78.613,-54.199,-43.457,0.000
1709206438.283,-52.734,-31.250,-52.734,-49.316,0.000
1709206438.287,-54.199,-36.621,-45.898,-53.711,0.000
1709206438.291,-61.523,-70.801,-44.434,-47.363,0.000
1709206438.295,-53.711,-57.617,-43.457,-34.180,0.000
1709206438.298,-39.062,-40.039,-45.898,-29.785,0.000
1709206438.302,-37.109,-72.266,-40.039,-30.273,0.000
1709206438.306,-43.457,-90.332,-40.527,-39.551,0.000
1709206438.310,-43.945,-73.242,-42.969,-33.691,0.000
1709206438.314,-37.598,-86.914,-42.480,-21.973,0.000
1709206438.318,-33.691,-107.910,-40.039,-22.461,0.000
1709206438.322,-21.973,-124.512,-37.598,-21.484,0.000
1709206438.326,-25.879,-37.109,-38.574,-38.574,0.000
1709206438.330,-41.504,-22.949,-41.504,-46.387,0.000
1709206438.334,-44.434,-79.590,-38.574,-31.250,0.000
1709206438.338,-36.133,-63.477,-33.691,-28.809,0.000
1709206438.341,-33.691,-35.645,-28.320,-22.949,0.000
1709206438.345,-43.457,-40.039,-31.738,-22.461,0.000
1709206438.349,-44.434,-79.590,-31.738,-23.926,0.000
1709206438.353,-48.828,-67.383,-32.715,-25.879,0.000
1709206438.357,-46.387,-47.852,-35.645,-32.227,0.000
1709206438.361,-37.598,-69.824,-33.203,-39.551,0.000
1709206438.365,-38.574,-100.586,-29.297,-37.109,0.000
1709206438.369,-51.270,-74.707,-28.320,-36.133,0.000
1709206438.373,-52.734,-33.203,-29.297,-44.922,0.000
1709206438.377,-52.246,-41.016,-33.203,-44.922,0.000
1709206438.380,-49.805,-55.664,-35.156,-55.176,0.000
1709206438.384,-43.945,-45.410,-37.598,-62.500,0.000
1709206438.388,-53.223,-35.645,-40.527,-55.664,0.000
1709206438.392,-60.547,-60.059,-38.574,-52.246,0.000
1709206438.396,-54.199,-88.867,-37.598,-47.852,0.000
1709206438.400,-45.898,-47.852,-42.480,-45.898,0.000
1709206438.404,-43.945,-27.344,-39.551,-57.129,0.000
1709206438.408,-60.547,-90.820,-41.504,-68.848,0.000
1709206438.412,-67.871,-144.531,-41.016,-54.688,0.000
1709206438.416,-57.617,-45.898,-36.133,-62.500,0.000
1709206438.419,-41.016,17.090,-36.133,-61.523,0.000
1709206438.423,-34.668,-35.645,-28.809,-45.410,0.000
1709206438.427,-47.363,-40.039,-29.785,-47.363,0.000
1709206438.431,-46.387,-23.438,-34.668,-38.086,0.000
1709206438.435,-45.898,-35.645,-31.738,-26.855,0.000
1709206438.439,-35.156,-61.035,-28.809,-25.391,0.000
1709206438.443,-20.508,-50.781,-22.949,-16.602,0.000
1709206438.447,-32.227,-43.945,-30.762,-18.066,0.000
1709206438.451,-38.574,-62.988,-39.062,-19.531,0.000
1709206438.455,-29.297,-97.168,-45.410,-11.719,0.000
1709206438.458,-18.555,-95.703,-44.434,-1.465,0.000
1709206438.462,-15.137,-45.410,-38.574,-19.043,0.000
1709206438.466,-14.648,-30.762,-35.156,-28.320,0.000
1709206438.470,-26.855,-100.586,-32.227,-19.043,0.000
1709206438.474,-29.297,-63.477,-32.715,-14.648,0.000
1709206438.478,-15.137,-3.418,-28.320,-10.742,0.000
1709206438.482,-15.625,-36.133,-23.438,-14.648,0.000
1709206438.486,-18.066,-60.547,-28.320,-22.949,0.000
1709206438.490,-27.832,-51.758,-34.668,-25.879,0.000
1709206438.494,-41.504,-47.363,-34.180,-24.414,0.000
1709206438.498,-39.551,-63.477,-34.668,-28.809,0.000
1709206438.501,-33.691,-87.891,-38.086,-26.367,0.000
1709206438.505,-31.250,-68.359,-33.691,-14.648,0.000
1709206438.509,-37.598,-56.641,-28.320,-23.438,0.000
1709206438.513,-46.387,-85.449,-36.621,-26.367,0.000
1709206438.517,-35.156,-92.773,-36.621,-14.160,0.000
1709206438.521,-25.391,-18.555,-34.180,-19.531,0.000
1709206438.525,-33.203,-23.926,-39.551,-36.621,0.000
1709206438.529,-42.969,-72.754,-40.039,-51.270,0.000
1709206438.533,-47.852,-59.082,-39.551,-47.852,0.000
1709206438.537,-46.387,-34.180,-36.621,-39.062,0.000
1709206438.541,-34.668,-39.551,-38.574,-34.180,0.000
1709206438.544,-31.738,-71.289,-41.992,-37.598,0.000
1709206438.548,-41.016,-82.031,-38.574,-40.039,0.000
1709206438.552,-46.875,-48.340,-38.574,-38.086,0.000
1709206438.556,-44.434,-20.508,-42.480,-43.457,0.000
1709206438.560,-32.715,-68.848,-42.480,-35.645,0.000
1709206438.564,-32.715,-51.270,-38.086,-25.879,0.000
1709206438.568,-41.504,-16.602,-36.621,-32.715,0.000
1709206438.572,-49.316,-41.992,-37.598,-41.016,0.000
1709206438.576,-55.664,-60.547,-41.016,-63.477,0.000
1709206438.580,-49.805,-39.551,-45.410,-65.918,0.000
1709206438.584,-52.246,-52.246,-44.922,-51.270,0.000
1709206438.587,-57.617,-79.590,-41.992,-54.688,0.000
1709206438.591,-56.152,-82.031,-39.062,-55.176,0.000
1709206438.595,-53.711,-83.008,-41.016,-46.875,0.000
1709206438.599,-44.922,-60.547,-43.457,-41.504,0.000
1709206438.603,-45.410,-83.496,-41.504,-40.527,0.000
1709206438.607,-53.223,-127.441,-41.992,-41.016,0.000
1709206438.611,-65.430,-41.016,-42.969,-52.246,0.000
1709206438.615,-63.965,-23.926,-37.598,-56.152,0.000
1709206438.619,-48.828,-65.430,-37.598,-47.363,0.000
1709206438.623,0.000,-64.453,-45.898,-41.504,0.000
1709206438.626,0.000,-67.383,-42.480,-36.621,0.000
1709206438.630,0.000,-69.336,-37.109,-35.645,0.000
1709206438.634,0.000,-94.727,-47.363,-45.410,0.000
1709206438.638,0.000,-80.078,-42.480,-42.969,0.000
1709206438.642,0.000,-98.145,-28.809,-37.598,0.000
1709206438.646,0.000,-121.094,-30.762,-46.875,0.000
1709206438.650,0.000,-150.391,-36.133,-47.363,0.000
1709206438.654,0.000,-123.047,-37.598,-33.691,0.000
1709206438.658,0.000,-49.805,-36.133,-38.574,0.000
1709206438.662,0.000,-72.266,-33.203,-40.039,0.000
1709206438.666,0.000,-108.887,-33.691,-30.273,0.000
1709206438.669,-49.805,-90.332,-40.527,-41.992,0.000
1709206438.673,-54.199,-72.754,-40.527,-61.523,0.000
1709206438.677,-47.363,-91.309,-36.621,-63.477,0.000
1709206438.681,-39.551,-103.027,-33.203,-51.758,0.000
1709206438.685,-44.922,-70.801,-35.645,-48.340,0.000
1709206438.689,-64.453,-84.473,-42.969,-56.641,0.000
1709206438.693,-66.895,-108.887,-40.039,-54.199,0.000
1709206438.697,-49.805,-127.930,-37.109,-34.668,0.000
1709206438.701,-41.992,-51.270,-41.992,-35.156,0.000
1709206438.705,-40.527,-22.949,-39.551,-52.734,0.000
1709206438.708,-44.922,-72.266,-39.062,-51.270,0.000
1709206438.712,-55.664,-74.707,-39.062,-30.273,0.000
1709206438.716,-55.664,-48.828,-31.738,-31.738,0.000
1709206438.720,-46.875,-43.945,-34.180,-50.781,0.000
1709206438.724,-45.410,-77.637,-32.715,-52.246,0.000
1709206438.728,-52.734,-64.453,-30.762,-44.922,0.000
1709206438.732,-63.477,-50.781,-33.203,-54.688,0.000
1709206438.736,-60.059,-78.125,-30.273,-58.594,0.000
1709206438.740,-49.316,-102.539,-29.297,-48.828,0.000
1709206438.744,-57.617,-68.359,-33.691,-54.688,0.000
1709206438.747,-68.359,-5.371,-32.715,-59.570,0.000
1709206438.751,-70.312,-28.320,-31.250,-46.387,0.000
1709206438.755,-65.918,-69.824,-35.156,-55.664,0.000
1709206438.759,-62.988,-42.480,-39.551,-57.129,0.000
1709206438.763,-59.082,-23.438,-37.109,-49.316,0.000
1709206438.767,-62.988,-51.270,-33.691,-50.293,0.000
1709206438.771,-62.500,-73.730,-34.668,-44.434,0.000
1709206438.775,-47.852,-42.969,-35.645,-43.945,0.000
1709206438.779,-39.551,-34.668,-35.156,-45.898,0.000
1709206438.783,-38.574,-85.449,-37.598,-48.828,0.000
1709206438.787,-35.645,-136.719,-38.574,-44.434,0.000
1709206438.790,-47.363,-54.688,-36.621,-45.898,0.000
1709206438.794,-55.664,-35.156,-44.434,-55.664,0.000
1709206438.798,-46.387,-65.430,-46.875,-50.781,0.000
1709206438.802,-41.504,-34.180,-41.992,-56.641,0.000
1709206438.806,-42.480,-27.344,-41.016,-66.895,0.000
1709206438.810,-45.410,-42.969,-41.504,-60.059,0.000
1709206438.814,-46.875,-81.543,-36.133,-48.340,0.000
1709206438.818,-35.645,-60.059,-34.668,-32.227,0.000
1709206438.822,-29.297,-30.273,-45.898,-33.203,0.000
1709206438.825,-34.668,-51.270,-43.945,-39.062,0.000
1709206438.829,-45.410,-101.074,-41.016,-34.668,0.000
1709206438.833,-51.758,-70.312,-44.434,-37.109,0.000
1709206438.837,-42.480,-0.977,-45.410,-41.016,0.000
1709206438.841,-33.203,-12.695,-45.898,-44.434,0.000
1709206438.845,-42.480,-71.777,-43.457,-43.945,0.000
1709206438.849,-52.246,-42.480,-41.504,-39.551,0.000
1709206438.853,-47.363,-29.297,-38.574,-43.457,0.000
1709206438.857,-40.527,-64.453,-39.551,-46.387,0.000
1709206438.861,-38.086,-37.109,-41.992,-43.457,0.000
1709206438.865,-39.062,-7.812,-38.574,-41.504,0.000
1709206438.869,-39.551,-14.648,-38.086,-36.621,0.000
1709206438.872,-45.410,-48.340,-42.480,-35.645,0.000
1709206438.876,-41.016,-75.684,-40.039,-40.039,0.000
1709206438.880,-30.762,-48.828,-39.062,-44.434,0.000
1709206438.884,-32.227,-31.738,-41.504,-43.457,0.000
1709206438.888,-45.898,-68.359,-41.504,-37.598,0.000
1709206438.892,-52.246,-102.539,-38.574,-27.832,0.000
1709206438.896,-47.363,-27.344,-40.039,-36.133,0.000
1709206438.900,-34.180,-14.648,-44.434,-34.180,0.000
1709206438.904,-33.691,-59.082,-41.016,-32.227,0.000
1709206438.908,-47.363,-70.801,-41.504,-40.039,0.000
1709206438.911,-49.316,-66.406,-41.016,-43.945,0.000
1709206438.915,-39.551,-53.711,-36.621,-43.945,0.000
1709206438.919,-32.715,-71.289,-34.180,-37.598,0.000
1709206438.923,-45.410,-87.402,-31.738,-38.574,0.000
1709206438.927,-53.711,-57.129,-34.668,-50.781,0.000
1709206438.931,-57.617,-40.039,-40.039,-61.035,0.000
1709206438.935,-58.105,-95.703,-41.504,-59.082,0.000
1709206438.939,-41.992,-68.848,-41.016,-50.781,0.000
1709206438.943,-38.574,-11.230,-45.410,-50.293,0.000
1709206438.947,-44.434,-48.828,-45.898,-53.711,0.000
1709206438.951,-47.852,-77.148,-35.645,-50.293,0.000
1709206438.954,-54.199,-48.828,-33.691,-40.527,0.000
1709206438.958,-46.387,-26.367,-41.016,-35.645,0.000
1709206438.962,-42.969,-50.781,-42.480,-39.062,0.000
1709206438.966,-45.898,-77.637,-38.086,-34.180,0.000
1709206438.970,-51.270,-82.520,-36.133,-30.762,0.000
1709206438.974,-56.152,-67.871,-37.109,-48.828,0.000
1709206438.978,-46.875,-77.148,-32.715,-46.875,0.000
1709206438.982,-41.992,-116.211,-30.762,-31.738,0.000
1709206438.986,-50.781,-43.945,-38.574,-38.574,0.000
1709206438.990,-57.617,-25.879,-38.086,-35.156,0.000
1709206438.994,-51.270,-67.383,-32.227,-26.367,0.000
1709206438.997,-39.551,-41.016,-31.738,-20.508,0.000
1709206439.001,-31.250,-12.207,-29.297,-25.391,0.000
1709206439.005,-38.574,-43.945,-32.227,-35.156,0.000
1709206439.009,-48.828,-72.266,-39.062,-43.457,0.000
1709206439.013,-50.781,-46.875,-41.016,-45.410,0.000
1709206439.017,-47.363,-44.922,-46.875,-42.969,0.000
1709206439.021,-38.574,-37.109,-48.828,-44.922,0.000
1709206439.025,-34.180,-73.242,-47.363,-41.992,0.000
1709206439.029,-38.574,-59.570,-44.922,-43.945,0.000
1709206439.033,-41.016,7.812,-48.828,-57.129,0.000
1709206439.037,-34.668,-20.020,-49.805,-51.758,0.000
1709206439.040,-29.785,-51.758,-43.457,-47.363,0.000
1709206439.044,-35.156,-25.391,-41.992,-46.387,0.000
1709206439.048,-39.551,-16.602,-41.016,-45.410,0.000
1709206439.052,-44.922,-51.270,-39.062,-46.875,0.000
1709206439.056,-40.527,-66.406,-42.480,-50.781,0.000
1709206439.060,-24.902,-45.898,-45.898,-43.945,0.000
1709206439.064,-27.832,-48.828,-39.551,-50.293,0.000
1709206439.068,-40.527,-85.449,-32.715,-50.293,0.000
1709206439.072,-49.805,-128.906,-34.668,-36.621,0.000
1709206439.076,-53.711,-30.762,-40.039,-43.945,0.000
1709206439.079,-38.086,3.418,-35.645,-47.852,0.000
1709206439.083,-24.414,-48.340,-29.785,-36.621,0.000
1709206439.087,-32.227,-45.898,-34.668,-41.016,0.000
1709206439.091,-41.504,-47.363,-40.527,-46.387,0.000
1709206439.095,-31.250,-55.664,-31.250,-38.574,0.000
1709206439.099,-13.672,-74.707,-31.738,-37.109,0.000
1709206439.103,-14.648,-62.500,-35.645,-32.715,0.000
1709206439.107,-29.297,-58.105,-33.691,-31.250,0.000
1709206439.111,-35.156,-85.449,-37.598,-22.949,0.000
1709206439.115,-32.227,-106.934,-28.320,-9.277,0.000
1709206439.118,-19.531,-64.941,-23.926,-4.395,0.000
1709206439.122,-14.648,0.488,-33.203,-15.137,0.000
1709206439.126,-20.996,-34.668,-31.250,-17.578,0.000
1709206439.130,-30.762,-66.895,-27.832,-14.648,0.000
1709206439.134,-41.504,-40.039,-34.180,-24.414,0.000
1709206439.138,-30.273,-41.992,-29.785,-20.996,0.000
1709206439.142,-20.996,-66.406,-20.508,-18.555,0.000
1709206439.146,-31.250,-59.082,-27.832,-26.367,0.000
1709206439.150,-43.457,-39.551,-25.879,-28.320,0.000
1709206439.154,-46.875,-37.598,-15.625,-29.785,0.000
1709206439.157,-39.062,-72.266,-19.531,-28.320,0.000
1709206439.161,-36.621,-126.953,-20.508,-27.344,0.000
1709206439.165,-42.480,-58.105,-25.879,-32.715,0.000
1709206439.169,-54.688,-9.766,-35.645,-44.922,0.000
1709206439.173,-59.082,-51.758,-40.039,-49.805,0.000
1709206439.177,-43.457,-43.945,-44.434,-45.410,0.000
1709206439.181,-30.273,-21.484,-43.457,-51.758,0.000
1709206439.185,-33.203,-40.527,-41.016,-52.734,0.000
1709206439.189,-38.086,-70.801,-44.922,-45.410,0.000
1709206439.193,-47.852,-62.500,-48.828,-51.758,0.000
1709206439.196,-40.039,-48.828,-43.945,-47.363,0.000
1709206439.200,-31.250,-41.016,-39.062,-49.316,0.000
1709206439.204,-44.922,-78.613,-41.504,-60.547,0.000
1709206439.208,-59.570,-63.965,-42.480,-62.500,0.000
1709206439.212,-64.453,-16.113,-47.363,-63.477,0.000
1709206439.216,-55.664,-51.270,-47.852,-59.082,0.000
1709206439.220,-48.828,-72.266,-41.992,-58.105,0.000
1709206439.224,-48.340,-41.016,-41.992,-49.316,0.000
1709206439.228,-59.570,-42.969,-47.363,-41.504,0.000
1709206439.232,-65.918,-71.777,-45.898,-41.992,0.000
1709206439.236,-57.129,-77.637,-40.039,-35.645,0.000
1709206439.239,-48.828,-53.711,-44.434,-33.691,0.000
1709206439.243,-45.898,-49.316,-41.992,-35.645,0.000
1709206439.247,-39.551,-75.195,-29.785,-30.273,0.000
1709206439.251,-52.246,-103.516,-35.156,-21.484,0.000
1709206439.255,-63.965,-82.031,-44.922,-26.855,0.000
1709206439.259,-46.875,-64.941,-43.457,-38.574,0.000
1709206439.263,-34.668,-83.008,-41.992,-29.785,0.000
1709206439.267,-46.387,-107.422,-38.574,-28.809,0.000
1709206439.271,-61.035,-55.664,-40.527,-41.992,0.000
1709206439.275,-61.035,-45.898,-43.945,-35.645,0.000
1709206439.279,-49.316,-75.684,-37.598,-22.461,0.000
1709206439.282,-37.109,-53.223,-31.738,-15.625,0.000
1709206439.286,-48.828,-46.875,-39.551,-35.156,0.000
1709206439.290,-63.965,-69.336,-44.922,-56.641,0.000
1709206439.294,-61.035,-90.332,-41.504,-49.316,0.000
1709206439.298,-52.734,-89.355,-39.062,-42.969,0.000
1709206439.302,-51.758,-54.199,-39.551,-47.363,0.000
1709206439.306,-55.176,-38.086,-37.598,-46.875,0.000
1709206439.310,-58.594,-104.980,-38.574,-46.875,0.000
1709206439.314,-51.758,-83.496,-41.016,-51.270,0.000
1709206439.318,-46.387,-4.883,-40.039,-52.734,0.000
1709206439.322,-45.898,-32.715,-42.480,-50.293,0.000
1709206439.325,-50.781,-65.430,-36.621,-49.316,0.000
1709206439.329,-60.059,-38.574,-31.250,-50.293,0.000
1709206439.333,-56.641,-37.109,-37.598,-59.082,0.000
1709206439.337,-51.270,-65.918,-43.945,-54.199,0.000
1709206439.341,-46.875,-72.266,-45.898,-44.922,0.000
1709206439.345,-48.828,-79.590,-38.086,-49.316,0.000
1709206439.349,-57.617,-66.895,-36.621,-57.617,0.000
1709206439.353,-54.199,-71.289,-36.133,-42.969,0.000
1709206439.357,-48.828,-101.562,-33.203,-30.762,0.000
1709206439.361,-37.598,-21.973,-34.668,-32.227,0.000
1709206439.365,-43.457,-7.812,-39.062,-40.527,0.000
1709206439.368,-60.059,-64.941,-38.574,-44.434,0.000
1709206439.372,-68.359,-49.316,-35.156,-39.062,0.000
1709206439.376,-61.523,-15.137,-31.738,-33.203,0.000
1709206439.380,-38.086,-33.691,-26.367,-21.973,0.000
1709206439.384,-36.621,-77.637,-32.227,-24.414,0.000
1709206439.388,-56.152,-80.078,-39.062,-46.875,0.000
1709206439.392,-58.594,-80.566,-37.598,-63.965,0.000
1709206439.396,-58.105,-71.289,-40.039,-68.848,0.000
1709206439.400,-59.082,-86.426,-41.504,-60.547,0.000
1709206439.404,-59.570,-67.383,-41.016,-58.105,0.000
1709206439.407,-81.543,-8.789,-47.852,-77.637,0.000
1709206439.411,-93.750,-36.133,-46.875,-82.031,0.000
1709206439.415,-81.543,-58.594,-39.062,-84.961,0.000
1709206439.419,-76.660,-9.277,-41.504,-95.703,0.000
1709206439.423,-84.473,-1.465,-48.340,-107.422,0.000
1709206439.427,-91.797,-53.223,-50.293,-111.816,0.000
1709206439.431,-105.469,-50.781,-44.434,-115.234,0.000
1709206439.435,-108.398,-20.020,-48.828,-115.234,0.000
1709206439.439,-100.586,-25.391,-50.293,-121.094,0.000
1709206439.443,-95.215,-56.152,-50.781,-123.047,0.000
1709206439.447,-88.379,-100.586,-54.688,-110.352,0.000
1709206439.450,-81.543,-16.602,-57.129,-114.746,0.000
1709206439.454,-79.590,17.090,-59.082,-115.234,0.000
1709206439.458,-73.242,-17.090,-54.688,-100.586,0.000
1709206439.462,-57.617,-1.953,-46.387,-91.797,0.000
1709206439.466,-56.641,-0.977,-46.387,-101.074,0.000
1709206439.470,-62.500,-18.555,-43.945,-98.145,0.000
1709206439.474,-63.965,-44.434,-44.922,-83.984,0.000
1709206439.478,-54.688,-29.785,-51.270,-81.543,0.000
1709206439.482,-36.621,-18.555,-46.875,-71.289,0.000
1709206439.486,-44.922,-46.875,-39.551,-72.754,0.000
1709206439.489,-60.547,-84.473,-42.969,-69.336,0.000
1709206439.493,-55.664,-46.387,-45.898,-56.641,0.000
1709206439.497,-41.016,23.926,-41.992,-60.059,0.000
1709206439.501,-31.250,-11.230,-41.504,-58.594,0.000
1709206439.505,-38.086,-56.152,-42.969,-63.965,0.000
1709206439.509,-42.969,-40.527,-42.480,-62.012,0.000
1709206439.513,-44.434,-31.738,-38.086,-43.945,0.000
1709206439.517,-50.781,-43.457,-34.668,-48.340,0.000
1709206439.521,-44.434,-45.898,-33.691,-46.875,0.000
1709206439.525,-39.062,-27.832,-37.598,-42.480,0.000
1709206439.528,-42.480,-41.992,-37.109,-41.992,0.000
1709206439.532,-39.062,-90.332,-33.203,-33.203,0.000
1709206439.536,-33.203,-140.625,-32.227,-20.508,0.000
1709206439.540,-32.227,-75.195,-32.227,-26.367,0.000
1709206439.544,-33.203,-24.902,-28.809,-30.762,0.000
1709206439.548,-38.086,-52.734,-28.320,-19.531,0.000
1709206439.552,-36.133,-58.594,-23.438,-12.207,0.000
1709206439.556,-20.020,-29.785,-20.020,-12.695,0.000
1709206439.560,-7.324,-26.367,-26.367,-31.250,0.000
1709206439.564,-12.207,-57.617,-28.809,-42.969,0.000
1709206439.567,-25.879,-53.223,-29.785,-40.039,0.000
1709206439.571,-33.203,-32.715,-36.133,-38.574,0.000
1709206439.575,-32.715,-33.203,-36.133,-33.691,0.000
1709206439.579,-23.926,-70.312,-31.250,-25.879,0.000
1709206439.583,-9.277,-44.434,-28.809,-23.438,0.000
1709206439.587,-12.695,-3.906,-29.785,-36.621,0.000
1709206439.591,-27.832,-37.598,-33.203,-45.898,0.000
1709206439.595,-26.367,-98.633,-30.762,-40.039,0.000
1709206439.599,-22.949,-62.988,-31.738,-35.645,0.000
1709206439.603,-28.809,-2.441,-38.086,-44.434,0.000
1709206439.607,-32.227,-43.945,-34.180,-32.715,0.000
1709206439.610,-43.945,-83.984,-31.738,-24.902,0.000
1709206439.614,-44.922,-54.199,-38.574,-44.434,0.000
1709206439.618,-18.555,-40.039,-44.434,-50.293,0.000
1709206439.622,-9.766,-65.430,-42.480,-50.293,0.000
1709206439.626,-22.461,-96.680,-38.086,-46.387,0.000
1709206439.630,-32.715,-94.727,-39.062,-36.621,0.000
1709206439.634,-28.320,-54.688,-36.621,-28.320,0.000
1709206439.638,-14.160,-53.711,-34.668,-20.996,0.000
1709206439.642,-16.602,-90.332,-39.062,-15.625,0.000
1709206439.646,-33.691,-36.133,-39.062,-19.531,0.000
1709206439.650,-49.805,-34.180,-35.645,-28.320,0.000
1709206439.653,-53.223,-71.777,-32.715,-30.762,0.000
1709206439.657,-40.039,-47.363,-41.504,-37.109,0.000
1709206439.661,-32.715,-23.438,-43.945,-38.574,0.000
1709206439.665,-36.133,-43.945,-39.551,-37.109,0.000
1709206439.669,-40.527,-67.383,-37.598,-37.109,0.000
1709206439.673,-43.945,-66.406,-35.645,-30.273,0.000
1709206439.677,-35.156,-48.340,-34.180,-11.719,0.000
1709206439.681,-23.926,-32.715,-34.180,-0.488,0.000
1709206439.685,-24.414,-113.281,-37.109,7.324,0.000
1709206439.689,-26.855,-119.141,-37.598,16.113,0.000
1709206439.693,-32.227,-48.828,-37.598,9.277,0.000
1709206439.696,-19.531,-75.684,-36.133,8.789,0.000
1709206439.700,0.488,-112.305,-37.109,17.090,0.000
1709206439.704,2.930,-88.867,-33.203,17.090,0.000
1709206439.708,-5.371,-88.379,-32.227,7.812,0.000
1709206439.712,-13.184,-131.348,-34.668,14.648,0.000
1709206439.716,-9.766,-121.582,-39.062,20.996,0.000
1709206439.720,2.441,-108.398,-34.668,21.973,0.000
1709206439.724,-1.953,-119.141,-37.598,13.672,0.000
1709206439.728,-7.324,-136.230,-43.945,-0.488,0.000
1709206439.732,-14.648,-163.574,-40.039,8.301,0.000
1709206439.735,-14.160,-73.730,-35.156,8.301,0.000
1709206439.739,-3.906,-40.039,-28.320,8.301,0.000
1709206439.743,-0.977,-89.844,-30.273,10.742,0.000
1709206439.747,-6.348,-96.191,-34.668,1.465,0.000
1709206439.751,-21.484,-79.102,-36.621,-17.578,0.000
1709206439.755,-20.996,-83.008,-45.410,-32.227,0.000
1709206439.759,-13.184,-98.633,-44.434,-34.668,0.000
1709206439.763,-17.090,-78.613,-35.645,-27.344,0.000
1709206439.767,-25.879,-92.285,-32.715,-21.973,0.000
1709206439.771,-29.297,-93.750,-33.203,-20.508,0.000
1709206439.775,-37.109,-107.422,-38.574,-25.879,0.000
1709206439.778,-39.062,-79.102,-44.434,-31.250,0.000
1709206439.782,-28.809,-14.648,-38.574,-37.109,0.000
1709206439.786,-34.180,-56.152,-38.574,-37.109,0.000
1709206439.790,-53.711,-109.375,-38.574,-29.297,0.000
1709206439.794,-59.570,-79.102,-39.551,-28.320,0.000
1709206439.798,-47.852,-52.734,-40.527,-34.180,0.000
1709206439.802,-32.715,-75.195,-40.527,-43.945,0.000
1709206439.806,-35.645,-90.332,-41.016,-47.363,0.000
1709206439.810,-42.969,-70.801,-41.504,-48.340,0.000
1709206439.814,-36.133,-73.730,-32.715,-39.551,0.000
1709206439.817,-28.320,-80.566,-28.320,-33.203,0.000
1709206439.821,-26.855,-112.793,-41.016,-33.203,0.000
1709206439.825,-35.156,-56.641,-44.922,-39.062,0.000
1709206439.829,-39.062,-14.648,-39.062,-33.203,0.000
1709206439.833,-31.738,-39.062,-35.156,-19.043,0.000
1709206439.837,-21.973,-38.086,-32.227,-17.578,0.000
1709206439.841,-18.066,-29.297,-32.227,-20.996,0.000
1709206439.845,-22.949,-39.062,-35.156,-20.996,0.000
1709206439.849,-26.367,-70.801,-30.273,-21.484,0.000
1709206439.853,-27.832,-51.270,-34.180,-27.832,0.000
1709206439.857,-23.926,-26.367,-44.922,-36.621,0.000
1709206439.860,-11.719,-50.293,-41.504,-33.691,0.000
1709206439.864,-18.066,-77.637,-40.039,-26.855,0.000
1709206439.868,-31.738,-51.270,-52.246,-28.809,0.000
1709206439.872,-39.062,5.371,-52.246,-35.156,0.000
1709206439.876,-36.133,-13.672,-44.434,-26.855,0.000
1709206439.880,-26.367,-44.434,-40.039,-27.832,0.000
1709206439.884,-29.297,-41.992,-40.527,-36.621,0.000
1709206439.888,-39.551,-22.461,-37.598,-42.969,0.000
1709206439.892,-41.016,-35.156,-36.133,-41.504,0.000
1709206439.896,-39.062,-46.387,-36.621,-41.016,0.000
1709206439.899,-45.410,-19.531,-41.504,-49.316,0.000
1709206439.903,-48.828,-10.742,-41.016,-52.734,0.000
1709206439.907,-49.316,-63.965,-38.086,-47.363,0.000
1709206439.911,-54.688,-129.395,-38.086,-32.227,0.000
1709206439.915,-54.688,-51.758,-41.016,-29.297,0.000
1709206439.919,-47.852,24.414,-38.086,-42.969,0.000
1709206439.923,-51.758,-7.324,-35.156,-44.922,0.000
1709206439.927,-50.781,-21.973,-34.668,-37.109,0.000
1709206439.931,-54.199,-10.254,-34.668,-44.922,0.000
1709206439.935,-59.082,-22.461,-40.039,-45.410,0.000
1709206439.939,-51.270,-61.523,-41.504,-36.621,0.000
1709206439.942,-45.898,-59.082,-39.551,-36.133,0.000
1709206439.946,-39.551,-26.367,-41.504,-32.715,0.000
1709206439.950,-38.574,-29.785,-40.039,-35.645,0.000
1709206439.954,-39.062,-78.125,-43.457,-35.645,0.000
1709206439.958,-32.715,-59.570,-44.922,-29.297,0.000
1709206439.962,-23.438,5.859,-44.434,-33.691,0.000
1709206439.966,-28.809,-24.902,-46.875,-45.410,0.000
1709206439.970,-35.645,-94.238,-43.457,-41.992,0.000
1709206439.974,-28.809,-57.617,-44.434,-43.457,0.000
1709206439.978,-25.391,-7.812,-45.898,-46.875,0.000
1709206439.982,-26.855,-40.039,-44.922,-39.551,0.000
1709206439.985,-32.715,-75.684,-44.434,-40.039,0.000
1709206439.989,-40.527,-56.152,-44.434,-38.574,0.000
1709206439.993,-44.434,-44.434,-50.781,-26.367,0.000
1709206439.997,-36.621,-67.383,-49.316,-20.996,0.000
1709206440.001,-34.668,-75.195,-45.898,-19.531,0.000
1709206440.005,-41.504,-54.199,-42.480,-37.598,0.000
1709206440.009,-53.223,-42.480,-35.645,-50.781,0.000
1709206440.013,-59.570,-67.383,-34.180,-43.457,0.000
1709206440.017,-53.223,-100.098,-32.715,-32.715,0.000
1709206440.021,-46.875,-3.906,-32.715,-42.969,0.000
1709206440.025,-54.199,17.578,-38.574,-53.223,0.000
1709206440.029,-57.617,-46.875,-38.574,-36.621,0.000
1709206440.032,-61.523,-41.016,-39.062,-36.621,0.000
1709206440.036,-58.105,-23.926,-40.039,-42.480,0.000
1709206440.040,-36.621,-27.832,-33.691,-43.945,0.000
1709206440.044,-37.109,-70.312,-37.109,-44.922,0.000
1709206440.048,-63.477,-84.473,-39.551,-41.992,0.000
1709206440.052,-68.359,-46.387,-32.715,-37.598,0.000
1709206440.056,-50.781,-48.828,-26.855,-25.879,0.000
1709206440.060,-37.109,-85.449,-32.227,-22.461,0.000
1709206440.064,-38.086,-56.641,-29.785,-38.086,0.000
1709206440.068,-44.434,-10.742,-27.832,-46.387,0.000
1709206440.071,-44.434,-48.340,-32.715,-32.715,0.000
1709206440.075,-37.598,-75.684,-38.086,-30.762,0.000
1709206440.079,-26.367,-40.527,-38.086,-26.367,0.000
1709206440.083,-18.555,-25.391,-34.668,-21.973,0.000
1709206440.087,-20.996,-51.758,-33.691,-23.926,0.000
1709206440.091,-26.367,-67.383,-29.785,-15.625,0.000
1709206440.095,-29.785,-67.871,-34.180,-14.648,0.000
1709206440.099,-27.344,-59.570,-39.551,-32.715,0.000
1709206440.103,-27.832,-66.895,-41.504,-34.180,0.000
1709206440.107,-40.527,-97.656,-42.969,-30.762,0.000
1709206440.111,-46.875,-45.898,-43.457,-52.246,0.000
1709206440.114,-46.875,-27.832,-44.922,-50.781,0.000
1709206440.118,-37.598,-36.621,-39.551,-41.016,0.000
1709206440.122,-35.156,-23.926,-32.227,-35.156,0.000
1709206440.126,-41.016,-17.578,-31.250,-29.785,0.000
1709206440.130,-54.199,-45.898,-34.668,-38.574,0.000
1709206440.134,-56.641,-69.336,-38.574,-43.945,0.000
1709206440.138,-41.992,-39.551,-38.086,-47.852,0.000
1709206440.142,-38.086,-50.293,-38.574,-48.828,0.000
1709206440.146,-41.504,-68.848,-41.016,-44.922,0.000
1709206440.150,-45.898,-91.797,-39.062,-41.016,0.000
1709206440.153,-44.434,-74.219,-41.992,-29.297,0.000
1709206440.157,-36.621,-3.906,-40.527,-27.344,0.000
1709206440.161,-27.832,-11.230,-30.273,-28.809,0.000
1709206440.165,-28.320,-51.270,-32.715,-37.598,0.000
1709206440.169,-39.062,-63.965,-36.621,-50.293,0.000
1709206440.173,-35.156,-29.785,-31.738,-45.410,0.000
1709206440.177,-33.203,-31.250,-35.645,-38.086,0.000
1709206440.181,-31.250,-60.547,-41.504,-39.551,0.000
1709206440.185,-30.273,-50.293,-37.598,-36.133,0.000
1709206440.189,-49.316,-49.316,-33.203,-32.715,0.000
1709206440.193,-55.176,-77.148,-29.297,-28.809,0.000
1709206440.196,-50.781,-117.676,-29.785,-10.254,0.000
1709206440.200,-52.246,-26.855,-32.715,-9.766,0.000
1709206440.204,-52.246,1.465,-31.250,-24.414,0.000
1709206440.208,-56.641,-60.059,-32.227,-35.156,0.000
1709206440.212,-65.430,-52.246,-36.621,-36.621,0.000
1709206440.216,-58.105,-36.133,-36.621,-34.668,0.000
1709206440.220,-46.875,-40.527,-33.203,-31.738,0.000
1709206440.224,-50.293,-74.219,-30.273,-38.574,0.000
1709206440.228,-52.734,-88.867,-33.203,-37.598,0.000
1709206440.232,-55.176,-59.570,-32.227,-30.273,0.000
1709206440.235,-56.152,-70.801,-27.832,-30.273,0.000
1709206440.239,-43.945,-94.238,-29.785,-29.785,0.000
1709206440.243,-35.645,-61.035,-30.762,-23.438,0.000
1709206440.247,-43.457,3.418,-31.738,-29.785,0.000
1709206440.251,-45.898,-28.320,-34.668,-38.086,0.000
1709206440.255,-41.992,-73.242,-35.645,-45.410,0.000
1709206440.259,-32.227,-38.574,-31.738,-47.363,0.000
1709206440.263,-27.832,-21.484,-30.273,-55.176,0.000
1709206440.267,-40.039,-59.082,-32.227,-65.430,0.000
1709206440.271,-46.875,-89.844,-36.133,-60.059,0.000
1709206440.274,-35.645,-45.898,-37.109,-53.223,0.000
1709206440.278,-34.668,-19.531,-35.156,-51.758,0.000
1709206440.282,-38.574,-63.965,-41.504,-51.270,0.000
1709206440.286,-47.852,-124.023,-43.457,-41.016,0.000
1709206440.290,-47.363,-70.801,-39.062,-41.504,0.000
1709206440.294,-38.574,-26.855,-42.480,-42.480,0.000
1709206440.298,-44.922,-34.180,-40.039,-35.645,0.000
1709206440.302,-47.363,-23.926,-38.086,-34.180,0.000
1709206440.306,-56.152,-18.066,-43.945,-34.668,0.000
1709206440.310,-61.035,-36.133,-42.480,-33.203,0.000
1709206440.313,-55.176,-64.453,-41.504,-42.969,0.000
1709206440.317,-45.410,-59.082,-42.480,-49.805,0.000
1709206440.321,-41.992,-39.062,-44.434,-42.969,0.000
1709206440.325,-46.875,-53.223,-42.969,-41.016,0.000
1709206440.329,-54.688,-102.051,-40.527,-41.016,0.000
1709206440.333,-56.152,-84.961,-43.945,-39.062,0.000
1709206440.337,-43.457,-25.879,-37.598,-30.273,0.000
1709206440.341,-35.645,-45.410,-33.203,-28.320,0.000
1709206440.345,-36.133,-87.402,-43.457,-32.227,0.000
1709206440.349,-49.316,-59.082,-49.316,-35.645,0.000
1709206440.353,-55.664,-21.484,-40.039,-42.480,0.000
1709206440.356,-48.828,-43.457,-36.133,-35.156,0.000
1709206440.360,-42.969,-63.965,-37.598,-34.180,0.000
1709206440.364,-42.480,-44.434,-35.645,-42.480,0.000
1709206440.368,-52.734,-52.246,-35.156,-53.711,0.000
1709206440.372,-54.199,-83.008,-37.109,-52.734,0.000
1709206440.376,-48.828,-104.980,-40.527,-39.062,0.000
1709206440.380,-44.922,-70.312,-44.434,-40.527,0.000
1709206440.384,-46.387,-40.527,-44.434,-41.992,0.000
1709206440.388,-49.316,-66.406,-38.086,-44.434,0.000
1709206440.392,-45.898,-92.285,-35.156,-34.668,0.000
1709206440.396,-42.480,-30.273,-38.574,-26.367,0.000
1709206440.399,-39.551,-33.203,-46.875,-27.832,0.000
1709206440.403,-36.621,-50.293,-45.410,-20.508,0.000
1709206440.407,-38.574,-30.762,-39.062,-29.297,0.000
1709206440.411,-40.039,-30.762,-39.062,-36.621,0.000
1709206440.415,-38.086,-34.668,-40.039,-23.926,0.000
1709206440.419,-32.227,-58.105,-40.527,-14.648,0.000
1709206440.423,-34.180,-78.613,-38.086,-21.973,0.000
1709206440.427,-45.410,-48.828,-36.621,-29.785,0.000
1709206440.431,-54.199,-23.926,-39.551,-38.574,0.000
1709206440.435,-58.105,-88.867,-39.062,-28.809,0.000
1709206440.439,-48.828,-60.059,-36.621,-14.648,0.000
1709206440.442,-40.527,15.625,-34.668,-22.949,0.000
1709206440.446,-40.039,-33.203,-39.551,-35.645,0.000
1709206440.450,-52.246,-77.637,-43.945,-40.039,0.000
1709206440.454,-55.176,-59.082,-44.922,-33.691,0.000
1709206440.458,-41.504,-37.598,-40.527,-26.855,0.000
1709206440.462,-35.156,-38.574,-37.109,-31.738,0.000
1709206440.466,-44.434,-72.754,-43.457,-39.551,0.000
1709206440.470,-48.828,-83.496,-41.992,-40.039,0.000
1709206440.474,-46.875,-57.617,-39.551,-41.016,0.000
1709206440.478,-39.551,-59.082,-43.457,-36.133,0.000
1709206440.482,-29.785,-103.027,-43.945,-18.555,0.000
1709206440.485,-40.527,-36.621,-46.387,-39.551,0.000
1709206440.489,-62.012,-28.809,-49.316,-67.871,0.000
1709206440.493,-56.152,-76.660,-52.246,-61.035,0.000
1709206440.497,-42.480,-65.918,-49.316,-51.270,0.000
1709206440.501,-30.762,-45.410,-40.039,-40.527,0.000
1709206440.505,-33.203,-53.711,-37.109,-38.086,0.000
1709206440.509,-42.480,-90.332,-35.645,-42.969,0.000
1709206440.513,-48.828,-97.656,-37.109,-35.156,0.000
1709206440.517,-45.410,-80.078,-42.480,-31.250,0.000
1709206440.521,-33.203,-63.965,-40.527,-35.156,0.000
1709206440.525,-36.621,-100.098,-43.457,-39.062,0.000
1709206440.528,-43.945,-96.191,-41.016,-36.621,0.000
1709206440.532,-41.992,-28.809,-37.109,-43.945,0.000
1709206440.536,-35.645,-41.992,-35.156,-47.363,0.000
1709206440.540,-33.203,-66.406,-32.715,-35.156,0.000
1709206440.544,-34.180,-42.480,-34.668,-32.715,0.000
1709206440.548,-50.293,-46.875,-35.156,-36.621,0.000
1709206440.552,-56.641,-81.543,-35.156,-38.086,0.000
1709206440.556,-41.016,-86.426,-32.227,-37.598,0.000
1709206440.560,-32.227,-51.270,-29.785,-36.133,0.000
1709206440.564,-32.715,-61.035,-32.715,-38.574,0.000
1709206440.567,-38.574,-95.703,-34.180,-37.109,0.000
1709206440.571,-41.016,-138.672,-33.203,-19.043,0.000
1709206440.575,-38.086,-55.664,-28.809,-23.926,0.000
1709206440.579,-29.785,-2.930,-33.203,-43.945,0.000
1709206440.583,-23.438,-46.875,-33.691,-39.062,0.000
1709206440.587,-25.879,-52.246,-31.250,-28.320,0.000
1709206440.591,-38.574,-47.852,-39.551,-24.902,0.000
1709206440.595,-39.062,-63.965,-41.992,-35.156,0.000
1709206440.599,-19.531,-76.660,-38.086,-37.598,0.000
1709206440.603,-23.926,-53.223,-32.227,-33.203,0.000
1709206440.606,-36.621,-46.387,-31.250,-34.180,0.000
1709206440.610,-40.039,-72.266,-34.180,-41.504,0.000
1709206440.614,-31.250,-98.145,-32.227,-32.715,0.000
1709206440.618,-24.414,-66.895,-30.762,-16.602,0.000
1709206440.622,-31.250,0.488,-32.715,-41.504,0.000
1709206440.626,-31.738,-44.434,-33.691,-54.688,0.000
1709206440.630,-31.738,-76.660,-31.250,-43.457,0.000
1709206440.634,-36.133,-35.645,-26.855,-40.527,0.000
1709206440.638,-24.414,-20.020,-27.832,-37.109,0.000
1709206440.642,-15.137,-36.621,-31.738,-35.645,0.000
1709206440.645,-31.738,-61.523,-31.738,-40.527,0.000
1709206440.649,-41.016,-48.340,-35.645,-42.969,0.000
1709206440.653,-40.039,-41.504,-38.574,-38.574,0.000
1709206440.657,-34.180,-66.406,-34.668,-32.715,0.000
1709206440.661,-22.461,-105.957,-35.645,-28.809,0.000
1709206440.665,-24.902,-50.293,-39.062,-36.133,0.000
1709206440.669,-38.086,-1.465,-37.109,-40.039,0.000
1709206440.673,-41.016,-52.734,-32.227,-30.273,0.000
1709206440.677,-34.668,-58.105,-31.250,-28.320,0.000
1709206440.681,-22.949,-43.945,-32.227,-26.367,0.000
1709206440.684,-25.879,-70.801,-31.250,-28.320,0.000
1709206440.688,-42.480,-89.355,-33.203,-34.668,0.000
1709206440.692,-40.527,-71.289,-34.668,-27.832,0.000
1709206440.696,-30.762,-40.039,-35.645,-32.715,0.000
1709206440.700,-20.020,-41.016,-38.574,-35.645,0.000
1709206440.704,-15.625,-85.449,-37.598,-28.809,0.000
1709206440.708,-18.066,-79.102,-39.551,-37.109,0.000
1709206440.712,-28.320,-33.203,-36.621,-41.016,0.000
1709206440.716,-39.062,-44.434,-35.156,-40.039,0.000
1709206440.720,-30.273,-99.609,-32.227,-29.785,0.000
1709206440.724,-26.367,-66.895,-32.227,-34.180,0.000
1709206440.727,-32.715,-34.668,-41.992,-64.453,0.000
1709206440.731,-33.691,-78.613,-34.180,-51.270,0.000
1709206440.735,-36.621,-94.238,-34.668,-39.551,0.000
1709206440.739,-39.062,-61.035,-38.574,-49.316,0.000
1709206440.743,-44.434,-59.082,-36.621,-56.641,0.000
1709206440.747,-57.617,-74.707,-36.621,-61.035,0.000
1709206440.751,-66.406,-110.352,-36.133,-62.988,0.000
1709206440.755,-56.152,-96.680,-35.645,-59.570,0.000
1709206440.759,-49.805,-56.641,-38.574,-53.711,0.000
1709206440.763,-53.711,-65.918,-44.434,-62.012,0.000
1709206440.767,-53.223,-113.281,-42.480,-58.594,0.000
1709206440.770,-58.594,-47.852,-41.016,-62.500,0.000
1709206440.774,-48.828,-21.973,-39.551,-59.570,0.000
1709206440.778,-31.250,-60.059,-35.156,-46.875,0.000
1709206440.782,-27.832,-46.875,-37.109,-39.551,0.000
1709206440.786,-32.715,-38.574,-39.062,-34.668,0.000
1709206440.790,-46.387,-53.711,-38.574,-35.645,0.000
1709206440.794,-49.805,-83.496,-38.574,-29.297,0.000
1709206440.798,-36.133,-86.914,-38.574,-25.391,0.000
1709206440.802,-21.484,-62.500,-39.062,-28.809,0.000
1709206440.806,-20.508,-55.664,-38.086,-34.180,0.000
1709206440.810,-32.715,-95.703,-39.551,-28.320,0.000
1709206440.813,-39.062,-82.031,-45.898,-16.602,0.000
1709206440.817,-28.809,-12.207,-38.574,-17.090,0.000
1709206440.821,-14.160,-27.344,-41.992,-28.809,0.000
1709206440.825,-31.250,-67.871,-46.387,-44.434,0.000
1709206440.829,-57.129,-50.781,-37.109,-43.457,0.000
1709206440.833,-47.363,-41.016,-26.367,-30.273,0.000
1709206440.837,-38.086,-61.035,-28.320,-36.133,0.000
1709206440.841,-43.945,-72.266,-34.180,-45.410,0.000
1709206440.845,-48.828,-68.848,-34.180,-46.387,0.000
1709206440.849,-64.941,-61.523,-37.598,-45.410,0.000
1709206440.853,-68.848,-83.496,-37.109,-40.039,0.000
1709206440.856,-60.547,-126.465,-37.109,-34.668,0.000
1709206440.860,-53.223,-32.715,-41.504,-40.039,0.000
1709206440.864,-41.016,3.418,-38.086,-45.410,0.000
1709206440.868,-41.992,-56.641,-33.691,-54.688,0.000
1709206440.872,-57.617,-61.035,-34.668,-54.199,0.000
1709206440.876,-51.270,-36.621,-32.227,-48.340,0.000
1709206440.880,-39.062,-33.691,-35.156,-51.758,0.000
1709206440.884,-42.480,-60.547,-39.062,-51.270,0.000
1709206440.888,-49.316,-56.641,-39.062,-53.223,0.000
1709206440.892,-48.828,-64.453,-39.551,-52.246,0.000
1709206440.895,-44.434,-66.406,-38.086,-48.340,0.000
1709206440.899,-35.156,-74.707,-40.527,-37.598,0.000
1709206440.903,-32.227,-64.941,-41.016,-28.809,0.000
1709206440.907,-46.875,-5.859,-44.922,-36.621,0.000
1709206440.911,-52.246,-34.180,-46.875,-49.316,0.000
1709206440.915,-45.898,-71.777,-48.340,-51.270,0.000
1709206440.919,-34.180,-24.902,-47.852,-45.898,0.000
1709206440.923,-28.320,-9.766,-41.016,-40.527,0.000
1709206440.927,-35.645,-52.246,-45.898,-36.133,0.000
1709206440.931,-37.109,-78.125,-45.410,-31.250,0.000
1709206440.935,-31.738,-53.711,-39.551,-30.273,0.000
1709206440.938,-40.039,-49.805,-42.480,-34.180,0.000
1709206440.942,-41.992,-69.824,-47.363,-42.969,0.000
1709206440.946,-50.781,-122.559,-45.410,-36.133,0.000
1709206440.950,-61.523,-51.758,-45.898,-38.086,0.000
1709206440.954,-51.270,-7.812,-41.992,-46.875,0.000
1709206440.958,-40.527,-45.898,-33.691,-34.180,0.000
1709206440.962,-46.875,-37.109,-41.992,-32.227,0.000
1709206440.966,-51.270,-33.691,-43.945,-45.410,0.000
1709206440.970,-56.641,-69.824,-43.945,-57.129,0.000
1709206440.974,-47.852,-79.590,-50.293,-50.293,0.000
1709206440.977,-34.668,-25.879,-46.875,-46.387,0.000
1709206440.981,-36.621,-14.648,-39.551,-45.410,0.000
1709206440.985,-44.434,-53.711,-43.945,-56.152,0.000
1709206440.989,-54.199,-93.262,-48.340,-53.223,0.000
1709206440.993,-51.270,-68.848,-39.551,-35.156,0.000
1709206440.997,-38.574,0.000,-33.691,-43.457,0.000
1709206441.001,-35.156,-24.414,-32.227,-55.664,0.000
1709206441.005,-40.039,-70.801,-39.062,-52.734,0.000
1709206441.009,-48.340,-52.246,-42.480,-47.852,0.000
1709206441.013,-48.828,-31.250,-38.574,-41.992,0.000
1709206441.016,-36.621,-44.922,-32.715,-30.762,0.000
1709206441.020,-29.785,-65.430,-29.297,-32.227,0.000
1709206441.024,-34.668,-51.758,-33.203,-39.551,0.000
1709206441.028,-45.898,-57.129,-32.227,-35.156,0.000
1709206441.032,-58.105,-79.102,-34.180,-32.715,0.000
1709206441.036,-56.641,-120.605,-34.668,-14.160,0.000
1709206441.040,-41.992,-44.434,-33.203,-16.113,0.000
1709206441.044,-41.016,2.441,-41.504,-31.250,0.000
1709206441.048,-50.293,-59.570,-44.922,-28.809,0.000
1709206441.052,-50.781,-52.734,-39.551,-23.926,0.000
1709206441.056,-58.105,-29.785,-42.969,-29.785,0.000
1709206441.059,-49.316,-32.715,-43.945,-37.109,0.000
1709206441.063,-33.691,-61.035,-40.527,-41.992,0.000
1709206441.067,-42.480,-62.012,-44.922,-55.664,0.000
1709206441.071,-48.340,-43.457,-47.363,-52.734,0.000
1709206441.075,-44.434,-42.969,-40.527,-41.504,0.000
1709206441.079,-40.527,-82.031,-37.109,-37.109,0.000
1709206441.083,-43.457,-86.426,-41.016,-44.434,0.000
1709206441.087,-53.223,-31.250,-45.898,-54.199,0.000
1709206441.091,-56.152,-37.109,-43.945,-47.852,0.000
1709206441.095,-53.223,-74.707,-40.527,-45.410,0.000
1709206441.098,-44.922,-47.363,-45.410,-42.969,0.000
1709206441.102,-36.621,-20.996,-54.688,-37.598,0.000
1709206441.106,-38.086,-39.551,-53.223,-39.551,0.000
1709206441.110,-40.527,-74.707,-51.758,-53.711,0.000
1709206441.114,-41.504,-62.500,-48.340,-52.246,0.000
1709206441.118,-36.621,-22.461,-46.387,-45.898,0.000
1709206441.122,-32.715,-45.410,-47.852,-47.852,0.000
1709206441.126,-39.062,-88.867,-46.387,-53.711,0.000
1709206441.130,-37.109,-71.289,-40.527,-42.480,0.000
1709206441.134,-32.715,-36.133,-37.109,-34.668,0.000
1709206441.138,-27.344,-43.945,-36.133,-35.156,0.000
1709206441.141,-23.926,-90.332,-31.250,-20.020,0.000
1709206441.145,-32.227,-18.066,-35.156,-25.391,0.000
1709206441.149,-42.969,-2.441,-33.203,-34.180,0.000
1709206441.153,-52.246,-53.223,-37.598,-34.180,0.000
1709206441.157,-49.805,-39.062,-45.410,-39.062,0.000
1709206441.161,-41.992,-24.414,-42.480,-42.480,0.000
1709206441.165,-33.203,-36.133,-40.039,-44.434,0.000
1709206441.169,-41.016,-73.730,-37.109,-47.852,0.000
1709206441.173,-56.641,-94.238,-41.992,-55.664,0.000
1709206441.177,-49.316,-51.270,-45.898,-58.594,0.000
1709206441.181,-39.062,-20.020,-48.340,-48.340,0.000
1709206441.184,-39.551,-89.844,-50.781,-41.992,0.000
1709206441.188,-46.387,-90.332,-42.969,-35.645,0.000
1709206441.192,-45.410,-16.113,-39.062,-36.133,0.000
1709206441.196,-33.203,-26.855,-38.086,-41.016,0.000
1709206441.200,-23.438,-64.941,-35.645,-42.480,0.000
1709206441.204,-27.832,-37.598,-38.574,-41.016,0.000
1709206441.208,-37.109,-28.809,-39.551,-36.621,0.000
1709206441.212,-46.875,-74.707,-35.156,-40.527,0.000
1709206441.216,-45.898,-87.891,-35.156,-43.945,0.000
1709206441.220,-39.062,-68.359,-35.645,-46.875,0.000
1709206441.224,-42.480,-59.082,-39.551,-55.664,0.000
1709206441.227,-49.316,-79.590,-35.156,-45.410,0.000
1709206441.231,-52.734,-124.512,-27.832,-23.926,0.000
1709206441.235,-61.035,-49.316,-34.668,-36.133,0.000
1709206441.239,-52.246,-9.766,-35.156,-44.434,0.000
1709206441.243,-41.992,-60.547,-28.320,-39.551,0.000
1709206441.247,-47.363,-62.988,-29.785,-43.945,0.000
1709206441.251,-47.852,-49.805,-32.715,-38.574,0.000
1709206441.255,-41.992,-68.359,-35.645,-35.156,0.000
1709206441.259,-34.668,-73.242,-40.039,-32.715,0.000
1709206441.263,-37.598,-44.434,-41.016,-36.133,0.000
1709206441.266,-43.945,-66.406,-38.574,-35.645,0.000
1709206441.270,-38.574,-67.383,-33.691,-37.598,0.000
1709206441.274,-45.410,-71.289,-38.086,-43.945,0.000
1709206441.278,-42.480,-65.430,-35.645,-27.344,0.000
1709206441.282,-34.668,-0.977,-30.762,-31.250,0.000
1709206441.286,-43.457,-25.391,-34.668,-42.969,0.000
1709206441.290,-53.711,-82.520,-35.156,-34.668,0.000
1709206441.294,-53.223,-55.176,-38.086,-37.598,0.000
1709206441.298,-43.457,-22.949,-44.434,-45.898,0.000
1709206441.302,-35.156,-50.293,-41.992,-44.434,0.000
1709206441.306,-33.691,-69.336,-39.551,-49.805,0.000
1709206441.309,-35.645,-45.410,-35.645,-34.180,0.000
1709206441.313,-35.645,-63.965,-33.691,-26.855,0.000
1709206441.317,-29.297,-79.102,-35.645,-28.320,0.000
1709206441.321,-28.320,-116.211,-38.574,-25.391,0.000
1709206441.325,-33.691,-54.688,-35.645,-40.527,0.000
1709206441.329,-40.039,-0.488,-35.645,-44.434,0.000
1709206441.333,-42.969,-50.293,-37.598,-43.457,0.000
1709206441.337,-38.574,-36.621,-37.598,-44.434,0.000
1709206441.341,-37.109,-6.348,-39.062,-39.062,0.000
1709206441.345,-35.645,-25.391,-33.203,-31.738,0.000
1709206441.348,-47.852,-60.059,-33.203,-32.715,0.000
1709206441.352,-57.617,-42.969,-38.086,-41.016,0.000
1709206441.356,-45.410,-16.113,-39.062,-44.922,0.000
1709206441.360,-25.879,-31.738,-34.180,-41.504,0.000
1709206441.364,-20.020,-61.523,-28.320,-30.762,0.000
1709206441.368,-25.879,-56.152,-27.344,-20.508,0.000
1709206441.372,-28.809,-9.766,-26.855,-11.230,0.000
1709206441.376,-25.391,-1.465,-26.855,-9.766,0.000
1709206441.380,-23.926,-29.785,-30.273,-30.762,0.000
1709206441.384,-28.320,-27.832,-30.273,-46.387,0.000
1709206441.387,-38.086,-29.785,-30.273,-41.016,0.000
1709206441.391,-51.758,-59.082,-39.551,-46.387,0.000
1709206441.395,-54.688,-58.105,-41.504,-52.734,0.000
1709206441.399,-36.133,-20.508,-35.156,-38.086,0.000
1709206441.403,-28.320,-22.949,-33.203,-34.668,0.000
1709206441.407,-40.039,-69.336,-33.203,-42.480,0.000
1709206441.411,-46.875,-130.859,-34.668,-28.809,0.000
1709206441.415,-41.504,-60.547,-35.645,-25.391,0.000
1709206441.419,-37.598,17.578,-35.156,-24.414,0.000
1709206441.423,-40.039,-18.555,-39.062,-20.020,0.000
1709206441.427,-39.062,-51.758,-38.574,-46.875,0.000
1709206441.430,-42.480,-39.062,-42.969,-51.758,0.000
1709206441.434,-38.086,-18.555,-44.922,-33.203,0.000
1709206441.438,-34.668,-36.133,-42.480,-42.969,0.000
1709206441.442,-39.062,-35.645,-47.363,-47.363,0.000
1709206441.446,-39.062,-29.785,-50.293,-50.781,0.000
1709206441.450,-45.410,-34.180,-42.480,-62.500,0.000
1709206441.454,-48.340,-82.031,-35.156,-58.105,0.000
1709206441.458,-37.109,-60.059,-41.016,-48.828,0.000
1709206441.462,-30.273,14.160,-46.875,-45.898,0.000
1709206441.466,-28.320,-12.695,-42.480,-46.387,0.000
1709206441.469,-36.621,-78.125,-42.480,-53.223,0.000
1709206441.473,-46.387,-62.500,-45.898,-52.246,0.000
1709206441.477,-35.645,-18.066,-40.527,-45.898,0.000
1709206441.481,-24.902,-37.598,-37.598,-40.527,0.000
1709206441.485,-31.738,-80.078,-41.992,-38.086,0.000
1709206441.489,-37.109,-55.664,-40.039,-38.574,0.000
1709206441.493,-41.992,-29.297,-35.156,-40.527,0.000
1709206441.497,-28.809,-46.875,-35.156,-30.762,0.000
1709206441.501,-11.230,-66.895,-31.738,-22.461,0.000
1709206441.505,-15.137,-54.199,-35.156,-29.785,0.000
1709206441.509,-25.391,-40.527,-42.969,-37.598,0.000
1709206441.512,-20.020,-40.527,-43.457,-34.668,0.000
1709206441.516,-6.348,-65.430,-40.039,-21.973,0.000
1709206441.520,-17.578,-5.859,-42.480,-26.855,0.000
1709206441.524,-32.715,7.324,-41.992,-37.598,0.000
1709206441.528,-38.574,-41.016,-41.016,-38.086,0.000
1709206441.532,-43.945,-40.039,-40.527,-39.551,0.000
1709206441.536,-46.387,-41.504,-39.551,-44.434,0.000
1709206441.540,-42.480,-45.410,-42.480,-40.527,0.000
1709206441.544,-41.992,-65.918,-42.480,-34.180,0.000
1709206441.548,-49.316,-83.984,-40.527,-42.969,0.000
1709206441.552,-55.176,-66.406,-42.969,-45.410,0.000
1709206441.555,-47.363,-27.344,-38.086,-41.016,0.000
1709206441.559,-35.156,-66.895,-35.645,-34.180,0.000
1709206441.563,-36.621,-64.941,-40.039,-27.832,0.000
1709206441.567,-43.945,-14.648,-42.969,-44.922,0.000
1709206441.571,-49.316,-49.805,-40.039,-46.875,0.000
1709206441.575,-49.316,-80.566,-41.504,-37.598,0.000
1709206441.579,-38.574,-45.898,-42.480,-40.527,0.000
1709206441.583,-28.809,-27.344,-38.574,-38.086,0.000
1709206441.587,-27.344,-56.641,-37.109,-31.250,0.000
1709206441.591,-46.387,-78.613,-36.133,-34.180,0.000
1709206441.595,-41.016,-72.754,-32.227,-37.109,0.000
1709206441.598,-28.809,-46.387,-33.691,-35.156,0.000
1709206441.602,-30.762,-53.711,-36.133,-37.109,0.000
1709206441.606,-26.855,-103.516,-28.809,-25.391,0.000
1709206441.610,-36.621,-38.574,-33.203,-26.367,0.000
1709206441.614,-44.434,-7.324,-40.527,-28.320,0.000
1709206441.618,-40.527,-38.086,-37.598,-31.250,0.000
1709206441.622,-35.156,-27.344,-40.527,-46.875,0.000
1709206441.626,-37.109,-20.508,-41.504,-38.086,0.000
1709206441.630,-50.293,-41.992,-38.086,-29.785,0.000
1709206441.634,-55.664,-65.430,-39.551,-35.156,0.000
1709206441.637,-46.875,-43.457,-42.969,-36.133,0.000
1709206441.641,-34.668,-46.387,-39.551,-41.016,0.000
1709206441.645,-35.156,-52.246,-32.715,-49.316,0.000
1709206441.649,-50.293,-77.148,-36.621,-51.270,0.000
1709206441.653,-56.641,-79.590,-42.480,-46.387,0.000
1709206441.657,-51.758,-23.438,-39.062,-51.270,0.000
1709206441.661,-40.039,-21.973,-36.621,-47.363,0.000
1709206441.665,-39.551,-53.711,-38.086,-39.551,0.000
1709206441.669,-54.199,-38.574,-39.551,-52.246,0.000
1709206441.673,-59.570,-31.250,-36.133,-50.293,0.000
1709206441.677,-50.293,-52.734,-37.109,-36.621,0.000
1709206441.681,-36.621,-54.199,-35.645,-35.156,0.000
1709206441.684,-35.156,-36.621,-34.180,-32.227,0.000
1709206441.688,-41.016,-63.477,-42.969,-42.480,0.000
1709206441.692,-52.246,-88.867,-44.922,-51.270,0.000
1709206441.696,-46.875,-102.539,-40.527,-25.879,0.000
1709206441.700,-35.645,-20.020,-43.945,-22.949,0.000
1709206441.704,-33.691,16.602,-44.922,-38.574,0.000
1709206441.708,-32.227,-34.180,-36.133,-29.297,0.000
1709206441.712,-38.574,-61.523,-30.273,-20.508,0.000
1709206441.716,0.000,-43.457,-37.598,-23.438,0.000
1709206441.720,0.000,-18.555,-41.504,-19.531,0.000
1709206441.724,0.000,-45.410,-37.109,-23.438,0.000
1709206441.727,0.000,-39.551,-35.645,-37.109,0.000
1709206441.731,0.000,-35.645,-34.180,-35.156,0.000
1709206441.735,0.000,-57.617,-38.086,-40.527,0.000
1709206441.739,0.000,-75.195,-39.551,-38.574,0.000
1709206441.743,0.000,-46.875,-33.691,-28.809,0.000
1709206441.747,0.000,7.324,-32.227,-38.086,0.000
1709206441.751,0.000,-23.926,-36.621,-46.387,0.000
1709206441.755,0.000,-64.941,-35.645,-41.016,0.000
1709206441.759,0.000,-34.180,-28.809,-36.621,0.000
1709206441.763,-41.504,-11.719,-37.109,-40.039,0.000
1709206441.766,-38.574,-40.039,-37.109,-34.668,0.000
1709206441.770,-41.504,-75.684,-30.273,-25.391,0.000
1709206441.774,-41.504,-35.645,-30.762,-28.320,0.000
1709206441.778,-29.297,-9.277,-27.344,-35.645,0.000
1709206441.782,-25.391,-53.223,-29.785,-35.645,0.000
1709206441.786,-34.180,-108.398,-33.203,-36.621,0.000
1709206441.790,-50.781,-49.805,-33.691,-47.852,0.000
1709206441.794,-53.223,5.371,-34.668,-45.898,0.000
1709206441.798,-45.410,-16.113,-32.715,-35.645,0.000
1709206441.802,-49.316,-14.160,-32.227,-38.086,0.000
1709206441.805,-47.852,-8.789,-32.227,-41.992,0.000
