timestamps,TP9,AF7,AF8,TP10,Right AUX
1709291970.853,-21.484,-36.133,-19.531,-16.602,0.000
1709291970.857,-24.902,-39.062,-22.461,-18.066,0.000
1709291970.861,-35.156,-40.039,-22.949,-26.367,0.000
1709291970.865,-36.133,-39.551,-20.508,-22.949,0.000
1709291970.869,-31.738,-42.969,-17.578,-19.531,0.000
1709291970.873,-38.574,-43.457,-22.461,-20.508,0.000
1709291970.877,-37.598,-41.016,-22.461,-12.207,0.000
1709291970.880,-35.156,-40.039,-25.879,-20.508,0.000
1709291970.884,-33.691,-43.945,-29.297,-30.762,0.000
1709291970.888,-30.762,-42.969,-20.020,-27.344,0.000
1709291970.892,-33.203,-38.086,-18.555,-29.297,0.000
1709291970.896,-27.344,-36.133,-21.973,-28.320,0.000
1709291970.901,-25.391,-39.551,-27.832,-26.367,0.000
1709291970.905,-36.133,-40.527,-31.738,-31.738,0.000
1709291970.909,-40.527,-36.133,-28.809,-31.250,0.000
1709291970.913,-36.133,-35.156,-24.902,-29.785,0.000
1709291970.917,-36.133,-37.598,-25.879,-34.668,0.000
1709291970.921,-38.086,-38.086,-25.879,-34.180,0.000
1709291970.925,-38.574,-41.016,-27.344,-36.133,0.000
1709291970.929,-40.039,-39.551,-29.297,-41.016,0.000
1709291970.932,-32.715,-41.504,-33.691,-44.434,0.000
1709291970.936,-32.227,-42.969,-35.645,-33.203,0.000
1709291970.940,-35.645,-41.016,-34.180,-24.414,0.000
1709291970.944,-36.621,-42.480,-28.809,-37.598,0.000
1709291970.949,-40.039,-44.922,-30.273,-39.551,0.000
1709291970.953,-33.203,-45.410,-30.273,-29.297,0.000
1709291970.957,-29.297,-39.551,-27.832,-30.762,0.000
1709291970.961,-37.109,-35.156,-25.879,-32.715,0.000
1709291970.965,-35.645,-37.598,-25.391,-21.484,0.000
1709291970.969,-33.203,-36.621,-24.902,-19.531,0.000
1709291970.972,-35.156,-34.668,-19.531,-20.508,0.000
1709291970.976,-27.832,-32.715,-20.508,-19.043,0.000
1709291970.980,-30.762,-35.156,-24.902,-23.926,0.000
1709291970.984,-33.691,-35.645,-22.949,-19.043,0.000
1709291970.988,-30.762,-32.715,-20.996,-23.926,0.000
1709291970.992,-31.738,-34.180,-19.043,-33.691,0.000
1709291970.997,0.000,-34.668,-17.578,-26.855,0.000
1709291971.000,0.000,-36.133,-23.926,-24.414,0.000
1709291971.004,0.000,-31.738,-25.879,-23.926,0.000
1709291971.008,0.000,-34.180,-26.367,-34.180,0.000
1709291971.012,0.000,-38.574,-26.855,-38.574,0.000
1709291971.016,0.000,-41.504,-27.344,-31.250,0.000
1709291971.020,0.000,-41.016,-29.785,-39.551,0.000
1709291971.024,0.000,-41.992,-29.297,-41.992,0.000
1709291971.028,0.000,-41.016,-27.832,-19.531,0.000
1709291971.032,0.000,-36.133,-29.297,-18.066,0.000
1709291971.036,0.000,-34.668,-24.902,-36.133,0.000
1709291971.040,0.000,-35.156,-23.438,-30.273,0.000
1709291971.044,-28.320,-34.668,-20.020,-20.996,0.000
1709291971.048,-34.668,-38.086,-18.555,-23.438,0.000
1709291971.052,-42.480,-46.387,-24.414,-27.344,0.000
1709291971.056,-39.062,-44.922,-27.832,-31.250,0.000
1709291971.059,-29.297,-38.086,-31.250,-33.691,0.000
1709291971.063,-30.273,-39.062,-31.738,-37.598,0.000
1709291971.067,-40.527,-41.992,-30.273,-38.574,0.000
1709291971.071,-44.922,-45.410,-27.344,-39.062,0.000
1709291971.075,-44.434,-49.316,-29.785,-32.715,0.000
1709291971.079,-38.574,-43.457,-33.691,-33.203,0.000
1709291971.083,-33.691,-41.016,-33.203,-31.738,0.000
1709291971.087,-31.738,-41.992,-34.180,-29.297,0.000
1709291971.091,-39.062,-38.086,-34.180,-36.133,0.000
1709291971.095,-39.062,-40.039,-33.203,-35.645,0.000
1709291971.099,-33.691,-44.434,-33.203,-30.273,0.000
1709291971.102,-38.086,-43.945,-38.574,-35.645,0.000
1709291971.106,-39.551,-44.922,-37.598,-36.133,0.000
1709291971.110,-45.410,-45.898,-35.156,-32.715,0.000
1709291971.114,-48.340,-48.828,-38.574,-35.156,0.000
1709291971.118,-38.574,-47.363,-31.250,-27.344,0.000
1709291971.122,-46.387,-46.387,-29.297,-28.809,0.000
1709291971.126,-51.270,-43.457,-32.227,-41.992,0.000
1709291971.130,-41.504,-38.574,-25.391,-31.250,0.000
1709291971.134,-38.574,-38.574,-26.855,-27.344,0.000
1709291971.138,-36.133,-40.527,-31.738,-34.180,0.000
1709291971.142,-33.691,-40.039,-32.715,-33.691,0.000
1709291971.145,-35.645,-39.062,-31.738,-35.156,0.000
1709291971.149,-38.574,-37.598,-27.344,-26.367,0.000
1709291971.153,-36.133,-35.645,-23.926,-17.578,0.000
1709291971.157,-34.180,-43.945,-26.855,-24.414,0.000
1709291971.161,-25.391,-43.945,-27.344,-21.973,0.000
1709291971.165,-30.762,-35.645,-24.414,-15.137,0.000
1709291971.169,-31.738,-34.668,-25.391,-23.926,0.000
1709291971.173,-31.250,-37.598,-24.902,-34.180,0.000
1709291971.177,-37.109,-34.180,-23.926,-30.762,0.000
1709291971.181,-26.855,-32.227,-21.973,-22.949,0.000
1709291971.184,-28.809,-41.504,-27.832,-30.762,0.000
1709291971.188,-39.551,-43.457,-29.785,-32.715,0.000
1709291971.192,-35.156,-46.387,-28.809,-26.855,0.000
1709291971.196,-28.320,-43.945,-29.785,-23.926,0.000
1709291971.200,-28.809,-37.598,-26.855,-20.020,0.000
1709291971.204,-33.203,-34.668,-24.902,-23.438,0.000
1709291971.208,-32.715,-34.180,-22.461,-17.090,0.000
1709291971.211,-32.227,-35.156,-22.461,-10.254,0.000
1709291971.215,-27.832,-33.203,-27.832,-17.578,0.000
1709291971.219,-16.602,-34.668,-27.832,-18.066,0.000
1709291971.223,-19.043,-41.016,-26.855,-21.973,0.000
1709291971.227,-24.902,-38.574,-31.250,-22.949,0.000
1709291971.230,-24.414,-34.180,-33.203,-18.066,0.000
1709291971.234,-20.508,-39.551,-31.250,-18.066,0.000
1709291971.238,-21.973,-43.457,-33.203,-15.625,0.000
1709291971.242,-34.180,-44.922,-34.180,-19.043,0.000
1709291971.246,-32.715,-45.410,-37.109,-26.855,0.000
1709291971.250,-24.902,-48.828,-36.133,-26.367,0.000
1709291971.254,-23.438,-48.340,-21.484,-17.090,0.000
1709291971.258,-21.973,-43.457,-20.996,-18.066,0.000
1709291971.262,-20.020,-41.016,-29.785,-19.531,0.000
1709291971.266,-22.949,-40.039,-26.367,-19.531,0.000
1709291971.270,-27.344,-43.945,-27.344,-24.902,0.000
1709291971.273,-24.902,-41.504,-27.832,-20.508,0.000
1709291971.278,-18.555,-37.598,-22.949,-22.461,0.000
1709291971.282,-23.438,-36.621,-19.531,-23.926,0.000
1709291971.286,-33.691,-36.133,-19.531,-21.484,0.000
1709291971.290,-33.203,-39.062,-20.508,-24.414,0.000
1709291971.294,-33.203,-40.527,-20.020,-23.926,0.000
1709291971.298,-31.738,-44.434,-23.438,-22.461,0.000
1709291971.302,-25.879,-42.480,-23.926,-21.973,0.000
1709291971.306,-28.320,-38.574,-25.879,-23.926,0.000
1709291971.310,-39.551,-41.504,-28.809,-27.344,0.000
1709291971.314,-34.180,-44.922,-28.320,-22.461,0.000
1709291971.317,-30.762,-48.828,-29.785,-25.879,0.000
1709291971.321,-30.762,-47.363,-24.902,-24.902,0.000
1709291971.326,-27.832,-45.410,-22.461,-20.508,0.000
1709291971.330,-33.203,-53.223,-24.902,-28.809,0.000
1709291971.334,-37.109,-54.199,-25.879,-28.809,0.000
1709291971.338,-35.645,-47.852,-25.879,-31.250,0.000
1709291971.342,-36.133,-50.293,-26.855,-38.574,0.000
1709291971.345,-41.992,-52.246,-30.762,-36.621,0.000
1709291971.349,-44.434,-51.270,-35.645,-33.203,0.000
1709291971.353,-45.410,-51.270,-35.645,-34.668,0.000
1709291971.357,-35.645,-48.828,-30.273,-27.832,0.000
1709291971.361,-25.391,-45.898,-26.367,-15.625,0.000
1709291971.365,-31.250,-44.434,-31.738,-28.320,0.000
1709291971.369,-38.086,-42.480,-31.250,-34.668,0.000
1709291971.373,-31.738,-44.434,-30.762,-22.461,0.000
1709291971.377,-29.297,-44.922,-32.715,-23.926,0.000
1709291971.381,-29.297,-35.156,-29.785,-32.227,0.000
1709291971.385,-34.668,-37.109,-31.250,-34.180,0.000
1709291971.389,-40.527,-42.969,-33.691,-34.668,0.000
1709291971.393,-39.062,-39.551,-34.180,-36.621,0.000
1709291971.397,-36.133,-34.180,-34.180,-32.227,0.000
1709291971.401,-25.879,-34.180,-29.297,-26.855,0.000
1709291971.404,-19.531,-38.574,-22.949,-19.531,0.000
1709291971.408,-23.438,-37.109,-21.484,-19.043,0.000
1709291971.412,-27.344,-33.203,-24.902,-30.273,0.000
1709291971.416,-38.086,-35.645,-27.832,-36.621,0.000
1709291971.420,-39.062,-40.039,-28.809,-33.691,0.000
1709291971.424,-35.156,-40.527,-31.738,-39.062,0.000
1709291971.428,-42.480,-39.551,-31.738,-44.922,0.000
1709291971.432,-46.875,-41.016,-28.809,-39.551,0.000
1709291971.436,-44.434,-37.109,-29.297,-31.250,0.000
1709291971.440,-39.551,-34.668,-30.273,-25.391,0.000
1709291971.444,-38.574,-38.574,-28.809,-30.273,0.000
1709291971.447,-41.016,-40.527,-31.738,-34.180,0.000
1709291971.451,-37.598,-42.480,-29.785,-30.762,0.000
1709291971.455,-35.156,-40.527,-31.250,-33.691,0.000
1709291971.459,-36.133,-36.133,-32.227,-35.156,0.000
1709291971.463,-37.598,-33.203,-30.762,-33.691,0.000
1709291971.467,-42.480,-36.133,-29.297,-39.062,0.000
1709291971.471,-47.363,-38.086,-25.879,-35.156,0.000
1709291971.475,-42.969,-39.062,-23.926,-29.785,0.000
1709291971.479,-41.992,-38.086,-21.973,-26.367,0.000
1709291971.483,-41.504,-37.109,-25.391,-26.855,0.000
1709291971.486,-37.598,-40.039,-25.391,-26.367,0.000
1709291971.490,-43.457,-41.992,-26.367,-28.320,0.000
1709291971.494,-43.457,-40.039,-29.785,-20.020,0.000
1709291971.498,-44.434,-38.086,-30.273,-14.160,0.000
1709291971.502,-47.852,-37.598,-30.762,-28.809,0.000
1709291971.506,-41.504,-34.180,-24.414,-28.320,0.000
1709291971.510,-45.410,-36.133,-22.949,-32.715,0.000
1709291971.514,-51.270,-37.598,-25.879,-39.551,0.000
1709291971.518,-41.992,-35.645,-26.367,-31.250,0.000
1709291971.521,-35.156,-35.645,-26.367,-27.344,0.000
1709291971.525,-36.621,-36.621,-29.297,-34.668,0.000
1709291971.529,-38.574,-38.574,-30.762,-38.086,0.000
1709291971.533,-39.062,-38.086,-29.785,-27.344,0.000
1709291971.537,-33.203,-39.062,-31.738,-23.926,0.000
1709291971.541,-27.344,-41.992,-24.414,-19.531,0.000
1709291971.545,-28.320,-37.109,-19.043,-20.508,0.000
1709291971.549,-37.109,-39.551,-21.484,-33.691,0.000
1709291971.553,-40.039,-41.992,-20.508,-38.574,0.000
1709291971.557,-35.156,-36.133,-23.438,-34.668,0.000
1709291971.560,-26.367,-37.109,-23.926,-29.785,0.000
1709291971.564,-30.762,-33.691,-22.461,-29.785,0.000
1709291971.568,-45.410,-30.762,-21.484,-31.250,0.000
1709291971.572,-49.316,-39.062,-25.391,-33.691,0.000
1709291971.576,-41.992,-39.062,-25.391,-32.715,0.000
1709291971.580,-28.320,-39.062,-22.461,-29.297,0.000
1709291971.583,-25.391,-40.039,-23.438,-21.484,0.000
1709291971.587,-30.762,-31.738,-20.508,-27.832,0.000
1709291971.591,-30.762,-35.156,-21.484,-39.551,0.000
1709291971.595,-26.367,-41.016,-22.949,-31.738,0.000
1709291971.599,-24.902,-39.062,-22.461,-28.809,0.000
1709291971.603,-23.926,-38.574,-26.367,-33.203,0.000
1709291971.606,-27.832,-38.574,-26.367,-34.180,0.000
1709291971.610,-32.227,-39.062,-21.484,-27.832,0.000
1709291971.614,-37.598,-31.738,-21.484,-24.414,0.000
1709291971.618,-40.039,-30.762,-20.996,-23.438,0.000
1709291971.622,-34.668,-33.203,-20.508,-31.250,0.000
1709291971.626,-32.715,-33.691,-21.973,-34.668,0.000
1709291971.630,-36.621,-37.109,-23.926,-21.973,0.000
1709291971.634,-33.203,-32.715,-25.391,-17.090,0.000
1709291971.637,-23.926,-31.738,-22.949,-19.531,0.000
1709291971.641,-22.949,-38.574,-25.391,-20.996,0.000
1709291971.645,-29.297,-41.504,-31.250,-30.273,0.000
1709291971.649,-22.461,-37.598,-31.738,-28.320,0.000
1709291971.654,-26.367,-39.062,-30.273,-24.414,0.000
1709291971.658,-29.785,-37.598,-26.367,-23.926,0.000
1709291971.662,-18.555,-34.180,-23.438,-21.484,0.000
1709291971.666,-19.043,-36.621,-23.438,-25.391,0.000
1709291971.670,-27.344,-35.645,-22.949,-30.762,0.000
1709291971.673,-35.645,-36.621,-25.879,-33.203,0.000
1709291971.677,-34.180,-35.156,-26.855,-29.297,0.000
1709291971.681,-30.273,-34.180,-29.785,-30.273,0.000
1709291971.685,-32.227,-37.598,-26.855,-34.180,0.000
1709291971.689,-36.621,-39.062,-20.020,-25.391,0.000
1709291971.693,-38.086,-38.574,-23.926,-25.391,0.000
1709291971.697,-33.203,-39.551,-23.438,-29.297,0.000
1709291971.701,-34.180,-42.969,-21.484,-26.367,0.000
1709291971.705,-39.062,-43.945,-23.926,-31.738,0.000
1709291971.709,-39.062,-44.434,-24.414,-33.203,0.000
1709291971.713,-35.645,-42.480,-22.461,-26.855,0.000
1709291971.717,-42.480,-41.992,-25.391,-28.809,0.000
1709291971.721,-40.039,-46.387,-29.785,-35.645,0.000
1709291971.725,-32.715,-42.969,-31.250,-36.133,0.000
1709291971.729,-41.504,-45.410,-29.785,-43.945,0.000
1709291971.733,-38.086,-47.363,-27.344,-36.133,0.000
1709291971.737,-25.879,-39.062,-29.297,-16.602,0.000
1709291971.740,-30.273,-37.598,-30.762,-26.855,0.000
1709291971.744,-36.133,-39.062,-30.273,-34.180,0.000
1709291971.749,-35.645,-37.598,-29.297,-27.344,0.000
1709291971.753,-36.621,-38.574,-31.250,-29.297,0.000
1709291971.756,-41.016,-40.527,-32.227,-33.691,0.000
1709291971.760,-40.527,-41.992,-32.715,-31.250,0.000
1709291971.764,-37.598,-46.387,-32.715,-30.762,0.000
1709291971.768,-38.574,-45.410,-30.273,-35.645,0.000
1709291971.772,-34.668,-43.945,-30.762,-27.344,0.000
1709291971.776,-26.855,-40.527,-32.715,-23.926,0.000
1709291971.780,-23.926,-42.969,-34.668,-22.949,0.000
1709291971.784,-24.414,-43.945,-31.250,-19.043,0.000
1709291971.788,-34.668,-37.109,-32.715,-31.250,0.000
1709291971.792,-41.992,-38.086,-41.504,-36.621,0.000
1709291971.796,-38.574,-38.574,-40.527,-30.762,0.000
1709291971.799,-29.297,-33.203,-36.133,-31.250,0.000
1709291971.803,-33.691,-40.039,-38.574,-32.227,0.000
1709291971.807,-36.133,-44.434,-38.574,-30.762,0.000
1709291971.811,-33.203,-41.016,-36.621,-32.227,0.000
1709291971.815,-38.574,-39.551,-36.621,-34.180,0.000
1709291971.819,-32.227,-41.992,-39.062,-33.691,0.000
1709291971.823,-26.367,-38.574,-33.203,-20.508,0.000
1709291971.827,-35.645,-34.668,-30.273,-18.555,0.000
1709291971.831,-41.504,-35.645,-30.762,-34.180,0.000
1709291971.835,-37.598,-32.715,-27.832,-30.273,0.000
1709291971.839,-29.785,-30.762,-31.250,-19.043,0.000
1709291971.842,-22.461,-29.785,-29.297,-20.996,0.000
1709291971.846,-26.367,-30.762,-23.926,-27.832,0.000
1709291971.850,-28.320,-35.645,-31.738,-31.250,0.000
1709291971.854,-24.414,-36.133,-31.738,-30.273,0.000
1709291971.858,-24.414,-32.227,-23.438,-26.855,0.000
1709291971.862,-27.832,-30.762,-29.297,-27.832,0.000
1709291971.866,-33.203,-32.715,-33.691,-36.133,0.000
1709291971.870,-35.645,-33.203,-28.320,-27.344,0.000
1709291971.874,-35.156,-34.180,-30.762,-18.555,0.000
1709291971.877,-35.645,-39.062,-33.691,-32.227,0.000
1709291971.881,-23.438,-37.598,-22.949,-36.621,0.000
1709291971.885,-22.949,-34.180,-23.438,-26.855,0.000
1709291971.889,-33.691,-36.621,-24.902,-24.414,0.000
1709291971.893,-39.062,-40.527,-20.020,-30.762,0.000
1709291971.897,-34.180,-35.156,-21.484,-31.250,0.000
1709291971.901,-27.832,-32.227,-19.043,-28.809,0.000
1709291971.905,-29.785,-31.250,-18.555,-31.250,0.000
1709291971.908,-27.832,-29.785,-26.367,-28.809,0.000
1709291971.912,-30.273,-27.344,-26.367,-20.020,0.000
1709291971.916,-28.320,-26.855,-22.949,-12.695,0.000
1709291971.920,-24.902,-26.367,-28.809,-13.672,0.000
1709291971.924,-29.297,-30.762,-30.762,-17.578,0.000
1709291971.928,-30.273,-37.598,-29.297,-19.531,0.000
1709291971.932,-28.320,-40.527,-26.855,-18.555,0.000
1709291971.935,-22.949,-34.668,-22.461,-17.578,0.000
1709291971.939,-25.391,-35.645,-27.344,-24.902,0.000
1709291971.943,-25.879,-41.016,-31.738,-30.273,0.000
1709291971.947,-21.973,-38.086,-29.297,-31.738,0.000
1709291971.951,-26.367,-39.062,-28.809,-27.832,0.000
1709291971.955,-24.902,-41.504,-31.738,-29.297,0.000
1709291971.959,-28.320,-44.434,-31.250,-30.762,0.000
1709291971.963,-38.574,-44.434,-34.668,-33.203,0.000
1709291971.967,-32.715,-41.992,-36.621,-39.551,0.000
1709291971.970,-35.156,-41.016,-33.203,-40.039,0.000
1709291971.974,-39.551,-36.621,-31.250,-41.016,0.000
1709291971.978,-30.273,-37.109,-25.879,-37.109,0.000
1709291971.981,-27.344,-38.086,-26.367,-33.203,0.000
1709291971.985,-35.156,-38.574,-26.855,-35.156,0.000
1709291971.989,-24.902,-33.203,-30.273,-33.203,0.000
1709291971.993,2.441,-31.738,-31.250,-10.254,0.000
1709291971.997,-0.977,-38.086,-22.949,-4.883,0.000
1709291972.001,-29.785,-46.875,-20.996,-30.273,0.000
1709291972.005,-38.086,-53.711,-18.555,-35.645,0.000
1709291972.009,-29.785,-53.223,-16.113,-20.508,0.000
1709291972.013,-36.133,-59.082,-15.137,-12.695,0.000
1709291972.017,-32.227,-61.523,-12.207,-6.348,0.000
1709291972.021,-23.438,-60.547,-11.230,-4.883,0.000
1709291972.024,-27.832,-68.848,-17.090,-21.484,0.000
1709291972.029,-28.809,-71.777,-16.113,-19.043,0.000
1709291972.033,-34.668,-72.266,-14.648,-5.859,0.000
1709291972.037,-29.297,-73.730,-17.578,0.488,0.000
1709291972.041,-21.973,-73.730,-13.672,1.465,0.000
1709291972.045,-17.578,-75.684,-13.672,9.766,0.000
1709291972.049,-20.508,-75.684,-13.184,20.996,0.000
1709291972.053,-22.949,-73.730,-10.254,20.508,0.000
1709291972.057,-7.812,-69.336,-6.836,18.555,0.000
1709291972.061,2.930,-68.359,-6.348,25.879,0.000
1709291972.064,-3.906,-71.289,-6.836,30.762,0.000
1709291972.068,-5.859,-69.336,-10.742,25.879,0.000
1709291972.072,0.000,-67.871,-11.719,30.273,0.000
1709291972.077,5.371,-66.406,-4.395,42.480,0.000
1709291972.081,-3.906,-67.871,-5.371,37.109,0.000
1709291972.085,-7.324,-67.871,-8.789,26.855,0.000
1709291972.088,-3.418,-64.941,-7.812,20.508,0.000
1709291972.092,-8.301,-64.941,-8.789,25.879,0.000
1709291972.096,-6.348,-64.453,-13.184,32.715,0.000
1709291972.100,-12.207,-62.500,-18.066,28.809,0.000
1709291972.104,-12.207,-56.641,-18.066,26.855,0.000
1709291972.108,-8.301,-58.105,-14.160,18.066,0.000
1709291972.112,-2.930,-56.641,-12.695,21.973,0.000
1709291972.116,-7.812,-53.223,-13.184,21.973,0.000
1709291972.120,-16.113,-51.758,-12.695,18.066,0.000
1709291972.124,-8.789,-52.246,-13.184,18.066,0.000
1709291972.128,-15.625,-55.664,-16.602,13.184,0.000
1709291972.132,-13.184,-50.781,-13.672,14.160,0.000
1709291972.136,-4.883,-50.293,-15.137,15.625,0.000
1709291972.140,-3.906,-51.758,-16.113,16.113,0.000
1709291972.143,-8.301,-49.316,-14.160,11.230,0.000
1709291972.147,-22.461,-51.270,-14.648,6.836,0.000
1709291972.151,-21.484,-55.664,-13.672,11.230,0.000
1709291972.155,-18.066,-50.781,-11.719,16.602,0.000
1709291972.159,-10.742,-49.316,-17.578,12.207,0.000
1709291972.163,-8.789,-55.664,-23.926,3.906,0.000
1709291972.167,-15.625,-52.734,-20.020,2.930,0.000
1709291972.171,-20.508,-53.223,-20.020,-0.977,0.000
1709291972.175,-30.273,-57.617,-21.484,-5.371,0.000
1709291972.179,-25.391,-48.340,-17.578,-7.812,0.000
1709291972.183,-19.043,-46.875,-20.020,-4.883,0.000
1709291972.187,-18.555,-48.828,-20.508,-4.395,0.000
1709291972.191,-22.461,-44.434,-20.508,-11.230,0.000
1709291972.195,-25.879,-43.457,-22.461,-15.137,0.000
1709291972.199,-15.625,-43.457,-18.555,-1.953,0.000
1709291972.203,-9.766,-42.480,-17.578,7.812,0.000
1709291972.207,-14.160,-44.922,-22.949,-4.395,0.000
1709291972.210,-22.461,-53.711,-23.438,-11.230,0.000
1709291972.214,-27.832,-53.223,-21.973,-5.859,0.000
1709291972.219,-28.320,-54.199,-16.113,-4.395,0.000
1709291972.223,-32.715,-57.129,-15.137,-13.672,0.000
1709291972.227,-29.785,-52.246,-19.531,-16.113,0.000
1709291972.231,-23.926,-46.387,-15.137,-17.090,0.000
1709291972.235,-24.414,-44.434,-19.531,-23.438,0.000
1709291972.239,-20.020,-42.480,-18.066,-19.531,0.000
1709291972.243,-17.578,-39.062,-15.625,-17.578,0.000
1709291972.247,-11.230,-39.062,-18.555,-18.555,0.000
1709291972.251,-9.277,-36.133,-15.137,-13.184,0.000
1709291972.255,-21.484,-31.250,-13.184,-15.137,0.000
1709291972.258,-25.391,-34.180,-18.555,-17.578,0.000
1709291972.262,-24.902,-38.574,-24.902,-18.555,0.000
1709291972.266,-27.832,-37.598,-27.832,-20.996,0.000
1709291972.270,-24.902,-37.109,-27.344,-25.879,0.000
1709291972.273,-27.344,-37.598,-20.020,-27.344,0.000
1709291972.277,-30.762,-34.180,-17.578,-22.461,0.000
1709291972.281,-21.484,-30.762,-21.973,-19.531,0.000
1709291972.285,-23.438,-31.738,-19.531,-29.297,0.000
1709291972.289,-28.320,-33.203,-18.555,-23.926,0.000
1709291972.293,-20.996,-35.156,-21.973,-13.672,0.000
1709291972.297,-24.902,-36.621,-25.879,-23.926,0.000
1709291972.301,-35.645,-35.156,-26.367,-26.367,0.000
1709291972.305,-36.621,-31.738,-25.391,-22.949,0.000
1709291972.309,-26.367,-30.762,-25.391,-26.367,0.000
1709291972.312,-29.785,-31.738,-22.949,-26.855,0.000
1709291972.316,-37.109,-35.156,-24.902,-21.973,0.000
1709291972.320,-38.086,-38.086,-29.297,-29.297,0.000
1709291972.323,-38.086,-40.527,-31.250,-33.203,0.000
1709291972.327,-35.156,-41.992,-30.273,-31.250,0.000
1709291972.331,-34.180,-48.828,-30.762,-33.203,0.000
1709291972.335,-31.250,-50.293,-29.785,-27.832,0.000
1709291972.339,-33.691,-48.340,-28.320,-25.391,0.000
1709291972.343,-38.574,-45.898,-30.273,-33.691,0.000
1709291972.347,-37.598,-44.922,-30.273,-42.969,0.000
1709291972.351,-36.133,-44.434,-26.367,-42.969,0.000
1709291972.355,-37.109,-35.156,-24.414,-30.762,0.000
1709291972.358,-42.480,-36.621,-27.832,-22.949,0.000
1709291972.362,-35.645,-41.992,-31.250,-22.949,0.000
1709291972.366,-24.902,-41.016,-28.320,-28.320,0.000
1709291972.370,-33.691,-41.504,-30.762,-28.809,0.000
1709291972.374,-42.969,-45.410,-31.738,-29.785,0.000
1709291972.377,-37.109,-48.340,-33.691,-30.762,0.000
1709291972.381,-35.645,-49.316,-35.156,-26.855,0.000
1709291972.385,-34.180,-42.480,-24.902,-31.250,0.000
1709291972.389,-30.273,-40.527,-23.438,-29.297,0.000
1709291972.393,-32.715,-42.969,-25.879,-20.996,0.000
1709291972.397,-20.996,-40.039,-22.461,-20.508,0.000
1709291972.401,-11.230,-44.434,-25.391,-26.855,0.000
1709291972.404,-19.531,-45.898,-28.809,-28.809,0.000
1709291972.408,-36.133,-41.992,-27.344,-28.320,0.000
1709291972.412,-39.062,-42.480,-25.879,-32.227,0.000
1709291972.416,-36.621,-39.551,-22.461,-23.926,0.000
1709291972.419,-34.180,-41.504,-22.461,-15.625,0.000
1709291972.423,-29.297,-44.434,-25.391,-20.996,0.000
1709291972.427,-33.203,-44.434,-25.391,-28.320,0.000
1709291972.431,-29.785,-43.945,-24.902,-31.250,0.000
1709291972.435,-33.203,-37.598,-25.879,-25.879,0.000
1709291972.439,-25.391,-35.645,-28.320,-17.090,0.000
1709291972.443,-14.160,-39.551,-29.297,-19.043,0.000
1709291972.447,-18.555,-37.109,-26.367,-28.320,0.000
1709291972.451,-31.250,-35.645,-27.832,0.000,0.000
1709291972.455,-31.738,-39.551,-30.273,0.000,0.000
1709291972.459,-26.855,-41.016,-24.902,0.000,0.000
1709291972.463,-31.250,-40.039,-21.973,0.000,0.000
1709291972.467,-26.855,-41.016,-24.414,0.000,0.000
1709291972.471,-25.391,-41.992,-25.879,0.000,0.000
1709291972.475,-25.391,-38.086,-24.902,0.000,0.000
1709291972.479,-24.414,-41.016,-26.855,0.000,0.000
1709291972.483,-22.949,-42.969,-31.250,0.000,0.000
1709291972.486,-26.855,-37.598,-28.320,0.000,0.000
1709291972.490,-31.250,-37.598,-27.832,0.000,0.000
1709291972.494,-30.273,-41.504,-30.273,0.000,0.000
1709291972.499,-25.879,-39.551,-26.855,-25.391,0.000
1709291972.502,-26.855,-37.109,-28.320,-30.273,0.000
1709291972.506,-21.973,-38.574,-34.668,-25.879,0.000
1709291972.510,-31.250,-40.039,-33.691,-23.926,0.000
1709291972.514,-39.062,-40.527,-35.156,-25.879,0.000
1709291972.518,-31.250,-40.527,-41.992,-22.949,0.000
1709291972.522,-25.879,-38.574,-38.086,-25.391,0.000
1709291972.526,-17.090,-34.180,-31.250,-26.855,0.000
1709291972.530,-21.973,-36.621,-24.902,-12.207,0.000
1709291972.534,-25.391,-38.086,-26.855,-6.348,0.000
1709291972.538,-21.973,-35.645,-30.273,-21.484,0.000
1709291972.542,-24.902,-40.039,-24.902,-21.973,0.000
1709291972.547,-32.715,-43.945,-23.438,-21.973,0.000
1709291972.551,-40.527,-39.062,-23.926,-22.949,0.000
1709291972.555,-32.227,-35.156,-22.949,-20.996,0.000
1709291972.559,-24.414,-35.156,-18.066,-21.484,0.000
1709291972.563,-23.438,-38.086,-25.391,-25.879,0.000
1709291972.567,-21.973,-40.039,-32.715,-24.902,0.000
1709291972.571,-24.414,-39.551,-23.438,-21.484,0.000
1709291972.575,-32.715,-45.898,-23.438,-20.508,0.000
1709291972.578,-41.504,-45.898,-27.344,-9.277,0.000
1709291972.582,-33.203,-39.551,-25.879,-15.625,0.000
1709291972.586,-27.344,-38.574,-25.391,-35.156,0.000
1709291972.590,-36.133,-41.992,-30.762,-39.551,0.000
1709291972.594,-38.086,-45.898,-37.598,-38.086,0.000
1709291972.598,-27.832,-44.922,-40.527,-37.598,0.000
1709291972.601,-23.926,-45.898,-36.621,-43.457,0.000
1709291972.605,-31.738,-49.316,-34.180,-46.387,0.000
1709291972.609,-37.598,-49.316,-29.785,-41.504,0.000
1709291972.613,-35.645,-46.387,-27.344,-43.457,0.000
1709291972.617,-23.438,-41.992,-21.973,-33.691,0.000
1709291972.621,-20.996,-37.109,-17.090,-24.902,0.000
1709291972.625,-20.508,-36.133,-20.508,-28.809,0.000
1709291972.629,-19.531,-40.527,-29.297,-39.551,0.000
1709291972.633,-27.832,-42.480,-32.715,-40.527,0.000
1709291972.637,-27.344,-43.945,-31.738,-22.461,0.000
1709291972.640,-27.832,-44.434,-30.273,-22.949,0.000
1709291972.644,-35.156,-41.992,-26.855,-28.809,0.000
1709291972.648,-31.250,-41.504,-28.809,-29.297,0.000
1709291972.652,-24.902,-35.156,-27.832,-30.762,0.000
1709291972.656,-27.832,-33.203,-27.832,-30.273,0.000
1709291972.660,-22.461,-39.551,-33.691,-34.668,0.000
1709291972.663,-15.625,-40.527,-31.738,-32.227,0.000
1709291972.667,-29.297,-38.086,-27.832,-23.926,0.000
1709291972.671,-39.062,-43.945,-33.203,-27.344,0.000
1709291972.675,-34.180,-43.457,-35.156,-33.203,0.000
1709291972.679,-23.438,-39.551,-34.180,-39.551,0.000
1709291972.683,-24.902,-40.527,-28.320,-45.410,0.000
1709291972.686,-30.762,-37.598,-23.438,-34.180,0.000
1709291972.690,-35.156,-40.527,-27.832,-27.344,0.000
1709291972.694,-33.691,-44.922,-25.879,-24.902,0.000
1709291972.698,-20.508,-45.410,-22.949,-20.020,0.000
1709291972.702,-18.555,-48.340,-29.297,-25.879,0.000
1709291972.706,-38.086,-49.316,-31.250,-29.785,0.000
1709291972.710,-49.316,-49.805,-31.250,-21.973,0.000
1709291972.714,-38.574,-46.387,-32.227,-24.902,0.000
1709291972.718,-34.180,-46.875,-33.203,-27.832,0.000
1709291972.721,-32.227,-46.387,-27.832,-24.902,0.000
1709291972.725,-37.109,-42.480,-24.902,-29.785,0.000
1709291972.729,-37.109,-42.969,-27.832,-35.645,0.000
1709291972.732,-40.039,-42.969,-24.902,-36.133,0.000
1709291972.736,-45.898,-47.852,-20.020,-29.297,0.000
1709291972.740,-37.598,-51.758,-20.020,-22.949,0.000
1709291972.744,-34.668,-51.758,-22.949,-30.273,0.000
1709291972.748,-40.527,-51.270,-25.879,-37.598,0.000
1709291972.752,-48.828,-50.293,-27.344,-41.504,0.000
1709291972.756,-45.410,-45.410,-29.297,-33.691,0.000
1709291972.760,-37.109,-41.992,-29.297,-33.691,0.000
1709291972.764,-26.855,-44.434,-20.508,-35.645,0.000
1709291972.768,-20.508,-46.387,-15.625,-33.203,0.000
1709291972.771,-28.320,-41.016,-17.090,-30.273,0.000
1709291972.775,-41.016,-41.504,-20.508,-38.086,0.000
1709291972.780,-40.039,-45.410,-22.949,-39.551,0.000
1709291972.784,-41.504,-44.434,-19.531,-26.367,0.000
1709291972.788,-42.480,-41.992,-22.461,-28.320,0.000
1709291972.792,-40.039,-43.457,-30.273,-34.668,0.000
1709291972.796,-37.109,-48.828,-33.203,-30.273,0.000
1709291972.800,-35.156,-48.828,-35.156,-30.273,0.000
1709291972.804,-29.297,-42.969,-32.715,-32.715,0.000
1709291972.807,-30.273,-42.969,-31.250,-31.738,0.000
1709291972.811,-38.574,-45.410,-35.645,-37.109,0.000
1709291972.815,-40.527,-48.340,-39.551,-31.738,0.000
1709291972.819,-33.691,-46.387,-35.156,-22.949,0.000
1709291972.823,-24.902,-43.457,-32.227,-28.809,0.000
1709291972.827,-28.809,-46.387,-35.156,-32.715,0.000
1709291972.831,-37.598,-46.387,-37.598,-27.344,0.000
1709291972.835,-34.668,-44.922,-38.574,-22.461,0.000
1709291972.839,-34.180,-45.898,-35.645,-22.461,0.000
1709291972.843,-40.527,-48.828,-36.133,-23.438,0.000
1709291972.847,-41.016,-51.270,-38.574,-32.227,0.000
1709291972.851,-46.387,-47.363,-33.691,-33.203,0.000
1709291972.855,-45.410,-41.992,-30.762,-30.762,0.000
1709291972.859,-34.668,-44.434,-34.180,-33.691,0.000
1709291972.863,-30.273,-39.551,-30.273,-21.973,0.000
1709291972.866,-26.367,-35.156,-31.250,-28.320,0.000
1709291972.870,-26.367,-40.039,-37.109,-39.551,0.000
1709291972.874,-38.086,-45.410,-37.598,-34.668,0.000
1709291972.878,-39.062,-44.922,-31.250,-30.762,0.000
1709291972.882,-39.551,-41.992,-34.180,-34.668,0.000
1709291972.886,-44.434,-46.875,-38.086,-41.016,0.000
1709291972.890,-39.551,-47.852,-39.551,-40.039,0.000
1709291972.894,-41.016,-42.480,-36.621,-40.527,0.000
1709291972.898,-31.738,-41.992,-26.367,-36.133,0.000
1709291972.902,-24.902,-42.480,-20.508,-34.668,0.000
1709291972.906,-27.344,-42.969,-22.461,-23.438,0.000
1709291972.910,-25.391,-42.969,-24.902,-12.695,0.000
1709291972.914,-27.832,-39.062,-28.809,-23.926,0.000
1709291972.917,-27.344,-39.551,-29.297,-22.949,0.000
1709291972.921,-23.926,-41.016,-28.809,-21.484,0.000
1709291972.925,-19.531,-39.062,-34.180,-23.438,0.000
1709291972.929,-21.484,-42.480,-32.227,-26.367,0.000
1709291972.933,-27.344,-45.410,-28.320,-31.738,0.000
1709291972.937,-25.879,-41.016,-24.414,-26.855,0.000
1709291972.941,-15.137,-39.551,-18.066,-27.832,0.000
1709291972.945,-18.555,-44.922,-20.508,-24.902,0.000
1709291972.949,-32.227,-41.504,-23.926,-21.973,0.000
1709291972.953,-27.832,-36.133,-19.531,-20.020,0.000
1709291972.956,-33.691,-36.621,-20.996,-24.902,0.000
1709291972.960,-33.691,-38.086,-25.879,-30.273,0.000
1709291972.964,-25.879,-43.457,-28.320,-28.320,0.000
1709291972.968,-31.250,-42.969,-30.273,-33.691,0.000
1709291972.972,-35.645,-38.086,-32.227,-34.180,0.000
1709291972.976,-34.668,-37.109,-32.715,-29.297,0.000
1709291972.980,-30.273,-40.527,-28.809,-29.297,0.000
1709291972.984,-27.344,-44.922,-26.367,-31.250,0.000
1709291972.987,-27.344,-48.828,-24.902,-28.809,0.000
1709291972.991,-22.949,-48.828,-22.461,-27.344,0.000
1709291972.995,-30.762,-44.922,-20.020,-23.438,0.000
1709291972.999,-41.992,-45.410,-18.066,-10.254,0.000
1709291973.003,-32.715,-47.363,-19.043,-10.254,0.000
1709291973.007,-24.414,-44.922,-19.043,-19.531,0.000
1709291973.011,-33.691,-42.480,-23.438,-22.461,0.000
1709291973.014,-37.109,-40.039,-26.367,-20.508,0.000
1709291973.018,-29.785,-38.574,-28.809,-17.090,0.000
1709291973.022,-22.461,-43.457,-31.250,-19.531,0.000
1709291973.026,-29.785,-46.387,-27.832,-24.414,0.000
1709291973.030,-42.969,-43.457,-27.344,-24.414,0.000
1709291973.034,-43.457,-41.504,-29.785,-24.414,0.000
1709291973.038,-28.809,-41.504,-22.949,-23.438,0.000
1709291973.042,-25.879,-41.992,-19.043,-19.043,0.000
1709291973.046,-29.785,-39.551,-20.020,-26.367,0.000
1709291973.050,-37.598,-36.133,-19.531,-32.715,0.000
1709291973.053,-45.410,-36.621,-21.973,-29.785,0.000
1709291973.057,-37.598,-35.156,-25.879,-32.227,0.000
1709291973.061,-36.133,-35.645,-25.879,-35.645,0.000
1709291973.065,-38.574,-38.086,-22.949,-32.715,0.000
1709291973.068,-42.480,-40.039,-24.414,-31.738,0.000
1709291973.072,-37.598,-43.945,-27.832,-29.297,0.000
1709291973.076,-35.156,-45.410,-29.785,-23.926,0.000
1709291973.080,-39.062,-44.922,-29.297,-27.344,0.000
1709291973.084,-33.203,-47.852,-28.320,-26.367,0.000
1709291973.088,-39.551,-46.387,-28.320,-21.973,0.000
1709291973.092,-35.156,-45.410,-27.832,-30.273,0.000
1709291973.096,-29.785,-44.922,-29.297,-30.273,0.000
1709291973.100,-33.203,-44.434,-34.668,-33.203,0.000
1709291973.104,-32.715,-42.969,-31.250,-36.621,0.000
1709291973.107,-37.109,-41.504,-27.832,-31.250,0.000
1709291973.111,-44.434,-43.457,-34.668,-32.227,0.000
1709291973.115,-40.039,-43.945,-32.715,-35.156,0.000
1709291973.119,-32.715,-45.410,-29.297,-30.273,0.000
1709291973.122,-30.273,-41.504,-27.832,-21.484,0.000
1709291973.126,-32.227,-44.434,-24.902,-29.297,0.000
1709291973.130,-36.133,-46.875,-23.926,-30.273,0.000
1709291973.134,-39.062,-40.527,-25.391,-22.461,0.000
1709291973.138,-33.203,-43.945,-23.438,-28.320,0.000
1709291973.142,-26.855,-43.945,-22.461,-30.762,0.000
1709291973.146,-31.738,-42.969,-18.555,-24.902,0.000
1709291973.150,-34.668,-44.922,-18.555,-26.855,0.000
1709291973.155,-27.344,-41.016,-22.461,-24.414,0.000
1709291973.159,-28.320,-40.039,-25.391,-25.391,0.000
1709291973.162,-38.574,-41.992,-28.809,-32.227,0.000
1709291973.166,-39.062,-42.969,-24.902,-32.715,0.000
1709291973.170,-35.156,-41.504,-24.414,-33.203,0.000
1709291973.174,-32.715,-43.945,-25.879,-29.297,0.000
1709291973.178,-36.621,-40.039,-26.367,-29.297,0.000
1709291973.182,-38.086,-38.086,-32.227,-33.691,0.000
1709291973.186,-38.574,-43.457,-32.715,-34.668,0.000
1709291973.190,-36.621,-40.039,-27.832,-21.973,0.000
1709291973.194,-36.133,-40.527,-29.785,-20.020,0.000
1709291973.198,-40.527,-39.062,-30.762,-31.738,0.000
1709291973.202,-35.645,-37.598,-34.180,-29.297,0.000
1709291973.206,-41.016,-43.457,-37.109,-31.738,0.000
1709291973.210,-49.316,-43.457,-37.109,-42.969,0.000
1709291973.214,-41.504,-41.504,-34.668,-38.574,0.000
1709291973.218,-28.809,-38.574,-28.809,-23.926,0.000
1709291973.222,-21.484,-42.969,-31.738,-19.531,0.000
1709291973.226,-29.785,-41.504,-32.715,-28.809,0.000
1709291973.229,-36.621,-39.062,-35.156,-40.039,0.000
1709291973.233,-38.086,-47.852,-36.621,-41.504,0.000
1709291973.237,-42.480,-47.852,-30.762,-31.738,0.000
1709291973.241,-28.320,-41.504,-29.785,-32.227,0.000
1709291973.245,-34.180,-42.969,-32.227,-39.062,0.000
1709291973.249,-44.922,-45.898,-32.227,-41.016,0.000
1709291973.253,-41.504,-37.109,-36.133,-41.992,0.000
1709291973.257,-44.434,-30.762,-32.715,-38.086,0.000
1709291973.261,-36.133,-33.691,-28.809,-38.574,0.000
1709291973.265,-27.832,-34.180,-28.320,-41.016,0.000
1709291973.269,-31.738,-31.250,-28.809,-34.668,0.000
1709291973.273,-37.598,-31.250,-28.320,-40.527,0.000
1709291973.277,-36.621,-30.762,-27.344,-42.480,0.000
1709291973.281,-33.691,-30.273,-25.391,-20.508,0.000
1709291973.284,-35.156,-28.809,-21.973,-17.090,0.000
1709291973.288,-39.551,-29.297,-25.879,-29.785,0.000
1709291973.292,-43.457,-31.738,-28.320,-26.855,0.000
1709291973.296,-37.109,-26.855,-22.949,-17.578,0.000
1709291973.300,-33.203,-27.832,-17.578,-27.832,0.000
1709291973.304,-43.945,-33.691,-23.438,-45.410,0.000
1709291973.308,-41.992,-33.203,-28.320,-34.180,0.000
1709291973.312,-37.598,-31.738,-26.367,-27.832,0.000
1709291973.316,-41.992,-31.250,-29.785,-33.691,0.000
1709291973.320,-33.203,-28.320,-26.855,-27.344,0.000
1709291973.324,-28.320,-25.391,-24.902,-18.066,0.000
1709291973.327,-35.156,-24.902,-27.832,-12.207,0.000
1709291973.331,-35.156,-26.855,-28.809,-23.438,0.000
1709291973.335,-38.574,-31.250,-26.367,-25.879,0.000
1709291973.339,-30.762,-30.762,-24.414,-18.066,0.000
1709291973.343,-23.926,-27.344,-21.973,-20.020,0.000
1709291973.347,-35.156,-29.785,-22.461,-19.531,0.000
1709291973.351,-26.855,-28.320,-25.879,-26.367,0.000
1709291973.355,-22.461,-23.438,-24.414,-27.832,0.000
1709291973.359,-22.949,-26.367,-21.484,-16.113,0.000
1709291973.362,-20.996,-29.297,-21.484,-15.625,0.000
1709291973.366,-22.461,-27.344,-26.855,-29.785,0.000
1709291973.370,-32.715,-32.227,-32.227,-32.715,0.000
1709291973.374,-42.969,-35.156,-33.691,-23.926,0.000
1709291973.378,-37.598,-29.297,-31.738,-25.879,0.000
1709291973.382,-35.156,-33.691,-36.133,-28.809,0.000
1709291973.386,-32.715,-38.086,-36.621,-30.762,0.000
1709291973.389,-37.598,-36.133,-33.203,-32.715,0.000
1709291973.393,-38.086,-41.504,-34.668,-30.273,0.000
1709291973.397,-31.738,-42.969,-35.156,-33.203,0.000
1709291973.401,-30.273,-39.551,-33.691,-31.738,0.000
1709291973.405,-28.320,-36.621,-28.809,-23.926,0.000
1709291973.409,-22.949,-32.715,-31.738,-35.645,0.000
1709291973.413,-24.414,-33.203,-32.227,-39.062,0.000
1709291973.417,-29.297,-40.039,-28.809,-28.320,0.000
1709291973.421,-32.227,-38.574,-29.297,-33.203,0.000
1709291973.424,-30.762,-37.109,-29.297,-46.875,0.000
1709291973.428,-35.156,-43.457,-29.785,-40.527,0.000
1709291973.432,-47.852,-43.457,-34.180,-34.668,0.000
1709291973.436,-41.504,-36.621,-37.109,-39.062,0.000
1709291973.440,-34.180,-34.668,-32.227,-37.598,0.000
1709291973.443,-29.297,-36.621,-29.297,-31.250,0.000
1709291973.447,-23.438,-35.156,-32.227,-37.109,0.000
1709291973.451,-29.785,-33.691,-33.203,-42.969,0.000
1709291973.455,-24.902,-30.762,-30.762,-33.203,0.000
1709291973.459,-24.414,-32.227,-30.762,-29.297,0.000
1709291973.463,-28.320,-35.156,-36.621,-31.738,0.000
1709291973.467,-30.273,-34.180,-39.551,-34.668,0.000
1709291973.471,-38.086,-33.691,-38.086,-34.180,0.000
1709291973.475,-39.062,-33.203,-35.156,-26.855,0.000
1709291973.479,-36.621,-38.086,-36.133,-28.320,0.000
1709291973.482,-30.762,-38.086,-29.785,-33.203,0.000
1709291973.486,-39.062,-35.156,-17.090,-32.227,0.000
1709291973.490,-54.688,-39.551,-18.555,-38.574,0.000
1709291973.493,-44.922,-38.574,-25.391,-31.738,0.000
1709291973.497,-29.785,-31.250,-17.578,-25.391,0.000
1709291973.501,-29.785,-31.250,-17.090,-28.320,0.000
1709291973.505,-32.715,-34.180,-20.508,-22.949,0.000
1709291973.509,-31.250,-28.320,-15.625,-20.020,0.000
1709291973.513,-34.668,-24.902,-20.020,-23.438,0.000
1709291973.517,-26.367,-31.250,-20.508,-18.066,0.000
1709291973.521,-20.996,-32.715,-23.926,-16.113,0.000
1709291973.525,-35.645,-31.738,-29.297,-26.855,0.000
1709291973.528,-34.668,-33.203,-25.391,-31.738,0.000
1709291973.532,-31.250,-37.598,-24.414,-29.785,0.000
1709291973.536,-35.645,-40.527,-23.438,-29.297,0.000
1709291973.540,-29.785,-38.574,-23.926,-27.832,0.000
1709291973.544,-26.367,-36.621,-26.855,-27.344,0.000
1709291973.548,-25.879,-37.598,-33.203,-24.902,0.000
1709291973.551,-31.738,-36.621,-35.156,-17.578,0.000
1709291973.555,-27.344,-32.227,-32.715,-21.484,0.000
1709291973.559,-20.020,-33.203,-31.738,-20.996,0.000
1709291973.563,-23.438,-33.691,-27.344,-21.484,0.000
1709291973.567,-19.531,-31.738,-21.484,-26.855,0.000
1709291973.571,-19.531,-26.367,-18.066,-26.855,0.000
1709291973.576,-26.855,-29.785,-18.555,-28.320,0.000
1709291973.580,-34.668,-37.598,-20.508,-32.227,0.000
1709291973.583,-38.574,-34.180,-17.578,-27.344,0.000
1709291973.587,-32.227,-33.691,-17.578,-19.531,0.000
1709291973.591,-30.762,-44.922,-21.973,-16.113,0.000
1709291973.595,-28.320,-45.410,-22.461,-11.719,0.000
1709291973.599,-26.367,-41.016,-21.484,-15.625,0.000
1709291973.603,-23.438,-41.504,-27.344,-21.973,0.000
1709291973.607,-19.043,-36.133,-31.250,-20.508,0.000
1709291973.611,-20.508,-35.645,-26.367,-15.625,0.000
1709291973.615,-24.414,-37.598,-28.809,-22.461,0.000
1709291973.619,-23.438,-37.109,-29.297,-27.344,0.000
1709291973.623,-25.879,-36.621,-28.320,-20.996,0.000
1709291973.627,-33.203,-43.457,-29.297,-27.832,0.000
1709291973.631,-28.809,-40.527,-27.344,-35.156,0.000
1709291973.635,-33.691,-36.621,-31.250,-35.156,0.000
1709291973.639,-38.086,-41.504,-32.715,-34.180,0.000
1709291973.642,-24.902,-37.598,-30.762,-30.273,0.000
1709291973.646,-26.855,-34.668,-32.715,-35.156,0.000
1709291973.650,-37.598,-36.621,-31.250,-38.086,0.000
1709291973.654,-36.621,-36.621,-31.250,-33.203,0.000
1709291973.658,-32.227,-40.527,-31.738,-30.762,0.000
1709291973.662,-35.156,-38.574,-30.273,-41.504,0.000
1709291973.666,-42.969,-38.086,-31.250,-41.992,0.000
1709291973.670,-41.504,-41.016,-25.879,-28.809,0.000
1709291973.674,-33.691,-37.109,-20.508,-21.484,0.000
1709291973.678,-33.203,-33.691,-23.438,-16.113,0.000
1709291973.682,-31.738,-42.969,-21.484,-21.973,0.000
1709291973.686,-31.250,-47.363,-17.578,-34.668,0.000
1709291973.690,-40.039,-44.922,-20.020,-37.109,0.000
1709291973.694,-40.527,-38.086,-19.531,-38.574,0.000
1709291973.697,-28.809,-34.180,-17.090,-35.645,0.000
1709291973.701,-22.461,-38.086,-18.066,-26.855,0.000
1709291973.705,-35.156,-42.969,-21.973,-35.645,0.000
1709291973.709,-37.109,-43.457,-25.391,-40.039,0.000
1709291973.713,-39.062,-41.016,-26.367,-32.715,0.000
1709291973.717,-38.086,-39.551,-23.438,-25.879,0.000
1709291973.721,-32.227,-37.109,-27.344,-25.391,0.000
1709291973.725,-36.133,-42.480,-33.691,-30.762,0.000
1709291973.729,-31.250,-42.480,-32.715,-33.691,0.000
1709291973.732,-30.762,-38.086,-29.785,-31.250,0.000
1709291973.736,-32.227,-34.180,-22.949,-25.879,0.000
1709291973.740,-28.320,-33.203,-23.926,-24.414,0.000
1709291973.744,-32.227,-36.621,-25.879,-13.184,0.000
1709291973.748,-33.691,-39.062,-25.391,-13.672,0.000
1709291973.752,-29.297,-32.715,-24.902,-24.414,0.000
1709291973.756,-26.855,-31.738,-19.531,-20.020,0.000
1709291973.760,-22.949,-37.109,-18.555,-20.996,0.000
1709291973.763,-28.320,-39.062,-22.949,-24.902,0.000
1709291973.767,-36.133,-45.410,-30.762,-35.156,0.000
1709291973.771,-37.598,-47.852,-34.180,-34.668,0.000
1709291973.775,-32.715,-38.574,-28.809,-24.414,0.000
1709291973.779,-29.785,-32.715,-27.344,-28.809,0.000
1709291973.783,-31.738,-35.645,-28.320,-28.809,0.000
1709291973.787,-37.109,-41.504,-26.367,-27.344,0.000
1709291973.791,-39.062,-41.504,-20.508,-21.484,0.000
1709291973.795,-37.598,-39.551,-24.902,-22.949,0.000
1709291973.799,-40.039,-45.898,-31.738,-28.809,0.000
1709291973.802,-33.203,-45.410,-30.273,-29.785,0.000
1709291973.806,-28.809,-41.992,-26.855,-33.691,0.000
1709291973.810,-43.945,-44.434,-29.785,-44.922,0.000
1709291973.814,-52.246,-46.387,-31.738,-41.992,0.000
1709291973.818,-39.551,-42.969,-23.926,-30.273,0.000
1709291973.822,-36.621,-39.062,-19.531,-32.227,0.000
1709291973.825,-45.898,-38.086,-19.531,-38.574,0.000
1709291973.829,-39.062,-41.992,-20.508,-37.109,0.000
1709291973.833,-33.203,-46.875,-20.508,-29.297,0.000
1709291973.837,-36.133,-41.992,-23.926,-27.832,0.000
1709291973.841,-34.180,-40.527,-25.391,-27.344,0.000
1709291973.845,-30.762,-44.922,-24.902,-28.809,0.000
1709291973.849,-29.297,-44.434,-23.926,-36.133,0.000
1709291973.853,-45.410,-42.480,-24.902,-38.574,0.000
1709291973.856,-46.387,-37.598,-27.832,-36.621,0.000
1709291973.860,-28.809,-39.062,-23.438,-27.344,0.000
1709291973.864,-32.227,-41.504,-21.484,-22.461,0.000
1709291973.868,-38.086,-41.992,-21.973,-29.297,0.000
1709291973.872,-31.250,-44.922,-22.949,-26.855,0.000
1709291973.876,-21.484,-47.363,-25.391,-17.578,0.000
1709291973.880,-11.230,-46.387,-21.484,-11.230,0.000
1709291973.883,-6.348,-42.969,-13.184,-22.949,0.000
1709291973.887,-14.648,-47.363,-12.207,-30.762,0.000
1709291973.891,-24.414,-47.852,-18.066,-20.996,0.000
1709291973.895,-26.367,-43.945,-20.996,-15.625,0.000
1709291973.899,-27.344,-47.363,-22.949,-25.391,0.000
1709291973.902,-31.250,-47.852,-28.320,-29.785,0.000
1709291973.906,-31.738,-46.875,-27.832,-22.461,0.000
1709291973.910,-31.738,-44.922,-21.484,-23.438,0.000
1709291973.914,-42.480,-42.480,-21.484,-27.832,0.000
1709291973.918,-43.945,-43.457,-21.484,-26.367,0.000
1709291973.922,-34.668,-44.434,-18.555,-21.484,0.000
1709291973.926,-40.039,-48.340,-18.066,-22.461,0.000
1709291973.930,-45.898,-45.410,-21.973,-28.320,0.000
1709291973.933,-42.480,-46.387,-26.855,-34.180,0.000
1709291973.937,-29.785,-49.316,-31.738,-32.227,0.000
1709291973.941,-33.691,-43.945,-32.715,-35.645,0.000
1709291973.945,-41.504,-42.480,-24.414,-39.062,0.000
1709291973.950,-39.551,-42.969,-20.508,-32.715,0.000
1709291973.954,-37.598,-42.969,-23.926,-33.691,0.000
1709291973.958,-28.809,-41.992,-22.949,-33.691,0.000
1709291973.962,-27.344,-41.504,-24.414,-32.715,0.000
1709291973.966,-36.133,-41.016,-24.414,-33.203,0.000
1709291973.969,-35.156,-42.969,-22.461,-34.180,0.000
1709291973.973,-31.250,-43.945,-24.902,-35.156,0.000
1709291973.977,-32.715,-41.504,-22.461,-29.785,0.000
1709291973.981,-34.180,-41.016,-23.926,-28.809,0.000
1709291973.985,-31.738,-45.410,-23.438,-30.762,0.000
1709291973.989,-32.227,-46.387,-21.973,-33.203,0.000
1709291973.993,-37.598,-48.828,-29.297,-35.156,0.000
1709291973.998,-44.434,-53.711,-27.832,-35.156,0.000
1709291974.002,-42.480,-50.293,-27.344,-35.156,0.000
1709291974.006,-37.598,-45.410,-29.785,-40.039,0.000
1709291974.010,-34.668,-45.898,-28.320,-38.574,0.000
1709291974.014,-34.668,-47.363,-29.297,-34.180,0.000
1709291974.018,-39.551,-46.875,-32.715,-33.691,0.000
1709291974.022,-34.180,-41.992,-32.227,-30.273,0.000
1709291974.026,-39.551,-39.062,-27.832,-37.109,0.000
1709291974.030,-47.852,-39.551,-25.879,-33.691,0.000
1709291974.033,-41.992,-36.133,-26.855,-25.879,0.000
1709291974.037,-39.551,-33.691,-27.344,-32.227,0.000
1709291974.041,-38.574,-41.016,-30.273,-38.086,0.000
1709291974.045,-39.551,-45.898,-29.297,-43.945,0.000
1709291974.049,-48.340,-46.387,-30.273,-47.852,0.000
1709291974.053,-55.176,-45.410,-26.855,-41.504,0.000
1709291974.057,-49.805,-44.434,-22.461,-28.809,0.000
1709291974.061,-39.062,-43.457,-22.461,-24.902,0.000
1709291974.065,-35.645,-38.086,-24.902,-23.438,0.000
1709291974.069,-42.480,-36.133,-27.344,-26.855,0.000
1709291974.073,-46.387,-39.551,-27.832,-32.227,0.000
1709291974.077,-38.574,-38.574,-25.391,-22.461,0.000
1709291974.080,-31.738,-37.109,-23.438,-25.879,0.000
1709291974.084,-31.250,-39.551,-25.879,-39.062,0.000
1709291974.088,-33.203,-39.062,-24.902,-32.715,0.000
1709291974.092,-39.062,-36.621,-24.902,-21.484,0.000
1709291974.096,-46.875,-33.691,-18.066,-19.043,0.000
1709291974.100,-41.504,-37.109,-17.090,-26.367,0.000
1709291974.104,-36.133,-38.574,-23.926,-25.879,0.000
1709291974.108,-37.598,-34.180,-26.855,-22.461,0.000
1709291974.112,-36.133,-36.621,-31.738,-24.902,0.000
1709291974.116,-37.109,-36.133,-31.250,-28.809,0.000
1709291974.119,-32.227,-35.156,-31.738,-25.879,0.000
1709291974.123,-32.715,-39.062,-32.715,-20.996,0.000
1709291974.127,-38.574,-36.621,-30.273,-28.809,0.000
1709291974.131,-45.410,-38.086,-31.738,-37.598,0.000
1709291974.135,-48.828,-45.410,-31.738,-34.180,0.000
1709291974.139,-43.945,-43.945,-31.738,-31.738,0.000
1709291974.143,-35.645,-44.922,-27.832,-29.785,0.000
1709291974.146,-39.551,-47.363,-28.809,-34.180,0.000
1709291974.150,-40.039,-39.551,-32.715,-38.574,0.000
1709291974.154,-38.574,-36.621,-30.273,-30.273,0.000
1709291974.158,-35.156,-41.016,-30.762,-26.855,0.000
1709291974.162,-22.461,-41.992,-31.738,-26.367,0.000
1709291974.166,-26.367,-42.969,-30.273,-21.973,0.000
1709291974.170,-38.574,-39.551,-26.855,-24.902,0.000
1709291974.174,-36.621,-39.551,-27.832,-25.879,0.000
1709291974.178,-31.738,-41.992,-31.250,-26.367,0.000
1709291974.182,-34.668,-37.598,-25.879,-24.414,0.000
1709291974.185,-34.180,-36.133,-23.926,-25.879,0.000
1709291974.189,-29.785,-37.598,-21.973,-24.414,0.000
1709291974.193,-32.715,-38.086,-24.414,-22.461,0.000
1709291974.197,-34.668,-38.086,-27.344,-24.902,0.000
1709291974.201,-22.949,-34.668,-21.484,-22.461,0.000
1709291974.205,-23.926,-38.086,-19.043,-22.949,0.000
1709291974.208,-38.574,-49.316,-20.508,-20.996,0.000
1709291974.212,-40.527,-49.805,-20.996,-22.461,0.000
1709291974.216,-33.691,-39.551,-21.484,-31.250,0.000
1709291974.220,-21.973,-39.551,-22.949,-36.133,0.000
1709291974.224,-23.438,-41.504,-25.391,-36.621,0.000
1709291974.228,-33.691,-41.504,-26.367,-38.086,0.000
1709291974.231,-34.668,-40.039,-24.902,-36.621,0.000
1709291974.235,-41.992,-45.410,-22.461,-30.273,0.000
1709291974.239,-43.457,-40.527,-21.484,-30.762,0.000
1709291974.243,-38.086,-30.273,-24.414,-33.203,0.000
1709291974.247,-42.480,-34.180,-24.414,-33.691,0.000
1709291974.251,-41.504,-35.156,-24.414,-34.668,0.000
1709291974.255,-34.180,-35.156,-21.484,-24.414,0.000
1709291974.259,-34.180,-32.715,-21.484,-21.973,0.000
1709291974.263,-32.715,-32.227,-20.996,-26.855,0.000
1709291974.266,-33.691,-32.715,-19.043,-27.832,0.000
1709291974.270,-36.621,-33.203,-22.461,-29.785,0.000
1709291974.274,-40.039,-37.598,-25.391,-33.203,0.000
1709291974.279,-33.691,-41.504,-25.391,-43.457,0.000
1709291974.283,-33.203,-42.480,-23.438,-45.410,0.000
1709291974.287,-34.180,-38.086,-26.367,-39.062,0.000
1709291974.291,-35.156,-37.109,-33.203,-40.527,0.000
1709291974.295,-46.875,-45.410,-32.227,-39.062,0.000
1709291974.299,-38.086,-51.758,-29.297,-28.809,0.000
1709291974.303,-35.645,-51.270,-32.227,-34.668,0.000
1709291974.306,-37.598,-45.410,-28.809,-40.039,0.000
1709291974.310,-42.480,-45.898,-27.832,-37.109,0.000
1709291974.314,-40.527,-48.340,-28.320,-28.809,0.000
1709291974.318,-23.926,-45.410,-26.855,-20.996,0.000
1709291974.322,-25.391,-47.363,-25.879,-29.297,0.000
1709291974.327,-30.762,-48.340,-25.391,-33.691,0.000
1709291974.331,-38.574,-49.805,-25.879,-32.715,0.000
1709291974.335,-39.062,-47.852,-29.297,-32.227,0.000
1709291974.339,-29.785,-44.434,-28.809,-31.250,0.000
1709291974.343,-27.832,-43.945,-28.809,-37.109,0.000
1709291974.346,-30.762,-47.852,-32.715,-39.062,0.000
1709291974.350,-34.180,-50.781,-32.227,-39.062,0.000
1709291974.354,-45.898,-45.898,-31.738,-38.574,0.000
1709291974.358,-42.969,-43.457,-34.180,-33.203,0.000
1709291974.362,-35.645,-46.875,-32.227,-27.832,0.000
1709291974.366,-31.738,-44.434,-29.297,-27.344,0.000
1709291974.370,-40.039,-42.480,-27.344,-32.715,0.000
1709291974.374,-43.457,-41.504,-24.902,-33.691,0.000
1709291974.378,-38.086,-40.527,-25.879,-31.738,0.000
1709291974.382,-35.156,-41.504,-28.809,-22.949,0.000
1709291974.386,-28.809,-45.410,-30.273,-21.484,0.000
1709291974.390,-25.879,-47.363,-26.367,-25.879,0.000
1709291974.394,-33.691,-45.410,-22.949,-24.902,0.000
1709291974.398,-37.109,-42.480,-27.832,-26.855,0.000
1709291974.401,-31.738,-40.527,-32.227,-30.762,0.000
1709291974.405,-35.645,-43.457,-29.785,-32.227,0.000
1709291974.409,-36.133,-40.039,-25.391,-26.367,0.000
1709291974.413,-30.762,-36.133,-25.879,-30.762,0.000
1709291974.417,-25.391,-42.969,-32.715,-35.645,0.000
1709291974.421,-32.227,-50.293,-34.180,-37.598,0.000
1709291974.425,-32.715,-45.898,-29.297,-38.086,0.000
1709291974.429,-25.391,-37.109,-28.320,-29.785,0.000
1709291974.433,-31.738,-35.156,-26.367,-22.949,0.000
1709291974.437,-25.879,-36.133,-24.902,-15.625,0.000
1709291974.441,-19.043,-41.016,-26.367,-14.160,0.000
1709291974.444,-20.508,-46.875,-24.902,-16.113,0.000
1709291974.448,-23.438,-47.363,-21.484,-18.555,0.000
1709291974.452,-35.156,-45.898,-21.973,-13.184,0.000
1709291974.456,-39.551,-45.410,-28.320,-12.207,0.000
1709291974.460,-33.691,-46.875,-29.297,-22.461,0.000
1709291974.464,-24.902,-45.410,-29.785,-31.738,0.000
1709291974.468,-28.320,-48.828,-30.762,-30.273,0.000
1709291974.472,-37.598,-49.805,-31.250,-30.273,0.000
1709291974.475,-40.527,-42.969,-35.156,-31.250,0.000
1709291974.479,-33.691,-42.969,-33.203,-21.973,0.000
1709291974.483,-22.461,-44.434,-27.344,-19.043,0.000
1709291974.487,-27.832,-44.434,-25.391,-24.902,0.000
1709291974.491,-34.180,-47.852,-26.367,-24.414,0.000
1709291974.495,-32.227,-45.898,-27.832,-15.137,0.000
1709291974.499,-31.250,-41.992,-27.344,-13.672,0.000
1709291974.503,-27.344,-41.992,-28.320,-21.484,0.000
1709291974.507,-17.090,-43.457,-25.879,-25.879,0.000
1709291974.511,-12.207,-42.480,-27.832,-27.832,0.000
1709291974.514,-17.578,-40.039,-29.785,-26.367,0.000
1709291974.518,-31.738,-41.504,-26.367,-29.297,0.000
1709291974.522,-27.832,-44.922,-26.855,-23.438,0.000
1709291974.526,-24.414,-46.875,-30.762,-21.973,0.000
1709291974.530,-35.645,-45.898,-28.320,-33.203,0.000
1709291974.534,-43.945,-47.852,-30.762,-38.574,0.000
1709291974.538,-42.480,-48.340,-32.227,-32.227,0.000
1709291974.542,-35.156,-41.992,-25.391,-19.043,0.000
1709291974.545,-34.180,-43.945,-27.832,-23.438,0.000
1709291974.549,-38.086,-48.340,-28.320,-35.156,0.000
1709291974.553,-36.621,-41.992,-25.391,-27.832,0.000
1709291974.557,-35.645,-38.086,-31.738,-25.879,0.000
1709291974.560,-32.715,-42.969,-35.645,-39.062,0.000
1709291974.564,-35.156,-47.852,-36.133,-42.480,0.000
1709291974.568,-43.945,-51.270,-37.109,-42.480,0.000
1709291974.572,-38.574,-43.945,-38.574,-41.504,0.000
1709291974.576,-31.738,-35.156,-36.133,-35.156,0.000
1709291974.580,-29.785,-38.574,-32.715,-35.156,0.000
1709291974.584,-35.156,-45.410,-33.691,-31.738,0.000
1709291974.588,-39.062,-43.457,-27.344,-20.508,0.000
1709291974.592,-35.156,-38.574,-20.996,-30.762,0.000
1709291974.596,-27.832,-41.016,-22.461,-36.621,0.000
1709291974.600,-34.180,-45.410,-28.320,-36.621,0.000
1709291974.603,-35.156,-47.363,-27.832,-39.551,0.000
1709291974.607,-25.879,-43.457,-23.926,-33.691,0.000
1709291974.611,-30.273,-45.898,-25.391,-32.715,0.000
1709291974.615,-39.062,-48.340,-25.391,-31.250,0.000
1709291974.618,-36.133,-43.457,-27.344,-30.273,0.000
1709291974.622,-37.109,-45.410,-28.320,-36.621,0.000
1709291974.626,-39.062,-49.805,-29.785,-40.527,0.000
1709291974.630,-36.133,-46.875,-27.832,-29.785,0.000
1709291974.634,-40.039,-39.551,-25.391,-33.203,0.000
1709291974.638,-33.691,-38.086,-27.832,-38.574,0.000
1709291974.642,-33.203,-42.480,-29.297,-33.203,0.000
1709291974.646,-39.062,-41.504,-25.879,-33.691,0.000
1709291974.650,-38.086,-40.039,-21.484,-35.156,0.000
1709291974.653,-36.133,-38.086,-24.414,-29.785,0.000
1709291974.657,-29.785,-36.621,-29.785,-31.738,0.000
1709291974.660,-20.996,-35.645,-30.762,-36.133,0.000
1709291974.664,-24.414,-35.156,-30.273,-39.062,0.000
1709291974.668,-36.133,-39.062,-33.691,-43.945,0.000
1709291974.672,-33.203,-39.062,-33.691,-30.762,0.000
1709291974.676,-25.391,-33.203,-32.227,-19.043,0.000
1709291974.680,-18.555,-33.691,-33.691,-25.879,0.000
1709291974.684,-19.531,-39.062,-33.203,-26.367,0.000
1709291974.688,-20.996,-42.969,-29.297,-22.461,0.000
1709291974.692,-25.391,-41.992,-23.926,-17.578,0.000
1709291974.696,-27.344,-38.086,-20.020,-15.625,0.000
1709291974.700,-21.973,-37.109,-21.973,-24.902,0.000
1709291974.704,-25.879,-41.992,-26.367,-30.273,0.000
1709291974.708,-28.320,-40.039,-27.832,-19.531,0.000
1709291974.712,-38.574,-40.039,-31.738,-22.949,0.000
1709291974.716,-41.016,-45.898,-36.133,-24.414,0.000
1709291974.720,-30.762,-43.945,-35.156,-18.066,0.000
1709291974.724,-32.715,-41.992,-33.691,-28.320,0.000
1709291974.728,-37.109,-43.457,-31.250,-39.551,0.000
1709291974.732,-35.156,-47.852,-21.973,-32.227,0.000
1709291974.735,-33.691,-45.410,-17.090,-12.695,0.000
1709291974.739,-33.203,-44.922,-25.391,-23.438,0.000
1709291974.743,-27.344,-46.875,-25.391,-33.691,0.000
1709291974.748,-30.273,-45.410,-25.391,-30.273,0.000
1709291974.752,-30.762,-45.410,-24.902,-28.320,0.000
1709291974.755,-29.297,-41.992,-21.484,-25.879,0.000
1709291974.759,-29.297,-39.551,-23.926,-30.273,0.000
1709291974.763,-30.762,-41.992,-23.438,-30.762,0.000
1709291974.767,-29.297,-41.504,-20.996,-23.926,0.000
1709291974.771,-30.762,-42.480,-27.832,-27.832,0.000
1709291974.775,-35.156,-45.898,-31.738,-37.598,0.000
1709291974.779,-32.715,-48.340,-31.250,-27.832,0.000
1709291974.783,-28.809,-50.293,-33.691,-27.832,0.000
1709291974.787,-35.156,-49.316,-35.156,-41.992,0.000
1709291974.791,-42.480,-45.410,-29.785,-41.504,0.000
1709291974.795,-39.551,-42.969,-25.879,-39.062,0.000
1709291974.799,-30.273,-43.945,-26.367,-30.762,0.000
1709291974.802,-25.879,-41.992,-27.832,-29.297,0.000
1709291974.806,-33.691,-42.480,-29.785,-32.715,0.000
1709291974.810,-39.062,-42.480,-29.297,-31.738,0.000
1709291974.814,-33.691,-40.039,-25.879,-31.250,0.000
1709291974.818,-24.902,-38.086,-29.297,-26.367,0.000
1709291974.822,-25.879,-42.480,-40.039,-20.996,0.000
1709291974.826,-35.645,-44.434,-41.016,-20.996,0.000
1709291974.830,-43.945,-36.133,-35.156,-24.902,0.000
1709291974.834,-40.527,-35.156,-35.156,-28.809,0.000
1709291974.838,-36.133,-32.715,-32.227,-26.855,0.000
1709291974.842,-41.992,-32.227,-26.855,-25.879,0.000
1709291974.845,-42.480,-37.109,-29.785,-31.738,0.000
1709291974.849,-47.363,-36.133,-33.203,-37.598,0.000
1709291974.853,-49.805,-32.227,-30.273,-26.367,0.000
1709291974.857,-45.898,-32.227,-31.738,-24.902,0.000
1709291974.861,-34.668,-31.250,-32.227,-27.832,0.000
1709291974.865,-34.668,-32.715,-30.273,-34.668,0.000
1709291974.869,-40.039,-39.551,-30.762,-33.691,0.000
1709291974.873,-42.480,-41.016,-29.785,-24.414,0.000
1709291974.877,-41.992,-33.203,-23.926,-30.273,0.000
1709291974.881,-30.273,-34.180,-20.508,-28.320,0.000
1709291974.884,-28.320,-41.016,-22.949,-23.926,0.000
1709291974.888,-28.320,-40.527,-20.508,-28.809,0.000
1709291974.892,-29.785,-38.086,-20.508,-30.762,0.000
1709291974.896,-34.180,-41.992,-30.762,-27.344,0.000
1709291974.900,-39.551,-39.062,-26.855,-29.297,0.000
1709291974.904,-39.551,-43.945,-25.391,-24.902,0.000
1709291974.908,-34.180,-47.852,-30.273,-29.785,0.000
1709291974.912,-39.062,-41.992,-26.367,-35.156,0.000
1709291974.916,-36.621,-41.016,-22.949,-18.066,0.000
1709291974.919,-38.574,-38.086,-25.391,-23.926,0.000
1709291974.923,-37.598,-37.109,-26.367,-33.691,0.000
1709291974.927,-37.598,-41.504,-27.832,-31.738,0.000
1709291974.931,-42.969,-44.434,-31.250,-34.180,0.000
1709291974.935,-48.340,-44.434,-31.250,-29.785,0.000
1709291974.939,-44.434,-39.551,-28.809,-22.949,0.000
1709291974.942,-34.668,-37.598,-28.320,-26.855,0.000
1709291974.946,-39.551,-37.598,-30.273,-33.203,0.000
1709291974.950,-36.133,-37.598,-25.391,-32.715,0.000
1709291974.954,-37.598,-41.016,-23.926,-33.691,0.000
1709291974.958,-42.480,-46.875,-26.367,-25.391,0.000
1709291974.962,-41.504,-47.363,-26.855,-31.738,0.000
1709291974.966,-38.574,-43.457,-28.320,-41.504,0.000
1709291974.970,-46.387,-41.016,-24.414,-34.668,0.000
1709291974.974,-51.758,-41.992,-28.809,-34.180,0.000
1709291974.978,-33.691,-41.016,-36.621,-33.203,0.000
1709291974.981,0.000,-35.645,-33.203,-29.785,0.000
1709291974.985,0.000,-38.086,-28.809,-29.297,0.000
1709291974.989,0.000,-41.016,-27.344,-26.855,0.000
1709291974.993,0.000,-38.574,-25.391,-23.438,0.000
1709291974.997,0.000,-36.621,-22.949,-22.461,0.000
1709291975.001,0.000,-39.062,-26.367,-22.461,0.000
1709291975.005,0.000,-40.039,-20.020,-19.531,0.000
1709291975.009,0.000,-40.527,-20.996,-19.531,0.000
1709291975.013,0.000,-40.039,-26.367,-21.973,0.000
1709291975.016,0.000,-40.039,-23.926,-16.602,0.000
1709291975.020,0.000,-39.551,-22.461,-9.766,0.000
1709291975.024,0.000,-41.016,-23.926,-17.090,0.000
1709291975.029,-38.574,-47.852,-22.949,-24.902,0.000
1709291975.033,-51.270,-47.852,-26.855,-27.832,0.000
1709291975.037,-43.457,-45.898,-32.227,-25.391,0.000
1709291975.041,-33.203,-42.480,-29.785,-27.344,0.000
1709291975.045,-38.086,-40.527,-29.297,-27.344,0.000
1709291975.049,-38.086,-38.086,-30.762,-21.484,0.000
1709291975.053,-40.039,-35.156,-24.414,-24.902,0.000
1709291975.057,-39.551,-37.598,-21.484,-28.320,0.000
1709291975.061,-27.832,-39.062,-27.832,-27.344,0.000
1709291975.065,-27.344,-33.203,-21.973,-14.160,0.000
1709291975.068,-33.691,-28.809,-18.066,-12.207,0.000
1709291975.072,-36.133,-29.785,-24.414,-25.879,0.000
1709291975.077,-33.203,-34.180,-30.762,-24.902,0.000
1709291975.081,-29.785,-40.039,-28.809,-18.555,0.000
1709291975.085,-35.156,-41.016,-26.855,-23.926,0.000
1709291975.089,-38.574,-41.016,-30.273,-37.109,0.000
1709291975.093,-40.039,-42.969,-30.762,-35.645,0.000
1709291975.096,-47.852,-45.898,-32.227,-35.645,0.000
1709291975.100,-42.969,-41.992,-34.668,-27.344,0.000
1709291975.104,-37.598,-36.621,-25.879,-22.949,0.000
1709291975.108,-46.875,-39.551,-22.461,-30.273,0.000
1709291975.112,-46.387,-40.527,-21.973,-25.391,0.000
1709291975.116,-45.898,-38.574,-22.461,-22.949,0.000
1709291975.120,-46.387,-41.016,-24.902,-26.855,0.000
1709291975.124,-38.086,-40.527,-20.996,-32.227,0.000
1709291975.128,-36.621,-41.016,-21.973,-34.668,0.000
1709291975.132,-50.293,-46.387,-25.879,-35.645,0.000
1709291975.136,-43.945,-47.852,-25.879,-29.785,0.000
1709291975.140,-30.273,-41.504,-25.879,-20.508,0.000
1709291975.144,-39.551,-42.480,-27.832,-19.531,0.000
1709291975.148,-42.969,-43.457,-27.344,-24.414,0.000
1709291975.151,-40.039,-38.086,-29.297,-37.598,0.000
1709291975.155,-37.598,-40.039,-29.785,-31.250,0.000
1709291975.159,-26.367,-41.016,-28.320,-16.602,0.000
1709291975.163,-32.715,-36.621,-30.273,-31.250,0.000
1709291975.167,-48.828,-39.062,-27.832,-33.691,0.000
1709291975.171,-41.992,-40.527,-27.832,-33.691,0.000
1709291975.175,-37.598,-35.645,-24.902,-36.621,0.000
1709291975.179,-44.434,-38.086,-23.926,-37.109,0.000
1709291975.183,-40.039,-41.992,-28.809,-39.062,0.000
1709291975.187,-41.992,-44.922,-24.902,-41.992,0.000
1709291975.191,-46.387,-44.922,-20.996,-42.480,0.000
1709291975.194,-43.457,-44.922,-24.902,-36.621,0.000
1709291975.198,-37.598,-44.922,-25.391,-30.762,0.000
1709291975.202,-29.297,-50.781,-23.438,-16.602,0.000
1709291975.206,-29.785,-52.734,-22.949,-17.578,0.000
1709291975.210,-39.062,-53.711,-26.367,-35.156,0.000
1709291975.214,-41.992,-60.547,-28.809,-30.273,0.000
1709291975.218,-34.180,-58.105,-29.785,-24.902,0.000
1709291975.222,-31.738,-51.758,-27.344,-37.109,0.000
1709291975.226,-28.320,-47.363,-21.973,-31.738,0.000
1709291975.229,-28.809,-45.898,-22.949,-28.320,0.000
1709291975.233,-37.109,-45.898,-27.344,-38.574,0.000
1709291975.237,-37.109,-46.387,-28.320,-34.180,0.000
1709291975.241,-38.086,-41.504,-28.809,-27.344,0.000
1709291975.245,-44.922,-42.969,-25.391,-23.926,0.000
1709291975.249,-48.340,-42.480,-20.508,-25.879,0.000
1709291975.253,-56.152,-42.969,-24.414,-37.598,0.000
1709291975.257,-50.781,-44.434,-26.855,-40.039,0.000
1709291975.261,-39.551,-38.574,-27.344,-36.133,0.000
1709291975.264,-41.016,-40.527,-29.297,-33.691,0.000
1709291975.268,-40.527,-43.945,-28.320,-33.691,0.000
1709291975.272,-46.875,-45.898,-26.367,-35.645,0.000
1709291975.276,-47.363,-43.945,-28.809,-32.715,0.000
1709291975.280,-39.551,-44.434,-33.691,-29.297,0.000
1709291975.284,-42.480,-47.852,-32.715,-27.832,0.000
1709291975.288,-50.293,-46.387,-27.344,-32.227,0.000
1709291975.292,-48.340,-46.875,-27.832,-29.297,0.000
1709291975.296,-43.457,-46.387,-28.809,-23.926,0.000
1709291975.299,-42.480,-44.922,-25.879,-26.855,0.000
1709291975.303,-42.969,-48.340,-26.367,-27.832,0.000
1709291975.307,-45.410,-49.316,-25.879,-28.809,0.000
1709291975.311,-48.340,-50.781,-24.902,-27.832,0.000
1709291975.315,-40.527,-50.781,-21.484,-20.020,0.000
1709291975.318,-30.762,-52.734,-22.461,-19.043,0.000
1709291975.322,-37.598,-54.688,-23.438,-20.508,0.000
1709291975.326,-40.527,-48.828,-18.555,-12.207,0.000
1709291975.330,-33.691,-42.969,-19.531,-16.113,0.000
1709291975.334,-32.227,-44.434,-19.043,-14.160,0.000
1709291975.338,-31.738,-44.922,-21.973,-17.090,0.000
1709291975.342,-27.344,-41.016,-24.902,-28.320,0.000
1709291975.346,-28.809,-41.992,-22.949,-24.414,0.000
1709291975.350,-34.180,-43.945,-22.461,-25.879,0.000
1709291975.354,-38.086,-42.969,-21.973,-32.715,0.000
1709291975.357,-41.016,-44.922,-26.855,-32.715,0.000
1709291975.361,-32.715,-41.504,-27.344,-31.738,0.000
1709291975.365,-37.109,-38.086,-28.809,-31.250,0.000
1709291975.369,-38.574,-41.504,-30.762,-34.180,0.000
1709291975.373,-31.250,-40.527,-27.344,-30.762,0.000
1709291975.376,-33.203,-36.621,-30.762,-29.297,0.000
1709291975.380,-37.109,-41.016,-36.133,-30.762,0.000
1709291975.384,-38.086,-45.898,-37.109,-32.715,0.000
1709291975.388,-36.133,-42.969,-38.086,-36.133,0.000
1709291975.392,-41.992,-41.992,-33.691,-36.133,0.000
1709291975.396,-40.039,-39.062,-29.297,-25.879,0.000
1709291975.400,-39.551,-37.598,-33.691,-30.762,0.000
1709291975.404,0.000,-34.668,-34.668,-35.645,0.000
1709291975.408,0.000,-33.203,-37.109,-27.832,0.000
1709291975.412,0.000,-35.645,-39.062,-31.250,0.000
1709291975.416,0.000,-32.227,-36.133,-28.809,0.000
1709291975.420,0.000,-35.645,-39.062,-30.273,0.000
1709291975.423,0.000,-40.039,-37.109,-39.551,0.000
1709291975.427,0.000,-37.109,-31.738,-43.457,0.000
1709291975.431,0.000,-40.039,-35.156,-47.852,0.000
1709291975.435,0.000,-43.457,-36.621,-46.387,0.000
1709291975.439,0.000,-44.922,-31.738,-36.621,0.000
1709291975.443,0.000,-44.434,-34.180,-37.109,0.000
1709291975.447,0.000,-44.922,-41.992,-44.434,0.000
1709291975.451,-26.855,-48.828,-40.527,-40.527,0.000
1709291975.455,-31.738,-48.828,-35.156,-37.109,0.000
1709291975.459,-39.062,-42.969,-30.762,-35.645,0.000
1709291975.463,-29.297,-38.086,-24.902,-30.762,0.000
1709291975.467,-25.391,-41.504,-23.926,-34.180,0.000
1709291975.471,-31.738,-40.039,-25.879,-30.273,0.000
1709291975.475,-34.668,-37.598,-28.320,-28.320,0.000
1709291975.479,-30.762,-37.598,-24.414,-30.762,0.000
1709291975.483,-24.414,-39.062,-21.484,-27.344,0.000
1709291975.487,-21.973,-43.945,-27.344,-24.414,0.000
1709291975.490,-33.691,-39.551,-35.645,-14.648,0.000
1709291975.494,-38.086,-37.598,-30.762,-16.113,0.000
1709291975.499,-34.180,-40.527,-27.344,-18.555,0.000
1709291975.503,-28.320,-39.062,-31.738,-16.602,0.000
1709291975.507,-26.367,-37.598,-31.250,-19.043,0.000
1709291975.510,-29.785,-41.504,-32.715,-26.367,0.000
1709291975.514,-29.785,-43.945,-32.715,-28.320,0.000
1709291975.518,-25.391,-40.527,-29.297,-21.484,0.000
1709291975.522,-25.391,-37.109,-28.320,-26.367,0.000
1709291975.526,-25.879,-37.109,-28.809,-30.273,0.000
1709291975.530,-23.438,-34.180,-33.203,-22.461,0.000
1709291975.534,-26.855,-30.273,-30.762,-22.461,0.000
1709291975.538,-23.926,-31.738,-25.391,-30.762,0.000
1709291975.542,-30.762,-35.156,-25.391,-31.250,0.000
1709291975.546,-34.668,-39.551,-27.344,-25.391,0.000
1709291975.550,-36.621,-38.086,-23.438,-28.320,0.000
1709291975.554,-46.875,-34.668,-25.391,-36.133,0.000
1709291975.557,-38.086,-41.992,-30.273,-35.156,0.000
1709291975.561,-23.926,-42.480,-28.320,-32.227,0.000
1709291975.565,-37.598,-41.016,-27.344,-37.598,0.000
1709291975.569,-42.480,-37.598,-30.273,-40.039,0.000
1709291975.573,-48.340,-39.551,-32.715,-30.273,0.000
1709291975.577,-58.594,-45.410,-28.320,-15.625,0.000
1709291975.581,-50.781,-40.527,-25.391,-18.066,0.000
1709291975.585,-36.133,-42.480,-29.297,-25.879,0.000
1709291975.589,-29.785,-43.945,-29.297,-24.414,0.000
1709291975.592,-38.574,-37.598,-23.438,-22.461,0.000
1709291975.596,-41.992,-40.527,-25.879,-25.391,0.000
1709291975.600,-35.645,-44.434,-23.926,-31.250,0.000
1709291975.604,-32.227,-38.086,-24.414,-26.367,0.000
1709291975.608,-39.551,-33.203,-34.180,-24.902,0.000
1709291975.612,-47.852,-31.738,-30.762,-36.621,0.000
1709291975.616,-36.621,-30.273,-23.926,-29.297,0.000
1709291975.620,-34.180,-34.668,-25.879,-13.672,0.000
1709291975.624,-37.109,-35.156,-27.832,-11.230,0.000
1709291975.628,-33.691,-35.156,-25.391,-26.367,0.000
1709291975.632,-34.180,-33.691,-23.438,-21.973,0.000
1709291975.635,-39.062,-37.109,-23.438,-21.484,0.000
1709291975.639,-32.227,-39.551,-22.949,-20.020,0.000
1709291975.643,-24.414,-33.691,-29.785,-10.254,0.000
1709291975.647,-34.180,-34.180,-30.762,-22.461,0.000
1709291975.651,-31.250,-40.527,-28.320,-30.273,0.000
1709291975.655,-28.809,-39.551,-27.344,-29.297,0.000
1709291975.658,-29.785,-42.969,-27.832,-33.203,0.000
1709291975.662,-30.762,-46.387,-23.438,-30.762,0.000
1709291975.666,-34.180,-43.457,-18.066,-25.391,0.000
1709291975.670,-33.691,-41.504,-23.438,-28.809,0.000
1709291975.674,-34.180,-40.039,-28.809,-32.715,0.000
1709291975.678,-32.227,-43.945,-28.320,-29.785,0.000
1709291975.682,-31.250,-50.293,-27.344,-28.320,0.000
1709291975.685,-37.598,-46.875,-31.738,-33.691,0.000
1709291975.689,-33.691,-42.480,-29.785,-35.645,0.000
1709291975.693,-27.344,-45.410,-26.855,-27.832,0.000
1709291975.697,-35.645,-43.457,-26.855,-26.855,0.000
1709291975.701,-31.738,-39.551,-24.902,-32.715,0.000
1709291975.705,-32.227,-48.828,-28.320,-39.551,0.000
1709291975.709,-38.086,-52.246,-28.809,-34.180,0.000
1709291975.713,-35.645,-43.945,-23.438,-26.367,0.000
1709291975.716,-31.250,-39.062,-22.949,-25.391,0.000
1709291975.720,-23.926,-41.504,-27.832,-28.809,0.000
1709291975.724,-26.855,-44.922,-30.762,-26.367,0.000
1709291975.728,-41.016,-43.457,-29.785,-32.227,0.000
1709291975.731,-35.156,-40.527,-24.414,-33.691,0.000
1709291975.735,-29.297,-40.527,-23.926,-25.391,0.000
1709291975.739,-35.156,-38.574,-29.297,-31.250,0.000
1709291975.743,-33.691,-36.621,-25.391,-31.250,0.000
1709291975.747,-28.809,-39.551,-25.391,-36.133,0.000
1709291975.751,-38.086,-45.898,-29.785,-46.387,0.000
1709291975.755,-46.387,-42.969,-24.902,-31.250,0.000
1709291975.759,-36.621,-31.738,-22.949,-13.672,0.000
1709291975.763,-35.156,-27.344,-19.043,-15.137,0.000
1709291975.767,-37.109,-31.250,-13.672,-20.996,0.000
1709291975.771,-30.273,-28.809,-16.602,-22.949,0.000
1709291975.774,-31.250,-28.809,-19.043,-22.949,0.000
1709291975.778,-28.320,-36.133,-17.090,-27.344,0.000
1709291975.781,-20.996,-31.250,-19.043,-20.020,0.000
1709291975.785,-26.367,-29.297,-24.414,-20.508,0.000
1709291975.789,-32.227,-38.086,-25.879,-34.668,0.000
1709291975.793,-30.762,-36.133,-21.973,-35.645,0.000
1709291975.797,-24.902,-32.715,-16.602,-24.414,0.000
1709291975.801,-25.391,-30.762,-14.160,-18.066,0.000
1709291975.805,-28.320,-27.344,-20.508,-25.879,0.000
1709291975.809,-30.273,-29.297,-23.926,-31.738,0.000
1709291975.813,-36.621,-28.809,-21.973,-35.645,0.000
1709291975.817,-40.527,-29.785,-23.438,-29.785,0.000
1709291975.821,-36.133,-30.762,-21.973,-27.832,0.000
1709291975.825,-29.297,-34.180,-27.344,-31.250,0.000
1709291975.829,-39.551,-37.109,-31.738,-32.227,0.000
1709291975.833,-39.551,-37.109,-29.297,-29.297,0.000
1709291975.837,-33.691,-38.574,-30.273,-21.973,0.000
1709291975.841,-33.203,-37.598,-31.250,-27.344,0.000
1709291975.845,-26.855,-35.645,-29.297,-23.926,0.000
1709291975.849,-33.203,-32.715,-25.391,-23.926,0.000
1709291975.853,-38.086,-33.691,-24.902,-32.715,0.000
1709291975.856,-30.762,-38.086,-28.320,-31.250,0.000
1709291975.860,-27.832,-38.574,-26.367,-24.414,0.000
1709291975.864,-30.273,-38.086,-28.809,-29.785,0.000
1709291975.868,-34.180,-35.645,-29.785,-33.203,0.000
1709291975.873,-27.832,-32.227,-25.391,-25.391,0.000
1709291975.877,-29.785,-34.668,-27.832,-20.996,0.000
1709291975.880,-29.297,-29.297,-28.320,-19.531,0.000
1709291975.884,-22.461,-25.391,-22.461,-18.066,0.000
1709291975.888,-29.785,-31.250,-22.461,-24.902,0.000
1709291975.892,-34.668,-33.203,-26.367,-29.785,0.000
1709291975.896,-41.992,-34.180,-24.414,-28.320,0.000
1709291975.900,-40.039,-34.180,-24.902,-34.668,0.000
1709291975.904,-31.738,-33.203,-22.949,-18.066,0.000
1709291975.908,-33.691,-27.832,-19.043,-0.488,0.000
1709291975.912,-45.898,-25.391,-20.020,-23.438,0.000
1709291975.916,-46.875,-33.691,-23.438,-30.762,0.000
