timestamps,TP9,AF7,AF8,TP10,Right AUX
1709205963.063,-7.324,-37.109,-28.809,-17.578,0.000
1709205963.067,-12.695,-38.086,-36.133,-16.113,0.000
1709205963.071,-27.832,-41.504,-38.086,-13.184,0.000
1709205963.075,-33.203,-43.457,-37.598,-18.066,0.000
1709205963.079,-37.109,-35.645,-41.992,-24.902,0.000
1709205963.083,-37.109,-31.250,-46.387,-38.086,0.000
1709205963.087,-45.410,-41.504,-51.270,-46.387,0.000
1709205963.091,-55.664,-46.875,-47.363,-41.016,0.000
1709205963.095,-47.363,-27.344,-39.062,-40.527,0.000
1709205963.098,-45.410,-20.508,-40.039,-46.875,0.000
1709205963.102,-50.293,-33.203,-43.457,-53.711,0.000
1709205963.106,-56.152,-32.227,-47.852,-56.152,0.000
1709205963.110,-67.383,-33.203,-48.340,-61.035,0.000
1709205963.114,-70.801,-38.574,-40.039,-61.523,0.000
1709205963.118,-71.777,-36.621,-41.016,-62.500,0.000
1709205963.122,-69.336,-40.039,-44.922,-67.871,0.000
1709205963.126,-58.594,-39.551,-38.574,-63.477,0.000
1709205963.130,-59.570,-37.598,-36.133,-62.500,0.000
1709205963.134,-62.988,-52.246,-36.621,-58.594,0.000
1709205963.137,-58.105,-54.688,-33.691,-51.270,0.000
1709205963.141,-53.223,-34.668,-34.668,-48.828,0.000
1709205963.145,-41.992,-28.809,-31.738,-34.180,0.000
1709205963.149,-37.598,-30.273,-29.785,-19.531,0.000
1709205963.153,-44.922,-32.227,-33.203,-19.531,0.000
1709205963.157,0.000,-32.227,-29.785,-10.742,0.000
1709205963.161,0.000,-33.691,-29.785,-10.254,0.000
1709205963.165,0.000,-36.621,-36.621,-21.973,0.000
1709205963.169,0.000,-32.227,-39.551,-18.555,0.000
1709205963.173,0.000,-36.621,-39.062,-19.043,0.000
1709205963.177,0.000,-52.734,-37.109,-20.508,0.000
1709205963.180,0.000,-50.781,-35.156,-11.719,0.000
1709205963.184,0.000,-32.715,-35.645,-16.113,0.000
1709205963.188,0.000,-34.668,-35.645,-36.133,0.000
1709205963.192,0.000,-45.898,-34.180,-29.297,0.000
1709205963.196,0.000,-43.945,-33.203,-21.973,0.000
1709205963.200,0.000,-36.621,-37.109,-37.598,0.000
1709205963.204,-43.945,-39.062,-44.922,-38.574,0.000
1709205963.207,-35.645,-39.551,-39.551,-28.320,0.000
1709205963.211,-29.297,-28.809,-36.133,-29.297,0.000
1709205963.215,-30.273,-29.785,-46.387,-49.805,0.000
1709205963.219,-39.062,-40.527,-51.270,-55.176,0.000
1709205963.223,-47.852,-50.293,-51.758,-50.293,0.000
1709205963.227,-43.457,-53.223,-51.270,-57.617,0.000
1709205963.231,-32.715,-43.457,-47.363,-50.781,0.000
1709205963.235,-30.762,-38.086,-49.316,-42.480,0.000
1709205963.239,-41.016,-44.434,-45.898,-41.504,0.000
1709205963.242,-43.457,-38.086,-41.504,-42.969,0.000
1709205963.246,-49.805,-37.598,-42.969,-56.152,0.000
1709205963.250,-53.223,-50.293,-41.992,-57.617,0.000
1709205963.254,-49.805,-48.340,-40.039,-48.340,0.000
1709205963.258,-52.734,-45.898,-38.574,-41.992,0.000
1709205963.262,-60.547,-38.574,-36.621,-26.855,0.000
1709205963.266,-61.035,-42.480,-38.086,-20.508,0.000
1709205963.269,-60.059,-59.570,-41.504,-35.156,0.000
1709205963.273,-60.059,-52.734,-40.039,-38.574,0.000
1709205963.277,-51.758,-42.480,-41.016,-36.621,0.000
1709205963.281,-58.594,-51.270,-38.574,-32.227,0.000
1709205963.285,-58.105,-52.734,-39.062,-22.949,0.000
1709205963.289,-49.805,-39.062,-41.504,-28.320,0.000
1709205963.293,-51.758,-36.133,-39.551,-34.180,0.000
1709205963.297,-44.434,-37.598,-38.086,-35.156,0.000
1709205963.301,-36.621,-35.156,-36.133,-38.574,0.000
1709205963.305,-39.062,-29.785,-37.598,-41.992,0.000
1709205963.309,-42.480,-37.109,-36.621,-37.598,0.000
1709205963.312,-47.852,-42.969,-37.109,-36.133,0.000
1709205963.316,-59.570,-49.805,-41.016,-36.621,0.000
1709205963.320,-54.199,-50.781,-42.480,-34.180,0.000
1709205963.324,-42.969,-42.480,-42.480,-36.133,0.000
1709205963.328,-38.574,-50.293,-41.992,-25.879,0.000
1709205963.332,-41.016,-40.039,-41.504,-17.090,0.000
1709205963.336,-43.457,-23.926,-35.645,-24.902,0.000
1709205963.340,-43.945,-40.039,-35.645,-35.156,0.000
1709205963.344,0.000,-46.875,-40.527,-47.363,0.000
1709205963.348,0.000,-42.480,-43.945,-51.270,0.000
1709205963.352,0.000,-39.062,-41.016,-50.293,0.000
1709205963.355,0.000,-43.457,-40.039,-49.805,0.000
1709205963.359,0.000,-52.246,-41.504,-55.176,0.000
1709205963.363,0.000,-48.828,-41.992,-64.941,0.000
1709205963.367,0.000,-37.598,-44.434,-65.918,0.000
1709205963.371,0.000,-40.039,-36.621,-61.523,0.000
1709205963.375,0.000,-44.434,-39.551,-54.199,0.000
1709205963.379,0.000,-27.832,-48.340,-58.105,0.000
1709205963.383,0.000,-30.762,-41.504,-50.781,0.000
1709205963.387,0.000,-42.969,-36.621,-38.086,0.000
1709205963.391,-38.086,-44.922,-41.992,-38.086,0.000
1709205963.395,-41.016,-50.293,-44.922,-46.387,0.000
1709205963.398,-41.992,-56.152,-40.039,-50.293,0.000
1709205963.402,-32.715,-49.316,-39.551,-38.574,0.000
1709205963.406,-29.297,-42.480,-39.551,-37.109,0.000
1709205963.410,-33.203,-48.828,-35.645,-41.504,0.000
1709205963.414,-40.039,-56.641,-39.062,-45.410,0.000
1709205963.418,-41.992,-62.012,-40.527,-22.461,0.000
1709205963.422,-41.016,-51.758,-42.480,-16.602,0.000
1709205963.426,-38.574,-41.016,-43.945,-34.668,0.000
1709205963.430,-39.062,-50.781,-40.527,-33.691,0.000
1709205963.433,-42.480,-55.176,-38.086,-35.156,0.000
1709205963.438,-46.875,-52.246,-40.527,-32.715,0.000
1709205963.441,-50.293,-46.875,-45.410,-26.367,0.000
1709205963.445,-41.016,-45.898,-41.992,-33.203,0.000
1709205963.449,-45.410,-54.199,-41.016,-50.293,0.000
1709205963.453,-52.734,-56.152,-51.758,-56.152,0.000
1709205963.457,-43.945,-58.105,-53.711,-47.852,0.000
1709205963.461,-36.133,-65.430,-48.340,-49.805,0.000
1709205963.465,-33.691,-54.199,-51.270,-43.457,0.000
1709205963.469,-33.203,-38.574,-53.711,-40.527,0.000
1709205963.473,-41.016,-41.504,-55.176,-42.480,0.000
1709205963.476,-38.086,-43.945,-54.199,-34.668,0.000
1709205963.480,-25.879,-40.527,-52.734,-41.992,0.000
1709205963.484,-26.367,-36.621,-55.664,-54.688,0.000
1709205963.488,-29.297,-42.480,-54.199,-49.805,0.000
1709205963.492,-28.809,-51.758,-53.711,-42.480,0.000
1709205963.496,-29.785,-44.922,-54.199,-43.457,0.000
1709205963.500,-28.809,-39.062,-53.223,-38.574,0.000
1709205963.504,-27.344,-42.480,-51.758,-40.527,0.000
1709205963.508,-30.273,-56.152,-49.805,-26.855,0.000
1709205963.512,-34.180,-56.152,-52.246,-19.043,0.000
1709205963.515,-41.992,-38.574,-51.270,-31.738,0.000
1709205963.519,-41.504,-41.016,-51.270,-28.320,0.000
1709205963.523,-37.598,-43.945,-55.176,-29.297,0.000
1709205963.527,-38.574,-38.574,-52.734,-34.180,0.000
1709205963.531,-38.574,-39.551,-53.711,-40.527,0.000
1709205963.535,-37.109,-46.387,-59.082,-38.086,0.000
1709205963.539,-40.039,-46.875,-50.293,-28.809,0.000
1709205963.543,-43.457,-35.156,-39.551,-31.250,0.000
1709205963.547,-40.039,-36.133,-37.109,-31.250,0.000
1709205963.551,-42.969,-62.500,-34.180,-30.273,0.000
1709205963.555,-48.828,-70.312,-26.367,-25.879,0.000
1709205963.559,-55.176,-62.500,-21.973,-36.621,0.000
1709205963.562,-57.617,-73.730,-19.531,-48.340,0.000
1709205963.566,-58.594,-95.215,-18.555,-42.969,0.000
1709205963.570,-64.941,-106.934,-20.996,-41.504,0.000
1709205963.574,-76.172,-109.863,-16.602,-45.410,0.000
1709205963.578,-81.543,-119.141,-16.602,-52.734,0.000
1709205963.582,-78.613,-123.535,-15.625,-58.105,0.000
1709205963.586,-84.473,-121.094,-11.719,-54.199,0.000
1709205963.590,-97.168,-125.000,-16.113,-50.781,0.000
1709205963.594,-103.027,-136.230,-20.020,-49.316,0.000
1709205963.598,-104.004,-143.066,-20.508,-48.828,0.000
1709205963.602,-106.445,-148.438,-16.113,-60.059,0.000
1709205963.606,-101.562,-143.555,-12.207,-63.477,0.000
1709205963.609,-101.074,-139.160,-11.230,-58.105,0.000
1709205963.613,-115.234,-160.645,-15.137,-51.270,0.000
1709205963.617,-111.328,-153.320,-11.719,-38.574,0.000
1709205963.621,-99.121,-129.883,-6.836,-41.016,0.000
1709205963.625,-100.586,-137.207,-9.277,-54.199,0.000
1709205963.629,-99.609,-138.672,-15.137,-57.617,0.000
1709205963.633,-104.004,-129.883,-18.555,-53.711,0.000
1709205963.637,-97.168,-134.766,-16.113,-45.410,0.000
1709205963.641,-83.496,-135.742,-16.113,-35.645,0.000
1709205963.645,-86.914,-132.324,-15.137,-28.809,0.000
1709205963.649,-86.426,-119.141,-14.648,-33.203,0.000
1709205963.652,-88.379,-117.676,-20.020,-27.344,0.000
1709205963.656,-87.402,-132.812,-18.066,-20.508,0.000
1709205963.660,-74.219,-125.488,-8.789,-20.996,0.000
1709205963.664,-70.312,-106.445,-12.207,-29.297,0.000
1709205963.668,-65.918,-104.980,-17.090,-21.973,0.000
1709205963.672,-66.406,-111.816,-12.695,-16.602,0.000
1709205963.676,-69.336,-107.910,-17.090,-22.461,0.000
1709205963.680,-62.012,-101.562,-21.973,-26.855,0.000
1709205963.684,-56.641,-105.469,-28.809,-32.715,0.000
1709205963.688,-55.176,-103.516,-33.691,-26.367,0.000
1709205963.692,-61.523,-99.121,-33.203,-26.367,0.000
1709205963.696,-56.641,-91.797,-34.668,-27.344,0.000
1709205963.699,-47.852,-85.449,-37.598,-38.574,0.000
1709205963.703,-37.598,-93.262,-42.480,-24.902,0.000
1709205963.707,-24.902,-91.309,-39.551,-11.230,0.000
1709205963.711,-29.297,-76.172,-33.691,-23.926,0.000
1709205963.715,-35.645,-74.219,-39.551,-15.137,0.000
1709205963.719,-25.391,-74.219,-39.551,-5.859,0.000
1709205963.723,-22.461,-74.219,-35.156,-0.488,0.000
1709205963.727,-40.039,-73.730,-38.574,-12.695,0.000
1709205963.731,-46.875,-75.195,-38.086,-21.484,0.000
1709205963.735,-33.203,-69.824,-33.691,-11.719,0.000
1709205963.739,-32.715,-67.383,-39.551,-22.461,0.000
1709205963.742,-35.645,-68.359,-46.875,-36.133,0.000
1709205963.746,-33.691,-68.848,-42.969,-38.086,0.000
1709205963.750,-32.715,-65.430,-38.086,-17.578,0.000
1709205963.754,-27.832,-50.293,-39.062,-16.113,0.000
1709205963.758,-27.344,-47.852,-40.527,-23.438,0.000
1709205963.762,-28.320,-55.176,-38.574,-23.926,0.000
1709205963.766,-24.902,-61.035,-38.574,-32.715,0.000
1709205963.770,-36.621,-59.082,-42.480,-42.480,0.000
1709205963.774,-52.246,-59.082,-45.898,-49.316,0.000
1709205963.778,-53.711,-62.988,-43.945,-47.852,0.000
1709205963.782,-45.410,-55.176,-41.504,-38.086,0.000
1709205963.785,-42.969,-51.270,-43.945,-33.203,0.000
1709205963.789,-45.410,-52.246,-48.828,-38.086,0.000
1709205963.793,-50.293,-58.105,-48.828,-31.738,0.000
1709205963.797,-40.039,-47.363,-40.527,-26.855,0.000
1709205963.801,-35.645,-36.621,-43.945,-37.598,0.000
1709205963.805,-40.527,-48.340,-46.875,-42.969,0.000
1709205963.809,-35.156,-52.734,-42.969,-48.340,0.000
1709205963.813,-36.621,-49.316,-44.922,-47.363,0.000
1709205963.817,-32.715,-41.992,-42.969,-47.363,0.000
1709205963.821,-28.809,-43.457,-41.504,-46.875,0.000
1709205963.825,-29.297,-44.922,-46.387,-43.457,0.000
1709205963.828,-35.645,-41.504,-51.270,-52.734,0.000
1709205963.832,-48.340,-43.945,-51.758,-52.734,0.000
1709205963.836,-53.711,-50.293,-48.828,-45.898,0.000
1709205963.840,-43.945,-50.781,-42.969,-33.691,0.000
1709205963.844,-37.598,-33.203,-37.598,-32.227,0.000
1709205963.848,-31.250,-28.320,-33.691,-37.109,0.000
1709205963.852,-42.480,-45.898,-40.039,-39.551,0.000
1709205963.856,-44.922,-52.734,-38.574,-38.574,0.000
1709205963.860,-34.180,-45.410,-40.527,-34.668,0.000
1709205963.864,-35.645,-44.434,-54.688,-41.016,0.000
1709205963.867,-31.250,-51.270,-52.246,-37.109,0.000
1709205963.871,-34.180,-51.758,-46.875,-31.250,0.000
1709205963.875,-40.039,-49.316,-42.969,-29.785,0.000
1709205963.879,-39.551,-56.641,-42.969,-31.250,0.000
1709205963.883,-34.668,-62.988,-43.945,-22.461,0.000
1709205963.887,-34.668,-52.246,-34.180,-21.973,0.000
1709205963.891,-43.945,-36.621,-40.039,-35.645,0.000
1709205963.895,-43.457,-43.945,-43.945,-34.180,0.000
1709205963.899,-39.062,-45.410,-40.039,-29.785,0.000
1709205963.902,-35.156,-37.109,-41.504,-27.832,0.000
1709205963.907,-36.133,-35.645,-38.086,-26.367,0.000
1709205963.910,-28.320,-41.016,-33.203,-17.578,0.000
1709205963.914,-27.832,-43.945,-34.180,-18.555,0.000
1709205963.918,-28.320,-42.969,-40.527,-22.949,0.000
1709205963.922,-14.648,-42.969,-40.039,-21.973,0.000
1709205963.926,-17.578,-59.082,-39.551,-20.508,0.000
1709205963.930,-19.043,-61.523,-41.016,-12.207,0.000
1709205963.934,-12.207,-39.062,-40.527,-14.160,0.000
1709205963.938,-4.395,-40.039,-39.062,-20.996,0.000
1709205963.941,-0.977,-43.457,-43.457,-17.090,0.000
1709205963.945,0.488,-36.133,-41.992,-19.531,0.000
1709205963.949,-5.371,-34.180,-45.410,-29.785,0.000
1709205963.953,-13.672,-39.062,-49.805,-30.762,0.000
1709205963.957,-14.648,-47.363,-46.387,-31.250,0.000
1709205963.961,-16.113,-47.363,-41.504,-24.902,0.000
1709205963.965,-10.742,-40.527,-39.062,-12.695,0.000
1709205963.969,-9.766,-38.574,-36.133,-3.418,0.000
1709205963.973,-14.160,-46.387,-38.574,-7.324,0.000
1709205963.977,-16.602,-55.176,-45.410,-10.254,0.000
1709205963.980,-14.648,-45.898,-42.969,-9.277,0.000
1709205963.984,-11.230,-40.039,-41.016,-21.484,0.000
1709205963.988,-17.090,-50.293,-47.852,-21.484,0.000
1709205963.992,-29.785,-41.016,-49.805,-22.461,0.000
1709205963.996,-37.109,-40.527,-46.387,-31.250,0.000
1709205964.000,-36.621,-53.711,-50.293,-30.762,0.000
1709205964.004,-30.762,-50.781,-47.363,-26.367,0.000
1709205964.008,-36.621,-48.340,-36.621,-18.066,0.000
1709205964.012,-48.828,-59.570,-41.992,-39.551,0.000
1709205964.016,-52.246,-61.035,-50.781,-50.293,0.000
1709205964.020,-49.316,-60.547,-43.457,-35.645,0.000
1709205964.024,-50.293,-61.035,-42.969,-38.086,0.000
1709205964.027,-50.781,-53.711,-44.922,-38.574,0.000
1709205964.031,-55.664,-59.570,-42.480,-41.504,0.000
1709205964.035,-63.477,-59.082,-44.434,-42.969,0.000
1709205964.039,-57.617,-42.480,-47.852,-45.410,0.000
1709205964.043,-54.199,-48.340,-51.758,-55.664,0.000
1709205964.047,-50.781,-54.688,-43.945,-49.316,0.000
1709205964.051,-49.316,-45.898,-41.504,-41.016,0.000
1709205964.055,-44.922,-47.852,-46.387,-47.852,0.000
1709205964.059,-37.109,-50.781,-44.434,-48.828,0.000
1709205964.063,-38.574,-49.316,-42.969,-46.387,0.000
1709205964.067,-33.691,-54.199,-42.480,-46.875,0.000
1709205964.071,-34.180,-53.711,-39.062,-46.387,0.000
1709205964.075,-40.527,-44.922,-40.039,-42.969,0.000
1709205964.078,-38.086,-48.828,-45.898,-27.832,0.000
1709205964.082,-26.855,-36.133,-39.551,-21.484,0.000
1709205964.086,-22.461,-22.461,-33.203,-43.945,0.000
1709205964.090,-40.039,-41.504,-40.039,-56.641,0.000
1709205964.094,-43.945,-45.410,-43.457,-50.781,0.000
1709205964.098,-35.645,-38.574,-42.480,-50.781,0.000
1709205964.102,-35.645,-35.645,-47.363,-58.594,0.000
1709205964.106,-40.527,-40.039,-47.852,-65.430,0.000
1709205964.110,-49.805,-53.711,-42.969,-66.406,0.000
1709205964.114,-55.664,-52.246,-45.410,-60.059,0.000
1709205964.118,-55.664,-47.852,-46.875,-50.293,0.000
1709205964.121,-51.270,-48.828,-43.945,-39.062,0.000
1709205964.125,-56.641,-46.387,-37.598,-39.551,0.000
1709205964.129,-58.594,-39.551,-37.109,-57.129,0.000
1709205964.133,-53.711,-35.645,-40.039,-56.152,0.000
1709205964.137,-47.852,-47.363,-38.574,-36.621,0.000
1709205964.141,-35.645,-47.363,-32.227,-29.785,0.000
1709205964.145,-34.180,-28.809,-32.715,-41.992,0.000
1709205964.149,-38.086,-41.992,-38.086,-46.387,0.000
1709205964.153,-40.527,-52.246,-37.598,-38.574,0.000
1709205964.157,-44.434,-43.945,-38.574,-35.156,0.000
1709205964.161,-38.574,-39.551,-40.527,-40.039,0.000
1709205964.164,-35.645,-38.574,-41.504,-50.293,0.000
1709205964.168,-41.504,-49.805,-44.922,-43.945,0.000
1709205964.172,-49.316,-50.293,-47.363,-40.527,0.000
1709205964.176,-51.758,-30.762,-49.316,-55.664,0.000
1709205964.180,-40.527,-31.738,-47.852,-58.594,0.000
1709205964.184,-34.180,-36.621,-47.852,-48.340,0.000
1709205964.188,-40.527,-33.691,-53.711,-49.805,0.000
1709205964.192,-42.969,-38.574,-54.688,-49.805,0.000
1709205964.196,-50.781,-44.434,-54.688,-50.781,0.000
1709205964.200,-53.711,-38.574,-56.641,-55.664,0.000
1709205964.203,-47.852,-36.621,-51.270,-58.594,0.000
1709205964.207,-53.223,-43.457,-44.434,-65.918,0.000
1709205964.211,-56.641,-54.688,-44.434,-64.941,0.000
1709205964.215,-49.805,-52.246,-44.922,-56.641,0.000
1709205964.219,-43.945,-38.574,-45.898,-64.453,0.000
1709205964.223,-42.969,-42.480,-45.898,-71.289,0.000
1709205964.227,-41.016,-48.340,-41.016,-56.152,0.000
1709205964.231,-45.410,-49.316,-41.504,-44.434,0.000
1709205964.235,-48.340,-49.805,-43.457,-44.434,0.000
1709205964.239,-39.062,-49.805,-43.457,-37.109,0.000
1709205964.243,-27.832,-48.340,-41.504,-22.949,0.000
1709205964.246,-25.391,-42.480,-35.645,-23.926,0.000
1709205964.250,-35.156,-42.969,-35.645,-35.645,0.000
1709205964.254,-39.062,-49.316,-37.598,-41.016,0.000
1709205964.258,-37.598,-54.199,-32.227,-17.090,0.000
1709205964.262,-40.527,-50.293,-36.621,-17.090,0.000
1709205964.266,-41.992,-36.621,-40.039,-36.621,0.000
1709205964.270,-43.457,-47.363,-40.039,-41.504,0.000
1709205964.274,-53.711,-53.711,-48.340,-47.363,0.000
1709205964.278,-55.664,-41.016,-49.316,-47.852,0.000
1709205964.282,-44.434,-39.062,-44.434,-52.246,0.000
1709205964.285,-41.016,-38.574,-42.969,-49.805,0.000
1709205964.289,-39.551,-35.645,-41.992,-45.898,0.000
1709205964.293,-39.062,-33.691,-44.434,-41.992,0.000
1709205964.297,-47.363,-40.527,-52.734,-50.781,0.000
1709205964.301,-42.969,-49.316,-52.734,-49.805,0.000
1709205964.305,-37.598,-45.898,-48.340,-34.668,0.000
1709205964.309,-38.086,-33.691,-48.828,-41.504,0.000
1709205964.313,-34.668,-27.832,-46.387,-41.016,0.000
1709205964.317,-33.691,-37.598,-43.457,-29.297,0.000
1709205964.320,-24.902,-39.062,-43.457,-29.785,0.000
1709205964.324,-23.438,-27.832,-41.504,-31.250,0.000
1709205964.329,-28.809,-35.645,-41.504,-37.109,0.000
1709205964.332,-34.668,-52.246,-44.434,-36.133,0.000
1709205964.336,-39.551,-56.641,-44.922,-30.273,0.000
1709205964.340,-27.832,-51.758,-42.969,-28.320,0.000
1709205964.344,-20.020,-49.805,-39.062,-28.809,0.000
1709205964.348,-31.250,-58.594,-40.039,-30.762,0.000
1709205964.352,-40.039,-62.988,-42.480,-27.344,0.000
1709205964.356,-49.805,-56.641,-47.852,-40.527,0.000
1709205964.360,-46.387,-47.363,-47.363,-53.711,0.000
1709205964.364,-35.156,-51.758,-44.922,-51.758,0.000
1709205964.367,-36.621,-45.410,-43.457,-52.246,0.000
1709205964.371,-41.016,-40.527,-41.016,-52.246,0.000
1709205964.375,-42.480,-49.805,-45.410,-49.316,0.000
1709205964.379,-47.852,-47.363,-49.316,-58.594,0.000
1709205964.383,-50.781,-42.480,-49.316,-63.477,0.000
1709205964.387,-54.199,-39.062,-44.922,-62.500,0.000
1709205964.391,-60.059,-44.922,-43.457,-63.477,0.000
1709205964.395,-55.176,-52.734,-36.621,-54.688,0.000
1709205964.399,-56.152,-45.410,-36.133,-50.293,0.000
1709205964.403,-58.594,-37.109,-39.062,-45.898,0.000
1709205964.407,-46.387,-40.527,-33.203,-35.156,0.000
1709205964.410,-52.246,-50.781,-33.691,-33.691,0.000
1709205964.414,-62.500,-41.992,-34.180,-43.457,0.000
1709205964.418,-50.781,-33.691,-34.668,-45.410,0.000
1709205964.422,0.000,-36.133,-33.203,-39.551,0.000
1709205964.426,0.000,-40.039,-23.926,-34.180,0.000
1709205964.430,0.000,-41.504,-25.391,-39.062,0.000
1709205964.434,0.000,-46.387,-38.086,-48.340,0.000
1709205964.438,0.000,-53.223,-40.527,-43.945,0.000
1709205964.442,0.000,-47.363,-39.062,-39.551,0.000
1709205964.446,0.000,-43.457,-41.504,-44.434,0.000
1709205964.450,0.000,-41.016,-42.969,-45.410,0.000
1709205964.453,0.000,-50.293,-42.480,-37.109,0.000
1709205964.457,0.000,-47.363,-42.969,-31.738,0.000
1709205964.461,0.000,-31.738,-41.016,-36.621,0.000
1709205964.465,0.000,-34.180,-35.645,-33.691,0.000
1709205964.469,-28.809,-40.527,-41.016,-29.297,0.000
1709205964.473,-30.273,-34.180,-46.875,-33.203,0.000
1709205964.477,-22.461,-31.250,-44.434,-40.039,0.000
1709205964.481,-30.273,-42.480,-46.387,-40.527,0.000
1709205964.485,-39.062,-46.387,-47.852,-45.898,0.000
1709205964.489,-34.668,-43.457,-46.387,-51.758,0.000
1709205964.493,-41.016,-39.551,-44.922,-48.828,0.000
1709205964.496,-46.387,-41.504,-42.480,-41.504,0.000
1709205964.500,-44.922,-44.922,-37.598,-38.574,0.000
1709205964.504,-37.109,-32.227,-35.645,-41.504,0.000
1709205964.508,-40.527,-32.715,-37.598,-38.086,0.000
1709205964.512,-50.293,-40.527,-42.969,-40.527,0.000
1709205964.516,-40.039,-30.273,-38.086,-37.109,0.000
1709205964.520,-31.738,-31.738,-33.691,-34.180,0.000
1709205964.524,-38.574,-49.805,-39.062,-31.738,0.000
1709205964.528,-41.504,-56.641,-37.109,-26.855,0.000
1709205964.532,-42.480,-54.688,-32.715,-33.203,0.000
1709205964.536,-50.781,-54.688,-32.227,-29.297,0.000
1709205964.539,-41.992,-49.805,-27.832,-30.762,0.000
1709205964.543,-35.645,-61.035,-29.297,-26.367,0.000
1709205964.547,-40.039,-57.617,-27.344,-18.066,0.000
1709205964.551,-40.527,-33.203,-22.949,-25.391,0.000
1709205964.555,-48.828,-44.434,-27.832,-33.203,0.000
1709205964.559,-41.504,-53.711,-21.973,-34.668,0.000
1709205964.563,-34.668,-48.340,-18.555,-36.621,0.000
1709205964.567,-38.086,-51.270,-21.484,-40.039,0.000
1709205964.571,-39.062,-52.734,-28.320,-35.156,0.000
1709205964.575,-40.527,-42.480,-30.762,-35.645,0.000
1709205964.579,-47.363,-31.738,-30.762,-41.504,0.000
1709205964.582,-42.480,-31.738,-33.691,-41.992,0.000
1709205964.586,-36.133,-37.598,-36.133,-46.387,0.000
1709205964.590,-45.410,-41.992,-38.574,-42.480,0.000
1709205964.594,-43.945,-35.645,-39.062,-47.852,0.000
1709205964.598,-35.645,-34.668,-37.598,-43.457,0.000
1709205964.602,-26.367,-40.527,-41.504,-28.809,0.000
1709205964.606,-23.926,-40.039,-43.945,-30.762,0.000
1709205964.610,-34.668,-33.691,-41.992,-41.992,0.000
1709205964.614,-37.109,-35.645,-37.109,-37.109,0.000
1709205964.618,-35.645,-42.480,-39.062,-27.832,0.000
1709205964.621,-40.527,-34.668,-37.598,-28.809,0.000
1709205964.625,-48.340,-32.227,-33.691,-25.391,0.000
1709205964.629,-52.734,-43.457,-38.574,-34.668,0.000
1709205964.633,-61.523,-63.965,-41.504,-37.598,0.000
1709205964.637,-58.105,-58.105,-41.992,-32.227,0.000
1709205964.641,-51.758,-41.504,-43.457,-41.992,0.000
1709205964.645,-59.082,-49.805,-47.363,-46.875,0.000
1709205964.649,-59.082,-49.316,-47.363,-47.363,0.000
1709205964.653,-54.688,-40.039,-46.875,-43.945,0.000
1709205964.657,-48.340,-27.832,-44.922,-42.480,0.000
1709205964.661,-36.133,-25.879,-46.875,-42.969,0.000
1709205964.664,-35.645,-33.691,-53.711,-50.293,0.000
1709205964.668,-47.852,-33.203,-54.688,-61.523,0.000
1709205964.672,-47.852,-31.250,-51.270,-61.035,0.000
1709205964.676,-34.180,-36.621,-45.898,-56.152,0.000
1709205964.680,-26.367,-41.504,-43.945,-41.992,0.000
1709205964.684,-21.973,-36.621,-44.922,-45.898,0.000
1709205964.688,-26.367,-31.738,-42.480,-50.781,0.000
1709205964.692,-34.668,-33.691,-42.480,-42.969,0.000
1709205964.696,-34.180,-29.785,-37.598,-41.504,0.000
1709205964.699,-27.832,-25.879,-30.273,-41.504,0.000
1709205964.703,-33.203,-36.133,-34.668,-47.852,0.000
1709205964.707,-40.039,-40.039,-42.969,-46.875,0.000
1709205964.711,-52.734,-41.992,-43.457,-41.504,0.000
1709205964.715,-62.500,-43.945,-41.992,-40.527,0.000
1709205964.719,-56.152,-46.875,-41.504,-40.527,0.000
1709205964.723,-47.852,-53.223,-40.039,-27.344,0.000
1709205964.727,-42.480,-47.363,-42.969,-35.645,0.000
1709205964.731,-47.852,-37.109,-46.387,-51.270,0.000
1709205964.735,-53.223,-42.480,-49.316,-41.016,0.000
1709205964.738,-43.945,-48.340,-46.387,-25.391,0.000
1709205964.742,-42.480,-39.551,-41.016,-20.020,0.000
1709205964.746,-44.922,-34.180,-43.945,-32.715,0.000
1709205964.750,-41.992,-43.945,-45.410,-38.086,0.000
1709205964.754,-41.992,-42.969,-40.039,-22.949,0.000
1709205964.758,-48.828,-46.387,-44.922,-22.461,0.000
1709205964.762,-44.434,-57.617,-50.293,-29.297,0.000
1709205964.766,-34.180,-56.152,-46.875,-27.832,0.000
1709205964.770,-35.156,-59.082,-45.898,-32.715,0.000
1709205964.774,-36.133,-55.176,-47.852,-36.621,0.000
1709205964.778,-33.691,-44.922,-46.875,-48.340,0.000
1709205964.782,-33.691,-49.805,-42.969,-51.758,0.000
1709205964.785,-33.691,-53.223,-41.016,-36.621,0.000
1709205964.789,-42.480,-42.480,-49.805,-45.898,0.000
1709205964.793,-41.992,-46.875,-56.152,-67.383,0.000
1709205964.797,-37.109,-54.199,-54.688,-68.848,0.000
1709205964.801,-41.016,-41.992,-48.828,-55.176,0.000
1709205964.805,-41.992,-37.598,-39.551,-52.246,0.000
1709205964.809,-45.410,-43.945,-31.250,-50.781,0.000
1709205964.813,-55.176,-49.316,-34.180,-40.527,0.000
1709205964.817,-60.547,-51.270,-41.992,-39.551,0.000
1709205964.821,-59.570,-47.852,-41.016,-37.109,0.000
1709205964.825,-53.711,-40.039,-33.203,-41.504,0.000
1709205964.828,-48.828,-45.898,-29.785,-40.527,0.000
1709205964.832,-51.270,-50.781,-34.668,-40.039,0.000
1709205964.836,-53.711,-33.203,-34.668,-43.457,0.000
1709205964.840,-45.898,-37.109,-34.180,-26.855,0.000
1709205964.844,-42.969,-43.457,-34.180,-20.996,0.000
1709205964.848,-48.828,-40.039,-36.621,-28.809,0.000
1709205964.852,-53.711,-44.922,-42.480,-40.039,0.000
1709205964.856,-43.945,-47.852,-38.086,-30.273,0.000
1709205964.860,-32.715,-38.574,-41.016,-27.832,0.000
1709205964.864,-33.691,-37.109,-43.945,-32.715,0.000
1709205964.868,-30.273,-38.086,-38.574,-33.203,0.000
1709205964.871,-28.320,-44.434,-39.062,-37.598,0.000
1709205964.875,-27.344,-48.828,-42.969,-25.879,0.000
1709205964.879,-20.020,-34.668,-44.922,-21.484,0.000
1709205964.883,-10.254,-32.715,-41.992,-23.926,0.000
1709205964.887,-10.254,-39.551,-43.945,-30.273,0.000
1709205964.891,-16.113,-36.621,-47.852,-36.621,0.000
1709205964.895,-18.555,-31.738,-45.898,-36.621,0.000
1709205964.899,-11.230,-38.574,-44.922,-25.879,0.000
1709205964.903,-7.812,-43.457,-44.922,-19.043,0.000
1709205964.907,-13.184,-43.457,-43.945,-21.973,0.000
1709205964.911,-9.277,-43.457,-39.551,-16.602,0.000
1709205964.914,-7.324,-38.574,-36.621,-20.508,0.000
1709205964.918,-14.160,-51.270,-39.551,-29.297,0.000
1709205964.922,-19.043,-49.805,-46.387,-30.273,0.000
1709205964.926,-22.461,-29.297,-50.781,-32.715,0.000
1709205964.930,-27.344,-35.156,-44.434,-31.250,0.000
1709205964.934,-30.273,-37.109,-38.086,-28.320,0.000
1709205964.938,-38.086,-36.133,-41.992,-31.738,0.000
1709205964.942,-45.898,-40.527,-43.945,-34.668,0.000
1709205964.946,-39.551,-54.688,-42.480,-40.039,0.000
1709205964.950,-37.109,-55.664,-41.992,-34.668,0.000
1709205964.953,-41.992,-46.387,-40.039,-26.367,0.000
1709205964.957,-54.688,-51.270,-45.898,-36.621,0.000
1709205964.961,-50.293,-55.664,-50.293,-44.922,0.000
1709205964.965,-43.945,-52.246,-45.410,-45.898,0.000
1709205964.969,-46.875,-38.086,-42.969,-41.016,0.000
1709205964.973,-47.852,-30.762,-44.434,-35.645,0.000
1709205964.977,-41.992,-37.598,-42.969,-35.645,0.000
1709205964.981,-34.180,-40.039,-38.086,-36.621,0.000
1709205964.985,-30.762,-34.668,-39.062,-32.715,0.000
1709205964.989,-33.691,-40.527,-36.133,-28.809,0.000
1709205964.993,-35.156,-48.828,-35.645,-30.273,0.000
1709205964.996,-32.715,-45.410,-39.062,-39.551,0.000
1709205965.000,-30.273,-46.387,-34.180,-39.551,0.000
1709205965.004,-32.227,-50.293,-36.621,-41.992,0.000
1709205965.008,-32.715,-56.641,-39.062,-29.785,0.000
1709205965.012,-34.180,-47.852,-40.039,-22.461,0.000
1709205965.016,-38.086,-34.668,-44.922,-34.180,0.000
1709205965.020,-30.273,-42.480,-42.480,-25.391,0.000
1709205965.024,-30.273,-39.551,-37.109,-23.438,0.000
1709205965.028,-36.621,-36.621,-41.016,-35.645,0.000
1709205965.032,-41.504,-32.227,-41.504,-34.180,0.000
1709205965.036,-51.270,-32.715,-35.156,-26.855,0.000
1709205965.039,-50.293,-39.551,-29.785,-26.855,0.000
1709205965.043,-45.898,-41.992,-29.785,-34.668,0.000
1709205965.047,-46.875,-41.992,-34.180,-49.805,0.000
1709205965.051,-50.781,-49.805,-29.785,-48.828,0.000
1709205965.055,-57.129,-55.664,-27.832,-40.039,0.000
1709205965.059,-55.176,-41.504,-28.809,-40.039,0.000
1709205965.063,-47.852,-36.133,-29.785,-44.922,0.000
1709205965.067,-51.270,-38.086,-34.180,-45.898,0.000
1709205965.071,-55.664,-37.598,-36.133,-46.875,0.000
1709205965.074,-56.152,-36.133,-35.645,-42.969,0.000
1709205965.079,-52.246,-37.598,-41.016,-37.598,0.000
1709205965.083,-43.945,-42.969,-39.551,-38.086,0.000
1709205965.086,-42.969,-39.062,-39.551,-41.016,0.000
1709205965.090,-46.387,-30.762,-42.969,-45.410,0.000
1709205965.094,-46.387,-28.809,-40.039,-45.410,0.000
1709205965.098,-44.922,-37.598,-39.551,-35.645,0.000
1709205965.102,-38.086,-40.039,-38.086,-29.297,0.000
1709205965.106,-37.109,-35.645,-38.574,-43.457,0.000
1709205965.110,-51.270,-36.621,-38.086,-43.457,0.000
1709205965.114,-52.734,-46.387,-38.086,-31.738,0.000
1709205965.118,-41.504,-39.551,-36.621,-37.109,0.000
1709205965.121,-41.992,-31.738,-41.504,-49.316,0.000
1709205965.126,-46.875,-38.574,-45.898,-56.152,0.000
1709205965.129,-48.828,-43.457,-41.992,-56.152,0.000
1709205965.133,-54.199,-46.387,-45.410,-52.246,0.000
1709205965.137,-56.152,-41.504,-44.922,-47.852,0.000
1709205965.141,-51.758,-46.387,-42.480,-50.293,0.000
1709205965.145,-42.969,-52.246,-40.527,-48.340,0.000
1709205965.149,-44.434,-44.922,-36.133,-47.363,0.000
1709205965.153,-51.270,-40.039,-36.621,-58.105,0.000
1709205965.157,-50.293,-52.246,-37.109,-62.012,0.000
1709205965.161,-47.852,-55.176,-41.016,-57.129,0.000
1709205965.164,-46.875,-36.133,-43.457,-54.688,0.000
1709205965.168,-43.457,-33.691,-42.969,-50.781,0.000
1709205965.173,-41.016,-47.852,-40.527,-46.387,0.000
1709205965.176,-37.598,-48.340,-41.504,-46.875,0.000
1709205965.180,-40.527,-39.551,-46.387,-43.945,0.000
1709205965.184,-37.109,-43.457,-46.387,-44.922,0.000
1709205965.188,-41.504,-51.270,-44.434,-45.898,0.000
1709205965.192,-54.199,-58.105,-45.410,-47.363,0.000
1709205965.196,-51.758,-54.199,-45.410,-50.781,0.000
1709205965.200,-49.805,-50.781,-45.410,-48.828,0.000
1709205965.204,-51.270,-60.547,-46.875,-40.039,0.000
1709205965.207,-46.875,-50.781,-45.410,-33.691,0.000
1709205965.211,-51.758,-39.551,-44.434,-44.922,0.000
1709205965.215,-45.410,-53.711,-44.922,-47.852,0.000
1709205965.219,-42.969,-56.152,-41.504,-46.387,0.000
1709205965.223,-51.270,-47.363,-41.992,-42.480,0.000
1709205965.227,-50.293,-50.781,-38.574,-39.551,0.000
1709205965.231,-56.641,-51.758,-36.133,-31.250,0.000
1709205965.235,-62.012,-52.734,-34.668,-34.180,0.000
1709205965.239,-52.246,-50.781,-30.762,-49.316,0.000
1709205965.243,-47.852,-39.062,-30.273,-47.852,0.000
1709205965.247,-47.852,-47.363,-33.691,-45.410,0.000
1709205965.251,-46.387,-54.199,-35.645,-35.645,0.000
1709205965.254,-45.410,-43.945,-33.691,-38.086,0.000
1709205965.258,-40.039,-42.480,-34.180,-50.781,0.000
1709205965.262,-33.203,-37.598,-33.203,-37.109,0.000
1709205965.266,-32.227,-37.598,-35.156,-30.762,0.000
1709205965.270,-32.227,-33.691,-37.598,-45.410,0.000
1709205965.274,-33.203,-34.668,-40.039,-47.363,0.000
1709205965.278,-34.668,-36.621,-42.969,-44.434,0.000
1709205965.282,-31.250,-35.645,-43.457,-47.363,0.000
1709205965.286,-27.344,-40.039,-41.504,-49.805,0.000
1709205965.290,-29.785,-41.992,-39.551,-58.105,0.000
1709205965.293,-36.621,-51.270,-40.527,-55.176,0.000
1709205965.297,-40.527,-42.480,-43.457,-37.598,0.000
1709205965.301,-31.738,-25.391,-43.945,-38.086,0.000
1709205965.305,-20.996,-33.691,-41.992,-38.086,0.000
1709205965.309,-31.250,-43.945,-40.039,-37.598,0.000
1709205965.313,-42.969,-51.270,-39.551,-37.109,0.000
1709205965.317,-45.410,-52.246,-38.086,-34.668,0.000
1709205965.321,-40.527,-51.758,-41.016,-44.434,0.000
1709205965.325,-37.598,-50.293,-41.504,-47.363,0.000
1709205965.329,-38.086,-42.969,-33.691,-41.504,0.000
1709205965.333,-38.086,-47.852,-31.250,-30.762,0.000
1709205965.336,-39.551,-54.199,-32.715,-22.461,0.000
1709205965.340,-30.762,-50.293,-32.227,-13.672,0.000
1709205965.344,-22.461,-38.574,-33.203,-19.531,0.000
1709205965.348,-28.320,-38.086,-32.715,-29.297,0.000
1709205965.352,-32.715,-42.480,-29.785,-34.180,0.000
1709205965.356,-33.203,-41.016,-33.691,-41.992,0.000
1709205965.360,-35.645,-35.156,-38.574,-40.527,0.000
1709205965.364,-41.504,-36.621,-35.645,-44.922,0.000
1709205965.368,-42.969,-47.852,-39.062,-49.316,0.000
1709205965.372,-47.363,-45.898,-45.898,-48.340,0.000
1709205965.376,-56.641,-34.180,-45.410,-44.434,0.000
1709205965.379,-61.035,-34.180,-44.922,-50.781,0.000
1709205965.383,-57.617,-49.805,-49.805,-51.270,0.000
1709205965.387,-58.105,-50.293,-53.223,-54.688,0.000
1709205965.391,-64.453,-28.809,-47.363,-65.430,0.000
1709205965.395,-67.383,-31.738,-44.922,-59.570,0.000
1709205965.399,-57.617,-38.574,-45.898,-54.199,0.000
1709205965.403,-41.992,-40.039,-46.875,-59.570,0.000
1709205965.407,-44.922,-39.062,-42.480,-60.059,0.000
1709205965.411,-57.129,-36.133,-37.598,-56.641,0.000
1709205965.415,-54.199,-38.086,-35.645,-60.059,0.000
1709205965.418,-45.410,-36.133,-39.062,-61.035,0.000
1709205965.422,-41.016,-35.645,-42.969,-53.711,0.000
1709205965.426,-39.551,-43.945,-40.039,-49.316,0.000
1709205965.430,-46.875,-49.805,-44.922,-42.969,0.000
1709205965.434,-48.828,-39.062,-48.828,-40.039,0.000
1709205965.438,-47.852,-38.086,-48.828,-50.781,0.000
1709205965.442,-44.922,-47.363,-44.434,-43.457,0.000
1709205965.446,-33.203,-39.551,-35.156,-25.879,0.000
1709205965.450,-36.621,-35.645,-37.598,-30.273,0.000
1709205965.454,-43.945,-50.781,-43.457,-32.227,0.000
1709205965.457,-46.875,-57.129,-42.480,-23.926,0.000
1709205965.461,-42.969,-50.293,-42.480,-30.762,0.000
1709205965.465,-35.645,-46.387,-41.504,-41.504,0.000
1709205965.469,-29.785,-48.340,-34.668,-41.016,0.000
1709205965.473,-32.227,-53.711,-31.738,-27.832,0.000
1709205965.477,-36.621,-51.270,-31.738,-18.555,0.000
1709205965.481,-32.715,-39.551,-32.227,-19.531,0.000
1709205965.485,-31.738,-42.480,-35.156,-27.344,0.000
1709205965.489,-38.574,-46.387,-35.156,-44.434,0.000
1709205965.492,-47.852,-41.992,-39.551,-57.129,0.000
1709205965.496,-47.363,-36.133,-44.434,-50.293,0.000
1709205965.501,-46.387,-38.574,-39.551,-47.852,0.000
1709205965.504,-45.898,-36.621,-36.621,-52.734,0.000
1709205965.508,-46.875,-31.250,-41.992,-51.758,0.000
1709205965.512,-52.734,-31.250,-43.457,-64.453,0.000
1709205965.516,-49.316,-41.016,-41.992,-60.547,0.000
1709205965.520,-41.504,-49.316,-41.016,-50.293,0.000
1709205965.524,-41.016,-40.527,-39.062,-58.105,0.000
1709205965.528,-45.410,-35.645,-35.645,-62.012,0.000
1709205965.532,-45.898,-52.734,-37.109,-53.223,0.000
1709205965.536,-43.457,-60.059,-38.086,-47.852,0.000
1709205965.539,-40.039,-41.504,-35.156,-48.828,0.000
1709205965.543,-36.133,-41.504,-41.016,-48.340,0.000
1709205965.547,-40.039,-44.434,-42.480,-42.969,0.000
1709205965.551,-50.293,-44.922,-37.598,-40.039,0.000
1709205965.555,-52.246,-41.504,-41.504,-41.016,0.000
1709205965.559,-41.992,-43.945,-41.016,-35.645,0.000
1709205965.563,-30.762,-53.223,-36.133,-38.574,0.000
1709205965.567,-30.762,-54.199,-39.551,-38.086,0.000
1709205965.571,-41.992,-55.176,-37.109,-36.133,0.000
1709205965.575,-41.992,-46.875,-36.621,-33.691,0.000
1709205965.579,-31.250,-51.758,-39.551,-21.973,0.000
1709205965.582,-32.715,-48.828,-38.086,-19.531,0.000
1709205965.586,-34.668,-30.762,-40.039,-28.320,0.000
1709205965.590,-33.691,-41.992,-41.992,-30.762,0.000
1709205965.594,-40.527,-45.898,-40.039,-30.762,0.000
1709205965.598,-41.504,-44.922,-38.574,-30.762,0.000
1709205965.602,-40.527,-48.340,-41.992,-41.504,0.000
1709205965.606,-33.203,-44.922,-35.645,-40.527,0.000
1709205965.610,-32.227,-45.898,-32.715,-38.086,0.000
1709205965.614,-40.039,-40.039,-39.062,-43.457,0.000
1709205965.618,-39.062,-41.016,-42.480,-47.363,0.000
1709205965.622,-35.645,-55.664,-44.922,-50.293,0.000
1709205965.625,-35.645,-56.641,-46.875,-47.363,0.000
1709205965.629,-46.387,-42.969,-48.340,-55.664,0.000
1709205965.633,-50.781,-39.551,-46.875,-60.059,0.000
1709205965.637,-48.828,-46.875,-48.340,-54.688,0.000
1709205965.641,-39.062,-41.016,-48.340,-45.898,0.000
1709205965.645,-30.273,-35.645,-47.852,-39.062,0.000
1709205965.649,-38.086,-46.875,-48.340,-36.133,0.000
1709205965.653,-42.969,-48.340,-39.062,-24.414,0.000
1709205965.657,-38.574,-41.992,-34.668,-17.578,0.000
1709205965.661,-33.203,-41.504,-40.527,-29.785,0.000
1709205965.665,-28.809,-41.016,-40.039,-34.180,0.000
1709205965.668,-31.738,-56.152,-34.668,-29.297,0.000
1709205965.672,-40.039,-50.781,-39.062,-34.668,0.000
1709205965.676,-37.598,-31.250,-47.852,-41.992,0.000
1709205965.680,-34.668,-38.574,-51.758,-46.387,0.000
1709205965.684,-25.879,-33.691,-46.875,-50.293,0.000
1709205965.688,-27.344,-32.715,-47.363,-53.223,0.000
1709205965.692,-41.016,-39.551,-47.852,-53.711,0.000
1709205965.696,-35.645,-45.898,-39.062,-46.875,0.000
1709205965.700,-32.227,-49.805,-37.109,-43.457,0.000
1709205965.704,-25.879,-39.062,-35.156,-46.387,0.000
1709205965.707,-20.508,-41.016,-32.715,-44.434,0.000
1709205965.711,-33.691,-50.781,-37.109,-39.551,0.000
1709205965.715,-42.480,-49.316,-38.574,-36.621,0.000
1709205965.719,-34.180,-31.738,-39.551,-40.527,0.000
1709205965.723,-36.133,-35.645,-44.922,-46.387,0.000
1709205965.727,-46.387,-52.246,-41.992,-45.410,0.000
1709205965.731,-48.340,-47.852,-37.109,-49.805,0.000
1709205965.735,-45.898,-40.039,-40.039,-56.152,0.000
1709205965.739,-46.875,-37.109,-41.016,-53.711,0.000
1709205965.743,-41.992,-38.574,-41.016,-46.387,0.000
1709205965.747,-37.598,-40.039,-37.109,-39.551,0.000
1709205965.750,-42.969,-44.434,-36.133,-32.227,0.000
1709205965.754,-41.992,-56.641,-41.992,-28.320,0.000
1709205965.758,-35.645,-60.547,-37.109,-27.832,0.000
1709205965.762,-25.391,-48.340,-32.227,-25.879,0.000
1709205965.766,-32.227,-35.156,-29.297,-37.109,0.000
1709205965.770,-41.504,-43.945,-26.855,-41.992,0.000
1709205965.774,-45.410,-48.828,-29.785,-37.598,0.000
1709205965.778,-50.781,-46.387,-33.203,-38.574,0.000
1709205965.782,-42.969,-45.410,-37.598,-41.504,0.000
1709205965.786,-33.203,-51.758,-40.527,-42.480,0.000
1709205965.789,-32.715,-51.758,-37.598,-43.945,0.000
1709205965.793,-37.598,-53.223,-37.598,-41.504,0.000
1709205965.797,-41.504,-54.199,-41.016,-38.086,0.000
1709205965.801,-36.133,-55.664,-40.527,-33.203,0.000
1709205965.805,-30.762,-53.223,-41.504,-39.062,0.000
1709205965.809,-37.109,-38.574,-47.363,-50.293,0.000
1709205965.813,-42.969,-32.715,-45.410,-47.363,0.000
1709205965.817,-38.574,-40.039,-38.574,-36.133,0.000
1709205965.821,-33.203,-41.016,-33.203,-28.809,0.000
1709205965.824,-28.809,-29.785,-30.762,-33.691,0.000
1709205965.829,-17.578,-31.250,-24.902,-37.109,0.000
1709205965.832,-17.578,-35.156,-24.414,-39.551,0.000
1709205965.836,-27.832,-37.598,-31.250,-33.203,0.000
1709205965.840,-29.785,-33.203,-34.668,-30.762,0.000
1709205965.844,-24.414,-31.250,-36.133,-25.391,0.000
1709205965.848,-18.066,-40.527,-30.762,-6.348,0.000
1709205965.852,-20.508,-43.945,-26.855,-5.371,0.000
1709205965.856,-22.461,-39.062,-28.809,-11.719,0.000
1709205965.860,-19.531,-41.016,-31.250,-12.695,0.000
1709205965.863,-19.531,-53.711,-28.320,-19.043,0.000
1709205965.867,-18.066,-46.387,-28.809,-29.785,0.000
1709205965.871,-28.320,-38.574,-33.691,-31.250,0.000
1709205965.875,-44.922,-51.758,-35.645,-37.109,0.000
1709205965.879,-45.410,-52.246,-38.086,-48.340,0.000
1709205965.883,-40.039,-44.922,-41.992,-52.246,0.000
1709205965.887,-41.992,-41.016,-44.922,-57.129,0.000
1709205965.891,-43.457,-36.133,-41.504,-54.688,0.000
1709205965.895,-46.875,-39.062,-39.551,-51.758,0.000
1709205965.899,-41.016,-34.668,-40.527,-51.270,0.000
1709205965.903,-41.016,-31.738,-40.527,-47.852,0.000
1709205965.907,-47.363,-45.410,-40.039,-40.039,0.000
1709205965.910,-47.363,-49.316,-41.016,-33.203,0.000
1709205965.914,-49.316,-33.203,-41.016,-45.410,0.000
1709205965.918,-53.711,-31.738,-39.062,-56.641,0.000
1709205965.922,-53.711,-35.645,-38.086,-55.176,0.000
1709205965.926,-57.129,-35.156,-34.668,-62.012,0.000
1709205965.930,-57.129,-32.227,-36.133,-62.500,0.000
1709205965.934,-55.664,-27.832,-31.250,-46.875,0.000
1709205965.938,-60.547,-31.738,-30.762,-38.574,0.000
1709205965.942,-53.223,-40.039,-36.133,-40.527,0.000
1709205965.946,-42.480,-41.992,-36.133,-41.992,0.000
1709205965.950,-42.969,-40.527,-34.668,-42.969,0.000
1709205965.953,-43.457,-47.852,-34.180,-27.832,0.000
1709205965.957,-37.598,-38.574,-34.668,-16.602,0.000
1709205965.961,-27.344,-21.973,-37.109,-21.973,0.000
1709205965.965,-24.902,-28.809,-36.621,-27.344,0.000
1709205965.969,0.000,-27.832,0.000,0.000,0.000
1709205965.973,0.000,-24.902,0.000,0.000,0.000
1709205965.977,0.000,-35.156,0.000,0.000,0.000
1709205965.981,0.000,-40.527,0.000,0.000,0.000
1709205965.985,0.000,-43.945,0.000,0.000,0.000
1709205965.989,0.000,-45.898,0.000,0.000,0.000
1709205965.993,0.000,-38.574,0.000,0.000,0.000
1709205965.997,0.000,-41.016,0.000,0.000,0.000
1709205966.000,0.000,-44.434,0.000,0.000,0.000
1709205966.004,0.000,-25.879,0.000,0.000,0.000
1709205966.008,0.000,-25.391,0.000,0.000,0.000
1709205966.012,0.000,-41.992,0.000,0.000,0.000
1709205966.016,-43.457,-44.434,-31.738,-44.922,0.000
1709205966.020,-44.434,-40.527,-34.180,-52.734,0.000
1709205966.024,-36.621,-41.504,-35.156,-58.105,0.000
1709205966.028,-46.875,-44.434,-39.062,-66.895,0.000
1709205966.032,-56.641,-47.363,-42.480,-67.871,0.000
1709205966.036,-55.176,-54.199,-43.457,-62.988,0.000
1709205966.040,-42.480,-50.781,-43.945,-55.176,0.000
1709205966.043,-33.691,-52.246,-41.992,-47.363,0.000
1709205966.047,-38.086,-44.922,-37.109,-44.434,0.000
1709205966.051,-42.969,-28.809,-38.086,-43.457,0.000
1709205966.055,-50.781,-42.480,-41.016,-41.992,0.000
1709205966.059,-43.945,-45.898,-36.133,-40.527,0.000
1709205966.063,-37.598,-35.156,-36.133,-51.758,0.000
1709205966.067,-42.480,-38.574,-40.039,-59.082,0.000
1709205966.071,-40.527,-46.875,-39.551,-46.875,0.000
1709205966.075,-39.062,-45.898,-41.504,-45.898,0.000
1709205966.079,-33.691,-43.457,-44.434,-51.758,0.000
1709205966.083,-16.602,-53.223,-39.062,-40.527,0.000
1709205966.086,-20.020,-57.617,-35.645,-33.691,0.000
1709205966.090,-37.109,-51.758,-32.227,-24.902,0.000
1709205966.094,-39.551,-35.156,-34.668,-21.973,0.000
1709205966.098,-31.250,-34.180,-33.691,-21.484,0.000
1709205966.102,-22.949,-46.387,-31.738,-17.090,0.000
1709205966.106,-27.832,-43.945,-35.156,-28.320,0.000
1709205966.110,-31.250,-32.715,-30.273,-41.504,0.000
1709205966.114,-36.621,-41.016,-28.320,-38.086,0.000
1709205966.118,-41.504,-48.340,-38.574,-33.691,0.000
1709205966.122,-31.250,-32.715,-38.574,-33.203,0.000
1709205966.125,-23.926,-24.414,-35.645,-30.762,0.000
1709205966.129,-32.715,-32.227,-41.992,-41.992,0.000
1709205966.133,-45.410,-46.387,-44.922,-42.480,0.000
1709205966.137,-45.898,-41.992,-43.457,-35.645,0.000
1709205966.141,-41.992,-26.367,-46.387,-46.875,0.000
1709205966.145,-44.922,-38.086,-48.340,-50.293,0.000
1709205966.149,-46.387,-46.387,-45.410,-45.898,0.000
1709205966.153,-42.969,-37.109,-43.457,-41.016,0.000
1709205966.157,-45.898,-30.762,-40.039,-32.227,0.000
1709205966.161,-44.434,-37.598,-43.945,-32.715,0.000
1709205966.165,-34.668,-49.316,-50.293,-47.852,0.000
1709205966.168,-40.527,-46.875,-50.293,-59.082,0.000
1709205966.172,-48.828,-42.480,-42.969,-54.688,0.000
1709205966.176,-49.805,-51.270,-38.086,-46.875,0.000
1709205966.180,-41.504,-51.758,-40.039,-30.762,0.000
1709205966.184,-38.086,-35.156,-44.434,-31.250,0.000
1709205966.188,-39.062,-36.133,-39.551,-38.086,0.000
1709205966.192,-39.551,-44.922,-33.203,-38.574,0.000
1709205966.196,-46.387,-44.434,-35.645,-38.086,0.000
1709205966.200,-44.434,-41.016,-41.016,-38.086,0.000
1709205966.204,-47.852,-41.504,-41.504,-42.969,0.000
1709205966.207,-50.781,-49.316,-41.992,-47.363,0.000
1709205966.211,-51.758,-50.293,-42.969,-51.758,0.000
1709205966.215,-52.734,-40.039,-40.039,-50.293,0.000
1709205966.219,-40.527,-39.551,-38.574,-42.480,0.000
1709205966.223,-34.668,-49.805,-39.062,-33.691,0.000
1709205966.227,-42.969,-47.363,-40.039,-35.156,0.000
1709205966.231,-47.852,-40.527,-43.457,-44.922,0.000
1709205966.235,-46.387,-42.969,-43.457,-51.758,0.000
1709205966.239,-36.621,-41.504,-41.992,-42.969,0.000
1709205966.242,-34.668,-38.086,-46.387,-33.691,0.000
1709205966.246,-37.109,-37.109,-49.316,-34.668,0.000
1709205966.250,-30.762,-40.039,-45.410,-39.062,0.000
1709205966.254,-25.391,-38.086,-43.457,-49.316,0.000
1709205966.258,-22.949,-36.133,-44.922,-49.805,0.000
1709205966.262,-21.484,-41.016,-47.363,-43.945,0.000
1709205966.266,-21.484,-46.387,-43.945,-40.527,0.000
1709205966.270,-32.227,-55.664,-41.016,-44.922,0.000
1709205966.274,-41.016,-49.805,-41.016,-48.828,0.000
1709205966.278,-36.133,-42.969,-41.016,-46.875,0.000
1709205966.282,-31.250,-50.781,-38.574,-51.758,0.000
1709205966.285,-37.109,-54.199,-37.598,-53.223,0.000
1709205966.289,-47.852,-44.922,-39.551,-58.105,0.000
1709205966.293,-47.363,-41.504,-39.062,-51.270,0.000
1709205966.297,-41.992,-44.434,-36.133,-37.109,0.000
1709205966.301,-38.086,-41.992,-35.645,-39.062,0.000
1709205966.305,-33.203,-41.992,-37.598,-39.551,0.000
1709205966.309,-31.738,-42.969,-37.109,-35.645,0.000
1709205966.313,-38.086,-41.016,-35.645,-28.320,0.000
1709205966.317,-41.504,-42.480,-32.715,-25.391,0.000
1709205966.321,-41.992,-45.410,-33.203,-35.156,0.000
1709205966.325,-40.527,-48.340,-32.715,-35.156,0.000
1709205966.328,-42.969,-57.617,-29.297,-20.508,0.000
1709205966.332,-43.457,-50.781,-27.832,-11.719,0.000
1709205966.336,-40.039,-37.598,-29.297,-16.113,0.000
1709205966.340,-35.645,-43.457,-28.320,-17.578,0.000
1709205966.344,-26.855,-43.945,-32.227,-27.344,0.000
1709205966.348,-31.738,-38.086,-32.715,-40.039,0.000
1709205966.352,-47.852,-39.062,-29.297,-42.969,0.000
1709205966.356,-53.223,-47.363,-36.133,-42.480,0.000
1709205966.360,-44.434,-44.922,-40.039,-43.945,0.000
1709205966.364,-35.645,-38.574,-33.203,-36.621,0.000
1709205966.368,-35.645,-32.715,-33.203,-36.133,0.000
1709205966.371,-44.922,-37.109,-41.016,-46.875,0.000
1709205966.375,-48.340,-44.434,-42.969,-41.992,0.000
1709205966.379,-42.969,-29.297,-43.457,-43.945,0.000
1709205966.383,-39.062,-30.762,-47.852,-49.805,0.000
1709205966.387,-35.645,-43.945,-50.781,-48.340,0.000
1709205966.391,-40.039,-42.480,-48.340,-54.688,0.000
1709205966.395,-37.598,-31.250,-40.527,-39.551,0.000
1709205966.399,-27.344,-32.715,-40.527,-32.715,0.000
1709205966.403,-19.043,-36.621,-42.480,-33.691,0.000
1709205966.407,-19.043,-31.250,-41.504,-24.414,0.000
1709205966.411,-32.227,-43.945,-48.828,-28.809,0.000
1709205966.414,-35.645,-54.688,-48.340,-36.133,0.000
1709205966.418,-34.180,-59.082,-39.551,-23.438,0.000
1709205966.422,-34.668,-52.734,-38.574,-20.996,0.000
1709205966.426,-30.762,-39.551,-39.062,-28.320,0.000
1709205966.430,-32.227,-48.828,-35.156,-21.973,0.000
1709205966.434,-39.551,-52.734,-31.738,-23.926,0.000
1709205966.438,-35.156,-41.504,-30.762,-18.066,0.000
1709205966.442,-33.691,-35.645,-33.691,-24.414,0.000
1709205966.446,-32.715,-48.340,-34.668,-34.668,0.000
1709205966.450,-34.180,-51.758,-32.227,-31.738,0.000
1709205966.454,-45.898,-45.410,-34.668,-29.297,0.000
1709205966.457,-46.875,-48.340,-35.645,-24.902,0.000
1709205966.461,-41.504,-52.246,-32.715,-26.855,0.000
1709205966.465,-41.016,-52.734,-28.809,-21.484,0.000
1709205966.469,-44.922,-38.574,-31.738,-24.902,0.000
1709205966.473,-61.523,-36.133,-37.109,-28.320,0.000
1709205966.477,-64.453,-41.016,-35.645,-31.250,0.000
1709205966.481,-47.363,-43.457,-37.109,-39.062,0.000
1709205966.485,-43.945,-41.504,-45.410,-45.410,0.000
1709205966.489,-45.898,-40.527,-46.875,-46.875,0.000
1709205966.493,-48.828,-48.828,-42.480,-44.434,0.000
1709205966.497,-45.898,-43.945,-41.992,-43.457,0.000
1709205966.500,-35.645,-33.203,-46.875,-41.504,0.000
1709205966.504,-30.762,-36.621,-46.387,-40.527,0.000
1709205966.508,-35.645,-51.270,-46.387,-37.598,0.000
1709205966.512,-39.062,-50.293,-49.316,-40.527,0.000
1709205966.516,-41.992,-38.574,-46.875,-52.734,0.000
1709205966.520,-47.852,-46.875,-46.875,-50.293,0.000
1709205966.524,-49.805,-48.340,-48.828,-52.246,0.000
1709205966.528,-51.758,-38.574,-50.781,-56.152,0.000
1709205966.532,-49.805,-34.180,-49.316,-56.641,0.000
1709205966.536,-49.805,-42.480,-53.223,-62.988,0.000
1709205966.539,-54.199,-46.875,-56.152,-62.500,0.000
1709205966.543,-53.711,-41.016,-52.734,-55.176,0.000
1709205966.547,-51.758,-44.434,-51.270,-58.105,0.000
1709205966.551,-60.059,-51.270,-51.270,-61.523,0.000
1709205966.555,-60.059,-55.664,-52.734,-46.875,0.000
1709205966.559,-47.852,-43.945,-51.758,-40.527,0.000
1709205966.563,-44.922,-41.016,-44.922,-43.457,0.000
1709205966.567,-46.875,-51.758,-39.551,-34.180,0.000
1709205966.571,-48.340,-55.176,-36.133,-31.738,0.000
1709205966.574,-48.340,-49.805,-34.668,-40.039,0.000
1709205966.578,-39.062,-46.875,-32.227,-36.133,0.000
1709205966.582,-34.180,-45.898,-25.879,-37.109,0.000
1709205966.586,-32.715,-36.621,-22.949,-46.387,0.000
1709205966.590,-29.785,-31.738,-29.785,-41.504,0.000
1709205966.594,-36.133,-39.551,-35.645,-37.598,0.000
1709205966.598,-33.203,-44.922,-32.227,-27.832,0.000
1709205966.602,-19.043,-35.156,-35.156,-18.555,0.000
1709205966.606,-23.926,-31.250,-37.109,-28.320,0.000
1709205966.610,-38.086,-34.180,-36.621,-42.969,0.000
1709205966.613,-38.574,-40.039,-34.668,-34.180,0.000
1709205966.617,-35.645,-35.156,-30.762,-31.738,0.000
1709205966.621,-36.621,-28.809,-35.156,-42.969,0.000
1709205966.625,-37.109,-36.133,-36.621,-41.504,0.000
1709205966.629,-41.504,-38.086,-35.645,-40.039,0.000
1709205966.633,-50.293,-33.203,-35.156,-43.945,0.000
1709205966.637,-48.828,-35.645,-37.598,-62.500,0.000
1709205966.641,-40.039,-41.992,-41.504,-76.172,0.000
1709205966.645,-40.527,-43.945,-37.598,-70.312,0.000
1709205966.649,-48.828,-35.645,-34.668,-58.594,0.000
1709205966.653,-55.664,-30.762,-39.062,-58.105,0.000
1709205966.657,-62.012,-45.410,-40.527,-60.059,0.000
1709205966.660,-58.105,-53.223,-40.039,-56.641,0.000
1709205966.664,-58.594,-39.062,-43.457,-66.406,0.000
1709205966.668,-65.430,-42.969,-49.316,-71.777,0.000
1709205966.672,-65.918,-55.664,-48.828,-66.895,0.000
1709205966.676,-62.012,-48.340,-42.969,-49.316,0.000
1709205966.680,-54.688,-39.551,-38.086,-40.039,0.000
1709205966.684,-48.828,-48.340,-36.621,-36.133,0.000
1709205966.688,-46.387,-57.129,-37.598,-35.156,0.000
1709205966.692,-43.945,-56.641,-36.133,-44.434,0.000
1709205966.696,-43.457,-53.711,-36.133,-40.527,0.000
1709205966.700,-33.203,-49.316,-37.598,-36.621,0.000
1709205966.703,-27.832,-61.523,-42.480,-31.738,0.000
1709205966.707,-32.227,-55.664,-45.410,-29.785,0.000
1709205966.711,-36.621,-35.645,-44.922,-36.621,0.000
1709205966.715,-44.434,-40.039,-44.434,-30.762,0.000
1709205966.719,-44.434,-40.527,-41.016,-34.180,0.000
1709205966.723,-36.133,-37.109,-40.527,-48.340,0.000
1709205966.727,-36.133,-35.645,-42.480,-53.711,0.000
1709205966.731,-49.316,-44.922,-47.852,-49.805,0.000
1709205966.735,-42.969,-53.223,-49.805,-41.992,0.000
1709205966.739,-37.598,-53.711,-45.410,-37.598,0.000
1709205966.743,-41.016,-44.922,-41.504,-41.504,0.000
1709205966.747,-32.227,-40.527,-40.039,-51.758,0.000
1709205966.750,-40.527,-42.480,-36.621,-50.293,0.000
1709205966.754,-47.363,-32.227,-41.504,-51.270,0.000
1709205966.758,-42.480,-32.227,-44.434,-49.805,0.000
1709205966.762,-39.062,-39.551,-43.457,-42.969,0.000
1709205966.766,-34.180,-37.109,-39.062,-46.875,0.000
1709205966.770,-40.039,-34.668,-39.551,-50.293,0.000
1709205966.774,-45.898,-35.645,-45.898,-47.363,0.000
1709205966.778,-49.316,-35.645,-45.898,-39.551,0.000
1709205966.782,-43.457,-35.645,-46.875,-41.504,0.000
1709205966.786,-33.203,-34.180,-45.410,-50.781,0.000
1709205966.789,-43.945,-38.086,-45.410,-52.246,0.000
1709205966.793,-44.922,-45.410,-40.527,-34.180,0.000
1709205966.797,-41.504,-40.527,-38.086,-22.949,0.000
1709205966.801,-44.922,-37.598,-51.270,-39.062,0.000
1709205966.805,-37.109,-41.992,-55.664,-40.527,0.000
1709205966.809,-42.480,-35.156,-42.480,-27.344,0.000
1709205966.813,-42.480,-30.762,-40.527,-28.809,0.000
1709205966.817,-37.109,-37.598,-44.922,-34.180,0.000
1709205966.821,-31.738,-46.875,-41.016,-32.227,0.000
1709205966.825,-22.949,-45.898,-39.551,-30.273,0.000
1709205966.829,-19.043,-39.062,-38.574,-35.156,0.000
1709205966.832,-19.531,-43.457,-37.598,-33.691,0.000
1709205966.836,-20.508,-45.898,-35.645,-23.438,0.000
1709205966.840,-15.625,-43.457,-35.156,-20.508,0.000
1709205966.844,-15.137,-23.926,-35.645,-27.832,0.000
1709205966.848,-21.484,-20.020,-35.645,-38.086,0.000
1709205966.852,-34.668,-42.480,-32.715,-43.457,0.000
1709205966.856,-47.852,-51.270,-31.250,-50.781,0.000
1709205966.860,-48.828,-42.480,-32.715,-55.176,0.000
1709205966.864,-40.527,-35.156,-32.715,-49.805,0.000
1709205966.868,-40.039,-41.504,-31.250,-37.598,0.000
1709205966.872,-51.270,-40.039,-30.273,-35.156,0.000
1709205966.875,-58.105,-33.691,-32.227,-42.969,0.000
1709205966.879,-51.758,-36.133,-35.645,-44.922,0.000
1709205966.883,-49.316,-45.898,-32.715,-34.668,0.000
1709205966.887,-54.199,-44.434,-28.320,-35.645,0.000
1709205966.891,-54.688,-26.367,-31.250,-39.062,0.000
1709205966.895,-59.082,-34.668,-39.062,-32.715,0.000
1709205966.899,-50.781,-38.574,-39.062,-33.691,0.000
1709205966.903,-37.598,-29.785,-32.227,-28.320,0.000
1709205966.907,-25.391,-30.762,-28.809,-29.785,0.000
1709205966.911,-21.973,-39.551,-29.297,-37.598,0.000
1709205966.915,-36.621,-42.480,-28.809,-33.691,0.000
1709205966.918,-36.133,-30.273,-31.250,-25.879,0.000
1709205966.922,-27.344,-27.832,-31.738,-24.414,0.000
1709205966.926,-28.320,-41.992,-28.809,-31.250,0.000
1709205966.930,-34.180,-54.199,-30.273,-34.180,0.000
1709205966.934,-46.387,-45.898,-31.738,-36.133,0.000
1709205966.938,-51.758,-38.086,-33.203,-34.180,0.000
1709205966.942,-47.852,-42.480,-36.621,-36.621,0.000
1709205966.946,-46.875,-42.969,-41.016,-45.898,0.000
1709205966.950,-49.805,-39.551,-39.551,-46.875,0.000
1709205966.954,-53.711,-43.457,-34.668,-44.434,0.000
1709205966.958,-53.223,-44.922,-34.180,-35.645,0.000
1709205966.961,-53.223,-42.969,-40.039,-44.922,0.000
1709205966.965,-54.199,-43.945,-41.992,-59.082,0.000
1709205966.969,-52.246,-51.270,-41.992,-52.246,0.000
1709205966.973,-55.176,-54.199,-43.457,-49.316,0.000
1709205966.977,-52.734,-48.340,-37.109,-41.992,0.000
1709205966.981,-46.387,-44.922,-36.133,-33.691,0.000
1709205966.985,-41.504,-39.062,-39.062,-33.203,0.000
1709205966.989,-36.133,-46.875,-38.086,-31.738,0.000
1709205966.993,-33.203,-39.062,-37.109,-36.133,0.000
1709205966.996,-33.203,-20.020,-37.598,-41.504,0.000
1709205967.001,-28.809,-32.227,-39.062,-33.203,0.000
1709205967.004,-23.926,-39.062,-40.527,-31.250,0.000
1709205967.008,-20.020,-32.227,-40.039,-31.250,0.000
1709205967.012,-22.461,-32.227,-37.109,-28.320,0.000
1709205967.016,-36.133,-39.062,-37.598,-34.180,0.000
1709205967.020,-41.992,-45.898,-41.016,-48.828,0.000
1709205967.024,-31.738,-39.551,-40.039,-59.570,0.000
1709205967.028,-26.855,-34.180,-35.645,-56.641,0.000
1709205967.032,-29.785,-45.898,-36.133,-47.363,0.000
1709205967.036,-36.621,-51.758,-41.504,-30.273,0.000
1709205967.039,-38.086,-34.668,-36.621,-32.227,0.000
1709205967.043,-34.180,-38.086,-34.180,-41.992,0.000
1709205967.047,-31.738,-54.688,-38.086,-38.086,0.000
1709205967.051,-36.133,-53.223,-39.551,-45.898,0.000
1709205967.055,-37.109,-44.922,-38.574,-48.828,0.000
1709205967.059,-33.203,-48.340,-37.598,-41.016,0.000
1709205967.063,-35.156,-56.152,-40.039,-43.457,0.000
1709205967.067,-39.062,-50.781,-43.945,-46.387,0.000
1709205967.071,-44.922,-45.898,-45.410,-51.758,0.000
1709205967.075,-47.363,-50.293,-47.363,-56.152,0.000
1709205967.079,-38.086,-57.129,-44.434,-35.156,0.000
1709205967.082,-28.320,-55.176,-49.316,-29.297,0.000
1709205967.086,-26.855,-43.945,-50.293,-54.688,0.000
1709205967.090,-33.691,-45.898,-46.875,-54.688,0.000
1709205967.094,-37.109,-48.828,-50.781,-41.016,0.000
1709205967.098,-32.227,-41.504,-50.781,-42.969,0.000
1709205967.102,-27.832,-45.410,-46.387,-40.039,0.000
1709205967.106,-28.320,-49.316,-43.457,-36.621,0.000
1709205967.110,-25.879,-43.457,-36.621,-41.504,0.000
1709205967.114,-34.180,-47.852,-37.109,-46.875,0.000
1709205967.118,-43.457,-46.387,-42.480,-57.129,0.000
1709205967.122,-29.297,-45.410,-39.551,-57.129,0.000
1709205967.125,-28.320,-55.176,-38.086,-43.945,0.000
1709205967.129,-38.574,-39.551,-39.551,-49.316,0.000
1709205967.133,-43.945,-36.133,-41.016,-46.387,0.000
1709205967.137,-38.574,-44.922,-39.551,-37.109,0.000
1709205967.141,-32.227,-42.969,-34.180,-43.945,0.000
1709205967.145,-37.598,-40.039,-34.668,-48.828,0.000
1709205967.149,-52.734,-42.480,-41.992,-50.781,0.000
1709205967.153,-53.711,-49.805,-40.527,-41.016,0.000
1709205967.157,-45.410,-51.758,-37.598,-31.250,0.000
1709205967.161,-49.805,-52.246,-42.969,-34.668,0.000
1709205967.165,-55.176,-48.828,-47.363,-47.852,0.000
1709205967.168,-46.387,-54.688,-39.062,-34.668,0.000
1709205967.172,-47.852,-55.176,-38.086,-22.949,0.000
1709205967.176,-52.246,-37.598,-41.016,-37.109,0.000
1709205967.180,-38.086,-36.133,-40.527,-41.016,0.000
1709205967.184,-40.039,-45.898,-45.410,-47.852,0.000
1709205967.188,-53.223,-47.852,-47.852,-59.570,0.000
1709205967.192,-64.453,-44.922,-44.922,-59.082,0.000
1709205967.196,-63.965,-47.852,-44.434,-50.781,0.000
1709205967.200,-57.617,-49.805,-39.062,-50.293,0.000
1709205967.204,-51.270,-48.340,-29.297,-53.711,0.000
1709205967.208,-50.293,-54.688,-29.785,-50.781,0.000
1709205967.211,-60.059,-61.523,-34.668,-47.363,0.000
1709205967.215,-59.082,-52.246,-28.320,-26.855,0.000
1709205967.219,-49.316,-32.715,-25.879,-20.996,0.000
1709205967.223,-47.363,-39.062,-31.738,-36.133,0.000
1709205967.227,-48.340,-51.270,-29.785,-36.133,0.000
1709205967.231,-44.434,-51.270,-31.738,-41.992,0.000
1709205967.235,-38.574,-45.898,-31.738,-43.945,0.000
1709205967.239,-47.852,-52.246,-36.133,-44.434,0.000
1709205967.243,-49.316,-59.570,-39.062,-46.875,0.000
1709205967.247,-43.945,-55.176,-40.039,-47.363,0.000
1709205967.250,-42.969,-47.852,-37.109,-43.457,0.000
1709205967.254,-46.387,-44.434,-35.645,-40.527,0.000
1709205967.258,-43.457,-52.246,-39.062,-26.367,0.000
1709205967.262,-38.086,-50.781,-39.551,-23.438,0.000
1709205967.266,-40.039,-32.715,-41.992,-41.504,0.000
1709205967.270,-43.945,-41.504,-39.062,-42.480,0.000
1709205967.274,-46.387,-52.246,-38.574,-43.457,0.000
1709205967.278,-49.316,-43.945,-42.969,-50.293,0.000
1709205967.282,-44.922,-36.133,-47.852,-56.641,0.000
1709205967.286,-37.109,-36.621,-46.875,-49.316,0.000
1709205967.290,-45.410,-38.574,-39.551,-45.898,0.000
1709205967.293,-54.199,-40.039,-42.480,-54.199,0.000
1709205967.297,-50.293,-38.574,-45.898,-53.223,0.000
1709205967.301,-44.922,-46.387,-42.969,-56.152,0.000
1709205967.305,-49.805,-61.035,-39.062,-55.176,0.000
1709205967.309,-58.594,-46.387,-36.133,-57.617,0.000
1709205967.313,-59.570,-38.574,-37.109,-58.105,0.000
1709205967.317,-51.270,-46.387,-33.691,-46.875,0.000
1709205967.321,-42.969,-39.062,-31.250,-45.898,0.000
1709205967.325,-46.387,-33.203,-35.156,-44.922,0.000
1709205967.329,-56.152,-35.645,-32.715,-48.340,0.000
1709205967.332,-54.199,-42.480,-32.715,-51.270,0.000
1709205967.336,-44.434,-39.551,-35.645,-41.016,0.000
1709205967.340,-38.574,-34.668,-39.062,-32.227,0.000
1709205967.344,-31.250,-38.086,-36.621,-26.855,0.000
1709205967.348,-29.785,-43.457,-34.180,-34.668,0.000
1709205967.352,-35.156,-39.062,-35.645,-47.363,0.000
1709205967.356,-37.109,-34.668,-41.016,-52.734,0.000
1709205967.360,-32.715,-41.016,-42.969,-47.852,0.000
1709205967.364,-24.414,-50.293,-41.504,-38.086,0.000
1709205967.367,-24.414,-42.969,-42.480,-40.527,0.000
1709205967.371,-28.320,-36.621,-39.551,-39.551,0.000
1709205967.375,-26.855,-47.852,-46.875,-36.621,0.000
1709205967.379,-26.855,-41.504,-49.805,-42.480,0.000
1709205967.383,-26.855,-39.551,-44.434,-46.387,0.000
1709205967.387,-31.738,-45.410,-43.945,-58.594,0.000
1709205967.391,-36.133,-46.875,-45.898,-69.336,0.000
1709205967.395,-38.574,-49.316,-46.387,-68.359,0.000
1709205967.399,-43.945,-38.086,-47.363,-68.359,0.000
1709205967.403,-41.504,-33.203,-47.852,-61.523,0.000
1709205967.407,-44.922,-47.852,-47.363,-56.152,0.000
1709205967.411,-52.246,-52.246,-49.805,-59.570,0.000
1709205967.414,-55.176,-38.086,-52.246,-59.082,0.000
1709205967.418,-52.246,-40.527,-47.852,-53.711,0.000
1709205967.422,-45.898,-50.781,-46.387,-61.523,0.000
1709205967.426,-46.875,-48.828,-47.363,-76.660,0.000
1709205967.430,-55.176,-49.316,-41.992,-66.406,0.000
1709205967.434,-56.152,-49.316,-35.645,-56.152,0.000
1709205967.438,-47.363,-51.270,-30.762,-51.758,0.000
1709205967.442,-39.551,-52.246,-34.668,-43.457,0.000
1709205967.446,-41.016,-46.875,-34.668,-35.645,0.000
1709205967.450,-50.781,-43.945,-32.227,-37.598,0.000
1709205967.454,-46.387,-49.805,-34.668,-29.785,0.000
1709205967.457,-34.668,-42.969,-34.180,-22.461,0.000
1709205967.461,-33.691,-24.414,-38.086,-26.855,0.000
1709205967.465,-31.250,-32.227,-33.691,-23.438,0.000
1709205967.469,-31.250,-37.109,-30.273,-20.996,0.000
1709205967.473,-37.598,-35.156,-36.133,-18.555,0.000
1709205967.477,-29.785,-45.898,-41.016,-16.602,0.000
1709205967.481,-16.113,-51.270,-46.387,-16.602,0.000
1709205967.485,-13.672,-39.551,-46.875,-26.855,0.000
1709205967.489,-18.555,-35.156,-43.457,-43.457,0.000
1709205967.493,-29.297,-41.504,-44.922,-52.734,0.000
1709205967.497,-29.297,-46.387,-45.410,-44.434,0.000
1709205967.500,-25.391,-42.969,-41.992,-20.020,0.000
1709205967.504,-20.996,-28.809,-48.828,-26.367,0.000
1709205967.508,-8.789,-27.344,-51.270,-31.250,0.000
1709205967.512,-18.066,-42.480,-49.805,-25.391,0.000
1709205967.516,-25.391,-37.109,-55.176,-31.738,0.000
1709205967.520,-20.996,-23.926,-54.199,-35.156,0.000
1709205967.524,-20.996,-25.391,-51.758,-37.598,0.000
1709205967.528,-24.902,-30.273,-46.875,-40.527,0.000
1709205967.532,-41.992,-34.668,-41.504,-48.340,0.000
1709205967.536,-49.805,-39.062,-38.574,-50.293,0.000
1709205967.540,-41.992,-37.598,-40.527,-62.012,0.000
1709205967.543,-37.109,-36.621,-38.086,-63.477,0.000
1709205967.547,-38.086,-32.715,-33.203,-53.711,0.000
1709205967.551,-42.969,-24.902,-32.715,-60.547,0.000
1709205967.555,-39.062,-38.086,-30.273,-53.223,0.000
1709205967.559,-36.133,-41.504,-31.738,-39.062,0.000
1709205967.563,-38.086,-36.133,-28.809,-34.668,0.000
1709205967.567,-39.551,-38.574,-22.949,-33.691,0.000
1709205967.571,-44.922,-46.875,-18.555,-29.785,0.000
1709205967.575,-48.340,-47.852,-19.043,-29.785,0.000
1709205967.579,-43.457,-41.992,-19.531,-26.855,0.000
1709205967.582,-39.551,-41.992,-19.043,-21.973,0.000
1709205967.586,-36.133,-44.434,-20.996,-9.277,0.000
1709205967.590,-32.715,-47.852,-18.066,-7.324,0.000
1709205967.594,-37.598,-37.109,-15.137,-22.461,0.000
1709205967.598,-31.738,-28.320,-21.973,-25.879,0.000
1709205967.602,-32.227,-39.062,-32.227,-28.809,0.000
1709205967.606,-37.109,-35.645,-33.203,-28.809,0.000
1709205967.610,0.000,-32.715,-32.227,-26.367,0.000
1709205967.614,0.000,-43.457,-40.039,-27.344,0.000
1709205967.618,0.000,-46.875,-42.969,-32.715,0.000
1709205967.622,0.000,-43.457,-44.922,-32.715,0.000
1709205967.625,0.000,-35.645,-47.363,-25.391,0.000
1709205967.629,0.000,-36.133,-44.922,-34.180,0.000
1709205967.633,0.000,-54.688,-46.875,-35.156,0.000
1709205967.637,0.000,-54.199,-47.363,-32.227,0.000
1709205967.641,0.000,-39.062,-45.898,-54.688,0.000
1709205967.645,0.000,-48.828,-43.457,-59.082,0.000
1709205967.649,0.000,-48.828,-40.039,-50.781,0.000
1709205967.653,0.000,-38.086,-40.039,-49.805,0.000
1709205967.657,-43.945,-38.086,-37.598,-47.363,0.000
1709205967.661,-48.340,-43.457,-36.133,-51.758,0.000
1709205967.664,-49.316,-44.922,-39.062,-67.383,0.000
1709205967.668,-57.129,-42.480,-34.180,-65.430,0.000
1709205967.672,-65.430,-48.340,-29.297,-59.570,0.000
1709205967.676,-65.918,-60.059,-31.250,-56.152,0.000
1709205967.680,-58.105,-62.500,-27.832,-43.945,0.000
1709205967.684,-51.758,-46.875,-26.855,-37.598,0.000
1709205967.688,-42.969,-34.668,-27.344,-47.852,0.000
1709205967.692,-39.551,-47.363,-28.809,-54.688,0.000
1709205967.696,-40.039,-45.898,-28.809,-36.133,0.000
1709205967.700,-35.645,-32.227,-25.879,-21.973,0.000
1709205967.704,-26.855,-40.039,-29.297,-31.250,0.000
1709205967.707,-34.180,-47.852,-31.738,-33.203,0.000
1709205967.711,-38.086,-48.828,-36.133,-24.902,0.000
1709205967.715,-36.133,-51.270,-44.922,-22.949,0.000
1709205967.719,-28.320,-46.387,-44.434,-16.113,0.000
1709205967.723,-25.879,-54.688,-40.527,-0.977,0.000
1709205967.727,-30.273,-55.664,-41.504,-16.602,0.000
1709205967.731,-31.250,-39.551,-43.945,-38.086,0.000
1709205967.735,-35.156,-36.621,-43.945,-38.086,0.000
1709205967.739,-29.785,-40.527,-38.086,-30.273,0.000
1709205967.742,-27.832,-34.668,-38.574,-29.785,0.000
1709205967.746,-30.273,-28.809,-42.480,-37.109,0.000
1709205967.750,-41.016,-40.527,-44.922,-52.734,0.000
1709205967.754,-51.758,-45.410,-51.758,-64.941,0.000
1709205967.758,-46.387,-43.945,-51.270,-60.547,0.000
1709205967.762,-43.945,-42.480,-47.852,-56.152,0.000
1709205967.766,-49.316,-45.410,-49.805,-59.082,0.000
1709205967.770,-56.152,-55.664,-55.664,-62.012,0.000
1709205967.774,-62.500,-52.734,-47.363,-58.594,0.000
1709205967.778,-54.688,-41.016,-43.457,-61.035,0.000
1709205967.782,-46.387,-46.875,-44.922,-78.613,0.000
1709205967.785,-50.293,-55.664,-38.574,-82.031,0.000
1709205967.789,-52.734,-38.574,-37.109,-68.848,0.000
1709205967.793,-51.270,-37.598,-41.504,-60.059,0.000
1709205967.797,-56.152,-48.828,-41.504,-57.617,0.000
1709205967.801,-52.246,-43.945,-38.086,-57.129,0.000
1709205967.805,-44.434,-35.156,-37.598,-60.547,0.000
1709205967.809,-47.363,-38.086,-35.645,-54.199,0.000
1709205967.813,-51.270,-45.410,-35.156,-43.457,0.000
1709205967.817,-51.270,-48.340,-40.039,-41.016,0.000
1709205967.821,-43.945,-45.898,-41.016,-41.016,0.000
1709205967.825,-38.574,-45.410,-41.504,-44.434,0.000
1709205967.828,-39.062,-60.059,-45.410,-28.809,0.000
1709205967.832,-38.086,-57.129,-41.992,-13.672,0.000
1709205967.836,-31.250,-43.457,-38.086,-15.137,0.000
1709205967.840,-29.785,-48.828,-37.109,-7.324,0.000
1709205967.844,-34.668,-45.410,-35.645,-6.348,0.000
1709205967.848,-38.086,-42.969,-31.250,-13.672,0.000
1709205967.852,-40.039,-40.527,-35.645,-23.438,0.000
1709205967.856,-41.016,-37.109,-35.645,-31.738,0.000
1709205967.860,-44.434,-36.133,-34.668,-35.645,0.000
1709205967.864,-46.387,-40.527,-38.086,-38.086,0.000
1709205967.868,-51.758,-45.410,-42.969,-41.016,0.000
1709205967.871,-60.059,-53.711,-43.945,-49.805,0.000
1709205967.875,-58.105,-58.105,-42.480,-47.852,0.000
1709205967.879,-52.734,-39.551,-44.434,-43.945,0.000
1709205967.883,-48.340,-36.621,-48.828,-49.805,0.000
1709205967.887,-45.410,-46.387,-46.387,-45.898,0.000
1709205967.891,-47.852,-41.504,-42.480,-53.711,0.000
1709205967.895,-49.316,-38.086,-45.410,-60.547,0.000
1709205967.899,-39.062,-38.574,-43.457,-45.898,0.000
1709205967.903,-33.691,-42.480,-39.551,-44.434,0.000
1709205967.907,-32.227,-45.410,-44.434,-55.176,0.000
1709205967.911,-35.645,-46.875,-45.898,-56.152,0.000
1709205967.914,-54.199,-43.945,-45.898,-53.711,0.000
1709205967.918,-60.059,-44.434,-49.805,-51.270,0.000
1709205967.922,-52.246,-42.969,-45.410,-47.363,0.000
1709205967.926,-47.363,-28.320,-39.551,-59.570,0.000
1709205967.930,-58.594,-35.156,-40.527,-77.148,0.000
1709205967.934,-69.336,-45.410,-37.109,-75.195,0.000
1709205967.938,-62.012,-41.992,-33.691,-67.871,0.000
1709205967.942,-48.828,-38.574,-29.297,-66.895,0.000
1709205967.946,-42.480,-41.504,-28.809,-66.895,0.000
1709205967.950,-49.316,-41.504,-32.227,-62.012,0.000
1709205967.954,-52.734,-41.016,-37.598,-47.363,0.000
1709205967.957,-51.270,-50.781,-39.062,-40.039,0.000
1709205967.961,-43.945,-55.664,-33.203,-43.945,0.000
1709205967.965,-35.156,-53.711,-33.203,-31.738,0.000
1709205967.969,-34.668,-44.922,-36.133,-26.367,0.000
1709205967.973,-34.180,-37.598,-35.645,-32.227,0.000
1709205967.977,-23.438,-41.016,-34.180,-13.672,0.000
1709205967.981,-11.719,-39.551,-37.109,-5.371,0.000
1709205967.985,-9.277,-30.762,-41.016,-26.855,0.000
1709205967.989,-18.555,-38.574,-36.133,-35.645,0.000
1709205967.993,-28.320,-51.270,-34.180,-24.902,0.000
1709205967.997,-35.156,-48.828,-38.086,-23.438,0.000
1709205968.000,-28.320,-47.363,-36.621,-26.855,0.000
1709205968.004,-29.297,-45.410,-38.574,-37.109,0.000
1709205968.008,-38.574,-53.711,-42.969,-33.203,0.000
1709205968.012,-34.180,-48.340,-39.551,-25.879,0.000
1709205968.016,-34.180,-23.926,-36.133,-32.227,0.000
1709205968.020,-31.250,-25.879,-41.016,-28.320,0.000
1709205968.024,-24.414,-36.133,-41.504,-40.527,0.000
1709205968.028,-31.250,-35.156,-38.574,-54.688,0.000
1709205968.032,-36.133,-26.855,-36.621,-46.875,0.000
1709205968.036,-34.668,-28.809,-37.109,-35.156,0.000
1709205968.039,-27.832,-36.621,-38.574,-32.715,0.000
1709205968.043,-21.973,-36.621,-38.574,-47.363,0.000
1709205968.047,-30.273,-35.156,-41.504,-60.059,0.000
1709205968.051,-44.434,-43.945,-39.551,-54.199,0.000
1709205968.055,-41.016,-53.223,-36.621,-34.668,0.000
1709205968.059,-27.832,-41.504,-37.598,-32.715,0.000
1709205968.063,-32.715,-30.273,-38.574,-40.527,0.000
1709205968.067,-31.250,-34.180,-37.109,-40.039,0.000
1709205968.071,-31.738,-38.574,-38.086,-46.387,0.000
1709205968.074,-43.457,-37.109,-34.668,-42.969,0.000
1709205968.078,-39.062,-34.668,-30.273,-33.691,0.000
1709205968.082,-34.668,-41.016,-32.715,-45.898,0.000
1709205968.086,-34.668,-50.293,-35.645,-56.641,0.000
1709205968.090,-34.668,-49.805,-33.203,-47.363,0.000
1709205968.094,-40.039,-50.293,-39.551,-41.992,0.000
1709205968.098,-38.574,-56.641,-41.992,-36.133,0.000
1709205968.102,-28.809,-51.758,-39.062,-35.645,0.000
1709205968.106,-26.855,-38.574,-42.480,-39.062,0.000
1709205968.110,-26.367,-41.504,-44.434,-34.668,0.000
1709205968.113,-27.344,-46.387,-44.434,-30.762,0.000
1709205968.117,-27.344,-41.992,-45.410,-31.738,0.000
1709205968.121,-19.043,-35.156,-41.504,-25.391,0.000
