timestamps,TP9,AF7,AF8,TP10,Right AUX
1709206469.041,-55.176,-75.684,-39.551,0.000,0.000
1709206469.044,-50.781,-44.434,-41.992,0.000,0.000
1709206469.048,-41.992,-27.344,-41.504,0.000,0.000
1709206469.052,-40.527,-60.059,-40.039,0.000,0.000
1709206469.056,-51.270,-87.891,-40.039,0.000,0.000
1709206469.060,-58.594,-79.590,-36.621,0.000,0.000
1709206469.064,-35.645,-53.711,-30.762,0.000,0.000
1709206469.068,-10.742,-61.523,-31.250,0.000,0.000
1709206469.072,-21.973,-96.680,-33.691,0.000,0.000
1709206469.076,-32.227,-22.949,-35.645,0.000,0.000
1709206469.080,-31.738,-15.137,-41.016,0.000,0.000
1709206469.084,-33.691,-65.918,-46.387,0.000,0.000
1709206469.087,-32.227,-43.945,-49.805,-41.504,0.000
1709206469.091,-27.344,-25.879,-44.922,-44.922,0.000
1709206469.095,-36.133,-44.922,-42.480,-43.457,0.000
1709206469.099,-46.875,-73.242,-40.039,-41.504,0.000
1709206469.103,-49.316,-59.082,-36.133,-46.387,0.000
1709206469.107,-41.016,-47.852,-39.551,-49.805,0.000
1709206469.111,-40.039,-46.387,-46.387,-51.270,0.000
1709206469.115,-46.875,-85.449,-44.922,-45.898,0.000
1709206469.119,-58.594,-71.289,-43.945,-44.922,0.000
1709206469.123,-63.965,-6.348,-44.434,-54.199,0.000
1709206469.126,-53.711,-32.227,-39.551,-47.363,0.000
1709206469.130,-46.387,-63.477,-41.504,-39.551,0.000
1709206469.134,0.000,-43.457,-47.363,-43.457,0.000
1709206469.138,0.000,-39.551,-43.945,-42.480,0.000
1709206469.142,0.000,-70.312,-42.480,-41.992,0.000
1709206469.146,0.000,-70.312,-44.922,-43.945,0.000
1709206469.150,0.000,-43.457,-40.527,-42.480,0.000
1709206469.154,0.000,-63.965,-36.621,-42.969,0.000
1709206469.158,0.000,-84.473,-36.133,-38.574,0.000
1709206469.162,0.000,-117.676,-37.109,-32.715,0.000
1709206469.166,0.000,-46.875,-37.598,-36.133,0.000
1709206469.169,0.000,-19.043,-37.598,-43.457,0.000
1709206469.173,0.000,-66.406,-42.480,-53.223,0.000
1709206469.177,0.000,-53.223,-45.898,-57.129,0.000
1709206469.181,-51.270,-43.457,-43.945,-46.875,0.000
1709206469.185,-40.527,-46.875,-41.992,-38.086,0.000
1709206469.189,-24.414,-59.570,-39.062,-29.297,0.000
1709206469.193,-20.020,-46.875,-37.109,-25.879,0.000
1709206469.197,-30.762,-48.828,-37.109,-28.320,0.000
1709206469.201,-41.504,-71.289,-38.574,-37.109,0.000
1709206469.205,-34.180,-88.867,-34.668,-29.785,0.000
1709206469.208,-24.902,-61.523,-32.227,-14.648,0.000
1709206469.212,-36.621,-8.301,-43.945,-41.016,0.000
1709206469.216,-47.363,-35.645,-41.992,-52.246,0.000
1709206469.220,-35.156,-68.848,-33.691,-36.621,0.000
1709206469.224,-28.320,-38.574,-31.738,-32.715,0.000
1709206469.228,-36.621,-36.133,-31.250,-38.574,0.000
1709206469.232,-36.133,-48.828,-31.738,-36.621,0.000
1709206469.236,-46.875,-62.500,-36.621,-40.527,0.000
1709206469.240,-53.711,-58.594,-40.039,-46.875,0.000
1709206469.244,-45.410,-50.781,-34.668,-37.109,0.000
1709206469.247,-36.621,-69.336,-31.250,-27.344,0.000
1709206469.251,-40.527,-122.070,-37.598,-39.062,0.000
1709206469.255,-50.293,-73.242,-40.039,-55.176,0.000
1709206469.259,-55.176,-20.508,-36.133,-59.570,0.000
1709206469.263,-56.152,-58.594,-42.480,-61.035,0.000
1709206469.267,-40.039,-52.246,-42.969,-52.734,0.000
1709206469.271,-31.738,-22.949,-37.598,-38.086,0.000
1709206469.275,-42.969,-37.109,-42.480,-47.852,0.000
1709206469.279,-46.875,-64.941,-47.363,-60.059,0.000
1709206469.282,-46.387,-53.711,-43.457,-52.734,0.000
1709206469.286,-35.156,-44.922,-41.992,-50.293,0.000
1709206469.290,-20.508,-32.715,-40.527,-45.898,0.000
1709206469.294,-27.344,-68.359,-41.504,-36.621,0.000
1709206469.298,-31.250,-78.125,-41.016,-34.180,0.000
1709206469.302,-22.461,-30.273,-38.574,-33.691,0.000
1709206469.306,-23.438,-26.855,-34.180,-30.762,0.000
1709206469.310,-21.484,-74.219,-33.691,-24.902,0.000
1709206469.314,-20.996,-53.711,-36.621,-24.902,0.000
1709206469.318,-36.133,-17.578,-37.598,-39.062,0.000
1709206469.322,-38.086,-37.109,-30.762,-44.922,0.000
1709206469.326,-22.461,-58.105,-29.297,-46.875,0.000
1709206469.329,-24.414,-33.691,-27.344,-39.551,0.000
1709206469.333,-45.410,-31.250,-28.320,-36.621,0.000
1709206469.337,-55.664,-68.359,-33.203,-45.410,0.000
1709206469.341,-59.082,-91.309,-34.668,-39.062,0.000
1709206469.345,-48.828,-66.406,-37.109,-33.203,0.000
1709206469.349,-49.316,-42.969,-42.480,-41.504,0.000
1709206469.353,-49.805,-61.523,-46.387,-42.969,0.000
1709206469.357,-53.711,-93.750,-45.898,-33.203,0.000
1709206469.361,-69.824,-35.645,-44.434,-48.828,0.000
1709206469.365,-66.895,-17.578,-42.969,-52.246,0.000
1709206469.369,-35.645,-52.734,-36.133,-40.527,0.000
1709206469.372,-38.086,-57.617,-32.715,-40.527,0.000
1709206469.376,-61.523,-70.312,-34.180,-44.434,0.000
1709206469.380,-62.012,-75.195,-34.668,-44.434,0.000
1709206469.384,-53.711,-81.055,-36.621,-40.527,0.000
1709206469.388,-41.016,-83.496,-41.504,-41.504,0.000
1709206469.392,-38.574,-59.082,-43.457,-46.875,0.000
1709206469.396,-39.551,-51.758,-41.504,-42.480,0.000
1709206469.400,-41.992,-111.816,-41.016,-33.203,0.000
1709206469.404,-41.504,-90.332,-42.969,-30.273,0.000
1709206469.408,-35.156,-20.996,-42.480,-30.273,0.000
1709206469.411,-21.484,-44.434,-40.039,-35.156,0.000
1709206469.415,-39.062,-85.449,-40.039,-37.598,0.000
1709206469.419,-62.500,-68.359,-38.574,-35.156,0.000
1709206469.423,-44.922,-47.852,-32.227,-36.621,0.000
1709206469.427,-35.645,-62.988,-31.738,-40.039,0.000
1709206469.431,-33.203,-83.008,-33.203,-38.086,0.000
1709206469.435,-33.691,-89.355,-36.621,-38.574,0.000
1709206469.439,-41.016,-70.312,-43.945,-43.945,0.000
1709206469.443,-34.668,-73.242,-44.434,-47.363,0.000
1709206469.447,-24.902,-103.027,-45.410,-35.645,0.000
1709206469.451,-19.043,-32.715,-44.922,-40.039,0.000
1709206469.454,-16.602,-30.273,-40.039,-49.316,0.000
1709206469.458,-32.715,-83.984,-36.133,-44.922,0.000
1709206469.462,-46.875,-62.012,-35.156,-42.480,0.000
1709206469.466,-31.738,-28.809,-38.086,-37.598,0.000
1709206469.470,-27.832,-39.062,-39.062,-34.180,0.000
1709206469.474,-38.574,-74.707,-39.062,-33.691,0.000
1709206469.478,-46.387,-64.453,-41.016,-33.203,0.000
1709206469.482,-49.316,-64.453,-43.457,-34.180,0.000
1709206469.486,-44.922,-47.363,-41.504,-36.621,0.000
1709206469.490,-37.109,-67.383,-37.598,-27.832,0.000
1709206469.494,-40.039,-71.289,-42.480,-34.668,0.000
1709206469.497,-65.918,-14.160,-43.457,-49.805,0.000
1709206469.501,-67.871,-35.156,-36.621,-43.945,0.000
1709206469.505,-45.898,-67.871,-31.250,-35.645,0.000
1709206469.509,-42.480,-35.645,-29.785,-41.992,0.000
1709206469.513,-49.316,-41.504,-33.203,-54.688,0.000
1709206469.517,-49.805,-79.102,-35.156,-50.293,0.000
1709206469.521,-49.805,-61.523,-32.227,-47.363,0.000
1709206469.525,-52.246,-35.156,-36.621,-47.363,0.000
1709206469.529,-46.387,-54.688,-41.504,-54.199,0.000
1709206469.533,-46.387,-83.008,-39.551,-60.059,0.000
1709206469.537,-54.199,-110.840,-34.668,-42.969,0.000
1709206469.540,-63.477,-40.527,-36.621,-46.387,0.000
1709206469.544,-57.617,-19.043,-34.668,-50.781,0.000
1709206469.548,-30.762,-45.898,-38.086,-34.668,0.000
1709206469.552,-28.320,-34.180,-38.086,-36.621,0.000
1709206469.556,-49.316,-34.668,-39.062,-44.434,0.000
1709206469.560,-45.410,-52.734,-41.504,-35.645,0.000
1709206469.564,-23.438,-63.965,-36.621,-20.996,0.000
1709206469.568,-10.254,-40.527,-35.645,-21.973,0.000
1709206469.572,-8.789,-50.293,-40.527,-27.832,0.000
1709206469.576,-15.137,-72.754,-41.016,-35.645,0.000
1709206469.579,-21.973,-87.402,-36.621,-39.551,0.000
1709206469.583,-22.461,-63.477,-33.203,-24.902,0.000
1709206469.587,-17.578,-21.484,-35.645,-31.250,0.000
1709206469.591,-24.414,-29.785,-37.109,-44.434,0.000
1709206469.595,-29.297,-61.523,-39.062,-43.945,0.000
1709206469.599,-38.086,-48.828,-39.062,-52.734,0.000
1709206469.603,-53.223,-27.832,-38.574,-58.105,0.000
1709206469.607,-35.645,-42.480,-40.039,-44.434,0.000
1709206469.611,-32.715,-46.387,-44.434,-47.363,0.000
1709206469.615,-46.387,-35.156,-47.363,-58.594,0.000
1709206469.618,-49.805,-46.387,-42.969,-52.734,0.000
1709206469.622,-44.922,-81.543,-43.457,-45.410,0.000
1709206469.626,-29.785,-115.723,-40.527,-31.250,0.000
1709206469.630,-31.738,-55.664,-42.480,-37.598,0.000
1709206469.634,-41.992,-29.785,-45.410,-54.199,0.000
1709206469.638,-44.922,-54.688,-45.898,-56.152,0.000
1709206469.642,-47.852,-47.852,-48.340,-50.293,0.000
1709206469.646,-43.945,-31.250,-46.387,-41.992,0.000
1709206469.650,-29.297,-33.203,-41.992,-34.668,0.000
1709206469.653,-21.973,-60.059,-37.598,-39.062,0.000
1709206469.657,-45.898,-62.988,-37.598,-46.875,0.000
1709206469.661,-49.805,-50.781,-40.039,-41.992,0.000
1709206469.665,-34.668,-45.410,-37.109,-37.109,0.000
1709206469.669,-26.367,-79.102,-34.180,-27.832,0.000
1709206469.673,-33.691,-73.730,-38.086,-31.250,0.000
1709206469.677,-42.969,-30.762,-37.109,-40.527,0.000
1709206469.681,-41.016,-58.105,-34.668,-32.715,0.000
1709206469.685,-44.434,-90.332,-33.203,-30.273,0.000
1709206469.689,-33.203,-47.363,-33.203,-39.551,0.000
1709206469.693,-28.320,-29.297,-35.645,-49.805,0.000
1709206469.697,-36.621,-77.148,-36.621,-42.969,0.000
1709206469.700,-30.762,-86.914,-37.598,-36.621,0.000
1709206469.704,-38.574,-38.574,-39.062,-34.668,0.000
1709206469.708,-38.086,-23.438,-41.992,-36.133,0.000
1709206469.712,-33.203,-58.105,-45.898,-42.969,0.000
1709206469.716,-42.969,-94.727,-44.434,-34.180,0.000
1709206469.720,-59.082,-79.102,-45.898,-34.180,0.000
1709206469.724,-54.199,-49.316,-44.434,-47.852,0.000
1709206469.728,-38.574,-59.082,-42.480,-52.734,0.000
1709206469.732,-36.621,-83.008,-41.992,-53.223,0.000
1709206469.736,-39.551,-24.902,-35.645,-52.734,0.000
1709206469.739,-45.898,-30.273,-34.180,-51.758,0.000
1709206469.743,-46.387,-64.453,-35.645,-46.875,0.000
1709206469.747,-40.527,-33.203,-34.180,-36.133,0.000
1709206469.751,-44.922,-23.926,-37.109,-46.875,0.000
1709206469.755,-44.434,-47.852,-38.574,-49.316,0.000
1709206469.759,-34.668,-78.125,-35.645,-37.109,0.000
1709206469.763,-49.805,-69.824,-36.621,-36.621,0.000
1709206469.767,-46.387,-37.598,-37.109,-32.715,0.000
1709206469.771,-31.250,-22.949,-32.227,-35.645,0.000
1709206469.775,-41.504,-86.914,-36.621,-30.762,0.000
1709206469.779,-59.082,-83.008,-41.992,-33.691,0.000
1709206469.783,-53.711,-11.719,-39.551,-41.992,0.000
1709206469.786,-38.574,-36.621,-42.969,-46.387,0.000
1709206469.790,-37.109,-61.523,-45.898,-41.504,0.000
1709206469.794,-41.992,-44.922,-42.969,-37.109,0.000
1709206469.798,-41.016,-53.223,-35.645,-36.133,0.000
1709206469.802,-44.434,-66.406,-33.691,-40.527,0.000
1709206469.806,-40.039,-51.270,-36.133,-44.434,0.000
1709206469.810,-39.062,-50.781,-30.762,-40.527,0.000
1709206469.814,-44.922,-61.523,-40.527,-46.875,0.000
1709206469.818,-48.340,-71.289,-46.387,-51.270,0.000
1709206469.822,-45.410,-104.492,-40.039,-41.504,0.000
1709206469.826,-39.062,-22.461,-41.016,-41.016,0.000
1709206469.829,-41.992,12.695,-44.922,-45.410,0.000
1709206469.833,-39.551,-30.762,-53.223,-41.504,0.000
1709206469.837,-39.062,-31.738,-55.176,-28.320,0.000
1709206469.841,-44.434,-29.297,-40.039,-24.414,0.000
1709206469.845,-38.574,-36.621,-29.785,-27.344,0.000
1709206469.849,-29.297,-60.059,-27.832,-26.855,0.000
1709206469.853,-32.227,-58.594,-24.902,-23.926,0.000
1709206469.857,-41.992,-65.918,-16.602,-22.461,0.000
1709206469.861,-52.734,-83.008,-8.789,-23.438,0.000
1709206469.865,-56.152,-110.840,-5.859,-18.555,0.000
1709206469.868,-58.594,-103.027,-9.277,-18.555,0.000
1709206469.872,-64.453,-70.801,-17.578,-34.180,0.000
1709206469.876,-81.543,-107.910,-15.625,-39.062,0.000
1709206469.880,-97.168,-147.461,-14.648,-35.645,0.000
1709206469.884,0.000,-119.141,-21.484,-35.156,0.000
1709206469.888,0.000,-98.633,-17.090,-36.621,0.000
1709206469.892,0.000,-130.371,-15.137,-38.574,0.000
1709206469.896,0.000,-148.438,-15.625,-38.086,0.000
1709206469.900,0.000,-140.625,-19.531,-27.832,0.000
1709206469.904,0.000,-145.996,-18.555,-21.973,0.000
1709206469.908,0.000,-160.156,-15.137,-11.719,0.000
1709206469.911,0.000,-209.961,-11.719,4.395,0.000
1709206469.915,0.000,-159.668,-13.184,-5.371,0.000
1709206469.919,0.000,-111.816,-23.438,-15.625,0.000
1709206469.923,0.000,-143.066,-21.973,-1.953,0.000
1709206469.927,0.000,-143.555,-18.066,7.812,0.000
1709206469.931,-43.457,-134.277,-20.996,12.207,0.000
1709206469.935,-47.852,-150.879,-21.484,11.230,0.000
1709206469.939,-55.664,-174.805,-20.508,15.625,0.000
1709206469.943,-46.875,-151.855,-18.555,17.578,0.000
1709206469.947,-36.133,-126.465,-16.602,20.996,0.000
1709206469.950,-41.016,-161.621,-20.508,17.090,0.000
1709206469.954,-39.551,-204.590,-20.508,7.812,0.000
1709206469.958,-58.105,-185.059,-20.020,11.230,0.000
1709206469.962,-59.082,-124.023,-23.438,9.277,0.000
1709206469.966,-43.457,-124.023,-26.855,0.977,0.000
1709206469.970,-42.969,-162.598,-26.855,-2.930,0.000
1709206469.974,-36.621,-150.879,-27.832,-4.883,0.000
1709206469.978,-42.969,-127.930,-29.297,-3.906,0.000
1709206469.982,-58.105,-143.555,-27.832,-6.348,0.000
1709206469.986,-53.223,-154.297,-33.691,-6.836,0.000
1709206469.989,-39.551,-119.629,-32.227,-0.488,0.000
1709206469.993,-35.156,-111.328,-27.344,-3.906,0.000
1709206469.997,-40.039,-161.621,-33.691,-14.648,0.000
1709206470.001,-45.410,-203.125,-39.551,-2.441,0.000
1709206470.005,-36.621,-119.629,-38.574,3.418,0.000
1709206470.009,-16.113,-71.289,-38.574,-11.230,0.000
1709206470.013,-16.602,-97.168,-41.504,-12.695,0.000
1709206470.017,-30.762,-87.891,-40.039,-7.812,0.000
1709206470.021,-24.902,-73.730,-33.691,-4.395,0.000
1709206470.024,-17.090,-67.871,-33.691,-7.812,0.000
1709206470.028,-17.090,-85.938,-36.621,-8.301,0.000
1709206470.032,-24.902,-79.590,-33.203,-11.230,0.000
1709206470.036,-36.133,-69.336,-33.691,-11.230,0.000
1709206470.040,-41.016,-78.613,-32.227,-11.719,0.000
1709206470.044,-36.621,-112.305,-24.414,-8.789,0.000
1709206470.048,-32.715,-98.145,-28.809,3.418,0.000
1709206470.052,-38.086,-48.340,-26.855,-6.348,0.000
1709206470.056,-49.316,-71.777,-26.367,-13.672,0.000
1709206470.060,-55.176,-126.465,-36.133,-14.648,0.000
1709206470.064,-48.828,-94.238,-39.062,-20.508,0.000
1709206470.067,-29.785,-52.246,-39.551,-18.066,0.000
1709206470.071,-20.508,-82.031,-34.668,-20.508,0.000
1709206470.075,-44.434,-108.398,-27.832,-15.137,0.000
1709206470.079,-50.781,-81.055,-30.273,-19.531,0.000
1709206470.083,-34.180,-58.105,-29.297,-21.484,0.000
1709206470.087,-23.926,-73.242,-30.762,-19.043,0.000
1709206470.091,-20.508,-92.285,-39.551,-20.020,0.000
1709206470.095,-25.391,-75.195,-43.945,-27.344,0.000
1709206470.099,-37.109,-58.594,-46.875,-42.969,0.000
1709206470.103,-32.715,-70.312,-41.992,-31.250,0.000
1709206470.107,-25.391,-95.215,-35.156,-13.184,0.000
1709206470.111,-19.531,-32.227,-31.250,-22.461,0.000
1709206470.114,-15.137,-23.926,-31.250,-25.391,0.000
1709206470.118,-36.621,-76.660,-35.156,-41.016,0.000
1709206470.122,-43.457,-65.918,-36.621,-46.875,0.000
1709206470.126,-21.484,-35.645,-40.527,-30.273,0.000
1709206470.130,-19.043,-50.293,-42.480,-23.438,0.000
1709206470.134,-27.832,-80.566,-40.527,-13.672,0.000
1709206470.138,-33.203,-95.703,-40.527,-16.602,0.000
1709206470.142,-31.738,-83.496,-40.039,-24.414,0.000
1709206470.146,-25.879,-58.105,-37.598,-16.602,0.000
1709206470.150,-24.414,-82.031,-36.621,-2.930,0.000
1709206470.154,-22.949,-67.871,-42.969,0.977,0.000
1709206470.157,-28.809,-14.648,-40.527,-8.301,0.000
1709206470.161,-30.273,-39.062,-32.227,-6.836,0.000
1709206470.165,-16.113,-57.129,-31.738,-3.906,0.000
1709206470.169,-4.883,-37.598,-38.574,-17.090,0.000
1709206470.173,-12.207,-39.062,-36.133,-16.113,0.000
1709206470.177,-25.879,-63.477,-32.227,-12.695,0.000
1709206470.181,-29.785,-79.102,-37.109,-27.344,0.000
1709206470.185,-14.160,-65.918,-32.227,-17.090,0.000
1709206470.189,-1.953,-52.246,-27.344,-7.812,0.000
1709206470.193,-10.742,-62.500,-34.668,-18.066,0.000
1709206470.197,-31.250,-120.117,-39.062,-20.508,0.000
1709206470.200,-33.691,-73.730,-39.062,-23.926,0.000
1709206470.204,-27.344,-18.555,-34.668,-28.320,0.000
1709206470.208,-24.414,-40.039,-33.203,-25.879,0.000
1709206470.212,-11.230,-38.086,-31.738,-21.484,0.000
1709206470.216,-19.043,-37.598,-37.109,-32.715,0.000
1709206470.220,-43.945,-69.336,-45.410,-47.852,0.000
1709206470.224,-35.645,-67.871,-42.969,-42.969,0.000
1709206470.228,-26.367,-41.016,-44.434,-33.203,0.000
1709206470.232,-16.602,-59.570,-43.945,-24.902,0.000
1709206470.236,-17.090,-66.895,-40.039,-25.391,0.000
1709206470.240,-33.203,-90.332,-38.086,-24.902,0.000
1709206470.243,-38.574,-72.754,-38.574,-23.438,0.000
1709206470.247,-34.180,-4.395,-36.133,-30.762,0.000
1709206470.251,-22.949,-32.715,-35.156,-28.809,0.000
1709206470.255,-20.996,-84.473,-36.621,-28.320,0.000
1709206470.259,-45.898,-70.801,-39.551,-35.645,0.000
1709206470.263,-50.781,-39.062,-40.527,-38.086,0.000
1709206470.267,-34.668,-50.293,-37.598,-31.738,0.000
1709206470.271,-40.527,-78.125,-36.621,-30.762,0.000
1709206470.275,-56.641,-70.312,-38.086,-42.480,0.000
1709206470.279,-60.547,-82.031,-39.551,-50.293,0.000
1709206470.282,-52.734,-105.957,-39.551,-46.387,0.000
1709206470.286,-38.086,-128.906,-32.715,-29.785,0.000
1709206470.290,-38.574,-54.199,-35.156,-37.109,0.000
1709206470.294,-48.340,-30.273,-37.598,-37.109,0.000
1709206470.298,-54.688,-90.332,-38.574,-27.832,0.000
1709206470.302,-62.500,-88.379,-42.480,-33.203,0.000
1709206470.306,-46.387,-57.617,-37.109,-27.344,0.000
1709206470.310,-31.250,-60.547,-31.738,-18.066,0.000
1709206470.314,-47.363,-102.051,-30.273,-22.949,0.000
1709206470.318,-57.617,-86.426,-36.621,-36.133,0.000
1709206470.321,-55.176,-67.871,-40.527,-40.527,0.000
1709206470.325,-37.109,-79.102,-34.180,-31.250,0.000
1709206470.329,-27.832,-98.633,-38.574,-27.832,0.000
1709206470.333,-29.297,-81.543,-43.945,-16.113,0.000
1709206470.337,-37.598,-25.879,-44.922,-13.672,0.000
1709206470.341,-40.039,-47.363,-46.387,-23.926,0.000
1709206470.345,-27.344,-66.895,-41.504,-20.508,0.000
1709206470.349,-19.531,-44.922,-45.410,-29.297,0.000
1709206470.353,-11.719,-32.227,-44.434,-36.621,0.000
1709206470.357,-22.461,-46.387,-44.922,-32.715,0.000
1709206470.361,-34.668,-66.895,-49.805,-32.715,0.000
1709206470.365,-18.555,-34.668,-46.387,-36.133,0.000
1709206470.368,-23.926,-24.902,-45.898,-43.457,0.000
1709206470.372,-38.086,-69.824,-42.480,-43.457,0.000
1709206470.376,-42.480,-119.141,-41.504,-39.551,0.000
1709206470.380,-41.992,-65.430,-38.086,-44.922,0.000
1709206470.384,-41.016,-21.484,-37.109,-41.504,0.000
1709206470.388,-40.527,-28.809,-37.598,-29.297,0.000
1709206470.392,-43.457,-24.414,-32.715,-29.297,0.000
1709206470.396,-55.176,-28.320,-36.621,-39.062,0.000
1709206470.400,-56.641,-42.480,-39.062,-39.551,0.000
1709206470.404,-53.711,-61.523,-40.527,-32.227,0.000
1709206470.407,-44.922,-43.945,-40.527,-23.926,0.000
1709206470.411,-41.504,-23.438,-41.504,-32.715,0.000
1709206470.415,-45.898,-41.992,-41.016,-43.945,0.000
1709206470.419,-49.805,-91.309,-44.922,-40.527,0.000
1709206470.423,-55.176,-69.824,-42.480,-36.133,0.000
1709206470.427,-48.340,-18.066,-36.621,-34.180,0.000
1709206470.431,-41.504,-35.156,-42.969,-33.691,0.000
1709206470.435,-41.016,-77.637,-37.598,-30.762,0.000
1709206470.439,-51.270,-54.199,-36.621,-29.785,0.000
1709206470.443,-57.617,-6.348,-45.898,-36.621,0.000
1709206470.447,-36.133,-29.785,-39.062,-25.391,0.000
1709206470.450,-19.531,-52.734,-27.344,-20.508,0.000
1709206470.454,-26.855,-37.598,-28.809,-35.645,0.000
1709206470.458,-37.598,-36.621,-39.062,-43.945,0.000
1709206470.462,-38.086,-67.383,-44.434,-32.715,0.000
1709206470.466,-31.738,-80.078,-41.504,-19.531,0.000
1709206470.470,-29.785,-46.387,-42.480,-31.738,0.000
1709206470.474,-30.762,-38.086,-41.016,-47.363,0.000
1709206470.478,-39.551,-67.383,-44.922,-49.805,0.000
1709206470.482,-43.457,-87.891,-49.805,-35.156,0.000
1709206470.486,-32.715,-30.273,-43.457,-27.832,0.000
1709206470.490,-19.043,-6.348,-38.086,-35.156,0.000
1709206470.494,-16.602,-34.668,-36.133,-32.715,0.000
1709206470.497,-40.527,-41.016,-34.180,-34.668,0.000
1709206470.501,-55.664,-30.273,-37.109,-45.898,0.000
1709206470.505,-44.922,-33.203,-33.691,-32.715,0.000
1709206470.509,-35.156,-61.035,-36.133,-22.461,0.000
1709206470.513,-41.016,-70.801,-36.133,-23.926,0.000
1709206470.517,-58.105,-44.434,-31.250,-29.785,0.000
1709206470.521,-62.012,-31.738,-35.156,-47.363,0.000
1709206470.525,-49.805,-83.984,-32.715,-33.691,0.000
1709206470.529,-50.293,-73.730,-31.738,-19.043,0.000
1709206470.533,-58.594,-16.602,-35.645,-40.527,0.000
1709206470.536,-55.664,-38.574,-34.180,-54.688,0.000
1709206470.540,-59.570,-72.266,-30.273,-50.781,0.000
1709206470.544,-64.941,-53.223,-24.902,-41.992,0.000
1709206470.548,-50.293,-19.043,-24.414,-30.762,0.000
1709206470.552,-41.992,-30.762,-27.832,-32.715,0.000
1709206470.556,-45.898,-65.918,-29.297,-37.598,0.000
1709206470.560,-49.805,-70.801,-31.738,-38.086,0.000
1709206470.564,-51.758,-48.340,-33.203,-38.574,0.000
1709206470.568,-43.457,-48.340,-35.156,-31.250,0.000
1709206470.572,-42.969,-84.473,-39.551,-25.879,0.000
1709206470.576,-54.688,-32.715,-40.039,-48.828,0.000
1709206470.579,-57.617,-9.277,-40.527,-66.895,0.000
1709206470.583,-55.664,-42.969,-46.875,-67.383,0.000
1709206470.587,-46.875,-33.691,-50.293,-66.895,0.000
1709206470.591,-52.246,-20.996,-50.781,-63.477,0.000
1709206470.595,-53.711,-42.480,-47.852,-64.941,0.000
1709206470.599,-50.293,-73.730,-44.922,-65.918,0.000
1709206470.603,-49.805,-62.012,-42.480,-61.523,0.000
1709206470.607,-42.480,-48.340,-45.410,-60.059,0.000
1709206470.611,-36.133,-46.387,-46.387,-47.363,0.000
1709206470.615,-38.086,-74.219,-38.086,-27.344,0.000
1709206470.619,-44.922,-67.383,-39.551,-25.391,0.000
1709206470.622,-28.320,3.906,-42.969,-51.758,0.000
1709206470.626,-22.949,-7.324,-42.480,-49.805,0.000
1709206470.630,-33.203,-46.875,-38.086,-39.551,0.000
1709206470.634,-36.133,-39.062,-37.109,-49.316,0.000
1709206470.638,-47.852,-39.062,-40.527,-58.105,0.000
1709206470.642,-47.852,-74.219,-37.598,-53.711,0.000
1709206470.646,-32.227,-64.941,-38.574,-41.992,0.000
1709206470.650,-28.320,-25.391,-36.621,-31.250,0.000
1709206470.654,-31.738,-44.434,-30.273,-38.086,0.000
1709206470.658,-25.879,-69.336,-35.645,-46.875,0.000
1709206470.661,-42.969,-113.770,-36.621,-38.574,0.000
1709206470.665,-56.152,-51.758,-29.785,-30.273,0.000
1709206470.669,-34.668,1.465,-29.785,-27.344,0.000
1709206470.673,-36.133,-42.969,-36.133,-38.086,0.000
1709206470.677,-49.316,-43.945,-38.574,-41.504,0.000
1709206470.681,0.000,-37.109,-38.574,-41.504,0.000
1709206470.685,0.000,-50.293,-41.016,-44.434,0.000
1709206470.689,0.000,-76.660,-38.086,-37.598,0.000
1709206470.693,0.000,-67.383,-40.527,-41.016,0.000
1709206470.697,0.000,-60.547,-47.852,-44.434,0.000
1709206470.701,0.000,-87.402,-43.457,-39.551,0.000
1709206470.704,0.000,-98.633,-37.598,-26.367,0.000
1709206470.708,0.000,-71.289,-39.062,-26.367,0.000
1709206470.712,0.000,-33.203,-41.016,-37.598,0.000
1709206470.716,0.000,-67.383,-39.062,-38.574,0.000
1709206470.720,0.000,-75.195,-36.133,-48.340,0.000
1709206470.724,0.000,-40.527,-36.133,-49.316,0.000
1709206470.728,-33.691,-28.320,-39.551,-41.016,0.000
1709206470.732,-20.996,-48.828,-43.457,-40.527,0.000
1709206470.736,-18.555,-74.707,-45.898,-48.340,0.000
1709206470.739,-40.527,-46.387,-42.480,-48.828,0.000
1709206470.743,-36.621,-27.344,-42.969,-37.109,0.000
1709206470.747,-23.438,-57.617,-45.410,-40.039,0.000
1709206470.751,-20.996,-107.910,-43.457,-34.180,0.000
1709206470.755,-26.367,-54.688,-42.969,-29.785,0.000
1709206470.759,-35.645,-7.324,-39.551,-37.598,0.000
1709206470.763,-18.555,-44.434,-40.527,-34.180,0.000
1709206470.767,-19.531,-37.109,-42.969,-33.203,0.000
1709206470.771,-30.273,-24.414,-46.387,-48.828,0.000
1709206470.775,-21.484,-46.875,-47.363,-51.758,0.000
1709206470.778,-27.344,-56.641,-40.527,-40.039,0.000
1709206470.782,-26.855,-44.434,-35.645,-25.391,0.000
1709206470.786,-19.043,-27.832,-41.016,-20.020,0.000
1709206470.790,-25.879,-29.297,-39.551,-28.320,0.000
1709206470.794,-24.414,-71.777,-36.133,-27.832,0.000
1709206470.798,-27.344,-77.637,-38.086,-23.926,0.000
1709206470.802,-29.785,-32.227,-36.133,-17.578,0.000
1709206470.806,-13.672,-28.809,-37.598,-21.484,0.000
1709206470.810,-5.371,-72.266,-42.480,-34.668,0.000
1709206470.814,-18.066,-59.570,-42.480,-38.574,0.000
1709206470.818,-37.109,-30.762,-42.969,-42.480,0.000
1709206470.822,-46.875,-52.734,-40.527,-41.992,0.000
1709206470.825,-41.016,-79.102,-38.574,-39.062,0.000
1709206470.829,-31.250,-63.477,-38.574,-35.645,0.000
1709206470.833,-31.738,-31.738,-38.086,-40.039,0.000
1709206470.837,-48.828,-48.828,-37.598,-42.969,0.000
1709206470.841,-62.500,-79.102,-41.016,-43.945,0.000
1709206470.845,-50.293,-64.941,-41.016,-45.410,0.000
1709206470.849,-38.086,-43.945,-34.180,-42.969,0.000
1709206470.853,-27.344,-66.406,-36.621,-41.992,0.000
1709206470.857,-37.598,-110.840,-41.016,-41.504,0.000
1709206470.861,-48.340,-50.293,-38.574,-42.480,0.000
1709206470.864,-26.367,-26.367,-40.039,-37.598,0.000
1709206470.868,-18.555,-59.082,-42.480,-29.785,0.000
1709206470.872,-21.484,-50.293,-36.133,-32.715,0.000
1709206470.876,-24.414,-49.316,-32.715,-39.062,0.000
1709206470.880,-28.320,-57.129,-38.574,-40.527,0.000
1709206470.884,-27.832,-78.613,-46.387,-49.805,0.000
1709206470.888,-25.879,-78.613,-41.992,-52.734,0.000
1709206470.892,-35.645,-64.453,-40.527,-48.828,0.000
1709206470.896,-39.551,-69.336,-45.898,-49.805,0.000
1709206470.900,-42.969,-97.168,-40.527,-39.551,0.000
1709206470.904,-43.457,-68.848,-35.156,-39.551,0.000
1709206470.908,-34.668,-2.441,-34.668,-43.457,0.000
1709206470.911,-26.367,-27.832,-35.645,-34.180,0.000
1709206470.915,-28.320,-69.336,-33.203,-30.273,0.000
1709206470.919,-35.645,-57.617,-38.086,-26.367,0.000
1709206470.923,-31.250,-42.969,-43.457,-28.320,0.000
1709206470.927,-24.414,-57.129,-34.668,-31.250,0.000
1709206470.931,-18.066,-70.312,-29.297,-25.879,0.000
1709206470.935,-22.949,-84.473,-34.668,-22.461,0.000
1709206470.939,-39.551,-85.938,-37.598,-36.133,0.000
1709206470.943,-50.781,-87.402,-37.109,-40.527,0.000
1709206470.947,-38.086,-116.699,-41.504,-37.598,0.000
1709206470.951,-27.344,-47.852,-42.969,-43.945,0.000
1709206470.954,-33.691,-15.625,-34.668,-38.574,0.000
1709206470.958,-50.293,-73.242,-41.016,-43.945,0.000
1709206470.962,-52.734,-68.848,-47.852,-55.176,0.000
1709206470.966,-43.457,-28.320,-48.828,-48.828,0.000
1709206470.970,-34.180,-35.156,-36.133,-37.598,0.000
1709206470.974,-40.039,-73.242,-30.273,-35.156,0.000
1709206470.978,-51.758,-65.918,-40.039,-37.598,0.000
1709206470.982,-49.316,-63.965,-43.457,-34.668,0.000
1709206470.986,-42.969,-70.801,-43.945,-23.926,0.000
1709206470.990,-41.504,-89.844,-45.898,-15.625,0.000
1709206470.993,-49.805,-79.590,-56.152,-30.273,0.000
1709206470.997,-60.059,-38.574,-58.105,-48.340,0.000
1709206471.001,-51.758,-69.336,-57.617,-47.852,0.000
1709206471.005,-32.715,-71.289,-59.082,-40.039,0.000
1709206471.009,-42.480,-32.227,-62.988,-38.574,0.000
1709206471.013,-43.457,-21.484,-47.852,-43.457,0.000
1709206471.017,-41.992,-54.688,-40.039,-44.434,0.000
1709206471.021,-44.434,-68.848,-45.410,-47.363,0.000
1709206471.025,-29.297,-28.809,-41.504,-45.410,0.000
1709206471.029,-15.625,-41.992,-42.480,-40.039,0.000
1709206471.033,-20.508,-66.895,-42.969,-33.691,0.000
1709206471.036,-27.344,-96.680,-38.574,-25.879,0.000
1709206471.040,-27.832,-36.133,-38.086,-50.293,0.000
1709206471.044,-29.785,-8.301,-43.457,-58.105,0.000
1709206471.048,-20.020,-51.270,-39.551,-41.992,0.000
1709206471.052,-19.043,-38.086,-35.645,-40.527,0.000
1709206471.056,-26.855,-28.809,-35.156,-41.992,0.000
1709206471.060,-30.762,-54.688,-33.691,-40.527,0.000
1709206471.064,-23.926,-61.035,-37.598,-33.691,0.000
1709206471.068,-19.043,-30.762,-42.480,-33.203,0.000
1709206471.072,-17.090,-17.578,-43.457,-36.133,0.000
1709206471.075,-30.762,-47.852,-44.434,-39.062,0.000
1709206471.079,-46.875,-85.449,-40.527,-38.574,0.000
1709206471.083,-39.062,-68.848,-40.527,-37.598,0.000
1709206471.087,-39.551,0.000,-38.086,-53.223,0.000
1709206471.091,-34.668,-11.719,-33.203,-61.035,0.000
1709206471.095,-36.133,-65.918,-40.527,-59.082,0.000
1709206471.099,-49.805,-64.453,-47.363,-58.105,0.000
1709206471.103,-43.945,-42.969,-36.621,-49.316,0.000
1709206471.107,-41.504,-47.852,-39.062,-48.828,0.000
1709206471.111,-35.156,-63.477,-42.969,-48.340,0.000
1709206471.114,-30.273,-55.176,-36.133,-41.504,0.000
1709206471.118,-33.203,-50.293,-36.133,-41.016,0.000
1709206471.122,-45.898,-60.547,-39.062,-36.621,0.000
1709206471.126,-33.691,-106.934,-39.062,-11.719,0.000
1709206471.130,-15.137,-56.641,-43.457,-27.832,0.000
1709206471.134,-20.996,-3.906,-44.434,-46.387,0.000
1709206471.138,-27.832,-46.875,-46.387,-32.227,0.000
1709206471.142,-30.273,-64.453,-47.852,-27.344,0.000
1709206471.146,-10.742,-36.133,-40.527,-29.297,0.000
1709206471.149,-3.906,-30.762,-36.133,-27.344,0.000
1709206471.153,-16.113,-64.941,-31.250,-21.484,0.000
1709206471.157,-22.949,-66.406,-28.809,-23.926,0.000
1709206471.161,-22.461,-53.711,-28.809,-29.785,0.000
1709206471.165,-14.648,-54.199,-28.320,-29.785,0.000
1709206471.169,-12.695,-83.496,-25.879,-31.250,0.000
1709206471.173,-18.066,-84.961,-20.020,-28.320,0.000
1709206471.177,-26.367,-40.039,-32.227,-43.945,0.000
1709206471.181,-44.434,-48.340,-43.945,-50.781,0.000
1709206471.185,-49.805,-76.172,-35.156,-34.180,0.000
1709206471.189,-38.086,-42.969,-35.156,-40.039,0.000
1709206471.192,-33.691,-26.367,-38.574,-50.293,0.000
1709206471.196,-41.504,-58.105,-41.016,-56.152,0.000
1709206471.200,-54.688,-82.520,-37.598,-50.293,0.000
1709206471.204,-41.992,-65.918,-30.762,-38.574,0.000
1709206471.208,-34.668,-41.992,-34.180,-32.715,0.000
1709206471.212,-42.480,-53.711,-37.109,-38.574,0.000
1709206471.216,-46.875,-91.797,-41.016,-48.828,0.000
1709206471.220,-51.270,-82.031,-37.598,-43.945,0.000
1709206471.224,-39.551,-53.711,-28.809,-31.250,0.000
1709206471.228,-19.043,-59.570,-34.180,-19.531,0.000
1709206471.232,-18.555,-98.633,-42.480,-6.348,0.000
1709206471.235,-40.527,-42.969,-38.574,-20.508,0.000
1709206471.239,-46.875,-31.250,-36.133,-36.621,0.000
1709206471.243,-33.203,-62.500,-36.621,-25.391,0.000
1709206471.247,-23.438,-40.527,-40.527,-14.648,0.000
1709206471.251,-37.598,-26.367,-41.992,-26.367,0.000
1709206471.255,-31.738,-35.645,-38.086,-34.180,0.000
1709206471.259,-24.902,-70.312,-41.016,-31.250,0.000
1709206471.263,-29.785,-78.613,-40.039,-31.738,0.000
1709206471.267,-15.137,-28.809,-37.109,-18.066,0.000
1709206471.271,-10.742,-15.137,-40.039,-19.043,0.000
1709206471.275,-17.578,-85.449,-38.086,-14.160,0.000
1709206471.279,-26.367,-83.008,-43.945,-11.230,0.000
1709206471.282,-22.949,-12.695,-43.945,-24.414,0.000
1709206471.286,-0.977,-35.156,-41.504,-20.020,0.000
1709206471.290,-4.395,-48.340,-38.574,-17.578,0.000
1709206471.294,-27.344,-25.391,-34.180,-30.762,0.000
1709206471.298,-33.203,-43.945,-34.668,-39.551,0.000
1709206471.302,-33.203,-65.430,-32.715,-31.738,0.000
1709206471.306,-28.320,-61.035,-29.297,-19.043,0.000
1709206471.310,-23.926,-62.500,-34.668,-26.855,0.000
1709206471.314,-23.926,-61.035,-36.621,-42.480,0.000
1709206471.318,-29.785,-66.406,-33.203,-45.898,0.000
1709206471.321,-32.715,-110.352,-34.180,-40.039,0.000
1709206471.325,-39.551,-42.480,-33.691,-35.156,0.000
1709206471.329,-49.316,-10.254,-37.109,-39.062,0.000
1709206471.333,-51.758,-50.293,-42.480,-47.363,0.000
1709206471.337,-65.918,-47.363,-41.992,-51.758,0.000
1709206471.341,-64.453,-48.828,-40.039,-47.363,0.000
1709206471.345,-49.316,-81.543,-40.527,-41.016,0.000
1709206471.349,-40.039,-83.984,-43.945,-28.809,0.000
1709206471.353,-36.621,-59.082,-43.945,-29.297,0.000
1709206471.357,-40.527,-86.914,-36.133,-43.457,0.000
1709206471.361,-47.852,-89.355,-34.668,-40.039,0.000
1709206471.364,-42.969,-84.473,-41.504,-31.250,0.000
1709206471.368,-33.203,-79.102,-44.434,-24.902,0.000
1709206471.372,-28.320,-23.438,-38.574,-26.855,0.000
1709206471.376,-24.414,-43.945,-37.109,-34.180,0.000
1709206471.380,-27.832,-93.750,-47.363,-36.621,0.000
1709206471.384,-44.922,-70.801,-39.551,-34.668,0.000
1709206471.388,-32.715,-39.062,-30.762,-33.203,0.000
1709206471.392,-23.926,-64.941,-36.621,-40.527,0.000
1709206471.396,-32.715,-92.285,-36.133,-54.199,0.000
1709206471.400,-38.086,-70.801,-39.551,-64.453,0.000
1709206471.404,-41.016,-62.012,-40.039,-62.012,0.000
1709206471.407,-44.434,-66.895,-39.551,-49.805,0.000
1709206471.411,-40.527,-110.840,-36.133,-41.992,0.000
1709206471.415,-42.480,-55.176,-36.133,-50.293,0.000
1709206471.419,-50.293,-19.043,-39.062,-57.129,0.000
1709206471.423,-54.199,-56.641,-39.062,-52.246,0.000
1709206471.427,-43.945,-47.852,-39.551,-52.734,0.000
1709206471.431,-34.668,-33.203,-44.922,-50.293,0.000
1709206471.435,-54.199,-56.152,-39.062,-43.457,0.000
1709206471.439,-66.406,-87.402,-41.016,-49.316,0.000
1709206471.443,-64.941,-69.824,-42.969,-42.969,0.000
1709206471.446,-53.711,-55.176,-43.457,-34.668,0.000
1709206471.450,-42.480,-74.219,-41.992,-44.922,0.000
1709206471.454,-43.457,-107.422,-32.227,-41.016,0.000
1709206471.458,-48.340,-106.445,-31.250,-22.949,0.000
1709206471.462,-56.152,-39.062,-34.668,-28.809,0.000
1709206471.466,-54.199,-33.203,-31.250,-33.203,0.000
1709206471.470,-33.691,-61.523,-24.902,-20.508,0.000
1709206471.474,-25.391,-48.340,-26.367,-27.832,0.000
1709206471.478,-46.387,-42.480,-30.273,-41.016,0.000
1709206471.482,-48.340,-60.547,-34.180,-37.598,0.000
1709206471.485,-35.156,-76.172,-37.598,-36.133,0.000
1709206471.489,-30.273,-55.176,-40.527,-35.645,0.000
1709206471.493,-22.949,-47.852,-39.062,-36.133,0.000
1709206471.497,-19.043,-77.637,-38.086,-38.574,0.000
1709206471.501,-33.691,-133.789,-40.039,-39.062,0.000
1709206471.505,-33.203,-74.219,-39.551,-38.574,0.000
1709206471.509,-25.391,-4.883,-38.086,-43.457,0.000
1709206471.513,-27.832,-48.828,-39.551,-46.875,0.000
1709206471.517,-37.598,-76.660,-39.551,-42.480,0.000
1709206471.521,-37.598,-53.223,-42.969,-46.387,0.000
1709206471.524,-25.391,-44.434,-42.480,-47.852,0.000
1709206471.528,-25.391,-60.059,-39.551,-46.875,0.000
1709206471.532,-22.949,-58.594,-37.598,-44.434,0.000
1709206471.536,-31.250,-48.340,-41.504,-44.922,0.000
1709206471.540,-43.457,-56.641,-39.551,-47.852,0.000
1709206471.544,-40.039,-88.867,-35.156,-47.852,0.000
1709206471.548,-23.926,-63.965,-35.645,-47.363,0.000
1709206471.552,-28.320,-13.184,-36.621,-50.293,0.000
1709206471.556,-42.969,-29.297,-35.156,-54.688,0.000
1709206471.560,-53.711,-81.543,-35.645,-42.969,0.000
1709206471.563,-48.828,-59.082,-39.062,-33.203,0.000
1709206471.567,-34.180,-1.465,-35.156,-31.250,0.000
1709206471.571,-40.039,-32.227,-33.203,-33.691,0.000
1709206471.575,-54.688,-67.871,-33.691,-48.340,0.000
1709206471.579,-67.871,-37.598,-35.645,-53.223,0.000
1709206471.583,-60.059,-20.020,-38.574,-53.223,0.000
1709206471.587,-43.945,-41.504,-37.109,-53.223,0.000
1709206471.591,-33.203,-63.965,-45.898,-45.410,0.000
1709206471.595,-33.203,-54.199,-42.969,-43.457,0.000
1709206471.599,-37.109,-44.434,-31.738,-46.875,0.000
1709206471.603,-27.344,-44.922,-34.180,-41.016,0.000
1709206471.607,-33.691,-66.895,-32.715,-21.484,0.000
1709206471.610,-27.832,-3.418,-32.227,-21.973,0.000
1709206471.614,-24.414,0.488,-39.062,-40.527,0.000
1709206471.619,-35.645,-55.664,-44.434,-46.387,0.000
1709206471.623,-35.156,-41.016,-44.434,-40.527,0.000
1709206471.627,-36.621,-10.742,-45.898,-42.969,0.000
1709206471.631,-40.039,-28.809,-46.387,-42.480,0.000
1709206471.634,-45.898,-54.688,-47.852,-47.852,0.000
1709206471.638,-55.176,-53.223,-42.969,-59.082,0.000
1709206471.642,-52.734,-31.250,-34.668,-60.059,0.000
1709206471.646,-39.062,0.000,-39.551,-58.105,0.000
1709206471.650,-42.969,-45.898,-41.992,-55.176,0.000
1709206471.654,-53.711,-53.711,-43.945,-51.270,0.000
1709206471.658,-57.129,0.000,-46.387,-58.594,0.000
1709206471.662,-55.176,-35.156,-38.086,-44.434,0.000
1709206471.666,-49.805,-56.641,-35.156,-30.762,0.000
1709206471.670,-44.922,-9.766,-40.039,-33.691,0.000
1709206471.674,-40.039,-10.742,-42.480,-36.621,0.000
1709206471.677,-43.457,-42.480,-36.621,-45.898,0.000
1709206471.681,-35.645,-59.570,-32.227,-41.992,0.000
1709206471.685,-25.879,-62.988,-41.016,-34.180,0.000
1709206471.689,-31.250,-48.340,-41.992,-37.598,0.000
1709206471.693,-29.785,-58.594,-34.668,-40.527,0.000
1709206471.697,-41.504,-105.469,-38.574,-32.227,0.000
1709206471.701,-55.664,-41.016,-35.156,-36.133,0.000
1709206471.705,-35.156,5.371,-28.320,-29.785,0.000
1709206471.709,-24.902,-30.273,-32.715,-10.742,0.000
1709206471.713,-31.738,-40.039,-30.762,-20.020,0.000
1709206471.717,-30.762,-35.156,-30.273,-28.809,0.000
1709206471.720,-40.527,-44.434,-37.598,-28.320,0.000
1709206471.724,-35.645,-64.453,-37.598,-27.832,0.000
1709206471.728,-26.855,-43.457,-41.992,-28.809,0.000
1709206471.732,-30.273,-50.293,-49.805,-29.785,0.000
1709206471.736,-35.156,-61.523,-35.156,-30.762,0.000
1709206471.740,-44.434,-76.172,-34.668,-35.645,0.000
1709206471.744,-48.340,-73.242,-46.875,-28.809,0.000
1709206471.748,-38.574,-4.395,-41.992,-33.691,0.000
1709206471.752,-38.086,-9.766,-42.480,-41.016,0.000
1709206471.756,-51.270,-62.988,-46.387,-58.105,0.000
1709206471.760,-65.918,-48.828,-46.875,-69.336,0.000
1709206471.763,-58.594,-28.320,-46.387,-58.105,0.000
1709206471.767,-47.852,-41.504,-41.504,-58.105,0.000
1709206471.771,-44.434,-53.711,-45.898,-59.570,0.000
1709206471.775,-47.852,-49.805,-45.410,-59.082,0.000
1709206471.779,-57.129,-67.871,-40.039,-61.523,0.000
1709206471.783,-48.828,-77.637,-41.504,-54.688,0.000
1709206471.787,-32.715,-99.609,-39.062,-28.809,0.000
1709206471.791,-28.809,-38.086,-44.922,-37.598,0.000
1709206471.795,-27.344,-9.766,-46.875,-47.852,0.000
1709206471.799,-40.527,-53.711,-40.527,-35.645,0.000
1709206471.803,-42.480,-61.523,-42.480,-35.645,0.000
1709206471.806,-28.809,-31.250,-43.457,-40.527,0.000
1709206471.810,-16.113,-24.902,-45.410,-35.645,0.000
1709206471.814,-17.578,-55.664,-51.270,-27.344,0.000
1709206471.818,-35.645,-54.199,-45.898,-34.180,0.000
1709206471.822,-37.598,-45.898,-41.504,-43.457,0.000
1709206471.826,-27.832,-54.688,-45.410,-42.969,0.000
1709206471.830,-20.020,-79.590,-46.387,-30.273,0.000
1709206471.834,-24.414,-71.777,-39.062,-21.484,0.000
1709206471.838,-36.621,-12.695,-36.621,-31.250,0.000
1709206471.842,-40.527,-33.203,-32.715,-27.344,0.000
1709206471.845,-34.180,-65.430,-31.250,-24.902,0.000
1709206471.849,-13.184,-27.344,-37.109,-39.062,0.000
1709206471.853,-19.043,-20.020,-37.598,-50.293,0.000
1709206471.857,-29.785,-50.781,-32.715,-45.898,0.000
1709206471.861,-31.738,-80.078,-39.062,-37.109,0.000
1709206471.865,-32.227,-50.293,-42.969,-34.180,0.000
1709206471.869,-23.438,-23.438,-37.109,-28.809,0.000
1709206471.873,-21.484,-65.918,-38.574,-26.855,0.000
1709206471.877,-30.273,-126.953,-40.527,-30.273,0.000
1709206471.881,-44.434,-70.801,-38.086,-42.969,0.000
1709206471.884,-38.086,-4.395,-38.574,-40.039,0.000
1709206471.888,-34.180,-40.527,-46.875,-41.504,0.000
1709206471.892,-39.551,-60.059,-42.969,-42.969,0.000
1709206471.896,-46.387,-44.434,-40.527,-43.457,0.000
1709206471.900,-49.316,-44.434,-45.898,-44.922,0.000
1709206471.904,-41.992,-68.848,-46.387,-39.062,0.000
1709206471.908,-31.738,-75.684,-48.340,-43.457,0.000
1709206471.912,-24.902,-40.527,-50.781,-48.340,0.000
1709206471.916,-25.879,-43.457,-52.246,-50.781,0.000
1709206471.919,-41.504,-89.844,-57.129,-57.617,0.000
1709206471.923,-32.715,-81.543,-43.457,-59.082,0.000
1709206471.927,-15.137,-26.367,-43.945,-56.641,0.000
1709206471.931,-9.277,-33.691,-56.641,-47.852,0.000
1709206471.935,-24.902,-89.844,-45.898,-45.898,0.000
1709206471.939,-37.598,-66.406,-40.039,-45.410,0.000
1709206471.943,-37.109,-22.949,-48.828,-51.758,0.000
1709206471.947,-29.297,-42.480,-48.340,-46.875,0.000
1709206471.951,-15.137,-69.336,-46.875,-33.203,0.000
1709206471.955,-23.438,-48.340,-51.270,-37.598,0.000
1709206471.959,-35.156,-41.992,-47.852,-42.969,0.000
1709206471.963,-28.320,-74.707,-44.434,-37.598,0.000
1709206471.966,-21.484,-87.402,-37.109,-22.461,0.000
1709206471.970,-27.344,-60.547,-33.203,-26.855,0.000
1709206471.974,-41.016,-61.035,-40.527,-43.457,0.000
1709206471.978,-50.293,-97.168,-48.340,-42.969,0.000
1709206471.982,-51.270,-119.629,-39.551,-26.367,0.000
1709206471.986,-47.363,-47.852,-31.738,-33.203,0.000
1709206471.990,-35.645,-26.367,-35.645,-40.039,0.000
1709206471.994,-36.133,-67.871,-39.062,-42.480,0.000
1709206471.998,-55.664,-73.730,-39.551,-46.387,0.000
1709206472.002,-61.035,-71.777,-36.133,-41.016,0.000
1709206472.006,-51.270,-69.336,-37.598,-54.199,0.000
1709206472.009,-41.016,-83.984,-40.527,-65.430,0.000
1709206472.013,-51.270,-99.121,-34.668,-60.059,0.000
1709206472.017,-61.035,-79.590,-34.180,-57.617,0.000
1709206472.021,-52.734,-59.082,-34.180,-59.082,0.000
1709206472.025,-44.434,-96.191,-26.855,-50.293,0.000
1709206472.029,-34.668,-89.355,-32.227,-41.992,0.000
1709206472.033,-27.832,-41.504,-34.668,-41.992,0.000
1709206472.037,-37.598,-47.363,-31.250,-43.457,0.000
1709206472.041,-42.480,-75.195,-34.180,-42.480,0.000
1709206472.045,-29.785,-59.082,-40.527,-36.621,0.000
1709206472.049,-36.133,-41.504,-40.527,-34.668,0.000
1709206472.052,-33.203,-55.664,-39.551,-41.992,0.000
1709206472.056,-34.180,-82.520,-41.504,-51.758,0.000
1709206472.060,-41.016,-79.590,-29.785,-46.875,0.000
1709206472.064,-39.062,-60.059,-26.855,-40.039,0.000
1709206472.068,-30.273,-54.199,-26.855,-31.250,0.000
1709206472.072,-24.414,-84.961,-28.320,-17.090,0.000
1709206472.076,-33.203,-31.250,-33.691,-22.949,0.000
1709206472.080,-32.715,-12.207,-33.203,-33.203,0.000
1709206472.084,-39.062,-48.340,-37.598,-30.762,0.000
1709206472.088,-51.270,-51.758,-43.945,-24.902,0.000
1709206472.092,-42.969,-35.156,-38.086,-27.832,0.000
1709206472.095,-41.992,-33.203,-30.273,-31.738,0.000
1709206472.099,-56.641,-72.754,-32.227,-30.762,0.000
1709206472.103,-66.895,-71.289,-35.156,-34.180,0.000
1709206472.107,-52.734,-60.059,-37.109,-40.527,0.000
1709206472.111,-41.504,-57.129,-36.133,-43.457,0.000
1709206472.115,-55.176,-83.984,-31.250,-41.016,0.000
1709206472.119,-70.801,-88.867,-27.832,-47.363,0.000
1709206472.123,-77.148,-17.090,-31.738,-55.176,0.000
1709206472.127,-62.012,-24.902,-31.738,-42.969,0.000
1709206472.131,-49.805,-66.406,-27.344,-33.203,0.000
1709206472.134,-55.176,-42.969,-30.762,-51.270,0.000
1709206472.138,-57.617,-32.227,-32.227,-70.312,0.000
1709206472.142,-58.105,-60.059,-29.785,-61.523,0.000
1709206472.146,-45.898,-67.383,-30.273,-42.969,0.000
1709206472.150,-21.973,-29.785,-31.738,-34.180,0.000
1709206472.154,-37.109,-39.062,-33.691,-43.457,0.000
1709206472.158,-51.270,-72.754,-37.109,-44.434,0.000
1709206472.162,-48.340,-122.070,-38.086,-24.414,0.000
1709206472.166,-47.852,-48.828,-39.551,-17.578,0.000
1709206472.170,-34.668,-5.859,-38.086,-23.438,0.000
1709206472.174,-27.832,-48.828,-29.785,-18.555,0.000
1709206472.177,-39.062,-50.293,-33.691,-27.344,0.000
1709206472.181,-46.875,-45.410,-41.016,-45.898,0.000
1709206472.185,-36.621,-44.922,-37.109,-35.645,0.000
1709206472.189,-19.043,-64.941,-32.715,-24.414,0.000
1709206472.193,-20.996,-55.176,-36.621,-32.227,0.000
1709206472.197,-49.805,-51.758,-42.969,-37.598,0.000
1709206472.201,-62.500,-79.590,-43.457,-38.574,0.000
1709206472.205,-57.129,-99.121,-45.410,-32.715,0.000
1709206472.209,-43.457,-78.613,-47.363,-21.484,0.000
1709206472.213,-39.551,-7.324,-51.270,-35.645,0.000
1709206472.216,-53.223,-28.320,-47.363,-41.992,0.000
1709206472.220,-59.570,-80.566,-40.039,-37.109,0.000
1709206472.224,-57.617,-59.570,-41.504,-39.062,0.000
1709206472.228,-43.945,-34.668,-37.598,-45.410,0.000
1709206472.232,-43.457,-53.223,-25.391,-37.109,0.000
1709206472.236,-60.059,-83.008,-24.414,-31.738,0.000
1709206472.240,-52.246,-59.082,-27.344,-31.738,0.000
1709206472.244,-43.945,-48.340,-29.297,-28.320,0.000
1709206472.248,-38.086,-84.473,-33.203,-22.949,0.000
1709206472.252,-31.250,-121.582,-31.738,-16.602,0.000
1709206472.255,-27.832,-55.664,-35.156,-21.484,0.000
1709206472.259,-32.715,-29.297,-39.551,-27.344,0.000
1709206472.263,-27.344,-59.082,-35.645,-25.879,0.000
1709206472.267,-14.160,-41.992,-34.180,-29.297,0.000
1709206472.271,-15.625,-31.738,-40.527,-34.668,0.000
1709206472.275,-16.602,-37.109,-38.574,-37.109,0.000
1709206472.279,-32.715,-72.266,-35.156,-51.270,0.000
1709206472.283,-49.316,-62.012,-33.203,-50.781,0.000
1709206472.287,-41.504,-22.461,-28.809,-41.016,0.000
1709206472.290,-33.691,-28.809,-30.762,-45.898,0.000
1709206472.294,-48.340,-71.289,-28.320,-43.457,0.000
1709206472.298,-68.359,-70.801,-27.344,-38.574,0.000
1709206472.302,-64.941,-28.809,-30.273,-39.551,0.000
1709206472.306,-47.363,-21.484,-29.297,-32.715,0.000
1709206472.310,-41.504,-57.617,-27.832,-22.461,0.000
1709206472.314,-46.387,-54.199,-36.621,-28.320,0.000
1709206472.318,-43.945,-37.109,-37.598,-32.715,0.000
1709206472.322,-54.688,-42.480,-33.691,-36.621,0.000
1709206472.326,-50.781,-54.199,-36.621,-35.156,0.000
1709206472.330,-45.898,-41.992,-38.574,-30.273,0.000
1709206472.334,-52.734,-20.020,-37.598,-34.180,0.000
1709206472.337,-50.781,-48.340,-39.551,-39.551,0.000
1709206472.341,-50.293,-87.891,-39.551,-37.109,0.000
1709206472.345,-48.340,-60.059,-34.668,-36.133,0.000
1709206472.349,-40.527,-33.203,-36.621,-40.527,0.000
1709206472.353,-39.062,-55.664,-36.621,-42.480,0.000
1709206472.357,-54.688,-105.957,-34.180,-36.133,0.000
1709206472.361,-53.711,-50.781,-35.645,-37.109,0.000
1709206472.365,-46.875,-34.180,-41.016,-46.387,0.000
1709206472.369,0.000,-59.570,-44.434,-46.387,0.000
1709206472.373,0.000,-53.711,-40.527,-45.898,0.000
1709206472.377,0.000,-50.293,-35.645,-46.875,0.000
1709206472.380,0.000,-37.598,-34.180,-49.316,0.000
1709206472.384,0.000,-55.664,-43.945,-54.688,0.000
1709206472.388,0.000,-63.965,-47.363,-45.898,0.000
1709206472.392,0.000,-36.133,-44.922,-44.434,0.000
1709206472.396,0.000,-25.879,-42.480,-45.898,0.000
1709206472.400,0.000,-89.844,-41.016,-39.062,0.000
1709206472.404,0.000,-78.613,-40.527,-33.203,0.000
1709206472.408,0.000,2.930,-39.062,-22.949,0.000
1709206472.412,0.000,-26.367,-42.969,-29.297,0.000
1709206472.416,-30.273,-76.172,-41.504,-42.480,0.000
1709206472.420,-33.691,-53.223,-37.109,-40.527,0.000
1709206472.423,-50.293,-41.016,-35.156,-33.203,0.000
1709206472.427,-55.176,-59.570,-37.109,-33.203,0.000
1709206472.431,-42.480,-80.566,-40.039,-28.809,0.000
1709206472.435,-41.992,-71.289,-35.156,-22.461,0.000
1709206472.439,-56.152,-59.082,-30.762,-32.227,0.000
1709206472.443,-56.152,-69.824,-31.250,-27.344,0.000
1709206472.447,-52.246,-97.168,-32.227,-14.648,0.000
1709206472.451,-51.758,-25.879,-33.203,-13.184,0.000
1709206472.455,-46.875,8.301,-41.992,-20.020,0.000
1709206472.459,-48.828,-35.156,-40.527,-22.461,0.000
1709206472.463,-47.852,-35.156,-27.344,-21.484,0.000
1709206472.466,-26.855,-18.555,-30.762,-26.855,0.000
1709206472.470,-20.508,-23.438,-33.691,-22.949,0.000
1709206472.474,-37.598,-51.758,-32.715,-13.672,0.000
1709206472.478,-34.180,-61.035,-33.203,-14.160,0.000
1709206472.482,-32.715,-66.406,-29.297,-27.832,0.000
1709206472.486,-29.297,-53.223,-31.250,-32.715,0.000
1709206472.490,-26.855,-66.895,-38.086,-31.738,0.000
1709206472.494,-27.344,-55.664,-40.527,-28.320,0.000
1709206472.498,-24.414,-9.277,-38.574,-31.250,0.000
1709206472.502,-26.855,-36.621,-37.109,-39.062,0.000
1709206472.505,-26.367,-70.312,-36.133,-35.645,0.000
1709206472.509,-17.090,-42.480,-36.133,-34.180,0.000
1709206472.513,-14.160,-23.926,-36.133,-28.320,0.000
1709206472.517,-14.648,-50.293,-31.250,-26.855,0.000
1709206472.521,-37.598,-76.172,-34.668,-32.715,0.000
1709206472.525,-46.387,-55.176,-39.551,-41.992,0.000
1709206472.529,-35.156,-50.293,-36.133,-45.898,0.000
1709206472.533,-40.039,-70.801,-37.598,-50.781,0.000
1709206472.537,-54.688,-105.469,-44.434,-57.617,0.000
1709206472.541,-65.430,-59.570,-39.062,-69.336,0.000
1709206472.545,-71.289,-22.949,-34.668,-86.914,0.000
1709206472.548,-64.941,-52.246,-39.062,-83.496,0.000
1709206472.552,-58.105,-39.062,-41.016,-74.707,0.000
1709206472.556,-63.965,-31.250,-40.527,-71.777,0.000
1709206472.560,-73.242,-48.828,-41.016,-69.824,0.000
1709206472.564,-74.219,-62.500,-40.527,-55.664,0.000
1709206472.568,-60.059,-34.668,-35.645,-35.156,0.000
1709206472.572,-39.551,-20.996,-32.227,-25.879,0.000
1709206472.576,-34.180,-57.617,-32.715,-25.879,0.000
1709206472.580,-60.547,-88.379,-32.227,-14.648,0.000
1709206472.584,-64.941,-70.801,-32.227,-2.930,0.000
1709206472.587,-44.434,-10.742,-30.273,-6.836,0.000
1709206472.591,-28.809,-23.926,-23.438,-7.812,0.000
1709206472.595,-31.738,-63.965,-29.297,-26.367,0.000
1709206472.599,-50.293,-58.105,-39.551,-39.062,0.000
1709206472.603,-43.945,-55.176,-32.715,-22.949,0.000
1709206472.607,-29.785,-53.711,-35.156,-25.391,0.000
1709206472.611,-36.133,-56.152,-43.457,-42.480,0.000
1709206472.615,-38.574,-37.109,-40.039,-42.480,0.000
1709206472.619,-44.434,-32.715,-37.109,-42.480,0.000
1709206472.622,-44.922,-72.754,-42.969,-46.387,0.000
1709206472.626,-28.809,-119.141,-40.527,-34.180,0.000
1709206472.630,-34.668,-62.500,-34.668,-26.855,0.000
1709206472.634,-32.715,-2.930,-39.551,-29.297,0.000
1709206472.638,-26.855,-46.875,-42.480,-43.457,0.000
1709206472.642,-27.832,-59.570,-37.109,-45.410,0.000
1709206472.646,-23.926,-28.809,-34.180,-35.645,0.000
1709206472.650,-18.555,-27.344,-34.180,-31.738,0.000
1709206472.654,-22.949,-49.805,-31.738,-21.484,0.000
1709206472.658,-28.809,-61.035,-35.645,-25.391,0.000
1709206472.661,-32.227,-62.012,-37.598,-31.250,0.000
1709206472.665,-34.180,-33.691,-40.039,-30.762,0.000
1709206472.669,-27.832,-61.523,-41.992,-24.902,0.000
1709206472.673,-32.227,-66.406,-39.551,-20.508,0.000
1709206472.677,-37.598,-17.090,-38.086,-33.203,0.000
1709206472.681,-28.809,-34.668,-41.016,-29.785,0.000
1709206472.685,-39.062,-69.824,-33.203,-18.555,0.000
1709206472.689,-37.598,-44.434,-29.297,-21.973,0.000
1709206472.693,-26.855,-21.484,-31.738,-26.367,0.000
1709206472.697,-40.527,-59.082,-30.762,-33.691,0.000
1709206472.701,-51.270,-80.078,-35.156,-31.738,0.000
1709206472.704,-49.316,-51.270,-38.574,-21.973,0.000
1709206472.708,-30.762,-29.785,-36.133,-21.484,0.000
1709206472.712,-25.879,-50.781,-32.715,-29.297,0.000
1709206472.716,-41.016,-92.773,-38.574,-41.504,0.000
1709206472.720,-50.781,-76.172,-40.527,-47.363,0.000
1709206472.724,-53.711,-55.176,-36.621,-44.434,0.000
1709206472.728,-36.621,-63.477,-31.738,-50.293,0.000
1709206472.732,-22.461,-84.473,-32.715,-51.758,0.000
1709206472.736,-52.246,-50.293,-39.551,-55.664,0.000
1709206472.740,-62.988,-46.387,-34.668,-52.734,0.000
1709206472.744,-60.547,-79.102,-33.203,-46.875,0.000
1709206472.748,-54.688,-69.336,-34.180,-47.363,0.000
1709206472.751,-43.945,-60.547,-35.645,-43.457,0.000
1709206472.755,-54.199,-64.941,-40.527,-54.688,0.000
1709206472.759,-57.617,-92.773,-37.598,-57.129,0.000
1709206472.763,-55.664,-105.469,-37.598,-46.387,0.000
1709206472.767,-45.898,-66.406,-39.551,-36.621,0.000
1709206472.771,-31.250,-41.016,-36.133,-36.133,0.000
1709206472.775,-31.738,-100.098,-37.109,-37.598,0.000
1709206472.779,-41.016,-100.098,-36.621,-30.273,0.000
1709206472.783,-55.176,-41.016,-31.738,-35.645,0.000
1709206472.787,-53.223,-65.430,-41.504,-35.645,0.000
1709206472.791,-35.156,-87.891,-44.434,-22.461,0.000
1709206472.794,-30.273,-67.871,-37.598,-23.926,0.000
1709206472.798,-36.133,-64.453,-33.691,-29.785,0.000
1709206472.802,-41.016,-81.543,-40.527,-31.738,0.000
1709206472.806,-36.133,-96.191,-49.316,-35.645,0.000
1709206472.810,-29.297,-91.309,-53.223,-35.645,0.000
1709206472.814,-30.273,-76.660,-50.781,-33.691,0.000
1709206472.818,-34.668,-92.285,-45.410,-33.691,0.000
1709206472.822,-25.879,-131.836,-47.363,-23.438,0.000
1709206472.826,-29.297,-57.129,-47.852,-23.926,0.000
1709206472.830,-30.762,-8.789,-44.922,-32.227,0.000
1709206472.833,-19.043,-51.758,-48.828,-35.156,0.000
1709206472.837,-28.809,-56.641,-36.621,-48.828,0.000
1709206472.841,-41.504,-43.945,-32.715,-58.105,0.000
1709206472.845,-42.480,-50.781,-39.062,-47.852,0.000
1709206472.849,-39.062,-70.801,-40.527,-48.340,0.000
1709206472.853,-41.016,-61.523,-36.133,-58.594,0.000
1709206472.857,-59.570,-72.754,-33.203,-61.035,0.000
1709206472.861,-67.871,-67.871,-33.691,-65.918,0.000
1709206472.865,-65.430,-79.102,-37.109,-62.988,0.000
1709206472.869,-55.664,-79.590,-41.504,-47.363,0.000
1709206472.873,-53.223,-13.184,-41.016,-52.734,0.000
1709206472.876,-59.082,-23.926,-37.109,-56.641,0.000
1709206472.880,-61.523,-60.547,-43.457,-48.340,0.000
1709206472.884,-57.617,-47.363,-50.293,-54.199,0.000
1709206472.888,-50.781,-38.086,-50.781,-62.988,0.000
1709206472.892,-34.180,-53.223,-45.410,-53.711,0.000
1709206472.896,-25.879,-50.293,-41.992,-46.875,0.000
1709206472.900,-44.434,-29.297,-44.434,-47.363,0.000
1709206472.904,-41.504,-37.109,-47.363,-44.922,0.000
1709206472.908,-20.996,-49.316,-39.062,-29.785,0.000
1709206472.912,-10.742,-65.430,-28.809,-0.488,0.000
1709206472.915,-20.020,-12.207,-32.227,-15.137,0.000
1709206472.919,-31.250,14.160,-41.992,-35.156,0.000
1709206472.923,-21.484,-17.578,-39.062,-19.043,0.000
1709206472.927,-9.766,-17.578,-40.527,-20.508,0.000
1709206472.931,-6.348,0.488,-39.551,-21.484,0.000
1709206472.935,-6.836,-14.648,-30.273,-10.254,0.000
1709206472.939,-19.043,-47.852,-29.785,-14.648,0.000
1709206472.943,-32.715,-38.086,-33.203,-23.438,0.000
1709206472.947,-23.438,-41.016,-32.715,-23.926,0.000
1709206472.951,-19.043,-46.875,-33.203,-30.762,0.000
1709206472.954,-28.809,-58.105,-32.715,-40.039,0.000
1709206472.958,-48.828,-63.965,-35.645,-36.133,0.000
1709206472.962,-58.105,-14.648,-37.598,-49.316,0.000
1709206472.966,-52.246,-1.465,-35.156,-53.711,0.000
1709206472.970,-45.410,-23.926,-34.668,-43.457,0.000
1709206472.974,-43.945,-15.137,-39.551,-43.457,0.000
1709206472.978,-47.852,-18.066,-40.527,-48.340,0.000
1709206472.982,-53.223,-50.293,-42.969,-55.664,0.000
1709206472.986,-54.199,-59.570,-51.758,-53.223,0.000
1709206472.990,-44.434,-18.555,-48.340,-44.434,0.000
1709206472.993,-35.645,-19.531,-43.945,-51.270,0.000
1709206472.997,-37.109,-77.637,-46.875,-67.383,0.000
1709206473.001,-65.430,-129.883,-45.410,-55.664,0.000
1709206473.005,-67.871,-73.730,-43.457,-47.852,0.000
1709206473.009,-47.852,-10.742,-42.480,-54.199,0.000
1709206473.013,-47.852,-29.785,-42.969,-47.363,0.000
1709206473.017,-52.246,-58.594,-41.992,-40.039,0.000
1709206473.021,-53.711,-42.969,-33.691,-41.504,0.000
1709206473.025,-50.781,-41.992,-39.062,-48.340,0.000
1709206473.029,-37.598,-63.477,-45.410,-44.434,0.000
1709206473.032,-36.133,-49.805,-37.109,-34.668,0.000
1709206473.036,-40.527,-41.016,-33.691,-36.621,0.000
1709206473.040,-29.785,-44.922,-37.109,-41.992,0.000
1709206473.044,-47.852,-81.543,-34.668,-41.016,0.000
1709206473.048,-54.688,-75.684,-38.086,-26.855,0.000
1709206473.052,-38.574,-18.066,-46.387,-26.855,0.000
1709206473.056,-48.340,-36.621,-47.852,-40.527,0.000
1709206473.060,-56.641,-84.961,-44.922,-37.598,0.000
1709206473.064,-53.223,-62.500,-39.062,-35.156,0.000
1709206473.068,-39.551,-24.414,-37.598,-38.086,0.000
1709206473.072,-36.133,-40.527,-40.527,-41.016,0.000
1709206473.075,-46.387,-77.148,-38.574,-46.875,0.000
1709206473.079,-58.105,-62.012,-35.645,-58.594,0.000
1709206473.083,-62.988,-37.109,-32.715,-55.664,0.000
1709206473.087,-60.547,-50.293,-38.574,-53.711,0.000
1709206473.091,-59.570,-82.031,-42.969,-54.199,0.000
1709206473.095,-61.035,-68.848,-39.551,-53.711,0.000
1709206473.099,-69.824,-42.969,-37.109,-58.594,0.000
1709206473.103,-67.871,-46.875,-36.621,-62.500,0.000
1709206473.107,-54.688,-88.867,-37.109,-58.105,0.000
1709206473.111,-45.898,-29.785,-40.527,-56.152,0.000
1709206473.115,-39.062,-13.672,-39.551,-61.523,0.000
1709206473.119,-46.875,-68.359,-36.621,-61.523,0.000
1709206473.122,-62.988,-62.012,-38.086,-56.152,0.000
1709206473.126,-50.781,-41.504,-38.574,-45.410,0.000
1709206473.130,-29.297,-43.457,-38.574,-45.410,0.000
1709206473.134,-26.367,-74.219,-40.039,-51.758,0.000
1709206473.138,-37.598,-91.797,-40.527,-52.246,0.000
1709206473.142,-36.133,-65.430,-35.645,-49.805,0.000
1709206473.146,-23.438,-34.668,-37.109,-47.852,0.000
1709206473.150,-30.762,-78.613,-41.992,-33.691,0.000
1709206473.154,-39.062,-94.238,-37.109,-21.484,0.000
1709206473.158,-39.551,-22.949,-40.039,-21.484,0.000
1709206473.161,-46.875,-41.992,-46.387,-22.949,0.000
1709206473.165,-46.387,-76.660,-39.062,-28.809,0.000
1709206473.169,-35.156,-47.852,-37.109,-26.855,0.000
1709206473.173,-32.715,-64.453,-41.992,-27.344,0.000
1709206473.177,-42.969,-86.914,-39.062,-30.762,0.000
1709206473.181,-48.828,-75.684,-38.086,-28.320,0.000
1709206473.185,-49.316,-63.965,-37.109,-19.531,0.000
1709206473.189,-46.875,-49.805,-33.203,-14.160,0.000
1709206473.193,-44.434,-62.988,-36.133,-18.555,0.000
1709206473.197,-38.086,-111.328,-40.527,-14.160,0.000
1709206473.201,-41.016,-50.781,-44.434,-22.461,0.000
1709206473.204,-52.246,-6.348,-43.457,-36.133,0.000
1709206473.208,-38.086,-48.340,-42.480,-34.180,0.000
1709206473.212,-23.926,-42.480,-43.457,-25.879,0.000
1709206473.216,-30.762,-23.926,-41.016,-31.250,0.000
1709206473.220,-37.598,-41.992,-41.016,-42.969,0.000
1709206473.224,-40.527,-57.617,-41.016,-40.527,0.000
1709206473.228,-32.715,-43.945,-40.527,-44.434,0.000
1709206473.232,-24.414,-51.270,-41.016,-47.363,0.000
1709206473.236,-26.367,-54.688,-41.016,-51.758,0.000
1709206473.240,-29.785,-74.219,-42.480,-45.898,0.000
1709206473.244,-38.574,-66.895,-40.039,-30.273,0.000
1709206473.247,-28.320,3.906,-41.992,-52.734,0.000
1709206473.251,-32.715,-0.977,-44.434,-63.965,0.000
1709206473.255,-47.852,-46.875,-45.410,-57.129,0.000
1709206473.259,0.000,-48.828,-46.875,-65.430,0.000
1709206473.263,0.000,-33.691,-39.062,-61.035,0.000
1709206473.267,0.000,-54.199,-38.086,-57.129,0.000
1709206473.271,0.000,-69.336,-40.039,-51.758,0.000
1709206473.275,0.000,-42.969,-37.109,-45.898,0.000
1709206473.279,0.000,-61.035,-36.621,-47.852,0.000
1709206473.283,0.000,-79.102,-40.527,-45.898,0.000
1709206473.286,0.000,-112.305,-31.250,-31.250,0.000
1709206473.290,0.000,-66.895,-33.691,-28.809,0.000
1709206473.294,0.000,-14.648,-38.086,-33.691,0.000
1709206473.298,0.000,-54.688,-34.180,-46.875,0.000
1709206473.302,0.000,-66.895,-38.086,-51.758,0.000
1709206473.306,-61.523,-43.457,-39.551,-38.574,0.000
1709206473.310,-49.805,-37.109,-40.039,-33.691,0.000
1709206473.314,-47.852,-64.453,-38.574,-28.809,0.000
1709206473.318,-60.059,-65.918,-41.016,-36.621,0.000
1709206473.322,-69.336,-61.523,-40.527,-44.434,0.000
1709206473.326,-52.734,-78.125,-37.109,-40.039,0.000
1709206473.329,-33.203,-93.262,-37.109,-33.203,0.000
1709206473.333,-32.715,-85.938,-39.062,-19.531,0.000
1709206473.337,-44.922,-29.297,-40.527,-30.273,0.000
1709206473.341,-42.969,-27.344,-36.133,-35.156,0.000
1709206473.345,-32.715,-71.289,-34.180,-27.344,0.000
1709206473.349,-6.348,-48.340,-35.156,-37.109,0.000
1709206473.353,10.742,-6.836,-35.645,-38.574,0.000
1709206473.357,-17.578,-39.551,-40.527,-29.785,0.000
1709206473.361,-28.809,-74.707,-43.457,-27.832,0.000
1709206473.365,-20.996,-47.363,-43.457,-26.367,0.000
1709206473.368,-17.090,-31.250,-43.945,-34.180,0.000
1709206473.372,-24.414,-62.500,-42.969,-41.016,0.000
1709206473.376,-28.320,-117.676,-38.086,-33.203,0.000
1709206473.380,-30.273,-74.707,-32.227,-30.762,0.000
1709206473.384,-41.992,-30.762,-35.645,-33.203,0.000
1709206473.388,-41.504,-37.598,-36.621,-34.668,0.000
1709206473.392,-38.574,-36.621,-38.086,-39.551,0.000
1709206473.396,-41.992,-40.527,-41.504,-56.641,0.000
1709206473.400,-49.316,-50.781,-42.969,-64.941,0.000
1709206473.403,-64.941,-72.754,-38.574,-40.527,0.000
1709206473.407,-53.223,-61.035,-31.250,-27.344,0.000
1709206473.411,-38.574,-41.992,-32.227,-31.250,0.000
1709206473.415,-39.551,-44.922,-29.297,-40.039,0.000
1709206473.419,-50.781,-83.984,-30.762,-42.480,0.000
1709206473.423,-55.664,-83.496,-33.691,-31.250,0.000
1709206473.427,-44.922,-15.625,-35.156,-35.156,0.000
1709206473.431,-41.504,-21.973,-35.645,-35.645,0.000
1709206473.435,-43.457,-66.895,-29.785,-34.180,0.000
1709206473.439,-51.270,-63.965,-27.832,-49.316,0.000
1709206473.443,-64.941,-47.363,-36.621,-56.152,0.000
1709206473.447,-43.457,-47.852,-39.551,-41.504,0.000
1709206473.450,-34.668,-64.941,-37.109,-36.133,0.000
1709206473.454,-42.480,-55.176,-33.691,-37.598,0.000
1709206473.458,-41.504,-50.293,-32.715,-40.039,0.000
1709206473.462,-42.969,-88.867,-29.785,-41.504,0.000
1709206473.466,-35.645,-97.656,-24.414,-38.086,0.000
1709206473.470,-24.414,-62.012,-19.043,-30.273,0.000
1709206473.474,-20.996,-39.062,-20.508,-33.691,0.000
1709206473.478,-26.855,-60.059,-25.879,-39.062,0.000
1709206473.482,-41.992,-118.164,-32.715,-32.715,0.000
1709206473.486,-30.762,-41.992,-38.574,-41.504,0.000
1709206473.489,-11.230,-8.789,-34.180,-44.922,0.000
1709206473.493,-24.902,-52.734,0.000,-34.180,0.000
1709206473.497,-36.133,-51.758,0.000,-35.156,0.000
1709206473.501,-36.621,-38.574,0.000,-35.156,0.000
1709206473.505,-34.180,-46.875,0.000,-34.180,0.000
1709206473.509,-22.461,-66.895,0.000,-34.180,0.000
1709206473.513,-11.719,-76.172,0.000,-31.250,0.000
1709206473.517,-21.973,-60.059,0.000,-28.320,0.000
1709206473.521,-29.785,-53.223,0.000,-19.043,0.000
1709206473.525,-21.484,-70.801,0.000,-6.348,0.000
1709206473.529,-21.484,-54.688,0.000,-4.395,0.000
1709206473.533,-27.344,-5.371,0.000,-26.855,0.000
1709206473.536,-26.855,-31.738,0.000,-45.410,0.000
1709206473.540,-40.039,-78.125,-37.109,-41.992,0.000
1709206473.544,-47.363,-62.988,-37.109,-41.992,0.000
1709206473.548,-33.691,-36.133,-36.133,-43.457,0.000
1709206473.552,-28.809,-52.246,-41.016,-41.992,0.000
1709206473.556,-37.109,-76.660,-42.480,-45.898,0.000
1709206473.560,-49.316,-81.543,-38.574,-51.270,0.000
1709206473.564,-40.527,-72.266,-34.180,-49.805,0.000
1709206473.568,-15.137,-62.500,-37.598,-44.434,0.000
1709206473.572,-33.203,-105.469,-39.062,-33.691,0.000
1709206473.576,-49.805,-70.801,-41.016,-34.668,0.000
1709206473.579,-45.898,-19.043,-38.086,-42.480,0.000
1709206473.583,-41.992,-47.852,-34.668,-30.762,0.000
1709206473.587,-29.785,-51.270,-34.668,-25.391,0.000
1709206473.591,-21.484,-32.715,-33.691,-34.180,0.000
1709206473.595,-27.832,-60.059,-37.109,-40.527,0.000
1709206473.599,-45.410,-83.984,-36.133,-38.574,0.000
1709206473.603,-44.922,-63.477,-33.691,-36.133,0.000
1709206473.607,-33.691,-69.336,-33.203,-30.762,0.000
1709206473.611,-30.273,-69.824,-28.320,-29.785,0.000
1709206473.615,-25.391,-82.520,-29.297,-27.832,0.000
1709206473.619,-49.316,-94.238,-34.668,-26.367,0.000
1709206473.622,-60.547,-38.086,-37.598,-40.039,0.000
1709206473.626,-43.945,-29.297,-34.180,-37.598,0.000
1709206473.630,-37.598,-62.500,-31.250,-19.531,0.000
1709206473.634,-37.598,-68.359,-35.645,-29.785,0.000
1709206473.638,-50.293,-47.852,-37.109,-50.293,0.000
1709206473.642,-53.711,-63.477,-36.621,-44.434,0.000
1709206473.646,-41.016,-85.938,-38.574,-41.504,0.000
1709206473.650,-37.109,-53.711,-37.598,-46.875,0.000
1709206473.654,-42.480,-59.082,-36.133,-35.156,0.000
1709206473.658,-52.246,-89.844,-37.598,-39.551,0.000
1709206473.661,-58.594,-116.211,-40.039,-35.645,0.000
1709206473.665,-51.270,-48.340,-44.922,-32.227,0.000
1709206473.669,-45.410,-11.719,-45.898,-40.527,0.000
1709206473.673,-43.945,-52.734,-42.480,-36.133,0.000
1709206473.677,-48.828,-68.359,-41.992,-53.711,0.000
1709206473.681,-57.617,-62.012,-41.504,-64.941,0.000
1709206473.685,-56.152,-64.941,-42.480,-54.199,0.000
1709206473.689,-46.387,-84.961,-44.922,-53.711,0.000
1709206473.693,-48.340,-73.242,-39.551,-58.105,0.000
1709206473.697,-62.988,-61.035,-37.109,-53.711,0.000
1709206473.700,-57.129,-83.008,-40.527,-53.711,0.000
1709206473.704,-48.340,-110.840,-41.504,-44.434,0.000
1709206473.708,-41.992,-101.562,-44.434,-28.320,0.000
1709206473.712,-34.180,-20.020,-39.551,-28.809,0.000
1709206473.716,-30.762,-36.133,-36.621,-34.180,0.000
1709206473.720,-37.109,-87.891,-41.016,-39.062,0.000
1709206473.724,-38.574,-60.547,-38.574,-28.809,0.000
1709206473.728,-31.738,-34.180,-36.133,-23.926,0.000
1709206473.732,-28.320,-47.363,-35.645,-31.738,0.000
1709206473.736,-28.320,-83.496,-33.691,-32.715,0.000
1709206473.739,-46.387,-70.312,-32.715,-29.297,0.000
1709206473.743,-64.453,-59.570,-31.738,-31.738,0.000
1709206473.747,-53.223,-78.613,-36.621,-34.180,0.000
1709206473.751,-39.062,-116.211,-35.645,-24.902,0.000
1709206473.755,-41.016,-87.402,-31.250,-33.203,0.000
1709206473.759,-41.016,-33.691,-29.785,-41.504,0.000
1709206473.763,-45.410,-44.922,-30.762,-33.691,0.000
1709206473.767,-46.387,-48.828,-31.738,-35.156,0.000
1709206473.771,-35.645,-34.180,-37.598,-34.668,0.000
1709206473.775,-34.180,-42.480,-41.504,-38.574,0.000
1709206473.778,-51.270,-74.707,-39.551,-54.199,0.000
1709206473.782,-62.012,-71.289,-42.969,-53.711,0.000
1709206473.786,-41.992,-40.527,-42.480,-41.992,0.000
1709206473.790,-45.898,-37.598,-45.410,-42.480,0.000
1709206473.794,-61.523,-84.961,-47.852,-50.293,0.000
1709206473.798,-55.664,-85.449,-41.504,-44.922,0.000
1709206473.802,-57.617,-50.781,-44.922,-38.574,0.000
1709206473.806,-49.805,-71.289,-49.805,-42.969,0.000
1709206473.810,-34.668,-79.102,-46.875,-54.199,0.000
1709206473.814,-30.273,-45.410,-41.992,-49.805,0.000
1709206473.818,-29.785,-29.785,-40.527,-43.945,0.000
1709206473.822,-35.156,-52.734,-37.598,-35.645,0.000
1709206473.825,-31.250,-75.684,-37.109,-28.320,0.000
1709206473.829,-22.949,-52.246,-39.551,-35.156,0.000
1709206473.833,-12.695,-31.738,-38.574,-41.504,0.000
1709206473.837,-19.043,-56.152,-37.598,-39.551,0.000
1709206473.841,-39.062,-93.262,-39.551,-39.062,0.000
1709206473.845,-38.574,-71.777,-41.504,-39.062,0.000
1709206473.849,-26.855,-44.922,-42.480,-40.527,0.000
1709206473.853,-26.367,-50.781,-48.828,-44.434,0.000
1709206473.857,-35.645,-98.145,-49.316,-35.156,0.000
1709206473.861,-36.133,-66.895,-43.457,-35.645,0.000
1709206473.864,-32.227,-34.180,-41.016,-41.016,0.000
1709206473.868,-29.785,-46.387,-41.504,-39.062,0.000
1709206473.872,-17.578,-38.086,-38.086,-36.133,0.000
1709206473.876,-9.277,-30.762,-36.621,-31.250,0.000
1709206473.880,-34.180,-58.594,-39.551,-27.344,0.000
1709206473.884,-48.828,-84.961,-44.434,-32.227,0.000
1709206473.888,-43.945,-89.355,-43.457,-36.621,0.000
1709206473.892,-32.715,-61.523,-41.504,-30.273,0.000
1709206473.896,-37.598,-44.434,-45.898,-37.109,0.000
1709206473.900,-50.293,-90.820,-43.945,-40.039,0.000
1709206473.904,-52.246,-93.262,-37.598,-21.484,0.000
1709206473.907,-48.340,-23.926,-36.621,-21.484,0.000
1709206473.911,-44.922,-33.691,-41.992,-29.785,0.000
1709206473.915,-46.387,-89.844,-42.969,-34.668,0.000
1709206473.919,-40.039,-93.262,-40.527,-42.480,0.000
1709206473.923,-45.898,-57.129,-40.039,-39.551,0.000
1709206473.927,-51.758,-63.477,-45.410,-35.645,0.000
1709206473.931,-37.598,-88.379,-41.992,-32.227,0.000
1709206473.935,-27.344,-83.008,-36.621,-30.273,0.000
1709206473.939,-36.133,-72.754,-37.598,-37.598,0.000
1709206473.943,-51.758,-87.891,-36.133,-42.480,0.000
1709206473.947,-49.316,-118.164,-27.832,-25.391,0.000
1709206473.950,-39.551,-40.527,-31.738,-29.297,0.000
1709206473.954,-35.645,-9.766,-35.645,-45.898,0.000
1709206473.958,-36.621,-72.266,-29.297,-43.457,0.000
1709206473.962,-30.762,-72.754,-29.297,-35.645,0.000
1709206473.966,-35.156,-41.504,-34.668,-38.086,0.000
1709206473.970,-33.203,-37.109,-36.133,-39.062,0.000
1709206473.974,-26.855,-65.430,-29.785,-33.203,0.000
1709206473.978,-37.109,-70.801,-28.809,-36.133,0.000
1709206473.982,-43.945,-59.570,-30.273,-45.410,0.000
1709206473.986,-45.898,-56.641,-31.738,-49.316,0.000
1709206473.990,-35.156,-68.359,-33.691,-40.039,0.000
1709206473.993,-37.109,-76.172,-35.645,-29.297,0.000
1709206473.997,-50.781,-28.320,-37.598,-31.738,0.000
1709206474.001,-48.340,-42.480,-36.621,-35.645,0.000
1709206474.005,-38.086,-81.055,-40.527,-41.504,0.000
1709206474.009,-41.504,-43.945,-40.527,-42.480,0.000
1709206474.013,-49.316,-29.297,-38.574,-36.133,0.000
1709206474.017,-52.246,-68.359,-38.086,-34.668,0.000
1709206474.021,-55.664,-77.148,-31.250,-43.945,0.000
1709206474.025,-53.223,-49.805,-33.203,-42.969,0.000
1709206474.029,-44.922,-52.734,-39.551,-40.527,0.000
1709206474.032,-38.574,-62.988,-35.645,-40.039,0.000
1709206474.036,-53.711,-119.629,-36.621,-29.785,0.000
1709206474.040,-72.754,-69.336,-37.109,-32.715,0.000
1709206474.044,-73.242,-5.859,-37.598,-43.945,0.000
1709206474.048,-47.852,-43.457,-34.668,-39.551,0.000
1709206474.052,-35.645,-46.875,-31.250,-36.133,0.000
1709206474.056,-55.664,-42.480,-33.691,-41.504,0.000
1709206474.060,-56.641,-52.734,-25.879,-41.504,0.000
1709206474.064,-55.176,-66.406,-29.297,-37.598,0.000
1709206474.068,-46.387,-48.828,-34.180,-36.133,0.000
1709206474.072,-29.785,-35.645,-30.273,-31.738,0.000
1709206474.075,-32.227,-60.059,-35.156,-31.738,0.000
1709206474.079,-40.039,-89.355,-40.039,-40.039,0.000
1709206474.083,-46.387,-81.055,-36.133,-38.574,0.000
1709206474.087,-29.785,-15.625,-32.227,-36.133,0.000
1709206474.091,-26.367,-33.691,-33.691,-38.086,0.000
1709206474.095,-41.992,-53.223,-32.227,-38.574,0.000
1709206474.099,-45.410,-31.738,-30.273,-43.457,0.000
