timestamps,TP9,AF7,AF8,TP10,Right AUX
1709299716.893,-29.297,-38.086,-36.133,-18.555,0.000
1709299716.897,-26.367,-34.668,-31.250,-26.855,0.000
1709299716.901,-26.855,-32.715,-19.531,-30.273,0.000
1709299716.905,-20.508,-34.180,-20.020,-23.926,0.000
1709299716.909,-14.648,-45.898,-20.996,-18.066,0.000
1709299716.913,-18.555,-35.645,-21.973,-29.297,0.000
1709299716.917,-27.832,-29.785,-24.902,-48.340,0.000
1709299716.921,-29.785,-42.969,-26.367,-51.270,0.000
1709299716.925,-29.785,-39.062,-28.809,-32.715,0.000
1709299716.928,-38.086,-28.320,-35.645,-31.738,0.000
1709299716.932,-46.875,-34.180,-36.133,-36.133,0.000
1709299716.936,-46.387,-39.551,-26.367,-30.762,0.000
1709299716.936,-46.387,-39.551,-26.367,-30.762,0.000
1709299716.940,-39.062,-33.203,-21.484,-22.949,0.000
1709299716.944,-33.203,-35.645,-27.344,-13.672,0.000
1709299716.948,-31.250,-49.805,-27.344,-10.254,0.000
1709299716.952,-34.668,-56.641,-23.926,-16.602,0.000
1709299716.956,-44.922,-53.223,-20.508,-29.785,0.000
1709299716.960,-51.270,-37.109,-17.578,-25.879,0.000
1709299716.964,-48.340,-34.668,-20.996,-20.996,0.000
1709299716.967,-41.992,-42.969,-21.973,-14.160,0.000
1709299716.971,-41.504,-44.922,-29.785,-10.742,0.000
1709299716.975,-42.480,-48.828,-30.273,-20.020,0.000
1709299716.979,-43.457,-57.617,-34.180,-26.367,0.000
1709299716.983,-43.457,-56.152,-33.691,-14.648,0.000
1709299716.987,-47.363,-41.992,-27.344,-11.719,0.000
1709299716.991,-60.059,-31.738,-38.574,-33.203,0.000
1709299716.995,-60.059,-32.227,-31.738,-41.016,0.000
1709299716.999,-53.223,-33.691,-18.555,-41.992,0.000
1709299717.002,-51.758,-39.062,-16.602,-41.992,0.000
1709299717.006,-50.781,-49.316,-14.160,-38.574,0.000
1709299717.010,-50.781,-53.223,-18.555,-43.945,0.000
1709299717.014,-49.316,-46.875,-25.879,-43.945,0.000
1709299717.018,-43.945,-41.504,-29.297,-46.387,0.000
1709299717.022,-41.016,-41.992,-33.203,-59.082,0.000
1709299717.026,-36.133,-44.922,-38.574,-49.316,0.000
1709299717.030,-23.926,-34.668,-32.715,-37.109,0.000
1709299717.034,-23.926,-29.785,-32.715,-48.340,0.000
1709299717.037,-27.832,-32.715,-40.039,-55.664,0.000
1709299717.041,-22.461,-34.180,-32.227,-49.805,0.000
1709299717.045,-20.020,-36.133,-18.555,-46.387,0.000
1709299717.049,-15.625,-37.598,-18.555,-51.270,0.000
1709299717.053,-20.020,-30.273,-28.809,-60.547,0.000
1709299717.057,-17.090,-38.574,-33.203,-55.664,0.000
1709299717.061,-15.137,-41.992,-37.109,-46.387,0.000
1709299717.065,-26.367,-18.555,-41.992,-50.781,0.000
1709299717.069,-31.738,-10.254,-39.062,-48.828,0.000
1709299717.073,-28.809,-14.648,-33.203,-42.480,0.000
1709299717.076,-35.645,-37.109,-35.645,-43.457,0.000
1709299717.080,-45.410,-41.992,-40.527,-46.875,0.000
1709299717.084,-49.805,-33.691,-33.203,-45.898,0.000
1709299717.088,-47.852,-35.156,-32.227,-41.016,0.000
1709299717.092,-47.852,-30.762,-41.992,-40.527,0.000
1709299717.096,-55.664,-39.551,-33.203,-45.898,0.000
1709299717.100,-52.246,-39.551,-20.996,-37.109,0.000
1709299717.103,-55.176,-27.832,-25.391,-22.949,0.000
1709299717.107,-59.082,-25.391,-32.715,-24.414,0.000
1709299717.111,-56.152,-32.715,-34.668,-33.203,0.000
1709299717.115,-62.500,-41.504,-32.227,-41.504,0.000
1709299717.119,-63.965,-38.086,-36.621,-39.551,0.000
1709299717.123,-62.012,-34.668,-42.480,-37.598,0.000
1709299717.127,-62.988,-29.785,-39.551,-35.645,0.000
1709299717.130,-55.664,-32.715,-32.227,-33.691,0.000
1709299717.134,-55.176,-45.898,-30.762,-46.875,0.000
1709299717.138,-52.246,-54.688,-43.457,-53.711,0.000
1709299717.142,-49.805,-51.270,-36.621,-51.758,0.000
1709299717.146,-48.828,-25.879,-26.367,-44.922,0.000
1709299717.150,-49.316,-18.066,-35.156,-43.945,0.000
1709299717.154,-57.617,-39.062,-35.645,-57.129,0.000
1709299717.158,-58.594,-44.922,-33.691,-65.430,0.000
1709299717.162,-48.340,-43.945,-41.016,-50.781,0.000
1709299717.166,-45.410,-46.387,-42.969,-39.551,0.000
1709299717.170,-43.945,-43.945,-35.156,-40.527,0.000
1709299717.174,-33.691,-45.410,-28.320,-36.621,0.000
1709299717.178,-34.180,-50.293,-22.949,-36.621,0.000
1709299717.182,-42.480,-50.781,-29.785,-39.551,0.000
1709299717.185,-48.340,-43.945,-31.250,-36.621,0.000
1709299717.189,-53.223,-41.016,-24.414,-37.598,0.000
1709299717.193,-57.129,-35.156,-32.715,-47.852,0.000
1709299717.197,-57.617,-29.297,-41.992,-52.246,0.000
1709299717.201,-61.523,-35.156,-38.574,-51.270,0.000
1709299717.205,-59.570,-42.480,-37.109,-43.457,0.000
1709299717.209,-55.664,-40.527,-39.062,-34.180,0.000
1709299717.213,-62.500,-39.551,-37.598,-45.410,0.000
1709299717.217,-62.988,-40.039,-36.133,-54.199,0.000
1709299717.222,-62.988,-41.992,-38.086,-45.410,0.000
1709299717.226,-66.895,-44.434,-38.086,-33.691,0.000
1709299717.230,-65.918,-48.828,-37.598,-34.668,0.000
1709299717.234,-62.500,-45.410,-39.062,-42.969,0.000
1709299717.238,-60.059,-27.832,-39.551,-42.969,0.000
1709299717.242,-60.547,-32.227,-45.410,-41.504,0.000
1709299717.246,-54.688,-36.621,-47.363,-40.527,0.000
1709299717.250,-51.270,-36.621,-41.992,-46.875,0.000
1709299717.253,-52.734,-49.316,-41.992,-48.828,0.000
1709299717.257,-54.199,-41.992,-37.598,-47.363,0.000
1709299717.261,-55.176,-40.527,-33.203,-59.082,0.000
1709299717.265,-55.176,-47.852,-37.598,-60.059,0.000
1709299717.269,-49.316,-42.969,-43.457,-59.570,0.000
1709299717.273,-45.410,-50.293,-44.922,-68.848,0.000
1709299717.277,-48.828,-57.617,-40.039,-70.312,0.000
1709299717.281,-51.270,-53.223,-34.180,-66.406,0.000
1709299717.285,-46.875,-49.316,-31.250,-60.059,0.000
1709299717.289,-47.852,-52.734,-40.527,-52.734,0.000
1709299717.293,-52.734,-51.758,-47.363,-59.082,0.000
1709299717.296,-44.922,-36.621,-46.875,-59.570,0.000
1709299717.300,-47.852,-39.551,-47.852,-46.875,0.000
1709299717.304,-47.852,-41.016,-53.223,-43.945,0.000
1709299717.308,-37.109,-40.527,-44.434,-33.203,0.000
1709299717.312,-37.109,-42.480,-39.062,-35.645,0.000
1709299717.316,-32.715,-39.062,-50.781,-35.156,0.000
1709299717.320,-20.996,-45.410,-40.527,-29.297,0.000
1709299717.324,-26.367,-52.246,-31.738,-36.133,0.000
1709299717.328,-33.203,-46.387,-41.504,-32.227,0.000
1709299717.332,-34.668,-30.762,-43.457,-31.250,0.000
1709299717.335,-36.133,-26.367,-44.922,-50.293,0.000
1709299717.339,-32.715,-23.926,-43.945,-59.082,0.000
1709299717.343,-36.133,-31.250,-39.062,-51.758,0.000
1709299717.347,-40.527,-43.457,-41.016,-44.922,0.000
1709299717.351,-45.410,-29.785,-43.457,-56.152,0.000
1709299717.355,-44.922,-32.715,-35.156,-67.383,0.000
1709299717.359,-43.457,-34.668,-37.598,-62.988,0.000
1709299717.363,-46.387,-25.879,0.000,-58.594,0.000
1709299717.367,-45.410,-28.809,0.000,-61.035,0.000
1709299717.371,-45.410,-29.297,0.000,-56.152,0.000
1709299717.375,-49.316,-33.691,0.000,-58.105,0.000
1709299717.379,-49.805,-25.391,0.000,-60.547,0.000
1709299717.383,-42.969,-29.785,0.000,-51.758,0.000
1709299717.387,-37.598,-48.828,0.000,-48.828,0.000
1709299717.391,-33.203,-46.387,0.000,-39.062,0.000
1709299717.395,-28.809,-34.668,0.000,-40.039,0.000
1709299717.398,-36.621,-22.949,0.000,-47.852,0.000
1709299717.402,-38.574,-24.414,0.000,-45.410,0.000
1709299717.406,-34.668,-35.645,0.000,-47.363,0.000
1709299717.411,-32.715,-35.645,-48.340,-53.711,0.000
1709299717.415,-30.273,-46.387,-45.410,-57.129,0.000
1709299717.419,-33.691,-44.434,-39.551,-61.523,0.000
1709299717.423,-32.227,-38.086,-39.551,-55.664,0.000
1709299717.427,-33.691,-46.875,-43.945,-43.457,0.000
1709299717.431,-36.133,-50.293,-36.621,-45.410,0.000
1709299717.435,-31.250,-47.852,-33.691,-43.945,0.000
1709299717.438,-27.832,-41.016,-36.133,-33.203,0.000
1709299717.442,-29.297,-23.926,-34.180,-39.062,0.000
1709299717.446,-31.250,-30.273,-41.992,-33.203,0.000
1709299717.450,-25.391,-35.156,-43.945,-29.785,0.000
1709299717.454,-24.414,-29.785,-42.969,-41.504,0.000
1709299717.458,-31.738,-41.504,-45.410,-50.781,0.000
1709299717.461,-38.086,-41.992,-38.574,-53.223,0.000
1709299717.465,-40.527,-31.738,-38.086,-43.945,0.000
1709299717.469,-32.227,-24.414,-41.016,-33.691,0.000
1709299717.473,-32.715,-25.879,-45.410,-37.598,0.000
1709299717.477,-43.457,-35.156,-40.039,-48.828,0.000
1709299717.481,-40.039,-34.668,-40.039,-45.410,0.000
1709299717.485,-41.992,-27.832,-44.922,-41.504,0.000
1709299717.489,-59.570,-35.645,-42.480,-47.363,0.000
1709299717.493,-64.453,-45.898,-37.598,-44.434,0.000
1709299717.497,-57.129,-44.922,-27.344,-41.016,0.000
1709299717.500,-52.734,-57.617,-27.832,-48.828,0.000
1709299717.504,-49.316,-42.969,-33.203,-56.152,0.000
1709299717.508,-46.387,-27.832,-42.480,-53.223,0.000
1709299717.512,-38.086,-34.180,-47.852,-45.410,0.000
1709299717.516,-34.180,-35.156,-45.898,-48.340,0.000
1709299717.519,-42.969,-50.781,-50.293,-65.430,0.000
1709299717.523,-43.945,-50.781,-53.711,-56.152,0.000
1709299717.527,-39.551,-44.434,-51.270,-36.621,0.000
1709299717.531,-33.203,-51.758,-44.434,-31.738,0.000
1709299717.535,-29.785,-48.340,-40.527,-37.598,0.000
1709299717.539,-34.668,-31.738,-39.062,-41.016,0.000
1709299717.543,-25.391,-40.527,-36.133,-36.133,0.000
1709299717.547,-24.414,-43.457,-41.504,-43.945,0.000
1709299717.551,-33.203,-25.879,-32.715,-49.805,0.000
1709299717.555,-38.086,-36.621,-29.785,-58.105,0.000
1709299717.559,-37.598,-44.434,-28.320,-58.594,0.000
1709299717.563,-29.297,-34.180,-20.020,-44.434,0.000
1709299717.567,-33.203,-32.715,-26.855,-41.504,0.000
1709299717.570,-37.598,-39.551,-25.391,-39.062,0.000
1709299717.574,-46.875,-44.922,-25.391,-42.969,0.000
1709299717.578,-46.875,-37.598,-30.273,-50.781,0.000
1709299717.582,-50.293,-37.109,-36.133,-50.293,0.000
1709299717.586,-52.246,-34.668,-36.621,-28.320,0.000
1709299717.590,-42.969,-29.297,-32.227,-22.461,0.000
1709299717.594,-40.039,-25.879,-32.715,-38.574,0.000
1709299717.598,-42.969,-47.363,-32.715,-36.621,0.000
1709299717.602,-46.387,-57.129,-40.527,-33.203,0.000
1709299717.606,-45.898,-29.297,-34.180,-31.250,0.000
1709299717.610,-39.062,-24.902,-31.250,-25.879,0.000
1709299717.613,-30.762,-38.086,-33.203,-28.809,0.000
1709299717.617,-33.203,-45.410,-31.738,-34.180,0.000
1709299717.621,-37.598,-41.504,-34.180,-37.598,0.000
1709299717.625,-37.598,-28.809,-29.297,-32.715,0.000
1709299717.629,-36.621,-31.738,-32.715,-28.809,0.000
1709299717.633,-44.434,-44.434,-39.062,-36.133,0.000
1709299717.637,-57.129,-35.156,-36.133,-46.387,0.000
1709299717.641,-53.223,-34.180,-41.992,-50.293,0.000
1709299717.645,-42.969,-58.594,-52.734,-42.480,0.000
1709299717.649,-36.133,-47.852,-42.969,-33.203,0.000
1709299717.653,-41.992,-27.344,-41.016,-44.434,0.000
1709299717.656,-45.410,-33.203,-44.434,-58.105,0.000
1709299717.660,-36.621,-36.621,-37.109,-48.340,0.000
1709299717.664,-28.809,-29.785,-34.668,-32.227,0.000
1709299717.668,-25.879,-37.598,-34.668,-26.855,0.000
1709299717.672,-23.926,-46.875,-28.320,-29.785,0.000
1709299717.676,-30.762,-37.109,-26.855,-35.645,0.000
1709299717.680,-35.156,-24.902,-31.250,-41.992,0.000
1709299717.684,-36.621,-43.457,-33.691,-41.992,0.000
1709299717.688,-39.551,-47.363,-38.574,-40.039,0.000
1709299717.691,-43.457,-29.785,-46.387,-43.945,0.000
1709299717.695,-51.758,-26.367,-46.387,-57.617,0.000
1709299717.699,-55.664,-26.855,-43.945,-62.012,0.000
1709299717.703,-52.734,-26.367,-48.340,-54.199,0.000
1709299717.707,-56.641,-33.203,-38.574,-50.293,0.000
1709299717.711,-56.641,-53.711,-30.762,-50.293,0.000
1709299717.715,-53.711,-49.316,-36.621,-56.152,0.000
1709299717.719,-48.340,-35.156,-41.992,-41.504,0.000
1709299717.723,-47.852,-45.898,-29.785,-28.809,0.000
1709299717.727,-46.875,-48.828,-21.973,-35.645,0.000
1709299717.731,-36.133,-35.156,-30.762,-33.691,0.000
1709299717.734,-35.156,-37.598,-39.062,-37.598,0.000
1709299717.738,-33.203,-42.969,-34.180,-40.527,0.000
1709299717.742,-26.367,-45.410,-27.832,-34.180,0.000
1709299717.746,-24.902,-41.992,-34.180,-27.832,0.000
1709299717.750,-31.250,-30.273,-37.598,-31.250,0.000
1709299717.754,-36.621,-35.156,-40.527,-35.156,0.000
1709299717.758,-34.668,-37.109,-40.527,-38.574,0.000
1709299717.762,-29.785,-25.391,-34.668,-37.109,0.000
1709299717.765,-25.879,-23.438,-38.086,-29.297,0.000
1709299717.769,-25.879,-32.227,-41.992,-33.691,0.000
1709299717.773,-26.367,-38.574,-36.621,-36.133,0.000
1709299717.777,-27.344,-28.809,-34.668,-41.504,0.000
1709299717.781,-31.738,-30.273,-38.574,-54.688,0.000
1709299717.785,-33.203,-43.457,-43.945,-50.781,0.000
1709299717.789,-32.227,-40.039,-41.992,-44.922,0.000
1709299717.793,-27.344,-41.992,-35.645,-43.457,0.000
1709299717.796,-27.344,-47.363,-32.227,-53.711,0.000
1709299717.800,-28.809,-39.062,-33.203,-67.871,0.000
1709299717.804,-25.391,-47.363,-37.598,-63.477,0.000
1709299717.808,-18.066,-43.945,-46.875,-34.180,0.000
1709299717.812,-25.391,-18.066,-38.574,-13.672,0.000
1709299717.816,-38.086,-29.785,-21.484,-41.504,0.000
1709299717.820,-38.086,-38.086,-21.484,-58.594,0.000
1709299717.824,-34.668,-29.785,-20.508,-50.781,0.000
1709299717.828,-35.645,-37.109,-19.531,-42.969,0.000
1709299717.831,-36.133,-44.434,-19.043,-35.645,0.000
1709299717.835,-41.992,-43.945,-18.066,-37.109,0.000
1709299717.839,-54.688,-47.363,-19.043,-42.480,0.000
1709299717.843,-55.176,-62.500,-20.020,-35.645,0.000
1709299717.847,-47.363,-66.895,-12.695,-19.531,0.000
1709299717.851,-44.922,-66.895,-11.230,-17.090,0.000
1709299717.855,-48.340,-69.336,-13.672,-15.137,0.000
1709299717.859,-50.781,-62.988,-11.719,-11.719,0.000
1709299717.862,-41.992,-64.941,-21.484,-9.277,0.000
1709299717.866,-37.109,-71.289,-25.879,-10.742,0.000
1709299717.870,-48.340,-66.895,-5.859,-15.137,0.000
1709299717.874,-54.688,-66.406,-3.906,-9.766,0.000
1709299717.878,-39.551,-72.266,-6.836,-12.207,0.000
1709299717.882,-38.086,-74.707,-1.953,-8.301,0.000
1709299717.885,-47.363,-86.914,-6.348,0.488,0.000
1709299717.889,-46.875,-96.191,0.000,-0.977,0.000
1709299717.893,-54.688,-96.680,-7.324,-12.695,0.000
1709299717.897,-46.387,-88.867,-19.043,-8.301,0.000
1709299717.901,-41.992,-80.078,-3.418,4.883,0.000
1709299717.905,-41.016,-76.660,12.207,3.906,0.000
1709299717.909,-30.762,-89.844,6.348,4.395,0.000
1709299717.913,-34.180,-98.145,-2.930,-1.465,0.000
1709299717.917,-43.457,-95.215,-4.883,-5.859,0.000
1709299717.921,-39.551,-90.820,-1.465,1.465,0.000
1709299717.925,-33.203,-83.008,-0.977,3.906,0.000
1709299717.929,-33.691,-77.148,-4.395,5.859,0.000
1709299717.933,-38.086,-86.914,-5.371,3.906,0.000
1709299717.936,-38.574,-85.938,-1.465,8.301,0.000
1709299717.940,-36.621,-85.938,-2.441,14.648,0.000
1709299717.944,-38.574,-91.797,-3.906,12.695,0.000
1709299717.948,-38.574,-84.473,0.488,16.602,0.000
1709299717.952,-34.668,-87.402,-2.441,16.113,0.000
1709299717.956,-32.227,-82.520,0.488,13.672,0.000
1709299717.960,-26.367,-85.938,0.488,19.531,0.000
1709299717.964,-22.949,-92.773,-3.906,16.602,0.000
1709299717.968,-22.461,-84.961,2.441,20.508,0.000
1709299717.972,-20.508,-90.820,2.441,21.484,0.000
1709299717.976,-20.996,-95.215,0.000,5.371,0.000
1709299717.980,-5.859,-101.562,3.418,13.184,0.000
1709299717.983,4.395,-104.004,7.324,23.438,0.000
1709299717.987,-1.953,-77.148,1.953,20.020,0.000
1709299717.991,-1.953,-80.078,-0.488,17.578,0.000
1709299717.995,-1.953,-90.820,7.324,14.648,0.000
1709299717.999,-5.859,-72.754,-7.812,12.207,0.000
1709299718.003,-4.883,-64.453,-11.230,20.020,0.000
1709299718.007,-1.953,-58.594,4.883,30.273,0.000
1709299718.011,-0.488,-60.059,-0.488,18.555,0.000
1709299718.015,4.883,-70.801,1.465,18.066,0.000
1709299718.019,2.930,-64.941,0.000,12.695,0.000
1709299718.023,-6.836,-62.500,-9.766,-4.883,0.000
1709299718.026,-1.953,-65.918,-7.324,4.395,0.000
1709299718.030,7.324,-57.129,-7.324,9.277,0.000
1709299718.034,2.930,-64.941,-5.859,3.418,0.000
1709299718.038,-8.301,-66.406,-12.207,7.812,0.000
1709299718.042,-3.906,-53.223,-17.090,-0.488,0.000
1709299718.046,-4.395,-60.059,-16.602,-6.836,0.000
1709299718.050,-18.066,-75.684,-19.531,-1.465,0.000
1709299718.054,-27.832,-75.195,-23.438,-9.766,0.000
1709299718.058,-33.691,-53.223,-28.320,-17.578,0.000
1709299718.062,-41.016,-39.062,-28.320,-26.367,0.000
1709299718.065,-41.016,-46.387,-34.180,-33.691,0.000
1709299718.069,-36.621,-54.688,-43.945,-36.621,0.000
1709299718.073,-33.691,-52.734,-39.062,-36.133,0.000
1709299718.077,-44.434,-59.082,-28.809,-37.109,0.000
1709299718.081,-43.457,-48.340,-25.391,-34.180,0.000
1709299718.085,-31.738,-49.316,-26.855,-24.414,0.000
1709299718.089,-29.785,-67.383,-34.668,-19.531,0.000
1709299718.093,-32.227,-60.547,-32.715,-14.160,0.000
1709299718.097,-34.180,-47.363,-33.203,-5.371,0.000
1709299718.101,-28.809,-43.945,-35.645,-12.207,0.000
1709299718.104,-26.367,-54.688,-32.715,-13.672,0.000
1709299718.108,-32.715,-55.664,-31.250,-11.719,0.000
1709299718.112,-40.527,-55.664,-25.391,-27.344,0.000
1709299718.116,-39.551,-62.988,-23.926,-40.527,0.000
1709299718.120,-35.156,-54.199,-25.391,-44.434,0.000
1709299718.124,-42.480,-41.504,-27.344,-46.387,0.000
1709299718.128,-50.781,-39.551,-35.156,-45.898,0.000
1709299718.132,-39.551,-30.762,-32.227,-44.434,0.000
1709299718.136,-31.250,-39.551,-28.809,-53.223,0.000
1709299718.139,-42.480,-50.781,-35.645,-50.293,0.000
1709299718.143,-44.922,-41.504,-40.527,-48.340,0.000
1709299718.147,-32.715,-29.297,-45.410,-43.945,0.000
1709299718.151,-31.250,-35.156,-45.898,-31.738,0.000
1709299718.155,-30.273,-40.527,-37.598,-38.574,0.000
1709299718.159,-31.250,-33.691,-39.062,-51.270,0.000
1709299718.163,-39.551,-38.086,-47.363,-54.688,0.000
1709299718.167,-37.109,-41.016,-41.504,-37.109,0.000
1709299718.171,-37.109,-35.645,-34.668,-35.156,0.000
1709299718.174,-40.527,-46.387,-42.969,-45.410,0.000
1709299718.178,-45.898,-56.152,-46.387,-53.711,0.000
1709299718.182,-49.805,-34.180,-44.434,-47.852,0.000
1709299718.186,-52.734,-31.250,-44.922,-35.156,0.000
1709299718.190,-50.781,-44.922,-41.016,-42.480,0.000
1709299718.194,-53.223,-43.457,-39.551,-56.152,0.000
1709299718.198,-55.664,-40.527,-41.992,-50.781,0.000
1709299718.202,-52.734,-42.480,-41.016,-41.992,0.000
1709299718.205,-54.688,-49.805,-37.598,-48.828,0.000
1709299718.209,-49.316,-57.617,-37.109,-43.945,0.000
1709299718.213,-42.480,-59.082,-38.086,-38.086,0.000
1709299718.217,-45.898,-49.805,-45.898,-47.852,0.000
1709299718.221,-51.758,-46.387,-37.109,-57.129,0.000
1709299718.225,-40.039,-46.875,-29.785,-48.828,0.000
1709299718.229,-37.109,-40.527,-33.691,-38.574,0.000
1709299718.233,-38.086,-37.598,-36.621,-43.457,0.000
1709299718.237,-29.785,-49.316,-34.668,-51.270,0.000
1709299718.240,-29.785,-42.480,-29.785,-43.945,0.000
1709299718.244,-30.762,-32.227,-39.551,-35.645,0.000
1709299718.248,-31.250,-32.715,-42.480,-40.527,0.000
1709299718.252,-29.785,-27.832,-37.598,-48.828,0.000
1709299718.256,-26.855,-27.344,-43.945,-39.551,0.000
1709299718.260,-17.090,-27.832,-44.434,-23.926,0.000
1709299718.263,-18.066,-37.109,-44.922,-35.156,0.000
1709299718.267,-21.973,-29.785,-39.551,-45.898,0.000
1709299718.271,-20.996,-29.785,-29.785,-32.715,0.000
1709299718.275,-30.762,-41.016,-40.039,-27.344,0.000
1709299718.279,-33.691,-36.621,-45.410,-32.227,0.000
1709299718.283,-35.645,-38.574,-44.922,-35.645,0.000
1709299718.287,-40.527,-36.621,-51.758,-37.598,0.000
1709299718.291,-44.434,-39.062,-60.547,-44.922,0.000
1709299718.295,-45.410,-32.715,-53.711,-53.711,0.000
1709299718.299,-45.898,-30.762,-39.062,-55.664,0.000
1709299718.303,-44.434,-34.180,-32.227,-49.316,0.000
1709299718.307,-42.969,-34.668,-34.668,-50.293,0.000
1709299718.311,-38.574,-42.969,-42.969,-49.316,0.000
1709299718.315,-31.250,-44.434,-42.969,-43.457,0.000
1709299718.318,-34.180,-41.992,-44.434,-40.527,0.000
1709299718.322,-35.156,-36.621,-51.270,-41.992,0.000
1709299718.326,-32.715,-33.691,-51.758,-41.016,0.000
1709299718.330,-29.785,-36.621,-54.688,-29.297,0.000
1709299718.334,-30.273,-55.176,-57.617,-25.391,0.000
1709299718.338,-35.645,-56.641,-54.199,-40.039,0.000
1709299718.342,-38.086,-51.758,-36.133,-50.781,0.000
1709299718.346,-39.062,-58.594,-36.621,-46.387,0.000
1709299718.350,-37.598,-38.086,-42.480,-44.434,0.000
1709299718.354,-32.715,-24.414,-40.039,-50.781,0.000
1709299718.358,-35.645,-31.250,-46.387,-52.734,0.000
1709299718.362,-36.621,-47.852,-53.223,-44.434,0.000
1709299718.365,-32.715,-47.363,-45.898,-35.156,0.000
1709299718.369,-33.203,-31.250,-41.016,-34.668,0.000
1709299718.373,-28.809,-33.691,-43.457,-37.109,0.000
1709299718.377,-27.344,-40.527,-44.922,-39.062,0.000
1709299718.381,-34.668,-40.527,-49.316,-37.109,0.000
1709299718.385,-39.062,-43.457,-51.270,-42.969,0.000
1709299718.389,-34.180,-39.551,-44.922,-36.621,0.000
1709299718.393,-24.414,-40.039,-37.109,-26.855,0.000
1709299718.397,-30.762,-51.270,-44.434,-38.574,0.000
1709299718.401,-40.527,-53.223,-44.922,-40.527,0.000
1709299718.405,-35.156,-47.363,-36.621,-31.738,0.000
1709299718.408,-24.414,-44.434,-44.922,-36.133,0.000
1709299718.412,-21.484,-41.992,-45.410,-41.504,0.000
1709299718.416,-27.344,-47.852,-33.203,-43.457,0.000
1709299718.420,-34.180,-53.711,-27.344,-42.480,0.000
1709299718.424,-33.203,-45.898,-24.414,-28.320,0.000
1709299718.428,-34.180,-48.828,-24.902,-20.020,0.000
1709299718.432,-40.527,-63.477,-33.203,-39.062,0.000
1709299718.436,-49.805,-61.035,-35.156,-61.035,0.000
1709299718.440,-51.270,-59.082,-36.133,-57.129,0.000
1709299718.444,-45.898,-56.152,-34.668,-41.992,0.000
1709299718.447,-40.039,-48.828,-34.180,-33.203,0.000
1709299718.451,-26.367,-55.664,-41.016,-22.949,0.000
1709299718.455,-26.855,-56.641,-41.016,-32.715,0.000
1709299718.459,-32.227,-55.176,-33.203,-40.527,0.000
1709299718.463,-37.109,-54.688,-38.086,-42.480,0.000
1709299718.467,-30.273,-51.758,-38.086,-36.133,0.000
1709299718.471,-27.832,-52.734,-34.180,-37.109,0.000
1709299718.475,-36.133,-49.805,-41.016,-55.664,0.000
1709299718.479,-34.668,-56.641,-42.969,-55.176,0.000
1709299718.483,-38.574,-50.781,-39.551,-53.223,0.000
1709299718.487,-44.922,-46.875,-41.504,-57.129,0.000
1709299718.491,-42.969,-46.387,-38.574,-58.594,0.000
1709299718.495,-43.457,-40.527,-35.156,-60.547,0.000
1709299718.499,-46.875,-43.945,-33.691,-53.223,0.000
1709299718.503,-40.039,-49.805,-27.832,-44.922,0.000
1709299718.507,-36.133,-44.922,-26.855,-45.898,0.000
1709299718.511,-40.527,-42.480,-35.645,-41.504,0.000
1709299718.515,-41.992,-47.852,-32.715,-38.086,0.000
1709299718.518,-44.922,-45.410,-29.297,-35.156,0.000
1709299718.522,-43.457,-44.922,-28.320,-34.180,0.000
1709299718.526,-36.133,-53.711,-21.484,-34.668,0.000
1709299718.530,-36.133,-47.852,-19.531,-32.715,0.000
1709299718.534,-36.133,-42.480,-26.855,-41.504,0.000
1709299718.538,-32.227,-42.480,-32.227,-39.062,0.000
1709299718.542,-37.598,-35.645,-22.949,-34.180,0.000
1709299718.546,-48.340,-40.039,-20.508,-42.480,0.000
1709299718.550,-49.316,-39.062,-32.715,-41.992,0.000
1709299718.553,-36.133,-37.109,-35.156,-33.691,0.000
1709299718.557,-31.250,-43.457,-30.273,-29.297,0.000
1709299718.561,-36.621,-45.898,-27.832,-33.203,0.000
1709299718.565,-37.109,-45.410,-32.715,-31.738,0.000
1709299718.569,-34.180,-41.016,-34.180,-30.273,0.000
1709299718.573,-37.598,-38.574,-34.668,-30.762,0.000
1709299718.577,-41.016,-41.504,-32.227,-26.367,0.000
1709299718.580,-40.527,-35.645,-30.762,-34.180,0.000
1709299718.584,-32.715,-38.574,-23.926,-30.762,0.000
1709299718.588,-26.367,-41.992,-27.832,-24.902,0.000
1709299718.592,-31.738,-35.645,-39.551,-39.062,0.000
1709299718.596,-31.250,-30.273,-31.738,-49.316,0.000
1709299718.600,-39.551,-25.879,-39.551,-50.293,0.000
1709299718.604,-44.922,-34.180,-37.598,-37.109,0.000
1709299718.608,-43.945,-38.086,-23.438,-36.133,0.000
1709299718.612,-42.969,-38.574,-30.762,-43.945,0.000
1709299718.616,-48.340,-45.410,-40.527,-49.316,0.000
1709299718.619,-58.594,-50.293,-34.180,-59.082,0.000
1709299718.623,-54.688,-38.086,-25.391,-53.223,0.000
1709299718.628,-44.922,-39.551,-27.832,-47.363,0.000
1709299718.632,-48.828,-41.504,-34.180,-50.293,0.000
1709299718.635,-62.988,-43.945,-32.227,-50.781,0.000
1709299718.639,-61.035,-56.641,-27.832,-59.082,0.000
1709299718.643,-61.523,-52.246,-31.738,-63.965,0.000
1709299718.647,-60.059,-33.691,-31.250,-45.410,0.000
1709299718.651,-52.734,-31.738,-27.832,-43.457,0.000
1709299718.655,-57.129,-37.598,-36.133,-65.918,0.000
1709299718.659,-61.035,-44.434,-47.852,-68.848,0.000
1709299718.663,-46.387,-51.270,-43.457,-43.457,0.000
1709299718.667,-34.180,-49.316,-35.645,-25.391,0.000
1709299718.671,-31.738,-40.039,-38.086,-44.434,0.000
1709299718.675,-39.062,-24.414,-41.992,-62.012,0.000
1709299718.679,-41.504,-32.227,-41.016,-64.453,0.000
1709299718.683,-36.133,-34.180,-44.922,-63.965,0.000
1709299718.687,-38.086,-20.020,-41.992,-50.781,0.000
1709299718.690,-36.621,-31.250,-34.180,-45.898,0.000
1709299718.694,-32.227,-44.434,-41.992,-48.828,0.000
1709299718.698,-36.133,-34.668,-48.340,-55.176,0.000
1709299718.702,-40.039,-28.320,-33.691,-58.105,0.000
1709299718.706,-45.898,-41.992,-31.738,-46.387,0.000
1709299718.710,-46.387,-41.992,-34.668,-38.574,0.000
1709299718.714,-40.039,-31.738,-27.344,-46.387,0.000
1709299718.718,-41.992,-39.062,-40.039,-54.688,0.000
1709299718.722,-49.805,-38.086,-41.992,-58.105,0.000
1709299718.726,-52.246,-38.574,-29.297,-58.594,0.000
1709299718.730,-45.898,-52.246,-23.926,-50.781,0.000
1709299718.733,-37.109,-61.523,-23.438,-42.969,0.000
1709299718.737,-33.691,-43.945,-28.320,-32.227,0.000
1709299718.741,-43.457,-29.297,-22.461,-29.785,0.000
1709299718.745,-45.410,-31.738,-15.137,-25.879,0.000
1709299718.749,-46.387,-41.016,-18.066,-23.438,0.000
1709299718.753,-55.176,-48.340,-21.484,-23.438,0.000
1709299718.757,-53.711,-49.805,-23.438,-23.926,0.000
1709299718.761,-48.828,-44.434,-22.461,-31.250,0.000
1709299718.765,-37.109,-31.738,-22.461,-22.461,0.000
1709299718.769,-29.785,-27.832,-26.367,-14.160,0.000
1709299718.773,-34.668,-30.273,-29.297,-19.043,0.000
1709299718.776,-30.762,-38.574,-30.762,-23.438,0.000
1709299718.780,-24.902,-42.969,-29.297,-19.043,0.000
1709299718.784,-24.902,-48.828,-29.785,-20.508,0.000
1709299718.788,-18.066,-54.199,-35.645,-16.113,0.000
1709299718.792,-23.438,-44.922,-40.527,-18.066,0.000
1709299718.796,-27.344,-30.762,-42.969,-19.043,0.000
1709299718.800,-23.926,-32.715,-44.922,-12.695,0.000
1709299718.804,-25.391,-36.621,-37.598,-10.742,0.000
1709299718.808,-26.855,-33.691,-33.691,-22.461,0.000
1709299718.812,-25.391,-36.133,-41.504,-41.016,0.000
1709299718.815,-28.809,-46.387,0.000,-42.969,0.000
1709299718.819,-39.062,-41.992,0.000,-44.434,0.000
1709299718.823,-41.504,-34.180,0.000,-41.504,0.000
1709299718.827,-39.551,-37.598,0.000,-29.785,0.000
1709299718.831,-35.645,-54.199,0.000,-26.855,0.000
1709299718.835,-28.809,-63.965,0.000,-32.227,0.000
1709299718.839,-32.227,-39.551,0.000,-41.016,0.000
1709299718.843,-37.598,-25.391,0.000,-43.945,0.000
1709299718.847,-43.945,-31.738,0.000,-30.273,0.000
1709299718.851,-45.898,-43.945,0.000,-32.227,0.000
1709299718.855,-41.992,-37.598,0.000,-34.668,0.000
1709299718.858,-42.480,-33.203,0.000,-35.156,0.000
1709299718.863,-43.945,-44.922,-43.945,-33.691,0.000
1709299718.867,-49.316,-40.527,-42.480,-23.438,0.000
1709299718.871,-51.270,-40.039,-50.293,-26.367,0.000
1709299718.875,-48.828,-59.570,-44.922,-34.180,0.000
1709299718.879,-47.852,-54.688,-39.062,-30.762,0.000
1709299718.883,-46.387,-38.086,-45.410,-24.414,0.000
1709299718.886,-41.992,-41.992,-40.039,-32.715,0.000
1709299718.890,-38.086,-47.852,-32.715,-23.438,0.000
1709299718.894,-35.156,-42.480,-41.016,-20.508,0.000
1709299718.898,-36.621,-29.297,-42.480,-37.598,0.000
1709299718.902,-41.016,-18.066,-38.574,-30.762,0.000
1709299718.906,-42.480,-30.273,-33.203,-22.949,0.000
1709299718.910,-42.480,-40.039,-39.551,-26.367,0.000
1709299718.913,-43.457,-37.109,-40.039,-46.387,0.000
1709299718.917,-50.781,-40.527,-36.133,-62.988,0.000
1709299718.921,-57.617,-44.434,-48.340,-67.871,0.000
1709299718.925,-53.223,-37.109,-44.922,-60.059,0.000
1709299718.929,-39.062,-36.133,-40.039,-49.316,0.000
1709299718.933,-36.621,-50.781,-37.598,-43.945,0.000
1709299718.937,-45.898,-43.457,-39.062,-43.457,0.000
1709299718.941,-48.340,-35.156,-46.387,-55.176,0.000
1709299718.945,-42.480,-34.180,-37.109,-54.199,0.000
1709299718.949,-34.668,-28.809,-28.809,-32.227,0.000
1709299718.953,-41.992,-27.832,-41.016,-37.598,0.000
1709299718.956,-42.480,-33.691,-36.621,-53.223,0.000
1709299718.960,-39.551,-42.969,-27.344,-44.434,0.000
1709299718.964,-47.363,-40.527,-37.109,-46.875,0.000
1709299718.968,-44.922,-28.320,-42.480,-46.875,0.000
1709299718.972,-44.922,-35.645,-47.363,-42.969,0.000
1709299718.976,-38.574,-48.828,-30.762,-45.898,0.000
1709299718.979,-34.180,-47.852,-22.949,-33.691,0.000
1709299718.983,-41.016,-36.621,-42.480,-24.902,0.000
1709299718.987,-42.480,-31.738,-49.316,-30.762,0.000
1709299718.991,-35.645,-41.992,-39.062,-41.504,0.000
1709299718.995,-33.691,-40.527,-30.273,-52.246,0.000
1709299718.999,-40.039,-35.156,-32.715,-54.688,0.000
1709299719.002,-39.062,-42.480,-36.133,-54.199,0.000
1709299719.006,-30.762,-43.945,-37.598,-31.250,0.000
1709299719.010,-25.879,-39.062,-37.109,-19.043,0.000
1709299719.014,-23.926,-38.086,-37.598,-30.762,0.000
1709299719.018,-25.879,-36.621,-29.785,-33.203,0.000
1709299719.022,-27.344,-31.250,-30.762,-23.926,0.000
1709299719.026,-29.785,-32.227,-44.922,-16.113,0.000
1709299719.030,-35.156,-33.203,-31.250,-30.762,0.000
1709299719.034,-37.109,-29.785,-24.902,-47.852,0.000
1709299719.038,-39.062,-34.668,-32.227,-53.223,0.000
1709299719.042,-38.574,-35.156,-31.250,-49.805,0.000
1709299719.045,-41.016,-39.551,-29.785,-45.898,0.000
1709299719.050,-52.246,-47.363,-26.367,-46.875,0.000
1709299719.054,-49.316,-38.574,-37.598,-45.898,0.000
1709299719.057,-50.293,-39.551,-37.598,-46.387,0.000
1709299719.061,-54.199,-39.062,-25.391,-59.082,0.000
1709299719.065,-52.246,-30.762,-30.762,-58.105,0.000
1709299719.069,-56.152,-31.738,-31.250,-42.969,0.000
1709299719.073,-58.594,-25.391,-29.785,-52.734,0.000
1709299719.077,-53.711,-30.762,-30.273,-58.594,0.000
1709299719.081,-46.875,-52.246,-26.367,-46.387,0.000
1709299719.085,-42.969,-54.199,-29.297,-34.180,0.000
1709299719.089,-41.016,-37.598,-34.668,-33.203,0.000
1709299719.093,-43.945,-25.391,-37.598,-37.598,0.000
1709299719.097,-44.434,-30.273,-37.598,-38.574,0.000
1709299719.101,-34.668,-42.480,-37.598,-39.551,0.000
1709299719.104,-34.668,-36.133,-39.551,-27.344,0.000
1709299719.108,-39.551,-30.273,-38.086,-19.531,0.000
1709299719.112,-40.527,-37.598,-29.785,-29.785,0.000
1709299719.116,-45.410,-35.645,-31.738,-40.039,0.000
1709299719.120,-50.293,-36.621,-45.410,-42.969,0.000
1709299719.124,-48.340,-38.574,-39.551,-42.969,0.000
1709299719.128,-40.527,-43.457,-24.902,-35.156,0.000
1709299719.132,-41.016,-43.457,-28.809,-25.879,0.000
1709299719.136,-39.551,-38.574,-23.926,-29.297,0.000
1709299719.140,-29.297,-34.180,-20.996,-34.180,0.000
1709299719.144,-38.086,-38.574,-35.645,-40.039,0.000
1709299719.147,-47.852,-48.340,-39.551,-40.039,0.000
1709299719.151,-43.945,-37.109,-31.250,-42.969,0.000
1709299719.155,-45.410,-39.062,-25.879,-50.293,0.000
1709299719.159,-45.898,-45.410,-24.414,-45.898,0.000
1709299719.163,-41.504,-33.203,-29.785,-35.156,0.000
1709299719.167,-36.621,-18.555,-36.621,-33.203,0.000
1709299719.171,-36.621,-19.531,-32.227,-39.551,0.000
1709299719.175,-44.434,-35.156,-34.668,-37.109,0.000
1709299719.179,-46.875,-43.945,-36.133,-37.109,0.000
1709299719.183,-38.086,-45.898,-28.320,-39.551,0.000
1709299719.187,-28.809,-41.992,-27.832,-27.832,0.000
1709299719.190,-30.762,-36.621,-22.949,-32.227,0.000
1709299719.194,-37.598,-48.340,-28.809,-51.758,0.000
1709299719.198,-38.574,-65.430,-42.969,-54.688,0.000
1709299719.202,-40.039,-51.270,-36.621,-49.316,0.000
1709299719.206,-38.086,-24.414,-35.645,-41.016,0.000
1709299719.210,-35.645,-27.832,-41.504,-28.320,0.000
1709299719.214,-32.227,-30.273,-36.133,-26.367,0.000
1709299719.218,-21.973,-35.156,-32.715,-29.785,0.000
1709299719.222,-28.320,-41.504,-24.902,-23.438,0.000
1709299719.226,-28.320,-35.156,-21.484,-24.902,0.000
1709299719.229,-25.391,-40.527,-27.832,-27.832,0.000
1709299719.233,-35.156,-39.551,-40.527,-27.344,0.000
1709299719.237,-29.297,-39.551,-29.297,-33.691,0.000
1709299719.241,-26.855,-47.852,-24.902,-45.898,0.000
1709299719.245,-32.227,-51.758,-35.645,-39.062,0.000
1709299719.249,-31.738,-58.105,-34.668,-28.809,0.000
1709299719.253,-38.574,-45.410,-32.715,-34.668,0.000
1709299719.257,-47.363,-34.668,-31.738,-54.688,0.000
1709299719.260,-46.387,-32.715,-37.109,-66.895,0.000
1709299719.264,-46.387,-32.227,-46.387,-43.457,0.000
1709299719.268,-41.992,-37.109,-44.434,-39.062,0.000
1709299719.272,-41.504,-31.738,-36.133,-57.617,0.000
1709299719.276,-48.340,-38.574,-39.551,-68.848,0.000
1709299719.280,-45.898,-44.434,-42.480,-67.383,0.000
1709299719.284,-47.363,-45.898,-42.969,-52.734,0.000
1709299719.288,-52.246,-41.504,-47.852,-54.199,0.000
1709299719.291,-47.852,-39.062,-49.805,-58.594,0.000
1709299719.295,-50.293,-52.734,-38.574,-63.477,0.000
1709299719.299,-62.500,-50.293,-31.250,-69.824,0.000
1709299719.303,-51.758,-32.715,-31.738,-59.082,0.000
1709299719.307,-36.133,-42.480,-22.949,-30.762,0.000
1709299719.311,-43.457,-51.270,-29.297,-27.344,0.000
1709299719.315,-49.316,-41.992,-41.016,-49.805,0.000
1709299719.319,-47.363,-41.504,-33.203,-55.664,0.000
1709299719.323,-44.922,-39.062,-28.809,-45.898,0.000
1709299719.327,-37.109,-40.527,-31.250,-34.668,0.000
1709299719.330,-31.250,-44.922,-32.227,-41.016,0.000
1709299719.334,-28.809,-40.039,-33.691,-41.992,0.000
1709299719.338,-25.879,-50.293,-27.832,-42.480,0.000
1709299719.342,-26.855,-53.223,-29.785,-44.922,0.000
1709299719.346,-26.855,-39.062,-48.828,-34.668,0.000
1709299719.350,-39.551,-40.527,-50.293,-35.156,0.000
1709299719.354,-47.852,-38.574,-39.062,-29.785,0.000
1709299719.358,-39.551,-30.273,-37.598,-23.438,0.000
1709299719.361,-35.645,-23.926,-27.344,-35.156,0.000
1709299719.365,-32.227,-22.461,-20.508,-27.344,0.000
1709299719.369,-31.250,-27.832,-27.344,-24.414,0.000
1709299719.373,-40.527,-28.809,-37.598,-37.598,0.000
1709299719.377,-43.945,-23.926,-39.062,-44.922,0.000
1709299719.381,-41.992,-34.668,-37.109,-44.922,0.000
1709299719.385,-42.480,-47.363,-42.969,-40.527,0.000
1709299719.389,-44.922,-36.133,-48.828,-38.086,0.000
1709299719.392,-54.688,-33.203,-52.734,-35.645,0.000
1709299719.396,-60.059,-40.527,-41.504,-35.156,0.000
1709299719.400,-56.152,-45.410,-38.574,-38.574,0.000
1709299719.404,-50.781,-39.062,-45.410,-44.922,0.000
1709299719.408,-53.223,-33.691,-47.363,-47.852,0.000
1709299719.412,-52.734,-34.668,-41.992,-48.828,0.000
1709299719.416,-59.570,-31.250,-39.551,-56.641,0.000
1709299719.420,-62.988,-30.273,-40.039,-58.594,0.000
1709299719.424,-48.828,-34.668,-36.133,-42.969,0.000
1709299719.428,-44.922,-45.898,-36.621,-36.621,0.000
1709299719.432,-45.410,-45.898,-32.227,-34.668,0.000
1709299719.436,-41.504,-43.457,-35.156,-41.992,0.000
1709299719.440,-49.316,-45.898,-46.875,-55.176,0.000
1709299719.443,-51.270,-44.922,-48.340,-52.246,0.000
1709299719.447,-40.527,-48.828,-32.715,-40.039,0.000
1709299719.451,-42.969,-50.781,-30.273,-37.109,0.000
1709299719.455,-49.316,-42.480,-36.133,-55.176,0.000
1709299719.459,-45.410,-36.133,-30.273,-57.617,0.000
1709299719.463,-41.016,-33.203,-33.691,-53.711,0.000
1709299719.467,-43.457,-40.039,-41.992,-53.223,0.000
1709299719.471,-41.992,-45.410,-40.039,-41.992,0.000
1709299719.475,-42.969,-42.480,-34.180,-47.852,0.000
1709299719.479,-45.410,-31.250,-29.785,-55.664,0.000
1709299719.483,-35.645,-24.414,-24.902,-40.039,0.000
1709299719.487,-34.668,-48.340,-27.344,-29.785,0.000
1709299719.491,-35.645,-60.059,-35.645,-39.551,0.000
1709299719.494,-41.016,-34.668,-41.016,-49.316,0.000
1709299719.498,-42.480,-18.066,-39.062,-47.852,0.000
1709299719.502,-38.086,-18.555,-39.551,-41.504,0.000
1709299719.506,-46.875,-23.926,-36.621,-27.344,0.000
1709299719.510,-41.016,-31.250,-38.086,-26.855,0.000
1709299719.514,-30.762,-37.598,-41.016,-34.668,0.000
1709299719.518,-24.902,-38.086,-39.062,-29.785,0.000
1709299719.522,-27.832,-32.715,-44.922,-32.715,0.000
1709299719.526,-43.945,-33.691,-39.551,-39.062,0.000
1709299719.530,-47.363,-35.645,-39.062,-38.574,0.000
1709299719.534,-43.945,-31.250,-50.781,-35.645,0.000
1709299719.537,-42.969,-36.621,-42.480,-42.969,0.000
1709299719.541,-42.480,-42.480,-42.969,-43.457,0.000
1709299719.545,-38.086,-41.992,-43.945,-31.738,0.000
1709299719.549,-27.832,-42.969,-37.109,-20.020,0.000
1709299719.553,-30.273,-32.715,-38.086,-27.832,0.000
1709299719.557,-43.945,-39.062,-41.016,-51.758,0.000
1709299719.561,-44.922,-52.734,-47.852,-65.430,0.000
1709299719.565,-55.664,-56.152,-48.340,-65.430,0.000
1709299719.569,-66.406,-53.711,-41.992,-57.129,0.000
1709299719.573,-54.199,-43.945,-42.969,-61.035,0.000
1709299719.576,-56.641,-32.715,-45.410,-68.359,0.000
1709299719.580,-54.199,-30.762,-46.875,-64.453,0.000
1709299719.584,-40.039,-28.809,-41.504,-52.734,0.000
1709299719.588,-41.016,-28.809,-35.645,-49.316,0.000
1709299719.592,-42.480,-32.227,-38.574,-45.410,0.000
1709299719.596,-49.316,-31.250,-42.480,-43.945,0.000
1709299719.600,-54.199,-32.715,-34.180,-58.105,0.000
1709299719.604,-46.875,-44.922,-27.832,-51.270,0.000
1709299719.608,-46.387,-46.875,-34.180,-31.738,0.000
1709299719.611,-50.781,-48.340,-34.668,-37.598,0.000
1709299719.615,-59.570,-48.340,-37.598,-56.641,0.000
1709299719.619,-55.176,-31.738,-41.504,-53.223,0.000
1709299719.623,-51.270,-29.785,-38.574,-49.805,0.000
1709299719.627,-51.270,-32.715,-42.969,-54.199,0.000
1709299719.631,-44.434,-30.762,-38.086,-52.734,0.000
1709299719.635,-41.992,-37.109,-32.715,-48.828,0.000
1709299719.639,-43.457,-36.133,-32.227,-38.086,0.000
1709299719.643,-40.527,-23.438,-30.273,-31.738,0.000
1709299719.647,-35.156,-32.227,-35.645,-39.062,0.000
1709299719.651,-36.621,-47.852,-45.410,-45.410,0.000
1709299719.654,-39.062,-36.621,-30.762,-41.992,0.000
1709299719.658,-43.945,-26.855,-21.973,-41.992,0.000
1709299719.662,-43.945,-37.109,-31.250,-46.875,0.000
1709299719.666,-40.039,-48.340,-31.738,-39.551,0.000
1709299719.670,-38.574,-39.551,-28.809,-30.762,0.000
1709299719.674,-39.551,-32.227,-31.738,-40.527,0.000
1709299719.678,-45.898,-36.621,-36.133,-47.852,0.000
1709299719.682,-44.434,-38.086,-30.273,-36.621,0.000
1709299719.685,-40.039,-45.410,-34.668,-30.762,0.000
1709299719.689,-38.086,-52.246,-40.527,-36.621,0.000
1709299719.693,-37.109,-55.664,-32.715,-37.109,0.000
1709299719.697,-37.109,-46.875,-37.598,-40.527,0.000
1709299719.701,-37.109,-30.273,-36.621,-34.668,0.000
1709299719.705,-34.668,-28.809,-34.180,-29.297,0.000
1709299719.709,-29.297,-38.574,-40.039,-28.809,0.000
1709299719.712,-20.508,-45.410,-51.270,-28.320,0.000
1709299719.716,-18.555,-47.852,-41.504,-29.297,0.000
1709299719.720,-26.855,-36.621,-28.320,-33.203,0.000
1709299719.724,-18.555,-27.344,-27.832,-24.902,0.000
1709299719.728,-14.160,-29.785,-21.484,-16.113,0.000
1709299719.732,-17.090,-33.691,-25.391,-31.738,0.000
1709299719.736,-17.090,-33.691,-31.738,-43.457,0.000
1709299719.740,-24.902,-37.598,-30.762,-40.527,0.000
1709299719.744,-23.438,-44.434,-29.297,-32.715,0.000
1709299719.748,-20.020,-36.621,-23.926,-23.926,0.000
1709299719.751,-24.414,-24.902,-26.367,-31.738,0.000
1709299719.755,-24.902,-21.973,-31.250,-38.086,0.000
1709299719.759,-34.180,-27.344,-28.320,-41.016,0.000
1709299719.763,-30.762,-32.715,-25.879,-37.109,0.000
1709299719.767,-22.949,-35.156,-26.367,-30.273,0.000
1709299719.771,-33.691,-39.551,-30.273,-34.668,0.000
1709299719.775,-42.480,-46.387,-30.273,-39.551,0.000
1709299719.778,-45.410,-42.969,-33.691,-52.734,0.000
1709299719.782,-42.969,-41.016,-38.086,-45.898,0.000
1709299719.786,-39.062,-47.363,-38.086,-27.344,0.000
1709299719.790,-35.645,-51.758,-32.227,-25.391,0.000
1709299719.794,-41.016,-45.410,-30.273,-31.250,0.000
1709299719.798,-47.852,-52.246,-28.809,-36.133,0.000
1709299719.802,-43.945,-57.129,-25.879,-34.180,0.000
1709299719.806,-37.109,-34.180,-27.344,-32.227,0.000
1709299719.810,-39.062,-20.508,-28.320,-39.551,0.000
1709299719.814,-41.992,-23.926,-30.762,-45.410,0.000
1709299719.818,-31.738,-25.391,-32.715,-43.945,0.000
1709299719.822,-24.902,-28.320,-32.227,-40.039,0.000
1709299719.826,-24.902,-30.762,-30.273,-30.273,0.000
1709299719.830,-29.297,-39.062,-29.297,-28.320,0.000
1709299719.833,-33.691,-39.062,-32.715,-32.715,0.000
1709299719.837,-26.855,-29.785,-33.203,-30.273,0.000
1709299719.841,-29.297,-30.273,-41.016,-34.180,0.000
1709299719.845,-27.344,-30.273,-45.898,-37.598,0.000
1709299719.849,-20.508,-30.273,-43.457,-29.297,0.000
1709299719.853,-30.762,-28.809,-40.527,-43.457,0.000
1709299719.857,-36.133,-33.691,-33.203,-54.688,0.000
1709299719.861,-26.367,-32.227,-34.668,-45.898,0.000
1709299719.865,-26.367,-35.645,-41.992,-35.156,0.000
1709299719.869,-18.066,-44.922,-44.434,-23.926,0.000
1709299719.873,-21.484,-40.527,-41.504,-24.414,0.000
1709299719.877,-41.992,-28.809,-42.480,-28.809,0.000
1709299719.881,-45.410,-27.832,-32.715,-26.367,0.000
1709299719.884,-40.039,-33.691,-19.531,-31.250,0.000
1709299719.888,-35.645,-29.785,-25.391,-18.555,0.000
1709299719.892,0.000,-27.832,-36.621,-22.949,0.000
1709299719.896,0.000,-30.762,-34.180,-42.480,0.000
1709299719.900,0.000,-35.645,-28.320,-50.293,0.000
1709299719.904,0.000,-34.180,-27.832,-54.688,0.000
1709299719.908,0.000,-32.227,-23.438,-52.246,0.000
1709299719.912,0.000,-39.551,-24.414,-42.969,0.000
1709299719.916,0.000,-41.016,-24.414,-46.875,0.000
1709299719.920,0.000,-31.738,-22.461,-50.781,0.000
1709299719.924,0.000,-33.203,-27.832,-47.852,0.000
1709299719.927,0.000,-37.109,-33.691,-49.805,0.000
1709299719.931,0.000,-32.715,-31.738,-45.898,0.000
1709299719.935,0.000,-29.297,-35.156,-50.293,0.000
1709299719.939,-44.922,-43.945,-36.133,-47.852,0.000
1709299719.943,-35.156,-57.129,-32.715,-30.762,0.000
1709299719.947,-28.320,-44.434,-43.945,-30.762,0.000
1709299719.951,-35.156,-32.227,-45.410,-36.133,0.000
1709299719.955,-40.527,-31.738,-36.133,-40.527,0.000
1709299719.959,-38.086,-33.203,-37.109,-46.387,0.000
1709299719.963,-41.016,-30.273,-36.133,-42.969,0.000
1709299719.967,-37.109,-26.855,-29.297,-30.762,0.000
1709299719.970,-35.156,-33.203,-31.738,-30.273,0.000
1709299719.974,-46.875,-37.109,-32.715,-36.133,0.000
1709299719.978,-46.875,-33.203,-34.180,-37.598,0.000
1709299719.982,-41.016,-36.133,-37.598,-39.062,0.000
1709299719.986,-43.457,-44.434,-36.133,-40.527,0.000
1709299719.990,-38.574,-36.621,-27.344,-38.086,0.000
1709299719.994,-43.457,-27.832,-33.203,-44.434,0.000
1709299719.998,-42.480,-27.344,-44.434,-41.016,0.000
1709299720.002,-33.691,-29.785,-41.504,-38.086,0.000
1709299720.006,-48.828,-30.273,-29.297,-46.875,0.000
1709299720.009,-56.152,-33.691,-28.320,-42.480,0.000
1709299720.013,-50.293,-41.992,-37.109,-35.156,0.000
1709299720.017,-44.434,-36.621,-37.109,-38.574,0.000
1709299720.021,-36.133,-31.250,-33.203,-40.527,0.000
1709299720.025,-41.016,-37.598,-36.621,-42.969,0.000
1709299720.029,-41.504,-33.203,-37.598,-46.875,0.000
1709299720.033,0.000,-28.320,-34.668,-46.387,0.000
1709299720.037,0.000,-31.250,-32.715,-45.410,0.000
1709299720.040,0.000,-29.785,-39.062,-48.828,0.000
1709299720.044,0.000,-29.785,-44.434,-38.574,0.000
1709299720.048,0.000,-38.086,-42.969,-27.832,0.000
1709299720.052,0.000,-45.898,-44.922,-31.250,0.000
1709299720.056,0.000,-40.039,-39.062,-38.574,0.000
1709299720.060,0.000,-30.762,-26.855,-35.645,0.000
1709299720.064,0.000,-31.738,-28.809,-36.621,0.000
1709299720.068,0.000,-44.434,-26.855,-38.574,0.000
1709299720.072,0.000,-45.410,-40.527,-26.855,0.000
1709299720.076,0.000,-39.551,-45.898,-24.902,0.000
1709299720.079,-40.039,-43.457,-37.598,-47.852,0.000
1709299720.083,-31.738,-37.109,-40.527,-46.875,0.000
1709299720.087,-32.715,-30.762,-34.180,-45.898,0.000
1709299720.091,-38.086,-35.645,-27.344,-51.758,0.000
1709299720.095,-31.738,-39.062,-24.902,-52.734,0.000
1709299720.099,-30.273,-40.527,-26.855,-54.199,0.000
1709299720.103,-35.156,-37.109,-42.480,-36.133,0.000
1709299720.107,-40.527,-33.691,-49.316,-23.438,0.000
1709299720.110,-34.180,-40.039,-38.574,-34.180,0.000
1709299720.114,-31.250,-34.180,-34.668,-34.668,0.000
1709299720.118,-43.945,-41.992,-44.434,-28.809,0.000
1709299720.122,-37.598,-59.570,-40.039,-21.484,0.000
1709299720.126,-26.855,-38.574,-31.250,-15.625,0.000
1709299720.130,-24.902,-25.391,-32.715,-20.508,0.000
1709299720.134,-24.414,-24.902,-31.250,-24.902,0.000
1709299720.137,-33.203,-22.461,-33.691,-28.809,0.000
1709299720.141,-35.645,-31.738,-36.133,-29.297,0.000
1709299720.145,-32.227,-33.691,-37.598,-31.738,0.000
1709299720.149,-31.738,-32.715,-35.156,-39.062,0.000
1709299720.153,-33.203,-38.574,-39.551,-40.039,0.000
1709299720.157,-40.039,-37.598,-44.922,-43.945,0.000
1709299720.161,-45.410,-46.875,-35.645,-47.363,0.000
1709299720.165,-44.434,-59.082,-30.762,-31.738,0.000
1709299720.169,-44.922,-52.734,-36.133,-31.738,0.000
1709299720.173,-44.434,-39.551,-40.039,-45.898,0.000
1709299720.177,-38.086,-39.062,-40.527,-50.293,0.000
1709299720.181,-41.504,-53.711,-46.387,-49.316,0.000
1709299720.185,-41.016,-43.945,-44.922,-47.363,0.000
1709299720.189,-36.621,-31.738,-43.457,-45.898,0.000
1709299720.192,-40.527,-34.668,-36.621,-52.246,0.000
1709299720.196,-42.969,-33.691,-35.156,-54.688,0.000
1709299720.200,-44.434,-30.273,-44.922,-56.152,0.000
1709299720.204,-40.039,-33.203,-40.039,-48.828,0.000
1709299720.208,-33.691,-43.457,-29.297,-30.762,0.000
1709299720.212,-38.574,-49.316,-29.297,-32.227,0.000
1709299720.216,-42.480,-41.504,-28.809,-34.180,0.000
1709299720.220,-39.062,-32.227,-26.367,-29.297,0.000
1709299720.224,-41.992,-35.645,-32.715,-36.133,0.000
1709299720.228,-37.598,-36.133,-41.504,-41.504,0.000
1709299720.232,-35.645,-33.691,-44.434,-41.016,0.000
1709299720.236,-36.621,-42.480,-41.992,-46.875,0.000
1709299720.240,-34.668,-48.340,-42.480,-46.875,0.000
1709299720.243,-45.410,-38.086,-46.875,-27.344,0.000
1709299720.247,-40.527,-23.926,-36.621,-23.438,0.000
1709299720.251,-33.203,-25.879,-22.461,-35.156,0.000
1709299720.255,-35.156,-31.738,-30.273,-27.344,0.000
1709299720.259,-41.992,-29.785,-37.598,-30.762,0.000
1709299720.263,-49.316,-34.668,-33.691,-35.645,0.000
1709299720.267,-42.480,-41.992,-33.691,-26.855,0.000
1709299720.271,-36.621,-42.480,-32.227,-25.879,0.000
1709299720.275,-36.621,-47.852,-39.062,-34.180,0.000
1709299720.279,-28.809,-34.180,-31.250,-44.922,0.000
1709299720.283,-27.344,-28.809,-24.414,-38.086,0.000
1709299720.287,-26.855,-37.109,-33.203,-28.320,0.000
1709299720.290,-20.508,-31.738,-35.156,-28.320,0.000
1709299720.294,-25.391,-32.227,-34.668,-29.785,0.000
1709299720.298,-30.762,-39.062,-41.504,-37.109,0.000
1709299720.302,-30.273,-42.969,-53.223,-42.969,0.000
1709299720.306,-28.320,-35.645,-48.340,-39.062,0.000
1709299720.310,-31.738,-30.273,-31.250,-32.227,0.000
1709299720.314,-36.621,-31.738,-29.297,-42.480,0.000
1709299720.318,-34.180,-34.180,-41.504,-58.105,0.000
1709299720.322,-30.273,-42.480,-44.434,-45.898,0.000
1709299720.326,-29.785,-50.781,-40.039,-30.762,0.000
1709299720.330,-34.668,-39.062,-38.086,-34.668,0.000
1709299720.333,-41.504,-17.578,-40.527,-40.039,0.000
1709299720.337,-33.691,-15.137,-38.086,-38.574,0.000
1709299720.341,-24.902,-16.113,-31.250,-26.367,0.000
1709299720.345,-28.320,-17.090,-29.785,-19.531,0.000
1709299720.349,-34.180,-18.066,-32.715,-29.785,0.000
1709299720.353,-36.621,-28.809,-36.133,-35.645,0.000
1709299720.357,-40.527,-32.715,-39.551,-37.598,0.000
1709299720.361,-35.645,-28.320,-40.527,-36.621,0.000
1709299720.365,-32.715,-34.668,-40.039,-38.086,0.000
1709299720.368,-39.062,-37.109,-46.875,-36.133,0.000
1709299720.372,-40.039,-34.668,-45.410,-32.715,0.000
1709299720.376,-28.809,-27.344,-34.668,-38.086,0.000
1709299720.380,-41.992,-32.715,-38.574,-46.875,0.000
1709299720.384,-51.758,-42.480,-41.504,-47.852,0.000
1709299720.388,-43.457,-39.551,-36.133,-30.273,0.000
1709299720.392,-48.340,-38.086,-44.434,-39.551,0.000
1709299720.396,-53.711,-39.551,-42.969,-60.059,0.000
1709299720.400,-56.641,-40.039,-38.086,-57.129,0.000
1709299720.404,-58.594,-48.340,-33.203,-50.293,0.000
1709299720.407,-53.223,-43.945,-30.762,-40.527,0.000
1709299720.411,-52.246,-31.250,-38.574,-50.293,0.000
1709299720.415,-54.199,-42.480,-40.527,-63.477,0.000
1709299720.419,-55.176,-54.688,-37.598,-60.059,0.000
1709299720.423,-52.246,-49.805,-29.785,-48.340,0.000
1709299720.427,-42.480,-39.551,-34.668,-46.875,0.000
1709299720.431,-41.016,-29.297,-43.457,-46.875,0.000
1709299720.435,-43.457,-33.203,-33.203,-47.852,0.000
1709299720.439,-44.434,-33.691,-31.738,-58.594,0.000
1709299720.442,-36.133,-33.203,-36.621,-53.223,0.000
1709299720.446,-22.461,-37.109,-34.668,-37.109,0.000
1709299720.450,-22.461,-44.922,-36.133,-27.344,0.000
1709299720.455,-20.508,-41.504,-41.016,-31.738,0.000
1709299720.459,-7.812,-30.273,-41.504,-32.227,0.000
1709299720.463,-16.602,-31.738,-39.551,-25.391,0.000
1709299720.466,-27.344,-29.785,-32.715,-28.809,0.000
1709299720.470,-28.320,-39.551,-45.410,-37.598,0.000
1709299720.474,-37.109,-46.387,-51.270,-40.527,0.000
1709299720.478,-35.156,-42.969,-34.180,-42.480,0.000
1709299720.482,-40.527,-52.246,-36.133,-45.898,0.000
1709299720.486,-44.434,-60.059,-36.621,-50.293,0.000
1709299720.490,-38.574,-34.668,-28.320,-42.480,0.000
1709299720.494,-46.387,-15.137,-32.715,-49.316,0.000
1709299720.498,-53.711,-24.902,-35.645,-64.453,0.000
1709299720.501,-52.246,-36.133,-30.273,-61.035,0.000
1709299720.505,-44.434,-34.180,-27.832,-55.176,0.000
1709299720.509,-40.527,-25.879,-35.156,-46.875,0.000
1709299720.513,-39.062,-23.926,-35.645,-49.805,0.000
1709299720.517,-40.039,-35.156,-30.762,-55.664,0.000
1709299720.521,-41.016,-40.039,-35.156,-48.828,0.000
1709299720.525,-46.875,-30.273,-39.551,-49.805,0.000
1709299720.529,-51.758,-19.531,-40.527,-45.898,0.000
1709299720.532,-43.945,-23.926,-35.645,-45.898,0.000
1709299720.536,-40.527,-35.645,-46.387,-49.316,0.000
1709299720.540,-45.410,-39.062,-45.410,-45.410,0.000
1709299720.544,-40.527,-36.133,-40.527,-47.852,0.000
1709299720.548,-32.715,-28.320,-44.434,-44.434,0.000
1709299720.552,-37.598,-32.227,-25.879,-48.340,0.000
1709299720.556,-38.086,-44.434,-17.578,-54.688,0.000
1709299720.560,-40.527,-42.480,-20.508,-47.852,0.000
1709299720.564,-43.457,-44.434,-27.832,-41.992,0.000
1709299720.568,-29.785,-48.828,-26.855,-30.762,0.000
1709299720.572,-26.367,-39.551,-31.250,-17.578,0.000
1709299720.576,-41.992,-39.062,-39.551,-29.785,0.000
1709299720.580,-44.434,-44.434,-29.785,-48.340,0.000
1709299720.584,-34.668,-36.133,-24.414,-39.551,0.000
1709299720.587,-37.598,-35.645,-33.203,-36.621,0.000
1709299720.591,-25.879,-34.668,-39.551,-42.969,0.000
1709299720.595,-17.090,-26.855,-38.086,-48.340,0.000
1709299720.599,-35.156,-30.762,-36.133,-45.410,0.000
1709299720.603,-35.156,-42.969,-30.762,-28.320,0.000
1709299720.607,-28.809,-51.270,-43.457,-23.438,0.000
1709299720.611,-31.738,-41.504,-43.945,-25.391,0.000
1709299720.615,-33.203,-27.832,-17.090,-22.461,0.000
1709299720.619,-35.156,-39.551,-19.043,-37.109,0.000
1709299720.623,-35.156,-44.922,-31.250,-46.875,0.000
1709299720.627,-32.715,-36.621,-37.109,-37.109,0.000
1709299720.631,-39.551,-35.645,-42.480,-42.480,0.000
1709299720.635,-39.062,-37.598,-25.391,-52.734,0.000
1709299720.638,-34.668,-43.457,-18.555,-50.293,0.000
1709299720.643,-38.574,-41.504,-30.273,-56.641,0.000
1709299720.646,-41.016,-38.086,-35.156,-52.734,0.000
1709299720.650,-30.762,-44.922,-40.527,-44.434,0.000
1709299720.654,-32.227,-44.922,-41.504,-48.828,0.000
1709299720.658,-48.340,-48.340,-35.156,-53.711,0.000
1709299720.662,-42.480,-56.641,-35.645,-50.781,0.000
1709299720.666,-36.133,-40.527,-35.156,-42.480,0.000
1709299720.670,-34.180,-28.809,-37.109,-40.527,0.000
1709299720.674,-28.320,-34.180,-43.457,-36.621,0.000
1709299720.678,-26.367,-31.250,-34.668,-33.691,0.000
1709299720.682,-26.855,-30.273,-28.320,-44.922,0.000
1709299720.685,-39.062,-33.691,-39.062,-55.176,0.000
1709299720.689,-44.922,-33.691,-35.156,-51.758,0.000
1709299720.693,-39.551,-35.645,-32.227,-47.363,0.000
1709299720.697,-41.016,-37.109,-45.410,-41.016,0.000
1709299720.701,-37.598,-44.922,-44.922,-32.715,0.000
1709299720.705,-23.926,-45.898,-31.738,-34.668,0.000
1709299720.709,-21.484,-33.691,-23.926,-36.621,0.000
1709299720.713,-42.480,-30.762,-31.250,-47.363,0.000
1709299720.717,-33.203,-28.320,-32.715,-43.945,0.000
1709299720.721,-27.832,-26.367,-32.715,-31.738,0.000
1709299720.725,-35.156,-29.785,-35.156,-40.527,0.000
1709299720.728,-26.367,-26.855,-33.691,-23.926,0.000
1709299720.732,-25.391,-30.762,-41.016,-25.391,0.000
1709299720.736,-30.762,-39.062,-37.109,-41.016,0.000
1709299720.740,-36.133,-36.621,-33.203,-35.645,0.000
1709299720.744,-34.668,-36.133,-41.992,-34.668,0.000
1709299720.748,-32.227,-34.668,-40.039,-33.203,0.000
1709299720.752,-28.809,-46.387,-31.738,-33.691,0.000
1709299720.756,-30.762,-53.223,-35.645,-42.480,0.000
1709299720.760,-34.180,-30.273,-37.598,-47.363,0.000
1709299720.763,-22.949,-26.367,-24.414,-29.297,0.000
1709299720.767,-23.438,-32.715,-22.461,-20.020,0.000
1709299720.771,-31.738,-35.645,-29.297,-31.250,0.000
1709299720.775,-29.785,-40.039,-26.367,-49.805,0.000
1709299720.779,-32.227,-37.109,-24.414,-53.711,0.000
1709299720.783,-30.762,-39.551,-30.273,-43.457,0.000
1709299720.787,-23.926,-43.945,-37.109,-35.156,0.000
1709299720.791,-31.738,-38.086,-41.992,-35.645,0.000
1709299720.795,-33.691,-34.668,-44.434,-43.945,0.000
1709299720.798,-30.762,-38.086,-34.668,-47.852,0.000
1709299720.802,-32.227,-41.016,-33.203,-46.875,0.000
1709299720.806,-39.551,-47.852,-40.039,-38.086,0.000
1709299720.810,-48.828,-48.828,-39.062,-36.621,0.000
1709299720.814,-42.969,-38.574,-46.387,-53.223,0.000
1709299720.818,-37.109,-36.133,-51.758,-51.270,0.000
1709299720.822,-31.250,-40.039,-45.410,-34.668,0.000
1709299720.826,-29.297,-47.852,-53.711,-26.855,0.000
1709299720.829,-17.578,-43.457,-46.875,-30.762,0.000
1709299720.833,-26.855,-31.738,-33.203,-42.480,0.000
1709299720.837,-40.039,-33.203,-34.668,-43.945,0.000
1709299720.841,-30.273,-33.691,-31.250,-42.480,0.000
1709299720.845,-33.691,-34.180,-37.109,-45.898,0.000
1709299720.849,-30.762,-38.086,-36.621,-28.809,0.000
1709299720.853,-25.391,-40.527,-33.203,-17.578,0.000
1709299720.857,-35.156,-37.598,-40.527,-31.250,0.000
1709299720.861,-34.180,-31.738,-39.551,-38.086,0.000
1709299720.865,-37.109,-29.297,-37.109,-42.480,0.000
1709299720.868,-35.156,-29.297,-36.621,-40.527,0.000
1709299720.872,-32.715,-35.645,-40.527,-40.039,0.000
1709299720.876,-42.969,-37.598,-45.898,-41.992,0.000
1709299720.880,-38.086,-31.250,-40.527,-42.480,0.000
1709299720.884,-36.133,-30.273,-40.527,-40.039,0.000
1709299720.888,-38.574,-28.320,-52.246,-32.715,0.000
1709299720.891,-26.367,-30.273,-39.062,-40.527,0.000
1709299720.895,-25.879,-37.598,-16.602,-43.945,0.000
1709299720.899,-43.945,-37.598,-31.250,-45.898,0.000
1709299720.903,-46.387,-39.551,-38.574,-44.922,0.000
1709299720.907,-48.340,-44.434,-27.344,-45.898,0.000
1709299720.911,-43.457,-49.316,-25.879,-43.945,0.000
1709299720.915,-46.387,-41.016,-26.367,-39.551,0.000
1709299720.919,-55.664,-25.879,-30.273,-45.898,0.000
1709299720.923,-45.898,-30.273,-31.250,-43.945,0.000
1709299720.927,-39.062,-46.387,-30.762,-38.574,0.000
1709299720.931,-41.992,-51.270,-37.598,-35.156,0.000
1709299720.935,-45.898,-38.574,-44.434,-36.133,0.000
1709299720.939,-46.387,-36.621,-36.133,-35.645,0.000
1709299720.943,-44.434,-46.875,-28.809,-28.320,0.000
1709299720.946,-40.039,-43.457,-29.785,-22.949,0.000
1709299720.950,-36.133,-36.133,-32.227,-23.926,0.000
1709299720.954,-41.992,-36.133,-38.086,-35.645,0.000
1709299720.958,-42.480,-38.086,-33.691,-40.039,0.000
1709299720.962,-39.551,-35.645,-34.668,-46.875,0.000
1709299720.966,-43.457,-36.133,-44.434,-49.316,0.000
1709299720.970,-34.180,-38.086,-44.922,-39.062,0.000
1709299720.974,-40.039,-33.691,-45.410,-53.711,0.000
1709299720.978,-48.340,-34.180,-43.945,-76.660,0.000
1709299720.982,-47.363,-41.016,-33.203,-73.730,0.000
1709299720.986,-47.852,-34.668,-25.879,-63.477,0.000
1709299720.990,-40.039,-25.879,-31.250,-61.523,0.000
1709299720.994,-44.922,-31.250,-43.945,-67.871,0.000
1709299720.997,-53.711,-33.691,-38.574,-69.336,0.000
1709299721.001,-47.852,-34.180,-36.621,-52.734,0.000
1709299721.005,-42.480,-39.062,-38.086,-35.156,0.000
1709299721.009,-42.969,-44.434,-38.086,-43.945,0.000
1709299721.013,-47.363,-40.527,-44.922,-49.805,0.000
1709299721.017,-53.223,-38.574,-41.504,-53.223,0.000
1709299721.021,-58.594,-38.574,-48.828,-53.711,0.000
1709299721.025,-53.711,-39.551,-49.805,-44.922,0.000
1709299721.029,-56.152,-37.598,-38.086,-48.828,0.000
1709299721.033,-56.152,-33.691,-39.551,-60.059,0.000
1709299721.037,-52.246,-33.203,-35.156,-61.523,0.000
1709299721.041,-52.246,-38.574,-40.527,-54.199,0.000
1709299721.044,-48.828,-40.527,-56.641,-47.852,0.000
1709299721.048,-43.945,-36.621,-50.781,-33.691,0.000
1709299721.052,-33.691,-31.250,-32.227,-37.109,0.000
1709299721.056,-35.645,-33.691,-37.109,-57.617,0.000
1709299721.060,-35.156,-39.062,-45.898,-55.664,0.000
1709299721.065,-36.133,-34.668,-42.480,-45.410,0.000
1709299721.069,-54.199,-35.645,-43.457,-37.598,0.000
1709299721.073,-47.363,-43.945,-44.434,-44.922,0.000
1709299721.077,-38.574,-44.922,-47.363,-56.152,0.000
1709299721.080,-41.504,-35.156,-47.852,-54.688,0.000
1709299721.084,-40.039,-32.715,-27.832,-48.340,0.000
1709299721.088,-36.621,-33.691,-27.832,-38.086,0.000
1709299721.092,-34.180,-37.109,-36.621,-20.508,0.000
1709299721.096,-33.691,-38.574,-35.645,-12.695,0.000
1709299721.100,-40.527,-36.133,-42.969,-32.715,0.000
1709299721.104,-39.062,-32.715,-46.875,-26.367,0.000
1709299721.108,-34.668,-36.621,-35.645,-12.695,0.000
1709299721.112,-25.391,-45.410,-28.320,-20.508,0.000
1709299721.115,-21.484,-57.129,-29.297,-30.762,0.000
1709299721.119,-30.762,-50.293,-32.715,-34.180,0.000
1709299721.123,-27.832,-22.949,-29.297,-24.414,0.000
1709299721.127,-26.367,-18.066,-36.133,-17.578,0.000
1709299721.131,-26.855,-24.902,-41.992,-22.461,0.000
1709299721.135,-32.715,-26.367,-31.250,-34.668,0.000
1709299721.139,-38.574,-28.320,-40.527,-46.387,0.000
1709299721.143,-43.945,-30.273,-42.969,-50.293,0.000
1709299721.147,-41.992,-39.062,-40.039,-45.410,0.000
1709299721.151,-36.133,-45.898,-48.340,-50.293,0.000
1709299721.154,-44.922,-33.691,-42.480,-45.898,0.000
1709299721.158,-35.156,-21.973,-48.340,-41.016,0.000
1709299721.162,-30.273,-34.180,-51.758,-44.922,0.000
1709299721.166,-48.828,-55.664,-35.156,-48.828,0.000
1709299721.170,-45.898,-47.852,-36.621,-52.734,0.000
1709299721.174,-36.133,-29.297,-35.645,-41.016,0.000
1709299721.178,-34.180,-25.391,-41.016,-45.898,0.000
1709299721.182,-36.133,-39.062,-53.223,-41.016,0.000
1709299721.186,-32.715,-41.504,-52.246,-22.949,0.000
1709299721.189,-35.156,-28.809,-50.293,-27.832,0.000
1709299721.193,-37.598,-29.785,-39.062,-34.668,0.000
1709299721.197,-42.969,-36.621,-35.156,-42.480,0.000
1709299721.201,-50.781,-46.875,-42.969,-47.852,0.000
1709299721.205,-43.945,-44.922,-37.598,-38.574,0.000
1709299721.209,-41.992,-34.180,-36.133,-40.039,0.000
1709299721.213,-48.828,-37.598,-35.645,-46.875,0.000
1709299721.216,-44.922,-46.387,-32.715,-48.828,0.000
1709299721.220,-46.387,-43.457,-44.434,-48.828,0.000
1709299721.224,-51.270,-36.621,-46.387,-43.457,0.000
1709299721.228,-51.270,-43.945,-36.133,-34.668,0.000
1709299721.232,-41.016,-50.293,-26.855,-33.691,0.000
1709299721.236,-33.203,-44.922,-28.320,-35.156,0.000
1709299721.240,-36.133,-42.969,-28.809,-36.133,0.000
1709299721.244,-36.133,-39.551,-24.902,-40.527,0.000
1709299721.248,-33.691,-39.551,-34.180,-32.227,0.000
1709299721.251,-40.039,-44.922,-39.062,-30.273,0.000
1709299721.255,-33.691,-43.457,-38.086,-38.086,0.000
1709299721.259,-37.109,-44.434,-44.434,-41.016,0.000
1709299721.263,-44.434,-41.504,-55.664,-40.039,0.000
1709299721.267,-36.621,-41.016,-51.270,-34.180,0.000
1709299721.271,-32.715,-45.898,-41.016,-34.180,0.000
1709299721.275,-33.691,-41.992,-41.016,-40.527,0.000
1709299721.278,-32.227,-48.828,-36.133,-54.199,0.000
1709299721.282,-36.621,-52.734,-37.598,-60.059,0.000
1709299721.286,-34.668,-30.273,-41.016,-47.852,0.000
1709299721.290,-30.273,-29.297,-35.156,-44.434,0.000
1709299721.294,-35.645,-42.480,-41.992,-56.152,0.000
1709299721.298,-37.109,-41.992,-49.316,-58.594,0.000
1709299721.302,-39.551,-38.086,-42.480,-61.523,0.000
1709299721.306,-32.227,-34.180,-28.320,-49.316,0.000
1709299721.310,-27.344,-33.203,-25.879,-43.457,0.000
1709299721.314,-34.668,-43.457,-33.203,-48.828,0.000
1709299721.318,-39.062,-45.898,-37.109,-44.434,0.000
1709299721.322,-40.039,-39.062,-41.504,-45.410,0.000
1709299721.326,-34.668,-43.945,-39.551,-31.738,0.000
1709299721.330,-34.180,-42.480,-35.156,-21.484,0.000
1709299721.334,-43.457,-43.457,-36.133,-33.203,0.000
1709299721.337,-50.781,-44.922,-29.785,-45.898,0.000
1709299721.341,-54.688,-34.668,-22.461,-54.688,0.000
1709299721.345,-51.270,-35.156,-31.738,-49.316,0.000
1709299721.349,-52.734,-43.945,-29.297,-40.039,0.000
1709299721.353,-52.734,-40.039,-30.762,-41.504,0.000
1709299721.357,-47.852,-29.297,-40.039,-46.387,0.000
1709299721.361,-48.340,-35.156,-34.668,-41.992,0.000
1709299721.365,-41.504,-36.133,-31.738,-36.133,0.000
1709299721.369,-37.598,-38.574,-32.715,-37.109,0.000
1709299721.373,-39.551,-42.480,-35.645,-42.969,0.000
1709299721.377,-40.039,-34.180,-37.109,-35.156,0.000
1709299721.381,-38.574,-34.668,-38.574,-20.996,0.000
1709299721.385,-27.344,-31.738,-42.480,-39.551,0.000
1709299721.388,-23.926,-34.180,-41.504,-51.758,0.000
1709299721.393,-25.879,-44.434,-40.527,-45.898,0.000
1709299721.397,-20.508,-46.387,-46.387,-45.410,0.000
1709299721.401,-19.531,-30.762,-44.434,-40.527,0.000
1709299721.404,-30.273,-24.414,-35.645,-51.758,0.000
1709299721.408,-30.273,-25.391,-42.480,-56.152,0.000
1709299721.412,-30.762,-25.879,-40.527,-40.039,0.000
1709299721.416,-26.367,-31.738,-28.320,-46.875,0.000
1709299721.420,-21.484,-32.227,-35.645,-48.340,0.000
1709299721.424,-44.434,-37.109,-41.992,-30.273,0.000
1709299721.428,-39.551,-41.992,-39.062,-30.762,0.000
1709299721.432,-22.461,-35.156,-31.738,-34.180,0.000
1709299721.436,-25.879,-32.227,-33.203,-40.039,0.000
1709299721.440,-31.250,-34.180,-40.527,-50.781,0.000
1709299721.443,-31.738,-34.668,-41.504,-35.645,0.000
1709299721.447,-32.715,-36.621,-34.668,-28.320,0.000
1709299721.451,-30.273,-33.203,-30.273,-31.738,0.000
1709299721.455,-28.809,-34.180,-32.715,-36.133,0.000
1709299721.459,-31.738,-35.645,-32.715,-31.738,0.000
1709299721.463,-31.738,-36.621,-29.785,-32.715,0.000
1709299721.467,-33.203,-39.062,-21.973,-32.227,0.000
1709299721.471,-31.250,-43.945,-26.855,-20.508,0.000
1709299721.475,-36.133,-43.457,-31.250,-32.715,0.000
1709299721.479,-39.062,-38.574,-28.320,-40.039,0.000
1709299721.483,-47.852,-42.480,-31.250,-41.016,0.000
1709299721.486,-43.945,-44.434,-30.273,-33.203,0.000
1709299721.490,-32.715,-44.922,-29.785,-30.762,0.000
1709299721.494,-43.457,-41.016,-26.855,-41.016,0.000
1709299721.498,-59.082,-32.715,-32.715,-62.500,0.000
1709299721.502,-57.129,-44.434,-37.598,-60.547,0.000
1709299721.506,-47.852,-44.922,-27.344,-40.039,0.000
1709299721.510,-47.852,-33.203,-25.879,-40.527,0.000
1709299721.514,-41.504,-31.738,-36.133,-39.551,0.000
1709299721.518,-38.086,-30.762,-36.133,-44.922,0.000
1709299721.521,-47.852,-35.156,-31.250,-52.734,0.000
1709299721.525,-42.969,-41.504,-39.062,-55.176,0.000
1709299721.529,-34.180,-44.434,-42.480,-46.387,0.000
1709299721.533,-31.738,-60.059,-37.109,-28.809,0.000
1709299721.537,-35.156,-60.059,-42.480,-41.016,0.000
1709299721.541,-45.410,-41.016,-37.598,-60.547,0.000
1709299721.545,-50.293,-35.645,-23.926,-57.617,0.000
1709299721.549,-48.340,-35.645,-22.949,-53.223,0.000
1709299721.553,-48.340,-34.668,-27.832,-48.828,0.000
1709299721.556,-44.922,-40.039,-27.832,-45.410,0.000
1709299721.560,-42.969,-44.922,-36.133,-45.410,0.000
1709299721.564,-48.340,-41.992,-40.039,-39.062,0.000
1709299721.568,-41.016,-40.039,-39.062,-28.320,0.000
1709299721.572,-39.551,-40.527,-42.969,-22.949,0.000
1709299721.576,-45.410,-40.527,-45.898,-26.855,0.000
1709299721.580,-40.039,-44.434,-39.062,-36.621,0.000
1709299721.583,-35.645,-52.246,-29.785,-39.062,0.000
1709299721.587,-45.410,-45.898,-36.621,-40.527,0.000
1709299721.591,-50.293,-36.621,-34.180,-46.875,0.000
1709299721.595,-42.969,-34.180,-29.785,-48.340,0.000
1709299721.599,-44.922,-44.434,-42.480,-51.270,0.000
1709299721.603,-46.387,-47.363,-33.203,-44.434,0.000
1709299721.607,-41.504,-34.668,-20.996,-29.785,0.000
1709299721.611,-44.922,-34.668,-32.715,-26.855,0.000
1709299721.615,-45.410,-35.645,-37.598,-35.645,0.000
1709299721.619,-50.781,-36.621,-32.715,-49.316,0.000
1709299721.622,-52.734,-34.180,-32.715,-49.316,0.000
1709299721.626,-38.574,-30.273,-36.133,-39.551,0.000
1709299721.630,-41.016,-36.621,-31.250,-33.691,0.000
1709299721.634,-39.551,-48.340,-31.738,-33.203,0.000
1709299721.638,-32.715,-43.457,-41.504,-30.273,0.000
1709299721.642,-29.785,-35.156,-36.133,-36.133,0.000
1709299721.646,-37.109,-38.574,-33.691,-36.621,0.000
1709299721.649,-37.109,-37.598,-35.156,-26.855,0.000
1709299721.653,-29.785,-30.273,-31.738,-30.762,0.000
1709299721.657,-39.062,-36.133,-35.156,-38.086,0.000
1709299721.661,-42.480,-44.434,-34.668,-31.250,0.000
1709299721.665,-38.574,-41.504,-29.785,-22.461,0.000
1709299721.669,-42.480,-32.715,-28.320,-23.926,0.000
1709299721.673,-47.363,-31.738,-29.297,-33.203,0.000
1709299721.677,-54.688,-46.387,-34.668,-37.598,0.000
1709299721.681,-55.176,-49.316,-41.504,-41.016,0.000
1709299721.685,-47.363,-37.598,-42.480,-33.691,0.000
1709299721.689,-56.152,-43.457,-39.551,-32.227,0.000
1709299721.693,-59.570,-52.734,-38.086,-40.039,0.000
1709299721.697,-55.176,-46.875,-37.598,-47.363,0.000
1709299721.701,-61.523,-40.039,-35.645,-53.711,0.000
1709299721.704,-60.059,-38.574,-32.227,-50.781,0.000
1709299721.708,-52.734,-33.691,-32.227,-41.992,0.000
1709299721.712,-46.875,-31.250,-30.762,-39.062,0.000
1709299721.716,-48.340,-37.109,-35.156,-48.340,0.000
1709299721.720,-56.152,-41.504,-36.133,-48.340,0.000
1709299721.724,-53.223,-41.992,-29.297,-40.527,0.000
1709299721.728,-48.828,-40.527,-34.668,-37.109,0.000
1709299721.732,-43.457,-32.715,-41.016,-39.062,0.000
1709299721.736,-41.504,-34.668,-29.785,-43.945,0.000
1709299721.740,-41.504,-35.156,-23.926,-47.852,0.000
1709299721.744,-33.203,-26.855,-17.090,-41.504,0.000
1709299721.748,-27.832,-32.715,-20.996,-34.180,0.000
1709299721.752,-32.227,-44.434,-41.016,-25.391,0.000
1709299721.755,-33.691,-45.410,-41.992,-23.926,0.000
1709299721.759,-31.250,-36.133,-34.180,-36.621,0.000
1709299721.763,-31.250,-40.039,-26.367,-36.621,0.000
1709299721.767,-29.785,-39.551,-19.531,-29.297,0.000
1709299721.771,-29.297,-33.691,-23.438,-29.785,0.000
1709299721.775,-32.227,-40.039,-27.832,-34.668,0.000
1709299721.779,-30.273,-39.551,-37.598,-39.062,0.000
1709299721.783,-21.973,-33.203,-35.645,-36.133,0.000
1709299721.787,-25.391,-34.668,-20.996,-28.320,0.000
1709299721.791,-31.738,-26.855,-26.367,-27.344,0.000
1709299721.795,-34.180,-20.508,-32.715,-37.598,0.000
1709299721.798,-44.434,-33.203,-37.598,-38.086,0.000
1709299721.802,-45.898,-35.645,-38.086,-36.133,0.000
1709299721.806,-43.945,-37.598,-35.156,-35.645,0.000
1709299721.810,-37.109,-41.016,-41.016,-36.621,0.000
1709299721.814,-36.621,-42.969,-49.316,-47.852,0.000
1709299721.818,-58.105,-47.852,-48.828,-47.363,0.000
1709299721.822,-53.223,-40.039,-38.574,-47.363,0.000
1709299721.826,-45.410,-33.203,-31.738,-41.504,0.000
1709299721.830,-56.152,-34.180,-42.480,-30.273,0.000
1709299721.834,-49.805,-33.203,-47.852,-34.668,0.000
1709299721.838,-43.457,-33.203,-37.109,-49.805,0.000
1709299721.842,-47.852,-34.668,-41.016,-39.551,0.000
1709299721.845,-44.922,-36.133,-45.898,-26.367,0.000
1709299721.849,-49.316,-38.574,-38.574,-42.969,0.000
1709299721.853,-54.199,-41.016,-41.992,-56.641,0.000
1709299721.857,-56.641,-44.922,-43.945,-62.500,0.000
1709299721.861,-62.500,-40.039,-35.645,-58.105,0.000
1709299721.865,-52.246,-35.156,-33.691,-55.176,0.000
1709299721.869,-45.898,-38.574,-38.086,-44.434,0.000
1709299721.873,-43.457,-42.480,-40.527,-47.852,0.000
1709299721.877,-41.504,-38.086,-35.645,-62.500,0.000
1709299721.881,-34.180,-41.504,-40.039,-52.246,0.000
1709299721.884,-38.086,-64.453,-50.781,-40.039,0.000
1709299721.888,-44.922,-55.176,-37.109,-35.156,0.000
1709299721.892,-41.016,-35.156,-38.086,-40.527,0.000
1709299721.896,-45.898,-37.109,-41.016,-54.199,0.000
1709299721.900,-50.293,-41.016,-35.645,-52.734,0.000
1709299721.904,-47.852,-41.504,-41.992,-46.387,0.000
1709299721.908,-37.598,-38.574,-33.691,-37.109,0.000
1709299721.912,-36.621,-44.434,-36.133,-26.367,0.000
1709299721.915,-41.016,-52.246,-37.109,-27.832,0.000
1709299721.919,-44.922,-44.922,-33.691,-29.785,0.000
1709299721.923,-34.668,-37.109,-31.250,-14.160,0.000
1709299721.927,-25.879,-42.480,-27.344,-12.207,0.000
1709299721.931,-23.926,-45.410,-28.809,-11.230,0.000
1709299721.935,-20.508,-39.551,-31.738,-0.977,0.000
1709299721.939,-21.484,-30.762,-31.250,-18.555,0.000
1709299721.943,-17.578,-33.203,-32.715,-33.203,0.000
1709299721.947,-22.949,-47.852,-36.621,-22.949,0.000
1709299721.951,-40.039,-43.945,-27.832,-19.043,0.000
