timestamps,TP9,AF7,AF8,TP10,Right AUX
1709375690.765,-122.070,-45.410,-32.715,-54.199,0.000
1709375690.769,-66.406,-38.574,-28.809,-29.785,0.000
1709375690.773,72.266,-30.273,-26.367,25.391,0.000
1709375690.777,88.379,-32.227,-27.344,27.832,0.000
1709375690.781,-63.965,-38.574,-29.785,-29.785,0.000
1709375690.785,-125.977,-43.945,-36.133,-46.387,0.000
1709375690.789,-77.637,-45.410,-38.086,-42.480,0.000
1709375690.793,62.012,-35.645,-35.156,-0.977,0.000
1709375690.797,98.145,-35.156,-34.668,24.414,0.000
1709375690.801,-52.246,-46.875,-40.039,-29.785,0.000
1709375690.804,-131.348,-46.387,-42.480,-67.871,0.000
1709375690.808,-98.633,-40.527,-39.062,-58.105,0.000
1709375690.813,41.016,-32.227,-40.527,-6.348,0.000
1709375690.816,105.469,-28.809,-44.434,27.344,0.000
1709375690.820,-38.574,-35.156,-46.875,-27.832,0.000
1709375690.824,-128.906,-44.434,-45.898,-66.406,0.000
1709375690.828,-108.887,-49.316,-52.246,-68.359,0.000
1709375690.832,16.113,-37.598,-54.199,-20.020,0.000
1709375690.836,96.680,-31.250,-52.246,17.578,0.000
1709375690.840,-38.574,-44.922,-56.152,-34.668,0.000
1709375690.844,-132.812,-50.781,-54.688,-61.035,0.000
1709375690.848,-109.375,-42.480,-51.270,-43.945,0.000
1709375690.852,1.465,-30.273,-48.340,-6.348,0.000
1709375690.856,106.934,-24.902,-44.922,32.227,0.000
1709375690.860,-1.465,-36.621,-42.969,-13.184,0.000
1709375690.864,-122.070,-48.828,-44.922,-64.941,0.000
1709375690.868,-124.023,-45.410,-43.457,-64.453,0.000
1709375690.872,-22.949,-37.598,-37.598,-27.344,0.000
1709375690.876,106.445,-28.809,-32.227,21.973,0.000
1709375690.880,15.137,-43.457,-36.621,-11.230,0.000
1709375690.884,-127.930,-57.129,-42.969,-67.383,0.000
1709375690.887,-135.254,-50.781,-39.551,-76.172,0.000
1709375690.891,-43.945,-49.805,-41.016,-40.527,0.000
1709375690.895,89.355,-36.133,-44.434,7.812,0.000
1709375690.899,27.344,-35.156,-41.504,-19.043,0.000
1709375690.903,-111.816,-47.852,-42.969,-74.219,0.000
1709375690.907,-142.090,-50.781,-45.410,-86.914,0.000
1709375690.911,-78.125,-44.434,-45.410,-62.012,0.000
1709375690.915,69.336,-31.738,-42.969,2.441,0.000
1709375690.919,41.992,-34.668,-43.945,-4.395,0.000
1709375690.923,-105.469,-45.410,-43.945,-69.824,0.000
1709375690.927,-137.207,-47.852,-43.457,-83.496,0.000
1709375690.930,-75.195,-41.016,-48.340,-63.965,0.000
1709375690.934,72.754,-31.738,-46.387,-5.859,0.000
1709375690.938,76.660,-31.250,-45.898,12.695,0.000
1709375690.942,-83.496,-38.086,-49.316,-55.176,0.000
1709375690.946,-136.719,-41.016,-48.828,-78.125,0.000
1709375690.950,-83.496,-39.551,-47.852,-58.105,0.000
1709375690.954,54.688,-28.809,-45.898,-4.395,0.000
1709375690.958,78.125,-27.832,-45.898,9.277,0.000
1709375690.961,-75.684,-45.898,-47.852,-46.387,0.000
1709375690.965,-140.137,-54.199,-45.410,-70.801,0.000
1709375690.969,-104.492,-49.805,-41.992,-60.547,0.000
1709375690.973,28.320,-41.504,-41.504,-14.648,0.000
1709375690.977,85.938,-41.992,-41.016,4.395,0.000
1709375690.981,-60.059,-53.711,-41.992,-42.969,0.000
1709375690.985,-141.113,-44.434,-40.039,-79.590,0.000
1709375690.989,-112.305,-41.016,-36.621,-78.125,0.000
1709375690.993,18.555,-40.527,-37.109,-16.602,0.000
1709375690.997,94.727,-35.156,-42.969,21.484,0.000
1709375691.000,-40.039,-42.969,-43.945,-29.297,0.000
1709375691.004,-132.324,-51.270,-44.922,-67.871,0.000
1709375691.008,-118.652,-47.852,-41.016,-68.359,0.000
1709375691.012,-7.812,-37.109,-36.621,-28.320,0.000
1709375691.016,95.215,-28.809,-38.574,15.625,0.000
1709375691.020,-21.484,-32.227,-38.574,-28.320,0.000
1709375691.024,-131.348,-40.527,-32.227,-72.754,0.000
1709375691.028,-124.023,-45.898,-35.156,-74.219,0.000
1709375691.032,-27.832,-37.598,-44.922,-43.945,0.000
1709375691.035,83.496,-31.738,-45.410,5.859,0.000
1709375691.039,-9.277,-47.363,-44.434,-22.461,0.000
1709375691.043,-136.230,-56.641,-42.480,-71.777,0.000
1709375691.047,-138.672,-43.945,-36.133,-76.172,0.000
1709375691.051,-40.039,-36.133,-31.738,-42.480,0.000
1709375691.055,94.238,-33.691,-30.762,9.766,0.000
1709375691.059,21.973,-40.039,-30.273,-14.648,0.000
1709375691.062,-128.906,-55.176,-36.133,-74.219,0.000
1709375691.066,-145.020,-61.523,-44.434,-90.820,0.000
1709375691.070,-55.176,-57.129,-43.457,-41.992,0.000
1709375691.074,83.984,-33.203,-35.156,19.043,0.000
1709375691.078,43.945,-29.297,-34.180,-1.953,0.000
1709375691.082,-100.098,-42.969,-37.598,-56.641,0.000
1709375691.086,-131.836,-45.410,-38.574,-68.359,0.000
1709375691.090,-69.824,-43.457,-31.738,-48.340,0.000
1709375691.094,73.730,-36.133,-30.273,8.301,0.000
1709375691.098,57.617,-35.156,-30.762,11.719,0.000
1709375691.102,-88.379,-42.969,-31.250,-52.246,0.000
1709375691.106,-130.371,-43.457,-32.227,-73.242,0.000
1709375691.110,-84.473,-41.016,-35.156,-46.875,0.000
1709375691.114,59.082,-35.645,-37.109,11.230,0.000
1709375691.118,77.637,-31.738,-33.203,23.438,0.000
1709375691.122,-73.730,-38.574,-30.762,-33.691,0.000
1709375691.125,-132.812,-46.875,-29.297,-67.383,0.000
1709375691.129,-87.891,-44.922,-30.762,-58.105,0.000
1709375691.133,53.223,-28.809,-30.273,-3.418,0.000
1709375691.137,88.867,-22.949,-33.203,9.766,0.000
1709375691.141,-62.012,-41.992,-34.180,-47.852,0.000
1709375691.145,-134.766,-55.664,-29.297,-62.988,0.000
1709375691.149,-96.191,-48.340,-29.297,-52.246,0.000
1709375691.153,38.086,-39.062,-31.250,-12.207,0.000
1709375691.157,101.074,-38.086,-30.273,16.602,0.000
1709375691.161,-41.504,-50.781,-31.738,-28.320,0.000
1709375691.165,-135.254,-52.734,-32.715,-69.824,0.000
1709375691.169,-106.445,-41.992,-30.762,-71.777,0.000
1709375691.173,16.113,-40.527,-30.762,-23.926,0.000
1709375691.177,99.121,-36.621,-32.715,22.949,0.000
1709375691.181,-23.438,-34.668,-36.133,-23.926,0.000
1709375691.184,-114.746,-39.062,-40.039,-66.895,0.000
1709375691.189,-97.656,-39.062,-36.133,-70.312,0.000
1709375691.192,4.395,-33.691,-33.203,-35.645,0.000
1709375691.196,110.352,-23.926,-35.156,18.555,0.000
1709375691.200,5.371,-29.297,-31.250,-14.160,0.000
1709375691.204,-109.863,-44.434,-31.250,-59.570,0.000
1709375691.208,-109.863,-45.898,-34.668,-58.594,0.000
1709375691.212,-15.625,-39.062,-37.109,-26.367,0.000
1709375691.216,105.469,-32.227,-38.086,14.160,0.000
1709375691.220,20.020,-46.387,-34.668,-9.277,0.000
1709375691.224,-112.305,-50.293,-41.016,-53.711,0.000
1709375691.228,-116.211,-42.480,-42.969,-62.012,0.000
1709375691.232,-39.551,-40.039,-41.992,-35.645,0.000
1709375691.236,95.215,-26.855,-41.504,13.672,0.000
1709375691.239,35.645,-28.809,-40.039,-7.812,0.000
1709375691.243,-112.305,-41.504,-37.109,-61.035,0.000
1709375691.247,-136.230,-47.363,-39.551,-67.871,0.000
1709375691.251,-73.730,-45.898,-41.504,-49.805,0.000
1709375691.255,77.637,-38.574,-36.621,9.277,0.000
1709375691.259,50.781,-38.574,-38.086,3.906,0.000
1709375691.263,-102.051,-51.270,-40.527,-57.129,0.000
1709375691.267,-129.883,-62.988,-36.133,-62.012,0.000
1709375691.271,-71.289,-45.898,-34.668,-46.875,0.000
1709375691.275,64.941,-31.738,-38.086,-1.465,0.000
1709375691.278,58.594,-39.062,-36.621,6.836,0.000
1709375691.282,-98.633,-51.270,-36.621,-57.129,0.000
1709375691.286,-146.484,-51.270,-41.992,-80.566,0.000
1709375691.290,-92.773,-50.293,-42.969,-61.035,0.000
1709375691.294,52.246,-44.434,-41.016,-2.930,0.000
1709375691.298,76.172,-40.039,-36.621,10.254,0.000
1709375691.302,-84.473,-49.805,-41.504,-49.316,0.000
1709375691.306,-149.902,-52.734,-48.828,-86.914,0.000
1709375691.310,-106.445,-52.734,-48.340,-79.590,0.000
1709375691.314,34.180,-42.480,-44.434,-20.996,0.000
1709375691.318,90.820,-25.879,-41.504,-2.441,0.000
1709375691.321,-62.012,-37.109,-37.598,-45.410,0.000
1709375691.325,-141.602,-48.828,-38.086,-67.383,0.000
1709375691.329,-106.445,-39.551,-40.039,-64.941,0.000
1709375691.333,25.879,-30.273,-49.316,-20.996,0.000
1709375691.337,100.098,-26.855,-50.781,14.648,0.000
1709375691.341,-47.363,-41.504,-43.945,-30.273,0.000
1709375691.345,-137.207,-50.293,-46.875,-71.777,0.000
1709375691.349,-111.328,-46.875,-45.410,-71.289,0.000
1709375691.353,3.906,-41.992,-42.480,-30.762,0.000
1709375691.356,101.074,-42.969,-42.969,18.555,0.000
1709375691.360,-17.578,-43.457,-41.504,-31.738,0.000
1709375691.364,-128.418,-41.992,-42.969,-80.078,0.000
1709375691.368,-126.953,-46.387,-45.410,-81.543,0.000
1709375691.372,-24.414,-38.574,-44.434,-50.781,0.000
1709375691.376,98.633,-22.461,-39.062,3.418,0.000
1709375691.380,1.953,-28.320,-35.645,-25.879,0.000
1709375691.384,-123.535,-42.969,-34.180,-73.730,0.000
1709375691.387,-128.418,-42.480,-30.762,-74.707,0.000
1709375691.391,-46.875,-35.645,-35.645,-43.457,0.000
1709375691.395,83.008,-32.227,-38.574,14.648,0.000
1709375691.399,20.996,-41.016,-32.715,0.000,0.000
1709375691.403,-111.328,-45.410,-32.715,-54.199,0.000
1709375691.407,-138.184,-38.574,-35.156,-77.637,0.000
1709375691.411,-61.523,-41.016,-37.109,-54.688,0.000
1709375691.415,81.055,-38.574,-35.156,4.395,0.000
1709375691.419,32.227,-36.621,-30.762,-6.348,0.000
1709375691.422,-116.699,-45.410,-33.203,-58.105,0.000
1709375691.426,-147.461,-57.617,-38.574,-72.754,0.000
1709375691.430,-75.684,-56.641,-33.691,-46.387,0.000
1709375691.434,68.848,-39.551,-30.273,14.648,0.000
1709375691.438,48.340,-36.133,-32.715,10.742,0.000
1709375691.442,-99.609,-50.293,-33.203,-49.316,0.000
1709375691.446,-142.578,-58.105,-31.738,-64.941,0.000
1709375691.450,-92.773,-47.363,-34.668,-59.570,0.000
1709375691.453,51.758,-32.715,-38.574,-15.625,0.000
1709375691.457,62.012,-41.504,-38.574,-2.441,0.000
1709375691.461,-87.891,-52.246,-42.969,-63.965,0.000
1709375691.465,-145.508,-44.434,-43.457,-86.426,0.000
1709375691.469,-107.422,-40.527,-38.086,-71.289,0.000
1709375691.472,36.621,-36.621,-39.551,-20.508,0.000
1709375691.476,80.078,-29.297,-39.551,-2.441,0.000
1709375691.480,-67.871,-36.621,-39.551,-61.035,0.000
1709375691.484,-136.230,-39.551,-37.109,-78.125,0.000
1709375691.488,-103.027,-41.504,-39.062,-59.082,0.000
1709375691.492,35.645,-32.715,-39.551,-6.348,0.000
1709375691.496,101.562,-23.926,-36.621,21.484,0.000
1709375691.500,-49.805,-37.598,-38.574,-31.738,0.000
1709375691.504,-131.348,-44.434,-34.180,-59.082,0.000
1709375691.508,-116.211,-37.598,-39.062,-55.176,0.000
1709375691.512,-0.488,-25.879,-39.551,-19.531,0.000
1709375691.516,104.004,-25.879,-32.227,23.926,0.000
1709375691.520,-27.344,-36.621,-40.527,-17.090,0.000
1709375691.524,-140.137,-40.527,-48.340,-62.500,0.000
1709375691.528,-120.117,-36.621,-40.527,-63.965,0.000
1709375691.531,-7.812,-32.715,-35.645,-24.902,0.000
1709375691.535,104.980,-29.297,-38.086,22.461,0.000
1709375691.539,-4.395,-35.645,-33.691,-16.113,0.000
1709375691.543,-120.117,-39.062,-32.227,-62.500,0.000
1709375691.547,-115.234,-42.969,-36.621,-64.941,0.000
1709375691.551,-21.484,-44.434,-36.133,-24.902,0.000
1709375691.555,99.609,-31.738,-35.156,23.438,0.000
1709375691.559,17.090,-35.645,-33.691,-8.301,0.000
1709375691.563,-111.328,-45.410,-30.762,-59.570,0.000
1709375691.567,-124.023,-42.480,-29.297,-68.848,0.000
1709375691.571,-24.902,-32.715,-26.855,-25.879,0.000
1709375691.575,104.980,-24.414,-25.391,27.344,0.000
1709375691.579,38.086,-35.645,-25.879,-0.488,0.000
1709375691.583,-104.980,-47.852,-30.273,-54.199,0.000
1709375691.586,-134.277,-43.945,-35.645,-69.824,0.000
1709375691.590,-60.547,-36.133,-32.715,-53.711,0.000
1709375691.594,82.031,-36.621,-29.297,4.395,0.000
1709375691.598,49.805,-38.574,-29.297,1.465,0.000
1709375691.602,-104.004,-41.504,-30.762,-59.082,0.000
1709375691.606,-142.578,-47.363,-31.250,-73.242,0.000
1709375691.610,-81.055,-47.852,-32.227,-51.758,0.000
1709375691.614,63.477,-37.598,-31.250,3.906,0.000
1709375691.618,67.383,-37.598,-32.227,8.789,0.000
1709375691.622,-80.566,-50.293,-37.109,-47.852,0.000
1709375691.626,-126.465,-55.176,-38.086,-53.223,0.000
1709375691.630,-83.008,-47.363,-32.715,-34.180,0.000
1709375691.634,53.223,-34.180,-22.461,7.812,0.000
1709375691.637,84.961,-41.016,-13.184,23.926,0.000
1709375691.641,-70.801,-66.406,-11.230,-17.578,0.000
1709375691.645,-145.508,-71.777,-10.742,-52.734,0.000
1709375691.649,-110.840,-76.660,-7.812,-51.758,0.000
1709375691.653,26.855,-81.543,-2.930,6.836,0.000
1709375691.657,75.195,-83.984,1.953,30.273,0.000
1709375691.661,-80.078,-98.145,11.230,-32.227,0.000
1709375691.665,-159.668,-106.445,15.137,-62.988,0.000
1709375691.669,-137.695,-112.793,14.648,-56.641,0.000
1709375691.673,-16.602,-110.352,12.207,-8.789,0.000
1709375691.676,58.594,-116.211,13.672,17.090,0.000
1709375691.680,-84.961,-129.395,14.160,-45.898,0.000
1709375691.684,-176.758,-138.184,9.766,-71.289,0.000
1709375691.688,-151.367,-145.020,15.625,-55.176,0.000
1709375691.692,-41.016,-138.184,21.484,-29.297,0.000
1709375691.696,55.176,-132.812,26.855,4.395,0.000
1709375691.700,-55.664,-146.973,31.738,-17.578,0.000
1709375691.704,-169.434,-154.785,24.414,-54.688,0.000
1709375691.708,-160.156,-149.414,26.367,-60.059,0.000
1709375691.711,-34.668,-136.719,37.598,-7.812,0.000
1709375691.715,90.332,-125.977,37.598,50.293,0.000
1709375691.719,-0.977,-125.488,39.062,26.855,0.000
1709375691.723,-116.211,-133.301,36.133,-10.742,0.000
1709375691.727,-105.957,-131.836,37.109,-3.418,0.000
1709375691.731,-1.953,-124.023,37.598,41.992,0.000
1709375691.735,133.789,-108.887,31.738,99.609,0.000
1709375691.739,69.336,-105.469,28.320,87.891,0.000
1709375691.743,-63.965,-113.770,28.320,35.645,0.000
1709375691.747,-75.684,-115.723,24.902,24.902,0.000
1709375691.750,10.742,-103.027,16.602,57.129,0.000
1709375691.754,161.621,-83.008,14.160,119.629,0.000
1709375691.758,116.211,-86.426,12.695,102.539,0.000
1709375691.762,-39.062,-91.309,7.324,36.133,0.000
1709375691.766,-69.336,-80.566,3.906,20.508,0.000
1709375691.770,-5.371,-70.312,-1.465,37.598,0.000
1709375691.774,138.184,-59.570,-7.324,94.238,0.000
1709375691.778,125.488,-52.734,-5.859,102.051,0.000
1709375691.781,-30.762,-55.664,-8.789,37.598,0.000
1709375691.785,-76.172,-56.641,-15.137,10.254,0.000
1709375691.789,-20.020,-56.152,-11.719,24.414,0.000
1709375691.793,124.512,-44.434,-15.625,76.172,0.000
1709375691.797,139.648,-38.086,-21.484,89.844,0.000
1709375691.801,-11.719,-54.688,-23.926,33.203,0.000
1709375691.804,-70.312,-62.012,-21.973,2.930,0.000
1709375691.808,-38.086,-55.176,-24.902,4.883,0.000
1709375691.812,107.422,-41.504,-26.855,51.758,0.000
1709375691.816,157.715,-42.480,-29.297,78.125,0.000
1709375691.820,-2.930,-56.641,-36.621,29.297,0.000
1709375691.824,-90.820,-56.152,-37.598,-15.137,0.000
1709375691.828,-65.918,-52.734,-41.992,-22.461,0.000
1709375691.832,70.801,-46.387,-42.969,26.855,0.000
1709375691.836,140.137,-41.504,-41.992,59.570,0.000
1709375691.840,1.953,-47.852,-40.527,10.254,0.000
1709375691.843,-85.449,-50.293,-38.086,-30.273,0.000
1709375691.847,-71.289,-48.340,-36.133,-27.832,0.000
1709375691.851,50.293,-40.527,-32.715,21.484,0.000
1709375691.855,148.438,-27.344,-32.715,65.430,0.000
1709375691.859,18.066,-36.621,-33.203,23.926,0.000
1709375691.863,-87.891,-46.875,-30.273,-15.625,0.000
1709375691.867,-78.125,-41.504,-28.320,-17.090,0.000
1709375691.870,33.203,-29.785,-24.902,19.531,0.000
1709375691.874,144.531,-25.391,-22.461,60.059,0.000
1709375691.878,27.832,-39.062,-28.809,21.484,0.000
1709375691.882,-98.633,-43.945,-30.762,-29.785,0.000
1709375691.886,-92.773,-37.109,-31.250,-40.039,0.000
1709375691.890,8.789,-34.668,-34.668,-6.836,0.000
1709375691.894,129.883,-32.227,-30.762,43.945,0.000
1709375691.898,44.434,-35.156,-31.250,22.461,0.000
1709375691.902,-84.473,-41.992,-29.785,-26.855,0.000
1709375691.906,-92.773,-43.457,-25.391,-33.203,0.000
1709375691.910,-0.977,-40.527,-25.391,-7.812,0.000
1709375691.914,130.371,-25.391,-25.391,42.480,0.000
1709375691.918,55.664,-27.832,-30.762,17.090,0.000
1709375691.922,-96.191,-43.457,-32.715,-38.574,0.000
1709375691.926,-116.699,-45.898,-32.227,-38.086,0.000
1709375691.930,-45.410,-37.109,-34.180,-25.879,0.000
1709375691.933,101.074,-30.762,-32.715,20.996,0.000
1709375691.938,75.684,-35.156,-29.785,16.602,0.000
1709375691.942,-78.613,-46.387,-32.715,-43.457,0.000
1709375691.946,-113.770,-50.293,-33.691,-62.500,0.000
1709375691.950,-48.828,-45.898,-35.645,-39.551,0.000
1709375691.954,97.656,-39.062,-36.621,25.391,0.000
1709375691.957,92.773,-38.086,-32.715,30.273,0.000
1709375691.961,-63.965,-44.434,-31.250,-29.297,0.000
1709375691.965,-125.977,-51.758,-36.133,-53.223,0.000
1709375691.969,-79.590,-54.199,-36.621,-34.180,0.000
1709375691.973,69.336,-37.598,-30.762,22.461,0.000
1709375691.977,98.633,-25.391,-32.227,25.879,0.000
1709375691.981,-51.758,-38.574,-37.598,-31.738,0.000
1709375691.985,-110.840,-42.969,-34.180,-51.758,0.000
1709375691.989,-70.312,-30.762,-35.156,-47.363,0.000
1709375691.993,55.664,-25.879,-39.062,-5.859,0.000
1709375691.997,102.539,-31.738,-37.598,22.949,0.000
1709375692.001,-48.340,-38.086,-38.574,-28.809,0.000
1709375692.004,-131.348,-46.875,-43.945,-66.895,0.000
1709375692.008,-99.609,-45.898,-49.805,-72.754,0.000
1709375692.012,34.668,-34.668,-49.805,-24.902,0.000
1709375692.016,108.887,-37.598,-43.945,21.973,0.000
1709375692.020,-26.855,-39.551,-40.039,-34.668,0.000
1709375692.024,-124.512,-44.922,-39.062,-80.078,0.000
1709375692.028,-107.422,-48.340,-38.086,-68.848,0.000
1709375692.032,7.812,-40.039,-38.574,-22.949,0.000
1709375692.036,104.980,-29.297,-34.668,17.090,0.000
1709375692.040,-16.602,-38.086,-34.668,-25.391,0.000
1709375692.044,-138.672,-49.805,-40.527,-72.754,0.000
1709375692.047,-135.254,-48.340,-38.574,-70.801,0.000
1709375692.051,-25.391,-42.969,-35.645,-26.367,0.000
1709375692.055,92.773,-33.691,-35.156,20.508,0.000
1709375692.059,-4.883,-41.992,-35.645,-7.812,0.000
1709375692.063,-129.395,-49.805,-35.645,-55.176,0.000
1709375692.067,-133.301,-44.434,-37.109,-75.195,0.000
1709375692.071,-36.133,-42.480,-43.945,-41.504,0.000
1709375692.075,100.586,-34.668,-48.828,21.484,0.000
1709375692.079,17.090,-34.180,-44.434,-5.371,0.000
1709375692.082,-131.348,-49.316,-43.457,-67.383,0.000
1709375692.086,-145.020,-54.199,-44.434,-71.289,0.000
1709375692.090,-64.941,-46.875,-45.898,-41.992,0.000
1709375692.094,76.172,-34.180,-44.922,4.883,0.000
1709375692.098,32.715,-45.898,-40.039,-11.719,0.000
1709375692.102,-114.258,-64.941,-38.574,-60.547,0.000
1709375692.106,-137.207,-57.617,-39.551,-67.383,0.000
1709375692.110,-69.824,-37.109,-37.598,-51.758,0.000
1709375692.114,75.684,-23.926,-35.156,0.977,0.000
1709375692.118,65.430,-32.227,-38.086,2.441,0.000
1709375692.122,-92.773,-46.387,-41.992,-56.152,0.000
1709375692.125,-136.719,-49.805,-41.016,-71.289,0.000
1709375692.129,-77.637,-44.922,-44.922,-54.688,0.000
1709375692.133,69.824,-40.039,-41.016,-0.977,0.000
1709375692.137,87.402,-38.086,-38.086,9.277,0.000
1709375692.141,-69.824,-46.387,-44.922,-43.457,0.000
1709375692.145,-133.789,-52.246,-45.898,-73.730,0.000
1709375692.149,-93.262,-49.316,-40.527,-68.359,0.000
1709375692.153,51.758,-36.133,-38.086,-6.836,0.000
1709375692.156,97.168,-25.391,-36.621,17.578,0.000
1709375692.160,-52.246,-34.180,-32.715,-34.668,0.000
1709375692.164,-130.859,-44.434,-33.691,-62.012,0.000
1709375692.168,-96.191,-44.434,-37.109,-53.711,0.000
1709375692.172,45.410,-36.621,-37.109,-6.348,0.000
1709375692.176,103.027,-33.691,-36.133,20.020,0.000
1709375692.180,-43.457,-43.945,-34.668,-29.297,0.000
1709375692.183,-134.766,-41.504,-38.086,-71.289,0.000
1709375692.187,-118.164,-32.227,-41.016,-73.730,0.000
1709375692.191,9.277,-34.180,-41.992,-28.320,0.000
1709375692.195,93.262,-44.922,-42.969,12.695,0.000
1709375692.199,-41.504,-43.945,-45.898,-41.504,0.000
1709375692.203,-131.348,-46.875,-44.434,-77.637,0.000
1709375692.207,-110.352,-46.387,-40.527,-59.082,0.000
1709375692.211,-2.441,-38.574,-37.109,-19.043,0.000
1709375692.215,98.633,-36.133,-36.133,22.949,0.000
1709375692.218,-17.090,-42.969,-40.039,-12.695,0.000
1709375692.222,-140.625,-51.270,-40.527,-56.152,0.000
1709375692.226,-139.648,-52.734,-42.480,-68.359,0.000
1709375692.230,-37.598,-41.504,-44.434,-30.273,0.000
1709375692.234,90.332,-24.902,-40.527,30.273,0.000
1709375692.238,-4.395,-43.945,-38.086,-8.301,0.000
1709375692.242,-130.859,-51.758,-40.039,-66.406,0.000
1709375692.245,-133.789,-43.457,-42.480,-76.172,0.000
1709375692.249,-46.875,-40.527,-41.016,-51.270,0.000
1709375692.253,91.309,-29.297,-37.598,2.930,0.000
1709375692.257,34.668,-35.156,-37.598,-9.277,0.000
1709375692.261,-109.863,-45.410,-40.039,-67.871,0.000
1709375692.266,0.000,-45.410,0.000,-85.938,0.000
1709375692.269,0.000,-43.457,0.000,-60.059,0.000
1709375692.273,0.000,-33.203,0.000,0.488,0.000
1709375692.277,0.000,-40.039,0.000,-6.836,0.000
1709375692.281,0.000,-59.082,0.000,-68.848,0.000
1709375692.285,0.000,-59.082,0.000,-83.496,0.000
1709375692.289,0.000,-43.457,0.000,-53.223,0.000
1709375692.293,0.000,-28.320,0.000,0.000,0.000
1709375692.297,0.000,-39.551,0.000,2.930,0.000
1709375692.301,0.000,-55.176,0.000,-53.223,0.000
1709375692.305,0.000,-45.898,0.000,-89.844,0.000
1709375692.308,0.000,-40.527,0.000,-74.219,0.000
1709375692.313,51.270,-39.062,-49.316,-14.160,0.000
1709375692.317,82.520,-40.039,-53.711,9.277,0.000
1709375692.321,-68.848,-48.340,-49.805,-43.945,0.000
1709375692.324,-134.277,-52.734,-49.316,-77.637,0.000
1709375692.328,-92.285,-57.617,-55.176,-65.430,0.000
1709375692.332,47.852,-50.293,-55.176,-10.254,0.000
1709375692.336,102.051,-36.621,-51.270,20.996,0.000
1709375692.340,-42.969,-38.574,-50.293,-29.297,0.000
1709375692.344,-125.977,-52.734,-50.293,-63.965,0.000
1709375692.348,-103.027,-47.852,-51.758,-60.059,0.000
1709375692.352,17.578,-30.273,-48.340,-19.043,0.000
1709375692.356,92.773,-31.738,-41.504,21.484,0.000
1709375692.360,-37.598,-44.922,-42.480,-23.438,0.000
1709375692.364,-134.766,-48.340,-41.992,-63.965,0.000
1709375692.367,-113.281,-48.828,-37.109,-58.594,0.000
1709375692.371,11.230,-47.363,-32.715,-8.789,0.000
1709375692.375,105.469,-46.387,-29.785,29.785,0.000
1709375692.379,-16.602,-56.641,-33.203,-12.207,0.000
1709375692.383,-123.047,-59.082,-32.715,-57.617,0.000
1709375692.387,-107.422,-58.594,-28.320,-58.105,0.000
1709375692.391,-5.371,-61.523,-27.832,-11.719,0.000
1709375692.395,112.793,-42.480,-20.020,35.156,0.000
1709375692.399,20.020,-41.992,-18.066,-4.883,0.000
1709375692.403,-108.887,-58.594,-25.879,-58.105,0.000
1709375692.407,-120.117,-57.129,-27.832,-59.082,0.000
1709375692.410,-29.785,-46.875,-32.715,-23.926,0.000
1709375692.414,97.168,-35.156,-36.621,22.949,0.000
1709375692.418,21.484,-39.551,-31.250,-1.465,0.000
1709375692.422,-120.605,-50.293,-32.715,-53.223,0.000
1709375692.426,-133.301,-53.223,-31.250,-61.035,0.000
1709375692.430,-55.664,-46.387,-27.832,-43.945,0.000
1709375692.434,76.660,-37.109,-26.855,8.789,0.000
1709375692.438,36.621,-39.062,-24.414,3.418,0.000
1709375692.442,-110.840,-38.574,-25.391,-52.246,0.000
1709375692.446,-146.973,-44.922,-29.297,-70.801,0.000
1709375692.450,-81.543,-46.387,-28.320,-51.270,0.000
1709375692.453,64.453,-32.227,-33.691,7.324,0.000
1709375692.457,47.363,-34.180,-39.551,-3.418,0.000
1709375692.461,-110.840,-48.340,-35.156,-65.430,0.000
1709375692.465,-150.391,-45.898,-33.691,-82.031,0.000
1709375692.469,-89.844,-40.527,-36.621,-71.777,0.000
1709375692.473,54.688,-32.715,-37.598,-18.555,0.000
1709375692.477,71.289,-37.598,-38.574,2.930,0.000
1709375692.481,-81.055,-49.805,-38.086,-41.504,0.000
1709375692.485,-144.043,-38.574,-36.133,-70.312,0.000
1709375692.488,-98.633,-30.273,-37.109,-60.059,0.000
1709375692.492,45.410,-23.926,-39.062,-1.465,0.000
1709375692.496,77.637,-20.996,-37.598,12.207,0.000
1709375692.500,-74.219,-34.668,-39.551,-54.688,0.000
1709375692.504,-142.090,-37.109,-45.898,-84.473,0.000
1709375692.508,-103.027,-38.574,-41.992,-65.918,0.000
1709375692.512,39.062,-26.855,-38.086,-11.230,0.000
1709375692.516,104.492,-17.578,-41.016,14.160,0.000
1709375692.519,-35.156,-31.250,-42.480,-39.062,0.000
1709375692.523,-123.535,-40.527,-41.992,-64.453,0.000
1709375692.527,-102.539,-37.109,-39.551,-47.852,0.000
1709375692.531,24.414,-24.902,-35.645,-11.719,0.000
1709375692.535,113.770,-19.531,-35.645,23.438,0.000
1709375692.539,-19.531,-35.156,-41.504,-20.996,0.000
1709375692.543,-123.047,-42.969,-41.992,-63.477,0.000
1709375692.546,-110.352,-43.945,-39.062,-62.500,0.000
1709375692.550,-2.930,-36.621,-38.574,-19.531,0.000
1709375692.554,107.910,-29.785,-36.621,25.879,0.000
1709375692.558,2.441,-30.762,-32.715,-8.789,0.000
1709375692.562,-126.465,-38.086,-34.668,-57.617,0.000
1709375692.566,-131.836,-44.922,-39.551,-66.895,0.000
1709375692.570,-20.020,-38.086,-40.527,-20.996,0.000
1709375692.574,104.980,-16.113,-41.992,22.461,0.000
1709375692.578,8.789,-18.066,-39.551,-12.207,0.000
1709375692.582,-120.117,-34.180,-39.551,-57.617,0.000
1709375692.585,-134.277,-37.598,-43.457,-66.895,0.000
1709375692.589,-50.293,-34.180,-43.945,-36.133,0.000
1709375692.593,93.750,-29.297,-49.805,17.578,0.000
1709375692.597,32.227,-35.156,-53.223,-10.742,0.000
1709375692.601,-111.328,-41.504,-53.223,-70.801,0.000
1709375692.605,-134.277,-40.527,-55.664,-83.496,0.000
1709375692.608,-66.895,-36.621,-56.641,-56.152,0.000
1709375692.612,78.125,-30.762,-55.664,1.953,0.000
1709375692.616,41.992,-33.691,-57.129,-11.719,0.000
1709375692.620,-107.910,-39.551,-59.082,-72.266,0.000
1709375692.624,-142.578,-40.527,-54.688,-86.426,0.000
1709375692.628,-79.590,-36.621,-50.293,-67.383,0.000
1709375692.632,69.336,-24.902,-54.199,-15.625,0.000
1709375692.636,67.871,-24.902,-57.617,-3.906,0.000
1709375692.640,-81.055,-39.062,-55.664,-55.664,0.000
1709375692.644,-135.742,-46.875,-56.152,-79.590,0.000
1709375692.648,-84.473,-41.504,-54.688,-66.406,0.000
1709375692.652,63.477,-31.250,-51.758,-8.789,0.000
1709375692.656,78.613,-34.668,-51.758,7.812,0.000
1709375692.660,-83.008,-48.340,-49.805,-42.969,0.000
1709375692.664,-147.461,-55.176,-48.340,-72.266,0.000
1709375692.668,-98.145,-46.875,-47.363,-67.383,0.000
1709375692.671,41.992,-40.039,-41.992,-13.184,0.000
1709375692.675,91.309,-43.945,-34.180,19.531,0.000
1709375692.679,-58.105,-40.527,-36.621,-44.922,0.000
1709375692.683,-143.066,-40.039,-38.086,-83.008,0.000
1709375692.687,-113.281,-44.922,-36.621,-72.754,0.000
1709375692.691,18.066,-38.086,-37.109,-25.879,0.000
1709375692.695,88.379,-31.250,-38.086,4.883,0.000
1709375692.699,-46.875,-41.504,-36.621,-40.039,0.000
1709375692.703,-135.254,-50.781,-40.527,-71.289,0.000
1709375692.707,-114.258,-49.805,-37.598,-71.289,0.000
1709375692.711,-0.488,-36.621,-29.785,-28.809,0.000
1709375692.715,100.586,-29.297,-33.203,11.230,0.000
1709375692.719,-23.926,-47.363,-37.109,-26.367,0.000
1709375692.722,-147.461,-54.688,-41.504,-66.406,0.000
1709375692.726,-137.695,-44.922,-44.434,-76.172,0.000
1709375692.730,-27.832,-41.504,-43.945,-38.086,0.000
1709375692.734,91.309,-34.668,-39.062,12.695,0.000
1709375692.738,-5.371,-36.133,-40.527,-25.391,0.000
1709375692.742,-132.812,-47.852,-41.504,-79.590,0.000
1709375692.746,-137.207,-49.805,-41.016,-85.938,0.000
1709375692.750,-36.621,-46.387,-41.504,-42.969,0.000
1709375692.754,85.938,-36.621,-40.527,11.719,0.000
1709375692.758,11.719,-36.133,-38.574,-8.789,0.000
1709375692.762,-117.188,-48.828,-36.621,-55.664,0.000
1709375692.766,-130.859,-58.105,-33.203,-55.176,0.000
1709375692.769,-54.199,-44.922,-31.738,-36.621,0.000
1709375692.773,78.613,-37.598,-33.203,6.348,0.000
1709375692.777,27.344,-49.805,-32.715,-2.930,0.000
1709375692.781,-110.352,-59.082,-29.785,-59.570,0.000
1709375692.785,-136.230,-56.152,-30.762,-77.637,0.000
1709375692.789,-75.195,-47.363,-32.227,-54.688,0.000
1709375692.793,78.613,-35.156,-25.391,1.953,0.000
1709375692.797,60.059,-34.180,-26.855,-3.418,0.000
1709375692.801,-96.680,-49.805,-28.320,-51.270,0.000
1709375692.805,-141.602,-53.223,-23.438,-68.359,0.000
1709375692.809,-95.215,-50.293,-21.973,-53.223,0.000
1709375692.813,44.434,-40.527,-23.926,5.859,0.000
1709375692.816,56.152,-37.109,-33.203,9.277,0.000
1709375692.820,-86.914,-46.875,-37.109,-48.340,0.000
1709375692.824,-147.461,-52.246,-32.715,-74.707,0.000
1709375692.828,-106.445,-45.898,-30.762,-63.477,0.000
1709375692.832,43.945,-36.621,-27.344,-7.812,0.000
1709375692.836,75.684,-42.480,-30.273,6.348,0.000
1709375692.840,-72.266,-46.387,-30.762,-47.852,0.000
1709375692.844,-133.301,-46.875,-29.785,-73.730,0.000
1709375692.848,-95.703,-48.828,-33.203,-66.406,0.000
1709375692.851,42.480,-38.086,-33.691,-9.766,0.000
1709375692.855,111.816,-38.574,-32.227,33.203,0.000
1709375692.859,-34.180,-39.062,-33.203,-24.414,0.000
1709375692.863,-127.441,-40.039,-35.156,-73.242,0.000
1709375692.867,-106.445,-44.434,-36.133,-70.312,0.000
1709375692.871,14.648,-35.156,-32.227,-22.949,0.000
1709375692.875,106.445,-30.273,-29.785,15.137,0.000
1709375692.879,-20.508,-43.945,-31.738,-32.227,0.000
1709375692.883,-128.418,-51.758,-31.738,-74.707,0.000
1709375692.886,-114.258,-50.293,-32.715,-72.266,0.000
1709375692.890,-2.441,-44.434,-35.645,-36.133,0.000
1709375692.894,100.098,-42.480,-41.016,0.488,0.000
1709375692.898,-9.277,-51.270,-38.574,-32.715,0.000
1709375692.902,-124.023,-53.223,-37.109,-68.848,0.000
1709375692.906,-123.047,-45.898,-35.645,-73.730,0.000
1709375692.910,-27.832,-41.016,-39.551,-36.621,0.000
1709375692.914,90.820,-38.086,-40.527,22.949,0.000
1709375692.918,1.953,-40.039,-34.668,-6.836,0.000
1709375692.921,-128.418,-46.875,-38.086,-64.453,0.000
1709375692.925,-136.230,-50.293,-37.598,-72.754,0.000
1709375692.929,-46.875,-46.387,-32.715,-39.551,0.000
1709375692.933,92.285,-36.133,-35.156,8.789,0.000
1709375692.937,33.203,-41.992,-35.645,-13.184,0.000
1709375692.941,-107.910,-58.594,-35.156,-65.918,0.000
1709375692.945,-136.230,-67.871,-35.156,-69.824,0.000
1709375692.949,-56.152,-49.805,-31.250,-50.293,0.000
1709375692.953,90.820,-30.273,-30.273,1.953,0.000
1709375692.956,54.199,-37.598,-31.250,2.441,0.000
1709375692.960,-100.586,-49.805,-35.156,-52.734,0.000
1709375692.964,-146.973,-53.711,-37.598,-69.336,0.000
1709375692.968,-88.379,-54.688,-37.598,-52.246,0.000
1709375692.972,55.176,-45.898,-42.480,-3.418,0.000
1709375692.975,47.852,-41.504,-43.457,1.465,0.000
1709375692.979,-95.703,-46.387,-41.504,-52.246,0.000
1709375692.983,-147.461,-54.199,-43.945,-83.008,0.000
1709375692.987,-99.121,-53.711,-43.457,-62.012,0.000
1709375692.991,55.176,-38.086,-36.621,-2.441,0.000
1709375692.995,83.008,-30.762,-34.668,3.418,0.000
1709375692.999,-75.195,-44.434,-39.551,-62.988,0.000
1709375693.003,-146.973,-55.664,-43.457,-96.191,0.000
1709375693.007,-111.816,-45.898,-42.480,-79.102,0.000
1709375693.011,27.344,-30.762,-36.621,-16.602,0.000
1709375693.015,84.473,-26.855,-34.180,8.789,0.000
1709375693.019,-59.082,-39.062,-37.109,-52.246,0.000
1709375693.023,-137.695,-44.922,-41.992,-84.473,0.000
1709375693.027,-111.328,-41.504,-43.945,-73.242,0.000
1709375693.031,13.184,-39.062,-42.480,-18.066,0.000
1709375693.035,91.797,-39.551,-42.480,23.438,0.000
1709375693.038,-40.039,-42.969,-42.969,-30.273,0.000
1709375693.042,-128.418,-44.922,-40.527,-69.824,0.000
1709375693.046,-114.746,-51.270,-42.969,-65.918,0.000
1709375693.050,-4.883,-51.270,-41.992,-13.184,0.000
1709375693.054,96.680,-35.156,-36.621,23.438,0.000
1709375693.058,-23.926,-40.527,-41.016,-32.227,0.000
1709375693.062,-133.301,-55.664,-39.062,-75.684,0.000
1709375693.066,-126.465,-53.223,-36.621,-74.707,0.000
1709375693.070,-21.484,-45.898,-39.551,-36.621,0.000
1709375693.074,90.820,-43.945,-35.645,17.578,0.000
1709375693.078,-13.672,-54.688,-41.504,-21.973,0.000
1709375693.082,-139.160,-65.430,-48.340,-81.543,0.000
1709375693.086,-138.672,-53.223,-43.945,-84.961,0.000
1709375693.090,-40.039,-43.945,-42.969,-51.270,0.000
1709375693.093,95.215,-44.434,-39.062,7.324,0.000
1709375693.097,21.973,-41.016,-35.645,-13.184,0.000
1709375693.101,-115.234,-39.062,-39.062,-73.730,0.000
1709375693.105,-130.371,-41.992,-37.598,-82.031,0.000
1709375693.109,-56.641,-42.969,-36.621,-57.617,0.000
1709375693.113,74.219,-37.109,-38.574,-2.441,0.000
1709375693.117,25.879,-37.598,-38.574,-9.766,0.000
1709375693.121,-123.535,-46.875,-37.598,-65.430,0.000
1709375693.125,-148.926,-48.828,-42.480,-81.543,0.000
1709375693.129,-76.172,-50.781,-42.480,-61.523,0.000
1709375693.133,71.289,-39.062,-36.133,-3.418,0.000
1709375693.137,60.547,-36.621,-35.645,0.488,0.000
1709375693.140,-89.355,-59.082,-38.574,-46.387,0.000
1709375693.144,-139.648,-57.129,-38.574,-70.801,0.000
1709375693.148,-73.730,-43.945,-35.645,-57.617,0.000
1709375693.152,83.008,-36.621,-32.715,0.488,0.000
1709375693.156,80.078,-37.598,-32.227,7.812,0.000
1709375693.160,-79.590,-43.945,-37.109,-53.223,0.000
1709375693.164,-136.719,-45.410,-37.598,-78.125,0.000
1709375693.168,-93.262,-52.246,-37.598,-66.406,0.000
1709375693.172,53.223,-42.969,-41.016,-18.066,0.000
1709375693.176,99.609,-34.180,-38.574,2.930,0.000
1709375693.180,-54.688,-45.410,-37.109,-44.434,0.000
1709375693.184,-140.625,-55.664,-36.621,-60.547,0.000
1709375693.187,-105.957,-57.129,-38.574,-46.875,0.000
1709375693.191,31.250,-39.551,-39.062,-13.672,0.000
1709375693.195,95.703,-35.156,-32.227,11.719,0.000
1709375693.199,-48.828,-50.293,-30.273,-31.250,0.000
1709375693.204,0.000,-52.246,0.000,0.000,0.000
1709375693.208,0.000,-52.734,0.000,0.000,0.000
1709375693.212,0.000,-51.270,0.000,0.000,0.000
1709375693.216,0.000,-42.969,0.000,0.000,0.000
1709375693.220,0.000,-46.387,0.000,0.000,0.000
1709375693.224,0.000,-52.734,0.000,0.000,0.000
1709375693.227,0.000,-50.781,0.000,0.000,0.000
1709375693.231,0.000,-46.875,0.000,0.000,0.000
1709375693.235,0.000,-35.645,0.000,0.000,0.000
1709375693.239,0.000,-33.203,0.000,0.000,0.000
1709375693.243,0.000,-45.410,0.000,0.000,0.000
1709375693.247,0.000,-47.852,0.000,0.000,0.000
1709375693.251,-34.668,-33.203,-37.598,-31.738,0.000
1709375693.255,96.680,-24.414,-37.109,13.184,0.000
1709375693.259,7.324,-35.156,-42.969,-16.113,0.000
1709375693.263,-125.000,-48.340,-41.504,-63.477,0.000
1709375693.267,-129.395,-49.805,-39.551,-67.383,0.000
1709375693.270,-45.898,-40.039,-38.574,-38.574,0.000
1709375693.274,87.402,-29.297,-39.062,16.602,0.000
1709375693.278,16.602,-34.180,-39.062,3.906,0.000
1709375693.282,-124.512,-42.969,-38.574,-50.781,0.000
1709375693.286,-138.184,-45.410,-40.527,-65.918,0.000
1709375693.290,-67.383,-48.340,-39.062,-41.992,0.000
1709375693.294,76.172,-32.227,-40.039,10.742,0.000
1709375693.298,45.898,-31.250,-41.504,-0.488,0.000
1709375693.301,-105.957,-47.852,-43.457,-52.734,0.000
1709375693.305,-142.090,-53.711,-44.434,-76.660,0.000
1709375693.309,-78.613,-49.805,-46.875,-62.500,0.000
1709375693.313,67.871,-33.691,-45.898,-1.465,0.000
1709375693.317,61.523,-38.574,-41.504,7.812,0.000
1709375693.321,-89.844,-55.664,-38.086,-31.738,0.000
1709375693.325,-141.113,-49.805,-34.668,-59.570,0.000
1709375693.329,-89.355,-46.387,-33.203,-60.547,0.000
1709375693.333,62.012,-43.457,-31.738,2.441,0.000
1709375693.337,83.496,-35.645,-27.832,17.578,0.000
1709375693.340,-68.848,-39.062,-33.691,-46.875,0.000
1709375693.344,-124.512,-42.480,-35.156,-72.754,0.000
1709375693.348,-84.961,-45.410,-33.691,-61.523,0.000
1709375693.352,57.129,-35.156,-36.621,-9.277,0.000
1709375693.356,105.469,-28.320,-38.086,14.648,0.000
1709375693.359,-49.316,-40.039,-41.016,-42.969,0.000
1709375693.363,-132.324,-52.246,-40.527,-71.777,0.000
1709375693.367,-104.492,-44.922,-40.527,-64.453,0.000
1709375693.371,26.855,-31.738,-37.109,-22.949,0.000
1709375693.375,99.121,-30.273,-32.715,18.066,0.000
1709375693.379,-40.527,-38.574,-34.668,-21.484,0.000
1709375693.383,-130.859,-41.992,-39.551,-64.941,0.000
1709375693.387,-114.746,-39.551,-40.527,-67.871,0.000
1709375693.391,3.418,-36.621,-41.016,-28.320,0.000
1709375693.395,103.027,-35.156,-41.016,10.742,0.000
1709375693.399,-22.461,-38.086,-41.992,-27.832,0.000
1709375693.403,-136.230,-48.340,-43.945,-70.801,0.000
1709375693.407,-127.930,-52.734,-41.504,-73.242,0.000
1709375693.411,-24.414,-44.434,-36.133,-35.645,0.000
1709375693.415,88.867,-37.109,-37.109,17.578,0.000
1709375693.418,-10.254,-41.992,-38.086,-12.695,0.000
1709375693.422,-134.277,-50.293,-34.180,-61.523,0.000
1709375693.426,-137.695,-59.082,-36.133,-62.988,0.000
1709375693.430,-36.621,-45.898,-41.504,-37.598,0.000
1709375693.434,95.703,-29.297,-41.016,13.184,0.000
1709375693.438,15.625,-37.598,-38.086,-3.906,0.000
1709375693.442,-124.023,-48.340,-37.598,-54.688,0.000
1709375693.446,-142.090,-47.852,-40.527,-68.848,0.000
1709375693.450,-57.129,-41.016,-44.434,-44.922,0.000
1709375693.454,80.566,-36.621,-39.062,12.695,0.000
1709375693.458,29.785,-41.992,-34.668,-1.465,0.000
1709375693.462,-110.352,-44.434,-30.273,-56.152,0.000
1709375693.466,-131.836,-46.875,-24.902,-71.777,0.000
1709375693.469,-60.547,-43.457,-25.879,-46.875,0.000
1709375693.473,82.031,-28.809,-25.879,24.902,0.000
1709375693.477,56.152,-24.902,-25.391,17.090,0.000
1709375693.481,-97.656,-38.086,-26.855,-53.223,0.000
1709375693.485,-136.230,-45.898,-29.297,-72.754,0.000
1709375693.489,-87.891,-43.945,-31.250,-52.734,0.000
1709375693.493,59.082,-29.297,-33.203,0.977,0.000
1709375693.497,74.219,-29.297,-34.668,13.672,0.000
1709375693.501,-76.172,-39.551,-37.598,-43.945,0.000
1709375693.505,-132.812,-45.898,-38.574,-73.242,0.000
1709375693.509,-95.703,-40.039,-35.645,-62.988,0.000
1709375693.513,40.039,-27.344,-36.621,-9.277,0.000
1709375693.516,78.125,-34.180,-36.133,19.531,0.000
1709375693.520,-73.242,-40.527,-36.621,-38.574,0.000
1709375693.524,-138.184,-36.621,-37.109,-68.359,0.000
1709375693.528,-94.238,-34.668,-37.598,-54.199,0.000
1709375693.532,42.969,-26.367,-37.598,-3.418,0.000
1709375693.536,101.562,-24.414,-36.621,23.926,0.000
1709375693.540,-47.852,-39.551,-36.621,-27.832,0.000
1709375693.544,-137.207,-46.387,-34.180,-59.082,0.000
1709375693.548,-115.234,-45.410,-34.180,-60.547,0.000
1709375693.552,11.719,-43.457,-37.109,-15.625,0.000
1709375693.555,96.191,-40.527,-38.086,15.137,0.000
1709375693.559,-36.133,-49.805,-40.039,-31.250,0.000
1709375693.563,-139.648,-57.617,-40.039,-63.965,0.000
1709375693.567,-124.512,-50.781,-38.574,-78.125,0.000
1709375693.571,-8.301,-45.410,-37.109,-44.434,0.000
1709375693.575,102.051,-45.410,-37.109,5.859,0.000
1709375693.579,-11.230,-51.758,-37.598,-31.250,0.000
1709375693.583,-132.812,-54.199,-35.645,-77.148,0.000
1709375693.586,-127.930,-56.152,-35.645,-82.031,0.000
1709375693.590,-29.785,-47.852,-36.133,-46.387,0.000
1709375693.594,87.891,-39.551,-33.203,4.883,0.000
1709375693.598,8.301,-49.805,-34.180,-24.902,0.000
1709375693.602,-115.723,-61.035,-40.527,-69.824,0.000
1709375693.606,-134.277,-62.012,-41.504,-66.406,0.000
1709375693.610,-51.270,-44.922,-41.992,-43.457,0.000
1709375693.614,89.844,-29.297,-40.527,2.441,0.000
1709375693.618,30.762,-35.156,-35.645,-10.254,0.000
1709375693.622,-106.445,-37.598,-31.738,-61.035,0.000
1709375693.625,-124.023,-38.086,-36.133,-76.660,0.000
1709375693.629,-55.664,-45.410,-39.062,-55.664,0.000
1709375693.633,85.449,-39.062,-40.039,0.977,0.000
1709375693.637,49.805,-35.156,-42.480,-6.348,0.000
1709375693.641,-104.004,-39.062,-41.016,-60.547,0.000
1709375693.645,-135.254,-43.945,-38.086,-77.148,0.000
1709375693.649,-69.824,-44.922,-40.527,-55.664,0.000
1709375693.653,73.730,-31.250,-41.016,6.836,0.000
1709375693.657,67.383,-22.461,-42.480,3.906,0.000
1709375693.660,-83.496,-27.832,-41.016,-57.617,0.000
1709375693.664,-137.207,-43.457,-41.504,-82.031,0.000
1709375693.668,-83.984,-39.551,-42.969,-64.453,0.000
1709375693.672,69.336,-22.461,-35.645,0.000,0.000
1709375693.676,85.449,-26.855,-36.133,11.719,0.000
1709375693.680,-71.777,-38.574,-40.039,-45.898,0.000
1709375693.684,-133.789,-39.551,-35.645,-67.383,0.000
1709375693.687,-98.633,-37.598,-31.250,-53.223,0.000
1709375693.691,46.387,-31.250,-27.832,1.465,0.000
1709375693.695,104.004,-35.156,-28.320,37.598,0.000
1709375693.699,-49.805,-41.992,-38.086,-22.461,0.000
1709375693.703,-125.000,-43.945,-39.062,-60.547,0.000
1709375693.707,-89.355,-49.805,-35.645,-47.852,0.000
1709375693.711,37.109,-41.504,-37.598,-1.465,0.000
1709375693.715,113.281,-33.691,-36.133,32.715,0.000
1709375693.718,-28.809,-42.480,-36.133,-15.625,0.000
1709375693.722,-127.441,-51.270,-38.574,-54.688,0.000
1709375693.726,-115.723,-50.781,-41.992,-54.688,0.000
1709375693.730,5.371,-41.504,-42.480,-18.555,0.000
1709375693.734,111.328,-38.086,-38.574,21.973,0.000
1709375693.738,-17.090,-53.711,-37.598,-22.949,0.000
1709375693.742,-132.812,-55.664,-38.086,-63.965,0.000
1709375693.746,-118.652,-47.363,-38.574,-61.035,0.000
1709375693.750,-10.254,-46.387,-35.156,-25.879,0.000
1709375693.754,95.703,-37.598,-38.574,15.137,0.000
1709375693.758,-8.789,-43.457,-40.039,-24.414,0.000
1709375693.761,-130.859,-53.223,-38.574,-73.730,0.000
1709375693.766,-140.137,-54.199,-37.598,-76.172,0.000
1709375693.770,-51.758,-53.711,-37.598,-43.457,0.000
1709375693.774,93.262,-37.598,-38.574,10.254,0.000
1709375693.777,19.531,-37.598,-41.016,-8.789,0.000
1709375693.781,-121.094,-51.758,-47.852,-57.129,0.000
1709375693.785,-134.766,-55.176,-48.340,-62.500,0.000
1709375693.789,-59.082,-46.875,-43.457,-41.504,0.000
1709375693.793,77.148,-32.715,-45.410,11.719,0.000
1709375693.797,32.715,-40.527,-46.875,3.418,0.000
1709375693.801,-114.746,-52.734,-45.898,-49.805,0.000
1709375693.805,-148.926,-49.805,-48.340,-72.754,0.000
1709375693.809,-82.520,-45.410,-44.922,-54.199,0.000
1709375693.813,70.801,-37.598,-34.668,9.277,0.000
1709375693.817,51.758,-40.527,-30.273,12.207,0.000
1709375693.821,-114.258,-50.293,-32.715,-52.246,0.000
1709375693.825,-151.855,-53.711,-31.250,-75.195,0.000
1709375693.828,-84.961,-55.176,-30.273,-48.828,0.000
1709375693.832,54.199,-46.875,-33.203,0.488,0.000
1709375693.836,52.734,-41.992,-32.227,2.930,0.000
1709375693.840,-102.051,-56.152,-30.762,-52.734,0.000
1709375693.844,-157.227,-66.406,-33.691,-78.125,0.000
1709375693.848,-116.699,-62.012,-40.527,-70.312,0.000
1709375693.852,28.320,-39.062,-38.086,-19.043,0.000
1709375693.856,70.801,-31.250,-32.227,1.465,0.000
1709375693.860,-73.730,-49.316,-34.180,-52.734,0.000
1709375693.864,-142.090,-51.758,-36.621,-80.566,0.000
1709375693.868,-111.328,-43.457,-38.086,-81.543,0.000
1709375693.872,30.762,-36.133,-39.551,-32.227,0.000
1709375693.875,93.750,-36.621,-40.527,4.883,0.000
1709375693.879,-62.500,-47.852,-40.039,-53.711,0.000
1709375693.883,-147.949,-55.176,-41.504,-95.215,0.000
1709375693.887,-117.676,-52.734,-41.992,-83.496,0.000
1709375693.891,9.277,-51.758,-41.504,-27.832,0.000
1709375693.895,90.332,-44.434,-45.898,5.371,0.000
1709375693.899,-35.156,-48.828,-46.875,-41.992,0.000
1709375693.903,-126.465,-56.641,-44.922,-78.125,0.000
1709375693.907,-109.863,-54.199,-41.504,-79.590,0.000
1709375693.911,4.395,-41.016,-36.621,-34.180,0.000
1709375693.914,114.746,-31.738,-38.574,11.230,0.000
1709375693.918,3.418,-41.016,-40.527,-25.391,0.000
1709375693.922,-117.188,-45.410,-43.457,-71.289,0.000
1709375693.926,-120.605,-47.852,-48.340,-83.008,0.000
1709375693.930,-31.738,-41.016,-44.434,-42.480,0.000
1709375693.934,87.891,-32.715,-42.969,15.625,0.000
1709375693.938,-1.465,-40.039,-49.805,-16.602,0.000
1709375693.942,-132.812,-38.574,-49.316,-69.336,0.000
1709375693.946,-138.672,-40.527,-42.969,-70.801,0.000
1709375693.950,-49.316,-39.062,-38.574,-40.039,0.000
1709375693.953,88.867,-30.273,-33.691,14.648,0.000
1709375693.957,25.391,-36.621,-36.133,-4.883,0.000
1709375693.961,-111.816,-48.340,-37.598,-51.758,0.000
1709375693.965,-129.883,-47.852,-31.250,-59.570,0.000
1709375693.969,-56.641,-39.551,-34.668,-38.086,0.000
1709375693.973,84.473,-37.109,-36.133,20.020,0.000
1709375693.977,45.898,-42.969,-34.180,6.348,0.000
1709375693.981,-101.562,-52.734,-36.133,-44.434,0.000
1709375693.985,-137.695,-41.992,-35.156,-67.383,0.000
1709375693.989,-79.102,-29.785,-31.250,-61.035,0.000
1709375693.993,75.684,-26.367,-27.832,-0.977,0.000
1709375693.996,68.359,-23.926,-29.785,2.441,0.000
1709375694.000,-85.938,-29.297,-29.785,-50.781,0.000
1709375694.004,-137.207,-41.992,-33.691,-73.730,0.000
1709375694.008,-89.844,-42.969,-38.086,-63.965,0.000
1709375694.012,55.176,-27.832,-38.086,-6.836,0.000
1709375694.016,74.219,-31.738,-37.109,14.160,0.000
1709375694.020,-74.707,-46.387,-41.504,-39.062,0.000
1709375694.024,-130.859,-46.875,-35.156,-57.617,0.000
1709375694.027,-91.797,-43.945,-28.320,-41.992,0.000
1709375694.031,39.551,-33.691,-32.227,-4.883,0.000
1709375694.035,80.078,-40.039,-39.062,10.254,0.000
1709375694.039,-73.242,-52.246,-40.039,-41.504,0.000
1709375694.043,-150.391,-52.734,-38.574,-72.266,0.000
1709375694.047,-125.977,-55.176,-39.551,-67.383,0.000
1709375694.051,6.348,-50.781,-39.062,-15.137,0.000
1709375694.055,79.102,-52.246,-42.969,16.602,0.000
1709375694.059,-63.965,-62.500,-45.410,-35.645,0.000
1709375694.063,-158.691,-63.965,-43.457,-66.406,0.000
1709375694.067,-132.324,-63.965,-36.133,-58.594,0.000
1709375694.070,-0.977,-60.547,-32.715,2.441,0.000
1709375694.074,92.285,-43.945,-31.738,43.945,0.000
1709375694.078,-27.832,-40.039,-28.320,-13.184,0.000
1709375694.082,-125.000,-51.270,-26.855,-49.805,0.000
1709375694.086,-116.211,-49.805,-29.785,-46.875,0.000
1709375694.090,-14.648,-41.992,-30.762,-20.996,0.000
1709375694.094,101.074,-33.203,-29.785,14.648,0.000
1709375694.097,6.348,-43.457,-33.203,-24.902,0.000
1709375694.101,-113.770,-47.852,-33.691,-75.195,0.000
1709375694.105,-116.211,-40.527,-33.203,-81.055,0.000
1709375694.109,-30.762,-40.527,-34.668,-50.293,0.000
1709375694.113,96.191,-35.645,-34.668,5.859,0.000
1709375694.117,25.391,-37.109,-36.133,-12.695,0.000
1709375694.121,-105.469,-46.387,-42.969,-71.289,0.000
1709375694.125,-124.023,-52.246,-43.945,-92.773,0.000
1709375694.129,-50.293,-42.480,-40.039,-62.988,0.000
1709375694.133,81.543,-28.809,-41.016,-4.395,0.000
1709375694.136,22.949,-30.273,-46.875,-27.344,0.000
1709375694.141,-130.859,-41.016,-49.316,-85.938,0.000
1709375694.145,-154.785,-49.805,-50.293,-93.262,0.000
1709375694.149,-89.844,-51.270,-51.270,-71.289,0.000
1709375694.153,54.199,-36.133,-48.340,-22.949,0.000
1709375694.156,35.156,-39.062,-51.758,-20.508,0.000
1709375694.160,-126.953,-55.176,-57.129,-68.359,0.000
1709375694.164,-165.527,-51.758,-51.758,-91.797,0.000
1709375694.168,-102.539,-44.922,-47.363,-76.660,0.000
1709375694.172,41.504,-39.551,-46.387,-15.625,0.000
1709375694.176,54.199,-42.480,-46.387,6.836,0.000
1709375694.180,-93.262,-44.434,-43.945,-47.852,0.000
1709375694.184,-158.203,-46.387,-39.062,-80.078,0.000
1709375694.188,-107.910,-49.805,-43.457,-63.477,0.000
1709375694.192,42.969,-36.621,-40.527,-0.977,0.000
1709375694.196,80.566,-34.668,-36.133,13.672,0.000
1709375694.200,-62.988,-48.828,-38.574,-48.340,0.000
1709375694.204,-135.742,-51.758,-35.156,-71.289,0.000
1709375694.207,-101.562,-47.852,-29.297,-59.082,0.000
1709375694.211,41.992,-37.598,-31.250,-4.883,0.000
1709375694.215,105.469,-33.691,-33.691,26.855,0.000
1709375694.219,-40.039,-44.922,-36.621,-19.043,0.000
1709375694.223,-127.441,-43.945,-38.574,-56.152,0.000
1709375694.227,-101.562,-39.062,-37.598,-64.941,0.000
1709375694.231,20.508,-39.551,-45.410,-29.785,0.000
1709375694.235,106.445,-33.203,-44.922,7.812,0.000
1709375694.239,-21.484,-38.574,-42.480,-39.062,0.000
1709375694.243,-126.953,-46.387,-42.969,-78.613,0.000
1709375694.247,-116.211,-41.016,-39.551,-73.730,0.000
1709375694.251,-1.465,-34.180,-40.527,-31.738,0.000
1709375694.254,108.887,-28.320,-38.086,22.949,0.000
1709375694.258,-6.348,-35.156,-37.598,-11.230,0.000
1709375694.262,-131.836,-48.828,-39.062,-60.059,0.000
1709375694.266,-123.047,-56.641,-39.062,-46.875,0.000
1709375694.270,-20.020,-39.062,-36.621,-9.277,0.000
1709375694.274,98.633,-24.902,-34.668,26.367,0.000
1709375694.278,15.625,-37.598,-36.621,-3.418,0.000
1709375694.282,-116.211,-49.316,-35.156,-52.246,0.000
1709375694.286,-128.906,-47.852,-32.715,-61.523,0.000
1709375694.290,-42.480,-37.598,-37.598,-39.551,0.000
1709375694.294,87.402,-29.297,-37.109,12.695,0.000
1709375694.297,28.320,-30.273,-28.809,-1.953,0.000
1709375694.301,-117.188,-42.480,-30.762,-58.105,0.000
1709375694.305,-143.555,-49.805,-30.762,-73.730,0.000
1709375694.309,-67.383,-51.758,-27.832,-45.410,0.000
1709375694.313,79.102,-42.969,-24.414,15.625,0.000
1709375694.317,47.852,-39.551,-27.832,-5.859,0.000
1709375694.321,-103.516,-53.711,-31.250,-68.848,0.000
1709375694.325,-138.184,-54.199,-28.809,-78.125,0.000
1709375694.329,0.000,-40.527,-27.344,-54.199,0.000
1709375694.333,0.000,-31.250,-28.809,-4.883,0.000
1709375694.337,0.000,-32.715,-30.273,-2.441,0.000
1709375694.341,0.000,-42.969,-30.273,-55.176,0.000
1709375694.344,0.000,-45.410,-32.715,-82.031,0.000
1709375694.348,0.000,-40.527,-32.715,-66.895,0.000
1709375694.352,0.000,-32.227,-31.250,-10.254,0.000
1709375694.356,0.000,-43.457,-35.156,11.230,0.000
1709375694.360,0.000,-47.363,-37.598,-49.805,0.000
1709375694.364,0.000,-44.922,-39.062,-83.496,0.000
1709375694.368,0.000,-44.922,-41.992,-61.523,0.000
1709375694.372,0.000,-37.109,-41.992,-8.789,0.000
1709375694.375,86.914,-35.156,-42.969,9.277,0.000
1709375694.379,-54.688,-41.016,-46.387,-40.039,0.000
1709375694.383,-136.719,-42.480,-42.969,-68.848,0.000
1709375694.387,-115.723,-39.551,-41.992,-68.848,0.000
1709375694.391,18.555,-34.180,-48.340,-30.762,0.000
1709375694.395,92.773,-32.715,-46.387,0.488,0.000
1709375694.399,-45.410,-42.480,-43.945,-41.992,0.000
1709375694.403,-139.648,-51.758,-44.922,-74.219,0.000
1709375694.407,-123.535,-45.410,-43.457,-79.590,0.000
1709375694.411,-3.906,-31.250,-43.945,-41.016,0.000
1709375694.414,91.797,-30.762,-45.410,1.953,0.000
1709375694.418,-39.551,-39.551,-43.457,-36.133,0.000
1709375694.422,-152.832,-49.316,-48.340,-81.055,0.000
1709375694.426,-138.672,-51.270,-49.316,-83.008,0.000
1709375694.430,-27.832,-41.992,-43.457,-42.969,0.000
1709375694.434,91.797,-33.203,-41.992,6.836,0.000
1709375694.438,-9.277,-34.180,-36.621,-23.438,0.000
1709375694.441,-138.672,-46.387,-37.109,-74.707,0.000
1709375694.445,-133.789,-58.105,-41.504,-75.195,0.000
1709375694.449,-33.691,-43.945,-40.527,-41.992,0.000
1709375694.453,92.285,-29.297,-38.574,5.859,0.000
1709375694.457,20.508,-40.039,-36.133,-10.742,0.000
1709375694.461,-116.211,-49.316,-37.109,-57.617,0.000
1709375694.465,-129.395,-46.387,-37.598,-70.801,0.000
1709375694.468,-43.457,-43.457,-39.551,-45.410,0.000
1709375694.472,95.703,-38.574,-39.551,15.625,0.000
1709375694.476,49.805,-38.086,-35.156,1.465,0.000
1709375694.480,-95.703,-46.875,-36.621,-58.105,0.000
1709375694.484,-130.371,-45.898,-41.504,-72.266,0.000
1709375694.488,-71.289,-45.898,-44.434,-57.129,0.000
1709375694.492,63.965,-41.992,-39.062,3.418,0.000
1709375694.496,44.434,-37.598,-39.551,3.906,0.000
1709375694.500,-101.562,-44.922,-42.480,-60.547,0.000
1709375694.503,-154.785,-49.316,-40.039,-81.543,0.000
1709375694.507,-104.492,-42.969,-39.062,-64.453,0.000
1709375694.511,48.828,-26.855,-37.598,-7.812,0.000
1709375694.516,59.570,-31.738,-36.621,-3.418,0.000
1709375694.520,-94.727,-42.480,-37.598,-59.570,0.000
1709375694.523,-148.438,-41.504,-42.969,-89.355,0.000
1709375694.527,-105.957,-41.016,-44.434,-78.125,0.000
1709375694.531,36.133,-35.645,-39.062,-16.602,0.000
1709375694.535,75.684,-34.180,-35.645,8.301,0.000
1709375694.539,-80.078,-40.039,-37.109,-47.363,0.000
1709375694.543,-155.273,-41.016,-37.598,-78.125,0.000
1709375694.547,-116.699,-45.410,-34.180,-60.059,0.000
1709375694.551,21.973,-49.316,-36.133,2.441,0.000
1709375694.555,79.102,-38.574,-40.039,27.344,0.000
1709375694.559,-66.406,-45.410,-41.992,-32.715,0.000
1709375694.563,-146.484,-58.105,-41.016,-68.848,0.000
1709375694.567,-119.629,-51.758,-39.062,-65.918,0.000
1709375694.571,7.324,-39.062,-37.598,-21.973,0.000
1709375694.575,97.168,-36.621,-34.668,22.949,0.000
1709375694.578,-36.621,-50.781,-36.621,-19.043,0.000
1709375694.582,-137.695,-55.176,-37.109,-65.430,0.000
1709375694.586,-121.582,-51.270,-38.574,-68.848,0.000
1709375694.590,-5.859,-44.434,-36.621,-25.879,0.000
1709375694.594,108.398,-39.062,-31.738,24.902,0.000
1709375694.598,-12.207,-47.852,-35.156,-20.508,0.000
1709375694.602,-133.789,-46.387,-34.668,-75.195,0.000
1709375694.606,-121.094,-43.945,-37.109,-77.148,0.000
1709375694.610,-20.996,-42.480,-41.504,-41.016,0.000
1709375694.614,94.727,-33.691,-42.480,8.789,0.000
1709375694.618,7.324,-37.598,-41.992,-19.531,0.000
1709375694.622,-122.070,-49.805,-39.551,-63.477,0.000
1709375694.625,-134.766,-53.711,-40.527,-68.359,0.000
1709375694.629,-45.898,-48.340,-41.016,-45.410,0.000
1709375694.633,86.914,-35.156,-32.715,10.742,0.000
1709375694.637,20.508,-37.109,-32.227,0.000,0.000
1709375694.641,-116.699,-54.688,-33.691,-41.504,0.000
1709375694.645,-136.719,-46.387,-32.227,-62.012,0.000
1709375694.649,-62.012,-35.645,-33.691,-51.270,0.000
1709375694.653,83.496,-34.180,-36.133,7.812,0.000
1709375694.657,44.922,-38.086,-36.621,0.000,0.000
1709375694.661,-104.004,-48.340,-41.504,-58.594,0.000
1709375694.665,-128.418,-53.711,-43.945,-74.707,0.000
1709375694.668,-63.477,-47.363,-41.504,-54.199,0.000
1709375694.672,78.613,-36.621,-42.480,-1.465,0.000
1709375694.676,81.055,-40.039,-41.992,6.836,0.000
1709375694.680,-80.566,-49.805,-41.016,-51.270,0.000
1709375694.684,-146.973,-57.129,-39.551,-81.055,0.000
1709375694.688,-97.168,-53.223,-36.133,-60.547,0.000
1709375694.692,52.246,-34.180,-36.133,-8.789,0.000
1709375694.696,78.613,-37.598,-37.598,-7.812,0.000
1709375694.700,-82.031,-50.293,-37.598,-62.988,0.000
1709375694.704,-153.809,-55.176,-41.016,-93.262,0.000
1709375694.707,-111.816,-54.688,-38.086,-87.402,0.000
1709375694.711,37.598,-42.480,-35.156,-23.926,0.000
1709375694.715,90.332,-37.109,-35.156,5.859,0.000
1709375694.719,-65.918,-41.504,-32.227,-55.176,0.000
1709375694.723,-150.879,-47.363,-39.551,-91.797,0.000
1709375694.727,-114.746,-49.805,-50.293,-80.078,0.000
1709375694.731,22.461,-43.945,-56.152,-20.508,0.000
1709375694.735,99.609,-28.320,-52.734,14.648,0.000
1709375694.739,-40.527,-36.621,-48.828,-34.180,0.000
1709375694.743,-136.719,-50.293,-43.457,-68.848,0.000
1709375694.746,-116.211,-43.945,-42.480,-62.500,0.000
1709375694.750,0.000,-34.668,0.000,-17.090,0.000
1709375694.754,0.000,-29.297,0.000,27.344,0.000
1709375694.758,0.000,-37.109,0.000,-16.113,0.000
1709375694.762,0.000,-46.875,0.000,-58.594,0.000
1709375694.766,0.000,-42.969,0.000,-54.688,0.000
1709375694.770,0.000,-32.227,0.000,-27.832,0.000
1709375694.774,0.000,-27.344,0.000,20.020,0.000
1709375694.778,0.000,-37.109,0.000,-3.418,0.000
1709375694.782,0.000,-39.062,0.000,-66.406,0.000
1709375694.785,0.000,-40.039,0.000,-79.590,0.000
1709375694.789,0.000,-43.945,0.000,-42.480,0.000
1709375694.793,0.000,-38.574,0.000,12.695,0.000
1709375694.797,2.930,-41.992,-36.621,-16.602,0.000
1709375694.801,-126.465,-52.734,-41.504,-72.266,0.000
1709375694.805,-139.648,-56.641,-40.527,-77.148,0.000
1709375694.809,-64.453,-44.922,-36.621,-44.922,0.000
1709375694.813,80.566,-30.762,-34.668,15.137,0.000
1709375694.817,35.645,-40.527,-36.621,-3.906,0.000
1709375694.821,-104.492,-53.223,-37.109,-50.293,0.000
1709375694.824,-129.883,-42.969,-37.598,-64.941,0.000
1709375694.828,-67.871,-35.156,-38.574,-54.199,0.000
1709375694.832,77.148,-31.738,-35.156,11.719,0.000
1709375694.836,63.965,-30.762,-29.297,16.602,0.000
1709375694.840,-87.891,-36.133,-34.180,-46.875,0.000
1709375694.844,-127.930,-39.062,-33.203,-66.406,0.000
1709375694.847,-66.895,-37.598,-28.809,-44.922,0.000
1709375694.851,75.684,-28.809,-33.203,3.906,0.000
1709375694.855,75.684,-29.785,-34.668,7.324,0.000
1709375694.859,-83.984,-43.457,-36.133,-52.734,0.000
1709375694.863,-137.695,-52.246,-40.039,-80.566,0.000
1709375694.867,-96.191,-48.340,-43.945,-71.777,0.000
1709375694.871,47.852,-29.785,-41.992,-16.113,0.000
1709375694.875,89.844,-30.273,-40.527,9.277,0.000
1709375694.879,-64.941,-48.340,-47.363,-50.293,0.000
1709375694.883,-140.625,-46.387,-47.852,-88.379,0.000
1709375694.886,-112.305,-45.898,-48.340,-81.055,0.000
1709375694.891,15.625,-45.410,-49.316,-30.762,0.000
1709375694.895,70.312,-40.527,-48.828,-3.418,0.000
1709375694.899,-69.824,-43.457,-43.945,-50.293,0.000
1709375694.903,-150.391,-48.828,-37.109,-82.031,0.000
1709375694.906,-125.488,-53.223,-35.156,-76.660,0.000
1709375694.910,4.395,-51.758,-31.250,-18.555,0.000
1709375694.914,87.402,-39.062,-30.762,23.438,0.000
1709375694.918,-45.410,-40.527,-37.109,-27.832,0.000
1709375694.922,-135.254,-56.152,-36.621,-59.570,0.000
1709375694.926,-112.305,-62.012,-31.250,-50.293,0.000
1709375694.930,4.395,-41.504,-29.785,-9.766,0.000
1709375694.934,109.375,-33.691,-27.832,34.180,0.000
1709375694.938,-11.719,-50.781,-32.227,-10.742,0.000
1709375694.942,-125.000,-57.129,-36.133,-57.617,0.000
1709375694.946,-106.445,-50.781,-33.203,-54.199,0.000
1709375694.950,-17.090,-44.434,-31.250,-24.902,0.000
1709375694.954,94.238,-31.250,-32.715,21.973,0.000
1709375694.957,3.418,-32.715,-35.156,-11.230,0.000
1709375694.961,-128.418,-41.504,-39.062,-68.848,0.000
1709375694.965,-132.812,-47.852,-40.039,-77.148,0.000
1709375694.969,-47.852,-49.805,-37.109,-41.992,0.000
1709375694.973,88.379,-34.668,-38.086,16.113,0.000
1709375694.977,33.691,-27.344,-38.574,-10.254,0.000
1709375694.981,-110.352,-39.062,-38.086,-59.570,0.000
1709375694.985,-127.930,-46.875,-38.574,-66.895,0.000
1709375694.989,-47.852,-38.086,-36.133,-43.945,0.000
1709375694.993,91.309,-28.320,-33.203,11.230,0.000
1709375694.997,54.688,-34.180,-37.598,1.953,0.000
1709375695.001,-92.285,-43.457,-39.062,-52.734,0.000
1709375695.004,-121.582,-47.852,-37.109,-70.801,0.000
1709375695.008,-57.617,-45.410,-35.645,-58.105,0.000
1709375695.012,79.590,-32.715,-36.133,-4.395,0.000
1709375695.016,62.012,-37.109,-40.527,9.766,0.000
1709375695.020,-90.332,-43.945,-44.434,-51.270,0.000
1709375695.024,-137.207,-37.598,-37.598,-79.102,0.000
1709375695.028,-93.262,-38.086,-32.715,-63.477,0.000
1709375695.032,47.363,-32.715,-31.738,-10.254,0.000
1709375695.036,70.801,-25.391,-27.832,3.906,0.000
1709375695.040,-74.707,-36.133,-29.785,-42.969,0.000
1709375695.044,-133.301,-51.270,-36.621,-71.289,0.000
1709375695.047,-88.379,-47.363,-38.574,-62.988,0.000
1709375695.051,50.293,-35.645,-32.227,-2.930,0.000
1709375695.055,83.984,-33.203,-29.785,20.508,0.000
1709375695.059,-66.895,-41.992,-35.156,-33.203,0.000
1709375695.063,-137.207,-50.293,-39.062,-57.617,0.000
1709375695.067,-105.469,-39.551,-38.086,-55.176,0.000
1709375695.071,31.250,-25.879,-32.227,-12.695,0.000
1709375695.075,111.328,-25.879,-24.414,23.926,0.000
1709375695.079,-30.762,-37.109,-26.367,-29.297,0.000
1709375695.083,-132.812,-41.504,-30.273,-77.637,0.000
1709375695.086,-114.258,-42.480,-30.273,-73.730,0.000
1709375695.090,13.672,-39.062,-34.180,-28.809,0.000
1709375695.094,113.281,-29.297,-38.086,7.324,0.000
1709375695.098,-23.438,-39.062,-37.109,-36.621,0.000
1709375695.102,-133.301,-48.340,-37.109,-73.730,0.000
1709375695.106,-117.188,-51.758,-37.598,-66.406,0.000
1709375695.110,-15.137,-38.574,-39.062,-40.527,0.000
1709375695.114,100.098,-25.391,-39.551,2.441,0.000
1709375695.118,1.953,-37.109,-39.551,-26.367,0.000
1709375695.122,-122.070,-51.270,-39.551,-70.801,0.000
1709375695.125,-131.836,-48.828,-41.992,-79.590,0.000
1709375695.129,-42.480,-38.086,-41.992,-41.016,0.000
1709375695.133,92.285,-30.762,-33.203,21.484,0.000
1709375695.137,8.789,-37.598,-32.227,-8.789,0.000
1709375695.141,-133.789,-47.363,-41.992,-62.012,0.000
1709375695.145,-140.137,-48.340,-39.062,-63.965,0.000
1709375695.149,-60.059,-47.363,-34.668,-33.203,0.000
1709375695.153,68.359,-44.922,-41.992,22.461,0.000
1709375695.157,19.043,-39.551,-39.551,0.977,0.000
1709375695.160,-126.465,-45.898,-38.574,-65.918,0.000
1709375695.164,-158.203,-52.734,-36.621,-81.055,0.000
1709375695.168,-92.285,-51.270,-35.156,-58.105,0.000
1709375695.172,55.664,-38.574,-35.645,-3.906,0.000
1709375695.176,45.410,-34.180,-34.180,-5.371,0.000
1709375695.180,-108.398,-50.781,-36.621,-66.406,0.000
1709375695.183,-155.273,-59.082,-41.016,-94.238,0.000
1709375695.187,-86.914,-50.293,-41.992,-73.730,0.000
1709375695.191,65.430,-41.016,-41.504,-8.789,0.000
1709375695.195,71.289,-46.387,-41.016,8.789,0.000
1709375695.199,-80.078,-50.781,-43.945,-52.734,0.000
1709375695.203,-134.277,-48.340,-44.922,-83.496,0.000
1709375695.207,-89.355,-49.316,-40.527,-66.406,0.000
1709375695.211,57.617,-37.109,-35.156,-13.672,0.000
1709375695.215,94.727,-31.738,-37.109,2.441,0.000
1709375695.218,-63.477,-46.387,-39.551,-51.758,0.000
1709375695.222,-140.137,-50.781,-37.109,-83.008,0.000
1709375695.226,-102.051,-47.363,-37.109,-69.824,0.000
1709375695.230,38.086,-38.086,-37.598,-15.137,0.000
1709375695.234,104.492,-33.203,-35.156,11.719,0.000
1709375695.238,-43.945,-43.457,-38.086,-40.039,0.000
1709375695.242,-133.789,-48.828,-38.574,-73.730,0.000
1709375695.246,-106.934,-43.945,-38.574,-68.359,0.000
1709375695.249,4.883,-41.992,-43.457,-27.344,0.000
1709375695.253,92.285,-39.062,-41.016,17.090,0.000
1709375695.257,-39.551,-42.480,-40.527,-25.879,0.000
1709375695.261,-147.949,-47.363,-42.969,-75.195,0.000
1709375695.265,-133.789,-54.688,-45.410,-69.336,0.000
1709375695.269,-18.555,-47.852,-43.457,-24.414,0.000
1709375695.273,88.867,-34.668,-41.016,16.602,0.000
1709375695.277,-22.949,-44.434,-37.109,-20.508,0.000
1709375695.281,-139.160,-53.711,-37.109,-68.848,0.000
1709375695.285,-132.812,-60.059,-37.109,-68.359,0.000
1709375695.289,-28.320,-54.199,-32.715,-24.414,0.000
1709375695.293,94.238,-38.574,-33.691,14.648,0.000
1709375695.297,-6.348,-47.363,-40.039,-23.926,0.000
1709375695.301,-129.395,-64.453,-41.504,-64.453,0.000
1709375695.305,-127.930,-53.711,-38.574,-74.219,0.000
1709375695.308,-46.875,-44.922,-39.062,-51.758,0.000
1709375695.313,82.520,-41.992,-42.480,-2.441,0.000
1709375695.317,26.367,-39.062,-43.457,-16.113,0.000
1709375695.320,-110.352,-42.969,-39.551,-63.965,0.000
1709375695.324,-135.254,-44.434,-37.109,-78.613,0.000
1709375695.328,-60.059,-40.039,-38.574,-56.641,0.000
1709375695.332,78.613,-32.715,-42.480,-2.441,0.000
1709375695.336,41.016,-30.273,-43.457,-10.742,0.000
1709375695.340,-105.469,-39.551,-42.969,-70.801,0.000
1709375695.344,-140.625,-52.246,-40.527,-84.473,0.000
1709375695.348,-71.289,-45.898,-35.645,-57.129,0.000
1709375695.352,82.031,-26.367,-36.621,-9.277,0.000
1709375695.356,76.660,-25.391,-37.109,-8.301,0.000
1709375695.360,-82.031,-41.016,-33.691,-61.523,0.000
1709375695.364,-142.578,-45.898,-34.668,-77.637,0.000
1709375695.367,-99.609,-45.410,-38.086,-57.617,0.000
1709375695.371,39.062,-38.086,-34.180,-0.488,0.000
1709375695.375,51.758,-43.457,-33.203,11.719,0.000
1709375695.379,-92.285,-54.199,-35.645,-49.805,0.000
1709375695.383,-146.973,-46.875,-33.203,-76.660,0.000
1709375695.387,-112.305,-54.688,-37.109,-68.359,0.000
1709375695.391,28.320,-47.363,-38.086,-14.160,0.000
1709375695.395,75.195,-31.250,-34.180,13.184,0.000
1709375695.399,-73.242,-43.945,-40.039,-41.016,0.000
1709375695.403,-147.461,-53.711,-40.039,-75.195,0.000
1709375695.407,-122.070,-63.965,-38.086,-60.059,0.000
1709375695.411,7.324,-53.711,-38.574,-17.090,0.000
1709375695.414,87.402,-41.992,-37.109,7.324,0.000
1709375695.418,-46.875,-51.270,-37.109,-34.668,0.000
1709375695.422,-148.438,-52.734,-38.574,-69.336,0.000
1709375695.426,-124.023,-46.875,-36.621,-56.152,0.000
1709375695.430,7.324,-41.016,-33.203,-10.254,0.000
1709375695.434,104.980,-34.180,-28.809,37.598,0.000
1709375695.438,-17.578,-41.016,-30.273,4.883,0.000
1709375695.442,-125.000,-47.852,-37.598,-50.781,0.000
1709375695.446,-116.211,-46.387,-36.133,-53.223,0.000
1709375695.450,-11.230,-41.504,-34.668,-18.066,0.000
1709375695.453,105.957,-33.203,-37.598,23.926,0.000
1709375695.457,9.277,-39.551,-39.551,-8.301,0.000
1709375695.461,-112.793,-53.711,-39.551,-56.641,0.000
1709375695.465,-120.117,-55.176,-37.109,-62.500,0.000
1709375695.469,-32.227,-43.457,-37.109,-36.133,0.000
1709375695.473,93.262,-35.645,-39.551,4.883,0.000
1709375695.477,16.113,-41.016,-42.480,-27.344,0.000
1709375695.481,-121.582,-52.734,-37.598,-72.266,0.000
1709375695.485,-143.066,-45.410,-38.086,-73.730,0.000
1709375695.489,-70.801,-31.250,-41.016,-59.082,0.000
1709375695.492,74.219,-23.438,-40.039,-1.465,0.000
1709375695.496,33.691,-29.297,-41.992,-9.277,0.000
1709375695.500,-112.793,-39.551,-41.992,-71.777,0.000
1709375695.504,-136.230,-39.062,-41.016,-81.055,0.000
1709375695.508,-66.895,-38.086,-42.480,-51.758,0.000
1709375695.512,74.707,-28.320,-45.410,5.859,0.000
1709375695.516,53.223,-30.273,-44.434,4.395,0.000
1709375695.520,-90.332,-44.922,-44.434,-49.316,0.000
1709375695.524,-125.000,-51.270,-41.504,-61.035,0.000
1709375695.527,-75.195,-51.758,-41.504,-40.039,0.000
1709375695.531,67.383,-34.668,-43.457,11.719,0.000
1709375695.535,80.566,-29.297,-43.457,23.926,0.000
1709375695.539,-67.871,-44.922,-43.457,-35.156,0.000
1709375695.543,-128.906,-45.410,-41.992,-69.336,0.000
1709375695.547,-84.961,-40.039,-40.039,-57.617,0.000
1709375695.551,57.129,-34.180,-41.016,4.883,0.000
1709375695.554,86.426,-36.621,-41.992,23.438,0.000
1709375695.558,-65.918,-49.316,-43.945,-39.062,0.000
1709375695.562,-138.184,-52.734,-41.992,-69.824,0.000
1709375695.566,-101.074,-49.316,-39.551,-63.477,0.000
1709375695.570,34.180,-41.504,-41.504,-11.230,0.000
1709375695.574,97.168,-28.320,-39.062,9.766,0.000
1709375695.578,-47.852,-35.645,-40.527,-49.316,0.000
1709375695.582,-137.207,-43.945,-38.574,-84.473,0.000
1709375695.586,-116.211,-40.039,-38.574,-80.078,0.000
1709375695.590,11.719,-32.715,-32.227,-28.809,0.000
1709375695.593,105.957,-25.879,-27.344,13.184,0.000
1709375695.597,-23.926,-41.016,-32.227,-30.762,0.000
1709375695.601,-127.930,-49.316,-34.180,-69.336,0.000
1709375695.605,-108.887,-42.969,-32.227,-60.547,0.000
1709375695.609,4.883,-36.133,-34.668,-22.949,0.000
1709375695.613,114.746,-33.203,-33.691,17.578,0.000
1709375695.616,5.371,-36.621,-30.273,-17.578,0.000
1709375695.620,-114.746,-40.527,-32.715,-71.777,0.000
1709375695.624,-102.051,-44.434,-37.109,-81.543,0.000
1709375695.628,0.488,-39.062,-38.086,-40.039,0.000
1709375695.632,113.770,-35.156,-36.133,15.625,0.000
1709375695.636,15.625,-40.527,-31.250,-8.789,0.000
1709375695.640,-124.512,-48.340,-36.133,-56.641,0.000
1709375695.644,-134.766,-51.758,-37.598,-65.430,0.000
1709375695.648,-45.410,-46.387,-28.809,-37.109,0.000
1709375695.652,91.309,-31.250,-30.273,13.672,0.000
1709375695.656,23.926,-35.156,-30.762,1.465,0.000
1709375695.660,-136.230,-54.688,-30.762,-59.082,0.000
1709375695.664,-159.180,-49.805,-35.156,-85.938,0.000
1709375695.668,-78.613,-41.504,-42.480,-67.871,0.000
1709375695.672,61.035,-40.527,-39.551,-7.324,0.000
1709375695.675,31.250,-43.945,-29.785,-1.465,0.000
1709375695.679,-118.652,-48.340,-37.109,-69.824,0.000
1709375695.683,-151.855,-51.758,-39.551,-95.703,0.000
1709375695.687,-82.520,-51.270,-36.133,-61.523,0.000
1709375695.691,62.500,-38.574,-37.109,1.953,0.000
1709375695.695,58.594,-35.156,-37.598,-1.465,0.000
1709375695.699,-88.379,-42.480,-35.156,-52.734,0.000
1709375695.703,-133.789,-46.875,-32.715,-64.453,0.000
1709375695.707,-77.637,-41.016,-32.715,-47.852,0.000
1709375695.711,68.848,-27.344,-31.738,10.742,0.000
1709375695.715,87.402,-28.809,-29.785,24.902,0.000
1709375695.719,-60.547,-49.805,-30.273,-33.691,0.000
1709375695.723,-124.023,-57.617,-32.227,-60.059,0.000
1709375695.727,-86.914,-46.387,-36.133,-55.176,0.000
1709375695.730,50.293,-36.621,-39.062,-4.395,0.000
1709375695.735,98.145,-35.156,-37.109,20.996,0.000
1709375695.738,-54.688,-45.898,-34.668,-32.227,0.000
1709375695.742,-134.277,-47.363,-34.668,-64.941,0.000
1709375695.746,-102.051,-46.875,-37.598,-63.965,0.000
1709375695.750,25.391,-42.480,-37.109,-13.184,0.000
1709375695.754,98.145,-39.551,-34.668,17.578,0.000
1709375695.758,-41.016,-46.875,-38.574,-39.551,0.000
1709375695.762,-135.742,-52.246,-40.527,-74.219,0.000
1709375695.766,-121.094,-60.547,-36.621,-60.059,0.000
1709375695.770,-11.230,-41.504,-37.598,-22.949,0.000
1709375695.774,85.449,-29.297,-38.086,8.789,0.000
1709375695.777,-31.250,-41.016,-37.109,-28.809,0.000
1709375695.781,-142.578,-49.316,-39.062,-73.730,0.000
1709375695.785,-134.277,-47.363,-39.062,-81.055,0.000
1709375695.789,-20.996,-41.992,-39.551,-37.598,0.000
1709375695.793,97.168,-37.109,-38.574,15.625,0.000
1709375695.797,3.418,-41.016,-37.109,-19.531,0.000
1709375695.801,-113.281,-50.293,-36.621,-67.871,0.000
1709375695.805,-118.164,-50.293,-38.086,-71.777,0.000
1709375695.809,-28.809,-45.410,-36.621,-33.203,0.000
1709375695.813,95.703,-34.668,-37.109,22.949,0.000
1709375695.817,18.066,-28.320,-33.691,-9.277,0.000
1709375695.820,-114.258,-41.992,-34.668,-62.988,0.000
1709375695.824,-130.371,-53.223,-40.039,-68.359,0.000
