timestamps,TP9,AF7,AF8,TP10,Right AUX
1709206290.644,-41.504,-64.453,-34.668,-44.922,0.000
1709206290.648,-36.133,-39.551,-38.574,-41.992,0.000
1709206290.652,-24.902,-41.992,-45.410,-41.992,0.000
1709206290.656,-27.344,-56.641,-43.945,-37.109,0.000
1709206290.660,-39.551,-50.781,-43.457,-41.992,0.000
1709206290.664,-54.688,-48.828,-50.293,-57.617,0.000
1709206290.668,-49.805,-46.875,-51.758,-53.711,0.000
1709206290.671,-28.320,-51.758,-51.758,-41.016,0.000
1709206290.675,-31.250,-55.176,-51.758,-46.875,0.000
1709206290.679,-47.363,-42.480,-45.410,-58.594,0.000
1709206290.683,-52.734,-50.781,-45.898,-60.059,0.000
1709206290.687,-44.434,-42.969,-44.434,-51.270,0.000
1709206290.691,-19.043,-27.344,-41.016,-46.387,0.000
1709206290.695,-15.137,-27.832,-41.992,-43.457,0.000
1709206290.699,-41.992,-38.574,-41.504,-44.434,0.000
1709206290.703,-52.734,-32.227,-39.551,-53.711,0.000
1709206290.707,-37.598,-20.508,-38.086,-43.457,0.000
1709206290.711,-14.160,-23.438,-41.992,-24.902,0.000
1709206290.714,-18.066,-32.715,-48.828,-30.762,0.000
1709206290.718,-33.691,-52.734,-49.316,-35.156,0.000
1709206290.722,-36.133,-34.180,-42.969,-39.062,0.000
1709206290.726,-35.645,-14.160,-43.945,-44.922,0.000
1709206290.730,-20.996,-31.250,-46.875,-40.039,0.000
1709206290.734,-8.789,-39.062,-44.922,-33.203,0.000
1709206290.738,-24.902,-33.203,-46.875,-41.992,0.000
1709206290.742,-46.875,-32.227,-44.922,-52.734,0.000
1709206290.746,-41.016,-46.387,-44.922,-45.898,0.000
1709206290.750,-26.367,-41.504,-45.410,-40.039,0.000
1709206290.753,-22.461,-35.156,-44.434,-38.086,0.000
1709206290.757,-23.926,-48.828,-42.480,-48.340,0.000
1709206290.761,-39.551,-71.777,-37.109,-48.340,0.000
1709206290.765,-43.457,-56.152,-36.621,-29.785,0.000
1709206290.769,-17.578,-18.555,-43.945,-32.715,0.000
1709206290.773,-6.836,-38.574,-43.457,-39.551,0.000
1709206290.777,-31.738,-49.805,-37.598,-49.805,0.000
1709206290.781,-51.758,-50.293,-35.156,-62.012,0.000
1709206290.785,-53.223,-47.852,-29.785,-57.129,0.000
1709206290.789,-32.227,-46.875,-29.297,-41.992,0.000
1709206290.793,-20.508,-50.781,-35.645,-37.109,0.000
1709206290.796,-25.879,-43.945,-33.203,-44.922,0.000
1709206290.800,-39.062,-42.969,-26.855,-47.363,0.000
1709206290.804,-45.898,-56.152,-33.691,-48.828,0.000
1709206290.808,-41.504,-67.383,-41.016,-46.875,0.000
1709206290.812,-21.484,-40.039,-37.598,-37.109,0.000
1709206290.816,-20.996,-27.344,-38.086,-44.434,0.000
1709206290.820,-47.363,-47.852,-42.969,-50.781,0.000
1709206290.824,-51.758,-53.223,-41.016,-43.457,0.000
1709206290.828,-41.504,-40.527,-43.945,-46.387,0.000
1709206290.832,-26.855,-39.062,-43.945,-55.176,0.000
1709206290.835,-21.973,-49.805,-43.457,-53.711,0.000
1709206290.839,-40.527,-58.105,-45.898,-61.523,0.000
1709206290.843,-48.828,-46.875,-47.852,-63.965,0.000
1709206290.847,-21.484,-42.480,-46.387,-59.082,0.000
1709206290.851,-13.672,-59.570,-45.410,-49.316,0.000
1709206290.855,-29.785,-58.105,-45.898,-37.598,0.000
1709206290.859,-34.180,-39.062,-41.992,-36.133,0.000
1709206290.863,-43.457,-47.852,-39.551,-38.086,0.000
1709206290.867,-32.227,-75.195,-38.574,-22.949,0.000
1709206290.871,-17.090,-66.895,-39.062,-15.137,0.000
1709206290.874,-22.949,-34.668,-40.039,-21.973,0.000
1709206290.878,-42.480,-46.875,-38.574,-33.691,0.000
1709206290.882,-52.734,-56.152,-37.598,-40.527,0.000
1709206290.886,-39.062,-41.504,-41.016,-35.645,0.000
1709206290.890,-27.344,-38.574,-44.434,-34.668,0.000
1709206290.894,-20.996,-49.805,-43.457,-30.273,0.000
1709206290.898,-33.203,-66.406,-41.992,-34.180,0.000
1709206290.902,-48.828,-57.129,-43.457,-45.898,0.000
1709206290.906,-34.668,-39.551,-38.574,-44.922,0.000
1709206290.910,-39.062,-55.664,-34.180,-39.551,0.000
1709206290.914,-49.805,-62.012,-35.156,-39.062,0.000
1709206290.917,-56.641,-41.504,-34.668,-46.875,0.000
1709206290.921,-69.824,-43.945,-36.621,-54.688,0.000
1709206290.925,-67.871,-51.270,-36.133,-45.898,0.000
1709206290.929,-57.617,-45.898,-38.574,-40.039,0.000
1709206290.933,-54.199,-39.062,-42.969,-39.551,0.000
1709206290.937,-59.082,-50.781,-46.875,-52.246,0.000
1709206290.941,-66.895,-73.242,-46.875,-63.477,0.000
1709206290.945,-70.801,-70.312,-45.898,-60.547,0.000
1709206290.949,-58.105,-45.410,-43.945,-53.711,0.000
1709206290.953,-44.434,-34.668,-38.574,-41.992,0.000
1709206290.957,-49.805,-63.965,-37.109,-35.156,0.000
1709206290.960,-58.594,-73.730,-39.551,-38.574,0.000
1709206290.964,-63.965,-38.086,-34.180,-49.805,0.000
1709206290.968,-50.781,-37.598,-33.691,-44.434,0.000
1709206290.972,-26.367,-42.480,-43.457,-29.297,0.000
1709206290.976,-43.457,-45.410,-36.621,-24.414,0.000
1709206290.980,-56.641,-58.594,-29.297,-41.504,0.000
1709206290.984,-59.082,-74.707,-31.250,-53.711,0.000
1709206290.988,-76.172,-83.496,-27.832,-48.828,0.000
1709206290.992,-62.988,-83.008,-25.879,-46.875,0.000
1709206290.996,-57.617,-78.613,-22.461,-41.016,0.000
1709206291.000,-67.871,-84.961,-15.137,-32.715,0.000
1709206291.003,-83.984,-122.559,-17.578,-27.832,0.000
1709206291.007,-80.078,-101.562,-21.973,-33.691,0.000
1709206291.011,-61.035,-88.379,-20.996,-43.945,0.000
1709206291.015,-64.453,-120.605,-19.531,-47.363,0.000
1709206291.019,0.000,-124.023,-23.438,-41.016,0.000
1709206291.023,0.000,-116.699,-24.414,-41.504,0.000
1709206291.027,0.000,-120.117,-16.113,-38.574,0.000
1709206291.031,0.000,-133.301,-13.672,-38.574,0.000
1709206291.035,0.000,-135.742,-17.090,-34.180,0.000
1709206291.039,0.000,-138.672,-18.066,-29.297,0.000
1709206291.043,0.000,-144.531,-20.996,-39.062,0.000
1709206291.046,0.000,-160.156,-22.949,-28.320,0.000
1709206291.050,0.000,-142.578,-20.996,-4.395,0.000
1709206291.054,0.000,-115.723,-22.461,-10.254,0.000
1709206291.058,0.000,-143.555,-24.414,-23.926,0.000
1709206291.062,0.000,-145.508,-19.531,-15.625,0.000
1709206291.066,-67.871,-132.812,-19.531,-11.719,0.000
1709206291.070,-51.270,-126.953,-26.367,-16.602,0.000
1709206291.074,-42.480,-138.184,-24.414,-12.695,0.000
1709206291.078,-46.387,-145.996,-19.531,0.488,0.000
1709206291.082,-62.012,-141.113,-20.020,2.930,0.000
1709206291.085,-64.453,-145.996,-20.020,-6.348,0.000
1709206291.089,-47.363,-141.113,-17.578,-1.953,0.000
1709206291.093,-40.039,-154.297,-20.508,5.371,0.000
1709206291.097,-41.992,-145.996,-19.043,4.395,0.000
1709206291.101,-48.828,-128.906,-12.207,-7.812,0.000
1709206291.105,-57.617,-142.578,-13.672,-13.184,0.000
1709206291.109,-49.805,-135.742,-11.719,-6.348,0.000
1709206291.113,-51.270,-123.047,-5.371,4.883,0.000
1709206291.117,-51.758,-133.301,-10.742,0.000,0.000
1709206291.121,-76.172,-146.973,-15.137,-13.184,0.000
1709206291.125,-95.703,-140.137,-10.742,-20.508,0.000
1709206291.128,-69.336,-123.047,-7.812,-20.996,0.000
1709206291.132,-65.430,-134.766,-3.906,-24.902,0.000
1709206291.136,-78.125,-166.016,-4.883,-24.902,0.000
1709206291.140,-102.051,-161.133,-7.812,-20.020,0.000
1709206291.144,-106.445,-121.582,-10.742,-38.086,0.000
1709206291.148,-83.984,-122.070,-9.277,-54.199,0.000
1709206291.152,-68.848,-117.676,-4.883,-50.781,0.000
1709206291.156,-72.266,-119.141,-7.812,-54.199,0.000
1709206291.160,-91.309,-119.141,-10.254,-63.965,0.000
1709206291.164,-104.980,-117.188,-11.230,-59.570,0.000
1709206291.167,-89.355,-118.652,-16.602,-58.105,0.000
1709206291.171,-74.219,-104.980,-15.625,-47.852,0.000
1709206291.175,-84.961,-109.375,-13.672,-42.480,0.000
1709206291.179,-93.262,-125.977,-12.207,-59.082,0.000
1709206291.183,-98.145,-131.348,-9.766,-55.664,0.000
1709206291.187,-78.125,-96.191,-13.672,-48.340,0.000
1709206291.191,-56.641,-76.172,-18.555,-52.246,0.000
1709206291.195,-48.828,-93.750,-16.113,-52.734,0.000
1709206291.199,-58.105,-97.656,-15.625,-50.781,0.000
1709206291.203,-60.059,-88.379,-14.648,-45.410,0.000
1709206291.207,-53.223,-86.426,-16.602,-43.457,0.000
1709206291.210,-43.457,-92.285,-23.926,-41.504,0.000
1709206291.214,-31.250,-90.820,-20.508,-31.738,0.000
1709206291.218,-40.527,-76.172,-22.949,-39.062,0.000
1709206291.222,-48.340,-68.848,-26.855,-46.387,0.000
1709206291.226,-43.457,-90.820,-22.461,-24.414,0.000
1709206291.230,-27.344,-81.543,-26.855,-14.160,0.000
1709206291.234,-20.508,-43.457,-36.621,-29.297,0.000
1709206291.238,-28.809,-57.617,-38.574,-33.203,0.000
1709206291.242,-32.227,-80.566,-36.621,-29.785,0.000
1709206291.246,-32.715,-67.383,-37.598,-11.230,0.000
1709206291.250,-17.578,-52.734,-38.574,-7.324,0.000
1709206291.253,-1.465,-63.965,-33.203,-9.277,0.000
1709206291.257,-9.277,-68.848,-37.109,-16.602,0.000
1709206291.261,-31.250,-57.617,-38.574,-24.902,0.000
1709206291.265,-33.203,-49.316,-36.133,-11.719,0.000
1709206291.269,-17.578,-58.105,-43.457,-5.859,0.000
1709206291.273,-7.812,-62.012,-49.316,-11.230,0.000
1709206291.277,-9.766,-60.059,-46.387,-14.160,0.000
1709206291.281,-20.996,-50.781,-42.480,-17.090,0.000
1709206291.285,-26.367,-57.129,-48.340,-19.043,0.000
1709206291.289,-9.766,-72.754,-46.875,0.977,0.000
1709206291.293,1.465,-41.016,-46.875,9.766,0.000
1709206291.296,-6.836,-29.297,-45.410,-11.230,0.000
1709206291.300,-23.926,-55.664,-44.922,-22.461,0.000
1709206291.304,-15.625,-59.570,-49.805,-24.902,0.000
1709206291.308,-10.254,-47.363,-46.387,-27.832,0.000
1709206291.312,-15.137,-49.805,-47.852,-25.879,0.000
1709206291.316,-12.695,-64.941,-46.387,-19.531,0.000
1709206291.320,-22.461,-72.266,-42.969,-22.461,0.000
1709206291.324,-32.715,-53.223,-43.945,-22.949,0.000
1709206291.328,-23.926,-45.898,-41.504,-13.672,0.000
1709206291.332,0.977,-66.895,-37.598,4.395,0.000
1709206291.336,1.465,-68.359,-38.086,-0.977,0.000
1709206291.339,-20.996,-38.574,-41.016,-28.320,0.000
1709206291.343,-29.785,-38.574,-38.086,-29.297,0.000
1709206291.347,-17.090,-51.270,-37.598,-21.484,0.000
1709206291.351,-5.859,-38.086,-43.945,-20.020,0.000
1709206291.355,-8.789,-39.551,-48.828,-22.949,0.000
1709206291.359,-18.066,-52.734,-49.316,-25.391,0.000
1709206291.363,-25.879,-49.805,-42.969,-23.438,0.000
1709206291.367,-25.391,-48.340,-42.969,-12.207,0.000
1709206291.371,4.883,-39.062,-47.363,-4.395,0.000
1709206291.375,8.789,-36.621,-43.457,-3.906,0.000
1709206291.378,-20.020,-66.895,-38.574,0.488,0.000
1709206291.382,-20.996,-55.664,-39.551,-4.883,0.000
1709206291.386,-24.902,-40.527,-45.410,-12.695,0.000
1709206291.390,-20.020,-46.875,-37.598,-0.977,0.000
1709206291.394,-7.812,-37.598,-31.250,0.000,0.000
1709206291.398,-23.926,-35.156,-39.062,-21.484,0.000
1709206291.402,-41.992,-49.805,-42.480,-38.574,0.000
1709206291.406,-37.109,-56.641,-40.039,-34.668,0.000
1709206291.410,-23.438,-41.504,-34.668,-26.855,0.000
1709206291.414,-15.625,-39.062,-34.668,-21.973,0.000
1709206291.418,-26.855,-47.363,-37.109,-26.367,0.000
1709206291.421,-39.551,-67.871,-35.645,-26.855,0.000
1709206291.425,-45.410,-64.453,-37.109,-20.020,0.000
1709206291.429,-36.621,-32.715,-36.621,-20.996,0.000
1709206291.433,-12.207,-41.504,-31.738,-24.414,0.000
1709206291.437,-18.555,-37.598,-28.809,-22.949,0.000
1709206291.441,-48.340,-43.457,-24.902,-21.484,0.000
1709206291.445,-48.340,-52.734,-22.949,-31.738,0.000
1709206291.449,-32.715,-48.828,-30.273,-34.668,0.000
1709206291.453,-20.508,-51.758,-30.273,-25.879,0.000
1709206291.457,-23.438,-52.734,-29.297,-21.973,0.000
1709206291.461,-36.133,-65.918,-36.133,-32.227,0.000
1709206291.464,-38.574,-63.965,-37.598,-39.062,0.000
1709206291.468,-24.414,-60.547,-40.039,-18.555,0.000
1709206291.472,-8.789,-39.551,-40.039,-6.836,0.000
1709206291.476,-11.230,-26.855,-36.133,-20.996,0.000
1709206291.480,-32.715,-58.105,-42.480,-33.203,0.000
1709206291.484,-37.598,-59.570,-43.945,-29.297,0.000
1709206291.488,-26.367,-39.551,-39.062,0.000,0.000
1709206291.492,-12.207,-32.715,-39.551,0.000,0.000
1709206291.496,3.906,-49.316,-37.109,0.000,0.000
1709206291.500,-29.785,-62.988,-38.574,0.000,0.000
1709206291.503,-65.918,-53.223,-50.781,0.000,0.000
1709206291.507,-40.527,-50.781,-53.711,0.000,0.000
1709206291.511,-15.137,-58.105,-44.922,0.000,0.000
1709206291.515,-21.973,-54.688,-46.875,0.000,0.000
1709206291.519,-33.691,-32.715,-49.316,0.000,0.000
1709206291.523,-41.016,-54.199,-41.992,0.000,0.000
1709206291.527,-38.086,-59.082,-37.109,0.000,0.000
1709206291.531,-27.344,-37.598,-36.133,0.000,0.000
1709206291.535,-32.227,-40.039,-40.527,-25.391,0.000
1709206291.539,-45.410,-57.129,-43.945,-32.227,0.000
1709206291.542,-49.316,-67.383,-37.109,-37.598,0.000
1709206291.546,-42.969,-51.758,-39.551,-43.945,0.000
1709206291.550,-38.086,-41.016,-42.480,-39.551,0.000
1709206291.554,-37.109,-51.270,-39.551,-32.227,0.000
1709206291.558,-32.227,-73.242,-34.668,-25.879,0.000
1709206291.562,-41.016,-55.176,-35.156,-24.414,0.000
1709206291.566,-48.340,-39.062,-39.062,-38.574,0.000
1709206291.570,-37.598,-53.223,-39.551,-41.992,0.000
1709206291.574,-9.277,-43.457,-41.016,-36.133,0.000
1709206291.578,-15.625,-37.109,-37.109,-39.551,0.000
1709206291.582,-53.711,-42.480,-35.156,-45.898,0.000
1709206291.585,-46.875,-49.805,-37.109,-41.504,0.000
1709206291.589,-29.785,-47.363,-39.062,-36.133,0.000
1709206291.593,-12.695,-35.156,-40.527,-30.762,0.000
1709206291.597,-12.695,-39.551,-40.527,-22.949,0.000
1709206291.601,-28.809,-63.965,-37.598,-24.414,0.000
1709206291.605,-33.203,-57.129,-36.133,-32.715,0.000
1709206291.609,-29.785,-19.043,-39.062,-32.715,0.000
1709206291.613,-18.066,-23.926,-36.133,-22.461,0.000
1709206291.617,-17.578,-49.805,-29.785,-29.297,0.000
1709206291.621,-40.039,-54.199,-37.598,-42.969,0.000
1709206291.624,-49.316,-39.062,-43.945,-45.898,0.000
1709206291.628,-35.645,-41.016,-41.016,-38.086,0.000
1709206291.632,-24.902,-45.898,-41.992,-39.551,0.000
1709206291.636,-35.645,-43.945,-46.875,-50.781,0.000
1709206291.640,-51.270,-50.293,-45.410,-53.711,0.000
1709206291.644,-62.500,-59.570,-45.410,-60.059,0.000
1709206291.648,-42.969,-61.523,-45.410,-51.758,0.000
1709206291.652,-26.855,-43.945,-46.387,-51.270,0.000
1709206291.656,-43.457,-38.086,-46.875,-67.383,0.000
1709206291.660,-54.199,-56.641,-41.992,-70.312,0.000
1709206291.664,-57.617,-57.129,-37.109,-55.176,0.000
1709206291.667,-42.480,-37.598,-40.039,-50.293,0.000
1709206291.671,-21.973,-41.504,-44.434,-51.758,0.000
1709206291.675,-10.742,-59.570,-41.016,-39.062,0.000
1709206291.679,-17.090,-58.105,-39.551,-31.250,0.000
1709206291.683,-26.855,-28.809,-41.504,-34.180,0.000
1709206291.687,-12.695,-21.973,-38.086,-26.367,0.000
1709206291.691,3.906,-38.574,-35.156,-19.531,0.000
1709206291.695,0.977,-47.852,-38.086,-27.832,0.000
1709206291.699,-16.602,-37.598,-41.504,-31.250,0.000
1709206291.703,-33.203,-36.133,-39.551,-35.156,0.000
1709206291.707,-35.156,-66.406,-36.133,-21.484,0.000
1709206291.710,-8.789,-68.359,-39.062,-11.230,0.000
1709206291.714,-7.812,-24.902,-39.551,-34.180,0.000
1709206291.718,-38.574,-31.250,-38.574,-52.734,0.000
1709206291.722,-46.387,-49.805,-43.945,-57.617,0.000
1709206291.726,-48.340,-51.758,-49.805,-60.059,0.000
1709206291.730,-32.715,-48.828,-42.969,-53.711,0.000
1709206291.734,-31.250,-45.410,-39.062,-45.898,0.000
1709206291.738,-47.363,-57.129,-44.434,-46.387,0.000
1709206291.742,-65.430,-61.523,-42.480,-55.664,0.000
1709206291.746,-65.430,-45.410,-39.551,-56.152,0.000
1709206291.750,-47.852,-41.992,-36.133,-48.828,0.000
1709206291.753,-42.969,-64.453,-33.203,-34.668,0.000
1709206291.757,-51.270,-42.969,-34.180,-39.062,0.000
1709206291.761,-67.383,-38.574,-36.133,-59.570,0.000
1709206291.765,-70.312,-66.406,-38.574,-56.152,0.000
1709206291.769,-41.992,-56.152,-37.109,-44.434,0.000
1709206291.773,-29.785,-32.715,-30.762,-34.180,0.000
1709206291.777,-54.688,-51.758,-30.273,-37.109,0.000
1709206291.781,-62.988,-68.359,-32.715,-42.480,0.000
1709206291.785,-57.617,-55.176,-33.203,-35.156,0.000
1709206291.789,-43.945,-48.828,-35.156,-27.832,0.000
1709206291.792,-32.227,-41.016,-37.109,-24.902,0.000
1709206291.796,-34.668,-58.105,-36.133,-28.320,0.000
1709206291.800,-38.574,-57.617,-35.156,-29.297,0.000
1709206291.804,-39.551,-30.762,-33.691,-34.180,0.000
1709206291.808,-33.203,-38.086,-36.133,-37.598,0.000
1709206291.812,-23.438,-32.227,-35.156,-22.949,0.000
1709206291.816,-26.367,-33.203,-30.762,-18.555,0.000
1709206291.820,-40.039,-40.039,-27.344,-23.926,0.000
1709206291.824,-45.410,-51.758,-31.738,-33.203,0.000
1709206291.828,-30.762,-53.223,-36.621,-37.598,0.000
1709206291.832,-31.738,-43.457,-35.156,-34.668,0.000
1709206291.835,-44.922,-50.293,-36.133,-32.715,0.000
1709206291.839,-48.340,-53.223,-36.621,-40.039,0.000
1709206291.843,-53.711,-64.453,-35.645,-43.457,0.000
1709206291.847,-45.898,-34.668,-34.180,-32.715,0.000
1709206291.851,-31.250,-12.695,-37.109,-29.297,0.000
1709206291.855,-27.344,-42.480,-38.574,-36.621,0.000
1709206291.859,-41.016,-52.734,-32.227,-44.434,0.000
1709206291.863,-58.105,-43.945,-26.367,-46.387,0.000
1709206291.867,-53.711,-45.410,-23.438,-44.434,0.000
1709206291.871,-43.457,-51.270,-24.902,-41.504,0.000
1709206291.874,-42.969,-41.504,-26.367,-47.363,0.000
1709206291.878,-44.922,-39.062,-25.879,-64.941,0.000
1709206291.882,-67.383,-58.594,-30.762,-72.266,0.000
1709206291.886,-65.430,-77.148,-30.273,-60.059,0.000
1709206291.890,-35.645,-60.059,-28.320,-37.109,0.000
1709206291.894,-21.484,-23.926,-33.691,-35.645,0.000
1709206291.898,-21.484,-47.852,-35.645,-37.598,0.000
1709206291.902,-33.203,-60.547,-30.762,-31.738,0.000
1709206291.906,-40.527,-48.340,-37.598,-33.203,0.000
1709206291.910,-23.438,-41.016,-39.551,-24.902,0.000
1709206291.914,-12.695,-48.340,-30.762,-17.090,0.000
1709206291.917,-24.414,-56.152,-32.715,-25.879,0.000
1709206291.921,-37.598,-48.828,-33.203,-33.691,0.000
1709206291.925,-36.133,-46.875,-31.250,-31.250,0.000
1709206291.929,-12.207,-51.270,-31.738,-23.926,0.000
1709206291.933,-6.836,-47.852,-32.715,-17.090,0.000
1709206291.937,-29.297,-30.273,-38.574,-29.297,0.000
1709206291.941,-42.969,-29.297,-42.969,-41.016,0.000
1709206291.945,-45.898,-52.734,-41.016,-33.203,0.000
1709206291.949,-29.297,-53.711,-41.504,-21.973,0.000
1709206291.953,-25.391,-23.438,-41.504,-30.762,0.000
1709206291.956,-38.086,-34.180,-42.480,-46.387,0.000
1709206291.960,-51.270,-55.664,-42.969,-48.828,0.000
1709206291.964,-58.105,-44.922,-41.992,-50.293,0.000
1709206291.968,-51.758,-32.715,-42.969,-52.734,0.000
1709206291.972,-41.992,-36.133,-44.434,-47.852,0.000
1709206291.976,-41.016,-66.406,-42.480,-43.457,0.000
1709206291.980,-51.270,-66.406,-36.133,-54.688,0.000
1709206291.984,-68.848,-41.016,-38.574,-63.965,0.000
1709206291.988,-43.945,-43.457,-35.645,-48.340,0.000
1709206291.992,-5.371,-54.199,-33.203,-21.484,0.000
1709206291.995,-25.879,-45.898,-45.410,-22.461,0.000
1709206291.999,-41.016,-39.062,-49.316,-39.062,0.000
1709206292.003,-38.574,-57.617,-45.898,-40.039,0.000
1709206292.007,-33.203,-56.152,-47.363,-34.668,0.000
1709206292.011,-5.859,-41.016,-45.410,-21.973,0.000
1709206292.015,-5.371,-43.457,-38.574,-17.578,0.000
1709206292.019,-26.855,-49.316,-37.598,-23.926,0.000
1709206292.023,-37.109,-51.270,-39.551,-26.855,0.000
1709206292.027,-27.344,-36.621,-40.039,-28.320,0.000
1709206292.031,-8.301,-19.531,-36.133,-24.902,0.000
1709206292.035,-14.160,-38.086,-38.086,-27.832,0.000
1709206292.038,-35.645,-52.246,-39.062,-29.785,0.000
1709206292.042,-56.641,-35.645,-40.527,-41.504,0.000
1709206292.046,-49.805,-31.738,-40.039,-42.969,0.000
1709206292.050,-21.484,-50.293,-37.109,-29.297,0.000
1709206292.054,-32.715,-57.617,-40.527,-38.574,0.000
1709206292.058,-54.688,-39.551,-40.527,-52.734,0.000
1709206292.062,-61.523,-44.434,-39.062,-50.293,0.000
1709206292.066,-55.664,-58.105,-36.133,-49.805,0.000
1709206292.070,-41.504,-58.594,-33.203,-36.133,0.000
1709206292.074,-35.156,-54.688,-37.598,-26.367,0.000
1709206292.078,-40.527,-47.363,-39.551,-42.969,0.000
1709206292.081,-58.594,-69.336,-35.645,-41.016,0.000
1709206292.085,-60.059,-78.125,-30.762,-19.531,0.000
1709206292.089,-41.016,-32.715,-27.832,-22.949,0.000
1709206292.093,-30.762,-32.715,-29.785,-24.902,0.000
1709206292.097,-36.621,-45.898,-34.180,-28.320,0.000
1709206292.101,-53.223,-43.945,-35.645,-40.039,0.000
1709206292.105,-54.688,-38.574,-37.109,-39.062,0.000
1709206292.109,-38.086,-40.039,-39.062,-37.598,0.000
1709206292.113,-23.438,-46.875,-39.551,-36.621,0.000
1709206292.117,-19.531,-57.129,-41.016,-45.898,0.000
1709206292.121,-49.805,-59.570,-45.410,-54.199,0.000
1709206292.124,-62.500,-62.988,-44.434,-48.340,0.000
1709206292.128,-46.387,-79.590,-43.457,-38.574,0.000
1709206292.132,-31.250,-45.898,-40.527,-32.715,0.000
1709206292.136,-20.996,-26.367,-33.203,-41.016,0.000
1709206292.140,-38.574,-59.082,-33.203,-50.293,0.000
1709206292.144,-50.293,-65.918,-34.668,-56.152,0.000
1709206292.148,-35.156,-46.387,-34.180,-43.457,0.000
1709206292.152,-25.879,-42.480,-34.180,-36.133,0.000
1709206292.156,-29.785,-56.641,-34.180,-33.691,0.000
1709206292.160,-47.363,-61.523,-33.691,-31.738,0.000
1709206292.164,-61.035,-66.406,-32.715,-40.039,0.000
1709206292.167,-56.152,-62.500,-37.109,-39.062,0.000
1709206292.171,-36.621,-65.430,-38.086,-28.320,0.000
1709206292.175,-28.320,-67.871,-32.715,-18.066,0.000
1709206292.179,-35.156,-46.875,-32.227,-36.133,0.000
1709206292.183,-50.781,-49.316,-34.668,-54.199,0.000
1709206292.187,-58.594,-46.387,-36.621,-46.875,0.000
1709206292.191,-38.086,-37.109,-35.645,-34.180,0.000
1709206292.195,-34.180,-39.062,-31.250,-30.273,0.000
1709206292.199,-47.363,-54.688,-29.297,-38.086,0.000
1709206292.203,-56.641,-53.223,-34.668,-46.875,0.000
1709206292.206,-51.270,-40.527,-38.086,-42.480,0.000
1709206292.210,-37.109,-41.016,-35.156,-31.250,0.000
1709206292.214,-28.320,-45.898,-33.203,-31.738,0.000
1709206292.218,-34.668,-60.547,-30.762,-20.020,0.000
1709206292.222,-44.922,-44.434,-33.691,-21.484,0.000
1709206292.226,-39.551,-26.367,-34.180,-30.762,0.000
1709206292.230,-21.484,-32.227,-28.809,-10.742,0.000
1709206292.234,-15.137,-29.297,-31.250,-7.812,0.000
1709206292.238,-28.320,-29.297,-38.086,-21.973,0.000
1709206292.242,-46.875,-46.387,-39.551,-33.691,0.000
1709206292.246,-48.340,-59.570,-41.016,-46.875,0.000
1709206292.249,-19.531,-37.109,-41.016,-37.598,0.000
1709206292.253,-18.066,-30.273,-40.527,-31.250,0.000
1709206292.257,-31.738,-54.688,-38.574,-36.621,0.000
1709206292.261,-39.551,-83.984,-37.109,-27.832,0.000
1709206292.265,-54.199,-80.078,-44.922,-25.879,0.000
1709206292.269,-40.527,-37.109,-49.316,-37.598,0.000
1709206292.273,-19.043,-46.387,-41.992,-34.668,0.000
1709206292.277,-24.414,-55.664,-36.133,-27.832,0.000
1709206292.281,-51.758,-49.316,-33.691,-32.227,0.000
1709206292.285,-58.105,-51.758,-35.645,-35.645,0.000
1709206292.288,-42.480,-52.734,-36.621,-33.691,0.000
1709206292.292,-28.809,-54.199,-33.203,-32.227,0.000
1709206292.296,-29.785,-49.805,-31.250,-41.992,0.000
1709206292.300,-51.758,-60.059,-34.180,-48.828,0.000
1709206292.304,-55.176,-70.801,-32.715,-47.852,0.000
1709206292.308,-28.809,-72.266,-33.691,-35.156,0.000
1709206292.312,-19.043,-41.016,-36.621,-29.297,0.000
1709206292.316,-30.273,-24.414,-29.785,-28.809,0.000
1709206292.320,-48.340,-54.688,-30.273,-37.598,0.000
1709206292.324,-66.406,-55.664,-34.668,-45.898,0.000
1709206292.328,-50.781,-36.621,-36.133,-35.645,0.000
1709206292.331,-35.645,-31.250,-35.645,-37.598,0.000
1709206292.335,-41.992,-44.922,-38.086,-47.852,0.000
1709206292.339,-52.246,-52.246,-41.504,-52.734,0.000
1709206292.343,-63.477,-46.387,-41.504,-59.570,0.000
1709206292.347,-54.199,-40.039,-36.133,-56.152,0.000
1709206292.351,-30.762,-52.734,-34.180,-31.738,0.000
1709206292.355,-33.691,-61.035,-46.387,-38.086,0.000
1709206292.359,-52.246,-43.945,-48.828,-56.641,0.000
1709206292.363,-51.758,-45.898,-42.969,-48.340,0.000
1709206292.367,-43.945,-65.918,-42.969,-38.086,0.000
1709206292.370,-34.180,-47.363,-41.504,-33.691,0.000
1709206292.374,-13.672,-17.578,-37.598,-30.762,0.000
1709206292.378,-24.414,-42.480,-39.062,-36.133,0.000
1709206292.382,-47.852,-56.641,-44.434,-45.898,0.000
1709206292.386,-26.367,-43.457,-39.551,-44.922,0.000
1709206292.390,-18.066,-39.551,-39.062,-36.133,0.000
1709206292.394,-29.785,-50.781,-39.551,-26.367,0.000
1709206292.398,-31.738,-67.871,-41.992,-29.785,0.000
1709206292.402,-40.039,-53.711,-38.086,-28.320,0.000
1709206292.406,-38.086,-33.203,-35.645,-22.461,0.000
1709206292.410,-34.180,-45.410,-39.551,-27.832,0.000
1709206292.413,-26.367,-63.477,-36.133,-22.949,0.000
1709206292.417,-30.273,-45.898,-31.738,-25.879,0.000
1709206292.421,-45.410,-35.156,-27.832,-29.785,0.000
1709206292.425,-51.758,-52.734,-27.344,-28.320,0.000
1709206292.429,-41.992,-54.199,-37.109,-43.457,0.000
1709206292.433,-32.715,-42.969,-37.598,-40.527,0.000
1709206292.437,-39.551,-47.852,-33.203,-34.180,0.000
1709206292.441,-53.711,-63.965,-34.668,-39.551,0.000
1709206292.445,-58.105,-69.824,-37.598,-40.527,0.000
1709206292.449,-43.945,-45.898,-38.574,-33.203,0.000
1709206292.453,-17.578,-26.855,-37.109,-24.902,0.000
1709206292.456,-15.625,-58.105,-33.691,-16.113,0.000
1709206292.460,-54.199,-74.219,-32.227,-17.578,0.000
1709206292.464,-62.988,-32.715,-33.691,-27.344,0.000
1709206292.468,-36.133,-28.320,-41.504,-27.344,0.000
1709206292.472,-14.648,-45.410,-44.434,-28.809,0.000
1709206292.476,-13.184,-40.039,-42.969,-31.738,0.000
1709206292.480,-31.250,-42.969,-48.340,-39.551,0.000
1709206292.484,-36.133,-49.805,-49.316,-42.969,0.000
1709206292.488,-27.344,-42.969,-44.434,-33.203,0.000
1709206292.492,-12.695,-36.621,-44.434,-30.273,0.000
1709206292.496,-8.789,-30.762,-45.898,-41.992,0.000
1709206292.499,-21.484,-29.785,-44.434,-44.922,0.000
1709206292.503,-34.180,-55.176,-42.969,-39.062,0.000
1709206292.507,-31.738,-42.480,-38.574,-44.922,0.000
1709206292.511,-26.367,-16.113,-36.133,-44.434,0.000
1709206292.515,-28.320,-33.203,-40.039,-46.387,0.000
1709206292.519,-37.109,-42.969,-41.016,-47.363,0.000
1709206292.523,-49.805,-37.598,-41.016,-47.852,0.000
1709206292.527,-42.480,-41.992,-38.086,-47.363,0.000
1709206292.531,-14.160,-40.039,-38.086,-48.340,0.000
1709206292.535,-16.602,-30.273,-40.039,-46.875,0.000
1709206292.538,-42.480,-43.457,-41.504,-47.363,0.000
1709206292.542,-55.664,-58.594,-41.016,-51.270,0.000
1709206292.546,-43.945,-67.871,-41.992,-33.691,0.000
1709206292.550,-18.066,-48.828,-41.992,-15.137,0.000
1709206292.554,-13.184,-16.113,-42.969,-18.555,0.000
1709206292.558,-17.578,-25.391,-44.434,-23.438,0.000
1709206292.562,-26.855,-32.715,-40.527,-24.414,0.000
1709206292.566,-25.879,-32.227,-41.016,-24.902,0.000
1709206292.570,-14.160,-29.297,-36.621,-16.113,0.000
1709206292.574,-8.301,-35.645,-30.273,-14.160,0.000
1709206292.578,-24.414,-47.363,-37.598,-26.367,0.000
1709206292.581,-38.086,-49.805,-41.504,-34.180,0.000
1709206292.585,-38.574,-53.223,-39.551,-31.250,0.000
1709206292.589,-28.320,-52.734,-35.156,-23.438,0.000
1709206292.593,-12.695,-59.570,-33.691,-15.625,0.000
1709206292.597,-21.973,-41.504,-37.598,-27.832,0.000
1709206292.601,-41.016,-23.438,-38.086,-43.457,0.000
1709206292.605,-43.457,-44.434,-41.016,-42.480,0.000
1709206292.609,-19.043,-56.152,-45.898,-51.758,0.000
1709206292.613,-17.090,-37.598,-42.480,-50.781,0.000
1709206292.617,-41.992,-37.598,-35.156,-36.621,0.000
1709206292.620,-54.199,-63.965,-37.109,-47.363,0.000
1709206292.624,-57.129,-61.035,-40.039,-48.828,0.000
1709206292.628,-44.434,-50.293,-41.504,-35.156,0.000
1709206292.632,-29.785,-58.594,-41.992,-35.156,0.000
1709206292.636,-30.762,-76.172,-37.598,-41.504,0.000
1709206292.640,-48.828,-74.219,-32.715,-51.270,0.000
1709206292.644,-57.129,-46.875,-34.668,-59.082,0.000
1709206292.648,-47.852,-47.852,-36.621,-48.828,0.000
1709206292.652,-32.227,-42.480,-34.180,-40.039,0.000
1709206292.656,-39.551,-34.668,-39.062,-45.898,0.000
1709206292.660,-60.547,-41.992,-36.621,-56.152,0.000
1709206292.663,-70.312,-55.664,-35.156,-55.664,0.000
1709206292.667,-49.805,-50.781,-39.062,-43.945,0.000
1709206292.671,-33.203,-34.668,-36.133,-28.809,0.000
1709206292.675,-38.086,-47.852,-38.086,-33.691,0.000
1709206292.679,-47.852,-69.824,-37.109,-41.504,0.000
1709206292.683,-67.383,-82.031,-32.715,-31.250,0.000
1709206292.687,-62.988,-53.223,-31.250,-31.250,0.000
1709206292.691,-39.062,-24.414,-29.785,-35.156,0.000
1709206292.695,-25.879,-41.016,-29.297,-33.691,0.000
1709206292.699,-35.156,-51.270,-31.250,-31.738,0.000
1709206292.702,-57.129,-45.410,-30.762,-31.250,0.000
1709206292.706,-57.129,-32.227,-27.832,-35.156,0.000
1709206292.710,-39.062,-39.551,-28.809,-26.367,0.000
1709206292.714,-31.738,-49.316,-25.391,-17.578,0.000
1709206292.718,-32.227,-44.434,-26.367,-23.926,0.000
1709206292.722,-43.457,-49.316,-33.691,-33.691,0.000
1709206292.726,-45.410,-77.148,-34.180,-27.344,0.000
1709206292.730,-27.344,-67.871,-36.133,-13.672,0.000
1709206292.734,-21.973,-30.762,-42.969,-21.973,0.000
1709206292.738,-40.039,-36.621,-38.574,-34.180,0.000
1709206292.741,-53.711,-60.547,-37.109,-36.621,0.000
1709206292.745,-58.105,-57.617,-40.039,-39.551,0.000
1709206292.749,-37.109,-35.645,-40.039,-37.109,0.000
1709206292.753,-11.719,-41.992,-40.039,-29.785,0.000
1709206292.757,-32.227,-61.035,-40.039,-35.645,0.000
1709206292.761,-56.641,-59.082,-40.039,-43.945,0.000
1709206292.765,-55.664,-43.457,-37.109,-46.875,0.000
1709206292.769,-40.039,-44.922,-38.574,-39.551,0.000
1709206292.773,-23.438,-57.129,-41.504,-31.738,0.000
1709206292.777,-29.785,-47.363,-43.945,-33.203,0.000
1709206292.781,-51.270,-30.273,-42.969,-47.852,0.000
1709206292.784,-54.199,-45.410,-42.480,-51.270,0.000
1709206292.788,-39.551,-53.711,-40.039,-31.738,0.000
1709206292.792,-32.227,-28.809,-41.504,-24.902,0.000
1709206292.796,-46.387,-25.879,-43.945,-33.691,0.000
1709206292.800,-62.012,-50.781,-40.527,-42.480,0.000
1709206292.804,-53.711,-52.734,-34.668,-38.574,0.000
1709206292.808,-42.480,-33.203,-32.715,-26.855,0.000
1709206292.812,-23.926,-33.691,-35.156,-24.414,0.000
1709206292.816,-20.020,-55.664,-31.250,-21.484,0.000
1709206292.820,-52.246,-61.523,-28.809,-24.902,0.000
1709206292.824,-64.941,-45.898,-31.250,-36.621,0.000
1709206292.827,-51.758,-37.109,-32.227,-49.805,0.000
1709206292.831,-38.574,-65.430,-31.738,-47.363,0.000
1709206292.835,-34.180,-77.637,-32.227,-36.133,0.000
1709206292.839,-49.316,-39.062,-30.762,-48.340,0.000
1709206292.843,-60.547,-39.062,-29.785,-57.129,0.000
1709206292.847,-51.270,-58.594,-37.598,-56.641,0.000
1709206292.851,-37.109,-50.781,-36.133,-52.246,0.000
1709206292.855,-30.762,-42.480,-34.180,-49.805,0.000
1709206292.859,-39.062,-47.852,-39.551,-54.688,0.000
1709206292.863,-50.293,-58.594,-43.457,-58.105,0.000
1709206292.867,-51.758,-74.707,-44.922,-54.199,0.000
1709206292.870,-29.785,-58.594,-38.086,-46.875,0.000
1709206292.874,-4.883,-45.410,-34.668,-47.852,0.000
1709206292.878,-19.043,-63.965,-32.715,-31.738,0.000
1709206292.882,-42.969,-43.457,-34.180,-30.762,0.000
1709206292.886,-40.527,-21.484,-36.133,-37.598,0.000
1709206292.890,-28.809,-41.992,-38.574,-34.668,0.000
1709206292.894,-24.902,-45.898,-40.039,-33.203,0.000
1709206292.898,-33.691,-33.203,-41.504,-36.133,0.000
1709206292.902,-55.176,-41.504,-39.551,-41.016,0.000
1709206292.906,-53.711,-58.594,-36.133,-32.715,0.000
1709206292.910,-40.039,-58.105,-37.598,-28.320,0.000
1709206292.913,-25.879,-51.270,-23.438,-22.461,0.000
1709206292.917,-28.809,-50.781,-18.066,-35.156,0.000
1709206292.921,-47.852,-69.824,-30.273,-38.086,0.000
1709206292.925,-56.152,-73.730,-32.227,-28.320,0.000
1709206292.929,-54.688,-36.621,-27.832,-46.875,0.000
1709206292.933,-32.715,-28.320,-28.320,-47.852,0.000
1709206292.937,-35.156,-32.715,-29.297,-44.922,0.000
1709206292.941,-78.125,-37.109,-33.203,-56.641,0.000
1709206292.945,-85.449,-45.410,-37.109,-60.059,0.000
1709206292.949,-58.594,-45.898,-33.203,-40.527,0.000
1709206292.952,-39.062,-39.062,-37.598,-36.621,0.000
1709206292.956,-42.969,-43.457,-41.016,-45.410,0.000
1709206292.960,-52.734,-65.918,-38.086,-46.387,0.000
1709206292.964,-52.734,-69.824,-38.574,-39.551,0.000
1709206292.968,-40.039,-70.801,-30.273,-19.043,0.000
1709206292.972,-25.879,-41.992,-32.227,-21.484,0.000
1709206292.976,-23.438,-23.438,-42.969,-35.156,0.000
1709206292.980,-32.227,-52.734,-39.062,-41.016,0.000
1709206292.984,-44.922,-63.477,-35.645,-39.551,0.000
1709206292.988,-33.203,-56.641,-37.109,-29.785,0.000
1709206292.992,-12.207,-38.086,-38.086,-24.902,0.000
1709206292.995,-11.230,-44.922,-45.898,-34.180,0.000
1709206292.999,-7.324,-56.152,-48.828,-41.016,0.000
1709206293.003,-26.367,-47.363,-45.410,-37.109,0.000
1709206293.007,-37.598,-53.223,-41.504,-36.621,0.000
1709206293.011,-23.438,-65.430,-44.434,-27.832,0.000
1709206293.015,-18.066,-58.594,-44.922,-20.020,0.000
1709206293.019,-31.250,-33.691,-35.645,-40.039,0.000
1709206293.023,-54.199,-57.617,-37.109,-52.246,0.000
1709206293.027,-52.246,-67.383,-38.574,-43.457,0.000
1709206293.031,-37.598,-48.828,-36.621,-34.668,0.000
1709206293.034,-35.645,-46.387,-43.457,-44.922,0.000
1709206293.038,-43.945,-56.152,-42.969,-60.059,0.000
1709206293.042,-51.270,-59.570,-35.645,-55.176,0.000
1709206293.046,-52.246,-51.270,-33.691,-42.480,0.000
1709206293.050,-50.781,-48.828,-34.180,-39.551,0.000
1709206293.054,-31.738,-59.082,-40.039,-42.480,0.000
1709206293.058,-42.969,-83.008,-43.457,-41.504,0.000
1709206293.062,-71.777,-69.824,-35.645,-44.922,0.000
1709206293.066,-63.477,-42.969,-32.715,-44.922,0.000
1709206293.070,-48.828,-51.270,-32.227,-33.203,0.000
1709206293.074,-38.574,-50.293,-33.203,-34.668,0.000
1709206293.077,-40.527,-46.387,-40.039,-40.527,0.000
1709206293.081,-52.246,-54.199,-41.504,-40.039,0.000
1709206293.085,-61.035,-65.918,-37.598,-42.480,0.000
1709206293.089,-46.387,-54.688,-35.645,-46.875,0.000
1709206293.093,-26.855,-39.551,-34.180,-46.875,0.000
1709206293.097,-33.691,-52.246,-38.086,-54.199,0.000
1709206293.101,-54.199,-82.031,-41.016,-46.875,0.000
1709206293.105,-46.875,-85.449,-39.551,-32.715,0.000
1709206293.109,-33.203,-50.293,-41.016,-38.086,0.000
1709206293.113,-37.598,-38.086,-43.457,-41.992,0.000
1709206293.116,-36.133,-69.824,-40.039,-31.738,0.000
1709206293.120,-40.527,-64.453,-36.621,-35.645,0.000
1709206293.124,-36.133,-35.156,-34.668,-36.621,0.000
1709206293.128,-24.414,-43.457,-32.715,-19.043,0.000
1709206293.132,-11.230,-43.945,-34.180,-19.043,0.000
1709206293.136,-4.395,-37.109,-41.992,-31.738,0.000
1709206293.140,-21.484,-33.203,-41.504,-30.762,0.000
1709206293.144,-44.434,-45.898,-41.016,-41.016,0.000
1709206293.148,-39.551,-62.988,-43.945,-50.781,0.000
1709206293.152,-21.484,-43.945,-41.992,-38.086,0.000
1709206293.156,-23.438,-28.809,-42.480,-41.016,0.000
1709206293.159,-36.621,-47.852,-43.457,-60.059,0.000
1709206293.163,-45.898,-57.129,-38.574,-53.711,0.000
1709206293.167,-34.668,-39.062,-36.133,-43.457,0.000
1709206293.171,-22.949,-24.902,-36.133,-43.457,0.000
1709206293.175,-33.691,-41.504,-33.691,-28.320,0.000
1709206293.179,-44.922,-58.105,-36.133,-31.738,0.000
1709206293.183,-59.570,-42.969,-40.527,-50.293,0.000
1709206293.187,-56.641,-41.992,-42.480,-49.805,0.000
1709206293.191,-43.457,-50.781,-42.480,-44.922,0.000
1709206293.195,-51.758,-55.664,-39.062,-49.805,0.000
1709206293.199,-68.359,-48.828,-37.109,-58.105,0.000
1709206293.202,-72.754,-36.133,-35.645,-54.688,0.000
1709206293.206,-66.895,-69.824,-32.715,-34.668,0.000
1709206293.210,-56.641,-80.078,-34.180,-26.367,0.000
1709206293.214,-50.293,-40.527,-37.598,-39.062,0.000
1709206293.218,-54.688,-52.246,-41.504,-43.945,0.000
1709206293.222,-58.105,-53.711,-41.016,-48.828,0.000
1709206293.226,-52.246,-42.969,-37.109,-48.828,0.000
1709206293.230,-45.898,-34.668,-35.645,-33.691,0.000
1709206293.234,-34.180,-35.156,-34.180,-20.020,0.000
1709206293.238,-34.668,-48.828,-31.738,-18.555,0.000
1709206293.242,-41.504,-58.594,-30.762,-36.621,0.000
1709206293.245,-39.062,-50.293,-32.715,-44.922,0.000
1709206293.249,-21.484,-40.039,-32.715,-40.527,0.000
1709206293.253,-13.184,-59.082,-34.668,-30.273,0.000
1709206293.257,-22.949,-41.504,-33.691,-28.809,0.000
1709206293.261,-38.086,-29.785,-33.691,-43.945,0.000
1709206293.265,-46.387,-51.758,-34.180,-45.898,0.000
1709206293.269,-39.062,-49.805,-40.039,-37.598,0.000
1709206293.273,-28.809,-39.062,-42.480,-35.645,0.000
1709206293.277,-17.578,-38.086,-38.574,-44.434,0.000
1709206293.281,-28.320,-49.805,-41.016,-46.875,0.000
1709206293.284,-45.898,-57.617,-40.527,-40.527,0.000
1709206293.288,-31.738,-49.316,-36.621,-34.668,0.000
1709206293.292,-17.090,-37.109,-36.133,-27.344,0.000
1709206293.296,-12.695,-53.223,-36.621,-16.602,0.000
1709206293.300,-29.785,-59.082,-38.574,-22.949,0.000
1709206293.304,-54.199,-35.645,-40.527,-47.852,0.000
1709206293.308,-51.758,-40.527,-43.457,-45.410,0.000
1709206293.312,-30.762,-31.738,-42.969,-28.809,0.000
1709206293.316,-20.508,-23.926,-45.410,-42.480,0.000
1709206293.320,-45.898,-34.180,-46.387,-49.805,0.000
1709206293.324,-65.918,-50.293,-41.016,-32.715,0.000
1709206293.327,-46.387,-50.781,-40.039,-33.203,0.000
1709206293.331,-29.297,-42.480,-43.457,-40.527,0.000
1709206293.335,-23.926,-43.457,-40.039,-33.203,0.000
1709206293.339,-21.484,-41.504,-33.203,-26.855,0.000
1709206293.343,-32.227,-53.223,-37.598,-26.367,0.000
1709206293.347,-36.621,-42.969,-49.805,-37.598,0.000
1709206293.351,-22.949,-20.020,-50.781,-44.922,0.000
1709206293.355,-19.043,-30.762,-43.457,-37.109,0.000
1709206293.359,-27.344,-45.410,-43.457,-41.992,0.000
1709206293.363,-40.039,-44.434,-43.945,-49.805,0.000
1709206293.366,-49.316,-43.457,-43.457,-48.340,0.000
1709206293.370,-36.133,-52.734,-42.969,-42.969,0.000
1709206293.374,-24.414,-44.434,-33.691,-37.598,0.000
1709206293.378,-28.809,-40.527,-36.621,-40.039,0.000
1709206293.382,-45.410,-63.477,-43.945,-50.293,0.000
1709206293.386,-42.969,-75.195,-36.133,-42.969,0.000
1709206293.390,-22.461,-52.734,-36.133,-21.973,0.000
1709206293.394,-19.043,-22.461,-35.645,-27.344,0.000
1709206293.398,-31.250,-50.293,-37.109,-44.434,0.000
1709206293.402,-42.969,-61.523,-43.945,-49.805,0.000
1709206293.406,-29.785,-43.945,-40.039,-45.898,0.000
1709206293.409,-30.273,-35.156,-41.504,-33.203,0.000
1709206293.413,-33.691,-42.480,-44.434,-19.531,0.000
1709206293.417,-28.320,-50.781,-37.109,-17.090,0.000
1709206293.421,-40.039,-46.387,-33.691,-28.320,0.000
1709206293.425,-51.270,-50.781,-38.086,-28.809,0.000
1709206293.429,-40.039,-53.223,-35.645,-24.902,0.000
1709206293.433,-18.066,-63.477,-33.691,-8.301,0.000
1709206293.437,-29.785,-50.293,-37.109,-20.020,0.000
1709206293.441,-57.129,-35.156,-38.574,-41.504,0.000
1709206293.445,-50.781,-54.199,-36.621,-35.156,0.000
1709206293.448,-25.879,-47.363,-36.621,-31.250,0.000
1709206293.452,-24.902,-32.715,-39.551,-22.461,0.000
1709206293.456,-36.133,-40.039,-36.133,-30.762,0.000
1709206293.460,-46.875,-60.547,-40.039,-43.457,0.000
1709206293.464,-64.453,-63.965,-46.875,-47.852,0.000
1709206293.468,-58.105,-40.039,-43.457,-44.434,0.000
1709206293.472,-39.551,-32.227,-40.527,-33.691,0.000
1709206293.476,-35.156,-63.965,-38.086,-22.461,0.000
1709206293.480,-48.340,-69.824,-41.992,-25.391,0.000
1709206293.484,-61.523,-36.621,-42.480,-35.645,0.000
1709206293.487,-46.387,-31.738,-35.645,-29.785,0.000
1709206293.491,-17.090,-46.387,-34.668,-27.344,0.000
1709206293.495,-28.320,-45.410,-38.574,-40.039,0.000
1709206293.499,-48.340,-34.180,-43.945,-50.293,0.000
1709206293.503,-55.176,-53.223,-43.457,-45.898,0.000
1709206293.507,-60.547,-49.316,-36.621,-34.180,0.000
1709206293.511,-49.316,-39.062,-38.086,-43.457,0.000
1709206293.515,-34.180,-43.457,-43.945,-55.176,0.000
1709206293.519,-48.340,-49.805,-38.086,-49.316,0.000
1709206293.523,-65.430,-66.895,-35.156,-39.551,0.000
1709206293.527,-61.523,-58.594,-38.574,-31.250,0.000
1709206293.531,-39.062,-37.598,-36.133,-17.090,0.000
1709206293.534,-28.809,-50.293,-33.691,-11.719,0.000
1709206293.538,-36.621,-75.684,-33.691,-13.672,0.000
1709206293.542,-40.039,-52.734,-36.621,-27.344,0.000
1709206293.546,-41.992,-31.250,-37.598,-43.457,0.000
1709206293.550,-32.227,-42.969,-34.668,-32.227,0.000
1709206293.554,-19.531,-43.457,-33.691,-20.508,0.000
1709206293.558,-22.461,-42.480,-35.645,-36.621,0.000
1709206293.562,-46.875,-52.246,-35.156,-48.828,0.000
1709206293.566,-55.664,-61.035,-37.109,-45.410,0.000
1709206293.570,-36.621,-59.570,-38.574,-39.551,0.000
1709206293.573,-25.879,-38.574,-41.504,-35.156,0.000
1709206293.577,-36.621,-37.598,-40.039,-39.551,0.000
1709206293.581,-47.363,-61.035,-33.691,-40.527,0.000
1709206293.585,-46.387,-65.430,-31.738,-34.180,0.000
1709206293.589,-37.109,-39.062,-34.668,-32.715,0.000
1709206293.593,-19.531,-30.273,-32.715,-33.203,0.000
1709206293.597,-7.324,-63.965,-35.156,-34.180,0.000
1709206293.601,-27.832,-60.059,-44.922,-42.480,0.000
1709206293.605,-55.176,-37.598,-41.016,-50.293,0.000
1709206293.609,-56.641,-53.223,-36.133,-48.340,0.000
1709206293.613,-42.480,-55.176,-39.551,-45.898,0.000
1709206293.616,-35.156,-50.781,-41.016,-44.434,0.000
1709206293.620,-60.059,-57.617,-38.574,-50.781,0.000
1709206293.624,-73.730,-63.477,-39.062,-49.805,0.000
1709206293.628,-57.129,-73.730,-41.016,-38.574,0.000
1709206293.632,-46.875,-51.270,-41.504,-39.551,0.000
1709206293.636,-45.898,-31.738,-43.457,-43.457,0.000
1709206293.640,-46.387,-59.082,-44.434,-48.828,0.000
1709206293.644,-63.477,-64.453,-42.480,-66.895,0.000
1709206293.648,-66.895,-44.434,-41.992,-67.383,0.000
1709206293.652,-43.457,-41.992,-40.527,-47.852,0.000
1709206293.656,-32.715,-57.129,-42.969,-42.969,0.000
1709206293.659,-46.387,-63.477,-41.016,-50.293,0.000
1709206293.663,-61.523,-64.453,-37.598,-60.547,0.000
1709206293.667,-57.617,-53.223,-36.621,-59.082,0.000
1709206293.671,-33.691,-56.152,-41.992,-47.852,0.000
1709206293.675,-33.203,-60.059,-42.969,-45.898,0.000
1709206293.679,-58.594,-35.645,-41.016,-57.617,0.000
1709206293.683,-68.848,-42.480,-44.434,-59.570,0.000
1709206293.687,-59.082,-49.316,-41.504,-48.340,0.000
1709206293.691,-38.574,-45.898,-43.457,-41.504,0.000
1709206293.695,-26.855,-42.969,-42.969,-39.551,0.000
1709206293.698,-41.992,-54.199,-41.504,-47.852,0.000
1709206293.702,-61.523,-65.430,-49.316,-59.570,0.000
1709206293.706,-46.387,-47.363,-44.922,-48.828,0.000
1709206293.710,-31.738,-39.551,-40.039,-38.574,0.000
1709206293.714,-28.809,-40.527,-45.410,-41.016,0.000
1709206293.718,-38.574,-57.129,-41.504,-32.715,0.000
1709206293.722,-45.410,-46.387,-37.598,-39.551,0.000
1709206293.726,-46.875,-27.832,-43.457,-53.223,0.000
1709206293.730,-54.688,-39.551,-40.039,-39.551,0.000
1709206293.734,-42.969,-44.922,-39.062,-33.691,0.000
1709206293.738,-45.410,-45.410,-40.527,-40.527,0.000
1709206293.741,-57.617,-45.898,-35.645,-45.410,0.000
1709206293.745,-54.199,-53.711,-35.645,-48.340,0.000
1709206293.749,-37.109,-44.922,-38.574,-39.551,0.000
1709206293.753,-22.461,-38.086,-42.969,-24.414,0.000
1709206293.757,-30.273,-49.805,-46.387,-28.320,0.000
1709206293.761,-48.828,-63.477,-42.480,-37.598,0.000
1709206293.765,-49.805,-60.059,-38.086,-29.297,0.000
1709206293.769,-32.715,-28.809,-41.992,-36.133,0.000
1709206293.773,-17.090,-40.039,-40.527,-34.180,0.000
1709206293.777,-20.996,-48.828,-38.574,-25.879,0.000
1709206293.781,-33.203,-42.480,-43.457,-36.621,0.000
1709206293.784,-44.922,-48.828,-41.016,-41.016,0.000
1709206293.788,-44.922,-53.223,-37.109,-32.227,0.000
1709206293.792,-32.227,-42.969,-41.016,-30.273,0.000
1709206293.796,-28.320,-30.273,-39.551,-39.062,0.000
1709206293.800,-35.645,-41.992,-36.133,-49.805,0.000
1709206293.804,-51.758,-59.570,-36.133,-55.176,0.000
1709206293.808,-35.645,-65.430,-31.738,-38.574,0.000
1709206293.812,-23.926,-41.992,-33.691,-32.715,0.000
1709206293.816,-33.691,-21.484,-32.715,-39.062,0.000
1709206293.820,-43.945,-47.363,-29.297,-40.527,0.000
1709206293.823,-55.176,-66.406,-36.621,-47.363,0.000
1709206293.827,-42.480,-43.945,-35.156,-43.457,0.000
1709206293.831,-32.715,-27.832,-35.156,-40.527,0.000
1709206293.835,-41.504,-44.922,-40.527,-39.551,0.000
1709206293.839,-62.500,-59.570,-40.039,-44.434,0.000
1709206293.843,-72.754,-53.223,-41.504,-50.781,0.000
1709206293.847,-64.941,-48.828,-39.551,-50.293,0.000
1709206293.851,-44.922,-61.523,-38.086,-44.434,0.000
1709206293.855,-27.344,-55.664,-40.039,-35.156,0.000
1709206293.859,-42.969,-29.297,-43.457,-40.527,0.000
1709206293.862,-61.035,-44.434,-42.969,-58.594,0.000
1709206293.866,-56.152,-62.012,-42.969,-62.012,0.000
1709206293.870,-25.879,-44.434,-41.992,-44.922,0.000
1709206293.874,-27.344,-29.297,-45.898,-39.551,0.000
1709206293.878,-56.152,-45.410,-49.316,-39.551,0.000
1709206293.882,-63.965,-54.688,-48.828,-48.828,0.000
1709206293.886,-65.430,-53.223,-51.270,-60.059,0.000
1709206293.890,-53.223,-43.945,-50.781,-55.176,0.000
1709206293.894,-41.992,-43.457,-46.387,-47.852,0.000
1709206293.898,-40.527,-59.570,-43.945,-43.945,0.000
1709206293.902,-44.434,-61.035,-45.898,-46.875,0.000
1709206293.905,-53.223,-49.316,-43.457,-56.152,0.000
1709206293.909,-38.574,-47.852,-40.527,-49.316,0.000
1709206293.913,-19.531,-49.805,-41.992,-32.715,0.000
1709206293.917,-15.625,-31.738,-43.945,-41.992,0.000
1709206293.921,-37.109,-30.762,-45.898,-45.898,0.000
1709206293.925,-69.824,-53.711,-46.387,-44.434,0.000
1709206293.929,-57.129,-58.105,-47.363,-50.293,0.000
1709206293.933,-39.551,-41.992,-50.781,-33.691,0.000
1709206293.937,-47.363,-44.434,-47.852,-36.133,0.000
1709206293.941,-60.547,-61.035,-45.898,-51.758,0.000
1709206293.945,-65.430,-67.383,-48.828,-49.805,0.000
1709206293.948,-52.734,-45.410,-45.410,-43.457,0.000
1709206293.952,-41.504,-26.855,-47.852,-41.504,0.000
1709206293.956,-43.457,-59.570,-45.898,-43.945,0.000
1709206293.960,-56.152,-76.172,-34.180,-42.480,0.000
1709206293.964,-64.941,-41.992,-36.133,-47.363,0.000
1709206293.968,-44.434,-35.156,-42.969,-43.945,0.000
1709206293.972,-23.438,-43.457,-38.574,-28.320,0.000
1709206293.976,-13.672,-39.551,-33.691,-22.461,0.000
1709206293.980,-20.020,-37.598,-33.203,-32.715,0.000
1709206293.984,-36.133,-50.781,-30.762,-35.156,0.000
1709206293.988,-36.133,-60.059,-32.715,-28.809,0.000
1709206293.991,-29.297,-58.594,-35.645,-25.391,0.000
1709206293.995,-23.926,-46.387,-33.691,-33.203,0.000
1709206293.999,-39.062,-51.758,-36.133,-41.016,0.000
1709206294.003,-56.641,-80.078,-35.156,-29.297,0.000
1709206294.007,-47.852,-48.340,-35.645,-36.621,0.000
1709206294.011,-25.879,-18.555,-45.410,-52.734,0.000
1709206294.015,-22.461,-44.922,-46.387,-49.805,0.000
1709206294.019,-34.668,-57.617,-43.457,-49.316,0.000
1709206294.023,-38.086,-46.387,-43.457,-54.688,0.000
1709206294.027,-39.062,-45.898,-43.457,-54.199,0.000
1709206294.031,-41.016,-54.688,-45.410,-41.504,0.000
1709206294.034,-31.738,-48.828,-46.387,-32.715,0.000
1709206294.038,-40.039,-54.199,-37.109,-39.062,0.000
1709206294.042,-52.734,-54.199,-30.273,-44.434,0.000
1709206294.046,-53.223,-60.547,-40.039,-35.645,0.000
1709206294.050,-41.016,-58.105,-44.922,-25.391,0.000
1709206294.054,-26.367,-28.320,-38.574,-29.785,0.000
1709206294.058,-32.227,-37.109,-39.062,-39.062,0.000
1709206294.062,-51.270,-52.246,-42.480,-48.340,0.000
1709206294.066,-49.805,-49.805,-35.156,-43.945,0.000
1709206294.070,-31.250,-37.109,-30.762,-40.039,0.000
1709206294.073,-21.484,-50.293,-39.062,-41.016,0.000
1709206294.077,-31.738,-58.594,-41.992,-34.180,0.000
1709206294.081,-49.805,-54.688,-42.969,-32.715,0.000
1709206294.085,-39.062,-58.105,-42.969,-39.062,0.000
1709206294.089,-33.203,-57.129,-42.480,-38.086,0.000
1709206294.093,-28.809,-62.988,-44.434,-18.066,0.000
1709206294.097,-27.832,-39.062,-43.457,-15.625,0.000
1709206294.101,-41.992,-26.367,-39.551,-36.133,0.000
1709206294.105,-45.410,-50.293,-32.227,-33.691,0.000
1709206294.109,-42.480,-58.105,-36.133,-37.598,0.000
1709206294.113,-26.367,-42.969,-36.621,-39.551,0.000
1709206294.116,-21.484,-38.574,-31.738,-29.785,0.000
1709206294.120,-35.645,-56.641,-29.785,-40.527,0.000
1709206294.124,-45.898,-56.152,-23.926,-42.480,0.000
1709206294.128,-35.645,-36.621,-25.879,-28.809,0.000
1709206294.132,-15.137,-38.086,-32.715,-25.879,0.000
1709206294.136,-17.578,-56.152,-34.668,-18.066,0.000
1709206294.140,-43.945,-58.105,-30.762,-18.555,0.000
1709206294.144,-55.176,-32.227,-33.203,-38.574,0.000
1709206294.148,-47.852,-46.875,-38.574,-41.992,0.000
1709206294.152,-28.809,-46.875,-36.133,-35.156,0.000
1709206294.155,-23.926,-25.391,-31.250,-32.715,0.000
1709206294.159,-39.551,-29.785,-33.691,-32.227,0.000
1709206294.163,-55.176,-48.828,-38.574,-40.527,0.000
1709206294.167,-48.340,-50.781,-35.156,-54.688,0.000
1709206294.171,-25.391,-32.715,-31.250,-47.852,0.000
1709206294.175,-13.184,-30.762,-37.109,-42.969,0.000
1709206294.179,-32.227,-47.363,-40.039,-45.898,0.000
1709206294.183,-37.109,-60.059,-33.203,-30.762,0.000
1709206294.187,-25.391,-43.457,-34.180,-30.273,0.000
1709206294.191,-5.371,-24.414,-41.016,-39.062,0.000
1709206294.195,10.254,-31.250,-34.668,-31.738,0.000
1709206294.198,-14.160,-45.410,-30.273,-30.762,0.000
1709206294.202,-38.574,-40.527,-40.039,-40.039,0.000
1709206294.206,-50.781,-28.320,-44.922,-50.293,0.000
1709206294.210,-42.969,-34.180,-45.898,-51.758,0.000
1709206294.214,-35.156,-41.016,-47.363,-56.641,0.000
1709206294.218,-38.086,-30.762,-42.969,-65.918,0.000
1709206294.222,-51.270,-37.598,-43.457,-75.195,0.000
1709206294.226,-59.570,-62.988,-44.922,-67.871,0.000
1709206294.230,-46.387,-50.781,-42.480,-50.293,0.000
1709206294.234,-36.621,-20.996,-44.434,-55.664,0.000
1709206294.237,-29.785,-30.762,-41.992,-59.570,0.000
1709206294.241,-48.340,-72.266,-42.480,-50.293,0.000
1709206294.245,-75.684,-76.172,-46.387,-45.410,0.000
1709206294.249,-59.570,-41.016,-44.434,-48.340,0.000
1709206294.253,-44.434,-43.945,-42.969,-45.410,0.000
1709206294.257,-58.105,-59.082,-47.363,-42.969,0.000
1709206294.261,-73.730,-58.105,-44.434,-47.852,0.000
1709206294.265,-79.102,-49.805,-38.574,-58.594,0.000
1709206294.269,-63.477,-50.293,-37.109,-53.711,0.000
1709206294.273,-41.992,-56.641,-33.691,-33.203,0.000
1709206294.277,-54.688,-53.711,-37.598,-41.992,0.000
1709206294.280,-74.219,-41.504,-35.156,-54.688,0.000
1709206294.284,-77.148,-49.805,-31.250,-47.363,0.000
1709206294.288,-64.453,-62.988,-37.598,-36.621,0.000
1709206294.292,-52.246,-43.945,-39.551,-30.762,0.000
1709206294.296,-39.551,-41.504,-39.062,-37.109,0.000
1709206294.300,-46.875,-61.523,-37.598,-39.551,0.000
1709206294.304,-72.754,-65.918,-35.156,-38.086,0.000
1709206294.308,-60.547,-50.293,-33.691,-34.668,0.000
1709206294.312,-36.621,-33.691,-37.109,-33.691,0.000
1709206294.316,-38.086,-42.969,-39.551,-40.527,0.000
1709206294.320,-56.152,-61.523,-39.062,-44.434,0.000
1709206294.323,-62.012,-48.828,-39.551,-50.781,0.000
1709206294.327,-56.152,-32.227,-40.527,-49.805,0.000
1709206294.331,-44.434,-61.523,-38.574,-39.062,0.000
1709206294.335,-40.039,-75.195,-39.551,-34.668,0.000
1709206294.339,-53.711,-40.039,-43.457,-46.387,0.000
1709206294.343,-66.406,-42.480,-40.039,-59.082,0.000
1709206294.347,-55.176,-53.223,-36.133,-49.805,0.000
1709206294.351,-26.367,-40.527,-33.203,-32.715,0.000
1709206294.355,-30.762,-39.551,-36.133,-32.715,0.000
1709206294.359,-46.875,-55.664,-36.133,-33.691,0.000
1709206294.363,-50.293,-57.129,-37.109,-30.762,0.000
1709206294.366,-41.992,-52.734,-39.062,-31.250,0.000
1709206294.370,-30.273,-38.086,-38.086,-33.203,0.000
1709206294.374,-26.367,-30.762,-37.598,-33.203,0.000
1709206294.378,-31.738,-62.988,-35.156,-26.855,0.000
1709206294.382,-45.410,-52.246,-28.809,-27.832,0.000
1709206294.386,-46.387,-31.738,-32.715,-35.645,0.000
1709206294.390,-34.180,-41.016,-38.086,-30.273,0.000
1709206294.394,-32.227,-46.387,-36.621,-24.902,0.000
1709206294.398,-44.922,-48.340,-40.039,-34.180,0.000
1709206294.402,-56.152,-57.617,-37.109,-35.156,0.000
1709206294.405,-56.152,-65.430,-37.109,-38.574,0.000
1709206294.409,-47.852,-58.105,-40.527,-39.062,0.000
1709206294.413,-27.832,-49.316,-42.480,-31.738,0.000
1709206294.417,-30.273,-49.805,-47.363,-39.062,0.000
1709206294.421,-64.453,-68.359,-47.363,-54.688,0.000
1709206294.425,-65.918,-70.801,-46.875,-55.664,0.000
1709206294.429,-47.852,-40.527,-43.457,-54.199,0.000
1709206294.433,-35.156,-39.062,-44.434,-55.176,0.000
1709206294.437,-35.645,-53.223,-46.875,-54.199,0.000
1709206294.441,-42.480,-53.223,-41.016,-54.688,0.000
1709206294.445,-41.016,-41.016,-43.945,-56.641,0.000
1709206294.448,-27.832,-43.457,-46.875,-45.898,0.000
1709206294.452,-11.230,-43.457,-49.316,-36.133,0.000
1709206294.456,-19.531,-40.527,-47.852,-33.203,0.000
1709206294.460,-29.297,-48.340,-42.969,-27.344,0.000
1709206294.464,-29.297,-47.852,-39.551,-29.785,0.000
1709206294.468,-33.691,-58.594,-39.551,-20.996,0.000
1709206294.472,-20.020,-42.480,-41.992,-17.090,0.000
1709206294.476,-19.531,-23.438,-37.109,-26.855,0.000
1709206294.480,-39.551,-39.551,-39.062,-31.250,0.000
1709206294.484,-46.875,-52.734,-38.574,-31.250,0.000
1709206294.487,-36.133,-45.410,-36.621,-27.344,0.000
1709206294.491,-22.461,-38.574,-42.480,-29.785,0.000
1709206294.495,-23.926,-51.758,-41.504,-30.273,0.000
1709206294.499,-36.621,-50.293,-39.062,-36.621,0.000
1709206294.503,-54.688,-43.457,-40.039,-39.551,0.000
1709206294.507,-47.852,-52.246,-41.504,-40.527,0.000
1709206294.511,-27.344,-56.152,-35.645,-37.109,0.000
1709206294.515,-37.598,-50.781,-34.668,-27.344,0.000
1709206294.519,-53.223,-26.855,-39.062,-44.434,0.000
1709206294.523,-60.059,-32.227,-36.621,-60.059,0.000
1709206294.527,-57.617,-40.039,-38.086,-51.758,0.000
1709206294.530,-40.039,-36.621,-37.598,-42.969,0.000
1709206294.534,-29.785,-29.297,-38.086,-40.039,0.000
1709206294.538,-40.039,-31.738,-42.480,-44.434,0.000
1709206294.542,-50.781,-41.504,-38.574,-52.734,0.000
1709206294.546,-56.152,-36.133,-37.598,-52.734,0.000
1709206294.550,-37.598,-39.551,-43.457,-52.246,0.000
1709206294.554,-22.949,-48.828,-39.551,-46.387,0.000
1709206294.558,-43.457,-66.895,-37.598,-41.504,0.000
1709206294.562,-62.012,-47.363,-41.504,-56.641,0.000
1709206294.566,-53.223,-23.438,-42.969,-63.477,0.000
1709206294.569,-42.969,-40.527,-39.551,-54.199,0.000
1709206294.573,-27.832,-43.457,-32.715,-46.875,0.000
1709206294.577,-24.414,-35.645,-38.086,-35.645,0.000
1709206294.581,-38.086,-44.434,-47.363,-44.922,0.000
1709206294.585,-41.016,-57.617,-43.945,-44.922,0.000
1709206294.589,-32.227,-55.176,-41.504,-24.902,0.000
1709206294.593,-22.461,-29.785,-44.434,-28.809,0.000
1709206294.597,-26.855,-31.738,-44.434,-39.062,0.000
1709206294.601,-41.992,-68.359,-44.922,-42.480,0.000
1709206294.605,-44.434,-66.406,-42.480,-40.527,0.000
1709206294.609,-48.828,-33.203,-40.527,-36.133,0.000
1709206294.612,-46.387,-38.086,-41.016,-36.133,0.000
1709206294.616,-40.039,-62.988,-41.016,-41.992,0.000
1709206294.620,-54.688,-62.012,-40.039,-53.711,0.000
1709206294.624,-70.801,-45.898,-38.086,-56.152,0.000
1709206294.628,-60.547,-48.828,-42.969,-47.852,0.000
1709206294.632,-33.203,-52.246,-43.457,-45.410,0.000
1709206294.636,-35.645,-47.363,-42.969,-42.480,0.000
1709206294.640,-60.059,-48.340,-47.852,-41.992,0.000
1709206294.644,-68.848,-60.059,-42.969,-50.781,0.000
1709206294.648,-62.500,-64.453,-35.156,-43.945,0.000
1709206294.652,-44.434,-58.594,-34.668,-37.109,0.000
1709206294.656,-40.527,-44.434,-37.109,-40.039,0.000
1709206294.659,-48.340,-48.340,-39.551,-50.293,0.000
1709206294.663,-67.871,-75.684,-36.133,-48.828,0.000
1709206294.667,-68.848,-54.199,-40.039,-42.480,0.000
1709206294.671,-41.992,-27.344,-43.945,-41.504,0.000
1709206294.675,-29.785,-42.480,-37.598,-44.434,0.000
1709206294.679,-33.691,-58.594,-36.621,-47.852,0.000
1709206294.683,-55.176,-56.641,-37.109,-54.199,0.000
1709206294.687,-52.246,-49.805,-41.016,-56.641,0.000
1709206294.691,-26.855,-51.270,-39.551,-46.875,0.000
1709206294.695,-22.461,-59.082,-33.203,-45.898,0.000
1709206294.699,-27.832,-48.828,-37.109,-48.340,0.000
1709206294.702,-38.574,-42.969,-35.645,-53.223,0.000
1709206294.706,-36.133,-69.336,-37.598,-44.922,0.000
1709206294.710,-22.949,-64.453,-43.457,-26.367,0.000
1709206294.714,-15.625,-23.926,-41.992,-26.367,0.000
1709206294.718,-6.836,-35.156,-39.551,-41.992,0.000
1709206294.722,-29.785,-54.688,-40.039,-57.617,0.000
1709206294.726,-49.805,-47.363,-40.039,-54.199,0.000
1709206294.730,-34.180,-42.480,-38.574,-39.551,0.000
1709206294.734,-19.043,-43.457,-39.551,-28.809,0.000
1709206294.738,-26.855,-54.199,-41.504,-37.598,0.000
1709206294.741,-50.293,-59.570,-41.016,-38.574,0.000
1709206294.745,-52.246,-49.316,-43.457,-38.574,0.000
1709206294.749,-41.504,-41.504,-47.363,-41.504,0.000
1709206294.753,-28.809,-52.246,-40.039,-22.949,0.000
1709206294.757,-29.785,-38.574,-34.668,-19.043,0.000
1709206294.761,-41.504,-34.180,-34.180,-35.645,0.000
1709206294.765,-48.340,-48.340,-36.133,-45.410,0.000
1709206294.769,-42.480,-41.016,-41.504,-45.410,0.000
1709206294.773,-27.344,-31.738,-36.133,-36.133,0.000
1709206294.777,-25.391,-35.645,-32.227,-37.109,0.000
1709206294.781,-40.527,-49.316,-29.785,-45.410,0.000
1709206294.784,-59.570,-57.617,-27.344,-44.434,0.000
1709206294.788,-59.570,-51.270,-31.250,-43.457,0.000
1709206294.792,-33.203,-36.621,-33.691,-38.086,0.000
1709206294.796,-26.855,-53.223,-30.273,-31.738,0.000
1709206294.800,-51.758,-61.523,-34.180,-28.320,0.000
1709206294.804,-66.406,-38.086,-38.086,-33.203,0.000
1709206294.808,-51.758,-40.527,-36.621,-38.574,0.000
1709206294.812,-26.367,-31.738,-31.250,-30.762,0.000
1709206294.816,-20.020,-29.785,-31.738,-26.367,0.000
1709206294.820,-30.762,-32.715,-32.715,-27.344,0.000
1709206294.824,-45.898,-34.668,-32.227,-37.109,0.000
1709206294.827,-40.527,-40.527,-33.691,-43.945,0.000
1709206294.831,-24.902,-34.668,-34.180,-38.086,0.000
1709206294.835,-23.438,-35.645,-29.785,-37.598,0.000
1709206294.839,-30.762,-41.016,-29.297,-39.551,0.000
1709206294.843,-51.270,-66.895,-34.668,-39.062,0.000
1709206294.847,-47.363,-44.922,-37.109,-34.668,0.000
1709206294.851,-25.879,-17.090,-43.945,-41.992,0.000
1709206294.855,-39.551,-39.551,-47.852,-43.457,0.000
1709206294.859,-56.641,-48.340,-49.316,-46.387,0.000
1709206294.863,-70.801,-42.969,-51.270,-54.688,0.000
1709206294.866,-68.848,-35.645,-49.316,-49.316,0.000
1709206294.870,-36.133,-41.016,-45.898,-31.250,0.000
1709206294.874,-18.066,-48.340,-45.410,-25.879,0.000
1709206294.878,-34.180,-48.828,-51.270,-43.945,0.000
1709206294.882,-55.664,-54.688,-45.410,-50.781,0.000
1709206294.886,-57.617,-66.406,-37.598,-39.551,0.000
1709206294.890,-41.992,-56.152,-36.621,-26.855,0.000
1709206294.894,-21.484,-23.438,-34.668,-24.414,0.000
1709206294.898,-23.926,-36.621,-33.203,-29.785,0.000
1709206294.902,-55.664,-53.711,-33.203,-36.621,0.000
1709206294.906,-53.711,-43.457,-30.762,-31.250,0.000
1709206294.909,-38.574,-35.156,-31.738,-22.949,0.000
1709206294.913,-40.039,-37.598,-32.227,-18.066,0.000
1709206294.917,-33.203,-46.875,-30.762,-15.137,0.000
1709206294.921,-40.039,-50.293,-32.227,-20.020,0.000
1709206294.925,-43.945,-49.316,-36.621,-35.645,0.000
1709206294.929,-34.668,-49.805,-42.480,-41.016,0.000
1709206294.933,-34.180,-64.453,-44.434,-32.715,0.000
1709206294.937,-30.273,-48.340,-41.504,-34.180,0.000
1709206294.941,-29.297,-31.250,-41.016,-51.270,0.000
1709206294.945,-39.062,-54.688,-40.039,-51.758,0.000
1709206294.948,-30.273,-54.688,-39.062,-42.480,0.000
1709206294.952,-21.973,-41.016,-39.551,-37.598,0.000
1709206294.956,-15.625,-42.480,-37.598,-39.062,0.000
1709206294.960,-25.391,-66.895,-37.598,-46.387,0.000
1709206294.964,-62.988,-74.219,-36.621,-48.340,0.000
1709206294.968,-55.664,-51.758,-37.109,-46.875,0.000
1709206294.972,-34.180,-42.969,-43.457,-48.340,0.000
1709206294.976,-29.297,-68.359,-41.504,-47.363,0.000
1709206294.980,-40.039,-70.312,-44.434,-51.270,0.000
1709206294.984,-56.641,-37.109,-51.758,-64.941,0.000
1709206294.987,-55.176,-42.969,-46.387,-55.664,0.000
1709206294.991,-30.762,-58.594,-37.598,-36.133,0.000
1709206294.995,-13.672,-48.828,-37.598,-36.133,0.000
1709206294.999,-27.344,-40.039,-40.527,-46.875,0.000
1709206295.003,-51.758,-55.664,-35.645,-45.898,0.000
1709206295.007,-47.852,-62.988,-37.598,-43.945,0.000
1709206295.011,-15.625,-41.504,-41.992,-40.527,0.000
1709206295.015,-1.953,-30.762,-37.598,-31.738,0.000
1709206295.019,-34.180,-52.246,-39.062,-26.855,0.000
1709206295.023,-48.340,-66.406,-40.039,-29.785,0.000
1709206295.027,-39.062,-48.828,-37.598,-37.109,0.000
1709206295.030,-23.438,-27.832,-41.016,-32.715,0.000
1709206295.034,-9.766,-41.016,-37.109,-29.297,0.000
1709206295.038,-20.020,-62.500,-37.109,-30.273,0.000
1709206295.042,-41.504,-45.410,-41.504,-33.203,0.000
1709206295.046,-47.852,-43.945,-38.574,-30.762,0.000
1709206295.050,-24.414,-58.105,-39.551,-23.438,0.000
1709206295.054,-7.324,-40.039,-40.527,-34.668,0.000
1709206295.058,-20.020,-32.227,-39.551,-38.086,0.000
1709206295.062,-26.367,-43.945,-40.039,-41.504,0.000
1709206295.066,-29.785,-61.035,-40.527,-42.969,0.000
1709206295.070,-39.551,-66.406,-40.039,-39.551,0.000
1709206295.073,-35.645,-48.340,-40.039,-41.016,0.000
1709206295.077,-37.109,-34.180,-41.504,-42.480,0.000
1709206295.081,-50.293,-63.965,-38.574,-50.781,0.000
1709206295.085,-57.129,-72.754,-37.598,-48.828,0.000
1709206295.089,-51.270,-29.785,-39.551,-51.270,0.000
1709206295.093,-39.062,-29.785,-41.016,-56.152,0.000
1709206295.097,-34.668,-48.340,-41.016,-56.152,0.000
1709206295.101,-39.062,-50.293,-38.574,-46.875,0.000
1709206295.105,-48.340,-48.828,-38.574,-48.340,0.000
1709206295.109,-43.457,-46.875,-42.480,-50.293,0.000
1709206295.113,-38.574,-50.293,-48.340,-45.898,0.000
1709206295.116,-47.852,-55.664,-47.852,-45.898,0.000
1709206295.120,-49.805,-46.387,-43.457,-49.805,0.000
1709206295.124,-56.152,-49.805,-44.434,-50.781,0.000
1709206295.128,-60.059,-77.148,-44.434,-26.367,0.000
1709206295.132,-45.898,-46.875,-42.480,-18.555,0.000
1709206295.136,-33.691,-24.902,-41.992,-30.762,0.000
1709206295.140,-41.504,-51.758,-37.109,-32.715,0.000
1709206295.144,-56.152,-49.316,-32.715,-31.738,0.000
1709206295.148,-48.340,-33.691,-32.715,-33.691,0.000
1709206295.152,-28.809,-38.086,-26.367,-30.273,0.000
1709206295.156,-11.719,-44.922,-25.879,-19.531,0.000
1709206295.159,-21.973,-52.734,-33.691,-20.508,0.000
1709206295.163,-45.410,-51.270,-36.621,-29.297,0.000
1709206295.167,-43.457,-40.039,-40.527,-28.320,0.000
1709206295.171,-28.809,-57.617,-41.992,-15.625,0.000
1709206295.175,-26.855,-61.035,-40.527,-10.254,0.000
1709206295.179,-35.645,-35.645,-40.527,-25.391,0.000
1709206295.183,-33.203,-44.434,-38.574,-36.133,0.000
1709206295.187,-41.992,-44.434,-38.574,-33.691,0.000
1709206295.191,-34.180,-32.715,-38.086,-26.855,0.000
1709206295.195,-20.996,-34.180,-36.133,-31.250,0.000
1709206295.198,-38.086,-53.711,-38.086,-47.852,0.000
1709206295.202,-64.453,-63.965,-43.945,-60.059,0.000
1709206295.206,-72.266,-49.316,-46.387,-56.641,0.000
1709206295.210,-50.781,-52.246,-47.363,-51.270,0.000
1709206295.214,-36.621,-53.223,-49.805,-50.293,0.000
1709206295.218,-40.527,-65.430,-47.363,-37.598,0.000
1709206295.222,-55.176,-54.199,-48.828,-49.316,0.000
1709206295.226,-55.664,-30.273,-44.922,-60.059,0.000
1709206295.230,-32.715,-40.039,-40.039,-43.457,0.000
1709206295.234,-23.926,-45.898,-42.969,-37.109,0.000
1709206295.238,-22.461,-39.551,-40.039,-43.457,0.000
1709206295.241,-45.410,-43.945,-41.016,-59.570,0.000
1709206295.245,-64.453,-58.105,-36.133,-50.293,0.000
1709206295.249,-47.852,-47.363,-35.645,-33.691,0.000
1709206295.253,-28.809,-38.574,-41.504,-34.180,0.000
1709206295.257,-29.297,-51.758,-39.551,-40.039,0.000
1709206295.261,-48.340,-71.777,-40.039,-46.387,0.000
1709206295.265,-58.105,-62.500,-44.922,-41.992,0.000
1709206295.269,-46.387,-22.949,-45.410,-33.691,0.000
1709206295.273,-27.832,-38.574,-41.504,-26.367,0.000
1709206295.277,-33.203,-58.105,-41.992,-35.156,0.000
1709206295.280,-52.246,-47.852,-45.410,-46.875,0.000
1709206295.284,-49.805,-38.086,-46.875,-51.270,0.000
1709206295.288,-43.945,-47.363,-39.062,-41.992,0.000
1709206295.292,-36.621,-45.410,-32.227,-26.367,0.000
1709206295.296,-33.203,-34.180,-39.062,-34.668,0.000
1709206295.300,-48.340,-39.062,-41.992,-46.387,0.000
1709206295.304,-55.176,-53.711,-40.527,-60.059,0.000
1709206295.308,-43.945,-70.801,-41.504,-50.293,0.000
1709206295.312,-38.574,-49.316,-40.039,-42.480,0.000
1709206295.316,-41.016,-19.043,-39.551,-62.500,0.000
1709206295.320,-50.781,-40.527,-40.039,-59.082,0.000
1709206295.323,-67.383,-53.223,-40.039,-56.641,0.000
1709206295.327,-70.801,-40.527,-41.016,-57.617,0.000
1709206295.331,-56.641,-43.945,-36.621,-49.316,0.000
1709206295.335,-32.227,-45.898,-31.738,-40.039,0.000
1709206295.339,-36.621,-42.969,-35.645,-42.480,0.000
1709206295.343,-70.312,-42.969,-36.621,-45.898,0.000
1709206295.347,-66.406,-45.410,-37.598,-39.551,0.000
1709206295.351,-39.062,-64.453,-41.016,-28.809,0.000
1709206295.355,-26.855,-63.477,-45.898,-33.203,0.000
1709206295.359,-29.785,-33.203,-45.410,-38.086,0.000
1709206295.362,-47.363,-43.457,-41.016,-36.621,0.000
1709206295.366,-55.664,-70.312,-39.551,-28.320,0.000
1709206295.370,-40.527,-52.246,-39.062,-25.879,0.000
1709206295.374,-35.645,-30.273,-37.109,-34.668,0.000
1709206295.378,-36.621,-44.922,-36.133,-33.203,0.000
1709206295.382,-44.922,-49.805,-36.133,-37.598,0.000
1709206295.386,-53.223,-41.016,-30.762,-35.156,0.000
1709206295.390,-38.086,-42.480,-31.738,-28.320,0.000
1709206295.394,-17.578,-40.527,-40.039,-30.273,0.000
1709206295.398,-24.414,-51.758,-41.016,-28.809,0.000
1709206295.402,-54.688,-53.223,-35.645,-33.203,0.000
1709206295.405,-60.547,-35.645,-32.715,-38.574,0.000
1709206295.409,-42.480,-41.504,-33.691,-29.785,0.000
1709206295.413,-31.738,-50.293,-35.156,-23.438,0.000
1709206295.417,-42.480,-30.273,-37.598,-38.086,0.000
1709206295.421,-54.199,-27.344,-41.016,-56.641,0.000
1709206295.425,-56.641,-47.852,-41.504,-60.547,0.000
1709206295.429,-33.691,-42.969,-41.504,-52.246,0.000
1709206295.433,-16.602,-30.273,-39.551,-41.016,0.000
1709206295.437,-46.387,-38.086,-40.039,-41.992,0.000
1709206295.441,-62.012,-54.688,-46.387,-49.316,0.000
1709206295.445,-66.895,-59.570,-48.828,-49.805,0.000
1709206295.448,-57.129,-47.363,-45.410,-43.457,0.000
1709206295.452,-34.180,-29.785,-42.480,-36.621,0.000
1709206295.456,-32.227,-48.340,-41.504,-23.926,0.000
1709206295.460,-44.922,-70.801,-39.551,-24.902,0.000
1709206295.464,-58.594,-36.621,-43.457,-52.734,0.000
1709206295.468,-50.781,-34.180,-41.992,-55.176,0.000
1709206295.472,-29.785,-43.457,-37.598,-37.109,0.000
1709206295.476,-17.578,-36.621,-43.945,-35.645,0.000
1709206295.480,-35.645,-41.504,-47.852,-46.875,0.000
1709206295.484,-58.105,-56.152,-45.410,-47.363,0.000
1709206295.488,-55.664,-63.965,-42.969,-40.039,0.000
1709206295.491,-36.133,-56.641,-42.969,-44.922,0.000
1709206295.495,-20.508,-38.574,-40.039,-45.410,0.000
1709206295.499,-29.297,-35.156,-37.598,-42.969,0.000
1709206295.503,-41.016,-50.781,-34.180,-41.016,0.000
1709206295.507,-49.316,-41.504,-35.645,-32.715,0.000
1709206295.511,-40.527,-23.926,-39.551,-32.227,0.000
1709206295.515,-30.273,-37.109,-38.086,-29.785,0.000
1709206295.519,-22.461,-53.223,-41.016,-29.297,0.000
1709206295.523,-44.434,-34.668,-41.016,-41.992,0.000
1709206295.527,-70.801,-27.832,-41.016,-53.223,0.000
1709206295.531,-48.340,-42.480,-42.480,-46.387,0.000
1709206295.534,-33.203,-47.852,-45.410,-41.992,0.000
1709206295.538,-39.062,-49.316,-42.969,-48.340,0.000
1709206295.542,-53.223,-47.363,-41.992,-48.340,0.000
1709206295.546,-57.617,-60.059,-42.480,-43.457,0.000
1709206295.550,-45.898,-60.059,-40.039,-32.715,0.000
1709206295.554,-36.133,-37.109,-42.969,-35.645,0.000
1709206295.558,-42.969,-55.664,-46.875,-42.480,0.000
1709206295.562,-42.480,-53.223,-35.645,-31.250,0.000
1709206295.566,-28.320,-40.039,-28.320,-24.902,0.000
1709206295.570,-35.156,-40.527,-39.062,-40.527,0.000
1709206295.573,-34.668,-44.434,-40.527,-39.551,0.000
1709206295.577,-27.344,-41.016,-31.250,-29.785,0.000
1709206295.581,-43.945,-38.086,-29.785,-39.062,0.000
1709206295.585,-57.129,-51.270,-30.762,-38.574,0.000
1709206295.589,-47.852,-48.340,-32.715,-37.109,0.000
1709206295.593,-28.809,-60.547,-37.109,-25.391,0.000
1709206295.597,-30.762,-51.758,-37.598,-27.832,0.000
1709206295.601,-47.852,-31.250,-38.574,-48.828,0.000
1709206295.605,-60.547,-55.176,-38.574,-51.758,0.000
1709206295.609,-53.711,-57.129,-40.527,-49.316,0.000
1709206295.613,-30.762,-36.133,-40.039,-45.898,0.000
1709206295.616,-17.578,-46.387,-35.156,-40.039,0.000
1709206295.620,-49.316,-66.895,-35.156,-30.762,0.000
1709206295.624,-62.500,-46.387,-31.250,-31.738,0.000
1709206295.628,-41.016,-32.227,-29.785,-41.504,0.000
1709206295.632,-22.949,-45.410,-35.645,-45.898,0.000
1709206295.636,-24.902,-66.406,-38.574,-40.527,0.000
1709206295.640,-49.316,-68.359,-38.574,-41.504,0.000
1709206295.644,-67.383,-37.109,-35.645,-52.734,0.000
1709206295.648,-52.734,-47.852,-38.086,-51.270,0.000
1709206295.652,-38.086,-53.711,-40.527,-41.504,0.000
1709206295.655,-37.598,-39.062,-38.086,-42.969,0.000
1709206295.659,-46.875,-34.668,-39.062,-50.293,0.000
1709206295.663,-47.852,-43.945,-37.109,-58.594,0.000
1709206295.667,-43.945,-52.734,-39.551,-58.105,0.000
1709206295.671,-44.434,-39.551,-41.504,-41.016,0.000
1709206295.675,-22.949,-41.992,-36.133,-25.391,0.000
1709206295.679,-22.949,-60.547,-37.109,-31.250,0.000
1709206295.683,-39.062,-69.824,-41.016,-26.367,0.000
1709206295.687,-34.668,-46.387,-42.480,-17.578,0.000
1709206295.691,-24.902,-31.738,-41.992,-28.320,0.000
1709206295.694,-19.531,-50.781,-41.504,-22.461,0.000
1709206295.698,-21.484,-48.340,-39.062,-23.438,0.000
1709206295.702,-42.969,-45.410,-40.039,-41.504,0.000
