timestamps,TP9,AF7,AF8,TP10,Right AUX
1709375673.377,-128.418,-45.410,-39.062,-74.707,0.000
1709375673.381,-15.625,-44.434,-37.109,-38.086,0.000
1709375673.385,93.262,-38.574,-37.109,5.371,0.000
1709375673.389,-20.996,-41.992,-43.945,-39.062,0.000
1709375673.392,-140.625,-49.805,-44.434,-93.750,0.000
1709375673.396,-133.301,-55.664,-40.527,-91.309,0.000
1709375673.400,-33.691,-52.246,-37.109,-46.875,0.000
1709375673.404,80.566,-40.039,-40.039,-8.301,0.000
1709375673.408,-8.301,-46.875,-47.852,-46.387,0.000
1709375673.412,-132.324,-54.199,-50.293,-93.750,0.000
1709375673.416,-139.160,-46.387,-52.246,-101.074,0.000
1709375673.420,-45.410,-36.133,-56.641,-66.406,0.000
1709375673.424,85.449,-31.250,-49.316,-7.324,0.000
1709375673.428,26.855,-36.621,-38.086,-13.184,0.000
1709375673.432,-107.422,-48.340,-41.016,-57.617,0.000
1709375673.436,-131.348,-50.781,-40.527,-68.359,0.000
1709375673.440,-55.664,-44.434,-38.086,-37.109,0.000
1709375673.444,83.496,-34.668,-37.109,31.738,0.000
1709375673.448,52.734,-34.180,-34.668,28.809,0.000
1709375673.451,-92.773,-41.992,-40.527,-33.203,0.000
1709375673.455,-124.023,-44.434,-46.875,-48.828,0.000
1709375673.459,-56.641,-51.758,-39.551,-19.043,0.000
1709375673.463,81.543,-42.480,-39.062,33.691,0.000
1709375673.467,71.289,-31.738,-36.133,28.320,0.000
1709375673.471,-81.543,-45.898,-36.133,-37.109,0.000
1709375673.475,-136.719,-52.246,-40.527,-68.359,0.000
1709375673.479,-84.473,-44.922,-40.527,-54.199,0.000
1709375673.483,58.105,-36.621,-42.969,8.789,0.000
1709375673.487,77.637,-41.016,-40.039,16.113,0.000
1709375673.491,-67.383,-50.293,-37.598,-46.387,0.000
1709375673.495,-131.348,-52.246,-34.180,-73.730,0.000
1709375673.499,-92.773,-50.293,-40.527,-63.477,0.000
1709375673.503,47.852,-48.828,-46.387,-13.672,0.000
1709375673.506,94.238,-47.852,-39.062,15.625,0.000
1709375673.510,-51.270,-41.016,-33.203,-37.109,0.000
1709375673.514,-130.859,-40.039,-37.109,-72.266,0.000
1709375673.518,-102.539,-44.434,-33.691,-67.383,0.000
1709375673.522,30.273,-33.691,-31.738,-15.625,0.000
1709375673.526,107.422,-29.785,-35.645,14.648,0.000
1709375673.530,-32.715,-40.039,-31.738,-36.133,0.000
1709375673.534,-125.488,-44.922,-26.855,-70.801,0.000
1709375673.538,-102.539,-42.480,-30.273,-69.824,0.000
1709375673.542,12.695,-33.691,-38.574,-24.902,0.000
1709375673.546,102.539,-29.297,-41.016,21.484,0.000
1709375673.550,-23.926,-43.945,-39.551,-15.137,0.000
1709375673.554,-131.836,-51.270,-42.480,-53.711,0.000
1709375673.558,-118.164,-45.410,-41.992,-58.105,0.000
1709375673.561,-15.625,-35.156,-40.039,-21.484,0.000
1709375673.565,102.539,-31.738,-34.668,33.203,0.000
1709375673.569,8.789,-32.715,-31.738,3.418,0.000
1709375673.573,-117.676,-41.016,-38.086,-41.016,0.000
1709375673.577,-107.910,-42.480,-37.109,-35.156,0.000
1709375673.581,-6.836,-35.156,-34.180,-2.930,0.000
1709375673.585,117.188,-30.273,-34.180,41.016,0.000
1709375673.589,34.668,-32.715,-39.551,12.207,0.000
1709375673.593,-110.352,-44.922,-43.457,-41.992,0.000
1709375673.597,-119.141,-51.270,-37.109,-44.922,0.000
1709375673.601,-32.715,-31.738,-30.762,-21.484,0.000
1709375673.604,100.586,-19.531,-33.691,31.738,0.000
1709375673.608,51.758,-31.738,-34.668,15.137,0.000
1709375673.612,-97.168,-39.551,-29.785,-48.828,0.000
1709375673.616,-128.906,-41.504,-33.203,-67.383,0.000
1709375673.620,-54.199,-36.133,-30.762,-41.504,0.000
1709375673.624,93.750,-29.785,-22.461,18.066,0.000
1709375673.628,67.871,-30.273,-26.855,13.184,0.000
1709375673.632,-92.773,-46.387,-29.297,-49.316,0.000
1709375673.636,-134.277,-52.734,-29.785,-74.707,0.000
1709375673.640,-75.195,-48.828,-31.250,-50.293,0.000
1709375673.643,61.035,-40.527,-32.227,8.789,0.000
1709375673.647,67.383,-37.109,-33.203,13.672,0.000
1709375673.651,-83.496,-49.805,-29.297,-36.621,0.000
1709375673.655,-142.090,-60.059,-29.785,-64.453,0.000
1709375673.659,-97.168,-53.223,-31.250,-52.734,0.000
1709375673.663,51.758,-39.551,-24.902,8.301,0.000
1709375673.667,92.773,-37.598,-20.020,27.344,0.000
1709375673.671,-67.871,-51.270,-30.273,-28.809,0.000
1709375673.675,-151.367,-61.523,-34.668,-52.246,0.000
1709375673.679,-111.328,-56.152,-31.738,-46.875,0.000
1709375673.682,27.344,-45.898,-33.691,-3.418,0.000
1709375673.686,88.867,-47.852,-29.785,37.598,0.000
1709375673.690,-52.246,-52.734,-29.297,-17.090,0.000
1709375673.694,-136.230,-56.152,-34.180,-62.500,0.000
1709375673.698,-100.098,-56.641,-31.250,-54.199,0.000
1709375673.702,27.832,-45.410,-29.785,-6.836,0.000
1709375673.706,114.258,-34.668,-29.785,32.227,0.000
1709375673.710,-18.555,-46.387,-30.762,-18.066,0.000
1709375673.713,-122.070,-59.082,-26.855,-62.500,0.000
1709375673.717,-96.680,-52.246,-26.367,-56.641,0.000
1709375673.721,14.648,-38.574,-28.809,-18.555,0.000
1709375673.725,105.469,-32.715,-27.832,24.414,0.000
1709375673.729,-3.906,-46.387,-29.297,-13.672,0.000
1709375673.733,-115.234,-49.316,-28.809,-62.012,0.000
1709375673.737,-116.211,-42.480,-28.320,-72.266,0.000
1709375673.741,-20.020,-42.969,-29.785,-38.086,0.000
1709375673.745,107.910,-36.621,-29.297,15.625,0.000
1709375673.749,23.926,-33.203,-28.809,-8.789,0.000
1709375673.752,-112.793,-40.039,-29.785,-59.082,0.000
1709375673.756,-126.465,-51.270,-34.180,-63.477,0.000
1709375673.760,-39.551,-47.363,-35.156,-26.855,0.000
1709375673.764,90.820,-36.133,-30.273,21.484,0.000
1709375673.768,21.973,-41.504,-30.273,-3.418,0.000
1709375673.772,-118.652,-55.664,-33.691,-49.316,0.000
1709375673.776,-132.324,-61.035,-36.133,-47.852,0.000
1709375673.780,-62.500,-52.246,-37.109,-30.762,0.000
1709375673.783,69.336,-47.852,-36.621,13.672,0.000
1709375673.787,36.621,-52.246,-36.621,9.277,0.000
1709375673.791,-110.352,-57.617,-40.039,-46.875,0.000
1709375673.795,-145.020,-55.176,-41.992,-70.801,0.000
1709375673.799,-79.102,-50.293,-40.039,-53.711,0.000
1709375673.803,65.918,-47.852,-39.062,5.371,0.000
1709375673.806,63.477,-41.016,-41.992,2.930,0.000
1709375673.810,-81.543,-42.969,-41.504,-59.570,0.000
1709375673.814,-138.672,-49.316,-44.922,-77.148,0.000
1709375673.818,-94.238,-47.852,-43.945,-58.105,0.000
1709375673.822,58.594,-36.621,-39.062,0.000,0.000
1709375673.826,80.566,-32.227,-41.504,7.324,0.000
1709375673.830,-82.031,-47.852,-45.898,-54.688,0.000
1709375673.834,-149.414,-59.570,-44.434,-78.125,0.000
1709375673.838,-105.957,-49.805,-44.922,-73.242,0.000
1709375673.842,40.527,-39.551,-39.551,-26.855,0.000
1709375673.846,91.797,-42.480,-33.691,2.930,0.000
1709375673.850,-67.871,-51.758,-36.621,-54.688,0.000
1709375673.854,-150.879,-49.805,-36.133,-79.102,0.000
1709375673.858,-120.117,-45.898,-37.598,-69.336,0.000
1709375673.862,7.812,-41.016,-36.133,-26.367,0.000
1709375673.865,85.449,-38.086,-35.156,13.672,0.000
1709375673.869,-53.223,-44.434,-41.992,-37.598,0.000
1709375673.873,-154.297,-49.805,-42.480,-76.660,0.000
1709375673.877,-128.906,-51.758,-41.016,-63.477,0.000
1709375673.881,-10.254,-47.852,-42.969,-15.625,0.000
1709375673.885,84.961,-38.574,-42.969,18.555,0.000
1709375673.889,-34.668,-43.945,-44.922,-25.879,0.000
1709375673.893,-139.648,-47.363,-44.922,-71.777,0.000
1709375673.897,-126.465,-42.480,-41.504,-75.684,0.000
1709375673.901,-19.531,-33.691,-40.039,-41.992,0.000
1709375673.905,99.121,-19.531,-43.457,5.371,0.000
1709375673.909,-7.324,-28.809,-45.898,-29.297,0.000
1709375673.913,-130.859,-44.434,-46.387,-80.566,0.000
1709375673.916,-130.859,-39.551,-49.316,-88.867,0.000
1709375673.920,-39.551,-24.414,-52.246,-57.129,0.000
1709375673.924,100.098,-21.973,-54.199,5.371,0.000
1709375673.928,23.438,-30.273,-48.340,-13.672,0.000
1709375673.932,-126.953,-34.668,-37.109,-84.961,0.000
1709375673.936,-148.926,-43.945,-32.715,-97.656,0.000
1709375673.940,-65.918,-47.852,-28.809,-54.688,0.000
1709375673.944,72.754,-44.434,-18.555,3.906,0.000
1709375673.948,19.043,-57.129,-6.836,-7.812,0.000
1709375673.952,-128.906,-77.637,-0.488,-58.105,0.000
1709375673.956,-162.109,-92.773,7.324,-76.172,0.000
1709375673.960,-106.934,-100.098,12.207,-63.477,0.000
1709375673.963,22.949,-97.656,12.695,-15.625,0.000
1709375673.967,-13.672,-110.352,21.973,-26.855,0.000
1709375673.971,-165.039,-136.230,28.320,-79.590,0.000
1709375673.975,-210.449,-141.113,25.879,-105.957,0.000
1709375673.979,-166.992,-136.719,31.250,-90.820,0.000
1709375673.983,-21.484,-133.789,41.504,-29.297,0.000
1709375673.987,-8.301,-139.648,43.945,-18.555,0.000
1709375673.991,-155.762,-149.902,42.480,-76.172,0.000
1709375673.995,-205.566,-150.391,45.410,-92.285,0.000
1709375673.999,-156.250,-148.438,48.828,-67.871,0.000
1709375674.003,-6.348,-141.113,53.711,-8.789,0.000
1709375674.006,50.293,-138.184,57.129,28.320,0.000
1709375674.010,-78.125,-143.555,58.105,-9.766,0.000
1709375674.014,-137.695,-147.461,52.734,-28.320,0.000
1709375674.018,-101.074,-145.508,41.992,-7.324,0.000
1709375674.022,48.340,-129.883,46.387,45.410,0.000
1709375674.026,131.348,-120.117,46.387,86.914,0.000
1709375674.030,-1.465,-129.883,34.180,48.340,0.000
1709375674.034,-76.172,-130.371,28.320,15.137,0.000
1709375674.038,-32.715,-117.188,29.297,33.203,0.000
1709375674.041,102.051,-102.539,24.902,98.145,0.000
1709375674.045,187.012,-91.309,14.160,142.578,0.000
1709375674.049,47.852,-86.426,9.277,92.773,0.000
1709375674.053,-52.246,-88.867,4.883,52.246,0.000
1709375674.057,-26.367,-89.355,0.000,53.711,0.000
1709375674.061,86.426,-77.148,-2.930,86.426,0.000
1709375674.065,188.965,-59.082,-9.277,108.887,0.000
1709375674.069,72.754,-59.082,-21.484,59.570,0.000
1709375674.073,-41.992,-66.406,-24.414,25.879,0.000
1709375674.077,-44.922,-64.941,-26.367,19.043,0.000
1709375674.080,36.133,-58.105,-36.133,41.992,0.000
1709375674.084,158.203,-45.410,-41.016,89.355,0.000
1709375674.088,87.402,-53.223,-40.527,64.941,0.000
1709375674.092,-47.363,-60.547,-41.504,11.230,0.000
1709375674.096,-62.012,-57.129,-42.480,7.812,0.000
1709375674.100,28.809,-52.246,-42.969,34.180,0.000
1709375674.104,157.715,-44.922,-42.480,87.891,0.000
1709375674.108,88.379,-41.016,-41.504,71.777,0.000
1709375674.112,-54.688,-39.551,-40.039,5.371,0.000
1709375674.115,-76.172,-42.480,-41.504,-12.695,0.000
1709375674.119,-9.766,-40.527,-41.992,10.254,0.000
1709375674.123,133.301,-30.273,-41.016,68.359,0.000
1709375674.127,106.445,-37.109,-43.457,50.781,0.000
1709375674.131,-50.293,-51.758,-44.434,-10.254,0.000
1709375674.135,-95.215,-48.828,-44.922,-25.391,0.000
1709375674.139,-39.062,-42.969,-46.875,-17.090,0.000
1709375674.142,108.887,-35.645,-43.457,38.574,0.000
1709375674.146,108.887,-36.621,-41.016,51.270,0.000
1709375674.150,-33.691,-45.898,-40.039,6.348,0.000
1709375674.154,-82.031,-37.598,-38.086,-27.344,0.000
1709375674.158,-42.480,-32.227,-40.527,-30.762,0.000
1709375674.162,98.633,-21.973,-38.574,21.484,0.000
1709375674.166,119.141,-17.578,-43.945,34.668,0.000
1709375674.170,-38.086,-31.738,-45.898,-24.414,0.000
1709375674.173,-104.004,-33.203,-41.016,-51.758,0.000
1709375674.177,-63.477,-29.297,-41.504,-41.016,0.000
1709375674.181,72.754,-28.320,-42.480,15.625,0.000
1709375674.185,120.605,-26.367,-41.504,44.434,0.000
1709375674.189,-27.344,-32.227,-41.016,-13.672,0.000
1709375674.193,-111.328,-48.340,-43.457,-52.246,0.000
1709375674.197,-90.820,-48.828,-42.969,-46.387,0.000
1709375674.201,38.086,-32.227,-39.062,4.883,0.000
1709375674.205,122.559,-25.391,-37.598,38.086,0.000
1709375674.208,-16.602,-37.598,-40.527,-14.160,0.000
1709375674.212,-110.352,-44.922,-39.551,-46.387,0.000
1709375674.216,-90.332,-41.504,-32.715,-43.457,0.000
1709375674.221,20.996,-32.227,-30.273,-4.395,0.000
1709375674.224,117.676,-22.461,-32.715,37.598,0.000
1709375674.228,-0.977,-29.297,-37.109,-3.906,0.000
1709375674.232,-114.258,-41.016,-39.551,-48.828,0.000
1709375674.236,-97.656,-41.504,-38.086,-46.387,0.000
1709375674.240,6.348,-36.621,-34.668,-10.254,0.000
1709375674.244,111.816,-29.297,-34.180,31.738,0.000
1709375674.248,18.555,-39.062,-41.992,-2.930,0.000
1709375674.252,-99.609,-50.293,-42.969,-55.176,0.000
1709375674.256,-104.004,-46.875,-41.992,-62.012,0.000
1709375674.260,-18.066,-29.785,-41.016,-35.156,0.000
1709375674.264,106.445,-20.508,-37.598,20.996,0.000
1709375674.268,23.438,-30.762,-39.551,0.488,0.000
1709375674.272,-125.977,-41.504,-49.316,-59.570,0.000
1709375674.275,-140.625,-44.922,-46.875,-76.172,0.000
1709375674.279,-53.711,-39.062,-45.898,-53.223,0.000
1709375674.283,92.285,-31.738,-52.734,16.113,0.000
1709375674.287,49.316,-40.039,-53.223,6.836,0.000
1709375674.291,-117.188,-50.293,-48.340,-67.383,0.000
1709375674.295,-147.461,-53.223,-43.945,-80.566,0.000
1709375674.299,-70.312,-57.129,-41.504,-42.969,0.000
1709375674.303,62.500,-47.363,-42.480,14.648,0.000
1709375674.307,44.434,-41.504,-41.992,3.906,0.000
1709375674.311,-106.934,-62.500,-40.039,-54.199,0.000
1709375674.315,-149.414,-70.312,-33.691,-69.336,0.000
1709375674.319,-95.703,-57.617,-32.227,-52.246,0.000
1709375674.322,46.875,-44.434,-32.715,4.883,0.000
1709375674.326,69.824,-49.316,-32.715,16.602,0.000
1709375674.330,-73.730,-60.547,-35.645,-40.039,0.000
1709375674.334,-135.254,-60.059,-38.574,-67.383,0.000
1709375674.338,-92.773,-55.664,-36.133,-57.617,0.000
1709375674.342,46.387,-46.875,-37.109,0.977,0.000
1709375674.346,85.938,-45.898,-34.668,36.621,0.000
1709375674.350,-61.523,-43.945,-33.691,-27.832,0.000
1709375674.354,-135.742,-45.898,-41.016,-72.266,0.000
1709375674.358,-101.074,-47.852,-45.410,-61.523,0.000
1709375674.362,32.715,-32.227,-42.480,-5.859,0.000
1709375674.365,100.098,-21.973,-41.016,22.461,0.000
1709375674.369,-44.922,-35.645,-41.504,-35.156,0.000
1709375674.373,-140.625,-45.410,-43.457,-73.730,0.000
1709375674.377,-115.234,-42.969,-46.387,-67.871,0.000
1709375674.381,12.695,-37.109,-47.363,-14.160,0.000
1709375674.385,104.980,-33.203,-46.387,32.227,0.000
1709375674.389,-22.461,-43.945,-41.992,-10.254,0.000
1709375674.393,-123.047,-48.828,-41.504,-49.316,0.000
1709375674.397,-117.676,-43.457,-38.574,-64.453,0.000
1709375674.401,-10.742,-31.250,-31.250,-28.320,0.000
1709375674.404,97.168,-32.227,-31.738,23.926,0.000
1709375674.408,-15.625,-43.457,-33.203,-18.066,0.000
1709375674.412,-130.859,-43.457,-32.227,-63.477,0.000
1709375674.416,-120.605,-41.992,-32.227,-62.500,0.000
1709375674.420,-23.438,-36.621,-30.762,-26.855,0.000
1709375674.424,99.609,-26.367,-32.227,27.832,0.000
1709375674.428,23.438,-36.133,-35.645,1.953,0.000
1709375674.432,-112.305,-51.758,-39.062,-56.152,0.000
1709375674.436,-131.348,-59.082,-42.969,-60.547,0.000
1709375674.440,-44.922,-44.434,-37.598,-36.621,0.000
1709375674.444,94.727,-26.855,-34.180,14.160,0.000
1709375674.447,44.922,-36.133,-36.621,6.348,0.000
1709375674.451,-97.656,-48.828,-36.621,-43.457,0.000
1709375674.455,-125.488,-54.199,-42.480,-62.500,0.000
1709375674.459,-59.570,-47.363,-43.945,-47.363,0.000
1709375674.463,80.566,-35.645,-43.457,13.672,0.000
1709375674.467,58.105,-31.250,-42.480,12.207,0.000
1709375674.471,-89.844,-44.434,-39.551,-51.758,0.000
1709375674.475,-135.254,-55.664,-46.387,-75.195,0.000
1709375674.479,-75.195,-52.734,-46.387,-56.152,0.000
1709375674.482,67.383,-32.715,-39.551,4.395,0.000
1709375674.486,60.547,-25.391,-39.062,4.883,0.000
1709375674.490,-84.473,-39.062,-41.992,-53.223,0.000
1709375674.494,-136.230,-45.410,-45.898,-76.172,0.000
1709375674.498,-90.332,-40.527,-44.434,-60.059,0.000
1709375674.502,62.500,-32.715,-38.086,2.930,0.000
1709375674.506,90.332,-34.668,-32.227,29.297,0.000
1709375674.509,-62.500,-42.480,-33.691,-25.879,0.000
1709375674.513,-132.812,-46.875,-38.086,-62.988,0.000
1709375674.517,-96.191,-48.340,-39.062,-57.129,0.000
1709375674.521,44.922,-41.016,-36.133,0.488,0.000
1709375674.525,98.633,-47.852,-36.621,30.273,0.000
1709375674.529,-52.246,-57.129,-40.527,-26.855,0.000
1709375674.533,-140.625,-55.176,-40.527,-63.965,0.000
1709375674.537,-110.840,-52.246,-39.551,-57.129,0.000
1709375674.541,21.484,-41.992,-40.039,-6.836,0.000
1709375674.545,100.098,-34.180,-41.504,30.273,0.000
1709375674.548,-33.203,-41.504,-48.340,-18.066,0.000
1709375674.552,-130.859,-47.852,-46.387,-62.012,0.000
1709375674.556,-117.676,-46.875,-38.574,-66.406,0.000
1709375674.560,-4.883,-37.598,-34.668,-27.344,0.000
1709375674.564,96.680,-33.203,-33.203,18.555,0.000
1709375674.568,-21.484,-47.363,-38.574,-21.973,0.000
1709375674.572,-138.672,-45.898,-40.039,-70.312,0.000
1709375674.575,-128.418,-37.598,-30.762,-70.801,0.000
1709375674.579,-25.879,-44.434,-27.344,-33.691,0.000
1709375674.583,84.473,-46.387,-31.250,13.672,0.000
1709375674.587,-9.766,-46.387,-32.715,-23.926,0.000
1709375674.591,-135.742,-47.363,-37.109,-84.961,0.000
1709375674.595,-127.930,-46.387,-40.527,-88.379,0.000
1709375674.599,-30.762,-43.945,-40.527,-51.270,0.000
1709375674.603,90.820,-39.062,-41.504,0.977,0.000
1709375674.607,19.043,-44.434,-41.016,-25.391,0.000
1709375674.611,-119.629,-55.664,-47.852,-76.660,0.000
1709375674.615,-136.719,-62.500,-51.758,-82.520,0.000
1709375674.619,-58.594,-46.875,-47.363,-57.129,0.000
1709375674.623,87.402,-27.832,-45.410,10.742,0.000
1709375674.627,51.758,-39.551,-41.992,3.906,0.000
1709375674.631,-96.680,-47.363,-38.574,-49.805,0.000
1709375674.634,-130.371,-39.062,-40.039,-74.219,0.000
1709375674.638,-66.406,-40.527,-38.574,-59.570,0.000
1709375674.642,73.242,-33.203,-31.250,6.836,0.000
1709375674.646,71.777,-32.227,-31.250,16.602,0.000
1709375674.650,-81.543,-45.898,-39.551,-42.480,0.000
1709375674.654,-126.953,-48.340,-39.062,-62.500,0.000
1709375674.658,-47.363,-42.480,-35.645,-34.668,0.000
1709375674.662,83.008,-33.691,-36.621,16.602,0.000
1709375674.666,86.914,-30.273,-37.598,19.043,0.000
1709375674.670,-66.406,-40.039,-41.016,-37.598,0.000
1709375674.674,-138.672,-52.246,-42.969,-59.082,0.000
1709375674.678,-97.656,-46.387,-40.039,-49.316,0.000
1709375674.682,43.457,-23.438,-38.086,-2.441,0.000
1709375674.685,87.402,-20.020,-34.668,23.926,0.000
1709375674.689,-62.500,-38.574,-37.598,-35.156,0.000
1709375674.693,-143.555,-42.480,-40.527,-75.684,0.000
1709375674.697,-120.605,-41.504,-43.945,-70.312,0.000
1709375674.701,15.137,-32.227,-42.969,-20.020,0.000
1709375674.705,88.867,-22.461,-38.574,10.254,0.000
1709375674.709,-54.688,-41.504,-43.457,-41.992,0.000
1709375674.713,-147.949,-47.363,-43.945,-73.730,0.000
1709375674.717,-119.629,-39.062,-38.574,-61.523,0.000
1709375674.721,12.695,-36.133,-37.598,-13.184,0.000
1709375674.725,103.516,-18.555,-35.156,17.578,0.000
1709375674.729,-23.926,-22.461,-30.762,-29.785,0.000
1709375674.732,-127.930,-40.039,-30.273,-74.707,0.000
1709375674.736,-115.723,-37.598,-28.809,-74.707,0.000
1709375674.740,-9.766,-29.785,-30.762,-26.855,0.000
1709375674.744,103.027,-23.438,-30.762,21.484,0.000
1709375674.748,2.441,-30.762,-28.809,-15.625,0.000
1709375674.752,-119.629,-38.574,-29.785,-62.500,0.000
1709375674.756,-116.211,-42.480,-32.715,-66.895,0.000
1709375674.760,-28.809,-41.992,-35.645,-37.109,0.000
1709375674.764,95.215,-44.434,-34.180,19.531,0.000
1709375674.768,17.578,-47.852,-33.203,-2.930,0.000
1709375674.771,-126.953,-49.316,-32.715,-67.871,0.000
1709375674.775,-133.301,-57.617,-37.109,-79.102,0.000
1709375674.779,-43.457,-59.570,-36.133,-46.875,0.000
1709375674.783,76.660,-47.852,-34.180,3.906,0.000
1709375674.787,15.137,-42.969,-36.621,-4.883,0.000
1709375674.791,-124.023,-56.152,-37.598,-56.152,0.000
1709375674.795,-145.508,-55.664,-38.086,-74.707,0.000
1709375674.799,-74.707,-43.945,-37.109,-51.270,0.000
1709375674.803,68.359,-34.668,-33.691,6.348,0.000
1709375674.807,44.434,-36.133,-31.250,1.953,0.000
1709375674.810,-90.820,-47.852,-29.297,-42.969,0.000
1709375674.814,-135.742,-45.410,-34.180,-69.824,0.000
1709375674.818,-88.379,-40.039,-37.598,-62.012,0.000
1709375674.822,59.082,-28.809,-37.109,-1.953,0.000
1709375674.826,68.359,-26.855,-39.062,0.977,0.000
1709375674.830,-82.520,-35.645,-38.574,-58.105,0.000
1709375674.834,-143.066,-37.109,-38.574,-82.520,0.000
1709375674.838,-92.773,-39.062,-39.551,-66.406,0.000
1709375674.842,54.199,-34.180,-41.992,-18.555,0.000
1709375674.845,80.566,-28.809,-44.922,1.953,0.000
1709375674.849,-72.754,-38.574,-41.504,-43.945,0.000
1709375674.853,-139.160,-56.152,-40.527,-76.172,0.000
1709375674.857,-107.422,-50.781,-41.992,-67.383,0.000
1709375674.861,24.902,-32.227,-40.039,-15.625,0.000
1709375674.865,89.844,-32.227,-37.598,10.742,0.000
1709375674.869,-60.547,-49.316,-40.527,-49.316,0.000
1709375674.873,-142.090,-55.176,-45.898,-82.031,0.000
1709375674.876,-108.398,-51.270,-44.922,-70.312,0.000
1709375674.880,13.184,-42.969,-37.598,-23.926,0.000
1709375674.884,87.402,-40.039,-38.086,6.348,0.000
1709375674.888,-48.828,-52.734,-45.410,-47.852,0.000
1709375674.892,-143.066,-58.105,-42.969,-85.938,0.000
1709375674.896,-121.582,-56.641,-39.551,-79.590,0.000
1709375674.900,-1.465,-53.711,-38.086,-26.855,0.000
1709375674.904,103.027,-39.062,-36.133,15.625,0.000
1709375674.908,-20.020,-41.504,-39.551,-32.715,0.000
1709375674.912,-134.766,-54.688,-40.039,-78.125,0.000
1709375674.915,-120.605,-49.805,-31.250,-74.707,0.000
1709375674.919,-18.066,-41.504,-31.250,-34.180,0.000
1709375674.924,101.562,-36.133,-32.227,20.996,0.000
1709375674.928,5.859,-44.434,-31.738,-8.301,0.000
1709375674.932,-123.535,-52.734,-37.109,-65.430,0.000
1709375674.935,-122.070,-47.363,-34.180,-70.801,0.000
1709375674.939,-28.809,-41.992,-27.832,-33.691,0.000
1709375674.943,106.445,-39.062,-30.273,20.508,0.000
1709375674.947,35.645,-40.527,-27.832,-0.488,0.000
1709375674.951,-108.887,-42.480,-28.809,-55.176,0.000
1709375674.955,-128.906,-50.781,-35.156,-70.801,0.000
1709375674.959,-56.152,-53.711,-33.691,-44.434,0.000
1709375674.963,88.379,-37.109,-31.738,12.207,0.000
1709375674.967,53.711,-29.297,-32.715,-1.953,0.000
1709375674.971,-90.332,-40.527,-35.645,-60.547,0.000
1709375674.975,-127.930,-46.875,-40.039,-86.426,0.000
1709375674.979,-70.312,-41.016,-40.527,-64.941,0.000
1709375674.983,69.824,-27.344,-43.945,-7.812,0.000
1709375674.986,53.223,-29.297,-44.434,-7.812,0.000
1709375674.990,-100.098,-47.363,-43.945,-62.988,0.000
1709375674.994,-152.832,-47.852,-43.457,-95.215,0.000
1709375674.998,-102.539,-38.574,-39.062,-83.008,0.000
1709375675.002,40.039,-33.203,-40.527,-19.531,0.000
1709375675.006,55.176,-37.598,-42.969,-2.441,0.000
1709375675.010,-89.844,-43.945,-44.434,-62.012,0.000
1709375675.014,-148.438,-48.340,-42.969,-88.379,0.000
1709375675.018,-105.957,-48.828,-43.945,-66.895,0.000
1709375675.022,36.133,-39.062,-40.527,-5.859,0.000
1709375675.026,83.008,-34.180,-33.691,20.020,0.000
1709375675.030,-66.406,-44.434,-37.598,-33.691,0.000
1709375675.034,-143.555,-57.129,-38.086,-62.500,0.000
1709375675.037,-104.980,-50.293,-33.203,-48.340,0.000
1709375675.041,29.297,-39.062,-32.227,-2.441,0.000
1709375675.045,99.609,-36.133,-33.691,27.344,0.000
1709375675.049,-40.039,-43.945,-35.156,-17.578,0.000
1709375675.053,-139.648,-46.387,-34.180,-56.152,0.000
1709375675.057,-123.047,-41.504,-33.203,-55.176,0.000
1709375675.061,-1.953,-40.527,-35.156,-5.371,0.000
1709375675.065,86.426,-36.133,-32.227,29.785,0.000
1709375675.069,-40.527,-43.945,-30.273,-22.949,0.000
1709375675.073,-149.902,-54.688,-34.668,-71.777,0.000
1709375675.077,-138.184,-53.223,-38.086,-75.195,0.000
1709375675.081,-21.484,-46.387,-33.203,-29.297,0.000
1709375675.084,86.426,-37.598,-30.762,17.578,0.000
1709375675.088,-21.973,-44.434,-35.156,-27.832,0.000
1709375675.092,-139.648,-62.988,-41.504,-79.102,0.000
1709375675.096,-141.602,-65.918,-41.016,-71.289,0.000
1709375675.100,-46.387,-47.852,-39.551,-36.621,0.000
1709375675.104,83.984,-33.203,-42.480,4.883,0.000
1709375675.108,8.789,-39.062,-38.574,-28.320,0.000
1709375675.112,-120.117,-48.340,-32.715,-73.242,0.000
1709375675.116,-129.395,-51.270,-35.156,-80.078,0.000
1709375675.120,-47.363,-45.410,-37.109,-53.711,0.000
1709375675.123,98.145,-38.574,-37.109,9.766,0.000
1709375675.127,49.316,-40.039,-39.551,0.000,0.000
1709375675.131,-94.238,-44.434,-41.504,-54.199,0.000
1709375675.135,-121.094,-48.340,-41.992,-71.777,0.000
1709375675.139,-54.199,-41.992,-41.504,-44.434,0.000
1709375675.143,90.820,-28.809,-38.086,20.508,0.000
1709375675.147,74.707,-24.902,-31.250,3.418,0.000
1709375675.151,-79.102,-39.551,-36.133,-65.430,0.000
1709375675.155,-131.348,-51.270,-44.434,-77.148,0.000
1709375675.159,-85.449,-43.457,-44.434,-60.547,0.000
1709375675.162,61.523,-27.344,-41.992,-6.348,0.000
1709375675.166,71.289,-28.320,-39.062,5.371,0.000
1709375675.170,-84.473,-40.527,-41.016,-59.082,0.000
1709375675.174,-140.137,-39.062,-41.992,-89.355,0.000
1709375675.178,-98.145,-39.551,-43.457,-72.266,0.000
1709375675.182,34.668,-36.133,-43.457,-14.160,0.000
1709375675.186,67.383,-40.527,-40.527,8.789,0.000
1709375675.190,-87.402,-47.852,-41.016,-51.270,0.000
1709375675.194,-163.086,-47.363,-41.016,-91.797,0.000
1709375675.198,-116.211,-49.805,-38.574,-79.102,0.000
1709375675.201,27.832,-46.387,-35.645,-21.484,0.000
1709375675.205,85.449,-40.527,-39.062,3.418,0.000
1709375675.209,-55.664,-45.898,-42.480,-41.016,0.000
1709375675.213,-138.184,-54.199,-41.992,-68.848,0.000
1709375675.217,-117.676,-54.688,-42.969,-64.941,0.000
1709375675.221,12.695,-41.504,-44.922,-18.066,0.000
1709375675.225,104.492,-36.133,-48.828,10.254,0.000
1709375675.229,-22.461,-49.805,-43.457,-26.367,0.000
1709375675.233,-120.605,-53.711,-41.504,-52.734,0.000
1709375675.236,-109.863,-42.480,-45.898,-62.012,0.000
1709375675.240,-1.953,-39.551,-46.875,-25.879,0.000
1709375675.244,91.309,-36.133,-45.898,17.090,0.000
1709375675.248,-27.344,-44.434,-47.363,-27.832,0.000
1709375675.252,-138.672,-54.199,-51.270,-77.148,0.000
1709375675.256,-129.883,-54.199,-48.828,-76.660,0.000
1709375675.260,-30.273,-47.363,-43.457,-39.062,0.000
1709375675.263,81.543,-35.156,-39.062,8.301,0.000
1709375675.267,-11.719,-45.898,-43.945,-28.320,0.000
1709375675.271,-139.160,-58.594,-45.410,-72.266,0.000
1709375675.275,-143.555,-60.059,-38.086,-67.383,0.000
1709375675.279,-49.805,-50.781,-34.180,-36.133,0.000
1709375675.283,82.031,-37.109,-39.062,14.648,0.000
1709375675.287,11.719,-44.434,-39.551,-7.324,0.000
1709375675.291,-129.883,-51.758,-38.086,-61.523,0.000
1709375675.295,-151.855,-46.387,-43.945,-77.148,0.000
1709375675.298,-72.266,-44.922,-44.434,-54.688,0.000
1709375675.302,64.941,-36.133,-39.551,5.859,0.000
1709375675.306,27.344,-35.156,-41.504,2.930,0.000
1709375675.310,-115.234,-45.898,-44.434,-52.734,0.000
1709375675.314,-145.508,-46.387,-36.133,-64.453,0.000
1709375675.318,-80.566,-50.781,-40.039,-33.691,0.000
1709375675.322,68.359,-41.504,-43.945,21.973,0.000
1709375675.326,52.734,-28.809,-38.574,16.602,0.000
1709375675.330,-92.773,-38.574,-36.621,-36.133,0.000
1709375675.333,-128.418,-44.922,-32.715,-60.059,0.000
1709375675.337,-78.613,-36.621,-34.180,-56.152,0.000
1709375675.341,65.430,-24.902,-37.598,-3.906,0.000
1709375675.345,82.520,-30.762,-38.086,8.789,0.000
1709375675.349,-70.801,-44.434,-39.062,-49.805,0.000
1709375675.353,-130.371,-44.922,-41.016,-81.055,0.000
1709375675.357,-90.332,-40.527,-43.945,-70.312,0.000
1709375675.361,48.340,-36.133,-46.387,-13.184,0.000
1709375675.365,91.797,-37.109,-43.457,7.324,0.000
1709375675.369,-57.129,-43.457,-43.457,-49.316,0.000
1709375675.373,-133.301,-43.457,-45.898,-81.543,0.000
1709375675.377,-105.469,-45.898,-43.457,-78.125,0.000
1709375675.381,19.531,-40.527,-38.574,-19.043,0.000
1709375675.385,92.285,-25.391,-39.551,12.207,0.000
1709375675.388,-48.828,-35.645,-40.527,-43.945,0.000
1709375675.393,-140.137,-43.457,-38.574,-77.148,0.000
1709375675.397,-118.164,-41.504,-44.434,-71.289,0.000
1709375675.401,-4.395,-34.668,-45.410,-30.273,0.000
1709375675.404,92.773,-29.297,-41.504,12.695,0.000
1709375675.408,-31.250,-43.945,-44.922,-27.344,0.000
1709375675.412,-134.277,-51.758,-43.457,-70.801,0.000
1709375675.416,-117.188,-44.922,-38.574,-70.801,0.000
1709375675.420,-3.418,-40.039,-41.992,-31.738,0.000
1709375675.424,107.910,-40.527,-40.527,21.484,0.000
1709375675.428,-3.418,-43.457,-41.016,-10.742,0.000
1709375675.432,-122.070,-47.363,-41.016,-64.941,0.000
1709375675.436,-114.258,-50.293,-36.621,-73.730,0.000
1709375675.440,-25.391,-42.480,-34.180,-45.410,0.000
1709375675.444,89.844,-33.203,-34.180,10.742,0.000
1709375675.448,14.648,-37.598,-33.691,-13.184,0.000
1709375675.451,-114.258,-43.945,-31.738,-59.082,0.000
1709375675.455,-118.652,-47.363,-29.297,-62.988,0.000
1709375675.459,-38.086,-42.480,-28.320,-36.133,0.000
1709375675.463,98.633,-27.344,-30.273,16.602,0.000
1709375675.467,49.805,-36.133,-34.180,0.977,0.000
1709375675.471,-103.027,-55.176,-40.039,-46.875,0.000
1709375675.475,-125.000,-45.410,-39.062,-63.965,0.000
1709375675.479,-46.875,-28.809,-32.227,-40.527,0.000
1709375675.483,87.891,-19.531,-25.879,23.438,0.000
1709375675.487,61.523,-25.879,-27.344,18.555,0.000
1709375675.491,-84.473,-35.156,-30.273,-33.691,0.000
1709375675.494,-131.836,-40.527,-32.227,-54.688,0.000
1709375675.498,-76.660,-44.922,-35.645,-41.992,0.000
1709375675.502,68.359,-32.715,-37.598,15.137,0.000
1709375675.506,74.219,-27.344,-33.691,18.555,0.000
1709375675.510,-77.637,-41.992,-32.227,-41.016,0.000
1709375675.514,-135.742,-50.293,-37.598,-58.594,0.000
1709375675.518,-90.820,-40.527,-36.133,-41.992,0.000
1709375675.522,53.711,-21.484,-30.273,4.883,0.000
1709375675.526,82.031,-20.996,-31.738,16.113,0.000
1709375675.530,-65.918,-38.574,-32.715,-37.109,0.000
1709375675.533,-128.418,-41.504,-31.250,-62.988,0.000
1709375675.537,-94.238,-35.156,-27.832,-57.617,0.000
1709375675.541,36.133,-33.203,-28.809,-5.859,0.000
1709375675.545,99.609,-35.156,-29.297,28.320,0.000
1709375675.549,-43.945,-43.945,-27.344,-27.832,0.000
1709375675.553,-138.184,-53.223,-33.203,-73.730,0.000
1709375675.557,-109.375,-55.176,-37.598,-67.383,0.000
1709375675.561,22.461,-49.316,-36.133,-1.465,0.000
1709375675.565,100.586,-37.109,-32.715,32.715,0.000
1709375675.569,-30.273,-36.621,-33.691,-17.090,0.000
1709375675.573,-125.488,-45.898,-32.715,-51.758,0.000
1709375675.576,-111.328,-45.410,-31.738,-51.270,0.000
1709375675.580,-1.465,-33.691,-36.621,-14.160,0.000
1709375675.584,99.121,-31.738,-39.551,21.973,0.000
1709375675.588,-14.648,-43.945,-43.457,-14.648,0.000
1709375675.592,-132.812,-47.363,-44.922,-53.223,0.000
1709375675.596,-124.512,-42.480,-38.574,-52.734,0.000
1709375675.600,-30.273,-39.551,-40.039,-26.855,0.000
1709375675.604,79.102,-37.598,-44.922,16.602,0.000
1709375675.607,-14.160,-42.480,-45.898,-15.625,0.000
1709375675.611,-140.625,-44.922,-44.434,-74.219,0.000
1709375675.615,-137.695,-41.992,-41.992,-81.543,0.000
1709375675.619,-46.875,-36.621,-41.992,-53.711,0.000
1709375675.623,79.102,-25.879,-41.016,2.930,0.000
1709375675.627,12.695,-31.250,-41.016,-19.043,0.000
1709375675.631,-129.883,-43.457,-43.945,-79.102,0.000
1709375675.634,-149.414,-44.922,-43.457,-86.426,0.000
1709375675.638,-72.266,-37.109,-42.969,-54.199,0.000
1709375675.642,70.312,-25.879,-35.156,-1.465,0.000
1709375675.646,30.762,-41.016,-34.180,-13.184,0.000
1709375675.650,-119.629,-61.035,-41.504,-59.082,0.000
1709375675.654,-145.996,-56.641,-40.039,-79.102,0.000
1709375675.658,-77.637,-49.805,-39.551,-61.035,0.000
1709375675.662,60.059,-41.992,-38.086,-6.348,0.000
1709375675.666,50.781,-41.992,-34.180,-0.977,0.000
1709375675.670,-98.145,-47.852,-35.156,-55.176,0.000
1709375675.673,-149.414,-52.246,-35.156,-77.148,0.000
1709375675.677,-97.168,-49.316,-35.156,-62.988,0.000
1709375675.681,50.781,-32.715,-33.203,-2.441,0.000
1709375675.685,71.777,-27.344,-32.715,17.090,0.000
1709375675.689,-78.125,-41.992,-39.062,-39.062,0.000
1709375675.693,-141.602,-55.176,-45.898,-70.312,0.000
1709375675.697,-109.375,-50.781,-45.410,-64.941,0.000
1709375675.701,35.156,-27.344,-42.969,-9.766,0.000
1709375675.704,87.402,-20.996,-40.039,19.531,0.000
1709375675.708,-64.453,-42.969,-41.504,-37.109,0.000
1709375675.712,-136.719,-44.922,-44.434,-69.336,0.000
1709375675.716,-102.539,-36.133,-48.340,-58.594,0.000
1709375675.721,31.250,-33.691,-49.805,-14.648,0.000
1709375675.725,97.656,-31.738,-46.387,18.555,0.000
1709375675.728,-44.434,-37.598,-39.551,-20.996,0.000
1709375675.732,-135.742,-41.992,-36.133,-64.453,0.000
1709375675.736,-116.211,-41.504,-34.668,-68.848,0.000
1709375675.740,7.324,-34.668,-28.809,-13.672,0.000
1709375675.744,104.492,-24.902,-27.832,30.273,0.000
1709375675.748,-18.555,-30.273,-30.762,-19.043,0.000
1709375675.752,-127.930,-43.945,-35.156,-62.988,0.000
1709375675.756,-112.305,-49.316,-38.086,-52.734,0.000
1709375675.760,-11.230,-37.598,-40.527,-17.578,0.000
1709375675.764,92.773,-28.320,-37.109,16.113,0.000
1709375675.768,-1.465,-34.180,-34.180,-22.461,0.000
1709375675.772,-119.629,-43.457,-38.086,-74.707,0.000
1709375675.776,-118.652,-42.969,-35.156,-79.590,0.000
1709375675.779,-26.367,-39.062,-36.133,-43.945,0.000
1709375675.783,92.773,-34.180,-43.945,5.859,0.000
1709375675.787,12.207,-36.621,-45.410,-14.160,0.000
1709375675.791,-114.258,-41.504,-44.434,-56.641,0.000
1709375675.795,-121.094,-39.062,-43.457,-63.477,0.000
1709375675.799,-40.527,-41.992,-40.527,-38.086,0.000
1709375675.803,94.238,-31.738,-39.551,20.508,0.000
1709375675.807,46.875,-24.902,-40.039,6.836,0.000
1709375675.811,-101.562,-39.062,-39.551,-54.199,0.000
1709375675.815,-129.883,-44.922,-40.039,-71.289,0.000
1709375675.819,-60.059,-37.598,-38.574,-53.711,0.000
1709375675.823,86.426,-28.809,-42.480,1.465,0.000
1709375675.826,62.012,-32.227,-45.410,-3.418,0.000
1709375675.830,-94.727,-39.062,-43.457,-59.082,0.000
1709375675.834,-140.137,-43.945,-42.480,-80.078,0.000
1709375675.838,-89.355,-41.504,-40.039,-64.941,0.000
1709375675.842,59.082,-34.180,-39.062,-2.930,0.000
1709375675.846,70.801,-40.039,-40.039,14.648,0.000
1709375675.850,-88.379,-44.922,-41.504,-55.176,0.000
1709375675.854,-142.578,-49.316,-41.504,-99.121,0.000
1709375675.858,-93.750,-51.270,-37.598,-82.031,0.000
1709375675.862,47.852,-36.621,-34.668,0.000,0.000
1709375675.866,84.473,-29.785,-31.738,0.000,0.000
1709375675.870,-68.848,-40.039,-32.227,0.000,0.000
1709375675.874,-141.602,-45.898,-36.621,0.000,0.000
1709375675.878,-105.469,-43.945,-38.574,0.000,0.000
1709375675.882,39.062,-34.668,-34.180,0.000,0.000
1709375675.886,93.750,-30.273,-28.320,0.000,0.000
1709375675.890,-60.059,-43.945,-29.785,0.000,0.000
1709375675.894,-147.461,-45.410,-34.668,0.000,0.000
1709375675.898,-124.512,-35.645,-38.574,0.000,0.000
1709375675.902,-3.418,-35.156,-39.062,0.000,0.000
1709375675.905,78.125,-38.086,-38.574,0.000,0.000
1709375675.909,-58.594,-48.340,-41.504,-42.969,0.000
1709375675.913,-165.039,-51.758,-42.480,-85.449,0.000
1709375675.917,-144.043,-49.316,-41.992,-73.730,0.000
1709375675.921,-26.855,-41.016,-42.969,-33.203,0.000
1709375675.925,66.895,-41.992,-44.434,0.977,0.000
1709375675.929,-41.992,-51.270,-46.875,-39.551,0.000
1709375675.933,-150.391,-54.688,-44.434,-77.637,0.000
1709375675.937,-149.902,-61.035,-44.434,-72.754,0.000
1709375675.940,-51.270,-45.898,-44.434,-44.922,0.000
1709375675.944,70.801,-31.738,-44.922,-3.906,0.000
1709375675.948,-14.648,-41.992,-44.434,-30.273,0.000
1709375675.952,-140.137,-44.922,-44.922,-74.707,0.000
1709375675.956,-140.625,-37.598,-44.922,-84.473,0.000
1709375675.960,-52.734,-37.109,-44.434,-58.594,0.000
1709375675.964,82.031,-31.250,-41.992,5.371,0.000
1709375675.968,21.973,-31.738,-40.039,-14.160,0.000
1709375675.971,-112.305,-39.551,-38.574,-75.684,0.000
1709375675.975,-130.859,-41.992,-41.016,-84.473,0.000
1709375675.979,-62.012,-41.016,-41.504,-49.316,0.000
1709375675.983,66.406,-30.762,-39.551,16.602,0.000
1709375675.987,28.320,-32.715,-44.434,-2.441,0.000
1709375675.991,-111.328,-49.805,-41.016,-60.547,0.000
1709375675.995,-141.113,-54.199,-36.133,-71.289,0.000
1709375675.999,-78.125,-49.316,-40.527,-55.176,0.000
1709375676.002,72.754,-32.227,-37.598,11.719,0.000
1709375676.006,67.871,-31.250,-33.691,18.066,0.000
1709375676.010,-84.473,-49.805,-32.227,-42.480,0.000
1709375676.014,-127.930,-43.457,-28.809,-60.059,0.000
1709375676.018,-77.148,-40.527,-34.668,-49.805,0.000
1709375676.022,65.430,-40.527,-35.645,14.648,0.000
1709375676.026,85.449,-44.434,-35.645,43.457,0.000
1709375676.030,-62.988,-48.340,-34.668,-25.879,0.000
1709375676.034,-122.559,-49.805,-30.273,-61.035,0.000
1709375676.037,-90.332,-45.898,-31.250,-54.688,0.000
1709375676.041,47.363,-32.227,-34.668,0.488,0.000
1709375676.045,97.656,-28.320,-33.203,29.297,0.000
1709375676.049,-46.387,-45.410,-32.715,-28.809,0.000
1709375676.053,-118.652,-52.734,-34.668,-67.871,0.000
1709375676.057,-90.332,-41.504,-33.691,-60.547,0.000
1709375676.061,41.016,-31.738,-33.691,-14.160,0.000
1709375676.064,119.629,-23.926,-27.832,18.555,0.000
1709375676.068,-27.344,-37.598,-31.738,-40.039,0.000
1709375676.072,-122.559,-53.223,-37.598,-74.219,0.000
1709375676.076,-101.562,-45.898,-36.133,-59.082,0.000
1709375676.080,6.348,-32.227,-33.203,-20.996,0.000
1709375676.084,101.074,-29.297,-31.738,21.484,0.000
1709375676.088,-24.902,-31.738,-35.645,-17.090,0.000
1709375676.092,-133.789,-32.227,-34.668,-60.059,0.000
1709375676.096,-115.723,-34.180,-34.180,-55.664,0.000
1709375676.100,-0.977,-28.809,-35.156,-14.160,0.000
1709375676.104,113.281,-17.578,-33.691,31.250,0.000
1709375676.108,1.953,-33.691,-35.156,-4.395,0.000
1709375676.112,-118.164,-51.758,-39.062,-49.316,0.000
1709375676.116,-114.746,-50.781,-44.922,-51.758,0.000
1709375676.119,-19.531,-42.480,-43.945,-18.066,0.000
1709375676.123,116.699,-32.715,-35.645,36.133,0.000
1709375676.127,43.457,-42.480,-30.273,19.531,0.000
1709375676.131,-92.285,-54.199,-34.180,-22.949,0.000
1709375676.135,-103.516,-43.457,-36.621,-39.062,0.000
1709375676.139,-27.344,-39.551,-42.969,-22.461,0.000
1709375676.143,104.004,-41.016,-40.527,24.902,0.000
1709375676.147,57.129,-38.574,-35.156,12.695,0.000
1709375676.151,-79.590,-44.922,-41.504,-37.109,0.000
1709375676.155,-112.305,-52.734,-41.504,-55.176,0.000
1709375676.159,-47.363,-51.758,-35.156,-34.180,0.000
1709375676.163,89.355,-42.480,-39.062,24.414,0.000
1709375676.166,59.082,-35.645,-41.992,21.484,0.000
1709375676.170,-96.680,-45.898,-41.504,-36.621,0.000
1709375676.174,-140.137,-62.500,-39.551,-48.828,0.000
1709375676.178,-80.078,-55.664,-38.574,-24.414,0.000
1709375676.182,66.895,-31.738,-39.062,21.973,0.000
1709375676.186,74.219,-35.156,-37.109,25.391,0.000
1709375676.190,-72.266,-49.805,-36.133,-27.344,0.000
1709375676.194,-124.023,-49.316,-37.598,-58.105,0.000
1709375676.198,-81.055,-47.363,-39.062,-44.922,0.000
1709375676.202,54.688,-38.574,-31.738,13.184,0.000
1709375676.206,80.078,-33.203,-24.902,24.414,0.000
1709375676.210,-69.336,-43.457,-31.738,-38.086,0.000
1709375676.214,-136.719,-41.504,-34.180,-73.730,0.000
1709375676.217,-100.586,-38.574,-31.250,-70.312,0.000
1709375676.221,30.273,-44.434,-36.133,-8.789,0.000
1709375676.225,83.008,-38.574,-38.574,9.277,0.000
1709375676.229,-60.547,-44.922,-34.180,-48.340,0.000
1709375676.233,-145.508,-59.082,-32.715,-81.055,0.000
1709375676.237,-123.535,-62.988,-30.273,-71.289,0.000
1709375676.241,-0.977,-46.875,-25.391,-18.066,0.000
1709375676.245,82.520,-40.039,-27.832,16.113,0.000
1709375676.249,-41.504,-57.129,-28.320,-27.832,0.000
1709375676.253,-141.602,-61.035,-26.367,-67.871,0.000
1709375676.256,-126.953,-61.523,-27.344,-70.312,0.000
1709375676.260,-19.531,-59.570,-32.715,-33.691,0.000
1709375676.264,85.938,-50.293,-29.297,18.066,0.000
1709375676.268,-20.508,-51.758,-25.391,-11.230,0.000
1709375676.272,-134.277,-51.270,-31.250,-63.965,0.000
1709375676.276,-127.930,-52.734,-35.645,-70.801,0.000
1709375676.280,-26.367,-46.387,-35.645,-31.250,0.000
1709375676.284,99.121,-31.738,-34.180,20.508,0.000
1709375676.288,5.371,-36.621,-37.109,-11.230,0.000
1709375676.291,-118.652,-53.223,-40.039,-65.430,0.000
1709375676.295,-115.723,-55.664,-39.551,-74.219,0.000
1709375676.299,-33.691,-42.480,-39.062,-45.898,0.000
1709375676.303,97.656,-35.156,-36.621,8.301,0.000
1709375676.307,43.945,-36.133,-34.668,-2.930,0.000
1709375676.311,-89.844,-47.363,-39.551,-50.293,0.000
1709375676.315,-113.281,-46.875,-40.527,-72.266,0.000
1709375676.319,-45.898,-32.227,-41.016,-59.082,0.000
1709375676.323,88.379,-22.461,-36.621,-7.812,0.000
1709375676.327,52.246,-25.879,-37.109,-16.602,0.000
1709375676.330,-93.750,-38.086,-44.922,-71.777,0.000
1709375676.334,-129.883,-40.039,-42.969,-85.938,0.000
1709375676.338,-73.730,-35.645,-45.410,-65.918,0.000
1709375676.342,69.336,-27.344,-45.898,-8.789,0.000
1709375676.346,63.477,-28.320,-39.062,-2.441,0.000
1709375676.350,-95.703,-41.016,-41.992,-63.965,0.000
1709375676.354,-138.672,-47.363,-38.574,-74.707,0.000
1709375676.358,-87.402,-41.016,-32.227,-43.457,0.000
1709375676.362,41.016,-28.809,-33.691,1.465,0.000
1709375676.365,60.059,-29.785,-40.039,8.301,0.000
1709375676.369,-86.914,-42.480,-42.969,-39.551,0.000
1709375676.373,-155.273,-45.898,-47.363,-65.430,0.000
1709375676.377,-111.328,-39.062,-48.340,-53.711,0.000
1709375676.381,38.086,-30.762,-43.945,3.906,0.000
1709375676.385,90.820,-32.715,-46.875,25.391,0.000
1709375676.389,-51.758,-45.898,-50.293,-36.621,0.000
1709375676.393,-130.859,-47.852,-54.199,-72.754,0.000
1709375676.396,-100.586,-51.270,-52.246,-69.824,0.000
1709375676.400,22.949,-47.363,-46.875,-19.043,0.000
1709375676.404,88.867,-29.297,-47.363,4.883,0.000
1709375676.408,-41.016,-33.691,-49.316,-53.711,0.000
1709375676.412,-135.742,-39.062,-46.387,-89.844,0.000
1709375676.416,-117.676,-40.527,-47.363,-82.031,0.000
1709375676.420,-0.488,-30.762,-43.945,-33.203,0.000
1709375676.423,90.332,-27.832,-40.527,0.000,0.000
1709375676.427,-30.762,-43.945,-44.922,-45.898,0.000
1709375676.431,-132.324,-49.316,-48.828,-84.961,0.000
1709375676.435,-114.746,-48.828,-43.457,-84.473,0.000
1709375676.439,-12.207,-41.992,-39.551,-42.969,0.000
1709375676.443,95.215,-39.551,-37.109,15.625,0.000
1709375676.447,-9.766,-47.363,-34.668,-14.160,0.000
1709375676.451,-133.301,-49.316,-39.062,-71.777,0.000
1709375676.455,-125.977,-50.293,-41.992,-76.172,0.000
1709375676.459,-28.809,-51.270,-40.039,-32.227,0.000
1709375676.462,87.402,-37.598,-41.016,14.648,0.000
1709375676.466,11.230,-35.156,-40.039,-5.859,0.000
1709375676.471,-117.676,-46.875,-41.016,-52.734,0.000
1709375676.475,-134.277,-50.293,-43.945,-69.336,0.000
1709375676.478,-56.152,-41.992,-42.480,-40.527,0.000
1709375676.482,85.938,-28.809,-43.457,14.160,0.000
1709375676.486,34.668,-40.039,-47.363,-2.930,0.000
1709375676.490,-102.539,-57.617,-41.992,-56.152,0.000
1709375676.494,-122.070,-53.223,-35.156,-77.637,0.000
1709375676.498,-61.035,-43.457,-37.598,-59.570,0.000
1709375676.502,77.148,-34.180,-41.504,5.371,0.000
1709375676.506,59.082,-37.109,-44.922,6.836,0.000
1709375676.510,-93.750,-38.574,-44.434,-56.641,0.000
1709375676.514,-140.137,-37.598,-42.480,-78.125,0.000
1709375676.518,-85.449,-36.133,-39.062,-61.035,0.000
1709375676.522,59.082,-26.367,-35.156,-8.789,0.000
1709375676.526,74.707,-30.273,-35.156,-2.930,0.000
1709375676.529,-76.172,-44.434,-40.039,-64.453,0.000
1709375676.533,-135.254,-50.293,-41.992,-85.938,0.000
1709375676.537,-89.844,-42.969,-39.551,-62.988,0.000
1709375676.541,52.246,-30.273,-39.551,-7.324,0.000
1709375676.545,90.332,-30.762,-36.621,13.184,0.000
1709375676.549,-59.082,-48.828,-34.180,-34.668,0.000
1709375676.553,-129.395,-50.781,-31.738,-58.594,0.000
1709375676.557,-98.145,-41.016,-28.320,-52.734,0.000
1709375676.561,32.715,-39.551,-29.297,0.000,0.000
1709375676.565,94.727,-40.039,-27.344,35.645,0.000
1709375676.569,-50.293,-45.410,-33.203,-26.855,0.000
1709375676.573,-137.695,-53.711,-42.480,-69.336,0.000
1709375676.576,-111.816,-53.223,-41.016,-61.523,0.000
1709375676.580,6.836,-43.945,-41.504,-18.066,0.000
1709375676.584,82.520,-37.109,-41.016,13.672,0.000
1709375676.588,-43.457,-52.246,-42.480,-39.551,0.000
1709375676.592,-143.555,-65.918,-45.410,-83.496,0.000
1709375676.596,-127.441,-62.012,-42.969,-70.801,0.000
1709375676.600,-12.695,-42.480,-43.945,-38.086,0.000
1709375676.604,95.215,-29.297,-45.898,-6.348,0.000
1709375676.608,-10.254,-38.574,-47.852,-45.410,0.000
1709375676.612,-134.277,-45.898,-50.293,-87.402,0.000
1709375676.616,-133.789,-43.457,-48.828,-89.355,0.000
1709375676.619,-29.297,-37.109,-42.969,-59.570,0.000
1709375676.623,90.820,-29.297,-41.016,-9.277,0.000
1709375676.627,-0.977,-38.086,-39.551,-39.062,0.000
1709375676.631,-131.348,-49.805,-40.039,-85.449,0.000
1709375676.635,-132.812,-44.434,-37.109,-90.332,0.000
1709375676.639,-56.152,-42.480,-37.598,-54.199,0.000
1709375676.643,68.848,-34.180,-43.457,9.277,0.000
1709375676.647,13.672,-28.809,-39.551,-16.602,0.000
1709375676.651,-121.582,-41.016,-33.203,-71.289,0.000
1709375676.655,-144.531,-47.852,-31.250,-78.125,0.000
1709375676.658,-68.848,-41.504,-25.879,-49.805,0.000
1709375676.662,76.172,-30.273,-21.973,8.301,0.000
1709375676.666,42.480,-39.062,-27.344,2.930,0.000
1709375676.670,-100.586,-55.664,-30.762,-48.340,0.000
1709375676.674,-134.766,-56.641,-27.344,-60.547,0.000
1709375676.678,-77.148,-51.270,-25.879,-39.551,0.000
1709375676.682,55.664,-45.410,-29.297,13.672,0.000
1709375676.686,40.039,-53.223,-38.574,17.578,0.000
1709375676.690,-107.422,-60.059,-42.480,-51.758,0.000
1709375676.694,-147.949,-60.547,-43.457,-79.102,0.000
1709375676.697,-95.703,-59.570,-46.387,-61.523,0.000
1709375676.701,53.223,-49.316,-42.480,-7.812,0.000
1709375676.705,76.660,-43.945,-36.133,8.301,0.000
1709375676.709,-83.496,-52.734,-36.621,-53.223,0.000
1709375676.713,-149.414,-56.152,-38.574,-86.914,0.000
1709375676.717,-105.957,-47.852,-42.480,-69.824,0.000
1709375676.721,40.039,-38.086,-40.527,-13.184,0.000
1709375676.725,94.727,-39.062,-37.598,7.324,0.000
1709375676.728,-47.363,-53.223,-43.945,-41.504,0.000
1709375676.732,-125.977,-51.758,-45.898,-73.242,0.000
1709375676.736,-101.562,-32.715,-43.457,-79.102,0.000
1709375676.740,25.391,-22.949,-38.574,-35.156,0.000
1709375676.744,103.027,-27.344,-36.621,6.836,0.000
1709375676.748,-33.203,-31.250,-38.086,-37.109,0.000
1709375676.752,-126.465,-28.809,-37.598,-76.172,0.000
1709375676.756,-104.980,-34.180,-39.551,-62.500,0.000
1709375676.759,14.648,-34.668,-39.551,-16.113,0.000
1709375676.763,110.352,-21.973,-38.574,21.973,0.000
1709375676.767,-8.789,-28.320,-33.203,-18.066,0.000
1709375676.771,-116.699,-42.480,-29.785,-62.012,0.000
1709375676.775,-113.770,-52.246,-42.969,-56.641,0.000
1709375676.779,-19.043,-41.992,-51.270,-27.832,0.000
1709375676.783,97.168,-31.738,-45.410,13.672,0.000
1709375676.787,-3.906,-34.180,-44.434,-12.207,0.000
1709375676.791,-132.812,-36.621,-43.945,-63.477,0.000
1709375676.795,-133.301,-37.109,-40.039,-63.965,0.000
1709375676.798,0.000,-30.273,-40.039,-31.738,0.000
1709375676.802,0.000,-28.320,-43.945,16.113,0.000
1709375676.806,0.000,-36.621,-45.410,-3.906,0.000
1709375676.810,0.000,-41.016,-41.504,-53.711,0.000
1709375676.814,0.000,-44.922,-38.086,-66.406,0.000
1709375676.818,0.000,-42.480,-33.203,-42.480,0.000
1709375676.822,0.000,-33.691,-34.668,13.184,0.000
1709375676.825,0.000,-34.180,-37.109,-3.418,0.000
1709375676.829,0.000,-38.574,-34.668,-66.406,0.000
1709375676.833,0.000,-48.828,-33.203,-78.613,0.000
1709375676.837,0.000,-44.922,-36.621,-54.688,0.000
1709375676.841,0.000,-31.738,-37.109,0.000,0.000
1709375676.845,75.684,-37.109,-32.715,-0.977,0.000
1709375676.849,-79.590,-52.734,-34.180,-59.082,0.000
1709375676.853,-129.883,-54.688,-35.645,-74.707,0.000
1709375676.857,-81.543,-48.340,-36.621,-52.734,0.000
1709375676.861,58.105,-39.062,-37.109,3.906,0.000
1709375676.865,72.266,-39.551,-35.645,15.625,0.000
1709375676.869,-88.379,-47.363,-36.621,-39.062,0.000
1709375676.873,-154.297,-50.293,-33.691,-63.477,0.000
1709375676.877,-107.422,-49.316,-34.180,-54.199,0.000
1709375676.880,37.109,-38.574,-33.203,11.719,0.000
1709375676.884,82.520,-24.902,-35.156,28.320,0.000
1709375676.888,-70.801,-37.109,-37.109,-36.621,0.000
1709375676.892,-145.996,-45.410,-34.180,-59.570,0.000
1709375676.896,-111.816,-39.551,-38.086,-63.477,0.000
1709375676.900,18.066,-30.273,-41.504,-22.949,0.000
1709375676.904,77.637,-25.879,-40.039,16.113,0.000
1709375676.908,-57.129,-41.016,-41.992,-35.645,0.000
1709375676.912,-139.648,-49.805,-47.363,-80.078,0.000
1709375676.916,-118.652,-41.992,-43.945,-78.125,0.000
1709375676.920,3.906,-32.715,-41.992,-35.645,0.000
1709375676.924,88.379,-36.621,-39.551,7.812,0.000
1709375676.928,-47.852,-44.434,-38.574,-34.668,0.000
1709375676.931,-152.344,-46.387,-41.992,-75.684,0.000
1709375676.935,-137.695,-52.246,-42.969,-73.730,0.000
1709375676.939,-26.367,-44.434,-38.574,-37.598,0.000
1709375676.943,82.031,-28.320,-31.738,10.254,0.000
1709375676.947,-27.344,-33.691,-31.250,-27.832,0.000
1709375676.951,-135.254,-48.828,-35.645,-71.777,0.000
1709375676.955,-124.023,-53.711,-39.062,-69.336,0.000
1709375676.959,-37.109,-50.293,-35.156,-45.898,0.000
1709375676.963,86.426,-40.039,-30.273,-4.395,0.000
1709375676.967,8.789,-50.293,-32.715,-21.484,0.000
1709375676.971,-120.117,-62.988,-29.785,-56.152,0.000
1709375676.975,-120.605,-46.387,-27.832,-67.383,0.000
1709375676.978,-41.992,-40.039,-33.691,-44.434,0.000
1709375676.982,84.473,-35.645,-36.621,10.254,0.000
1709375676.986,33.691,-37.598,-32.715,-4.883,0.000
1709375676.990,-106.445,-45.898,-33.203,-60.059,0.000
1709375676.994,-129.395,-44.434,-34.668,-79.102,0.000
1709375676.998,-54.688,-40.527,-30.273,-49.316,0.000
1709375677.002,83.496,-36.621,-29.785,12.207,0.000
1709375677.006,33.203,-40.527,-32.715,-8.301,0.000
1709375677.010,-103.516,-45.410,-35.645,-63.477,0.000
1709375677.014,-127.441,-48.828,-39.551,-72.266,0.000
1709375677.018,-64.941,-40.527,-43.945,-54.199,0.000
1709375677.021,86.426,-20.508,-42.969,2.441,0.000
1709375677.025,81.543,-24.414,-39.551,9.277,0.000
1709375677.029,-68.848,-39.551,-40.527,-38.574,0.000
1709375677.033,-124.023,-39.062,-42.480,-64.453,0.000
1709375677.037,-77.148,-33.691,-44.434,-61.523,0.000
1709375677.041,59.570,-26.855,-40.527,-8.789,0.000
1709375677.045,79.590,-28.320,-31.250,15.137,0.000
1709375677.049,-73.730,-39.551,-33.203,-43.457,0.000
1709375677.053,-138.672,-46.387,-41.992,-78.613,0.000
1709375677.057,-101.074,-47.363,-47.363,-68.359,0.000
1709375677.060,36.133,-43.945,-45.898,-7.812,0.000
1709375677.064,95.703,-34.668,-40.527,12.695,0.000
1709375677.068,-41.992,-33.691,-40.039,-42.480,0.000
1709375677.072,-128.906,-44.434,-43.457,-72.266,0.000
1709375677.076,-107.422,-47.363,-40.039,-70.312,0.000
1709375677.080,11.230,-41.016,-34.668,-21.973,0.000
1709375677.084,83.008,-35.645,-32.227,17.090,0.000
1709375677.088,-40.039,-39.062,-32.227,-32.227,0.000
1709375677.092,-130.371,-45.898,-32.227,-81.543,0.000
1709375677.095,-111.328,-47.363,-32.227,-77.148,0.000
1709375677.099,15.137,-37.598,-33.203,-20.996,0.000
1709375677.103,114.258,-30.273,-33.203,22.461,0.000
1709375677.107,-15.625,-36.133,-38.574,-18.555,0.000
1709375677.111,-122.070,-38.086,-41.504,-62.988,0.000
1709375677.115,-112.793,-45.410,-40.527,-69.824,0.000
1709375677.119,-14.160,-47.363,-40.039,-29.785,0.000
1709375677.123,104.492,-39.062,-34.668,21.484,0.000
1709375677.126,3.418,-47.363,-33.691,-19.043,0.000
1709375677.130,-119.629,-55.176,-34.668,-69.824,0.000
1709375677.134,-124.023,-55.664,-37.598,-73.242,0.000
1709375677.138,-42.480,-45.410,-41.504,-43.457,0.000
1709375677.142,82.031,-30.762,-37.598,13.672,0.000
1709375677.146,11.230,-41.016,-36.133,-5.859,0.000
1709375677.150,-129.395,-55.664,-45.410,-58.105,0.000
1709375677.154,-150.879,-49.805,-49.316,-69.824,0.000
1709375677.158,-66.406,-47.363,-45.898,-43.457,0.000
1709375677.162,73.730,-43.457,-44.922,10.742,0.000
1709375677.165,20.508,-44.922,-44.434,-6.348,0.000
1709375677.169,-126.465,-55.176,-47.852,-63.477,0.000
1709375677.173,-151.367,-58.594,-46.875,-78.613,0.000
1709375677.177,-77.637,-62.500,-41.504,-60.547,0.000
1709375677.181,72.754,-54.199,-34.180,-4.883,0.000
1709375677.185,47.363,-48.828,-36.621,-0.488,0.000
1709375677.189,-108.398,-55.664,-43.457,-56.152,0.000
1709375677.192,-143.555,-62.500,-40.527,-73.730,0.000
1709375677.196,-95.215,-57.129,-41.016,-51.270,0.000
1709375677.200,47.852,-37.109,-43.945,7.812,0.000
1709375677.204,62.988,-36.133,-43.457,19.043,0.000
1709375677.208,-84.961,-52.246,-36.621,-42.969,0.000
1709375677.212,-136.719,-54.688,-30.762,-70.312,0.000
1709375677.216,-90.820,-47.852,-34.180,-58.105,0.000
1709375677.220,46.387,-38.574,-33.691,-6.836,0.000
1709375677.224,86.426,-35.645,-30.273,20.020,0.000
1709375677.228,-57.617,-46.387,-34.668,-32.715,0.000
1709375677.232,-131.348,-48.828,-32.227,-64.941,0.000
1709375677.236,-96.680,-52.734,-31.738,-55.664,0.000
1709375677.240,33.203,-44.922,-38.086,-6.836,0.000
1709375677.244,88.867,-33.203,-38.086,19.531,0.000
1709375677.248,-45.898,-41.504,-41.504,-32.715,0.000
1709375677.251,-124.023,-48.340,-41.016,-65.430,0.000
1709375677.255,-102.051,-51.270,-41.992,-55.176,0.000
1709375677.259,11.719,-39.551,-47.363,-22.461,0.000
1709375677.263,102.539,-28.809,-42.969,9.766,0.000
1709375677.267,-17.578,-44.434,-41.992,-31.738,0.000
1709375677.271,-122.070,-56.152,-45.898,-80.078,0.000
1709375677.275,-111.816,-53.711,-44.922,-76.660,0.000
1709375677.279,-9.277,-43.945,-40.039,-28.320,0.000
1709375677.283,104.004,-35.645,-36.133,21.973,0.000
1709375677.287,-2.441,-43.457,-40.527,-20.020,0.000
1709375677.291,-119.629,-44.434,-41.504,-64.941,0.000
1709375677.295,-114.258,-38.574,-40.527,-66.895,0.000
1709375677.299,-19.531,-43.945,-41.504,-28.809,0.000
1709375677.302,96.191,-36.621,-43.457,33.691,0.000
1709375677.306,10.254,-33.203,-44.434,0.977,0.000
1709375677.310,-118.652,-44.922,-43.945,-54.688,0.000
1709375677.315,-128.418,-50.781,-44.922,-64.453,0.000
1709375677.319,-46.387,-43.945,-43.945,-40.039,0.000
1709375677.323,82.031,-30.273,-39.062,17.578,0.000
1709375677.327,27.344,-34.180,-39.062,-0.977,0.000
1709375677.331,-110.352,-50.781,-41.016,-60.059,0.000
1709375677.335,-134.277,-50.781,-37.598,-69.824,0.000
1709375677.338,-69.336,-42.969,-36.621,-47.363,0.000
1709375677.342,83.496,-34.180,-33.691,14.648,0.000
1709375677.346,57.129,-37.598,-33.691,23.438,0.000
1709375677.350,-93.262,-41.016,-31.738,-41.504,0.000
1709375677.354,-128.906,-38.086,-27.832,-72.266,0.000
1709375677.358,-85.938,-44.922,-38.574,-58.105,0.000
1709375677.362,55.176,-38.574,-46.875,-10.254,0.000
1709375677.366,64.941,-28.809,-43.945,-2.930,0.000
1709375677.370,-86.914,-40.527,-43.945,-56.641,0.000
1709375677.374,-144.531,-46.387,-47.363,-83.008,0.000
1709375677.378,-102.051,-37.109,-45.410,-78.125,0.000
1709375677.381,43.945,-33.203,-39.551,-16.602,0.000
1709375677.385,76.660,-32.227,-37.109,10.254,0.000
1709375677.389,-77.637,-43.945,-40.039,-43.945,0.000
1709375677.393,-145.020,-49.805,-40.039,-66.406,0.000
1709375677.397,-107.910,-33.203,-40.527,-67.871,0.000
1709375677.401,25.879,-26.855,-40.527,-18.555,0.000
1709375677.405,84.473,-31.738,-40.039,15.625,0.000
1709375677.409,0.000,-34.668,-43.945,-42.969,0.000
1709375677.413,0.000,-40.039,-45.898,-81.055,0.000
1709375677.416,0.000,-46.875,-42.480,-71.289,0.000
1709375677.420,0.000,-40.039,-38.574,-15.137,0.000
1709375677.424,0.000,-36.133,-38.574,21.484,0.000
1709375677.428,0.000,-53.223,-39.062,-32.715,0.000
1709375677.432,0.000,-61.035,-36.621,-61.035,0.000
1709375677.436,0.000,-58.105,-39.551,-46.875,0.000
1709375677.440,0.000,-39.062,-39.062,-20.508,0.000
1709375677.444,0.000,-26.367,-36.621,17.578,0.000
1709375677.448,0.000,-40.039,-42.969,-15.625,0.000
1709375677.452,0.000,-48.828,-40.039,-62.500,0.000
1709375677.455,-123.535,-46.387,-39.062,-67.871,0.000
1709375677.459,-19.043,-40.527,-39.551,-30.762,0.000
1709375677.463,99.121,-37.598,-36.133,19.043,0.000
1709375677.467,3.418,-43.457,-41.992,-12.207,0.000
1709375677.471,-117.188,-46.875,-39.062,-61.523,0.000
1709375677.475,-119.141,-51.758,-31.738,-75.195,0.000
1709375677.479,-36.621,-49.805,-33.691,-40.527,0.000
1709375677.483,86.914,-33.691,-40.527,13.672,0.000
1709375677.487,22.461,-33.203,-42.480,-25.391,0.000
1709375677.490,-118.652,-46.875,-36.133,-82.520,0.000
1709375677.494,-136.230,-46.387,-32.715,-82.031,0.000
1709375677.498,-44.922,-34.668,-33.203,-38.574,0.000
1709375677.502,87.891,-27.832,-31.250,13.184,0.000
1709375677.506,33.203,-35.156,-32.715,-3.418,0.000
1709375677.510,-111.816,-44.434,-34.180,-56.152,0.000
1709375677.514,-144.043,-44.434,-28.809,-70.312,0.000
1709375677.518,-79.102,-39.551,-31.738,-51.270,0.000
1709375677.521,63.477,-34.180,-37.598,1.953,0.000
1709375677.525,47.852,-35.645,-36.133,15.137,0.000
1709375677.529,-107.910,-40.039,-37.598,-42.969,0.000
1709375677.533,-157.227,-47.363,-39.551,-81.055,0.000
1709375677.537,-104.980,-46.875,-41.016,-70.312,0.000
1709375677.541,41.016,-29.297,-41.016,-13.672,0.000
1709375677.545,62.500,-29.785,-38.574,-0.977,0.000
1709375677.548,-84.473,-50.781,-36.621,-55.664,0.000
1709375677.552,-141.602,-54.199,-36.621,-75.684,0.000
1709375677.556,-98.633,-46.875,-34.668,-62.988,0.000
1709375677.560,39.551,-40.527,-34.180,-13.184,0.000
1709375677.564,82.031,-41.504,-37.109,11.230,0.000
1709375677.568,-65.430,-61.523,-39.551,-36.621,0.000
1709375677.572,-138.184,-63.965,-38.574,-67.871,0.000
1709375677.576,-97.656,-43.945,-38.574,-63.477,0.000
1709375677.580,27.344,-36.621,-36.133,-19.531,0.000
1709375677.584,97.168,-40.039,-29.785,15.137,0.000
1709375677.587,-30.762,-40.527,-26.855,-25.391,0.000
1709375677.591,-123.047,-39.062,-27.832,-61.523,0.000
1709375677.596,-113.770,-42.969,-30.762,-61.523,0.000
1709375677.600,-4.883,-45.898,-37.598,-25.879,0.000
1709375677.603,85.449,-39.551,-41.504,6.836,0.000
1709375677.607,-31.250,-41.016,-38.086,-35.156,0.000
1709375677.611,-127.930,-49.805,-36.133,-74.707,0.000
1709375677.615,-117.188,-51.758,-39.062,-65.430,0.000
1709375677.619,0.977,-37.109,-31.738,-21.484,0.000
1709375677.623,122.070,-23.926,-23.926,22.949,0.000
1709375677.627,10.254,-31.738,-30.762,-9.277,0.000
1709375677.631,-116.699,-46.875,-37.109,-50.293,0.000
1709375677.635,-114.746,-45.410,-38.086,-62.012,0.000
1709375677.639,-20.508,-32.227,-35.645,-28.320,0.000
1709375677.643,98.633,-30.762,-32.715,22.949,0.000
1709375677.647,17.090,-37.109,-37.109,-17.090,0.000
1709375677.650,-121.582,-46.387,-42.969,-68.848,0.000
1709375677.654,-129.395,-51.758,-40.039,-70.312,0.000
1709375677.658,-47.363,-50.781,-38.574,-42.480,0.000
1709375677.662,80.078,-43.457,-33.691,15.137,0.000
1709375677.666,34.180,-43.457,-36.621,0.977,0.000
1709375677.670,-108.887,-51.758,-45.898,-66.406,0.000
1709375677.674,-136.719,-59.570,-43.457,-76.660,0.000
1709375677.678,-58.594,-47.852,-42.969,-40.527,0.000
1709375677.682,83.008,-23.926,-41.016,7.812,0.000
1709375677.686,61.523,-29.297,-37.109,6.348,0.000
1709375677.690,-84.961,-43.457,-38.574,-44.434,0.000
1709375677.694,-125.000,-48.828,-41.016,-68.848,0.000
1709375677.697,-73.242,-48.828,-41.504,-58.594,0.000
1709375677.701,59.570,-40.527,-39.551,-4.883,0.000
1709375677.705,66.406,-42.480,-37.109,10.254,0.000
1709375677.709,-87.891,-55.176,-41.504,-47.363,0.000
1709375677.713,-138.184,-51.270,-41.504,-71.777,0.000
1709375677.717,-78.613,-44.434,-38.574,-51.270,0.000
1709375677.721,55.664,-41.504,-40.039,8.789,0.000
1709375677.725,79.590,-34.668,-42.969,24.414,0.000
1709375677.729,-70.312,-43.457,-41.504,-37.109,0.000
1709375677.733,-130.371,-48.340,-36.133,-63.477,0.000
1709375677.737,-85.449,-40.039,-37.598,-47.363,0.000
1709375677.740,44.922,-31.250,-39.551,1.953,0.000
1709375677.744,92.285,-31.738,-38.574,25.391,0.000
1709375677.748,-51.758,-44.922,-35.645,-33.691,0.000
1709375677.752,-138.184,-46.875,-40.039,-73.242,0.000
1709375677.756,-116.699,-46.875,-41.504,-65.430,0.000
1709375677.760,9.277,-43.945,-40.039,-32.227,0.000
1709375677.764,88.379,-39.062,-37.598,-0.488,0.000
1709375677.768,-48.340,-46.875,-38.574,-38.574,0.000
1709375677.772,-140.625,-48.340,-39.062,-85.938,0.000
1709375677.776,-115.723,-47.363,-40.039,-78.613,0.000
1709375677.779,1.953,-45.410,-38.086,-28.320,0.000
1709375677.783,106.934,-37.109,-30.273,21.973,0.000
1709375677.787,-4.883,-40.039,-35.156,-21.973,0.000
1709375677.791,-115.723,-57.129,-39.551,-68.359,0.000
1709375677.795,-108.887,-53.711,-38.086,-65.430,0.000
1709375677.799,-9.277,-40.527,-39.062,-37.109,0.000
1709375677.803,104.980,-39.062,-37.598,9.277,0.000
1709375677.807,4.395,-45.898,-40.527,-21.484,0.000
1709375677.811,-129.883,-61.035,-45.410,-69.336,0.000
1709375677.815,-135.742,-55.176,-42.969,-76.172,0.000
1709375677.818,-40.527,-39.551,-38.086,-44.434,0.000
1709375677.822,93.262,-40.039,-36.133,12.207,0.000
1709375677.826,31.738,-43.945,-38.086,-10.742,0.000
1709375677.830,0.000,-48.828,0.000,-67.871,0.000
1709375677.834,0.000,-51.758,0.000,-80.078,0.000
1709375677.838,0.000,-47.363,0.000,-58.105,0.000
1709375677.842,0.000,-35.645,0.000,-4.883,0.000
1709375677.846,0.000,-42.480,0.000,-18.555,0.000
1709375677.850,0.000,-56.152,0.000,-76.172,0.000
1709375677.853,0.000,-57.129,0.000,-83.496,0.000
1709375677.857,0.000,-47.363,0.000,-45.410,0.000
1709375677.861,0.000,-36.133,0.000,-0.977,0.000
1709375677.865,0.000,-37.598,0.000,-2.441,0.000
1709375677.869,0.000,-47.363,0.000,-45.898,0.000
1709375677.873,0.000,-53.223,0.000,-76.172,0.000
1709375677.877,-88.379,-46.875,-32.715,-70.312,0.000
1709375677.881,59.570,-32.227,-31.250,-9.277,0.000
1709375677.884,77.637,-33.203,-32.715,4.395,0.000
1709375677.888,-77.637,-45.410,-35.156,-57.129,0.000
1709375677.892,-132.324,-46.875,-38.086,-76.172,0.000
1709375677.896,-91.309,-44.922,-42.480,-55.664,0.000
1709375677.900,46.387,-43.945,-40.527,1.465,0.000
1709375677.904,95.703,-35.645,-32.715,23.926,0.000
1709375677.908,-57.129,-35.645,-30.273,-32.715,0.000
1709375677.912,-128.418,-41.504,-34.180,-66.895,0.000
1709375677.916,-101.562,-43.945,-36.621,-58.105,0.000
1709375677.920,20.508,-35.156,-35.645,-8.789,0.000
1709375677.923,98.145,-33.203,-38.574,16.113,0.000
1709375677.927,-39.062,-41.992,-40.039,-36.621,0.000
1709375677.931,-137.207,-45.898,-38.574,-74.707,0.000
1709375677.935,-110.840,-42.480,-35.156,-73.242,0.000
1709375677.939,14.648,-30.762,-34.668,-28.809,0.000
1709375677.943,106.445,-27.832,-38.086,17.090,0.000
1709375677.947,-18.066,-37.109,-43.457,-25.879,0.000
1709375677.951,-126.953,-41.016,-45.410,-80.078,0.000
1709375677.954,-110.352,-39.551,-40.527,-80.566,0.000
1709375677.958,3.418,-44.922,-34.668,-31.738,0.000
1709375677.962,108.887,-34.668,-33.691,14.648,0.000
1709375677.966,2.930,-32.715,-35.645,-20.020,0.000
1709375677.970,-119.629,-52.246,-36.133,-74.219,0.000
1709375677.974,-113.281,-55.664,-37.598,-81.055,0.000
1709375677.978,-18.066,-37.109,-36.133,-43.945,0.000
1709375677.982,101.562,-25.879,-36.621,7.324,0.000
1709375677.986,29.297,-38.574,-37.109,-15.137,0.000
1709375677.990,-95.703,-48.828,-33.203,-60.547,0.000
1709375677.994,-110.840,-41.504,-35.156,-65.430,0.000
1709375677.998,-48.340,-34.668,-36.621,-49.316,0.000
1709375678.002,83.008,-31.738,-35.156,2.441,0.000
1709375678.006,34.180,-40.527,-37.598,0.000,0.000
1709375678.009,-116.211,-45.410,-38.574,-70.801,0.000
1709375678.013,-139.648,-47.852,-36.621,-89.844,0.000
1709375678.017,-65.430,-47.363,-34.668,-59.570,0.000
1709375678.021,72.754,-35.645,-32.715,1.465,0.000
1709375678.025,46.875,-37.598,-33.203,-0.488,0.000
1709375678.029,-95.703,-49.805,-36.621,-60.059,0.000
1709375678.033,-128.906,-53.223,-36.621,-74.219,0.000
1709375678.037,-74.707,-54.199,-33.691,-53.223,0.000
1709375678.041,63.965,-41.016,-31.738,3.418,0.000
1709375678.045,70.801,-27.344,-28.809,17.090,0.000
1709375678.049,-77.148,-46.875,-32.227,-39.062,0.000
1709375678.053,-128.418,-54.199,-32.227,-57.617,0.000
1709375678.057,-84.473,-40.527,-28.809,-46.387,0.000
1709375678.060,50.293,-32.715,-31.738,-1.465,0.000
1709375678.064,78.613,-33.203,-35.156,15.137,0.000
1709375678.068,-72.754,-40.527,-31.738,-36.133,0.000
1709375678.072,-141.602,-42.969,-26.855,-61.523,0.000
1709375678.076,-101.562,-45.898,-26.855,-52.246,0.000
1709375678.080,40.527,-34.668,-28.320,2.441,0.000
1709375678.084,93.750,-26.855,-28.809,26.367,0.000
1709375678.088,-56.641,-38.574,-35.645,-26.855,0.000
1709375678.092,-141.602,-47.852,-37.598,-62.988,0.000
1709375678.096,-118.652,-55.176,-36.621,-56.641,0.000
1709375678.100,3.906,-38.086,-40.039,-18.066,0.000
1709375678.104,84.961,-26.367,-43.457,13.184,0.000
1709375678.107,-48.340,-43.457,-41.992,-31.738,0.000
1709375678.111,-139.648,-46.875,-41.016,-68.848,0.000
1709375678.115,-123.047,-41.016,-41.992,-67.383,0.000
1709375678.119,-14.160,-42.480,-41.992,-26.855,0.000
1709375678.123,93.750,-35.645,-37.109,22.461,0.000
1709375678.127,-14.648,-35.645,-31.738,-17.578,0.000
1709375678.131,-125.977,-46.875,-31.738,-66.406,0.000
1709375678.135,-128.418,-48.340,-33.203,-71.289,0.000
1709375678.139,-35.645,-45.410,-34.668,-35.156,0.000
1709375678.143,80.078,-35.156,-34.180,15.625,0.000
1709375678.146,-10.742,-36.133,-38.086,-17.090,0.000
1709375678.150,-134.766,-48.828,-41.016,-67.383,0.000
1709375678.154,-139.160,-51.270,-35.156,-72.266,0.000
1709375678.158,-53.711,-48.340,-31.250,-38.574,0.000
1709375678.162,77.637,-40.039,-40.039,9.277,0.000
1709375678.166,15.137,-40.039,-46.387,-10.254,0.000
1709375678.170,-118.164,-52.734,-44.434,-56.152,0.000
1709375678.174,-130.371,-53.711,-40.527,-64.453,0.000
1709375678.178,-52.734,-46.875,-36.621,-32.715,0.000
1709375678.182,84.473,-37.598,-33.203,22.461,0.000
1709375678.185,42.969,-46.387,-38.086,14.648,0.000
1709375678.189,-100.586,-56.641,-41.504,-46.387,0.000
1709375678.193,-130.859,-52.246,-39.062,-70.801,0.000
1709375678.197,-68.359,-44.434,-35.156,-53.223,0.000
1709375678.201,69.336,-35.156,-33.203,-1.465,0.000
1709375678.205,54.688,-38.086,-38.086,-2.441,0.000
1709375678.209,-95.215,-46.387,-47.363,-64.941,0.000
1709375678.213,-143.066,-51.270,-42.969,-84.961,0.000
1709375678.217,-93.750,-52.246,-36.133,-63.965,0.000
1709375678.220,54.688,-38.086,-36.621,-3.418,0.000
1709375678.224,65.430,-32.227,-36.621,4.395,0.000
1709375678.228,-91.309,-43.945,-34.180,-52.734,0.000
1709375678.232,-149.902,-48.828,-38.086,-73.730,0.000
1709375678.236,-106.934,-41.504,-42.480,-74.219,0.000
1709375678.240,36.621,-31.738,-40.039,-19.043,0.000
1709375678.244,78.125,-32.715,-41.016,6.348,0.000
1709375678.248,-75.684,-44.922,-42.480,-50.781,0.000
1709375678.251,-141.602,-39.551,-41.504,-76.172,0.000
1709375678.255,-98.633,-36.621,-39.062,-60.547,0.000
1709375678.259,32.715,-34.668,-36.133,-8.301,0.000
1709375678.263,97.168,-29.785,-34.668,17.578,0.000
1709375678.267,-39.062,-38.574,-35.156,-30.762,0.000
1709375678.271,-122.070,-44.922,-35.156,-67.871,0.000
1709375678.275,-102.051,-45.898,-38.574,-62.012,0.000
1709375678.279,17.578,-31.250,-38.086,-22.461,0.000
1709375678.283,104.492,-23.926,-34.668,8.301,0.000
1709375678.287,-26.367,-40.039,-37.109,-36.133,0.000
1709375678.290,-132.324,-45.898,-38.086,-74.707,0.000
1709375678.294,-124.023,-40.527,-32.227,-73.242,0.000
1709375678.299,-27.344,-40.039,-33.203,-38.574,0.000
1709375678.303,83.496,-38.086,-33.691,7.324,0.000
1709375678.306,-13.184,-44.434,-32.227,-32.715,0.000
1709375678.310,-136.230,-50.293,-39.062,-86.426,0.000
1709375678.314,-135.742,-52.246,-38.086,-93.750,0.000
1709375678.318,-40.039,-52.734,-37.598,-53.711,0.000
1709375678.322,83.008,-38.086,-42.480,5.371,0.000
1709375678.326,11.719,-31.250,-41.992,-26.367,0.000
1709375678.330,-127.441,-41.016,-44.434,-78.613,0.000
1709375678.334,-143.555,-50.293,-42.480,-85.938,0.000
1709375678.338,-53.711,-44.434,-32.715,-55.176,0.000
1709375678.342,85.938,-31.250,-32.715,10.254,0.000
1709375678.346,30.273,-38.574,-34.668,-0.977,0.000
1709375678.350,-112.793,-50.781,-35.645,-58.594,0.000
1709375678.354,-133.789,-50.293,-36.621,-70.801,0.000
1709375678.358,-62.988,-46.875,-34.668,-40.527,0.000
1709375678.361,70.801,-41.016,-35.156,17.578,0.000
1709375678.365,48.340,-48.340,-38.086,6.836,0.000
1709375678.369,-94.727,-59.082,-41.992,-53.223,0.000
1709375678.373,-144.531,-57.129,-47.363,-72.754,0.000
1709375678.377,-97.168,-55.176,-46.875,-58.594,0.000
1709375678.381,46.875,-52.246,-42.480,-1.465,0.000
1709375678.385,58.105,-43.457,-43.457,2.441,0.000
1709375678.389,-79.102,-52.734,-43.945,-55.176,0.000
1709375678.393,-140.625,-60.547,-41.992,-73.730,0.000
1709375678.397,-104.980,-54.199,-41.992,-59.082,0.000
1709375678.401,35.156,-42.480,-41.504,-4.395,0.000
1709375678.405,57.129,-43.457,-40.039,10.254,0.000
1709375678.409,-91.309,-58.105,-42.969,-54.688,0.000
1709375678.413,-149.414,-62.012,-42.969,-88.867,0.000
1709375678.416,-121.094,-55.664,-42.480,-85.449,0.000
1709375678.420,11.230,-45.410,-42.480,-31.738,0.000
1709375678.424,75.684,-48.828,-37.598,8.789,0.000
1709375678.428,-62.012,-55.176,-35.645,-39.551,0.000
1709375678.432,-136.719,-53.711,-37.109,-78.613,0.000
1709375678.436,-104.492,-54.688,-33.691,-65.918,0.000
