timestamps,TP9,AF7,AF8,TP10,Right AUX
1709299612.655,-33.203,-38.086,-37.109,-45.898,0.000
1709299612.659,-37.109,-46.387,-37.598,-37.598,0.000
1709299612.662,-42.480,-23.926,-33.203,-47.363,0.000
1709299612.666,-48.340,-14.648,-34.668,-58.105,0.000
1709299612.670,-45.898,-25.879,-33.203,-54.199,0.000
1709299612.674,-37.598,-42.969,-29.785,-41.992,0.000
1709299612.678,-37.598,-41.016,-31.250,-35.156,0.000
1709299612.682,-38.086,-37.598,-25.879,-34.668,0.000
1709299612.686,-38.574,-36.621,-28.809,-39.062,0.000
1709299612.690,-47.852,-37.109,-32.715,-36.621,0.000
1709299612.694,-45.410,-49.316,-27.832,-29.785,0.000
1709299612.698,-38.086,-39.551,-29.297,-29.785,0.000
1709299612.702,-41.992,-34.668,-33.203,-34.668,0.000
1709299612.705,-40.527,-42.480,-34.180,-38.574,0.000
1709299612.709,-42.969,-34.668,-35.645,-48.828,0.000
1709299612.713,-43.457,-33.203,-39.062,-44.922,0.000
1709299612.717,-33.203,-41.016,-38.574,-29.297,0.000
1709299612.721,-29.785,-43.945,-40.039,-23.438,0.000
1709299612.725,-32.227,-43.457,-44.434,-29.297,0.000
1709299612.729,-28.320,-41.504,-43.945,-36.621,0.000
1709299612.733,-22.949,-47.852,-44.434,-25.879,0.000
1709299612.737,-19.531,-36.621,-47.852,-19.043,0.000
1709299612.741,-16.602,-32.227,-44.922,-24.414,0.000
1709299612.745,-19.531,-36.133,-45.410,-30.273,0.000
1709299612.748,-26.367,-24.902,-46.387,-38.574,0.000
1709299612.752,-26.367,-25.391,-44.434,-40.039,0.000
1709299612.756,-24.414,-32.227,-43.945,-37.109,0.000
1709299612.760,-18.066,-34.668,-38.574,-32.715,0.000
1709299612.764,-21.484,-25.879,-38.574,-44.434,0.000
1709299612.768,-35.156,-23.926,-41.016,-60.547,0.000
1709299612.772,-46.875,-32.715,-47.363,-63.965,0.000
1709299612.776,-40.527,-43.945,-44.434,-44.922,0.000
1709299612.780,-35.645,-49.316,-36.621,-23.926,0.000
1709299612.784,-42.480,-32.715,-29.785,-32.715,0.000
1709299612.787,-41.504,-28.320,-22.461,-43.945,0.000
1709299612.791,-34.668,-38.086,-20.996,-31.738,0.000
1709299612.795,-40.527,-42.480,-23.926,-26.367,0.000
1709299612.799,-41.016,-36.621,-27.344,-26.367,0.000
1709299612.803,-41.504,-38.574,-21.973,-27.832,0.000
1709299612.807,-47.852,-51.270,-19.531,-37.598,0.000
1709299612.811,-49.805,-50.781,-23.926,-40.039,0.000
1709299612.815,-41.016,-44.922,-20.020,-28.809,0.000
1709299612.819,-28.809,-48.340,-15.625,-20.020,0.000
1709299612.823,-28.809,-49.805,-21.484,-23.438,0.000
1709299612.826,-33.691,-36.133,-26.855,-32.227,0.000
1709299612.830,-30.762,-22.461,-29.785,-37.598,0.000
1709299612.834,-29.785,-26.855,-28.809,-33.203,0.000
1709299612.838,-32.715,-40.039,-25.391,-26.855,0.000
1709299612.842,-26.367,-43.457,-20.996,-28.320,0.000
1709299612.846,-26.367,-40.527,-23.926,-38.574,0.000
1709299612.850,-35.645,-46.387,-27.832,-42.480,0.000
1709299612.854,-43.945,-42.969,-24.414,-39.062,0.000
1709299612.857,-36.133,-44.434,-23.926,-29.785,0.000
1709299612.861,-30.273,-46.387,-24.902,-25.879,0.000
1709299612.865,-37.598,-31.738,-26.855,-30.273,0.000
1709299612.869,-36.621,-29.297,-23.438,-23.438,0.000
1709299612.873,-32.715,-31.250,-22.461,-15.137,0.000
1709299612.877,-33.203,-31.738,-25.391,-19.531,0.000
1709299612.881,-33.203,-34.180,-25.879,-17.578,0.000
1709299612.885,-36.133,-38.574,-26.855,-20.996,0.000
1709299612.888,-43.945,-50.781,0.000,-39.062,0.000
1709299612.892,-45.898,-56.152,0.000,-38.086,0.000
1709299612.896,-38.574,-42.480,0.000,-26.855,0.000
1709299612.900,-38.574,-41.992,0.000,-24.414,0.000
1709299612.904,-39.062,-42.969,0.000,-29.785,0.000
1709299612.908,-44.434,-29.785,0.000,-41.016,0.000
1709299612.912,-53.223,-27.832,0.000,-38.574,0.000
1709299612.916,-57.129,-29.297,0.000,-34.180,0.000
1709299612.920,-53.711,-37.598,0.000,-41.504,0.000
1709299612.924,-49.316,-45.410,0.000,-51.270,0.000
1709299612.927,-51.758,-37.598,0.000,-57.617,0.000
1709299612.931,-49.316,-26.367,0.000,-56.152,0.000
1709299612.935,-51.758,-44.922,-32.227,-50.781,0.000
1709299612.939,-49.316,-54.688,-41.016,-45.898,0.000
1709299612.943,-44.434,-43.945,-44.434,-55.176,0.000
1709299612.947,-53.223,-40.527,-42.480,-59.082,0.000
1709299612.951,-58.105,-33.203,-38.574,-59.082,0.000
1709299612.954,-55.664,-26.855,-35.645,-46.875,0.000
1709299612.958,-61.035,-38.574,-36.621,-39.551,0.000
1709299612.962,-60.059,-41.992,-33.203,-41.504,0.000
1709299612.966,-55.664,-33.203,-30.273,-46.387,0.000
1709299612.970,-57.617,-33.691,-32.227,-43.457,0.000
1709299612.974,-48.828,-38.574,-32.715,-22.461,0.000
1709299612.978,-39.551,-56.641,-34.668,-22.461,0.000
1709299612.982,-36.133,-49.805,-35.156,-29.785,0.000
1709299612.986,-26.855,-26.855,-33.691,-34.668,0.000
1709299612.990,-18.555,-34.668,-33.203,-32.227,0.000
1709299612.994,-20.508,-39.551,-34.180,-28.320,0.000
1709299612.998,-17.578,-31.250,-39.062,-27.832,0.000
1709299613.002,-14.160,-29.297,-43.457,-34.180,0.000
1709299613.006,-14.160,-28.809,-39.062,-43.945,0.000
1709299613.009,-26.367,-32.715,-42.480,-56.641,0.000
1709299613.013,-34.180,-38.086,-49.805,-53.223,0.000
1709299613.017,-24.902,-32.227,-44.434,-37.598,0.000
1709299613.021,-21.484,-41.992,-38.574,-35.645,0.000
1709299613.025,-32.227,-53.223,-36.133,-43.945,0.000
1709299613.029,-39.551,-48.828,-40.527,-51.270,0.000
1709299613.033,-34.668,-37.109,-45.898,-40.039,0.000
1709299613.037,-35.156,-22.949,-46.875,-34.180,0.000
1709299613.041,-37.598,-29.785,-38.574,-37.109,0.000
1709299613.045,-34.180,-33.203,-34.180,-44.434,0.000
1709299613.049,-29.297,-21.484,-33.203,-49.316,0.000
1709299613.053,-27.832,-28.809,-28.809,-38.086,0.000
1709299613.057,-39.062,-41.016,-31.738,-36.621,0.000
1709299613.060,-49.805,-26.855,-34.668,-34.180,0.000
1709299613.064,-51.270,-38.086,-27.832,-34.180,0.000
1709299613.068,-49.805,-46.875,-29.297,-39.551,0.000
1709299613.072,-42.480,-30.273,-33.691,-39.551,0.000
1709299613.076,-41.504,-31.250,-30.273,-33.691,0.000
1709299613.080,-49.805,-34.668,-31.250,-34.180,0.000
1709299613.084,-47.363,-31.250,-30.762,-41.504,0.000
1709299613.088,-45.410,-32.227,-27.344,-43.457,0.000
1709299613.092,-43.457,-32.227,-30.762,-36.621,0.000
1709299613.096,-41.504,-27.344,-31.250,-33.203,0.000
1709299613.100,-36.133,-31.250,-23.438,-29.297,0.000
1709299613.103,-32.227,-44.434,-25.391,-35.156,0.000
1709299613.107,-41.504,-48.340,-34.180,-41.504,0.000
1709299613.111,-48.828,-38.574,-34.668,-44.434,0.000
1709299613.115,-45.898,-36.621,-28.809,-47.363,0.000
1709299613.119,-51.270,-45.410,-31.250,-46.875,0.000
1709299613.123,-46.387,-41.016,-33.691,-49.805,0.000
1709299613.127,-38.574,-42.480,-33.203,-45.410,0.000
1709299613.131,-46.387,-43.457,-32.227,-38.574,0.000
1709299613.135,-53.223,-36.621,-33.691,-31.738,0.000
1709299613.139,-43.945,-31.738,-28.809,-29.297,0.000
1709299613.143,-35.156,-36.133,-26.855,-31.250,0.000
1709299613.146,-41.504,-39.062,-28.809,-42.480,0.000
1709299613.150,-41.504,-35.645,-25.391,-35.156,0.000
1709299613.154,-32.715,-29.785,-23.438,-15.137,0.000
1709299613.158,-28.320,-19.531,-26.855,-22.949,0.000
1709299613.162,-31.738,-32.227,-27.832,-35.156,0.000
1709299613.166,-39.551,-40.527,-32.227,-45.898,0.000
1709299613.170,-43.945,-35.156,-37.109,-46.387,0.000
1709299613.174,-41.016,-21.973,-40.039,-41.016,0.000
1709299613.178,-32.227,-12.207,-39.551,-28.809,0.000
1709299613.182,-31.738,-21.973,-41.016,-28.320,0.000
1709299613.185,-38.086,-22.949,-41.016,-38.086,0.000
1709299613.189,-37.109,-26.367,-36.621,-34.668,0.000
1709299613.193,-38.086,-30.762,-37.109,-34.668,0.000
1709299613.197,-42.480,-33.691,-38.086,-29.785,0.000
1709299613.201,-37.109,-41.992,-32.715,-18.555,0.000
1709299613.205,-37.598,-43.945,-30.273,-22.461,0.000
1709299613.209,-45.410,-47.852,-29.785,-27.832,0.000
1709299613.213,-49.316,-45.410,-32.715,-29.297,0.000
1709299613.216,-44.922,-32.715,-34.668,-29.297,0.000
1709299613.220,-36.621,-32.227,-29.297,-26.367,0.000
1709299613.224,-32.227,-25.879,-30.273,-27.832,0.000
1709299613.228,-37.598,-30.273,-33.691,-39.551,0.000
1709299613.232,-43.945,-49.805,-35.156,-42.969,0.000
1709299613.236,-43.945,-43.457,-42.969,-41.016,0.000
1709299613.240,-42.969,-38.086,-39.551,-45.410,0.000
1709299613.244,-38.574,-43.457,-28.320,-36.621,0.000
1709299613.248,-41.016,-42.969,-29.297,-43.457,0.000
1709299613.252,-52.734,-45.410,-29.297,-55.664,0.000
1709299613.256,-54.688,-47.363,-33.203,-52.734,0.000
1709299613.259,-49.316,-40.039,-33.203,-42.480,0.000
1709299613.263,-39.551,-41.016,-24.902,-45.410,0.000
1709299613.267,-33.691,-36.621,-30.762,-58.105,0.000
1709299613.271,-34.180,-31.738,-42.969,-58.105,0.000
1709299613.275,-40.527,-40.039,-40.039,-47.852,0.000
1709299613.279,-43.945,-40.039,-30.273,-39.551,0.000
1709299613.283,-35.156,-33.691,-31.250,-33.203,0.000
1709299613.287,-31.250,-45.898,-32.227,-28.809,0.000
1709299613.290,-32.715,-54.688,-27.344,-41.016,0.000
1709299613.294,-22.461,-48.828,-23.926,-40.527,0.000
1709299613.298,-19.043,-50.781,-25.391,-25.879,0.000
1709299613.302,-29.297,-55.176,-27.344,-27.344,0.000
1709299613.306,-30.273,-53.711,-27.344,-24.902,0.000
1709299613.310,-30.273,-55.664,-21.484,-19.531,0.000
1709299613.314,-30.273,-63.477,-14.160,-16.602,0.000
1709299613.317,-39.062,-68.848,-13.672,-13.672,0.000
1709299613.321,-45.410,-66.895,-22.949,-22.461,0.000
1709299613.325,-44.434,-77.148,-28.320,-25.879,0.000
1709299613.329,-46.875,-89.844,-17.578,-22.461,0.000
1709299613.333,-48.340,-82.031,-11.719,-15.137,0.000
1709299613.337,-47.852,-77.148,-14.160,-11.719,0.000
1709299613.341,-41.992,-72.266,-14.160,-11.719,0.000
1709299613.345,-41.016,-81.543,-14.160,-12.695,0.000
1709299613.349,-46.387,-93.262,-13.184,-15.137,0.000
1709299613.353,-38.574,-87.402,-12.207,-8.789,0.000
1709299613.357,-29.785,-88.379,-12.207,1.465,0.000
1709299613.361,-30.762,-97.168,-8.789,-0.488,0.000
1709299613.365,-36.133,-99.121,-1.953,-10.742,0.000
1709299613.369,-39.062,-88.867,-8.301,-14.160,0.000
1709299613.372,-30.762,-87.402,-11.230,-1.465,0.000
1709299613.376,-32.715,-98.633,-7.324,3.906,0.000
1709299613.380,-37.598,-96.680,-3.906,1.953,0.000
1709299613.384,-36.621,-100.098,-1.953,1.465,0.000
1709299613.388,-32.227,-114.746,-4.883,-0.488,0.000
1709299613.392,-26.367,-111.816,-6.836,12.207,0.000
1709299613.396,-19.531,-85.449,-4.395,23.926,0.000
1709299613.400,-7.812,-74.707,1.465,27.832,0.000
1709299613.404,-13.184,-89.844,0.488,22.461,0.000
1709299613.408,-20.996,-95.703,3.418,15.625,0.000
1709299613.412,-21.973,-94.238,0.977,15.137,0.000
1709299613.416,-20.508,-88.867,-5.859,16.602,0.000
1709299613.420,-14.648,-87.402,-0.977,25.391,0.000
1709299613.423,-12.695,-89.355,-5.371,22.461,0.000
1709299613.427,-8.301,-86.914,-4.883,20.508,0.000
1709299613.431,-9.277,-82.031,5.371,16.602,0.000
1709299613.435,-9.277,-83.984,8.789,23.926,0.000
1709299613.439,-7.812,-87.402,4.883,34.180,0.000
1709299613.443,-15.137,-81.543,-3.906,10.254,0.000
1709299613.447,-19.043,-78.125,-8.789,0.000,0.000
1709299613.451,-24.902,-81.055,-5.371,4.883,0.000
1709299613.455,-28.809,-77.637,-4.883,4.883,0.000
1709299613.459,-25.879,-66.406,-6.348,-0.488,0.000
1709299613.463,-22.949,-70.312,-1.953,0.488,0.000
1709299613.467,-30.762,-89.844,-3.418,-4.395,0.000
1709299613.470,-38.086,-75.684,-10.254,-15.137,0.000
1709299613.474,-39.551,-68.359,-12.695,-12.207,0.000
1709299613.478,-41.016,-82.520,-12.207,-12.207,0.000
1709299613.482,-36.133,-74.707,-14.648,-8.301,0.000
1709299613.486,-42.480,-64.453,-14.160,-17.578,0.000
1709299613.490,-49.805,-66.406,-19.043,-36.621,0.000
1709299613.494,-46.387,-59.570,-26.855,-37.598,0.000
1709299613.498,-41.504,-53.223,-25.879,-35.645,0.000
1709299613.502,-32.227,-52.246,-20.020,-36.133,0.000
1709299613.506,-28.320,-55.176,-20.996,-34.668,0.000
1709299613.509,-28.320,-68.359,-27.344,-34.668,0.000
1709299613.513,-29.785,-61.523,-28.809,-31.738,0.000
1709299613.517,-28.320,-57.129,-33.691,-24.414,0.000
1709299613.521,-24.414,-56.641,-34.668,-24.902,0.000
1709299613.525,-21.484,-60.059,-32.715,-21.973,0.000
1709299613.529,-20.020,-69.336,-38.574,-16.602,0.000
1709299613.533,-23.438,-57.129,-40.039,-28.320,0.000
1709299613.537,-25.879,-38.574,-35.156,-27.832,0.000
1709299613.541,-25.391,-36.133,-34.180,-23.926,0.000
1709299613.545,-27.344,-42.969,-34.668,-32.227,0.000
1709299613.548,-36.133,-41.992,-36.621,-42.480,0.000
1709299613.552,-37.598,-40.039,-34.668,-43.457,0.000
1709299613.556,-38.086,-46.875,-42.969,-41.016,0.000
1709299613.560,-41.016,-51.270,-44.922,-35.645,0.000
1709299613.564,-40.527,-51.758,-35.645,-37.109,0.000
1709299613.568,-41.504,-53.711,-40.527,-46.875,0.000
1709299613.572,-48.828,-55.176,-39.551,-38.086,0.000
1709299613.576,-52.246,-51.758,-30.762,-30.273,0.000
1709299613.580,-54.688,-53.223,-33.203,-38.086,0.000
1709299613.584,-54.199,-59.082,-37.598,-45.410,0.000
1709299613.588,-50.293,-54.688,-40.527,-49.316,0.000
1709299613.591,0.000,-61.523,0.000,0.000,0.000
1709299613.595,0.000,-67.383,0.000,0.000,0.000
1709299613.599,0.000,-48.340,0.000,0.000,0.000
1709299613.603,0.000,-34.180,0.000,0.000,0.000
1709299613.607,0.000,-40.527,0.000,0.000,0.000
1709299613.611,0.000,-48.828,0.000,0.000,0.000
1709299613.615,0.000,-40.039,0.000,0.000,0.000
1709299613.619,0.000,-36.621,0.000,0.000,0.000
1709299613.623,0.000,-36.133,0.000,0.000,0.000
1709299613.627,0.000,-38.574,0.000,0.000,0.000
1709299613.630,0.000,-39.551,0.000,0.000,0.000
1709299613.634,0.000,-38.086,0.000,0.000,0.000
1709299613.636,-44.922,-41.504,-30.273,-31.250,0.000
1709299613.640,-47.363,-48.340,-30.762,-38.086,0.000
1709299613.644,-52.246,-48.828,-34.668,-41.992,0.000
1709299613.648,-40.527,-44.922,-31.738,-43.945,0.000
1709299613.652,-36.621,-41.992,-30.273,-43.945,0.000
1709299613.655,-41.016,-38.086,-28.320,-32.715,0.000
1709299613.659,-28.809,-43.457,-31.250,-29.297,0.000
1709299613.663,-24.902,-41.504,-38.574,-32.715,0.000
1709299613.667,-29.297,-35.156,-39.551,-45.410,0.000
1709299613.671,-31.738,-45.898,-40.527,-45.410,0.000
1709299613.675,-35.156,-46.875,-40.039,-38.086,0.000
1709299613.679,-35.645,-44.922,-34.668,-33.203,0.000
1709299613.683,-39.551,-46.387,-34.668,-36.133,0.000
1709299613.686,-44.922,-39.551,-33.203,-50.293,0.000
1709299613.690,-39.062,-42.969,-30.762,-46.875,0.000
1709299613.694,-35.645,-44.434,-31.738,-35.156,0.000
1709299613.698,-37.598,-33.691,-23.926,-36.133,0.000
1709299613.702,-41.504,-37.598,-21.484,-39.551,0.000
1709299613.706,-46.387,-41.016,-25.879,-49.805,0.000
1709299613.710,-41.504,-36.621,-19.043,-46.387,0.000
1709299613.714,-37.109,-44.434,-14.160,-36.621,0.000
1709299613.718,-29.297,-46.387,-19.531,-28.809,0.000
1709299613.722,-23.926,-41.992,-19.531,-20.996,0.000
1709299613.726,-21.484,-38.574,-20.020,-27.832,0.000
1709299613.730,-25.391,-40.527,-22.461,-26.855,0.000
1709299613.734,-24.414,-43.945,-22.461,-15.625,0.000
1709299613.738,-27.832,-41.504,-22.949,-20.996,0.000
1709299613.742,-27.344,-41.016,-26.367,-30.762,0.000
1709299613.745,-22.949,-35.156,-21.973,-32.227,0.000
1709299613.749,-30.762,-32.227,-23.438,-28.809,0.000
1709299613.753,-38.574,-43.457,-34.668,-31.250,0.000
1709299613.757,-28.809,-45.410,-35.645,-31.738,0.000
1709299613.761,-21.484,-39.551,-28.809,-32.227,0.000
1709299613.765,-28.320,-46.387,-27.832,-26.367,0.000
1709299613.769,-35.645,-53.223,-34.180,-28.320,0.000
1709299613.773,-31.738,-49.316,-33.691,-31.250,0.000
1709299613.777,-31.250,-50.781,-34.180,-24.414,0.000
1709299613.781,-31.738,-49.805,-32.227,-25.879,0.000
1709299613.785,-20.996,-45.898,-27.344,-28.320,0.000
1709299613.789,-20.996,-43.457,-22.461,-27.832,0.000
1709299613.793,-29.297,-42.480,-24.902,-21.484,0.000
1709299613.797,-26.855,-45.410,-29.297,-17.578,0.000
1709299613.800,-23.438,-41.992,-30.273,-22.461,0.000
1709299613.804,-36.621,-44.434,-34.180,-33.203,0.000
1709299613.808,-51.758,-41.504,-41.504,-33.691,0.000
1709299613.812,-46.875,-48.828,-42.480,-26.367,0.000
1709299613.816,-35.645,-60.059,-33.691,-28.809,0.000
1709299613.820,-41.992,-49.316,-32.715,-41.504,0.000
1709299613.824,-47.852,-41.504,-36.133,-41.992,0.000
1709299613.828,-46.875,-36.621,-37.109,-33.203,0.000
1709299613.832,-40.527,-40.039,-36.133,-35.156,0.000
1709299613.836,-36.133,-37.598,-33.203,-39.062,0.000
1709299613.840,-32.715,-28.809,-31.738,-41.992,0.000
1709299613.844,-37.109,-33.203,-37.109,-44.922,0.000
1709299613.848,-41.504,-38.086,-40.527,-54.688,0.000
1709299613.851,-40.039,-36.621,-36.621,-62.012,0.000
1709299613.855,-35.156,-36.621,-35.645,-52.246,0.000
1709299613.859,-34.180,-41.016,-37.598,-44.922,0.000
1709299613.863,-27.344,-46.387,-32.227,-52.734,0.000
1709299613.867,-21.484,-48.828,-33.203,-58.594,0.000
1709299613.871,-29.297,-43.457,-38.086,-58.594,0.000
1709299613.875,-28.320,-36.133,-33.691,-48.828,0.000
1709299613.879,-27.344,-32.715,-34.668,-49.316,0.000
1709299613.883,-29.785,-35.156,-38.086,-49.805,0.000
1709299613.887,-31.250,-48.828,-39.062,-50.293,0.000
1709299613.891,-34.668,-48.828,-37.109,-51.758,0.000
1709299613.895,-32.715,-36.133,-35.156,-45.410,0.000
1709299613.898,-25.391,-37.598,-38.574,-37.109,0.000
1709299613.902,-29.785,-36.621,-41.992,-31.738,0.000
1709299613.906,-35.645,-28.809,-40.039,-43.457,0.000
1709299613.910,-28.320,-27.344,-30.273,-38.574,0.000
1709299613.914,-29.297,-27.344,-27.344,-28.320,0.000
1709299613.918,-30.762,-30.762,-28.809,-29.785,0.000
1709299613.922,-25.391,-33.691,-25.391,-36.621,0.000
1709299613.926,-28.809,-46.875,-26.367,-44.922,0.000
1709299613.930,-35.645,-49.805,-36.133,-42.969,0.000
1709299613.934,-40.039,-44.922,-36.621,-35.645,0.000
1709299613.938,-40.527,-38.086,-30.762,-36.621,0.000
1709299613.941,-42.969,-27.832,-37.109,-42.969,0.000
1709299613.945,-46.387,-38.086,-31.250,-39.062,0.000
1709299613.949,-40.527,-42.969,-32.227,-39.551,0.000
1709299613.953,-37.109,-28.809,-40.527,-45.410,0.000
1709299613.957,-41.016,-22.949,-35.156,-42.480,0.000
1709299613.961,-38.574,-33.691,-36.133,-37.109,0.000
1709299613.965,-41.992,-38.574,-38.086,-43.457,0.000
1709299613.969,-49.316,-30.273,-38.574,-49.805,0.000
1709299613.973,-46.875,-29.297,-29.785,-38.574,0.000
1709299613.976,-42.480,-31.250,-25.879,-31.250,0.000
1709299613.980,-45.410,-40.527,-31.738,-36.133,0.000
1709299613.984,-49.316,-48.828,-34.668,-44.434,0.000
1709299613.988,-44.434,-42.969,-28.809,-35.156,0.000
1709299613.992,-46.875,-45.410,-26.855,-24.902,0.000
1709299613.996,-49.805,-44.434,-29.297,-30.273,0.000
1709299614.000,-47.852,-37.109,-30.273,-31.738,0.000
1709299614.004,-44.922,-37.598,-29.297,-32.715,0.000
1709299614.008,-42.969,-35.156,-27.344,-37.598,0.000
1709299614.011,-41.504,-39.551,-25.879,-36.621,0.000
1709299614.015,-44.434,-43.457,-29.297,-25.391,0.000
1709299614.019,-45.410,-40.039,-28.320,-26.855,0.000
1709299614.023,-45.898,-48.828,-23.926,-38.086,0.000
1709299614.027,-46.875,-46.875,-26.855,-41.504,0.000
1709299614.031,-47.363,-38.086,-32.227,-41.504,0.000
1709299614.035,-46.875,-43.457,-22.949,-24.414,0.000
1709299614.039,-41.992,-38.574,-19.043,-20.508,0.000
1709299614.043,-43.945,-30.762,-26.855,-39.062,0.000
1709299614.047,-49.316,-36.133,-30.273,-43.945,0.000
1709299614.051,-52.246,-37.598,-35.645,-43.457,0.000
1709299614.054,-51.758,-34.668,-34.180,-40.039,0.000
1709299614.058,-41.504,-34.668,-34.668,-36.133,0.000
1709299614.062,-37.109,-38.574,-34.180,-41.016,0.000
1709299614.066,-42.969,-33.203,-34.668,-44.922,0.000
1709299614.070,-45.898,-29.297,-35.645,-45.898,0.000
1709299614.074,-48.828,-34.180,-33.203,-41.016,0.000
1709299614.078,-51.270,-43.457,-34.180,-38.086,0.000
1709299614.081,-46.875,-47.363,-37.109,-34.180,0.000
1709299614.085,-58.105,-46.387,-40.039,-42.969,0.000
1709299614.089,-63.477,-43.457,-33.691,-51.270,0.000
1709299614.093,-55.176,-37.109,-36.133,-41.992,0.000
1709299614.097,-54.688,-33.203,-45.410,-35.645,0.000
1709299614.101,-47.852,-30.762,-41.016,-39.062,0.000
1709299614.105,-43.945,-33.691,-40.039,-40.527,0.000
1709299614.109,-48.828,-35.156,-40.039,-49.316,0.000
1709299614.113,-45.410,-40.039,-36.621,-50.293,0.000
1709299614.117,-39.551,-41.992,-37.598,-42.969,0.000
1709299614.121,-39.062,-40.527,-40.039,-44.922,0.000
1709299614.125,-36.621,-40.527,-38.574,-44.434,0.000
1709299614.129,-41.992,-40.527,-37.598,-50.781,0.000
1709299614.133,-53.223,-37.109,-39.551,-54.199,0.000
1709299614.137,-49.316,-38.574,-40.039,-46.387,0.000
1709299614.140,-42.480,-45.410,-35.645,-38.086,0.000
1709299614.144,-44.434,-42.480,-32.227,-42.969,0.000
1709299614.148,-46.387,-39.062,-33.691,-42.480,0.000
1709299614.152,-40.527,-42.969,-31.250,-37.109,0.000
1709299614.156,-38.086,-41.016,-27.832,-33.691,0.000
1709299614.160,-37.109,-37.598,-33.203,-30.762,0.000
1709299614.164,-33.691,-32.227,-38.574,-42.969,0.000
1709299614.168,-33.691,-31.738,-40.039,-49.316,0.000
1709299614.172,-30.762,-33.203,-32.227,-33.203,0.000
1709299614.176,-36.133,-32.227,-23.926,-25.391,0.000
1709299614.180,-41.504,-33.691,-33.691,-29.297,0.000
1709299614.184,-37.109,-38.574,-39.062,-21.484,0.000
1709299614.188,-41.016,-37.598,-35.156,-18.555,0.000
1709299614.192,-38.574,-28.809,-31.250,-27.344,0.000
1709299614.195,-31.738,-26.367,-28.320,-27.344,0.000
1709299614.200,-32.715,-31.250,-33.203,-26.367,0.000
1709299614.203,-27.344,-34.180,-34.180,-34.668,0.000
1709299614.207,-28.320,-26.367,-29.785,-39.062,0.000
1709299614.211,-37.109,-41.992,-29.297,-34.180,0.000
1709299614.215,-41.992,-49.805,-34.180,-35.156,0.000
1709299614.219,-38.574,-34.180,-35.645,-32.227,0.000
1709299614.223,-36.621,-28.320,-37.598,-34.180,0.000
1709299614.227,-38.086,-27.344,-36.133,-45.898,0.000
1709299614.231,-46.387,-31.250,-36.621,-38.086,0.000
1709299614.235,-45.410,-37.598,-46.387,-36.133,0.000
1709299614.239,-38.086,-42.969,-46.387,-53.223,0.000
1709299614.242,-42.480,-41.016,-41.992,-56.641,0.000
1709299614.247,-43.945,-32.715,-38.086,-55.664,0.000
1709299614.251,-43.945,-31.738,-38.086,-64.453,0.000
1709299614.255,-48.828,-38.086,-37.109,-65.918,0.000
1709299614.259,-42.480,-35.645,-33.691,-56.152,0.000
1709299614.263,-43.945,-26.855,-34.180,-53.223,0.000
1709299614.267,-49.805,-27.832,-36.133,-62.500,0.000
1709299614.271,-45.410,-30.273,-36.621,-63.965,0.000
1709299614.275,-47.363,-45.410,-38.574,-46.387,0.000
1709299614.278,-51.758,-46.875,-35.645,-34.180,0.000
1709299614.282,-51.270,-29.785,-33.203,-48.340,0.000
1709299614.286,-54.688,-40.039,-33.691,-55.176,0.000
1709299614.290,-63.477,-47.852,-39.551,-52.734,0.000
1709299614.294,-56.152,-40.527,-37.598,-40.039,0.000
1709299614.298,-44.922,-34.180,-33.203,-31.250,0.000
1709299614.302,-40.039,-32.227,-30.273,-38.086,0.000
1709299614.306,-44.434,-36.621,-28.320,-49.316,0.000
1709299614.310,-43.457,-33.203,-33.691,-54.199,0.000
1709299614.314,-41.016,-46.875,-33.203,-46.387,0.000
1709299614.317,-39.551,-54.199,-34.668,-40.039,0.000
1709299614.321,-25.879,-30.762,-32.715,-39.551,0.000
1709299614.325,-26.367,-31.250,-30.762,-44.434,0.000
1709299614.329,-34.668,-39.062,-39.062,-53.711,0.000
1709299614.333,-25.879,-41.504,-39.062,-44.434,0.000
1709299614.337,-23.926,-46.387,-30.273,-36.621,0.000
1709299614.341,-35.645,-39.551,-27.344,-39.062,0.000
1709299614.345,-34.668,-45.410,-30.273,-44.922,0.000
1709299614.349,-40.527,-49.316,-28.809,-54.199,0.000
1709299614.353,-45.898,-41.992,-30.273,-60.547,0.000
1709299614.356,-45.898,-39.062,-33.691,-54.688,0.000
1709299614.360,-44.922,-41.992,-36.621,-48.340,0.000
1709299614.364,-44.922,-42.480,-35.645,-54.688,0.000
1709299614.368,-44.434,-37.598,-37.109,-57.129,0.000
1709299614.372,-40.527,-28.320,-40.039,-56.152,0.000
1709299614.376,-39.062,-30.762,-37.109,-53.223,0.000
1709299614.380,-39.062,-39.062,-34.668,-49.316,0.000
1709299614.384,-37.109,-44.922,-35.645,-47.852,0.000
1709299614.388,-37.598,-48.828,-31.250,-52.734,0.000
1709299614.392,-35.156,-39.551,-27.832,-53.711,0.000
1709299614.396,-36.621,-36.133,-32.227,-46.387,0.000
1709299614.400,-39.062,-38.086,-34.668,-41.016,0.000
1709299614.404,-33.691,-42.480,-36.133,-40.039,0.000
1709299614.408,-27.344,-42.480,-33.203,-38.574,0.000
1709299614.412,-33.203,-44.922,-32.227,-33.203,0.000
1709299614.416,-46.875,-43.457,-31.250,-36.621,0.000
1709299614.419,-41.016,-34.668,-30.762,-43.457,0.000
1709299614.423,-33.691,-33.203,-31.250,-40.039,0.000
1709299614.427,-34.180,-36.133,-27.344,-50.781,0.000
1709299614.431,-31.738,-35.645,-29.785,-56.641,0.000
1709299614.435,-35.156,-36.621,-34.668,-45.410,0.000
1709299614.439,-31.738,-40.039,-40.527,-34.668,0.000
1709299614.443,-33.203,-39.551,-33.203,-30.273,0.000
1709299614.446,-40.039,-43.945,-28.809,-40.527,0.000
1709299614.450,-46.875,-47.363,-37.598,-57.617,0.000
1709299614.454,-45.898,-45.898,-41.016,-54.688,0.000
1709299614.458,-44.434,-44.434,-39.551,-42.480,0.000
1709299614.462,-47.852,-43.457,-40.527,-43.457,0.000
1709299614.466,-47.363,-50.781,-35.156,-51.270,0.000
1709299614.470,-49.316,-54.199,-32.715,-42.969,0.000
1709299614.474,-47.363,-46.875,-34.668,-29.297,0.000
1709299614.478,-41.992,-34.668,-33.203,-34.180,0.000
1709299614.482,-38.086,-29.297,-36.133,-35.645,0.000
1709299614.486,-36.133,-25.391,-38.086,-38.086,0.000
1709299614.490,-40.039,-30.762,-31.250,-43.457,0.000
1709299614.494,-35.645,-31.250,-31.738,-39.551,0.000
1709299614.498,-27.832,-25.391,-31.250,-33.691,0.000
1709299614.501,-30.762,-32.227,-32.715,-35.645,0.000
1709299614.505,-36.621,-37.109,-37.109,-44.434,0.000
1709299614.509,-43.945,-35.645,-42.480,-51.758,0.000
1709299614.513,-41.504,-43.945,-43.945,-49.316,0.000
1709299614.517,-34.668,-53.711,-36.133,-36.133,0.000
1709299614.521,-38.086,-43.457,-37.598,-42.969,0.000
1709299614.525,-34.668,-43.945,-44.434,-58.105,0.000
1709299614.529,0.000,-48.340,-44.434,-58.105,0.000
1709299614.533,0.000,-47.852,-41.992,-49.805,0.000
1709299614.537,0.000,-46.875,-42.480,-39.062,0.000
1709299614.541,0.000,-34.668,-39.062,-20.508,0.000
1709299614.545,0.000,-25.879,-27.832,-16.602,0.000
1709299614.549,0.000,-29.785,-22.461,-26.367,0.000
1709299614.552,0.000,-34.180,-25.391,-22.949,0.000
1709299614.556,0.000,-39.551,-35.156,-19.531,0.000
1709299614.560,0.000,-42.969,-34.180,-16.602,0.000
1709299614.564,0.000,-37.109,-30.273,-17.090,0.000
1709299614.568,0.000,-30.762,-28.320,-22.461,0.000
1709299614.572,0.000,-36.133,-29.297,-26.367,0.000
1709299614.576,-41.992,-43.945,-35.156,-32.715,0.000
1709299614.580,-33.691,-40.527,-38.086,-31.738,0.000
1709299614.584,-34.180,-46.875,-38.574,-35.156,0.000
1709299614.588,-38.086,-55.176,-35.156,-41.016,0.000
1709299614.592,-35.645,-44.434,-27.832,-38.086,0.000
1709299614.596,-38.574,-41.504,-27.832,-27.832,0.000
1709299614.599,-40.527,-35.645,-35.645,-24.902,0.000
1709299614.603,-40.039,-26.367,-38.574,-35.156,0.000
1709299614.607,-39.551,-37.598,-37.598,-26.855,0.000
1709299614.611,-35.156,-42.480,-37.109,-18.555,0.000
1709299614.615,-33.691,-32.227,-38.086,-21.484,0.000
1709299614.619,-28.320,-29.785,-41.016,-17.578,0.000
1709299614.623,-25.879,-35.645,-37.598,-27.344,0.000
1709299614.627,-36.621,-40.039,-33.691,-43.457,0.000
1709299614.631,-46.875,-35.645,-29.785,-50.293,0.000
1709299614.635,-42.969,-35.645,-29.297,-48.340,0.000
1709299614.639,-36.621,-40.039,-35.156,-40.039,0.000
1709299614.642,-42.480,-45.410,-37.109,-38.574,0.000
1709299614.646,-51.758,-42.969,-37.109,-52.246,0.000
1709299614.650,-52.246,-31.250,-34.668,-52.246,0.000
1709299614.654,-46.875,-35.156,-36.133,-41.016,0.000
1709299614.658,-46.387,-47.852,-37.109,-49.805,0.000
1709299614.662,-47.363,-40.527,-38.574,-46.875,0.000
1709299614.666,-44.922,-26.367,-37.598,-40.039,0.000
1709299614.670,-46.387,-29.297,-35.645,-51.758,0.000
1709299614.674,-49.316,-36.621,-35.645,-49.805,0.000
1709299614.677,-44.434,-40.039,-34.668,-33.203,0.000
1709299614.681,-39.062,-41.504,-34.180,-28.320,0.000
1709299614.685,-32.227,-34.180,-28.320,-20.996,0.000
1709299614.689,-31.250,-38.574,-24.902,-28.320,0.000
1709299614.693,-34.668,-44.434,-32.227,-34.180,0.000
1709299614.697,-36.133,-38.574,-37.109,-24.414,0.000
1709299614.701,-32.227,-34.668,-31.250,-20.020,0.000
1709299614.705,-33.203,-32.227,-25.391,-27.344,0.000
1709299614.709,-37.598,-34.180,-29.785,-34.668,0.000
1709299614.713,-38.574,-38.574,-31.250,-40.527,0.000
1709299614.717,-35.645,-41.504,-34.668,-38.086,0.000
1709299614.721,-29.785,-41.992,-39.551,-38.086,0.000
1709299614.725,-28.809,-41.504,-35.645,-40.527,0.000
1709299614.729,-30.273,-52.734,-35.645,-42.480,0.000
1709299614.733,-37.109,-52.246,-43.457,-51.270,0.000
1709299614.737,-38.086,-41.504,-47.852,-59.570,0.000
1709299614.741,-34.668,-43.945,-38.574,-46.387,0.000
1709299614.744,-28.809,-46.387,-31.738,-27.344,0.000
1709299614.748,-24.414,-40.039,-29.785,-36.133,0.000
1709299614.752,-29.785,-41.992,-32.715,-41.016,0.000
1709299614.756,-36.133,-45.410,-34.180,-39.062,0.000
1709299614.760,-36.621,-37.598,-31.738,-37.598,0.000
1709299614.764,0.000,-36.621,-35.645,-34.180,0.000
1709299614.768,0.000,-45.898,-35.156,-43.945,0.000
1709299614.772,0.000,-55.176,-30.762,-48.828,0.000
1709299614.776,0.000,-51.270,-26.367,-40.527,0.000
1709299614.780,0.000,-49.316,-23.438,-30.762,0.000
1709299614.784,0.000,-52.246,-24.414,-22.949,0.000
1709299614.788,0.000,-47.363,-30.762,-23.926,0.000
1709299614.792,0.000,-42.480,-34.180,-30.762,0.000
1709299614.796,0.000,-41.504,-28.809,-26.855,0.000
1709299614.800,0.000,-39.062,-31.738,-21.484,0.000
1709299614.804,0.000,-36.133,-35.645,-19.043,0.000
1709299614.807,0.000,-37.598,-27.832,-35.645,0.000
1709299614.811,-38.086,-41.992,-32.227,-44.922,0.000
1709299614.815,-38.574,-41.016,-40.527,-34.180,0.000
1709299614.819,-40.527,-47.363,-34.668,-25.879,0.000
1709299614.823,-42.969,-52.246,-33.203,-29.297,0.000
1709299614.827,-41.504,-39.062,-40.039,-38.574,0.000
1709299614.830,-43.457,-38.086,-44.434,-41.504,0.000
1709299614.834,-51.270,-37.598,-44.922,-38.086,0.000
1709299614.838,-51.758,-36.133,-41.016,-35.156,0.000
1709299614.842,-41.016,-39.062,-40.527,-40.527,0.000
1709299614.846,-29.297,-34.180,-39.551,-41.992,0.000
1709299614.850,-29.297,-31.250,-35.645,-40.527,0.000
1709299614.854,-36.621,-26.855,-39.062,-43.945,0.000
1709299614.858,-37.598,-27.832,-41.504,-43.457,0.000
1709299614.862,-37.598,-30.762,-41.992,-34.668,0.000
1709299614.866,-40.039,-37.109,-41.016,-40.039,0.000
1709299614.870,-41.504,-41.992,-40.527,-52.734,0.000
1709299614.874,-42.480,-45.410,-40.039,-49.805,0.000
1709299614.878,-44.434,-42.969,-37.109,-44.434,0.000
1709299614.881,-38.574,-42.480,-39.551,-42.969,0.000
1709299614.885,-32.227,-36.621,-29.297,-49.805,0.000
1709299614.889,-38.574,-24.414,-27.344,-59.570,0.000
1709299614.893,-40.039,-23.438,-36.133,-50.781,0.000
1709299614.897,-37.598,-23.926,-40.527,-41.016,0.000
1709299614.901,-34.180,-25.391,-31.250,-42.969,0.000
1709299614.905,-33.691,-35.156,-36.621,-46.387,0.000
1709299614.909,-35.156,-38.574,-46.387,-48.828,0.000
1709299614.913,-36.621,-39.062,-33.203,-47.363,0.000
1709299614.917,-41.016,-36.621,-29.785,-41.992,0.000
1709299614.921,-40.527,-32.715,-37.598,-33.203,0.000
1709299614.925,-39.062,-31.250,-41.016,-38.574,0.000
1709299614.929,-48.828,-33.691,-39.062,-52.734,0.000
1709299614.932,-45.410,-45.898,-36.133,-47.852,0.000
1709299614.936,-36.621,-52.734,-35.156,-31.250,0.000
1709299614.940,-35.156,-41.992,-32.227,-25.391,0.000
1709299614.944,-29.297,-39.062,-33.203,-29.785,0.000
1709299614.948,-33.203,-40.039,-35.645,-42.969,0.000
1709299614.952,-35.156,-36.621,-34.668,-48.340,0.000
1709299614.956,-32.715,-45.410,-36.621,-45.410,0.000
1709299614.960,-34.180,-43.457,-35.156,-46.875,0.000
1709299614.964,-31.738,-33.203,-40.039,-41.992,0.000
1709299614.968,-27.832,-43.945,-37.109,-40.527,0.000
1709299614.972,-29.297,-49.805,-31.250,-43.457,0.000
1709299614.975,-31.250,-39.551,-34.668,-43.945,0.000
1709299614.979,-31.738,-31.738,-32.715,-41.016,0.000
1709299614.983,-30.273,-30.762,-33.203,-29.785,0.000
1709299614.987,-35.645,-34.180,-32.715,-32.227,0.000
1709299614.991,-39.551,-33.691,-28.809,-45.898,0.000
1709299614.995,-37.598,-36.133,-34.668,-46.387,0.000
1709299614.999,-45.898,-43.457,-48.340,-49.316,0.000
1709299615.003,-53.223,-45.410,-50.293,-42.969,0.000
1709299615.007,-53.711,-44.434,-40.527,-46.387,0.000
1709299615.011,-53.223,-37.109,-31.738,-52.734,0.000
1709299615.014,-49.316,-32.715,-29.785,-47.363,0.000
1709299615.018,-41.504,-42.480,-36.133,-30.762,0.000
1709299615.022,-44.434,-43.945,-38.574,-26.855,0.000
1709299615.026,-45.410,-36.133,-40.527,-35.645,0.000
1709299615.030,-46.875,-28.320,-41.504,-32.715,0.000
1709299615.034,-48.340,-20.996,-32.227,-34.180,0.000
1709299615.038,-46.387,-28.320,-37.109,-37.109,0.000
1709299615.042,-45.410,-34.668,-44.922,-33.691,0.000
1709299615.046,-50.293,-31.250,-38.574,-34.180,0.000
1709299615.049,-51.270,-28.320,-36.133,-45.410,0.000
1709299615.053,-48.340,-32.227,-35.645,-57.129,0.000
1709299615.057,-43.945,-33.203,-32.715,-48.340,0.000
1709299615.061,-39.551,-33.691,-36.621,-32.227,0.000
1709299615.065,-45.410,-35.645,-40.039,-41.504,0.000
1709299615.069,-40.527,-32.715,-37.109,-50.293,0.000
1709299615.073,-41.016,-33.691,-34.180,-42.480,0.000
1709299615.077,-45.898,-29.785,-38.086,-33.203,0.000
1709299615.081,-39.551,-24.414,-43.457,-37.109,0.000
1709299615.085,-42.480,-29.297,-39.062,-41.016,0.000
1709299615.089,-41.992,-38.086,-32.227,-39.062,0.000
1709299615.092,-37.109,-36.621,-31.250,-42.480,0.000
1709299615.096,-42.969,-35.156,-34.180,-43.945,0.000
1709299615.100,-43.945,-42.480,-38.574,-41.992,0.000
1709299615.104,-38.574,-40.527,-40.527,-42.969,0.000
1709299615.108,-41.504,-37.598,-41.504,-49.805,0.000
1709299615.112,-41.992,-46.875,-43.457,-51.758,0.000
1709299615.116,-39.062,-49.316,-43.457,-42.480,0.000
1709299615.120,-35.156,-40.527,-36.621,-30.762,0.000
1709299615.123,-32.227,-40.527,-35.156,-33.691,0.000
1709299615.127,-30.762,-54.199,-34.668,-45.410,0.000
1709299615.131,-31.250,-54.199,-31.738,-51.270,0.000
1709299615.135,-35.645,-39.062,-25.391,-46.875,0.000
1709299615.139,-41.016,-37.109,-32.227,-37.109,0.000
1709299615.143,-31.738,-36.133,-33.203,-29.297,0.000
1709299615.147,-28.320,-37.598,-26.367,-39.062,0.000
1709299615.150,-34.180,-44.922,-29.785,-45.410,0.000
1709299615.154,-34.180,-39.551,-29.297,-40.039,0.000
1709299615.158,-34.668,-39.062,-31.250,-36.621,0.000
1709299615.162,-30.273,-41.504,-29.785,-18.066,0.000
1709299615.166,-25.391,-38.574,-22.461,-12.207,0.000
1709299615.170,-21.484,-43.945,-23.926,-29.297,0.000
1709299615.174,-21.973,-45.898,-24.414,-23.438,0.000
1709299615.178,-30.273,-41.504,-32.227,-25.879,0.000
1709299615.182,-33.691,-42.480,-32.227,-32.715,0.000
1709299615.185,-35.156,-46.387,-35.645,-35.645,0.000
1709299615.189,-38.574,-46.875,-39.551,-33.691,0.000
1709299615.193,-35.156,-41.504,-35.156,-36.621,0.000
1709299615.197,-30.273,-39.551,-33.203,-36.133,0.000
1709299615.201,-29.297,-36.621,-32.715,-35.645,0.000
1709299615.205,-25.391,-38.086,-35.156,-36.133,0.000
1709299615.209,-28.809,-37.598,-36.133,-29.785,0.000
1709299615.213,-37.109,-31.250,-40.527,-44.434,0.000
1709299615.216,-34.668,-32.227,-33.203,-51.270,0.000
1709299615.220,-36.133,-45.410,-32.715,-39.551,0.000
1709299615.224,-44.434,-49.316,-40.039,-44.434,0.000
1709299615.228,-47.363,-39.551,-38.574,-54.199,0.000
1709299615.232,-46.387,-37.598,-35.645,-53.223,0.000
1709299615.236,-41.016,-38.086,-34.668,-49.805,0.000
1709299615.240,-43.945,-42.969,-35.645,-45.410,0.000
1709299615.244,-49.805,-51.270,-37.598,-42.480,0.000
1709299615.248,-48.828,-46.387,-42.480,-43.945,0.000
1709299615.252,-49.805,-40.039,-37.109,-40.527,0.000
1709299615.256,-49.805,-44.922,-29.785,-38.086,0.000
1709299615.260,-41.504,-46.875,-29.297,-31.250,0.000
1709299615.264,-42.969,-35.645,-27.832,-31.738,0.000
1709299615.268,-46.875,-27.344,-30.762,-36.621,0.000
1709299615.271,-47.852,-32.715,-36.133,-41.992,0.000
1709299615.275,-52.734,-43.457,-33.691,-41.504,0.000
1709299615.279,-54.688,-50.293,-29.297,-33.203,0.000
1709299615.283,-47.852,-54.688,-32.715,-32.227,0.000
1709299615.287,-45.898,-53.711,-38.574,-43.457,0.000
1709299615.291,-56.152,-47.363,-27.832,-55.664,0.000
1709299615.295,-60.059,-49.316,-23.438,-53.223,0.000
1709299615.299,-54.688,-41.016,-25.391,-44.434,0.000
1709299615.303,-52.246,-35.156,-22.949,-45.410,0.000
1709299615.307,-51.758,-41.504,-30.273,-55.664,0.000
1709299615.311,-45.410,-42.969,-33.203,-52.734,0.000
1709299615.315,-42.480,-45.410,-26.855,-37.109,0.000
1709299615.319,-44.922,-47.363,-29.297,-37.598,0.000
1709299615.322,-42.480,-43.945,-32.715,-35.645,0.000
1709299615.326,-40.527,-49.805,-31.738,-37.109,0.000
1709299615.330,-41.992,-54.688,-37.598,-45.410,0.000
1709299615.334,-37.598,-48.828,-39.551,-40.527,0.000
1709299615.338,-37.598,-47.852,-33.691,-40.039,0.000
1709299615.342,-35.645,-38.574,-30.762,-36.621,0.000
1709299615.346,-35.645,-32.715,-35.645,-32.715,0.000
1709299615.350,-41.992,-37.598,-44.434,-39.062,0.000
1709299615.354,-38.574,-31.738,-38.086,-40.527,0.000
1709299615.358,-39.062,-23.438,-32.715,-32.715,0.000
1709299615.362,-36.621,-37.598,-33.691,-25.879,0.000
1709299615.365,-31.738,-43.945,-26.855,-38.086,0.000
1709299615.369,-32.227,-38.086,-32.227,-42.969,0.000
1709299615.373,-30.273,-42.480,-38.086,-42.480,0.000
1709299615.377,-30.762,-43.457,-32.715,-32.227,0.000
1709299615.381,-33.203,-34.180,-32.715,-20.996,0.000
1709299615.385,-34.668,-26.855,-35.156,-35.156,0.000
1709299615.389,-35.156,-28.320,-39.062,-49.805,0.000
1709299615.393,-35.645,-38.086,-39.551,-49.805,0.000
1709299615.397,-38.574,-39.551,-31.250,-44.434,0.000
1709299615.401,-41.992,-37.109,-25.391,-39.062,0.000
1709299615.405,-38.086,-43.457,-26.855,-30.273,0.000
1709299615.408,-48.340,-40.039,-31.250,-45.410,0.000
1709299615.412,-60.547,-39.062,-37.109,-65.918,0.000
1709299615.416,-60.547,-42.480,-44.922,-61.035,0.000
1709299615.420,-58.105,-41.504,-42.969,-53.711,0.000
1709299615.424,-55.664,-50.293,-37.109,-50.781,0.000
1709299615.428,-50.781,-44.434,-44.922,-53.223,0.000
1709299615.432,-50.293,-30.762,-43.945,-59.570,0.000
1709299615.436,-51.758,-40.527,-42.969,-58.594,0.000
1709299615.440,-40.039,-47.363,-37.598,-47.852,0.000
1709299615.443,-31.738,-41.992,-39.062,-42.969,0.000
1709299615.447,-30.273,-46.387,-49.316,-41.504,0.000
1709299615.451,-26.855,-41.504,-40.039,-40.039,0.000
1709299615.455,-24.414,-30.273,-38.574,-46.387,0.000
1709299615.459,-24.902,-41.992,-43.945,-45.898,0.000
1709299615.463,-17.578,-45.898,-40.527,-39.551,0.000
1709299615.467,-14.160,-34.180,-38.574,-40.039,0.000
1709299615.471,-18.066,-33.203,-40.039,-51.758,0.000
1709299615.475,-18.066,-37.598,-31.250,-51.270,0.000
1709299615.478,-19.043,-41.504,-26.367,-33.691,0.000
1709299615.482,-20.020,-35.156,-29.297,-23.438,0.000
1709299615.486,-28.320,-27.344,-32.715,-37.109,0.000
1709299615.490,-27.344,-24.414,-31.250,-45.898,0.000
1709299615.494,-25.879,-25.879,-33.203,-36.621,0.000
1709299615.498,-26.367,-29.785,-37.598,-32.715,0.000
1709299615.502,-20.508,-33.691,-30.273,-37.109,0.000
1709299615.506,-21.973,-45.898,-31.250,-39.551,0.000
1709299615.510,-34.180,-47.852,-37.109,-47.363,0.000
1709299615.513,-44.434,-48.340,-38.086,-49.805,0.000
1709299615.517,-34.180,-51.758,-38.574,-38.086,0.000
1709299615.521,-32.227,-55.664,-41.016,-36.133,0.000
1709299615.525,-40.039,-55.664,-38.574,-41.992,0.000
1709299615.529,-41.504,-36.133,-35.645,-47.852,0.000
1709299615.533,-50.293,-31.738,-37.598,-51.758,0.000
1709299615.537,-52.246,-34.668,-36.133,-35.156,0.000
1709299615.541,-52.734,-37.109,-31.738,-25.391,0.000
1709299615.545,-45.410,-41.504,-36.621,-31.250,0.000
1709299615.548,-41.992,-42.969,-37.598,-33.203,0.000
1709299615.552,-52.246,-50.293,-33.203,-44.922,0.000
1709299615.556,-49.805,-49.805,-41.016,-37.598,0.000
1709299615.560,-37.109,-36.621,-36.621,-26.367,0.000
1709299615.564,-38.086,-43.945,-30.762,-35.156,0.000
1709299615.568,-44.922,-43.457,-35.156,-40.039,0.000
1709299615.572,-51.270,-35.156,-37.109,-38.574,0.000
1709299615.575,-51.270,-37.109,-32.227,-37.109,0.000
1709299615.579,-41.992,-37.598,-39.062,-25.391,0.000
1709299615.583,-39.551,-40.527,-44.922,-18.066,0.000
1709299615.587,-41.016,-44.922,-41.016,-41.504,0.000
1709299615.591,-38.086,-51.270,-39.062,-50.781,0.000
1709299615.595,-40.039,-56.641,-32.227,-41.992,0.000
1709299615.599,-39.062,-43.457,-29.785,-35.645,0.000
1709299615.603,-43.945,-32.715,-34.180,-40.039,0.000
1709299615.607,-52.734,-32.227,-36.133,-53.711,0.000
1709299615.611,-50.293,-32.715,-40.039,-58.105,0.000
1709299615.615,-49.316,-36.133,-43.457,-48.828,0.000
1709299615.619,-46.387,-39.551,-39.551,-45.898,0.000
1709299615.623,-38.574,-37.109,-41.992,-48.828,0.000
1709299615.627,-39.551,-38.574,-41.504,-45.410,0.000
1709299615.630,-43.945,-39.062,-41.016,-47.363,0.000
1709299615.634,-41.504,-30.273,-40.527,-47.852,0.000
1709299615.638,-35.645,-33.203,-39.062,-42.969,0.000
1709299615.642,-42.969,-47.852,-44.922,-41.504,0.000
1709299615.646,-44.922,-37.598,-42.480,-41.992,0.000
1709299615.650,-47.363,-28.809,-30.762,-52.734,0.000
1709299615.654,-47.363,-41.504,-29.785,-55.176,0.000
1709299615.658,-48.340,-50.293,-36.133,-51.270,0.000
1709299615.662,-48.340,-43.945,-33.203,-48.828,0.000
1709299615.666,-43.945,-41.016,-35.645,-53.223,0.000
1709299615.670,-47.852,-41.504,-41.016,-61.523,0.000
1709299615.674,-49.805,-34.668,-43.457,-63.965,0.000
1709299615.678,-49.316,-37.109,-38.086,-54.688,0.000
1709299615.681,-48.828,-47.363,-29.297,-46.875,0.000
1709299615.685,-51.758,-45.410,-29.785,-48.828,0.000
1709299615.689,-48.340,-39.551,-23.438,-43.945,0.000
1709299615.693,-46.387,-38.574,-29.785,-49.805,0.000
1709299615.697,-51.758,-47.363,-36.133,-54.688,0.000
1709299615.701,-47.363,-58.594,-40.039,-50.781,0.000
1709299615.705,-39.062,-56.641,-42.969,-42.969,0.000
1709299615.709,-46.875,-57.129,-48.828,-41.992,0.000
1709299615.713,-42.969,-46.387,-42.969,-45.898,0.000
1709299615.717,-38.574,-35.645,-35.645,-41.016,0.000
1709299615.721,-46.387,-40.527,-45.410,-48.340,0.000
1709299615.725,-43.945,-41.992,-42.480,-55.664,0.000
1709299615.728,-48.828,-33.203,-43.457,-54.688,0.000
1709299615.732,-49.805,-33.203,-39.551,-38.574,0.000
1709299615.736,-41.992,-45.410,-35.645,-32.715,0.000
1709299615.740,-43.945,-40.039,-42.480,-33.203,0.000
1709299615.744,-33.691,-28.809,-41.504,-32.715,0.000
1709299615.748,0.000,-53.711,-34.668,-44.434,0.000
1709299615.752,0.000,-62.988,-35.156,-46.387,0.000
1709299615.756,0.000,-38.574,-39.062,-47.363,0.000
1709299615.760,0.000,-30.762,-35.156,-52.246,0.000
1709299615.764,0.000,-32.227,-32.715,-43.945,0.000
1709299615.768,0.000,-34.180,-33.691,-40.039,0.000
1709299615.771,0.000,-39.062,-42.480,-44.922,0.000
1709299615.775,0.000,-43.457,-42.969,-39.551,0.000
1709299615.779,0.000,-44.434,-38.574,-26.367,0.000
1709299615.783,0.000,-48.828,-38.086,-28.320,0.000
1709299615.787,0.000,-37.109,-26.855,-38.086,0.000
1709299615.791,0.000,-20.508,-25.391,-39.551,0.000
1709299615.795,-34.180,-29.297,-32.227,-32.227,0.000
1709299615.799,-34.180,-35.156,-35.156,-28.320,0.000
1709299615.803,-27.344,-38.086,-31.738,-32.715,0.000
1709299615.806,-25.391,-40.527,-33.203,-41.016,0.000
1709299615.810,-37.109,-37.598,-45.410,-47.363,0.000
1709299615.814,-45.898,-38.574,-40.527,-38.574,0.000
1709299615.818,-37.109,-36.621,-34.180,-33.203,0.000
1709299615.822,-30.762,-37.109,-33.691,-22.461,0.000
1709299615.826,-29.785,-53.223,-32.227,-18.066,0.000
1709299615.830,-32.715,-45.898,-37.598,-28.320,0.000
1709299615.834,-33.203,-27.832,-39.551,-33.691,0.000
1709299615.838,-29.785,-27.344,-37.109,-30.273,0.000
1709299615.841,-33.691,-34.180,-33.203,-33.203,0.000
1709299615.845,-38.086,-36.621,-31.738,-34.180,0.000
1709299615.849,-43.457,-39.551,-36.133,-39.551,0.000
1709299615.853,-40.527,-36.133,-32.715,-34.668,0.000
1709299615.857,-33.691,-33.691,-31.250,-29.297,0.000
1709299615.861,-33.691,-37.598,-28.809,-36.621,0.000
1709299615.865,-33.691,-41.992,-26.855,-35.645,0.000
1709299615.869,-36.621,-44.922,-35.645,-34.180,0.000
1709299615.873,-33.691,-38.574,-35.156,-31.738,0.000
1709299615.877,-28.809,-37.598,-29.785,-28.320,0.000
1709299615.881,-30.273,-44.922,-32.227,-33.691,0.000
1709299615.884,-28.809,-49.805,-33.203,-41.992,0.000
1709299615.888,-27.832,-48.340,-34.180,-45.410,0.000
1709299615.892,-31.250,-42.480,-37.598,-43.457,0.000
1709299615.896,-33.691,-43.457,-41.504,-40.527,0.000
1709299615.900,-34.180,-40.527,-40.527,-36.621,0.000
1709299615.904,-30.273,-41.992,-35.156,-41.504,0.000
1709299615.908,-35.645,-52.246,-32.715,-47.852,0.000
1709299615.911,-37.598,-47.363,-27.344,-32.715,0.000
1709299615.915,-40.527,-39.551,-25.879,-23.438,0.000
1709299615.919,-43.945,-52.734,-29.297,-24.414,0.000
1709299615.923,-38.086,-57.617,-34.668,-22.461,0.000
1709299615.927,-38.086,-35.645,-33.203,-27.832,0.000
1709299615.931,-38.086,-31.250,-26.855,-28.809,0.000
1709299615.935,-30.762,-44.922,-28.320,-24.414,0.000
1709299615.939,-25.879,-45.410,-24.902,-28.320,0.000
1709299615.943,-29.785,-49.805,-22.949,-29.785,0.000
1709299615.947,-36.621,-61.523,-28.320,-28.809,0.000
1709299615.951,-34.668,-51.270,-24.414,-38.574,0.000
1709299615.955,-34.180,-32.227,-25.391,-43.457,0.000
1709299615.959,-33.691,-32.227,-26.855,-31.738,0.000
1709299615.963,-32.227,-39.551,-29.297,-27.344,0.000
1709299615.967,-41.504,-59.082,-34.180,-38.574,0.000
1709299615.970,-40.039,-60.059,-30.273,-36.621,0.000
1709299615.974,-41.016,-45.410,-29.297,-31.738,0.000
1709299615.978,-43.457,-40.527,-35.156,-37.109,0.000
1709299615.982,-33.691,-36.621,-38.086,-28.809,0.000
1709299615.986,-34.668,-34.668,-38.086,-31.250,0.000
1709299615.990,-33.203,-30.762,-37.109,-38.574,0.000
1709299615.994,-26.855,-31.250,-35.645,-43.457,0.000
1709299615.998,-31.738,-31.250,-35.645,-51.270,0.000
1709299616.002,-32.715,-36.133,-35.645,-44.922,0.000
1709299616.006,-34.668,-45.410,-42.480,-36.621,0.000
1709299616.010,-40.527,-44.434,-44.922,-43.945,0.000
1709299616.014,-38.574,-33.691,-35.156,-53.223,0.000
1709299616.018,-39.551,-37.598,-30.762,-41.016,0.000
1709299616.022,-33.203,-44.922,-30.273,-29.785,0.000
1709299616.025,-27.344,-40.039,-29.297,-37.109,0.000
1709299616.030,-30.273,-36.621,-32.715,-37.598,0.000
1709299616.033,-32.715,-37.109,-34.668,-38.574,0.000
1709299616.037,-33.691,-29.297,-31.738,-43.457,0.000
1709299616.041,-38.574,-30.273,-34.180,-41.504,0.000
1709299616.045,-47.363,-34.180,-34.180,-40.527,0.000
1709299616.049,-54.688,-49.805,-29.297,-49.316,0.000
1709299616.053,-57.129,-54.688,-34.668,-56.152,0.000
1709299616.057,-56.152,-45.898,-39.062,-59.570,0.000
1709299616.061,-55.176,-45.410,-37.109,-53.711,0.000
1709299616.065,-57.617,-42.969,-38.574,-47.852,0.000
1709299616.069,-56.152,-45.410,-37.598,-55.176,0.000
1709299616.072,-57.617,-39.062,-34.180,-58.105,0.000
1709299616.076,-53.711,-41.992,-43.945,-50.781,0.000
1709299616.080,-47.363,-47.852,-41.992,-40.039,0.000
1709299616.084,-36.133,-46.387,-30.762,-35.156,0.000
1709299616.088,-26.855,-44.434,-31.738,-38.574,0.000
1709299616.092,-35.645,-39.551,-33.203,-53.223,0.000
1709299616.096,-34.668,-41.016,-31.738,-52.734,0.000
1709299616.100,-29.785,-40.527,-31.250,-42.969,0.000
1709299616.104,-30.273,-37.598,-32.715,-44.434,0.000
1709299616.108,-30.762,-42.969,-36.133,-42.480,0.000
1709299616.112,-36.133,-48.828,-32.715,-47.852,0.000
1709299616.116,-41.504,-51.758,-34.668,-61.035,0.000
1709299616.119,-39.062,-45.898,-38.086,-48.340,0.000
1709299616.123,-29.785,-32.715,-41.504,-33.203,0.000
1709299616.127,-30.273,-33.691,-40.039,-41.504,0.000
1709299616.131,-34.668,-33.203,-33.203,-51.758,0.000
1709299616.135,-32.227,-45.410,-34.180,-44.922,0.000
1709299616.139,-26.855,-56.641,-37.598,-32.715,0.000
1709299616.143,-33.203,-34.668,-36.133,-36.133,0.000
1709299616.147,-40.039,-28.320,-30.762,-44.922,0.000
1709299616.151,-38.574,-41.504,-37.109,-47.852,0.000
1709299616.155,-43.945,-43.457,-44.434,-43.945,0.000
1709299616.159,-42.969,-38.574,-40.527,-37.598,0.000
1709299616.162,-30.273,-36.621,-35.156,-37.598,0.000
1709299616.166,-28.320,-39.062,-34.180,-39.062,0.000
1709299616.170,-38.574,-42.969,-37.598,-49.805,0.000
1709299616.174,-44.434,-39.551,-32.715,-54.199,0.000
1709299616.178,-41.992,-38.574,-23.438,-39.551,0.000
1709299616.182,-39.551,-43.945,-31.250,-33.203,0.000
1709299616.186,-44.922,-39.062,-35.156,-39.551,0.000
1709299616.190,-43.945,-33.203,-37.598,-47.363,0.000
1709299616.194,-40.039,-35.645,-37.598,-48.340,0.000
1709299616.197,-37.598,-38.086,-28.809,-34.180,0.000
1709299616.201,-39.062,-38.574,-31.250,-28.320,0.000
1709299616.205,-42.480,-40.039,-34.180,-33.203,0.000
1709299616.209,-35.645,-44.434,-29.785,-40.527,0.000
1709299616.213,-40.039,-47.852,-26.367,-37.598,0.000
1709299616.217,-43.457,-50.781,-34.668,-20.020,0.000
1709299616.221,-33.691,-46.875,-44.434,-24.902,0.000
1709299616.225,-37.109,-33.691,-31.250,-36.621,0.000
1709299616.229,-44.434,-28.809,-22.949,-41.504,0.000
1709299616.232,-44.922,-39.551,-30.762,-44.434,0.000
1709299616.236,-37.598,-54.199,-35.645,-41.992,0.000
1709299616.240,-34.180,-43.457,-34.668,-29.297,0.000
1709299616.244,-37.109,-32.715,-32.227,-23.438,0.000
1709299616.248,-36.621,-34.668,-33.691,-37.109,0.000
1709299616.252,-38.574,-38.086,-29.297,-42.969,0.000
1709299616.256,-40.527,-44.922,-29.785,-40.039,0.000
1709299616.260,-39.062,-43.457,-39.062,-38.086,0.000
1709299616.263,-38.574,-40.527,-37.598,-33.203,0.000
1709299616.267,-36.133,-39.551,-33.203,-36.621,0.000
1709299616.271,-39.062,-44.434,-36.133,-41.992,0.000
1709299616.275,-49.805,-50.781,-41.016,-41.504,0.000
1709299616.279,-49.805,-52.246,-39.062,-40.039,0.000
1709299616.283,-38.086,-54.688,-38.086,-37.598,0.000
1709299616.287,-34.668,-45.410,-38.574,-33.691,0.000
1709299616.291,-43.457,-34.668,-44.922,-31.250,0.000
1709299616.295,-48.340,-48.828,-43.945,-41.504,0.000
1709299616.299,-49.316,-53.223,-37.598,-50.293,0.000
1709299616.302,-49.316,-40.039,-41.504,-48.340,0.000
1709299616.306,-51.270,-42.480,-39.062,-51.270,0.000
1709299616.310,-54.688,-46.875,-39.062,-57.617,0.000
1709299616.314,-52.734,-39.062,-33.691,-50.781,0.000
1709299616.318,-46.875,-36.133,-32.715,-48.340,0.000
1709299616.322,-42.480,-38.574,-38.574,-46.875,0.000
1709299616.326,-31.250,-41.016,-39.062,-45.898,0.000
1709299616.329,-24.414,-47.363,-31.250,-32.227,0.000
1709299616.333,-27.832,-37.109,-29.785,-23.438,0.000
1709299616.337,-30.762,-29.297,-37.598,-43.457,0.000
1709299616.341,-29.297,-34.668,-37.109,-45.410,0.000
1709299616.345,-28.809,-40.527,-32.715,-30.762,0.000
1709299616.349,-33.203,-40.527,-36.621,-36.621,0.000
1709299616.353,-40.039,-34.668,-38.574,-53.223,0.000
1709299616.357,-36.621,-31.738,-31.738,-48.828,0.000
1709299616.361,-31.738,-31.250,-33.691,-43.945,0.000
1709299616.365,-32.715,-31.738,-35.645,-46.387,0.000
1709299616.369,-38.086,-31.250,-28.809,-48.340,0.000
1709299616.373,-39.551,-33.203,-29.785,-45.410,0.000
1709299616.377,-38.086,-45.410,-30.273,-39.062,0.000
1709299616.381,-36.133,-56.152,-29.297,-38.574,0.000
1709299616.384,-33.691,-45.898,-34.180,-38.574,0.000
1709299616.388,-35.645,-32.715,-33.691,-50.781,0.000
1709299616.392,-40.527,-41.992,-29.785,-52.734,0.000
1709299616.396,-39.551,-48.828,-33.691,-40.039,0.000
1709299616.400,-36.621,-40.527,-38.574,-40.527,0.000
1709299616.404,-37.598,-32.227,-33.691,-43.457,0.000
1709299616.408,-30.273,-39.551,-29.297,-36.133,0.000
1709299616.412,-29.785,-58.105,-33.691,-40.039,0.000
1709299616.416,-38.086,-49.316,-37.109,-48.828,0.000
1709299616.420,-38.574,-34.180,-34.668,-42.969,0.000
1709299616.424,-34.668,-33.203,-31.250,-36.133,0.000
1709299616.428,-33.203,-37.598,-31.250,-30.273,0.000
1709299616.432,-32.715,-34.668,-27.344,-26.855,0.000
1709299616.435,-36.133,-37.109,-25.391,-24.414,0.000
1709299616.439,-43.457,-40.527,-37.598,-28.320,0.000
1709299616.443,-47.852,-39.551,-39.551,-38.086,0.000
1709299616.447,-38.574,-40.527,-28.320,-39.062,0.000
1709299616.451,-31.250,-36.133,-27.344,-26.855,0.000
1709299616.455,-33.691,-40.527,-35.156,-17.578,0.000
1709299616.459,-37.598,-41.992,-31.250,-22.949,0.000
1709299616.463,-30.762,-29.785,-23.926,-24.414,0.000
1709299616.467,-32.715,-30.762,-25.879,-32.227,0.000
1709299616.471,-38.574,-34.180,-32.227,-40.039,0.000
1709299616.475,-39.551,-31.738,-33.691,-37.109,0.000
1709299616.478,-41.992,-39.062,-40.039,-33.691,0.000
1709299616.482,-33.691,-47.852,-37.109,-21.484,0.000
1709299616.486,-33.203,-51.758,-25.879,-28.809,0.000
1709299616.490,-40.527,-41.992,-32.227,-40.527,0.000
1709299616.494,-41.016,-35.156,-32.227,-37.598,0.000
1709299616.499,-36.621,-34.180,-25.391,-36.621,0.000
1709299616.503,-34.180,-29.785,-33.691,-31.250,0.000
1709299616.507,-34.180,-36.621,-43.945,-29.785,0.000
1709299616.510,-38.574,-46.387,-47.363,-42.480,0.000
1709299616.514,-43.945,-49.805,-46.387,-51.758,0.000
1709299616.518,-38.574,-44.922,-45.898,-36.621,0.000
1709299616.522,-35.645,-41.016,-42.969,-31.738,0.000
1709299616.526,-32.227,-39.062,-37.109,-31.250,0.000
1709299616.530,-28.809,-44.434,-35.645,-20.508,0.000
1709299616.534,-35.156,-41.504,-43.945,-30.762,0.000
1709299616.538,-34.668,-33.691,-43.457,-37.109,0.000
1709299616.542,-32.715,-41.504,-36.621,-27.344,0.000
1709299616.545,-33.203,-42.480,-44.434,-28.320,0.000
1709299616.549,-31.738,-35.645,-47.363,-43.457,0.000
1709299616.553,-31.250,-30.273,-36.133,-52.734,0.000
1709299616.557,-34.668,-36.621,-41.504,-49.805,0.000
1709299616.561,-34.180,-45.410,-41.016,-38.574,0.000
1709299616.565,-30.762,-40.527,-37.109,-30.762,0.000
1709299616.569,-35.645,-41.992,-40.527,-40.527,0.000
1709299616.573,-42.969,-47.363,-38.086,-45.898,0.000
1709299616.577,-45.898,-50.293,-46.387,-49.316,0.000
1709299616.581,-46.875,-45.898,-43.457,-43.457,0.000
1709299616.585,-42.969,-35.156,-37.109,-41.016,0.000
1709299616.588,-33.203,-32.227,-40.527,-44.434,0.000
1709299616.592,-36.133,-35.645,-38.574,-46.875,0.000
1709299616.596,-41.992,-43.457,-39.062,-54.688,0.000
1709299616.600,-42.969,-41.016,-39.062,-54.688,0.000
1709299616.604,-40.039,-34.668,-40.039,-46.387,0.000
1709299616.608,-37.109,-31.250,-38.086,-54.688,0.000
1709299616.612,-35.645,-28.809,-32.715,-60.547,0.000
1709299616.616,-33.691,-37.598,-38.574,-41.016,0.000
1709299616.619,-33.691,-39.062,-42.969,-38.574,0.000
1709299616.623,-37.598,-32.227,-39.551,-52.246,0.000
1709299616.627,-41.504,-37.598,-34.180,-60.547,0.000
1709299616.631,-40.527,-45.898,-33.691,-60.059,0.000
1709299616.635,-41.992,-44.922,-36.621,-54.688,0.000
1709299616.639,-41.992,-29.785,-41.504,-46.875,0.000
1709299616.643,-28.320,-35.645,-36.621,-33.691,0.000
1709299616.647,-22.949,-47.363,-36.133,-38.574,0.000
1709299616.650,-28.809,-34.180,-42.480,-55.176,0.000
1709299616.654,-28.809,-35.156,-42.480,-57.129,0.000
1709299616.658,-31.250,-47.363,-41.016,-49.316,0.000
1709299616.662,-33.203,-37.109,-37.598,-34.180,0.000
1709299616.666,-34.180,-30.762,-38.574,-35.156,0.000
1709299616.670,-41.992,-35.156,-41.504,-49.316,0.000
1709299616.674,-47.852,-41.016,-42.480,-57.617,0.000
1709299616.678,-46.875,-44.434,-34.668,-51.270,0.000
1709299616.682,-46.875,-43.945,-31.738,-38.574,0.000
1709299616.685,-46.387,-51.270,-40.039,-44.922,0.000
1709299616.689,-49.316,-56.641,-43.945,-51.758,0.000
1709299616.693,-55.176,-57.129,-41.016,-55.664,0.000
1709299616.697,-55.664,-55.664,-37.598,-55.176,0.000
1709299616.701,-51.758,-48.828,-40.039,-52.246,0.000
1709299616.705,-44.434,-44.922,-43.945,-48.828,0.000
1709299616.709,-44.434,-44.922,-35.645,-43.945,0.000
1709299616.713,-47.363,-37.109,-34.180,-52.734,0.000
1709299616.716,-45.898,-36.621,-42.969,-49.805,0.000
1709299616.720,-37.109,-35.645,-44.434,-30.762,0.000
1709299616.724,-43.945,-36.133,-43.457,-37.598,0.000
1709299616.728,-51.758,-40.527,-42.480,-48.828,0.000
1709299616.733,-44.922,-37.109,-41.992,-39.551,0.000
1709299616.737,-46.875,-39.551,-44.922,-39.551,0.000
1709299616.741,-46.875,-48.340,-47.363,-43.945,0.000
1709299616.745,-43.945,-48.828,-41.992,-36.621,0.000
1709299616.749,-39.551,-56.641,-40.039,-40.039,0.000
1709299616.753,-41.504,-70.801,-37.109,-35.645,0.000
1709299616.757,-42.969,-48.828,-33.203,-36.621,0.000
1709299616.760,-41.504,-35.156,-40.527,-43.457,0.000
1709299616.764,-43.945,-35.156,-37.598,-38.574,0.000
1709299616.768,-42.969,-28.320,-35.645,-30.273,0.000
1709299616.772,-47.852,-29.297,-36.133,-39.551,0.000
1709299616.776,-49.805,-33.203,-41.992,-53.711,0.000
1709299616.780,-45.410,-40.527,-41.992,-40.527,0.000
1709299616.784,-40.039,-45.898,-38.574,-32.715,0.000
1709299616.788,-43.457,-40.039,-38.574,-41.016,0.000
1709299616.792,-49.316,-37.598,-36.133,-46.387,0.000
1709299616.796,-46.387,-39.551,-35.645,-44.922,0.000
1709299616.800,-41.504,-38.086,-36.621,-41.016,0.000
1709299616.804,-42.480,-42.480,-40.527,-37.109,0.000
1709299616.807,-38.086,-44.922,-41.992,-42.480,0.000
1709299616.811,-32.227,-41.016,-37.598,-48.828,0.000
1709299616.815,-31.738,-37.598,-35.645,-40.527,0.000
1709299616.819,-33.203,-42.480,-38.086,-31.250,0.000
1709299616.823,-37.598,-48.340,-42.480,-39.062,0.000
1709299616.827,-33.203,-42.480,-33.203,-39.062,0.000
1709299616.831,-32.227,-38.574,-27.832,-40.527,0.000
1709299616.835,-35.156,-33.691,-38.086,-46.875,0.000
1709299616.839,-34.180,-33.203,-35.645,-37.109,0.000
1709299616.843,-28.320,-39.062,-35.645,-37.598,0.000
1709299616.847,-24.414,-44.434,-36.621,-49.805,0.000
1709299616.851,-35.156,-53.223,-30.762,-52.246,0.000
1709299616.854,-28.809,-64.453,-34.180,-51.270,0.000
1709299616.858,-19.531,-58.594,-39.062,-41.016,0.000
1709299616.862,-25.391,-39.551,-36.621,-30.762,0.000
1709299616.866,-31.250,-36.133,-40.039,-42.969,0.000
1709299616.870,-29.785,-31.738,-34.180,-50.781,0.000
1709299616.874,-22.949,-22.949,-31.738,-45.410,0.000
1709299616.878,-23.438,-29.297,-40.039,-42.480,0.000
1709299616.882,-24.414,-35.645,-36.133,-48.340,0.000
1709299616.886,-31.250,-36.133,-32.227,-56.641,0.000
1709299616.890,-33.691,-42.969,-36.621,-54.688,0.000
1709299616.893,-35.645,-49.316,-38.086,-54.688,0.000
1709299616.897,-32.715,-41.504,-36.133,-51.270,0.000
1709299616.901,-29.785,-40.039,-28.809,-32.715,0.000
1709299616.905,-39.551,-50.781,-29.297,-32.227,0.000
1709299616.909,-37.598,-41.992,-33.203,-41.016,0.000
1709299616.913,-36.133,-38.086,-36.133,-41.504,0.000
1709299616.917,-37.109,-46.387,-38.574,-36.621,0.000
1709299616.921,-37.598,-48.340,-37.598,-38.086,0.000
1709299616.925,-36.621,-52.734,-35.156,-41.016,0.000
1709299616.928,-43.945,-60.059,-37.109,-45.410,0.000
1709299616.932,-51.758,-49.316,-41.992,-46.875,0.000
1709299616.936,-44.922,-40.527,-37.598,-48.828,0.000
1709299616.940,-41.504,-39.551,-30.762,-48.828,0.000
1709299616.944,-39.551,-35.156,-29.785,-41.504,0.000
1709299616.948,-38.574,-38.574,-34.180,-39.062,0.000
1709299616.952,-39.062,-36.621,-36.133,-39.551,0.000
1709299616.956,-41.016,-41.016,-35.645,-44.922,0.000
1709299616.960,-41.016,-55.176,-34.668,-38.574,0.000
1709299616.964,-34.668,-52.246,-33.203,-32.227,0.000
1709299616.967,-35.645,-39.062,-36.133,-39.551,0.000
1709299616.971,-36.133,-32.227,-43.945,-36.621,0.000
1709299616.975,-38.086,-36.621,-34.668,-32.227,0.000
1709299616.979,-40.039,-41.016,-24.902,-41.016,0.000
1709299616.983,-37.109,-36.621,-29.297,-44.434,0.000
1709299616.987,-36.133,-36.133,-33.203,-43.945,0.000
1709299616.991,-30.273,-36.621,-29.297,-41.016,0.000
1709299616.995,-35.156,-37.109,-28.809,-35.645,0.000
1709299616.999,-33.203,-32.715,-34.668,-29.785,0.000
1709299617.002,-27.832,-35.645,-32.227,-26.855,0.000
1709299617.006,-34.668,-47.852,-31.738,-37.598,0.000
1709299617.010,-39.551,-41.016,-31.738,-56.152,0.000
1709299617.014,-42.480,-32.715,-30.273,-55.176,0.000
1709299617.018,-46.387,-32.715,-31.250,-40.039,0.000
1709299617.022,-44.434,-35.156,-28.320,-31.250,0.000
1709299617.026,-38.086,-33.691,-28.320,-30.762,0.000
1709299617.029,-44.434,-39.551,-35.645,-45.898,0.000
1709299617.033,-48.340,-43.945,-35.645,-52.246,0.000
1709299617.037,-51.758,-46.875,-32.715,-35.156,0.000
1709299617.041,-52.246,-43.457,-31.250,-31.250,0.000
1709299617.045,-47.852,-35.156,-30.762,-47.852,0.000
1709299617.049,-49.316,-32.227,-36.621,-49.805,0.000
1709299617.053,-51.758,-43.945,-40.039,-47.852,0.000
1709299617.057,-50.781,-48.340,-40.039,-53.223,0.000
1709299617.060,0.000,-31.738,-38.574,-52.246,0.000
1709299617.064,0.000,-24.902,-33.691,-48.340,0.000
1709299617.068,0.000,-35.156,-33.691,-47.363,0.000
1709299617.072,0.000,-40.039,-36.133,-47.363,0.000
1709299617.076,0.000,-34.180,-37.598,-41.504,0.000
1709299617.080,0.000,-28.809,-41.504,-32.715,0.000
1709299617.084,0.000,-36.133,-46.875,-28.809,0.000
1709299617.088,0.000,-39.062,-54.688,-40.527,0.000
1709299617.092,0.000,-46.875,-61.523,-53.223,0.000
1709299617.095,0.000,-50.293,-56.152,-49.316,0.000
1709299617.099,0.000,-30.762,-49.316,-41.504,0.000
1709299617.103,0.000,-24.414,-47.852,-38.086,0.000
1709299617.107,-35.645,-35.645,-49.805,-43.945,0.000
1709299617.111,-43.457,-45.898,-52.246,-50.781,0.000
1709299617.115,-41.016,-46.875,-50.293,-41.992,0.000
1709299617.119,-41.504,-44.434,-46.875,-34.180,0.000
1709299617.122,-40.527,-40.039,-41.992,-39.551,0.000
1709299617.126,-42.480,-47.363,-46.387,-41.016,0.000
1709299617.130,-36.621,-55.176,-48.828,-35.156,0.000
1709299617.134,-30.273,-43.945,-46.387,-46.387,0.000
1709299617.138,-35.156,-30.762,-37.598,-42.480,0.000
1709299617.142,-37.598,-25.391,-34.180,-29.297,0.000
1709299617.146,-30.762,-22.461,-30.273,-33.203,0.000
1709299617.150,-43.457,-34.668,-30.762,-42.969,0.000
1709299617.154,-48.340,-45.410,-39.551,-38.574,0.000
1709299617.158,-42.480,-41.016,-46.387,-33.691,0.000
1709299617.162,-41.016,-35.156,-47.852,-42.480,0.000
1709299617.166,-37.598,-26.367,-35.156,-48.828,0.000
1709299617.170,-37.109,-28.320,-37.598,-46.387,0.000
1709299617.173,-36.133,-39.551,-41.016,-46.387,0.000
1709299617.177,-38.086,-31.250,-30.273,-42.969,0.000
1709299617.181,-31.738,-21.973,-31.738,-33.691,0.000
1709299617.185,-29.785,-27.344,-39.062,-27.832,0.000
1709299617.189,-37.598,-36.621,-36.133,-36.133,0.000
1709299617.193,-46.387,-38.086,-37.598,-49.805,0.000
1709299617.197,-45.898,-36.133,-36.621,-46.387,0.000
1709299617.201,-41.016,-40.039,-34.668,-34.180,0.000
1709299617.205,-33.203,-43.457,-29.785,-19.531,0.000
1709299617.209,-30.762,-32.715,-27.832,-26.367,0.000
1709299617.213,-40.039,-30.762,-31.738,-40.039,0.000
1709299617.217,-43.945,-35.645,-32.227,-36.133,0.000
1709299617.220,-38.574,-49.316,-34.180,-22.949,0.000
1709299617.224,-29.785,-51.270,-37.598,-27.344,0.000
1709299617.228,-28.809,-30.762,-39.062,-41.016,0.000
1709299617.232,-44.922,-33.203,-37.109,-37.598,0.000
1709299617.236,-53.711,-41.504,-35.156,-40.527,0.000
1709299617.240,-42.480,-35.645,-30.762,-46.875,0.000
1709299617.244,-36.133,-42.969,-28.320,-47.363,0.000
1709299617.248,-41.992,-42.969,-24.414,-55.176,0.000
1709299617.252,-48.340,-36.621,-28.809,-63.965,0.000
1709299617.256,-45.410,-39.062,-40.527,-63.477,0.000
1709299617.259,-39.551,-41.016,-36.133,-43.945,0.000
1709299617.263,-41.504,-40.039,-33.203,-42.969,0.000
1709299617.267,-46.387,-46.875,-38.574,-60.059,0.000
1709299617.271,-42.969,-46.875,-33.203,-61.035,0.000
1709299617.275,-42.969,-39.062,-39.551,-58.594,0.000
1709299617.279,-44.922,-37.109,-36.621,-48.340,0.000
1709299617.283,-35.645,-30.762,-29.785,-44.922,0.000
1709299617.287,-36.133,-30.273,-34.668,-51.758,0.000
1709299617.291,-42.969,-33.203,-29.297,-49.316,0.000
1709299617.295,-46.875,-35.156,-31.250,-45.410,0.000
1709299617.298,-45.898,-42.969,-36.621,-43.457,0.000
1709299617.302,-40.527,-48.828,-33.203,-38.574,0.000
1709299617.306,-39.551,-34.180,-39.551,-42.969,0.000
1709299617.310,-41.504,-25.391,-47.363,-53.223,0.000
1709299617.314,-45.898,-36.133,-46.387,-47.363,0.000
1709299617.318,-46.387,-35.156,-44.434,-40.527,0.000
1709299617.322,-40.527,-28.320,-40.039,-28.809,0.000
1709299617.326,-38.574,-31.738,-41.016,-35.645,0.000
1709299617.330,-40.527,-37.109,-41.992,-61.035,0.000
1709299617.334,-41.016,-38.574,-38.086,-59.082,0.000
1709299617.338,-34.668,-36.133,-42.480,-37.598,0.000
1709299617.341,-22.949,-28.320,-45.898,-26.855,0.000
1709299617.345,-16.113,-27.344,-40.527,-36.621,0.000
1709299617.349,-17.578,-30.762,-41.504,-39.062,0.000
1709299617.353,-25.879,-32.227,-42.480,-46.387,0.000
1709299617.357,-35.156,-38.574,-40.527,-46.387,0.000
1709299617.361,-39.062,-35.645,-38.574,-36.621,0.000
1709299617.365,-35.156,-33.203,-34.180,-40.527,0.000
1709299617.369,-35.156,-36.621,-36.133,-34.668,0.000
1709299617.373,-35.645,-38.086,-35.645,-35.156,0.000
1709299617.376,-33.203,-37.598,-33.203,-41.992,0.000
1709299617.380,-30.762,-32.715,-37.598,-43.457,0.000
1709299617.384,-32.227,-31.738,-39.062,-49.316,0.000
1709299617.388,-35.645,-34.668,-38.574,-47.852,0.000
1709299617.392,-35.645,-37.598,-40.527,-50.293,0.000
1709299617.396,-37.109,-39.062,-43.945,-49.316,0.000
1709299617.400,-40.527,-28.320,-45.410,-44.922,0.000
1709299617.404,-38.086,-29.785,-45.410,-42.969,0.000
1709299617.407,-30.762,-29.785,-41.992,-41.504,0.000
1709299617.411,-38.086,-29.297,-43.457,-44.922,0.000
1709299617.415,-41.016,-33.691,-43.457,-47.363,0.000
1709299617.419,-34.180,-32.227,-38.086,-45.898,0.000
1709299617.423,-29.785,-38.574,-34.180,-34.180,0.000
1709299617.427,-31.250,-41.504,-37.109,-25.879,0.000
1709299617.431,-32.227,-32.227,-37.109,-34.668,0.000
1709299617.434,-33.691,-32.227,-38.086,-43.945,0.000
1709299617.438,-33.691,-41.504,-37.598,-27.344,0.000
1709299617.442,-30.762,-44.922,-40.527,-23.926,0.000
1709299617.446,-26.855,-37.598,-42.480,-28.320,0.000
1709299617.450,-26.367,-36.621,-34.180,-30.273,0.000
1709299617.454,-28.809,-39.062,-27.344,-32.715,0.000
1709299617.458,-29.297,-40.039,-30.273,-21.973,0.000
1709299617.462,-32.715,-42.969,-33.691,-21.973,0.000
1709299617.466,-27.344,-41.992,-39.551,-26.367,0.000
1709299617.470,-23.926,-39.062,-40.527,-23.926,0.000
1709299617.473,-35.645,-38.574,-36.133,-35.645,0.000
1709299617.477,-35.645,-37.109,-41.504,-39.062,0.000
1709299617.481,-31.738,-32.715,-41.016,-34.180,0.000
1709299617.485,-37.109,-33.691,-37.109,-33.691,0.000
1709299617.489,-33.691,-40.527,-37.109,-34.180,0.000
1709299617.493,-31.738,-52.734,-40.039,-40.039,0.000
1709299617.497,-41.504,-60.547,-45.410,-43.945,0.000
1709299617.500,-38.574,-48.828,-44.922,-36.621,0.000
1709299617.504,-35.156,-46.875,-41.016,-40.527,0.000
1709299617.508,-38.574,-51.758,-41.016,-52.734,0.000
1709299617.512,-38.574,-41.016,-46.875,-50.293,0.000
1709299617.516,-34.668,-33.691,-46.387,-38.086,0.000
1709299617.520,-30.762,-36.133,-38.574,-34.668,0.000
1709299617.524,-33.203,-40.527,-45.410,-47.852,0.000
1709299617.528,-29.297,-40.039,-41.016,-45.898,0.000
1709299617.532,-22.949,-30.762,-29.785,-37.109,0.000
1709299617.536,-26.367,-33.203,-34.668,-34.668,0.000
1709299617.540,-29.297,-50.293,-39.062,-37.109,0.000
1709299617.544,-30.762,-50.781,-37.109,-43.945,0.000
1709299617.548,-31.738,-41.016,-38.086,-51.270,0.000
1709299617.551,-36.621,-36.133,-41.016,-51.270,0.000
1709299617.555,-41.992,-40.039,-40.039,-41.016,0.000
1709299617.559,-37.109,-44.434,-39.062,-39.551,0.000
1709299617.563,-32.227,-39.062,-40.527,-37.109,0.000
1709299617.567,-31.250,-34.180,-35.156,-40.039,0.000
1709299617.571,-36.133,-36.621,-30.762,-46.875,0.000
1709299617.575,-33.691,-31.738,-33.203,-39.062,0.000
1709299617.579,-25.391,-40.527,-39.062,-29.297,0.000
1709299617.583,-22.949,-63.477,-41.016,-27.344,0.000
1709299617.587,-20.996,-59.570,-31.250,-30.273,0.000
1709299617.591,-24.902,-40.039,-28.809,-34.668,0.000
1709299617.595,-24.414,-32.715,-28.320,-30.273,0.000
1709299617.598,-24.902,-34.668,-26.367,-24.414,0.000
1709299617.602,-30.273,-39.551,-29.785,-30.273,0.000
1709299617.606,-29.297,-40.527,-33.691,-25.391,0.000
1709299617.610,-31.250,-40.039,-36.621,-15.137,0.000
1709299617.614,-36.133,-44.922,-32.715,-30.762,0.000
1709299617.618,-37.598,-41.992,-39.062,-34.668,0.000
1709299617.622,-38.574,-40.039,-45.898,-33.691,0.000
1709299617.626,-34.180,-34.668,-37.598,-40.039,0.000
1709299617.630,-25.879,-22.461,-35.645,-43.945,0.000
1709299617.634,-28.320,-22.461,-39.062,-42.480,0.000
1709299617.638,-36.133,-26.367,-41.016,-36.133,0.000
1709299617.642,-35.156,-27.832,-35.645,-34.668,0.000
1709299617.645,-37.598,-30.762,-35.156,-41.992,0.000
1709299617.649,-40.039,-39.551,-37.598,-43.457,0.000
1709299617.653,-44.434,-44.434,-32.715,-37.598,0.000
1709299617.657,-49.316,-37.109,-34.668,-40.039,0.000
1709299617.661,-42.480,-32.227,-40.527,-41.992,0.000
1709299617.665,-41.504,-36.621,-40.527,-44.922,0.000
1709299617.669,-42.969,-39.551,-38.574,-47.363,0.000
1709299617.673,-48.340,-35.645,-36.133,-46.875,0.000
1709299617.677,-53.223,-34.180,-39.551,-44.434,0.000
1709299617.681,-46.387,-41.992,-41.016,-37.598,0.000
1709299617.684,-41.992,-53.711,-34.668,-38.574,0.000
1709299617.688,-42.480,-54.199,-28.320,-49.316,0.000
1709299617.692,-53.223,-50.781,-30.762,-56.152,0.000
1709299617.696,-55.176,-47.852,-33.203,-46.875,0.000
1709299617.700,-50.293,-43.945,-34.668,-37.109,0.000
1709299617.704,-53.223,-36.621,-45.410,-42.969,0.000
1709299617.708,-52.734,-29.785,-46.387,-47.363,0.000
1709299617.712,-54.688,-34.180,-40.039,-48.340,0.000
