timestamps,TP9,AF7,AF8,TP10,Right AUX
1709206165.017,0.000,23.926,-45.410,-44.922,0.000
1709206165.021,0.000,39.062,-48.828,-54.688,0.000
1709206165.025,0.000,26.367,-45.410,-55.176,0.000
1709206165.029,0.000,13.184,-41.016,-52.246,0.000
1709206165.033,0.000,23.926,-46.387,-54.199,0.000
1709206165.036,0.000,5.371,-44.434,-48.340,0.000
1709206165.040,0.000,-0.977,-43.945,-52.734,0.000
1709206165.044,0.000,-15.625,-47.852,-52.734,0.000
1709206165.048,0.000,5.859,-43.945,-46.387,0.000
1709206165.052,0.000,34.180,-37.598,-46.387,0.000
1709206165.056,0.000,12.207,-35.645,-51.270,0.000
1709206165.060,0.000,19.043,-35.156,-57.617,0.000
1709206165.064,-36.133,27.832,-37.109,-57.617,0.000
1709206165.068,-53.223,14.648,-41.016,-56.641,0.000
1709206165.072,-35.645,8.301,-42.480,-44.922,0.000
1709206165.076,-36.133,23.438,-39.551,-42.480,0.000
1709206165.079,-58.105,18.066,-38.086,-39.062,0.000
1709206165.083,-50.781,5.859,-39.062,-30.762,0.000
1709206165.087,-44.922,-3.418,-41.992,-32.227,0.000
1709206165.091,-44.434,-7.812,-47.852,-26.855,0.000
1709206165.095,-45.410,32.715,-48.828,-26.855,0.000
1709206165.099,-40.039,34.180,-40.527,-27.832,0.000
1709206165.103,-36.621,9.766,-36.621,-26.367,0.000
1709206165.107,-43.457,8.301,-35.156,-31.738,0.000
1709206165.111,-42.969,20.508,-37.598,-40.527,0.000
1709206165.115,-43.945,9.277,-41.016,-46.875,0.000
1709206165.118,-52.246,-5.371,-37.109,-53.223,0.000
1709206165.122,-49.805,1.953,-34.668,-45.410,0.000
1709206165.126,-39.551,5.371,-39.551,-38.574,0.000
1709206165.130,-50.293,17.090,-40.039,-39.062,0.000
1709206165.134,-51.758,-4.883,-38.086,-26.855,0.000
1709206165.138,-37.109,10.254,-40.039,-29.785,0.000
1709206165.142,-41.504,38.086,-44.434,-50.781,0.000
1709206165.146,-56.152,3.418,-44.922,-45.410,0.000
1709206165.150,-49.316,7.812,-41.504,-30.762,0.000
1709206165.154,-29.785,27.344,-37.109,-33.203,0.000
1709206165.158,-36.133,24.902,-44.434,-49.316,0.000
1709206165.161,-45.898,9.277,-55.664,-48.828,0.000
1709206165.165,-47.852,6.348,-59.082,-49.805,0.000
1709206165.169,-51.270,22.949,-58.594,-49.316,0.000
1709206165.173,-52.246,15.137,-55.664,-47.852,0.000
1709206165.177,-42.969,-20.996,-57.617,-50.293,0.000
1709206165.181,-41.016,-33.203,-58.105,-40.527,0.000
1709206165.185,-39.551,15.625,-51.758,-41.504,0.000
1709206165.189,-38.086,34.180,-41.992,-47.852,0.000
1709206165.193,-44.922,7.324,-38.574,-48.340,0.000
1709206165.197,-41.504,8.301,-41.992,-48.340,0.000
1709206165.201,-43.945,20.020,-43.457,-50.293,0.000
1709206165.204,-43.945,12.695,-44.922,-41.016,0.000
1709206165.208,-41.016,10.254,-44.434,-38.086,0.000
1709206165.212,-44.922,15.137,-43.945,-58.594,0.000
1709206165.216,-45.898,30.762,-44.434,-62.988,0.000
1709206165.220,-38.574,26.855,-43.945,-60.059,0.000
1709206165.224,-48.340,-4.883,-51.758,-61.523,0.000
1709206165.228,-49.805,4.395,-53.711,-52.734,0.000
1709206165.232,-40.039,31.250,-45.410,-41.504,0.000
1709206165.236,-36.133,20.996,-41.016,-37.598,0.000
1709206165.240,-40.527,-11.719,-42.969,-28.809,0.000
1709206165.244,-53.711,7.812,-49.316,-31.250,0.000
1709206165.247,-45.410,38.086,-45.898,-43.457,0.000
1709206165.251,-35.645,15.137,-37.598,-45.898,0.000
1709206165.255,-49.805,10.254,-33.691,-41.992,0.000
1709206165.259,-46.387,26.367,-34.180,-42.969,0.000
1709206165.263,-35.156,23.926,-34.668,-42.969,0.000
1709206165.267,-38.574,0.488,-32.227,-29.785,0.000
1709206165.271,-43.457,-18.066,-33.203,-28.320,0.000
1709206165.275,-43.945,11.719,-33.691,-41.992,0.000
1709206165.279,-45.410,32.715,-31.250,-47.852,0.000
1709206165.283,-44.922,-10.742,-31.250,-46.875,0.000
1709206165.287,-42.969,-20.996,-35.156,-44.922,0.000
1709206165.290,-48.828,37.598,-40.039,-47.363,0.000
1709206165.294,-50.293,19.043,-37.109,-37.109,0.000
1709206165.298,-48.340,-6.836,-38.574,-41.992,0.000
1709206165.302,-46.875,16.602,-41.016,-50.293,0.000
1709206165.306,-42.969,27.344,-35.156,-41.992,0.000
1709206165.310,-36.621,18.555,-39.551,-48.340,0.000
1709206165.314,-44.434,6.348,-43.945,-46.875,0.000
1709206165.318,-52.246,4.395,-33.691,-36.621,0.000
1709206165.322,-51.758,18.066,-37.598,-39.551,0.000
1709206165.326,-49.316,25.879,-47.852,-41.992,0.000
1709206165.330,-45.898,-6.836,-42.480,-30.762,0.000
1709206165.333,-51.758,4.395,-42.969,-30.273,0.000
1709206165.337,-51.758,42.480,-44.434,-46.875,0.000
1709206165.341,-53.223,21.973,-41.504,-49.316,0.000
1709206165.345,-57.617,16.602,-39.551,-50.293,0.000
1709206165.349,-58.105,32.715,-37.598,-39.062,0.000
1709206165.353,-45.410,18.066,-37.109,-37.598,0.000
1709206165.357,-29.785,7.324,-32.715,-44.434,0.000
1709206165.361,-29.785,20.020,-29.297,-35.645,0.000
1709206165.365,-33.203,19.531,-29.785,-31.250,0.000
1709206165.369,-29.785,29.785,-36.621,-32.227,0.000
1709206165.373,-15.625,24.902,-41.504,-27.832,0.000
1709206165.376,-24.902,11.719,-41.016,-24.902,0.000
1709206165.380,-38.086,53.711,-41.504,-32.227,0.000
1709206165.384,-35.645,51.270,-40.527,-29.297,0.000
1709206165.388,-33.691,23.926,-43.457,-19.531,0.000
1709206165.392,-32.715,32.227,-43.457,-23.926,0.000
1709206165.396,-33.203,46.387,-40.527,-32.715,0.000
1709206165.400,-29.297,28.320,-45.410,-28.320,0.000
1709206165.404,-36.133,13.184,-47.363,-33.203,0.000
1709206165.408,-40.039,26.367,-44.922,-35.645,0.000
1709206165.412,-33.203,21.973,-41.016,-28.809,0.000
1709206165.416,-25.391,20.508,-38.086,-38.086,0.000
1709206165.419,-28.320,-0.488,-38.086,-31.250,0.000
1709206165.423,-37.598,16.602,-40.039,-27.344,0.000
1709206165.427,-39.062,48.828,-44.922,-42.480,0.000
1709206165.431,-37.598,25.879,-51.270,-50.293,0.000
1709206165.435,-48.340,26.855,-50.293,-52.246,0.000
1709206165.439,-53.711,40.527,-51.758,-48.340,0.000
1709206165.443,-57.129,33.203,-55.664,-50.293,0.000
1709206165.447,-64.453,11.230,-53.223,-55.664,0.000
1709206165.451,-65.430,10.254,-59.082,-56.641,0.000
1709206165.455,-59.570,17.090,-56.641,-50.293,0.000
1709206165.458,-55.664,5.371,-45.410,-48.828,0.000
1709206165.462,-58.594,-11.230,-42.969,-46.387,0.000
1709206165.466,-62.988,-18.555,-47.363,-39.551,0.000
1709206165.470,-71.777,19.531,-51.270,-43.457,0.000
1709206165.474,-64.453,27.832,-48.340,-48.340,0.000
1709206165.478,-56.152,-1.465,-49.316,-51.758,0.000
1709206165.482,-63.477,-2.930,-55.176,-54.688,0.000
1709206165.486,-70.801,16.113,-49.805,-46.875,0.000
1709206165.490,-64.453,6.348,-47.363,-51.270,0.000
1709206165.494,-37.598,-4.395,-49.316,-54.199,0.000
1709206165.498,-47.363,14.648,-45.410,-49.316,0.000
1709206165.501,-64.941,11.230,-48.340,-54.199,0.000
1709206165.505,-58.105,-0.977,-46.387,-49.316,0.000
1709206165.509,-58.594,-20.996,-41.504,-34.668,0.000
1709206165.513,-54.688,-5.859,-44.434,-36.133,0.000
1709206165.517,-49.316,25.879,-40.527,-46.875,0.000
1709206165.521,-39.551,2.441,-40.527,-41.992,0.000
1709206165.525,-36.133,-3.906,-43.945,-43.945,0.000
1709206165.529,-48.828,13.184,-32.715,-44.922,0.000
1709206165.533,-53.223,19.531,-31.738,-43.945,0.000
1709206165.537,-45.410,-0.977,-36.133,-41.992,0.000
1709206165.541,-37.598,-2.441,-30.762,-32.227,0.000
1709206165.544,-48.340,13.184,-28.320,-33.691,0.000
1709206165.548,-38.574,8.301,-33.691,-39.551,0.000
1709206165.552,-25.879,-20.996,-37.109,-38.574,0.000
1709206165.556,-41.992,-27.344,-37.598,-38.574,0.000
1709206165.560,-48.340,20.996,-41.504,-46.875,0.000
1709206165.564,-46.387,22.461,-40.527,-48.828,0.000
1709206165.568,-49.316,-4.395,-39.062,-41.504,0.000
1709206165.572,-46.875,10.742,-38.574,-44.434,0.000
1709206165.576,-45.410,27.344,-40.039,-56.152,0.000
1709206165.580,-53.711,3.418,-43.945,-54.199,0.000
1709206165.584,-65.918,2.441,-41.992,-53.223,0.000
1709206165.587,-67.871,18.555,-38.574,-58.105,0.000
1709206165.591,-57.617,22.949,-40.527,-60.547,0.000
1709206165.595,-53.223,11.230,-46.875,-62.500,0.000
1709206165.599,-51.270,-11.719,-43.945,-51.758,0.000
1709206165.603,-59.082,0.000,-43.457,-52.246,0.000
1709206165.607,-61.523,14.160,-43.945,-51.758,0.000
1709206165.611,-57.617,-0.977,-36.133,-49.316,0.000
1709206165.615,-50.781,-24.902,-32.227,-53.223,0.000
1709206165.619,-58.105,-4.395,-30.762,-51.270,0.000
1709206165.623,-74.219,1.465,-31.738,-52.246,0.000
1709206165.627,-77.148,-34.180,-28.809,-43.457,0.000
1709206165.630,-76.660,-36.621,-27.344,-42.480,0.000
1709206165.634,-79.102,-19.531,-27.344,-45.898,0.000
1709206165.638,-78.613,-32.227,-18.066,-40.527,0.000
1709206165.642,-84.473,-61.035,-14.648,-41.992,0.000
1709206165.646,-91.309,-65.918,-14.648,-37.598,0.000
1709206165.650,-83.984,-48.340,-15.137,-34.668,0.000
1709206165.654,-71.777,-36.133,-20.996,-34.668,0.000
1709206165.658,-74.219,-76.172,-16.602,-26.855,0.000
1709206165.662,-81.543,-98.633,-6.348,-15.137,0.000
1709206165.666,-81.543,-57.129,-9.766,-13.672,0.000
1709206165.670,-69.824,-58.594,-17.578,-12.207,0.000
1709206165.673,-48.828,-85.938,-15.137,-5.859,0.000
1709206165.677,-58.105,-83.984,-14.160,-14.160,0.000
1709206165.681,-68.848,-66.406,-15.137,-23.438,0.000
1709206165.685,-61.035,-77.148,-8.789,-11.719,0.000
1709206165.689,-61.523,-90.332,-9.766,-9.766,0.000
1709206165.693,-60.059,-86.914,-18.066,-6.348,0.000
1709206165.697,-55.176,-88.867,-15.625,3.418,0.000
1709206165.701,-58.594,-82.031,-17.578,-5.859,0.000
1709206165.705,-53.223,-101.074,-17.578,1.465,0.000
1709206165.709,-53.223,-95.703,-15.625,2.441,0.000
1709206165.713,-57.617,-56.152,-23.926,-8.789,0.000
1709206165.716,-50.781,-71.289,-27.344,-8.789,0.000
1709206165.720,-43.457,-84.961,-26.855,-14.160,0.000
1709206165.724,-53.711,-64.941,-27.344,-19.531,0.000
1709206165.728,-67.871,-63.965,-30.762,-15.625,0.000
1709206165.732,-50.781,-73.730,-34.668,-7.324,0.000
1709206165.736,-42.480,-78.125,-30.762,-15.625,0.000
1709206165.740,-63.965,-77.637,-28.320,-19.043,0.000
1709206165.744,-57.617,-51.758,-30.273,-16.602,0.000
1709206165.748,-50.293,-62.500,-34.668,-11.719,0.000
1709206165.752,-54.688,-85.449,-40.039,-5.371,0.000
1709206165.755,-49.805,-36.621,-43.457,-23.438,0.000
1709206165.759,-48.340,-16.602,-40.527,-38.086,0.000
1709206165.763,-42.969,-34.668,-37.598,-29.785,0.000
1709206165.767,-37.598,-31.250,-45.898,-21.484,0.000
1709206165.771,-33.691,-20.020,-47.852,-21.484,0.000
1709206165.775,-29.785,-27.832,-38.574,-29.297,0.000
1709206165.779,-36.133,-35.156,-40.039,-36.621,0.000
1709206165.783,-39.062,-30.273,-44.922,-33.203,0.000
1709206165.787,-35.156,-32.227,-43.945,-34.180,0.000
1709206165.791,-41.016,-22.461,-50.781,-36.621,0.000
1709206165.795,-30.273,-41.016,-56.152,-30.762,0.000
1709206165.798,-25.879,-26.855,-51.758,-29.297,0.000
1709206165.802,-40.527,3.906,-51.758,-35.645,0.000
1709206165.806,-36.621,-7.324,-47.852,-32.227,0.000
1709206165.810,-31.738,-10.742,-42.480,-26.367,0.000
1709206165.814,-24.414,0.000,-42.969,-30.762,0.000
1709206165.818,-29.785,4.883,-41.992,-41.504,0.000
1709206165.822,-41.504,-14.648,-41.504,-36.621,0.000
1709206165.826,-38.574,-12.695,-43.457,-28.809,0.000
1709206165.830,-38.086,-7.324,-42.480,-41.016,0.000
1709206165.834,-42.480,-19.043,-42.480,-42.480,0.000
1709206165.838,-44.922,-24.902,-40.527,-33.203,0.000
1709206165.841,-43.457,-20.020,-39.551,-20.996,0.000
1709206165.845,-52.734,11.230,-42.969,-24.902,0.000
1709206165.849,-55.176,6.836,-43.945,-37.598,0.000
1709206165.853,-45.410,-9.766,-37.598,-43.945,0.000
1709206165.857,-34.668,1.465,-39.551,-45.898,0.000
1709206165.861,-21.973,2.930,-46.387,-43.457,0.000
1709206165.865,-35.645,-15.625,-41.504,-31.738,0.000
1709206165.869,-43.945,-20.020,-39.062,-30.762,0.000
1709206165.873,-36.621,-2.930,-37.109,-30.273,0.000
1709206165.877,-47.852,-4.395,-35.156,-32.227,0.000
1709206165.881,-58.594,-21.973,-37.109,-34.180,0.000
1709206165.884,-59.570,-50.293,-39.551,-20.996,0.000
1709206165.888,-50.781,-25.391,-37.109,-16.602,0.000
1709206165.892,-47.363,21.484,-31.250,-29.297,0.000
1709206165.896,-48.340,-6.348,-27.344,-29.297,0.000
1709206165.900,-45.410,-13.184,-27.832,-25.879,0.000
1709206165.904,-55.176,2.441,-23.926,-20.996,0.000
1709206165.908,-61.523,-0.488,-28.809,-28.809,0.000
1709206165.912,-54.199,-16.113,-42.480,-41.992,0.000
1709206165.916,-54.199,-22.949,-38.574,-51.758,0.000
1709206165.920,-47.363,-9.766,-36.621,-59.082,0.000
1709206165.924,-50.781,-18.066,-40.527,-55.664,0.000
1709206165.927,-62.012,-26.367,-41.016,-41.016,0.000
1709206165.931,-51.270,-20.508,-44.922,-35.645,0.000
1709206165.935,-39.062,5.371,-42.480,-41.016,0.000
1709206165.939,-39.551,27.832,-40.527,-33.691,0.000
1709206165.943,-45.898,-12.695,-39.062,-26.855,0.000
1709206165.947,-43.457,-22.949,-40.039,-28.320,0.000
1709206165.951,-35.156,27.832,-42.969,-39.062,0.000
1709206165.955,-28.809,27.832,-41.992,-44.434,0.000
1709206165.959,-29.297,0.488,-37.598,-39.551,0.000
1709206165.963,-24.902,4.883,-38.086,-34.668,0.000
1709206165.966,-23.926,20.996,-42.969,-32.715,0.000
1709206165.970,-19.531,15.137,-38.086,-37.109,0.000
1709206165.974,-22.461,-1.953,-29.785,-29.297,0.000
1709206165.978,-40.039,10.742,-33.203,-22.461,0.000
1709206165.982,-33.203,14.160,-37.109,-28.809,0.000
1709206165.986,-35.645,-4.395,-36.621,-30.762,0.000
1709206165.990,-52.246,-14.648,-39.551,-29.297,0.000
1709206165.994,-43.457,8.789,-40.039,-33.203,0.000
1709206165.998,-38.574,22.461,-36.133,-36.133,0.000
1709206166.002,-52.246,-7.812,-34.668,-42.969,0.000
1709206166.006,-43.945,-8.789,-35.156,-41.016,0.000
1709206166.009,-38.086,6.836,-36.621,-32.227,0.000
1709206166.013,-44.922,7.812,-34.180,-28.320,0.000
1709206166.017,-45.410,-16.602,-33.691,-31.250,0.000
1709206166.021,-46.875,-35.645,-38.086,-31.738,0.000
1709206166.025,-50.781,-10.742,-41.504,-29.297,0.000
1709206166.029,-47.363,13.184,-42.480,-31.738,0.000
1709206166.033,-43.945,-19.043,-45.898,-35.645,0.000
1709206166.037,-52.734,-36.133,-47.363,-38.086,0.000
1709206166.041,-45.898,0.977,-43.945,-44.434,0.000
1709206166.045,-37.109,-1.953,-37.109,-54.688,0.000
1709206166.049,-53.223,-22.461,-37.109,-51.758,0.000
1709206166.052,-50.293,-11.230,-38.574,-45.410,0.000
1709206166.056,-31.738,-3.906,-35.156,-45.898,0.000
1709206166.060,-28.809,-15.625,-42.969,-39.551,0.000
1709206166.064,-36.133,-16.113,-44.922,-41.992,0.000
1709206166.068,-39.551,-18.066,-41.992,-55.176,0.000
1709206166.072,-33.691,-2.930,-40.039,-62.500,0.000
1709206166.076,-27.344,17.090,-42.969,-62.988,0.000
1709206166.080,-28.809,-18.066,-40.039,-40.039,0.000
1709206166.084,-31.250,-18.066,-34.180,-27.832,0.000
1709206166.088,-36.133,22.949,-37.598,-37.109,0.000
1709206166.092,-35.156,10.254,-38.574,-39.551,0.000
1709206166.095,-25.879,-3.418,-39.062,-33.691,0.000
1709206166.099,-21.484,11.719,-42.480,-32.227,0.000
1709206166.103,-37.598,15.137,-46.387,-33.691,0.000
1709206166.107,-55.176,-1.465,-43.457,-29.297,0.000
1709206166.111,-46.875,-1.953,-36.621,-28.809,0.000
1709206166.115,-39.551,9.766,-33.203,-23.438,0.000
1709206166.119,-46.387,5.371,-28.809,-23.438,0.000
1709206166.123,-41.992,-12.695,-31.738,-27.344,0.000
1709206166.127,-39.551,-18.066,-36.621,-13.184,0.000
1709206166.131,-39.551,18.066,-31.738,-12.207,0.000
1709206166.135,-33.691,17.578,-33.691,-28.320,0.000
1709206166.138,-30.762,0.977,-32.715,-33.203,0.000
1709206166.142,-32.227,13.672,-29.785,-33.203,0.000
1709206166.146,-29.785,20.996,-34.668,-24.414,0.000
1709206166.150,-30.762,6.348,-33.691,-19.043,0.000
1709206166.154,-29.785,-5.859,-29.785,-24.902,0.000
1709206166.158,-32.715,-1.465,-35.645,-31.738,0.000
1709206166.162,-33.691,-7.324,-44.434,-30.762,0.000
1709206166.166,-36.133,-2.441,-39.551,-35.156,0.000
1709206166.170,-47.363,-19.043,-32.227,-28.809,0.000
1709206166.174,-41.016,-7.324,-41.992,-20.508,0.000
1709206166.178,-41.016,22.949,-41.016,-48.828,0.000
1709206166.181,-51.270,7.324,-41.016,-63.965,0.000
1709206166.185,-53.223,13.672,-45.898,-54.199,0.000
1709206166.189,-46.387,23.438,-43.457,-49.805,0.000
1709206166.193,-49.316,28.809,-44.922,-52.246,0.000
1709206166.197,-39.062,14.648,-40.527,-46.387,0.000
1709206166.201,-29.297,11.719,-34.180,-43.945,0.000
1709206166.205,-38.086,28.320,-33.203,-37.598,0.000
1709206166.209,-35.645,22.461,-35.645,-30.762,0.000
1709206166.213,-29.297,9.766,-32.227,-36.133,0.000
1709206166.217,-32.715,12.695,-34.180,-31.250,0.000
1709206166.221,-22.461,53.711,-36.621,-34.668,0.000
1709206166.224,-30.762,46.875,-33.203,-42.480,0.000
1709206166.228,-47.363,23.926,-44.434,-38.086,0.000
1709206166.232,-41.016,29.297,-43.457,-34.180,0.000
1709206166.236,-39.551,34.180,-39.551,-38.086,0.000
1709206166.240,-42.969,25.391,-43.945,-49.316,0.000
1709206166.244,-46.875,9.766,-40.039,-48.340,0.000
1709206166.248,-45.898,24.414,-36.621,-42.480,0.000
1709206166.252,-38.086,31.250,-40.527,-42.480,0.000
1709206166.256,-39.551,15.625,-42.969,-46.387,0.000
1709206166.260,-49.316,-15.137,-43.457,-42.969,0.000
1709206166.263,-39.551,5.371,-41.016,-36.621,0.000
1709206166.267,-45.898,42.969,-41.992,-39.062,0.000
1709206166.271,-62.012,12.695,-44.922,-45.410,0.000
1709206166.275,-57.129,12.207,-41.504,-59.570,0.000
1709206166.279,-52.734,28.809,-49.316,-65.430,0.000
1709206166.283,-52.734,30.762,-52.246,-54.199,0.000
1709206166.287,-57.617,14.648,-45.410,-44.922,0.000
1709206166.291,-62.012,10.742,-46.387,-50.781,0.000
1709206166.295,-59.082,23.926,-47.363,-57.129,0.000
1709206166.299,-48.340,26.855,-47.852,-57.617,0.000
1709206166.303,-56.152,-9.766,-48.340,-58.594,0.000
1709206166.306,-67.871,-23.926,-51.270,-49.805,0.000
1709206166.310,-60.547,29.785,-47.852,-49.316,0.000
1709206166.314,-49.316,36.621,-45.410,-52.734,0.000
1709206166.318,-46.875,5.371,-45.898,-52.734,0.000
1709206166.322,-52.246,4.883,-43.457,-54.688,0.000
1709206166.326,-56.641,4.883,-44.922,-42.480,0.000
1709206166.330,-49.316,4.395,-43.457,-36.133,0.000
1709206166.334,-47.852,3.418,-39.551,-44.922,0.000
1709206166.338,-50.781,3.418,-41.992,-52.246,0.000
1709206166.342,-50.781,7.324,-45.410,-49.805,0.000
1709206166.346,-45.898,-7.812,-39.551,-40.527,0.000
1709206166.349,-37.598,-26.855,-34.180,-34.668,0.000
1709206166.353,-39.062,-4.883,-30.273,-33.691,0.000
1709206166.357,-44.922,23.926,-29.785,-25.391,0.000
1709206166.361,-48.340,1.465,-34.668,-20.020,0.000
1709206166.365,-47.852,-31.250,-34.668,-21.484,0.000
1709206166.369,-56.641,-3.418,-41.504,-38.086,0.000
1709206166.373,-52.734,15.625,-41.992,-47.852,0.000
1709206166.377,-43.457,-9.277,-33.691,-42.480,0.000
1709206166.381,-43.945,-15.137,-37.109,-31.738,0.000
1709206166.385,-43.457,-1.465,-36.133,-33.203,0.000
1709206166.389,-38.086,15.137,-34.180,-33.203,0.000
1709206166.392,-28.320,5.371,-35.645,-24.902,0.000
1709206166.396,-18.066,-9.766,-31.250,-22.949,0.000
1709206166.400,-36.133,0.977,-33.203,-29.785,0.000
1709206166.404,-55.176,9.766,-35.645,-37.109,0.000
1709206166.408,-50.293,-18.066,-32.227,-29.785,0.000
1709206166.412,-43.457,-24.902,-37.109,-16.113,0.000
1709206166.416,-40.527,19.531,-38.086,-28.809,0.000
1709206166.420,-36.133,18.555,-36.133,-40.039,0.000
1709206166.424,-29.785,-4.395,-38.574,-35.156,0.000
1709206166.428,-27.344,5.371,-36.621,-23.438,0.000
1709206166.432,-31.738,24.414,-36.133,-15.625,0.000
1709206166.435,-33.203,9.277,-38.086,-25.879,0.000
1709206166.439,-34.668,-18.555,-39.551,-41.504,0.000
1709206166.443,-38.086,-28.320,-36.621,-52.246,0.000
1709206166.447,-39.551,-20.996,-40.527,-51.758,0.000
1709206166.451,-36.621,-14.648,-47.363,-47.852,0.000
1709206166.455,-37.109,-58.105,-40.039,-35.156,0.000
1709206166.459,-38.086,-60.547,-40.039,-38.574,0.000
1709206166.463,-39.062,-10.254,-41.992,-67.383,0.000
1709206166.467,-31.250,-21.484,-36.621,-70.801,0.000
1709206166.471,-41.504,-30.273,-38.086,-62.988,0.000
1709206166.475,-48.828,-16.602,-40.039,-56.152,0.000
1709206166.478,-38.574,-19.531,-40.527,-49.316,0.000
1709206166.482,-37.109,-25.391,-41.992,-47.852,0.000
1709206166.486,-36.133,-24.414,-37.598,-41.992,0.000
1709206166.490,-40.527,-26.855,-35.645,-45.898,0.000
1709206166.494,-37.109,-22.461,-41.504,-51.758,0.000
1709206166.498,-36.133,-26.367,-45.410,-45.410,0.000
1709206166.502,-39.551,-28.809,-48.340,-36.133,0.000
1709206166.506,-39.551,7.812,-44.922,-32.227,0.000
1709206166.510,-46.387,9.277,-39.062,-34.668,0.000
1709206166.514,-36.133,-9.277,-39.551,-33.691,0.000
1709206166.518,0.000,-5.859,-41.992,-37.109,0.000
1709206166.521,0.000,4.883,-46.387,-51.270,0.000
1709206166.525,0.000,2.441,-45.898,-49.805,0.000
1709206166.529,0.000,-0.488,-41.992,-41.504,0.000
1709206166.533,0.000,4.883,-42.480,-44.922,0.000
1709206166.537,0.000,-11.719,-45.410,-46.875,0.000
1709206166.541,0.000,-17.578,-50.293,-50.293,0.000
1709206166.545,0.000,-24.414,-48.828,-37.598,0.000
1709206166.549,0.000,2.930,-46.387,-23.438,0.000
1709206166.553,0.000,34.668,-46.875,-35.156,0.000
1709206166.557,0.000,21.484,-45.410,-45.410,0.000
1709206166.560,0.000,22.949,-48.340,-46.875,0.000
1709206166.564,-44.434,23.926,-49.805,-44.922,0.000
1709206166.568,-43.945,16.602,-43.945,-43.945,0.000
1709206166.572,-41.992,-1.953,-40.039,-39.062,0.000
1709206166.576,-42.480,1.465,-39.551,-35.645,0.000
1709206166.580,-28.320,17.090,-41.016,-39.062,0.000
1709206166.584,-27.832,7.324,-39.551,-44.922,0.000
1709206166.588,-48.340,-11.230,-39.062,-40.527,0.000
1709206166.592,-45.410,-14.160,-43.945,-39.551,0.000
1709206166.596,-40.039,31.250,-46.387,-60.059,0.000
1709206166.600,-43.457,26.367,-45.410,-67.871,0.000
1709206166.603,-50.781,-3.906,-40.527,-55.176,0.000
1709206166.607,-58.594,4.883,-39.062,-52.734,0.000
1709206166.611,-61.035,11.719,-48.340,-50.781,0.000
1709206166.615,-59.570,-0.977,-47.852,-46.387,0.000
1709206166.619,-47.852,5.859,-38.086,-47.363,0.000
1709206166.623,-40.039,21.484,-36.621,-38.086,0.000
1709206166.627,-44.922,14.160,-35.645,-32.715,0.000
1709206166.631,-57.617,2.441,-36.133,-34.668,0.000
1709206166.635,-49.316,-22.949,-41.992,-29.297,0.000
1709206166.639,-44.922,-3.418,-43.945,-38.086,0.000
1709206166.643,-59.570,37.598,-43.945,-44.434,0.000
1709206166.646,-57.617,1.465,-48.340,-42.480,0.000
1709206166.650,-51.758,-1.953,-52.734,-47.363,0.000
1709206166.654,-41.504,25.391,-50.781,-48.340,0.000
1709206166.658,-41.992,30.273,-46.875,-47.852,0.000
1709206166.662,-49.316,16.602,-48.828,-41.992,0.000
1709206166.666,-51.758,9.277,-55.176,-43.945,0.000
1709206166.670,-48.828,21.973,-55.664,-41.504,0.000
1709206166.674,-41.504,30.762,-43.945,-31.250,0.000
1709206166.678,-44.434,9.766,-44.922,-30.273,0.000
1709206166.682,-59.570,0.488,-50.781,-37.109,0.000
1709206166.686,-50.293,52.246,-48.828,-51.270,0.000
1709206166.689,-30.762,44.922,-49.805,-43.457,0.000
1709206166.693,-47.852,10.742,-52.246,-37.109,0.000
1709206166.697,-53.711,24.414,-50.781,-40.527,0.000
1709206166.701,-45.410,32.715,-45.898,-39.062,0.000
1709206166.705,-46.387,24.414,-41.504,-42.969,0.000
1709206166.709,-47.363,10.742,-39.551,-46.387,0.000
1709206166.713,-44.434,24.414,-35.156,-41.504,0.000
1709206166.717,-44.434,32.715,-41.016,-41.992,0.000
1709206166.721,-52.246,11.719,-42.969,-47.852,0.000
1709206166.725,-58.594,-4.395,-42.480,-45.410,0.000
1709206166.729,-55.176,3.906,-44.922,-35.645,0.000
1709206166.732,-46.875,19.043,-45.898,-34.180,0.000
1709206166.736,-45.898,12.695,-50.293,-52.734,0.000
1709206166.740,-32.715,-16.113,-50.293,-48.340,0.000
1709206166.744,-41.504,3.418,-42.480,-39.062,0.000
1709206166.748,-55.664,21.484,-41.016,-43.945,0.000
1709206166.752,-40.527,-0.977,-36.133,-44.922,0.000
1709206166.756,-30.273,-1.953,-31.250,-36.133,0.000
1709206166.760,-37.598,9.766,-33.691,-34.180,0.000
1709206166.764,-51.270,10.254,-42.480,-41.992,0.000
1709206166.768,-42.969,-1.953,-41.016,-34.668,0.000
1709206166.772,-30.273,-13.184,-29.297,-28.320,0.000
1709206166.775,-28.809,8.301,-31.250,-29.785,0.000
1709206166.779,-27.832,20.996,-40.527,-28.320,0.000
1709206166.783,-34.668,-24.414,-38.086,-21.484,0.000
1709206166.787,-35.645,-33.203,-31.250,-13.672,0.000
1709206166.791,-27.344,28.320,-30.762,-21.973,0.000
1709206166.795,-24.414,28.320,-32.715,-25.879,0.000
1709206166.799,-24.902,4.883,-31.250,-24.902,0.000
1709206166.803,-13.184,10.742,-32.227,-32.227,0.000
1709206166.807,-19.043,22.461,-34.180,-27.832,0.000
1709206166.811,-36.621,12.207,-34.668,-21.973,0.000
1709206166.815,-31.250,-1.465,-33.691,-25.879,0.000
1709206166.818,-38.086,-2.930,-28.320,-32.227,0.000
1709206166.822,-34.180,16.602,-31.250,-40.039,0.000
1709206166.826,-34.668,24.902,-36.133,-44.922,0.000
1709206166.830,-42.969,-27.344,-35.645,-32.227,0.000
1709206166.834,-35.645,-17.578,-37.109,-21.973,0.000
1709206166.838,-31.250,39.551,-37.598,-36.133,0.000
1709206166.842,-36.621,18.555,-36.621,-48.828,0.000
1709206166.846,-42.480,10.254,-41.016,-51.758,0.000
1709206166.850,-28.809,26.855,-49.316,-50.781,0.000
1709206166.854,-29.297,20.508,-44.922,-43.457,0.000
1709206166.858,-41.016,4.395,-40.039,-38.574,0.000
1709206166.861,-39.062,4.395,-43.945,-42.480,0.000
1709206166.865,-48.340,9.766,-46.387,-45.898,0.000
1709206166.869,-55.176,23.438,-44.922,-40.039,0.000
1709206166.873,-41.504,14.648,-42.969,-30.762,0.000
1709206166.877,-37.109,-0.488,-41.504,-25.391,0.000
1709206166.881,-49.316,33.203,-43.945,-42.969,0.000
1709206166.885,-54.688,26.855,-44.434,-52.734,0.000
1709206166.889,-45.898,4.883,-40.039,-40.039,0.000
1709206166.893,-42.480,14.648,-43.457,-32.227,0.000
1709206166.897,-34.668,20.020,-45.410,-36.133,0.000
1709206166.901,-41.016,-6.348,-38.086,-32.715,0.000
1709206166.904,-62.012,-4.883,-40.527,-25.391,0.000
1709206166.908,-65.918,15.137,-46.875,-32.227,0.000
1709206166.912,-64.453,4.883,-43.945,-26.367,0.000
1709206166.916,-56.641,4.883,-40.039,-25.391,0.000
1709206166.920,-56.152,-17.090,-34.668,-18.066,0.000
1709206166.924,-59.570,-12.207,-32.227,-17.578,0.000
1709206166.928,-52.734,23.438,-36.621,-43.457,0.000
1709206166.932,-44.922,13.672,-30.762,-48.828,0.000
1709206166.936,-45.410,16.113,-23.438,-37.598,0.000
1709206166.940,-46.387,22.461,-26.367,-34.668,0.000
1709206166.944,-42.480,16.113,-32.715,-38.574,0.000
1709206166.947,-39.062,1.465,-37.109,-38.574,0.000
1709206166.951,-34.180,0.977,-39.062,-37.598,0.000
1709206166.955,-21.484,2.930,-39.551,-47.852,0.000
1709206166.959,-38.574,-3.906,-41.992,-58.105,0.000
1709206166.963,-54.688,-8.301,-41.504,-56.152,0.000
1709206166.967,-50.781,-8.789,-35.156,-53.711,0.000
1709206166.971,-41.992,29.297,-35.156,-54.688,0.000
1709206166.975,-22.949,35.645,-35.156,-44.922,0.000
1709206166.979,-16.113,4.883,-34.180,-36.133,0.000
1709206166.983,-25.391,4.395,-29.785,-35.156,0.000
1709206166.986,-34.180,15.625,0.000,-37.109,0.000
1709206166.990,-31.250,6.836,0.000,-37.598,0.000
1709206166.994,-27.344,-4.395,0.000,-37.598,0.000
1709206166.998,-22.461,11.719,0.000,-41.504,0.000
1709206167.002,-24.414,19.043,0.000,-47.852,0.000
1709206167.006,-48.828,6.348,0.000,-49.805,0.000
1709206167.010,-54.199,-24.902,0.000,-34.180,0.000
1709206167.014,-47.363,-15.625,0.000,-29.297,0.000
1709206167.018,-54.688,24.414,0.000,-40.039,0.000
1709206167.022,-62.988,1.953,0.000,-46.387,0.000
1709206167.026,-63.477,6.836,0.000,-57.129,0.000
1709206167.029,-53.711,22.461,0.000,-55.176,0.000
1709206167.033,-47.363,18.066,-44.922,-48.828,0.000
1709206167.037,-46.387,0.977,-48.340,-46.875,0.000
1709206167.041,-53.711,-5.371,-46.387,-49.316,0.000
1709206167.045,-56.152,11.230,-41.504,-50.781,0.000
1709206167.049,-56.152,1.465,-41.016,-36.621,0.000
1709206167.053,-60.547,-27.832,-46.875,-38.574,0.000
1709206167.057,-52.734,-30.762,-43.457,-41.992,0.000
1709206167.061,-57.129,11.230,-43.457,-46.387,0.000
1709206167.065,-44.922,19.531,-44.922,-55.176,0.000
1709206167.069,-46.387,-8.789,-42.480,-52.734,0.000
1709206167.072,-55.664,-8.789,-43.945,-43.945,0.000
1709206167.076,-32.227,17.090,-49.805,-43.457,0.000
1709206167.080,-21.973,7.324,-56.641,-54.199,0.000
1709206167.084,-27.344,-10.742,-51.270,-52.246,0.000
1709206167.088,-28.320,2.441,-45.410,-40.527,0.000
1709206167.092,-23.926,20.508,-50.781,-35.156,0.000
1709206167.096,-14.160,11.719,-44.922,-51.270,0.000
1709206167.100,-16.113,-19.043,-37.598,-51.758,0.000
1709206167.104,-22.461,-6.836,-35.645,-38.574,0.000
1709206167.108,-19.531,24.902,-34.668,-33.691,0.000
1709206167.112,-20.996,5.859,-32.715,-26.367,0.000
1709206167.115,-22.461,-14.160,-29.785,-23.926,0.000
1709206167.119,-29.785,12.207,-36.621,-20.508,0.000
1709206167.123,-23.926,19.531,-38.574,-26.855,0.000
1709206167.127,-36.133,-7.812,-32.227,-39.062,0.000
1709206167.131,-57.129,-6.836,-33.691,-53.711,0.000
1709206167.135,-48.340,13.672,-31.738,-50.781,0.000
1709206167.139,-46.387,18.066,-26.855,-47.852,0.000
1709206167.143,-57.617,0.977,-33.691,-47.852,0.000
1709206167.147,-66.895,-19.043,-39.062,-46.387,0.000
1709206167.151,-62.500,-6.348,-33.203,-52.246,0.000
1709206167.155,-53.711,19.531,-33.691,-54.199,0.000
1709206167.158,-51.758,-7.812,-36.621,-50.781,0.000
1709206167.162,-56.641,-27.832,-39.551,-35.645,0.000
1709206167.166,-59.570,16.602,-40.039,-34.668,0.000
1709206167.170,-58.105,10.254,-41.016,-42.969,0.000
1709206167.174,-54.688,-14.648,-40.039,-32.227,0.000
1709206167.178,-39.551,-1.465,-39.062,-36.133,0.000
1709206167.182,-28.320,4.395,-45.898,-48.340,0.000
1709206167.186,-54.199,-21.484,-41.016,-39.551,0.000
1709206167.190,-56.641,-20.996,-35.156,-36.133,0.000
1709206167.194,-36.621,-6.836,-39.062,-44.922,0.000
1709206167.198,-35.645,7.324,-41.016,-39.551,0.000
1709206167.201,-33.203,20.508,-42.480,-40.039,0.000
1709206167.205,-33.203,-21.484,-48.340,-44.922,0.000
1709206167.209,-35.156,-23.438,-47.363,-40.039,0.000
1709206167.213,-29.785,24.902,-39.062,-47.852,0.000
1709206167.217,-31.250,10.742,-40.527,-53.223,0.000
1709206167.221,-33.691,-6.348,-48.340,-51.758,0.000
1709206167.225,-36.133,16.113,-47.852,-49.805,0.000
1709206167.229,-40.039,16.602,-44.922,-46.875,0.000
1709206167.233,-45.898,-11.719,-46.387,-41.992,0.000
1709206167.237,-41.016,-19.043,-43.457,-43.457,0.000
1709206167.241,-38.086,-4.883,-40.039,-48.828,0.000
1709206167.244,-52.246,2.441,-38.574,-55.176,0.000
1709206167.248,-48.340,-15.137,-38.574,-47.852,0.000
1709206167.252,-51.758,-18.555,-42.480,-36.621,0.000
1709206167.256,-61.523,23.438,-45.410,-49.316,0.000
1709206167.260,-55.664,26.855,-43.945,-67.383,0.000
1709206167.264,-53.711,-0.488,-44.922,-68.848,0.000
1709206167.268,-54.688,1.465,-43.457,-59.082,0.000
1709206167.272,-54.688,20.508,-43.457,-56.641,0.000
1709206167.276,-54.688,14.160,-46.875,-59.570,0.000
1709206167.280,-54.199,5.859,-47.363,-50.781,0.000
1709206167.284,-57.617,2.441,-51.270,-54.688,0.000
1709206167.287,-67.871,-13.184,-48.340,-61.523,0.000
1709206167.291,-68.848,-3.418,-47.363,-54.688,0.000
1709206167.295,-60.547,-26.855,-50.781,-44.434,0.000
1709206167.299,-54.688,-20.996,-48.340,-40.527,0.000
1709206167.303,-39.551,15.625,-42.969,-47.852,0.000
1709206167.307,-47.852,-1.465,-45.410,-46.875,0.000
1709206167.311,-62.012,10.254,-54.688,-58.594,0.000
1709206167.315,-42.480,28.320,-51.758,-58.594,0.000
1709206167.319,-36.621,20.996,-35.156,-48.828,0.000
1709206167.323,-42.480,-1.953,-26.367,-41.992,0.000
1709206167.326,-39.062,3.418,-31.250,-28.320,0.000
1709206167.330,-31.738,18.066,-35.645,-27.344,0.000
1709206167.334,-21.484,7.324,-35.645,-33.691,0.000
1709206167.338,-14.648,-8.789,-38.086,-33.203,0.000
1709206167.342,-20.996,-13.672,-39.062,-21.973,0.000
1709206167.346,-25.391,27.832,-38.086,-31.250,0.000
1709206167.350,-26.855,31.738,-37.598,-46.387,0.000
1709206167.354,-22.949,3.418,-44.434,-42.480,0.000
1709206167.358,-33.203,2.930,-46.875,-47.852,0.000
1709206167.362,-50.781,14.648,-40.527,-57.617,0.000
1709206167.366,-47.852,6.836,-41.016,-59.570,0.000
1709206167.369,-50.781,-9.277,-46.875,-54.688,0.000
1709206167.373,-40.039,1.953,-43.457,-51.758,0.000
1709206167.377,-38.574,13.672,-44.434,-58.105,0.000
1709206167.381,-50.293,-3.906,-49.316,-57.617,0.000
1709206167.385,-53.711,-36.621,-46.387,-50.781,0.000
1709206167.389,-55.176,-16.602,-45.898,-42.969,0.000
1709206167.393,-51.270,25.391,-40.527,-42.969,0.000
1709206167.397,-51.758,-0.977,-41.016,-48.340,0.000
1709206167.401,-54.199,-1.953,-43.457,-50.293,0.000
1709206167.405,-51.758,14.160,-43.457,-49.805,0.000
1709206167.409,-59.082,6.836,-45.898,-55.176,0.000
1709206167.412,-50.293,-10.742,-46.875,-55.664,0.000
1709206167.416,-41.016,-12.207,-42.480,-52.734,0.000
1709206167.420,-53.223,9.277,-37.109,-53.711,0.000
1709206167.424,-47.363,0.488,-35.156,-41.992,0.000
1709206167.428,-42.969,-21.484,-29.785,-17.578,0.000
1709206167.432,-38.086,-21.484,-32.715,-13.184,0.000
1709206167.436,-32.227,24.414,-42.969,-27.344,0.000
1709206167.440,-33.203,30.273,-39.062,-37.598,0.000
1709206167.444,-42.480,-9.277,-39.062,-37.598,0.000
1709206167.448,-54.688,-9.277,-43.457,-31.738,0.000
1709206167.451,-53.711,15.137,-44.434,-30.762,0.000
1709206167.455,-43.457,12.695,-37.109,-38.574,0.000
1709206167.459,-31.250,0.977,-34.180,-44.434,0.000
1709206167.463,-34.668,12.695,-36.133,-42.480,0.000
1709206167.467,-43.945,20.996,-32.715,-36.133,0.000
1709206167.471,-31.738,7.324,-29.297,-31.250,0.000
1709206167.475,-38.086,-7.324,-33.691,-34.180,0.000
1709206167.479,-51.758,-0.977,-34.180,-41.992,0.000
1709206167.483,-42.969,16.602,-31.738,-39.551,0.000
1709206167.487,-49.316,12.207,-37.598,-40.039,0.000
1709206167.491,-48.828,-14.160,-42.969,-30.273,0.000
1709206167.494,-42.969,9.277,-38.574,-24.902,0.000
1709206167.498,-44.434,31.738,-37.598,-49.316,0.000
1709206167.502,-45.898,6.348,-43.457,-62.500,0.000
1709206167.506,-52.734,0.488,-42.480,-53.223,0.000
1709206167.510,-42.480,8.789,-38.574,-46.387,0.000
1709206167.514,-36.621,7.812,-40.039,-48.340,0.000
1709206167.518,-36.621,-6.348,-36.133,-49.805,0.000
1709206167.522,-23.438,-17.578,-31.250,-43.945,0.000
1709206167.526,-40.039,-5.859,-34.668,-41.992,0.000
1709206167.530,-57.617,10.742,-36.621,-48.340,0.000
1709206167.534,-48.340,-12.695,-47.852,-46.875,0.000
1709206167.537,-42.480,-23.438,-50.293,-39.551,0.000
1709206167.541,-42.969,14.160,-47.363,-41.504,0.000
1709206167.545,-45.410,6.348,-44.434,-43.945,0.000
1709206167.549,-48.340,-3.418,-43.945,-37.109,0.000
1709206167.553,-43.457,5.859,-49.316,-31.738,0.000
1709206167.557,-44.922,11.230,-48.828,-42.480,0.000
1709206167.561,-47.852,1.953,-52.246,-43.945,0.000
1709206167.565,-47.363,-11.230,-55.176,-36.621,0.000
1709206167.569,-55.176,-11.230,-49.316,-38.574,0.000
1709206167.573,-44.922,2.930,-48.340,-36.133,0.000
1709206167.577,-23.438,9.766,-48.828,-45.410,0.000
1709206167.580,-35.156,-29.785,-44.434,-39.551,0.000
1709206167.584,-52.246,-24.902,-38.574,-27.344,0.000
1709206167.588,-45.410,11.719,-42.480,-25.879,0.000
1709206167.592,-40.527,0.977,-46.387,-22.949,0.000
1709206167.596,-41.016,6.836,-50.293,-30.762,0.000
1709206167.600,-37.598,11.719,-51.270,-35.156,0.000
1709206167.604,-37.598,8.301,-41.992,-32.227,0.000
1709206167.608,-37.109,0.977,-45.898,-25.879,0.000
1709206167.612,-35.156,-7.812,-52.734,-32.715,0.000
1709206167.616,-31.738,-9.277,-52.734,-42.969,0.000
1709206167.620,-24.902,11.230,-50.781,-39.551,0.000
1709206167.623,-20.996,0.488,-46.875,-39.062,0.000
1709206167.627,-36.133,-25.391,-47.363,-40.527,0.000
1709206167.631,-48.340,19.043,-41.992,-38.574,0.000
1709206167.635,-41.016,26.367,-35.156,-28.320,0.000
1709206167.639,-37.109,0.488,-32.715,-31.250,0.000
1709206167.643,-47.363,-7.324,-40.527,-53.711,0.000
1709206167.647,-58.594,13.672,-44.434,-55.664,0.000
1709206167.651,-55.176,12.695,-39.551,-46.875,0.000
1709206167.655,-51.270,-9.766,-41.016,-56.641,0.000
1709206167.659,-52.246,-5.371,-45.898,-66.895,0.000
1709206167.663,-48.828,-9.766,-46.387,-64.941,0.000
1709206167.666,-38.574,-4.395,-41.504,-54.199,0.000
1709206167.670,-53.223,-32.227,-36.621,-35.645,0.000
1709206167.674,-64.453,-30.273,-43.457,-26.367,0.000
1709206167.678,-53.223,8.301,-44.434,-41.016,0.000
1709206167.682,-53.223,-11.230,-39.551,-44.434,0.000
1709206167.686,-60.059,-1.953,-35.156,-42.480,0.000
1709206167.690,-51.270,10.254,-34.180,-42.969,0.000
1709206167.694,-47.363,1.465,-39.062,-38.574,0.000
1709206167.698,-42.969,-13.672,-41.992,-37.109,0.000
1709206167.702,-31.250,-12.207,-38.086,-44.434,0.000
1709206167.706,-41.016,-2.930,-34.180,-52.734,0.000
1709206167.709,-59.082,-12.207,-32.227,-41.992,0.000
1709206167.713,-49.316,-20.020,-29.297,-34.180,0.000
1709206167.717,-37.109,-28.320,-32.227,-35.645,0.000
1709206167.721,-37.598,3.906,-34.180,-33.691,0.000
1709206167.725,-49.805,2.930,-34.180,-38.086,0.000
1709206167.729,-55.664,-19.043,-35.645,-43.457,0.000
1709206167.733,-46.387,-9.766,-34.668,-31.250,0.000
1709206167.737,-42.969,2.930,-32.227,-26.855,0.000
1709206167.741,-45.898,-13.184,-37.109,-42.480,0.000
1709206167.745,-41.016,-31.738,-41.992,-42.969,0.000
1709206167.749,-39.062,-14.160,-44.434,-39.062,0.000
1709206167.752,-30.273,-7.324,-43.945,-37.598,0.000
1709206167.756,-20.996,-21.973,-40.039,-37.598,0.000
1709206167.760,-41.504,-57.129,-44.922,-37.598,0.000
1709206167.764,-50.781,-38.574,-48.340,-38.574,0.000
1709206167.768,-46.875,10.254,-40.039,-35.645,0.000
1709206167.772,-45.410,-15.137,-40.039,-31.250,0.000
1709206167.776,-41.504,-8.789,-44.922,-41.016,0.000
1709206167.780,-40.039,12.207,-44.434,-50.293,0.000
1709206167.784,-40.039,12.695,-48.340,-57.129,0.000
1709206167.788,-41.016,0.488,-42.969,-56.641,0.000
1709206167.791,-40.039,-8.789,-41.504,-50.781,0.000
1709206167.795,-35.156,10.254,-44.922,-45.410,0.000
1709206167.799,-35.645,7.324,-42.969,-43.945,0.000
1709206167.803,-45.410,-21.973,-44.434,-43.945,0.000
1709206167.807,-41.504,-28.809,-49.316,-36.621,0.000
1709206167.811,-48.828,13.672,-48.828,-39.551,0.000
1709206167.815,-61.035,9.766,-45.898,-46.387,0.000
1709206167.819,-46.875,-8.789,-43.457,-40.039,0.000
1709206167.823,-42.480,4.883,-40.527,-41.992,0.000
1709206167.827,-49.316,6.836,-38.574,-47.852,0.000
1709206167.831,-57.129,-4.395,-39.551,-49.316,0.000
1709206167.834,-55.664,-12.207,-43.945,-42.969,0.000
1709206167.838,-59.082,0.000,-52.246,-47.852,0.000
1709206167.842,-71.777,8.301,-51.758,-58.105,0.000
1709206167.846,-67.871,-5.859,-45.410,-53.711,0.000
1709206167.850,-64.941,-38.086,-40.527,-41.504,0.000
1709206167.854,-51.758,-11.719,-41.016,-34.180,0.000
1709206167.858,-40.527,29.297,-42.480,-45.898,0.000
1709206167.862,-55.176,9.277,-43.945,-60.547,0.000
1709206167.866,-60.059,-16.113,-41.992,-56.152,0.000
1709206167.870,-60.547,-11.230,-39.551,-59.082,0.000
1709206167.874,-60.547,4.883,-44.922,-71.289,0.000
1709206167.877,-57.617,-5.371,-43.457,-67.871,0.000
1709206167.881,-51.270,-11.719,-39.062,-53.223,0.000
1709206167.885,-54.688,4.883,-40.039,-54.199,0.000
1709206167.889,-50.293,0.977,-39.062,-61.523,0.000
1709206167.893,-41.992,-14.160,-40.039,-53.711,0.000
1709206167.897,-27.832,-25.391,-48.340,-52.734,0.000
1709206167.901,-36.621,-5.859,-45.410,-50.293,0.000
1709206167.905,-47.363,12.695,-40.527,-43.457,0.000
1709206167.909,-32.227,-14.160,-37.598,-40.039,0.000
1709206167.913,-36.621,-22.461,-36.621,-40.527,0.000
1709206167.917,-47.363,13.672,-48.828,-54.199,0.000
1709206167.920,-33.203,6.348,-46.875,-57.617,0.000
1709206167.924,-36.621,-14.648,-40.039,-51.758,0.000
1709206167.928,-33.203,-12.695,-41.992,-51.270,0.000
1709206167.932,-27.344,3.906,-42.969,-50.293,0.000
1709206167.936,-35.156,2.930,-40.527,-49.805,0.000
1709206167.940,-20.020,-12.695,-42.480,-40.527,0.000
1709206167.944,-31.250,-19.043,-49.316,-32.227,0.000
1709206167.948,-40.527,-11.719,-41.992,-36.133,0.000
1709206167.952,-33.691,8.789,-36.133,-40.527,0.000
1709206167.956,-40.039,-21.484,-36.133,-34.668,0.000
1709206167.960,-41.504,-21.973,-36.621,-34.180,0.000
1709206167.963,-40.527,26.367,-40.527,-41.992,0.000
1709206167.967,-44.434,17.090,-39.551,-40.527,0.000
1709206167.971,-41.016,4.395,-38.574,-38.086,0.000
1709206167.975,-40.039,18.555,-43.457,-37.598,0.000
1709206167.979,-41.016,19.043,-47.363,-35.156,0.000
1709206167.983,-55.176,-3.906,-45.410,-42.969,0.000
1709206167.987,-49.316,-11.230,-47.852,-44.922,0.000
1709206167.991,-48.828,-2.930,-52.246,-37.598,0.000
1709206167.995,-62.988,9.766,-50.293,-48.828,0.000
1709206167.999,-48.828,-7.812,-44.434,-55.664,0.000
1709206168.003,-48.828,-35.156,-41.016,-36.621,0.000
1709206168.006,-54.199,10.742,-43.945,-40.039,0.000
1709206168.010,-44.922,19.043,-42.969,-45.410,0.000
1709206168.014,-48.340,-10.254,-42.480,-34.668,0.000
1709206168.018,-45.898,-1.465,-43.457,-35.645,0.000
1709206168.022,-38.574,12.207,-46.875,-34.180,0.000
1709206168.026,-42.969,-8.789,-44.922,-26.367,0.000
1709206168.030,-31.738,-17.090,-46.387,-32.715,0.000
1709206168.034,-25.391,-3.906,-52.734,-39.062,0.000
1709206168.038,-43.945,-18.066,-57.129,-50.781,0.000
1709206168.042,-49.316,-18.555,-54.688,-57.617,0.000
1709206168.046,-50.293,-35.645,-43.945,-33.203,0.000
1709206168.049,-51.758,-22.949,-50.293,-26.855,0.000
1709206168.053,-43.945,12.695,-53.223,-49.316,0.000
1709206168.057,-34.180,-5.859,-47.852,-50.293,0.000
1709206168.061,-37.109,-5.859,-44.922,-49.805,0.000
1709206168.065,-45.898,-2.441,0.000,-57.617,0.000
1709206168.069,-43.945,-3.906,0.000,-49.316,0.000
1709206168.073,-20.996,-14.648,0.000,-40.527,0.000
1709206168.077,-22.949,-14.648,0.000,-49.316,0.000
1709206168.081,-33.691,-1.465,0.000,-49.316,0.000
1709206168.085,-38.574,-10.742,0.000,-48.340,0.000
1709206168.089,-45.410,-21.973,0.000,-44.922,0.000
1709206168.092,-48.340,-14.648,0.000,-32.227,0.000
1709206168.096,-49.316,20.996,0.000,-39.062,0.000
1709206168.100,-33.203,7.324,0.000,-43.945,0.000
1709206168.104,-44.922,-15.625,0.000,-33.203,0.000
1709206168.108,-55.176,5.371,0.000,-30.762,0.000
1709206168.112,-47.363,13.184,-40.527,-34.180,0.000
1709206168.116,-39.551,-5.371,-42.969,-41.016,0.000
1709206168.120,-30.273,-23.926,-41.016,-44.434,0.000
1709206168.124,-44.922,-11.230,-39.551,-46.875,0.000
1709206168.128,-52.734,-3.906,-41.016,-49.316,0.000
1709206168.131,-42.480,-5.859,-36.133,-50.293,0.000
1709206168.135,-40.527,-29.785,-37.598,-47.852,0.000
1709206168.139,-41.992,-14.648,-39.551,-49.316,0.000
1709206168.143,-39.551,27.344,-35.156,-57.129,0.000
1709206168.147,-44.434,-6.348,-40.527,-57.617,0.000
1709206168.151,-40.039,0.000,-44.922,-53.223,0.000
1709206168.155,-26.855,13.184,-41.504,-47.852,0.000
1709206168.159,-23.438,-2.441,-38.574,-60.547,0.000
1709206168.163,-41.992,-1.465,-43.457,-56.152,0.000
1709206168.167,-57.617,0.977,-41.992,-47.852,0.000
1709206168.171,-43.945,19.043,-33.691,-60.547,0.000
1709206168.174,-34.668,21.484,-35.156,-61.523,0.000
1709206168.178,-29.297,-8.301,-34.180,-51.270,0.000
1709206168.182,-26.855,-22.949,-38.086,-41.504,0.000
1709206168.186,-40.039,19.043,-45.410,-41.504,0.000
1709206168.190,-39.551,27.832,-46.387,-42.969,0.000
1709206168.194,-41.992,-3.418,-47.363,-46.875,0.000
1709206168.198,-38.086,-9.766,-49.316,-58.105,0.000
1709206168.202,-47.852,3.418,-42.969,-56.152,0.000
1709206168.206,-62.500,-8.789,-35.645,-41.504,0.000
1709206168.210,-51.758,-24.414,-37.598,-33.691,0.000
1709206168.214,-45.898,-18.066,-36.133,-36.133,0.000
1709206168.217,-48.828,4.395,-41.016,-45.410,0.000
1709206168.221,-57.617,-0.488,-44.434,-58.105,0.000
1709206168.225,-59.082,-40.039,-40.527,-53.223,0.000
1709206168.229,-46.387,-17.578,-41.504,-42.480,0.000
1709206168.233,-38.574,21.484,-40.039,-42.969,0.000
1709206168.237,-37.598,10.742,-34.668,-38.086,0.000
1709206168.241,-38.574,-18.555,-33.691,-47.852,0.000
1709206168.245,-41.992,-0.977,-34.180,-58.594,0.000
1709206168.249,-48.828,27.832,-38.574,-58.594,0.000
1709206168.253,-53.711,1.465,-42.480,-57.617,0.000
1709206168.257,-55.664,-13.184,-42.480,-59.082,0.000
1709206168.260,-54.688,4.395,-46.875,-60.059,0.000
1709206168.264,-54.199,11.230,-43.945,-51.758,0.000
1709206168.268,-56.152,-9.766,-41.992,-38.086,0.000
1709206168.272,-53.711,-15.137,-44.434,-34.180,0.000
1709206168.276,-44.434,0.977,-44.922,-41.016,0.000
1709206168.280,-50.781,7.812,-44.922,-49.316,0.000
1709206168.284,-62.500,-11.230,-38.574,-50.781,0.000
1709206168.288,-51.758,-22.461,-38.086,-44.922,0.000
1709206168.292,-45.410,19.531,-37.598,-46.875,0.000
1709206168.296,-36.621,13.672,-34.668,-50.781,0.000
1709206168.300,-39.551,-9.766,-38.086,-43.945,0.000
1709206168.303,-39.551,-3.906,-36.621,-32.227,0.000
1709206168.307,-38.086,1.465,-38.086,-33.691,0.000
1709206168.311,-39.551,-5.371,-41.016,-41.992,0.000
1709206168.315,-48.340,-15.625,-36.621,-39.551,0.000
1709206168.319,-48.340,-25.879,-34.668,-35.156,0.000
1709206168.323,-39.551,-0.977,-34.668,-39.062,0.000
1709206168.327,-31.738,23.926,-34.668,-39.551,0.000
1709206168.331,-35.645,-21.973,-38.086,-26.367,0.000
1709206168.335,-45.898,-17.090,-37.598,-17.578,0.000
1709206168.339,-36.621,33.691,-40.039,-29.297,0.000
1709206168.342,-35.645,13.184,-43.945,-31.250,0.000
1709206168.346,-46.387,-5.371,-42.969,-25.879,0.000
1709206168.350,-45.410,8.301,-36.621,-20.020,0.000
1709206168.354,-27.832,12.207,-32.715,-19.531,0.000
1709206168.358,-25.879,-4.395,-37.598,-28.809,0.000
1709206168.362,-37.109,-10.742,-44.434,-29.785,0.000
1709206168.366,-34.180,-18.555,-54.688,-36.133,0.000
1709206168.370,-25.879,-5.371,-47.852,-34.668,0.000
1709206168.374,-34.668,0.977,-33.691,-29.297,0.000
1709206168.378,-35.156,-20.020,-33.203,-29.785,0.000
1709206168.382,-38.086,14.160,-35.156,-35.645,0.000
1709206168.385,-40.527,15.137,-41.992,-40.039,0.000
1709206168.389,-31.250,-2.441,-41.016,-29.785,0.000
1709206168.393,-32.715,10.254,-34.668,-31.250,0.000
1709206168.397,-41.504,16.602,-31.738,-34.180,0.000
1709206168.401,-50.781,4.395,-30.762,-37.598,0.000
1709206168.405,-56.641,1.953,-35.156,-41.992,0.000
1709206168.409,-48.828,10.742,-35.645,-41.992,0.000
1709206168.413,-41.992,-3.906,-36.621,-41.016,0.000
1709206168.417,-31.738,-1.953,-37.598,-49.316,0.000
1709206168.421,-31.738,-21.973,-35.156,-45.898,0.000
1709206168.425,-52.246,-15.137,-39.551,-36.621,0.000
1709206168.428,-54.199,15.137,-36.133,-46.387,0.000
1709206168.432,-49.805,-6.836,-34.668,-41.504,0.000
1709206168.436,-41.016,0.977,-41.504,-40.527,0.000
1709206168.440,-36.133,11.719,-41.992,-44.922,0.000
1709206168.444,-41.504,-8.789,-42.480,-42.969,0.000
1709206168.448,-45.410,-17.578,-39.551,-43.945,0.000
1709206168.452,-44.922,-4.395,-37.598,-46.387,0.000
1709206168.456,-37.109,-0.977,-39.551,-50.781,0.000
1709206168.460,-39.551,-14.648,-39.062,-49.805,0.000
1709206168.464,-39.551,-23.926,-34.180,-44.922,0.000
1709206168.468,-41.504,-27.344,-37.109,-31.738,0.000
1709206168.471,-56.641,9.766,-48.340,-37.109,0.000
1709206168.475,-46.875,23.926,-43.945,-51.758,0.000
1709206168.479,-46.875,-7.324,-34.180,-49.805,0.000
1709206168.483,-55.176,-8.789,-38.574,-47.852,0.000
1709206168.487,-58.105,8.301,-39.551,-51.270,0.000
1709206168.491,-55.664,-4.883,-38.574,-49.316,0.000
1709206168.495,-49.316,-19.043,-43.457,-47.363,0.000
1709206168.499,-46.875,-8.789,-42.969,-56.641,0.000
1709206168.503,-43.945,-5.859,-36.621,-53.223,0.000
1709206168.507,-42.480,-0.488,-35.156,-47.852,0.000
1709206168.511,-41.016,-25.879,-37.109,-37.598,0.000
1709206168.514,-36.621,-6.348,-37.598,-30.762,0.000
1709206168.518,-53.223,41.992,-33.203,-37.598,0.000
1709206168.522,-58.105,1.465,-27.832,-42.480,0.000
1709206168.526,-54.688,-3.906,-26.367,-56.152,0.000
1709206168.530,-58.105,16.113,-35.156,-61.523,0.000
1709206168.534,-53.223,14.160,-41.504,-65.430,0.000
1709206168.538,-60.059,0.977,-39.551,-72.266,0.000
1709206168.542,-53.223,-0.977,-36.621,-63.477,0.000
1709206168.546,-48.828,6.836,-35.645,-55.664,0.000
1709206168.550,-55.664,1.465,-35.156,-50.781,0.000
1709206168.554,-47.852,-18.555,-36.621,-46.875,0.000
1709206168.557,-31.738,-39.062,-39.062,-42.480,0.000
1709206168.561,-42.480,-6.348,-38.086,-49.805,0.000
1709206168.565,-64.453,16.602,-39.551,-55.664,0.000
1709206168.569,-52.246,0.977,-47.363,-47.852,0.000
1709206168.573,-47.852,0.000,-45.410,-40.039,0.000
1709206168.577,-45.410,12.207,-43.457,-40.039,0.000
1709206168.581,-39.062,11.230,-45.898,-40.527,0.000
1709206168.585,-36.621,-12.207,-39.062,-37.109,0.000
1709206168.589,-35.645,-9.277,-41.016,-33.203,0.000
1709206168.593,-36.133,13.672,-41.992,-33.203,0.000
1709206168.596,-38.086,8.789,-35.156,-46.875,0.000
1709206168.600,-29.297,-14.648,-32.715,-51.270,0.000
1709206168.604,-41.504,-0.977,-34.668,-42.480,0.000
1709206168.608,-58.105,27.344,-38.574,-34.180,0.000
1709206168.612,-58.105,13.672,-35.645,-30.273,0.000
1709206168.616,-58.594,-24.414,-32.715,-28.809,0.000
1709206168.620,-48.828,-11.230,-30.273,-35.156,0.000
1709206168.624,-52.246,20.020,-35.645,-45.410,0.000
1709206168.628,-55.664,0.977,-39.551,-43.457,0.000
1709206168.632,-45.898,-7.812,-33.691,-41.504,0.000
1709206168.636,-47.363,9.277,-42.480,-43.457,0.000
1709206168.639,-52.246,13.184,-45.898,-40.039,0.000
1709206168.643,-44.434,-3.906,-36.133,-26.855,0.000
1709206168.647,-40.527,-21.973,-35.645,-32.227,0.000
1709206168.651,-34.180,4.395,-43.457,-44.434,0.000
1709206168.655,-52.246,26.855,-45.410,-46.387,0.000
1709206168.659,-66.406,-13.672,-47.852,-48.340,0.000
1709206168.663,-50.781,-30.273,-48.828,-42.480,0.000
1709206168.667,-44.434,8.789,-43.945,-42.969,0.000
1709206168.671,-37.109,7.812,-39.551,-41.504,0.000
1709206168.675,-39.551,-11.230,-44.922,-34.180,0.000
1709206168.679,-43.457,1.953,-46.387,-35.645,0.000
1709206168.682,-38.574,15.625,-37.598,-32.715,0.000
1709206168.686,-34.668,3.906,-40.039,-36.621,0.000
1709206168.690,-37.598,-15.625,-38.086,-37.109,0.000
1709206168.694,-36.621,-19.043,-36.621,-30.762,0.000
1709206168.698,-30.762,2.441,-39.551,-34.668,0.000
1709206168.702,-43.945,9.766,-42.480,-38.574,0.000
1709206168.706,-57.617,-41.992,-41.992,-28.320,0.000
1709206168.710,-48.340,-31.250,-34.180,-20.508,0.000
1709206168.714,-41.992,33.691,-38.086,-28.809,0.000
1709206168.718,-48.340,13.672,-44.922,-31.738,0.000
1709206168.722,-42.480,-4.395,-41.504,-31.250,0.000
1709206168.725,-39.551,15.137,-39.062,-44.922,0.000
1709206168.729,-49.805,-0.488,-40.039,-49.316,0.000
1709206168.733,-42.480,-11.230,-39.551,-35.156,0.000
1709206168.737,-36.621,-3.906,-42.969,-40.039,0.000
1709206168.741,-24.414,-8.789,-41.992,-43.945,0.000
1709206168.745,-29.297,11.230,-42.480,-41.016,0.000
1709206168.749,-54.688,-1.465,-40.039,-42.480,0.000
1709206168.753,-47.363,-27.344,-38.574,-37.109,0.000
1709206168.757,-47.852,19.043,-41.504,-36.621,0.000
1709206168.761,-55.664,19.043,-40.039,-46.875,0.000
1709206168.765,-50.781,-20.996,-34.668,-54.688,0.000
1709206168.768,-50.781,-13.672,-38.574,-59.570,0.000
1709206168.772,-48.340,5.371,-41.016,-56.641,0.000
1709206168.776,-35.645,-7.812,-40.039,-54.688,0.000
1709206168.780,-38.086,-20.996,-43.457,-57.617,0.000
1709206168.784,-33.691,-10.742,-44.922,-59.082,0.000
1709206168.788,-32.715,-8.789,-44.434,-49.316,0.000
1709206168.792,-47.363,-11.719,-41.016,-45.410,0.000
1709206168.796,-43.457,-33.691,-40.039,-34.180,0.000
1709206168.800,-40.527,-28.809,-42.480,-31.250,0.000
1709206168.804,-50.293,9.277,-42.969,-45.410,0.000
1709206168.808,-57.129,3.906,-41.992,-47.852,0.000
1709206168.811,-52.734,-0.977,-46.387,-42.969,0.000
1709206168.815,-44.922,11.230,-49.805,-45.410,0.000
1709206168.819,-44.434,10.742,-39.062,-54.199,0.000
1709206168.823,-46.387,-10.742,-30.273,-52.734,0.000
1709206168.827,-45.410,-16.113,-40.527,-51.270,0.000
1709206168.831,-46.875,-5.859,-38.574,-42.480,0.000
1709206168.835,-47.852,-13.672,-34.668,-46.387,0.000
1709206168.839,-26.855,-20.508,-39.062,-45.898,0.000
1709206168.843,-39.062,-33.203,-40.039,-35.645,0.000
1709206168.847,-61.523,0.977,-37.598,-37.109,0.000
1709206168.851,-53.223,21.484,-35.156,-41.504,0.000
1709206168.854,-47.363,-8.301,-38.574,-40.527,0.000
1709206168.858,-34.668,-15.625,-41.016,-32.227,0.000
1709206168.862,-30.762,-5.371,-38.574,-26.367,0.000
1709206168.866,-34.668,-6.348,-35.645,-29.785,0.000
1709206168.870,-30.273,-16.602,-38.086,-31.738,0.000
1709206168.874,-31.738,-9.277,-42.969,-32.715,0.000
1709206168.878,-33.203,-6.836,-38.574,-43.457,0.000
1709206168.882,-19.043,-8.301,-35.645,-43.457,0.000
1709206168.886,-22.461,-41.016,-41.504,-36.621,0.000
1709206168.890,-28.809,-26.855,-41.504,-35.645,0.000
1709206168.893,-33.691,22.949,-39.551,-44.922,0.000
1709206168.897,-27.344,-11.719,-41.016,-60.059,0.000
1709206168.901,-28.320,-22.461,-42.969,-59.570,0.000
1709206168.905,-52.246,-2.930,-46.875,-53.711,0.000
1709206168.909,-61.523,3.418,-54.199,-61.523,0.000
1709206168.913,-53.223,-11.230,-54.199,-61.035,0.000
1709206168.917,-38.086,-20.508,-45.898,-61.523,0.000
1709206168.921,-35.156,-10.742,-46.875,-66.895,0.000
1709206168.925,-39.062,-3.906,-53.711,-65.430,0.000
1709206168.929,-47.852,-16.602,-51.270,-58.594,0.000
1709206168.933,-48.828,-25.879,-43.457,-50.293,0.000
1709206168.936,-48.340,16.602,-39.551,-50.293,0.000
1709206168.940,-42.969,23.438,-40.039,-49.316,0.000
1709206168.944,-33.691,-9.277,-49.316,-41.504,0.000
1709206168.948,-28.320,-0.977,-53.223,-35.156,0.000
1709206168.952,-34.668,20.020,-42.969,-34.668,0.000
1709206168.956,-47.363,13.672,-43.457,-38.086,0.000
1709206168.960,-50.781,-10.254,-41.992,-36.133,0.000
1709206168.964,-47.363,-9.766,-43.945,-31.250,0.000
1709206168.968,-43.945,8.789,-46.875,-23.926,0.000
1709206168.972,-37.109,-4.395,-45.898,-31.250,0.000
1709206168.976,-29.297,-39.062,-44.922,-41.504,0.000
1709206168.979,-36.133,-21.484,-42.969,-45.898,0.000
1709206168.983,-40.527,13.184,-43.945,-42.969,0.000
1709206168.987,-32.715,7.812,-46.875,-34.668,0.000
1709206168.991,-30.273,-14.160,-49.805,-32.715,0.000
1709206168.995,-34.668,2.930,-47.363,-32.715,0.000
1709206168.999,-35.645,22.461,-45.410,-41.504,0.000
1709206169.003,-19.531,6.348,-46.875,-46.875,0.000
1709206169.007,-25.879,0.000,-39.551,-35.156,0.000
1709206169.011,-42.969,8.789,-41.504,-36.133,0.000
1709206169.015,-42.480,2.441,-50.293,-52.734,0.000
1709206169.019,-46.387,-10.254,-48.828,-51.270,0.000
1709206169.022,-43.945,-13.184,-42.480,-41.504,0.000
1709206169.026,-43.457,2.930,-37.598,-37.109,0.000
1709206169.030,-44.434,27.832,-43.457,-43.945,0.000
1709206169.034,-40.039,0.000,-45.898,-52.246,0.000
1709206169.038,-39.551,-18.066,-43.945,-41.992,0.000
1709206169.042,-35.645,29.785,-45.410,-45.410,0.000
1709206169.046,-39.551,34.668,-38.574,-55.176,0.000
1709206169.050,-40.039,1.953,-37.598,-50.293,0.000
1709206169.054,-31.738,-2.441,-40.527,-46.387,0.000
1709206169.058,-48.828,11.230,-38.086,-46.387,0.000
1709206169.062,-56.641,3.906,-34.668,-50.781,0.000
1709206169.065,-55.176,-18.066,-39.551,-43.945,0.000
1709206169.069,-52.246,-17.578,-41.992,-44.434,0.000
1709206169.073,-37.109,-1.465,-37.109,-48.340,0.000
1709206169.077,-32.227,7.324,-35.156,-42.480,0.000
1709206169.081,-42.969,-20.996,-35.156,-25.879,0.000
1709206169.085,-46.387,-25.879,-39.551,-21.484,0.000
1709206169.089,-39.551,21.973,-42.480,-44.434,0.000
1709206169.093,-39.062,22.949,-39.062,-38.574,0.000
1709206169.097,-31.738,5.371,-43.457,-28.809,0.000
1709206169.101,-26.855,13.184,-49.805,-41.992,0.000
1709206169.105,-53.711,10.742,-45.898,-51.758,0.000
1709206169.108,-70.312,-7.324,-48.828,-51.270,0.000
1709206169.112,-50.293,-11.719,-46.387,-44.434,0.000
1709206169.116,-43.457,-10.254,-42.480,-43.945,0.000
1709206169.120,-48.828,1.465,-42.969,-52.246,0.000
1709206169.124,-49.316,-12.695,-47.852,-53.223,0.000
1709206169.128,-50.781,-33.691,-49.316,-38.574,0.000
1709206169.132,-43.457,10.254,-48.828,-37.109,0.000
1709206169.136,-35.156,32.227,-43.457,-42.969,0.000
1709206169.140,-41.992,5.371,-39.551,-47.852,0.000
1709206169.144,-54.199,-2.930,-43.457,-55.176,0.000
1709206169.148,-53.711,9.766,-44.434,-47.363,0.000
1709206169.151,-35.156,5.859,-44.434,-47.363,0.000
1709206169.155,-33.691,-1.953,-45.410,-55.176,0.000
1709206169.159,-54.199,0.977,-45.410,-61.035,0.000
1709206169.163,-51.758,-5.859,-47.363,-61.035,0.000
1709206169.167,-51.758,-3.418,-44.434,-51.270,0.000
1709206169.171,-57.617,-21.484,-41.504,-36.133,0.000
1709206169.175,-60.059,-12.695,-42.480,-34.668,0.000
1709206169.179,-49.316,16.602,-41.016,-53.223,0.000
1709206169.183,-41.992,-1.953,-42.969,-58.594,0.000
1709206169.187,-48.828,-3.418,-42.480,-44.922,0.000
1709206169.191,-46.387,9.766,-37.598,-35.156,0.000
1709206169.194,-42.480,18.555,-37.598,-37.598,0.000
1709206169.198,-44.434,-0.977,-41.504,-38.086,0.000
1709206169.202,-50.293,-17.090,-39.062,-41.016,0.000
1709206169.206,-51.758,-6.836,-31.738,-38.086,0.000
1709206169.210,-45.898,-10.742,-35.645,-35.645,0.000
1709206169.214,-38.574,-22.461,-44.922,-47.363,0.000
1709206169.218,-47.852,-16.602,-41.992,-41.504,0.000
1709206169.222,-52.246,16.113,-42.480,-43.457,0.000
1709206169.226,-45.898,23.438,-45.410,-55.176,0.000
1709206169.230,-48.340,-2.930,-37.109,-51.270,0.000
1709206169.233,-42.480,-2.441,-35.156,-41.992,0.000
1709206169.237,-42.480,9.766,-42.480,-42.480,0.000
1709206169.241,-45.898,-2.441,-41.504,-44.922,0.000
1709206169.245,-44.922,-14.648,-36.621,-42.480,0.000
1709206169.249,-50.293,-7.324,-38.086,-41.504,0.000
1709206169.253,-55.664,-6.348,-38.086,-47.852,0.000
1709206169.257,-57.617,-19.043,-41.016,-62.012,0.000
1709206169.261,-52.246,-46.875,-44.434,-55.176,0.000
1709206169.265,-51.270,-25.879,-41.992,-44.922,0.000
1709206169.269,-46.387,22.461,-42.969,-54.688,0.000
1709206169.273,-53.223,-5.371,-45.898,-56.152,0.000
1709206169.276,-56.641,0.000,-44.434,-59.082,0.000
1709206169.280,-48.340,12.695,-40.039,-59.570,0.000
1709206169.284,-57.129,5.371,-43.945,-48.340,0.000
1709206169.288,-56.641,-9.766,-46.875,-43.945,0.000
1709206169.292,-52.246,-19.531,-42.480,-46.875,0.000
1709206169.296,-54.199,-5.371,-44.434,-54.199,0.000
1709206169.300,-56.152,-14.648,-44.922,-55.664,0.000
1709206169.304,-55.176,-37.598,-43.945,-42.969,0.000
1709206169.308,-57.617,-28.809,-45.410,-33.691,0.000
1709206169.312,-52.246,5.371,-46.875,-33.203,0.000
1709206169.316,-35.645,19.531,-43.457,-46.875,0.000
1709206169.319,-48.340,-15.137,-39.062,-54.199,0.000
1709206169.323,-62.988,-29.297,-39.062,-40.039,0.000
1709206169.327,-53.223,4.883,-43.457,-37.109,0.000
1709206169.331,-46.875,0.488,-44.922,-39.551,0.000
1709206169.335,-45.898,-20.020,-41.992,-40.527,0.000
1709206169.339,-55.176,-15.137,-45.898,-44.434,0.000
1709206169.343,-54.688,-1.465,-47.363,-46.875,0.000
1709206169.347,-47.852,-7.812,-47.363,-45.410,0.000
1709206169.351,-43.945,-40.527,-47.852,-29.297,0.000
1709206169.355,-41.504,-20.996,-44.434,-20.996,0.000
1709206169.359,-34.668,1.465,-41.992,-41.504,0.000
1709206169.362,-29.785,-15.625,-40.039,-51.758,0.000
1709206169.366,-51.758,-27.344,-37.598,-40.039,0.000
1709206169.370,-54.688,-2.441,-39.551,-36.621,0.000
1709206169.374,-44.434,24.414,-42.480,-48.340,0.000
1709206169.378,-41.504,0.977,-44.922,-62.012,0.000
1709206169.382,-49.805,-7.812,-48.828,-62.500,0.000
1709206169.386,-58.105,0.000,-44.434,-45.410,0.000
1709206169.390,-54.688,0.000,-39.062,-44.434,0.000
1709206169.394,-47.852,-6.348,-42.480,-41.504,0.000
1709206169.398,-46.875,-14.648,-44.434,-37.109,0.000
1709206169.402,-48.828,3.906,-41.016,-44.434,0.000
1709206169.405,-49.316,17.578,-43.945,-52.734,0.000
1709206169.409,-54.199,-9.277,-46.387,-49.316,0.000
1709206169.413,-37.598,-15.137,-44.434,-36.621,0.000
1709206169.417,-25.391,13.672,-43.945,-45.898,0.000
1709206169.421,-44.922,16.602,-38.086,-51.758,0.000
1709206169.425,-48.340,0.977,-34.668,-44.922,0.000
1709206169.429,-37.598,-0.977,-35.156,-41.016,0.000
1709206169.433,-35.156,4.395,-40.039,-40.039,0.000
1709206169.437,-28.809,-2.930,-42.480,-41.992,0.000
1709206169.441,-29.785,-10.254,-34.668,-36.621,0.000
1709206169.445,-35.645,-16.113,-33.203,-27.832,0.000
1709206169.448,-23.926,-1.953,-39.551,-20.996,0.000
1709206169.452,-23.926,11.230,-40.527,-20.996,0.000
1709206169.456,-37.109,-32.715,-41.016,-21.484,0.000
1709206169.460,-29.785,-36.621,-47.852,-32.715,0.000
1709206169.464,-22.949,11.719,-50.781,-39.551,0.000
1709206169.468,-43.457,-5.371,-48.828,-37.598,0.000
1709206169.472,-47.852,-25.391,-52.246,-41.016,0.000
1709206169.476,-36.133,-7.324,-44.434,-35.645,0.000
1709206169.480,-30.762,10.742,-34.668,-34.668,0.000
1709206169.484,-35.156,-5.371,-34.180,-42.480,0.000
1709206169.488,-42.480,-12.695,-34.180,-42.969,0.000
1709206169.491,-43.457,-8.301,-40.039,-36.621,0.000
1709206169.495,-35.156,-1.465,-37.109,-34.180,0.000
1709206169.499,-29.785,-8.301,-33.691,-27.344,0.000
1709206169.503,-33.203,-18.555,-35.156,-15.137,0.000
1709206169.507,-36.621,20.020,-33.691,-20.508,0.000
1709206169.511,-38.574,22.949,-40.527,-34.180,0.000
1709206169.515,-33.691,-10.254,-43.945,-43.457,0.000
1709206169.519,-23.926,-8.301,-45.898,-49.805,0.000
1709206169.523,-33.203,8.789,-49.805,-59.082,0.000
1709206169.527,-43.457,6.348,-42.480,-52.734,0.000
1709206169.531,-38.574,-12.695,-41.992,-43.945,0.000
1709206169.534,-41.504,-10.254,-42.969,-46.387,0.000
1709206169.538,-38.574,-11.719,-42.969,-43.457,0.000
1709206169.542,-32.715,-12.695,-47.852,-40.527,0.000
1709206169.546,-38.574,-37.109,-43.457,-29.297,0.000
1709206169.550,-50.293,-23.438,-41.016,-20.508,0.000
1709206169.554,-50.781,16.602,-40.039,-38.086,0.000
1709206169.558,-41.016,-1.465,-40.039,-56.641,0.000
1709206169.562,-42.969,11.230,-46.875,-57.617,0.000
1709206169.566,-39.551,20.996,-46.875,-52.734,0.000
1709206169.570,-24.902,12.695,-44.434,-48.828,0.000
1709206169.573,-37.598,-3.906,-45.898,-39.062,0.000
1709206169.577,-50.781,-7.324,-42.480,-41.504,0.000
1709206169.581,-50.293,-1.465,-45.410,-44.922,0.000
1709206169.585,-50.293,-19.531,-43.457,-42.480,0.000
1709206169.589,-51.758,-27.344,-36.133,-41.504,0.000
1709206169.593,-58.594,-25.391,-40.039,-35.156,0.000
1709206169.597,-59.082,14.648,-42.969,-34.180,0.000
1709206169.601,-50.293,17.578,-31.738,-36.621,0.000
1709206169.605,-45.898,-15.137,-32.715,-39.062,0.000
1709206169.609,-44.434,-16.113,-44.922,-43.457,0.000
1709206169.613,-36.133,4.883,-43.457,-40.039,0.000
1709206169.616,-30.762,6.348,-41.992,-42.969,0.000
1709206169.620,-25.879,-12.207,-39.062,-41.504,0.000
1709206169.624,-39.062,-4.883,-33.691,-33.203,0.000
1709206169.628,-42.969,-2.441,-35.645,-35.156,0.000
1709206169.632,-32.715,-19.531,-38.086,-42.480,0.000
1709206169.636,-28.320,-42.480,-39.551,-40.039,0.000
1709206169.640,-35.645,-21.973,-41.504,-33.203,0.000
1709206169.644,-43.945,16.602,-39.062,-41.504,0.000
1709206169.648,-41.016,-13.672,-47.363,-49.316,0.000
1709206169.652,-35.645,-14.648,-45.410,-48.828,0.000
1709206169.656,-33.691,10.254,-33.203,-39.551,0.000
1709206169.659,-34.180,12.207,-36.621,-39.551,0.000
1709206169.663,-35.645,-12.207,-43.945,-44.922,0.000
1709206169.667,-34.668,-22.949,-35.645,-38.574,0.000
1709206169.671,-42.969,3.418,-30.762,-30.273,0.000
1709206169.675,-50.781,2.930,-39.062,-40.527,0.000
1709206169.679,-47.363,-24.414,-46.875,-56.641,0.000
1709206169.683,-60.059,-34.668,-48.828,-45.410,0.000
1709206169.687,-61.035,4.883,-44.922,-34.180,0.000
1709206169.691,-52.246,17.578,-42.969,-32.715,0.000
1709206169.695,-53.223,-17.578,-37.109,-35.156,0.000
1709206169.699,-45.898,-17.090,-36.621,-44.434,0.000
1709206169.702,-39.551,-8.789,-40.527,-51.758,0.000
1709206169.706,-43.457,-12.695,-36.133,-48.828,0.000
1709206169.710,-44.434,-16.602,-35.645,-51.270,0.000
1709206169.714,-45.898,-7.812,-36.133,-49.316,0.000
1709206169.718,-41.504,15.625,-33.203,-46.875,0.000
1709206169.722,-41.992,10.254,-38.574,-44.434,0.000
1709206169.726,-56.641,-26.367,-42.969,-43.945,0.000
1709206169.730,-55.176,-12.695,-44.434,-51.758,0.000
1709206169.734,-43.457,24.414,-45.410,-56.641,0.000
1709206169.738,-40.527,3.418,-44.922,-59.082,0.000
1709206169.741,-43.945,-28.320,-45.898,-52.246,0.000
1709206169.745,-43.945,-6.348,-45.410,-46.387,0.000
1709206169.749,-44.434,19.531,-46.387,-51.270,0.000
1709206169.753,-36.133,1.953,-43.457,-49.316,0.000
1709206169.757,-31.738,-12.207,-43.457,-57.129,0.000
1709206169.761,-17.578,-4.395,-47.363,-62.988,0.000
1709206169.765,-26.855,10.254,-42.969,-53.223,0.000
1709206169.769,-44.434,-2.441,-39.062,-43.945,0.000
1709206169.773,-28.320,-16.113,-36.133,-38.574,0.000
1709206169.777,-20.996,5.371,-36.133,-42.969,0.000
1709206169.781,-23.926,18.555,-38.086,-52.246,0.000
1709206169.784,-36.621,-13.672,-36.133,-52.734,0.000
1709206169.788,-42.969,-24.902,-37.109,-47.363,0.000
1709206169.792,-46.387,15.137,-38.086,-46.387,0.000
1709206169.796,-44.434,21.484,-35.645,-43.457,0.000
1709206169.800,-44.922,-4.395,-33.691,-36.621,0.000
1709206169.804,-50.781,-7.324,-36.133,-31.250,0.000
1709206169.808,-53.223,6.348,-39.062,-41.016,0.000
1709206169.812,-41.504,-4.395,-37.598,-51.270,0.000
1709206169.816,-31.250,-20.508,-40.039,-45.898,0.000
1709206169.820,-43.457,-20.020,-39.062,-37.598,0.000
1709206169.824,-49.805,-10.254,-35.156,-29.785,0.000
1709206169.827,-51.270,4.883,-35.156,-22.461,0.000
1709206169.831,-48.828,-26.855,-37.109,-17.578,0.000
1709206169.835,-58.105,-30.762,-38.574,-36.133,0.000
1709206169.839,-58.594,20.508,-46.875,-52.734,0.000
1709206169.843,-47.852,13.672,-45.898,-50.781,0.000
1709206169.847,-47.852,3.906,-40.527,-45.410,0.000
1709206169.851,-45.898,18.555,-42.969,-44.434,0.000
1709206169.855,-51.758,11.719,-44.434,-58.105,0.000
1709206169.859,-39.062,-4.395,-41.992,-64.941,0.000
1709206169.863,-41.504,-7.812,-41.992,-58.594,0.000
1709206169.867,-59.570,-11.230,-43.945,-54.199,0.000
1709206169.870,-54.199,2.930,-40.527,-52.246,0.000
1709206169.874,-46.875,-3.906,-36.133,-59.082,0.000
1709206169.878,-42.480,-21.973,-32.715,-44.922,0.000
1709206169.882,-41.016,15.137,-35.156,-40.527,0.000
1709206169.886,-43.457,14.648,-40.527,-54.199,0.000
1709206169.890,-39.551,-9.766,-40.527,-49.805,0.000
1709206169.894,-32.715,0.977,-37.109,-47.363,0.000
1709206169.898,-34.668,17.578,-40.039,-43.945,0.000
1709206169.902,-36.621,4.395,-39.062,-43.457,0.000
1709206169.906,-44.922,-13.672,-40.527,-44.434,0.000
1709206169.910,-43.945,0.977,-42.969,-38.574,0.000
1709206169.913,-45.410,5.859,-34.668,-32.715,0.000
1709206169.917,-43.945,3.906,-33.691,-30.762,0.000
1709206169.921,-44.922,-25.879,-45.898,-27.832,0.000
1709206169.925,-48.340,-16.602,-43.945,-22.461,0.000
1709206169.929,-48.340,23.926,-39.551,-28.320,0.000
1709206169.933,-54.199,3.906,-44.922,-37.598,0.000
1709206169.937,-45.898,5.859,-42.969,-44.922,0.000
1709206169.941,-47.363,9.277,-42.480,-50.781,0.000
1709206169.945,-62.988,1.465,-46.875,-61.035,0.000
1709206169.949,-60.059,-7.812,-39.062,-59.082,0.000
1709206169.953,-57.617,-6.348,-37.109,-50.293,0.000
1709206169.956,-58.594,-2.930,-38.574,-54.688,0.000
1709206169.960,-43.457,-9.766,-31.738,-52.246,0.000
1709206169.964,-51.758,-15.137,-34.668,-48.828,0.000
1709206169.968,-69.336,-14.648,-38.086,-46.387,0.000
1709206169.972,-62.012,23.438,-42.969,-45.898,0.000
1709206169.976,-56.152,29.785,-43.457,-51.270,0.000
1709206169.980,-52.734,0.977,-38.086,-42.969,0.000
1709206169.984,-50.293,-2.930,-38.086,-36.133,0.000
1709206169.988,-57.617,0.488,-40.527,-38.086,0.000
1709206169.992,-55.176,2.930,-38.086,-40.039,0.000
1709206169.996,-50.293,-3.906,-41.016,-51.758,0.000
1709206169.999,-53.711,-1.465,-43.457,-51.758,0.000
1709206170.003,-46.875,2.930,-38.086,-38.574,0.000
1709206170.007,-49.316,-15.625,-37.109,-40.039,0.000
1709206170.011,-48.340,-35.645,-34.180,-35.156,0.000
1709206170.015,-35.645,-16.113,-34.180,-34.180,0.000
1709206170.019,-43.945,19.531,-37.598,-46.875,0.000
1709206170.023,-50.293,-13.672,-35.645,-37.109,0.000
1709206170.027,-52.734,-7.812,-39.062,-29.297,0.000
1709206170.031,-59.082,11.230,-41.992,-38.574,0.000
1709206170.035,-56.152,9.766,-43.457,-53.711,0.000
1709206170.038,-51.270,-2.441,-47.363,-64.453,0.000
1709206170.042,-47.363,-15.625,-46.875,-60.547,0.000
1709206170.046,-55.176,-14.160,-46.387,-55.176,0.000
1709206170.050,-61.035,-4.883,-44.922,-51.270,0.000
1709206170.054,-55.176,-10.254,-44.922,-47.363,0.000
1709206170.058,-56.152,-26.855,-46.387,-49.316,0.000
1709206170.062,-57.617,10.254,-41.504,-52.246,0.000
1709206170.066,-41.016,20.020,-43.457,-54.688,0.000
1709206170.070,-50.293,-4.395,-41.504,-47.852,0.000
1709206170.074,-60.547,0.000,-39.551,-40.039,0.000
1709206170.078,-42.480,13.184,-42.969,-44.922,0.000
