timestamps,TP9,AF7,AF8,TP10,Right AUX
1709298918.312,-45.410,-26.367,-41.992,-58.594,0.000
1709298918.316,-45.898,-27.344,-38.574,-50.781,0.000
1709298918.320,-44.434,-41.992,-47.363,-45.898,0.000
1709298918.324,-37.598,-33.203,-45.898,-28.320,0.000
1709298918.327,-31.250,-29.297,-38.086,-30.762,0.000
1709298918.331,-32.227,-37.109,-46.387,-50.781,0.000
1709298918.335,-31.250,-41.992,-38.574,-46.387,0.000
1709298918.339,-38.574,-31.738,-34.180,-34.668,0.000
1709298918.343,-43.457,-35.645,-44.434,-26.855,0.000
1709298918.347,-42.480,-56.641,-37.598,-30.273,0.000
1709298918.351,-38.574,-51.270,-33.203,-50.293,0.000
1709298918.355,-43.945,-39.062,-37.598,-60.547,0.000
1709298918.359,-49.316,-46.875,-33.203,-48.828,0.000
1709298918.363,-42.480,-47.852,-35.645,-39.551,0.000
1709298918.367,-33.691,-41.504,-36.621,-41.992,0.000
1709298918.370,-28.320,-33.203,-27.344,-43.945,0.000
1709298918.374,-37.598,-36.621,-45.410,-52.246,0.000
1709298918.378,-42.969,-52.246,-57.129,-52.246,0.000
1709298918.382,-47.363,-45.410,-46.387,-46.875,0.000
1709298918.386,-37.109,-30.762,-42.480,-33.691,0.000
1709298918.390,-33.691,-30.762,-42.969,-26.367,0.000
1709298918.394,-39.551,-31.738,-33.203,-37.598,0.000
1709298918.398,-32.715,-30.762,-30.762,-37.598,0.000
1709298918.402,-28.809,-22.461,-30.762,-25.879,0.000
1709298918.406,-26.367,-29.297,-27.344,-28.320,0.000
1709298918.409,-26.855,-42.480,-40.527,-41.504,0.000
1709298918.413,-43.945,-37.109,-47.852,-48.828,0.000
1709298918.417,-57.129,-39.062,-42.480,-49.316,0.000
1709298918.421,-46.875,-46.875,-33.203,-36.133,0.000
1709298918.425,-39.551,-53.711,-25.391,-23.438,0.000
1709298918.429,-41.016,-41.016,-28.809,-29.297,0.000
1709298918.433,-44.434,-28.809,-30.273,-33.691,0.000
1709298918.437,-45.410,-34.180,-35.156,-35.645,0.000
1709298918.441,-32.715,-29.785,-29.297,-29.785,0.000
1709298918.445,-20.508,-29.785,-25.879,-20.508,0.000
1709298918.449,-23.438,-31.738,-32.227,-28.809,0.000
1709298918.452,-24.414,-27.344,-26.855,-39.551,0.000
1709298918.456,-27.344,-26.855,-31.738,-39.551,0.000
1709298918.460,-22.949,-23.438,-39.551,-24.414,0.000
1709298918.464,-21.484,-25.879,-39.062,-21.973,0.000
1709298918.468,-27.832,-31.250,-40.527,-35.645,0.000
1709298918.472,-31.250,-40.527,-31.738,-47.852,0.000
1709298918.476,-37.598,-43.945,-28.809,-38.086,0.000
1709298918.480,-39.062,-39.062,-36.133,-22.461,0.000
1709298918.484,-36.133,-53.223,-38.086,-33.203,0.000
1709298918.488,-38.086,-61.035,-43.945,-38.574,0.000
1709298918.491,-51.758,-47.852,-37.109,-46.875,0.000
1709298918.495,-52.734,-41.016,-28.809,-46.387,0.000
1709298918.499,-48.828,-38.574,-29.785,-38.086,0.000
1709298918.503,-52.734,-37.109,-27.832,-29.785,0.000
1709298918.507,-48.340,-37.109,-29.785,-20.020,0.000
1709298918.511,-43.457,-40.039,-43.457,-30.762,0.000
1709298918.515,-40.527,-50.781,-40.039,-41.992,0.000
1709298918.519,-31.250,-45.898,-26.367,-35.645,0.000
1709298918.523,-27.344,-40.039,-34.668,-17.578,0.000
1709298918.527,-31.738,-48.828,-38.574,-14.648,0.000
1709298918.530,-34.180,-41.016,-32.715,-32.227,0.000
1709298918.534,-41.504,-32.715,-43.457,-41.992,0.000
1709298918.538,-45.410,-42.969,-44.434,-43.945,0.000
1709298918.542,-47.363,-41.016,-36.133,-35.645,0.000
1709298918.546,-47.852,-26.367,-37.109,-32.227,0.000
1709298918.550,-49.316,-31.250,-33.203,-37.598,0.000
1709298918.554,-51.270,-41.504,-32.227,-48.340,0.000
1709298918.558,-46.387,-48.340,-22.461,-53.223,0.000
1709298918.562,-44.922,-54.688,-36.133,-54.688,0.000
1709298918.566,-46.387,-55.176,-49.316,-50.781,0.000
1709298918.570,-44.922,-42.480,-33.203,-46.875,0.000
1709298918.573,-44.434,-35.156,-41.504,-54.688,0.000
1709298918.577,-36.133,-42.969,-45.898,-39.551,0.000
1709298918.581,-27.832,-40.527,-33.203,-21.973,0.000
1709298918.585,-29.785,-41.992,-24.414,-16.602,0.000
1709298918.589,-23.438,-38.086,-16.602,-19.531,0.000
1709298918.593,-19.043,-28.809,-17.578,-30.273,0.000
1709298918.597,-24.414,-42.969,-25.879,-40.039,0.000
1709298918.601,-20.996,-41.504,-38.086,-36.133,0.000
1709298918.605,-26.367,-29.297,-40.039,-28.320,0.000
1709298918.609,-30.762,-20.508,-36.133,-30.273,0.000
1709298918.613,-33.203,-21.484,-33.203,-39.062,0.000
1709298918.616,-40.527,-30.273,-32.715,-41.992,0.000
1709298918.620,-38.574,-35.645,-28.809,-34.668,0.000
1709298918.624,-36.133,-53.223,-34.180,-38.574,0.000
1709298918.628,-33.203,-51.758,-48.828,-35.156,0.000
1709298918.632,-29.297,-35.645,-39.551,-39.551,0.000
1709298918.636,-41.504,-47.852,-23.926,-55.176,0.000
1709298918.640,-52.246,-70.312,0.000,-50.781,0.000
1709298918.644,-40.527,-57.129,0.000,-36.621,0.000
1709298918.648,-34.668,-41.504,0.000,-43.945,0.000
1709298918.652,-32.715,-33.691,0.000,-51.270,0.000
1709298918.655,-28.320,-32.227,0.000,-45.898,0.000
1709298918.659,-31.250,-36.621,0.000,-40.527,0.000
1709298918.663,-22.949,-25.391,0.000,-26.367,0.000
1709298918.667,-14.648,-23.438,0.000,-13.184,0.000
1709298918.671,-23.438,-29.785,0.000,-19.043,0.000
1709298918.675,-31.738,-40.527,0.000,-21.973,0.000
1709298918.679,-34.668,-38.574,0.000,-24.414,0.000
1709298918.683,-27.832,-49.316,0.000,-24.902,0.000
1709298918.687,-13.672,-53.223,-41.992,-18.066,0.000
1709298918.691,-19.531,-29.785,-23.438,-28.809,0.000
1709298918.695,-38.574,-22.461,-16.602,-45.410,0.000
1709298918.698,-40.039,-21.484,-20.508,-41.016,0.000
1709298918.702,-37.598,-23.438,-32.715,-33.691,0.000
1709298918.706,-41.016,-34.668,-40.527,-32.227,0.000
1709298918.710,-43.457,-46.387,-41.016,-36.621,0.000
1709298918.714,-42.480,-40.527,-38.574,-43.457,0.000
1709298918.718,-46.875,-31.250,-35.645,-40.527,0.000
1709298918.722,-40.039,-27.344,-41.504,-29.785,0.000
1709298918.726,-36.621,-35.156,-46.387,-31.738,0.000
1709298918.730,-37.109,-47.363,-30.762,-38.574,0.000
1709298918.734,-34.180,-60.547,-20.508,-32.715,0.000
1709298918.738,-41.504,-45.410,-34.668,-30.762,0.000
1709298918.741,-42.480,-23.926,-43.457,-31.250,0.000
1709298918.745,-36.621,-22.461,-34.668,-22.461,0.000
1709298918.749,-32.715,-26.855,-28.320,-20.996,0.000
1709298918.753,-40.039,-36.621,-35.156,-27.832,0.000
1709298918.757,-38.086,-32.715,-35.645,-26.855,0.000
1709298918.761,-32.227,-31.738,-37.598,-13.184,0.000
1709298918.765,-38.574,-34.668,-35.645,-6.836,0.000
1709298918.769,-42.969,-35.645,-32.715,-26.855,0.000
1709298918.773,-40.527,-40.039,-38.086,-40.527,0.000
1709298918.777,-43.457,-43.457,-36.133,-37.598,0.000
1709298918.780,-46.875,-46.875,-33.691,-28.809,0.000
1709298918.784,-50.293,-40.527,-39.062,-28.809,0.000
1709298918.788,-44.922,-35.156,-34.180,-31.250,0.000
1709298918.792,-41.016,-39.062,-25.879,-36.621,0.000
1709298918.796,-45.898,-48.828,-27.832,-48.340,0.000
1709298918.800,-51.270,-52.734,-34.180,-53.711,0.000
1709298918.804,-41.016,-38.086,-29.785,-38.086,0.000
1709298918.808,-29.297,-31.250,-23.438,-15.137,0.000
1709298918.812,-54.199,-39.551,-33.203,-33.203,0.000
1709298918.816,-66.406,-50.781,-45.898,-50.781,0.000
1709298918.820,-61.035,-45.410,-51.758,-41.504,0.000
1709298918.823,-48.340,-33.203,-31.250,-30.762,0.000
1709298918.827,-43.945,-41.992,-23.438,-32.227,0.000
1709298918.831,-50.781,-50.293,-37.109,-44.434,0.000
1709298918.835,-50.781,-43.457,-31.250,-49.805,0.000
1709298918.839,-42.969,-39.551,-28.320,-41.504,0.000
1709298918.843,-36.133,-30.762,-35.156,-34.180,0.000
1709298918.847,-37.598,-26.855,-36.621,-49.316,0.000
1709298918.851,-43.457,-31.250,-45.898,-69.824,0.000
1709298918.855,-46.875,-34.180,-44.434,-61.035,0.000
1709298918.859,-43.457,-36.133,-37.109,-51.758,0.000
1709298918.862,-39.062,-35.156,-34.180,-50.293,0.000
1709298918.866,-44.434,-33.203,-33.203,-48.340,0.000
1709298918.870,-53.711,-32.715,-39.551,-53.711,0.000
1709298918.874,-46.387,-49.316,-38.086,-54.199,0.000
1709298918.878,-41.016,-57.617,-32.715,-45.410,0.000
1709298918.882,-42.480,-36.133,-32.227,-39.551,0.000
1709298918.886,-30.762,-23.926,-39.062,-25.391,0.000
1709298918.890,-16.602,-29.297,-35.156,-32.227,0.000
1709298918.894,-37.109,-37.109,-27.832,-52.246,0.000
1709298918.898,-53.223,-31.738,-33.203,-37.598,0.000
1709298918.902,-40.527,-21.484,-37.598,-21.484,0.000
1709298918.906,-31.738,-23.438,-45.410,-25.391,0.000
1709298918.909,-35.645,-38.086,-41.016,-42.969,0.000
1709298918.913,-41.992,-43.945,-28.320,-60.059,0.000
1709298918.917,-46.875,-46.875,-36.621,-59.082,0.000
1709298918.921,-51.270,-62.012,-41.504,-49.805,0.000
1709298918.925,-47.852,-56.641,-36.133,-37.598,0.000
1709298918.929,-51.758,-41.016,-39.062,-48.340,0.000
1709298918.933,-56.641,-28.809,-35.156,-63.965,0.000
1709298918.937,-62.988,-39.062,-38.086,-65.430,0.000
1709298918.941,-60.547,-52.734,-41.016,-60.059,0.000
1709298918.945,-41.992,-38.574,-36.133,-44.922,0.000
1709298918.948,-31.738,-34.668,-36.621,-37.598,0.000
1709298918.952,-43.457,-38.086,-36.133,-53.711,0.000
1709298918.956,-52.246,-31.250,-30.273,-59.570,0.000
1709298918.960,-47.363,-38.086,-22.461,-47.363,0.000
1709298918.964,-33.203,-38.086,-30.273,-43.457,0.000
1709298918.968,-26.855,-38.574,-36.133,-36.621,0.000
1709298918.972,-28.320,-50.781,-25.879,-30.273,0.000
1709298918.976,-36.621,-31.738,-27.832,-39.062,0.000
1709298918.980,-39.062,-21.484,-27.344,-31.250,0.000
1709298918.984,-38.574,-32.715,-20.020,-23.438,0.000
1709298918.988,-33.203,-29.785,-25.391,-29.785,0.000
1709298918.991,-26.367,-34.180,-29.297,-33.691,0.000
1709298918.995,-41.016,-36.133,-36.133,-40.527,0.000
1709298918.999,-43.945,-35.156,-40.527,-46.387,0.000
1709298919.003,-45.898,-33.691,-37.598,-42.969,0.000
1709298919.007,-41.992,-30.273,-45.410,-34.668,0.000
1709298919.011,-41.504,-33.203,-39.551,-39.062,0.000
1709298919.015,-55.664,-37.598,-33.203,-53.223,0.000
1709298919.019,-65.430,-39.062,-33.203,-52.246,0.000
1709298919.023,-65.918,-51.270,-27.344,-39.062,0.000
1709298919.027,-66.895,-63.965,-22.949,-37.109,0.000
1709298919.031,-79.102,-55.176,-20.508,-44.922,0.000
1709298919.034,-82.520,-61.035,-21.973,-57.129,0.000
1709298919.038,-79.102,-74.707,-21.484,-59.082,0.000
1709298919.042,-81.543,-65.430,-20.020,-54.199,0.000
1709298919.046,-76.172,-68.359,-22.949,-31.250,0.000
1709298919.050,-58.594,-75.195,-14.648,-18.066,0.000
1709298919.054,-70.312,-87.891,-24.902,-51.758,0.000
1709298919.058,-93.750,-84.473,-21.973,-64.453,0.000
1709298919.062,-99.121,-71.777,3.418,-52.734,0.000
1709298919.066,-103.027,-83.496,-0.977,-52.734,0.000
1709298919.070,-108.887,-78.125,-16.113,-58.594,0.000
1709298919.074,-125.488,-88.867,-19.531,-73.242,0.000
1709298919.077,-129.883,-110.840,-0.977,-74.707,0.000
1709298919.081,-116.699,-104.980,7.812,-52.246,0.000
1709298919.085,-117.188,-91.309,3.418,-39.062,0.000
1709298919.089,-121.094,-89.844,0.977,-57.129,0.000
1709298919.093,-126.953,-101.562,-1.953,-72.266,0.000
1709298919.097,-140.625,-94.238,-4.883,-80.078,0.000
1709298919.101,-142.578,-92.773,-2.930,-90.332,0.000
1709298919.105,-133.789,-108.887,1.465,-83.984,0.000
1709298919.109,-129.883,-114.746,5.859,-78.613,0.000
1709298919.113,-138.184,-111.816,1.953,-82.031,0.000
1709298919.117,-129.883,-116.211,-9.766,-86.914,0.000
1709298919.120,-124.023,-121.582,-7.812,-72.266,0.000
1709298919.124,-120.605,-114.746,5.859,-58.594,0.000
1709298919.128,-113.281,-112.305,9.277,-54.688,0.000
1709298919.132,-107.910,-117.188,9.277,-48.828,0.000
1709298919.136,-95.703,-120.605,12.695,-42.969,0.000
1709298919.140,-89.355,-106.934,10.742,-31.738,0.000
1709298919.144,-80.566,-104.980,2.930,-22.949,0.000
1709298919.148,-69.824,-115.723,1.953,-19.043,0.000
1709298919.152,-64.941,-119.141,3.418,-14.648,0.000
1709298919.156,-56.152,-111.328,8.789,-9.277,0.000
1709298919.159,-52.246,-119.629,-3.418,-6.348,0.000
1709298919.163,-50.293,-131.348,-11.719,4.883,0.000
1709298919.167,-38.574,-127.930,-1.465,22.461,0.000
1709298919.171,-27.832,-124.512,-2.930,26.855,0.000
1709298919.175,-21.484,-107.422,-6.348,28.809,0.000
1709298919.179,-8.301,-100.586,-1.953,36.621,0.000
1709298919.183,2.930,-104.492,-13.672,51.758,0.000
1709298919.187,10.254,-104.004,-17.578,54.688,0.000
1709298919.191,22.461,-101.074,-9.277,39.551,0.000
1709298919.195,23.438,-111.816,-9.277,45.410,0.000
1709298919.199,15.625,-104.980,-18.555,49.316,0.000
1709298919.202,10.254,-86.426,-26.367,55.176,0.000
1709298919.206,16.602,-88.379,-22.949,60.547,0.000
1709298919.210,26.367,-86.426,-15.625,52.734,0.000
1709298919.214,23.438,-85.449,-18.555,47.852,0.000
1709298919.218,21.484,-89.844,-19.531,43.945,0.000
1709298919.222,22.461,-89.355,-17.578,44.434,0.000
1709298919.226,29.785,-84.961,-14.160,48.828,0.000
1709298919.230,28.320,-75.684,-16.602,41.992,0.000
1709298919.234,24.414,-75.195,-29.785,17.578,0.000
1709298919.238,38.086,-86.914,-24.414,20.020,0.000
1709298919.241,28.320,-86.426,-29.785,36.621,0.000
1709298919.245,13.672,-62.012,-47.363,34.668,0.000
1709298919.249,19.043,-46.387,-40.527,22.461,0.000
1709298919.253,17.090,-56.641,-25.879,7.324,0.000
1709298919.257,6.348,-65.918,-35.156,0.977,0.000
1709298919.261,12.695,-58.594,-41.504,17.578,0.000
1709298919.265,17.578,-55.176,-37.109,24.414,0.000
1709298919.269,12.207,-46.875,-37.109,15.137,0.000
1709298919.273,1.953,-45.898,-31.250,13.672,0.000
1709298919.277,-6.348,-54.688,-29.297,11.230,0.000
1709298919.281,-3.418,-60.059,-37.109,17.090,0.000
1709298919.284,-0.488,-57.129,-34.668,18.066,0.000
1709298919.288,-0.977,-46.875,-32.715,13.672,0.000
1709298919.292,0.000,-59.082,-40.039,2.441,0.000
1709298919.296,0.000,-62.988,-37.109,-9.277,0.000
1709298919.300,-0.488,-44.434,-41.504,-6.348,0.000
1709298919.304,0.000,-59.570,-41.016,-2.930,0.000
1709298919.308,-8.789,-53.223,-31.250,-0.488,0.000
1709298919.312,-18.066,-33.691,-29.785,-7.812,0.000
1709298919.316,-27.832,-38.574,-35.156,-13.184,0.000
1709298919.320,-17.578,-33.203,-40.039,8.789,0.000
1709298919.323,-3.906,-37.598,-38.086,17.090,0.000
1709298919.327,-9.277,-45.898,-27.832,0.488,0.000
1709298919.331,-13.672,-43.457,-23.438,-12.695,0.000
1709298919.335,-17.578,-54.199,-26.855,-18.066,0.000
1709298919.339,-12.207,-46.387,-22.949,-16.113,0.000
1709298919.343,0.977,-35.156,-17.090,-13.672,0.000
1709298919.347,-10.742,-48.828,-22.461,-21.484,0.000
1709298919.351,-26.855,-42.480,-32.715,-37.109,0.000
1709298919.355,-32.715,-36.133,-42.480,-38.086,0.000
1709298919.359,-38.086,-37.109,-39.551,-35.156,0.000
1709298919.363,-27.832,-33.203,-34.180,-25.879,0.000
1709298919.366,-20.508,-40.527,-47.363,-12.695,0.000
1709298919.370,-26.855,-37.109,-41.504,-23.438,0.000
1709298919.374,-31.250,-37.109,-36.133,-39.551,0.000
1709298919.378,-34.668,-46.875,-42.969,-28.809,0.000
1709298919.382,-34.180,-49.316,-28.809,-20.020,0.000
1709298919.386,-30.273,-42.480,-24.414,-24.902,0.000
1709298919.390,-16.602,-37.598,-28.809,-21.973,0.000
1709298919.394,-15.137,-40.527,-25.391,-24.414,0.000
1709298919.398,-16.113,-51.270,-23.438,-36.621,0.000
1709298919.402,-15.137,-46.387,-33.203,-27.832,0.000
1709298919.406,-19.531,-41.504,-36.621,-13.184,0.000
1709298919.409,-22.461,-34.668,-34.668,-34.180,0.000
1709298919.413,-32.715,-26.367,-39.551,-51.270,0.000
1709298919.417,-38.574,-33.691,-31.250,-37.598,0.000
1709298919.421,-29.297,-40.527,-26.855,-22.461,0.000
1709298919.425,-16.602,-49.805,-36.621,-12.695,0.000
1709298919.429,-19.531,-45.898,-39.551,-14.648,0.000
1709298919.433,-25.879,-35.156,-31.738,-26.367,0.000
1709298919.437,-27.832,-37.598,-17.090,-35.156,0.000
1709298919.441,-22.461,-49.316,-17.578,-26.855,0.000
1709298919.445,-14.160,-53.711,-23.438,-8.789,0.000
1709298919.449,-6.836,-33.203,-28.809,-4.883,0.000
1709298919.452,-7.324,-23.438,-39.062,-30.762,0.000
1709298919.456,-37.109,-31.250,-30.762,-36.133,0.000
1709298919.460,-38.086,-26.367,-22.461,-24.414,0.000
1709298919.464,-22.461,-21.484,-35.156,-20.508,0.000
1709298919.468,-24.414,-27.344,-38.574,-15.137,0.000
1709298919.472,-22.461,-32.227,-31.250,-16.602,0.000
1709298919.476,-31.738,-41.504,-33.691,-31.738,0.000
1709298919.480,-34.180,-41.016,-31.738,-29.785,0.000
1709298919.484,-25.879,-35.645,-34.668,-23.438,0.000
1709298919.488,-23.926,-40.039,-37.109,-26.855,0.000
1709298919.491,-16.602,-53.223,-29.785,-17.578,0.000
1709298919.495,-18.555,-44.434,-34.180,-30.273,0.000
1709298919.499,-35.156,-23.438,-50.781,-42.969,0.000
1709298919.503,-39.551,-16.602,-41.016,-29.785,0.000
1709298919.507,-30.762,-20.508,-37.598,-33.203,0.000
1709298919.511,-32.715,-30.762,-43.457,-35.645,0.000
1709298919.515,-29.785,-37.109,-41.016,-31.738,0.000
1709298919.519,-33.691,-32.715,-40.527,-43.457,0.000
1709298919.523,-40.039,-33.203,-35.156,-33.203,0.000
1709298919.527,-24.414,-32.715,-30.273,-15.625,0.000
1709298919.531,-26.367,-26.855,-25.391,-20.996,0.000
1709298919.534,-50.781,-23.438,-28.320,-34.668,0.000
1709298919.538,-50.293,-28.320,-37.598,-40.039,0.000
1709298919.542,-35.156,-51.758,-28.809,-23.926,0.000
1709298919.546,-32.715,-51.758,-35.645,-20.020,0.000
1709298919.550,-40.039,-26.367,-58.105,-36.133,0.000
1709298919.554,-49.316,-40.039,-40.039,-38.574,0.000
1709298919.558,-49.805,-53.223,-32.227,-29.785,0.000
1709298919.562,-47.363,-31.250,-50.293,-25.879,0.000
1709298919.566,-43.945,-21.484,-49.805,-20.508,0.000
1709298919.570,-43.457,-33.203,-36.621,-25.879,0.000
1709298919.574,-47.852,-49.805,-27.832,-40.039,0.000
1709298919.577,-38.086,-52.246,-33.203,-32.715,0.000
1709298919.581,-36.133,-43.945,-40.527,-27.832,0.000
1709298919.585,-41.016,-40.039,-46.875,-29.785,0.000
1709298919.589,-34.180,-45.410,-41.992,-27.832,0.000
1709298919.593,-28.320,-44.922,-34.180,-29.297,0.000
1709298919.597,-29.297,-44.434,-38.086,-33.691,0.000
1709298919.601,-39.062,-42.969,-34.180,-25.391,0.000
1709298919.605,-42.969,-35.645,-40.039,-18.066,0.000
1709298919.609,-41.992,-30.273,-43.457,-30.762,0.000
1709298919.613,-46.875,-35.156,-44.434,-42.480,0.000
1709298919.616,-47.852,-33.691,-40.039,-44.434,0.000
1709298919.620,-40.039,-37.109,-29.785,-31.250,0.000
1709298919.624,-33.691,-48.340,-27.832,-24.414,0.000
1709298919.628,-31.738,-56.152,-28.809,-27.344,0.000
1709298919.632,-35.156,-50.781,-35.645,-29.785,0.000
1709298919.636,-45.410,-33.691,-33.691,-42.480,0.000
1709298919.640,-56.152,-33.691,-27.344,-52.246,0.000
1709298919.644,-51.270,-46.387,-24.414,-40.527,0.000
1709298919.648,-33.203,-38.574,-44.922,-37.109,0.000
1709298919.652,-36.621,-23.926,-52.734,-52.734,0.000
1709298919.655,-43.945,-39.062,-31.738,-59.570,0.000
1709298919.659,-41.504,-46.875,-35.645,-48.828,0.000
1709298919.663,-40.039,-45.898,-35.645,-53.223,0.000
1709298919.667,-34.180,-48.340,-41.992,-48.828,0.000
1709298919.671,-38.574,-36.133,-47.852,-46.387,0.000
1709298919.675,-42.480,-41.016,-44.922,-59.082,0.000
1709298919.679,-41.992,-39.551,-40.039,-58.105,0.000
1709298919.683,-54.199,-21.484,-32.227,-42.969,0.000
1709298919.687,-45.410,-25.879,-47.363,-35.645,0.000
1709298919.691,-34.668,-42.969,-48.828,-41.016,0.000
1709298919.695,-40.039,-50.293,-29.785,-39.551,0.000
1709298919.698,-35.156,-36.133,-34.668,-28.320,0.000
1709298919.702,-24.902,-14.648,-28.809,-20.020,0.000
1709298919.706,-34.180,-21.973,-22.461,-20.508,0.000
1709298919.710,-46.875,-35.156,-28.320,-26.855,0.000
1709298919.714,-37.598,-38.086,-30.762,-26.367,0.000
1709298919.718,-32.227,-45.410,-28.809,-14.648,0.000
1709298919.722,-31.250,-56.152,-25.391,-2.441,0.000
1709298919.726,-20.996,-62.988,-28.320,0.977,0.000
1709298919.730,-23.438,-50.293,-30.273,-4.883,0.000
1709298919.734,-26.367,-41.992,-24.902,-21.484,0.000
1709298919.737,-24.902,-48.828,-22.461,-38.574,0.000
1709298919.741,-22.461,-64.453,-18.555,-32.227,0.000
1709298919.745,-9.277,-73.242,-36.621,-20.996,0.000
1709298919.749,-11.230,-57.617,-46.875,-22.461,0.000
1709298919.753,-24.414,-41.016,-34.180,-26.855,0.000
1709298919.757,-24.902,-37.598,-36.133,-29.785,0.000
1709298919.761,-18.555,-37.109,-28.809,-29.297,0.000
1709298919.765,-15.137,-40.527,-15.137,-18.555,0.000
1709298919.769,-18.066,-44.922,-42.480,-5.859,0.000
1709298919.773,-6.348,-46.875,-48.828,-13.184,0.000
1709298919.777,-8.789,-40.527,-16.113,-31.738,0.000
1709298919.780,-37.109,-41.504,-17.090,-26.855,0.000
1709298919.784,-25.879,-44.434,-28.809,-9.766,0.000
1709298919.788,-1.953,-47.852,-29.785,-7.812,0.000
1709298919.792,-6.836,-57.129,-29.785,-13.672,0.000
1709298919.796,-20.996,-41.016,-33.203,-19.531,0.000
1709298919.800,-20.020,-33.691,-31.738,-12.695,0.000
1709298919.804,-15.137,-32.715,-21.484,-2.441,0.000
1709298919.808,-15.625,-28.809,-24.414,5.859,0.000
1709298919.812,-23.438,-29.297,-39.551,2.441,0.000
1709298919.816,-38.574,-36.621,-32.715,-26.855,0.000
1709298919.820,-44.922,-39.062,-36.133,-35.645,0.000
1709298919.823,-40.039,-40.527,-33.691,-24.414,0.000
1709298919.827,-39.551,-46.387,-23.926,-27.344,0.000
1709298919.831,-43.457,-48.828,-32.715,-32.715,0.000
1709298919.835,-52.246,-41.504,-41.992,-37.109,0.000
1709298919.839,-62.012,-36.621,-36.133,-36.621,0.000
1709298919.843,-50.781,-37.598,-25.391,-22.461,0.000
1709298919.847,-40.039,-32.227,-27.832,-17.578,0.000
1709298919.851,-52.734,-34.180,-33.203,-28.809,0.000
1709298919.855,-59.082,-49.805,-39.551,-38.086,0.000
1709298919.859,-55.176,-53.711,-40.527,-35.156,0.000
1709298919.863,-46.875,-53.223,-34.180,-26.855,0.000
1709298919.866,-47.363,-45.898,-29.297,-37.598,0.000
1709298919.870,-43.457,-31.250,-27.832,-44.922,0.000
1709298919.874,-38.574,-34.180,-33.691,-43.945,0.000
1709298919.878,-40.039,-41.504,-40.039,-44.434,0.000
1709298919.882,-54.199,-45.410,-37.598,-42.969,0.000
1709298919.886,-45.898,-53.223,-41.016,-43.945,0.000
1709298919.890,-33.203,-47.852,-43.945,-42.969,0.000
1709298919.894,-47.852,-25.391,-35.156,-53.711,0.000
1709298919.898,-52.246,-32.227,-40.527,-52.734,0.000
1709298919.902,-46.875,-41.016,-54.199,-43.945,0.000
1709298919.906,-49.316,-23.926,-39.062,-44.434,0.000
1709298919.909,-43.945,-22.461,-30.762,-47.852,0.000
1709298919.913,-45.898,-41.016,-43.945,-59.082,0.000
1709298919.917,-48.340,-46.387,-44.922,-51.758,0.000
1709298919.921,-42.480,-41.992,-43.945,-31.738,0.000
1709298919.925,-41.504,-42.480,-39.062,-26.855,0.000
1709298919.929,-37.109,-38.086,-32.715,-47.363,0.000
1709298919.933,-33.691,-38.086,-35.156,-49.805,0.000
1709298919.937,-52.734,-34.668,-27.832,-39.062,0.000
1709298919.941,-56.152,-37.109,-30.273,-45.410,0.000
1709298919.945,-44.922,-43.945,-32.227,-39.551,0.000
1709298919.949,-36.133,-53.223,-32.227,-32.715,0.000
1709298919.952,-38.086,-51.270,-41.504,-44.434,0.000
1709298919.956,-45.410,-32.715,-41.016,-49.805,0.000
1709298919.960,-41.992,-32.715,-39.062,-40.039,0.000
1709298919.964,-43.945,-44.434,-35.156,-34.180,0.000
1709298919.968,-25.391,-38.574,-35.156,-33.691,0.000
1709298919.972,-24.902,-33.203,-42.480,-28.809,0.000
1709298919.976,-54.688,-40.527,-32.227,-28.809,0.000
1709298919.980,-49.316,-41.504,-23.926,-32.715,0.000
1709298919.984,-36.621,-36.621,-23.438,-20.020,0.000
1709298919.988,-34.180,-43.457,-22.949,-17.578,0.000
1709298919.991,-35.156,-44.922,-19.043,-15.625,0.000
1709298919.995,-41.504,-41.504,-25.391,-21.973,0.000
1709298919.999,-46.387,-44.922,-35.645,-47.363,0.000
1709298920.003,-47.363,-41.504,-35.645,-30.762,0.000
1709298920.007,-49.805,-39.062,-31.738,-20.996,0.000
1709298920.011,-50.781,-51.270,-36.621,-41.992,0.000
1709298920.015,-57.129,-36.133,-35.156,-47.852,0.000
1709298920.019,-44.434,-22.949,-29.785,-37.598,0.000
1709298920.023,-40.039,-28.320,-41.016,-25.391,0.000
1709298920.027,-38.574,-24.902,-32.715,-25.879,0.000
1709298920.030,-32.715,-37.598,-27.344,-34.668,0.000
1709298920.034,-37.109,-44.922,-37.109,-41.504,0.000
1709298920.038,-30.273,-54.199,-35.156,-39.062,0.000
1709298920.042,-22.461,-50.781,-42.969,-17.090,0.000
1709298920.046,-20.996,-36.133,-49.316,-19.043,0.000
1709298920.050,-39.551,-37.109,-42.480,-44.434,0.000
1709298920.054,-52.734,-41.992,-47.363,-45.410,0.000
1709298920.058,-57.617,-49.805,-49.316,-44.434,0.000
1709298920.062,-63.965,-43.945,-40.039,-53.711,0.000
1709298920.066,-51.270,-34.668,-28.809,-42.969,0.000
1709298920.070,-51.270,-30.762,-36.133,-39.062,0.000
1709298920.073,-66.895,-35.156,-50.293,-51.758,0.000
1709298920.077,-59.082,-40.527,-42.969,-49.805,0.000
1709298920.081,-46.387,-41.016,-26.367,-43.457,0.000
1709298920.085,-47.363,-45.410,-34.668,-36.621,0.000
1709298920.089,-42.969,-42.480,-61.035,-37.109,0.000
1709298920.093,-40.527,-37.598,-51.758,-54.199,0.000
1709298920.097,-45.410,-38.574,-30.762,-58.105,0.000
1709298920.101,-45.410,-40.039,-24.414,-51.758,0.000
1709298920.105,-45.898,-38.574,-25.391,-42.969,0.000
1709298920.109,-31.250,-45.410,-34.668,-23.438,0.000
1709298920.113,-22.461,-51.758,-38.574,-28.809,0.000
1709298920.116,-43.457,-49.805,-37.109,-45.898,0.000
1709298920.120,-51.270,-27.832,-35.156,-38.086,0.000
1709298920.124,-39.551,-32.227,-29.297,-28.809,0.000
1709298920.128,-38.574,-52.246,-23.926,-32.715,0.000
1709298920.132,-47.852,-30.273,-23.926,-30.273,0.000
1709298920.136,-45.410,-18.066,-24.902,-33.203,0.000
1709298920.140,-43.457,-28.809,-24.902,-35.156,0.000
1709298920.144,-45.898,-37.598,-33.203,-30.762,0.000
1709298920.148,-37.598,-42.969,-30.762,-26.367,0.000
1709298920.152,-42.969,-42.480,-41.016,-36.133,0.000
1709298920.156,-38.574,-43.945,-38.086,-37.598,0.000
1709298920.159,-30.762,-42.480,-25.879,-21.484,0.000
1709298920.163,-43.945,-36.133,-33.691,-8.789,0.000
1709298920.167,-31.250,-33.691,-32.227,-9.766,0.000
1709298920.171,-23.438,-36.133,-32.715,-27.832,0.000
1709298920.175,-36.621,-31.250,-29.785,-36.621,0.000
1709298920.179,-36.621,-29.785,-28.320,-31.738,0.000
1709298920.183,-31.738,-31.738,-38.574,-28.320,0.000
1709298920.187,-29.297,-31.738,-37.598,-25.879,0.000
1709298920.191,-28.320,-30.273,-35.156,-32.715,0.000
1709298920.195,-36.133,-20.020,-35.645,-42.480,0.000
1709298920.198,-42.969,-25.879,-40.527,-41.992,0.000
1709298920.202,-38.086,-25.391,-40.527,-34.180,0.000
1709298920.206,-23.926,-28.320,-44.434,-23.438,0.000
1709298920.210,-21.973,-36.133,-42.969,-29.785,0.000
1709298920.214,-35.156,-34.180,-32.227,-46.875,0.000
1709298920.218,-40.527,-32.715,-34.180,-40.527,0.000
1709298920.222,-20.996,-35.156,-33.691,-28.320,0.000
1709298920.226,-21.973,-31.738,-35.156,-20.508,0.000
1709298920.230,-34.180,-44.922,-39.551,-23.926,0.000
1709298920.234,-36.133,-68.359,-44.434,-38.086,0.000
1709298920.238,-44.434,-44.434,-43.457,-44.434,0.000
1709298920.241,-46.875,-10.254,-33.203,-51.758,0.000
1709298920.245,-52.246,-15.137,-36.621,-51.758,0.000
1709298920.249,-40.039,-20.020,-31.250,-46.387,0.000
1709298920.253,-30.762,-17.090,-32.227,-51.758,0.000
1709298920.257,-32.227,-32.715,-34.180,-57.617,0.000
1709298920.261,-20.996,-41.504,-28.320,-31.250,0.000
1709298920.265,-23.438,-26.367,-33.691,-26.367,0.000
1709298920.269,-30.762,-16.113,-38.574,-45.410,0.000
1709298920.273,-24.902,-26.367,-41.016,-45.410,0.000
1709298920.277,-29.785,-32.715,-41.504,-47.363,0.000
1709298920.281,-38.086,-38.086,-31.250,-46.875,0.000
1709298920.284,-33.203,-39.062,-33.691,-41.504,0.000
1709298920.288,-24.902,-34.180,-37.109,-40.039,0.000
1709298920.292,-13.672,-36.133,-33.691,-43.457,0.000
1709298920.296,-21.484,-38.574,-46.875,-47.363,0.000
1709298920.300,-29.297,-25.879,-40.527,-46.387,0.000
1709298920.304,-22.949,-23.926,-28.809,-46.387,0.000
1709298920.308,-26.367,-41.016,-33.691,-38.574,0.000
1709298920.312,-21.973,-34.180,-37.109,-40.527,0.000
1709298920.316,-23.926,-28.320,-45.898,-52.246,0.000
1709298920.320,-42.969,-41.504,-43.945,-52.734,0.000
1709298920.323,-38.574,-28.809,-41.504,-38.574,0.000
1709298920.327,-24.414,-39.551,-59.082,-19.043,0.000
1709298920.331,-24.414,-55.664,-63.477,-41.016,0.000
1709298920.335,-37.598,-26.367,-49.805,-60.059,0.000
1709298920.339,-45.898,-20.020,-41.016,-47.852,0.000
1709298920.343,-43.945,-30.273,-42.480,-31.738,0.000
1709298920.347,-47.852,-39.062,-45.410,-39.551,0.000
1709298920.351,-46.875,-31.738,-37.109,-45.410,0.000
1709298920.355,-39.551,-27.344,-26.855,-39.551,0.000
1709298920.359,-43.457,-43.457,-36.133,-46.387,0.000
1709298920.363,-48.828,-41.504,-53.223,-41.016,0.000
1709298920.366,-44.434,-19.043,-47.363,-33.691,0.000
1709298920.370,-46.875,-24.902,-40.039,-42.969,0.000
1709298920.374,-40.039,-35.645,-32.715,-43.945,0.000
1709298920.378,-37.109,-35.645,-28.320,-38.086,0.000
1709298920.382,-43.457,-34.180,-44.434,-36.133,0.000
1709298920.386,-45.898,-31.250,-42.969,-33.203,0.000
1709298920.390,-33.203,-25.879,-24.902,-26.367,0.000
1709298920.394,-28.809,-36.133,-30.273,-29.297,0.000
1709298920.398,-39.062,-41.992,-33.203,-28.320,0.000
1709298920.402,-38.086,-31.738,-31.738,-23.926,0.000
1709298920.405,-31.250,-36.621,-35.645,-28.320,0.000
1709298920.409,-37.109,-41.504,-36.133,-29.297,0.000
1709298920.413,-44.434,-25.879,-30.762,-34.180,0.000
1709298920.417,-52.734,-17.578,-29.297,-33.691,0.000
1709298920.421,-42.480,-31.738,-45.898,-37.598,0.000
1709298920.425,-43.945,-43.457,-47.363,-48.340,0.000
1709298920.429,-50.293,-37.109,-33.691,-46.875,0.000
1709298920.433,-40.039,-30.762,-40.039,-35.156,0.000
1709298920.437,-41.992,-39.551,-54.688,-38.574,0.000
1709298920.441,-54.688,-48.828,-41.992,-43.457,0.000
1709298920.445,-60.547,-40.039,-33.203,-35.156,0.000
1709298920.448,-53.711,-42.480,-32.227,-43.457,0.000
1709298920.452,-52.734,-48.828,-29.785,-54.199,0.000
1709298920.456,-57.129,-38.574,-31.738,-52.246,0.000
1709298920.460,-57.129,-42.480,-41.504,-44.922,0.000
1709298920.464,-46.875,-37.598,-47.852,-34.180,0.000
1709298920.468,-44.922,-25.879,-43.945,-31.738,0.000
1709298920.472,-46.875,-29.785,-41.016,-30.762,0.000
1709298920.476,-47.363,-34.668,-47.852,-36.621,0.000
1709298920.480,-39.551,-34.668,-38.574,-38.574,0.000
1709298920.484,-29.785,-38.086,-25.391,-21.973,0.000
1709298920.488,-42.969,-57.129,-32.227,-19.043,0.000
1709298920.491,-47.852,-48.828,-26.367,-36.133,0.000
1709298920.495,-49.316,-33.691,-20.020,-53.223,0.000
1709298920.499,-58.105,-34.668,-35.645,-55.176,0.000
1709298920.503,-52.734,-31.738,-32.715,-42.969,0.000
1709298920.507,-38.574,-30.762,-33.691,-36.133,0.000
1709298920.511,-37.109,-33.203,-40.527,-42.480,0.000
1709298920.515,-37.109,-48.340,-35.156,-39.551,0.000
1709298920.519,-27.832,-45.898,-34.668,-23.438,0.000
1709298920.523,-25.391,-32.715,-55.176,-24.902,0.000
1709298920.527,-22.949,-48.828,-52.734,-28.320,0.000
1709298920.530,-18.555,-69.336,-37.598,-30.762,0.000
1709298920.534,-26.367,-50.293,-42.480,-40.039,0.000
1709298920.538,-31.738,-34.668,-40.039,-37.109,0.000
1709298920.542,-36.133,-40.527,-39.062,-35.645,0.000
1709298920.546,-33.203,-34.668,-32.227,-26.367,0.000
1709298920.550,-23.926,-34.180,-31.250,-19.531,0.000
1709298920.554,-31.250,-37.109,-55.176,-34.180,0.000
1709298920.558,-39.551,-37.598,-47.363,-35.156,0.000
1709298920.562,-40.039,-40.527,-31.250,-25.391,0.000
1709298920.566,-35.156,-41.992,-39.551,-22.461,0.000
1709298920.570,-39.062,-41.992,-48.828,-22.949,0.000
1709298920.573,-49.805,-48.828,-46.387,-38.086,0.000
1709298920.577,-57.129,-53.223,-31.250,-37.598,0.000
1709298920.581,-57.129,-46.387,-26.367,-28.809,0.000
1709298920.585,-52.246,-49.805,-31.250,-18.555,0.000
1709298920.589,-46.387,-61.523,-32.227,-7.812,0.000
1709298920.593,-48.828,-47.852,-35.156,-14.648,0.000
1709298920.597,-52.246,-30.273,-30.273,-27.832,0.000
1709298920.601,-50.781,-28.320,-22.461,-40.527,0.000
1709298920.605,-49.316,-38.574,-26.855,-43.945,0.000
1709298920.609,-44.434,-40.527,-24.414,-36.621,0.000
1709298920.613,-39.551,-28.320,-40.039,-41.504,0.000
1709298920.616,-30.762,-27.832,-50.293,-50.293,0.000
1709298920.620,-32.227,-38.086,-38.574,-47.363,0.000
1709298920.624,-49.316,-35.156,-33.691,-47.852,0.000
1709298920.628,-50.293,-29.297,-25.879,-55.664,0.000
1709298920.632,-53.223,-45.410,-28.320,-62.012,0.000
1709298920.636,-53.711,-42.969,-35.156,-57.129,0.000
1709298920.640,-48.828,-32.227,-41.504,-37.598,0.000
1709298920.644,-38.086,-37.109,-47.852,-33.691,0.000
1709298920.648,-30.762,-47.852,-34.180,-41.504,0.000
1709298920.652,-36.133,-31.738,-29.297,-41.016,0.000
1709298920.655,-35.156,-14.160,-36.621,-42.480,0.000
1709298920.659,-31.250,-29.785,-37.109,-35.645,0.000
1709298920.663,-31.250,-48.340,-20.996,-24.414,0.000
1709298920.667,-31.250,-34.180,-13.672,-29.785,0.000
1709298920.671,-34.668,-21.484,-22.461,-37.598,0.000
1709298920.675,-37.109,-30.273,-34.180,-39.062,0.000
1709298920.679,-41.992,-29.297,-44.434,-43.457,0.000
1709298920.683,-40.039,-42.480,-40.039,-27.344,0.000
1709298920.687,-34.668,-40.527,-38.574,-20.020,0.000
1709298920.691,-21.973,-20.020,-36.621,-31.738,0.000
1709298920.695,-28.320,-24.902,-29.297,-42.480,0.000
1709298920.698,-51.758,-34.668,-36.621,-48.340,0.000
1709298920.702,-45.410,-53.223,-56.152,-40.039,0.000
1709298920.706,-43.457,-59.082,-44.922,-29.297,0.000
1709298920.710,-52.246,-39.062,-30.762,-32.715,0.000
1709298920.714,-52.734,-38.086,-27.344,-44.922,0.000
1709298920.718,-54.688,-36.133,-21.484,-47.852,0.000
1709298920.722,-57.129,-32.715,-35.645,-38.574,0.000
1709298920.726,-41.992,-31.250,-28.809,-18.066,0.000
1709298920.730,-37.598,-38.574,-28.809,-20.020,0.000
1709298920.734,-44.434,-55.176,-41.504,-37.598,0.000
1709298920.737,-46.875,-55.176,-44.434,-41.992,0.000
1709298920.741,-41.504,-48.340,-42.480,-40.039,0.000
1709298920.745,-34.668,-34.180,-36.621,-34.180,0.000
1709298920.749,0.000,-29.785,-40.039,-25.879,0.000
1709298920.753,0.000,-39.062,-36.621,-24.902,0.000
1709298920.757,0.000,-49.805,-37.109,-36.621,0.000
1709298920.761,0.000,-43.457,-45.898,-34.668,0.000
1709298920.765,0.000,-38.574,-34.180,-27.344,0.000
1709298920.769,0.000,-45.898,-27.344,-36.133,0.000
1709298920.773,0.000,-39.551,-31.250,-40.527,0.000
1709298920.777,0.000,-39.062,-47.852,-40.039,0.000
1709298920.780,0.000,-51.758,-58.594,-37.109,0.000
1709298920.784,0.000,-47.363,-32.227,-28.320,0.000
1709298920.788,0.000,-33.691,-16.113,-34.668,0.000
1709298920.792,0.000,-26.367,-29.785,-47.363,0.000
1709298920.796,-61.035,-34.180,-28.809,-53.223,0.000
1709298920.800,-63.965,-43.457,-28.809,-43.945,0.000
1709298920.804,-55.176,-39.062,-41.504,-29.297,0.000
1709298920.808,-47.852,-30.762,-31.250,-31.738,0.000
1709298920.812,-40.527,-33.203,-20.996,-47.363,0.000
1709298920.816,-44.922,-39.551,-22.461,-53.223,0.000
1709298920.819,-47.363,-35.645,-33.203,-43.457,0.000
1709298920.823,-40.527,-29.785,-38.574,-29.297,0.000
1709298920.827,-36.133,-40.039,-39.062,-28.320,0.000
1709298920.831,-33.691,-60.547,-36.133,-35.645,0.000
1709298920.835,-38.086,-55.664,-28.320,-41.016,0.000
1709298920.839,-39.551,-45.898,-30.762,-46.875,0.000
1709298920.843,-29.297,-44.434,-21.973,-29.785,0.000
1709298920.847,-24.902,-36.621,-24.902,-21.973,0.000
1709298920.851,-24.902,-28.809,-35.645,-39.062,0.000
1709298920.855,-25.879,-37.109,-30.273,-52.734,0.000
1709298920.859,-18.555,-38.574,-30.273,-48.340,0.000
1709298920.862,-26.367,-45.898,-31.738,-36.133,0.000
1709298920.866,-26.855,-46.875,-34.180,-26.367,0.000
1709298920.870,-20.508,-45.898,-38.086,-27.832,0.000
1709298920.874,-36.133,-55.176,-32.227,-39.551,0.000
1709298920.878,-48.828,-42.480,-27.832,-46.875,0.000
1709298920.882,-45.410,-37.109,-32.227,-33.691,0.000
1709298920.886,-36.621,-31.738,-37.598,-28.809,0.000
1709298920.890,-36.621,-22.461,-28.809,-27.832,0.000
1709298920.894,-31.738,-24.902,-24.902,-28.320,0.000
1709298920.898,-31.250,-36.133,-36.133,-29.297,0.000
1709298920.902,-37.109,-35.156,-33.203,-20.996,0.000
1709298920.905,-27.344,-33.691,-31.738,-15.625,0.000
1709298920.909,-27.344,-27.344,-37.109,-23.438,0.000
1709298920.913,-39.062,-36.133,-32.227,-37.109,0.000
1709298920.917,-36.621,-44.434,-34.668,-44.922,0.000
1709298920.921,-30.762,-30.273,-37.598,-35.645,0.000
1709298920.925,-39.062,-25.879,-31.738,-22.949,0.000
1709298920.929,-30.273,-26.367,-32.227,-37.109,0.000
1709298920.933,-19.531,-35.645,-36.621,-45.410,0.000
1709298920.937,-49.316,-30.762,-43.945,-41.504,0.000
1709298920.941,-50.293,-26.367,-34.180,-43.945,0.000
1709298920.945,-36.133,-39.551,-28.320,-42.480,0.000
1709298920.948,-36.133,-46.875,-38.086,-41.504,0.000
1709298920.952,-28.320,-43.457,-37.598,-50.293,0.000
1709298920.956,-28.320,-41.016,-30.762,-48.828,0.000
1709298920.960,-35.156,-34.180,-45.410,-40.527,0.000
1709298920.964,-30.273,-29.785,-40.527,-35.156,0.000
1709298920.968,-27.832,-38.086,-26.367,-28.809,0.000
1709298920.972,-34.668,-35.645,-30.273,-32.715,0.000
1709298920.976,-27.344,-27.344,-41.992,-38.574,0.000
1709298920.980,-20.020,-27.832,-45.410,-32.715,0.000
1709298920.984,-32.715,-34.668,-40.527,-34.180,0.000
1709298920.987,-43.457,-41.992,-44.434,-39.062,0.000
1709298920.991,-26.367,-44.434,-39.551,-43.457,0.000
1709298920.995,-29.297,-55.664,-32.227,-47.852,0.000
1709298920.999,-46.387,-47.852,-30.762,-45.410,0.000
1709298921.003,-43.945,-38.086,-41.504,-38.086,0.000
1709298921.007,-36.621,-44.922,-46.387,-30.273,0.000
1709298921.011,-36.133,-39.551,-40.527,-35.645,0.000
1709298921.015,-40.039,-47.363,-47.363,-38.574,0.000
1709298921.019,-33.203,-51.270,-54.688,-32.715,0.000
1709298921.023,-41.016,-40.527,-57.617,-32.227,0.000
1709298921.027,-39.551,-47.852,-43.457,-35.645,0.000
1709298921.030,-28.809,-50.781,-32.227,-36.621,0.000
1709298921.034,-31.250,-40.527,-34.180,-38.086,0.000
1709298921.038,-33.203,-38.574,-40.527,-33.203,0.000
1709298921.042,-29.297,-31.250,-42.969,-34.180,0.000
1709298921.046,-22.461,-24.902,-29.297,-31.250,0.000
1709298921.050,-24.414,-33.691,-32.715,-35.156,0.000
1709298921.054,-32.715,-43.945,-40.039,-45.410,0.000
1709298921.058,-44.434,-47.363,-42.969,-34.180,0.000
1709298921.062,-42.969,-56.641,-43.457,-33.691,0.000
1709298921.066,-33.691,-66.406,-39.062,-42.969,0.000
1709298921.069,-38.574,-55.664,-32.227,-46.875,0.000
1709298921.073,-42.480,-37.598,-33.691,-58.594,0.000
1709298921.077,-47.852,-35.645,-46.387,-61.523,0.000
1709298921.081,-48.340,-38.574,-44.434,-51.758,0.000
1709298921.085,-43.457,-39.551,-51.758,-38.574,0.000
1709298921.089,-35.645,-31.250,-62.988,-33.203,0.000
1709298921.093,-36.133,-30.273,-52.734,-46.387,0.000
1709298921.097,-38.574,-41.504,-37.598,-45.898,0.000
1709298921.101,-28.809,-41.504,-33.691,-22.461,0.000
1709298921.105,-27.344,-48.828,-37.109,-18.066,0.000
1709298921.109,-27.832,-53.223,-37.598,-39.062,0.000
1709298921.112,-40.039,-38.574,-45.898,-54.688,0.000
1709298921.116,-47.363,-33.691,-41.504,-63.477,0.000
1709298921.120,-49.316,-32.715,-35.156,-54.199,0.000
1709298921.124,-48.828,-31.738,-45.410,-43.457,0.000
1709298921.128,-51.270,-37.598,-50.781,-46.875,0.000
1709298921.132,-51.270,-44.922,-46.875,-41.016,0.000
1709298921.136,-50.293,-44.434,-47.363,-44.922,0.000
1709298921.140,-49.316,-42.969,-43.945,-46.387,0.000
1709298921.144,-51.758,-42.969,-32.227,-41.504,0.000
1709298921.148,-59.082,-46.875,-36.621,-41.016,0.000
1709298921.151,-61.035,-55.176,-41.992,-37.598,0.000
1709298921.155,-62.500,-61.523,-50.293,-51.270,0.000
1709298921.159,-60.547,-56.152,-47.852,-60.547,0.000
1709298921.163,-47.852,-51.758,-44.922,-51.758,0.000
1709298921.167,-47.363,-51.758,-35.156,-37.109,0.000
1709298921.171,-64.453,-53.223,-28.809,-36.133,0.000
1709298921.175,-64.941,-53.711,-30.762,-42.969,0.000
1709298921.179,-57.617,-54.199,-39.062,-35.645,0.000
1709298921.183,-53.711,-42.480,-40.527,-31.250,0.000
1709298921.187,-50.293,-32.227,-36.621,-36.133,0.000
1709298921.191,-51.270,-34.180,-39.062,-42.480,0.000
1709298921.194,-52.246,-40.527,-40.527,-38.086,0.000
1709298921.198,-46.875,-44.922,-42.969,-32.715,0.000
1709298921.202,-35.156,-48.340,-37.109,-28.809,0.000
1709298921.206,-27.344,-59.570,-37.109,-27.832,0.000
1709298921.210,-29.297,-44.922,-32.227,-28.320,0.000
1709298921.214,-39.551,-30.762,-37.598,-26.367,0.000
1709298921.218,-41.504,-46.387,-39.062,-36.621,0.000
1709298921.222,-30.762,-44.434,-24.902,-35.645,0.000
1709298921.226,-25.879,-32.715,-29.785,-31.738,0.000
1709298921.230,-29.297,-42.969,-43.457,-37.598,0.000
1709298921.234,-33.691,-48.340,-43.945,-50.781,0.000
1709298921.237,-41.016,-43.945,-43.457,-55.664,0.000
1709298921.241,-33.691,-30.273,-55.664,-45.898,0.000
1709298921.245,-33.691,-35.156,-51.270,-37.598,0.000
1709298921.249,-40.039,-48.340,-36.133,-37.598,0.000
1709298921.253,-29.297,-42.480,-41.016,-43.945,0.000
1709298921.257,-43.457,-40.527,-42.480,-59.570,0.000
1709298921.261,-55.176,-44.922,-31.738,-52.246,0.000
1709298921.265,0.000,-54.199,0.000,0.000,0.000
1709298921.269,0.000,-42.969,0.000,0.000,0.000
1709298921.273,0.000,-26.367,0.000,0.000,0.000
1709298921.277,0.000,-33.203,0.000,0.000,0.000
1709298921.280,0.000,-55.176,0.000,0.000,0.000
1709298921.284,0.000,-46.387,0.000,0.000,0.000
1709298921.288,0.000,-29.297,0.000,0.000,0.000
1709298921.292,0.000,-39.551,0.000,0.000,0.000
1709298921.296,0.000,-44.434,0.000,0.000,0.000
1709298921.300,0.000,-38.086,0.000,0.000,0.000
1709298921.304,0.000,-28.320,0.000,0.000,0.000
1709298921.308,0.000,-41.992,0.000,0.000,0.000
1709298921.312,-34.180,-63.477,-49.316,-26.367,0.000
1709298921.316,-43.945,-48.828,-46.387,-32.227,0.000
1709298921.320,-51.270,-33.691,-33.203,-41.992,0.000
1709298921.323,-41.504,-35.645,-29.785,-36.621,0.000
1709298921.327,-45.410,-39.551,-29.785,-29.785,0.000
1709298921.331,-54.688,-41.992,-41.016,-34.180,0.000
1709298921.335,-50.293,-42.480,-44.434,-36.133,0.000
1709298921.339,-43.945,-41.504,-29.785,-33.691,0.000
1709298921.343,-39.062,-43.457,-23.926,-17.578,0.000
1709298921.347,-37.598,-51.270,-24.902,-13.672,0.000
1709298921.351,-33.203,-53.711,-27.832,-28.809,0.000
1709298921.355,-20.020,-34.180,-26.367,-25.879,0.000
1709298921.359,-20.508,-31.250,-31.738,-21.484,0.000
1709298921.363,-27.832,-33.691,-44.434,-23.438,0.000
1709298921.366,-32.715,-26.367,-45.410,-35.156,0.000
1709298921.370,-37.109,-23.926,-40.039,-51.270,0.000
1709298921.374,-39.062,-23.438,-39.551,-53.711,0.000
1709298921.378,-50.781,-32.227,-41.992,-52.246,0.000
1709298921.382,-52.246,-38.574,-34.668,-50.293,0.000
1709298921.386,-44.922,-38.574,-35.156,-36.621,0.000
1709298921.390,-38.574,-37.109,-43.457,-26.855,0.000
1709298921.394,-46.875,-44.434,-46.875,-45.410,0.000
1709298921.398,-47.363,-48.828,-34.668,-48.828,0.000
1709298921.402,-35.156,-43.945,-18.555,-34.180,0.000
1709298921.406,-35.156,-34.668,-25.391,-33.691,0.000
1709298921.409,-32.715,-33.203,-38.086,-34.180,0.000
1709298921.413,-27.344,-36.621,-41.992,-29.785,0.000
1709298921.417,-41.016,-29.785,-30.762,-26.855,0.000
1709298921.421,-45.898,-35.645,-24.414,-35.156,0.000
1709298921.425,-41.016,-48.828,-33.203,-37.109,0.000
1709298921.429,-40.039,-52.246,-37.598,-35.156,0.000
1709298921.433,-45.898,-52.246,-40.527,-39.551,0.000
1709298921.437,-45.410,-44.922,-34.668,-39.551,0.000
1709298921.441,-43.945,-35.645,-39.551,-44.922,0.000
1709298921.445,-42.969,-36.133,-45.410,-38.086,0.000
1709298921.448,-34.668,-36.621,-36.621,-26.855,0.000
1709298921.452,0.000,-47.363,-34.668,-38.086,0.000
1709298921.456,0.000,-46.387,-32.715,-48.340,0.000
1709298921.460,0.000,-41.016,-37.109,-49.316,0.000
1709298921.464,0.000,-47.852,-49.316,-44.922,0.000
1709298921.468,0.000,-57.129,-34.668,-38.086,0.000
1709298921.472,0.000,-63.965,-25.391,-43.945,0.000
1709298921.476,0.000,-56.152,-38.086,-59.082,0.000
1709298921.480,0.000,-50.293,-41.992,-66.406,0.000
1709298921.484,0.000,-44.922,-37.598,-55.664,0.000
1709298921.488,0.000,-35.156,-35.645,-42.969,0.000
1709298921.491,0.000,-34.180,-35.156,-46.875,0.000
1709298921.495,0.000,-52.246,-46.387,-50.293,0.000
1709298921.499,-48.340,-56.152,-46.387,-44.434,0.000
1709298921.503,-40.527,-48.340,-27.344,-36.621,0.000
1709298921.507,-41.016,-57.617,-34.180,-34.180,0.000
1709298921.511,-39.551,-60.059,-42.480,-37.109,0.000
1709298921.515,-41.016,-51.758,-32.715,-41.504,0.000
1709298921.519,-42.480,-55.664,-37.109,-43.457,0.000
1709298921.523,-36.133,-52.246,-38.574,-29.785,0.000
1709298921.527,-34.668,-37.109,-38.086,-27.832,0.000
1709298921.530,-33.691,-37.109,-42.969,-46.387,0.000
1709298921.534,-34.668,-47.852,-34.180,-52.734,0.000
1709298921.538,-39.062,-46.387,-25.879,-46.387,0.000
1709298921.542,-39.551,-55.176,-32.715,-41.992,0.000
1709298921.546,-31.250,-60.547,-38.086,-38.574,0.000
1709298921.550,-26.855,-37.598,-43.457,-37.109,0.000
1709298921.554,-36.621,-23.926,-46.875,-41.504,0.000
1709298921.558,-41.016,-26.855,-46.875,-41.504,0.000
1709298921.562,-37.598,-34.668,-42.480,-34.180,0.000
1709298921.566,-35.156,-55.664,-49.805,-31.738,0.000
1709298921.570,-42.969,-45.410,-62.500,-32.227,0.000
1709298921.573,-44.434,-26.855,-54.688,-43.457,0.000
1709298921.577,-55.176,-46.387,-49.805,-62.012,0.000
1709298921.581,-64.941,-54.688,-43.945,-58.594,0.000
1709298921.585,-57.617,-44.922,-37.598,-46.387,0.000
1709298921.589,-51.270,-42.969,-52.246,-47.363,0.000
1709298921.593,-48.340,-37.109,-58.594,-45.898,0.000
1709298921.597,-48.828,-33.203,-35.156,-54.199,0.000
1709298921.601,-55.664,-49.316,-35.156,-60.547,0.000
1709298921.605,-59.570,-52.734,-51.758,-58.105,0.000
1709298921.609,-51.758,-40.527,-42.969,-54.199,0.000
1709298921.613,-55.176,-40.527,-40.527,-57.129,0.000
1709298921.616,-56.152,-44.922,-54.688,-57.617,0.000
1709298921.620,-50.781,-51.758,-60.059,-52.734,0.000
1709298921.624,-48.828,-52.246,-53.223,-43.945,0.000
1709298921.628,-49.805,-47.363,-43.945,-37.109,0.000
1709298921.632,-55.664,-52.246,-41.992,-46.875,0.000
1709298921.636,-55.664,-52.734,-47.852,-44.434,0.000
1709298921.640,-45.898,-61.035,-41.992,0.000,0.000
1709298921.644,-28.809,-56.152,-37.109,0.000,0.000
1709298921.648,-32.715,-34.668,-41.016,0.000,0.000
1709298921.652,-50.781,-36.621,-46.875,0.000,0.000
1709298921.656,-47.852,-45.898,-53.223,0.000,0.000
1709298921.659,-37.598,-49.805,-43.945,0.000,0.000
1709298921.663,-33.203,-39.551,-28.320,0.000,0.000
1709298921.667,-36.133,-25.391,-30.273,0.000,0.000
1709298921.671,-41.016,-38.086,-33.203,0.000,0.000
1709298921.675,-41.992,-49.316,-32.227,0.000,0.000
1709298921.679,-39.551,-41.016,-41.016,0.000,0.000
1709298921.683,-41.016,-44.922,-41.992,0.000,0.000
1709298921.687,-40.527,-52.734,-50.293,-30.273,0.000
1709298921.691,-33.203,-45.898,-50.293,-36.621,0.000
1709298921.695,-34.668,-42.969,-35.645,-44.434,0.000
1709298921.698,-44.434,-44.922,-30.762,-45.410,0.000
1709298921.702,-41.504,-49.805,-34.668,-39.062,0.000
1709298921.706,-32.227,-49.316,-40.527,-29.785,0.000
1709298921.710,-38.574,-46.387,-41.016,-42.969,0.000
1709298921.714,-49.316,-52.734,-41.504,-57.617,0.000
1709298921.718,-50.781,-49.316,-46.387,-46.387,0.000
1709298921.722,-41.992,-44.922,-39.062,-40.039,0.000
1709298921.726,-51.270,-42.969,-37.598,-39.551,0.000
1709298921.730,-51.758,-38.574,-34.180,-36.133,0.000
1709298921.734,-46.387,-40.039,-29.785,-46.387,0.000
1709298921.738,-55.176,-29.297,-44.922,-40.039,0.000
1709298921.741,-43.945,-35.156,-43.945,-20.996,0.000
1709298921.745,-38.574,-38.574,-32.715,-20.020,0.000
1709298921.749,-41.504,-32.227,-26.367,-31.738,0.000
1709298921.753,-33.203,-39.551,-24.414,-42.480,0.000
1709298921.757,-38.574,-32.715,-36.621,-46.387,0.000
1709298921.761,-36.133,-29.785,-38.574,-28.320,0.000
1709298921.765,-27.344,-36.133,-27.344,-6.836,0.000
1709298921.769,-18.066,-32.715,-46.875,-23.438,0.000
1709298921.773,-18.555,-22.461,-57.129,-41.992,0.000
1709298921.777,-42.480,-32.227,-41.504,-43.457,0.000
1709298921.781,-36.621,-33.691,-29.297,-37.598,0.000
1709298921.784,-24.414,-25.391,-19.531,-25.391,0.000
1709298921.788,-34.180,-33.691,-35.645,-29.785,0.000
1709298921.792,-39.551,-37.598,-55.664,-46.875,0.000
1709298921.796,-34.668,-37.109,-41.992,-41.016,0.000
1709298921.800,-35.645,-42.969,-34.180,-33.203,0.000
1709298921.804,-39.062,-39.551,-34.668,-36.133,0.000
1709298921.808,-38.086,-33.203,-51.758,-37.109,0.000
1709298921.812,-41.016,-36.621,-56.152,-39.551,0.000
1709298921.816,-42.969,-43.457,-23.926,-52.246,0.000
1709298921.820,-41.016,-54.199,-17.090,-58.594,0.000
1709298921.823,-40.039,-64.941,-24.902,-36.133,0.000
1709298921.827,-37.598,-53.223,-27.344,-37.109,0.000
1709298921.831,-44.434,-30.273,-24.902,-57.617,0.000
1709298921.835,-50.293,-27.832,-27.832,-57.617,0.000
1709298921.839,-49.316,-31.738,-25.391,-55.176,0.000
1709298921.843,-45.410,-34.180,-24.414,-48.340,0.000
1709298921.847,-39.551,-41.016,-33.691,-32.715,0.000
1709298921.851,-41.016,-42.969,-31.738,-31.738,0.000
1709298921.855,-35.645,-39.062,-33.691,-44.434,0.000
1709298921.859,-38.574,-41.504,-48.340,-49.316,0.000
1709298921.863,-42.480,-53.711,-53.711,-43.945,0.000
1709298921.866,-34.668,-44.434,-46.875,-40.527,0.000
1709298921.870,-30.762,-33.691,-41.504,-46.875,0.000
1709298921.874,-35.156,-35.156,-40.039,-50.293,0.000
1709298921.878,-40.527,-30.762,-54.199,-51.270,0.000
1709298921.882,-35.156,-42.969,-57.617,-46.387,0.000
1709298921.886,-30.273,-53.223,-50.781,-30.273,0.000
1709298921.890,-28.809,-47.363,-47.852,-33.691,0.000
1709298921.894,-24.414,-42.480,-36.133,-48.828,0.000
1709298921.898,-26.855,-39.551,-31.250,-35.645,0.000
1709298921.902,-34.180,-44.434,-48.340,-31.250,0.000
1709298921.905,-32.715,-39.551,-49.316,-44.434,0.000
1709298921.909,-25.391,-33.203,-41.016,-34.668,0.000
1709298921.913,-32.715,-33.691,-42.480,-29.785,0.000
1709298921.917,-37.109,-33.691,-38.086,-46.875,0.000
1709298921.921,-32.715,-39.551,-35.645,-41.504,0.000
1709298921.925,-28.320,-41.504,-28.320,-18.555,0.000
1709298921.929,-35.645,-42.480,-25.879,-21.973,0.000
1709298921.933,-39.551,-40.527,-30.762,-29.785,0.000
1709298921.937,-40.527,-37.109,-28.809,-38.086,0.000
1709298921.941,-44.434,-46.875,-25.879,-41.016,0.000
1709298921.945,-46.387,-53.223,-33.691,-25.391,0.000
1709298921.948,-39.551,-42.969,-32.227,-19.043,0.000
1709298921.952,-40.527,-31.250,-27.344,-33.203,0.000
1709298921.956,-57.129,-31.738,-33.203,-40.527,0.000
1709298921.960,-50.781,-41.992,-34.180,-32.715,0.000
1709298921.964,-39.551,-49.805,-30.273,-37.598,0.000
1709298921.968,-34.668,-45.410,-30.273,-32.715,0.000
1709298921.972,-24.902,-46.875,-31.250,-31.250,0.000
1709298921.976,-25.391,-39.551,-23.926,-41.504,0.000
1709298921.980,-41.016,-36.133,-31.738,-52.246,0.000
1709298921.984,-44.922,-42.480,-36.133,-43.457,0.000
1709298921.988,-36.133,-36.133,-31.738,-27.832,0.000
1709298921.991,-34.668,-21.973,-34.180,-41.504,0.000
1709298921.995,-35.645,-27.344,-44.434,-49.805,0.000
1709298921.999,-39.551,-44.922,-47.852,-42.480,0.000
1709298922.003,-43.457,-48.340,-36.621,-35.645,0.000
1709298922.007,-45.410,-38.574,-31.738,-32.715,0.000
1709298922.011,-34.180,-30.273,-33.203,-41.504,0.000
1709298922.015,-40.527,-32.715,-30.273,-49.805,0.000
1709298922.019,-55.176,-36.133,-29.297,-47.363,0.000
1709298922.023,-52.734,-41.504,-33.203,-42.969,0.000
1709298922.027,-48.828,-45.410,-32.715,-31.738,0.000
1709298922.031,-44.434,-40.039,-34.180,-35.156,0.000
1709298922.034,-39.551,-42.480,-32.227,-38.086,0.000
1709298922.038,-34.180,-36.621,-30.762,-29.785,0.000
1709298922.042,-28.809,-28.809,-34.180,-26.855,0.000
1709298922.046,-25.391,-30.762,-37.598,-12.207,0.000
1709298922.050,-37.109,-35.156,-43.457,-3.418,0.000
1709298922.054,-29.785,-40.039,-43.457,-24.902,0.000
1709298922.058,-28.809,-38.574,-33.203,-35.156,0.000
1709298922.062,-33.691,-34.180,-27.344,-33.203,0.000
1709298922.066,-26.367,-41.992,-27.832,-27.832,0.000
1709298922.070,-20.020,-50.293,-44.434,-2.930,0.000
1709298922.073,-20.508,-34.668,-51.758,-8.789,0.000
1709298922.077,-26.855,-25.879,-31.250,-31.738,0.000
1709298922.081,-30.762,-32.715,-29.785,-29.297,0.000
1709298922.085,-25.879,-33.203,-37.598,-31.250,0.000
1709298922.089,-27.344,-38.574,-36.133,-35.156,0.000
1709298922.093,-38.574,-45.410,-31.250,-30.762,0.000
1709298922.097,-41.016,-40.527,-34.180,-41.504,0.000
1709298922.101,-39.062,-40.039,-30.762,-44.434,0.000
1709298922.105,-31.738,-34.668,-21.484,-17.090,0.000
1709298922.109,-22.461,-26.367,-28.809,-12.207,0.000
1709298922.113,-28.320,-41.992,-38.086,-32.715,0.000
1709298922.116,-33.691,-43.457,-36.621,-41.504,0.000
1709298922.120,-34.180,-37.109,-31.250,-29.785,0.000
1709298922.124,-38.086,-41.992,-35.645,-21.484,0.000
1709298922.128,-31.738,-45.898,-39.551,-25.879,0.000
1709298922.132,-38.574,-42.969,-31.738,-36.133,0.000
1709298922.136,-48.828,-43.945,-34.180,-35.645,0.000
1709298922.140,-47.363,-41.016,-30.273,-27.832,0.000
1709298922.144,-49.805,-27.832,-27.344,-36.133,0.000
1709298922.148,-48.828,-40.527,-34.180,-42.969,0.000
1709298922.152,-54.688,-54.199,-34.668,-41.992,0.000
1709298922.156,-58.594,-55.664,-36.621,-46.875,0.000
1709298922.159,-59.082,-51.758,-35.645,-50.781,0.000
1709298922.163,-47.852,-49.805,-27.832,-45.410,0.000
1709298922.167,-41.992,-47.363,-22.949,-40.039,0.000
1709298922.171,-59.082,-51.270,-33.203,-51.270,0.000
1709298922.175,-61.035,-48.828,-39.062,-53.223,0.000
1709298922.179,-52.734,-40.527,-40.527,-44.434,0.000
1709298922.183,-47.852,-46.387,-37.598,-29.297,0.000
1709298922.187,-41.016,-39.062,-39.551,-33.691,0.000
1709298922.191,-37.109,-29.785,-44.434,-52.246,0.000
1709298922.195,-46.875,-35.156,-36.621,-61.035,0.000
1709298922.198,-60.547,-39.062,-34.668,-57.129,0.000
1709298922.202,-58.105,-30.762,-39.551,-28.320,0.000
1709298922.206,-42.969,-27.344,-42.480,-24.414,0.000
1709298922.210,-40.527,-33.203,-36.621,-38.086,0.000
1709298922.214,-49.316,-33.691,-37.109,-50.293,0.000
1709298922.218,-52.246,-31.250,-41.504,-49.316,0.000
1709298922.222,-45.410,-36.133,-31.250,-39.551,0.000
1709298922.226,-38.574,-35.645,-27.344,-31.738,0.000
1709298922.230,-38.574,-35.156,-32.227,-36.621,0.000
1709298922.234,-44.922,-31.250,-41.504,-47.852,0.000
1709298922.238,-54.688,-34.180,-47.852,-48.340,0.000
1709298922.241,-47.852,-42.480,-34.668,-32.715,0.000
1709298922.245,-33.691,-45.898,-29.297,-13.672,0.000
1709298922.249,-36.621,-42.969,-38.574,-24.414,0.000
1709298922.253,-35.156,-43.945,-41.016,-24.414,0.000
1709298922.257,-35.645,-51.270,-33.691,-26.855,0.000
1709298922.261,-42.969,-46.387,-31.250,-43.945,0.000
1709298922.265,-35.645,-40.527,-41.504,-43.457,0.000
1709298922.269,-36.621,-38.086,-46.387,-37.109,0.000
1709298922.273,-49.316,-43.945,-41.016,-38.574,0.000
1709298922.277,-44.922,-47.852,-36.621,-41.016,0.000
1709298922.280,-26.367,-34.180,-35.645,-31.250,0.000
1709298922.284,-21.484,-37.598,-39.062,-25.391,0.000
1709298922.288,-31.738,-43.945,-36.133,-30.762,0.000
1709298922.292,-31.738,-39.062,-30.273,-31.250,0.000
1709298922.296,-39.062,-40.527,-32.227,-38.574,0.000
1709298922.300,-34.180,-42.969,-33.203,-40.039,0.000
1709298922.304,-30.762,-49.805,-32.715,-35.156,0.000
1709298922.308,-32.227,-43.457,-40.527,-23.438,0.000
1709298922.312,-27.344,-34.668,-49.316,-13.184,0.000
1709298922.316,-37.109,-41.016,-39.062,-33.203,0.000
1709298922.319,-38.574,-42.969,-35.156,-47.852,0.000
1709298922.323,-26.855,-35.156,-30.762,-35.156,0.000
1709298922.327,-25.391,-39.062,-32.715,-34.668,0.000
1709298922.331,-37.109,-46.875,-40.527,-38.086,0.000
1709298922.335,-40.039,-46.387,-44.922,-46.387,0.000
1709298922.339,-37.109,-34.668,-42.969,-37.109,0.000
1709298922.343,-32.715,-30.273,-36.621,-20.996,0.000
1709298922.347,-29.297,-35.156,-34.180,-26.855,0.000
1709298922.351,-40.527,-38.086,-36.133,-36.621,0.000
1709298922.355,-43.457,-46.387,-43.945,-49.805,0.000
1709298922.359,-36.133,-48.828,-42.480,-54.199,0.000
1709298922.362,-51.270,-44.922,-45.898,-50.293,0.000
1709298922.366,-45.898,-50.781,-42.969,-38.086,0.000
1709298922.370,-29.785,-51.270,-35.156,-27.832,0.000
1709298922.374,-28.320,-49.316,-41.504,-34.180,0.000
1709298922.378,-34.180,-56.641,-45.410,-38.574,0.000
1709298922.382,-41.992,-52.246,-30.273,-42.480,0.000
1709298922.386,-41.992,-40.039,-19.531,-39.551,0.000
1709298922.390,-44.434,-41.992,-31.250,-38.574,0.000
1709298922.394,-46.875,-41.016,-40.039,-36.621,0.000
1709298922.398,-51.270,-40.527,-48.828,-37.598,0.000
1709298922.402,-60.547,-41.016,-52.246,-35.156,0.000
1709298922.405,-48.340,-35.156,-47.852,-21.973,0.000
1709298922.409,-40.039,-42.480,-42.480,-16.602,0.000
1709298922.413,-40.527,-41.992,-41.016,-25.391,0.000
1709298922.417,-41.992,-32.715,-42.969,-40.527,0.000
1709298922.421,-38.086,-33.691,-37.109,-38.574,0.000
1709298922.425,-33.691,-41.992,-38.574,-23.926,0.000
1709298922.429,-36.621,-36.621,-47.852,-33.691,0.000
1709298922.433,-32.227,-36.621,-46.387,-39.062,0.000
1709298922.437,-28.809,-45.898,-49.805,-25.391,0.000
1709298922.441,-34.180,-37.109,-52.246,-28.809,0.000
1709298922.445,-35.156,-26.367,-38.086,-36.621,0.000
1709298922.448,-33.691,-29.785,-43.457,-30.762,0.000
1709298922.452,-27.832,-34.668,-41.504,-41.992,0.000
1709298922.456,-29.785,-40.527,-23.438,-48.828,0.000
1709298922.460,-43.457,-37.598,-30.273,-39.551,0.000
1709298922.464,-35.156,-36.621,-41.992,-36.621,0.000
1709298922.468,-24.902,-42.480,-37.109,-19.043,0.000
1709298922.472,-30.273,-32.715,-34.668,-25.879,0.000
1709298922.476,-38.086,-27.832,-36.133,-57.129,0.000
1709298922.480,-34.668,-33.203,-32.715,-49.805,0.000
1709298922.484,-25.879,-37.109,-32.227,-33.203,0.000
1709298922.487,-25.879,-33.691,-31.250,-34.668,0.000
1709298922.491,-22.461,-32.227,-34.668,-41.992,0.000
1709298922.495,-26.855,-39.551,-49.316,-45.898,0.000
1709298922.499,-32.715,-41.992,-45.898,-48.340,0.000
1709298922.503,-38.086,-34.668,-41.504,-41.016,0.000
1709298922.507,-37.109,-27.344,-39.062,-35.645,0.000
1709298922.511,-31.738,-33.691,-28.809,-36.621,0.000
1709298922.515,-32.715,-42.969,-30.762,-34.180,0.000
1709298922.519,-34.668,-40.527,-37.109,-44.434,0.000
1709298922.523,-31.250,-42.480,-36.133,-45.898,0.000
1709298922.527,-16.602,-39.062,-36.133,-28.809,0.000
1709298922.530,-19.531,-40.039,-31.738,-22.949,0.000
1709298922.534,-31.738,-46.387,-29.785,-33.691,0.000
1709298922.538,-39.062,-45.898,-36.621,-49.316,0.000
1709298922.542,-37.598,-46.387,-37.109,-34.668,0.000
1709298922.546,-28.809,-41.992,-41.016,-26.855,0.000
1709298922.550,-41.016,-54.199,-38.086,-45.410,0.000
1709298922.554,-40.527,-51.270,-27.832,-43.945,0.000
1709298922.558,-36.621,-44.922,-30.762,-30.762,0.000
1709298922.562,-38.086,-53.711,-41.992,-30.273,0.000
1709298922.566,-37.109,-41.016,-48.828,-38.574,0.000
1709298922.570,-42.969,-33.691,-41.992,-41.992,0.000
1709298922.573,-37.598,-37.598,-32.715,-46.387,0.000
1709298922.577,-40.039,-41.016,-41.504,-52.246,0.000
1709298922.581,-46.387,-37.109,-42.969,-45.898,0.000
1709298922.585,-38.574,-37.109,-35.645,-38.574,0.000
1709298922.589,-37.109,-36.621,-40.039,-35.156,0.000
1709298922.593,-43.457,-27.344,-47.852,-38.574,0.000
1709298922.597,-49.316,-25.879,-44.434,-59.082,0.000
1709298922.601,-46.875,-31.738,-36.621,-51.758,0.000
1709298922.605,-31.250,-37.598,-34.180,-31.250,0.000
1709298922.609,-23.438,-35.156,-40.527,-40.039,0.000
1709298922.613,-38.574,-37.109,-41.992,-51.758,0.000
1709298922.616,-44.434,-33.691,-30.762,-41.992,0.000
1709298922.620,-42.480,-29.785,-33.203,-30.762,0.000
1709298922.624,-40.039,-37.109,-35.156,-31.250,0.000
1709298922.628,-33.203,-45.898,-38.574,-25.391,0.000
1709298922.632,-28.809,-48.828,-42.969,-23.438,0.000
1709298922.636,-27.344,-27.832,-36.133,-23.926,0.000
1709298922.640,-25.879,-15.625,-35.156,-27.344,0.000
1709298922.644,-36.621,-38.574,-40.039,-35.645,0.000
1709298922.648,-37.109,-50.781,-42.480,-30.273,0.000
1709298922.652,-39.062,-41.504,-42.969,-26.855,0.000
1709298922.655,-43.945,-41.016,-42.480,-44.922,0.000
1709298922.659,-43.945,-45.410,-46.875,-53.223,0.000
1709298922.663,-43.457,-48.340,-42.480,-29.297,0.000
1709298922.667,-44.922,-38.086,-32.715,-25.391,0.000
1709298922.671,-49.316,-28.809,-28.809,-36.621,0.000
1709298922.675,-48.340,-27.832,-27.832,-31.250,0.000
1709298922.679,-36.621,-29.785,-28.320,-34.668,0.000
1709298922.683,-42.969,-41.504,-25.879,-34.180,0.000
1709298922.687,-53.223,-52.734,-34.668,-23.438,0.000
1709298922.691,-46.387,-54.199,-41.504,-28.809,0.000
1709298922.695,-45.410,-52.734,-33.691,-31.250,0.000
1709298922.698,-41.504,-51.270,-29.785,-30.762,0.000
1709298922.702,-34.180,-37.598,-32.227,-20.020,0.000
1709298922.706,-22.949,-34.180,-23.438,3.906,0.000
1709298922.710,-17.578,-44.434,-15.625,-6.836,0.000
1709298922.714,-27.344,-52.734,-20.996,-31.250,0.000
1709298922.718,-43.945,-50.781,-27.344,-32.227,0.000
1709298922.722,-38.574,-40.039,-30.273,-23.438,0.000
1709298922.726,-37.598,-40.527,-22.949,-17.090,0.000
1709298922.730,-45.410,-38.574,-30.762,-23.438,0.000
1709298922.734,-40.039,-34.180,-41.504,-34.180,0.000
1709298922.738,-41.016,-39.551,-29.297,-39.062,0.000
1709298922.741,-48.340,-44.434,-32.227,-40.527,0.000
1709298922.745,-40.039,-44.922,-35.156,-33.203,0.000
1709298922.749,-27.832,-53.711,-27.832,-29.785,0.000
1709298922.753,-35.156,-55.664,-28.809,-40.527,0.000
1709298922.757,-49.316,-44.922,-34.668,-53.223,0.000
1709298922.761,-43.457,-30.273,-41.504,-44.922,0.000
1709298922.765,-33.203,-23.438,-39.062,-27.832,0.000
1709298922.769,-32.715,-26.367,-30.762,-23.438,0.000
1709298922.773,-32.715,-27.344,-33.203,-26.367,0.000
1709298922.777,-31.250,-39.062,-36.621,-33.691,0.000
1709298922.781,-40.527,-41.992,-33.203,-38.086,0.000
1709298922.784,-47.852,-33.691,-36.621,-35.645,0.000
1709298922.788,-46.387,-29.785,-41.504,-29.297,0.000
1709298922.792,-41.992,-33.203,-37.109,-30.273,0.000
1709298922.796,-42.969,-42.480,-46.387,-41.016,0.000
1709298922.800,-45.410,-43.457,-65.430,-40.527,0.000
1709298922.804,-44.922,-45.898,-45.410,-39.062,0.000
1709298922.808,-40.039,-52.246,-28.809,-36.621,0.000
1709298922.812,-35.645,-44.922,-33.691,-30.762,0.000
1709298922.816,-40.527,-34.668,-35.645,-41.504,0.000
1709298922.820,-46.387,-35.156,-48.828,-46.875,0.000
1709298922.824,-44.434,-40.039,-54.688,-37.109,0.000
1709298922.827,-46.875,-42.969,-51.270,-45.410,0.000
1709298922.831,-42.480,-44.922,-47.852,-48.340,0.000
1709298922.835,-41.504,-50.781,-31.738,-48.340,0.000
1709298922.839,-53.223,-44.922,-38.086,-55.664,0.000
1709298922.843,-38.574,-40.527,-45.410,-48.340,0.000
1709298922.847,-27.832,-33.691,-32.227,-40.527,0.000
1709298922.851,-46.387,-28.809,-30.762,-47.852,0.000
1709298922.855,-51.758,-26.367,-38.574,-52.734,0.000
1709298922.859,-58.105,-34.180,-53.711,-51.758,0.000
1709298922.863,-62.500,-38.086,-41.992,-54.688,0.000
1709298922.867,-58.594,-42.480,-22.949,-54.199,0.000
1709298922.870,-55.664,-49.805,-31.250,-45.898,0.000
1709298922.874,-53.223,-36.133,-43.457,-55.176,0.000
1709298922.878,-65.918,-38.086,-43.457,-62.500,0.000
1709298922.882,-73.242,-41.016,-30.762,-49.316,0.000
1709298922.886,-65.430,-39.551,-40.039,-34.180,0.000
1709298922.890,-57.129,-42.969,-41.016,-27.344,0.000
1709298922.894,-52.734,-41.504,-31.738,-47.363,0.000
1709298922.898,-51.270,-39.551,-30.762,-58.105,0.000
1709298922.902,-54.199,-35.645,-29.785,-47.852,0.000
1709298922.906,-50.781,-30.762,-32.715,-41.016,0.000
1709298922.909,-35.156,-30.273,-30.762,-38.086,0.000
1709298922.913,-36.621,-36.133,-32.227,-46.387,0.000
1709298922.917,-46.875,-40.039,-41.016,-49.805,0.000
1709298922.921,-37.109,-39.062,-38.574,-45.410,0.000
1709298922.925,-37.598,-40.039,-36.621,-42.480,0.000
1709298922.929,-46.387,-33.691,-45.898,-39.062,0.000
1709298922.933,-38.574,-30.762,-39.062,-34.668,0.000
1709298922.937,-47.852,-44.434,-26.367,-42.480,0.000
1709298922.941,-45.410,-44.922,-34.668,-40.039,0.000
1709298922.945,-34.668,-33.691,-43.457,-30.762,0.000
1709298922.949,-39.062,-39.551,-38.574,-48.828,0.000
1709298922.952,-37.598,-37.109,-36.133,-47.363,0.000
1709298922.956,-35.645,-28.320,-43.945,-45.410,0.000
1709298922.960,-33.691,-32.227,-45.898,-52.246,0.000
1709298922.964,-30.762,-33.691,-49.316,-34.668,0.000
1709298922.968,-21.484,-30.273,-41.016,-23.438,0.000
1709298922.972,-18.555,-30.762,-33.203,-35.645,0.000
1709298922.976,-28.809,-44.434,-44.922,-40.039,0.000
1709298922.980,-32.715,-39.551,-41.016,-37.109,0.000
1709298922.984,-39.551,-33.203,-36.133,-36.621,0.000
1709298922.988,-34.180,-40.527,-45.410,-42.480,0.000
1709298922.991,-41.016,-48.828,-37.598,-44.922,0.000
1709298922.995,-53.711,-50.781,-26.367,-39.551,0.000
1709298922.999,-42.969,-39.551,-29.785,-32.715,0.000
1709298923.003,-41.504,-35.645,-29.785,-37.109,0.000
1709298923.007,-42.969,-42.480,-24.902,-38.574,0.000
1709298923.011,-43.945,-41.016,-24.414,-39.062,0.000
1709298923.015,-50.293,-38.574,-29.785,-51.758,0.000
1709298923.019,-49.316,-43.457,-36.621,-49.316,0.000
1709298923.023,-46.875,-44.434,-38.086,-23.438,0.000
1709298923.027,-41.504,-41.016,-31.250,-19.531,0.000
1709298923.031,-35.156,-36.133,-31.738,-38.574,0.000
1709298923.034,-36.133,-36.621,-35.156,-44.434,0.000
1709298923.038,-38.086,-37.598,-37.598,-46.387,0.000
1709298923.042,-28.809,-41.016,-38.574,-30.273,0.000
1709298923.046,-30.762,-45.898,-32.227,-22.461,0.000
1709298923.050,-33.691,-39.062,-29.785,-36.621,0.000
1709298923.054,-27.832,-34.180,-35.156,-46.387,0.000
1709298923.058,-37.598,-36.621,-40.527,-52.734,0.000
1709298923.062,-41.504,-37.598,-42.969,-45.898,0.000
1709298923.066,-35.645,-46.387,-49.316,-22.461,0.000
1709298923.070,-25.879,-45.410,-38.574,-6.836,0.000
1709298923.073,-24.414,-33.691,-20.996,-30.273,0.000
1709298923.077,-30.762,-34.668,-20.020,-45.410,0.000
1709298923.081,-39.062,-33.691,-30.762,-35.156,0.000
1709298923.085,-42.480,-31.250,-30.273,-22.949,0.000
1709298923.089,-36.133,-33.691,-29.785,-25.391,0.000
1709298923.093,-33.203,-40.527,-44.922,-43.945,0.000
1709298923.097,-42.480,-40.527,-48.340,-47.852,0.000
1709298923.101,-52.734,-36.621,-39.062,-39.062,0.000
1709298923.105,-35.156,-35.645,-31.738,-29.785,0.000
1709298923.109,-23.926,-42.480,-28.809,-31.738,0.000
1709298923.112,-39.551,-46.387,-29.785,-43.457,0.000
1709298923.116,-38.086,-37.109,-41.992,-49.316,0.000
1709298923.120,-37.109,-35.156,-49.316,-41.992,0.000
1709298923.124,-47.363,-41.016,-39.062,-32.715,0.000
1709298923.128,-48.828,-35.156,-38.086,-27.344,0.000
1709298923.132,-36.133,-27.344,-47.852,-36.133,0.000
1709298923.136,-36.621,-37.109,-61.035,-42.480,0.000
1709298923.140,-45.898,-54.199,-43.945,-41.992,0.000
1709298923.144,-46.875,-59.570,-18.555,-37.598,0.000
1709298923.148,-33.203,-53.223,-26.367,-35.645,0.000
1709298923.152,-32.715,-39.062,-35.645,-44.434,0.000
1709298923.155,-48.340,-32.715,-36.133,-41.992,0.000
1709298923.159,-40.527,-48.828,-37.598,-35.156,0.000
1709298923.163,-27.344,-53.711,-36.621,-21.973,0.000
1709298923.167,-15.137,-48.340,-33.203,-10.742,0.000
1709298923.171,-16.113,-44.434,-39.062,-19.531,0.000
1709298923.175,-30.762,-24.902,-47.852,-20.508,0.000
1709298923.179,-38.574,-18.066,-44.922,-22.461,0.000
1709298923.183,-42.969,-33.203,-27.344,-32.227,0.000
1709298923.187,-44.922,-51.758,-25.879,-24.414,0.000
1709298923.191,-42.969,-41.992,-31.250,-22.461,0.000
1709298923.195,-38.574,-37.109,-26.855,-37.109,0.000
1709298923.198,-47.852,-46.387,-19.531,-39.551,0.000
1709298923.202,-48.828,-39.062,-18.066,-33.203,0.000
1709298923.206,-32.227,-40.527,-26.855,-20.508,0.000
1709298923.210,-24.902,-48.340,-27.832,-13.184,0.000
1709298923.214,-28.320,-50.293,-36.621,-41.992,0.000
1709298923.218,-51.758,-44.922,-48.340,-55.176,0.000
1709298923.222,-52.246,-35.156,-44.922,-41.504,0.000
1709298923.226,-42.969,-40.527,-46.875,-43.457,0.000
1709298923.230,-41.016,-43.457,-36.133,-36.621,0.000
1709298923.234,-38.574,-41.504,-30.762,-44.922,0.000
1709298923.237,-40.527,-46.875,-41.504,-54.199,0.000
1709298923.241,-26.855,-45.898,-38.574,-39.551,0.000
1709298923.245,-27.832,-39.062,-24.902,-30.762,0.000
1709298923.249,-32.227,-40.039,-20.020,-33.691,0.000
1709298923.253,-24.414,-49.316,-22.461,-34.668,0.000
1709298923.257,-27.344,-45.898,-31.738,-39.551,0.000
1709298923.261,-36.133,-45.410,-33.203,-32.715,0.000
1709298923.265,-37.598,-47.363,-24.414,-19.043,0.000
1709298923.269,-33.203,-27.344,-31.250,-25.391,0.000
1709298923.273,-26.855,-19.043,-29.785,-39.551,0.000
1709298923.277,-29.297,-36.133,-27.832,-46.875,0.000
1709298923.280,-37.598,-41.504,-34.668,-46.875,0.000
1709298923.284,-44.434,-51.758,-35.156,-37.598,0.000
1709298923.288,-47.852,-46.875,-38.086,-36.133,0.000
1709298923.292,-45.898,-30.273,-39.062,-36.621,0.000
1709298923.296,-25.391,-48.828,-35.645,-17.578,0.000
1709298923.300,-21.973,-47.852,-43.945,-23.438,0.000
1709298923.304,-33.203,-33.691,-33.203,-40.527,0.000
1709298923.308,-29.297,-47.852,-14.160,-29.785,0.000
1709298923.312,-26.855,-36.621,-22.461,-20.020,0.000
1709298923.316,-17.578,-22.949,-28.809,-24.414,0.000
1709298923.320,-14.160,-41.504,-37.109,-27.344,0.000
1709298923.323,-14.648,-49.316,-45.410,-17.090,0.000
1709298923.327,-11.230,-47.363,-45.410,-19.531,0.000
1709298923.331,-15.625,-48.340,-47.363,-39.551,0.000
1709298923.335,-22.461,-45.410,-45.410,-47.363,0.000
1709298923.339,-20.508,-45.410,-38.574,-38.574,0.000
1709298923.343,-26.367,-49.316,-36.621,-31.250,0.000
1709298923.347,-28.809,-49.316,-34.668,-27.832,0.000
1709298923.351,-16.602,-49.805,-36.621,-29.297,0.000
1709298923.355,-20.020,-43.945,-53.711,-34.180,0.000
1709298923.359,-30.762,-38.574,-48.828,-35.156,0.000
1709298923.362,-32.227,-38.086,-41.992,-38.574,0.000
1709298923.366,-17.578,-42.480,-51.270,-48.828,0.000
1709298923.370,-15.625,-43.945,-43.457,-43.945,0.000
