timestamps,TP9,AF7,AF8,TP10,Right AUX
1709141605.185,-37.109,-28.809,-66.895,-48.340,0.000
1709141605.189,-30.273,-24.414,-50.781,-37.598,0.000
1709141605.193,-25.391,-28.809,-36.621,-27.344,0.000
1709141605.196,-27.344,-26.367,-46.875,-32.715,0.000
1709141605.200,-29.297,-26.367,-48.340,-45.410,0.000
1709141605.204,-29.785,-44.434,-48.828,-42.969,0.000
1709141605.208,-35.156,-42.969,-57.129,-30.273,0.000
1709141605.212,-32.715,-18.555,-56.152,-28.809,0.000
1709141605.216,-25.391,-15.625,-40.527,-28.809,0.000
1709141605.220,-31.250,-20.996,-40.039,-32.715,0.000
1709141605.224,-39.062,-30.762,-41.992,-47.363,0.000
1709141605.228,-45.410,-42.480,-55.176,-53.711,0.000
1709141605.233,-32.715,-41.016,-67.871,-48.828,0.000
1709141605.237,-32.715,-33.691,-45.410,-56.641,0.000
1709141605.241,-49.805,-36.621,-33.203,-69.336,0.000
1709141605.245,-47.363,-38.086,-35.645,-63.477,0.000
1709141605.249,-45.410,-39.551,-31.250,-57.617,0.000
1709141605.253,-50.293,-37.109,-24.414,-59.570,0.000
1709141605.256,-53.223,-37.109,-31.250,-57.617,0.000
1709141605.260,-41.504,-43.945,-31.250,-54.688,0.000
1709141605.264,-39.062,-41.504,-26.855,-57.617,0.000
1709141605.268,-38.086,-54.199,-22.949,-41.016,0.000
1709141605.272,-37.598,-53.711,-35.156,-41.992,0.000
1709141605.276,-48.340,-41.504,-44.434,-53.711,0.000
1709141605.281,-50.293,-34.668,-36.133,-51.758,0.000
1709141605.285,-48.340,-26.855,-37.109,-49.316,0.000
1709141605.288,-52.246,-37.598,-36.621,-47.852,0.000
1709141605.292,-50.293,-46.387,-34.180,-44.434,0.000
1709141605.296,-43.945,-46.875,-40.039,-37.109,0.000
1709141605.300,-43.457,-48.340,-41.016,-32.715,0.000
1709141605.304,-43.457,-48.828,-45.898,-34.180,0.000
1709141605.308,-36.133,-48.828,-43.457,-38.086,0.000
1709141605.312,-29.785,-48.340,-41.504,-32.227,0.000
1709141605.316,-25.391,-37.598,-47.852,-28.809,0.000
1709141605.320,-38.086,-30.762,-46.875,-32.715,0.000
1709141605.324,-51.270,-35.156,-36.133,-26.855,0.000
1709141605.328,-42.480,-37.109,-32.227,-26.855,0.000
1709141605.332,-39.062,-29.297,-43.457,-31.738,0.000
1709141605.336,-41.992,-36.133,-47.363,-35.156,0.000
1709141605.340,-45.410,-45.410,-40.527,-40.527,0.000
1709141605.344,-45.898,-41.992,-33.691,-45.898,0.000
1709141605.347,-45.410,-49.316,-37.109,-48.828,0.000
1709141605.351,-44.434,-42.480,-36.621,-49.805,0.000
1709141605.355,-46.387,-35.156,-25.879,-50.781,0.000
1709141605.359,-46.875,-32.715,-27.832,-41.992,0.000
1709141605.363,-37.109,-37.598,-38.574,-39.062,0.000
1709141605.367,-33.203,-54.199,-27.832,-52.734,0.000
1709141605.371,-46.387,-47.852,-17.090,-64.941,0.000
1709141605.375,-51.758,-46.875,-13.672,-61.523,0.000
1709141605.379,-44.434,-51.270,-12.695,-54.688,0.000
1709141605.383,-37.109,-33.691,-23.438,-53.223,0.000
1709141605.387,-33.691,-46.387,-27.344,-41.992,0.000
1709141605.391,-37.598,-58.594,-26.855,-45.410,0.000
1709141605.395,-48.828,-37.598,-28.320,-53.223,0.000
1709141605.399,-39.551,-29.297,-24.902,-49.316,0.000
1709141605.402,-37.109,-33.691,-35.156,-49.805,0.000
1709141605.406,-50.781,-41.504,-57.129,-48.340,0.000
1709141605.410,-44.434,-38.574,-47.363,-41.016,0.000
1709141605.414,-41.992,-35.645,-33.691,-43.945,0.000
1709141605.418,-40.527,-54.688,-39.062,-48.828,0.000
1709141605.422,-31.250,-61.035,-33.203,-43.945,0.000
1709141605.425,-32.715,-33.203,-33.203,-52.734,0.000
1709141605.429,-36.133,-18.066,-41.992,-53.223,0.000
1709141605.433,-34.668,-25.879,-38.086,-43.457,0.000
1709141605.437,-38.574,-21.973,-38.086,-42.480,0.000
1709141605.441,-41.504,-23.438,-45.410,-47.363,0.000
1709141605.445,-46.875,-34.180,-39.062,-53.223,0.000
1709141605.449,-52.734,-39.551,-26.855,-38.574,0.000
1709141605.453,-45.410,-43.945,-13.184,-34.180,0.000
1709141605.457,-45.410,-52.734,-15.137,-43.457,0.000
1709141605.461,-47.852,-44.922,-20.996,-40.527,0.000
1709141605.464,-45.410,-37.109,-24.902,-39.551,0.000
1709141605.468,-47.363,-30.762,-31.738,-45.410,0.000
1709141605.472,-41.016,-27.344,-29.785,-39.062,0.000
1709141605.476,-38.086,-38.574,-26.855,-30.762,0.000
1709141605.480,-41.992,-44.922,-32.715,-43.945,0.000
1709141605.483,-42.969,-48.340,-41.016,-53.223,0.000
1709141605.487,-38.574,-44.922,-38.574,-51.758,0.000
1709141605.491,-41.992,-47.852,-31.250,-49.316,0.000
1709141605.495,-46.387,-57.617,-31.738,-35.156,0.000
1709141605.499,-46.387,-52.246,-26.855,-36.621,0.000
1709141605.503,-53.223,-41.016,-24.414,-47.363,0.000
1709141605.507,-52.734,-35.156,-22.949,-46.875,0.000
1709141605.511,-46.875,-33.203,-25.879,-46.875,0.000
1709141605.514,-47.363,-40.039,-33.691,-49.805,0.000
1709141605.518,-37.598,-50.293,-28.320,-47.363,0.000
1709141605.522,-34.668,-58.105,-23.926,-42.969,0.000
1709141605.526,-49.805,-50.293,-39.551,-45.898,0.000
1709141605.530,-49.805,-39.551,-47.852,-43.945,0.000
1709141605.534,-44.434,-35.156,-34.668,-35.156,0.000
1709141605.537,-39.551,-42.480,-22.461,-23.926,0.000
1709141605.541,-39.551,-44.922,-30.273,-36.621,0.000
1709141605.545,-38.086,-34.180,-45.898,-60.059,0.000
1709141605.549,-35.645,-32.715,-38.086,-50.293,0.000
1709141605.553,-37.109,-33.203,-21.973,-42.480,0.000
1709141605.557,-32.227,-28.809,-29.297,-40.527,0.000
1709141605.560,-29.785,-39.062,-39.062,-41.016,0.000
1709141605.564,-27.832,-38.574,-39.551,-42.480,0.000
1709141605.568,-23.926,-41.992,-41.504,-34.668,0.000
1709141605.572,-20.996,-46.875,-33.203,-25.391,0.000
1709141605.576,-23.438,-33.691,-25.391,-23.926,0.000
1709141605.580,-18.555,-37.109,-26.367,-20.508,0.000
1709141605.584,-21.973,-44.434,-21.484,-25.879,0.000
1709141605.587,-31.250,-38.086,-20.996,-39.551,0.000
1709141605.591,-36.133,-29.297,-30.273,-41.016,0.000
1709141605.595,-29.297,-34.668,-31.250,-32.227,0.000
1709141605.599,-24.414,-44.434,-31.250,-39.062,0.000
1709141605.603,-36.621,-41.992,-40.039,-49.316,0.000
1709141605.608,-44.434,-46.875,-41.504,-48.828,0.000
1709141605.612,-45.898,-52.246,-40.039,-50.781,0.000
1709141605.616,-41.016,-40.039,-39.062,-46.875,0.000
1709141605.620,-32.227,-34.668,-28.809,-40.527,0.000
1709141605.624,-30.762,-31.250,-16.113,-37.598,0.000
1709141605.628,-39.062,-30.273,-23.438,-37.109,0.000
1709141605.632,-39.062,-41.992,-42.480,-33.691,0.000
1709141605.636,-29.785,-41.992,-34.668,-23.438,0.000
1709141605.639,-29.785,-40.527,-27.344,-20.508,0.000
1709141605.643,-34.180,-43.457,-36.133,-32.227,0.000
1709141605.647,-32.715,-39.062,-34.668,-44.922,0.000
1709141605.651,-31.250,-36.133,-38.574,-48.828,0.000
1709141605.656,-34.668,-32.715,-47.363,-41.016,0.000
1709141605.660,-37.109,-43.945,-34.180,-34.668,0.000
1709141605.664,-44.434,-48.828,-31.738,-38.574,0.000
1709141605.668,-46.387,-35.156,-23.926,-44.922,0.000
1709141605.671,-46.387,-51.270,-20.996,-50.781,0.000
1709141605.675,-48.828,-49.316,-37.109,-53.711,0.000
1709141605.679,-45.898,-33.691,-36.133,-50.781,0.000
1709141605.683,-40.527,-36.133,-37.598,-41.504,0.000
1709141605.687,-37.109,-38.574,-38.086,-39.062,0.000
1709141605.691,-23.438,-39.551,-38.086,-31.250,0.000
1709141605.695,-10.742,-31.738,-41.016,-21.484,0.000
1709141605.699,-16.602,-33.203,-34.180,-24.414,0.000
1709141605.703,-21.973,-45.410,-25.391,-25.879,0.000
1709141605.707,-21.484,-51.270,-27.832,-31.250,0.000
1709141605.711,-30.762,-47.852,-35.645,-38.086,0.000
1709141605.715,-44.434,-41.504,-42.969,-42.969,0.000
1709141605.719,-44.922,-44.922,-43.945,-46.387,0.000
1709141605.723,-42.969,-45.410,-44.922,-45.898,0.000
1709141605.727,-50.293,-47.852,-48.828,-49.805,0.000
1709141605.730,-54.688,-38.086,-55.664,-53.711,0.000
1709141605.734,-45.898,-37.109,-66.895,-41.016,0.000
1709141605.738,-47.363,-40.039,-50.293,-41.016,0.000
1709141605.742,-51.758,-40.527,-23.926,-60.547,0.000
1709141605.746,-46.875,-45.410,-21.973,-61.523,0.000
1709141605.750,-42.480,-44.922,-21.973,-51.270,0.000
1709141605.754,-42.480,-38.086,-37.109,-46.387,0.000
1709141605.758,-43.945,-38.574,-46.875,-43.457,0.000
1709141605.762,-47.852,-54.688,-27.344,-46.875,0.000
1709141605.766,-47.852,-51.270,-18.555,-55.664,0.000
1709141605.769,-44.922,-42.969,-21.973,-61.523,0.000
1709141605.773,-42.480,-52.734,-27.344,-50.293,0.000
1709141605.777,-33.691,-47.363,-32.227,-37.109,0.000
1709141605.781,-29.785,-40.039,-37.598,-30.273,0.000
1709141605.785,-31.738,-39.062,-42.969,-41.016,0.000
1709141605.789,-25.391,-44.922,-31.250,-35.645,0.000
1709141605.793,-24.902,-43.945,-28.809,-18.555,0.000
1709141605.797,-23.438,-34.180,-37.598,-24.902,0.000
1709141605.800,-33.203,-38.574,-45.898,-31.250,0.000
1709141605.804,-50.781,-41.504,-45.898,-36.133,0.000
1709141605.808,-52.734,-46.387,-45.898,-46.387,0.000
1709141605.812,-54.199,-46.875,-38.574,-51.758,0.000
1709141605.816,-46.387,-38.086,-22.461,-51.270,0.000
1709141605.820,-44.434,-48.340,-30.273,-51.270,0.000
1709141605.824,-50.293,-51.270,-49.805,-52.246,0.000
1709141605.828,-62.012,-33.691,-44.434,-64.941,0.000
1709141605.832,-68.359,-30.273,-36.133,-76.172,0.000
1709141605.836,-59.082,-28.809,-47.363,-67.383,0.000
1709141605.840,-54.688,-18.066,-54.688,-59.570,0.000
1709141605.844,-53.223,-26.855,-49.316,-55.664,0.000
1709141605.848,-48.340,-43.945,-39.551,-50.293,0.000
1709141605.851,-48.340,-51.270,-31.250,-38.574,0.000
1709141605.855,-51.758,-41.992,-22.461,-39.062,0.000
1709141605.859,-47.363,-37.598,-21.973,-48.340,0.000
1709141605.863,-48.828,-57.617,-24.414,-42.480,0.000
1709141605.867,-53.223,-50.293,-27.832,-38.574,0.000
1709141605.871,-48.828,-38.574,-27.832,-38.574,0.000
1709141605.875,-49.316,-48.828,-34.668,-47.852,0.000
1709141605.879,-38.574,-41.504,-44.922,-51.758,0.000
1709141605.883,-33.203,-40.527,-48.828,-39.062,0.000
1709141605.887,-47.852,-45.410,-32.227,-37.598,0.000
1709141605.890,-49.316,-37.109,-13.184,-41.016,0.000
1709141605.894,-45.410,-30.762,-21.973,-38.086,0.000
1709141605.898,-46.387,-38.086,-36.133,-40.039,0.000
1709141605.901,-48.828,-36.621,-42.480,-40.039,0.000
1709141605.905,-35.645,-28.809,-42.480,-42.480,0.000
1709141605.909,-25.879,-45.410,-33.203,-46.875,0.000
1709141605.913,-30.273,-53.711,-27.832,-30.762,0.000
1709141605.917,-29.785,-20.508,-40.039,-22.949,0.000
1709141605.921,-19.043,-20.508,-53.223,-43.457,0.000
1709141605.925,-22.461,-33.691,-46.875,-57.129,0.000
1709141605.929,-41.992,-35.645,-25.879,-61.523,0.000
1709141605.933,-47.852,-37.598,-15.137,-57.617,0.000
1709141605.936,-48.340,-28.809,-23.438,-57.617,0.000
1709141605.939,-44.922,-40.039,-33.203,-60.059,0.000
1709141605.943,-42.969,-38.086,-35.645,-62.988,0.000
1709141605.947,-43.945,-39.551,-35.645,-59.082,0.000
1709141605.951,-51.270,-41.504,-39.062,-55.664,0.000
1709141605.955,-67.871,-36.133,-40.527,-52.734,0.000
1709141605.959,-61.035,-40.039,-39.062,-40.039,0.000
1709141605.963,-51.270,-45.410,-41.504,-51.270,0.000
1709141605.967,-48.340,-47.852,-48.828,-58.105,0.000
1709141605.971,-49.316,-43.945,-48.340,-39.551,0.000
1709141605.975,-49.316,-35.156,-35.156,-23.926,0.000
1709141605.978,-38.574,-28.809,-31.250,-21.973,0.000
1709141605.983,-38.574,-35.156,-28.320,-32.227,0.000
1709141605.987,-49.316,-45.898,-24.414,-43.945,0.000
1709141605.991,-45.898,-44.922,-21.484,-43.945,0.000
1709141605.995,-38.086,-47.363,-17.090,-35.156,0.000
1709141605.999,-39.062,-55.176,-13.184,-37.598,0.000
1709141606.003,-34.668,-62.012,-12.207,-39.062,0.000
1709141606.007,-37.109,-72.266,-11.230,-40.039,0.000
1709141606.011,-41.504,-73.242,-16.602,-35.645,0.000
1709141606.015,-40.527,-66.895,-20.508,-25.391,0.000
1709141606.019,-40.527,-81.055,-6.836,-14.648,0.000
1709141606.023,-38.574,-97.168,-3.906,-20.020,0.000
1709141606.026,-44.434,-87.891,-16.602,-31.738,0.000
1709141606.031,-46.875,-91.309,-21.973,-19.043,0.000
1709141606.035,-37.598,-94.727,-15.625,-1.953,0.000
1709141606.039,-46.875,-84.473,-1.465,-2.930,0.000
1709141606.043,-39.551,-83.496,8.301,-4.883,0.000
1709141606.047,-34.180,-92.773,0.977,-7.812,0.000
1709141606.051,-47.852,-102.051,-4.883,-8.789,0.000
1709141606.054,-45.898,-94.727,-11.719,-3.418,0.000
1709141606.058,-47.363,-90.820,-18.555,-3.906,0.000
1709141606.062,-50.781,-101.074,-9.277,-4.883,0.000
1709141606.066,-56.152,-109.863,-3.906,-2.930,0.000
1709141606.070,-53.711,-107.910,-2.930,0.977,0.000
1709141606.074,-39.551,-106.445,-8.789,11.230,0.000
1709141606.078,-35.645,-108.887,-13.672,18.066,0.000
1709141606.082,-37.598,-108.398,-6.348,22.949,0.000
1709141606.086,-30.273,-102.539,0.977,22.949,0.000
1709141606.090,-27.832,-101.562,4.395,18.555,0.000
1709141606.094,-30.273,-114.746,10.742,14.648,0.000
1709141606.098,-32.227,-119.141,5.859,22.461,0.000
1709141606.102,-28.320,-101.562,-4.395,27.832,0.000
1709141606.106,-21.484,-90.820,3.906,19.043,0.000
1709141606.109,-21.973,-111.328,11.230,20.508,0.000
1709141606.113,-25.879,-114.746,11.719,19.043,0.000
1709141606.117,-20.020,-89.844,0.000,4.883,0.000
1709141606.121,-13.672,-85.938,-0.488,6.348,0.000
1709141606.125,-27.832,-95.703,5.371,4.395,0.000
1709141606.129,-33.691,-94.238,0.000,-1.465,0.000
1709141606.133,-31.250,-91.309,-4.395,5.371,0.000
1709141606.137,-31.738,-92.773,-7.812,13.672,0.000
1709141606.141,-38.574,-99.121,-2.441,15.625,0.000
1709141606.145,-35.645,-101.074,-1.953,10.254,0.000
1709141606.149,-30.762,-98.145,0.488,6.348,0.000
1709141606.152,-27.832,-90.332,3.418,6.836,0.000
1709141606.156,-32.227,-90.332,-4.395,6.348,0.000
1709141606.160,-33.691,-90.332,-5.371,7.812,0.000
1709141606.164,-26.855,-83.008,3.418,0.488,0.000
1709141606.168,-31.250,-87.891,-4.883,-3.418,0.000
1709141606.172,-35.156,-96.680,-11.719,1.953,0.000
1709141606.176,-41.992,-96.191,-0.977,0.977,0.000
1709141606.179,-22.949,-80.078,0.000,0.000,0.000
1709141606.183,-21.973,-71.289,-20.996,-11.719,0.000
1709141606.187,-40.527,-71.777,-32.715,-17.578,0.000
1709141606.191,-35.156,-67.871,-12.695,-22.461,0.000
1709141606.195,-32.227,-71.289,-1.953,-24.902,0.000
1709141606.199,-23.926,-80.566,-9.766,-10.254,0.000
1709141606.203,-15.137,-68.359,-26.855,-2.441,0.000
1709141606.207,-18.066,-59.082,-36.133,-4.883,0.000
1709141606.211,-21.973,-66.895,-20.020,-8.301,0.000
1709141606.215,-21.973,-65.918,-14.648,-13.672,0.000
1709141606.218,-21.973,-65.918,-26.855,-20.020,0.000
1709141606.222,-26.367,-65.430,-28.320,-30.762,0.000
1709141606.226,-33.691,-55.664,-23.926,-34.668,0.000
1709141606.230,-30.762,-63.965,-25.879,-25.879,0.000
1709141606.234,-35.156,-70.312,-29.297,-21.484,0.000
1709141606.238,-40.039,-55.664,-41.016,-27.344,0.000
1709141606.241,-36.133,-50.781,-40.039,-41.504,0.000
1709141606.245,-35.156,-50.781,-24.902,-41.016,0.000
1709141606.249,-35.645,-49.805,-27.832,-42.480,0.000
1709141606.253,-33.691,-53.711,-22.949,-40.039,0.000
1709141606.257,-34.180,-47.363,-31.738,-29.297,0.000
1709141606.261,-32.227,-45.898,-39.551,-42.969,0.000
1709141606.264,0.000,-56.641,-17.090,0.000,0.000
1709141606.268,0.000,-57.129,-20.508,0.000,0.000
1709141606.272,0.000,-51.270,-18.555,0.000,0.000
1709141606.276,0.000,-47.852,-20.996,0.000,0.000
1709141606.280,0.000,-49.805,-45.898,0.000,0.000
1709141606.284,0.000,-61.523,-50.293,0.000,0.000
1709141606.288,0.000,-63.477,-37.598,0.000,0.000
1709141606.292,0.000,-48.340,-24.902,0.000,0.000
1709141606.296,0.000,-37.598,-20.020,0.000,0.000
1709141606.300,0.000,-41.992,-29.297,0.000,0.000
1709141606.303,0.000,-46.875,-30.273,0.000,0.000
1709141606.307,0.000,-43.457,-14.160,0.000,0.000
1709141606.310,-36.621,-52.734,-10.254,-22.949,0.000
1709141606.314,-40.039,-62.500,-21.484,-25.879,0.000
1709141606.318,-36.133,-46.387,-20.508,-29.297,0.000
1709141606.322,-40.039,-43.457,-26.367,-31.738,0.000
1709141606.326,-33.691,-48.828,-34.668,-33.203,0.000
1709141606.330,-21.484,-49.316,-35.645,-32.715,0.000
1709141606.334,-39.551,-53.223,-38.086,-24.902,0.000
1709141606.338,-42.969,-63.477,-36.133,-28.320,0.000
1709141606.342,-33.203,-63.965,-39.551,-40.039,0.000
1709141606.345,-33.691,-58.594,-40.527,-48.340,0.000
1709141606.349,-32.227,-52.734,-35.645,-62.012,0.000
1709141606.353,-30.762,-33.691,-30.273,-61.523,0.000
1709141606.358,-38.574,-37.598,-34.180,-56.641,0.000
1709141606.362,-38.574,-44.434,-37.109,-47.363,0.000
1709141606.366,-38.086,-38.086,-42.969,-45.898,0.000
1709141606.370,-44.434,-40.527,-41.016,-53.711,0.000
1709141606.374,-40.527,-49.805,-41.992,-44.922,0.000
1709141606.378,-34.180,-49.805,-55.176,-38.086,0.000
1709141606.382,-38.086,-44.922,-53.711,-42.969,0.000
1709141606.386,-41.992,-42.969,-40.527,-46.387,0.000
1709141606.390,-39.062,-50.293,-38.574,-48.828,0.000
1709141606.393,-41.504,-44.434,-41.016,-45.410,0.000
1709141606.397,-34.180,-37.109,-34.668,-44.434,0.000
1709141606.401,-31.250,-44.922,-29.785,-50.781,0.000
1709141606.406,-43.945,-50.293,-31.738,-54.199,0.000
1709141606.410,-43.457,-40.527,-45.410,-47.852,0.000
1709141606.414,-40.527,-35.156,-41.504,-37.598,0.000
1709141606.418,-31.738,-36.621,-33.691,-33.691,0.000
1709141606.421,-20.020,-31.250,-36.621,-30.762,0.000
1709141606.425,-14.648,-32.715,-50.781,-22.949,0.000
1709141606.429,-10.742,-35.156,-46.875,-22.461,0.000
1709141606.433,-16.602,-40.039,-22.461,-38.574,0.000
1709141606.437,-23.926,-41.504,-24.414,-45.410,0.000
1709141606.441,-27.344,-40.039,-34.180,-37.598,0.000
1709141606.445,-32.715,-37.598,-33.691,-42.480,0.000
1709141606.449,-44.434,-41.016,-28.320,-50.293,0.000
1709141606.453,-49.316,-45.898,-26.367,-49.316,0.000
1709141606.457,-41.016,-49.805,-25.879,-51.270,0.000
1709141606.461,-36.133,-52.734,-29.785,-57.129,0.000
1709141606.465,-36.133,-57.617,-43.945,-60.059,0.000
1709141606.469,-46.387,-71.777,-44.922,-57.617,0.000
1709141606.473,-51.758,-64.453,-29.297,-58.105,0.000
1709141606.476,-42.480,-41.992,-30.273,-47.363,0.000
1709141606.480,-43.945,-38.574,-49.805,-45.410,0.000
1709141606.484,-45.898,-38.086,-47.852,-42.969,0.000
1709141606.488,-44.922,-39.062,-31.738,-45.898,0.000
1709141606.492,-48.340,-41.992,-33.691,-56.641,0.000
1709141606.496,-53.711,-40.039,-39.062,-42.969,0.000
1709141606.500,-54.688,-41.992,-29.785,-41.016,0.000
1709141606.504,-49.316,-51.270,-30.273,-49.316,0.000
1709141606.508,-49.805,-51.270,-40.527,-51.758,0.000
1709141606.511,-48.340,-35.156,-34.180,-47.363,0.000
1709141606.515,-42.969,-38.086,-30.273,-41.992,0.000
1709141606.519,-35.645,-45.410,-35.645,-43.945,0.000
1709141606.523,-43.945,-35.645,-44.922,-48.340,0.000
1709141606.527,-48.828,-38.574,-43.945,-41.992,0.000
1709141606.531,-46.387,-37.109,-29.785,-24.414,0.000
1709141606.535,-39.551,-35.645,-26.367,-36.621,0.000
1709141606.539,-40.039,-46.875,-27.832,-46.387,0.000
1709141606.543,-42.480,-42.480,-30.762,-37.109,0.000
1709141606.546,-37.109,-35.645,-25.879,-35.645,0.000
1709141606.550,-44.922,-35.645,-23.438,-42.480,0.000
1709141606.554,-46.387,-40.039,-32.227,-46.875,0.000
1709141606.558,-49.805,-44.434,-40.039,-50.781,0.000
1709141606.562,-48.828,-43.945,-36.621,-47.363,0.000
1709141606.566,-36.621,-35.645,-26.367,-35.156,0.000
1709141606.570,-40.039,-34.668,-35.156,-42.480,0.000
1709141606.574,-43.945,-54.199,-39.062,-43.945,0.000
1709141606.578,-42.969,-52.734,-31.738,-48.828,0.000
1709141606.581,-39.062,-36.621,-29.785,-59.570,0.000
1709141606.585,-29.785,-32.715,-27.344,-54.688,0.000
1709141606.589,-32.227,-23.926,-34.180,-49.805,0.000
1709141606.593,-42.480,-30.273,-41.504,-42.969,0.000
1709141606.597,-36.133,-39.551,-41.504,-39.062,0.000
1709141606.600,-41.016,-37.598,-41.016,-43.457,0.000
1709141606.604,-47.363,-41.504,-33.691,-52.246,0.000
1709141606.608,-44.434,-30.273,-32.227,-49.805,0.000
1709141606.612,-43.457,-20.996,-28.320,-46.875,0.000
1709141606.616,-39.062,-30.762,-22.949,-41.504,0.000
1709141606.620,-40.527,-35.645,-28.320,-41.016,0.000
1709141606.624,-40.039,-35.645,-28.809,-46.387,0.000
1709141606.628,-41.992,-38.574,-31.738,-45.898,0.000
1709141606.632,-45.898,-45.410,-40.527,-41.016,0.000
1709141606.636,-41.992,-40.039,-37.598,-40.039,0.000
1709141606.639,-34.668,-33.691,-34.668,-37.598,0.000
1709141606.643,-31.738,-38.086,-47.363,-37.598,0.000
1709141606.647,-34.180,-35.156,-45.410,-34.668,0.000
1709141606.651,-31.250,-33.203,-27.344,-25.879,0.000
1709141606.654,-25.391,-31.738,-28.320,-40.527,0.000
1709141606.658,-30.762,-35.645,-38.086,-59.082,0.000
1709141606.662,-37.109,-50.293,-33.691,-49.805,0.000
1709141606.666,-34.180,-60.547,-34.668,-52.734,0.000
1709141606.670,-41.504,-45.898,-42.480,-67.383,0.000
1709141606.674,-51.758,-37.109,-43.457,-58.105,0.000
1709141606.678,-45.410,-40.039,-50.293,-57.129,0.000
1709141606.682,-41.992,-47.363,-55.664,-58.105,0.000
1709141606.685,-44.434,-63.477,-37.598,-61.523,0.000
1709141606.689,-43.945,-49.805,-22.949,-56.641,0.000
1709141606.693,-40.527,-33.691,-38.574,-45.410,0.000
1709141606.696,-36.621,-44.434,-37.109,-49.805,0.000
1709141606.700,-26.855,-45.410,-26.855,-47.363,0.000
1709141606.704,-25.879,-42.969,-30.762,-42.480,0.000
1709141606.708,-31.738,-47.363,-29.297,-37.598,0.000
1709141606.712,-32.227,-42.969,-33.691,-28.320,0.000
1709141606.716,-33.203,-39.551,-39.551,-30.273,0.000
1709141606.720,-27.344,-57.617,-45.410,-46.387,0.000
1709141606.724,-33.203,-67.383,-41.504,-60.059,0.000
1709141606.728,-45.410,-46.387,-36.621,-53.711,0.000
1709141606.733,-39.551,-34.180,-40.527,-51.758,0.000
1709141606.737,-39.551,-35.156,-53.711,-45.410,0.000
1709141606.741,-42.480,-40.039,-48.340,-34.180,0.000
1709141606.745,-35.156,-47.852,-20.996,-40.527,0.000
1709141606.748,-31.738,-37.109,-18.066,-39.551,0.000
1709141606.752,-31.738,-22.949,-25.391,-36.133,0.000
1709141606.756,-37.109,-28.320,-27.832,-42.480,0.000
1709141606.760,-41.016,-35.156,-41.016,-54.199,0.000
1709141606.764,-34.668,-34.180,-47.363,-53.711,0.000
1709141606.768,-31.250,-37.598,-35.645,-37.598,0.000
1709141606.772,-17.090,-37.598,-22.461,-39.062,0.000
1709141606.776,-18.555,-32.227,-27.344,-40.039,0.000
1709141606.781,-26.855,-32.227,-34.668,-38.086,0.000
1709141606.784,-21.484,-33.203,-32.227,-40.527,0.000
1709141606.788,-19.043,-31.738,-28.809,-33.691,0.000
1709141606.792,-13.672,-33.203,-29.297,-36.621,0.000
1709141606.796,-23.438,-46.875,-34.668,-40.039,0.000
1709141606.800,-23.926,-48.828,-36.133,-36.133,0.000
1709141606.804,-13.672,-33.691,-35.156,-34.180,0.000
1709141606.808,-19.531,-24.414,-45.898,-33.203,0.000
1709141606.812,-18.555,-31.250,-50.781,-20.020,0.000
1709141606.816,-9.766,-50.293,-33.203,-1.465,0.000
1709141606.820,-11.230,-44.434,-20.996,-6.348,0.000
1709141606.824,-19.531,-32.715,-33.691,-27.344,0.000
1709141606.828,-24.902,-34.180,-37.109,-37.109,0.000
1709141606.832,-32.715,-34.668,-31.250,-28.809,0.000
1709141606.836,-37.109,-32.715,-41.992,-34.180,0.000
1709141606.839,-28.809,-31.738,-40.527,-37.109,0.000
1709141606.843,-33.203,-27.344,-32.227,-34.180,0.000
1709141606.847,-36.133,-22.949,-32.715,-34.180,0.000
1709141606.851,-27.832,-26.855,-35.156,-35.645,0.000
1709141606.855,-26.855,-37.109,-40.527,-35.156,0.000
1709141606.859,-27.832,-39.551,-51.758,-20.020,0.000
1709141606.863,-33.691,-36.621,-52.246,-25.879,0.000
1709141606.867,-34.668,-44.434,-35.645,-41.504,0.000
1709141606.871,-36.133,-49.316,-33.691,-41.016,0.000
1709141606.875,-36.133,-45.410,-41.504,-41.504,0.000
1709141606.878,-27.832,-51.270,-45.898,-36.621,0.000
1709141606.882,-26.367,-50.293,-50.781,-30.762,0.000
1709141606.886,-32.715,-34.668,-46.875,-35.156,0.000
1709141606.890,-36.621,-34.180,-37.598,-43.457,0.000
1709141606.894,-40.039,-39.551,-28.809,-43.945,0.000
1709141606.898,-35.156,-32.227,-30.762,-51.758,0.000
1709141606.902,-34.180,-31.250,-31.250,-54.688,0.000
1709141606.906,-42.969,-36.133,-32.715,-46.875,0.000
1709141606.910,-39.062,-47.363,-38.574,-44.922,0.000
1709141606.914,-43.457,-43.945,-30.762,-41.992,0.000
1709141606.918,-48.340,-36.133,-30.762,-42.480,0.000
1709141606.921,-26.367,-49.805,-38.086,-41.504,0.000
1709141606.925,-30.762,-46.875,-39.062,-43.945,0.000
1709141606.929,-53.223,-41.016,-32.227,-51.270,0.000
1709141606.933,-50.293,-38.574,-32.227,-51.758,0.000
1709141606.937,-48.828,-41.504,-43.945,-40.527,0.000
1709141606.941,-50.293,-54.199,-38.086,-40.527,0.000
1709141606.945,-50.293,-56.641,-32.227,-63.965,0.000
1709141606.948,-46.875,-55.176,-38.086,-63.965,0.000
1709141606.952,-41.992,-43.945,-42.480,-52.246,0.000
1709141606.956,-43.945,-45.410,-48.828,-60.547,0.000
1709141606.960,-43.945,-41.504,-39.062,-65.918,0.000
1709141606.964,-43.945,-32.227,-32.715,-61.035,0.000
1709141606.967,-42.969,-46.875,-37.109,-54.199,0.000
1709141606.971,-37.598,-48.340,-42.969,-57.129,0.000
1709141606.975,-39.062,-42.969,-38.574,-59.570,0.000
1709141606.979,-32.227,-35.645,-24.902,-53.223,0.000
1709141606.983,-32.715,-36.621,-34.180,-52.246,0.000
1709141606.987,-38.574,-45.410,-45.898,-50.781,0.000
1709141606.991,-31.250,-45.410,-43.457,-50.293,0.000
1709141606.995,-28.320,-46.387,-52.246,-42.480,0.000
1709141606.999,-41.992,-41.504,-63.965,-40.527,0.000
1709141607.003,-50.293,-38.574,-55.664,-51.270,0.000
1709141607.007,-49.805,-49.316,-41.504,-55.176,0.000
1709141607.010,-45.410,-48.340,-32.715,-54.199,0.000
1709141607.014,-47.852,-42.969,-27.344,-51.270,0.000
1709141607.018,-51.758,-50.781,-24.414,-44.922,0.000
1709141607.021,-54.199,-54.199,-21.973,-43.945,0.000
1709141607.025,-47.363,-34.668,-30.762,-51.758,0.000
1709141607.029,-46.387,-25.391,-44.922,-53.223,0.000
1709141607.033,-42.480,-33.691,-37.109,-42.480,0.000
1709141607.037,-27.832,-39.062,-24.414,-24.902,0.000
1709141607.041,-28.809,-39.551,-31.250,-23.438,0.000
1709141607.045,-38.574,-29.785,-43.945,-41.992,0.000
1709141607.049,-43.457,-35.156,-41.504,-47.852,0.000
1709141607.053,-38.574,-41.992,-27.832,-41.992,0.000
1709141607.057,-35.156,-37.109,-20.996,-37.109,0.000
1709141607.060,-39.062,-36.133,-27.832,-47.852,0.000
1709141607.064,-37.109,-52.246,-26.367,-55.664,0.000
1709141607.068,-31.250,-48.828,-27.832,-54.199,0.000
1709141607.071,-34.180,-25.391,-37.109,-54.688,0.000
1709141607.075,-40.039,-29.297,-38.086,-43.945,0.000
1709141607.079,-35.156,-48.340,-43.457,-36.621,0.000
1709141607.083,-37.598,-47.852,-37.109,-32.227,0.000
1709141607.087,-43.457,-30.762,-19.531,-34.668,0.000
1709141607.091,-49.805,-38.574,-32.715,-41.504,0.000
1709141607.095,-45.898,-50.293,-39.062,-42.969,0.000
1709141607.099,-45.898,-44.434,-27.832,-46.387,0.000
1709141607.103,-48.828,-42.480,-26.855,-51.270,0.000
1709141607.108,-42.969,-45.410,-25.879,-54.199,0.000
1709141607.112,-44.922,-41.992,-32.227,-47.852,0.000
1709141607.116,-44.434,-37.598,-42.480,-45.410,0.000
1709141607.120,-36.621,-38.574,-42.969,-47.363,0.000
1709141607.123,-29.297,-44.434,-29.297,-43.457,0.000
1709141607.127,-29.297,-35.645,-19.043,-47.852,0.000
1709141607.131,-28.320,-26.855,-28.320,-48.828,0.000
1709141607.135,-27.832,-18.555,-36.133,-38.086,0.000
1709141607.139,-24.414,-23.438,-39.551,-35.156,0.000
1709141607.143,-28.809,-36.621,-40.527,-33.691,0.000
1709141607.147,-40.039,-34.180,-31.250,-34.180,0.000
1709141607.151,-33.203,-34.180,-41.992,-37.598,0.000
1709141607.155,-29.785,-35.645,-40.039,-36.621,0.000
1709141607.159,-31.250,-39.551,-24.414,-41.016,0.000
1709141607.163,-35.156,-41.016,-22.461,-42.480,0.000
1709141607.167,-37.109,-38.574,-23.438,-41.504,0.000
1709141607.171,-33.203,-40.039,-26.367,-41.016,0.000
1709141607.175,-34.668,-40.039,-30.273,-37.598,0.000
1709141607.179,-39.551,-38.574,-39.551,-34.668,0.000
1709141607.183,-35.156,-46.875,-38.086,-33.691,0.000
1709141607.187,-35.156,-40.039,-36.133,-33.203,0.000
1709141607.191,-36.621,-35.156,-44.434,-28.809,0.000
1709141607.195,-28.809,-32.715,-40.039,-35.645,0.000
1709141607.198,-26.367,-20.020,-27.832,-49.805,0.000
1709141607.203,-24.902,-26.367,-41.992,-46.875,0.000
1709141607.207,-36.133,-35.156,-40.039,-46.875,0.000
1709141607.211,-35.156,-36.133,-16.113,-40.039,0.000
1709141607.214,-21.484,-41.504,-25.391,-26.367,0.000
1709141607.218,-27.344,-42.480,-37.109,-35.156,0.000
1709141607.222,-36.621,-56.152,-34.668,-42.969,0.000
1709141607.226,-37.598,-57.617,-37.109,-39.062,0.000
1709141607.230,-38.086,-27.344,-40.039,-41.504,0.000
1709141607.234,-38.574,-28.320,-35.645,-37.109,0.000
1709141607.238,-34.180,-40.527,-35.645,-32.715,0.000
1709141607.242,-24.414,-38.086,-27.344,-41.016,0.000
1709141607.246,-24.902,-41.992,-19.043,-51.270,0.000
1709141607.250,-39.062,-42.969,-28.320,-52.246,0.000
1709141607.254,-41.016,-34.668,-26.367,-38.574,0.000
1709141607.257,-30.273,-35.156,-33.691,-36.133,0.000
1709141607.261,-34.668,-47.852,-41.504,-37.109,0.000
1709141607.265,-40.527,-46.875,-32.227,-33.691,0.000
1709141607.269,-38.574,-54.688,-33.203,-37.109,0.000
1709141607.273,-35.645,-60.059,-38.574,-35.156,0.000
1709141607.277,-37.598,-47.363,-46.387,-28.809,0.000
1709141607.281,-39.551,-42.969,-43.457,-25.391,0.000
1709141607.285,-36.133,-39.062,-38.086,-38.574,0.000
1709141607.289,-47.363,-40.527,-41.504,-47.363,0.000
1709141607.293,-54.199,-45.898,-35.156,-39.551,0.000
1709141607.296,-50.293,-49.316,-42.480,-39.062,0.000
1709141607.300,-40.527,-38.574,-49.805,-32.227,0.000
1709141607.304,-38.086,-33.203,-48.828,-28.809,0.000
1709141607.308,-47.363,-49.316,-40.527,-36.621,0.000
1709141607.312,-46.387,-54.688,-29.297,-36.133,0.000
1709141607.316,-45.410,-52.246,-37.109,-27.344,0.000
1709141607.320,-47.363,-40.527,-29.297,-30.762,0.000
1709141607.324,-53.223,-37.109,-23.926,-30.762,0.000
1709141607.328,-52.246,-53.711,-37.598,-23.438,0.000
1709141607.332,-48.828,-44.434,-45.410,-40.039,0.000
1709141607.335,-50.293,-17.578,-35.645,-51.270,0.000
1709141607.339,-48.828,-22.949,-30.762,-41.504,0.000
1709141607.343,-47.852,-32.715,-38.086,-43.945,0.000
1709141607.347,-44.922,-30.762,-45.898,-51.758,0.000
1709141607.351,-42.969,-36.133,-38.574,-45.410,0.000
1709141607.354,-45.410,-32.227,-32.715,-41.504,0.000
1709141607.358,-47.852,-34.180,-41.992,-45.410,0.000
1709141607.362,-39.062,-43.945,-41.016,-46.387,0.000
1709141607.366,-37.109,-43.457,-37.598,-51.758,0.000
1709141607.370,-45.410,-43.945,-41.504,-56.641,0.000
1709141607.374,-39.062,-48.340,-44.922,-58.594,0.000
1709141607.378,-38.086,-45.898,-39.551,-54.688,0.000
1709141607.382,-36.133,-32.715,-33.203,-36.621,0.000
1709141607.386,-30.273,-39.551,-26.855,-34.180,0.000
1709141607.389,-33.691,-43.457,-23.438,-43.457,0.000
1709141607.393,-43.945,-31.738,-35.156,-41.504,0.000
1709141607.397,-47.363,-38.574,-30.762,-34.668,0.000
1709141607.401,-49.805,-39.551,-34.668,-39.062,0.000
1709141607.404,-50.293,-38.086,-38.086,-50.781,0.000
1709141607.408,-43.945,-44.922,-20.996,-45.898,0.000
1709141607.412,-41.016,-40.527,-23.926,-28.320,0.000
1709141607.416,-35.156,-36.133,-40.039,-15.137,0.000
1709141607.420,-25.879,-36.133,-44.434,-31.738,0.000
1709141607.424,-27.344,-33.691,-34.180,-57.617,0.000
1709141607.428,-27.832,-27.344,-29.297,-54.688,0.000
1709141607.432,-31.250,-29.785,-26.855,-40.039,0.000
1709141607.435,-41.504,-28.320,-23.438,-41.992,0.000
1709141607.439,-30.762,-31.250,-29.785,-48.340,0.000
1709141607.443,-22.949,-45.410,-34.180,-52.246,0.000
1709141607.446,-45.410,-38.574,-32.715,-53.223,0.000
1709141607.450,-47.852,-41.992,-40.527,-53.711,0.000
1709141607.454,-36.133,-50.293,-49.805,-42.969,0.000
1709141607.458,-34.180,-48.828,-42.480,-28.320,0.000
1709141607.462,-35.156,-39.551,-35.156,-32.227,0.000
1709141607.466,-35.645,-37.109,-32.715,-40.039,0.000
1709141607.470,-38.086,-40.527,-41.992,-38.086,0.000
1709141607.474,-38.086,-37.109,-46.387,-29.297,0.000
1709141607.478,-36.133,-31.738,-37.598,-24.902,0.000
1709141607.483,-30.273,-28.809,-29.297,-37.109,0.000
1709141607.487,-27.344,-29.297,-34.668,-52.734,0.000
1709141607.491,-33.691,-36.621,-40.039,-53.711,0.000
1709141607.495,-49.805,-41.504,-36.133,-45.410,0.000
1709141607.498,-46.387,-48.828,-32.227,-37.109,0.000
1709141607.502,-39.551,-53.711,-38.086,-35.156,0.000
1709141607.506,-49.805,-45.410,-37.109,-35.645,0.000
1709141607.510,-44.434,-38.574,-22.461,-41.504,0.000
1709141607.514,-33.203,-40.527,-17.578,-38.574,0.000
1709141607.518,-37.598,-50.293,-24.902,-30.273,0.000
1709141607.522,-31.738,-58.105,-29.785,-40.039,0.000
1709141607.526,-30.762,-54.688,-27.832,-49.316,0.000
1709141607.531,-48.340,-32.227,-33.691,-40.527,0.000
1709141607.534,-48.340,-26.367,-31.250,-33.203,0.000
1709141607.538,-52.246,-37.598,-29.297,-42.969,0.000
1709141607.542,-45.410,-37.598,-36.621,-48.828,0.000
1709141607.546,-30.273,-29.785,-28.320,-56.641,0.000
1709141607.550,-28.809,-28.809,-36.133,-55.664,0.000
1709141607.554,-33.691,-36.133,-54.199,-50.293,0.000
1709141607.558,-38.574,-38.086,-45.898,-53.711,0.000
1709141607.562,-36.621,-52.734,-29.785,-46.387,0.000
1709141607.566,-36.621,-72.266,-36.133,-40.039,0.000
1709141607.570,-39.551,-60.059,-43.945,-40.527,0.000
1709141607.574,-44.434,-50.293,-38.086,-38.574,0.000
1709141607.578,-46.387,-39.062,-36.621,-44.434,0.000
1709141607.582,-38.574,-33.691,-33.691,-47.852,0.000
1709141607.586,-29.785,-34.180,-30.762,-48.828,0.000
1709141607.589,-29.297,-37.598,-32.715,-48.340,0.000
1709141607.593,-40.039,-47.852,-37.109,-41.016,0.000
1709141607.597,-40.527,-36.621,-31.738,-37.598,0.000
1709141607.601,-31.250,-26.855,-28.809,-43.457,0.000
1709141607.605,-30.273,-35.645,-41.992,-50.781,0.000
1709141607.609,-39.062,-45.898,-45.898,-41.016,0.000
1709141607.613,-44.434,-40.039,-37.109,-36.133,0.000
1709141607.617,-38.574,-33.203,-38.086,-44.434,0.000
1709141607.621,-37.109,-44.434,-36.133,-42.969,0.000
1709141607.625,-40.527,-44.434,-36.133,-41.504,0.000
1709141607.629,-34.668,-36.621,-39.062,-41.016,0.000
1709141607.632,-28.320,-31.250,-40.039,-55.176,0.000
1709141607.636,-21.973,-25.391,-29.785,-42.969,0.000
1709141607.640,-24.414,-31.250,-30.273,-34.180,0.000
1709141607.644,-46.875,-39.062,-41.016,-52.734,0.000
1709141607.648,-53.711,-38.574,-41.016,-55.176,0.000
1709141607.652,-42.969,-31.250,-33.203,-49.316,0.000
1709141607.656,-42.969,-37.109,-25.391,-43.945,0.000
1709141607.660,-46.387,-46.875,-35.156,-47.852,0.000
1709141607.664,-37.598,-43.457,-43.457,-52.246,0.000
1709141607.668,-43.945,-45.898,-41.992,-54.199,0.000
1709141607.671,-60.059,-55.176,-40.039,-53.711,0.000
1709141607.675,-55.176,-53.223,-34.180,-56.641,0.000
1709141607.679,-47.363,-50.293,-30.273,-51.758,0.000
1709141607.683,-42.969,-51.270,-37.109,-47.852,0.000
1709141607.687,-44.434,-43.945,-41.992,-53.711,0.000
1709141607.691,-50.781,-37.109,-46.875,-54.199,0.000
1709141607.695,-45.410,-35.156,-50.781,-56.641,0.000
1709141607.699,-33.691,-35.645,-30.762,-39.551,0.000
1709141607.702,-35.156,-34.668,-27.832,-24.414,0.000
1709141607.706,-41.016,-28.809,-38.086,-35.156,0.000
1709141607.710,-40.039,-34.180,-43.457,-42.480,0.000
1709141607.714,-47.363,-55.664,-40.527,-49.316,0.000
1709141607.718,-47.363,-50.293,-40.039,-47.363,0.000
1709141607.721,-31.738,-35.645,-39.062,-38.574,0.000
1709141607.725,-43.457,-35.645,-35.645,-49.316,0.000
1709141607.729,-54.199,-35.645,-46.875,-56.152,0.000
1709141607.733,-48.340,-45.410,-53.711,-44.922,0.000
1709141607.737,-49.805,-40.527,-33.691,-47.852,0.000
1709141607.741,-44.434,-31.738,-24.902,-58.594,0.000
1709141607.745,-36.621,-36.621,-30.762,-50.293,0.000
1709141607.749,-36.133,-45.898,-39.062,-52.734,0.000
1709141607.753,-34.668,-57.617,-44.922,-51.270,0.000
1709141607.757,-31.738,-44.922,-35.645,-34.668,0.000
1709141607.761,-30.273,-30.762,-31.250,-31.738,0.000
1709141607.764,-29.785,-35.156,-33.203,-30.762,0.000
1709141607.768,-34.668,-39.551,-41.992,-41.992,0.000
1709141607.772,-36.133,-36.621,-58.105,-54.199,0.000
1709141607.775,-40.527,-33.203,-49.316,-53.711,0.000
1709141607.779,-34.180,-39.062,-39.062,-53.223,0.000
1709141607.783,-33.691,-43.945,-36.621,-51.758,0.000
1709141607.787,-35.156,-37.109,-33.691,-41.504,0.000
1709141607.791,-32.715,-33.691,-42.480,-36.133,0.000
1709141607.795,-39.551,-39.551,-41.016,-40.527,0.000
1709141607.799,-29.297,-39.551,-41.504,-40.039,0.000
1709141607.803,-24.902,-39.062,-36.133,-42.969,0.000
1709141607.807,-29.785,-30.273,-29.297,-46.875,0.000
1709141607.810,-32.227,-34.668,-41.016,-41.504,0.000
1709141607.814,-32.227,-45.898,-36.621,-41.016,0.000
1709141607.817,-40.527,-46.387,-32.227,-44.922,0.000
1709141607.821,-47.852,-42.969,-41.992,-36.621,0.000
1709141607.825,-45.898,-27.832,-36.133,-36.133,0.000
1709141607.829,-41.504,-29.785,-28.809,-49.805,0.000
1709141607.833,-34.180,-39.062,-39.551,-45.410,0.000
1709141607.837,-34.180,-41.016,-35.645,-40.039,0.000
1709141607.841,-33.203,-38.086,-32.715,-47.363,0.000
1709141607.845,-32.715,-42.480,-33.203,-44.922,0.000
1709141607.849,-37.598,-44.434,-27.344,-37.598,0.000
1709141607.853,-48.340,-49.805,-34.668,-38.574,0.000
1709141607.855,-55.664,-61.523,-29.785,-44.922,0.000
1709141607.859,-51.758,-46.875,-37.598,-45.410,0.000
1709141607.863,-40.039,-38.574,-44.434,-41.992,0.000
1709141607.867,-39.062,-47.852,-28.320,-34.668,0.000
1709141607.871,-46.387,-47.852,-22.461,-38.086,0.000
1709141607.875,-46.387,-48.340,-33.203,-43.457,0.000
1709141607.879,-45.898,-40.527,-45.898,-44.434,0.000
1709141607.883,-38.574,-32.715,-44.434,-40.039,0.000
1709141607.887,-36.621,-39.062,-35.156,-37.598,0.000
1709141607.891,-34.668,-42.480,-36.621,-39.551,0.000
1709141607.894,-27.832,-41.016,-35.156,-37.598,0.000
1709141607.898,-29.785,-34.180,-37.598,-42.969,0.000
1709141607.903,-33.691,-31.738,-43.457,-46.875,0.000
1709141607.907,-21.973,-28.320,-32.227,-42.480,0.000
1709141607.911,-22.461,-41.504,-22.949,-36.621,0.000
1709141607.915,-42.480,-49.805,-23.926,-37.598,0.000
1709141607.919,-47.363,-44.434,-26.367,-43.945,0.000
1709141607.923,-52.734,-47.852,-24.902,-50.293,0.000
1709141607.927,-46.875,-47.852,-29.785,-46.387,0.000
1709141607.931,-36.621,-48.340,-31.250,-43.945,0.000
1709141607.935,-33.203,-42.969,-27.344,-44.922,0.000
1709141607.939,-43.945,-33.203,-35.156,-43.945,0.000
1709141607.943,-42.480,-25.391,-39.551,-42.480,0.000
1709141607.946,-31.250,-34.180,-42.969,-34.668,0.000
1709141607.951,-32.715,-46.387,-49.805,-31.738,0.000
1709141607.955,-30.273,-30.273,-31.738,-33.203,0.000
1709141607.959,-31.250,-22.461,-22.461,-40.527,0.000
1709141607.963,-35.156,-33.691,-26.855,-50.781,0.000
1709141607.967,-34.668,-43.945,-23.926,-52.734,0.000
1709141607.971,-39.062,-42.969,-30.273,-44.922,0.000
1709141607.974,-41.504,-34.668,-38.574,-45.410,0.000
1709141607.978,-42.969,-32.227,-33.203,-50.781,0.000
1709141607.982,-32.227,-34.180,-28.809,-39.551,0.000
1709141607.986,-29.785,-32.227,-48.828,-38.086,0.000
1709141607.990,-48.828,-31.250,-49.805,-51.270,0.000
1709141607.994,-47.363,-36.621,-42.969,-44.434,0.000
1709141607.998,-43.457,-42.480,-47.363,-37.598,0.000
1709141608.002,-44.434,-41.016,-34.668,-47.852,0.000
1709141608.006,-41.504,-37.598,-30.273,-46.875,0.000
1709141608.010,-37.109,-55.664,-32.715,-37.598,0.000
1709141608.014,-33.203,-57.129,-33.203,-30.273,0.000
1709141608.018,-36.133,-35.156,-46.387,-40.039,0.000
1709141608.022,-37.109,-29.785,-43.945,-47.852,0.000
1709141608.025,-37.598,-22.949,-40.527,-45.898,0.000
1709141608.029,-47.852,-28.320,-44.434,-51.270,0.000
1709141608.033,-56.152,-42.480,-32.715,-51.270,0.000
1709141608.037,-57.617,-49.805,-38.574,-56.641,0.000
1709141608.041,-59.570,-50.781,-44.922,-66.406,0.000
1709141608.045,-53.223,-54.688,-29.785,-66.895,0.000
1709141608.049,-47.852,-50.781,-29.785,-59.570,0.000
1709141608.053,-39.062,-41.992,-29.297,-52.246,0.000
1709141608.057,-36.621,-35.645,-27.832,-50.293,0.000
1709141608.061,-44.434,-45.410,-32.715,-44.434,0.000
1709141608.065,-35.645,-57.617,-30.273,-41.504,0.000
1709141608.068,-33.691,-52.734,-38.086,-44.922,0.000
1709141608.072,-40.039,-57.617,-44.434,-24.414,0.000
1709141608.076,-34.180,-46.387,-34.668,-20.020,0.000
1709141608.080,-30.762,-34.180,-30.273,-42.969,0.000
1709141608.084,-33.691,-33.691,-41.992,-41.504,0.000
1709141608.088,-33.203,-26.367,-43.457,-33.691,0.000
1709141608.091,-38.086,-38.574,-32.227,-37.109,0.000
1709141608.095,-40.527,-48.340,-40.039,-45.410,0.000
1709141608.099,-42.969,-48.828,-50.781,-52.246,0.000
1709141608.103,-53.223,-48.828,-43.457,-53.223,0.000
1709141608.107,-54.199,-49.805,-33.203,-47.363,0.000
1709141608.111,-48.340,-55.664,-40.527,-54.688,0.000
1709141608.115,-41.504,-50.293,-38.574,-48.828,0.000
1709141608.119,-30.273,-44.922,-26.855,-33.203,0.000
1709141608.123,-33.203,-39.551,-36.133,-44.922,0.000
1709141608.127,-40.527,-36.621,-28.809,-50.781,0.000
1709141608.130,-36.133,-33.203,-25.879,-41.016,0.000
1709141608.134,-33.691,-29.785,-36.621,-32.715,0.000
1709141608.138,-36.621,-33.691,-39.551,-36.621,0.000
1709141608.142,-36.133,-42.969,-33.203,-45.898,0.000
1709141608.146,-36.133,-42.969,-24.414,-48.828,0.000
1709141608.149,-38.574,-33.203,-34.180,-51.270,0.000
1709141608.153,-40.039,-33.203,-38.574,-50.293,0.000
1709141608.157,-42.969,-29.785,-37.109,-51.270,0.000
1709141608.161,-46.875,-33.203,-37.109,-35.645,0.000
1709141608.165,-48.828,-32.715,-32.227,-39.551,0.000
1709141608.169,-50.293,-22.461,-32.227,-61.035,0.000
1709141608.173,-44.922,-35.645,-35.156,-49.316,0.000
1709141608.177,-48.828,-47.363,-20.020,-51.758,0.000
1709141608.181,-51.270,-37.598,-20.996,-55.664,0.000
1709141608.184,-38.086,-36.133,-30.762,-46.387,0.000
1709141608.188,-45.898,-42.480,-19.531,-43.945,0.000
1709141608.192,-55.176,-51.270,-22.949,-46.875,0.000
1709141608.196,-50.293,-48.340,-36.133,-51.758,0.000
1709141608.199,-44.434,-37.598,-34.668,-42.969,0.000
1709141608.203,-41.016,-34.180,-36.621,-33.691,0.000
1709141608.207,-39.551,-34.180,-41.504,-31.250,0.000
1709141608.211,-39.551,-28.320,-38.574,-36.621,0.000
1709141608.215,-43.945,-35.645,-43.457,-37.109,0.000
1709141608.219,-41.504,-47.363,-46.875,-33.203,0.000
1709141608.223,-41.992,-33.203,-39.062,-44.922,0.000
1709141608.227,-42.480,-33.691,-40.039,-46.387,0.000
1709141608.230,-42.480,-42.969,-41.504,-43.945,0.000
1709141608.234,-35.645,-38.574,-34.180,-45.898,0.000
1709141608.238,-24.414,-39.062,-40.039,-39.062,0.000
1709141608.242,-27.832,-36.133,-41.992,-34.180,0.000
1709141608.245,-36.621,-39.551,-40.527,-38.574,0.000
1709141608.249,-34.668,-42.969,-41.504,-41.016,0.000
1709141608.253,-21.484,-46.387,-32.715,-35.156,0.000
1709141608.257,-25.879,-43.945,-35.645,-42.480,0.000
1709141608.261,-37.109,-32.715,-34.668,-49.316,0.000
1709141608.265,-37.109,-47.363,-40.527,-41.016,0.000
1709141608.269,-37.109,-52.246,-49.805,-40.039,0.000
1709141608.273,-37.109,-46.875,-37.109,-38.574,0.000
1709141608.278,-41.504,-51.758,-38.086,-41.016,0.000
1709141608.282,-47.363,-41.504,-53.711,-50.781,0.000
1709141608.286,-51.270,-43.945,-57.617,-56.641,0.000
1709141608.290,-49.316,-48.340,-41.504,-45.410,0.000
1709141608.294,-42.969,-46.875,-37.109,-32.715,0.000
1709141608.297,-42.480,-47.363,-40.039,-34.180,0.000
1709141608.301,-44.922,-37.598,-36.133,-48.828,0.000
1709141608.305,-46.875,-36.621,-33.691,-53.711,0.000
1709141608.309,-47.363,-41.992,-34.668,-41.504,0.000
1709141608.313,-43.457,-37.109,-32.715,-27.344,0.000
1709141608.317,-46.387,-41.016,-29.785,-37.109,0.000
1709141608.321,-41.504,-48.340,-23.438,-43.457,0.000
1709141608.326,-30.273,-56.152,-30.273,-40.039,0.000
1709141608.330,-35.645,-55.176,-28.320,-49.316,0.000
1709141608.333,-39.062,-36.133,-14.160,-40.039,0.000
1709141608.337,-35.645,-31.738,-21.973,-25.879,0.000
1709141608.341,-29.785,-36.133,-29.297,-34.180,0.000
1709141608.345,-34.180,-37.598,-30.762,-35.645,0.000
1709141608.349,-33.691,-41.992,-32.715,-30.273,0.000
1709141608.353,-26.855,-50.293,-28.809,-37.109,0.000
1709141608.357,-26.855,-54.688,-29.785,-34.668,0.000
1709141608.361,-30.273,-44.922,-41.504,-41.016,0.000
1709141608.365,-31.250,-31.738,-40.039,-58.594,0.000
1709141608.369,-34.668,-32.715,-44.434,-59.082,0.000
1709141608.373,-27.832,-38.574,-48.828,-49.316,0.000
1709141608.377,-26.855,-32.227,-47.363,-46.875,0.000
1709141608.381,-30.273,-21.973,-39.062,-51.270,0.000
1709141608.385,-27.832,-29.297,-24.902,-56.152,0.000
1709141608.389,-33.203,-36.621,-27.832,-62.012,0.000
1709141608.393,-29.785,-32.227,-34.668,-48.340,0.000
1709141608.397,-39.062,-31.738,-39.062,-45.410,0.000
1709141608.401,-39.062,-40.039,-41.016,-57.617,0.000
1709141608.405,-31.738,-39.062,-33.691,-46.875,0.000
1709141608.409,-38.086,-34.668,-21.973,-47.852,0.000
1709141608.412,-39.551,-37.109,-25.879,-63.477,0.000
1709141608.416,-42.480,-34.180,-39.062,-55.664,0.000
1709141608.421,-48.340,-38.086,-37.109,-45.898,0.000
1709141608.425,-42.969,-44.922,-28.320,-48.828,0.000
1709141608.429,-36.621,-42.969,-29.297,-47.363,0.000
1709141608.432,-33.203,-32.227,-39.551,-33.203,0.000
1709141608.436,-34.180,-32.227,-48.828,-39.062,0.000
1709141608.440,-29.297,-44.434,-41.992,-46.875,0.000
1709141608.444,-31.250,-47.363,-40.527,-47.363,0.000
1709141608.448,-46.875,-50.781,-24.414,-40.527,0.000
1709141608.452,-48.340,-49.316,-20.508,-24.902,0.000
1709141608.456,-40.039,-45.410,-28.809,-31.738,0.000
1709141608.460,-37.598,-43.457,-27.344,-39.062,0.000
1709141608.464,-35.645,-43.945,-28.809,-38.574,0.000
1709141608.467,-40.039,-42.480,-27.832,-41.016,0.000
1709141608.471,-40.527,-32.227,-30.273,-37.598,0.000
1709141608.475,-28.809,-37.109,-25.391,-24.902,0.000
1709141608.479,-22.949,-34.180,-26.367,-11.230,0.000
1709141608.483,-14.648,-32.227,-23.926,-15.625,0.000
1709141608.487,-7.812,-33.691,-24.414,-35.156,0.000
1709141608.491,-28.809,-32.715,-43.457,-40.039,0.000
1709141608.494,-32.715,-28.809,-32.227,-35.156,0.000
1709141608.498,-24.902,-30.762,-17.090,-41.992,0.000
1709141608.502,-27.344,-50.781,-14.648,-36.621,0.000
1709141608.506,-23.438,-37.598,-14.160,-25.879,0.000
1709141608.510,-30.273,-19.043,-33.203,-26.855,0.000
1709141608.513,-30.273,-31.738,-34.668,-21.973,0.000
1709141608.517,-28.809,-31.738,-25.879,-24.902,0.000
1709141608.521,-30.762,-28.809,-28.809,-27.344,0.000
1709141608.525,-38.086,-45.410,-33.691,-31.250,0.000
1709141608.529,-46.387,-42.969,-34.180,-37.109,0.000
1709141608.533,-51.758,-33.691,-32.715,-37.598,0.000
1709141608.537,-52.246,-36.621,-23.926,-30.762,0.000
1709141608.541,-42.969,-33.691,-18.066,-29.297,0.000
1709141608.545,-55.176,-38.574,-30.273,-38.086,0.000
1709141608.548,-59.570,-47.363,-34.180,-33.203,0.000
1709141608.552,-52.246,-50.293,-31.738,-42.480,0.000
1709141608.556,-53.223,-40.039,-38.086,-57.617,0.000
1709141608.559,-47.852,-29.785,-46.387,-54.688,0.000
1709141608.563,-43.945,-37.598,-45.410,-48.828,0.000
1709141608.567,-48.340,-37.109,-32.227,-53.711,0.000
1709141608.571,-56.152,-40.527,-35.645,-64.941,0.000
1709141608.575,-52.246,-41.016,-46.387,-54.688,0.000
1709141608.579,-46.387,-36.621,-39.062,-43.457,0.000
1709141608.583,-45.898,-42.480,-19.531,-46.875,0.000
1709141608.587,-41.504,-39.062,-21.973,-53.711,0.000
1709141608.591,-30.762,-41.016,-25.391,-47.852,0.000
1709141608.594,-28.809,-51.270,-44.434,-30.762,0.000
1709141608.598,-35.156,-45.410,-49.805,-34.668,0.000
1709141608.602,-37.598,-41.016,-35.156,-45.898,0.000
1709141608.607,-37.109,-44.922,-33.203,-39.062,0.000
1709141608.611,-34.180,-38.574,-28.809,-35.156,0.000
1709141608.615,-28.320,-41.016,-33.691,-37.109,0.000
1709141608.619,-16.602,-46.387,-42.969,-45.898,0.000
1709141608.623,-16.602,-30.273,-43.945,-53.711,0.000
1709141608.627,-36.133,-32.715,-46.387,-53.711,0.000
1709141608.631,-33.691,-41.016,-37.598,-48.340,0.000
1709141608.635,-38.086,-37.598,-27.344,-49.316,0.000
1709141608.639,-31.738,-39.551,-30.762,-47.363,0.000
1709141608.643,-27.832,-47.363,-37.109,-44.434,0.000
1709141608.647,-38.574,-54.688,-38.086,-41.992,0.000
1709141608.650,-38.574,-37.109,-26.367,-37.109,0.000
1709141608.655,-43.457,-28.320,-39.551,-41.504,0.000
1709141608.659,-46.875,-36.621,-46.875,-49.805,0.000
1709141608.663,-41.992,-34.668,-35.156,-49.805,0.000
1709141608.667,-44.922,-36.621,-31.738,-44.434,0.000
1709141608.671,-46.875,-46.875,-36.621,-44.434,0.000
1709141608.675,-42.480,-52.246,-41.992,-33.203,0.000
1709141608.679,-45.898,-51.758,-40.527,-35.156,0.000
1709141608.683,-33.203,-51.758,-47.363,-41.992,0.000
1709141608.686,-26.367,-46.875,-57.617,-38.574,0.000
1709141608.690,-42.969,-43.457,-39.062,-27.344,0.000
1709141608.694,-42.480,-39.551,-20.996,-26.855,0.000
1709141608.698,-39.551,-45.898,-35.156,-44.434,0.000
1709141608.703,-34.180,-44.922,-40.527,-43.945,0.000
1709141608.706,-27.832,-37.598,-35.645,-31.738,0.000
1709141608.710,-30.273,-41.016,-38.086,-28.320,0.000
1709141608.714,-34.668,-39.551,-50.781,-33.691,0.000
1709141608.718,-34.180,-40.527,-45.410,-38.086,0.000
1709141608.722,-34.180,-48.340,-26.367,-50.293,0.000
1709141608.726,-35.645,-44.434,-39.062,-53.223,0.000
1709141608.730,-30.762,-33.203,-44.434,-42.480,0.000
1709141608.734,-24.902,-33.203,-25.391,-41.504,0.000
1709141608.738,-41.992,-39.551,-21.484,-45.898,0.000
1709141608.742,-53.711,-40.527,-29.785,-52.734,0.000
1709141608.745,-40.527,-42.969,-24.414,-58.105,0.000
1709141608.749,-41.992,-45.410,-27.344,-57.129,0.000
1709141608.753,-47.852,-50.781,-39.062,-54.199,0.000
1709141608.757,-42.480,-49.805,-44.922,-51.758,0.000
1709141608.761,-43.457,-46.387,-55.664,-51.758,0.000
1709141608.765,-46.387,-41.016,-48.340,-56.641,0.000
1709141608.769,-48.828,-35.645,-50.781,-59.082,0.000
1709141608.773,-44.922,-45.410,-45.898,-48.828,0.000
1709141608.777,-40.527,-51.758,-31.250,-38.574,0.000
1709141608.781,-47.852,-42.969,-26.855,-36.133,0.000
1709141608.785,-53.223,-32.715,-25.879,-43.457,0.000
1709141608.789,-46.875,-31.250,-33.203,-45.898,0.000
1709141608.792,-47.852,-41.992,-42.969,-46.875,0.000
1709141608.796,-46.387,-46.387,-47.852,-53.711,0.000
1709141608.800,-36.133,-40.039,-38.086,-48.828,0.000
1709141608.804,-29.297,-34.668,-29.785,-41.016,0.000
1709141608.808,-31.250,-34.180,-43.945,-36.621,0.000
1709141608.812,-31.250,-42.480,-44.922,-35.156,0.000
1709141608.816,-20.996,-53.711,-34.668,-38.574,0.000
1709141608.819,-22.949,-37.598,-31.738,-47.363,0.000
1709141608.823,-39.062,-27.832,-30.273,-46.875,0.000
1709141608.827,-55.664,-38.574,-31.250,-45.898,0.000
1709141608.831,-54.199,-39.551,-28.809,-51.758,0.000
1709141608.835,-46.387,-36.621,-30.273,-35.645,0.000
1709141608.839,-41.016,-34.180,-36.133,-29.297,0.000
1709141608.842,-36.133,-37.598,-38.574,-31.250,0.000
1709141608.846,-35.156,-40.527,-41.992,-25.391,0.000
1709141608.850,-36.133,-34.180,-46.387,-26.855,0.000
1709141608.854,-40.039,-28.809,-34.180,-29.297,0.000
1709141608.858,-44.434,-31.738,-24.414,-31.250,0.000
1709141608.862,-46.387,-41.016,-29.297,-46.875,0.000
1709141608.866,-46.387,-39.062,-38.086,-46.875,0.000
1709141608.870,-51.758,-39.551,-40.039,-39.062,0.000
1709141608.874,-51.270,-47.852,-39.062,-41.992,0.000
1709141608.878,-38.574,-36.621,-37.109,-43.457,0.000
1709141608.881,-44.922,-30.762,-41.504,-51.758,0.000
1709141608.885,-47.363,-41.504,-45.898,-57.617,0.000
1709141608.889,-37.109,-34.180,-26.855,-48.828,0.000
1709141608.893,-32.227,-23.926,-24.414,-38.574,0.000
1709141608.896,-21.484,-36.621,-42.969,-39.062,0.000
1709141608.900,-34.180,-44.434,-43.945,-42.969,0.000
1709141608.904,-38.574,-36.133,-29.785,-45.898,0.000
1709141608.908,-36.133,-33.691,-31.738,-50.293,0.000
1709141608.912,-45.410,-43.457,-34.180,-40.039,0.000
1709141608.916,-42.969,-47.852,-31.738,-36.621,0.000
1709141608.920,-40.039,-34.668,-34.180,-45.410,0.000
1709141608.924,-40.039,-35.156,-42.480,-38.086,0.000
1709141608.928,-39.551,-38.574,-38.574,-38.086,0.000
1709141608.932,-37.109,-35.645,-27.832,-38.086,0.000
1709141608.934,-38.574,-38.086,-28.320,-44.434,0.000
1709141608.938,-36.621,-29.785,-26.367,-40.039,0.000
1709141608.942,-35.645,-33.691,-22.949,-30.273,0.000
1709141608.946,-36.621,-41.992,-21.973,-38.086,0.000
1709141608.950,-39.062,-36.621,-35.645,-52.734,0.000
1709141608.954,-39.062,-35.156,-35.156,-53.711,0.000
1709141608.958,-40.527,-39.551,-29.297,-36.133,0.000
1709141608.962,-34.668,-35.156,-38.086,-36.621,0.000
1709141608.966,-37.598,-38.086,-35.645,-42.480,0.000
1709141608.970,-50.781,-50.781,-34.180,-35.156,0.000
1709141608.974,-35.645,-46.387,-41.992,-26.367,0.000
1709141608.977,-28.320,-33.203,-48.828,-31.738,0.000
1709141608.980,-33.203,-36.133,-38.086,-37.109,0.000
1709141608.984,-35.156,-43.945,-24.414,-39.551,0.000
1709141608.988,-40.527,-40.527,-26.855,-48.340,0.000
1709141608.992,-42.969,-41.016,-34.668,-49.316,0.000
1709141608.996,-46.875,-48.340,-46.387,-51.270,0.000
1709141609.000,-51.758,-41.992,-45.410,-52.246,0.000
1709141609.004,-55.664,-30.762,-22.461,-65.430,0.000
1709141609.008,-65.430,-41.504,-19.531,-77.637,0.000
1709141609.012,-61.523,-47.363,-27.344,-67.871,0.000
1709141609.015,-56.641,-33.691,-45.410,-59.082,0.000
1709141609.019,-62.988,-34.668,-48.828,-66.895,0.000
1709141609.023,-63.477,-39.551,-37.598,-60.547,0.000
1709141609.028,-41.992,-42.969,-34.180,-47.852,0.000
1709141609.032,-41.992,-51.270,-38.086,-47.852,0.000
1709141609.036,-50.293,-47.852,-34.668,-45.410,0.000
1709141609.040,-46.387,-51.758,-27.832,-38.086,0.000
1709141609.044,-44.434,-58.594,-33.203,-25.879,0.000
1709141609.048,-41.016,-45.410,-34.668,-25.391,0.000
1709141609.052,-38.574,-34.180,-34.180,-30.762,0.000
1709141609.056,-30.273,-29.785,-42.480,-33.691,0.000
1709141609.060,-30.273,-24.414,-51.758,-38.574,0.000
1709141609.063,-34.668,-35.156,-43.945,-40.039,0.000
1709141609.067,-33.691,-40.039,-45.410,-45.410,0.000
1709141609.071,-37.109,-39.062,-47.852,-44.922,0.000
1709141609.076,-37.109,-40.039,-41.504,-37.598,0.000
1709141609.080,-39.062,-44.922,-30.273,-45.410,0.000
1709141609.084,-45.898,-45.898,-32.227,-53.223,0.000
1709141609.088,-43.457,-38.574,-41.016,-50.781,0.000
1709141609.092,-47.363,-41.504,-28.809,-53.711,0.000
1709141609.096,-50.293,-47.363,-23.926,-52.246,0.000
1709141609.099,-47.363,-41.504,-26.855,-55.664,0.000
1709141609.103,-35.645,-41.016,-29.297,-59.570,0.000
1709141609.107,-33.691,-45.410,-25.879,-45.898,0.000
1709141609.111,-50.781,-43.457,-28.809,-46.875,0.000
1709141609.115,-47.363,-44.434,-44.434,-57.129,0.000
1709141609.119,-46.387,-41.992,-45.898,-52.246,0.000
1709141609.123,-49.316,-36.621,-38.574,-52.734,0.000
1709141609.127,-47.852,-36.621,-37.598,-56.641,0.000
1709141609.131,-50.293,-38.086,-37.598,-61.523,0.000
1709141609.135,-48.828,-41.992,-36.621,-58.594,0.000
1709141609.139,-53.711,-47.852,-41.992,-59.082,0.000
1709141609.143,-50.781,-50.293,-40.039,-56.152,0.000
1709141609.147,-45.410,-44.434,-31.738,-47.363,0.000
1709141609.151,-37.109,-39.062,-33.203,-40.527,0.000
1709141609.154,-32.715,-41.504,-35.645,-27.832,0.000
1709141609.158,-33.203,-41.016,-37.109,-23.926,0.000
1709141609.162,-22.949,-47.363,-46.387,-32.715,0.000
1709141609.166,-22.461,-37.109,-42.969,-33.691,0.000
1709141609.170,-29.785,-30.273,-39.551,-24.414,0.000
1709141609.174,-34.180,-34.668,-41.992,-35.645,0.000
1709141609.178,-33.691,-41.992,-36.133,-54.199,0.000
1709141609.182,-23.438,-44.434,-46.387,-55.664,0.000
1709141609.186,-29.785,-34.180,-45.410,-50.781,0.000
1709141609.190,-41.016,-36.621,-32.715,-40.527,0.000
1709141609.194,-29.785,-42.480,-42.969,-36.621,0.000
1709141609.197,-20.020,-48.340,-39.551,-33.203,0.000
1709141609.201,-31.250,-38.574,-30.273,-40.527,0.000
1709141609.205,-35.156,-16.602,-31.250,-44.434,0.000
1709141609.209,-38.086,-23.926,-22.461,-34.668,0.000
1709141609.213,-42.480,-46.875,-25.391,-34.180,0.000
1709141609.217,-37.598,-52.734,-30.762,-35.156,0.000
1709141609.221,-39.062,-44.434,-25.879,-43.457,0.000
1709141609.224,-41.016,-41.016,-31.738,-52.734,0.000
1709141609.228,-41.992,-45.898,-40.527,-60.059,0.000
1709141609.232,-45.898,-51.270,-33.203,-63.477,0.000
1709141609.236,-54.688,-48.340,-30.762,-53.223,0.000
1709141609.240,-56.152,-41.504,-27.344,-50.293,0.000
1709141609.244,-39.551,-26.855,-22.949,-44.922,0.000
1709141609.248,-37.109,-17.578,-24.902,-46.387,0.000
1709141609.252,-54.688,-36.621,-27.832,-52.246,0.000
1709141609.256,-55.176,-51.270,-34.180,-50.781,0.000
1709141609.260,-52.246,-47.852,-39.551,-47.363,0.000
1709141609.263,-51.270,-48.340,-30.273,-43.945,0.000
1709141609.267,-49.805,-52.734,-26.855,-38.574,0.000
1709141609.271,-39.062,-49.805,-33.203,-27.832,0.000
1709141609.275,-27.832,-54.199,-30.273,-16.113,0.000
1709141609.279,-23.926,-56.152,-41.504,-16.113,0.000
1709141609.283,-24.902,-38.574,-45.898,-25.879,0.000
1709141609.286,-21.973,-38.574,-28.320,-25.391,0.000
1709141609.290,-21.484,-39.551,-26.367,-9.277,0.000
1709141609.294,-27.344,-37.598,-35.156,-17.578,0.000
1709141609.298,-20.020,-46.875,-36.133,-14.160,0.000
1709141609.302,-20.020,-44.434,-32.227,-15.625,0.000
1709141609.306,-29.785,-38.086,-23.926,-39.062,0.000
1709141609.309,-41.992,-49.316,-31.738,-40.039,0.000
1709141609.313,-49.316,-50.293,-52.246,-37.109,0.000
1709141609.317,-39.551,-43.457,-44.434,-37.598,0.000
1709141609.321,-39.062,-45.410,-33.691,-39.551,0.000
1709141609.325,-36.133,-35.645,-32.227,-43.457,0.000
1709141609.329,-30.273,-35.645,-29.785,-61.523,0.000
1709141609.332,-38.086,-46.875,-32.227,-61.523,0.000
1709141609.336,-44.434,-48.340,-33.691,-50.781,0.000
1709141609.340,-36.133,-40.039,-31.738,-55.664,0.000
1709141609.344,-28.320,-46.875,-24.414,-49.316,0.000
1709141609.348,-31.738,-44.922,-37.109,-46.387,0.000
1709141609.352,-30.762,-35.645,-48.828,-40.527,0.000
1709141609.355,-26.367,-38.086,-34.668,-39.062,0.000
1709141609.359,-29.297,-35.645,-20.020,-38.574,0.000
1709141609.363,-29.785,-39.062,-20.508,-39.551,0.000
1709141609.367,-32.227,-34.180,-25.391,-40.527,0.000
1709141609.370,-36.621,-31.738,-28.320,-37.598,0.000
1709141609.374,-38.574,-37.109,-24.902,-38.086,0.000
1709141609.378,-39.551,-34.180,-29.297,-33.203,0.000
1709141609.382,-32.227,-25.391,-32.227,-26.855,0.000
1709141609.386,-29.297,-27.832,-22.949,-32.227,0.000
1709141609.390,-33.691,-36.621,-24.902,-25.879,0.000
1709141609.394,-36.133,-36.133,-32.227,-22.461,0.000
1709141609.398,-38.574,-46.387,-33.203,-32.227,0.000
1709141609.403,-41.992,-41.016,-28.809,-32.227,0.000
1709141609.407,-39.062,-32.715,-31.250,-33.203,0.000
1709141609.411,-39.551,-44.434,-28.809,-35.156,0.000
1709141609.415,-30.273,-45.898,-32.715,-39.062,0.000
1709141609.419,-26.855,-54.199,-34.668,-37.598,0.000
1709141609.423,-35.645,-49.316,-31.738,-34.180,0.000
1709141609.426,-29.297,-30.273,-31.250,-34.180,0.000
1709141609.430,-29.297,-32.715,-30.762,-26.855,0.000
1709141609.434,-32.715,-36.621,-45.410,-19.043,0.000
1709141609.438,-33.203,-35.156,-43.945,-31.250,0.000
1709141609.442,-33.691,-45.410,-23.926,-51.270,0.000
1709141609.446,-36.133,-47.852,-22.949,-54.688,0.000
1709141609.451,0.000,-44.922,0.000,-46.387,0.000
1709141609.455,0.000,-53.711,0.000,-39.551,0.000
1709141609.459,0.000,-46.875,0.000,-38.574,0.000
1709141609.463,0.000,-41.016,0.000,-36.621,0.000
1709141609.467,0.000,-42.969,0.000,-35.645,0.000
1709141609.471,0.000,-40.039,0.000,-34.180,0.000
1709141609.474,0.000,-36.621,0.000,-27.344,0.000
1709141609.478,0.000,-41.992,0.000,-31.250,0.000
1709141609.482,0.000,-51.758,0.000,-32.715,0.000
1709141609.486,0.000,-56.152,0.000,-30.273,0.000
1709141609.490,0.000,-46.387,0.000,-36.133,0.000
1709141609.494,0.000,-28.809,0.000,-42.480,0.000
1709141609.501,-36.621,-34.668,-34.180,-39.062,0.000
1709141609.505,-30.273,-44.434,-30.762,-23.926,0.000
1709141609.509,-34.668,-42.480,-38.086,-25.879,0.000
1709141609.512,-34.180,-30.762,-37.598,-23.438,0.000
1709141609.516,-39.062,-20.020,-43.457,-31.250,0.000
1709141609.520,-38.574,-23.438,-41.992,-46.387,0.000
1709141609.524,-32.227,-24.414,-28.320,-41.504,0.000
1709141609.528,-27.344,-24.414,-32.227,-37.598,0.000
1709141609.532,-21.484,-33.691,-30.762,-27.344,0.000
1709141609.536,-18.066,-37.598,-24.414,-20.020,0.000
1709141609.540,-14.648,-34.180,-19.531,-16.113,0.000
1709141609.544,-12.695,-37.598,-20.996,-20.508,0.000
1709141609.547,-16.113,-25.391,-31.250,-26.855,0.000
1709141609.551,-24.414,-16.113,-34.180,-33.203,0.000
1709141609.555,-28.809,-27.832,-39.551,-33.691,0.000
1709141609.559,-34.668,-35.156,-31.738,-35.645,0.000
1709141609.563,-24.902,-36.133,-38.574,-46.875,0.000
1709141609.567,-33.203,-35.645,-54.688,-45.410,0.000
1709141609.571,-46.387,-40.039,-36.621,-45.898,0.000
1709141609.574,-40.039,-45.898,-31.250,-54.688,0.000
1709141609.578,-47.363,-33.691,-32.227,-53.223,0.000
1709141609.582,-44.434,-25.879,-28.320,-42.969,0.000
1709141609.586,-41.016,-35.156,-32.715,-48.828,0.000
1709141609.590,-43.457,-45.898,-38.574,-42.969,0.000
1709141609.593,-44.434,-44.434,-45.898,-34.180,0.000
1709141609.597,-45.898,-28.809,-36.621,-46.387,0.000
1709141609.601,-42.480,-30.273,-28.320,-46.387,0.000
1709141609.605,-38.574,-43.457,-34.668,-42.969,0.000
1709141609.609,-45.410,-39.062,-33.203,-43.457,0.000
1709141609.613,-51.270,-37.598,-28.809,-57.617,0.000
1709141609.617,-54.688,-35.645,-23.438,-63.477,0.000
1709141609.621,-48.340,-38.086,-15.137,-51.270,0.000
1709141609.625,-48.828,-41.992,-28.809,-54.688,0.000
1709141609.628,-58.594,-42.480,-39.062,-58.594,0.000
1709141609.632,-49.805,-47.363,-32.715,-52.734,0.000
1709141609.636,-52.246,-40.039,-35.645,-54.688,0.000
1709141609.639,-45.898,-41.504,-37.109,-53.223,0.000
1709141609.643,-33.691,-45.898,-36.621,-47.363,0.000
1709141609.647,-40.527,-31.250,-40.039,-39.551,0.000
1709141609.651,-37.109,-29.297,-42.480,-36.133,0.000
1709141609.655,-31.738,-40.527,-47.852,-31.250,0.000
1709141609.659,-41.992,-44.922,-39.062,-30.762,0.000
1709141609.663,-47.852,-43.457,-31.250,-29.785,0.000
1709141609.667,-51.758,-35.645,-38.086,-29.297,0.000
1709141609.671,-44.434,-34.180,-41.992,-37.598,0.000
1709141609.675,-35.156,-49.805,-41.504,-41.504,0.000
1709141609.678,-41.992,-46.875,-40.527,-41.016,0.000
1709141609.682,-49.316,-33.691,-38.086,-47.363,0.000
1709141609.685,-51.270,-30.273,-50.781,-53.711,0.000
1709141609.689,-54.199,-32.227,-44.922,-64.941,0.000
1709141609.693,-48.828,-30.762,-27.344,-66.895,0.000
1709141609.697,-38.086,-34.180,-35.156,-47.363,0.000
1709141609.701,-46.875,-44.434,-45.898,-45.410,0.000
1709141609.705,-49.805,-46.387,-31.738,-53.223,0.000
1709141609.709,-35.156,-48.828,-22.461,-39.551,0.000
1709141609.713,-24.902,-46.387,-32.715,-27.344,0.000
1709141609.716,-18.066,-37.109,-38.574,-25.391,0.000
1709141609.720,-12.695,-41.992,-39.551,-24.414,0.000
1709141609.724,-24.902,-43.457,-41.992,-24.414,0.000
1709141609.728,-37.598,-36.133,-42.969,-26.367,0.000
1709141609.733,-40.527,-33.691,-36.133,-42.969,0.000
1709141609.737,-41.016,-34.180,-36.133,-55.664,0.000
1709141609.741,-41.992,-40.527,-43.457,-53.711,0.000
1709141609.745,-42.969,-40.039,-34.668,-55.176,0.000
1709141609.749,-41.504,-39.551,-23.438,-52.734,0.000
1709141609.753,-40.039,-47.852,-20.508,-43.945,0.000
1709141609.757,-40.039,-43.945,-27.344,-42.480,0.000
1709141609.761,-30.273,-38.574,-27.344,-44.922,0.000
1709141609.765,-36.621,-41.992,-38.574,-49.316,0.000
1709141609.768,-51.270,-52.734,-41.016,-39.551,0.000
1709141609.772,-47.852,-54.688,-36.621,-28.320,0.000
1709141609.776,-49.316,-48.340,-29.785,-35.645,0.000
1709141609.781,-49.316,-44.434,-26.855,-41.504,0.000
1709141609.785,-53.223,-42.969,-38.574,-47.852,0.000
1709141609.789,-53.711,-46.875,-30.273,-56.152,0.000
1709141609.793,-56.641,-45.898,-30.762,-53.223,0.000
1709141609.796,-59.570,-41.504,-32.715,-45.410,0.000
1709141609.800,-51.270,-39.062,-25.391,-36.621,0.000
1709141609.804,-45.410,-49.316,-28.320,-32.715,0.000
1709141609.808,-43.457,-40.039,-34.668,-40.039,0.000
1709141609.812,-39.551,-34.668,-50.781,-44.434,0.000
1709141609.816,-43.457,-56.152,-45.898,-42.969,0.000
1709141609.820,-44.434,-45.410,-30.273,-45.410,0.000
1709141609.824,-36.621,-26.855,-32.715,-43.945,0.000
1709141609.828,-35.156,-34.668,-33.691,-36.621,0.000
1709141609.832,-42.480,-41.504,-37.109,-26.855,0.000
1709141609.836,-36.133,-35.156,-38.574,-31.250,0.000
1709141609.840,-31.250,-34.668,-27.832,-30.762,0.000
1709141609.844,-29.785,-38.086,-30.273,-24.902,0.000
1709141609.848,-21.484,-40.039,-50.781,-35.645,0.000
1709141609.851,-31.738,-36.133,-41.016,-34.180,0.000
1709141609.855,-39.062,-30.762,-11.719,-29.785,0.000
1709141609.859,-32.227,-41.992,-1.465,-28.809,0.000
1709141609.863,-33.691,-39.062,-18.066,-34.668,0.000
1709141609.867,-40.039,-24.902,-34.180,-57.617,0.000
1709141609.871,-34.180,-43.945,-27.344,-59.570,0.000
1709141609.875,-38.574,-44.434,-28.320,-48.828,0.000
1709141609.879,-43.457,-21.484,-32.227,-51.270,0.000
1709141609.883,-41.992,-29.297,-27.832,-55.176,0.000
1709141609.887,-42.480,-34.668,-31.250,-51.270,0.000
1709141609.890,-42.480,-27.344,-41.504,-49.805,0.000
1709141609.894,-43.457,-34.180,-35.156,-53.223,0.000
1709141609.898,-49.316,-38.086,-22.461,-45.898,0.000
1709141609.902,-45.898,-23.926,-18.555,-37.598,0.000
1709141609.906,-24.414,-19.043,-20.508,-37.598,0.000
1709141609.910,-30.273,-19.531,-17.090,-38.574,0.000
1709141609.914,-42.480,-20.508,-12.207,-34.668,0.000
1709141609.918,-41.992,-29.785,-24.414,-29.785,0.000
1709141609.921,-38.086,-34.668,-27.344,-31.738,0.000
1709141609.925,-41.992,-32.227,-24.902,-35.645,0.000
1709141609.929,-53.711,-42.480,-35.645,-43.945,0.000
1709141609.933,-50.293,-40.039,-42.969,-48.828,0.000
1709141609.937,-44.922,-25.391,-39.551,-35.645,0.000
1709141609.941,-40.527,-35.156,-25.391,-27.344,0.000
1709141609.945,-37.598,-40.527,-16.602,-34.668,0.000
1709141609.949,-39.062,-32.227,-22.461,-44.434,0.000
1709141609.953,-41.016,-27.832,-24.902,-39.551,0.000
1709141609.956,-41.992,-27.344,-19.043,-43.945,0.000
1709141609.960,-37.109,-36.621,-23.926,-48.828,0.000
1709141609.964,-34.668,-44.922,-29.785,-48.340,0.000
1709141609.968,-35.645,-32.227,-38.086,-53.223,0.000
1709141609.972,-33.203,-21.973,-45.410,-54.688,0.000
1709141609.975,-36.621,-28.320,-42.969,-55.664,0.000
1709141609.979,-36.621,-39.062,-37.109,-57.617,0.000
1709141609.983,-44.434,-44.922,-31.250,-52.246,0.000
1709141609.987,-50.293,-43.457,-45.410,-51.270,0.000
1709141609.991,-47.363,-40.527,-53.223,-62.012,0.000
1709141609.995,-49.316,-41.016,-31.738,-53.223,0.000
1709141609.999,-50.781,-46.387,-24.414,-45.410,0.000
1709141610.003,-49.316,-43.457,-34.180,-53.711,0.000
1709141610.007,-48.340,-45.410,-41.992,-60.059,0.000
1709141610.011,-52.246,-47.363,-39.062,-60.547,0.000
1709141610.014,-55.176,-38.086,-32.715,-52.246,0.000
1709141610.018,-47.363,-32.715,-35.645,-47.363,0.000
1709141610.022,-38.086,-32.715,-47.363,-41.016,0.000
1709141610.025,-38.574,-37.109,-36.621,-33.691,0.000
1709141610.029,-39.062,-40.039,-30.762,-41.992,0.000
1709141610.033,-38.574,-42.480,-41.016,-47.363,0.000
1709141610.037,-32.715,-53.711,-35.645,-29.785,0.000
1709141610.041,-20.508,-53.711,-31.250,-21.484,0.000
1709141610.045,-24.902,-42.480,-35.156,-33.203,0.000
1709141610.049,-32.227,-37.598,-47.363,-51.270,0.000
1709141610.053,-22.949,-34.668,-59.570,-49.805,0.000
1709141610.057,-15.625,-41.504,-50.293,-41.016,0.000
1709141610.067,0.000,-39.062,0.000,-50.293,0.000
1709141610.071,0.000,-31.738,0.000,-56.641,0.000
1709141610.075,0.000,-41.504,0.000,-62.988,0.000
1709141610.079,0.000,-42.969,0.000,-62.500,0.000
1709141610.082,0.000,-32.227,0.000,-51.758,0.000
1709141610.086,0.000,-34.668,0.000,-47.852,0.000
1709141610.090,0.000,-41.016,0.000,-47.363,0.000
1709141610.094,0.000,-30.273,0.000,-43.945,0.000
1709141610.098,0.000,-33.203,0.000,-36.621,0.000
1709141610.102,0.000,-46.387,0.000,-41.016,0.000
1709141610.106,0.000,-48.340,0.000,-53.711,0.000
1709141610.110,0.000,-43.457,0.000,-51.758,0.000
1709141610.111,-33.691,-35.645,-40.527,-39.062,0.000
1709141610.115,-31.738,-33.691,-35.645,-40.039,0.000
1709141610.119,-36.133,-33.691,-34.668,-45.410,0.000
1709141610.123,-36.133,-38.086,-37.109,-52.734,0.000
1709141610.127,-34.180,-41.992,-43.457,-56.641,0.000
1709141610.131,-39.062,-38.086,-46.387,-53.223,0.000
1709141610.135,-37.598,-39.062,-37.598,-49.805,0.000
1709141610.139,-18.555,-46.387,-32.227,-46.387,0.000
1709141610.143,-25.879,-41.992,-29.297,-44.922,0.000
1709141610.147,-40.039,-46.875,-35.645,-44.922,0.000
1709141610.150,-33.691,-44.922,-36.621,-37.598,0.000
1709141610.154,-29.297,-29.785,-26.855,-42.480,0.000
1709141610.159,-32.227,-27.344,-31.738,-57.129,0.000
1709141610.162,-31.250,-35.645,-40.039,-49.316,0.000
1709141610.166,-25.391,-42.480,-41.992,-44.434,0.000
1709141610.170,-31.250,-40.527,-44.434,-55.664,0.000
1709141610.174,-37.598,-41.504,-47.363,-56.641,0.000
1709141610.178,-37.109,-38.086,-38.574,-44.434,0.000
1709141610.182,-39.551,-35.156,-31.738,-41.504,0.000
1709141610.186,-34.668,-40.527,-34.180,-38.086,0.000
1709141610.190,-26.367,-41.504,-40.039,-28.809,0.000
1709141610.194,-36.133,-43.457,-42.480,-41.016,0.000
1709141610.198,-40.039,-30.762,-36.133,-45.898,0.000
1709141610.201,-34.668,-33.203,-26.855,-38.086,0.000
1709141610.205,-34.180,-45.898,-26.367,-38.086,0.000
1709141610.209,-38.086,-34.668,-34.180,-37.598,0.000
1709141610.213,-36.621,-29.297,-39.062,-47.852,0.000
1709141610.217,-33.203,-24.414,-51.270,-48.340,0.000
1709141610.221,-47.363,-31.738,-53.223,-39.062,0.000
1709141610.225,-53.223,-48.340,-27.344,-39.551,0.000
1709141610.229,-45.410,-44.922,-29.297,-44.434,0.000
1709141610.233,-41.504,-39.551,-54.688,-54.688,0.000
1709141610.236,-35.156,-47.363,-42.480,-41.992,0.000
1709141610.240,-30.273,-51.758,-28.320,-31.250,0.000
1709141610.244,-32.227,-45.898,-36.133,-46.387,0.000
1709141610.248,-39.062,-43.457,-39.062,-53.711,0.000
1709141610.254,-41.992,-42.480,-37.109,-42.969,0.000
1709141610.258,-37.598,-36.621,-41.504,-28.809,0.000
1709141610.262,-35.156,-36.621,-40.039,-24.902,0.000
1709141610.266,-31.738,-38.086,-29.785,-36.133,0.000
1709141610.270,-35.156,-40.527,-31.250,-47.852,0.000
1709141610.274,-37.598,-40.039,-36.133,-48.828,0.000
1709141610.278,-36.621,-36.133,-45.410,-47.363,0.000
1709141610.282,-28.320,-33.691,-43.945,-44.922,0.000
1709141610.285,-33.203,-38.086,-30.762,-35.645,0.000
1709141610.289,-49.316,-35.645,-34.180,-39.551,0.000
1709141610.293,-42.969,-37.109,-36.133,-44.922,0.000
1709141610.297,-39.062,-43.945,-34.180,-34.180,0.000
1709141610.300,-49.316,-42.480,-39.062,-32.227,0.000
1709141610.304,-45.410,-37.598,-33.691,-40.527,0.000
1709141610.308,-34.668,-38.574,-34.180,-39.551,0.000
1709141610.312,-29.297,-43.945,-39.551,-50.781,0.000
1709141610.316,-29.785,-32.715,-38.086,-60.547,0.000
1709141610.320,-28.320,-26.855,-32.227,-47.363,0.000
1709141610.324,-29.297,-29.297,-32.227,-41.504,0.000
1709141610.328,-29.297,-31.250,-41.992,-38.086,0.000
1709141610.331,-27.344,-34.180,-48.340,-34.180,0.000
1709141610.335,-32.715,-39.551,-48.340,-36.621,0.000
1709141610.339,-40.527,-44.434,-46.387,-43.457,0.000
1709141610.343,-37.598,-43.457,-36.133,-35.645,0.000
1709141610.346,-34.180,-41.016,-30.762,-39.062,0.000
1709141610.350,-40.039,-37.598,-37.109,-56.152,0.000
1709141610.354,-46.387,-39.062,-42.969,-50.781,0.000
1709141610.358,-41.992,-41.504,-51.270,-47.852,0.000
1709141610.361,-28.809,-45.410,-50.781,-47.852,0.000
1709141610.365,-35.645,-45.898,-39.551,-51.758,0.000
1709141610.369,-51.758,-40.527,-37.109,-51.270,0.000
1709141610.373,-48.828,-40.039,-33.691,-38.086,0.000
1709141610.377,-46.875,-38.086,-33.203,-38.574,0.000
1709141610.381,-42.969,-37.598,-41.504,-42.480,0.000
1709141610.385,-43.457,-46.387,-43.457,-36.621,0.000
1709141610.389,-44.922,-43.457,-38.086,-38.086,0.000
1709141610.391,-36.133,-35.645,-26.855,-37.598,0.000
1709141610.395,-32.227,-37.109,-20.996,-32.227,0.000
1709141610.399,-32.715,-37.109,-26.855,-28.320,0.000
1709141610.403,-29.297,-40.527,-43.945,-31.738,0.000
1709141610.407,-22.461,-40.527,-39.062,-35.156,0.000
1709141610.411,-26.855,-36.133,-27.344,-35.645,0.000
1709141610.415,-34.668,-42.480,-30.762,-20.020,0.000
1709141610.419,-31.738,-41.504,-40.527,-15.137,0.000
1709141610.423,-25.391,-26.855,-33.203,-26.367,0.000
1709141610.426,-26.367,-32.715,-19.043,-33.203,0.000
1709141610.430,-40.527,-40.527,-32.715,-42.969,0.000
1709141610.434,-41.992,-37.598,-30.762,-42.480,0.000
1709141610.437,-38.574,-35.156,-24.902,-41.016,0.000
1709141610.441,-43.457,-35.645,-28.809,-47.363,0.000
1709141610.445,-41.504,-33.691,-16.113,-44.922,0.000
1709141610.449,-41.016,-39.551,-14.648,-45.898,0.000
1709141610.452,-43.457,-44.922,-32.715,-47.852,0.000
1709141610.456,-49.316,-40.039,-30.273,-40.527,0.000
1709141610.460,-51.758,-34.668,-25.879,-33.691,0.000
1709141610.464,-39.062,-35.156,-41.016,-46.875,0.000
1709141610.468,-29.297,-41.504,-38.086,-60.547,0.000
1709141610.472,-43.457,-40.527,-26.367,-57.617,0.000
1709141610.476,-44.922,-35.645,-34.180,-49.805,0.000
1709141610.480,-34.668,-41.992,-35.645,-46.387,0.000
1709141610.482,-41.504,-50.781,-27.344,-48.828,0.000
1709141610.486,-54.688,-53.223,-24.902,-43.945,0.000
1709141610.490,-42.969,-48.828,-21.973,-37.109,0.000
1709141610.494,-33.691,-36.133,-34.180,-38.574,0.000
1709141610.498,-36.621,-27.344,-44.434,-40.039,0.000
1709141610.502,-36.133,-27.832,-35.156,-36.621,0.000
1709141610.506,-32.715,-25.879,-35.156,-36.133,0.000
1709141610.509,-32.715,-19.531,-38.086,-34.668,0.000
1709141610.513,-30.762,-24.414,-30.762,-25.391,0.000
1709141610.517,-32.227,-34.668,-29.785,-19.043,0.000
1709141610.521,-28.809,-37.109,-29.785,-36.621,0.000
1709141610.525,-23.438,-36.621,-43.457,-55.176,0.000
1709141610.530,-32.715,-33.203,-47.852,-46.387,0.000
1709141610.534,-37.109,-38.574,-34.180,-37.109,0.000
1709141610.538,-32.715,-46.387,-31.250,-35.645,0.000
1709141610.542,-24.414,-38.086,-27.344,-35.156,0.000
1709141610.546,-25.879,-37.109,-25.391,-38.086,0.000
1709141610.550,-34.180,-38.574,-31.250,-31.738,0.000
1709141610.554,-38.574,-36.133,-32.227,-28.320,0.000
1709141610.558,-43.457,-38.574,-27.832,-27.832,0.000
1709141610.562,-31.738,-39.551,-30.762,-25.879,0.000
1709141610.566,-32.227,-41.504,-36.133,-43.945,0.000
1709141610.569,-52.246,-37.109,-47.363,-58.594,0.000
1709141610.573,-48.828,-32.227,-50.781,-54.199,0.000
1709141610.578,-47.852,-44.922,-30.762,-41.992,0.000
1709141610.582,-50.781,-55.176,-30.273,-34.668,0.000
1709141610.586,-50.293,-42.480,-37.598,-48.340,0.000
1709141610.589,-42.969,-36.133,-28.809,-55.664,0.000
1709141610.593,-37.598,-44.922,-27.832,-50.781,0.000
1709141610.597,-37.109,-48.828,-28.320,-47.363,0.000
1709141610.601,-39.062,-44.922,-28.320,-51.758,0.000
1709141610.605,-40.039,-39.062,-43.457,-43.945,0.000
1709141610.609,-33.691,-43.457,-43.457,-31.250,0.000
1709141610.613,-37.109,-39.551,-31.250,-43.945,0.000
1709141610.617,-43.945,-30.273,-32.715,-54.688,0.000
1709141610.621,-43.457,-30.273,-39.062,-44.922,0.000
1709141610.625,-39.062,-33.203,-30.762,-42.480,0.000
1709141610.629,-36.133,-31.738,-21.484,-51.758,0.000
1709141610.633,-33.691,-38.574,-27.832,-54.199,0.000
1709141610.636,-32.715,-40.527,-33.203,-43.457,0.000
1709141610.640,-36.621,-36.133,-30.273,-40.039,0.000
1709141610.644,-42.480,-37.109,-31.738,-43.457,0.000
1709141610.648,-42.480,-30.762,-35.156,-52.246,0.000
1709141610.652,-47.852,-36.621,-41.504,-48.828,0.000
1709141610.656,-49.316,-49.805,-45.410,-37.598,0.000
1709141610.660,-37.109,-39.062,-40.527,-45.898,0.000
1709141610.664,-31.738,-38.574,-39.062,-59.082,0.000
1709141610.668,-28.809,-51.758,-34.180,-57.617,0.000
1709141610.671,-36.133,-48.828,-23.438,-45.410,0.000
1709141610.675,-49.316,-30.762,-21.484,-44.434,0.000
1709141610.679,-44.434,-24.902,-23.438,-44.434,0.000
1709141610.683,-44.434,-31.250,-28.809,-37.598,0.000
1709141610.687,-48.340,-35.156,-39.062,-41.504,0.000
1709141610.691,-49.316,-38.086,-54.199,-53.711,0.000
1709141610.695,-52.246,-39.062,-54.199,-55.176,0.000
1709141610.699,-48.340,-45.410,-33.691,-37.598,0.000
1709141610.703,-39.551,-53.223,-20.508,-36.133,0.000
1709141610.706,-42.480,-50.781,-21.973,-54.199,0.000
1709141610.710,-50.293,-39.551,-26.367,-57.129,0.000
1709141610.714,-50.293,-39.062,-36.133,-51.270,0.000
1709141610.718,-45.410,-41.016,-39.551,-43.457,0.000
1709141610.722,-37.598,-35.645,-29.785,-35.645,0.000
1709141610.725,-35.156,-39.551,-25.879,-40.039,0.000
1709141610.729,-45.898,-47.852,-33.203,-49.316,0.000
1709141610.733,-50.781,-46.387,-40.039,-48.828,0.000
1709141610.737,-37.109,-52.734,-46.387,-47.852,0.000
1709141610.741,-30.273,-55.664,-41.992,-40.039,0.000
1709141610.745,-32.227,-45.898,-35.645,-37.598,0.000
1709141610.749,-20.996,-31.738,-33.691,-41.992,0.000
1709141610.753,-25.879,-36.621,-27.344,-37.109,0.000
1709141610.757,-38.574,-51.270,-23.926,-36.621,0.000
1709141610.761,-32.715,-37.109,-23.438,-50.781,0.000
1709141610.764,-40.527,-33.203,-27.832,-63.965,0.000
1709141610.768,-51.758,-39.062,-43.457,-63.477,0.000
1709141610.771,-46.875,-42.969,-53.223,-55.664,0.000
1709141610.775,-44.922,-39.551,-41.016,-52.734,0.000
1709141610.779,-45.898,-29.785,-26.855,-51.270,0.000
1709141610.783,-44.922,-32.227,-29.785,-67.383,0.000
1709141610.787,-48.340,-37.109,-43.945,-61.035,0.000
1709141610.791,-54.688,-42.969,-43.945,-51.270,0.000
1709141610.795,-54.199,-48.340,-38.086,-63.965,0.000
1709141610.799,-47.363,-46.387,-37.598,-61.035,0.000
1709141610.803,-41.016,-48.828,-44.922,-62.500,0.000
1709141610.807,-38.086,-44.434,-35.156,-62.988,0.000
1709141610.810,-48.828,-32.227,-33.203,-60.059,0.000
1709141610.814,-58.594,-33.203,-46.875,-68.359,0.000
1709141610.817,-60.547,-31.250,-39.062,-74.219,0.000
1709141610.821,-59.082,-37.109,-37.598,-68.359,0.000
1709141610.825,-54.688,-42.969,-34.180,-66.406,0.000
1709141610.829,-56.641,-39.551,-19.531,-62.500,0.000
1709141610.833,-50.293,-33.691,-26.855,-48.340,0.000
1709141610.837,-42.969,-34.668,-34.180,-46.875,0.000
1709141610.841,-31.250,-43.945,-28.320,-46.387,0.000
1709141610.845,-35.156,-38.574,-37.109,-40.039,0.000
1709141610.849,-37.598,-30.762,-30.762,-27.832,0.000
1709141610.853,-27.344,-29.297,-33.691,-35.156,0.000
1709141610.855,-29.785,-26.855,-55.664,-52.734,0.000
1709141610.859,-30.762,-23.926,-38.574,-43.945,0.000
1709141610.863,-26.855,-32.715,-26.855,-37.109,0.000
1709141610.867,-18.555,-35.156,-29.297,-36.621,0.000
1709141610.871,-18.066,-40.039,-27.344,-26.367,0.000
1709141610.875,-24.414,-51.758,-25.879,-16.602,0.000
1709141610.879,-27.832,-45.410,-28.809,-24.414,0.000
1709141610.883,-35.645,-38.086,-34.180,-29.785,0.000
1709141610.887,-41.992,-34.668,-37.109,-34.668,0.000
1709141610.891,-45.410,-40.039,-35.645,-31.250,0.000
1709141610.894,-44.434,-49.805,-25.879,-27.832,0.000
1709141610.898,-37.109,-38.086,-26.855,-31.250,0.000
1709141610.904,-40.527,-33.203,-30.273,-27.832,0.000
1709141610.907,-41.992,-40.527,-38.086,-29.297,0.000
1709141610.911,-39.551,-38.574,-30.762,-38.086,0.000
1709141610.915,-41.504,-46.875,-16.113,-46.387,0.000
1709141610.919,-37.109,-45.898,-27.344,-43.457,0.000
1709141610.923,-47.363,-36.621,-38.574,-48.340,0.000
1709141610.927,-58.105,-38.574,-40.039,-55.176,0.000
1709141610.931,-50.293,-36.133,-35.645,-59.082,0.000
1709141610.935,-47.852,-39.551,-35.156,-53.711,0.000
1709141610.939,-48.828,-44.922,-43.945,-42.480,0.000
1709141610.943,-41.992,-42.969,-40.527,-45.898,0.000
1709141610.946,-37.109,-42.480,-33.203,-52.246,0.000
1709141610.951,-40.039,-38.574,-25.391,-41.504,0.000
1709141610.955,-41.016,-43.945,-20.996,-42.480,0.000
1709141610.959,-36.133,-43.457,-33.203,-46.875,0.000
1709141610.963,-30.762,-36.133,-37.598,-46.387,0.000
1709141610.967,-36.621,-42.480,-37.109,-51.270,0.000
1709141610.971,-36.621,-38.086,-40.527,-50.293,0.000
1709141610.975,-31.738,-28.320,-48.828,-44.922,0.000
1709141610.979,-34.180,-34.668,-51.270,-48.828,0.000
1709141610.982,-37.598,-41.504,-43.945,-41.992,0.000
1709141610.986,-37.598,-39.551,-41.992,-41.016,0.000
1709141610.990,-38.086,-40.039,-37.109,-51.758,0.000
1709141610.994,-28.809,-41.016,-22.949,-41.016,0.000
1709141610.998,-29.785,-41.504,-24.902,-30.762,0.000
1709141611.002,-34.180,-37.598,-30.762,-38.086,0.000
1709141611.006,-30.273,-40.527,-34.180,-49.316,0.000
1709141611.010,-26.367,-43.457,-45.410,-49.316,0.000
1709141611.014,-17.578,-46.875,-38.086,-38.574,0.000
1709141611.018,-18.066,-42.480,-37.598,-30.273,0.000
1709141611.022,-11.230,-23.438,-50.293,-31.250,0.000
1709141611.026,-15.625,-31.250,-37.109,-31.738,0.000
1709141611.030,-27.832,-47.852,-28.809,-28.320,0.000
1709141611.033,-26.855,-42.480,-33.203,-32.227,0.000
1709141611.037,-31.250,-40.039,-27.344,-42.969,0.000
1709141611.041,-28.320,-42.969,-28.320,-52.734,0.000
1709141611.045,0.000,-31.738,-38.086,-53.711,0.000
1709141611.049,0.000,-30.273,-40.527,-56.641,0.000
1709141611.053,0.000,-39.062,-42.969,-55.176,0.000
1709141611.057,0.000,-36.621,-39.551,-46.875,0.000
1709141611.061,0.000,-32.227,-38.086,-49.805,0.000
1709141611.065,0.000,-42.969,-42.969,-54.688,0.000
1709141611.069,0.000,-42.480,-31.250,-53.711,0.000
1709141611.072,0.000,-35.645,-27.344,-41.016,0.000
1709141611.076,0.000,-35.156,-33.691,-28.809,0.000
1709141611.080,0.000,-43.945,-34.180,-41.992,0.000
1709141611.084,0.000,-49.316,-40.527,-50.781,0.000
1709141611.088,0.000,-42.969,-41.016,-43.945,0.000
1709141611.092,-36.621,-40.527,-25.879,-37.598,0.000
1709141611.095,-38.086,-41.504,-20.996,-40.039,0.000
1709141611.099,-28.809,-42.480,-26.855,-31.250,0.000
1709141611.103,-12.695,-32.715,-27.832,-23.438,0.000
1709141611.107,-23.926,-25.879,-35.156,-21.484,0.000
1709141611.111,-35.156,-30.762,-39.551,-22.461,0.000
1709141611.115,-25.391,-31.738,-26.855,-23.438,0.000
1709141611.119,-22.461,-27.832,-19.043,-10.742,0.000
1709141611.123,-29.785,-30.273,-26.855,-20.508,0.000
1709141611.127,-25.879,-44.434,-34.180,-35.156,0.000
1709141611.131,-27.832,-55.176,-37.598,-34.180,0.000
1709141611.135,-29.297,-48.828,-45.898,-38.086,0.000
1709141611.138,-28.809,-37.598,-38.574,-43.945,0.000
1709141611.142,-29.297,-29.785,-28.809,-45.410,0.000
1709141611.146,-28.320,-31.250,-33.203,-41.504,0.000
1709141611.150,-31.738,-34.668,-27.344,-38.574,0.000
1709141611.153,-37.109,-35.645,-25.391,-41.992,0.000
1709141611.157,-43.945,-38.086,-34.180,-41.992,0.000
1709141611.161,-50.293,-38.574,-28.320,-36.621,0.000
1709141611.165,-45.898,-42.480,-25.391,-40.039,0.000
1709141611.169,-41.992,-34.668,-32.715,-45.898,0.000
1709141611.173,-51.758,-25.391,-35.645,-37.598,0.000
1709141611.177,-46.387,-32.227,-41.992,-33.203,0.000
1709141611.181,-41.016,-30.273,-45.410,-42.480,0.000
1709141611.184,-43.945,-29.297,-43.457,-53.711,0.000
1709141611.188,-41.016,-35.645,-38.086,-49.316,0.000
1709141611.192,-38.086,-35.156,-31.738,-44.434,0.000
1709141611.196,-41.016,-37.109,-30.762,-44.922,0.000
1709141611.200,-41.016,-48.340,-29.785,-47.363,0.000
1709141611.203,-39.062,-45.410,-28.809,-46.875,0.000
1709141611.207,-41.992,-33.203,-39.062,-41.504,0.000
1709141611.211,-47.852,-37.109,-39.551,-47.363,0.000
1709141611.215,-50.781,-42.969,-34.180,-60.547,0.000
1709141611.219,-40.039,-41.504,-36.133,-49.805,0.000
1709141611.223,-37.598,-41.016,-37.598,-38.574,0.000
1709141611.227,-43.457,-40.527,-32.227,-39.062,0.000
1709141611.230,-37.109,-38.574,-25.391,-37.109,0.000
1709141611.234,-34.668,-37.109,-38.086,-38.574,0.000
1709141611.238,-36.133,-40.527,-45.898,-43.457,0.000
1709141611.241,-38.574,-36.133,-38.574,-40.039,0.000
1709141611.245,-39.551,-33.691,-24.414,-31.738,0.000
1709141611.249,-33.691,-39.062,-16.113,-30.273,0.000
1709141611.253,-26.367,-36.621,-18.066,-28.809,0.000
1709141611.257,-23.438,-31.738,-21.484,-32.227,0.000
1709141611.261,-25.391,-32.227,-31.250,-34.668,0.000
1709141611.265,-32.715,-35.645,-37.598,-35.645,0.000
1709141611.269,-34.668,-28.320,-40.039,-31.738,0.000
1709141611.273,-31.738,-28.320,-33.691,-30.273,0.000
1709141611.278,-31.250,-45.410,-27.832,-42.969,0.000
1709141611.282,-38.086,-47.363,-37.109,-57.129,0.000
1709141611.286,-40.527,-38.574,-43.945,-66.895,0.000
1709141611.290,-48.340,-45.410,-33.203,-68.848,0.000
1709141611.294,-51.270,-49.805,-18.555,-65.430,0.000
1709141611.298,-45.898,-40.039,-17.090,-61.035,0.000
1709141611.302,-46.875,-27.344,-23.438,-59.082,0.000
1709141611.305,-47.363,-27.344,-28.809,-63.965,0.000
1709141611.309,-44.922,-32.227,-34.180,-67.871,0.000
1709141611.313,-46.387,-34.668,-37.598,-65.430,0.000
1709141611.317,-55.176,-36.621,-41.992,-62.500,0.000
1709141611.321,-53.711,-47.852,-49.316,-51.758,0.000
1709141611.326,-50.781,-59.082,-49.316,-47.363,0.000
1709141611.330,-44.434,-45.410,-39.551,-38.574,0.000
1709141611.334,-34.180,-39.062,-22.949,-26.855,0.000
1709141611.338,-35.645,-38.574,-21.973,-30.762,0.000
1709141611.341,-41.504,-35.645,-37.109,-34.180,0.000
1709141611.345,-35.156,-38.574,-28.809,-39.551,0.000
1709141611.349,-31.738,-35.645,-19.043,-42.969,0.000
1709141611.353,-33.691,-32.715,-21.973,-36.133,0.000
1709141611.357,-32.715,-41.992,-31.250,-20.020,0.000
1709141611.361,-34.668,-41.016,-34.668,-13.184,0.000
1709141611.365,-32.715,-41.992,-35.645,-23.926,0.000
1709141611.369,-29.297,-44.922,-42.969,-25.879,0.000
1709141611.373,-34.668,-34.668,-38.574,-33.691,0.000
1709141611.377,-33.691,-27.344,-27.344,-36.133,0.000
1709141611.381,-29.785,-28.320,-23.438,-34.668,0.000
1709141611.385,-30.273,-34.668,-35.645,-36.621,0.000
1709141611.389,-25.391,-31.738,-42.969,-34.668,0.000
1709141611.393,-28.809,-25.879,-35.156,-30.762,0.000
1709141611.397,-34.668,-26.367,-28.809,-48.340,0.000
1709141611.400,-37.598,-36.621,-32.227,-62.012,0.000
1709141611.404,-40.527,-48.828,-39.062,-52.734,0.000
1709141611.408,-45.898,-43.457,-34.668,-53.223,0.000
1709141611.412,-47.363,-41.992,-35.645,-59.082,0.000
1709141611.416,-39.551,-44.922,-39.551,-55.176,0.000
1709141611.420,-41.992,-38.086,-35.156,-48.340,0.000
1709141611.424,-50.781,-30.762,-35.156,-55.176,0.000
1709141611.428,-43.457,-24.902,-38.574,-59.570,0.000
1709141611.432,-42.480,-27.832,-37.598,-53.223,0.000
1709141611.436,-48.340,-38.086,-32.227,-43.457,0.000
1709141611.440,-39.551,-40.527,-32.715,-37.598,0.000
1709141611.443,-35.156,-43.457,-28.809,-50.293,0.000
1709141611.447,-45.410,-50.293,-34.180,-46.875,0.000
1709141611.451,-44.922,-39.062,-32.227,-28.320,0.000
1709141611.455,-40.527,-34.180,-30.273,-35.156,0.000
1709141611.459,-37.598,-42.480,-23.438,-38.086,0.000
1709141611.463,-29.785,-42.480,-17.090,-29.297,0.000
1709141611.466,-32.715,-38.574,-27.344,-41.504,0.000
1709141611.470,-43.945,-30.762,-30.273,-50.293,0.000
1709141611.474,-39.551,-35.645,-30.762,-41.504,0.000
1709141611.478,-35.156,-50.781,-40.039,-37.109,0.000
1709141611.482,-31.738,-46.387,-41.016,-42.480,0.000
1709141611.486,-33.203,-40.039,-42.480,-55.664,0.000
1709141611.490,-38.086,-43.945,-39.551,-50.293,0.000
1709141611.494,-23.926,-43.945,-34.180,-36.133,0.000
1709141611.498,-23.926,-42.480,-45.898,-49.316,0.000
1709141611.502,-41.992,-36.621,-43.945,-61.523,0.000
1709141611.506,-40.527,-39.551,-28.320,-56.152,0.000
1709141611.509,-44.434,-47.852,-30.762,-56.641,0.000
1709141611.513,-50.293,-37.598,-32.227,-56.641,0.000
1709141611.517,-41.992,-35.645,-27.344,-50.293,0.000
1709141611.521,-40.527,-36.133,-28.320,-40.039,0.000
1709141611.524,-43.945,-36.621,-34.180,-32.715,0.000
1709141611.528,-42.480,-44.434,-43.457,-30.273,0.000
1709141611.532,-40.527,-50.293,-45.410,-35.156,0.000
1709141611.536,-47.363,-45.410,-41.504,-38.086,0.000
1709141611.540,-41.992,-37.109,-34.180,-34.668,0.000
1709141611.544,-31.738,-38.574,-31.738,-39.551,0.000
1709141611.548,-35.645,-36.621,-40.527,-43.457,0.000
1709141611.552,-35.156,-27.832,-44.922,-43.457,0.000
1709141611.556,-23.926,-28.320,-41.016,-36.133,0.000
1709141611.560,-20.508,-34.180,-41.016,-35.645,0.000
1709141611.563,-22.949,-40.039,-40.527,-38.086,0.000
1709141611.567,-16.113,-46.387,-42.480,-41.992,0.000
1709141611.571,-18.555,-49.316,-50.781,-45.410,0.000
1709141611.575,-22.461,-48.828,-52.246,-39.551,0.000
1709141611.579,-14.648,-44.922,-54.199,-36.621,0.000
1709141611.583,-3.418,-34.668,-55.176,-29.297,0.000
1709141611.587,-3.418,-27.344,-42.480,-32.715,0.000
1709141611.591,-3.418,-27.832,-33.203,-35.156,0.000
1709141611.595,-1.465,-31.250,-43.945,-34.668,0.000
1709141611.599,-1.953,-33.203,-40.527,-34.668,0.000
1709141611.603,-0.488,-37.109,-36.133,-31.250,0.000
1709141611.605,-7.812,-41.016,-42.480,-33.691,0.000
1709141611.609,-13.184,-44.434,-32.715,-33.691,0.000
1709141611.613,-8.301,-44.434,-31.738,-20.508,0.000
1709141611.617,-21.484,-41.992,-40.039,-18.066,0.000
1709141611.621,-33.203,-39.062,-38.086,-40.527,0.000
1709141611.625,-28.320,-43.945,-37.598,-47.363,0.000
1709141611.629,-23.438,-43.945,-34.668,-41.504,0.000
1709141611.633,-29.297,-38.086,-36.133,-50.293,0.000
1709141611.636,-32.227,-35.156,-36.621,-45.898,0.000
1709141611.640,-27.344,-32.227,-34.668,-27.344,0.000
1709141611.644,-27.832,-34.668,-41.504,-24.902,0.000
1709141611.648,-25.879,-40.527,-41.504,-29.785,0.000
1709141611.656,-25.879,-43.457,-41.504,-30.762,0.000
1709141611.660,-30.762,-40.527,-49.805,-34.668,0.000
1709141611.664,-31.738,-37.598,-39.062,-40.039,0.000
1709141611.668,-39.062,-44.434,-22.461,-43.457,0.000
1709141611.672,-44.922,-52.734,-27.832,-42.969,0.000
1709141611.675,-42.969,-43.945,-32.715,-42.969,0.000
1709141611.679,-48.828,-36.621,-35.156,-52.734,0.000
1709141611.683,-50.293,-40.527,-42.969,-57.617,0.000
1709141611.687,-41.504,-44.922,-40.039,-51.758,0.000
1709141611.691,-44.434,-42.480,-34.180,-54.688,0.000
1709141611.695,-36.133,-37.598,-40.527,-61.523,0.000
1709141611.699,-29.297,-41.504,-45.898,-55.176,0.000
1709141611.703,-42.969,-46.875,-42.480,-48.828,0.000
1709141611.707,-47.852,-46.387,-36.133,-48.340,0.000
1709141611.711,-39.062,-39.551,-42.969,-49.805,0.000
1709141611.715,-32.227,-32.227,-43.457,-49.805,0.000
1709141611.719,-41.504,-41.016,-31.250,-51.758,0.000
1709141611.723,-48.828,-52.246,-29.297,-54.199,0.000
1709141611.727,-43.457,-49.805,-33.203,-62.500,0.000
1709141611.731,-36.621,-39.062,-37.109,-61.035,0.000
1709141611.734,-35.645,-32.715,-35.645,-52.734,0.000
1709141611.738,-38.574,-31.250,-42.480,-54.199,0.000
1709141611.742,-36.621,-29.785,-44.434,-54.199,0.000
1709141611.746,-34.180,-31.738,-31.738,-44.922,0.000
1709141611.750,-45.410,-34.668,-28.809,-42.480,0.000
1709141611.754,-46.387,-29.297,-39.062,-49.805,0.000
1709141611.758,-37.109,-27.832,-52.734,-57.617,0.000
1709141611.762,-34.180,-34.180,-46.387,-50.293,0.000
1709141611.766,-35.156,-26.855,-31.738,-38.574,0.000
1709141611.770,-27.832,-22.461,-24.902,-37.109,0.000
1709141611.773,-25.391,-30.273,-28.320,-35.156,0.000
1709141611.777,-31.250,-35.156,-37.109,-27.832,0.000
1709141611.781,-27.344,-33.691,-30.273,-29.785,0.000
1709141611.785,-23.926,-37.598,-28.320,-42.480,0.000
1709141611.789,-20.020,-39.551,-27.832,-45.410,0.000
1709141611.793,-16.113,-34.668,-29.297,-35.645,0.000
1709141611.796,-10.254,-27.832,-36.621,-26.855,0.000
1709141611.800,-3.418,-20.996,-33.691,-20.020,0.000
1709141611.804,-7.324,-27.832,-37.598,-26.367,0.000
1709141611.808,-12.695,-35.645,-40.039,-35.645,0.000
1709141611.812,-14.160,-35.645,-28.809,-34.180,0.000
1709141611.816,-16.113,-42.969,-31.250,-33.203,0.000
1709141611.820,-21.484,-43.945,-39.062,-34.668,0.000
1709141611.824,-29.785,-41.016,-29.785,-33.691,0.000
1709141611.828,-32.227,-39.062,-22.461,-36.133,0.000
1709141611.832,-34.180,-39.551,-27.832,-43.945,0.000
1709141611.836,-37.109,-44.434,-35.156,-41.992,0.000
1709141611.839,-23.438,-44.922,-34.668,-33.691,0.000
1709141611.843,-29.785,-45.898,-26.855,-38.086,0.000
1709141611.847,-55.664,-49.316,-27.344,-54.199,0.000
1709141611.851,-54.688,-45.898,-29.297,-55.176,0.000
1709141611.854,-58.105,-42.480,-34.668,-49.316,0.000
1709141611.858,-55.664,-45.410,-54.688,-47.852,0.000
1709141611.862,-50.781,-43.945,-40.527,-43.457,0.000
1709141611.866,-55.176,-43.945,-19.043,-54.688,0.000
1709141611.870,-53.711,-45.898,-20.508,-43.457,0.000
1709141611.874,-59.570,-45.410,-23.926,-36.133,0.000
1709141611.878,-60.059,-47.852,-26.367,-56.152,0.000
1709141611.882,-49.805,-43.945,-27.832,-51.270,0.000
1709141611.886,-42.969,-45.410,-25.391,-36.133,0.000
1709141611.889,-36.133,-50.293,-24.902,-30.273,0.000
1709141611.893,-40.527,-40.527,-38.086,-36.621,0.000
1709141611.897,-48.828,-36.621,-51.758,-39.551,0.000
1709141611.900,-45.410,-35.645,-39.062,-42.480,0.000
1709141611.904,-46.387,-29.297,-30.273,-46.387,0.000
1709141611.908,-47.363,-33.691,-36.133,-44.922,0.000
1709141611.912,-42.480,-47.363,-39.551,-24.414,0.000
1709141611.916,-41.504,-43.457,-36.621,-11.719,0.000
1709141611.920,-45.410,-34.180,-17.578,-31.250,0.000
1709141611.924,-41.016,-44.434,-9.766,-34.668,0.000
1709141611.928,-36.621,-39.551,-24.902,-21.973,0.000
1709141611.932,-36.621,-43.457,-39.062,-14.160,0.000
1709141611.935,-21.484,-45.898,-29.785,-12.695,0.000
1709141611.939,-30.273,-37.598,-22.461,-26.855,0.000
1709141611.942,-45.410,-40.527,-21.973,-39.062,0.000
1709141611.946,-39.551,-38.086,-26.855,-40.039,0.000
1709141611.950,-41.504,-33.203,-31.738,-35.645,0.000
1709141611.954,-46.387,-34.668,-35.156,-33.203,0.000
1709141611.958,-53.223,-41.016,-32.227,-26.855,0.000
1709141611.962,-53.223,-39.551,-30.273,-19.531,0.000
1709141611.966,-50.781,-42.969,-41.992,-37.598,0.000
1709141611.970,-48.340,-43.457,-39.551,-42.969,0.000
1709141611.974,-53.711,-44.922,-26.855,-42.480,0.000
1709141611.978,-60.547,-55.664,-15.137,-45.898,0.000
1709141611.980,-58.105,-53.223,-10.742,-47.363,0.000
1709141611.984,-54.688,-31.738,-13.184,-45.898,0.000
1709141611.988,-49.316,-22.461,-23.438,-44.434,0.000
1709141611.992,-42.480,-28.809,-35.645,-44.922,0.000
1709141611.996,-44.922,-24.902,-35.156,-48.828,0.000
1709141612.000,-47.363,-31.738,-33.203,-50.781,0.000
1709141612.004,-54.688,-37.109,-41.992,-65.430,0.000
1709141612.008,-48.340,-21.973,-54.199,-77.148,0.000
1709141612.012,-42.969,-22.461,-44.434,-61.035,0.000
1709141612.016,-53.223,-32.227,-33.203,-58.105,0.000
1709141612.019,-46.387,-34.180,-41.992,-62.500,0.000
1709141612.023,-47.852,-36.133,-43.457,-66.895,0.000
1709141612.029,-49.316,-36.133,-42.480,-65.918,0.000
1709141612.032,-40.527,-33.203,-46.387,-62.500,0.000
1709141612.036,-44.434,-38.086,-48.340,-61.035,0.000
1709141612.040,-44.922,-48.340,-44.922,-51.758,0.000
1709141612.044,-39.551,-43.457,-44.922,-49.805,0.000
1709141612.048,-38.574,-33.691,-34.180,-51.270,0.000
1709141612.052,-37.109,-30.762,-35.645,-44.922,0.000
1709141612.056,-41.016,-33.203,-37.598,-38.086,0.000
1709141612.060,-45.410,-38.086,-33.691,-39.062,0.000
1709141612.064,-48.340,-37.598,-36.133,-39.551,0.000
1709141612.068,-50.293,-31.738,-37.109,-44.434,0.000
1709141612.072,-53.711,-32.227,-48.828,-45.410,0.000
1709141612.076,-57.129,-41.992,-41.992,-38.574,0.000
1709141612.080,-57.617,-34.668,-36.621,-44.922,0.000
1709141612.084,-57.617,-33.203,-40.527,-63.965,0.000
1709141612.088,-59.570,-43.945,-36.621,-68.848,0.000
1709141612.092,-57.129,-48.340,-33.691,-53.711,0.000
1709141612.096,-39.551,-49.316,-29.297,-44.922,0.000
1709141612.100,-43.457,-41.992,-27.832,-41.504,0.000
1709141612.104,-56.641,-25.879,-32.227,-42.969,0.000
1709141612.107,-47.363,-27.832,-38.574,-36.133,0.000
1709141612.111,-50.781,-33.203,-41.504,-23.438,0.000
1709141612.115,-49.805,-25.391,-37.109,-30.273,0.000
1709141612.119,-44.434,-33.203,-39.551,-40.527,0.000
1709141612.123,-49.805,-44.922,-49.316,-39.062,0.000
1709141612.127,-47.363,-45.898,-43.457,-38.086,0.000
1709141612.131,-47.363,-47.363,-37.598,-35.645,0.000
1709141612.135,-46.387,-40.039,-40.039,-38.086,0.000
1709141612.139,-42.969,-32.715,-37.109,-47.852,0.000
1709141612.143,-39.551,-37.598,-32.715,-55.176,0.000
1709141612.147,-39.551,-37.109,-29.785,-55.176,0.000
1709141612.151,-41.016,-38.574,-30.762,-47.852,0.000
1709141612.155,-41.992,-41.016,-39.551,-45.898,0.000
1709141612.159,-41.016,-35.645,-37.109,-49.316,0.000
1709141612.162,-38.086,-36.621,-39.062,-53.711,0.000
1709141612.166,-33.203,-40.039,-44.922,-52.246,0.000
1709141612.170,-33.691,-36.133,-35.156,-46.387,0.000
1709141612.174,-35.645,-38.574,-22.461,-47.852,0.000
1709141612.178,-33.203,-44.434,-26.855,-48.340,0.000
1709141612.182,-35.645,-40.039,-36.621,-46.875,0.000
1709141612.186,-43.457,-39.062,-39.062,-55.176,0.000
1709141612.190,-44.434,-46.387,-32.227,-63.477,0.000
1709141612.194,-46.387,-49.316,-31.250,-59.570,0.000
1709141612.198,-43.945,-57.129,-37.598,-42.969,0.000
1709141612.202,-41.504,-57.617,-43.945,-38.086,0.000
1709141612.205,-41.992,-50.781,-42.480,-55.176,0.000
1709141612.209,-41.016,-50.781,-28.320,-47.852,0.000
1709141612.213,-46.875,-46.875,-34.668,-37.598,0.000
1709141612.217,-41.992,-45.898,-38.574,-35.645,0.000
1709141612.221,-28.320,-46.875,-29.297,-30.762,0.000
1709141612.225,-26.367,-47.363,-34.180,-30.762,0.000
1709141612.228,-29.785,-50.781,-37.109,-38.574,0.000
1709141612.232,-29.785,-49.805,-30.762,-37.598,0.000
1709141612.236,-33.691,-53.711,-38.574,-36.621,0.000
1709141612.240,-40.527,-49.316,-39.551,-57.129,0.000
1709141612.244,-33.203,-39.551,-38.086,-52.734,0.000
1709141612.248,-29.785,-29.297,-45.410,-38.574,0.000
1709141612.252,-30.273,-29.785,-37.598,-41.992,0.000
1709141612.256,-31.738,-41.016,-27.832,-35.156,0.000
1709141612.260,-34.668,-36.621,-28.320,-34.668,0.000
1709141612.263,-29.297,-33.203,-33.203,-47.852,0.000
1709141612.267,-19.043,-35.645,-28.320,-50.781,0.000
1709141612.271,-34.668,-40.527,-22.461,-47.852,0.000
1709141612.275,-48.828,-43.945,-31.250,-49.805,0.000
1709141612.279,-41.992,-43.945,-36.621,-41.504,0.000
1709141612.282,-37.109,-53.223,-39.551,-43.457,0.000
1709141612.286,-35.645,-56.641,-42.480,-49.805,0.000
1709141612.290,-35.156,-44.434,-36.133,-39.551,0.000
1709141612.294,-36.133,-32.227,-29.297,-39.062,0.000
1709141612.298,-35.645,-33.203,-28.320,-46.387,0.000
1709141612.302,-29.785,-42.969,-26.855,-52.246,0.000
1709141612.306,-29.785,-45.410,-32.715,-53.223,0.000
1709141612.309,-41.016,-41.504,-39.062,-45.898,0.000
1709141612.313,-41.992,-48.828,-30.762,-33.203,0.000
1709141612.317,-32.227,-56.152,-22.461,-21.973,0.000
1709141612.321,-37.109,-45.410,-29.785,-26.367,0.000
1709141612.325,-47.363,-38.574,-37.598,-42.969,0.000
1709141612.329,-46.387,-41.504,-35.156,-38.086,0.000
1709141612.332,-45.898,-44.434,-21.484,-36.621,0.000
1709141612.336,-45.898,-45.410,-19.043,-52.734,0.000
1709141612.340,-39.062,-49.316,-29.297,-61.035,0.000
1709141612.344,-31.250,-45.410,-36.133,-61.035,0.000
1709141612.348,-38.574,-37.109,-42.480,-62.988,0.000
1709141612.352,-39.062,-31.250,-46.387,-67.383,0.000
1709141612.355,-36.621,-34.668,-45.898,-66.406,0.000
1709141612.359,-46.875,-38.574,-44.434,-63.965,0.000
1709141612.363,-39.551,-39.062,-38.574,-59.082,0.000
1709141612.367,-34.668,-42.969,-37.109,-41.992,0.000
1709141612.370,-35.156,-48.340,-35.645,-46.387,0.000
1709141612.374,-33.691,-53.711,-27.832,-51.270,0.000
1709141612.378,-35.156,-46.875,-24.902,-48.340,0.000
1709141612.382,-40.527,-50.293,-26.367,-57.617,0.000
1709141612.386,-44.434,-61.523,-28.320,-56.152,0.000
1709141612.390,-47.852,-43.945,-28.809,-47.363,0.000
1709141612.394,-45.410,-28.320,-33.203,-49.805,0.000
1709141612.398,-40.527,-25.879,-40.039,-65.918,0.000
1709141612.403,-34.180,-32.227,-31.250,-68.359,0.000
1709141612.407,-25.879,-40.527,-26.367,-51.758,0.000
1709141612.411,-29.785,-31.738,-35.156,-38.086,0.000
1709141612.415,-33.203,-26.367,-33.691,-36.133,0.000
1709141612.419,-29.297,-30.273,-31.738,-36.621,0.000
1709141612.423,-29.785,-36.133,-37.109,-39.551,0.000
1709141612.427,-40.039,-36.133,-35.156,-48.340,0.000
1709141612.430,-41.504,-33.203,-36.133,-48.340,0.000
1709141612.434,-40.527,-36.621,-41.504,-42.480,0.000
1709141612.438,-42.969,-44.434,-47.363,-37.109,0.000
1709141612.442,-31.250,-30.762,-33.691,-42.969,0.000
1709141612.446,-35.645,-27.832,-24.902,-55.176,0.000
1709141612.451,-41.992,-35.645,-34.668,-47.852,0.000
1709141612.455,-38.574,-38.086,-41.992,-45.898,0.000
1709141612.459,-29.785,-35.645,-31.250,-45.410,0.000
1709141612.463,-22.461,-35.156,-24.414,-40.039,0.000
1709141612.466,-32.227,-37.598,-22.949,-44.922,0.000
1709141612.470,-37.598,-38.574,-35.156,-45.898,0.000
1709141612.474,-42.969,-43.457,-45.410,-43.457,0.000
1709141612.478,-46.875,-37.109,-31.250,-43.457,0.000
1709141612.482,-50.293,-37.109,-35.156,-42.480,0.000
1709141612.486,-59.082,-38.574,-39.551,-44.434,0.000
1709141612.490,-55.664,-34.668,-25.391,-55.664,0.000
1709141612.494,-54.688,-34.668,-33.203,-65.918,0.000
1709141612.498,-59.082,-27.344,-51.758,-62.500,0.000
1709141612.502,-59.082,-29.297,-38.086,-58.105,0.000
1709141612.506,-51.270,-39.551,-26.367,-53.711,0.000
1709141612.510,-43.945,-38.574,-36.621,-48.340,0.000
1709141612.514,-40.039,-38.574,-43.457,-54.199,0.000
1709141612.518,-42.480,-38.086,-35.156,-47.852,0.000
1709141612.522,-40.039,-30.273,-30.273,-38.086,0.000
1709141612.525,-33.203,-42.969,-35.156,-40.527,0.000
1709141612.529,-36.621,-51.758,-38.574,-27.344,0.000
1709141612.533,-36.621,-34.180,-35.645,-18.555,0.000
1709141612.537,-19.531,-24.414,-41.992,-20.020,0.000
1709141612.541,-19.043,-34.668,-48.828,-19.531,0.000
1709141612.545,-34.180,-47.363,-33.691,-36.133,0.000
1709141612.549,-34.668,-39.551,-21.484,-48.828,0.000
1709141612.553,-37.109,-32.227,-23.438,-45.410,0.000
1709141612.557,-40.527,-32.715,-25.879,-42.480,0.000
1709141612.561,-34.668,-33.203,-27.832,-34.668,0.000
1709141612.564,-36.621,-36.621,-30.762,-30.762,0.000
1709141612.568,-39.062,-41.992,-37.598,-37.109,0.000
1709141612.572,-39.062,-43.457,-40.039,-20.508,0.000
1709141612.576,-48.340,-33.691,-42.969,-16.602,0.000
1709141612.580,-45.410,-31.250,-40.039,-36.621,0.000
1709141612.584,-34.180,-26.367,-41.992,-38.086,0.000
1709141612.588,-30.273,-35.645,-40.039,-30.273,0.000
1709141612.592,-35.156,-46.875,-28.809,-28.809,0.000
1709141612.595,-30.762,-32.715,-28.320,-31.250,0.000
1709141612.599,-29.785,-36.621,-37.109,-26.367,0.000
1709141612.603,-41.504,-41.504,-40.527,-33.203,0.000
1709141612.607,-42.480,-36.133,-44.434,-43.945,0.000
1709141612.611,-45.410,-44.922,-45.898,-41.504,0.000
1709141612.615,-41.504,-45.898,-42.969,-39.551,0.000
1709141612.619,-40.039,-33.203,-54.199,-34.668,0.000
1709141612.623,-39.551,-28.809,-58.594,-36.621,0.000
1709141612.627,-32.715,-35.156,-35.645,-41.504,0.000
1709141612.631,-31.250,-39.062,-19.531,-36.621,0.000
1709141612.634,-31.738,-38.574,-24.414,-30.273,0.000
1709141612.638,-36.133,-37.109,-30.273,-30.762,0.000
1709141612.642,-35.645,-39.551,-25.391,-43.457,0.000
1709141612.646,-31.738,-37.598,-18.555,-43.945,0.000
1709141612.650,-27.832,-30.762,-24.902,-38.574,0.000
1709141612.654,-25.391,-39.062,-34.180,-40.039,0.000
1709141612.658,-35.156,-42.480,-39.062,-40.527,0.000
1709141612.662,-46.875,-41.016,-44.922,-33.691,0.000
1709141612.666,-50.781,-41.016,-41.992,-26.367,0.000
1709141612.669,-52.246,-39.062,-25.879,-30.762,0.000
1709141612.673,-56.152,-40.039,-30.273,-41.016,0.000
1709141612.677,-52.734,-35.645,-45.410,-47.363,0.000
1709141612.681,-48.340,-33.203,-42.969,-41.992,0.000
1709141612.684,-49.316,-43.457,-38.574,-51.270,0.000
1709141612.688,-44.434,-47.852,-24.902,-57.129,0.000
1709141612.692,-49.316,-44.434,-34.668,-54.199,0.000
1709141612.696,-57.129,-34.180,-50.781,-58.594,0.000
1709141612.700,-50.293,-34.668,-37.598,-56.152,0.000
1709141612.704,-46.387,-47.363,-27.832,-53.223,0.000
1709141612.708,-38.086,-43.945,-30.762,-46.387,0.000
1709141612.712,-42.480,-38.574,-36.621,-43.945,0.000
1709141612.715,-57.617,-37.598,-33.203,-45.410,0.000
1709141612.719,-53.711,-46.875,-36.133,-54.199,0.000
1709141612.723,-49.805,-44.922,-37.109,-60.547,0.000
1709141612.727,-46.387,-36.621,-37.109,-48.340,0.000
1709141612.730,-40.527,-38.574,-44.434,-50.293,0.000
1709141612.734,-45.898,-41.504,-45.898,-51.270,0.000
1709141612.738,-46.387,-39.551,-36.621,-46.387,0.000
1709141612.742,-34.180,-31.738,-32.715,-53.223,0.000
1709141612.746,-33.691,-29.785,-32.715,-56.152,0.000
1709141612.749,-37.109,-35.156,-34.668,-44.434,0.000
1709141612.753,-42.480,-38.574,-42.480,-35.156,0.000
1709141612.757,-32.715,-36.133,-46.875,-29.297,0.000
1709141612.761,-31.738,-37.598,-34.668,-40.527,0.000
1709141612.765,-50.293,-39.551,-21.973,-49.805,0.000
1709141612.769,-50.781,-30.273,-34.180,-42.480,0.000
1709141612.773,-49.316,-28.320,-42.480,-46.387,0.000
1709141612.778,-50.781,-36.621,-32.715,-59.570,0.000
1709141612.782,-45.898,-40.039,-34.180,-69.824,0.000
1709141612.786,-54.199,-41.992,-43.945,-65.918,0.000
1709141612.790,-63.965,-38.574,-41.504,-63.477,0.000
1709141612.794,-56.152,-46.875,-41.504,-50.781,0.000
1709141612.798,-57.129,-48.828,-38.574,-39.551,0.000
1709141612.802,-60.547,-41.504,-40.039,-47.363,0.000
1709141612.805,-39.551,-47.852,-38.574,-49.805,0.000
1709141612.809,-46.875,-47.852,-35.156,-38.574,0.000
1709141612.813,-55.664,-35.156,-31.738,-32.227,0.000
1709141612.817,-48.828,-27.832,-43.457,-32.227,0.000
1709141612.821,-43.945,-36.133,-42.969,-25.391,0.000
1709141612.826,-40.039,-39.551,-30.762,-23.438,0.000
1709141612.830,-42.480,-35.156,-30.762,-37.598,0.000
1709141612.834,-33.203,-36.133,-38.574,-43.945,0.000
1709141612.838,-31.250,-31.250,-42.480,-41.504,0.000
1709141612.841,-41.992,-32.715,-42.969,-40.039,0.000
1709141612.845,-44.434,-41.992,-45.410,-41.504,0.000
1709141612.849,-41.992,-38.574,-33.203,-43.457,0.000
1709141612.853,-40.039,-30.762,-19.531,-41.992,0.000
1709141612.857,-33.691,-35.645,-25.879,-25.391,0.000
1709141612.861,-30.273,-33.691,-24.902,-19.043,0.000
1709141612.865,-34.180,-28.809,-21.484,-36.133,0.000
1709141612.869,-39.062,-36.621,-28.320,-39.062,0.000
1709141612.873,-38.574,-29.297,-25.879,-40.527,0.000
1709141612.877,-31.738,-32.227,-26.367,-44.922,0.000
1709141612.881,-23.926,-39.062,-30.762,-43.457,0.000
1709141612.885,-29.785,-25.879,-36.621,-45.898,0.000
1709141612.889,-42.969,-27.344,-30.273,-49.805,0.000
1709141612.893,-34.180,-35.645,-13.672,-36.621,0.000
1709141612.896,-38.086,-28.320,-22.461,-22.949,0.000
1709141612.900,-33.691,-26.855,-35.645,-16.602,0.000
1709141612.904,-29.297,-38.086,-28.809,-11.230,0.000
1709141612.908,-48.828,-34.668,-30.273,-20.020,0.000
1709141612.912,-49.805,-36.133,-30.273,-22.949,0.000
1709141612.916,-45.898,-43.457,-25.391,-22.949,0.000
1709141612.920,-46.387,-42.969,-37.109,-36.621,0.000
1709141612.924,-50.293,-35.156,-40.039,-57.129,0.000
1709141612.928,-50.781,-33.203,-37.109,-57.617,0.000
1709141612.932,-49.805,-41.016,-31.738,-41.504,0.000
1709141612.935,-49.316,-34.180,-21.973,-42.480,0.000
1709141612.939,-46.875,-38.574,-31.250,-53.223,0.000
1709141612.943,-41.504,-47.363,-48.340,-49.805,0.000
1709141612.947,-47.852,-45.410,-42.480,-40.039,0.000
1709141612.951,-47.363,-45.898,-26.855,-39.062,0.000
1709141612.955,-41.016,-42.480,-23.926,-47.852,0.000
1709141612.959,-47.852,-39.062,-28.320,-52.734,0.000
1709141612.963,-45.410,-32.227,-33.691,-50.781,0.000
1709141612.966,-32.715,-40.039,-34.180,-47.363,0.000
1709141612.970,-23.926,-45.410,-32.227,-44.434,0.000
1709141612.974,-25.879,-34.180,-34.668,-49.805,0.000
1709141612.978,-21.973,-33.203,-34.180,-50.781,0.000
1709141612.982,-19.043,-37.109,-41.504,-47.852,0.000
1709141612.986,-29.785,-40.527,-48.828,-48.340,0.000
1709141612.990,-23.926,-39.551,-38.086,-46.875,0.000
1709141612.994,-18.555,-44.922,-30.762,-39.062,0.000
1709141612.998,-24.902,-40.039,-24.902,-40.527,0.000
1709141613.001,-28.809,-35.645,-34.180,-44.434,0.000
1709141613.005,-28.320,-47.363,-38.574,-39.551,0.000
1709141613.009,-30.762,-41.992,-27.344,-38.574,0.000
1709141613.013,-30.762,-27.344,-30.273,-35.645,0.000
1709141613.017,-27.832,-25.879,-35.156,-40.039,0.000
1709141613.020,-26.855,-33.691,-43.945,-45.410,0.000
1709141613.024,-30.273,-36.621,-44.434,-51.758,0.000
1709141613.028,-28.809,-33.203,-32.715,-54.199,0.000
1709141613.032,-28.809,-29.785,-31.738,-47.363,0.000
1709141613.036,-26.855,-32.227,-29.297,-30.273,0.000
1709141613.040,-26.855,-28.809,-36.133,-20.508,0.000
1709141613.044,-35.156,-27.832,-42.480,-47.363,0.000
1709141613.048,-37.109,-34.180,-37.598,-50.293,0.000
1709141613.052,-45.898,-36.621,-40.527,-39.062,0.000
1709141613.056,-36.133,-35.156,-41.504,-43.945,0.000
1709141613.059,-27.832,-36.621,-33.691,-45.898,0.000
1709141613.063,-45.410,-42.480,-34.668,-52.246,0.000
1709141613.066,-46.875,-41.504,-46.875,-56.641,0.000
1709141613.070,-47.363,-34.180,-50.781,-55.176,0.000
1709141613.074,-50.781,-38.574,-43.945,-52.734,0.000
1709141613.078,-51.270,-36.133,-37.109,-56.641,0.000
1709141613.082,-45.410,-28.809,-36.133,-48.828,0.000
1709141613.086,-47.363,-35.156,-37.109,-55.176,0.000
1709141613.090,-49.316,-39.062,-34.668,-56.641,0.000
1709141613.094,-44.434,-42.480,-34.180,-42.969,0.000
1709141613.098,-44.434,-48.828,-39.551,-42.480,0.000
1709141613.102,-41.504,-54.688,-36.133,-46.387,0.000
1709141613.107,-34.668,-53.711,-33.691,-44.434,0.000
1709141613.111,-35.645,-38.574,-40.039,-34.180,0.000
1709141613.115,-36.621,-44.922,-35.156,-29.785,0.000
1709141613.119,-28.809,-55.664,-17.578,-27.832,0.000
1709141613.123,-26.367,-36.133,-16.113,-35.645,0.000
1709141613.127,-24.902,-23.926,-26.367,-32.227,0.000
1709141613.131,-26.367,-29.785,-34.668,-36.133,0.000
1709141613.134,-20.996,-33.203,-36.133,-42.480,0.000
1709141613.138,-11.230,-32.227,-19.531,-30.762,0.000
1709141613.142,-17.578,-36.133,-23.438,-35.156,0.000
1709141613.146,-25.391,-29.297,-32.227,-37.598,0.000
1709141613.150,-20.996,-22.949,-38.086,-33.691,0.000
1709141613.155,-19.531,-22.949,-47.363,-31.738,0.000
1709141613.159,-20.996,-39.062,-38.086,-33.691,0.000
1709141613.163,-20.020,-52.734,-24.902,-34.668,0.000
1709141613.167,-25.879,-40.527,-28.809,-43.945,0.000
1709141613.171,-50.293,-32.715,-35.156,-56.152,0.000
1709141613.175,-55.176,-40.527,-37.598,-56.152,0.000
1709141613.178,-51.758,-44.434,-33.203,-57.617,0.000
1709141613.182,-55.664,-39.551,-24.414,-64.453,0.000
1709141613.186,-46.875,-38.574,-29.785,-59.082,0.000
1709141613.190,-40.527,-37.109,-44.434,-46.875,0.000
1709141613.194,-41.504,-38.086,-38.574,-43.945,0.000
1709141613.198,-40.527,-36.133,-38.086,-44.434,0.000
1709141613.202,-43.457,-37.598,-56.641,-41.016,0.000
1709141613.206,-46.875,-39.551,-49.805,-41.016,0.000
1709141613.210,-48.828,-45.410,-37.598,-38.086,0.000
1709141613.214,-44.434,-55.176,-41.016,-41.992,0.000
1709141613.218,-34.180,-42.969,-50.781,-48.828,0.000
1709141613.222,-34.668,-39.551,-48.340,-46.387,0.000
1709141613.226,-27.832,-42.969,-31.250,-43.945,0.000
1709141613.230,-21.973,-37.109,-28.320,-49.316,0.000
1709141613.234,-35.645,-45.410,-38.086,-41.992,0.000
1709141613.237,-42.480,-40.039,-49.316,-36.621,0.000
1709141613.241,-32.715,-25.879,-39.551,-49.316,0.000
1709141613.245,-21.973,-26.855,-25.391,-48.340,0.000
1709141613.249,-21.484,-30.273,-36.621,-38.574,0.000
1709141613.253,-28.320,-27.832,-45.898,-32.715,0.000
1709141613.257,-29.785,-36.133,-42.969,-30.762,0.000
1709141613.261,-32.227,-47.852,-41.992,-42.969,0.000
1709141613.265,-40.039,-38.574,-33.203,-62.500,0.000
1709141613.269,-44.922,-32.715,-27.344,-58.594,0.000
1709141613.273,-50.293,-33.203,-31.738,-47.852,0.000
1709141613.277,-53.711,-41.016,-40.527,-57.129,0.000
1709141613.281,-38.086,-47.852,-41.504,-52.246,0.000
1709141613.284,-43.945,-44.922,-36.133,-48.340,0.000
1709141613.288,-64.453,-36.133,-33.691,-53.711,0.000
1709141613.292,-55.664,-41.992,-40.527,-51.270,0.000
1709141613.296,-38.574,-50.293,-48.340,0.000,0.000
1709141613.300,-41.016,-34.180,-34.180,0.000,0.000
1709141613.304,-45.410,-31.738,-26.367,0.000,0.000
1709141613.308,-45.410,-47.852,-32.227,0.000,0.000
1709141613.312,-47.363,-43.457,-26.855,0.000,0.000
1709141613.316,-40.527,-32.715,-26.855,0.000,0.000
1709141613.320,-25.391,-31.250,-36.621,0.000,0.000
1709141613.324,-19.531,-36.133,-36.621,0.000,0.000
1709141613.327,-28.320,-42.969,-31.738,0.000,0.000
1709141613.331,-30.273,-30.273,-31.250,0.000,0.000
1709141613.335,-32.715,-21.484,-38.574,0.000,0.000
1709141613.339,-20.508,-29.297,-35.156,0.000,0.000
1709141613.342,-16.602,-31.250,-40.527,-38.086,0.000
1709141613.346,-39.062,-27.344,-43.945,-37.598,0.000
1709141613.350,-39.062,-21.973,-33.691,-43.457,0.000
1709141613.354,-32.227,-23.438,-25.879,-36.621,0.000
1709141613.358,-37.598,-36.133,-26.367,-39.551,0.000
1709141613.362,-33.691,-34.668,-32.227,-49.805,0.000
1709141613.366,-33.203,-41.992,-38.086,-66.406,0.000
1709141613.370,-38.574,-56.152,-38.574,-63.965,0.000
1709141613.374,-38.086,-42.480,-41.016,-50.293,0.000
1709141613.378,-40.527,-29.297,-46.387,-56.641,0.000
1709141613.382,-44.434,-34.180,-48.828,-66.895,0.000
1709141613.385,-49.805,-33.691,-41.016,-68.359,0.000
1709141613.389,-52.246,-29.785,-35.645,-57.129,0.000
1709141613.392,-43.945,-29.297,-42.969,-51.270,0.000
1709141613.396,-35.156,-32.227,-37.598,-38.086,0.000
1709141613.400,-40.039,-40.527,-24.902,-36.133,0.000
1709141613.404,-37.598,-36.621,-18.066,-39.062,0.000
1709141613.408,-38.574,-31.250,-21.973,-35.156,0.000
1709141613.412,-41.504,-40.039,-24.902,-28.809,0.000
1709141613.416,-36.621,-40.527,-27.832,-22.461,0.000
1709141613.420,-34.180,-36.621,-39.062,-27.344,0.000
1709141613.424,-31.738,-42.480,-44.922,-38.574,0.000
1709141613.428,-33.691,-41.992,-35.156,-50.781,0.000
1709141613.432,-40.039,-34.180,-29.297,-46.387,0.000
1709141613.434,-40.527,-26.367,-32.227,-39.062,0.000
1709141613.438,-40.527,-26.855,-37.109,-32.227,0.000
1709141613.442,-37.598,-33.691,-34.180,-24.902,0.000
1709141613.446,-33.203,-36.621,-19.531,-25.879,0.000
1709141613.450,-30.762,-37.109,-18.555,-32.715,0.000
1709141613.454,-33.203,-43.457,-22.461,-36.621,0.000
1709141613.458,-25.879,-38.574,-18.066,-26.367,0.000
1709141613.462,-30.273,-28.809,-23.926,-23.438,0.000
1709141613.466,-45.410,-34.180,-41.504,-37.109,0.000
1709141613.470,-50.293,-39.551,-40.039,-43.457,0.000
1709141613.474,-44.434,-41.016,-27.344,-35.156,0.000
1709141613.477,-37.109,-35.645,-23.438,-31.738,0.000
1709141613.480,-44.922,-32.715,-29.297,-47.852,0.000
1709141613.484,-46.875,-33.691,-37.598,-54.199,0.000
1709141613.488,-45.898,-39.062,-41.016,-51.270,0.000
1709141613.492,-49.316,-36.621,-36.621,-50.781,0.000
1709141613.496,-46.387,-40.039,-34.180,-48.828,0.000
1709141613.500,-44.922,-51.270,-37.598,-43.945,0.000
1709141613.504,-44.922,-44.434,-34.668,-41.016,0.000
1709141613.508,-44.434,-38.574,-37.109,-47.363,0.000
1709141613.512,-48.828,-37.109,-24.902,-43.945,0.000
1709141613.515,-58.594,-33.691,-18.066,-41.016,0.000
1709141613.519,-41.992,-24.902,-24.902,-42.969,0.000
1709141613.523,-24.414,-25.879,-19.043,-40.527,0.000
1709141613.528,-23.926,-37.109,-21.973,-39.062,0.000
1709141613.532,-30.273,-35.156,-30.273,-31.738,0.000
1709141613.536,-29.785,-29.297,-29.785,-29.297,0.000
1709141613.540,-27.344,-24.902,-34.668,-26.367,0.000
1709141613.544,-29.785,-40.039,-36.133,-31.738,0.000
1709141613.548,-29.785,-51.270,-24.414,-45.898,0.000
1709141613.552,-31.250,-26.367,-29.785,-48.340,0.000
1709141613.556,-36.133,-21.973,-44.922,-49.805,0.000
1709141613.560,-33.691,-35.156,-35.645,-48.828,0.000
1709141613.564,-38.086,-45.410,-25.391,-34.668,0.000
1709141613.567,-34.668,-41.016,-23.926,-37.598,0.000
1709141613.571,-21.484,-26.855,-26.367,-47.852,0.000
1709141613.576,-36.133,-23.438,-31.250,-37.598,0.000
1709141613.580,-47.852,-36.133,-37.598,-36.621,0.000
1709141613.584,-41.992,-41.016,-39.062,-37.598,0.000
1709141613.588,-39.551,-34.180,-33.203,-34.180,0.000
1709141613.592,-44.434,-33.203,-28.320,-46.875,0.000
1709141613.596,-42.969,-35.645,-31.738,-47.852,0.000
1709141613.599,-38.086,-35.156,-41.016,-43.457,0.000
1709141613.603,-41.992,-37.598,-38.574,-55.664,0.000
1709141613.607,-43.945,-38.086,-26.367,-47.852,0.000
1709141613.611,-47.363,-38.086,-30.762,-26.367,0.000
1709141613.615,-45.898,-34.180,-33.691,-34.668,0.000
1709141613.619,-32.715,-24.414,-26.855,-41.992,0.000
1709141613.623,-28.320,-29.785,-25.879,-37.598,0.000
1709141613.627,-39.551,-42.969,-35.156,-44.434,0.000
1709141613.631,-40.039,-35.645,-39.551,-49.316,0.000
1709141613.635,-30.273,-35.156,-32.715,-47.852,0.000
1709141613.639,-38.086,-43.945,-30.762,-36.133,0.000
1709141613.643,-42.969,-42.480,-48.340,-33.691,0.000
1709141613.647,-39.551,-35.645,-45.898,-34.668,0.000
1709141613.651,-35.645,-33.203,-21.973,-33.203,0.000
1709141613.654,-28.809,-31.738,-24.414,-21.484,0.000
1709141613.658,-30.273,-32.227,-34.180,-16.113,0.000
1709141613.662,-35.156,-32.227,-37.598,-41.016,0.000
1709141613.666,-40.039,-31.738,-34.668,-54.199,0.000
1709141613.670,-41.016,-33.203,-28.320,-44.434,0.000
1709141613.674,-41.016,-35.156,-37.109,-37.598,0.000
1709141613.678,-40.039,-31.738,-51.270,-33.691,0.000
1709141613.682,-37.109,-35.645,-44.434,-32.227,0.000
1709141613.686,-34.668,-36.133,-39.062,-41.504,0.000
1709141613.690,-35.156,-27.344,-47.852,-40.039,0.000
1709141613.693,-41.992,-33.691,-55.176,-38.086,0.000
1709141613.697,-41.992,-47.363,-36.621,-33.691,0.000
1709141613.701,-39.551,-42.969,-22.461,-37.598,0.000
1709141613.705,-41.504,-31.250,-32.715,-57.617,0.000
1709141613.709,-37.109,-36.133,-41.016,-56.152,0.000
1709141613.713,-28.809,-36.621,-43.945,-48.340,0.000
1709141613.717,-40.527,-35.645,0.000,-54.688,0.000
1709141613.721,-40.527,-33.691,0.000,-58.105,0.000
1709141613.725,-31.250,-36.133,0.000,-50.293,0.000
1709141613.729,-31.250,-46.387,0.000,-51.270,0.000
1709141613.733,-36.133,-39.062,0.000,-51.758,0.000
1709141613.737,-38.574,-31.738,0.000,-49.805,0.000
1709141613.741,-33.691,-38.086,0.000,-45.898,0.000
1709141613.745,-28.809,-47.852,0.000,-27.344,0.000
1709141613.749,-37.109,-42.969,0.000,-27.832,0.000
1709141613.753,-45.898,-33.203,0.000,-32.715,0.000
1709141613.756,-41.016,-31.738,0.000,-27.832,0.000
1709141613.760,-35.156,-37.598,0.000,-29.297,0.000
1709141613.763,-33.203,-47.363,-43.457,-23.926,0.000
1709141613.767,-39.062,-46.387,-39.551,-29.297,0.000
1709141613.771,-40.039,-44.922,-45.898,-29.297,0.000
1709141613.775,-34.180,-40.527,-34.668,-21.973,0.000
1709141613.779,-28.320,-32.715,-26.855,-25.391,0.000
1709141613.783,-29.785,-30.762,-28.320,-46.387,0.000
1709141613.787,-32.715,-35.156,-25.391,-59.082,0.000
1709141613.791,-31.738,-31.250,-25.391,-48.828,0.000
1709141613.795,-29.785,-30.762,-25.879,-53.711,0.000
1709141613.799,-39.551,-44.434,-28.809,-66.895,0.000
1709141613.802,-55.664,-43.457,-35.156,-63.477,0.000
1709141613.806,-50.293,-41.504,-43.945,-65.430,0.000
1709141613.809,-44.434,-38.086,-45.898,-69.824,0.000
1709141613.813,-53.223,-35.645,-43.457,-66.406,0.000
1709141613.817,-55.664,-38.086,-45.898,-67.871,0.000
1709141613.821,-51.270,-36.621,-45.410,-60.547,0.000
1709141613.825,-42.480,-36.133,-33.203,-47.852,0.000
1709141613.829,-43.457,-41.016,-31.250,-53.223,0.000
1709141613.833,-41.992,-43.945,-39.062,-53.711,0.000
1709141613.837,-38.574,-45.410,-30.762,-47.363,0.000
1709141613.841,-43.945,-47.852,-32.227,-55.664,0.000
1709141613.845,-40.039,-44.434,-39.551,-57.129,0.000
1709141613.848,-38.574,-45.898,-34.668,-50.781,0.000
1709141613.852,-39.551,-43.457,-39.062,-45.410,0.000
1709141613.855,-38.574,-34.668,-42.969,-39.062,0.000
1709141613.859,-37.598,-32.715,-43.945,-31.738,0.000
1709141613.863,-43.457,-38.086,-56.641,-26.367,0.000
1709141613.867,-33.203,-40.039,-60.547,-25.391,0.000
1709141613.871,-29.785,-37.598,-34.668,-39.062,0.000
1709141613.875,-43.945,-37.598,-24.414,-39.551,0.000
1709141613.879,-41.016,-33.691,-45.898,-30.762,0.000
1709141613.883,-44.434,-33.691,-37.598,-39.062,0.000
1709141613.886,-49.316,-38.574,-14.160,-43.457,0.000
1709141613.890,-51.270,-44.434,-18.555,-42.969,0.000
1709141613.894,-49.316,-43.945,-29.297,-44.922,0.000
1709141613.898,-43.945,-42.480,-32.715,-47.852,0.000
1709141613.906,-39.551,-43.457,-40.039,-45.410,0.000
1709141613.910,-42.480,-43.945,-49.316,-45.410,0.000
1709141613.914,-46.387,-40.039,-40.039,-48.340,0.000
1709141613.918,-26.855,-39.551,-37.109,-45.898,0.000
1709141613.922,-26.367,-44.922,-37.109,-40.039,0.000
1709141613.926,-43.457,-37.598,-39.551,-31.738,0.000
1709141613.930,-32.715,-38.574,-38.086,-35.156,0.000
1709141613.933,-29.785,-39.062,-24.902,-35.645,0.000
1709141613.937,-30.273,-37.598,-30.273,-41.016,0.000
1709141613.941,-30.762,-51.758,-32.227,-43.457,0.000
1709141613.945,-36.133,-39.062,-29.297,-41.504,0.000
1709141613.949,-37.109,-23.438,-21.973,-44.922,0.000
1709141613.953,-42.969,-42.480,-26.367,-45.898,0.000
1709141613.957,-51.758,-46.875,-40.039,-54.688,0.000
1709141613.961,-53.711,-39.062,-37.598,-53.711,0.000
1709141613.965,-49.316,-35.645,-35.156,-49.316,0.000
1709141613.969,-46.387,-33.203,-29.297,-41.016,0.000
1709141613.973,-45.898,-32.715,-28.809,-38.574,0.000
1709141613.977,-45.410,-30.762,-31.738,-47.852,0.000
1709141613.981,-41.992,-30.762,-29.785,-46.387,0.000
1709141613.985,-32.715,-35.156,-30.273,-36.621,0.000
1709141613.988,-41.992,-39.551,-33.691,-30.273,0.000
1709141613.992,-48.828,-39.062,-34.668,-28.809,0.000
1709141613.996,-45.898,-35.645,-30.273,-29.785,0.000
1709141614.000,-35.156,-29.297,-28.320,-21.973,0.000
1709141614.004,-25.879,-45.410,-34.668,-19.531,0.000
1709141614.008,-32.715,-54.688,-36.133,-36.133,0.000
1709141614.012,-43.945,-39.551,-34.180,-42.480,0.000
1709141614.016,-48.828,-33.691,-29.785,-43.457,0.000
1709141614.020,-43.457,-42.480,-23.926,-40.527,0.000
1709141614.024,-42.480,-47.852,-26.367,-42.969,0.000
1709141614.027,-53.223,-42.969,-40.527,-60.547,0.000
1709141614.031,-61.035,-40.527,-41.016,-56.641,0.000
1709141614.035,-61.523,-51.270,-46.875,-54.688,0.000
1709141614.039,-53.223,-59.082,-46.875,-72.266,0.000
1709141614.043,-41.016,-43.457,-30.273,-68.848,0.000
1709141614.047,-48.340,-41.992,-33.203,-60.547,0.000
