timestamps,TP9,AF7,AF8,TP10,Right AUX
1709291350.039,-20.996,-62.500,-31.738,0.000,0.000
1709291350.043,-35.156,-53.711,-29.297,0.000,0.000
1709291350.047,-33.203,-58.594,-34.180,0.000,0.000
1709291350.051,-20.508,-60.547,-35.645,0.000,0.000
1709291350.055,-14.160,-50.293,-30.273,0.000,0.000
1709291350.059,-18.066,-61.523,-31.738,0.000,0.000
1709291350.063,-26.367,-63.965,-33.203,0.000,0.000
1709291350.067,-47.363,-77.148,-36.621,0.000,0.000
1709291350.071,-46.875,-75.684,-46.875,0.000,0.000
1709291350.075,-21.484,-34.180,-38.086,0.000,0.000
1709291350.078,-30.762,-39.062,-38.086,0.000,0.000
1709291350.082,-38.574,-59.570,-41.992,0.000,0.000
1709291350.086,-31.250,-52.734,-32.715,-27.344,0.000
1709291350.090,-21.973,-45.410,-29.785,-16.113,0.000
1709291350.094,-11.719,-51.270,-32.227,-6.836,0.000
1709291350.098,-18.555,-58.594,-35.645,-16.602,0.000
1709291350.102,-32.227,-52.246,-33.203,-37.598,0.000
1709291350.106,-35.645,-51.270,-33.691,-35.645,0.000
1709291350.110,-18.066,-55.176,-37.598,-13.184,0.000
1709291350.114,-19.043,-75.684,-40.527,3.418,0.000
1709291350.117,-40.527,-58.105,-47.363,-28.809,0.000
1709291350.121,-47.363,-42.969,-41.992,-55.664,0.000
1709291350.125,-36.133,-46.875,-35.156,-38.574,0.000
1709291350.129,-29.297,-48.828,-34.668,-18.066,0.000
1709291350.133,-28.809,-46.875,-37.109,-18.066,0.000
1709291350.137,-27.832,-46.875,-38.574,-18.555,0.000
1709291350.141,-35.156,-61.523,-39.062,-32.227,0.000
1709291350.145,-22.461,-62.012,-42.969,-33.203,0.000
1709291350.149,-13.184,-51.758,-40.527,-22.949,0.000
1709291350.152,-22.461,-62.500,-35.645,-9.766,0.000
1709291350.156,-25.391,-75.684,-36.133,-9.766,0.000
1709291350.160,-25.879,-73.242,-38.086,-22.461,0.000
1709291350.164,-32.227,-42.480,-41.016,-31.250,0.000
1709291350.168,-21.973,-37.109,-41.992,-27.832,0.000
1709291350.172,-16.113,-59.082,-38.574,-26.855,0.000
1709291350.176,-22.461,-52.734,-38.574,-9.277,0.000
1709291350.180,-26.367,-46.875,-40.527,-22.461,0.000
1709291350.184,-32.715,-62.500,-39.062,-41.504,0.000
1709291350.187,-39.062,-71.289,-34.180,-31.250,0.000
1709291350.191,-37.598,-58.594,-34.180,-27.832,0.000
1709291350.195,-22.949,-47.363,-33.691,-15.625,0.000
1709291350.199,-27.832,-60.547,-35.156,-32.227,0.000
1709291350.203,-45.898,-86.914,-32.227,-43.945,0.000
1709291350.207,-44.922,-60.547,-26.855,-22.949,0.000
1709291350.211,-30.762,-45.410,-30.273,-14.160,0.000
1709291350.215,-19.531,-66.406,-32.715,-19.043,0.000
1709291350.219,-40.527,-67.871,-30.762,-33.691,0.000
1709291350.223,-42.480,-51.270,-28.320,-34.668,0.000
1709291350.226,-32.715,-44.434,-32.227,-23.926,0.000
1709291350.230,-31.738,-61.523,-32.227,-17.578,0.000
1709291350.234,-29.297,-67.871,-32.227,-28.320,0.000
1709291350.238,-29.785,-65.918,-31.250,-36.621,0.000
1709291350.242,-35.645,-76.660,-25.879,-28.809,0.000
1709291350.246,-32.715,-76.172,-28.809,-19.043,0.000
1709291350.250,-24.902,-61.523,-35.156,-1.953,0.000
1709291350.254,-23.926,-40.039,-26.367,-2.930,0.000
1709291350.257,-23.926,-48.340,-22.949,-18.555,0.000
1709291350.261,-32.715,-73.242,-31.738,-41.504,0.000
1709291350.265,-35.645,-62.988,-34.668,-43.945,0.000
1709291350.269,-33.203,-52.734,-32.715,-32.227,0.000
1709291350.273,-31.250,-64.453,-38.574,-11.719,0.000
1709291350.277,-22.461,-65.918,-33.203,-11.230,0.000
1709291350.281,-28.320,-58.594,-30.762,-35.645,0.000
1709291350.285,-44.922,-67.871,-38.574,-45.410,0.000
1709291350.289,-47.852,-73.242,-35.156,-36.133,0.000
1709291350.293,-32.715,-74.219,-31.250,-15.137,0.000
1709291350.297,-28.809,-70.312,-33.203,-16.113,0.000
1709291350.301,-42.969,-52.734,-39.062,-41.016,0.000
1709291350.305,-44.434,-52.246,-37.598,-47.363,0.000
1709291350.309,-37.598,-70.801,-35.645,-19.043,0.000
1709291350.312,-26.367,-45.898,-34.668,-9.277,0.000
1709291350.316,-20.996,-34.668,-26.367,-14.160,0.000
1709291350.320,-36.133,-59.570,-31.738,-34.180,0.000
1709291350.324,-36.133,-62.012,-35.645,-49.805,0.000
1709291350.328,-21.973,-50.781,-31.738,-32.715,0.000
1709291350.332,-22.949,-53.223,-35.156,-7.812,0.000
1709291350.336,-28.809,-65.918,-33.203,-16.113,0.000
1709291350.340,-29.297,-64.453,-33.203,-39.551,0.000
1709291350.344,-31.738,-63.965,-38.574,-40.527,0.000
1709291350.348,-28.320,-56.152,-36.621,-31.738,0.000
1709291350.352,-19.043,-68.848,-29.297,-1.953,0.000
1709291350.356,-24.902,-80.566,-30.762,-9.277,0.000
1709291350.360,-28.320,-46.387,-25.879,-37.109,0.000
1709291350.363,-15.625,-46.387,-23.438,-37.598,0.000
1709291350.367,-21.973,-67.383,-29.297,-28.809,0.000
1709291350.371,-15.625,-56.641,-23.926,-11.719,0.000
1709291350.375,-12.695,-46.387,-21.973,-11.230,0.000
1709291350.379,-21.484,-54.199,-27.832,-19.531,0.000
1709291350.383,-20.020,-66.406,-28.809,-26.367,0.000
1709291350.387,-12.695,-73.730,-25.879,-16.602,0.000
1709291350.391,-13.672,-59.570,-24.902,-2.441,0.000
1709291350.395,-16.113,-48.828,-30.762,-0.488,0.000
1709291350.399,-18.555,-80.078,-35.156,-0.488,0.000
1709291350.403,-19.043,-57.129,-27.344,-18.555,0.000
1709291350.407,-29.297,-34.180,-32.715,-30.273,0.000
1709291350.410,-27.344,-50.781,-37.109,-7.812,0.000
1709291350.414,-10.742,-55.176,-29.785,-4.395,0.000
1709291350.418,-18.066,-48.828,-31.250,-25.391,0.000
1709291350.422,-37.109,-52.246,-31.738,-37.109,0.000
1709291350.426,-34.180,-61.035,-27.344,-36.621,0.000
1709291350.430,-19.531,-57.617,-22.461,-11.719,0.000
1709291350.434,-20.996,-68.359,-24.414,-3.906,0.000
1709291350.438,-30.273,-69.336,-32.227,-19.531,0.000
1709291350.442,-35.645,-68.848,-32.227,-33.691,0.000
1709291350.446,-33.203,-74.707,-30.762,-21.973,0.000
1709291350.449,-18.066,-48.340,-29.785,-10.742,0.000
1709291350.453,-12.207,-52.246,-32.715,-1.953,0.000
1709291350.457,-27.344,-76.660,-32.715,-2.441,0.000
1709291350.461,-31.250,-72.754,-31.738,-14.648,0.000
1709291350.465,-26.855,-59.570,-33.691,-27.832,0.000
1709291350.469,-20.508,-64.941,-28.320,-15.625,0.000
1709291350.473,-12.207,-64.453,-28.320,-5.371,0.000
1709291350.477,-16.602,-48.340,-30.273,-18.555,0.000
1709291350.481,-32.715,-55.176,-27.832,-25.391,0.000
1709291350.485,-39.062,-64.453,-34.180,-38.086,0.000
1709291350.488,-28.320,-85.449,-37.109,-20.020,0.000
1709291350.492,-15.137,-63.477,-34.180,3.906,0.000
1709291350.496,-15.625,-45.898,-31.250,-5.859,0.000
1709291350.500,-28.809,-46.387,-28.320,-28.809,0.000
1709291350.504,-31.250,-45.898,-27.344,-49.316,0.000
1709291350.508,-27.344,-51.270,-29.297,-36.621,0.000
1709291350.512,-16.113,-49.805,-37.109,-8.789,0.000
1709291350.516,-6.836,-58.594,-35.156,-16.113,0.000
1709291350.520,-13.672,-52.734,-33.203,-39.062,0.000
1709291350.524,-29.785,-52.246,-32.227,-44.922,0.000
1709291350.527,-32.227,-68.848,-26.855,-23.926,0.000
1709291350.531,-23.438,-78.613,-27.832,-12.207,0.000
1709291350.535,-30.273,-78.125,-29.297,-12.695,0.000
1709291350.539,-39.062,-47.852,-32.715,-20.996,0.000
1709291350.543,-46.875,-48.828,-32.715,-41.016,0.000
1709291350.547,-44.434,-62.012,-27.344,-45.898,0.000
1709291350.551,-20.996,-51.758,-27.832,-27.344,0.000
1709291350.555,-18.555,-47.363,-28.320,-22.461,0.000
1709291350.558,-30.273,-51.270,-29.785,-42.480,0.000
1709291350.562,-31.250,-62.500,-33.691,-56.641,0.000
1709291350.566,-44.922,-61.035,-33.203,-44.434,0.000
1709291350.570,-41.016,-58.105,-34.668,-15.625,0.000
1709291350.574,-32.715,-74.219,-37.598,-15.625,0.000
1709291350.578,-43.457,-93.750,-37.598,-30.762,0.000
1709291350.582,-38.574,-68.848,-32.227,-36.133,0.000
1709291350.586,-19.531,-54.199,-29.785,-24.902,0.000
1709291350.590,-20.508,-65.430,-35.645,-12.695,0.000
1709291350.594,-26.367,-51.758,-40.527,-12.207,0.000
1709291350.597,-34.180,-42.480,-43.457,-21.484,0.000
1709291350.601,-34.668,-49.805,-40.039,-26.855,0.000
1709291350.605,-33.203,-68.848,-31.250,-28.320,0.000
1709291350.609,-31.738,-58.105,-29.297,-16.113,0.000
1709291350.613,-26.855,-46.387,-34.668,-0.488,0.000
1709291350.617,-18.066,-47.363,-36.621,-1.465,0.000
1709291350.621,-23.926,-64.941,-33.691,-32.227,0.000
1709291350.624,-25.391,-68.848,-30.762,-38.574,0.000
1709291350.628,-12.695,-47.852,-29.785,-20.020,0.000
1709291350.632,-7.812,-47.852,-29.297,-6.348,0.000
1709291350.636,-16.113,-67.871,-29.785,-12.695,0.000
1709291350.640,-21.484,-62.988,-35.645,-34.180,0.000
1709291350.644,-22.461,-43.457,-41.016,-30.762,0.000
1709291350.648,-21.973,-53.711,-42.480,-10.742,0.000
1709291350.652,-18.066,-61.523,-39.551,-10.742,0.000
1709291350.656,-16.602,-52.246,-34.668,-25.391,0.000
1709291350.660,-33.203,-57.129,-37.109,-41.504,0.000
1709291350.664,-50.293,-75.684,-42.969,-60.059,0.000
1709291350.668,-46.875,-88.379,-44.922,-36.133,0.000
1709291350.672,-33.691,-68.359,-41.016,-9.766,0.000
1709291350.676,-28.320,-51.758,-38.086,-36.621,0.000
1709291350.679,-37.109,-66.406,-37.598,-61.523,0.000
1709291350.683,-33.691,-90.820,-34.668,-49.805,0.000
1709291350.687,-22.949,-56.641,-37.598,-25.391,0.000
1709291350.691,-14.648,-40.039,-36.133,-1.953,0.000
1709291350.695,-18.066,-63.477,-35.156,-5.859,0.000
1709291350.699,-23.438,-70.312,-41.992,-30.762,0.000
1709291350.703,-21.484,-54.688,-39.551,-43.945,0.000
1709291350.707,-33.203,-55.176,-40.527,-35.645,0.000
1709291350.711,-34.180,-67.383,-40.039,-14.648,0.000
1709291350.715,-32.227,-66.895,-36.133,-6.348,0.000
1709291350.719,-40.527,-58.594,-38.086,-24.414,0.000
1709291350.723,-44.922,-54.688,-38.574,-43.945,0.000
1709291350.727,-45.410,-74.707,-39.062,-31.738,0.000
1709291350.730,-30.273,-69.824,-33.203,-1.465,0.000
1709291350.734,-21.973,-41.016,-35.156,-5.859,0.000
1709291350.738,-28.320,-44.434,-40.039,-19.043,0.000
1709291350.742,-29.785,-63.477,-36.133,-33.203,0.000
1709291350.746,-26.367,-59.082,-35.156,-23.926,0.000
1709291350.750,-21.484,-48.828,-40.039,-9.277,0.000
1709291350.754,-19.531,-56.641,-36.133,0.000,0.000
1709291350.758,-18.066,-61.035,-33.691,-3.906,0.000
1709291350.762,-20.996,-64.941,-33.203,-30.762,0.000
1709291350.766,-18.555,-53.223,-26.855,-22.949,0.000
1709291350.770,-23.438,-48.828,-32.715,-8.301,0.000
1709291350.774,-20.508,-80.078,-42.480,-9.277,0.000
1709291350.777,-15.137,-58.594,-41.992,-19.043,0.000
1709291350.781,-26.855,-32.227,-38.574,-41.504,0.000
1709291350.785,-31.738,-42.480,-38.086,-39.062,0.000
1709291350.789,-28.809,-54.199,-39.062,-25.391,0.000
1709291350.793,-20.020,-46.875,-36.621,-13.672,0.000
1709291350.797,-20.996,-44.434,-31.250,-20.020,0.000
1709291350.801,-44.922,-56.641,-30.273,-43.457,0.000
1709291350.805,-47.852,-50.293,-33.203,-32.227,0.000
1709291350.809,-15.625,-58.594,-23.438,8.301,0.000
1709291350.813,20.020,-64.941,-13.672,43.457,0.000
1709291350.816,19.531,-56.641,-26.367,28.320,0.000
1709291350.820,-7.812,-41.504,-36.133,-13.672,0.000
1709291350.824,-14.648,-13.184,-27.344,-25.879,0.000
1709291350.828,-16.602,-11.230,-28.320,-12.207,0.000
1709291350.832,-13.672,-26.855,-34.668,-11.230,0.000
1709291350.836,-15.625,-16.602,-27.832,-23.926,0.000
1709291350.840,-14.648,-8.301,-21.973,-30.762,0.000
1709291350.844,-21.484,-14.160,-27.344,-50.781,0.000
1709291350.848,-14.160,-13.184,-26.855,-37.109,0.000
1709291350.852,3.906,-2.930,-24.902,-9.766,0.000
1709291350.855,12.695,-9.766,-27.344,-19.531,0.000
1709291350.859,14.648,-19.531,-29.297,-38.574,0.000
1709291350.863,6.836,-34.180,-27.344,-35.156,0.000
1709291350.867,7.812,-10.254,-25.879,-19.531,0.000
1709291350.871,31.250,8.789,-34.180,-12.695,0.000
1709291350.875,61.523,3.418,-32.227,2.930,0.000
1709291350.879,47.363,20.508,-32.227,-12.207,0.000
1709291350.883,39.062,29.785,-34.668,-16.113,0.000
1709291350.887,39.551,22.949,-37.109,-10.742,0.000
1709291350.890,32.715,15.625,-39.062,-17.090,0.000
1709291350.894,39.551,24.414,-41.992,0.488,0.000
1709291350.898,44.922,24.902,-44.434,-9.766,0.000
1709291350.902,45.898,12.207,-41.992,-21.973,0.000
1709291350.906,36.621,4.395,-41.992,-13.672,0.000
1709291350.910,41.016,8.301,-42.969,20.020,0.000
1709291350.914,46.387,36.133,-43.945,27.344,0.000
1709291350.918,51.758,38.574,-41.504,-2.441,0.000
1709291350.922,63.965,21.484,-44.434,-0.977,0.000
1709291350.926,46.387,26.367,-47.852,-4.883,0.000
1709291350.929,45.898,31.250,-38.574,7.324,0.000
1709291350.933,70.801,28.809,-36.133,16.113,0.000
1709291350.937,65.430,22.461,-41.504,6.348,0.000
1709291350.941,39.062,27.344,-43.457,-14.160,0.000
1709291350.945,33.691,23.438,-42.480,-25.391,0.000
1709291350.949,36.133,5.371,-42.969,-10.254,0.000
1709291350.953,38.086,-13.672,-44.434,7.324,0.000
1709291350.957,32.227,14.648,-41.504,-5.859,0.000
1709291350.961,20.996,20.508,-47.852,-13.184,0.000
1709291350.964,18.066,-8.301,-53.223,-10.742,0.000
1709291350.968,27.344,2.930,-49.316,-7.812,0.000
1709291350.972,29.785,3.906,-42.969,-2.441,0.000
1709291350.977,18.066,-5.859,-37.598,-11.719,0.000
1709291350.980,2.930,-11.230,-38.574,-31.250,0.000
1709291350.984,-1.465,-22.461,-37.109,-29.297,0.000
1709291350.988,2.930,-17.578,-38.086,-5.371,0.000
1709291350.992,7.812,-12.695,-37.598,15.137,0.000
1709291350.996,1.465,-26.855,-41.016,2.441,0.000
1709291351.000,-5.371,-21.484,-39.551,-15.625,0.000
1709291351.004,-7.324,3.418,-36.621,-24.414,0.000
1709291351.008,-8.789,-12.207,-34.668,-13.672,0.000
1709291351.012,-3.906,-31.250,-36.621,10.254,0.000
1709291351.016,7.812,-23.926,-35.156,4.883,0.000
1709291351.020,8.789,-16.602,-30.762,-14.648,0.000
1709291351.024,3.418,-18.066,-37.109,-10.254,0.000
1709291351.028,8.301,-26.855,-41.016,7.812,0.000
1709291351.032,-0.977,-18.066,-36.133,5.859,0.000
1709291351.035,3.418,-8.789,-31.738,5.371,0.000
1709291351.039,-3.906,-22.461,-38.574,-4.395,0.000
1709291351.043,-19.531,-40.527,-40.527,-26.367,0.000
1709291351.047,-14.648,-32.715,-37.109,-15.137,0.000
1709291351.051,-8.301,-21.973,-39.551,3.418,0.000
1709291351.055,-5.371,-36.621,-41.504,-0.977,0.000
1709291351.059,-14.648,-61.035,-43.945,-6.836,0.000
1709291351.063,-17.090,-26.855,-44.922,-18.066,0.000
1709291351.067,-14.160,-8.301,-37.109,-29.785,0.000
1709291351.071,-6.836,-23.438,-35.156,-7.324,0.000
1709291351.075,1.953,-21.484,-33.203,5.371,0.000
1709291351.079,0.488,-15.625,-34.180,-10.742,0.000
1709291351.083,-5.371,-20.508,-38.574,-23.926,0.000
1709291351.086,-5.859,-39.551,-36.133,-27.832,0.000
1709291351.090,-1.465,-52.246,-31.738,-12.695,0.000
1709291351.094,3.906,-46.387,-31.738,-0.977,0.000
1709291351.098,-5.859,-35.156,-37.109,-21.973,0.000
1709291351.102,-28.809,-56.152,-40.527,-39.062,0.000
1709291351.106,-31.738,-52.246,-41.016,-22.949,0.000
1709291351.110,-12.207,-20.020,-33.691,-6.348,0.000
1709291351.114,-5.371,-24.414,-22.949,1.953,0.000
1709291351.118,-17.578,-37.598,-20.996,-3.906,0.000
1709291351.122,-24.902,-30.762,-29.297,-27.832,0.000
1709291351.126,-29.785,-25.391,-26.855,-34.180,0.000
1709291351.129,-30.762,-37.598,-22.461,-9.277,0.000
1709291351.133,-21.973,-43.457,-28.809,13.184,0.000
1709291351.137,-22.949,-36.621,-30.273,4.395,0.000
1709291351.141,-17.578,-27.832,-26.855,-19.531,0.000
1709291351.145,-19.043,-22.949,-23.926,-33.691,0.000
1709291351.149,-28.809,-53.223,-26.855,-10.742,0.000
1709291351.153,-18.555,-40.527,-29.297,11.719,0.000
1709291351.157,-5.859,-18.555,-21.973,2.441,0.000
1709291351.161,-0.488,-25.879,-20.508,-3.906,0.000
1709291351.165,-5.371,-34.180,-24.902,-20.996,0.000
1709291351.169,-7.324,-33.691,-24.414,-23.438,0.000
1709291351.172,-3.906,-34.668,-28.809,-9.766,0.000
1709291351.176,-4.395,-43.457,-30.762,-12.695,0.000
1709291351.180,-24.414,-37.109,-28.809,-32.227,0.000
1709291351.184,-30.762,-45.410,-27.832,-38.574,0.000
1709291351.188,-20.020,-50.293,-30.762,-27.344,0.000
1709291351.192,-20.508,-45.410,-30.762,-14.160,0.000
1709291351.196,-17.578,-40.039,-27.344,-12.207,0.000
1709291351.200,-18.066,-31.738,-29.785,-18.555,0.000
1709291351.204,-19.043,-29.785,-37.109,-14.160,0.000
1709291351.208,-27.344,-49.316,-40.039,-7.324,0.000
1709291351.211,-36.621,-42.969,-39.551,-11.719,0.000
1709291351.215,-20.020,-20.996,-32.715,-22.949,0.000
1709291351.219,-14.160,-27.344,-25.879,-25.391,0.000
1709291351.223,-17.578,-34.668,-28.809,-28.809,0.000
1709291351.227,-13.672,-22.461,-24.902,-23.926,0.000
1709291351.231,-8.789,-28.809,-27.344,-5.371,0.000
1709291351.235,-1.953,-37.109,-32.227,11.719,0.000
1709291351.239,-6.836,-41.016,-32.227,-0.488,0.000
1709291351.243,-20.020,-24.902,-34.668,-25.879,0.000
1709291351.247,-22.461,-16.602,-32.227,-40.527,0.000
1709291351.250,-8.789,-25.391,-26.855,-7.812,0.000
1709291351.254,-12.207,-19.043,-24.902,12.207,0.000
1709291351.259,0.000,-12.695,0.000,0.000,0.000
1709291351.263,0.000,-24.414,0.000,0.000,0.000
1709291351.267,0.000,-41.016,0.000,0.000,0.000
1709291351.271,0.000,-41.016,0.000,0.000,0.000
1709291351.275,0.000,-33.691,0.000,0.000,0.000
1709291351.279,0.000,-38.086,0.000,0.000,0.000
1709291351.283,0.000,-59.570,0.000,0.000,0.000
1709291351.286,0.000,-68.359,0.000,0.000,0.000
1709291351.290,0.000,-29.297,0.000,0.000,0.000
1709291351.294,0.000,-29.785,0.000,0.000,0.000
1709291351.298,0.000,-44.922,0.000,0.000,0.000
1709291351.302,0.000,-32.715,0.000,0.000,0.000
1709291351.305,-16.602,-22.461,-34.668,-22.949,0.000
1709291351.309,-19.531,-29.785,-36.133,-3.906,0.000
1709291351.313,-23.438,-53.223,-41.016,-2.441,0.000
1709291351.316,-20.020,-41.504,-41.016,-1.953,0.000
1709291351.320,-15.625,-34.668,-36.621,-15.625,0.000
1709291351.324,-21.973,-54.199,-36.621,-40.527,0.000
1709291351.328,-39.062,-71.777,-38.574,-25.391,0.000
1709291351.332,-46.387,-45.898,-37.598,-2.930,0.000
1709291351.336,-26.855,-34.668,-31.250,-2.930,0.000
1709291351.340,-15.625,-47.852,-26.855,-21.484,0.000
1709291351.344,-10.254,-32.715,-33.203,-38.574,0.000
1709291351.348,-18.555,-29.297,-31.738,-27.344,0.000
1709291351.351,-30.273,-43.457,-28.809,-14.160,0.000
1709291351.355,-19.531,-50.293,-29.297,-14.160,0.000
1709291351.359,-31.250,-38.086,-28.809,-21.973,0.000
1709291351.363,-53.711,-35.156,-29.785,-47.363,0.000
1709291351.367,-47.363,-52.246,-29.297,-41.504,0.000
1709291351.371,-45.410,-74.219,-29.785,-23.926,0.000
1709291351.375,-46.387,-60.547,-28.809,-25.879,0.000
1709291351.379,-52.246,-37.598,-29.297,-54.199,0.000
1709291351.383,-51.270,-51.270,-22.461,-66.406,0.000
1709291351.386,-32.715,-75.684,-18.066,-37.109,0.000
1709291351.390,-27.344,-59.082,-20.996,-13.184,0.000
1709291351.394,-28.320,-39.551,-20.996,-22.461,0.000
1709291351.398,-33.203,-49.805,0.000,-32.715,0.000
1709291351.402,-38.574,-55.176,0.000,-35.645,0.000
1709291351.406,-35.156,-39.062,0.000,-33.691,0.000
1709291351.410,-27.832,-35.645,0.000,-24.414,0.000
1709291351.414,-29.297,-51.270,0.000,-27.832,0.000
1709291351.418,-32.227,-63.965,0.000,-40.039,0.000
1709291351.422,-25.391,-47.363,0.000,-43.945,0.000
1709291351.426,-27.344,-35.645,0.000,-50.293,0.000
1709291351.430,-19.043,-54.199,0.000,-23.926,0.000
1709291351.434,-15.137,-73.730,0.000,1.465,0.000
1709291351.438,-33.203,-46.875,0.000,-22.461,0.000
1709291351.441,-35.645,-49.316,0.000,-47.363,0.000
1709291351.446,-36.621,-65.918,-36.133,-48.828,0.000
1709291351.449,-28.320,-57.129,-35.645,-38.574,0.000
1709291351.453,-21.973,-50.781,-35.156,-27.344,0.000
1709291351.457,-14.648,-50.293,-34.668,-26.367,0.000
1709291351.461,-23.926,-62.988,-31.738,-43.945,0.000
1709291351.465,-35.645,-71.289,-27.832,-43.457,0.000
1709291351.469,-23.926,-51.758,-26.367,-24.902,0.000
1709291351.473,-17.090,-36.133,-33.691,-15.137,0.000
1709291351.477,-36.621,-62.988,-34.668,-28.320,0.000
1709291351.481,-48.828,-79.590,-31.250,-38.086,0.000
1709291351.485,-32.227,-49.316,-33.203,-32.227,0.000
1709291351.489,-30.762,-48.828,-35.156,-16.602,0.000
1709291351.493,-32.227,-66.895,-36.133,-8.301,0.000
1709291351.497,-21.973,-55.176,-37.109,-12.695,0.000
1709291351.500,-31.250,-50.781,-37.598,-25.879,0.000
1709291351.504,-32.227,-50.293,-32.227,-34.668,0.000
1709291351.508,-21.484,-58.105,-27.344,-24.902,0.000
1709291351.512,-10.742,-63.477,-28.809,-2.930,0.000
1709291351.516,-5.859,-51.270,-30.273,2.930,0.000
1709291351.520,-17.578,-55.176,-31.738,-12.695,0.000
1709291351.524,-36.621,-93.262,-32.227,-29.785,0.000
1709291351.528,-34.180,-60.547,-28.809,-20.508,0.000
1709291351.532,-13.184,-34.668,-34.668,-2.930,0.000
1709291351.536,-13.184,-59.082,-37.598,-5.859,0.000
1709291351.539,-25.391,-60.059,-35.156,-17.090,0.000
1709291351.543,-26.367,-50.293,-37.109,-21.484,0.000
1709291351.547,-39.551,-60.059,-36.621,-29.297,0.000
1709291351.551,-45.410,-65.430,-33.691,-17.090,0.000
1709291351.555,-31.250,-60.547,-28.809,-4.395,0.000
1709291351.559,-25.391,-69.824,-28.320,-20.508,0.000
1709291351.563,-27.344,-64.941,-34.668,-40.039,0.000
1709291351.567,-26.367,-69.336,-36.621,-34.180,0.000
1709291351.571,-12.207,-68.359,-29.297,7.324,0.000
1709291351.575,-3.906,-38.086,-28.320,11.719,0.000
1709291351.579,-13.672,-36.621,-27.832,-20.996,0.000
1709291351.582,-27.344,-63.965,-31.738,-50.781,0.000
1709291351.587,-27.832,-63.477,-34.180,-44.434,0.000
1709291351.591,-27.344,-51.270,-32.227,-29.785,0.000
1709291351.595,-32.715,-58.594,-33.691,-30.762,0.000
1709291351.599,-27.344,-73.730,-25.879,-28.320,0.000
1709291351.603,-29.297,-68.848,-29.785,-31.738,0.000
1709291351.606,-30.762,-62.988,-36.133,-32.227,0.000
1709291351.610,-21.484,-62.988,-26.367,-2.441,0.000
1709291351.614,-23.438,-65.430,-22.461,4.883,0.000
1709291351.618,-18.555,-48.340,-26.367,-18.066,0.000
1709291351.622,-22.461,-54.688,-26.855,-31.738,0.000
1709291351.626,-35.645,-68.848,-28.809,-40.039,0.000
1709291351.630,-26.367,-83.984,-31.250,-28.320,0.000
1709291351.634,-16.113,-56.641,-31.738,-12.695,0.000
1709291351.638,-16.113,-42.969,-34.668,-12.207,0.000
1709291351.641,-4.395,-58.594,-34.668,-22.461,0.000
1709291351.645,-3.906,-54.199,-34.180,-24.414,0.000
1709291351.649,-13.672,-50.293,-35.156,-13.184,0.000
1709291351.653,-18.555,-59.570,-45.410,-9.766,0.000
1709291351.657,-14.160,-66.406,-40.039,-20.020,0.000
1709291351.661,-22.949,-56.641,-33.691,-30.762,0.000
1709291351.665,-29.785,-54.688,-38.086,-30.762,0.000
1709291351.669,-41.504,-63.477,-35.645,-30.762,0.000
1709291351.673,-46.387,-85.449,-36.621,-29.297,0.000
1709291351.677,-30.273,-80.566,-39.062,-14.160,0.000
1709291351.680,-41.504,-49.316,-40.039,-25.879,0.000
1709291351.684,-60.059,-57.617,-39.062,-48.340,0.000
1709291351.688,-49.805,-68.848,-34.180,-31.250,0.000
1709291351.692,-26.855,-54.688,-36.133,-18.555,0.000
1709291351.696,-7.812,-55.664,-38.574,-17.090,0.000
1709291351.700,-16.113,-74.707,-32.715,-24.902,0.000
1709291351.704,-37.109,-91.309,-31.250,-35.156,0.000
1709291351.708,-31.738,-65.430,-36.133,-31.738,0.000
1709291351.711,-15.625,-42.969,-36.621,-13.184,0.000
1709291351.715,-23.926,-65.918,-39.062,-18.066,0.000
1709291351.719,-28.320,-71.289,-38.574,-41.992,0.000
1709291351.723,-31.738,-51.758,-38.086,-55.176,0.000
1709291351.727,-27.832,-60.547,-41.016,-52.734,0.000
1709291351.731,-9.766,-72.266,-46.875,-24.902,0.000
1709291351.735,-12.695,-63.965,-49.316,-20.020,0.000
1709291351.738,-21.973,-59.570,-40.039,-42.480,0.000
1709291351.742,-27.344,-56.641,-36.133,-58.105,0.000
1709291351.746,-31.250,-83.496,-43.457,-54.688,0.000
1709291351.750,-26.367,-84.961,-39.551,-36.133,0.000
1709291351.754,-21.484,-55.176,-35.645,-20.020,0.000
1709291351.758,-21.973,-56.641,-42.480,-20.020,0.000
1709291351.762,-33.203,-76.172,-41.992,-54.199,0.000
1709291351.766,-44.434,-69.824,-36.133,-56.152,0.000
1709291351.770,-36.621,-58.594,-41.504,-39.062,0.000
1709291351.774,-29.297,-61.523,-40.527,-29.785,0.000
1709291351.778,-41.016,-63.965,-31.738,-37.598,0.000
1709291351.782,-48.340,-65.430,-31.250,-52.734,0.000
1709291351.786,-42.480,-72.754,-29.297,-39.551,0.000
1709291351.790,-40.039,-74.707,-27.344,-28.809,0.000
1709291351.793,-41.504,-80.078,-36.133,-19.531,0.000
1709291351.797,-25.879,-64.941,-31.250,-19.531,0.000
1709291351.801,-15.625,-52.734,-27.344,-37.109,0.000
1709291351.805,-36.133,-77.637,-29.785,-44.922,0.000
1709291351.809,-37.598,-96.680,-26.367,-20.996,0.000
1709291351.813,-21.973,-52.246,-27.832,-4.883,0.000
1709291351.817,-29.297,-47.363,-33.691,-17.578,0.000
1709291351.821,-45.898,-71.777,-33.691,-35.156,0.000
1709291351.825,-46.875,-56.641,-29.297,-37.598,0.000
1709291351.829,-33.203,-55.176,-25.879,-19.531,0.000
1709291351.833,-32.715,-64.453,-31.250,-16.602,0.000
1709291351.837,-31.250,-74.219,-33.203,-31.738,0.000
1709291351.841,-25.879,-81.543,-28.320,-42.969,0.000
1709291351.844,-36.621,-74.707,-31.250,-59.082,0.000
1709291351.848,-41.504,-66.406,-32.227,-54.688,0.000
1709291351.852,-35.645,-80.078,-29.297,-26.367,0.000
1709291351.856,-37.109,-85.938,-34.180,-23.926,0.000
1709291351.860,-39.062,-52.246,-36.133,-52.734,0.000
1709291351.864,-40.527,-56.641,-33.691,-47.852,0.000
1709291351.868,-41.504,-82.031,-33.691,-40.527,0.000
1709291351.872,-21.484,-66.895,-31.738,-22.461,0.000
1709291351.876,-17.578,-50.293,-32.715,-15.137,0.000
1709291351.880,-34.180,-68.848,-35.645,-34.180,0.000
1709291351.884,-47.852,-76.172,-36.621,-44.922,0.000
1709291351.887,-38.086,-64.941,-36.133,-29.297,0.000
1709291351.891,-26.855,-50.781,-32.715,-23.438,0.000
1709291351.895,-31.250,-46.387,-34.180,-30.273,0.000
1709291351.899,-30.273,-83.496,-34.180,-27.832,0.000
1709291351.903,-21.973,-72.754,-29.297,-40.039,0.000
1709291351.907,-29.297,-36.133,-28.809,-39.062,0.000
1709291351.911,-35.645,-43.457,-28.809,-19.043,0.000
1709291351.915,-31.250,-55.664,-28.320,-7.324,0.000
1709291351.919,-45.410,-44.922,-33.691,-20.996,0.000
1709291351.923,-43.457,-52.246,-31.738,-41.992,0.000
1709291351.926,-37.598,-66.406,-26.367,-47.852,0.000
1709291351.930,-41.504,-65.918,-28.809,-30.273,0.000
1709291351.934,-27.344,-68.848,-27.832,-19.531,0.000
1709291351.938,-26.855,-68.848,-26.367,-43.457,0.000
1709291351.942,-37.109,-72.266,-30.273,-54.199,0.000
1709291351.946,-48.340,-78.125,-36.621,-42.969,0.000
1709291351.950,-37.109,-54.199,-34.180,-42.480,0.000
1709291351.954,-20.996,-45.898,-31.250,-22.949,0.000
1709291351.958,-27.832,-57.129,-33.691,-28.320,0.000
1709291351.962,-39.062,-57.129,-37.598,-57.129,0.000
1709291351.965,-42.480,-50.293,-36.133,-55.176,0.000
1709291351.969,-39.551,-61.035,-36.621,-41.992,0.000
1709291351.973,-23.926,-70.312,-36.621,-19.043,0.000
1709291351.977,-18.066,-57.129,-37.598,-22.461,0.000
1709291351.981,-23.926,-64.941,-38.086,-48.828,0.000
1709291351.985,-21.973,-68.848,-37.598,-46.387,0.000
1709291351.989,-26.855,-81.055,-40.039,-20.996,0.000
1709291351.993,-19.043,-60.547,-39.062,-15.625,0.000
1709291351.997,-3.906,-45.410,-38.574,-21.973,0.000
1709291352.001,-13.672,-56.641,-37.598,-25.391,0.000
1709291352.005,-35.645,-51.270,-32.715,-46.387,0.000
1709291352.008,-31.250,-48.828,-35.156,-44.434,0.000
1709291352.012,-15.137,-56.641,-38.574,-25.391,0.000
1709291352.016,-19.531,-63.965,-37.109,-26.855,0.000
1709291352.020,-19.043,-53.711,-33.691,-40.039,0.000
1709291352.024,-13.672,-47.852,-33.203,-55.176,0.000
1709291352.028,-8.789,-60.547,-27.832,-41.016,0.000
1709291352.032,-11.719,-84.961,-27.832,-14.160,0.000
1709291352.036,-20.508,-83.984,-30.762,-1.465,0.000
1709291352.040,-19.531,-50.293,-25.879,-34.180,0.000
1709291352.043,-24.902,-48.828,-21.484,-43.945,0.000
1709291352.047,-29.297,-63.477,-23.438,-17.578,0.000
1709291352.051,-10.742,-54.199,-20.996,-7.324,0.000
1709291352.055,-14.160,-46.875,-20.508,-14.160,0.000
1709291352.059,-26.855,-53.711,-24.902,-19.531,0.000
1709291352.063,-36.621,-61.523,-24.902,-33.203,0.000
1709291352.067,-31.250,-51.758,-23.438,-32.227,0.000
1709291352.071,-6.348,-54.199,-25.391,0.000,0.000
1709291352.075,0.000,-68.359,-24.902,0.000,0.000
1709291352.078,-10.742,-82.520,-23.926,-9.277,0.000
1709291352.082,-26.367,-63.477,-23.926,-29.785,0.000
1709291352.086,-21.973,-45.410,-26.367,-33.203,0.000
1709291352.090,-7.812,-57.129,-32.715,-2.441,0.000
1709291352.094,-12.207,-47.852,-32.715,-1.953,0.000
1709291352.098,-12.695,-33.691,-23.438,-3.906,0.000
1709291352.102,-7.812,-45.898,-22.461,-20.020,0.000
1709291352.105,-20.020,-53.711,-29.297,-30.762,0.000
1709291352.109,-15.625,-42.480,-29.785,-15.137,0.000
1709291352.113,-10.742,-33.203,-25.879,-6.836,0.000
1709291352.117,-17.578,-33.203,-28.320,-27.344,0.000
1709291352.121,-28.809,-52.246,-30.273,-40.039,0.000
1709291352.125,-26.367,-54.688,-31.250,-22.461,0.000
1709291352.129,-23.438,-33.203,-32.715,-14.648,0.000
1709291352.133,-26.367,-25.391,-34.180,-4.883,0.000
1709291352.137,-8.789,-41.992,-35.156,-14.648,0.000
1709291352.141,-6.348,-40.039,-29.297,-32.227,0.000
1709291352.145,-13.672,-21.973,-21.973,-33.203,0.000
1709291352.149,-5.859,-31.250,-25.391,-16.602,0.000
1709291352.153,0.977,-43.457,-26.367,2.930,0.000
1709291352.157,-8.789,-37.598,-28.809,-1.953,0.000
1709291352.160,-14.648,-32.227,-30.762,-19.531,0.000
1709291352.164,-15.137,-41.016,-26.367,-38.086,0.000
1709291352.168,-3.906,-59.082,-29.297,-11.230,0.000
1709291352.172,1.465,-42.969,-37.598,11.719,0.000
1709291352.176,-5.371,-25.391,-42.480,-13.184,0.000
1709291352.180,-15.137,-48.340,-39.062,-32.227,0.000
1709291352.184,-20.508,-78.613,-34.668,-37.109,0.000
1709291352.188,-11.719,-50.781,-28.320,-19.531,0.000
1709291352.192,-9.277,-23.926,-30.762,-4.395,0.000
1709291352.196,-8.301,-35.156,-34.668,-8.789,0.000
1709291352.200,-14.648,-37.109,-28.809,-11.230,0.000
1709291352.204,-20.020,-30.273,-32.227,-20.508,0.000
1709291352.208,-11.719,-39.551,-31.738,-9.277,0.000
1709291352.211,-6.348,-51.758,-28.320,12.695,0.000
1709291352.215,-7.324,-55.664,-28.809,10.254,0.000
1709291352.219,-9.766,-48.828,-25.879,-10.254,0.000
1709291352.223,-16.602,-42.480,-30.273,-25.879,0.000
1709291352.227,-29.785,-70.801,-34.180,-27.344,0.000
1709291352.231,-26.855,-74.707,-34.180,-10.254,0.000
1709291352.235,-13.672,-39.551,-31.250,-2.930,0.000
1709291352.239,-18.555,-41.016,-34.180,-31.738,0.000
1709291352.243,-39.062,-69.824,-36.621,-65.430,0.000
1709291352.247,-49.805,-66.895,-34.668,-55.664,0.000
1709291352.251,-41.504,-48.340,-29.297,-33.691,0.000
1709291352.255,-38.086,-67.383,-30.762,-30.273,0.000
1709291352.259,-39.062,-85.938,-41.504,-46.875,0.000
1709291352.262,-35.645,-83.984,-40.527,-51.758,0.000
1709291352.266,-40.527,-80.078,-41.016,-30.273,0.000
1709291352.270,-29.785,-71.289,-32.715,-20.020,0.000
1709291352.274,-24.414,-93.262,-23.438,-6.836,0.000
1709291352.278,-33.691,-75.684,-28.809,-16.113,0.000
1709291352.282,-47.363,-48.828,-31.250,-56.152,0.000
1709291352.286,-43.457,-66.406,-31.250,-61.035,0.000
1709291352.290,-25.391,-63.965,-29.785,-17.578,0.000
1709291352.294,-21.484,-55.176,-26.367,-8.789,0.000
1709291352.298,-22.461,-52.734,-26.367,-27.344,0.000
1709291352.301,-31.250,-62.500,-24.902,-37.598,0.000
1709291352.305,-40.527,-67.383,-23.438,-43.457,0.000
1709291352.309,-32.715,-71.289,-28.320,-33.203,0.000
1709291352.313,-25.391,-63.477,-30.762,-40.527,0.000
1709291352.317,-27.832,-62.500,-34.668,-41.504,0.000
1709291352.321,-35.156,-70.801,-32.227,-41.992,0.000
1709291352.325,-39.062,-43.457,-29.297,-43.945,0.000
1709291352.329,-37.109,-49.805,-33.203,-36.133,0.000
1709291352.333,-29.297,-70.801,-30.273,-22.461,0.000
1709291352.337,-29.785,-59.570,-31.738,-19.043,0.000
1709291352.340,-35.156,-53.711,-26.855,-46.387,0.000
1709291352.344,-25.879,-58.105,-19.043,-50.293,0.000
1709291352.348,-25.879,-65.430,-23.438,-21.484,0.000
1709291352.352,-37.598,-59.082,-29.785,-16.602,0.000
1709291352.356,-30.273,-55.664,-31.250,-10.742,0.000
1709291352.360,-34.180,-66.406,-32.227,-28.809,0.000
1709291352.364,-46.875,-86.426,-34.180,-48.828,0.000
1709291352.368,-39.551,-60.547,-32.227,-37.109,0.000
1709291352.372,-22.461,-48.828,-29.297,-18.066,0.000
1709291352.376,-27.832,-58.105,-31.250,-20.020,0.000
1709291352.380,-38.574,-51.758,-33.203,-54.688,0.000
1709291352.383,-43.945,-49.805,-37.109,-77.148,0.000
1709291352.387,-43.945,-60.547,-38.574,-55.176,0.000
1709291352.391,-22.461,-71.777,-38.086,-24.414,0.000
1709291352.395,-14.648,-60.059,-41.504,-21.484,0.000
1709291352.399,-35.156,-53.711,-41.992,-48.340,0.000
1709291352.403,-49.805,-58.594,-37.598,-60.059,0.000
1709291352.407,-37.109,-65.918,-38.574,-33.203,0.000
1709291352.411,-33.203,-73.242,-42.480,-11.230,0.000
1709291352.415,-33.691,-54.199,-37.598,-6.836,0.000
1709291352.418,-31.738,-56.152,-33.691,-11.719,0.000
1709291352.422,-37.109,-61.035,-32.715,-34.180,0.000
1709291352.426,-35.645,-48.828,-34.668,-29.297,0.000
1709291352.430,-34.180,-50.781,-34.668,-14.160,0.000
1709291352.434,-35.156,-58.594,-32.715,-8.789,0.000
1709291352.438,-28.320,-69.336,-36.133,-27.832,0.000
1709291352.442,-34.668,-61.035,-35.156,-60.059,0.000
1709291352.446,-39.551,-50.781,-33.691,-41.504,0.000
1709291352.449,-35.645,-64.941,-35.156,-10.742,0.000
1709291352.453,-30.762,-85.449,-33.203,-10.742,0.000
1709291352.457,-23.438,-46.875,-31.250,-19.043,0.000
1709291352.461,-19.043,-37.598,-33.203,-27.344,0.000
1709291352.465,-37.109,-76.660,-35.645,-25.879,0.000
1709291352.469,-37.598,-77.637,-30.762,-8.789,0.000
1709291352.473,-21.973,-58.594,-30.762,-17.090,0.000
1709291352.476,-34.180,-46.875,-34.180,-46.387,0.000
1709291352.480,-44.922,-56.152,-37.109,-57.617,0.000
1709291352.484,-32.227,-57.617,-36.621,-62.012,0.000
1709291352.488,-28.809,-45.898,-33.203,-38.574,0.000
1709291352.492,-17.578,-43.945,-30.762,-6.836,0.000
1709291352.496,-20.996,-62.012,-35.645,-4.395,0.000
1709291352.500,-37.109,-67.871,-35.645,-19.043,0.000
1709291352.504,-38.574,-45.898,-27.832,-23.438,0.000
1709291352.508,-23.926,-41.016,-23.926,-19.531,0.000
1709291352.512,-18.555,-51.270,-25.391,-4.883,0.000
1709291352.516,-15.137,-44.434,-28.809,-5.859,0.000
1709291352.519,-15.137,-36.133,-25.391,-35.645,0.000
1709291352.524,-28.320,-48.340,-24.902,-39.062,0.000
1709291352.528,-33.691,-62.500,-33.691,-24.902,0.000
1709291352.531,-34.668,-60.547,-33.203,-20.996,0.000
1709291352.535,-25.391,-47.363,-29.297,-14.160,0.000
1709291352.539,-19.043,-57.129,-27.832,-29.297,0.000
1709291352.543,-35.156,-81.543,-30.762,-64.941,0.000
1709291352.547,-39.551,-74.707,-35.645,-59.082,0.000
1709291352.551,-29.785,-53.711,-31.250,-30.273,0.000
1709291352.555,-25.391,-64.453,-32.715,-21.973,0.000
1709291352.559,-32.715,-95.703,-36.621,-25.879,0.000
1709291352.563,-41.504,-63.965,-37.598,-36.621,0.000
1709291352.567,-33.691,-45.410,-31.738,-36.621,0.000
1709291352.571,-29.785,-62.012,-36.133,-28.320,0.000
1709291352.575,-21.973,-55.176,-54.688,-9.277,0.000
1709291352.579,-7.324,-48.340,-57.129,0.000,0.000
1709291352.582,-12.207,-67.871,-35.156,-9.766,0.000
1709291352.586,-42.969,-87.891,-23.438,-20.996,0.000
1709291352.590,-53.223,-87.891,-26.367,-34.180,0.000
1709291352.594,-35.156,-74.219,-26.855,-23.926,0.000
1709291352.598,-29.785,-65.918,-21.973,-23.438,0.000
1709291352.602,-46.387,-88.867,-27.344,-33.203,0.000
1709291352.606,-45.898,-99.609,-29.785,-26.367,0.000
1709291352.610,-33.203,-74.219,-25.391,-25.391,0.000
1709291352.614,-31.250,-73.242,-24.414,-13.184,0.000
1709291352.618,-41.992,-85.449,-19.531,-22.461,0.000
1709291352.622,-51.758,-70.312,-27.344,-34.180,0.000
1709291352.625,-45.410,-64.941,-32.227,-34.668,0.000
1709291352.629,-49.805,-82.520,-32.715,-31.738,0.000
1709291352.633,-37.598,-87.402,-27.832,-18.555,0.000
1709291352.637,-24.902,-76.660,-26.855,-19.531,0.000
1709291352.641,-38.086,-59.082,-26.855,-31.738,0.000
1709291352.645,-42.969,-63.477,-27.344,-46.387,0.000
1709291352.649,-40.527,-103.027,-30.273,-26.367,0.000
1709291352.653,-33.203,-78.125,-24.414,-0.977,0.000
1709291352.657,-25.391,-44.922,-22.949,-13.672,0.000
1709291352.661,-24.902,-53.711,-24.902,-23.438,0.000
1709291352.665,-37.598,-62.988,-36.133,-29.297,0.000
1709291352.668,-42.480,-62.500,-41.504,-27.344,0.000
1709291352.672,-20.508,-60.547,-39.551,-16.602,0.000
1709291352.676,-10.742,-70.312,-38.574,-21.484,0.000
1709291352.680,-28.809,-72.754,-39.062,-38.086,0.000
1709291352.684,-19.043,-76.172,-38.086,-26.367,0.000
1709291352.688,-12.695,-71.777,-36.621,-24.902,0.000
1709291352.692,-14.160,-73.730,-39.551,-10.742,0.000
1709291352.696,-11.719,-81.055,-39.551,8.301,0.000
1709291352.700,-29.785,-62.988,-40.527,-33.691,0.000
1709291352.704,-41.992,-65.430,-38.574,-48.340,0.000
1709291352.708,-31.738,-72.266,-39.551,-25.391,0.000
1709291352.711,-13.184,-61.523,-33.691,7.324,0.000
1709291352.715,-13.184,-55.176,-29.297,4.395,0.000
1709291352.719,-28.809,-65.918,-38.086,-28.320,0.000
1709291352.723,-32.715,-72.754,-28.809,-22.461,0.000
1709291352.727,-34.668,-66.406,-19.043,-17.578,0.000
1709291352.731,-44.922,-77.637,-30.762,-27.832,0.000
1709291352.735,-34.180,-78.613,-32.715,-6.836,0.000
1709291352.739,-43.945,-89.355,-36.133,-16.113,0.000
1709291352.743,-48.828,-68.848,-38.574,-45.898,0.000
1709291352.747,-39.551,-50.781,-33.203,-38.574,0.000
1709291352.750,-36.621,-56.641,-30.762,-13.184,0.000
1709291352.754,-22.461,-54.199,-28.809,-6.348,0.000
1709291352.758,-26.855,-58.594,-27.832,-15.625,0.000
1709291352.762,-32.715,-53.711,-33.203,-31.250,0.000
1709291352.766,-37.598,-60.059,-39.062,-24.414,0.000
1709291352.770,-38.574,-55.664,-29.297,-10.254,0.000
1709291352.774,-32.715,-47.363,-25.391,-10.254,0.000
1709291352.778,-19.531,-64.941,-27.832,-14.648,0.000
1709291352.781,-19.531,-78.613,-26.855,-26.367,0.000
1709291352.785,-26.855,-78.125,-22.461,-29.785,0.000
1709291352.789,-20.020,-45.410,-26.855,-20.020,0.000
1709291352.793,-15.625,-42.969,-35.156,-1.465,0.000
1709291352.797,-12.695,-62.500,-31.738,-21.484,0.000
1709291352.801,-27.344,-58.105,-27.832,-35.645,0.000
1709291352.805,-38.574,-50.781,-28.809,-16.113,0.000
1709291352.809,-37.598,-60.547,-31.250,-18.066,0.000
1709291352.812,-26.367,-78.613,-32.715,-8.789,0.000
1709291352.816,-10.254,-65.430,-30.762,-7.812,0.000
1709291352.820,-12.207,-45.898,-20.508,-26.367,0.000
1709291352.824,-36.621,-68.359,-41.504,-44.434,0.000
1709291352.828,-53.711,-88.379,-50.293,-35.156,0.000
1709291352.832,-38.086,-67.871,-40.039,-21.484,0.000
1709291352.836,-22.461,-54.688,-35.645,-20.020,0.000
1709291352.840,-32.227,-71.289,-32.227,-29.785,0.000
1709291352.844,-40.039,-61.035,-35.645,-39.062,0.000
1709291352.848,-36.133,-51.270,-33.691,-15.625,0.000
1709291352.851,-27.344,-54.199,-33.203,-1.465,0.000
1709291352.855,-29.297,-60.059,-37.598,-18.066,0.000
1709291352.859,-20.020,-51.270,-38.086,-22.461,0.000
1709291352.863,-11.230,-33.691,-34.180,-25.391,0.000
1709291352.867,-19.043,-51.758,-38.574,-39.062,0.000
1709291352.871,-27.832,-64.453,-35.156,-19.531,0.000
1709291352.875,-18.555,-56.641,-34.180,-5.371,0.000
1709291352.879,-9.277,-47.852,-37.109,-33.691,0.000
1709291352.882,-28.809,-44.434,-37.109,-37.598,0.000
1709291352.886,-35.645,-59.570,-32.227,-19.531,0.000
1709291352.890,-22.949,-58.105,-28.809,-15.625,0.000
1709291352.894,-21.484,-40.039,-32.227,-25.879,0.000
1709291352.899,-29.297,-45.898,-30.762,-41.016,0.000
1709291352.902,-33.203,-62.500,-34.668,-54.199,0.000
1709291352.906,-41.016,-54.688,-35.645,-40.039,0.000
1709291352.910,-40.039,-46.387,-37.109,-17.578,0.000
1709291352.914,-35.645,-60.547,-40.527,-22.461,0.000
1709291352.918,-28.320,-84.961,-34.180,-35.156,0.000
1709291352.922,-25.879,-71.289,-29.297,-34.668,0.000
1709291352.926,-31.738,-53.711,-35.645,-23.438,0.000
1709291352.930,-30.762,-66.895,-38.086,-9.766,0.000
1709291352.934,-29.785,-81.543,-32.715,0.488,0.000
1709291352.938,-21.484,-55.176,-31.250,-17.578,0.000
1709291352.942,-23.438,-37.598,-31.250,-41.016,0.000
1709291352.946,-40.039,-55.664,-33.691,-33.203,0.000
1709291352.950,-31.738,-60.059,-37.109,-14.160,0.000
1709291352.953,-20.996,-52.734,-33.203,-11.719,0.000
1709291352.957,-35.645,-48.340,-28.809,-21.484,0.000
1709291352.961,-41.992,-59.570,-25.391,-41.992,0.000
1709291352.965,-37.109,-62.500,-25.391,-48.828,0.000
1709291352.969,-34.180,-48.828,-34.668,-37.109,0.000
1709291352.973,-31.250,-37.109,-39.551,-27.832,0.000
1709291352.977,-32.227,-57.129,-33.691,-41.992,0.000
1709291352.981,-41.992,-78.613,-27.344,-57.129,0.000
1709291352.985,-45.898,-52.734,-29.297,-41.992,0.000
1709291352.989,-39.062,-50.293,-31.738,-13.672,0.000
1709291352.993,-32.227,-60.547,-32.715,-2.441,0.000
1709291352.996,-25.879,-51.758,-27.344,-5.371,0.000
1709291353.000,-29.297,-50.781,-27.832,-26.367,0.000
1709291353.004,-38.086,-59.082,-30.273,-32.227,0.000
1709291353.008,-37.109,-66.895,-28.809,-11.230,0.000
1709291353.012,-35.645,-64.941,-34.180,0.488,0.000
1709291353.016,-39.062,-56.641,-37.109,-5.371,0.000
1709291353.020,-22.949,-54.199,-26.855,-20.508,0.000
1709291353.024,-13.672,-74.219,-17.578,-12.695,0.000
1709291353.028,-25.391,-60.547,-32.715,-28.809,0.000
1709291353.032,-23.438,-40.527,-39.062,-40.527,0.000
1709291353.036,-24.902,-53.711,-33.203,-25.879,0.000
1709291353.039,-25.391,-59.570,-39.551,-37.109,0.000
1709291353.043,-16.602,-57.617,-33.691,-50.781,0.000
1709291353.047,-18.066,-51.758,-28.809,-39.062,0.000
1709291353.051,-12.695,-46.387,-33.691,-31.250,0.000
1709291353.055,-6.348,-44.434,-31.250,-9.766,0.000
1709291353.059,-11.230,-50.781,-24.902,-10.254,0.000
1709291353.063,-27.832,-59.570,-23.438,-30.762,0.000
1709291353.067,-39.551,-67.871,-27.344,-25.391,0.000
1709291353.071,-22.461,-63.477,-27.832,14.648,0.000
1709291353.075,-11.230,-29.785,-28.320,16.602,0.000
1709291353.078,-20.020,-40.039,-31.738,-6.348,0.000
1709291353.082,-25.879,-59.082,-31.738,-16.602,0.000
1709291353.086,-26.855,-51.758,-29.785,-31.250,0.000
1709291353.090,-16.113,-51.270,-26.367,-18.555,0.000
1709291353.094,-24.414,-57.129,-27.344,-7.324,0.000
1709291353.098,-39.062,-68.359,-33.691,-20.508,0.000
1709291353.102,-24.902,-69.336,-33.691,-39.551,0.000
1709291353.106,-23.438,-52.734,-34.180,-38.086,0.000
1709291353.110,-35.156,-58.105,-33.691,-22.461,0.000
1709291353.114,-32.715,-76.660,-31.738,-10.742,0.000
1709291353.117,-26.367,-47.852,-30.273,-14.160,0.000
1709291353.121,-25.391,-39.551,-29.297,-34.180,0.000
1709291353.125,-18.066,-62.500,-27.832,-41.016,0.000
1709291353.129,-18.066,-53.711,-29.297,-29.785,0.000
1709291353.133,-23.926,-47.852,-37.598,-24.902,0.000
1709291353.137,-21.484,-59.082,-35.645,-34.668,0.000
1709291353.141,-23.926,-62.988,-32.227,-62.988,0.000
1709291353.145,-31.738,-51.758,-36.621,-68.848,0.000
1709291353.149,-30.273,-52.734,-35.645,-42.969,0.000
1709291353.152,-31.738,-62.500,-33.691,-17.578,0.000
1709291353.156,-30.273,-69.336,-32.227,-11.230,0.000
1709291353.160,-26.367,-76.660,-30.273,-32.715,0.000
1709291353.164,-45.898,-44.922,-30.762,-58.594,0.000
1709291353.168,-45.410,-44.922,-33.691,-27.832,0.000
1709291353.172,-13.672,-61.523,-21.484,9.277,0.000
1709291353.176,-10.254,-52.246,-25.391,-8.789,0.000
1709291353.180,-40.039,-48.828,-41.016,-31.250,0.000
1709291353.183,-45.898,-56.641,-46.875,-51.270,0.000
1709291353.187,-29.785,-70.801,-42.969,-47.852,0.000
1709291353.191,-22.461,-58.105,-39.062,-19.531,0.000
1709291353.195,-17.090,-46.387,-43.945,-0.488,0.000
1709291353.199,-13.672,-64.453,-39.551,-22.949,0.000
1709291353.203,-35.156,-83.008,-36.621,-37.598,0.000
1709291353.207,-40.039,-54.688,-39.062,-37.109,0.000
1709291353.211,-30.762,-44.434,-40.527,-16.602,0.000
1709291353.215,-29.785,-55.664,-40.527,-12.695,0.000
1709291353.219,-31.250,-51.270,-39.062,-43.945,0.000
1709291353.223,-44.434,-50.293,-41.016,-63.965,0.000
1709291353.226,-40.039,-51.270,-40.039,-50.781,0.000
1709291353.230,-38.574,-63.965,-39.551,-30.762,0.000
1709291353.234,-33.203,-62.988,-41.016,-18.066,0.000
1709291353.238,-23.926,-49.805,-38.086,-19.531,0.000
1709291353.242,-29.297,-54.199,-40.039,-41.992,0.000
1709291353.246,-35.645,-69.336,-43.457,-39.062,0.000
1709291353.250,-31.250,-59.570,-36.133,-22.461,0.000
1709291353.253,-22.461,-30.762,-33.203,-8.301,0.000
1709291353.257,-20.020,-32.227,-29.297,-11.719,0.000
1709291353.261,-16.602,-59.570,-23.438,-7.812,0.000
1709291353.265,-26.855,-60.547,-34.180,-13.672,0.000
1709291353.269,-16.602,-44.434,-32.227,-14.160,0.000
1709291353.273,-12.207,-46.875,-25.879,-6.348,0.000
1709291353.277,-24.902,-51.758,-24.414,-6.836,0.000
1709291353.281,-26.855,-55.176,-28.320,-20.508,0.000
1709291353.285,-32.715,-46.387,-34.180,-34.180,0.000
1709291353.289,-34.668,-52.734,-27.344,-17.578,0.000
1709291353.293,-13.672,-67.871,-26.855,-0.977,0.000
1709291353.297,-12.695,-56.152,-24.414,-3.906,0.000
1709291353.301,-33.203,-46.387,-23.926,-26.367,0.000
1709291353.305,-39.062,-58.105,-25.879,-31.250,0.000
1709291353.308,-37.598,-83.496,-28.320,-2.930,0.000
1709291353.312,-15.625,-47.363,-22.461,8.301,0.000
1709291353.316,-1.953,-34.668,-16.602,0.000,0.000
1709291353.320,-7.812,-54.688,-20.508,-17.090,0.000
1709291353.324,-3.418,-36.133,-14.160,-11.230,0.000
1709291353.328,-11.719,-40.527,-19.531,-1.465,0.000
1709291353.332,-19.531,-52.734,-28.809,-6.348,0.000
1709291353.336,-18.066,-51.270,-25.879,1.465,0.000
1709291353.340,-32.227,-67.383,-26.855,-12.207,0.000
1709291353.344,-25.879,-57.129,-28.320,-32.227,0.000
1709291353.348,-13.184,-46.387,-33.203,-22.949,0.000
1709291353.352,-14.648,-63.477,-33.203,5.859,0.000
1709291353.356,-12.695,-64.941,-29.785,19.531,0.000
1709291353.359,-26.855,-39.551,-33.203,-4.883,0.000
1709291353.363,-36.621,-45.410,-31.738,-16.602,0.000
1709291353.369,-24.902,-62.988,-27.832,-21.484,0.000
1709291353.373,-17.090,-49.316,-24.414,-1.953,0.000
1709291353.377,-10.254,-40.527,-23.926,8.789,0.000
1709291353.380,-26.855,-56.152,-31.250,-25.879,0.000
1709291353.384,-48.340,-63.477,-34.180,-37.109,0.000
1709291353.388,-43.945,-62.500,-32.715,-28.320,0.000
1709291353.392,-40.527,-63.477,-36.621,-28.809,0.000
1709291353.396,-44.922,-66.406,-38.086,-24.902,0.000
1709291353.400,-42.480,-83.496,-39.551,-28.809,0.000
1709291353.404,-38.086,-59.570,-45.898,-46.387,0.000
1709291353.408,-41.016,-40.527,-40.039,-42.480,0.000
1709291353.412,-36.621,-65.430,-35.645,-27.344,0.000
1709291353.416,-28.809,-64.941,-34.180,0.000,0.000
1709291353.420,-30.762,-45.410,-31.738,0.000,0.000
1709291353.423,-40.039,-49.805,-33.691,0.000,0.000
1709291353.427,-40.039,-62.988,-34.180,0.000,0.000
1709291353.431,-31.738,-52.734,-30.273,0.000,0.000
1709291353.435,-27.344,-63.477,-22.461,0.000,0.000
1709291353.439,-26.855,-62.988,-26.367,0.000,0.000
1709291353.443,-35.156,-73.242,-28.809,0.000,0.000
1709291353.447,-41.504,-89.355,-26.855,0.000,0.000
1709291353.451,-32.715,-51.758,-22.949,0.000,0.000
1709291353.455,-38.574,-46.387,-23.438,0.000,0.000
1709291353.459,-36.133,-63.477,-28.809,0.000,0.000
1709291353.462,-25.879,-43.457,-20.996,-28.809,0.000
1709291353.466,-46.875,-45.410,-27.832,-46.875,0.000
1709291353.470,-47.852,-71.289,-35.156,-33.691,0.000
1709291353.474,-35.645,-73.730,-32.227,-11.719,0.000
1709291353.478,-33.691,-54.688,-35.645,-20.508,0.000
1709291353.482,-37.598,-52.246,-37.598,-38.086,0.000
1709291353.486,-39.062,-66.406,-36.621,-54.688,0.000
1709291353.490,-42.480,-80.566,-32.715,-38.574,0.000
1709291353.494,-43.945,-63.477,-31.250,-6.348,0.000
1709291353.498,-42.969,-59.570,-37.598,-29.297,0.000
1709291353.501,-43.457,-67.383,-41.992,-53.223,0.000
1709291353.505,-41.016,-59.570,-34.180,-35.645,0.000
1709291353.509,-28.320,-54.199,-29.785,-14.160,0.000
1709291353.513,-29.785,-51.270,-36.133,-16.113,0.000
1709291353.517,-33.691,-59.570,-34.180,-20.508,0.000
1709291353.521,-42.480,-62.988,-35.156,-46.387,0.000
1709291353.525,-46.875,-60.547,-38.574,-58.105,0.000
1709291353.529,-38.086,-54.199,-25.879,-33.203,0.000
1709291353.532,-51.758,-60.547,-32.227,-14.160,0.000
1709291353.536,-55.176,-76.660,-37.598,-7.324,0.000
1709291353.540,-45.898,-50.293,-33.203,-28.320,0.000
1709291353.544,-47.852,-49.805,-36.133,-57.129,0.000
1709291353.548,-49.805,-61.035,-34.180,-44.434,0.000
1709291353.552,-53.711,-53.223,-29.785,-18.555,0.000
1709291353.556,-47.852,-46.875,-32.227,-6.348,0.000
1709291353.560,-35.645,-58.594,-31.738,-15.137,0.000
1709291353.563,-33.203,-65.430,-26.855,-41.504,0.000
1709291353.567,-40.527,-49.316,-24.902,-40.527,0.000
1709291353.571,-36.133,-45.898,-30.273,-29.297,0.000
1709291353.575,-19.531,-68.848,-37.598,-23.926,0.000
1709291353.579,-26.367,-86.914,-34.180,-27.344,0.000
1709291353.583,-42.969,-66.406,-26.855,-47.852,0.000
1709291353.587,-42.969,-57.617,-30.273,-52.246,0.000
1709291353.591,-36.621,-72.754,-32.715,-28.809,0.000
1709291353.595,-34.180,-70.312,-30.273,-9.766,0.000
1709291353.599,-32.715,-48.340,-28.320,-28.320,0.000
1709291353.602,-29.297,-41.016,-27.344,-49.805,0.000
1709291353.606,-35.645,-64.453,-29.297,-38.086,0.000
1709291353.610,-38.574,-65.430,-30.273,-20.020,0.000
1709291353.614,-29.297,-44.922,-29.297,-7.324,0.000
1709291353.618,-20.996,-61.035,-32.715,-21.484,0.000
1709291353.622,-28.809,-73.242,-32.715,-25.391,0.000
1709291353.626,-43.945,-69.336,-32.227,-16.113,0.000
1709291353.630,-33.203,-38.086,-26.367,-23.926,0.000
1709291353.633,-20.508,-51.758,-23.438,-18.066,0.000
1709291353.637,-25.879,-72.754,-28.320,-23.438,0.000
1709291353.641,-33.203,-54.688,-28.809,-46.387,0.000
1709291353.645,-44.922,-47.363,-26.367,-50.293,0.000
1709291353.649,-42.969,-59.082,-36.621,-39.062,0.000
1709291353.653,-33.203,-75.195,-40.527,-22.461,0.000
1709291353.657,-36.621,-66.895,-35.156,-25.879,0.000
1709291353.661,-49.805,-61.035,-34.180,-45.898,0.000
1709291353.665,-53.223,-68.848,-28.320,-41.504,0.000
1709291353.669,-41.016,-80.566,-29.297,-33.203,0.000
1709291353.673,-28.320,-73.242,-29.297,-10.254,0.000
1709291353.677,-41.992,-56.152,-30.273,-6.836,0.000
1709291353.681,-58.105,-61.035,-31.738,-35.645,0.000
1709291353.684,-52.734,-93.750,-33.691,-51.758,0.000
1709291353.688,-51.758,-68.359,-32.715,-41.016,0.000
1709291353.692,-49.316,-50.781,-36.621,-30.762,0.000
1709291353.696,-27.344,-60.059,-31.738,-13.672,0.000
1709291353.700,-32.227,-53.711,-24.902,-16.113,0.000
1709291353.704,-58.105,-58.594,-38.086,-41.992,0.000
1709291353.708,-49.316,-61.523,-43.457,-30.762,0.000
1709291353.712,-29.297,-68.359,-36.621,-5.371,0.000
1709291353.716,-23.438,-73.730,-29.297,3.418,0.000
1709291353.720,-22.949,-68.359,-27.832,-21.973,0.000
1709291353.724,-43.945,-60.547,-36.133,-34.668,0.000
1709291353.728,-50.781,-75.684,-36.133,-21.973,0.000
1709291353.731,-23.926,-79.102,-30.762,-1.465,0.000
1709291353.735,-23.926,-64.941,-32.715,-8.301,0.000
1709291353.739,-33.691,-57.129,-33.203,-31.250,0.000
1709291353.743,-38.574,-78.613,-35.156,-39.551,0.000
1709291353.747,-43.945,-74.219,-32.715,-29.297,0.000
1709291353.751,-28.320,-45.410,-23.926,-11.719,0.000
1709291353.755,-0.488,-52.734,-20.020,5.859,0.000
1709291353.759,-4.395,-60.059,-23.438,5.371,0.000
1709291353.763,-25.391,-69.824,-22.949,-20.996,0.000
1709291353.767,-26.367,-64.941,-27.344,-23.438,0.000
1709291353.771,-18.066,-51.758,-26.367,-9.766,0.000
1709291353.775,-3.906,-74.707,-25.391,-3.906,0.000
1709291353.778,-4.395,-56.152,-32.227,-12.207,0.000
1709291353.782,-21.973,-33.691,-30.273,-26.367,0.000
1709291353.786,-25.879,-49.805,-27.344,-34.180,0.000
1709291353.790,-7.812,-55.664,-34.668,-21.484,0.000
1709291353.794,-4.395,-53.711,-35.645,8.789,0.000
1709291353.798,-7.812,-55.176,-27.344,10.254,0.000
1709291353.802,-20.020,-63.965,-29.297,-28.809,0.000
1709291353.806,-32.715,-65.430,-31.738,-36.133,0.000
1709291353.810,-22.461,-71.777,-30.762,-24.414,0.000
1709291353.814,-15.137,-62.988,-36.133,-5.371,0.000
1709291353.817,-14.648,-62.988,-39.551,8.789,0.000
1709291353.821,-13.184,-76.660,-37.598,-5.371,0.000
1709291353.825,-22.949,-47.363,-42.969,-21.484,0.000
1709291353.829,-26.855,-43.945,-44.922,-0.977,0.000
1709291353.833,-20.020,-64.941,-33.203,12.695,0.000
1709291353.837,-11.230,-65.918,-31.250,-3.906,0.000
1709291353.841,0.000,-45.410,-27.832,-11.230,0.000
1709291353.845,-32.227,-62.500,-40.039,-28.320,0.000
1709291353.849,-41.992,-73.242,-51.270,-24.414,0.000
1709291353.852,-11.719,-52.734,-41.992,-4.883,0.000
1709291353.856,-0.977,-61.523,-39.062,-0.977,0.000
1709291353.860,-11.230,-66.895,-42.969,-16.602,0.000
1709291353.864,-19.043,-70.801,-37.109,-29.297,0.000
1709291353.868,-11.230,-56.152,-28.809,-8.789,0.000
1709291353.872,-13.672,-44.922,-33.691,-2.441,0.000
1709291353.876,-19.531,-53.223,-35.156,-20.020,0.000
1709291353.880,-27.344,-54.688,-33.203,-24.902,0.000
1709291353.884,-27.832,-56.641,-37.109,-28.320,0.000
1709291353.887,-28.809,-63.477,-40.527,-30.273,0.000
1709291353.891,-20.508,-62.988,-38.086,-13.672,0.000
1709291353.895,-7.812,-54.688,-35.645,-3.418,0.000
1709291353.899,-17.090,-49.805,-38.086,-24.414,0.000
1709291353.903,-32.715,-58.105,-41.504,-49.316,0.000
1709291353.907,-29.297,-74.219,-44.922,-33.691,0.000
1709291353.911,-20.020,-79.590,-43.457,-13.184,0.000
1709291353.915,-23.438,-50.293,-36.621,-18.555,0.000
1709291353.919,-37.598,-49.805,-34.668,-29.785,0.000
1709291353.923,-47.852,-66.406,-39.551,-48.828,0.000
1709291353.927,-44.922,-64.453,-42.969,-60.547,0.000
1709291353.931,-39.062,-59.570,-48.828,-56.152,0.000
1709291353.935,-37.109,-56.641,-45.410,-30.762,0.000
1709291353.939,-33.691,-82.031,-39.551,-18.066,0.000
1709291353.943,-30.762,-75.684,-40.039,-33.203,0.000
1709291353.946,-38.574,-61.035,-41.992,-56.152,0.000
1709291353.950,-43.945,-73.730,-39.062,-54.688,0.000
1709291353.954,-40.039,-85.938,-35.645,-31.250,0.000
1709291353.958,-32.715,-63.477,-34.668,-25.391,0.000
1709291353.962,-35.645,-57.129,-38.574,-44.434,0.000
1709291353.966,-26.855,-63.965,-34.180,-51.270,0.000
1709291353.970,-6.836,-43.457,-20.996,-18.555,0.000
1709291353.974,-26.367,-52.246,-32.715,-18.555,0.000
1709291353.977,-35.156,-61.035,-40.527,-38.574,0.000
1709291353.981,-33.691,-63.477,-39.551,-33.691,0.000
1709291353.985,-42.480,-63.477,-35.645,-43.457,0.000
1709291353.989,-37.598,-55.664,-31.738,-37.109,0.000
1709291353.993,-26.855,-58.105,-30.273,-24.902,0.000
1709291353.997,-26.855,-73.242,-32.227,-28.809,0.000
1709291354.001,-38.574,-68.359,-35.156,-31.250,0.000
1709291354.005,-44.922,-49.316,-31.738,-48.828,0.000
1709291354.009,-45.410,-61.523,-36.133,-55.176,0.000
1709291354.012,-39.551,-77.637,-42.480,-35.156,0.000
1709291354.016,-26.855,-70.801,-48.828,-7.324,0.000
1709291354.020,-20.020,-34.668,-52.246,-25.391,0.000
1709291354.024,0.000,-47.852,-30.273,-39.062,0.000
1709291354.028,0.000,-73.242,-13.672,-30.762,0.000
1709291354.032,0.000,-57.617,-18.555,-30.273,0.000
1709291354.036,0.000,-44.434,-14.648,-26.855,0.000
1709291354.040,0.000,-58.594,-16.602,-53.223,0.000
1709291354.044,0.000,-91.309,-34.180,-82.520,0.000
1709291354.048,0.000,-86.914,-29.297,-61.035,0.000
1709291354.052,0.000,-64.453,-23.438,-42.969,0.000
1709291354.056,0.000,-74.219,-21.973,-41.992,0.000
1709291354.060,0.000,-102.539,-24.414,-32.227,0.000
1709291354.064,0.000,-73.242,-29.297,-35.156,0.000
1709291354.067,0.000,-51.758,-26.367,-48.340,0.000
1709291354.072,-21.973,-63.477,-26.367,-33.203,0.000
1709291354.075,-17.090,-68.848,-27.344,-12.207,0.000
1709291354.079,-10.254,-59.082,-25.391,-17.578,0.000
1709291354.083,-34.668,-55.664,-23.438,-51.270,0.000
1709291354.087,-32.715,-70.312,-24.902,-38.574,0.000
1709291354.091,-11.719,-86.426,-33.203,0.977,0.000
1709291354.095,-0.977,-66.895,-22.949,19.043,0.000
1709291354.099,-4.883,-40.527,-17.578,-0.977,0.000
1709291354.103,-45.898,-77.637,-36.621,-44.922,0.000
1709291354.107,-52.734,-93.750,-35.645,-39.062,0.000
1709291354.111,-27.344,-53.223,-33.691,-0.977,0.000
1709291354.115,-15.625,-52.734,-34.668,15.137,0.000
1709291354.118,-19.531,-73.730,-33.203,-5.859,0.000
1709291354.122,-25.879,-60.059,-31.250,-27.832,0.000
1709291354.126,-24.902,-49.316,-30.273,-26.367,0.000
1709291354.130,-9.766,-62.012,-34.180,-5.371,0.000
1709291354.134,-1.465,-65.430,-37.109,14.160,0.000
1709291354.138,-4.883,-72.754,-28.320,0.488,0.000
1709291354.142,-5.859,-74.707,-23.926,-18.066,0.000
1709291354.146,-7.812,-60.059,-30.273,-25.879,0.000
1709291354.150,-10.254,-79.590,-33.203,-1.953,0.000
1709291354.154,8.301,-59.570,-27.344,30.273,0.000
1709291354.158,15.625,-25.391,-16.113,26.367,0.000
1709291354.161,-11.230,-47.363,-25.391,-7.812,0.000
1709291354.165,-22.949,-60.059,-31.738,-29.785,0.000
1709291354.169,-13.184,-51.270,-30.273,-16.602,0.000
1709291354.173,-8.301,-58.105,-24.414,4.395,0.000
1709291354.177,-23.926,-72.754,-29.785,-7.324,0.000
1709291354.181,-22.949,-63.965,-33.691,-28.809,0.000
1709291354.185,-26.855,-65.430,-29.785,-41.016,0.000
1709291354.189,-31.738,-64.941,-25.391,-22.461,0.000
1709291354.193,-15.625,-71.289,-29.297,6.348,0.000
1709291354.197,-12.207,-81.055,-31.250,8.301,0.000
1709291354.200,-20.996,-46.387,-25.391,-8.301,0.000
1709291354.204,-23.926,-46.387,-27.832,-19.531,0.000
1709291354.208,-24.902,-72.266,-41.504,-10.742,0.000
1709291354.212,0.000,-65.430,-38.574,-1.953,0.000
1709291354.216,0.000,-56.641,-25.879,-0.488,0.000
1709291354.220,0.000,-66.895,-25.879,-16.113,0.000
1709291354.224,0.000,-81.055,-34.180,-33.691,0.000
1709291354.228,0.000,-67.383,-33.691,-30.762,0.000
1709291354.232,0.000,-58.105,-22.949,-9.277,0.000
1709291354.236,0.000,-60.059,-20.020,0.000,0.000
1709291354.239,0.000,-69.336,-23.438,-16.602,0.000
1709291354.243,0.000,-55.664,-24.902,-34.180,0.000
1709291354.247,0.000,-47.363,-33.203,-27.344,0.000
1709291354.251,0.000,-59.082,-41.016,-17.578,0.000
1709291354.255,0.000,-49.316,-30.273,-0.977,0.000
1709291354.259,-26.367,-43.457,-28.320,-8.301,0.000
1709291354.263,-39.062,-54.688,-41.504,-44.434,0.000
1709291354.267,-33.203,-69.336,-41.016,-42.969,0.000
1709291354.270,-40.527,-65.918,-40.527,-13.184,0.000
1709291354.274,-49.805,-62.988,-43.457,-15.625,0.000
1709291354.278,-48.340,-72.266,-44.434,-36.621,0.000
1709291354.282,-44.434,-77.637,-41.504,-32.715,0.000
1709291354.286,-50.781,-79.102,-37.598,-26.855,0.000
1709291354.290,-46.387,-47.852,-36.621,-26.367,0.000
1709291354.294,-29.785,-39.062,-36.621,-14.648,0.000
1709291354.298,-30.273,-58.594,-31.738,-10.742,0.000
1709291354.302,-30.762,-57.617,-22.949,-17.090,0.000
1709291354.305,-34.668,-40.527,-24.414,-32.715,0.000
1709291354.309,-45.898,-58.105,-34.180,-36.133,0.000
1709291354.313,-35.645,-74.219,-33.203,-13.672,0.000
1709291354.317,-30.762,-61.035,-31.738,-14.648,0.000
1709291354.321,-46.875,-52.734,-31.738,-31.250,0.000
1709291354.325,-47.363,-62.988,-29.297,-33.691,0.000
1709291354.329,-35.156,-90.820,-27.344,-9.277,0.000
1709291354.333,-27.344,-63.477,-25.879,10.254,0.000
1709291354.337,-30.762,-45.410,-23.926,-8.301,0.000
1709291354.341,-39.062,-64.941,-32.715,-25.879,0.000
1709291354.344,-38.574,-49.316,-37.109,-29.297,0.000
1709291354.348,-38.574,-40.527,-34.668,-18.066,0.000
1709291354.353,-34.180,-42.969,-34.668,-8.301,0.000
1709291354.356,-12.207,-51.758,-33.203,-0.977,0.000
1709291354.360,-16.602,-57.617,-30.762,-17.578,0.000
1709291354.364,-40.527,-46.875,-31.250,-30.762,0.000
1709291354.368,-49.316,-50.781,-31.250,-28.320,0.000
1709291354.372,-31.250,-67.871,-27.344,-18.066,0.000
1709291354.376,-12.207,-66.895,-18.555,24.902,0.000
1709291354.380,-13.184,-33.203,-12.207,5.859,0.000
1709291354.384,-35.645,-46.875,-29.785,-35.645,0.000
1709291354.388,-45.898,-73.730,-35.156,-23.926,0.000
1709291354.392,-41.016,-64.453,-36.133,-4.395,0.000
1709291354.396,-41.504,-60.059,-38.086,0.000,0.000
1709291354.400,-47.852,-72.754,-36.133,-17.090,0.000
1709291354.404,-54.199,-74.219,-34.668,-34.180,0.000
1709291354.408,-63.965,-59.082,-36.133,-38.574,0.000
1709291354.411,-41.992,-51.270,-32.715,-22.949,0.000
1709291354.415,-18.066,-59.082,-32.227,0.977,0.000
1709291354.419,-25.391,-74.707,-38.086,-14.160,0.000
1709291354.423,-25.879,-75.195,-29.785,-7.812,0.000
1709291354.427,-20.996,-47.852,-23.926,-4.883,0.000
1709291354.431,-19.531,-51.270,-26.855,-6.348,0.000
1709291354.435,-15.137,-86.914,-25.879,12.695,0.000
1709291354.439,-19.043,-55.664,-23.926,-4.883,0.000
1709291354.443,-21.484,-32.715,-24.902,-25.391,0.000
1709291354.447,-28.809,-53.223,-29.297,-20.996,0.000
1709291354.451,-32.227,-64.453,-24.414,-17.578,0.000
1709291354.454,-37.109,-55.176,-28.320,-14.648,0.000
1709291354.458,-40.039,-53.223,-36.621,-13.672,0.000
1709291354.462,-36.621,-69.824,-30.762,-19.043,0.000
1709291354.466,-38.086,-75.195,-28.320,-22.461,0.000
1709291354.470,-26.855,-65.918,-30.273,-15.137,0.000
1709291354.474,-15.137,-59.082,-26.367,0.977,0.000
1709291354.478,-19.043,-67.871,-26.855,-4.395,0.000
1709291354.482,-32.715,-76.660,-34.180,-22.949,0.000
1709291354.486,-39.551,-49.805,-34.668,-21.973,0.000
1709291354.490,-37.109,-49.316,-31.738,-14.648,0.000
1709291354.494,-28.809,-67.383,-34.180,-15.625,0.000
1709291354.498,-44.434,-60.059,-34.180,-15.137,0.000
1709291354.501,-60.059,-51.758,-34.180,-27.832,0.000
1709291354.505,-50.293,-57.129,-34.668,-48.828,0.000
1709291354.509,-41.016,-74.219,-28.320,-31.738,0.000
1709291354.513,-31.250,-73.242,-29.785,2.930,0.000
1709291354.517,-20.996,-62.012,-33.691,-3.906,0.000
1709291354.521,-20.996,-55.664,-32.715,-33.203,0.000
1709291354.525,-35.156,-80.078,-31.738,-33.203,0.000
1709291354.529,-32.715,-67.871,-33.203,-18.555,0.000
1709291354.533,-19.043,-47.852,-32.227,-6.348,0.000
1709291354.537,-27.832,-51.758,-31.250,-17.090,0.000
1709291354.540,-33.691,-50.781,-39.062,-29.297,0.000
1709291354.544,-36.621,-43.945,-42.480,-29.785,0.000
1709291354.548,-35.156,-45.898,-40.039,-15.137,0.000
1709291354.552,-18.066,-53.711,-35.156,-7.812,0.000
1709291354.556,-8.301,-53.223,-30.273,-2.441,0.000
1709291354.560,-20.996,-57.129,-39.062,-6.836,0.000
1709291354.564,-31.738,-61.035,-40.527,-33.203,0.000
1709291354.568,-28.320,-71.777,-36.133,-41.992,0.000
1709291354.572,-10.254,-71.289,-38.086,-5.859,0.000
1709291354.576,0.977,-31.738,-35.156,11.230,0.000
1709291354.580,-13.184,-38.086,-38.086,-24.902,0.000
1709291354.583,-29.785,-64.453,-42.480,-52.734,0.000
1709291354.587,-32.227,-62.500,-45.898,-52.734,0.000
1709291354.591,-10.254,-62.500,-42.480,-20.508,0.000
1709291354.595,0.977,-57.617,-35.645,-0.977,0.000
1709291354.599,-10.742,-57.129,-30.762,-13.184,0.000
1709291354.603,-16.602,-53.223,-28.809,-29.785,0.000
1709291354.607,-10.742,-55.176,-31.738,-19.043,0.000
1709291354.611,0.977,-61.035,-25.879,3.418,0.000
1709291354.615,-1.465,-72.754,-21.973,27.344,0.000
1709291354.618,-5.859,-65.430,-25.879,12.207,0.000
1709291354.622,-16.602,-55.176,-24.902,-32.227,0.000
1709291354.626,-25.879,-56.152,-30.273,-28.809,0.000
1709291354.630,-19.043,-53.711,-33.691,-9.766,0.000
1709291354.634,-20.020,-46.875,-29.785,-4.883,0.000
1709291354.638,-11.230,-43.945,-31.738,-1.953,0.000
1709291354.642,-7.324,-55.176,-30.273,-26.367,0.000
1709291354.646,-19.531,-69.336,-27.832,-41.016,0.000
1709291354.650,-21.484,-61.035,-29.297,-21.973,0.000
1709291354.653,-12.207,-50.293,-31.738,-14.160,0.000
1709291354.657,-11.719,-64.941,-33.203,-8.789,0.000
1709291354.661,-18.066,-78.613,-32.227,-4.883,0.000
1709291354.665,-21.973,-39.551,-34.180,-33.203,0.000
1709291354.669,-18.555,-32.715,-36.133,-35.645,0.000
1709291354.673,-1.465,-61.035,-36.133,-14.648,0.000
1709291354.677,9.277,-53.711,-33.203,-16.113,0.000
1709291354.681,3.418,-46.875,-34.180,-27.344,0.000
1709291354.684,-13.184,-54.688,-34.180,-29.297,0.000
1709291354.688,-13.184,-72.754,-31.250,-20.996,0.000
1709291354.692,-8.789,-62.012,-27.832,-8.301,0.000
1709291354.696,-15.137,-51.758,-23.438,-3.906,0.000
1709291354.700,-34.668,-64.941,-25.879,-29.785,0.000
1709291354.704,-39.062,-89.355,-31.738,-30.762,0.000
1709291354.708,-29.785,-66.406,-35.645,-23.926,0.000
1709291354.712,-16.602,-34.668,-34.668,-23.438,0.000
1709291354.716,-24.902,-54.688,-32.715,-20.508,0.000
1709291354.720,-41.504,-54.688,-38.086,-36.133,0.000
1709291354.723,-27.832,-46.387,-39.551,-31.250,0.000
1709291354.727,-25.879,-50.293,-32.227,-10.742,0.000
1709291354.731,-17.578,-57.617,-22.461,-4.883,0.000
1709291354.735,-16.602,-60.059,-23.926,-1.953,0.000
1709291354.739,-27.344,-54.688,-30.273,-16.602,0.000
1709291354.743,-24.902,-48.340,-32.227,-23.926,0.000
1709291354.747,-19.043,-61.035,-32.227,-15.137,0.000
1709291354.750,-27.832,-69.824,-32.715,-0.977,0.000
1709291354.754,-27.832,-47.852,-31.738,1.953,0.000
1709291354.758,-24.902,-53.223,-32.715,-11.719,0.000
1709291354.762,-31.250,-64.941,-32.227,-20.508,0.000
1709291354.766,-40.527,-57.617,-32.715,-39.551,0.000
1709291354.770,-34.668,-51.758,-34.180,-28.809,0.000
1709291354.774,-20.508,-53.223,-30.762,-9.277,0.000
1709291354.778,-22.949,-64.941,-32.715,-25.391,0.000
1709291354.782,-27.832,-59.570,-37.598,-43.457,0.000
1709291354.786,-20.508,-39.062,-32.227,-39.062,0.000
1709291354.790,-15.137,-41.504,-29.785,-13.184,0.000
1709291354.794,-25.879,-70.801,-45.410,-15.137,0.000
1709291354.798,-33.203,-65.430,-42.969,-20.020,0.000
1709291354.802,-52.246,-52.246,-34.180,-40.039,0.000
1709291354.805,-68.848,-67.383,-41.504,-48.340,0.000
1709291354.809,-61.523,-89.355,-42.480,-16.113,0.000
1709291354.813,-54.199,-69.336,-41.504,-5.859,0.000
1709291354.817,-40.039,-56.641,-43.457,-15.137,0.000
1709291354.821,-18.066,-60.547,-35.645,-7.324,0.000
1709291354.825,-28.320,-55.176,-32.715,-30.273,0.000
1709291354.829,-33.691,-54.688,-30.762,-29.785,0.000
1709291354.833,-17.090,-50.293,-27.344,6.348,0.000
1709291354.837,-12.695,-49.805,-31.738,-2.441,0.000
1709291354.841,-24.414,-61.523,-34.668,-26.367,0.000
1709291354.845,-27.344,-60.059,-35.156,-29.297,0.000
1709291354.849,-14.160,-40.039,-39.551,-19.531,0.000
1709291354.852,-15.137,-57.129,-37.109,-11.719,0.000
1709291354.856,-32.715,-71.289,-41.504,-5.371,0.000
1709291354.860,-36.621,-38.574,-41.016,-29.785,0.000
1709291354.864,-36.621,-44.922,-31.738,-54.688,0.000
1709291354.868,-37.109,-64.453,-32.715,-41.504,0.000
1709291354.872,-37.109,-52.734,-38.086,-12.695,0.000
1709291354.876,-34.668,-51.758,-42.480,-20.508,0.000
1709291354.880,-41.992,-58.105,-36.621,-52.246,0.000
1709291354.884,-45.898,-60.059,-32.227,-49.805,0.000
1709291354.888,-44.922,-65.430,-37.109,-31.738,0.000
1709291354.892,-27.832,-52.246,-28.809,-4.883,0.000
1709291354.895,-8.789,-39.551,-16.113,11.719,0.000
1709291354.899,-29.297,-85.449,-29.785,0.977,0.000
1709291354.903,-38.574,-70.801,-36.621,-36.133,0.000
1709291354.907,-34.668,-42.480,-37.598,-37.109,0.000
1709291354.911,-27.344,-51.758,-32.227,-7.324,0.000
1709291354.915,-8.789,-44.922,-26.855,5.859,0.000
1709291354.919,-14.648,-42.480,-27.832,-7.812,0.000
1709291354.923,-20.508,-47.852,-29.785,-25.391,0.000
1709291354.927,-33.203,-60.547,-31.738,-20.508,0.000
1709291354.931,-39.551,-59.570,-31.250,-5.859,0.000
1709291354.934,-18.066,-57.617,-24.902,10.742,0.000
1709291354.938,-14.648,-52.734,-25.391,-1.465,0.000
1709291354.942,-28.809,-62.988,-32.227,-31.250,0.000
1709291354.946,-39.062,-77.148,-28.809,-31.250,0.000
1709291354.950,-23.926,-39.062,-22.949,-3.418,0.000
1709291354.954,-20.996,-37.109,-23.438,3.906,0.000
1709291354.958,-20.020,-61.523,-31.738,-17.090,0.000
1709291354.962,-22.949,-56.641,-38.574,-31.738,0.000
1709291354.966,-29.785,-56.152,-36.133,-24.414,0.000
1709291354.970,-27.832,-62.988,-31.250,-2.930,0.000
1709291354.973,-17.578,-68.359,-26.855,15.137,0.000
1709291354.977,-21.484,-62.012,-28.320,-1.953,0.000
1709291354.981,-44.434,-63.477,-35.645,-13.672,0.000
1709291354.985,-45.410,-78.613,-34.180,-20.020,0.000
1709291354.989,-28.809,-85.938,-29.297,-9.277,0.000
1709291354.993,-9.766,-49.805,-23.438,12.207,0.000
1709291354.997,-26.367,-49.805,-36.133,-10.254,0.000
1709291355.001,-39.062,-67.383,-41.016,-36.133,0.000
1709291355.005,-37.598,-70.312,-37.598,-44.434,0.000
1709291355.009,-41.016,-62.012,-36.133,-37.109,0.000
1709291355.013,-25.879,-65.918,-33.203,-6.348,0.000
1709291355.017,-24.414,-78.125,-33.203,-1.953,0.000
1709291355.021,-22.461,-65.430,-29.785,-34.668,0.000
1709291355.025,-30.762,-61.523,-37.109,-51.758,0.000
1709291355.029,-36.621,-66.895,-35.156,-33.691,0.000
1709291355.033,-34.668,-72.266,-36.133,-14.160,0.000
1709291355.037,-32.715,-77.148,-38.086,-6.348,0.000
1709291355.040,-30.762,-46.875,-35.645,-27.832,0.000
1709291355.044,-37.598,-48.340,-38.086,-47.852,0.000
1709291355.048,-29.785,-66.406,-34.180,-32.715,0.000
1709291355.052,-15.137,-58.594,-32.227,0.488,0.000
1709291355.056,-3.906,-51.758,-27.832,1.465,0.000
1709291355.060,7.324,-60.547,-32.715,-22.461,0.000
1709291355.064,-4.395,-78.613,-36.133,-33.203,0.000
1709291355.068,-22.461,-67.871,-32.715,-35.156,0.000
1709291355.071,-16.602,-55.176,-27.344,-17.090,0.000
1709291355.075,-1.953,-57.617,-20.996,1.465,0.000
1709291355.079,-31.250,-83.496,-39.551,-21.484,0.000
1709291355.083,-55.176,-67.383,-45.410,-37.109,0.000
1709291355.087,-48.828,-51.270,-35.645,-42.480,0.000
1709291355.091,-41.992,-72.754,-32.715,-27.344,0.000
1709291355.095,-27.832,-66.895,-29.297,1.465,0.000
1709291355.099,-13.672,-40.039,-29.785,-9.766,0.000
