timestamps,TP9,AF7,AF8,TP10,Right AUX
1709140546.650,-37.109,-42.969,-31.250,-25.391,0.000
1709140546.654,-33.203,-52.246,-32.227,-32.715,0.000
1709140546.658,-43.457,-36.133,-24.902,-32.227,0.000
1709140546.662,-42.480,-36.133,-26.367,-26.855,0.000
1709140546.666,-37.109,-41.992,-20.508,-29.297,0.000
1709140546.670,-41.992,-40.039,-18.555,-31.738,0.000
1709140546.673,-46.875,-37.109,-23.926,-32.227,0.000
1709140546.677,-52.734,-42.480,-25.879,-27.344,0.000
1709140546.681,-46.875,-53.711,-23.438,-25.391,0.000
1709140546.685,-41.016,-57.617,-25.391,-27.832,0.000
1709140546.689,-32.227,-52.246,-24.902,-20.996,0.000
1709140546.693,-17.578,-47.852,-23.926,-21.973,0.000
1709140546.697,-34.180,-51.270,-26.367,-32.715,0.000
1709140546.701,-39.551,-60.547,-18.066,-28.809,0.000
1709140546.705,-39.062,-44.922,-25.391,-24.414,0.000
1709140546.709,-42.480,-22.949,-28.809,-35.645,0.000
1709140546.713,-38.086,-28.320,-19.531,-43.457,0.000
1709140546.717,-40.039,-29.297,-14.648,-38.086,0.000
1709140546.720,-38.574,-31.738,-20.996,-37.598,0.000
1709140546.724,-40.039,-40.039,-33.691,-41.016,0.000
1709140546.728,-40.527,-36.133,-32.227,-50.293,0.000
1709140546.732,-36.621,-48.828,-27.832,-57.617,0.000
1709140546.736,-37.109,-54.688,-14.160,-54.688,0.000
1709140546.740,-40.039,-33.691,-10.742,-50.781,0.000
1709140546.744,-36.133,-23.438,-16.602,-49.316,0.000
1709140546.748,-38.086,-26.367,-19.531,-50.781,0.000
1709140546.752,-41.992,-28.809,-23.926,-58.105,0.000
1709140546.755,-41.504,-29.297,-25.391,-62.500,0.000
1709140546.759,-45.898,-28.809,-27.832,-53.223,0.000
1709140546.763,-46.875,-27.832,-28.320,-46.387,0.000
1709140546.767,-44.434,-37.598,-22.949,-38.574,0.000
1709140546.771,-36.133,-45.410,-23.438,-30.273,0.000
1709140546.775,-35.156,-51.270,-27.344,-35.645,0.000
1709140546.779,-29.297,-47.852,-20.996,-35.156,0.000
1709140546.783,-23.926,-32.715,-28.320,-40.039,0.000
1709140546.787,-39.062,-34.180,-31.738,-44.434,0.000
1709140546.790,-39.551,-32.715,-22.461,-41.992,0.000
1709140546.794,-39.062,-36.621,-32.227,-40.039,0.000
1709140546.798,-40.527,-43.945,-41.504,-34.180,0.000
1709140546.802,-40.039,-41.992,-38.574,-36.621,0.000
1709140546.806,-45.898,-52.246,-40.039,-51.758,0.000
1709140546.810,-35.645,-83.496,-42.969,-48.828,0.000
1709140546.814,-38.574,-73.242,-47.363,-45.898,0.000
1709140546.818,-50.781,-44.922,-47.852,-54.199,0.000
1709140546.822,-42.480,-46.875,-44.434,-48.340,0.000
1709140546.826,-39.551,-29.785,-41.504,-45.898,0.000
1709140546.829,-38.086,-26.367,-35.156,-49.316,0.000
1709140546.833,-31.250,-39.062,-31.250,-50.293,0.000
1709140546.837,-28.809,-36.133,-34.180,-51.758,0.000
1709140546.841,-32.227,-37.109,-32.715,-45.410,0.000
1709140546.845,-30.273,-29.297,-27.344,-32.227,0.000
1709140546.849,-22.949,-30.762,-30.762,-36.133,0.000
1709140546.853,-23.926,-32.715,-35.645,-45.898,0.000
1709140546.857,-31.250,-31.250,-37.598,-40.039,0.000
1709140546.861,-32.227,-45.410,-30.273,-41.016,0.000
1709140546.865,-28.809,-51.758,-27.832,-51.758,0.000
1709140546.869,-32.227,-35.645,-33.691,-52.734,0.000
1709140546.873,-30.762,-32.227,-30.273,-47.852,0.000
1709140546.876,-38.086,-24.414,-27.344,-44.434,0.000
1709140546.880,-41.504,-23.926,-28.320,-34.180,0.000
1709140546.884,-39.551,-34.668,-32.227,-38.086,0.000
1709140546.888,-38.574,-29.297,-31.250,-38.574,0.000
1709140546.892,-38.086,-30.762,-27.832,-31.738,0.000
1709140546.896,-44.922,-30.762,-29.785,-39.551,0.000
1709140546.900,-41.504,-32.715,-32.715,-35.645,0.000
1709140546.904,-34.668,-37.598,-29.297,-26.855,0.000
1709140546.908,-28.809,-45.898,-22.461,-22.461,0.000
1709140546.912,-28.809,-29.785,-23.438,-35.156,0.000
1709140546.916,-43.457,-29.785,-24.414,-41.992,0.000
1709140546.920,-51.270,-50.293,-20.020,-23.926,0.000
1709140546.924,-49.316,-40.527,-20.020,-20.020,0.000
1709140546.927,-45.898,-31.250,-23.926,-31.738,0.000
1709140546.932,0.000,-46.875,-23.438,-43.945,0.000
1709140546.935,0.000,-44.434,-17.578,-48.828,0.000
1709140546.939,0.000,-33.203,-22.949,-49.316,0.000
1709140546.943,0.000,-62.012,-30.273,-44.434,0.000
1709140546.947,0.000,-63.477,-31.738,-45.898,0.000
1709140546.951,0.000,-33.203,-40.039,-58.105,0.000
1709140546.955,0.000,-27.832,-47.363,-61.035,0.000
1709140546.959,0.000,-27.344,-44.434,-56.152,0.000
1709140546.963,0.000,-39.551,-42.969,-43.945,0.000
1709140546.967,0.000,-53.711,-44.922,-45.898,0.000
1709140546.971,0.000,-50.293,-46.875,-58.594,0.000
1709140546.974,0.000,-48.828,-51.758,-50.293,0.000
1709140546.978,-47.363,-47.363,-51.758,-41.016,0.000
1709140546.982,-41.504,-40.527,-53.223,-38.574,0.000
1709140546.986,-36.621,-39.551,-53.711,-37.109,0.000
1709140546.990,-36.621,-46.387,-57.129,-45.898,0.000
1709140546.994,-38.574,-59.570,-66.895,-50.293,0.000
1709140546.998,-44.434,-52.246,-63.477,-50.293,0.000
1709140547.002,-46.387,-25.879,-59.082,-55.176,0.000
1709140547.006,-42.480,-26.855,-60.547,-51.270,0.000
1709140547.010,-51.758,-32.227,-58.594,-50.781,0.000
1709140547.014,-58.594,-24.902,-58.105,-60.547,0.000
1709140547.017,-48.340,-32.227,-53.223,-52.734,0.000
1709140547.021,-39.551,-44.922,-40.039,-50.293,0.000
1709140547.025,-43.457,-46.387,-42.969,-56.641,0.000
1709140547.029,-43.457,-41.016,-50.293,-49.316,0.000
1709140547.033,-42.969,-41.504,-53.223,-45.898,0.000
1709140547.037,-42.480,-54.199,-53.711,-45.410,0.000
1709140547.041,-44.434,-47.852,-50.781,-50.293,0.000
1709140547.045,-48.828,-41.016,-54.199,-58.105,0.000
1709140547.049,-43.945,-43.945,-58.594,-56.152,0.000
1709140547.053,-40.039,-49.316,-56.641,-45.410,0.000
1709140547.056,-39.062,-41.016,-57.617,-40.039,0.000
1709140547.060,-25.879,-31.250,-62.012,-34.180,0.000
1709140547.064,-20.996,-47.852,-59.082,-24.414,0.000
1709140547.068,-24.414,-47.852,-56.641,-28.320,0.000
1709140547.072,-25.391,-31.250,-56.152,-31.250,0.000
1709140547.076,-26.855,-26.855,-57.129,-34.180,0.000
1709140547.080,-28.809,-42.969,-52.246,-32.227,0.000
1709140547.084,-28.809,-51.758,-47.852,-33.691,0.000
1709140547.088,-23.926,-33.203,-48.340,-33.203,0.000
1709140547.092,-30.273,-24.414,-47.363,-44.922,0.000
1709140547.096,-39.062,-22.949,-50.781,-52.734,0.000
1709140547.100,-35.645,-20.996,-43.945,-42.969,0.000
1709140547.104,-21.484,-27.344,-33.691,-43.945,0.000
1709140547.108,-32.227,-39.551,-33.203,-48.340,0.000
1709140547.112,-48.340,-41.992,-28.320,-54.199,0.000
1709140547.115,-46.875,-26.855,-27.344,-52.246,0.000
1709140547.119,-40.039,-31.250,-24.902,-42.480,0.000
1709140547.123,-35.645,-58.594,-23.438,-41.016,0.000
1709140547.127,-30.762,-45.898,-20.996,-42.969,0.000
1709140547.131,-28.320,-33.203,-19.531,-48.828,0.000
1709140547.135,-40.039,-26.367,-25.879,-57.617,0.000
1709140547.139,-45.410,-28.809,-27.832,-53.711,0.000
1709140547.143,-38.086,-34.180,-16.602,-45.410,0.000
1709140547.146,-30.762,-34.180,-3.418,-38.574,0.000
1709140547.150,-35.156,-31.738,-13.184,-39.551,0.000
1709140547.154,-41.992,-28.809,-26.855,-38.574,0.000
1709140547.158,-31.250,-42.480,-15.137,-15.625,0.000
1709140547.162,-27.344,-48.828,-6.836,-12.207,0.000
1709140547.166,-26.367,-41.504,-11.719,-23.926,0.000
1709140547.170,-28.809,-37.109,-12.695,-24.902,0.000
1709140547.174,-37.598,-40.039,-14.648,-27.832,0.000
1709140547.177,-37.109,-53.223,-10.742,-26.367,0.000
1709140547.181,-28.809,-46.875,-1.953,-29.297,0.000
1709140547.185,-30.762,-36.621,1.953,-31.250,0.000
1709140547.189,-48.340,-45.898,0.977,-23.926,0.000
1709140547.193,-48.828,-40.039,-7.812,-33.691,0.000
1709140547.197,-49.316,-42.480,-12.207,-52.246,0.000
1709140547.201,-53.711,-40.527,-13.184,-58.594,0.000
1709140547.205,-51.270,-32.715,-16.113,-57.617,0.000
1709140547.209,-46.387,-41.504,-13.672,-52.734,0.000
1709140547.213,-44.434,-45.410,-19.531,-50.781,0.000
1709140547.217,-42.480,-30.762,-18.066,-50.781,0.000
1709140547.221,-42.480,-34.668,-4.883,-45.410,0.000
1709140547.224,-44.922,-38.574,-5.859,-47.363,0.000
1709140547.228,-41.992,-39.551,-8.789,-52.246,0.000
1709140547.232,-40.527,-52.734,-10.254,-49.316,0.000
1709140547.236,-48.340,-54.688,-14.160,-55.664,0.000
1709140547.240,-48.828,-36.133,-17.090,-58.594,0.000
1709140547.244,-45.410,-38.574,-19.043,-45.898,0.000
1709140547.248,-48.340,-68.848,-22.461,-38.574,0.000
1709140547.252,-51.758,-54.199,-22.949,-52.734,0.000
1709140547.256,-50.781,-38.086,-23.438,-61.523,0.000
1709140547.260,-46.875,-42.480,-23.438,-57.129,0.000
1709140547.264,-47.852,-36.133,-20.020,-59.082,0.000
1709140547.268,-42.480,-46.875,-20.996,-51.270,0.000
1709140547.271,-42.480,-54.199,-24.414,-47.363,0.000
1709140547.275,-43.457,-38.086,-24.414,-44.922,0.000
1709140547.279,-43.945,-36.621,-18.066,-41.992,0.000
1709140547.283,-57.617,-29.785,-17.578,-46.387,0.000
1709140547.287,-48.340,-31.738,-14.160,-46.875,0.000
1709140547.291,-43.457,-48.828,-15.137,-44.434,0.000
1709140547.295,-49.316,-44.922,-24.902,-39.062,0.000
1709140547.299,-43.945,-36.133,-25.391,-43.945,0.000
1709140547.303,-34.180,-42.480,-23.438,-43.945,0.000
1709140547.307,-39.551,-37.598,-28.320,-40.039,0.000
1709140547.311,-50.293,-43.945,-34.180,-43.945,0.000
1709140547.314,-37.598,-50.781,-24.414,-38.574,0.000
1709140547.318,-32.227,-48.828,-16.602,-38.574,0.000
1709140547.322,-36.621,-49.316,-18.066,-38.086,0.000
1709140547.326,-31.738,-39.551,-19.043,-38.574,0.000
1709140547.330,-30.273,-22.461,-18.066,-42.480,0.000
1709140547.334,-35.156,-14.160,-18.066,-44.434,0.000
1709140547.338,-41.016,-26.367,-14.160,-35.156,0.000
1709140547.342,-36.621,-37.109,-16.113,-31.738,0.000
1709140547.346,-30.762,-36.133,-20.508,-36.621,0.000
1709140547.350,-39.062,-50.293,-14.160,-38.574,0.000
1709140547.354,-46.387,-50.781,-10.742,-46.875,0.000
1709140547.357,-40.527,-41.992,-15.625,-53.223,0.000
1709140547.361,-37.109,-49.316,-16.113,-44.434,0.000
1709140547.365,-48.340,-52.246,-18.555,-33.691,0.000
1709140547.369,-54.199,-43.457,-20.020,-36.621,0.000
1709140547.373,-54.199,-33.691,-18.066,-45.410,0.000
1709140547.377,-52.734,-28.809,-22.461,-45.898,0.000
1709140547.381,-42.969,-29.785,-20.996,-42.480,0.000
1709140547.385,-34.180,-27.832,-16.113,-39.551,0.000
1709140547.389,-29.297,-36.133,-15.625,-33.691,0.000
1709140547.393,-27.832,-46.875,-18.555,-38.086,0.000
1709140547.397,-22.461,-53.223,-19.043,-32.715,0.000
1709140547.400,-21.973,-50.781,-19.531,-25.879,0.000
1709140547.404,-31.738,-28.320,-28.809,-32.715,0.000
1709140547.408,-34.180,-24.902,-32.715,-39.062,0.000
1709140547.412,-29.785,-35.645,-27.344,-41.992,0.000
1709140547.416,-29.785,-38.574,-24.902,-40.527,0.000
1709140547.420,-33.691,-39.062,-23.438,-33.691,0.000
1709140547.424,-37.598,-32.227,-20.996,-34.180,0.000
1709140547.428,-37.598,-24.414,-25.879,-30.762,0.000
1709140547.432,-31.738,-41.504,-25.879,-32.715,0.000
1709140547.436,-35.645,-44.434,-17.578,-46.387,0.000
1709140547.439,-52.246,-35.645,-14.648,-52.734,0.000
1709140547.443,-53.711,-30.273,-15.625,-54.688,0.000
1709140547.447,-51.758,-34.180,-20.996,-59.570,0.000
1709140547.451,-47.363,-55.176,-21.973,-53.711,0.000
1709140547.455,-48.340,-48.828,-24.902,-46.387,0.000
1709140547.459,-54.199,-38.574,-33.691,-62.500,0.000
1709140547.463,-53.223,-41.016,-29.785,-66.406,0.000
1709140547.467,-45.898,-51.758,-24.414,-53.223,0.000
1709140547.471,-46.387,-53.223,-26.367,-44.434,0.000
1709140547.474,-51.758,-39.062,-22.949,-34.180,0.000
1709140547.478,-52.734,-36.621,-23.926,-33.203,0.000
1709140547.482,-47.852,-47.852,-29.785,-36.133,0.000
1709140547.486,-29.785,-44.922,-22.461,-33.691,0.000
1709140547.490,-24.902,-33.203,-14.160,-35.156,0.000
1709140547.494,-32.715,-26.367,-15.137,-33.691,0.000
1709140547.498,-34.180,-30.273,-25.391,-30.273,0.000
1709140547.502,-35.156,-49.805,-24.414,-25.879,0.000
1709140547.506,-33.691,-48.340,-19.531,-25.879,0.000
1709140547.509,-37.109,-26.855,-17.578,-30.762,0.000
1709140547.513,-42.969,-20.996,-16.602,-45.898,0.000
1709140547.517,-42.480,-29.785,-21.973,-48.340,0.000
1709140547.521,-41.504,-11.719,-28.809,-45.898,0.000
1709140547.525,-44.922,-3.906,-31.738,-57.129,0.000
1709140547.529,-41.992,-24.414,-32.227,-63.477,0.000
1709140547.533,-42.969,-18.066,-36.621,-72.266,0.000
1709140547.537,-68.359,6.348,-43.945,-79.590,0.000
1709140547.540,-68.848,5.859,-45.898,-75.195,0.000
1709140547.544,-54.199,-0.977,-41.992,-68.848,0.000
1709140547.548,-62.988,-5.859,-44.434,-82.520,0.000
1709140547.552,-72.266,-0.977,-46.875,-100.586,0.000
1709140547.556,-78.125,6.836,-56.152,-107.910,0.000
1709140547.560,-75.684,8.789,-63.477,-107.422,0.000
1709140547.564,-73.730,20.020,-60.059,-97.168,0.000
1709140547.568,-79.590,16.113,-53.711,-103.027,0.000
1709140547.572,-85.938,20.996,-61.523,-130.859,0.000
1709140547.576,-83.008,41.016,-56.641,-133.301,0.000
1709140547.579,-86.914,33.203,-45.410,-124.023,0.000
1709140547.583,-102.539,24.902,-56.152,-124.512,0.000
1709140547.587,-105.957,35.156,-64.941,-122.559,0.000
1709140547.591,-101.074,45.410,-64.941,-133.789,0.000
1709140547.595,-113.281,46.875,-70.312,-155.762,0.000
1709140547.599,-119.629,66.406,-67.383,-155.762,0.000
1709140547.603,-123.047,71.289,-65.918,-162.109,0.000
1709140547.607,-133.301,62.500,-70.801,-171.387,0.000
1709140547.611,-127.441,55.664,-68.359,-164.551,0.000
1709140547.615,-122.559,68.359,-68.359,-164.551,0.000
1709140547.619,-123.535,59.570,-76.660,-160.645,0.000
1709140547.623,-125.488,47.363,-83.008,-151.367,0.000
1709140547.627,-125.000,63.965,-74.219,-144.043,0.000
1709140547.630,-115.723,68.848,-72.266,-140.137,0.000
1709140547.634,-112.305,57.617,-72.754,-136.230,0.000
1709140547.638,-114.746,58.105,-70.801,-136.230,0.000
1709140547.642,-104.004,55.176,-70.312,-136.230,0.000
1709140547.646,-113.770,55.176,-70.312,-142.578,0.000
1709140547.650,-122.070,59.082,-62.988,-134.277,0.000
1709140547.654,-106.934,51.270,-61.523,-123.047,0.000
1709140547.658,-96.680,40.039,-62.012,-126.953,0.000
1709140547.662,-104.004,40.039,-54.688,-129.395,0.000
1709140547.666,-104.004,41.016,-57.617,-124.512,0.000
1709140547.670,-92.773,36.133,-62.500,-109.863,0.000
1709140547.674,-86.914,19.043,-61.523,-107.910,0.000
1709140547.677,-84.473,6.836,-64.941,-110.840,0.000
1709140547.681,-83.008,7.324,-62.988,-104.980,0.000
1709140547.685,-79.590,1.465,-57.129,-91.309,0.000
1709140547.689,-82.031,17.090,-61.523,-95.703,0.000
1709140547.693,-75.195,11.230,-67.871,-95.215,0.000
1709140547.697,-60.059,11.719,-57.129,-80.078,0.000
1709140547.701,-65.918,28.809,-42.969,-80.078,0.000
1709140547.705,-71.777,19.043,-56.152,-83.984,0.000
1709140547.709,-52.734,10.742,-63.965,-83.496,0.000
1709140547.713,-49.316,6.348,-61.035,-72.266,0.000
1709140547.717,-52.734,-3.418,-63.965,-61.035,0.000
1709140547.720,-52.246,-6.836,-63.965,-53.223,0.000
1709140547.724,-45.898,-15.137,-60.547,-49.316,0.000
1709140547.728,-35.645,-40.039,-59.082,-51.270,0.000
1709140547.732,-24.902,-44.434,-54.199,-38.086,0.000
1709140547.736,-16.113,-38.086,-54.688,-34.668,0.000
1709140547.740,-32.227,-32.715,-55.176,-40.039,0.000
1709140547.744,-31.738,-41.504,-49.316,-33.203,0.000
1709140547.748,-11.230,-56.152,-43.457,-18.066,0.000
1709140547.752,8.301,-56.641,-43.945,-0.977,0.000
1709140547.756,14.160,-49.805,-47.363,9.766,0.000
1709140547.760,6.836,-32.227,-43.945,23.438,0.000
1709140547.763,2.441,-25.391,-42.969,19.531,0.000
1709140547.767,22.949,-35.645,-38.086,22.461,0.000
1709140547.771,41.992,-37.109,-31.738,38.574,0.000
1709140547.775,46.387,-52.246,-32.227,42.480,0.000
1709140547.779,52.246,-55.176,-32.715,43.457,0.000
1709140547.783,44.434,-38.086,-30.762,41.992,0.000
1709140547.787,50.293,-36.621,-26.855,53.223,0.000
1709140547.791,61.035,-51.758,-24.902,62.988,0.000
1709140547.795,62.988,-63.965,-26.855,65.430,0.000
1709140547.799,57.129,-54.688,-37.109,61.035,0.000
1709140547.802,60.059,-53.711,-40.039,72.754,0.000
1709140547.806,65.430,-45.898,-36.133,82.520,0.000
1709140547.810,63.477,-38.086,-41.992,64.453,0.000
1709140547.814,75.195,-46.875,-39.551,59.082,0.000
1709140547.818,76.172,-43.457,-32.227,63.965,0.000
1709140547.822,60.547,-34.668,-33.691,69.824,0.000
1709140547.826,66.895,-20.508,-40.039,68.359,0.000
1709140547.830,65.918,-40.527,-39.062,65.430,0.000
1709140547.834,63.477,-48.340,-33.691,60.059,0.000
1709140547.837,65.430,-31.250,-30.273,49.805,0.000
1709140547.841,57.617,-34.668,-32.715,53.223,0.000
1709140547.845,58.594,-32.715,-39.551,57.129,0.000
1709140547.849,58.105,-34.180,-37.109,55.176,0.000
1709140547.853,51.758,-29.297,-33.691,47.852,0.000
1709140547.857,51.758,-22.949,-26.367,47.852,0.000
1709140547.861,52.734,-25.879,-29.297,52.246,0.000
1709140547.865,50.293,-34.180,-29.297,42.480,0.000
1709140547.869,43.945,-54.199,-19.043,34.668,0.000
1709140547.872,38.086,-35.645,-23.438,28.809,0.000
1709140547.876,28.320,-10.742,-23.438,20.020,0.000
1709140547.880,20.996,-16.113,-20.508,15.625,0.000
1709140547.884,25.391,-36.133,-28.809,25.879,0.000
1709140547.888,30.762,-60.059,-28.809,20.020,0.000
1709140547.892,17.090,-44.922,-23.438,0.488,0.000
1709140547.896,-2.930,-17.090,-32.227,-11.719,0.000
1709140547.900,0.488,-16.113,-37.109,-14.160,0.000
1709140547.904,12.695,-24.902,-33.691,0.977,0.000
1709140547.908,14.648,-37.109,-30.273,3.906,0.000
1709140547.911,15.625,-32.715,-29.785,-3.418,0.000
1709140547.915,1.465,-37.598,-27.344,-7.812,0.000
1709140547.919,-0.488,-38.086,-24.414,0.488,0.000
1709140547.923,-1.953,-27.832,-25.391,2.930,0.000
1709140547.927,-3.418,-20.508,-23.438,-9.766,0.000
1709140547.931,5.371,-22.949,-24.902,-10.742,0.000
1709140547.935,12.207,-53.223,-27.832,-6.348,0.000
1709140547.939,9.277,-48.828,-24.902,-0.977,0.000
1709140547.942,5.859,-22.949,-23.926,-4.883,0.000
1709140547.946,5.371,-17.578,-23.438,-7.324,0.000
1709140547.950,3.906,-23.438,-22.949,-0.977,0.000
1709140547.954,-1.465,-51.758,-30.273,-11.230,0.000
1709140547.958,-18.066,-46.387,-27.832,-23.438,0.000
1709140547.962,-24.414,-26.855,-14.160,-21.973,0.000
1709140547.966,-18.066,-28.320,-17.578,-24.414,0.000
1709140547.970,-16.602,-29.785,-20.996,-16.113,0.000
1709140547.974,-24.902,-48.340,-20.020,-10.254,0.000
1709140547.978,-24.414,-45.898,-20.996,-13.184,0.000
1709140547.982,-10.254,-36.621,-18.066,-5.859,0.000
1709140547.986,-17.090,-46.387,-23.438,-11.230,0.000
1709140547.990,-24.902,-47.363,-31.738,-32.227,0.000
1709140547.994,-27.344,-42.480,-27.832,-44.922,0.000
1709140547.997,-35.645,-32.715,-27.344,-35.156,0.000
1709140548.001,-31.738,-34.180,-35.645,-30.273,0.000
1709140548.005,-26.855,-41.992,-29.297,-31.250,0.000
1709140548.009,-27.344,-44.434,-21.484,-28.320,0.000
1709140548.013,-20.020,-53.711,-26.855,-31.738,0.000
1709140548.017,-18.555,-41.016,-31.250,-30.762,0.000
1709140548.021,-22.949,-29.297,-28.320,-24.414,0.000
1709140548.025,-25.879,-41.016,-24.414,-30.762,0.000
1709140548.029,-33.691,-50.293,-33.691,-39.062,0.000
1709140548.033,-36.621,-47.363,-26.855,-43.945,0.000
1709140548.037,-44.922,-35.645,-22.949,-50.293,0.000
1709140548.041,-45.898,-42.480,-21.973,-41.016,0.000
1709140548.044,-44.434,-53.711,-26.367,-21.973,0.000
1709140548.048,-41.016,-38.086,-30.762,-29.785,0.000
1709140548.052,-36.621,-33.203,-26.855,-35.645,0.000
1709140548.056,-31.738,-35.156,-23.926,-34.180,0.000
1709140548.060,-32.227,-30.762,-22.461,-41.504,0.000
1709140548.064,-36.133,-32.227,-23.926,-47.363,0.000
1709140548.068,-41.504,-42.480,-27.832,-49.316,0.000
1709140548.072,-51.270,-50.781,-34.180,-53.711,0.000
1709140548.076,-62.988,-47.363,-32.715,-72.266,0.000
1709140548.080,-66.895,-40.527,-26.367,-75.684,0.000
1709140548.084,-54.688,-41.504,-27.832,-67.383,0.000
1709140548.088,-65.430,-36.133,-31.738,-76.660,0.000
1709140548.091,-76.660,-24.902,-29.297,-85.449,0.000
1709140548.095,-78.125,-25.879,-24.414,-85.938,0.000
1709140548.099,-83.496,-38.086,-23.438,-84.473,0.000
1709140548.103,-81.055,-47.363,-35.156,-83.008,0.000
1709140548.107,-77.637,-37.598,-31.738,-77.148,0.000
1709140548.111,-74.707,-37.109,-26.855,-64.941,0.000
1709140548.115,-73.730,-66.406,-28.809,-64.453,0.000
1709140548.119,-63.477,-51.758,-26.367,-65.918,0.000
1709140548.123,-58.594,-26.367,-25.391,-60.059,0.000
1709140548.127,-63.477,-38.086,-33.691,-71.777,0.000
1709140548.131,-59.082,-42.969,-36.133,-70.312,0.000
1709140548.134,-59.570,-40.039,-30.273,-56.152,0.000
1709140548.138,-64.453,-34.180,-30.762,-67.871,0.000
1709140548.142,-55.176,-36.621,-30.762,-62.012,0.000
1709140548.146,-49.805,-36.133,-28.809,-49.805,0.000
1709140548.150,-54.199,-38.574,-31.738,-57.617,0.000
1709140548.154,-42.480,-45.898,-36.133,-62.012,0.000
1709140548.158,-41.016,-53.711,-27.344,-57.129,0.000
1709140548.162,-52.734,-62.500,-25.391,-41.016,0.000
1709140548.166,-40.527,-62.012,-39.062,-42.969,0.000
1709140548.170,-26.367,-69.336,-38.086,-50.293,0.000
1709140548.173,-35.645,-62.988,-35.156,-42.480,0.000
1709140548.177,-44.434,-33.203,-41.992,-46.387,0.000
1709140548.181,-53.223,-25.879,-34.668,-56.641,0.000
1709140548.185,-49.316,-37.598,-24.902,-53.711,0.000
1709140548.189,-38.086,-49.316,-24.902,-46.387,0.000
1709140548.193,-39.062,-40.527,-24.902,-41.504,0.000
1709140548.197,-36.621,-37.109,-24.902,-42.969,0.000
1709140548.201,-31.738,-48.828,-31.250,-32.227,0.000
1709140548.205,-34.668,-55.176,-35.645,-21.484,0.000
1709140548.208,-38.086,-49.805,-28.809,-27.832,0.000
1709140548.212,-38.574,-35.156,-27.344,-32.227,0.000
1709140548.216,-38.574,-48.828,-23.926,-33.691,0.000
1709140548.220,-31.738,-67.871,-23.438,-25.391,0.000
1709140548.224,-31.738,-60.059,-26.855,-16.602,0.000
1709140548.228,-34.668,-33.203,-20.508,-22.461,0.000
1709140548.232,-28.320,-43.457,-26.367,-26.855,0.000
1709140548.236,-20.020,-73.730,-26.855,-26.367,0.000
1709140548.240,-19.531,-41.992,-20.508,-28.320,0.000
1709140548.243,-20.020,-15.625,-29.297,-31.738,0.000
1709140548.247,-34.180,-24.414,-30.273,-31.738,0.000
1709140548.251,-40.527,-39.551,-23.438,-36.133,0.000
1709140548.255,-39.551,-59.082,-27.832,-44.922,0.000
1709140548.259,-40.527,-63.477,-26.855,-48.828,0.000
1709140548.263,-41.016,-48.340,-23.438,-46.387,0.000
1709140548.267,-42.480,-27.344,-24.902,-46.875,0.000
1709140548.271,-38.574,-43.945,-26.855,-41.016,0.000
1709140548.275,-26.367,-63.965,-32.227,-40.039,0.000
1709140548.279,-18.066,-46.875,-27.344,-43.457,0.000
1709140548.282,-26.367,-45.410,-24.414,-44.434,0.000
1709140548.286,-37.598,-53.711,-29.297,-40.527,0.000
1709140548.290,-40.527,-42.480,-29.297,-41.504,0.000
1709140548.294,-46.875,-40.039,-29.297,-55.176,0.000
1709140548.298,-47.363,-43.945,-28.320,-52.246,0.000
1709140548.302,-41.992,-45.410,-26.855,-35.645,0.000
1709140548.306,-45.898,-53.711,-21.973,-41.504,0.000
1709140548.310,-51.270,-42.969,-22.949,-49.805,0.000
1709140548.313,-43.457,-51.758,-33.203,-50.293,0.000
1709140548.317,-54.199,-57.617,-42.480,-56.152,0.000
1709140548.321,-58.105,-44.434,-35.156,-43.945,0.000
1709140548.325,-43.457,-57.129,-35.156,-39.551,0.000
1709140548.329,-42.480,-64.941,-40.039,-58.594,0.000
1709140548.333,-48.828,-38.574,-34.180,-70.312,0.000
1709140548.337,-50.781,-26.367,-33.691,-59.570,0.000
1709140548.341,-49.316,-48.340,-38.574,-47.363,0.000
1709140548.345,-45.410,-60.059,-30.762,-34.668,0.000
1709140548.349,-43.457,-38.086,-22.461,-38.086,0.000
1709140548.353,-39.062,-38.574,-18.066,-41.016,0.000
1709140548.357,-30.762,-46.387,-22.949,-25.879,0.000
1709140548.361,-34.180,-31.738,-23.926,-32.227,0.000
1709140548.365,-38.574,-37.598,-22.461,-40.527,0.000
1709140548.368,-33.691,-50.781,-22.461,-28.809,0.000
1709140548.372,-30.273,-75.195,-20.508,-20.020,0.000
1709140548.376,-40.527,-51.758,-24.902,-32.227,0.000
1709140548.380,-47.852,-17.090,-26.367,-35.645,0.000
1709140548.384,-39.551,-26.855,-28.320,-29.297,0.000
1709140548.388,-39.062,-46.387,-27.344,-36.133,0.000
1709140548.392,-43.457,-30.273,-26.367,-37.109,0.000
1709140548.396,-31.738,-26.855,-30.273,-34.180,0.000
1709140548.400,-39.551,-43.457,-32.227,-31.250,0.000
1709140548.404,-54.688,-45.410,-26.855,-26.367,0.000
1709140548.408,-42.480,-43.945,-12.695,-24.414,0.000
1709140548.412,-33.203,-44.434,-12.695,-29.297,0.000
1709140548.415,-41.016,-51.758,-15.137,-30.273,0.000
1709140548.419,-46.387,-54.688,-21.484,-13.184,0.000
1709140548.423,-45.410,-33.203,-32.715,-16.602,0.000
1709140548.427,-33.691,-44.922,-14.648,-20.020,0.000
1709140548.431,-27.832,-57.617,-16.602,-21.484,0.000
1709140548.435,-31.738,-38.574,-31.250,-29.297,0.000
1709140548.439,-32.715,-29.785,-28.320,-28.809,0.000
1709140548.443,-33.691,-27.344,-20.996,-25.879,0.000
1709140548.447,-25.391,-27.344,-14.648,-28.320,0.000
1709140548.451,-15.625,-41.016,-18.066,-29.785,0.000
1709140548.455,-16.113,-54.199,-25.879,-30.273,0.000
1709140548.458,-15.137,-44.434,-29.297,-36.133,0.000
1709140548.462,-11.230,-44.922,-28.809,-27.832,0.000
1709140548.466,-22.949,-55.176,-33.691,-30.273,0.000
1709140548.470,-40.527,-34.180,-34.180,-40.039,0.000
1709140548.474,-35.645,-23.926,-39.062,-48.828,0.000
1709140548.478,-30.762,-48.828,-38.574,-50.293,0.000
1709140548.482,-40.527,-47.363,-38.574,-50.781,0.000
1709140548.486,-44.922,-29.297,-42.969,-55.176,0.000
1709140548.490,-49.316,-31.738,-41.992,-52.734,0.000
1709140548.494,-47.852,-36.133,-39.062,-49.805,0.000
1709140548.498,-51.270,-56.152,-48.340,-53.223,0.000
1709140548.501,-48.828,-83.984,-45.898,-47.852,0.000
1709140548.505,-47.363,-73.730,-38.086,-49.805,0.000
1709140548.509,-58.105,-25.391,-43.945,-58.105,0.000
1709140548.513,-58.594,-19.531,-42.480,-56.152,0.000
1709140548.517,-49.805,-47.363,-36.133,-56.152,0.000
1709140548.521,-38.086,-48.828,-38.086,-51.758,0.000
1709140548.525,-37.109,-24.414,-35.645,-42.969,0.000
1709140548.529,-33.691,-23.438,-38.086,-53.711,0.000
1709140548.533,-28.320,-37.598,-33.203,-52.246,0.000
1709140548.537,-44.434,-42.969,-36.621,-41.016,0.000
1709140548.541,-40.527,-48.340,-38.086,-40.527,0.000
1709140548.545,-26.855,-62.500,-25.879,-31.250,0.000
1709140548.549,-30.273,-60.059,-24.902,-30.762,0.000
1709140548.553,-41.504,-50.293,-38.086,-27.344,0.000
1709140548.557,-46.387,-45.410,-38.086,-27.344,0.000
1709140548.560,-53.711,-30.762,-31.250,-40.527,0.000
1709140548.564,-56.152,-18.066,-30.273,-49.316,0.000
1709140548.568,-53.711,-23.926,-30.273,-56.641,0.000
1709140548.572,-40.527,-33.203,-24.414,-58.594,0.000
1709140548.576,-27.832,-29.785,-22.949,-49.316,0.000
1709140548.580,-37.109,-30.762,-25.879,-41.504,0.000
1709140548.584,-35.645,-55.664,-29.785,-37.598,0.000
1709140548.588,-29.785,-53.223,-34.668,-44.922,0.000
1709140548.592,-31.738,-43.457,-32.715,-39.062,0.000
1709140548.595,-28.320,-54.688,-26.367,-26.367,0.000
1709140548.599,-25.391,-47.852,-33.691,-34.180,0.000
1709140548.603,-24.414,-31.738,-31.250,-30.273,0.000
1709140548.607,-24.414,-38.086,-23.438,-29.785,0.000
1709140548.611,-32.715,-43.457,-23.926,-36.133,0.000
1709140548.615,-34.668,-42.969,-26.367,-30.273,0.000
1709140548.619,-35.156,-42.480,-25.879,-35.156,0.000
1709140548.623,-35.645,-36.133,-28.320,-34.180,0.000
1709140548.627,-41.992,-32.715,-40.527,-36.621,0.000
1709140548.630,-44.434,-39.551,-35.156,-43.945,0.000
1709140548.634,-47.852,-34.180,-29.785,-47.852,0.000
1709140548.638,-46.875,-38.574,-30.273,-47.363,0.000
1709140548.642,-41.992,-56.641,-29.297,-41.016,0.000
1709140548.646,-42.969,-43.945,-36.621,-41.504,0.000
1709140548.650,-38.574,-25.879,-39.551,-44.434,0.000
1709140548.654,-32.715,-25.391,-32.227,-41.992,0.000
1709140548.658,-33.203,-29.297,-24.414,-33.691,0.000
1709140548.662,-37.109,-25.879,-28.320,-21.973,0.000
1709140548.665,-24.414,-30.273,-32.227,-29.785,0.000
1709140548.669,-16.113,-38.086,-25.391,-35.156,0.000
1709140548.673,-36.133,-45.410,-26.367,-35.156,0.000
1709140548.677,-42.969,-39.551,-24.902,-39.062,0.000
1709140548.681,-38.574,-28.809,-25.391,-37.109,0.000
1709140548.685,-39.551,-37.598,-33.691,-27.832,0.000
1709140548.689,-39.551,-42.480,-39.062,-18.555,0.000
1709140548.693,-40.527,-33.203,-40.527,-26.855,0.000
1709140548.697,-42.480,-33.691,-36.621,-33.691,0.000
1709140548.700,-39.062,-31.250,-35.645,-30.273,0.000
1709140548.704,-35.156,-24.902,-35.645,-26.855,0.000
1709140548.708,-34.180,-32.227,-30.273,-24.902,0.000
1709140548.712,-25.391,-40.039,-32.227,-24.902,0.000
1709140548.716,-27.832,-47.852,-28.809,-30.273,0.000
1709140548.720,-41.504,-52.246,-31.738,-39.062,0.000
1709140548.724,-32.227,-46.875,-35.645,-32.227,0.000
1709140548.728,-18.555,-49.805,-33.691,-24.414,0.000
1709140548.732,-18.555,-55.664,-34.668,-26.855,0.000
1709140548.736,-20.996,-29.785,-35.156,-33.203,0.000
1709140548.740,-27.832,-22.949,-37.109,-39.551,0.000
1709140548.744,-20.020,-25.391,-41.504,-28.809,0.000
1709140548.748,-11.230,-29.785,-46.875,-18.555,0.000
1709140548.752,-19.531,-39.062,-42.969,-26.367,0.000
1709140548.755,-28.320,-38.086,-30.762,-31.250,0.000
1709140548.760,0.000,-46.875,-28.809,-32.227,0.000
1709140548.764,0.000,-41.504,-33.691,-33.691,0.000
1709140548.767,0.000,-33.691,-31.738,-41.504,0.000
1709140548.771,0.000,-46.875,-31.250,-46.387,0.000
1709140548.775,0.000,-47.852,-28.809,-46.875,0.000
1709140548.779,0.000,-38.574,-34.180,-45.898,0.000
1709140548.783,0.000,-33.203,-45.410,-45.410,0.000
1709140548.787,0.000,-35.645,-44.922,-48.828,0.000
1709140548.791,0.000,-43.457,-45.898,-43.945,0.000
1709140548.795,0.000,-60.547,-40.527,-35.156,0.000
1709140548.799,0.000,-48.340,-32.227,-33.203,0.000
1709140548.803,0.000,-30.273,-32.715,-32.715,0.000
1709140548.807,-41.504,-27.832,-37.109,-30.273,0.000
1709140548.810,-27.832,-36.621,-49.316,-20.996,0.000
1709140548.814,-31.250,-43.945,-49.316,-24.902,0.000
1709140548.818,-32.715,-48.828,-39.551,-41.504,0.000
1709140548.822,-32.715,-35.156,-40.527,-40.527,0.000
1709140548.826,-31.738,-36.133,-41.016,-31.250,0.000
1709140548.830,-25.391,-32.715,-39.551,-33.691,0.000
1709140548.834,-26.367,-15.625,-40.039,-33.691,0.000
1709140548.838,-29.297,-33.691,-32.227,-29.785,0.000
1709140548.842,-31.738,-42.969,-32.227,-25.879,0.000
1709140548.846,-29.785,-30.762,-35.645,-28.320,0.000
1709140548.850,-27.832,-34.668,-29.785,-32.715,0.000
1709140548.853,-26.855,-42.480,-35.645,-33.203,0.000
1709140548.857,-31.250,-44.922,-52.734,-30.273,0.000
1709140548.861,-45.410,-69.824,-47.363,-29.297,0.000
1709140548.865,-61.035,-53.223,-47.852,-36.621,0.000
1709140548.869,-58.105,-18.066,-45.410,-41.992,0.000
1709140548.873,-51.270,-21.484,-29.297,-45.898,0.000
1709140548.877,-47.363,-22.949,-29.785,-44.922,0.000
1709140548.881,-45.898,-33.691,-25.391,-35.645,0.000
1709140548.885,-46.387,-47.363,-23.438,-35.645,0.000
1709140548.889,-44.922,-45.410,-28.809,-36.621,0.000
1709140548.893,-46.387,-43.945,-33.203,-41.504,0.000
1709140548.896,-48.828,-50.293,-35.645,-40.527,0.000
1709140548.900,-42.480,-58.105,-27.344,-32.227,0.000
1709140548.904,-30.273,-55.176,-20.508,-28.809,0.000
1709140548.908,-33.691,-37.598,-32.227,-32.227,0.000
1709140548.912,-54.688,-22.949,-38.574,-37.109,0.000
1709140548.916,-57.617,-20.996,-32.227,-45.898,0.000
1709140548.920,-47.852,-41.016,-32.227,-50.781,0.000
1709140548.924,-41.504,-38.574,-34.180,-46.875,0.000
1709140548.928,-37.109,-29.297,-38.086,-36.621,0.000
1709140548.931,-45.410,-41.504,-45.410,-41.016,0.000
1709140548.935,-43.457,-38.086,-38.086,-53.223,0.000
1709140548.939,-33.691,-40.527,-32.227,-47.363,0.000
1709140548.943,-31.738,-46.387,-35.156,-44.434,0.000
1709140548.947,-34.180,-44.434,-39.062,-53.711,0.000
1709140548.951,-32.227,-65.918,-42.969,-60.547,0.000
1709140548.955,-29.785,-54.688,-35.156,-49.316,0.000
1709140548.959,-32.227,-29.785,-37.598,-34.668,0.000
1709140548.963,-39.062,-26.367,-40.039,-31.738,0.000
1709140548.967,-32.715,-19.043,-27.832,-39.062,0.000
1709140548.970,-31.738,-21.973,-27.344,-43.945,0.000
1709140548.974,-39.551,-26.367,-32.227,-33.203,0.000
1709140548.978,-33.203,-16.602,-31.738,-35.156,0.000
1709140548.982,-29.297,-26.855,-31.250,-40.039,0.000
1709140548.986,-35.156,-53.711,-28.320,-29.297,0.000
1709140548.990,-47.852,-56.641,-23.438,-34.668,0.000
1709140548.994,-49.316,-35.156,-29.785,-54.688,0.000
1709140548.998,-48.828,-28.809,-35.156,-57.617,0.000
1709140549.001,-54.199,-25.391,-37.598,-53.223,0.000
1709140549.005,-53.711,-28.320,-39.551,-52.734,0.000
1709140549.009,-51.270,-40.039,-37.598,-52.246,0.000
1709140549.013,-51.758,-42.480,-38.574,-58.105,0.000
1709140549.017,-50.781,-54.688,-39.551,-49.316,0.000
1709140549.021,-42.969,-38.574,-33.203,-30.273,0.000
1709140549.025,-46.387,-29.297,-34.180,-40.039,0.000
1709140549.029,-29.785,-51.270,-36.133,-48.340,0.000
1709140549.033,-37.109,-59.082,-28.809,-55.176,0.000
1709140549.037,-56.641,-41.016,-29.297,-55.176,0.000
1709140549.040,-41.992,-31.738,-33.203,-45.410,0.000
1709140549.044,-39.551,-36.133,-35.645,-41.504,0.000
1709140549.048,-39.062,-32.715,-33.691,-41.504,0.000
1709140549.052,-37.109,-35.156,-27.344,-37.109,0.000
1709140549.056,-42.480,-30.273,-25.391,-36.621,0.000
1709140549.060,-34.180,-39.551,-23.438,-36.133,0.000
1709140549.064,-37.598,-45.410,-25.879,-32.227,0.000
1709140549.068,-50.781,-25.391,-30.273,-44.434,0.000
1709140549.072,-43.457,-22.461,-22.949,-45.898,0.000
1709140549.075,-39.551,-39.551,-20.996,-38.574,0.000
1709140549.079,-46.875,-41.016,-35.645,-44.434,0.000
1709140549.083,-52.734,-34.668,-41.992,-54.688,0.000
1709140549.087,-46.875,-26.855,-29.785,-50.781,0.000
1709140549.091,-41.504,-28.320,-25.391,-53.223,0.000
1709140549.095,-47.363,-39.551,-18.066,-55.176,0.000
1709140549.099,-44.434,-42.480,-11.230,-49.316,0.000
1709140549.103,-40.527,-41.016,-19.531,-60.059,0.000
1709140549.107,-56.641,-45.898,-30.762,-57.617,0.000
1709140549.111,-54.688,-45.410,-36.621,-37.598,0.000
1709140549.115,-48.828,-46.387,-37.598,-48.340,0.000
1709140549.119,-54.688,-38.086,-29.785,-59.570,0.000
1709140549.123,-54.688,-17.578,-22.949,-46.387,0.000
1709140549.126,-47.852,-18.555,-24.414,-49.316,0.000
1709140549.130,-39.062,-20.508,-25.879,-57.129,0.000
1709140549.134,-39.062,-24.414,-28.809,-52.246,0.000
1709140549.138,-37.109,-42.480,-33.691,-47.852,0.000
1709140549.142,-39.551,-35.645,-33.691,-47.363,0.000
1709140549.146,-36.133,-31.250,-34.180,-42.480,0.000
1709140549.150,-28.809,-41.016,-42.969,-37.109,0.000
1709140549.154,-41.016,-20.508,-38.574,-53.711,0.000
1709140549.158,-60.547,-8.301,-36.133,-63.477,0.000
1709140549.162,-58.594,-30.762,-39.062,-51.270,0.000
1709140549.166,-46.875,-36.133,-34.668,-47.363,0.000
1709140549.170,-45.410,-16.602,-34.180,-41.504,0.000
1709140549.173,-44.922,-20.020,-36.133,-49.316,0.000
1709140549.177,-34.668,-32.715,-37.598,-68.848,0.000
1709140549.181,-41.504,-43.945,-31.250,-46.875,0.000
1709140549.185,-57.617,-57.617,-31.738,-33.203,0.000
1709140549.189,-49.805,-42.969,-35.156,-53.711,0.000
1709140549.193,-43.457,-23.926,-34.180,-56.641,0.000
1709140549.197,-54.688,-17.090,-40.039,-63.477,0.000
1709140549.201,-61.035,-27.344,-33.203,-68.848,0.000
1709140549.205,-53.223,-40.527,-27.344,-65.918,0.000
1709140549.209,-41.016,-51.758,-34.668,-59.082,0.000
1709140549.213,-41.504,-52.246,-35.645,-45.898,0.000
1709140549.216,-57.617,-40.039,-37.598,-45.410,0.000
1709140549.220,-55.664,-36.621,-42.480,-45.898,0.000
1709140549.224,-39.062,-29.297,-42.969,-37.109,0.000
1709140549.228,-39.062,-31.250,-43.457,-42.969,0.000
1709140549.232,-44.922,-35.156,-38.574,-58.594,0.000
1709140549.236,-42.969,-25.879,-37.109,-61.035,0.000
1709140549.240,-36.621,-15.137,-26.855,-51.758,0.000
1709140549.244,-25.879,-33.203,-24.414,-41.992,0.000
1709140549.248,-41.016,-54.199,-38.574,-41.016,0.000
1709140549.252,-51.270,-59.570,-33.691,-33.691,0.000
1709140549.256,-41.504,-59.082,-22.461,-24.902,0.000
1709140549.259,-43.457,-46.387,-33.691,-21.973,0.000
1709140549.263,-67.871,-24.902,-41.016,-46.387,0.000
1709140549.267,-82.031,-28.809,-30.273,-68.359,0.000
1709140549.271,-66.406,-41.992,-27.832,-46.875,0.000
1709140549.275,-67.383,-39.551,-32.227,-51.758,0.000
1709140549.279,-62.012,-38.574,-24.902,-53.711,0.000
1709140549.283,-59.570,-42.969,-25.391,-25.391,0.000
1709140549.287,-50.293,-56.152,-34.180,-27.832,0.000
1709140549.291,-56.152,-26.855,-27.344,-58.594,0.000
1709140549.295,-62.988,-24.902,-26.855,-62.988,0.000
1709140549.298,-52.734,-43.945,-31.738,-63.477,0.000
1709140549.302,-51.758,-21.484,-30.762,-64.941,0.000
1709140549.306,-49.316,-8.789,-29.785,-49.805,0.000
1709140549.310,-60.059,-17.090,-28.320,-60.547,0.000
1709140549.314,-67.383,-37.598,-24.414,-72.754,0.000
1709140549.318,-64.941,-65.918,-29.297,-71.289,0.000
1709140549.322,-56.641,-64.941,-29.297,-79.102,0.000
1709140549.326,-54.688,-28.809,-30.762,-76.172,0.000
1709140549.330,-52.734,-14.648,-39.551,-72.754,0.000
1709140549.333,-56.641,-23.438,-39.062,-79.590,0.000
1709140549.337,-59.082,-20.020,-36.621,-83.496,0.000
1709140549.341,-53.223,-21.484,-41.016,-75.684,0.000
1709140549.345,-55.664,-32.715,-33.691,-65.918,0.000
1709140549.349,-45.410,-41.016,-24.414,-56.641,0.000
1709140549.353,-41.016,-47.363,-24.902,-57.617,0.000
1709140549.357,-55.176,-43.457,-36.133,-61.523,0.000
1709140549.361,-60.547,-31.250,-42.969,-52.246,0.000
1709140549.365,-53.223,-35.156,-31.738,-46.875,0.000
1709140549.368,-56.641,-33.691,-34.180,-52.734,0.000
1709140549.372,-42.480,-26.367,-37.109,-53.223,0.000
1709140549.376,-46.387,-25.391,-30.762,-50.781,0.000
1709140549.380,-60.547,-30.762,-28.320,-55.176,0.000
1709140549.384,-57.617,-37.109,-34.180,-51.758,0.000
1709140549.388,-57.129,-43.457,-42.480,-41.016,0.000
1709140549.392,-48.340,-44.922,-34.668,-30.273,0.000
1709140549.396,-57.617,-37.109,-36.133,-37.598,0.000
1709140549.400,-67.871,-40.527,-36.133,-44.922,0.000
1709140549.404,-51.270,-42.480,-28.809,-39.062,0.000
1709140549.408,-33.691,-36.133,-23.926,-31.738,0.000
1709140549.411,-37.109,-39.551,-28.809,-42.969,0.000
1709140549.415,-48.340,-37.109,-33.203,-47.363,0.000
1709140549.419,-51.758,-32.227,-41.992,-49.316,0.000
1709140549.423,-58.594,-18.066,-39.551,-58.105,0.000
1709140549.427,-35.645,-23.438,-28.320,-47.852,0.000
1709140549.431,-62.500,-41.992,-38.574,-68.359,0.000
1709140549.435,-83.008,-40.527,-54.199,-65.430,0.000
1709140549.439,-46.387,-29.297,-58.594,-46.387,0.000
1709140549.442,-58.105,-35.645,-48.828,-78.125,0.000
1709140549.446,-65.430,-38.574,-41.504,-99.121,0.000
1709140549.450,-35.156,-42.480,-34.668,-67.383,0.000
1709140549.454,-39.551,-56.152,-31.738,-54.199,0.000
1709140549.458,-31.250,-40.039,-27.832,-68.359,0.000
1709140549.462,-31.250,-30.762,-24.902,-56.641,0.000
1709140549.466,-46.387,-29.297,-30.273,-41.016,0.000
1709140549.470,-26.367,-29.785,-31.250,-37.598,0.000
1709140549.474,-12.695,-27.344,-37.598,-54.199,0.000
1709140549.478,-30.762,-28.809,-29.785,-37.598,0.000
1709140549.482,-38.574,-33.203,-37.598,-35.645,0.000
1709140549.486,-39.551,-23.926,-42.969,-38.574,0.000
1709140549.490,-39.062,-11.719,-31.250,-21.973,0.000
1709140549.493,-36.621,-21.484,-34.668,-23.438,0.000
1709140549.497,-31.738,-30.273,-33.691,-22.461,0.000
1709140549.501,-31.250,-34.668,-29.785,-33.691,0.000
1709140549.505,-36.621,-28.809,-34.180,-41.016,0.000
1709140549.509,-45.410,-27.832,-37.109,-23.926,0.000
1709140549.513,-33.691,-32.227,-49.805,-24.902,0.000
1709140549.517,-42.480,-42.969,-48.828,-52.734,0.000
1709140549.521,-47.852,-41.016,-27.832,-23.438,0.000
1709140549.525,-32.227,-20.020,-20.508,2.930,0.000
1709140549.529,-41.504,-6.836,-31.738,-43.457,0.000
1709140549.533,-49.805,-1.465,-33.691,-53.711,0.000
1709140549.537,-37.598,-28.809,-35.156,-33.203,0.000
1709140549.540,-8.301,-26.855,-33.691,-38.086,0.000
1709140549.544,-38.574,-19.043,-25.879,-38.574,0.000
1709140549.548,-41.016,-29.297,-36.621,-47.363,0.000
1709140549.552,-34.180,-28.809,-39.551,-44.434,0.000
1709140549.556,-41.504,-30.273,-33.691,-27.832,0.000
1709140549.560,-51.758,-41.504,-31.250,-24.902,0.000
1709140549.564,-60.547,-35.645,-31.250,-29.785,0.000
1709140549.568,-2.930,-31.250,-30.762,-25.391,0.000
1709140549.572,0.977,-40.527,-30.273,-30.273,0.000
1709140549.576,-34.668,-38.086,-32.715,-47.852,0.000
1709140549.580,-29.297,-29.297,-38.086,-37.109,0.000
1709140549.583,-22.461,-13.184,-40.039,-34.180,0.000
1709140549.587,-43.945,-23.438,-33.691,-23.926,0.000
1709140549.591,-35.156,-21.973,-29.785,-21.973,0.000
1709140549.595,-16.602,-26.855,-28.320,-41.992,0.000
1709140549.599,-14.160,-28.809,-43.945,-53.711,0.000
1709140549.603,-24.414,-17.578,-39.551,-47.363,0.000
1709140549.607,-30.762,-23.926,-23.438,-36.133,0.000
1709140549.611,-21.973,-30.273,-30.273,-27.344,0.000
1709140549.615,-20.996,-43.945,-39.551,-37.598,0.000
1709140549.619,-1.465,-46.875,-39.062,-53.223,0.000
1709140549.623,-22.461,-38.086,-30.762,-45.410,0.000
1709140549.626,-42.480,-44.922,-35.156,-24.414,0.000
1709140549.630,-50.293,-39.551,-41.504,-19.531,0.000
1709140549.634,-70.312,-27.344,-40.527,-44.922,0.000
1709140549.638,-64.453,-22.949,-39.062,-63.965,0.000
1709140549.642,-32.227,-23.438,-34.668,-51.270,0.000
1709140549.646,-33.203,-35.645,-27.832,-24.902,0.000
1709140549.650,-70.801,-50.781,-29.785,-36.133,0.000
1709140549.654,-28.809,-35.156,-37.109,-31.738,0.000
1709140549.658,-17.578,-35.645,-39.551,-20.020,0.000
1709140549.662,-45.898,-57.129,-39.062,-36.133,0.000
1709140549.665,-25.391,-46.875,-43.945,-55.176,0.000
1709140549.669,-8.789,-41.992,-50.293,-38.086,0.000
1709140549.673,-33.203,-49.316,-48.828,-34.668,0.000
1709140549.677,-40.039,-35.645,-37.598,-50.293,0.000
1709140549.681,-16.113,-33.691,-32.227,-50.293,0.000
1709140549.685,-22.461,-41.992,-36.621,-49.805,0.000
1709140549.689,-51.270,-41.992,-33.691,-42.480,0.000
1709140549.693,-27.344,-26.855,-34.668,-46.387,0.000
1709140549.697,-10.254,-11.230,-37.598,-65.430,0.000
1709140549.700,-51.758,-17.090,-35.156,-52.734,0.000
1709140549.704,-46.387,-26.367,-37.598,-44.922,0.000
1709140549.708,-11.719,-31.738,-43.457,-60.059,0.000
1709140549.712,-35.156,-34.180,-40.527,-61.035,0.000
1709140549.716,-61.035,-34.180,-33.691,-47.852,0.000
1709140549.720,-49.805,-29.297,-38.086,-42.969,0.000
1709140549.724,-13.672,-35.156,-40.039,-38.086,0.000
1709140549.728,-32.715,-37.598,-38.574,-37.598,0.000
1709140549.732,-49.805,-32.227,-44.922,-36.621,0.000
1709140549.736,-44.434,-36.621,-40.527,-21.484,0.000
1709140549.740,-50.293,-36.133,-38.574,-33.203,0.000
1709140549.743,-38.574,-41.504,-33.691,-38.574,0.000
1709140549.747,-33.203,-42.969,-33.203,-54.199,0.000
1709140549.751,-40.527,-39.551,-39.062,-44.922,0.000
1709140549.755,-19.531,-38.574,-33.203,1.953,0.000
1709140549.759,-35.156,-44.922,-33.691,-2.441,0.000
1709140549.763,-40.527,-59.570,-31.738,-1.953,0.000
1709140549.767,-22.949,-38.574,-33.203,-12.695,0.000
1709140549.771,-20.020,-29.297,-39.551,-38.574,0.000
1709140549.775,-9.766,-38.574,-32.227,-23.438,0.000
1709140549.778,-5.859,-34.668,-33.203,-40.039,0.000
1709140549.782,-24.414,-44.434,-30.762,-40.039,0.000
1709140549.786,-16.113,-35.645,-24.902,-15.137,0.000
1709140549.790,-20.020,-28.320,-31.738,-19.531,0.000
1709140549.794,-7.812,-41.504,-37.598,-29.297,0.000
1709140549.798,-5.371,-49.316,-37.598,-39.062,0.000
1709140549.802,-19.531,-48.340,-33.203,-10.742,0.000
1709140549.806,-12.207,-42.480,-35.156,-22.461,0.000
1709140549.809,-8.789,-33.691,-32.715,-25.391,0.000
1709140549.813,-4.883,-34.668,-31.250,-3.418,0.000
1709140549.817,-0.977,-47.363,-32.227,-9.277,0.000
1709140549.821,6.836,-42.480,-27.344,-5.859,0.000
1709140549.825,0.977,-36.621,-27.344,-23.438,0.000
1709140549.829,-1.465,-41.992,-27.344,-22.949,0.000
1709140549.833,-7.812,-42.969,-22.461,-5.371,0.000
1709140549.837,-23.438,-48.340,-19.531,-4.883,0.000
1709140549.841,-12.207,-33.691,-24.902,-3.418,0.000
1709140549.845,1.465,-20.508,-28.809,-2.930,0.000
1709140549.849,3.418,-37.109,-34.668,-21.973,0.000
1709140549.853,-0.977,-28.809,-35.156,-36.621,0.000
1709140549.857,11.230,-22.461,-35.645,-35.156,0.000
1709140549.860,0.488,-40.039,-32.715,-8.789,0.000
1709140549.864,-20.020,-36.621,-30.762,3.418,0.000
1709140549.868,-2.441,-17.578,-32.715,-15.137,0.000
1709140549.872,-13.184,-22.461,-25.391,-21.484,0.000
1709140549.876,-42.969,-26.367,-29.785,-27.344,0.000
1709140549.880,-42.480,-21.973,-41.016,-20.020,0.000
1709140549.884,-32.715,-36.621,-37.598,-35.645,0.000
1709140549.888,-22.949,-36.621,-35.156,-44.434,0.000
1709140549.892,-10.254,-30.762,-36.621,-24.414,0.000
1709140549.896,-24.902,-44.922,-41.016,-25.879,0.000
1709140549.900,-48.340,-50.781,-49.316,-60.547,0.000
1709140549.904,-45.410,-52.246,-38.574,-51.270,0.000
1709140549.907,-26.855,-48.340,-37.109,-24.902,0.000
1709140549.911,-16.602,-27.344,-53.711,-35.156,0.000
1709140549.915,-31.250,-19.531,-45.410,-23.438,0.000
1709140549.919,-30.273,-16.602,-34.180,-19.043,0.000
1709140549.923,-31.738,-21.484,-41.992,-39.062,0.000
1709140549.927,-42.480,-33.691,-46.875,-28.809,0.000
1709140549.931,-42.969,-45.898,-42.969,-31.250,0.000
1709140549.935,-17.578,-30.273,-41.992,-50.781,0.000
1709140549.939,-3.906,-11.719,-37.109,-35.156,0.000
1709140549.943,-26.367,-24.414,-31.738,-17.578,0.000
1709140549.947,-21.484,-44.434,-39.551,-25.391,0.000
1709140549.951,-17.090,-67.383,-33.203,-26.855,0.000
1709140549.954,-34.668,-51.758,-28.320,-35.645,0.000
1709140549.958,-42.969,-23.926,-41.992,-41.016,0.000
1709140549.962,-50.781,-30.762,-45.898,-24.414,0.000
1709140549.966,-44.922,-21.973,-41.016,-17.578,0.000
1709140549.970,-27.344,-12.695,-45.410,-28.809,0.000
1709140549.974,-27.344,-26.855,-43.945,-34.180,0.000
1709140549.978,-59.570,-40.527,-45.410,-36.621,0.000
1709140549.982,-62.988,-39.062,-43.457,-43.945,0.000
1709140549.986,-33.203,-39.551,-38.086,-40.039,0.000
1709140549.990,-22.949,-50.781,-34.668,-31.250,0.000
1709140549.994,-21.973,-52.734,-31.738,-35.645,0.000
1709140549.997,-34.180,-44.922,-39.062,-32.227,0.000
1709140550.001,-29.297,-40.039,-39.551,-17.090,0.000
1709140550.005,-30.273,-41.992,-39.551,-16.602,0.000
1709140550.009,-45.898,-28.320,-58.105,-27.832,0.000
1709140550.013,-51.270,-20.020,-44.922,-34.180,0.000
1709140550.017,-51.758,-33.203,-22.461,-41.504,0.000
1709140550.021,-48.828,-44.922,-26.855,-48.828,0.000
1709140550.025,-50.781,-40.527,-35.156,-50.293,0.000
1709140550.029,-46.875,-33.691,-38.574,-41.992,0.000
1709140550.033,-25.391,-50.781,-42.969,-35.645,0.000
1709140550.036,-20.996,-50.293,-38.086,-24.902,0.000
1709140550.040,-39.551,-27.344,-36.621,-16.113,0.000
1709140550.044,-44.922,-29.297,-31.738,-23.438,0.000
1709140550.048,-36.621,-44.434,-26.367,-29.297,0.000
1709140550.052,-33.691,-45.898,-32.227,-17.578,0.000
1709140550.056,-47.363,-40.039,-32.715,-29.297,0.000
1709140550.060,-53.711,-39.062,-30.762,-41.504,0.000
1709140550.064,-45.410,-46.387,-40.527,-40.039,0.000
1709140550.068,-35.645,-54.688,-52.246,-47.852,0.000
1709140550.071,-30.762,-53.711,0.000,-34.180,0.000
1709140550.075,-41.504,-47.852,0.000,-22.461,0.000
1709140550.079,-41.992,-46.387,0.000,-39.062,0.000
1709140550.083,-32.227,-47.363,0.000,-50.781,0.000
1709140550.087,-39.551,-47.363,0.000,-40.527,0.000
1709140550.091,-35.645,-45.410,0.000,-40.527,0.000
1709140550.095,-38.086,-59.570,0.000,-33.691,0.000
1709140550.099,-52.734,-30.273,0.000,-29.785,0.000
1709140550.103,-51.758,-9.277,0.000,-41.016,0.000
1709140550.107,-45.410,-31.250,0.000,-51.758,0.000
1709140550.111,-40.527,-46.875,0.000,-62.988,0.000
1709140550.114,-44.922,-44.922,0.000,-65.918,0.000
1709140550.118,0.000,-39.062,-43.945,-67.383,0.000
1709140550.122,0.000,-45.410,-48.828,-69.336,0.000
1709140550.126,0.000,-48.828,-48.340,-74.219,0.000
1709140550.130,0.000,-47.852,-45.410,-72.266,0.000
1709140550.134,0.000,-44.922,-44.434,-58.594,0.000
1709140550.138,0.000,-34.668,-50.293,-57.617,0.000
1709140550.142,0.000,-39.551,-51.758,-61.523,0.000
1709140550.146,0.000,-46.875,-46.875,-44.922,0.000
1709140550.149,0.000,-31.250,-47.852,-51.758,0.000
1709140550.153,0.000,-19.043,-49.316,-60.059,0.000
1709140550.157,0.000,-28.809,-44.922,-39.551,0.000
1709140550.161,0.000,-45.898,-38.086,-41.992,0.000
1709140550.165,-46.875,-29.785,-34.668,-53.223,0.000
1709140550.169,-46.875,-23.438,-32.227,-43.945,0.000
1709140550.173,-35.645,-40.527,-31.738,-41.016,0.000
1709140550.177,-34.180,-35.645,-31.738,-39.062,0.000
1709140550.180,-30.762,-28.320,-36.621,-32.227,0.000
1709140550.184,-32.715,-39.062,-43.945,-30.273,0.000
1709140550.188,-37.598,-52.246,-36.133,-31.250,0.000
1709140550.192,-32.715,-47.363,-31.738,-43.457,0.000
1709140550.196,-40.039,-32.715,-36.133,-53.711,0.000
1709140550.200,-55.664,-11.719,-35.156,-62.012,0.000
1709140550.204,-59.082,-15.625,-35.156,-58.594,0.000
1709140550.208,-52.246,-32.715,-38.574,-49.316,0.000
1709140550.212,-52.734,-32.715,-34.180,-46.875,0.000
1709140550.216,-42.969,-42.969,-33.691,-41.504,0.000
1709140550.220,-39.062,-39.062,-34.180,-36.133,0.000
1709140550.224,-49.805,-19.531,-32.227,-31.250,0.000
1709140550.228,-50.781,-34.668,-30.762,-41.992,0.000
1709140550.231,-45.410,-47.852,-30.273,-37.598,0.000
1709140550.235,-36.133,-36.621,-34.668,-29.297,0.000
1709140550.239,-44.434,-39.062,-41.504,-45.898,0.000
1709140550.243,-57.129,-38.574,-37.598,-51.270,0.000
1709140550.247,-50.293,-41.504,-32.715,-34.180,0.000
1709140550.251,-38.574,-26.855,-35.645,-30.762,0.000
1709140550.255,-35.156,-16.602,-37.598,-44.922,0.000
1709140550.259,-49.805,-33.203,-37.598,-47.363,0.000
1709140550.263,-54.688,-37.109,-38.574,-38.574,0.000
1709140550.267,-40.527,-33.691,-40.527,-38.574,0.000
1709140550.271,-45.410,-42.969,-36.621,-36.133,0.000
1709140550.275,-56.152,-53.223,-38.574,-38.574,0.000
1709140550.279,-53.711,-51.270,-45.410,-40.039,0.000
1709140550.282,-59.082,-30.762,-46.875,-35.645,0.000
1709140550.286,-55.176,-28.320,-52.734,-43.457,0.000
1709140550.290,-53.223,-47.363,-51.270,-43.945,0.000
1709140550.294,-66.406,-41.504,-37.598,-42.969,0.000
1709140550.298,-72.266,-28.809,-36.621,-57.129,0.000
1709140550.302,-56.641,-28.809,-37.109,-55.176,0.000
1709140550.306,-41.504,-33.203,-30.273,-32.227,0.000
1709140550.310,-31.250,-29.785,-29.297,-26.855,0.000
1709140550.314,-33.203,-26.855,-31.250,-40.527,0.000
1709140550.318,-31.250,-29.785,-39.062,-39.551,0.000
1709140550.322,-28.809,-29.785,-48.340,-37.598,0.000
1709140550.325,-46.387,-44.434,-52.246,-40.039,0.000
1709140550.329,-37.598,-43.945,-53.711,-38.086,0.000
1709140550.333,-26.855,-35.645,-55.176,-38.086,0.000
1709140550.337,-35.156,-49.805,-47.852,-28.809,0.000
1709140550.341,-46.875,-38.574,-44.434,-25.391,0.000
1709140550.345,-56.152,-17.578,-39.062,-47.852,0.000
1709140550.349,-55.176,-16.113,-39.062,-59.082,0.000
1709140550.353,-42.480,-32.227,-42.480,-47.363,0.000
1709140550.357,-47.852,-30.273,-45.410,-53.711,0.000
1709140550.361,-39.062,-24.902,-52.734,-50.781,0.000
1709140550.365,-33.203,-30.273,-50.781,-46.387,0.000
1709140550.368,-38.086,-44.434,-40.039,-43.457,0.000
1709140550.372,-19.043,-51.270,-51.758,-26.367,0.000
1709140550.376,-16.602,-30.762,-54.199,-29.785,0.000
1709140550.380,-22.949,-6.836,-40.527,-42.969,0.000
1709140550.384,-30.273,-12.695,-39.062,-32.715,0.000
1709140550.388,-29.297,-37.109,-41.016,-22.949,0.000
1709140550.392,-27.344,-27.832,-41.992,-31.250,0.000
1709140550.396,-37.109,-17.578,-41.016,-44.434,0.000
1709140550.400,-35.156,-20.996,-44.922,-44.922,0.000
1709140550.404,-23.926,-19.531,-46.875,-26.367,0.000
1709140550.407,-18.066,-36.621,-40.039,-12.695,0.000
1709140550.411,-20.996,-38.574,-40.527,-27.344,0.000
1709140550.415,-16.113,-29.297,-49.316,-38.574,0.000
1709140550.419,-20.020,-34.668,-61.523,-35.645,0.000
1709140550.423,-30.762,-36.133,-51.758,-41.504,0.000
1709140550.427,-46.875,-29.785,-38.086,-48.340,0.000
1709140550.431,-47.363,-13.672,-39.062,-40.527,0.000
1709140550.435,-32.715,-21.484,-44.922,-40.527,0.000
1709140550.439,-24.414,-38.574,-46.387,-43.945,0.000
1709140550.443,-31.250,-39.062,-45.410,-32.227,0.000
1709140550.446,-32.715,-39.551,-49.805,-22.461,0.000
1709140550.450,-35.156,-61.035,-47.852,-37.109,0.000
1709140550.454,-39.551,-70.312,-38.086,-48.340,0.000
1709140550.458,-38.086,-44.434,-41.992,-48.340,0.000
1709140550.462,-50.781,-26.855,-46.875,-41.016,0.000
1709140550.466,-52.734,-28.809,-43.945,-39.551,0.000
1709140550.470,-33.203,-36.133,-44.434,-38.086,0.000
1709140550.474,-37.598,-47.852,-48.828,-34.668,0.000
1709140550.478,-45.410,-45.410,-52.734,-43.457,0.000
1709140550.482,-20.020,-44.922,-48.340,-41.992,0.000
1709140550.485,-24.902,-46.875,-47.363,-29.297,0.000
1709140550.489,-41.992,-48.828,-48.340,-30.762,0.000
1709140550.493,-28.320,-42.969,-45.410,-38.574,0.000
1709140550.497,-30.762,-28.320,-50.293,-43.457,0.000
1709140550.501,-35.156,-32.715,-58.594,-40.527,0.000
1709140550.505,-17.090,-36.621,-61.523,-31.738,0.000
1709140550.509,-9.766,-28.320,-58.594,-31.738,0.000
1709140550.513,-18.066,-23.438,-53.711,-25.391,0.000
1709140550.517,-21.484,-39.062,-49.316,-22.949,0.000
1709140550.520,-37.109,-46.875,-57.617,-38.086,0.000
1709140550.524,-37.598,-34.668,-54.688,-34.668,0.000
1709140550.528,-18.066,-32.227,-43.945,-30.762,0.000
1709140550.532,-11.719,-40.527,-48.340,-38.574,0.000
1709140550.536,-36.621,-32.715,-56.641,-31.250,0.000
1709140550.540,-40.527,-34.180,-64.453,-31.738,0.000
1709140550.544,-29.297,-43.457,-53.223,-31.250,0.000
1709140550.548,-24.902,-47.363,-43.945,-28.809,0.000
1709140550.551,-18.555,-45.410,-41.016,-26.855,0.000
1709140550.555,-29.297,-29.297,-41.016,-31.250,0.000
1709140550.559,-30.273,-25.391,-49.805,-28.809,0.000
1709140550.563,-24.902,-44.922,-43.457,-11.230,0.000
1709140550.567,-25.879,-30.273,-45.410,-19.043,0.000
1709140550.571,-33.203,-16.113,-55.664,-38.574,0.000
1709140550.575,-35.645,-30.762,-54.688,-35.645,0.000
1709140550.579,-25.879,-38.574,-60.059,-31.738,0.000
1709140550.583,-32.715,-46.387,-54.688,-34.180,0.000
1709140550.587,-38.086,-38.086,-48.828,-30.273,0.000
1709140550.591,-24.414,-23.438,-51.270,-27.832,0.000
1709140550.595,-28.320,-46.875,-49.316,-35.156,0.000
1709140550.599,-25.391,-48.340,-55.664,-32.715,0.000
1709140550.602,-9.277,-44.922,-58.594,-22.461,0.000
1709140550.606,-0.488,-47.852,-49.316,-20.996,0.000
1709140550.610,-0.488,-36.621,-45.410,-32.715,0.000
1709140550.614,-13.672,-33.203,-43.457,-49.805,0.000
1709140550.618,-20.996,-28.320,-42.480,-51.270,0.000
1709140550.622,-27.832,-34.668,-55.176,-34.668,0.000
1709140550.626,-38.086,-40.039,-57.129,-28.320,0.000
1709140550.630,-35.156,-47.363,-54.199,-36.621,0.000
1709140550.634,-34.180,-51.270,-52.246,-40.527,0.000
1709140550.638,-41.504,-56.152,-52.246,-49.316,0.000
1709140550.642,-42.480,-56.152,-53.223,-55.664,0.000
1709140550.646,-46.875,-31.250,-54.199,-53.711,0.000
1709140550.649,-47.363,-14.648,-53.711,-44.434,0.000
1709140550.653,-43.945,-29.297,-50.293,-38.574,0.000
1709140550.657,-43.945,-24.414,-48.828,-39.551,0.000
1709140550.661,-24.414,-24.902,-48.828,-35.645,0.000
1709140550.665,-30.273,-33.203,-49.316,-33.691,0.000
1709140550.669,-40.039,-30.273,-52.246,-31.250,0.000
1709140550.673,-30.273,-34.180,-55.664,-39.551,0.000
1709140550.677,-35.645,-37.109,-59.082,-44.434,0.000
1709140550.681,-45.898,-36.133,-56.152,-38.086,0.000
1709140550.685,-30.762,-46.875,-44.434,-27.344,0.000
1709140550.689,-23.926,-48.828,-51.270,-34.668,0.000
1709140550.693,-35.645,-33.203,-65.430,-52.246,0.000
1709140550.696,-45.898,-12.695,-51.758,-50.781,0.000
1709140550.700,-50.781,-18.555,-42.969,-42.969,0.000
1709140550.704,-46.875,-37.109,-47.363,-44.922,0.000
1709140550.708,-46.387,-54.688,-53.223,-48.828,0.000
1709140550.712,-45.410,-53.223,-49.316,-46.387,0.000
1709140550.716,-35.156,-26.367,-40.039,-38.574,0.000
1709140550.720,-37.109,-34.668,-44.922,-43.945,0.000
1709140550.724,-33.691,-50.293,-47.363,-41.992,0.000
1709140550.728,-27.344,-30.762,-45.898,-40.527,0.000
1709140550.732,-35.645,-22.461,-44.434,-49.805,0.000
1709140550.736,-37.109,-31.250,-50.293,-48.340,0.000
1709140550.739,-31.738,-44.922,-51.758,-39.551,0.000
1709140550.743,-35.156,-44.922,-49.805,-38.086,0.000
1709140550.747,-36.133,-41.992,-50.781,-42.969,0.000
1709140550.751,-31.738,-53.223,-42.969,-42.480,0.000
1709140550.755,-36.133,-46.387,-45.898,-37.109,0.000
1709140550.759,-48.340,-36.133,-51.758,-32.227,0.000
1709140550.763,-52.246,-30.762,-43.457,-31.250,0.000
1709140550.767,-41.016,-43.457,-36.621,-34.668,0.000
1709140550.771,-22.461,-42.969,-41.992,-37.109,0.000
1709140550.775,-21.484,-23.438,-46.387,-38.086,0.000
1709140550.778,-40.527,-17.578,-48.828,-30.762,0.000
1709140550.782,-48.340,-36.621,-46.875,-21.973,0.000
1709140550.786,-32.227,-50.293,-43.945,-23.926,0.000
1709140550.790,-16.602,-33.691,-51.758,-28.809,0.000
1709140550.794,-22.949,-43.457,-61.035,-30.273,0.000
1709140550.798,-32.715,-62.500,-51.270,-30.273,0.000
1709140550.802,-37.109,-40.039,-47.363,-26.855,0.000
1709140550.806,-22.949,-23.438,-47.852,-32.227,0.000
1709140550.810,-9.766,-23.438,-42.969,-43.457,0.000
1709140550.814,-34.180,-30.762,-50.781,-46.875,0.000
1709140550.818,-34.180,-43.457,-50.781,-47.852,0.000
1709140550.821,-25.391,-55.664,-45.410,-37.109,0.000
1709140550.825,-37.598,-48.828,-52.246,-30.273,0.000
1709140550.829,-33.203,-45.410,-49.805,-34.180,0.000
1709140550.833,-35.156,-50.293,-45.410,-43.457,0.000
1709140550.837,-38.574,-47.363,-51.758,-38.574,0.000
1709140550.841,-32.227,-40.527,-53.223,-30.762,0.000
1709140550.845,-31.738,-23.438,-55.176,-33.691,0.000
1709140550.849,-41.504,-27.832,-51.270,-28.809,0.000
1709140550.853,-49.805,-41.504,-46.875,-37.109,0.000
1709140550.857,-42.480,-38.574,-47.852,-55.176,0.000
1709140550.860,-28.809,-35.645,-51.758,-57.617,0.000
1709140550.864,-43.945,-54.688,-51.758,-47.363,0.000
1709140550.868,0.000,-55.664,0.000,-50.293,0.000
1709140550.872,0.000,-39.551,0.000,-60.547,0.000
1709140550.876,0.000,-37.598,0.000,-62.500,0.000
1709140550.880,0.000,-44.434,0.000,-58.105,0.000
1709140550.884,0.000,-45.410,0.000,-47.852,0.000
1709140550.888,0.000,-40.039,0.000,-42.969,0.000
1709140550.892,0.000,-48.828,0.000,-37.109,0.000
1709140550.896,0.000,-45.898,0.000,-38.574,0.000
1709140550.899,0.000,-33.691,0.000,-50.293,0.000
1709140550.903,0.000,-32.715,0.000,-52.734,0.000
1709140550.907,0.000,-55.664,0.000,-49.316,0.000
1709140550.911,0.000,-50.293,0.000,-49.805,0.000
1709140550.915,-50.293,-27.832,-57.617,-56.152,0.000
1709140550.919,-41.992,-33.691,-50.293,-53.223,0.000
1709140550.923,-46.387,-28.809,-46.387,-46.387,0.000
1709140550.927,-52.734,-29.297,-53.223,-41.992,0.000
1709140550.930,-56.641,-33.691,-57.129,-53.223,0.000
1709140550.934,-57.617,-38.574,-60.059,-64.941,0.000
1709140550.938,-52.734,-40.039,-57.617,-51.270,0.000
1709140550.942,-60.059,-33.203,-49.316,-49.805,0.000
1709140550.946,-60.059,-44.922,-47.852,-50.293,0.000
1709140550.950,-49.805,-34.180,-50.293,-47.363,0.000
1709140550.954,-51.758,-24.902,-47.852,-51.270,0.000
1709140550.958,-49.805,-37.598,-46.387,-52.246,0.000
1709140550.962,-40.527,-39.551,-48.340,-43.945,0.000
1709140550.966,-43.457,-52.734,-50.781,-34.668,0.000
1709140550.970,-44.434,-64.453,-53.223,-35.156,0.000
1709140550.974,-41.504,-68.359,-51.758,-41.992,0.000
1709140550.978,-30.273,-60.059,-43.945,-38.574,0.000
1709140550.981,-32.715,-44.922,-47.852,-30.273,0.000
1709140550.985,-52.734,-40.527,-51.270,-37.109,0.000
1709140550.989,-52.246,-23.926,-52.734,-50.781,0.000
1709140550.993,-37.109,-14.160,-51.270,-48.828,0.000
1709140550.997,-31.738,-23.926,-44.922,-43.457,0.000
1709140551.001,-36.133,-30.762,-46.875,-41.504,0.000
1709140551.005,-38.086,-33.203,-47.363,-38.086,0.000
1709140551.009,-26.367,-40.039,-46.875,-38.574,0.000
1709140551.013,-23.926,-43.945,-41.016,-40.039,0.000
1709140551.017,-29.785,-38.086,-39.062,-33.691,0.000
1709140551.021,-21.973,-40.039,-43.457,-36.133,0.000
1709140551.025,-22.461,-63.965,-41.016,-39.551,0.000
1709140551.029,-38.086,-53.223,-47.363,-40.527,0.000
1709140551.033,-46.387,-25.391,-58.594,-46.387,0.000
1709140551.037,-54.199,-14.160,-53.223,-53.223,0.000
1709140551.041,-56.641,-18.066,-42.969,-44.434,0.000
1709140551.045,-49.316,-33.203,-38.086,-29.297,0.000
1709140551.048,-34.180,-42.969,-41.992,-33.691,0.000
1709140551.052,-46.875,-32.715,-47.852,-42.969,0.000
1709140551.057,-62.500,-24.414,-41.992,-45.410,0.000
1709140551.061,-62.500,-30.273,-42.480,-41.992,0.000
1709140551.065,-53.711,-35.156,-38.574,-30.273,0.000
1709140551.069,-41.992,-53.223,-33.691,-27.344,0.000
1709140551.072,-43.457,-49.316,-37.598,-39.551,0.000
1709140551.076,-48.340,-28.809,-41.992,-45.898,0.000
1709140551.080,-35.156,-51.270,-43.945,-33.203,0.000
1709140551.084,-25.391,-46.387,-41.992,-19.531,0.000
1709140551.088,-38.086,-18.555,-42.480,-12.695,0.000
1709140551.092,-37.109,-20.508,-46.875,-20.020,0.000
1709140551.096,-36.621,-41.992,-54.688,-36.133,0.000
1709140551.100,-44.434,-35.156,-50.293,-40.527,0.000
1709140551.104,-39.551,-20.020,-37.109,-32.715,0.000
1709140551.108,-36.133,-26.855,-41.016,-32.227,0.000
1709140551.112,-30.762,-38.086,-41.504,-33.691,0.000
1709140551.115,-38.574,-49.805,-44.922,-43.945,0.000
1709140551.119,-43.945,-32.227,-52.734,-44.922,0.000
1709140551.123,-34.668,-18.066,-52.246,-42.480,0.000
1709140551.127,-27.832,-27.344,-48.828,-43.945,0.000
1709140551.131,-26.855,-33.203,-46.875,-40.039,0.000
1709140551.135,-28.809,-30.762,-48.340,-38.574,0.000
1709140551.139,-34.180,-40.039,-46.387,-40.527,0.000
1709140551.143,-34.180,-44.434,-47.363,-35.156,0.000
1709140551.147,-29.785,-34.668,-46.875,-29.785,0.000
1709140551.151,-32.715,-33.203,-57.129,-30.762,0.000
1709140551.154,-37.109,-34.180,-62.012,-44.922,0.000
1709140551.158,-51.758,-25.391,-55.664,-59.570,0.000
1709140551.162,-61.035,-28.809,-49.316,-59.082,0.000
1709140551.166,-37.598,-39.551,-37.109,-45.410,0.000
1709140551.170,-38.086,-53.711,-31.738,-33.691,0.000
1709140551.174,-57.129,-48.340,-40.039,-32.227,0.000
1709140551.178,-59.570,-31.738,-49.316,-45.898,0.000
1709140551.182,-59.570,-29.297,-43.945,-47.363,0.000
1709140551.186,-54.688,-20.996,-36.133,-39.062,0.000
1709140551.190,-46.875,-30.762,-48.828,-45.898,0.000
1709140551.193,-48.828,-38.086,-54.688,-50.781,0.000
1709140551.197,-50.293,-53.223,-48.828,-42.969,0.000
1709140551.201,-41.504,-45.898,-44.922,-42.480,0.000
1709140551.205,-48.828,-39.551,-47.852,-51.758,0.000
1709140551.209,-57.129,-36.621,-53.223,-57.129,0.000
1709140551.213,-45.410,-20.996,-46.875,-48.828,0.000
1709140551.217,-39.551,-26.367,-46.875,-42.969,0.000
1709140551.221,-40.039,-38.574,-47.852,-40.039,0.000
1709140551.225,-43.945,-44.434,-46.387,-33.203,0.000
1709140551.229,-44.922,-35.156,-46.875,-41.016,0.000
1709140551.232,-33.691,-22.949,-41.504,-47.363,0.000
1709140551.236,-37.109,-29.785,-41.992,-44.922,0.000
1709140551.240,-48.828,-36.133,-46.875,-51.758,0.000
1709140551.244,-35.645,-43.457,-44.434,-48.340,0.000
1709140551.248,-26.855,-49.316,-55.176,-35.156,0.000
1709140551.252,-26.367,-33.691,-52.734,-41.016,0.000
1709140551.256,-16.602,-37.109,-39.062,-41.016,0.000
1709140551.260,-11.230,-49.316,-39.062,-28.320,0.000
1709140551.263,-15.625,-34.668,-38.574,-31.250,0.000
1709140551.267,-20.996,-23.438,-41.016,-35.645,0.000
1709140551.271,-25.391,-17.090,-42.480,-33.691,0.000
1709140551.275,-27.344,-21.484,-40.527,-39.551,0.000
1709140551.279,-36.621,-38.086,-44.434,-43.457,0.000
1709140551.283,-35.156,-39.551,-49.805,-31.738,0.000
1709140551.287,-27.344,-37.109,-47.363,-27.832,0.000
1709140551.291,-28.809,-39.062,-39.062,-37.109,0.000
1709140551.294,-42.480,-30.273,-42.969,-52.246,0.000
1709140551.298,-56.641,-30.762,-52.246,-48.340,0.000
1709140551.302,-53.711,-39.551,-46.875,-35.645,0.000
1709140551.306,-53.223,-39.062,-42.480,-34.180,0.000
1709140551.310,-55.664,-35.645,-45.898,-36.621,0.000
1709140551.314,-53.223,-45.898,-43.945,-30.273,0.000
1709140551.318,-51.758,-49.316,-39.551,-24.902,0.000
1709140551.322,-46.875,-48.828,-36.133,-24.902,0.000
1709140551.326,-36.621,-59.570,-36.621,-17.090,0.000
1709140551.330,-32.715,-71.777,-36.133,-13.672,0.000
1709140551.334,-37.598,-57.617,-39.551,-27.344,0.000
1709140551.337,-35.645,-20.020,-45.898,-39.062,0.000
1709140551.341,-33.203,-18.066,-45.410,-26.367,0.000
1709140551.345,-30.273,-31.738,-41.016,-17.578,0.000
1709140551.349,-29.297,-27.344,-42.480,-24.902,0.000
1709140551.353,-30.273,-20.020,-43.945,-26.855,0.000
1709140551.357,-22.461,-36.621,-48.828,-20.508,0.000
1709140551.361,-30.273,-57.617,-56.152,-13.672,0.000
1709140551.364,-40.039,-59.570,-44.922,-8.789,0.000
1709140551.368,-28.320,-45.898,-35.645,-10.742,0.000
1709140551.372,-20.508,-55.176,-36.133,-13.672,0.000
1709140551.376,-30.273,-63.477,-45.410,-18.066,0.000
1709140551.380,-36.621,-32.715,-55.176,-25.879,0.000
1709140551.384,-35.156,-14.160,-45.898,-20.508,0.000
1709140551.388,-35.645,-29.785,-37.598,-18.066,0.000
1709140551.392,-35.156,-29.297,-40.039,-22.461,0.000
1709140551.396,-35.645,-26.855,-42.969,-29.297,0.000
1709140551.400,-31.250,-36.133,-42.969,-29.785,0.000
1709140551.404,-29.785,-36.133,-43.945,-20.996,0.000
1709140551.408,-34.668,-52.246,-43.945,-25.879,0.000
1709140551.411,-31.250,-58.594,-52.734,-38.574,0.000
1709140551.415,-33.691,-30.762,-55.176,-42.480,0.000
1709140551.419,-41.016,-29.297,-50.781,-35.156,0.000
1709140551.423,-42.480,-54.199,-46.387,-29.785,0.000
1709140551.427,-36.621,-42.969,-40.039,-31.250,0.000
1709140551.431,-36.621,-31.250,-44.922,-36.621,0.000
1709140551.435,-45.898,-42.969,-49.316,-43.945,0.000
1709140551.439,-47.363,-42.480,-47.363,-39.062,0.000
1709140551.443,-48.828,-40.527,-48.340,-46.387,0.000
1709140551.447,-48.340,-48.340,-51.758,-53.223,0.000
1709140551.451,-36.133,-50.781,-41.504,-51.270,0.000
1709140551.455,-37.109,-49.316,-39.551,-50.781,0.000
1709140551.458,-49.805,-44.922,-58.105,-58.105,0.000
1709140551.462,-43.945,-33.691,-51.270,-51.758,0.000
1709140551.466,-31.738,-37.109,-36.621,-39.062,0.000
1709140551.470,-34.180,-44.434,-41.504,-41.016,0.000
1709140551.474,-39.062,-35.645,-47.363,-42.969,0.000
1709140551.478,-39.551,-37.598,-50.293,-42.480,0.000
1709140551.482,-43.457,-47.852,-55.664,-44.434,0.000
1709140551.486,-31.250,-51.270,-49.316,-34.668,0.000
1709140551.490,-16.602,-43.457,-42.969,-22.949,0.000
1709140551.494,-10.742,-51.758,-43.457,-24.414,0.000
1709140551.497,-17.090,-57.129,-42.969,-39.062,0.000
1709140551.501,-37.109,-28.320,-48.340,-52.734,0.000
1709140551.505,-41.504,-26.855,-52.246,-47.363,0.000
1709140551.509,-37.109,-34.180,-52.734,-31.738,0.000
1709140551.513,-39.062,-19.043,-50.781,-44.922,0.000
1709140551.517,-38.086,-21.484,-53.223,-52.246,0.000
1709140551.521,-38.574,-49.316,-51.758,-41.016,0.000
1709140551.525,-44.434,-50.293,-48.340,-41.504,0.000
1709140551.529,-46.387,-21.973,-46.875,-39.062,0.000
1709140551.533,-38.574,-25.879,-49.316,-38.574,0.000
1709140551.537,-36.621,-45.410,-51.270,-46.875,0.000
1709140551.540,-39.062,-40.527,-42.480,-43.457,0.000
1709140551.544,-39.551,-28.809,-31.738,-30.273,0.000
1709140551.548,-45.898,-18.066,-34.180,-42.480,0.000
1709140551.552,-59.082,-22.949,-45.410,-56.641,0.000
1709140551.556,-66.895,-40.527,-46.387,-47.852,0.000
1709140551.560,-58.594,-45.898,-47.852,-41.992,0.000
1709140551.564,-48.340,-33.203,-52.246,-35.156,0.000
1709140551.568,-46.875,-29.297,-45.410,-34.180,0.000
1709140551.572,-44.434,-38.086,-47.852,-38.086,0.000
1709140551.575,-39.551,-41.504,-43.945,-42.480,0.000
1709140551.579,-38.574,-41.016,-41.992,-38.086,0.000
1709140551.583,-48.828,-43.457,-44.434,-35.156,0.000
1709140551.587,-53.223,-37.109,-40.527,-32.227,0.000
1709140551.591,-45.410,-37.109,-41.504,-28.320,0.000
1709140551.595,-37.598,-52.246,-39.062,-25.391,0.000
1709140551.599,-42.969,-42.969,-42.969,-20.508,0.000
1709140551.603,-49.316,-35.645,-45.898,-27.344,0.000
1709140551.607,-36.133,-51.270,-39.062,-32.715,0.000
1709140551.611,-36.621,-35.645,-38.574,-31.250,0.000
1709140551.615,-41.016,-15.625,-44.922,-35.645,0.000
1709140551.618,-32.715,-30.762,-43.945,-30.762,0.000
1709140551.622,-24.414,-49.805,-41.992,-25.879,0.000
1709140551.626,-29.297,-46.875,-40.527,-27.344,0.000
1709140551.630,-31.738,-42.480,-46.875,-27.832,0.000
1709140551.634,-32.227,-42.969,-49.316,-37.598,0.000
1709140551.638,-41.504,-40.039,-42.969,-44.922,0.000
1709140551.642,-45.898,-45.898,-41.992,-40.527,0.000
1709140551.646,-42.480,-42.480,-42.969,-32.715,0.000
1709140551.650,-35.156,-42.480,-39.551,-33.203,0.000
1709140551.653,-39.062,-55.664,-44.922,-41.992,0.000
1709140551.657,-45.898,-41.992,-55.176,-53.223,0.000
1709140551.661,-53.223,-12.207,-52.246,-60.059,0.000
1709140551.665,-52.246,-15.137,-46.875,-61.523,0.000
1709140551.669,-44.434,-31.738,-51.758,-59.082,0.000
1709140551.673,-38.574,-37.109,-58.105,-54.199,0.000
1709140551.677,-38.086,-37.598,-58.105,-50.781,0.000
1709140551.681,-42.480,-34.180,-53.711,-50.293,0.000
1709140551.684,-35.645,-23.926,-46.875,-46.387,0.000
1709140551.688,-24.902,-33.691,-46.387,-38.086,0.000
1709140551.692,-40.039,-37.598,-58.105,-42.480,0.000
1709140551.696,-41.992,-47.363,-55.664,-40.527,0.000
1709140551.700,-39.062,-58.594,-45.898,-37.109,0.000
1709140551.704,-46.875,-36.621,-49.316,-45.410,0.000
1709140551.708,-43.945,-24.414,-51.758,-49.316,0.000
1709140551.712,-31.738,-30.762,-47.363,-39.551,0.000
1709140551.716,-32.227,-37.109,-50.781,-29.297,0.000
1709140551.720,-34.180,-38.574,-55.664,-32.715,0.000
1709140551.724,-33.203,-32.227,-47.363,-34.668,0.000
1709140551.728,-33.203,-29.785,-41.016,-31.250,0.000
1709140551.732,-34.180,-30.273,-43.457,-33.203,0.000
1709140551.735,-29.297,-30.762,-47.363,-36.133,0.000
1709140551.739,-36.621,-43.945,-43.945,-39.551,0.000
1709140551.743,-39.551,-54.688,-35.645,-38.574,0.000
1709140551.747,-33.203,-60.547,-31.738,-31.250,0.000
1709140551.751,-38.086,-58.594,-32.715,-29.785,0.000
1709140551.755,-45.898,-38.574,-36.621,-35.645,0.000
1709140551.759,-38.574,-24.902,-34.668,-48.340,0.000
1709140551.763,-39.551,-29.785,-32.227,-54.688,0.000
1709140551.767,-40.039,-33.203,-27.344,-35.156,0.000
1709140551.771,-19.531,-27.344,-28.809,-31.250,0.000
1709140551.775,-15.625,-24.414,-36.133,-41.504,0.000
1709140551.779,-30.273,-25.391,-27.344,-34.180,0.000
1709140551.783,-28.320,-35.645,-20.996,-25.879,0.000
1709140551.786,-26.367,-32.715,-29.785,-35.645,0.000
1709140551.790,-33.691,-35.156,-26.855,-42.480,0.000
1709140551.794,-39.551,-66.406,-17.578,-36.133,0.000
1709140551.798,-44.434,-43.945,-23.438,-48.828,0.000
1709140551.802,-47.852,-6.836,-23.438,-51.758,0.000
1709140551.806,-39.062,-22.949,-21.973,-36.133,0.000
1709140551.810,-33.691,-31.250,-27.832,-24.414,0.000
1709140551.814,-25.391,-26.367,-22.949,-21.484,0.000
1709140551.818,-20.020,-46.875,-16.602,-24.414,0.000
1709140551.822,-28.320,-53.711,-29.297,-23.438,0.000
1709140551.826,-28.809,-34.180,-28.320,-16.602,0.000
1709140551.830,-17.090,-28.809,-17.090,-15.137,0.000
1709140551.834,-23.926,-37.109,-15.625,-28.320,0.000
1709140551.837,-40.039,-35.645,-15.625,-33.203,0.000
1709140551.841,-33.691,-34.180,-20.020,-24.902,0.000
1709140551.845,-33.691,-40.527,-26.855,-20.508,0.000
1709140551.849,-32.227,-55.664,-33.691,-18.555,0.000
1709140551.853,-27.344,-47.852,-45.898,-19.531,0.000
1709140551.857,-32.715,-28.320,-46.875,-22.949,0.000
1709140551.861,-32.715,-34.180,-33.203,-29.785,0.000
1709140551.865,-41.016,-36.133,-32.715,-35.645,0.000
1709140551.869,-53.223,-31.738,-40.527,-41.992,0.000
1709140551.873,-41.016,-32.715,-39.551,-47.852,0.000
1709140551.877,-34.180,-44.434,-39.551,-50.293,0.000
1709140551.880,-33.203,-51.270,-39.062,-39.062,0.000
1709140551.884,-5.371,-35.645,-33.691,-16.113,0.000
1709140551.888,-22.949,-18.066,-36.133,-24.902,0.000
1709140551.892,-35.645,-20.996,-41.992,-42.480,0.000
1709140551.896,-11.230,-46.875,-41.016,-26.855,0.000
1709140551.900,0.000,-59.082,-34.668,-12.695,0.000
1709140551.904,0.000,-23.438,-32.227,-20.508,0.000
1709140551.908,0.000,-14.648,-38.086,-22.949,0.000
1709140551.912,0.000,-41.016,-37.109,-25.879,0.000
1709140551.916,0.000,-54.688,-33.203,-27.344,0.000
1709140551.920,0.000,-53.711,-37.109,-24.902,0.000
1709140551.924,0.000,-43.457,-36.133,-32.715,0.000
1709140551.928,0.000,-37.109,-32.715,-37.598,0.000
1709140551.932,0.000,-43.945,-32.227,-34.180,0.000
1709140551.935,0.000,-53.711,-36.133,-36.621,0.000
1709140551.939,0.000,-61.035,-36.133,-49.316,0.000
1709140551.943,0.000,-64.941,-39.062,-54.688,0.000
1709140551.948,-52.246,-42.969,-42.969,-46.387,0.000
1709140551.951,-54.688,-28.320,-43.945,-44.434,0.000
1709140551.955,-55.664,-25.391,-41.504,-50.293,0.000
1709140551.959,-47.363,-24.414,-42.480,-45.410,0.000
1709140551.963,-42.969,-29.785,-46.875,-40.527,0.000
1709140551.967,-37.109,-46.875,-37.109,-45.410,0.000
1709140551.971,-44.434,-53.223,-40.039,-46.387,0.000
1709140551.975,-53.223,-54.199,-50.781,-44.434,0.000
1709140551.979,-40.527,-34.180,-45.898,-50.293,0.000
1709140551.983,-28.320,-34.668,-46.387,-47.852,0.000
1709140551.987,-32.715,-49.316,-49.805,-51.758,0.000
1709140551.991,-34.668,-39.062,-45.898,-55.664,0.000
1709140551.994,-36.133,-44.434,-43.457,-53.711,0.000
1709140551.998,-43.457,-52.246,-43.457,-43.945,0.000
1709140552.002,-42.969,-38.574,-42.480,-32.715,0.000
1709140552.006,-32.715,-35.156,-49.805,-39.062,0.000
1709140552.010,-21.973,-47.852,-51.270,-44.922,0.000
1709140552.014,-37.109,-38.086,-47.363,-48.340,0.000
1709140552.018,-36.621,-20.508,-43.457,-52.246,0.000
1709140552.022,-29.297,-25.879,-47.363,-43.457,0.000
1709140552.026,-31.738,-34.668,-52.734,-34.180,0.000
1709140552.029,-29.785,-38.574,-47.852,-39.062,0.000
1709140552.033,-28.809,-48.828,-45.410,-40.527,0.000
1709140552.037,-19.531,-49.805,-47.363,-32.715,0.000
1709140552.041,-18.555,-51.758,-49.316,-31.738,0.000
1709140552.045,-33.203,-40.039,-50.293,-40.527,0.000
1709140552.049,-29.297,-16.113,-51.270,-45.898,0.000
1709140552.053,-24.414,-18.066,-55.664,-44.922,0.000
1709140552.056,-30.762,-22.949,-57.617,-57.129,0.000
1709140552.060,-31.738,-22.949,-55.176,-62.012,0.000
1709140552.064,-34.180,-21.484,-51.758,-52.246,0.000
1709140552.068,-30.762,-31.738,-48.828,-52.246,0.000
1709140552.072,-26.367,-46.875,-43.945,-57.617,0.000
1709140552.076,-41.504,-55.664,-44.922,-60.059,0.000
1709140552.080,-41.992,-59.082,-45.410,-53.223,0.000
1709140552.084,-32.715,-42.480,-47.852,-55.176,0.000
1709140552.088,-42.969,-27.344,-52.734,-59.570,0.000
1709140552.092,-50.781,-24.902,-49.316,-69.824,0.000
1709140552.096,-51.270,-49.805,-49.316,-79.102,0.000
1709140552.100,-43.945,-55.664,-51.758,-68.848,0.000
1709140552.104,-47.363,-30.762,-52.734,-62.988,0.000
1709140552.107,-53.711,-32.715,-45.898,-62.500,0.000
1709140552.111,-53.711,-41.992,-44.922,-59.570,0.000
1709140552.115,-47.363,-37.598,-45.410,-52.246,0.000
1709140552.119,-44.434,-53.223,-35.156,-44.434,0.000
1709140552.123,-53.711,-65.918,-41.992,-42.969,0.000
1709140552.127,-55.176,-53.223,-56.152,-41.992,0.000
1709140552.131,-41.504,-38.086,-55.176,-39.551,0.000
1709140552.135,-39.551,-38.086,-46.875,-35.645,0.000
1709140552.139,-46.875,-34.668,-51.758,-28.809,0.000
1709140552.143,-36.133,-23.926,-46.875,-25.879,0.000
1709140552.147,-36.621,-18.555,-40.527,-28.809,0.000
1709140552.151,-40.527,-30.273,-41.504,-26.855,0.000
1709140552.154,-32.227,-56.152,-43.945,-24.414,0.000
1709140552.158,-33.203,-60.547,-43.457,-26.367,0.000
1709140552.162,-27.344,-45.410,-41.016,-29.785,0.000
1709140552.166,-29.785,-17.090,-46.875,-30.273,0.000
1709140552.170,-33.203,-18.555,-46.875,-29.785,0.000
1709140552.174,-36.133,-24.902,-41.992,-34.668,0.000
1709140552.178,-41.016,-28.320,-51.270,-40.039,0.000
1709140552.182,-42.969,-39.062,-51.758,-45.898,0.000
1709140552.186,-38.086,-25.391,-43.457,-39.551,0.000
1709140552.190,-31.250,-23.926,-45.410,-31.738,0.000
1709140552.194,-30.273,-29.785,-43.457,-28.809,0.000
1709140552.197,-36.133,-30.273,-37.109,-31.250,0.000
1709140552.201,-40.527,-32.715,-37.598,-37.598,0.000
1709140552.205,-37.109,-44.922,-41.992,-38.086,0.000
1709140552.209,-37.598,-40.039,-43.457,-35.156,0.000
1709140552.213,-31.738,-40.527,-35.645,-35.156,0.000
1709140552.217,-23.438,-35.645,-39.551,-32.715,0.000
1709140552.221,-30.273,-41.504,-51.270,-21.973,0.000
1709140552.225,-31.250,-39.551,-44.434,-17.578,0.000
1709140552.229,-35.156,-14.160,-34.180,-24.414,0.000
1709140552.233,-51.270,-15.137,-33.691,-36.621,0.000
1709140552.237,-47.852,-34.668,-39.062,-42.969,0.000
1709140552.240,-37.598,-29.785,-45.898,-36.621,0.000
1709140552.244,-35.156,-20.996,-53.711,-29.297,0.000
1709140552.248,-23.438,-44.434,-44.922,-24.902,0.000
1709140552.252,-17.090,-41.016,-28.320,-26.367,0.000
1709140552.256,-30.273,-28.320,-28.809,-35.645,0.000
1709140552.260,-32.715,-24.414,-33.203,-24.902,0.000
1709140552.264,-25.879,-19.531,-42.969,-20.508,0.000
1709140552.268,-22.461,-41.016,-49.316,-34.668,0.000
1709140552.272,-22.949,-51.758,-37.598,-38.574,0.000
1709140552.276,-27.832,-43.457,-35.156,-43.945,0.000
1709140552.279,-16.113,-29.297,-42.480,-40.527,0.000
1709140552.283,-20.508,-31.738,-51.758,-37.109,0.000
1709140552.287,-41.992,-37.109,-52.734,-46.387,0.000
1709140552.291,-47.363,-30.273,-46.875,-51.758,0.000
1709140552.295,-49.316,-34.668,-46.875,-53.711,0.000
1709140552.299,-47.852,-42.480,-51.270,-47.852,0.000
1709140552.303,-43.945,-32.227,-52.246,-41.504,0.000
1709140552.307,-42.480,-25.391,-49.316,-51.758,0.000
1709140552.311,-40.039,-50.781,-49.316,-57.617,0.000
1709140552.315,-36.133,-54.688,-48.340,-54.688,0.000
1709140552.318,-39.551,-39.062,-52.246,-47.363,0.000
1709140552.322,-40.039,-31.250,-43.945,-42.480,0.000
1709140552.326,-36.133,-30.273,-29.297,-53.223,0.000
1709140552.330,-41.016,-45.898,-32.715,-60.547,0.000
1709140552.334,-39.551,-50.293,-35.156,-54.199,0.000
1709140552.338,-33.203,-33.691,-37.109,-50.293,0.000
1709140552.342,-34.668,-40.039,-40.039,-43.457,0.000
1709140552.346,-43.457,-48.340,-44.922,-42.969,0.000
1709140552.350,-35.645,-43.457,-47.363,-34.180,0.000
1709140552.353,-35.645,-50.781,-43.457,-23.438,0.000
1709140552.357,-44.922,-49.805,-45.898,-31.250,0.000
1709140552.361,-45.898,-34.180,-46.387,-33.203,0.000
1709140552.365,-50.781,-17.090,-41.504,-32.715,0.000
1709140552.369,-38.086,-25.391,-46.875,-35.156,0.000
1709140552.373,-26.855,-40.039,-51.270,-32.715,0.000
1709140552.377,-35.645,-43.945,-41.504,-40.039,0.000
1709140552.381,-47.363,-58.105,-38.574,-43.457,0.000
1709140552.385,-44.922,-69.336,-38.086,-33.203,0.000
1709140552.389,-38.574,-41.504,-41.504,-30.273,0.000
1709140552.392,-41.992,-25.879,-55.664,-31.250,0.000
1709140552.396,-41.016,-41.016,-55.664,-24.902,0.000
1709140552.400,-48.340,-41.504,-38.574,-27.832,0.000
1709140552.404,-56.641,-33.203,-34.668,-25.391,0.000
1709140552.408,-41.992,-27.344,-34.668,-25.391,0.000
1709140552.412,-41.504,-31.250,-32.227,-29.785,0.000
1709140552.416,-47.363,-42.969,-38.086,-26.855,0.000
1709140552.420,-44.922,-53.223,-42.969,-38.086,0.000
1709140552.423,-44.922,-51.758,-45.410,-49.805,0.000
1709140552.427,-47.363,-47.363,-46.875,-50.781,0.000
1709140552.431,-48.340,-43.945,-47.852,-52.734,0.000
1709140552.435,-47.363,-45.898,-45.410,-52.246,0.000
1709140552.439,-48.340,-30.273,-48.828,-47.363,0.000
1709140552.443,-47.852,-26.367,-50.781,-52.246,0.000
1709140552.447,-45.410,-37.598,-44.434,-48.828,0.000
1709140552.451,-39.062,-40.039,-41.504,-41.016,0.000
1709140552.455,-34.180,-30.762,-41.016,-40.527,0.000
1709140552.459,-45.410,-18.555,-43.945,-55.176,0.000
1709140552.462,-46.387,-25.879,-44.434,-47.852,0.000
1709140552.466,-42.480,-35.645,-42.480,-28.809,0.000
1709140552.470,-32.715,-41.016,-47.852,-27.344,0.000
1709140552.474,-19.531,-51.758,-44.434,-33.691,0.000
1709140552.478,-41.504,-43.945,-37.598,-41.016,0.000
1709140552.482,-59.082,-16.113,-41.016,-39.062,0.000
1709140552.486,-48.340,-21.973,-38.574,-37.109,0.000
1709140552.490,-45.898,-33.691,-32.715,-43.945,0.000
1709140552.493,-48.828,-25.391,-30.273,-48.828,0.000
1709140552.497,-42.969,-33.203,-31.250,-40.527,0.000
1709140552.501,-44.922,-37.109,-41.992,-30.273,0.000
1709140552.505,-43.945,-37.109,-41.504,-22.461,0.000
1709140552.509,-36.621,-45.898,-34.180,-25.879,0.000
1709140552.513,-42.480,-56.152,-36.133,-30.762,0.000
1709140552.517,-48.340,-71.289,-39.551,-37.598,0.000
1709140552.521,-42.480,-46.387,-42.480,-48.828,0.000
1709140552.525,-42.480,-25.391,-45.898,-51.270,0.000
1709140552.529,-44.922,-30.762,-49.316,-58.105,0.000
1709140552.533,-37.598,-39.062,-45.898,-58.105,0.000
1709140552.537,-38.086,-43.945,-49.805,-52.246,0.000
1709140552.540,-26.855,-44.434,-50.781,-45.898,0.000
1709140552.544,-27.832,-49.805,-42.480,-33.691,0.000
1709140552.548,-30.273,-42.969,-37.598,-35.645,0.000
1709140552.552,-23.438,-24.414,-39.551,-38.574,0.000
1709140552.556,-25.391,-21.973,-36.133,-35.645,0.000
1709140552.560,-35.156,-41.016,-38.574,-37.598,0.000
1709140552.564,-36.621,-42.969,-41.992,-37.598,0.000
1709140552.568,-30.273,-41.016,-42.480,-30.273,0.000
1709140552.572,-17.578,-49.316,-44.922,-27.344,0.000
1709140552.576,-30.273,-50.781,-40.527,-28.809,0.000
1709140552.580,-49.805,-49.316,-37.109,-27.344,0.000
1709140552.583,-51.270,-31.250,-41.992,-33.203,0.000
1709140552.587,-50.293,-36.621,-39.551,-36.133,0.000
1709140552.591,-46.875,-19.043,-36.621,-42.480,0.000
1709140552.595,-29.785,-18.555,-35.645,-47.852,0.000
1709140552.599,-35.645,-37.598,-30.762,-39.551,0.000
1709140552.603,-37.109,-32.715,-36.621,-33.691,0.000
1709140552.607,-27.344,-51.270,-54.199,-36.621,0.000
1709140552.611,-36.133,-48.340,-54.199,-38.574,0.000
1709140552.615,-41.992,-41.504,-42.480,-38.574,0.000
1709140552.619,-36.133,-37.598,-38.086,-42.480,0.000
1709140552.623,-41.992,-27.344,-36.621,-36.133,0.000
1709140552.626,-45.410,-20.508,-37.598,-32.227,0.000
1709140552.630,-32.227,-23.438,-33.691,-28.809,0.000
1709140552.634,-24.902,-50.781,-28.320,-25.879,0.000
1709140552.638,-31.250,-42.969,-35.645,-38.574,0.000
1709140552.642,-35.156,-34.180,-44.434,-43.457,0.000
1709140552.646,-46.875,-33.203,-39.062,-44.434,0.000
1709140552.650,-49.316,-25.391,-31.250,-50.781,0.000
1709140552.654,-41.992,-38.574,-36.133,-55.176,0.000
1709140552.658,-43.945,-51.270,-41.504,-57.617,0.000
1709140552.662,-54.688,-39.062,-46.387,-58.105,0.000
1709140552.665,-54.199,-37.109,-50.781,-43.945,0.000
1709140552.669,-53.711,-40.039,-49.316,-43.945,0.000
1709140552.673,-61.523,-33.691,-51.758,-55.664,0.000
1709140552.677,-48.828,-39.551,-49.805,-41.016,0.000
1709140552.681,-42.969,-41.504,-52.246,-33.691,0.000
1709140552.685,-45.410,-32.715,-40.039,-38.574,0.000
1709140552.689,-28.320,-41.016,-32.227,-34.668,0.000
1709140552.693,-41.504,-41.504,-39.062,-38.574,0.000
1709140552.697,-39.062,-38.086,-32.715,-49.316,0.000
1709140552.701,-29.785,-49.316,-31.738,-46.875,0.000
1709140552.704,-37.109,-43.457,-41.016,-38.086,0.000
1709140552.708,-34.668,-42.969,-46.387,-36.133,0.000
1709140552.712,-31.250,-44.922,-49.316,-30.762,0.000
1709140552.716,-41.992,-39.551,-49.316,-34.180,0.000
1709140552.720,-44.922,-49.316,-34.668,-34.668,0.000
1709140552.724,-36.133,-62.012,-25.391,-19.043,0.000
1709140552.728,-36.133,-43.457,-32.715,-20.508,0.000
1709140552.732,-30.273,-23.438,-39.551,-30.273,0.000
1709140552.736,-30.762,-34.668,-43.457,-42.969,0.000
1709140552.740,-36.133,-36.133,-40.527,-49.805,0.000
1709140552.743,-31.738,-31.738,-37.598,-34.180,0.000
1709140552.747,-32.227,-49.316,-38.086,-32.227,0.000
1709140552.751,-24.902,-50.293,-39.062,-36.621,0.000
1709140552.755,-18.555,-49.805,-38.574,-28.809,0.000
1709140552.759,-21.973,-54.199,-38.574,-28.809,0.000
1709140552.763,-8.789,-53.711,-40.527,-28.320,0.000
1709140552.767,-16.113,-50.293,-39.062,-26.855,0.000
1709140552.771,-29.785,-30.273,-33.203,-29.785,0.000
1709140552.775,-32.715,-25.391,-38.574,-39.062,0.000
1709140552.779,-44.434,-25.879,-51.270,-38.086,0.000
1709140552.782,-49.316,-32.227,-44.434,-37.109,0.000
1709140552.786,-47.363,-39.551,-35.156,-38.086,0.000
1709140552.790,-45.410,-43.457,-40.039,-41.992,0.000
1709140552.794,-41.504,-46.875,-40.039,-48.340,0.000
1709140552.798,-42.969,-40.039,-35.156,-46.387,0.000
1709140552.802,-42.480,-45.898,-32.715,-32.227,0.000
1709140552.806,-33.203,-84.473,-29.297,-13.184,0.000
1709140552.810,-35.156,-78.125,-31.250,-20.508,0.000
1709140552.813,-52.734,-34.180,-46.387,-41.016,0.000
1709140552.817,-63.965,-20.996,-53.223,-53.223,0.000
1709140552.821,-53.711,-27.832,-40.527,-51.758,0.000
1709140552.825,-48.828,-40.527,-35.156,-42.969,0.000
1709140552.829,-44.922,-49.316,-36.621,-35.156,0.000
1709140552.833,-41.992,-45.898,-36.133,-41.504,0.000
1709140552.837,-42.969,-40.527,-34.668,-44.434,0.000
1709140552.841,-37.109,-44.434,-41.504,-40.527,0.000
1709140552.845,-31.250,-41.992,-34.180,-30.273,0.000
1709140552.849,-21.484,-45.410,-25.391,-24.902,0.000
1709140552.853,-16.602,-58.105,-31.250,-25.391,0.000
1709140552.857,-20.508,-39.551,-34.668,-29.785,0.000
1709140552.861,-36.621,-24.414,-37.598,-35.156,0.000
1709140552.864,-46.387,-27.344,-37.598,-35.156,0.000
1709140552.868,-38.574,-29.785,-30.762,-29.785,0.000
1709140552.872,-31.250,-37.109,-35.156,-19.043,0.000
1709140552.876,-27.832,-36.621,-41.992,-24.414,0.000
1709140552.880,-26.367,-32.227,-37.598,-34.668,0.000
1709140552.884,-36.133,-36.621,-38.574,-36.133,0.000
1709140552.888,-35.645,-45.410,-40.039,-31.250,0.000
1709140552.892,-30.762,-38.574,-41.504,-28.320,0.000
1709140552.896,-40.039,-41.504,-37.598,-34.668,0.000
1709140552.900,-42.480,-66.895,-31.250,-52.246,0.000
1709140552.904,-41.504,-41.504,-33.203,-50.781,0.000
1709140552.908,-50.781,-8.301,-39.551,-45.898,0.000
1709140552.912,-45.410,-16.602,-45.410,-53.223,0.000
1709140552.915,-41.016,-19.043,-50.781,-55.664,0.000
1709140552.919,-60.059,-27.344,-44.922,-40.039,0.000
1709140552.923,-58.105,-42.480,-40.039,-33.203,0.000
1709140552.927,-42.480,-30.273,-47.852,-24.414,0.000
1709140552.931,0.000,-22.949,-47.852,-30.273,0.000
1709140552.935,0.000,-36.621,-29.785,-51.270,0.000
1709140552.939,0.000,-47.363,-25.391,-42.969,0.000
1709140552.943,0.000,-45.898,-32.227,-28.809,0.000
1709140552.947,0.000,-45.410,-33.691,-33.203,0.000
1709140552.951,0.000,-41.504,-32.715,-34.668,0.000
1709140552.955,0.000,-40.039,-37.598,-28.320,0.000
1709140552.959,0.000,-38.574,-35.156,-25.391,0.000
1709140552.962,0.000,-23.926,-33.691,-24.902,0.000
1709140552.966,0.000,-28.809,-40.527,-24.414,0.000
1709140552.970,0.000,-29.785,-46.875,-26.367,0.000
1709140552.974,0.000,-36.133,-43.457,-28.320,0.000
1709140552.978,-28.320,-40.039,-37.598,-25.879,0.000
1709140552.982,-22.461,-43.945,-38.574,-28.809,0.000
1709140552.986,-20.020,-68.359,-31.738,-34.668,0.000
1709140552.990,-31.738,-41.016,-32.227,-39.062,0.000
1709140552.994,-51.758,-22.461,-40.527,-40.039,0.000
1709140552.998,-49.805,-25.391,-40.527,-42.969,0.000
1709140553.002,-50.293,-35.156,-42.480,-53.711,0.000
1709140553.005,-51.758,-46.387,-46.387,-47.363,0.000
1709140553.009,-39.551,-42.969,-46.387,-31.250,0.000
1709140553.013,-38.086,-40.039,-51.758,-45.410,0.000
1709140553.017,-46.387,-45.898,-52.734,-56.152,0.000
1709140553.021,-51.270,-49.316,-42.480,-46.387,0.000
1709140553.025,-43.945,-74.219,-46.387,-36.621,0.000
1709140553.029,-30.762,-72.266,-52.246,-38.574,0.000
1709140553.033,-38.086,-27.832,-45.410,-48.340,0.000
1709140553.037,-43.945,-15.137,-46.875,-54.199,0.000
1709140553.041,-53.711,-30.273,-47.852,-56.152,0.000
1709140553.044,-58.105,-52.246,-42.480,-48.828,0.000
1709140553.048,-58.594,-41.016,-41.992,-47.363,0.000
1709140553.052,-57.617,-29.785,-41.016,-44.922,0.000
1709140553.056,-45.898,-41.992,-37.109,-36.133,0.000
1709140553.060,-47.852,-34.668,-47.852,-32.715,0.000
1709140553.064,-44.434,-37.109,-52.246,-31.738,0.000
1709140553.068,-35.645,-52.734,-31.738,-35.645,0.000
1709140553.072,-39.062,-28.320,-30.273,-38.086,0.000
1709140553.076,-41.992,-21.484,-42.480,-43.945,0.000
1709140553.079,-47.363,-36.621,-31.738,-44.434,0.000
1709140553.083,-49.316,-41.504,-28.320,-47.852,0.000
1709140553.087,-41.016,-39.551,-31.250,-48.340,0.000
1709140553.091,-39.551,-30.273,-36.133,-48.340,0.000
1709140553.095,-36.133,-29.785,-40.527,-48.828,0.000
1709140553.099,-35.645,-20.508,-41.992,-43.945,0.000
1709140553.103,-48.340,-23.438,-43.945,-37.598,0.000
1709140553.107,-40.527,-49.316,-44.922,-39.551,0.000
1709140553.111,-34.668,-41.504,-47.363,-45.898,0.000
1709140553.115,-41.504,-28.809,-41.992,-48.340,0.000
1709140553.118,-39.551,-44.922,-39.062,-44.922,0.000
1709140553.122,-44.922,-47.363,-41.016,-38.086,0.000
1709140553.126,-53.711,-34.668,-43.945,-30.273,0.000
1709140553.130,-47.363,-32.227,-41.504,-25.879,0.000
1709140553.134,-38.574,-38.086,-41.992,-39.551,0.000
1709140553.138,-35.156,-38.086,-40.039,-44.434,0.000
1709140553.142,-42.480,-33.691,-38.086,-24.902,0.000
1709140553.146,-37.109,-21.973,-41.016,-15.137,0.000
1709140553.150,-25.391,-30.273,-37.109,-22.949,0.000
1709140553.154,-28.809,-60.059,-37.598,-28.809,0.000
1709140553.157,-26.367,-41.504,-39.551,-34.180,0.000
1709140553.161,-36.133,-26.855,-40.527,-32.715,0.000
1709140553.165,-46.387,-49.316,-48.828,-25.879,0.000
1709140553.169,-45.898,-62.012,-45.898,-31.250,0.000
1709140553.173,-37.109,-41.504,-35.156,-38.574,0.000
1709140553.177,-37.598,-30.273,-34.180,-47.363,0.000
1709140553.181,-46.387,-25.391,-39.062,-51.270,0.000
1709140553.185,-45.410,-26.367,-33.691,-38.574,0.000
1709140553.188,-48.340,-36.621,-30.762,-32.227,0.000
1709140553.192,-33.691,-41.992,-39.551,-42.480,0.000
1709140553.196,-36.621,-42.969,-43.457,-55.664,0.000
1709140553.200,-53.711,-30.273,-43.945,-62.500,0.000
1709140553.204,-44.434,-30.762,-40.039,-56.641,0.000
1709140553.208,-35.645,-40.039,-38.574,-44.434,0.000
1709140553.212,-38.086,-37.109,-43.945,-46.387,0.000
1709140553.216,-39.551,-49.316,-45.898,-54.688,0.000
1709140553.220,-39.062,-67.871,-46.875,-56.641,0.000
1709140553.224,-47.363,-57.617,-49.805,-52.246,0.000
1709140553.228,-50.781,-37.109,-44.434,-49.316,0.000
1709140553.232,-46.387,-25.391,-52.246,-49.805,0.000
1709140553.236,-42.480,-40.527,-47.852,-46.875,0.000
1709140553.239,-44.922,-41.016,-32.227,-45.410,0.000
1709140553.243,-48.340,-24.414,-32.227,-37.598,0.000
1709140553.247,-38.086,-21.484,-28.809,-21.973,0.000
1709140553.251,-30.273,-27.344,-24.902,-23.926,0.000
1709140553.255,-32.227,-42.480,-30.273,-31.738,0.000
1709140553.259,-22.949,-54.688,0.000,-31.738,0.000
1709140553.263,-17.578,-53.711,0.000,-27.344,0.000
1709140553.267,-24.902,-32.715,0.000,-27.344,0.000
1709140553.271,-23.438,-37.598,0.000,-34.668,0.000
1709140553.275,-38.574,-33.691,0.000,-50.293,0.000
1709140553.279,-48.340,-23.438,0.000,-50.293,0.000
1709140553.283,-39.551,-32.227,0.000,-43.945,0.000
1709140553.287,-34.180,-37.598,0.000,-36.621,0.000
1709140553.290,-41.504,-37.109,0.000,-41.504,0.000
1709140553.294,-43.457,-39.062,0.000,-43.945,0.000
1709140553.298,-43.945,-42.480,0.000,-48.828,0.000
1709140553.302,-57.617,-34.668,0.000,-51.270,0.000
1709140553.306,-54.199,-42.969,-41.992,-42.969,0.000
1709140553.310,-45.410,-42.969,-47.852,-47.363,0.000
1709140553.314,-33.691,-23.438,-37.598,-44.434,0.000
1709140553.318,-34.180,-18.066,-33.691,-39.551,0.000
1709140553.322,-50.781,-36.133,-36.621,-48.340,0.000
1709140553.326,-50.781,-36.133,-35.156,-51.270,0.000
1709140553.330,-41.504,-25.391,-32.227,-54.199,0.000
1709140553.333,-39.062,-36.621,-34.668,-58.105,0.000
1709140553.337,-42.480,-41.016,-46.387,-52.734,0.000
1709140553.341,-48.828,-32.715,-55.664,-47.852,0.000
1709140553.345,-42.969,-37.109,-52.734,-48.340,0.000
1709140553.349,-38.086,-38.086,-43.945,-43.945,0.000
1709140553.354,-40.039,-32.227,-47.852,-43.945,0.000
1709140553.357,-41.992,-33.691,-53.711,-53.223,0.000
1709140553.361,-42.969,-32.227,-46.387,-51.758,0.000
1709140553.365,-42.480,-46.387,-49.805,-44.922,0.000
1709140553.369,-37.598,-77.637,-50.293,-41.016,0.000
1709140553.373,-34.668,-50.781,-43.945,-46.387,0.000
1709140553.377,-36.621,-11.719,-44.922,-57.617,0.000
1709140553.381,-46.875,-26.367,-45.410,-49.805,0.000
1709140553.385,-38.574,-28.809,-47.852,-40.039,0.000
1709140553.389,-36.133,-18.555,-47.363,-43.457,0.000
1709140553.393,-50.781,-20.508,-49.805,-45.410,0.000
1709140553.396,-50.781,-30.273,-59.570,-48.340,0.000
1709140553.400,-48.340,-46.387,-58.105,-46.875,0.000
1709140553.404,-34.180,-39.551,-42.969,-37.109,0.000
1709140553.408,-26.367,-38.574,-34.668,-31.738,0.000
1709140553.412,-35.156,-62.988,-36.133,-32.715,0.000
1709140553.416,-27.344,-70.312,-35.156,-36.133,0.000
1709140553.420,-28.320,-41.992,-39.551,-33.203,0.000
1709140553.424,-34.668,-34.180,-41.992,-31.738,0.000
1709140553.428,-30.762,-45.410,-41.504,-36.621,0.000
1709140553.432,-32.227,-41.016,-46.875,-42.969,0.000
1709140553.435,-30.273,-25.879,-42.480,-41.016,0.000
1709140553.439,-36.133,-18.066,-37.109,-40.039,0.000
1709140553.443,-37.598,-32.715,-35.645,-30.273,0.000
1709140553.447,-33.203,-33.691,-36.621,-28.320,0.000
1709140553.451,-35.645,-37.598,-41.016,-35.645,0.000
1709140553.455,-29.297,-56.641,-43.945,-34.668,0.000
1709140553.459,-26.367,-38.574,-31.250,-39.062,0.000
1709140553.463,-33.203,-20.020,-23.926,-34.180,0.000
1709140553.467,-38.086,-36.133,-23.926,-17.578,0.000
1709140553.470,-38.086,-54.688,-27.344,-16.113,0.000
1709140553.474,-38.086,-49.805,-37.109,-26.367,0.000
1709140553.478,-42.480,-32.227,-37.598,-36.621,0.000
1709140553.482,-45.410,-22.949,-31.250,-36.621,0.000
1709140553.486,-43.945,-31.738,-30.762,-41.992,0.000
1709140553.490,-44.922,-36.621,-41.504,-46.387,0.000
1709140553.494,-39.062,-32.227,-42.969,-46.875,0.000
1709140553.498,-25.391,-40.039,-38.574,-52.246,0.000
1709140553.502,-38.574,-49.805,-37.598,-38.086,0.000
1709140553.505,-43.457,-60.547,-38.574,-29.785,0.000
1709140553.509,-32.227,-62.988,-44.434,-29.297,0.000
1709140553.513,-23.926,-42.969,-38.086,-25.879,0.000
1709140553.517,-29.297,-22.949,-36.621,-24.414,0.000
1709140553.521,-39.062,-33.691,-40.527,-20.508,0.000
1709140553.525,-35.156,-34.668,-43.457,-25.879,0.000
1709140553.529,-35.156,-20.020,-46.875,-33.691,0.000
1709140553.533,-31.250,-30.762,-46.387,-42.969,0.000
1709140553.537,-34.668,-42.969,-60.059,-48.340,0.000
1709140553.540,-36.133,-46.387,-52.246,-45.410,0.000
1709140553.544,-30.762,-45.898,-36.621,-36.133,0.000
1709140553.548,-32.715,-40.039,-41.992,-31.250,0.000
1709140553.552,-32.715,-29.297,-40.527,-36.621,0.000
1709140553.556,-21.484,-48.828,-37.109,-31.738,0.000
1709140553.560,-24.902,-63.965,-41.016,-32.715,0.000
1709140553.564,-32.715,-43.945,-42.969,-27.832,0.000
1709140553.568,-39.062,-25.879,-48.828,-27.832,0.000
1709140553.572,-52.734,-26.367,-52.246,-44.922,0.000
1709140553.576,-47.852,-29.297,-46.387,-49.316,0.000
1709140553.580,-42.480,-35.156,-41.504,-43.457,0.000
1709140553.583,-36.133,-31.250,-33.203,-38.574,0.000
1709140553.587,-38.086,-31.738,-36.621,-40.039,0.000
1709140553.591,-44.434,-43.457,-40.039,-37.109,0.000
1709140553.595,-38.574,-43.945,-35.645,-37.598,0.000
1709140553.599,-33.691,-56.641,-33.203,-42.969,0.000
1709140553.603,-38.574,-54.199,-38.086,-38.086,0.000
1709140553.607,-39.551,-32.715,-41.504,-31.250,0.000
1709140553.611,-33.203,-38.086,-35.645,-27.344,0.000
1709140553.614,-33.691,-57.617,-28.809,-24.414,0.000
1709140553.618,-43.457,-48.340,-27.832,-31.738,0.000
1709140553.622,-36.133,-43.945,-37.598,-34.668,0.000
1709140553.626,-23.438,-55.176,-40.527,-33.691,0.000
1709140553.630,-22.461,-40.527,-40.039,-41.992,0.000
1709140553.634,-31.250,-21.484,-39.551,-33.691,0.000
1709140553.638,-31.738,-36.621,-44.922,-25.879,0.000
1709140553.642,-27.344,-34.180,-53.223,-30.762,0.000
1709140553.646,-26.855,-23.926,-50.293,-29.297,0.000
1709140553.650,-20.508,-37.598,-32.715,-30.273,0.000
1709140553.654,-20.996,-35.645,-26.367,-34.180,0.000
1709140553.658,-28.320,-43.457,-27.832,-39.062,0.000
1709140553.661,-27.344,-49.316,-28.809,-37.598,0.000
1709140553.665,-27.832,-41.504,-29.785,-26.367,0.000
1709140553.669,-21.484,-37.109,-26.855,-19.531,0.000
1709140553.673,-20.508,-59.082,-30.762,-30.762,0.000
1709140553.677,-25.879,-64.453,-41.504,-35.645,0.000
1709140553.681,-26.855,-32.715,-38.574,-26.855,0.000
1709140553.685,-29.785,-15.137,-29.785,-20.996,0.000
1709140553.689,-21.973,-21.973,-25.879,-16.113,0.000
1709140553.693,-26.367,-45.410,-29.297,-16.602,0.000
1709140553.697,-32.227,-60.547,-37.598,-14.648,0.000
1709140553.701,-30.762,-58.105,-37.109,-14.160,0.000
1709140553.705,-27.344,-51.270,-36.621,-18.066,0.000
1709140553.708,-35.645,-37.598,-35.645,-23.926,0.000
1709140553.712,-33.203,-43.945,-34.668,-29.297,0.000
1709140553.716,-28.320,-54.199,-33.691,-24.414,0.000
1709140553.720,-46.387,-32.715,-30.762,-27.832,0.000
1709140553.724,-44.434,-34.668,-31.738,-29.297,0.000
1709140553.728,-42.480,-32.715,-41.992,-30.273,0.000
1709140553.732,-40.527,-36.621,-41.016,-38.574,0.000
1709140553.736,-43.457,-77.148,-33.203,-51.270,0.000
1709140553.740,-52.246,-43.945,-28.809,-52.734,0.000
1709140553.744,-51.270,-17.578,-31.250,-46.387,0.000
1709140553.747,-43.457,-27.832,-34.668,-39.062,0.000
1709140553.751,-29.785,-47.852,-28.320,-36.133,0.000
1709140553.755,-22.461,-47.852,-29.297,-39.062,0.000
1709140553.759,-32.715,-26.855,-37.598,-33.203,0.000
1709140553.763,-42.969,-29.785,-36.621,-35.645,0.000
1709140553.767,-43.945,-45.410,-39.062,-51.270,0.000
1709140553.771,-42.480,-45.898,-47.363,-53.223,0.000
1709140553.775,-36.621,-39.551,-49.316,-44.922,0.000
1709140553.779,-18.555,-56.641,-47.852,-42.480,0.000
1709140553.783,-38.086,-50.293,-51.758,-45.898,0.000
1709140553.787,-64.941,-30.273,-52.734,-58.594,0.000
1709140553.790,-57.617,-54.199,-45.410,-62.500,0.000
1709140553.794,-62.012,-46.875,-47.363,-64.941,0.000
1709140553.798,-69.336,-20.996,-53.711,-67.871,0.000
1709140553.802,-61.035,-37.598,-50.293,-50.293,0.000
1709140553.806,-51.270,-50.293,-43.945,-41.992,0.000
1709140553.810,-43.945,-29.785,-39.062,-58.105,0.000
1709140553.814,-47.363,-22.949,-41.504,-62.500,0.000
1709140553.818,-46.875,-59.082,-40.039,-51.270,0.000
1709140553.822,-40.039,-62.988,-32.227,-42.480,0.000
1709140553.825,-44.922,-26.855,-30.762,-45.898,0.000
1709140553.829,-49.316,-27.344,-40.039,-43.457,0.000
1709140553.833,-55.664,-39.062,-39.551,-46.875,0.000
1709140553.837,-65.430,-38.086,-37.109,-45.898,0.000
1709140553.841,-62.988,-38.574,-48.340,-36.133,0.000
1709140553.845,-57.617,-34.180,-39.551,-32.227,0.000
1709140553.849,-59.570,-38.086,-36.133,-38.574,0.000
1709140553.853,-55.664,-41.016,-41.504,-46.387,0.000
1709140553.857,-41.504,-49.805,-36.133,-49.805,0.000
1709140553.861,-30.762,-61.035,-37.598,-39.551,0.000
1709140553.865,-28.809,-64.941,-48.340,-34.180,0.000
1709140553.868,-39.551,-37.109,-50.293,-40.039,0.000
1709140553.872,-40.527,-22.461,-43.457,-42.480,0.000
1709140553.876,-44.434,-45.898,-47.852,-45.410,0.000
1709140553.880,-46.875,-34.668,-55.176,-44.434,0.000
1709140553.884,-39.062,-18.555,-48.828,-38.574,0.000
1709140553.888,-30.762,-20.996,-43.945,-33.203,0.000
1709140553.892,-24.414,-25.879,-41.016,-34.668,0.000
1709140553.896,-26.367,-28.809,-39.062,-43.945,0.000
1709140553.900,-23.438,-26.367,-37.109,-43.945,0.000
1709140553.903,-23.438,-41.992,-37.109,-43.945,0.000
1709140553.907,-22.949,-48.828,-37.109,-44.434,0.000
1709140553.911,-20.996,-37.109,-32.227,-37.598,0.000
1709140553.915,-13.184,-47.852,-34.180,-39.551,0.000
1709140553.919,-16.602,-44.434,-41.504,-47.363,0.000
1709140553.923,-45.410,-28.320,-42.480,-43.457,0.000
1709140553.927,-56.641,-26.855,-44.922,-32.715,0.000
1709140553.931,-54.688,-37.109,-44.434,-40.039,0.000
1709140553.934,-50.293,-49.316,-39.062,-46.387,0.000
1709140553.938,-52.246,-49.805,-46.875,-37.109,0.000
1709140553.942,-62.012,-41.504,-50.293,-37.598,0.000
1709140553.946,-45.410,-53.223,-35.645,-30.762,0.000
1709140553.950,-34.180,-66.895,-38.574,-32.715,0.000
1709140553.954,-44.434,-40.527,-42.969,-48.340,0.000
1709140553.958,-45.410,-17.578,-38.574,-50.781,0.000
1709140553.962,-46.875,-36.133,-35.645,-40.527,0.000
1709140553.965,-43.457,-31.738,-34.668,-35.645,0.000
1709140553.969,-25.879,-15.137,-40.039,-32.715,0.000
1709140553.973,-29.785,-35.645,-47.363,-28.320,0.000
1709140553.977,-40.039,-44.434,-49.316,-30.762,0.000
1709140553.981,-40.527,-45.898,-42.969,-26.367,0.000
1709140553.985,-40.039,-48.340,-43.457,-27.344,0.000
1709140553.989,-41.504,-33.691,-41.992,-38.086,0.000
1709140553.993,-32.227,-25.391,-43.945,-39.551,0.000
1709140553.997,-31.250,-29.297,-47.852,-39.551,0.000
1709140554.001,-43.457,-47.852,-40.039,-44.922,0.000
1709140554.005,-47.363,-56.641,-37.109,-47.852,0.000
1709140554.009,-39.551,-47.852,-41.016,-41.016,0.000
1709140554.013,-40.527,-48.340,-40.039,-49.316,0.000
1709140554.016,-42.969,-50.293,-44.434,-54.199,0.000
1709140554.020,-45.898,-49.316,-42.480,-50.293,0.000
1709140554.024,-37.598,-41.504,-37.598,-52.734,0.000
1709140554.028,-30.762,-34.668,-38.574,-44.922,0.000
1709140554.032,-40.039,-24.414,-38.086,-41.992,0.000
1709140554.036,-28.809,-29.785,-41.992,-43.945,0.000
1709140554.040,-29.297,-52.246,-48.828,-39.062,0.000
1709140554.044,-35.156,-46.387,-43.945,-23.926,0.000
1709140554.048,-38.574,-39.062,-35.156,-33.691,0.000
1709140554.052,-33.691,-38.574,-37.598,-42.480,0.000
1709140554.056,-23.926,-32.227,-41.016,-34.668,0.000
1709140554.059,-30.273,-26.367,-35.156,-33.691,0.000
1709140554.063,-36.133,-45.898,-36.621,-32.715,0.000
1709140554.067,-38.086,-46.875,-47.363,-41.016,0.000
1709140554.071,-41.504,-32.227,-47.852,-47.363,0.000
1709140554.075,-40.527,-30.273,-40.039,-44.922,0.000
1709140554.079,-33.691,-10.254,-29.785,-35.156,0.000
1709140554.083,-27.344,-15.625,-34.180,-32.715,0.000
1709140554.087,-30.273,-41.992,-39.062,-30.273,0.000
1709140554.091,-30.762,-62.012,-38.086,-22.461,0.000
1709140554.095,-31.738,-55.664,-40.039,-34.668,0.000
1709140554.099,-40.039,-26.855,-33.691,-40.527,0.000
1709140554.102,-44.434,-23.926,-32.227,-41.992,0.000
1709140554.106,-38.574,-40.527,-35.645,-42.480,0.000
1709140554.110,-30.762,-56.152,-35.156,-36.621,0.000
1709140554.114,-35.645,-43.945,-35.645,-44.922,0.000
1709140554.118,-46.387,-41.504,-43.457,-57.129,0.000
1709140554.122,-52.246,-47.363,-45.410,-59.570,0.000
1709140554.126,-44.434,-37.109,-39.551,-50.293,0.000
1709140554.130,-34.180,-43.457,-39.062,-46.875,0.000
1709140554.134,-35.645,-39.062,-42.480,-50.781,0.000
1709140554.138,-46.875,-32.227,-41.504,-48.828,0.000
1709140554.142,-37.109,-34.180,-41.992,-42.480,0.000
1709140554.145,-32.715,-40.039,-42.969,-51.758,0.000
1709140554.149,-46.875,-40.527,-39.062,-53.223,0.000
1709140554.153,-46.387,-36.621,-38.574,-49.805,0.000
1709140554.157,-44.434,-30.273,-39.062,-57.129,0.000
1709140554.161,-43.457,-37.598,-39.062,-52.246,0.000
1709140554.165,-28.809,-71.289,-35.645,-42.969,0.000
1709140554.169,-30.762,-63.477,-34.668,-41.016,0.000
1709140554.173,-41.992,-29.785,-47.363,-42.969,0.000
1709140554.177,-43.457,-22.949,-48.340,-49.316,0.000
1709140554.181,-53.711,-34.668,-36.133,-50.293,0.000
1709140554.184,-53.711,-32.715,-35.156,-49.316,0.000
1709140554.188,-40.039,-26.855,-38.086,-46.387,0.000
1709140554.192,-37.109,-32.227,-36.133,-46.875,0.000
1709140554.196,-31.250,-29.785,-37.598,-48.340,0.000
1709140554.200,-41.992,-32.715,-36.133,-47.852,0.000
1709140554.204,-52.246,-45.898,-29.297,-54.688,0.000
1709140554.208,-49.316,-55.176,-27.832,-60.547,0.000
1709140554.212,-45.410,-55.664,-31.738,-56.152,0.000
1709140554.216,-49.316,-53.223,-37.598,-63.965,0.000
1709140554.220,-50.293,-55.664,-35.156,-65.430,0.000
1709140554.223,-47.852,-38.574,-42.480,-46.875,0.000
1709140554.227,-48.828,-25.879,-48.828,-51.758,0.000
1709140554.231,-43.945,-27.344,-38.086,-49.805,0.000
1709140554.235,-36.621,-41.992,-29.785,-38.086,0.000
1709140554.239,-46.387,-40.527,-33.203,-51.758,0.000
1709140554.243,-56.641,-26.367,-37.109,-60.059,0.000
1709140554.247,-50.781,-36.133,-36.133,-55.664,0.000
1709140554.251,-46.875,-49.805,-29.297,-51.758,0.000
1709140554.255,-33.691,-46.875,-30.762,-44.434,0.000
1709140554.258,-42.969,-50.781,-38.086,-41.016,0.000
1709140554.262,-61.523,-56.152,-34.180,-35.156,0.000
1709140554.266,-55.176,-38.574,-30.273,-30.762,0.000
1709140554.270,-49.316,-30.762,-32.715,-36.133,0.000
1709140554.274,-36.621,-31.250,-34.668,-40.039,0.000
1709140554.278,-32.227,-30.762,-34.180,-41.504,0.000
1709140554.282,-38.086,-37.598,-33.691,-27.832,0.000
1709140554.286,-32.227,-49.805,-30.273,-18.066,0.000
1709140554.289,-22.949,-55.664,-28.320,-22.461,0.000
1709140554.293,-25.879,-46.875,-36.621,-32.715,0.000
1709140554.297,-29.785,-46.875,-36.621,-34.180,0.000
1709140554.301,-30.273,-40.039,-32.715,-23.438,0.000
1709140554.305,-18.555,-34.668,-29.297,-20.020,0.000
1709140554.309,-13.672,-51.758,-29.297,-20.020,0.000
1709140554.313,-25.391,-42.480,-32.715,-19.043,0.000
1709140554.317,-32.715,-16.113,-37.109,-29.297,0.000
1709140554.321,-32.715,-12.695,-40.039,-30.762,0.000
1709140554.325,-30.762,-17.578,-45.898,-32.227,0.000
1709140554.329,-33.203,-28.320,-41.016,-37.598,0.000
1709140554.332,-21.484,-43.457,-41.016,-31.250,0.000
1709140554.336,-20.508,-41.992,-47.852,-35.645,0.000
1709140554.340,-29.785,-39.062,-42.480,-42.480,0.000
1709140554.344,-30.762,-48.340,-41.504,-44.434,0.000
1709140554.348,-32.227,-48.340,-44.434,-47.852,0.000
1709140554.352,-33.691,-46.387,-43.457,-46.387,0.000
1709140554.356,-37.598,-36.133,-43.945,-47.363,0.000
1709140554.360,-45.410,-27.344,-44.922,-45.898,0.000
1709140554.363,-46.875,-25.879,-44.434,-41.992,0.000
1709140554.367,-39.062,-22.949,-44.922,-39.062,0.000
1709140554.371,-39.062,-21.484,-45.898,-41.504,0.000
1709140554.375,-41.992,-22.949,-36.133,-42.480,0.000
1709140554.379,-37.109,-30.762,-34.180,-38.086,0.000
1709140554.384,-38.086,-39.062,-38.574,-34.668,0.000
1709140554.388,-44.922,-56.152,-41.504,-40.039,0.000
1709140554.392,-40.039,-50.781,-39.062,-50.293,0.000
1709140554.396,-38.086,-49.805,-36.133,-42.480,0.000
1709140554.400,-45.898,-54.688,-38.574,-33.203,0.000
1709140554.404,-45.898,-44.922,-39.551,-42.480,0.000
1709140554.408,-35.156,-44.434,-39.062,-41.016,0.000
1709140554.411,-49.805,-42.480,-41.504,-41.992,0.000
1709140554.415,-51.270,-32.227,-40.039,-46.875,0.000
1709140554.419,-35.156,-43.945,-41.016,-40.039,0.000
1709140554.423,-37.109,-47.363,-48.340,-46.387,0.000
1709140554.427,-44.434,-38.574,-43.457,-49.316,0.000
1709140554.431,-46.875,-49.805,-40.039,-45.410,0.000
1709140554.435,-43.457,-58.594,-46.387,-41.504,0.000
1709140554.439,-45.898,-35.156,-48.828,-50.781,0.000
1709140554.443,-53.711,-23.926,-40.527,-59.570,0.000
1709140554.447,-53.223,-30.273,-33.691,-54.199,0.000
1709140554.451,-45.898,-32.227,-36.621,-46.387,0.000
1709140554.454,-42.969,-30.762,-45.898,-46.387,0.000
1709140554.458,-48.828,-42.969,-43.457,-56.641,0.000
1709140554.462,-48.828,-45.410,-34.668,-48.340,0.000
1709140554.466,-29.785,-52.246,-33.691,-22.949,0.000
1709140554.470,-19.531,-54.199,-41.016,-26.855,0.000
1709140554.474,-32.227,-11.230,-46.387,-38.086,0.000
1709140554.478,-44.922,-3.418,-41.992,-30.273,0.000
1709140554.482,-44.434,-22.949,-30.762,-21.973,0.000
1709140554.486,-40.039,-27.344,-27.832,-5.859,0.000
1709140554.490,-41.504,-30.273,-32.715,-13.184,0.000
1709140554.494,-36.621,-33.203,-27.832,-16.113,0.000
1709140554.497,-33.203,-44.434,-26.367,-18.066,0.000
1709140554.501,-41.016,-45.898,-37.109,-33.691,0.000
1709140554.505,-35.156,-61.035,-35.645,-23.926,0.000
1709140554.509,-17.090,-63.477,-28.320,-4.395,0.000
1709140554.513,-21.484,-42.480,-28.320,-15.137,0.000
1709140554.517,-37.109,-33.203,-39.551,-29.785,0.000
1709140554.521,-45.410,-27.832,-43.457,-33.691,0.000
1709140554.525,-46.387,-32.715,-37.598,-36.621,0.000
1709140554.529,-48.828,-50.293,-41.016,-35.645,0.000
1709140554.533,-54.688,-53.223,-46.387,-41.504,0.000
1709140554.536,-56.641,-41.016,-50.781,-49.316,0.000
1709140554.540,-53.223,-38.574,-40.527,-46.387,0.000
1709140554.544,-43.457,-55.664,-34.180,-41.016,0.000
1709140554.548,-46.387,-63.965,-55.176,-39.062,0.000
1709140554.552,-43.945,-52.246,-55.176,-41.504,0.000
1709140554.556,-48.828,-31.250,-41.992,-54.688,0.000
1709140554.560,-58.105,-25.879,-41.504,-61.035,0.000
1709140554.564,-58.594,-46.387,-41.016,-45.898,0.000
1709140554.568,-57.617,-58.105,-44.434,-39.062,0.000
1709140554.572,-49.805,-44.922,-35.645,-48.828,0.000
1709140554.575,-46.875,-37.109,-37.109,-53.711,0.000
1709140554.579,-57.129,-36.621,-49.316,-58.105,0.000
1709140554.583,-61.035,-42.480,-42.480,-48.828,0.000
1709140554.587,-58.594,-36.133,-37.109,-41.016,0.000
1709140554.591,-48.340,-29.785,-37.598,-44.922,0.000
1709140554.595,-44.922,-39.551,-37.109,-42.969,0.000
1709140554.599,-45.410,-55.664,-41.016,-35.156,0.000
1709140554.603,-48.340,-53.223,-38.086,-28.320,0.000
1709140554.607,-34.668,-39.062,-43.945,-20.996,0.000
1709140554.611,-9.277,-51.270,-58.105,-28.809,0.000
1709140554.615,-39.062,-53.223,-55.664,-50.293,0.000
1709140554.618,-55.176,-33.691,-45.410,-56.152,0.000
1709140554.622,-37.109,-42.969,-43.457,-48.340,0.000
1709140554.626,-31.738,-34.668,-49.805,-37.109,0.000
1709140554.630,-39.551,-29.785,-47.363,-38.086,0.000
1709140554.634,-41.016,-41.016,-36.621,-43.457,0.000
1709140554.638,-41.504,-31.738,-37.109,-51.270,0.000
1709140554.642,-39.062,-28.320,-41.504,-47.852,0.000
1709140554.646,-28.809,-49.316,-39.551,-33.691,0.000
1709140554.650,-28.809,-39.551,-41.016,-41.992,0.000
1709140554.653,-27.344,-40.527,-43.945,-54.199,0.000
1709140554.657,-19.043,-78.125,-38.574,-54.688,0.000
1709140554.661,-26.855,-42.480,-40.039,-53.711,0.000
1709140554.665,0.000,-9.766,-37.109,-50.781,0.000
1709140554.669,0.000,-26.367,-31.738,-48.828,0.000
1709140554.673,0.000,-40.527,-39.551,-48.340,0.000
1709140554.677,0.000,-44.922,-39.062,-45.898,0.000
1709140554.681,0.000,-29.297,-36.621,-42.480,0.000
1709140554.684,0.000,-27.344,-41.992,-45.410,0.000
1709140554.688,0.000,-41.504,-36.621,-43.457,0.000
1709140554.692,0.000,-53.711,-32.715,-45.410,0.000
1709140554.696,0.000,-41.504,-41.992,-55.176,0.000
1709140554.700,0.000,-22.461,-36.621,-51.758,0.000
1709140554.704,0.000,-28.320,-30.273,-46.387,0.000
1709140554.708,0.000,-35.156,-35.645,-43.457,0.000
1709140554.712,-39.062,-44.434,-37.598,-30.762,0.000
1709140554.715,-24.414,-43.945,-38.574,-18.555,0.000
1709140554.719,-36.621,-43.945,-41.992,-31.250,0.000
1709140554.723,-53.223,-43.457,-41.504,-55.176,0.000
1709140554.727,-51.758,-39.551,-40.039,-57.129,0.000
1709140554.731,-36.621,-26.855,-45.898,-41.016,0.000
1709140554.735,-32.227,-36.133,-49.316,-42.480,0.000
1709140554.739,-38.086,-57.617,-41.504,-49.316,0.000
1709140554.743,-38.086,-48.828,-37.109,-48.340,0.000
1709140554.747,-41.016,-34.180,-43.457,-43.457,0.000
1709140554.751,-38.574,-20.996,-48.340,-45.898,0.000
1709140554.755,-35.156,-16.113,-42.969,-58.594,0.000
1709140554.759,-28.809,-44.922,-38.086,-47.363,0.000
1709140554.762,-26.855,-61.523,-43.457,-30.762,0.000
1709140554.766,-30.273,-36.621,-49.316,-35.645,0.000
1709140554.770,-32.715,-26.855,-47.852,-32.715,0.000
1709140554.774,-41.016,-42.969,-40.527,-38.574,0.000
1709140554.778,-46.875,-34.668,-38.086,-58.594,0.000
1709140554.782,-41.992,-17.090,-42.969,-51.758,0.000
1709140554.786,-36.133,-30.273,-38.086,-37.598,0.000
1709140554.790,-34.668,-48.828,-34.668,-45.898,0.000
1709140554.794,-47.363,-41.992,-42.480,-47.852,0.000
1709140554.798,-54.688,-28.320,-43.457,-53.223,0.000
1709140554.802,-46.875,-30.762,-39.551,-60.059,0.000
1709140554.806,-44.434,-34.668,-38.086,-46.875,0.000
1709140554.809,-33.691,-40.039,-40.527,-35.645,0.000
1709140554.813,-32.227,-43.457,-41.504,-38.574,0.000
1709140554.817,-48.828,-32.715,-32.715,-43.457,0.000
1709140554.821,-55.176,-42.480,-32.227,-48.828,0.000
1709140554.825,-42.969,-62.988,-38.574,-46.387,0.000
1709140554.829,-34.668,-41.016,-38.574,-33.691,0.000
1709140554.833,-40.527,-19.531,-39.551,-32.227,0.000
1709140554.837,-43.457,-22.949,-40.527,-39.062,0.000
1709140554.841,-35.645,-24.414,-35.645,-38.086,0.000
1709140554.845,-35.156,-21.973,-32.227,-36.133,0.000
1709140554.849,-35.645,-39.062,-35.156,-39.551,0.000
1709140554.852,-29.297,-42.480,-38.574,-38.574,0.000
1709140554.856,-31.738,-34.180,-44.922,-39.062,0.000
1709140554.860,-35.645,-38.086,-45.898,-37.598,0.000
1709140554.864,-24.414,-54.199,-36.621,-27.832,0.000
1709140554.868,-10.742,-50.781,-35.156,-30.762,0.000
1709140554.872,-13.184,-49.805,-38.574,-41.504,0.000
1709140554.876,-32.715,-45.898,-36.621,-46.875,0.000
1709140554.880,-32.715,-30.762,-41.016,-40.039,0.000
1709140554.884,-30.762,-37.598,-49.316,-22.949,0.000
1709140554.888,-38.574,-48.828,-42.969,-26.855,0.000
1709140554.891,-32.715,-56.641,-35.156,-37.109,0.000
1709140554.895,-36.621,-48.828,-36.133,-40.039,0.000
1709140554.899,-48.828,-34.180,-41.992,-48.340,0.000
1709140554.903,-58.105,-26.855,-41.504,-50.293,0.000
1709140554.907,-47.363,-36.133,-35.645,-49.805,0.000
1709140554.911,-38.574,-44.434,-38.574,-40.527,0.000
1709140554.915,-46.875,-36.133,-42.969,-33.691,0.000
1709140554.919,-48.828,-28.320,-41.016,-37.109,0.000
1709140554.923,-40.527,-50.781,-42.969,-36.133,0.000
1709140554.927,-46.387,-57.617,-39.551,-30.273,0.000
1709140554.931,-48.828,-46.387,-32.715,-15.137,0.000
1709140554.934,-48.340,-36.621,-40.527,-22.461,0.000
1709140554.938,-45.898,-32.227,-45.410,-41.992,0.000
1709140554.942,-43.457,-32.715,-42.969,-49.316,0.000
1709140554.946,-58.594,-34.668,-38.574,-42.480,0.000
1709140554.950,-53.223,-34.180,-35.156,-33.203,0.000
1709140554.954,-37.598,-30.273,-39.551,-32.227,0.000
1709140554.958,-36.621,-32.715,-38.086,-36.133,0.000
1709140554.962,-40.039,-34.180,-37.598,-38.574,0.000
1709140554.966,-41.504,-46.387,-47.363,-33.203,0.000
1709140554.970,-42.969,-44.434,-44.922,-26.855,0.000
1709140554.973,-37.598,-37.109,-30.273,-23.926,0.000
1709140554.977,-42.969,-55.664,-28.320,-30.762,0.000
1709140554.981,-52.734,-41.992,-32.715,-30.273,0.000
1709140554.985,-52.246,-23.926,-35.156,-33.691,0.000
1709140554.989,-39.062,-36.621,-33.691,-27.832,0.000
1709140554.993,-29.297,-39.062,-40.039,-24.902,0.000
1709140554.997,-36.133,-36.621,-49.805,-47.852,0.000
1709140555.001,-33.691,-49.316,-43.457,-46.387,0.000
1709140555.005,-28.809,-34.180,-39.062,-30.273,0.000
1709140555.008,-32.227,-21.484,-40.039,-38.574,0.000
1709140555.012,-16.602,-40.527,-39.062,-40.527,0.000
1709140555.016,-23.438,-39.062,-45.410,-35.645,0.000
1709140555.020,-35.645,-37.109,-44.434,-41.016,0.000
1709140555.024,-26.855,-48.340,-30.762,-33.691,0.000
1709140555.028,-24.414,-53.223,-36.621,-31.250,0.000
1709140555.032,-29.297,-44.434,-42.969,-39.062,0.000
1709140555.036,-36.133,-27.344,-45.410,-40.039,0.000
1709140555.039,-35.156,-20.508,-48.340,-43.945,0.000
1709140555.043,-31.250,-31.738,-51.758,-34.180,0.000
1709140555.047,-24.414,-31.250,-45.898,-28.320,0.000
1709140555.051,-28.320,-27.344,-38.086,-35.156,0.000
1709140555.055,-28.809,-32.227,-45.410,-40.527,0.000
1709140555.059,-39.062,-36.621,-46.875,-39.551,0.000
1709140555.063,-33.203,-50.781,-37.598,-22.949,0.000
1709140555.067,-28.320,-65.430,-41.992,-25.391,0.000
1709140555.071,-42.969,-52.246,-47.852,-49.316,0.000
1709140555.075,-43.457,-33.203,-46.387,-59.082,0.000
1709140555.079,-37.598,-41.016,-38.086,-55.176,0.000
1709140555.082,-42.480,-32.227,-35.645,-49.316,0.000
1709140555.087,-46.387,-27.344,-44.434,-50.781,0.000
1709140555.091,-38.086,-45.410,-53.223,-56.152,0.000
1709140555.095,-54.688,-44.922,-48.828,-45.898,0.000
1709140555.099,-57.617,-41.504,-45.410,-29.785,0.000
1709140555.103,-48.828,-46.387,-39.062,-38.574,0.000
1709140555.107,-51.270,-53.711,-28.320,-44.434,0.000
1709140555.111,-43.457,-67.383,-28.809,-34.668,0.000
1709140555.114,-41.992,-69.824,-32.227,-37.598,0.000
1709140555.118,-43.945,-36.621,-34.668,-40.039,0.000
1709140555.122,-53.711,-23.438,-45.410,-48.340,0.000
1709140555.126,-57.129,-27.344,-43.945,-49.316,0.000
1709140555.130,-47.363,-21.484,-38.086,-49.316,0.000
1709140555.134,-39.062,-24.414,-39.551,-50.293,0.000
1709140555.138,-40.039,-33.203,-33.203,-50.293,0.000
1709140555.142,-46.875,-33.203,-29.785,-42.480,0.000
1709140555.146,-43.457,-49.805,-32.715,-34.668,0.000
1709140555.150,-35.645,-62.012,-33.203,-37.109,0.000
1709140555.154,-19.531,-42.480,-31.738,-33.691,0.000
1709140555.158,-22.461,-42.969,-28.320,-34.180,0.000
1709140555.161,-29.297,-45.898,-37.109,-32.227,0.000
1709140555.165,-31.738,-37.109,-41.016,-25.879,0.000
1709140555.169,-42.480,-25.879,-39.551,-39.062,0.000
1709140555.173,-48.828,-17.090,-37.109,-49.316,0.000
1709140555.177,-56.641,-19.531,-34.668,-57.129,0.000
1709140555.181,-62.500,-29.785,-39.551,-54.688,0.000
1709140555.185,-57.617,-41.504,-32.227,-32.227,0.000
1709140555.189,-40.039,-58.105,-28.809,-30.762,0.000
1709140555.193,-28.809,-53.223,-34.668,-38.086,0.000
1709140555.197,-36.133,-39.551,-37.598,-39.551,0.000
1709140555.201,-49.316,-52.246,-41.016,-39.062,0.000
1709140555.204,-45.898,-47.852,-44.434,-31.738,0.000
1709140555.208,-39.062,-34.668,-45.898,-24.414,0.000
1709140555.212,-50.293,-27.832,-46.875,-26.367,0.000
1709140555.216,-51.270,-24.902,-44.434,-29.785,0.000
1709140555.220,-34.180,-33.203,-42.969,-42.480,0.000
1709140555.224,-50.293,-47.852,-36.621,-41.016,0.000
1709140555.228,-51.758,-53.223,-38.574,-29.297,0.000
1709140555.232,-36.621,-42.480,-48.340,-36.133,0.000
1709140555.236,-45.410,-46.875,-40.039,-41.992,0.000
1709140555.240,-53.223,-51.758,-30.273,-47.852,0.000
1709140555.244,-48.828,-48.340,-34.668,-51.758,0.000
1709140555.247,-41.992,-51.758,-37.598,-37.598,0.000
1709140555.251,-39.062,-42.969,-40.527,-43.457,0.000
1709140555.255,-36.621,-55.664,-52.734,-47.852,0.000
1709140555.259,-39.062,-52.734,-56.152,-36.133,0.000
1709140555.263,-39.062,-14.160,-45.410,-50.293,0.000
1709140555.267,-30.762,-20.020,-43.457,-50.781,0.000
1709140555.271,-36.133,-26.367,-45.898,-43.457,0.000
1709140555.275,-35.645,-27.832,-39.062,-43.945,0.000
1709140555.279,-26.367,-46.387,-39.551,-39.551,0.000
1709140555.283,-29.297,-52.734,-44.434,-42.969,0.000
1709140555.286,-30.273,-44.434,-42.969,-39.551,0.000
1709140555.290,-32.715,-40.527,-41.504,-29.297,0.000
1709140555.294,-38.086,-52.246,-46.387,-26.367,0.000
1709140555.298,-38.574,-41.504,-49.805,-29.297,0.000
1709140555.302,-29.785,-31.738,-45.410,-18.066,0.000
1709140555.306,-31.250,-39.062,-50.293,-19.043,0.000
1709140555.310,-41.504,-38.574,-45.898,-39.551,0.000
1709140555.314,-34.180,-33.691,-34.668,-41.016,0.000
1709140555.318,-42.480,-38.574,-40.039,-45.410,0.000
1709140555.322,-52.246,-34.180,-42.969,-47.852,0.000
1709140555.325,-54.688,-35.645,-41.992,-34.668,0.000
1709140555.329,-62.012,-56.641,-38.574,-39.062,0.000
1709140555.333,-41.016,-50.293,-29.297,-42.969,0.000
1709140555.337,-39.062,-44.922,-31.738,-38.574,0.000
1709140555.341,-59.082,-55.176,-30.762,-47.363,0.000
1709140555.345,-59.082,-57.617,-34.668,-51.758,0.000
1709140555.349,-59.570,-61.523,-39.062,-40.527,0.000
1709140555.353,-49.805,-48.828,-39.062,-43.945,0.000
1709140555.357,-35.645,-36.621,-40.527,-42.480,0.000
1709140555.361,-39.551,-44.922,-29.297,-41.016,0.000
1709140555.364,-42.969,-42.969,-20.508,-45.410,0.000
1709140555.368,-38.574,-30.762,-30.762,-38.574,0.000
1709140555.372,-37.598,-32.227,-43.457,-41.992,0.000
1709140555.376,-34.180,-48.828,-36.133,-46.387,0.000
1709140555.380,-40.039,-50.781,-37.109,-43.945,0.000
1709140555.384,-41.992,-33.691,-43.945,-39.062,0.000
1709140555.388,-40.039,-40.039,-39.062,-35.156,0.000
1709140555.392,-40.527,-43.945,-37.109,-39.551,0.000
1709140555.396,-44.434,-26.855,-45.898,-43.457,0.000
1709140555.399,-39.062,-21.973,-49.316,-49.316,0.000
1709140555.403,-33.691,-31.250,-41.992,-48.340,0.000
1709140555.407,-41.504,-35.645,-36.133,-42.969,0.000
1709140555.411,-30.762,-40.527,-34.180,-38.574,0.000
1709140555.415,-23.926,-34.668,-41.504,-35.156,0.000
1709140555.419,-28.809,-37.109,-45.898,-23.438,0.000
1709140555.423,-25.391,-55.664,-35.156,-19.531,0.000
1709140555.427,-30.762,-46.875,-34.668,-37.598,0.000
1709140555.431,-38.086,-37.109,-41.016,-51.270,0.000
1709140555.434,-30.762,-48.340,-33.691,-43.945,0.000
1709140555.438,-30.273,-56.152,-29.297,-32.715,0.000
1709140555.442,-32.715,-31.250,-35.645,-41.992,0.000
1709140555.446,-29.785,-13.184,-35.645,-42.480,0.000
1709140555.450,-32.715,-32.715,-31.250,-33.691,0.000
1709140555.454,-32.715,-43.945,-34.180,-32.715,0.000
1709140555.458,-33.691,-39.062,-40.527,-30.762,0.000
1709140555.462,-46.387,-50.293,-41.504,-33.203,0.000
1709140555.466,-49.316,-51.758,-41.504,-41.016,0.000
1709140555.470,-41.016,-41.504,-37.598,-48.340,0.000
1709140555.473,-46.875,-44.434,-29.297,-46.875,0.000
1709140555.477,-38.086,-44.922,-31.738,-42.480,0.000
1709140555.481,-39.551,-48.828,-34.668,-36.621,0.000
1709140555.485,-43.457,-48.340,-41.504,-32.715,0.000
1709140555.489,-24.414,-31.738,-49.316,-35.156,0.000
1709140555.493,-8.301,-33.203,-34.180,-23.926,0.000
1709140555.497,-20.508,-40.039,-33.691,-24.414,0.000
1709140555.501,-40.039,-41.992,-41.016,-39.551,0.000
1709140555.505,-41.504,-26.367,-40.527,-42.480,0.000
1709140555.509,-32.715,-27.832,-41.016,-37.598,0.000
1709140555.513,-25.391,-43.945,-37.109,-42.480,0.000
1709140555.517,-15.625,-39.551,-28.320,-42.969,0.000
