timestamps,TP9,AF7,AF8,TP10,Right AUX
1709299473.481,-33.691,-40.527,-23.926,-38.086,0.000
1709299473.485,-40.527,-56.152,-20.508,-44.434,0.000
1709299473.488,-56.152,-64.453,-27.344,-56.152,0.000
1709299473.492,-61.523,-46.387,-28.320,-58.594,0.000
1709299473.496,-52.246,-36.133,-19.531,-48.828,0.000
1709299473.500,-43.457,-40.527,-20.996,-38.574,0.000
1709299473.504,-49.805,-36.133,-31.250,-31.250,0.000
1709299473.508,-54.688,-32.715,-30.273,-39.551,0.000
1709299473.512,-59.082,-49.316,-18.555,-48.340,0.000
1709299473.516,-52.246,-46.875,-16.113,-29.785,0.000
1709299473.520,-43.945,-37.109,-21.973,-20.508,0.000
1709299473.524,-39.551,-56.152,-21.973,-28.320,0.000
1709299473.528,-38.086,-49.805,-21.973,-30.273,0.000
1709299473.532,-52.734,-33.691,-31.250,-31.738,0.000
1709299473.535,-54.688,-39.062,-29.297,-39.062,0.000
1709299473.539,-38.086,-44.434,-22.949,-38.574,0.000
1709299473.543,-38.086,-30.273,-27.832,-29.785,0.000
1709299473.547,-51.758,-36.621,-28.320,-39.062,0.000
1709299473.551,-53.711,-40.527,-22.461,-51.270,0.000
1709299473.555,-47.852,-34.180,-30.273,-48.828,0.000
1709299473.559,-37.598,-28.809,-37.598,-51.758,0.000
1709299473.563,-37.109,-28.320,-35.156,-41.992,0.000
1709299473.567,-46.387,-44.434,-36.133,-47.363,0.000
1709299473.571,-52.246,-58.105,-31.738,-63.965,0.000
1709299473.575,-50.293,-53.711,-36.133,-62.500,0.000
1709299473.579,-36.133,-31.250,-51.270,-41.016,0.000
1709299473.582,-32.715,-27.832,-52.246,-24.902,0.000
1709299473.586,-39.062,-45.410,-31.738,-30.273,0.000
1709299473.590,-49.316,-53.223,-33.691,-43.945,0.000
1709299473.594,-51.270,-41.992,-40.527,-43.945,0.000
1709299473.598,-45.410,-47.852,-27.832,-24.902,0.000
1709299473.602,-36.621,-68.848,-33.691,-25.391,0.000
1709299473.606,-35.645,-62.988,-39.551,-32.227,0.000
1709299473.610,-52.246,-33.691,-32.227,-39.062,0.000
1709299473.614,-55.176,-39.551,-32.715,-46.875,0.000
1709299473.618,-48.340,-48.340,-39.551,-35.156,0.000
1709299473.621,-40.039,-49.316,-30.273,-17.578,0.000
1709299473.625,-41.992,-58.105,-23.438,-23.438,0.000
1709299473.629,-42.480,-44.922,-20.020,-31.738,0.000
1709299473.633,-41.016,-35.645,-10.742,-29.297,0.000
1709299473.637,-41.992,-41.992,-16.113,-23.926,0.000
1709299473.641,-34.180,-42.480,-27.832,-18.555,0.000
1709299473.645,-28.809,-36.621,-29.297,-17.578,0.000
1709299473.649,-33.691,-49.316,-27.344,-21.973,0.000
1709299473.653,-36.621,-43.457,-26.367,-19.531,0.000
1709299473.657,-38.574,-32.227,-34.668,-26.367,0.000
1709299473.661,-33.203,-47.852,-34.668,-24.414,0.000
1709299473.664,-25.879,-58.594,-26.855,-13.672,0.000
1709299473.668,-34.180,-67.383,-31.738,-30.273,0.000
1709299473.672,-46.875,-46.387,-32.715,-41.016,0.000
1709299473.676,-47.852,-35.156,-25.391,-38.086,0.000
1709299473.680,-44.434,-46.387,-32.227,-41.016,0.000
1709299473.684,-43.457,-39.551,-42.480,-38.086,0.000
1709299473.688,-55.664,-51.758,-37.109,-46.387,0.000
1709299473.692,-71.777,-45.898,-35.645,-60.059,0.000
1709299473.696,-67.383,-40.527,-41.504,-51.758,0.000
1709299473.700,-53.711,-51.758,-32.715,-27.832,0.000
1709299473.703,-47.363,-53.223,-21.973,-25.391,0.000
1709299473.707,-46.875,-63.477,-33.691,-40.527,0.000
1709299473.711,-54.688,-56.641,-41.016,-35.645,0.000
1709299473.715,-60.547,-41.504,-37.598,-38.574,0.000
1709299473.719,-44.922,-51.270,-29.297,-36.621,0.000
1709299473.723,-34.668,-64.941,-17.090,-18.555,0.000
1709299473.727,-42.969,-51.270,-32.715,-26.855,0.000
1709299473.731,-57.617,-38.086,-35.645,-40.039,0.000
1709299473.735,-55.664,-34.180,-22.949,-44.922,0.000
1709299473.738,-44.922,-35.645,-28.320,-36.133,0.000
1709299473.742,-31.250,-46.875,-37.109,-12.695,0.000
1709299473.746,-30.762,-48.340,-45.410,-28.809,0.000
1709299473.750,-42.480,-44.922,-37.598,-47.852,0.000
1709299473.754,-39.551,-35.156,-29.785,-45.898,0.000
1709299473.758,-21.973,-36.621,-32.715,-30.762,0.000
1709299473.762,-11.719,-48.340,-38.574,-22.949,0.000
1709299473.766,-21.973,-28.320,-30.273,-31.738,0.000
1709299473.769,-31.250,-7.812,-14.160,-39.551,0.000
1709299473.773,-36.133,-19.531,-18.555,-46.387,0.000
1709299473.777,-28.809,-43.457,-23.926,-41.016,0.000
1709299473.781,-14.160,-43.457,-32.227,-32.715,0.000
1709299473.785,-30.273,-34.180,-40.039,-40.039,0.000
1709299473.789,-50.293,-38.574,-39.551,-49.805,0.000
1709299473.793,-43.945,-35.156,-45.410,-52.246,0.000
1709299473.797,-33.691,-41.992,-44.434,-44.434,0.000
1709299473.801,-23.926,-41.992,-42.480,-40.039,0.000
1709299473.805,-32.227,-33.203,-38.574,-50.781,0.000
1709299473.808,-41.504,-24.902,-28.320,-60.059,0.000
1709299473.812,-46.387,-27.832,-29.785,-60.547,0.000
1709299473.816,-38.574,-43.457,-28.809,-39.551,0.000
1709299473.820,-28.809,-36.133,-26.855,-25.391,0.000
1709299473.824,-39.062,-30.762,-38.086,-38.086,0.000
1709299473.828,-45.898,-52.734,-37.598,-37.598,0.000
1709299473.832,-49.316,-64.941,-35.156,-37.598,0.000
1709299473.836,-48.828,-62.988,-33.691,-38.086,0.000
1709299473.839,-36.621,-53.223,-37.109,-30.762,0.000
1709299473.843,-25.879,-37.109,-39.551,-28.320,0.000
1709299473.847,-27.344,-35.156,-30.273,-38.086,0.000
1709299473.851,-33.203,-36.621,-30.273,-42.480,0.000
1709299473.855,-38.086,-26.367,-36.621,-38.574,0.000
1709299473.859,-28.809,-20.508,-34.180,-41.504,0.000
1709299473.863,-18.555,-34.668,-27.344,-41.016,0.000
1709299473.866,-31.250,-49.316,-33.691,-41.504,0.000
1709299473.870,-36.133,-42.480,-35.156,-41.504,0.000
1709299473.874,-32.715,-62.988,-35.645,-30.762,0.000
1709299473.878,-32.715,-67.871,-45.898,-26.367,0.000
1709299473.882,-36.133,-38.086,-39.551,-36.133,0.000
1709299473.886,-46.387,-29.785,-26.855,-42.969,0.000
1709299473.890,-58.594,-23.926,-35.645,-45.898,0.000
1709299473.894,-54.688,-17.578,-38.574,-51.758,0.000
1709299473.898,-40.039,-19.531,-38.574,-49.805,0.000
1709299473.902,-33.691,-32.715,-41.504,-39.062,0.000
1709299473.906,-38.574,-45.410,-41.504,-41.016,0.000
1709299473.910,-41.016,-58.105,-48.828,-46.387,0.000
1709299473.914,-44.434,-54.688,-45.410,-42.480,0.000
1709299473.917,-42.969,-54.688,-26.367,-37.598,0.000
1709299473.921,-33.203,-50.781,-32.715,-34.668,0.000
1709299473.925,-36.133,-35.156,-34.180,-37.598,0.000
1709299473.929,-41.504,-43.457,-32.227,-40.527,0.000
1709299473.933,-40.039,-36.621,-42.480,-34.668,0.000
1709299473.937,-27.832,-16.602,-40.527,-22.461,0.000
1709299473.941,-16.602,-30.762,-33.203,-23.926,0.000
1709299473.945,-20.508,-43.457,-33.203,-27.832,0.000
1709299473.949,-31.738,-26.855,-47.363,-28.320,0.000
1709299473.953,-35.645,-22.949,-41.504,-28.809,0.000
1709299473.957,-26.855,-51.758,-32.715,-29.785,0.000
1709299473.960,-18.066,-54.199,-35.645,-30.273,0.000
1709299473.964,-21.484,-28.809,-30.762,-36.621,0.000
1709299473.968,-30.273,-29.785,-32.715,-41.504,0.000
1709299473.972,-41.016,-27.832,-26.855,-41.016,0.000
1709299473.976,-43.457,-42.480,-25.391,-41.504,0.000
1709299473.980,-39.062,-39.062,-32.227,-29.297,0.000
1709299473.984,-47.363,-25.391,-31.250,-29.785,0.000
1709299473.988,-47.852,-26.367,-38.574,-45.898,0.000
1709299473.992,-40.039,-20.996,-37.598,-48.340,0.000
1709299473.996,-40.039,-30.762,-31.738,-38.086,0.000
1709299474.000,-38.574,-59.082,-35.156,-28.809,0.000
1709299474.003,-41.016,-61.523,-27.344,-38.086,0.000
1709299474.007,-50.781,-42.969,-20.020,-45.898,0.000
1709299474.011,-54.688,-32.227,-27.832,-46.875,0.000
1709299474.015,-46.875,-25.879,-39.551,-41.504,0.000
1709299474.019,-38.574,-35.156,-49.805,-34.668,0.000
1709299474.023,-42.969,-38.574,-57.129,-31.738,0.000
1709299474.027,-48.340,-43.457,-42.969,-26.855,0.000
1709299474.031,-48.828,-59.570,-34.668,-35.156,0.000
1709299474.035,-43.945,-59.082,-41.504,-43.457,0.000
1709299474.039,-38.574,-30.273,-36.621,-42.969,0.000
1709299474.042,-33.203,-25.391,-30.762,-35.645,0.000
1709299474.046,-31.738,-27.344,-37.598,-34.668,0.000
1709299474.050,-41.016,-32.227,-43.945,-38.574,0.000
1709299474.054,-46.875,-43.945,-44.434,-49.316,0.000
1709299474.058,-38.086,-37.598,-39.551,-47.363,0.000
1709299474.062,-34.668,-29.785,-35.645,-41.992,0.000
1709299474.066,-43.457,-33.203,-41.992,-56.641,0.000
1709299474.070,-48.340,-48.828,-41.016,-56.641,0.000
1709299474.074,-39.551,-62.500,-39.062,-44.434,0.000
1709299474.078,-26.855,-48.828,-26.367,-45.410,0.000
1709299474.082,-33.691,-31.738,-26.367,-40.039,0.000
1709299474.085,-49.316,-28.320,-45.898,-55.664,0.000
1709299474.089,-55.176,-30.273,-46.875,-63.477,0.000
1709299474.093,-47.363,-29.785,-49.805,-42.969,0.000
1709299474.097,-32.227,-30.762,-49.316,-39.551,0.000
1709299474.101,-19.043,-29.297,-40.039,-31.738,0.000
1709299474.105,-17.578,-50.293,-31.250,-15.625,0.000
1709299474.109,-36.621,-75.684,-22.949,-28.809,0.000
1709299474.113,-51.270,-49.316,-31.738,-33.691,0.000
1709299474.117,-25.879,-34.668,-27.832,-2.930,0.000
1709299474.121,-4.883,-41.016,-23.926,0.977,0.000
1709299474.124,-21.973,-29.297,-52.246,-26.855,0.000
1709299474.128,-38.574,-16.113,-46.875,-42.969,0.000
1709299474.132,-43.945,-21.484,-27.832,-43.945,0.000
1709299474.136,-35.645,-34.180,-27.344,-39.062,0.000
1709299474.140,-28.809,-34.668,-28.320,-46.387,0.000
1709299474.144,-31.738,-40.039,-31.738,-49.805,0.000
1709299474.148,-38.086,-46.387,-30.762,-52.734,0.000
1709299474.152,-58.594,-49.316,-37.109,-55.664,0.000
1709299474.155,-55.664,-58.105,-36.621,-48.340,0.000
1709299474.159,-40.039,-65.430,-32.715,-37.109,0.000
1709299474.163,-31.738,-50.781,-47.363,-32.715,0.000
1709299474.167,-31.738,-20.508,-40.039,-45.898,0.000
1709299474.171,-41.992,-10.254,-25.879,-56.641,0.000
1709299474.175,-48.828,-33.691,-31.250,-53.223,0.000
1709299474.179,-30.762,-54.688,-18.066,-39.551,0.000
1709299474.183,-24.414,-35.156,-17.578,-31.250,0.000
1709299474.186,-34.180,-35.156,-28.809,-40.527,0.000
1709299474.190,-38.574,-51.758,-37.109,-43.945,0.000
1709299474.194,-41.504,-48.828,-33.691,-38.086,0.000
1709299474.198,-36.133,-40.039,-44.922,-38.086,0.000
1709299474.202,-36.621,-43.945,-41.504,-33.203,0.000
1709299474.206,-47.852,-43.457,-21.484,-29.785,0.000
1709299474.210,-52.734,-24.902,-29.297,-43.457,0.000
1709299474.214,-40.527,-37.109,-37.109,-49.316,0.000
1709299474.218,-25.391,-51.758,-32.715,-33.691,0.000
1709299474.222,-23.926,-32.227,-36.621,-17.578,0.000
1709299474.226,-34.668,-22.949,-41.992,-28.320,0.000
1709299474.230,-44.922,-43.945,-42.969,-52.246,0.000
1709299474.234,-37.109,-61.035,-45.898,-47.852,0.000
1709299474.238,-23.926,-36.621,-34.668,-22.949,0.000
1709299474.241,-27.344,-36.133,-30.273,-21.484,0.000
1709299474.245,-37.109,-42.969,-32.715,-34.180,0.000
1709299474.249,-50.293,-38.574,-23.926,-40.039,0.000
1709299474.253,-50.781,-46.875,-24.414,-34.668,0.000
1709299474.257,-36.621,-33.691,-38.086,-18.555,0.000
1709299474.261,-30.273,-25.391,-37.598,-18.066,0.000
1709299474.265,-30.762,-31.738,-29.785,-26.367,0.000
1709299474.269,-38.086,-41.016,-30.273,-31.250,0.000
1709299474.273,-41.992,-64.453,-34.668,-31.250,0.000
1709299474.277,-38.086,-54.688,-38.086,-26.367,0.000
1709299474.281,-36.133,-36.621,-32.715,-31.250,0.000
1709299474.285,-40.527,-40.039,-23.438,-36.133,0.000
1709299474.289,-43.945,-50.293,-31.250,-32.227,0.000
1709299474.292,-46.387,-41.992,-29.297,-29.785,0.000
1709299474.296,-48.340,-19.043,-27.344,-30.762,0.000
1709299474.300,-37.109,-20.508,-32.715,-25.391,0.000
1709299474.304,-31.738,-33.203,-35.156,-31.250,0.000
1709299474.308,-37.109,-36.621,-29.297,-37.109,0.000
1709299474.312,-45.898,-45.898,-25.391,-33.203,0.000
1709299474.316,-45.410,-45.898,-39.551,-37.598,0.000
1709299474.320,-32.227,-46.387,-39.062,-32.715,0.000
1709299474.324,-24.414,-47.363,-41.504,-26.367,0.000
1709299474.328,-37.598,-50.781,-40.527,-31.738,0.000
1709299474.332,-50.781,-44.434,-25.879,-41.992,0.000
1709299474.335,-41.504,-31.738,-28.320,-38.574,0.000
1709299474.339,-25.879,-31.738,-29.785,-27.344,0.000
1709299474.343,-17.578,-27.344,-36.621,-25.391,0.000
1709299474.347,-26.855,-24.414,-60.059,-35.645,0.000
1709299474.351,-38.574,-40.527,-53.223,-43.457,0.000
1709299474.355,-35.156,-52.734,-30.762,-27.344,0.000
1709299474.359,-24.414,-51.270,-43.457,-17.090,0.000
1709299474.363,-17.578,-61.523,-47.363,-16.602,0.000
1709299474.367,-19.043,-39.551,-29.297,-17.578,0.000
1709299474.371,-33.691,-15.625,-27.344,-29.785,0.000
1709299474.375,-43.945,-23.438,-30.273,-28.320,0.000
1709299474.378,-37.598,-36.133,-32.227,-16.113,0.000
1709299474.382,-33.691,-35.156,-33.691,-25.391,0.000
1709299474.386,-33.203,-34.180,-36.133,-43.945,0.000
1709299474.390,-52.734,-36.621,-44.922,-50.781,0.000
1709299474.394,-60.059,-32.227,-34.180,-41.992,0.000
1709299474.398,-38.086,-51.758,-40.527,-21.973,0.000
1709299474.402,-25.391,-69.336,-29.785,-10.742,0.000
1709299474.406,-33.691,-49.316,-15.137,-28.320,0.000
1709299474.410,-41.016,-25.391,-23.926,-41.504,0.000
1709299474.414,-40.039,-36.621,-29.297,-42.480,0.000
1709299474.419,-27.832,-43.945,-27.832,-27.832,0.000
1709299474.423,-22.949,-25.879,-35.156,-27.344,0.000
1709299474.426,-28.809,-32.227,-47.363,-34.668,0.000
1709299474.430,-35.156,-41.016,-44.922,-36.133,0.000
1709299474.434,-45.410,-28.809,-34.668,-45.410,0.000
1709299474.438,-37.109,-30.273,-32.715,-33.203,0.000
1709299474.442,-22.461,-34.180,-41.016,-22.949,0.000
1709299474.446,-26.367,-41.016,-46.387,-26.855,0.000
1709299474.450,-30.762,-37.598,-45.898,-33.691,0.000
1709299474.454,-34.180,-29.785,-38.574,-45.410,0.000
1709299474.458,-36.621,-38.086,-39.551,-41.992,0.000
1709299474.462,-28.320,-36.621,-36.133,-33.691,0.000
1709299474.465,-26.367,-33.203,-34.180,-28.809,0.000
1709299474.469,-40.527,-41.504,-39.551,-29.785,0.000
1709299474.473,-41.504,-56.152,-37.598,-38.574,0.000
1709299474.477,-24.902,-52.734,-40.527,-32.715,0.000
1709299474.481,-20.508,-28.809,-38.086,-26.855,0.000
1709299474.485,-23.926,-23.926,-30.273,-29.785,0.000
1709299474.489,-32.715,-33.203,-38.574,-31.250,0.000
1709299474.493,-40.039,-40.527,-36.133,-35.156,0.000
1709299474.497,-27.344,-38.086,-34.180,-27.832,0.000
1709299474.501,-15.625,-40.039,-39.551,-15.137,0.000
1709299474.504,-22.461,-38.574,-38.574,-16.602,0.000
1709299474.508,-31.738,-41.504,-38.574,-23.926,0.000
1709299474.512,-37.598,-46.387,-21.973,-37.109,0.000
1709299474.516,-39.551,-51.758,-6.348,-29.785,0.000
1709299474.520,-28.320,-48.340,-12.695,-10.254,0.000
1709299474.524,-22.461,-37.598,-27.344,-14.648,0.000
1709299474.528,-29.785,-44.922,-31.250,-35.156,0.000
1709299474.532,-36.621,-40.039,-31.250,-35.156,0.000
1709299474.535,-28.809,-43.457,-23.926,-16.113,0.000
1709299474.539,-19.043,-49.805,-17.090,-10.742,0.000
1709299474.543,-16.113,-30.762,-30.762,-13.672,0.000
1709299474.547,-17.578,-32.715,-32.227,-23.438,0.000
1709299474.551,-23.438,-42.480,-14.648,-34.180,0.000
1709299474.555,-25.879,-37.109,-22.461,-29.785,0.000
1709299474.559,-15.137,-27.832,-39.551,-19.043,0.000
1709299474.563,-8.789,-31.250,-32.715,-20.508,0.000
1709299474.566,-25.879,-34.668,-24.414,-29.785,0.000
1709299474.570,-43.945,-37.598,-35.156,-46.387,0.000
1709299474.574,-45.898,-52.734,-39.062,-49.316,0.000
1709299474.578,-36.133,-59.082,-39.062,-40.039,0.000
1709299474.582,-38.086,-45.898,-42.480,-35.156,0.000
1709299474.586,-51.758,-43.945,-35.156,-44.434,0.000
1709299474.590,-59.570,-45.898,-26.367,-65.430,0.000
1709299474.594,-54.688,-36.621,-24.902,-54.688,0.000
1709299474.598,-47.852,-29.785,-29.297,-38.086,0.000
1709299474.602,-45.410,-41.992,-31.250,-44.922,0.000
1709299474.606,-44.922,-50.781,-27.344,-46.387,0.000
1709299474.610,-41.504,-51.758,-29.297,-47.363,0.000
1709299474.614,-46.387,-46.875,-33.203,-50.781,0.000
1709299474.617,-39.062,-43.945,-26.855,-35.645,0.000
1709299474.621,-24.414,-42.969,-17.578,-26.855,0.000
1709299474.625,-20.996,-46.875,-18.555,-27.344,0.000
1709299474.629,-22.461,-55.664,-24.414,-29.297,0.000
1709299474.633,-26.855,-28.320,-20.020,-36.621,0.000
1709299474.637,-17.090,-13.672,-9.277,-21.973,0.000
1709299474.641,-7.812,-35.156,-17.578,-3.418,0.000
1709299474.645,-15.137,-33.203,-23.926,-9.766,0.000
1709299474.649,-21.484,-34.180,-20.508,-25.879,0.000
1709299474.653,-19.531,-60.059,-32.227,-38.086,0.000
1709299474.657,-32.715,-49.316,-43.945,-39.551,0.000
1709299474.661,-42.969,-30.762,-53.223,-36.133,0.000
1709299474.665,-41.016,-32.227,-41.992,-41.504,0.000
1709299474.668,-59.570,-33.691,-28.809,-51.270,0.000
1709299474.672,-65.918,-45.898,-31.250,-47.363,0.000
1709299474.676,-56.641,-49.805,-27.344,-41.992,0.000
1709299474.680,-53.711,-48.340,-26.367,-47.852,0.000
1709299474.684,-53.711,-35.645,-35.156,-45.898,0.000
1709299474.688,-53.223,-19.531,-45.410,-49.316,0.000
1709299474.692,-54.688,-8.789,-52.734,-63.965,0.000
1709299474.696,-41.504,-8.301,-46.387,-63.477,0.000
1709299474.700,-28.809,-9.766,-53.223,-56.641,0.000
1709299474.704,-26.367,-5.371,-58.594,-58.105,0.000
1709299474.708,-25.391,-3.418,-48.340,-70.801,0.000
1709299474.711,-38.086,0.488,-57.129,-83.008,0.000
1709299474.715,-35.645,2.441,-61.523,-80.078,0.000
1709299474.719,-21.973,-0.977,-61.035,-66.895,0.000
1709299474.723,-16.113,9.766,-69.336,-56.152,0.000
1709299474.727,-10.254,11.230,-69.336,-67.383,0.000
1709299474.731,-19.043,-11.719,-71.289,-66.895,0.000
1709299474.735,-31.738,1.465,-83.008,-53.711,0.000
1709299474.739,-19.531,23.926,-81.055,-58.105,0.000
1709299474.743,-5.859,25.879,-79.102,-56.641,0.000
1709299474.747,-3.906,18.555,-78.613,-57.617,0.000
1709299474.751,3.906,19.531,-72.754,-61.523,0.000
1709299474.754,7.324,19.043,-71.777,-61.035,0.000
1709299474.758,-1.465,18.066,-76.660,-57.129,0.000
1709299474.762,-4.395,25.879,-82.031,-51.758,0.000
1709299474.766,-7.812,30.273,-86.426,-58.594,0.000
1709299474.770,-18.066,33.691,-87.891,-68.359,0.000
1709299474.774,-20.508,39.551,-91.797,-62.012,0.000
1709299474.778,-19.043,39.551,-100.586,-43.457,0.000
1709299474.782,-14.648,37.109,-92.773,-36.621,0.000
1709299474.786,-8.301,50.781,-82.520,-44.434,0.000
1709299474.790,-8.301,37.598,-87.402,-58.105,0.000
1709299474.793,-18.555,20.996,-96.191,-67.383,0.000
1709299474.797,-23.926,34.668,-102.539,-65.918,0.000
1709299474.801,-15.137,40.039,-97.656,-50.781,0.000
1709299474.805,-7.812,33.203,-90.820,-49.805,0.000
1709299474.809,-12.695,21.973,-91.797,-68.359,0.000
1709299474.813,-17.578,23.926,-93.262,-76.172,0.000
1709299474.817,-10.742,24.414,-93.750,-71.289,0.000
1709299474.821,-13.184,29.297,-95.215,-60.547,0.000
1709299474.825,-8.789,34.668,-95.215,-46.387,0.000
1709299474.829,-5.371,13.184,-94.727,-45.898,0.000
1709299474.832,-17.090,12.695,-94.727,-59.570,0.000
1709299474.836,-21.484,26.855,-90.332,-51.758,0.000
1709299474.840,-11.230,26.855,-87.891,-28.809,0.000
1709299474.844,5.371,20.020,-88.867,-20.020,0.000
1709299474.848,7.324,8.301,-84.473,-22.461,0.000
1709299474.852,-3.906,7.324,-79.102,-27.832,0.000
1709299474.856,-8.789,-7.324,-80.566,-24.414,0.000
1709299474.860,-2.930,-6.348,-74.707,-7.324,0.000
1709299474.864,-3.906,2.441,-72.266,3.418,0.000
1709299474.867,-9.766,-1.465,-76.172,2.441,0.000
1709299474.871,-19.043,7.324,-64.941,-19.043,0.000
1709299474.875,-20.996,-5.859,-58.594,-21.973,0.000
1709299474.879,-12.207,-18.555,-64.941,-8.789,0.000
1709299474.883,-8.789,9.766,-59.082,-12.695,0.000
1709299474.887,-20.996,16.113,-56.152,-18.555,0.000
1709299474.891,-32.227,-9.766,-58.105,-25.879,0.000
1709299474.895,-34.668,-21.484,-50.293,-38.574,0.000
1709299474.899,-33.203,-14.648,-51.758,-38.086,0.000
1709299474.902,-26.855,2.441,-61.523,-27.832,0.000
1709299474.906,-25.391,0.000,-53.711,-35.645,0.000
1709299474.910,-33.203,-11.230,-41.504,-40.527,0.000
1709299474.914,-29.297,-13.184,-44.434,-28.320,0.000
1709299474.918,-28.320,-30.273,-51.758,-41.016,0.000
1709299474.922,-25.879,-30.273,-63.965,-50.293,0.000
1709299474.926,-34.180,-9.277,-62.500,-53.223,0.000
1709299474.930,-47.852,-17.578,-59.082,-66.895,0.000
1709299474.934,-45.410,-30.273,-59.570,-62.012,0.000
1709299474.938,-41.504,-21.484,-63.477,-56.641,0.000
1709299474.942,-38.086,-6.348,-57.617,-55.176,0.000
1709299474.946,-36.621,-19.531,-49.805,-51.270,0.000
1709299474.950,-44.434,-26.855,-52.246,-61.035,0.000
1709299474.954,-38.086,-16.113,-38.086,-56.152,0.000
1709299474.957,-25.391,-28.809,-36.133,-37.598,0.000
1709299474.961,-28.809,-30.762,-42.969,-37.109,0.000
1709299474.965,-32.227,-26.855,-46.387,-39.062,0.000
1709299474.969,-39.062,-33.691,-47.852,-38.086,0.000
1709299474.973,-37.109,-34.668,-38.086,-48.828,0.000
1709299474.977,-19.531,-33.203,-42.480,-41.992,0.000
1709299474.981,-0.488,-25.391,-55.176,-17.578,0.000
1709299474.985,-4.883,-19.531,-44.922,-16.113,0.000
1709299474.989,-16.602,-23.438,-29.785,-33.691,0.000
1709299474.993,-20.508,-27.344,-31.250,-36.621,0.000
1709299474.997,-21.484,-20.020,-40.527,-29.785,0.000
1709299475.001,-17.090,-35.156,-28.320,-22.949,0.000
1709299475.004,-20.020,-33.691,-32.715,-20.020,0.000
1709299475.008,-32.715,-28.809,-45.898,-21.973,0.000
1709299475.012,-48.340,-44.434,-51.270,-38.574,0.000
1709299475.016,-51.270,-50.293,-44.922,-44.434,0.000
1709299475.020,-44.922,-50.781,-37.109,-35.645,0.000
1709299475.024,-37.598,-27.832,-42.480,-40.527,0.000
1709299475.029,-35.645,-16.113,-46.387,-31.250,0.000
1709299475.033,-46.875,-27.344,-42.969,-34.180,0.000
1709299475.036,-56.641,-21.973,-38.574,-53.711,0.000
1709299475.040,-42.480,-22.461,-31.738,-47.852,0.000
1709299475.044,-28.809,-32.715,-30.273,-37.109,0.000
1709299475.048,-41.504,-42.480,-37.598,-45.898,0.000
1709299475.052,-62.500,-39.062,-44.434,-67.383,0.000
1709299475.056,-64.941,-25.879,-45.410,-68.359,0.000
1709299475.060,-52.734,-38.086,-41.016,-35.645,0.000
1709299475.064,-53.223,-48.340,-40.527,-25.879,0.000
1709299475.068,-59.570,-48.340,-46.875,-50.781,0.000
1709299475.072,-59.082,-53.223,-40.039,-62.988,0.000
1709299475.076,-64.453,-42.480,-34.668,-57.617,0.000
1709299475.079,-63.477,-36.621,-35.156,-39.062,0.000
1709299475.083,-45.898,-76.172,-32.227,-22.461,0.000
1709299475.087,-41.016,-96.191,-36.133,-24.902,0.000
1709299475.091,-61.035,-47.363,-37.598,-42.480,0.000
1709299475.095,-65.918,-23.438,-39.551,-52.246,0.000
1709299475.099,-47.852,-31.250,-46.875,-49.805,0.000
1709299475.103,-37.109,-24.902,-51.758,-35.645,0.000
1709299475.107,-41.016,-29.785,-43.457,-24.414,0.000
1709299475.111,-48.340,-52.734,-27.832,-35.156,0.000
1709299475.115,-59.570,-57.617,-28.320,-46.387,0.000
1709299475.119,-56.152,-46.387,-30.273,-47.852,0.000
1709299475.124,-43.945,-41.992,-30.273,-23.926,0.000
1709299475.127,-38.574,-49.805,-25.391,-19.043,0.000
1709299475.131,-37.598,-49.805,-27.832,-35.156,0.000
1709299475.135,-41.992,-57.617,-35.645,-29.297,0.000
1709299475.139,-37.598,-66.895,-30.762,-22.461,0.000
1709299475.143,-25.879,-42.480,-27.344,-16.602,0.000
1709299475.147,-17.578,-42.969,-33.203,-18.555,0.000
1709299475.151,-24.414,-62.500,-39.551,-28.320,0.000
1709299475.155,-43.457,-36.621,-41.992,-27.832,0.000
1709299475.159,-49.316,-9.766,-42.480,-41.504,0.000
1709299475.163,-42.480,-19.043,-35.645,-47.852,0.000
1709299475.167,-40.039,-29.785,-36.621,-44.434,0.000
1709299475.170,-42.480,-40.527,-36.621,-53.711,0.000
1709299475.174,-43.945,-37.109,-26.855,-59.082,0.000
1709299475.178,-33.691,-49.316,-28.320,-49.316,0.000
1709299475.182,-28.320,-59.570,-36.133,-40.039,0.000
1709299475.186,-29.785,-33.203,-34.668,-37.598,0.000
1709299475.190,-36.133,-28.320,-41.504,-45.410,0.000
1709299475.194,-49.805,-26.855,-36.621,-56.152,0.000
1709299475.198,-45.410,-34.668,-30.273,-44.922,0.000
1709299475.202,-37.109,-37.598,-37.109,-33.203,0.000
1709299475.205,-30.762,-30.273,-36.133,-36.133,0.000
1709299475.209,-27.344,-35.645,-38.086,-41.992,0.000
1709299475.213,-30.762,-52.734,-32.715,-31.738,0.000
1709299475.217,-37.109,-40.039,-28.320,-41.016,0.000
1709299475.221,-33.691,-21.973,-31.738,-51.758,0.000
1709299475.225,-20.020,-42.480,-32.227,-31.738,0.000
1709299475.229,-19.531,-57.617,-28.809,-14.648,0.000
1709299475.233,-34.668,-32.715,-28.320,-23.926,0.000
1709299475.236,-41.016,-6.348,-35.645,-39.551,0.000
1709299475.240,-37.109,-15.137,-35.156,-38.086,0.000
1709299475.244,-28.809,-42.480,-28.809,-20.508,0.000
1709299475.248,-28.809,-39.551,-29.297,-22.949,0.000
1709299475.252,-43.945,-34.180,-42.480,-44.434,0.000
1709299475.256,-50.781,-37.109,-43.457,-45.410,0.000
1709299475.260,-46.387,-33.691,-40.039,-33.691,0.000
1709299475.263,-32.715,-39.062,-41.504,-26.855,0.000
1709299475.267,-31.250,-46.875,-35.645,-30.273,0.000
1709299475.271,-44.434,-49.316,-35.645,-37.598,0.000
1709299475.275,-45.410,-33.203,-41.992,-30.762,0.000
1709299475.279,-40.039,-38.574,-53.711,-21.484,0.000
1709299475.283,-32.227,-35.645,-52.734,-31.738,0.000
1709299475.287,-26.367,-18.066,-34.668,-36.133,0.000
1709299475.291,-24.902,-29.297,-37.598,-34.668,0.000
1709299475.295,-30.762,-45.410,-64.941,-44.434,0.000
1709299475.299,-29.785,-44.922,-40.527,-38.574,0.000
1709299475.303,-35.645,-42.480,-20.508,-42.969,0.000
1709299475.306,-40.527,-40.527,-25.391,-56.641,0.000
1709299475.310,-50.293,-51.270,-31.738,-60.547,0.000
1709299475.314,-69.336,-57.617,-32.715,-57.129,0.000
1709299475.318,-66.406,-34.180,-36.621,-43.945,0.000
1709299475.322,-49.805,-23.438,-40.039,-28.809,0.000
1709299475.326,-41.992,-41.992,-33.691,-27.832,0.000
1709299475.330,-46.387,-53.223,-38.086,-37.598,0.000
1709299475.333,-53.223,-40.527,-42.969,-52.734,0.000
1709299475.337,-56.641,-36.133,-40.039,-50.781,0.000
1709299475.341,-53.223,-38.086,-38.574,-40.039,0.000
1709299475.345,-47.852,-41.504,-41.504,-46.387,0.000
1709299475.349,-54.199,-62.500,-36.621,-50.293,0.000
1709299475.353,-59.082,-59.082,-38.574,-52.246,0.000
1709299475.357,-62.988,-39.062,-53.711,-52.734,0.000
1709299475.361,-56.152,-35.156,-48.828,-40.527,0.000
1709299475.365,-33.203,-41.992,-37.598,-21.973,0.000
1709299475.369,-31.738,-43.457,-34.668,-23.438,0.000
1709299475.373,-42.969,-47.363,-33.691,-41.016,0.000
1709299475.377,-45.410,-37.598,-36.133,-42.480,0.000
1709299475.381,-43.457,-22.461,-34.668,-34.668,0.000
1709299475.384,-30.273,-24.414,-27.344,-32.715,0.000
1709299475.388,-28.320,-36.621,-33.203,-38.086,0.000
1709299475.392,-36.133,-57.129,-41.992,-43.457,0.000
1709299475.396,-39.062,-53.223,-44.434,-28.320,0.000
1709299475.400,-33.691,-17.090,-33.203,-22.461,0.000
1709299475.404,-29.297,-15.137,-27.832,-35.156,0.000
1709299475.408,-32.715,-33.203,-33.691,-41.016,0.000
1709299475.412,-35.645,-41.504,-28.320,-41.016,0.000
1709299475.416,-41.992,-43.457,-25.391,-45.898,0.000
1709299475.420,-41.016,-37.598,-33.691,-49.316,0.000
1709299475.424,-20.508,-33.203,-42.969,-37.598,0.000
1709299475.427,-19.043,-41.992,-44.434,-38.086,0.000
1709299475.431,-39.062,-36.133,-29.785,-58.594,0.000
1709299475.435,-46.387,-31.250,-30.762,-60.059,0.000
1709299475.439,-46.387,-41.992,-41.992,-35.645,0.000
1709299475.443,-35.645,-27.832,-34.180,-35.156,0.000
1709299475.447,-38.574,-36.133,-38.086,-50.293,0.000
1709299475.451,-48.828,-55.664,-51.270,-50.293,0.000
1709299475.455,-47.852,-51.270,-44.922,-54.688,0.000
1709299475.459,-41.504,-38.574,-27.344,-54.199,0.000
1709299475.463,-33.203,-30.273,-21.484,-38.086,0.000
1709299475.467,-21.973,-39.062,-20.508,-29.785,0.000
1709299475.470,-31.250,-27.344,-26.855,-42.969,0.000
1709299475.474,-49.805,-17.578,-32.227,-51.758,0.000
1709299475.478,-51.270,-33.691,-31.738,-38.086,0.000
1709299475.482,-41.992,-52.246,-32.715,-20.020,0.000
1709299475.486,-33.203,-40.527,-35.645,-20.508,0.000
1709299475.490,-33.691,-34.180,-34.668,-34.668,0.000
1709299475.494,-38.574,-48.828,-32.227,-43.457,0.000
1709299475.498,-40.527,-42.969,-39.062,-45.410,0.000
1709299475.502,-32.227,-36.621,-49.316,-42.480,0.000
1709299475.506,-23.926,-35.156,-53.223,-37.109,0.000
1709299475.510,-35.156,-19.531,-41.992,-43.945,0.000
1709299475.513,-41.992,-27.832,-40.039,-46.387,0.000
1709299475.517,-33.203,-43.457,-43.945,-27.832,0.000
1709299475.521,-38.574,-34.668,-40.527,-26.367,0.000
1709299475.525,-35.156,-18.066,-29.297,-33.691,0.000
1709299475.529,-25.879,-20.020,-34.668,-26.367,0.000
1709299475.533,-28.809,-41.016,-50.293,-46.875,0.000
1709299475.537,-35.156,-43.457,-45.410,-60.059,0.000
1709299475.541,-39.551,-25.879,-35.645,-56.152,0.000
1709299475.545,-42.480,-26.855,-37.598,-45.410,0.000
1709299475.549,-48.828,-42.969,-37.109,-39.062,0.000
1709299475.553,-51.758,-33.203,-35.645,-45.410,0.000
1709299475.557,-50.293,-34.668,-38.574,-41.016,0.000
1709299475.561,-47.852,-62.012,-38.574,-45.410,0.000
1709299475.565,-40.039,-54.688,-36.133,-47.363,0.000
1709299475.569,-43.945,-31.738,-35.156,-57.129,0.000
1709299475.572,-66.895,-37.598,-33.691,-70.312,0.000
1709299475.576,-66.895,-37.598,-28.320,-53.223,0.000
1709299475.580,-54.199,-41.016,-40.039,-38.086,0.000
1709299475.584,-52.246,-39.551,-48.340,-35.645,0.000
1709299475.588,-55.176,-29.785,-29.297,-48.828,0.000
1709299475.592,-58.594,-39.551,-21.484,-60.059,0.000
1709299475.596,-61.035,-59.082,-35.156,-47.363,0.000
1709299475.600,-53.223,-48.340,-35.156,-34.668,0.000
1709299475.604,-41.992,-38.574,-24.902,-28.809,0.000
1709299475.607,-41.016,-43.457,-25.879,-33.203,0.000
1709299475.611,-48.340,-37.598,-41.504,-51.758,0.000
1709299475.615,-54.688,-33.691,-39.062,-54.688,0.000
1709299475.619,-47.852,-45.410,-31.250,-40.039,0.000
1709299475.623,-38.086,-55.176,-31.738,-21.973,0.000
1709299475.627,-41.992,-45.410,-26.367,-17.090,0.000
1709299475.631,-47.363,-32.715,-33.203,-36.133,0.000
1709299475.635,-54.688,-29.785,-34.180,-48.340,0.000
1709299475.638,-51.758,-23.438,-30.273,-45.898,0.000
1709299475.642,-38.574,-42.480,-31.738,-35.156,0.000
1709299475.646,-37.109,-53.711,-30.762,-25.879,0.000
1709299475.650,-46.875,-39.551,-44.434,-42.480,0.000
1709299475.654,-50.293,-31.250,-47.363,-52.246,0.000
1709299475.658,-42.480,-40.039,-34.668,-43.945,0.000
1709299475.662,-30.273,-57.129,-42.480,-32.227,0.000
1709299475.666,-24.902,-43.945,-38.086,-31.250,0.000
1709299475.670,-38.086,-23.926,-35.156,-48.340,0.000
1709299475.674,-43.457,-29.297,-37.598,-55.176,0.000
1709299475.677,-36.133,-35.645,-36.133,-45.898,0.000
1709299475.681,-32.227,-28.809,-42.480,-32.227,0.000
1709299475.685,-30.273,-20.020,-39.062,-28.809,0.000
1709299475.689,-38.086,-17.090,-37.598,-40.039,0.000
1709299475.693,-56.152,-33.691,-35.156,-41.504,0.000
1709299475.697,-53.711,-40.039,-32.227,-34.180,0.000
1709299475.701,-26.855,-40.527,-48.828,-29.297,0.000
1709299475.704,-23.438,-61.523,-45.410,-23.926,0.000
1709299475.708,-37.598,-43.945,-37.109,-19.043,0.000
1709299475.712,-50.781,-13.184,-35.156,-36.621,0.000
1709299475.716,-46.875,-28.320,-31.250,-44.434,0.000
1709299475.720,-34.180,-46.875,-31.738,-32.715,0.000
1709299475.724,-35.156,-30.273,-28.809,-35.645,0.000
1709299475.728,-34.668,-32.715,-31.738,-38.574,0.000
1709299475.732,0.000,-39.551,-31.250,0.000,0.000
1709299475.736,0.000,-32.227,-27.832,0.000,0.000
1709299475.740,0.000,-34.180,-32.227,0.000,0.000
1709299475.744,0.000,-34.180,-29.785,0.000,0.000
1709299475.748,0.000,-23.438,-35.156,0.000,0.000
1709299475.752,0.000,-32.227,-35.156,0.000,0.000
1709299475.755,0.000,-45.410,-29.297,0.000,0.000
1709299475.759,0.000,-43.945,-31.738,0.000,0.000
1709299475.763,0.000,-48.828,-40.527,0.000,0.000
1709299475.767,0.000,-35.645,-42.480,0.000,0.000
1709299475.771,0.000,-52.734,-39.062,0.000,0.000
1709299475.775,0.000,-57.129,-32.227,0.000,0.000
1709299475.779,-29.785,-24.414,-34.668,-42.480,0.000
1709299475.783,-17.578,-16.113,-39.062,-29.785,0.000
1709299475.787,-25.391,-32.227,-34.668,-32.227,0.000
1709299475.791,-36.621,-42.480,-38.574,-38.086,0.000
1709299475.795,-46.387,-36.621,-36.621,-34.668,0.000
1709299475.799,-51.758,-37.109,-34.180,-40.039,0.000
1709299475.803,-48.828,-46.875,-30.273,-38.574,0.000
1709299475.806,-46.875,-43.945,-27.344,-34.668,0.000
1709299475.810,-46.875,-44.434,-33.203,-38.086,0.000
1709299475.814,-52.246,-57.617,-34.668,-37.109,0.000
1709299475.818,-53.711,-30.273,-35.156,-34.668,0.000
1709299475.822,-41.016,-16.113,-30.762,-22.949,0.000
1709299475.826,-28.320,-28.320,-23.926,-12.695,0.000
1709299475.830,-28.809,-32.227,-27.832,-23.926,0.000
1709299475.834,-25.879,-41.504,-31.738,-21.484,0.000
1709299475.838,-17.090,-43.457,-29.785,0.977,0.000
1709299475.842,-17.090,-34.180,-30.273,1.465,0.000
1709299475.846,-15.137,-23.438,-28.320,-20.508,0.000
1709299475.849,-26.367,-31.738,-30.273,-41.016,0.000
1709299475.853,-41.992,-60.547,-38.086,-49.316,0.000
1709299475.857,-44.434,-60.059,-40.039,-38.574,0.000
1709299475.861,-36.621,-36.133,-43.457,-25.879,0.000
1709299475.865,-22.461,-16.602,-52.734,-31.250,0.000
1709299475.869,-30.273,-11.230,-43.457,-50.293,0.000
1709299475.873,-46.875,-26.855,-25.391,-57.129,0.000
1709299475.877,-50.293,-32.715,-27.832,-47.363,0.000
1709299475.881,-47.363,-33.203,-29.785,-33.203,0.000
1709299475.885,-41.992,-27.832,-36.621,-25.391,0.000
1709299475.888,-34.180,-32.715,-42.480,-32.227,0.000
1709299475.892,-44.922,-42.480,-34.180,-48.828,0.000
1709299475.896,-56.152,-35.645,-37.109,-48.828,0.000
1709299475.900,-39.062,-34.668,-33.203,-25.879,0.000
1709299475.904,-33.691,-29.297,-29.785,-19.043,0.000
1709299475.908,-45.898,-21.973,-30.273,-31.738,0.000
1709299475.912,-50.781,-36.621,-23.926,-38.574,0.000
1709299475.916,-59.082,-36.621,-22.949,-46.875,0.000
1709299475.920,-48.828,-31.250,-25.391,-43.945,0.000
1709299475.923,-32.227,-32.227,-25.879,-24.902,0.000
1709299475.927,-31.250,-29.785,-30.273,-23.438,0.000
1709299475.931,-41.504,-29.785,-33.691,-39.062,0.000
1709299475.935,-46.875,-40.039,-25.879,-45.898,0.000
1709299475.939,-48.828,-59.082,-26.367,-34.180,0.000
1709299475.943,-53.223,-47.363,-35.645,-33.691,0.000
1709299475.947,-50.781,-15.137,-42.480,-43.945,0.000
1709299475.951,-61.035,-24.414,-41.504,-49.805,0.000
1709299475.955,-61.523,-53.711,-30.762,-49.805,0.000
1709299475.959,-47.363,-48.828,-37.109,-42.480,0.000
1709299475.963,-32.227,-40.039,-26.855,-25.391,0.000
1709299475.966,-31.738,-37.109,-21.484,-30.762,0.000
1709299475.970,-47.363,-30.762,-40.527,-55.664,0.000
1709299475.974,-55.664,-41.992,-38.086,-60.547,0.000
1709299475.978,-57.617,-51.270,-32.715,-46.387,0.000
1709299475.982,-45.410,-36.133,-37.109,-33.203,0.000
1709299475.986,-34.180,-41.504,-41.992,-26.855,0.000
1709299475.990,-31.738,-56.152,-34.668,-21.973,0.000
1709299475.994,-39.062,-44.922,-39.551,-24.902,0.000
1709299475.997,-32.715,-35.156,-50.781,-41.504,0.000
1709299476.001,-17.578,-33.691,-45.898,-44.922,0.000
1709299476.005,-13.672,-25.391,-41.016,-33.203,0.000
1709299476.009,-14.648,-28.809,-40.039,-39.062,0.000
1709299476.013,-26.855,-41.016,-38.574,-50.293,0.000
1709299476.017,-37.598,-37.109,-41.016,-53.223,0.000
1709299476.021,-38.574,-29.785,-51.758,-49.805,0.000
1709299476.025,-33.203,-24.902,-51.270,-37.598,0.000
1709299476.028,-35.156,-27.832,-33.203,-41.992,0.000
1709299476.032,-47.852,-41.504,-34.668,-55.664,0.000
1709299476.036,-45.410,-53.711,-34.668,-51.270,0.000
1709299476.040,-32.715,-62.012,-22.949,-34.668,0.000
1709299476.044,-27.832,-42.480,-25.879,-43.457,0.000
1709299476.048,-34.668,-15.137,-47.852,-58.105,0.000
1709299476.052,-51.758,-24.902,-53.223,-59.570,0.000
1709299476.056,-58.594,-29.785,-34.180,-55.176,0.000
1709299476.060,-49.805,-19.531,-34.668,-38.086,0.000
1709299476.064,-31.738,-23.926,-43.945,-27.832,0.000
1709299476.068,-27.832,-28.320,-32.715,-31.250,0.000
1709299476.072,-52.246,-42.969,-36.133,-36.621,0.000
1709299476.076,-47.363,-49.805,-47.363,-25.391,0.000
1709299476.080,-29.785,-61.035,-37.598,-22.461,0.000
1709299476.083,-35.156,-51.270,-41.992,-19.043,0.000
1709299476.087,-36.133,-12.695,-43.945,-29.785,0.000
1709299476.091,-34.180,-17.578,-26.367,-49.805,0.000
1709299476.095,-45.410,-36.621,-39.062,-51.758,0.000
1709299476.099,-43.457,-39.062,-47.852,-37.109,0.000
1709299476.103,-29.785,-29.785,-35.156,-25.879,0.000
1709299476.107,-24.414,-23.438,-34.668,-19.531,0.000
1709299476.111,-37.109,-32.715,-26.367,-25.879,0.000
1709299476.115,-40.039,-44.922,-26.855,-44.922,0.000
1709299476.119,-34.668,-50.293,-34.668,-41.504,0.000
1709299476.123,-32.227,-48.828,-28.320,-27.344,0.000
1709299476.127,-25.391,-40.527,-27.344,-23.438,0.000
1709299476.130,-23.926,-21.973,-29.785,-26.855,0.000
1709299476.134,-28.809,-40.527,-29.785,-27.832,0.000
1709299476.138,-39.551,-50.293,-31.738,-40.039,0.000
1709299476.142,-49.805,-23.438,-37.598,-37.109,0.000
1709299476.146,-44.434,-10.742,-38.086,-23.926,0.000
1709299476.150,-41.992,-21.484,-30.273,-27.832,0.000
1709299476.154,-40.527,-41.992,-29.297,-22.461,0.000
1709299476.158,-37.598,-49.316,-35.156,-14.648,0.000
1709299476.162,-35.156,-21.484,-45.410,-15.625,0.000
1709299476.166,-29.297,-20.020,-35.645,-10.254,0.000
1709299476.170,-44.434,-43.945,-30.762,-31.250,0.000
1709299476.174,-59.570,-22.949,-38.086,-60.059,0.000
1709299476.177,-52.246,-28.320,-37.598,-64.941,0.000
1709299476.181,-44.922,-51.758,-43.457,-51.758,0.000
1709299476.185,-43.457,-36.621,-37.109,-30.762,0.000
1709299476.189,-43.457,-27.344,-24.902,-23.926,0.000
1709299476.193,-48.828,-35.156,-40.527,-34.180,0.000
1709299476.197,-50.293,-55.176,-44.922,-25.391,0.000
1709299476.201,-40.527,-71.777,-31.250,-13.184,0.000
1709299476.205,-32.227,-42.969,-30.273,-25.391,0.000
1709299476.209,-34.180,-19.043,-26.855,-36.133,0.000
1709299476.213,-51.758,-21.973,-22.949,-48.340,0.000
1709299476.217,-61.523,-20.508,-29.297,-45.410,0.000
1709299476.220,-46.387,-15.625,-32.227,-31.250,0.000
1709299476.224,-45.410,-36.621,-36.621,-22.461,0.000
1709299476.228,-56.152,-46.875,-42.480,-26.855,0.000
1709299476.232,-60.547,-30.273,-34.668,-36.621,0.000
1709299476.236,-64.453,-31.738,-35.156,-33.203,0.000
1709299476.240,-53.223,-46.875,-40.527,-29.785,0.000
1709299476.244,-37.109,-47.852,-23.438,-18.555,0.000
1709299476.248,-33.691,-39.551,-27.832,-13.672,0.000
1709299476.252,-47.852,-30.762,-39.551,-34.180,0.000
1709299476.256,-52.246,-16.602,-34.668,-54.199,0.000
1709299476.259,-41.992,-20.996,-29.785,-49.316,0.000
1709299476.263,-30.273,-33.691,-35.156,-32.227,0.000
1709299476.267,-33.203,-25.879,-38.574,-26.855,0.000
1709299476.271,-48.340,-22.949,-37.598,-42.480,0.000
1709299476.275,-49.316,-32.227,-37.598,-50.781,0.000
1709299476.279,-48.828,-29.297,-34.668,-35.645,0.000
1709299476.283,-36.621,-28.320,-38.086,-32.227,0.000
1709299476.287,-24.414,-39.551,-39.551,-33.203,0.000
1709299476.291,-32.227,-42.480,-29.785,-37.109,0.000
1709299476.295,-56.152,-39.551,-29.785,-46.875,0.000
1709299476.298,-57.129,-27.344,-34.668,-47.363,0.000
1709299476.302,-35.156,-25.879,-37.109,-35.156,0.000
1709299476.306,-28.320,-38.086,-32.227,-32.227,0.000
1709299476.310,-38.086,-43.457,-29.785,-43.457,0.000
1709299476.314,-50.781,-38.086,-37.109,-51.270,0.000
1709299476.318,-52.734,-31.738,-39.551,-47.363,0.000
1709299476.322,-47.852,-37.109,-39.551,-24.414,0.000
1709299476.326,-45.410,-54.688,-34.668,-9.277,0.000
1709299476.330,-45.898,-44.434,-38.086,-32.715,0.000
1709299476.334,-50.781,-31.738,-47.363,-57.129,0.000
1709299476.337,-55.176,-26.367,-28.809,-62.988,0.000
1709299476.341,-50.781,-19.531,-32.227,-64.941,0.000
1709299476.345,-29.785,-31.250,-41.992,-52.734,0.000
1709299476.349,-25.391,-42.969,-34.668,-61.035,0.000
1709299476.353,-35.156,-28.320,-32.715,-69.824,0.000
1709299476.357,-25.879,-26.855,-38.086,-61.523,0.000
1709299476.361,-29.785,-46.387,-39.062,-48.828,0.000
1709299476.365,-33.691,-29.785,-37.109,-32.715,0.000
1709299476.369,-24.414,-17.578,-39.062,-27.344,0.000
1709299476.372,-31.250,-37.109,-33.203,-39.551,0.000
1709299476.376,-22.949,-44.922,-36.133,-40.527,0.000
1709299476.380,-13.184,-43.457,-35.156,-30.273,0.000
1709299476.384,-16.113,-38.574,-30.273,-29.785,0.000
1709299476.388,-24.414,-26.855,-36.133,-44.434,0.000
1709299476.392,-25.879,-31.250,-38.574,-55.664,0.000
1709299476.396,-27.344,-43.457,-43.457,-54.688,0.000
1709299476.400,-25.879,-44.922,-34.668,-39.551,0.000
1709299476.404,-18.555,-38.574,-27.344,-11.230,0.000
1709299476.408,-24.902,-35.645,-36.621,-22.949,0.000
1709299476.412,-41.016,-38.086,-39.062,-44.922,0.000
1709299476.416,-38.086,-32.227,-25.879,-39.551,0.000
1709299476.420,-32.227,-32.227,-21.484,-32.227,0.000
1709299476.424,-25.879,-47.852,-28.320,-15.625,0.000
1709299476.427,-13.184,-48.828,-28.320,-13.672,0.000
1709299476.431,-27.344,-32.227,-26.855,-37.109,0.000
1709299476.435,-40.039,-31.738,-36.133,-48.828,0.000
1709299476.439,-32.715,-50.781,-35.156,-36.621,0.000
1709299476.443,-20.996,-49.316,-32.227,-23.926,0.000
1709299476.447,-22.461,-35.645,-41.992,-34.668,0.000
1709299476.451,-40.039,-42.480,-44.434,-42.969,0.000
1709299476.454,-46.387,-32.227,-41.016,-44.922,0.000
1709299476.458,-42.480,-27.832,-34.668,-49.805,0.000
1709299476.462,-32.227,-28.809,-32.227,-47.363,0.000
1709299476.466,-23.926,-30.762,-32.227,-41.016,0.000
1709299476.470,-34.668,-49.805,-40.039,-40.527,0.000
1709299476.474,-42.480,-46.875,-40.527,-49.316,0.000
1709299476.478,-32.227,-43.945,-32.227,-50.781,0.000
1709299476.482,-38.086,-42.969,-49.316,-47.852,0.000
1709299476.486,-42.969,-46.875,-48.828,-57.129,0.000
1709299476.490,-42.969,-47.852,-31.250,-67.871,0.000
1709299476.494,-54.688,-41.992,-27.344,-70.312,0.000
1709299476.498,-41.016,-58.105,-31.738,-56.641,0.000
1709299476.501,-25.391,-44.434,-45.410,-30.762,0.000
1709299476.505,-33.203,-19.043,-48.340,-31.738,0.000
1709299476.509,-38.086,-42.969,-41.504,-51.758,0.000
1709299476.513,-38.086,-47.363,-41.016,-56.641,0.000
1709299476.517,-43.457,-37.598,-38.574,-47.363,0.000
1709299476.521,-43.457,-43.457,-44.434,-33.691,0.000
1709299476.525,-27.344,-54.199,-46.387,-27.832,0.000
1709299476.529,-27.832,-43.457,-28.320,-39.551,0.000
1709299476.533,-49.316,-23.438,-32.227,-57.617,0.000
1709299476.537,-51.270,-30.762,-39.062,-52.734,0.000
1709299476.541,-38.086,-49.316,-35.645,-28.809,0.000
1709299476.545,-29.297,-69.336,-41.504,-13.672,0.000
1709299476.548,-38.574,-72.266,-44.434,-21.484,0.000
1709299476.552,-53.711,-57.617,-33.203,-35.156,0.000
1709299476.556,-52.246,-33.691,-28.809,-34.668,0.000
1709299476.560,-45.410,-26.367,-38.086,-31.738,0.000
1709299476.564,-36.133,-50.293,-41.016,-22.949,0.000
1709299476.568,-34.180,-48.340,-39.062,-32.715,0.000
1709299476.572,-43.945,-38.574,-39.062,-52.734,0.000
1709299476.576,-46.387,-49.805,-38.574,-52.246,0.000
1709299476.580,-40.527,-47.852,-39.062,-49.805,0.000
1709299476.584,-35.156,-51.270,-49.805,-35.156,0.000
1709299476.588,-34.668,-43.457,-52.246,-30.273,0.000
1709299476.591,-38.086,-23.438,-35.156,-54.688,0.000
1709299476.595,-41.992,-27.344,-33.203,-62.500,0.000
1709299476.599,-38.086,-36.133,-35.645,-57.617,0.000
1709299476.603,-25.879,-51.270,-41.504,-49.316,0.000
1709299476.607,-30.273,-47.363,-48.340,-45.410,0.000
1709299476.611,-42.969,-35.156,-35.156,-46.875,0.000
1709299476.615,-47.852,-62.988,-29.785,-53.223,0.000
1709299476.619,-46.387,-60.547,-34.180,-45.898,0.000
1709299476.623,-35.645,-42.969,-47.363,-25.391,0.000
1709299476.627,-40.039,-55.664,-57.617,-32.227,0.000
1709299476.630,-52.734,-45.410,-39.062,-51.758,0.000
1709299476.634,-59.570,-34.668,-34.668,-59.570,0.000
1709299476.638,-53.223,-44.922,-32.715,-52.246,0.000
1709299476.642,-45.410,-61.523,-27.832,-32.227,0.000
1709299476.646,-43.457,-60.059,-32.715,-25.391,0.000
1709299476.650,-48.340,-37.109,-41.504,-33.203,0.000
1709299476.654,-61.523,-49.316,-35.645,-30.273,0.000
1709299476.658,-60.547,-52.246,-29.297,-24.902,0.000
1709299476.662,-42.969,-46.875,-34.668,-13.672,0.000
1709299476.666,-37.109,-59.082,-33.691,-14.160,0.000
1709299476.669,-41.992,-58.594,-34.668,-27.344,0.000
1709299476.673,-38.574,-44.434,-38.574,-38.574,0.000
1709299476.677,-43.457,-35.645,-34.180,-40.039,0.000
1709299476.681,-44.434,-52.246,-38.574,-28.809,0.000
1709299476.685,-30.762,-38.086,-37.109,-23.438,0.000
1709299476.689,-23.438,-41.016,-22.461,-20.508,0.000
1709299476.693,-27.344,-72.754,-25.879,-24.414,0.000
1709299476.697,-35.645,-55.664,-37.598,-28.320,0.000
1709299476.701,-33.203,-31.250,-37.598,-20.020,0.000
1709299476.705,-22.949,-29.297,-48.828,-9.766,0.000
1709299476.708,-27.832,-33.691,-48.340,-26.367,0.000
1709299476.712,-43.457,-28.809,-32.715,-54.199,0.000
1709299476.716,-39.551,-32.715,-29.297,-49.805,0.000
1709299476.720,-26.855,-32.227,-26.367,-38.086,0.000
1709299476.724,-29.297,-33.203,-22.949,-30.273,0.000
1709299476.728,-42.480,-44.434,-24.902,-29.297,0.000
1709299476.732,-45.898,-36.621,-22.949,-42.480,0.000
1709299476.736,-44.434,-41.016,-25.879,-55.664,0.000
1709299476.740,-46.387,-53.711,-33.691,-47.363,0.000
1709299476.743,-42.969,-42.480,-36.133,-23.926,0.000
1709299476.747,-48.340,-30.273,-41.016,-31.250,0.000
1709299476.751,-51.270,-39.551,-32.227,-48.828,0.000
1709299476.755,-48.828,-55.664,-29.297,-52.246,0.000
1709299476.759,-47.363,-37.109,-31.738,-45.898,0.000
1709299476.764,-47.363,-19.531,-49.805,-35.156,0.000
1709299476.768,-40.039,-34.180,-52.734,-26.367,0.000
1709299476.772,-40.527,-40.039,-25.879,-36.621,0.000
1709299476.776,-62.012,-31.250,-28.320,-54.199,0.000
1709299476.779,-67.871,-39.062,-28.809,-47.363,0.000
1709299476.783,-56.641,-58.105,-30.273,-36.621,0.000
1709299476.787,-55.664,-48.340,-35.156,-29.785,0.000
1709299476.791,-58.105,-32.227,-35.156,-32.715,0.000
1709299476.795,-70.312,-63.965,-32.715,-49.316,0.000
1709299476.799,-73.242,-62.500,-28.320,-57.129,0.000
1709299476.803,-64.941,-31.738,-23.926,-45.898,0.000
1709299476.807,-56.152,-30.762,-22.461,-39.551,0.000
1709299476.810,-50.781,-33.203,-27.344,-42.969,0.000
1709299476.814,-53.711,-54.688,-27.832,-46.387,0.000
1709299476.818,-61.523,-71.289,-35.645,-60.059,0.000
1709299476.822,-51.758,-53.711,-40.527,-55.176,0.000
1709299476.826,-35.156,-44.922,-36.133,-37.109,0.000
1709299476.830,-43.457,-41.016,-38.574,-41.016,0.000
1709299476.834,-61.523,-32.715,-48.340,-50.781,0.000
1709299476.838,-55.664,-41.016,-45.898,-45.410,0.000
1709299476.842,-42.969,-40.527,-38.574,-42.480,0.000
1709299476.845,-39.062,-40.039,-32.227,-47.852,0.000
1709299476.849,-31.738,-40.527,-27.832,-39.551,0.000
1709299476.853,-22.949,-34.668,-22.949,-26.855,0.000
1709299476.857,-24.902,-50.293,-29.297,-27.832,0.000
1709299476.861,-21.973,-52.734,-41.504,-38.086,0.000
1709299476.865,-20.020,-25.879,-38.574,-39.062,0.000
1709299476.868,-30.273,-22.461,-36.621,-40.527,0.000
1709299476.872,-35.645,-38.086,-31.738,-42.480,0.000
1709299476.876,-33.203,-36.621,-31.738,-40.039,0.000
1709299476.880,-36.621,-27.832,-41.504,-41.992,0.000
1709299476.884,-39.062,-34.180,-41.016,-49.316,0.000
1709299476.888,-47.363,-34.668,-45.410,-49.316,0.000
1709299476.892,-59.082,-39.062,-38.574,-48.340,0.000
1709299476.896,-63.477,-39.551,-36.133,-65.918,0.000
1709299476.900,-52.246,-16.602,-38.086,-62.988,0.000
1709299476.904,-42.969,-27.344,-34.180,-40.527,0.000
1709299476.908,-49.805,-39.551,-38.574,-38.086,0.000
1709299476.912,-59.082,-26.855,-32.715,-46.875,0.000
1709299476.915,-62.012,-29.785,-28.320,-52.734,0.000
1709299476.919,-47.363,-39.551,-32.715,-40.039,0.000
1709299476.923,-28.809,-50.781,-57.129,-27.832,0.000
1709299476.927,-30.762,-44.434,-57.129,-32.715,0.000
1709299476.931,-51.270,-39.062,-29.785,-50.781,0.000
1709299476.935,-63.965,-53.223,-25.391,-61.523,0.000
1709299476.939,-66.895,-53.711,-30.273,-52.734,0.000
1709299476.943,-56.152,-33.691,-41.992,-53.223,0.000
1709299476.947,-44.434,-28.809,-37.598,-43.945,0.000
1709299476.951,-47.852,-32.227,-32.715,-47.852,0.000
1709299476.955,-50.781,-22.949,-39.062,-60.059,0.000
1709299476.958,-36.133,-38.574,-29.297,-42.969,0.000
1709299476.962,-34.668,-42.480,-38.574,-25.879,0.000
1709299476.966,-46.875,-25.391,-43.945,-26.367,0.000
1709299476.970,-46.875,-34.180,-37.598,-34.668,0.000
1709299476.974,-44.434,-54.199,-42.969,-46.387,0.000
1709299476.978,-45.410,-60.059,-39.062,-56.641,0.000
1709299476.982,-37.109,-35.156,-30.762,-44.434,0.000
1709299476.986,-44.434,-8.301,-35.156,-32.227,0.000
1709299476.990,-58.105,-6.348,-44.922,-50.781,0.000
1709299476.994,-59.082,-25.391,-41.992,-65.918,0.000
1709299476.997,-53.711,-32.715,-35.156,-59.570,0.000
1709299477.001,-41.016,-26.367,-40.039,-41.992,0.000
1709299477.005,-34.180,-35.156,-44.434,-27.344,0.000
1709299477.009,-44.434,-48.340,-32.715,-28.809,0.000
1709299477.013,-49.316,-48.340,-27.832,-45.410,0.000
1709299477.017,-45.898,-49.805,-27.344,-48.828,0.000
1709299477.021,-38.574,-49.316,-33.203,-36.133,0.000
1709299477.025,-28.809,-38.574,-37.598,-36.621,0.000
1709299477.029,-32.715,-38.574,-33.203,-35.645,0.000
1709299477.033,-48.340,-23.438,-31.250,-45.410,0.000
1709299477.037,-48.828,-28.809,-20.508,-47.363,0.000
1709299477.040,-51.270,-38.086,-23.926,-41.016,0.000
1709299477.044,-48.828,-27.832,-42.969,-40.527,0.000
1709299477.048,-37.598,-46.387,-40.527,-33.203,0.000
1709299477.052,-33.203,-61.523,-33.203,-36.133,0.000
1709299477.056,-31.738,-42.480,-30.762,-45.898,0.000
1709299477.060,-21.973,-47.852,-31.250,-40.039,0.000
1709299477.064,-12.695,-46.387,-34.180,-18.066,0.000
1709299477.068,-16.113,-27.832,-36.133,-10.254,0.000
1709299477.072,-20.020,-41.504,-34.180,-14.648,0.000
1709299477.075,-21.973,-63.477,-26.367,-20.508,0.000
1709299477.079,-25.879,-56.641,-28.809,-38.086,0.000
1709299477.083,-30.762,-34.180,-41.016,-39.551,0.000
1709299477.087,-28.320,-38.086,-40.527,-31.250,0.000
1709299477.091,-40.527,-38.086,-40.039,-43.457,0.000
1709299477.095,-55.664,-14.160,-31.738,-51.758,0.000
1709299477.099,-52.734,-15.137,-30.762,-43.945,0.000
1709299477.103,-34.668,-23.926,-37.109,-34.668,0.000
1709299477.107,-27.344,-35.645,-34.180,-25.879,0.000
1709299477.110,-41.992,-58.594,-34.668,-35.156,0.000
1709299477.114,-43.945,-57.129,-36.133,-33.691,0.000
1709299477.118,-37.109,-33.691,-38.574,-27.344,0.000
1709299477.122,-43.457,-26.855,-37.598,-45.898,0.000
1709299477.126,-45.410,-43.945,-35.645,-46.387,0.000
1709299477.130,-52.734,-38.574,-37.109,-42.969,0.000
1709299477.134,-54.688,-38.574,-33.691,-53.711,0.000
1709299477.138,-43.457,-47.852,-26.855,-46.387,0.000
1709299477.141,-41.992,-29.297,-34.668,-40.527,0.000
1709299477.145,-34.668,-16.602,-44.922,-34.180,0.000
1709299477.149,-28.809,-33.203,-49.805,-24.414,0.000
1709299477.153,-33.203,-41.992,-39.062,-34.668,0.000
1709299477.157,-34.180,-44.922,-26.367,-43.457,0.000
1709299477.161,-29.785,-51.758,-25.391,-23.926,0.000
1709299477.165,-23.926,-41.504,-23.926,-4.883,0.000
1709299477.169,-31.738,-18.555,-33.203,-18.555,0.000
1709299477.173,-37.109,-26.855,-37.109,-35.156,0.000
1709299477.177,-32.227,-40.039,-31.250,-40.527,0.000
1709299477.181,-28.809,-22.949,-42.480,-33.203,0.000
1709299477.184,0.000,-26.367,-42.969,-21.484,0.000
1709299477.188,0.000,-46.875,-27.832,-9.766,0.000
1709299477.192,0.000,-59.082,-34.668,-34.668,0.000
1709299477.196,0.000,-43.945,-35.645,-59.082,0.000
1709299477.200,0.000,-34.180,-30.273,-33.203,0.000
1709299477.204,0.000,-56.641,-33.203,-15.137,0.000
1709299477.208,0.000,-65.430,-36.133,-18.066,0.000
1709299477.212,0.000,-40.039,-37.598,-43.945,0.000
1709299477.215,0.000,-37.598,-28.809,-54.688,0.000
1709299477.219,0.000,-52.734,-26.855,-39.551,0.000
1709299477.223,0.000,-41.504,-28.809,-35.156,0.000
1709299477.227,0.000,-28.320,-27.344,-40.527,0.000
1709299477.231,-39.551,-38.574,-27.832,-57.617,0.000
1709299477.235,-40.527,-51.758,-36.133,-62.988,0.000
1709299477.239,-36.133,-37.598,-32.227,-48.828,0.000
1709299477.242,-36.621,-23.926,-23.438,-44.922,0.000
1709299477.246,-33.691,-27.344,-24.414,-43.457,0.000
1709299477.250,-40.039,-33.203,-22.949,-40.527,0.000
1709299477.254,-42.480,-40.039,-29.785,-40.039,0.000
1709299477.258,-38.574,-42.969,-46.387,-35.645,0.000
1709299477.262,-27.344,-42.969,-41.504,-35.645,0.000
1709299477.266,-15.137,-34.668,-34.180,-35.156,0.000
1709299477.270,-15.625,-30.762,-34.668,-36.133,0.000
1709299477.274,-26.855,-18.555,-32.715,-39.551,0.000
1709299477.278,-30.762,-21.973,-39.062,-36.133,0.000
1709299477.282,-15.625,-29.297,-31.738,-21.973,0.000
1709299477.286,-1.465,-23.438,-33.203,-15.625,0.000
1709299477.289,-16.113,-28.809,-41.016,-29.785,0.000
1709299477.293,-28.320,-38.574,-39.551,-37.598,0.000
1709299477.297,-32.715,-43.945,-45.410,-31.250,0.000
1709299477.301,-28.320,-33.203,-50.781,-20.020,0.000
1709299477.305,-27.832,-44.922,-47.852,-12.695,0.000
1709299477.309,-29.297,-46.875,-40.039,-9.277,0.000
1709299477.313,-35.645,-22.461,-33.203,-4.883,0.000
1709299477.317,-47.852,-24.414,-32.227,-7.812,0.000
1709299477.321,-39.062,-36.621,-32.715,5.371,0.000
1709299477.325,-21.484,-45.410,-32.715,20.508,0.000
1709299477.329,-32.227,-48.340,-27.832,5.371,0.000
1709299477.333,-50.293,-57.617,-30.273,-2.441,0.000
1709299477.336,-42.969,-47.852,-29.297,-5.371,0.000
1709299477.340,-37.598,-29.297,-24.902,-24.414,0.000
1709299477.344,-42.480,-19.531,-31.250,-25.391,0.000
1709299477.348,-50.293,-28.809,-34.668,-28.320,0.000
1709299477.352,-58.105,-35.645,-32.227,-39.062,0.000
1709299477.356,-64.941,-27.832,-34.180,-37.109,0.000
1709299477.360,-52.734,-25.879,-38.574,-22.949,0.000
1709299477.364,-43.457,-33.203,-47.363,-19.531,0.000
1709299477.368,-45.898,-43.457,-42.480,-22.949,0.000
1709299477.372,-48.828,-52.246,-28.320,-30.762,0.000
1709299477.376,-49.316,-48.340,-33.691,-38.574,0.000
1709299477.380,-43.945,-43.945,-32.715,-37.598,0.000
1709299477.384,-33.203,-49.316,-24.902,-25.879,0.000
1709299477.388,-21.973,-53.223,-29.785,-12.695,0.000
1709299477.392,-34.180,-53.711,-34.668,-20.508,0.000
1709299477.396,-52.246,-27.832,-33.203,-36.133,0.000
1709299477.400,-43.457,-25.391,-31.250,-36.133,0.000
1709299477.403,-15.137,-43.945,-26.855,-4.395,0.000
1709299477.407,-15.625,-44.434,-30.762,-14.160,0.000
1709299477.411,-39.551,-27.832,-33.203,-49.805,0.000
1709299477.415,-43.945,-25.879,-31.250,-43.945,0.000
1709299477.419,-28.809,-54.199,-27.344,-19.043,0.000
1709299477.423,-22.461,-60.547,-32.227,-17.578,0.000
1709299477.427,-30.762,-27.832,-42.969,-32.715,0.000
1709299477.431,-41.992,-26.855,-39.551,-52.734,0.000
1709299477.435,-55.664,-27.344,-39.062,-63.965,0.000
1709299477.439,-58.594,-26.855,-39.062,-58.105,0.000
1709299477.442,-36.621,-31.250,-37.109,-37.598,0.000
1709299477.446,-23.438,-30.273,-34.668,-27.344,0.000
1709299477.450,-39.551,-33.203,-34.668,-43.457,0.000
1709299477.454,-49.805,-40.039,-29.785,-51.270,0.000
1709299477.458,-50.781,-53.223,-30.762,-38.086,0.000
1709299477.462,-43.457,-52.734,-35.156,-21.973,0.000
1709299477.466,-36.133,-40.527,-38.574,-30.762,0.000
1709299477.470,-39.551,-35.645,-44.922,-42.480,0.000
1709299477.473,-50.781,-46.387,-47.852,-50.293,0.000
1709299477.477,-52.246,-46.387,-33.203,-56.641,0.000
1709299477.481,-43.457,-42.969,-28.809,-44.922,0.000
1709299477.485,-43.457,-51.758,-35.645,-40.527,0.000
1709299477.489,-49.805,-53.711,-35.645,-51.758,0.000
1709299477.493,-54.688,-45.410,-33.203,-48.340,0.000
1709299477.497,-43.457,-48.340,-40.039,-43.945,0.000
1709299477.501,-35.645,-38.574,-45.410,-59.082,0.000
1709299477.505,-40.527,-15.137,-33.691,-54.199,0.000
1709299477.509,-40.039,-19.531,-24.414,-45.898,0.000
1709299477.512,-38.086,-27.832,-27.832,-53.223,0.000
1709299477.516,-34.668,-44.922,-25.391,-44.922,0.000
1709299477.520,-36.133,-50.781,-27.344,-35.156,0.000
1709299477.524,-32.227,-38.086,-36.621,-33.203,0.000
1709299477.528,-29.297,-27.344,-43.945,-35.645,0.000
1709299477.532,-33.691,-51.270,-37.598,-20.996,0.000
1709299477.536,-32.227,-75.684,-36.621,-21.484,0.000
1709299477.540,-22.949,-46.875,-42.969,-31.250,0.000
1709299477.544,-16.113,-19.531,-43.457,-36.133,0.000
1709299477.547,-13.672,-20.996,-40.039,-35.645,0.000
1709299477.551,-14.160,-29.297,-33.691,-37.109,0.000
1709299477.555,-19.043,-37.598,-30.273,-38.574,0.000
1709299477.559,-15.625,-46.387,-37.598,-15.137,0.000
1709299477.563,-11.230,-64.453,-39.062,-5.859,0.000
1709299477.567,-22.949,-67.871,-39.062,-25.391,0.000
1709299477.571,-38.086,-30.762,-44.434,-41.992,0.000
1709299477.575,-43.457,-15.137,-35.156,-47.363,0.000
1709299477.578,-37.109,-31.250,-33.203,-42.480,0.000
1709299477.582,-24.414,-42.480,-40.039,-20.996,0.000
1709299477.586,-22.461,-26.855,-33.691,-22.461,0.000
1709299477.590,-32.715,-19.043,-34.668,-42.969,0.000
1709299477.594,-43.457,-27.344,-37.109,-51.758,0.000
1709299477.598,-34.668,-30.762,-32.715,-46.875,0.000
1709299477.602,-32.227,-39.551,-32.227,-39.551,0.000
1709299477.606,-41.504,-36.621,-28.809,-34.668,0.000
1709299477.610,-43.945,-44.434,-24.414,-32.715,0.000
1709299477.614,-43.457,-62.500,-28.320,-35.645,0.000
1709299477.618,-52.734,-62.500,-39.551,-43.457,0.000
1709299477.622,-47.852,-58.105,-35.156,-48.828,0.000
1709299477.626,-30.273,-61.523,-34.668,-37.109,0.000
1709299477.629,-31.738,-62.012,-51.758,-33.203,0.000
1709299477.633,-55.664,-35.645,-51.270,-57.617,0.000
1709299477.637,-62.500,-17.090,-43.945,-62.012,0.000
1709299477.641,-57.617,-24.902,-41.016,-44.434,0.000
1709299477.645,-52.246,-48.828,-36.133,-36.133,0.000
1709299477.649,-55.664,-48.828,-36.621,-46.875,0.000
1709299477.653,-66.406,-49.316,-40.527,-53.711,0.000
1709299477.657,-63.965,-54.688,-35.156,-41.016,0.000
1709299477.661,-56.152,-52.246,-20.996,-42.969,0.000
1709299477.665,-47.363,-70.312,-26.855,-43.945,0.000
1709299477.669,-50.293,-63.965,-30.762,-43.457,0.000
1709299477.673,-59.570,-53.223,-29.297,-52.246,0.000
1709299477.676,-60.547,-67.871,-27.832,-54.199,0.000
1709299477.680,-45.410,-64.453,-31.738,-48.340,0.000
1709299477.684,-33.203,-50.293,-38.574,-47.363,0.000
1709299477.688,-39.551,-50.781,-44.434,-34.668,0.000
1709299477.692,-40.527,-36.621,-35.645,-33.691,0.000
1709299477.696,-44.922,-28.320,-23.438,-45.410,0.000
1709299477.700,-42.969,-40.039,-27.832,-42.969,0.000
1709299477.704,-34.180,-39.551,-28.809,-37.109,0.000
1709299477.708,-30.762,-37.598,-26.855,-33.691,0.000
1709299477.712,-35.156,-64.453,-31.738,-35.156,0.000
1709299477.716,-49.316,-65.430,-37.598,-34.180,0.000
1709299477.719,-41.016,-38.574,-40.527,-33.203,0.000
1709299477.723,-27.832,-52.246,-31.738,-40.527,0.000
1709299477.727,-32.227,-50.293,-21.973,-44.922,0.000
1709299477.731,-39.551,-27.832,-25.879,-43.457,0.000
1709299477.735,-43.945,-27.344,-32.227,-41.504,0.000
1709299477.739,-45.410,-38.574,-39.551,-55.176,0.000
1709299477.743,-41.016,-43.945,-34.180,-52.734,0.000
1709299477.747,-31.738,-43.457,-31.250,-23.926,0.000
1709299477.751,-31.738,-52.734,-38.574,-30.273,0.000
1709299477.755,-48.828,-54.199,-27.344,-55.176,0.000
1709299477.759,-55.176,-46.387,-18.555,-57.617,0.000
1709299477.762,-54.199,-46.387,-38.574,-45.410,0.000
1709299477.766,-52.734,-45.898,-45.410,-34.668,0.000
1709299477.770,-53.711,-32.227,-40.527,-52.246,0.000
1709299477.774,-58.105,-25.391,-36.133,-64.941,0.000
1709299477.778,-49.316,-35.645,-25.391,-48.340,0.000
1709299477.782,-40.527,-46.387,-33.203,-28.809,0.000
1709299477.786,-36.621,-38.086,-46.387,-27.344,0.000
1709299477.790,-37.598,-53.711,-43.457,-34.180,0.000
1709299477.794,-59.082,-67.383,-38.574,-43.457,0.000
1709299477.798,-67.383,-38.574,-43.457,-42.969,0.000
1709299477.801,-50.781,-30.762,-35.645,-19.043,0.000
1709299477.805,-41.992,-45.898,-25.879,-17.090,0.000
1709299477.809,-35.645,-51.270,-23.926,-33.203,0.000
1709299477.813,-49.805,-42.480,-37.109,-52.734,0.000
1709299477.817,-69.336,-34.668,-48.828,-62.012,0.000
1709299477.821,-55.664,-37.598,-37.109,-41.504,0.000
1709299477.825,-38.574,-36.133,-32.715,-28.809,0.000
1709299477.829,-36.621,-37.598,-40.039,-34.180,0.000
1709299477.833,-33.203,-60.059,-48.828,-41.992,0.000
1709299477.837,-33.203,-45.898,-40.039,-45.410,0.000
1709299477.840,-28.809,-29.297,-32.715,-34.668,0.000
1709299477.844,-27.344,-26.367,-36.133,-34.668,0.000
1709299477.848,-25.391,-24.414,-35.645,-34.668,0.000
1709299477.852,-36.621,-42.480,-40.039,-42.969,0.000
1709299477.856,-60.547,-41.992,-47.852,-65.430,0.000
1709299477.860,-57.129,-30.762,-43.945,-58.594,0.000
1709299477.864,-40.527,-43.457,-36.621,-38.086,0.000
1709299477.868,-42.480,-60.547,-35.156,-31.250,0.000
1709299477.872,-48.340,-55.664,-32.227,-34.668,0.000
1709299477.875,-46.387,-54.199,-33.203,-36.133,0.000
1709299477.879,-36.621,-57.129,-30.762,-36.621,0.000
1709299477.883,-32.715,-46.387,-38.086,-31.738,0.000
1709299477.888,-41.504,-38.574,-38.086,0.000,0.000
1709299477.892,-50.293,-42.480,-30.762,0.000,0.000
1709299477.896,-52.734,-52.734,-31.250,0.000,0.000
1709299477.899,-57.617,-44.922,-32.715,0.000,0.000
1709299477.903,-51.270,-39.551,-33.203,0.000,0.000
1709299477.907,-41.016,-49.316,-30.273,0.000,0.000
1709299477.911,-50.781,-41.992,-34.180,0.000,0.000
1709299477.915,-60.547,-31.738,-38.086,0.000,0.000
1709299477.919,-48.828,-41.992,-46.387,0.000,0.000
1709299477.923,-29.297,-64.941,-42.969,0.000,0.000
1709299477.927,-36.621,-63.965,-32.227,0.000,0.000
1709299477.931,-50.781,-28.320,-35.156,0.000,0.000
1709299477.934,-52.734,-22.461,-30.273,-43.945,0.000
1709299477.938,-49.316,-39.062,-27.344,-46.875,0.000
1709299477.942,-41.016,-49.805,-34.180,-42.969,0.000
1709299477.946,-38.574,-52.246,-34.180,-40.527,0.000
1709299477.950,-43.457,-44.434,-33.691,-44.434,0.000
1709299477.954,-49.316,-47.852,-42.969,-44.434,0.000
1709299477.958,-39.551,-48.828,-45.410,-28.809,0.000
1709299477.962,-29.297,-35.156,-39.062,-27.832,0.000
1709299477.965,-20.020,-39.062,-42.480,-30.762,0.000
1709299477.969,-16.602,-52.734,-38.086,-34.180,0.000
1709299477.973,-22.461,-42.969,-32.715,-38.574,0.000
1709299477.977,-19.043,-54.688,-48.828,-43.457,0.000
1709299477.981,-16.113,-50.293,-50.781,-50.293,0.000
1709299477.985,-21.973,-17.578,-38.086,-43.945,0.000
1709299477.989,-24.902,-25.391,-34.180,-46.387,0.000
1709299477.992,-34.180,-34.180,-38.086,-56.641,0.000
1709299477.996,-40.039,-17.578,-35.645,-51.270,0.000
1709299478.000,-29.785,-27.344,-31.250,-38.574,0.000
1709299478.004,-22.461,-40.527,-33.203,-24.902,0.000
1709299478.008,-27.832,-31.250,-32.227,-27.832,0.000
1709299478.012,-33.691,-39.551,-31.738,-37.598,0.000
1709299478.016,-37.109,-45.410,-37.598,-33.691,0.000
1709299478.020,-30.273,-35.645,-48.340,-28.809,0.000
1709299478.024,-20.020,-38.574,-43.457,-28.809,0.000
1709299478.028,-32.227,-42.969,-49.805,-46.875,0.000
1709299478.032,-46.387,-34.668,-40.527,-55.176,0.000
1709299478.036,-49.805,-44.434,-29.785,-56.152,0.000
1709299478.039,-49.805,-43.457,-33.691,-59.082,0.000
1709299478.043,-32.715,-45.898,-34.668,-42.969,0.000
1709299478.047,-28.809,-55.176,-50.781,-35.156,0.000
1709299478.051,-39.551,-50.781,-46.875,-48.828,0.000
1709299478.055,-40.527,-51.270,-28.809,-58.105,0.000
1709299478.059,-31.250,-57.129,-34.180,-44.434,0.000
1709299478.063,-18.066,-65.430,-30.273,-17.578,0.000
1709299478.067,-29.297,-45.898,-24.414,-14.160,0.000
1709299478.071,-36.621,-39.551,-36.133,-16.602,0.000
1709299478.075,-40.039,-36.621,-39.062,-19.531,0.000
1709299478.079,-50.293,-36.133,-32.227,-30.762,0.000
1709299478.082,-32.715,-40.527,-30.762,-23.438,0.000
1709299478.086,-27.344,-55.176,-36.621,-19.043,0.000
1709299478.090,-43.945,-48.340,-36.133,-34.668,0.000
1709299478.094,-52.734,-30.762,-28.320,-42.969,0.000
1709299478.098,-54.688,-36.133,-34.180,-39.551,0.000
1709299478.102,-34.180,-34.668,-34.668,-21.973,0.000
1709299478.106,-22.461,-51.758,-37.598,-9.277,0.000
1709299478.110,-32.227,-63.477,-49.316,-17.578,0.000
1709299478.114,-33.203,-32.715,-42.480,-32.227,0.000
1709299478.118,-35.156,-25.879,-34.668,-32.715,0.000
1709299478.122,-33.691,-35.156,-33.203,-19.043,0.000
1709299478.125,-18.555,-33.203,-38.086,-14.160,0.000
1709299478.129,-14.160,-45.410,-34.180,-15.625,0.000
1709299478.133,-26.855,-40.039,-35.156,-20.996,0.000
1709299478.137,-30.762,-19.043,-42.969,-28.320,0.000
1709299478.141,-26.367,-18.555,-39.062,-36.133,0.000
1709299478.145,-18.066,-37.598,-29.785,-29.785,0.000
1709299478.149,-15.137,-39.062,-31.250,-17.090,0.000
1709299478.153,-40.039,-39.551,-36.133,-16.602,0.000
1709299478.157,-47.852,-39.551,-37.598,-29.785,0.000
1709299478.161,-36.133,-19.531,-48.340,-30.273,0.000
1709299478.165,-28.320,-27.832,-41.992,-24.902,0.000
1709299478.168,-38.086,-51.270,-31.738,-40.039,0.000
1709299478.172,-48.340,-52.246,-31.250,-51.270,0.000
1709299478.176,-52.734,-37.598,-35.645,-50.781,0.000
1709299478.180,-50.293,-25.879,-43.945,-42.480,0.000
1709299478.184,-37.109,-26.367,-46.387,-30.762,0.000
1709299478.188,-39.062,-32.227,-33.691,-41.504,0.000
1709299478.192,-50.781,-44.434,-36.133,-62.012,0.000
1709299478.196,-55.176,-58.105,-41.504,-62.988,0.000
1709299478.200,-48.340,-50.781,-41.992,-54.688,0.000
1709299478.203,-37.109,-47.363,-50.781,-52.246,0.000
1709299478.207,-43.945,-58.594,-46.387,-57.617,0.000
1709299478.211,-55.176,-50.781,-30.762,-72.754,0.000
1709299478.215,-61.523,-42.969,-33.203,-80.566,0.000
1709299478.219,-61.523,-41.504,-39.062,-65.918,0.000
1709299478.223,-47.852,-51.758,-38.574,-47.363,0.000
1709299478.227,-41.016,-73.730,-34.180,-43.457,0.000
1709299478.231,-44.922,-47.852,-29.297,-51.758,0.000
1709299478.235,-46.387,-23.438,-32.715,-56.641,0.000
1709299478.239,-50.293,-32.227,-36.133,-51.270,0.000
1709299478.242,-40.527,-46.875,-32.715,-30.762,0.000
1709299478.246,-25.879,-38.086,-31.738,-22.461,0.000
1709299478.250,-36.621,-28.320,-34.668,-41.992,0.000
1709299478.254,-52.246,-29.297,-36.133,-43.945,0.000
1709299478.258,-42.480,-37.598,-35.645,-30.273,0.000
1709299478.262,-31.738,-48.340,-41.992,-29.785,0.000
1709299478.266,-37.109,-60.547,-44.434,-46.387,0.000
1709299478.270,-47.852,-74.707,-35.156,-54.688,0.000
1709299478.273,-50.293,-47.852,-38.086,-56.641,0.000
1709299478.277,-47.852,-10.742,-41.016,-52.734,0.000
1709299478.281,-46.387,-15.625,-36.621,-42.969,0.000
1709299478.285,-41.504,-31.738,-37.109,-31.250,0.000
1709299478.289,-40.527,-58.105,-42.969,-32.227,0.000
1709299478.293,-50.781,-52.246,-48.828,-50.293,0.000
1709299478.297,-50.293,-33.203,-35.156,-46.387,0.000
1709299478.301,-33.691,-48.340,-42.480,-44.922,0.000
1709299478.305,-25.391,-25.879,-50.293,-42.969,0.000
1709299478.308,-47.363,-19.043,-44.922,-52.246,0.000
1709299478.312,-57.129,-25.391,-37.598,-65.918,0.000
1709299478.316,-53.711,-36.133,-33.203,-59.570,0.000
1709299478.320,-38.574,-50.293,-43.457,-49.316,0.000
1709299478.324,-15.625,-33.203,-43.945,-36.621,0.000
1709299478.328,-11.230,-30.273,-41.016,-28.320,0.000
1709299478.332,-12.695,-41.504,-42.480,-24.902,0.000
1709299478.336,-23.926,-36.133,-36.133,-31.738,0.000
1709299478.340,-21.973,-38.086,-29.785,-29.297,0.000
1709299478.343,-14.160,-38.574,-33.203,-11.719,0.000
1709299478.347,-17.090,-33.203,-31.738,-11.230,0.000
1709299478.351,-25.879,-52.246,-30.273,-28.809,0.000
1709299478.355,-29.785,-57.617,-36.621,-33.203,0.000
1709299478.359,-22.461,-42.480,-31.250,-18.066,0.000
1709299478.363,-24.902,-41.016,-25.879,-2.930,0.000
1709299478.367,-20.996,-39.551,-29.785,-3.906,0.000
1709299478.370,-29.297,-41.992,-26.855,-16.113,0.000
1709299478.374,-40.527,-59.082,-20.508,-17.578,0.000
1709299478.378,-40.527,-60.547,-41.504,-14.160,0.000
1709299478.382,-41.504,-23.926,-56.152,-22.461,0.000
1709299478.386,-39.551,-9.766,-33.691,-31.738,0.000
1709299478.390,-44.434,-21.484,-26.855,-40.527,0.000
1709299478.394,-49.316,-44.922,-34.180,-46.875,0.000
1709299478.398,-48.828,-50.781,-32.227,-42.480,0.000
1709299478.402,-56.152,-36.133,-37.598,-30.762,0.000
1709299478.406,-56.152,-30.762,-39.551,-25.879,0.000
1709299478.410,-49.805,-45.898,-34.180,-36.621,0.000
1709299478.414,-57.129,-35.645,-34.180,-47.363,0.000
1709299478.418,-55.664,-9.766,-28.320,-43.945,0.000
1709299478.421,-38.086,-25.391,-25.879,-27.344,0.000
1709299478.425,-40.039,-56.152,-32.227,-26.855,0.000
1709299478.429,-55.664,-31.738,-36.133,-41.992,0.000
1709299478.433,-63.477,-17.578,-34.668,-49.316,0.000
1709299478.437,-58.594,-31.738,-40.527,-33.691,0.000
1709299478.441,-41.504,-46.387,-40.527,-19.531,0.000
1709299478.445,-44.434,-43.945,-35.156,-28.320,0.000
1709299478.449,-46.387,-30.273,-30.273,-34.180,0.000
1709299478.453,-49.805,-29.297,-26.855,-33.203,0.000
1709299478.457,-51.270,-39.551,-26.367,-21.484,0.000
1709299478.461,-40.527,-52.246,-24.414,-11.230,0.000
1709299478.465,-28.320,-61.035,-24.902,-6.836,0.000
1709299478.468,-24.414,-58.105,-23.438,-1.465,0.000
1709299478.472,-47.363,-44.922,-29.297,-14.160,0.000
1709299478.476,-59.570,-45.410,-25.391,-27.344,0.000
1709299478.480,-43.457,-51.270,-18.555,-17.578,0.000
1709299478.484,-27.344,-46.875,-20.508,-1.465,0.000
1709299478.488,-28.320,-37.598,-25.879,-7.812,0.000
1709299478.492,-36.133,-41.504,-22.949,-18.555,0.000
1709299478.496,-38.574,-51.758,-25.879,-20.020,0.000
1709299478.500,-40.039,-63.477,-31.250,-18.066,0.000
1709299478.504,-40.039,-50.293,-30.762,-30.273,0.000
1709299478.508,-55.664,-31.738,-35.645,-39.062,0.000
1709299478.512,-76.660,-41.992,-40.527,-41.016,0.000
1709299478.516,-74.219,-50.781,-41.992,-47.363,0.000
1709299478.519,-68.848,-57.129,-41.992,-51.758,0.000
1709299478.523,-66.895,-59.570,-44.434,-56.641,0.000
1709299478.527,-62.988,-48.340,-45.410,-58.105,0.000
1709299478.531,-62.988,-34.180,-47.852,-70.312,0.000
1709299478.535,-64.453,-44.434,-40.527,-72.754,0.000
1709299478.539,-70.312,-37.598,-41.016,-64.453,0.000
