timestamps,TP9,AF7,AF8,TP10,Right AUX
1709140580.537,-38.574,-80.078,-20.020,-42.969,0.000
1709140580.541,-52.734,-45.898,-22.461,-40.527,0.000
1709140580.544,-64.453,-33.691,-33.691,-51.758,0.000
1709140580.548,-64.453,-39.062,-41.992,-48.828,0.000
1709140580.552,-57.129,-36.621,-29.297,-50.293,0.000
1709140580.556,-59.570,-41.016,-35.645,-62.012,0.000
1709140580.560,-64.941,-46.875,-54.199,-58.594,0.000
1709140580.564,-62.988,-49.805,-36.133,-56.641,0.000
1709140580.568,-55.664,-50.293,-24.902,-61.523,0.000
1709140580.572,-44.922,-54.199,-31.250,-53.223,0.000
1709140580.576,-47.363,-42.969,-39.551,-39.062,0.000
1709140580.580,-51.270,-38.086,-40.039,-41.992,0.000
1709140580.583,-41.016,-27.344,-34.180,-46.387,0.000
1709140580.587,-32.715,-24.902,-34.180,-47.852,0.000
1709140580.591,-29.297,-33.203,-32.715,-50.781,0.000
1709140580.595,-26.367,-35.156,-32.715,-40.039,0.000
1709140580.599,-13.672,-28.809,-37.598,-36.133,0.000
1709140580.603,-14.648,-25.391,-36.133,-34.180,0.000
1709140580.607,-15.625,-27.344,-43.945,-30.762,0.000
1709140580.611,-19.043,-30.273,-42.969,-31.250,0.000
1709140580.615,-20.996,-31.250,-30.273,-35.156,0.000
1709140580.618,-20.020,-29.785,-27.832,-40.039,0.000
1709140580.622,-16.113,-30.762,-32.715,-34.668,0.000
1709140580.626,-19.531,-35.645,-40.039,-45.898,0.000
1709140580.630,-31.250,-42.969,-34.668,-55.176,0.000
1709140580.634,-35.645,-39.551,-30.762,-52.246,0.000
1709140580.638,-33.203,-39.062,-35.156,-44.434,0.000
1709140580.642,-28.809,-41.992,-35.645,-42.969,0.000
1709140580.646,-29.785,-40.527,-44.922,-47.852,0.000
1709140580.649,-34.180,-50.293,-51.270,-52.246,0.000
1709140580.653,-38.086,-42.969,-43.457,-38.574,0.000
1709140580.657,-45.898,-23.926,-43.457,-32.715,0.000
1709140580.661,-44.434,-26.855,-40.039,-38.574,0.000
1709140580.665,-29.785,-29.785,-37.109,-30.273,0.000
1709140580.669,-33.203,-30.273,-28.320,-24.414,0.000
1709140580.673,-40.527,-44.434,-22.949,-34.180,0.000
1709140580.676,-38.574,-44.922,-22.949,-35.645,0.000
1709140580.680,-46.387,-44.922,-22.461,-37.109,0.000
1709140580.684,-44.434,-45.898,-31.250,-43.945,0.000
1709140580.688,-45.410,-47.363,-40.039,-54.199,0.000
1709140580.692,-52.734,-39.551,-36.133,-60.059,0.000
1709140580.696,-53.711,-41.504,-31.250,-46.387,0.000
1709140580.700,-50.293,-45.410,-36.621,-41.016,0.000
1709140580.704,-47.852,-33.203,-46.387,-39.062,0.000
1709140580.708,-45.898,-33.691,-39.551,-44.922,0.000
1709140580.712,-38.086,-34.180,-26.855,-41.992,0.000
1709140580.716,-38.086,-29.297,-26.855,-31.250,0.000
1709140580.719,-43.945,-50.781,-31.250,-31.738,0.000
1709140580.724,-39.551,-66.895,-32.715,-34.180,0.000
1709140580.727,-41.992,-47.363,-39.062,-42.969,0.000
1709140580.731,-50.293,-35.645,-41.504,-57.129,0.000
1709140580.735,-49.316,-33.691,-43.945,-61.035,0.000
1709140580.739,-43.945,-21.484,-49.316,-51.758,0.000
1709140580.743,-36.621,-32.227,-36.621,-36.133,0.000
1709140580.747,-37.598,-39.062,-38.574,-36.133,0.000
1709140580.751,-38.086,-39.551,-39.551,-40.039,0.000
1709140580.755,-41.016,-50.293,-34.668,-38.574,0.000
1709140580.759,-40.039,-48.340,-27.832,-35.156,0.000
1709140580.763,-37.598,-39.062,-26.367,-32.715,0.000
1709140580.767,-43.457,-28.809,-40.039,-37.109,0.000
1709140580.771,-45.410,-32.715,-43.457,-52.734,0.000
1709140580.774,-33.203,-40.527,-42.969,-57.617,0.000
1709140580.778,-36.621,-25.391,-47.852,-54.688,0.000
1709140580.782,-66.895,-16.113,-57.129,-60.059,0.000
1709140580.786,-63.477,-21.484,-47.852,-61.035,0.000
1709140580.790,-55.176,-40.039,-42.480,-61.523,0.000
1709140580.794,-66.406,-47.852,-52.246,-58.594,0.000
1709140580.798,-58.594,-23.926,-55.176,-49.316,0.000
1709140580.802,-35.645,-19.043,-44.922,-37.598,0.000
1709140580.806,-32.715,-42.969,-38.574,-41.504,0.000
1709140580.810,-46.387,-49.805,-48.828,-59.570,0.000
1709140580.814,-48.340,-39.551,-49.805,-56.641,0.000
1709140580.818,-41.016,-27.832,-48.828,-34.180,0.000
1709140580.821,-27.344,-33.203,-43.945,-19.531,0.000
1709140580.825,-23.438,-46.875,-40.039,-39.551,0.000
1709140580.829,-30.273,-35.645,-49.316,-49.316,0.000
1709140580.833,-32.227,-22.461,-47.852,-32.715,0.000
1709140580.837,-34.180,-24.414,-39.551,-20.996,0.000
1709140580.841,-32.715,-30.762,-41.016,-22.461,0.000
1709140580.845,-29.785,-46.875,-50.293,-26.367,0.000
1709140580.849,-34.180,-50.293,-45.898,-27.344,0.000
1709140580.853,-48.828,-42.969,-36.621,-33.691,0.000
1709140580.857,-54.688,-49.805,-39.551,-39.062,0.000
1709140580.861,-47.363,-61.523,-37.598,-41.016,0.000
1709140580.864,-47.363,-70.801,-37.109,-47.363,0.000
1709140580.868,-64.941,-61.035,-51.270,-52.246,0.000
1709140580.872,-78.613,-49.805,-50.781,-58.105,0.000
1709140580.876,-73.730,-47.852,-40.527,-62.500,0.000
1709140580.880,-54.199,-32.715,-41.992,-55.176,0.000
1709140580.884,-45.898,-29.785,-44.434,-44.922,0.000
1709140580.888,-43.945,-37.598,-43.457,-49.805,0.000
1709140580.892,-45.898,-33.203,-48.340,-50.781,0.000
1709140580.896,-48.340,-34.180,-48.828,-43.945,0.000
1709140580.900,-41.016,-37.598,-39.062,-49.805,0.000
1709140580.903,-39.062,-29.785,-41.992,-54.688,0.000
1709140580.907,-47.363,-36.621,-43.945,-48.828,0.000
1709140580.911,-46.387,-55.664,-44.434,-36.621,0.000
1709140580.915,-47.852,-53.711,-46.387,-43.945,0.000
1709140580.919,-47.852,-44.434,-35.645,-51.270,0.000
1709140580.923,-46.387,-42.969,-34.668,-46.387,0.000
1709140580.927,-51.270,-53.223,-33.691,-42.969,0.000
1709140580.931,-53.711,-50.781,-36.133,-52.734,0.000
1709140580.935,-51.758,-37.109,-41.992,-57.617,0.000
1709140580.939,-41.504,-31.738,-44.434,-45.410,0.000
1709140580.942,-29.297,-30.762,-46.387,-47.852,0.000
1709140580.946,-25.391,-27.344,-41.992,-46.387,0.000
1709140580.950,-32.227,-29.297,-40.527,-35.156,0.000
1709140580.954,-23.926,-37.598,-38.574,-32.715,0.000
1709140580.958,-19.531,-39.551,-41.504,-29.297,0.000
1709140580.962,-31.250,-41.992,-37.598,-38.086,0.000
1709140580.966,-31.738,-54.688,-32.715,-37.109,0.000
1709140580.970,-33.203,-62.012,-38.574,-34.180,0.000
1709140580.974,-33.203,-46.875,-35.645,-33.691,0.000
1709140580.977,-27.344,-32.715,-30.273,-21.973,0.000
1709140580.981,-16.602,-28.809,-28.809,-16.113,0.000
1709140580.985,-29.785,-27.832,-33.203,-21.973,0.000
1709140580.989,-41.504,-41.016,-40.527,-29.297,0.000
1709140580.993,-37.598,-57.129,-38.574,-26.367,0.000
1709140580.997,-34.668,-53.223,-30.762,-26.855,0.000
1709140581.001,-38.574,-45.898,-31.738,-38.086,0.000
1709140581.005,-44.434,-40.039,-35.645,-47.852,0.000
1709140581.008,-47.852,-52.734,-38.574,-56.152,0.000
1709140581.012,-49.316,-64.453,-47.852,-57.617,0.000
1709140581.016,-55.176,-51.270,-47.852,-50.293,0.000
1709140581.020,-55.176,-35.645,-31.738,-49.805,0.000
1709140581.024,-45.410,-24.902,-36.133,-52.734,0.000
1709140581.028,-36.133,-28.320,-49.316,-47.363,0.000
1709140581.032,-51.758,-25.391,-41.016,-54.688,0.000
1709140581.036,-58.105,-17.578,-39.551,-59.570,0.000
1709140581.040,-49.316,-28.809,-35.645,-55.664,0.000
1709140581.044,-45.410,-41.504,-36.133,-52.734,0.000
1709140581.048,-37.109,-36.621,-42.969,-47.852,0.000
1709140581.052,-35.645,-36.621,-38.574,-48.828,0.000
1709140581.056,-24.414,-47.363,-33.203,-46.875,0.000
1709140581.060,-13.184,-39.062,-38.574,-38.086,0.000
1709140581.063,-15.625,-38.086,-41.992,-33.203,0.000
1709140581.067,-21.484,-51.270,-38.086,-42.969,0.000
1709140581.071,-22.461,-61.523,-37.598,-47.363,0.000
1709140581.075,-27.832,-55.176,-44.434,-40.039,0.000
1709140581.079,-30.273,-33.203,-48.340,-34.668,0.000
1709140581.083,-27.344,-24.902,-45.410,-30.273,0.000
1709140581.087,-27.832,-45.898,-41.992,-22.461,0.000
1709140581.091,-30.762,-36.621,-36.133,-17.578,0.000
1709140581.095,-28.320,-15.625,-39.062,-30.273,0.000
1709140581.099,-38.086,-27.832,-41.992,-29.297,0.000
1709140581.103,-42.969,-27.344,-41.016,-17.578,0.000
1709140581.107,-32.715,-18.555,-40.527,-20.996,0.000
1709140581.111,-34.180,-34.180,-34.668,-22.461,0.000
1709140581.114,-27.832,-50.293,-22.949,-20.020,0.000
1709140581.118,-18.555,-43.457,-20.508,-18.066,0.000
1709140581.122,-16.113,-43.945,-28.809,-13.184,0.000
1709140581.126,-17.090,-45.898,-27.344,-16.602,0.000
1709140581.130,-24.902,-56.641,-29.785,-25.391,0.000
1709140581.134,-34.668,-46.387,-37.109,-20.020,0.000
1709140581.138,-44.922,-16.113,-35.645,-25.391,0.000
1709140581.142,-47.363,-18.555,-34.180,-30.273,0.000
1709140581.146,-43.945,-27.832,-42.480,-34.668,0.000
1709140581.150,-43.457,-26.855,-45.898,-40.527,0.000
1709140581.154,-39.062,-25.391,-33.691,-34.180,0.000
1709140581.157,-35.156,-32.227,-29.785,-36.621,0.000
1709140581.161,-32.227,-48.828,-28.809,-40.527,0.000
1709140581.165,-26.367,-46.387,-23.438,-36.621,0.000
1709140581.169,-28.320,-36.621,-28.809,-47.363,0.000
1709140581.173,-28.809,-24.414,-34.180,-48.340,0.000
1709140581.177,-23.438,-21.973,-32.715,-35.156,0.000
1709140581.181,-13.184,-18.066,-40.039,-28.809,0.000
1709140581.185,-19.043,-20.508,-39.062,-34.180,0.000
1709140581.189,-27.832,-18.555,-38.574,-41.504,0.000
1709140581.193,-23.926,-20.020,-47.852,-40.039,0.000
1709140581.197,-21.973,-31.738,-37.598,-28.809,0.000
1709140581.200,-31.738,-27.832,-30.762,-34.180,0.000
1709140581.204,-26.855,-24.902,-37.109,-40.039,0.000
1709140581.208,-15.137,-29.785,-37.109,-37.109,0.000
1709140581.212,-19.531,-27.344,-34.668,-31.738,0.000
1709140581.216,-18.555,-40.039,-34.668,-22.461,0.000
1709140581.220,-27.832,-58.105,-45.898,-29.297,0.000
1709140581.224,-32.715,-39.062,-46.875,-29.297,0.000
1709140581.228,-24.414,-35.645,-39.062,-32.715,0.000
1709140581.232,-33.691,-47.363,-44.434,-41.992,0.000
1709140581.236,-43.457,-29.785,-52.246,-39.551,0.000
1709140581.239,-39.062,-29.297,-55.664,-42.480,0.000
1709140581.243,-35.156,-48.340,-52.734,-50.293,0.000
1709140581.247,-40.039,-46.875,-46.387,-46.875,0.000
1709140581.251,-40.527,-32.227,-38.574,-49.316,0.000
1709140581.255,-42.480,-32.715,-36.133,-58.594,0.000
1709140581.259,-47.363,-34.180,-34.668,-41.504,0.000
1709140581.263,-43.457,-47.852,-32.227,-36.621,0.000
1709140581.267,-41.016,-62.012,-35.156,-43.945,0.000
1709140581.271,-41.504,-48.340,-43.457,-38.574,0.000
1709140581.275,-42.969,-31.738,-54.199,-38.086,0.000
1709140581.279,-41.992,-33.691,-51.758,-40.039,0.000
1709140581.282,-32.227,-46.387,-41.016,-31.738,0.000
1709140581.286,-23.926,-47.363,-41.016,-38.574,0.000
1709140581.290,-27.344,-29.297,-44.922,-45.410,0.000
1709140581.294,-23.438,-25.879,-39.551,-40.527,0.000
1709140581.298,-23.438,-33.691,-38.574,-30.273,0.000
1709140581.302,-20.996,-33.203,-43.945,-29.297,0.000
1709140581.306,-22.949,-45.410,-44.922,-43.457,0.000
1709140581.310,-24.902,-41.992,-35.645,-37.109,0.000
1709140581.314,-25.391,-49.805,-33.691,-27.832,0.000
1709140581.318,-32.715,-47.363,-29.297,-29.785,0.000
1709140581.321,-35.156,-21.484,-31.250,-34.668,0.000
1709140581.325,-35.645,-19.531,-33.691,-34.668,0.000
1709140581.329,-29.297,-43.457,-29.297,-25.879,0.000
1709140581.333,-18.066,-58.105,-37.598,-23.438,0.000
1709140581.337,-28.320,-44.922,-47.852,-30.762,0.000
1709140581.341,-36.133,-20.020,-44.922,-35.156,0.000
1709140581.345,-38.574,-20.508,-43.457,-27.344,0.000
1709140581.349,-36.133,-44.922,-56.152,-21.973,0.000
1709140581.352,-26.367,-52.246,-51.270,-17.578,0.000
1709140581.356,-32.715,-46.875,-33.691,-16.113,0.000
1709140581.360,-38.086,-41.992,-28.809,-19.043,0.000
1709140581.364,-29.785,-30.762,-31.250,-20.020,0.000
1709140581.368,-38.086,-25.879,-41.016,-35.156,0.000
1709140581.372,-42.969,-35.156,-46.875,-39.062,0.000
1709140581.376,-31.250,-21.484,-50.293,-39.062,0.000
1709140581.380,-26.855,-14.648,-55.176,-48.828,0.000
1709140581.384,-30.762,-27.344,-56.641,-48.828,0.000
1709140581.388,-28.320,-21.973,-56.641,-43.945,0.000
1709140581.392,-29.785,-24.902,-60.059,-40.527,0.000
1709140581.395,-34.180,-25.391,-58.105,-36.621,0.000
1709140581.399,-29.785,5.859,-63.965,-35.645,0.000
1709140581.403,-24.902,20.508,-69.824,-41.016,0.000
1709140581.407,-18.066,9.277,-71.777,-46.387,0.000
1709140581.411,-20.020,0.488,-80.078,-48.340,0.000
1709140581.415,-20.996,14.160,-80.566,-49.805,0.000
1709140581.419,-12.695,28.809,-81.055,-50.781,0.000
1709140581.423,-22.949,31.738,-77.637,-57.129,0.000
1709140581.426,0.000,34.180,-76.660,-57.129,0.000
1709140581.430,0.000,32.715,-82.031,-59.570,0.000
1709140581.434,0.000,29.785,-81.543,-64.941,0.000
1709140581.438,0.000,28.320,-79.590,-58.594,0.000
1709140581.442,0.000,15.625,-81.055,-54.199,0.000
1709140581.446,0.000,17.090,-82.031,-49.316,0.000
1709140581.450,0.000,32.227,-82.031,-62.500,0.000
1709140581.454,0.000,35.645,-81.055,-62.988,0.000
1709140581.458,0.000,32.227,-81.055,-56.152,0.000
1709140581.462,0.000,35.156,-89.844,-56.152,0.000
1709140581.465,0.000,38.574,-94.727,-63.477,0.000
1709140581.469,0.000,28.809,-97.168,-70.801,0.000
1709140581.473,-27.832,12.207,-96.680,-56.641,0.000
1709140581.477,-27.832,6.348,-83.496,-52.734,0.000
1709140581.481,-30.273,18.555,-85.449,-52.246,0.000
1709140581.485,-21.484,40.039,-81.543,-47.363,0.000
1709140581.489,-6.348,38.086,-70.312,-34.180,0.000
1709140581.493,-22.949,30.762,-77.148,-25.879,0.000
1709140581.497,-27.832,33.203,-89.355,-38.086,0.000
1709140581.501,-12.207,30.273,-86.914,-42.480,0.000
1709140581.505,-14.648,32.227,-78.613,-36.133,0.000
1709140581.509,-10.254,20.020,-66.406,-19.043,0.000
1709140581.513,-7.812,5.371,-64.941,-12.207,0.000
1709140581.516,-11.719,15.625,-72.754,-20.996,0.000
1709140581.520,-15.625,28.809,-73.730,-30.273,0.000
1709140581.524,-14.160,26.367,-70.312,-36.621,0.000
1709140581.528,-16.113,14.160,-73.242,-35.156,0.000
1709140581.532,-26.367,-5.371,-76.660,-34.668,0.000
1709140581.536,-27.832,3.418,-72.266,-40.039,0.000
1709140581.540,-20.020,5.371,-65.918,-36.133,0.000
1709140581.544,-16.113,-5.859,-67.383,-33.691,0.000
1709140581.548,-20.996,-6.348,-68.359,-34.180,0.000
1709140581.552,-5.859,-0.488,-58.594,-28.320,0.000
1709140581.556,-13.672,14.160,-58.594,-35.156,0.000
1709140581.560,-41.992,6.348,-60.547,-47.852,0.000
1709140581.563,-40.527,-3.906,-60.547,-48.828,0.000
1709140581.567,-34.668,-0.977,-62.500,-43.457,0.000
1709140581.571,-27.832,-9.766,-54.199,-34.180,0.000
1709140581.575,-31.738,-17.578,-55.664,-31.250,0.000
1709140581.579,-41.504,-18.555,-57.617,-24.902,0.000
1709140581.583,-40.527,-31.250,-54.688,-26.855,0.000
1709140581.587,-38.574,-17.578,-57.617,-40.527,0.000
1709140581.591,-36.133,-18.555,-54.199,-50.781,0.000
1709140581.595,-33.203,-23.926,-51.758,-56.641,0.000
1709140581.599,-32.227,-5.859,-55.664,-44.434,0.000
1709140581.603,-31.738,3.906,-54.688,-48.828,0.000
1709140581.606,-27.344,-13.672,-46.875,-50.781,0.000
1709140581.610,-28.320,-22.461,-44.922,-46.387,0.000
1709140581.614,-42.480,-17.090,-55.176,-46.875,0.000
1709140581.618,-31.738,-33.203,-54.688,-38.574,0.000
1709140581.622,-27.344,-35.156,-46.387,-28.320,0.000
1709140581.626,-41.992,-19.043,-49.805,-42.969,0.000
1709140581.630,-42.480,-16.113,-51.758,-47.852,0.000
1709140581.634,-38.086,-17.090,-44.922,-31.738,0.000
1709140581.638,-36.621,-14.160,-41.992,-39.062,0.000
1709140581.642,-26.855,-25.879,-42.480,-40.039,0.000
1709140581.646,-16.602,-38.086,-39.062,-30.273,0.000
1709140581.649,-22.461,-31.738,-42.969,-41.992,0.000
1709140581.653,-37.598,-23.926,-45.898,-49.316,0.000
1709140581.657,-44.434,-30.273,-44.434,-41.016,0.000
1709140581.661,-45.898,-42.480,-50.781,-41.504,0.000
1709140581.665,-42.969,-38.574,-46.387,-46.387,0.000
1709140581.669,-40.039,-29.297,-35.645,-51.758,0.000
1709140581.673,-36.621,-25.391,-41.016,-56.152,0.000
1709140581.677,-47.852,-28.320,-41.016,-47.852,0.000
1709140581.681,-41.992,-32.227,-42.480,-45.410,0.000
1709140581.685,-28.809,-22.949,-51.758,-42.969,0.000
1709140581.688,-40.039,-31.738,-44.434,-42.969,0.000
1709140581.692,-50.293,-32.227,-36.621,-53.223,0.000
1709140581.696,-45.898,-32.715,-32.715,-46.875,0.000
1709140581.700,-41.016,-32.715,-39.062,-48.340,0.000
1709140581.704,-35.156,-35.645,-42.480,-57.129,0.000
1709140581.708,-43.457,-45.410,-42.480,-58.594,0.000
1709140581.712,-43.457,-32.715,-48.340,-56.152,0.000
1709140581.716,-40.039,-42.480,-49.316,-46.875,0.000
1709140581.720,-40.039,-52.246,-43.457,-44.434,0.000
1709140581.723,-34.668,-35.156,-42.480,-53.711,0.000
1709140581.727,-30.273,-40.039,-46.875,-53.711,0.000
1709140581.731,-31.738,-30.273,-42.969,-48.828,0.000
1709140581.735,-25.391,-20.508,-38.574,-49.805,0.000
1709140581.739,-29.297,-26.367,-37.598,-40.527,0.000
1709140581.743,-26.855,-29.297,-42.480,-31.738,0.000
1709140581.747,-20.020,-26.367,-45.410,-41.992,0.000
1709140581.751,-15.137,-20.020,-46.875,-49.316,0.000
1709140581.754,-14.160,-25.879,-42.480,-40.039,0.000
1709140581.758,-21.973,-35.156,-38.574,-27.344,0.000
1709140581.762,-17.090,-34.668,-36.621,-28.809,0.000
1709140581.766,-25.391,-34.180,-34.180,-34.668,0.000
1709140581.770,-39.062,-45.898,-29.785,-42.969,0.000
1709140581.774,-41.016,-47.363,-27.344,-39.062,0.000
1709140581.778,-48.828,-37.109,-33.691,-38.574,0.000
1709140581.782,-52.246,-21.973,-37.598,-52.734,0.000
1709140581.786,-47.852,-9.277,-39.551,-62.500,0.000
1709140581.790,-37.598,-10.742,-42.969,-60.547,0.000
1709140581.793,-40.039,-20.020,-38.086,-42.480,0.000
1709140581.797,-42.480,-27.832,-41.504,-33.203,0.000
1709140581.802,-38.574,-21.484,-48.340,-37.598,0.000
1709140581.805,-40.039,-31.738,-39.551,-44.922,0.000
1709140581.809,-41.504,-43.945,-31.738,-50.781,0.000
1709140581.813,-51.270,-41.016,-41.016,-46.875,0.000
1709140581.817,-54.199,-41.504,-46.875,-50.781,0.000
1709140581.821,-48.828,-40.527,-34.668,-52.246,0.000
1709140581.825,-42.480,-47.852,-22.949,-45.898,0.000
1709140581.829,-44.434,-32.227,-28.320,-48.828,0.000
1709140581.833,-48.340,-25.391,-34.180,-49.316,0.000
1709140581.837,-55.664,-35.645,-40.527,-40.527,0.000
1709140581.841,-59.570,-27.344,-47.363,-38.574,0.000
1709140581.845,-50.781,-27.832,-48.340,-55.664,0.000
1709140581.849,-46.875,-41.016,-50.293,-70.801,0.000
1709140581.853,-48.340,-41.016,-42.480,-62.500,0.000
1709140581.856,-47.363,-26.855,-37.598,-53.711,0.000
1709140581.860,-53.711,-26.855,-40.039,-56.152,0.000
1709140581.864,-50.781,-48.340,-36.621,-60.547,0.000
1709140581.868,-41.016,-43.457,-28.320,-57.617,0.000
1709140581.872,-41.504,-23.926,-31.738,-45.410,0.000
1709140581.876,-55.176,-22.461,-49.805,-47.363,0.000
1709140581.880,-50.293,-24.902,-49.316,-43.945,0.000
1709140581.884,-33.203,-49.316,-38.574,-24.902,0.000
1709140581.888,-39.062,-65.430,-32.715,-30.762,0.000
1709140581.892,-42.480,-49.316,-28.320,-48.340,0.000
1709140581.896,-39.551,-20.996,-31.250,-52.734,0.000
1709140581.900,-34.668,-19.043,-37.109,-41.504,0.000
1709140581.903,-24.902,-38.574,-39.062,-37.598,0.000
1709140581.907,-36.133,-33.203,-39.062,-43.945,0.000
1709140581.911,-40.527,-41.504,-32.715,-43.945,0.000
1709140581.915,-39.551,-52.246,-33.203,-43.457,0.000
1709140581.919,-41.504,-35.156,-43.945,-35.645,0.000
1709140581.923,-39.551,-28.809,-42.969,-36.621,0.000
1709140581.927,-33.691,-30.762,-29.785,-33.691,0.000
1709140581.931,-23.438,-33.203,-28.320,-23.438,0.000
1709140581.935,-34.180,-36.133,-32.227,-22.461,0.000
1709140581.939,-31.250,-33.691,-25.391,-20.020,0.000
1709140581.943,-27.344,-34.180,-25.879,-30.273,0.000
1709140581.946,-36.133,-43.945,-32.715,-42.969,0.000
1709140581.950,-29.297,-42.969,-35.156,-42.480,0.000
1709140581.954,-21.973,-47.852,-31.250,-40.527,0.000
1709140581.958,-45.410,-52.246,-41.016,-48.828,0.000
1709140581.962,-52.246,-41.992,-50.293,-58.594,0.000
1709140581.966,-36.621,-41.016,-49.805,-58.105,0.000
1709140581.970,-41.992,-48.340,-54.199,-49.316,0.000
1709140581.974,-46.387,-45.410,-39.062,-34.668,0.000
1709140581.978,-43.945,-33.203,-28.320,-33.691,0.000
1709140581.982,-38.086,-39.062,-31.738,-33.691,0.000
1709140581.986,-39.551,-39.551,-26.367,-47.852,0.000
1709140581.989,-42.969,-36.133,-30.273,-54.688,0.000
1709140581.993,-36.133,-55.664,-30.762,-46.387,0.000
1709140581.997,-28.809,-67.871,-24.414,-46.875,0.000
1709140582.001,-34.180,-48.340,-25.391,-42.969,0.000
1709140582.005,-45.898,-30.273,-28.320,-48.340,0.000
1709140582.009,-44.922,-28.809,-34.668,-51.270,0.000
1709140582.013,-47.852,-39.551,-41.504,-46.875,0.000
1709140582.017,-47.852,-48.340,-42.480,-40.527,0.000
1709140582.021,-45.410,-31.250,-35.156,-35.645,0.000
1709140582.025,-45.898,-27.832,-36.133,-39.551,0.000
1709140582.028,-37.109,-38.086,-35.156,-37.598,0.000
1709140582.032,-30.273,-42.480,-34.180,-42.969,0.000
1709140582.036,-34.180,-51.758,-34.180,-30.762,0.000
1709140582.040,-39.551,-51.270,-26.855,-30.273,0.000
1709140582.044,-35.156,-46.875,-24.414,-37.598,0.000
1709140582.048,-34.180,-50.293,-23.438,-35.156,0.000
1709140582.052,-51.270,-36.133,-28.809,-42.480,0.000
1709140582.056,-60.547,-35.645,-41.504,-40.039,0.000
1709140582.060,-41.504,-50.293,-28.809,-31.738,0.000
1709140582.064,-35.156,-43.945,-22.949,-25.879,0.000
1709140582.067,-42.969,-32.715,-29.785,-34.180,0.000
1709140582.071,-36.621,-36.133,-18.555,-32.227,0.000
1709140582.075,-31.738,-47.852,-20.996,-34.180,0.000
1709140582.079,-40.527,-46.387,-34.180,-45.898,0.000
1709140582.083,-42.969,-47.852,-32.715,-43.945,0.000
1709140582.087,-31.250,-58.105,-19.043,-30.273,0.000
1709140582.091,-33.203,-43.945,-21.973,-29.785,0.000
1709140582.095,-48.340,-38.574,-33.691,-46.875,0.000
1709140582.099,-52.734,-37.109,-29.785,-39.551,0.000
1709140582.102,-46.875,-29.785,-29.297,-30.762,0.000
1709140582.106,-38.086,-38.574,-33.203,-33.203,0.000
1709140582.110,-40.527,-43.457,-27.832,-30.762,0.000
1709140582.114,-40.527,-30.762,-27.344,-33.691,0.000
1709140582.118,-29.297,-28.320,-25.391,-35.645,0.000
1709140582.122,-41.992,-32.715,-20.996,-41.504,0.000
1709140582.126,-47.363,-39.551,-23.438,-43.457,0.000
1709140582.130,-35.156,-49.805,-24.902,-33.203,0.000
1709140582.134,-33.203,-39.062,-27.344,-32.715,0.000
1709140582.138,-30.762,-34.180,-24.902,-32.715,0.000
1709140582.142,-42.480,-34.668,-26.367,-33.691,0.000
1709140582.146,-48.340,-28.320,-29.785,-39.551,0.000
1709140582.150,-40.527,-48.340,-29.785,-40.039,0.000
1709140582.154,-37.598,-67.871,-24.414,-26.855,0.000
1709140582.157,-35.156,-54.688,-30.273,-29.297,0.000
1709140582.161,-27.832,-39.062,-31.738,-32.715,0.000
1709140582.165,-17.578,-45.898,-36.133,-34.180,0.000
1709140582.169,-21.973,-52.734,-37.598,-41.016,0.000
1709140582.173,-40.527,-21.973,-21.973,-42.480,0.000
1709140582.177,-35.156,1.953,-13.184,-41.016,0.000
1709140582.181,-18.555,-7.324,-12.207,-35.156,0.000
1709140582.185,-30.273,-27.832,-20.508,-25.391,0.000
1709140582.189,-29.297,-34.180,-22.949,-24.902,0.000
1709140582.193,-23.926,-30.273,-15.625,-27.832,0.000
1709140582.197,-24.902,-38.086,-22.949,-22.949,0.000
1709140582.201,-20.996,-61.523,-30.762,-25.391,0.000
1709140582.205,-21.973,-64.941,-19.531,-20.020,0.000
1709140582.209,-37.109,-47.852,-17.578,-32.715,0.000
1709140582.212,-42.480,-29.297,-25.391,-37.598,0.000
1709140582.216,-44.434,-22.461,-33.691,-29.297,0.000
1709140582.220,-46.875,-28.320,-37.598,-45.410,0.000
1709140582.224,-37.109,-12.207,-29.297,-54.199,0.000
1709140582.228,-47.363,-13.672,-29.297,-56.152,0.000
1709140582.232,-45.898,-33.691,-38.086,-53.711,0.000
1709140582.236,-29.785,-52.246,-39.551,-36.621,0.000
1709140582.240,-38.086,-60.059,-29.297,-37.109,0.000
1709140582.244,-32.715,-56.641,-21.973,-43.457,0.000
1709140582.248,-23.926,-39.551,-27.832,-44.922,0.000
1709140582.252,-45.410,-30.762,-28.320,-46.875,0.000
1709140582.256,-45.410,-44.922,-31.250,-41.992,0.000
1709140582.259,-35.645,-37.598,-30.762,-28.809,0.000
1709140582.263,-39.062,-24.902,-37.109,-36.621,0.000
1709140582.267,-35.156,-36.621,-46.387,-42.480,0.000
1709140582.271,-36.621,-43.457,-39.062,-45.898,0.000
1709140582.275,-39.551,-53.223,-36.621,-46.875,0.000
1709140582.279,-33.203,-64.941,-42.480,-33.691,0.000
1709140582.283,-30.762,-60.059,-41.016,-33.203,0.000
1709140582.287,-26.855,-51.758,-29.785,-41.504,0.000
1709140582.291,-20.508,-24.902,-23.438,-39.551,0.000
1709140582.295,-24.902,-33.203,-31.738,-37.598,0.000
1709140582.299,-24.902,-39.551,-30.762,-47.363,0.000
1709140582.303,-27.832,-37.598,-24.414,-39.551,0.000
1709140582.306,-32.715,-47.852,-31.250,-22.461,0.000
1709140582.310,-21.973,-51.758,-29.785,-23.438,0.000
1709140582.314,-29.297,-38.574,-21.484,-36.621,0.000
1709140582.318,-33.203,-32.715,-27.832,-46.875,0.000
1709140582.322,-34.180,-33.691,-24.414,-49.316,0.000
1709140582.326,-36.133,-37.598,-19.531,-53.711,0.000
1709140582.330,-35.156,-42.969,-26.367,-58.105,0.000
1709140582.334,-51.270,-39.551,-25.879,-59.570,0.000
1709140582.338,-53.223,-44.434,-25.391,-55.176,0.000
1709140582.342,-51.270,-35.156,-28.809,-54.199,0.000
1709140582.346,-45.898,-40.039,-21.973,-58.105,0.000
1709140582.349,-40.039,-48.340,-20.996,-42.969,0.000
1709140582.353,-56.152,-48.828,-36.621,-44.922,0.000
1709140582.357,-56.152,-39.551,-36.621,-52.246,0.000
1709140582.361,-40.527,-25.879,-26.367,-46.387,0.000
1709140582.365,-37.598,-30.273,-27.344,-50.293,0.000
1709140582.369,-46.875,-38.086,-23.926,-58.105,0.000
1709140582.373,-59.082,-38.574,-30.762,-58.594,0.000
1709140582.377,-50.293,-47.852,-35.156,-53.711,0.000
1709140582.381,-47.852,-41.016,-33.691,-50.781,0.000
1709140582.385,-62.012,-32.715,-45.898,-54.688,0.000
1709140582.388,-54.199,-36.133,-45.410,-58.594,0.000
1709140582.392,-44.922,-45.410,-37.598,-49.316,0.000
1709140582.396,-52.734,-51.270,-29.297,-41.504,0.000
1709140582.400,-53.223,-30.762,-24.902,-49.805,0.000
1709140582.404,-47.363,-25.391,-29.297,-53.711,0.000
1709140582.408,-43.457,-40.527,-33.691,-41.504,0.000
1709140582.412,-30.762,-39.062,-43.945,-30.762,0.000
1709140582.416,-25.879,-52.246,-38.574,-29.785,0.000
1709140582.420,-41.992,-56.641,-28.320,-34.668,0.000
1709140582.423,-43.945,-30.273,-29.785,-41.504,0.000
1709140582.427,-25.879,-37.598,-30.762,-41.016,0.000
1709140582.431,-30.273,-64.453,-29.785,-40.039,0.000
1709140582.435,-36.621,-42.969,-29.297,-38.086,0.000
1709140582.439,-34.668,-34.180,-33.691,-30.762,0.000
1709140582.443,-39.062,-41.504,-32.227,-36.133,0.000
1709140582.447,-28.320,-31.250,-35.156,-43.457,0.000
1709140582.451,-19.043,-41.016,-40.527,-35.645,0.000
1709140582.455,-26.367,-66.406,-39.551,-36.621,0.000
1709140582.458,-24.414,-52.734,-38.574,-42.480,0.000
1709140582.462,-20.996,-43.457,-38.086,-41.504,0.000
1709140582.466,-18.555,-41.016,-41.992,-48.340,0.000
1709140582.470,-17.578,-30.762,-37.598,-54.688,0.000
1709140582.474,-32.227,-46.875,-27.344,-44.922,0.000
1709140582.478,-34.180,-46.875,-26.367,-36.133,0.000
1709140582.482,-28.320,-29.297,-31.250,-46.387,0.000
1709140582.486,-40.527,-30.762,-42.480,-46.875,0.000
1709140582.490,-56.641,-35.645,-45.898,-44.922,0.000
1709140582.494,-60.059,-32.715,-35.645,-48.340,0.000
1709140582.498,-55.664,-38.086,-30.273,-48.828,0.000
1709140582.501,-50.293,-45.898,-41.992,-48.828,0.000
1709140582.505,-41.504,-62.988,-45.410,-49.316,0.000
1709140582.509,-37.598,-52.734,-35.156,-43.945,0.000
1709140582.513,-36.621,-30.762,-30.762,-36.133,0.000
1709140582.517,-33.203,-27.832,-34.180,-30.273,0.000
1709140582.521,-34.180,-23.926,-30.762,-37.109,0.000
1709140582.525,-38.574,-35.645,-33.203,-53.711,0.000
1709140582.529,-46.387,-42.480,-46.387,-45.410,0.000
1709140582.532,-53.711,-39.551,-37.598,-37.109,0.000
1709140582.536,-45.898,-37.109,-32.227,-38.574,0.000
1709140582.540,-27.832,-39.062,-31.738,-32.715,0.000
1709140582.544,-22.461,-73.730,-28.809,-30.762,0.000
1709140582.548,-35.156,-62.500,-35.156,-45.898,0.000
1709140582.552,-39.062,-19.043,-35.645,-46.875,0.000
1709140582.556,-40.527,-20.508,-34.668,-34.668,0.000
1709140582.559,-41.992,-43.945,-39.551,-35.156,0.000
1709140582.563,-48.340,-34.668,-43.457,-47.852,0.000
1709140582.567,-55.664,-22.461,-48.340,-55.176,0.000
1709140582.571,-52.734,-32.227,-54.199,-45.898,0.000
1709140582.575,-50.781,-36.621,-44.922,-40.039,0.000
1709140582.579,-43.945,-40.039,-39.551,-42.480,0.000
1709140582.583,-34.180,-43.945,-42.969,-44.434,0.000
1709140582.587,-42.480,-59.570,-39.062,-33.691,0.000
1709140582.591,-48.340,-58.594,-42.480,-36.133,0.000
1709140582.595,-48.828,-28.320,-42.969,-42.969,0.000
1709140582.599,-45.898,-27.344,-38.574,-34.668,0.000
1709140582.603,-41.992,-28.809,-34.668,-42.480,0.000
1709140582.607,-38.086,-19.531,-34.668,-50.293,0.000
1709140582.610,-41.992,-21.973,-40.527,-48.340,0.000
1709140582.614,-41.016,-33.203,-30.762,-40.039,0.000
1709140582.618,-36.621,-37.109,-27.344,-31.250,0.000
1709140582.622,-28.809,-34.180,-33.691,-29.785,0.000
1709140582.626,-26.367,-42.969,-33.203,-27.832,0.000
1709140582.630,-31.250,-43.945,-36.621,-31.250,0.000
1709140582.634,-30.273,-43.945,-39.062,-29.297,0.000
1709140582.638,-30.273,-53.711,-32.227,-27.344,0.000
1709140582.642,-38.086,-43.945,-30.273,-30.273,0.000
1709140582.646,-41.992,-28.320,-28.320,-31.738,0.000
1709140582.650,-46.387,-41.016,-36.133,-36.621,0.000
1709140582.653,-50.293,-33.203,-42.480,-46.387,0.000
1709140582.657,-49.316,-24.902,-30.762,-47.363,0.000
1709140582.661,-45.410,-40.527,-25.391,-43.457,0.000
1709140582.665,-42.969,-48.340,-28.320,-37.598,0.000
1709140582.669,-35.645,-45.410,-27.832,-33.203,0.000
1709140582.673,-31.250,-43.945,-24.902,-34.668,0.000
1709140582.677,-26.855,-43.945,-22.461,-25.391,0.000
1709140582.681,-21.484,-34.668,-28.809,-19.043,0.000
1709140582.685,-19.531,-28.320,-30.273,-24.414,0.000
1709140582.689,-20.020,-30.762,-37.598,-26.367,0.000
1709140582.693,-14.648,-31.738,-40.039,-28.809,0.000
1709140582.697,-17.578,-22.949,-30.273,-35.645,0.000
1709140582.700,-27.832,-14.160,-36.133,-39.551,0.000
1709140582.704,-17.090,-12.695,-35.156,-40.039,0.000
1709140582.708,-18.555,-17.578,-32.227,-41.992,0.000
1709140582.712,-39.062,-25.391,-36.621,-46.875,0.000
1709140582.716,-35.645,-37.598,-38.086,-34.180,0.000
1709140582.720,-25.391,-65.430,-36.133,-18.066,0.000
1709140582.724,-14.648,-72.754,-30.273,-8.789,0.000
1709140582.728,-18.066,-29.297,-32.227,-24.902,0.000
1709140582.732,-36.621,-12.207,-35.156,-45.898,0.000
1709140582.736,-45.898,-21.484,-36.621,-45.410,0.000
1709140582.739,-41.504,-36.621,-36.133,-41.016,0.000
1709140582.743,-39.551,-47.363,-39.551,-38.574,0.000
1709140582.747,-41.992,-24.414,-39.062,-38.574,0.000
1709140582.751,-44.434,-28.809,-37.598,-40.527,0.000
1709140582.755,-45.898,-41.992,-37.598,-37.109,0.000
1709140582.759,-41.504,-40.039,-30.273,-32.227,0.000
1709140582.763,-30.273,-41.992,-28.320,-29.297,0.000
1709140582.767,-41.016,-64.453,-27.832,-29.785,0.000
1709140582.771,-48.828,-60.059,-29.785,-32.227,0.000
1709140582.775,-46.875,-23.926,-33.691,-41.504,0.000
1709140582.779,-43.457,-27.344,-38.574,-37.598,0.000
1709140582.782,-39.062,-44.434,-31.738,-25.391,0.000
1709140582.787,-45.898,-54.688,-21.973,-22.949,0.000
1709140582.791,-50.781,-43.457,-34.180,-26.855,0.000
1709140582.795,-43.945,-34.180,-34.180,-20.996,0.000
1709140582.798,-29.297,-44.922,-22.949,-13.184,0.000
1709140582.802,-22.461,-41.992,-20.020,-13.672,0.000
1709140582.806,-20.996,-38.086,-19.043,-20.996,0.000
1709140582.810,-20.020,-49.805,-24.902,-27.344,0.000
1709140582.814,-19.531,-48.340,-27.344,-20.020,0.000
1709140582.818,-17.090,-31.250,-19.531,-22.461,0.000
1709140582.822,-22.461,-37.109,-17.090,-29.785,0.000
1709140582.826,-21.973,-49.316,-30.762,-26.367,0.000
1709140582.830,-18.555,-51.270,-36.133,-32.715,0.000
1709140582.833,-36.621,-28.809,-23.926,-40.039,0.000
1709140582.837,-51.758,-23.438,-22.949,-34.180,0.000
1709140582.841,-44.434,-37.598,-28.809,-39.062,0.000
1709140582.845,-29.297,-32.227,-27.832,-44.434,0.000
1709140582.849,-25.879,-31.250,-32.227,-43.945,0.000
1709140582.853,-35.156,-38.086,-33.203,-41.992,0.000
1709140582.857,-54.199,-39.062,-38.574,-47.363,0.000
1709140582.861,-57.617,-34.180,-43.457,-50.781,0.000
1709140582.865,-47.852,-26.367,-39.062,-53.223,0.000
1709140582.869,-46.875,-41.504,-41.504,-54.688,0.000
1709140582.873,-53.711,-51.758,-43.457,-53.223,0.000
1709140582.876,-54.688,-33.691,-32.715,-41.016,0.000
1709140582.880,-53.223,-41.992,-32.715,-33.691,0.000
1709140582.884,-47.363,-61.523,-26.367,-47.363,0.000
1709140582.888,-37.598,-45.410,-21.973,-56.152,0.000
1709140582.892,-49.805,-36.133,-30.762,-58.105,0.000
1709140582.896,-52.734,-35.645,-32.715,-54.688,0.000
1709140582.900,-46.387,-28.809,-33.691,-38.574,0.000
1709140582.904,-40.527,-31.250,-40.527,-32.227,0.000
1709140582.907,-38.574,-42.969,-50.781,-45.898,0.000
1709140582.911,-39.551,-48.340,-50.293,-52.246,0.000
1709140582.915,-36.621,-52.734,-37.598,-45.410,0.000
1709140582.919,-43.457,-46.875,-42.969,-43.945,0.000
1709140582.923,-52.246,-40.039,-50.293,-52.734,0.000
1709140582.927,-42.480,-47.852,-46.387,-51.758,0.000
1709140582.931,-37.598,-61.035,-43.457,-47.363,0.000
1709140582.934,-46.875,-48.340,-34.180,-47.852,0.000
1709140582.938,-49.805,-12.695,-23.438,-44.434,0.000
1709140582.942,-46.875,-20.996,-26.855,-38.086,0.000
1709140582.946,-39.062,-27.832,-35.156,-37.109,0.000
1709140582.950,-35.645,-25.391,-39.062,-47.363,0.000
1709140582.954,-34.180,-36.621,-36.621,-49.805,0.000
1709140582.958,-35.645,-40.527,-31.738,-41.504,0.000
1709140582.962,-33.203,-49.805,-30.762,-28.809,0.000
1709140582.966,-42.480,-54.688,-35.156,-38.574,0.000
1709140582.970,-54.688,-43.945,-44.922,-61.523,0.000
1709140582.974,-54.688,-42.480,-49.805,-58.594,0.000
1709140582.978,-49.805,-35.645,-40.527,-47.852,0.000
1709140582.982,-46.387,-20.508,-33.203,-55.176,0.000
1709140582.985,-42.480,-21.484,-42.969,-65.918,0.000
1709140582.989,-41.504,-25.879,-34.180,-62.012,0.000
1709140582.993,-55.664,-40.527,-24.902,-65.430,0.000
1709140582.997,-56.641,-43.457,-26.367,-62.988,0.000
1709140583.001,-55.664,-42.969,-29.297,-59.570,0.000
1709140583.005,-51.270,-45.410,-34.668,-54.199,0.000
1709140583.009,-36.621,-41.992,-37.109,-45.898,0.000
1709140583.013,-35.156,-38.574,-36.621,-44.922,0.000
1709140583.017,-26.367,-41.016,-33.691,-35.645,0.000
1709140583.021,-22.461,-41.504,-32.227,-35.156,0.000
1709140583.025,-29.297,-44.434,-33.691,-32.715,0.000
1709140583.029,-24.414,-58.594,-31.250,-34.668,0.000
1709140583.032,-17.578,-37.598,-23.438,-34.180,0.000
1709140583.036,-21.484,-30.762,-27.344,-30.762,0.000
1709140583.040,-40.039,-42.969,-33.691,-28.320,0.000
1709140583.044,-43.457,-32.715,-31.738,-28.320,0.000
1709140583.048,-31.738,-46.875,-36.133,-38.574,0.000
1709140583.052,-33.203,-62.500,-34.180,-49.316,0.000
1709140583.056,-34.668,-34.668,-31.250,-50.293,0.000
1709140583.060,-40.527,-18.066,-28.320,-43.457,0.000
1709140583.064,-39.062,-13.184,-28.809,-35.156,0.000
1709140583.068,-23.438,-30.762,-36.621,-35.156,0.000
1709140583.072,-28.809,-42.969,-33.203,-25.879,0.000
1709140583.075,-37.109,-32.227,-28.809,-17.578,0.000
1709140583.079,-22.461,-38.086,-30.273,-27.344,0.000
1709140583.083,-24.902,-45.410,-29.785,-34.180,0.000
1709140583.087,-35.645,-32.715,-28.320,-41.016,0.000
1709140583.091,-34.668,-30.762,-29.785,-42.480,0.000
1709140583.095,-34.180,-44.434,-32.715,-49.805,0.000
1709140583.099,-35.645,-34.180,-36.133,-45.410,0.000
1709140583.103,-38.086,-11.719,-40.039,-46.875,0.000
1709140583.107,-40.527,-25.391,-43.457,-60.547,0.000
1709140583.111,-49.316,-47.363,-46.387,-58.105,0.000
1709140583.114,-47.852,-46.387,-43.945,-54.688,0.000
1709140583.118,-47.363,-41.504,-40.039,-54.199,0.000
1709140583.122,-41.992,-41.992,-36.133,-46.387,0.000
1709140583.126,-27.344,-37.109,-39.062,-53.223,0.000
1709140583.130,-35.645,-29.785,-41.504,-54.199,0.000
1709140583.134,-46.387,-40.527,-40.039,-49.316,0.000
1709140583.138,-44.922,-49.316,-45.410,-52.734,0.000
1709140583.142,-37.109,-25.879,-43.945,-45.898,0.000
1709140583.146,-36.133,-27.832,-39.551,-36.133,0.000
1709140583.150,-35.645,-44.922,-36.621,-41.992,0.000
1709140583.154,-37.598,-30.762,-37.598,-46.387,0.000
1709140583.157,-46.387,-14.648,-38.086,-42.969,0.000
1709140583.161,-41.504,-20.996,-31.738,-39.551,0.000
1709140583.165,-34.180,-27.832,-37.109,-43.945,0.000
1709140583.169,-41.504,-42.480,-42.480,-43.457,0.000
1709140583.173,-42.480,-54.688,-35.156,-32.715,0.000
1709140583.177,-36.621,-64.941,-31.738,-32.715,0.000
1709140583.181,-39.551,-50.781,-25.391,-44.922,0.000
1709140583.185,-35.645,-25.879,-32.715,-52.246,0.000
1709140583.189,-28.320,-17.090,-41.016,-48.828,0.000
1709140583.193,-43.945,-27.344,-26.855,-42.480,0.000
1709140583.196,-51.270,-30.273,-25.391,-46.387,0.000
1709140583.200,-41.992,-24.902,-28.320,-47.852,0.000
1709140583.204,-30.762,-32.715,-29.297,-41.016,0.000
1709140583.208,0.000,-42.969,-34.180,-33.203,0.000
1709140583.212,0.000,-38.574,-40.527,-41.016,0.000
1709140583.216,0.000,-52.734,-37.109,-37.109,0.000
1709140583.220,0.000,-59.082,-36.621,-28.809,0.000
1709140583.224,0.000,-46.387,-39.062,-39.062,0.000
1709140583.228,0.000,-49.316,-32.227,-50.781,0.000
1709140583.231,0.000,-30.273,-28.809,-57.129,0.000
1709140583.235,0.000,-22.461,-31.250,-54.688,0.000
1709140583.239,0.000,-28.809,-35.645,-51.270,0.000
1709140583.243,0.000,-28.320,-42.480,-43.945,0.000
1709140583.247,0.000,-32.227,-47.852,-42.480,0.000
1709140583.251,0.000,-35.156,-40.527,-44.434,0.000
1709140583.255,-42.480,-55.664,-42.969,-36.621,0.000
1709140583.259,-47.852,-59.570,-43.457,-28.809,0.000
1709140583.262,-38.086,-32.715,-30.762,-32.715,0.000
1709140583.266,-41.016,-25.879,-33.691,-40.527,0.000
1709140583.270,-48.828,-44.922,-38.086,-57.129,0.000
1709140583.274,-52.246,-38.574,-39.062,-62.500,0.000
1709140583.278,-49.316,-29.785,-32.227,-42.969,0.000
1709140583.282,-40.527,-49.316,-30.762,-41.504,0.000
1709140583.286,-36.621,-38.574,-33.203,-54.199,0.000
1709140583.290,-42.480,-19.531,-29.785,-53.711,0.000
1709140583.294,-47.852,-40.527,-30.273,-46.387,0.000
1709140583.298,-50.781,-31.738,-38.574,-42.480,0.000
1709140583.302,-41.992,-9.766,-44.434,-36.133,0.000
1709140583.306,-40.039,-29.785,-35.645,-38.086,0.000
1709140583.310,-42.969,-37.598,-32.715,-44.922,0.000
1709140583.313,-46.875,-32.715,-34.668,-46.875,0.000
1709140583.317,-39.062,-27.832,-28.320,-40.039,0.000
1709140583.321,-25.391,-41.016,-21.973,-30.273,0.000
1709140583.325,-26.367,-49.805,-23.438,-38.086,0.000
1709140583.329,-33.691,-34.180,-31.738,-49.805,0.000
1709140583.333,-33.691,-41.992,-30.762,-41.504,0.000
1709140583.337,-26.855,-59.570,-33.691,-21.484,0.000
1709140583.341,-28.320,-41.504,-34.668,-29.785,0.000
1709140583.345,-39.062,-20.508,-28.320,-31.738,0.000
1709140583.349,-35.645,-45.410,-36.621,-27.832,0.000
1709140583.353,-30.762,-54.199,-42.969,-31.250,0.000
1709140583.357,-43.945,-37.598,-43.457,-32.715,0.000
1709140583.361,-43.457,-31.250,-41.504,-34.180,0.000
1709140583.364,-37.598,-48.340,-34.668,-33.691,0.000
1709140583.368,-44.922,-63.477,-31.250,-38.574,0.000
1709140583.372,-50.781,-49.805,-37.109,-43.945,0.000
1709140583.376,-46.387,-26.367,-41.504,-41.992,0.000
1709140583.380,-40.039,-30.762,-34.668,-33.691,0.000
1709140583.384,-41.504,-40.039,-43.945,-40.039,0.000
1709140583.388,-45.410,-25.391,-55.176,-49.805,0.000
1709140583.392,-49.316,-37.109,-42.480,-44.922,0.000
1709140583.396,-42.969,-51.758,-28.809,-47.852,0.000
1709140583.400,-39.551,-35.645,-29.785,-45.410,0.000
1709140583.404,-38.574,-28.809,-31.250,-45.898,0.000
1709140583.408,-39.551,-44.434,-27.832,-49.805,0.000
1709140583.411,-52.734,-56.641,-35.645,-49.805,0.000
1709140583.415,-54.688,-48.340,-36.621,-49.805,0.000
1709140583.419,-46.875,-29.297,-27.832,-43.457,0.000
1709140583.423,-40.039,-27.344,-29.297,-42.480,0.000
1709140583.427,-28.320,-38.574,-28.320,-37.109,0.000
1709140583.431,-25.391,-39.551,-29.297,-29.297,0.000
1709140583.435,-32.715,-36.621,-28.809,-35.645,0.000
1709140583.439,-40.039,-35.156,-30.273,-37.109,0.000
1709140583.443,-32.715,-35.156,-38.086,-40.039,0.000
1709140583.447,-21.484,-28.320,-37.598,-46.875,0.000
1709140583.451,-21.973,-22.949,-28.809,-51.758,0.000
1709140583.455,-34.180,-40.527,-26.855,-48.340,0.000
1709140583.459,-36.621,-42.969,-37.109,-41.504,0.000
1709140583.463,-33.203,-31.250,-43.945,-51.270,0.000
1709140583.467,-26.367,-24.414,-41.992,-52.734,0.000
1709140583.471,-25.879,-24.902,-42.480,-40.039,0.000
1709140583.475,-41.992,-43.945,-47.852,-32.227,0.000
1709140583.478,-48.828,-56.641,-43.945,-35.156,0.000
1709140583.482,-42.969,-40.527,-41.504,-41.016,0.000
1709140583.486,-37.109,-20.508,-42.480,-39.062,0.000
1709140583.490,-43.945,-16.602,-37.598,-44.434,0.000
1709140583.494,-50.781,-30.273,-34.180,-49.316,0.000
1709140583.498,-41.016,-28.320,-35.156,-32.715,0.000
1709140583.502,-25.391,-19.043,-27.344,-15.625,0.000
1709140583.506,-23.438,-39.551,-20.996,-27.344,0.000
1709140583.510,-28.320,-38.574,-29.785,-38.086,0.000
1709140583.514,-35.156,-29.785,-38.086,-31.738,0.000
1709140583.517,-34.180,-40.527,-35.156,-32.227,0.000
1709140583.521,-33.203,-41.504,-25.879,-32.227,0.000
1709140583.525,-34.668,-49.805,-27.832,-37.598,0.000
1709140583.529,-47.363,-39.062,-39.551,-49.316,0.000
1709140583.533,-48.828,-27.832,-34.180,-40.039,0.000
1709140583.537,-41.016,-40.527,-23.438,-34.180,0.000
1709140583.541,-61.523,-46.387,-25.879,-35.156,0.000
1709140583.545,-55.176,-47.852,-29.297,-33.203,0.000
1709140583.549,-46.875,-39.551,-32.715,-33.691,0.000
1709140583.553,-53.711,-24.902,-26.855,-41.992,0.000
1709140583.556,-45.898,-48.828,-19.043,-45.898,0.000
1709140583.560,-42.480,-50.781,-30.273,-37.109,0.000
1709140583.564,-47.363,-28.320,-37.109,-30.762,0.000
1709140583.568,-49.316,-28.809,-25.879,-38.086,0.000
1709140583.572,-41.504,-27.344,-25.391,-37.109,0.000
1709140583.576,-42.480,-22.949,-31.738,-41.504,0.000
1709140583.580,-46.387,-25.879,-28.320,-42.969,0.000
1709140583.584,-39.551,-41.992,-24.902,-39.551,0.000
1709140583.587,-35.156,-61.035,-28.320,-47.852,0.000
1709140583.591,-32.715,-64.941,-33.691,-47.363,0.000
1709140583.595,-28.320,-66.406,-35.156,-36.621,0.000
1709140583.599,-23.438,-52.246,-30.273,-29.785,0.000
1709140583.603,-18.555,-39.551,-35.645,-35.156,0.000
1709140583.607,-32.227,-54.199,-27.344,-33.203,0.000
1709140583.611,-34.668,-31.250,-23.438,-24.902,0.000
1709140583.615,-33.203,-13.184,-32.227,-26.855,0.000
1709140583.619,-30.762,-27.832,-26.855,-25.391,0.000
1709140583.623,-24.902,-36.621,-24.902,-20.508,0.000
1709140583.627,-34.668,-40.039,-27.344,-30.273,0.000
1709140583.630,-36.621,-38.574,-29.297,-24.902,0.000
1709140583.634,-36.621,-47.852,-23.926,-11.719,0.000
1709140583.638,-41.992,-75.195,-22.461,-21.973,0.000
1709140583.642,-44.434,-67.383,-30.273,-35.645,0.000
1709140583.646,-31.250,-20.508,-24.902,-35.156,0.000
1709140583.650,-31.738,-20.996,-27.832,-39.062,0.000
1709140583.654,-47.363,-28.320,-41.016,-35.645,0.000
1709140583.658,-58.105,-23.926,-47.363,-39.551,0.000
1709140583.661,-57.129,-35.645,-38.086,-45.898,0.000
1709140583.665,-45.410,-42.969,-34.180,-44.922,0.000
1709140583.669,-46.875,-37.109,-29.297,-43.945,0.000
1709140583.673,-61.035,-28.809,-26.367,-42.969,0.000
1709140583.678,-58.594,-42.969,-28.320,-49.316,0.000
1709140583.682,-50.293,-62.500,-31.738,-47.363,0.000
1709140583.686,-46.387,-60.059,-41.016,-47.852,0.000
1709140583.690,-41.504,-60.059,-41.504,-49.805,0.000
1709140583.694,-44.434,-58.105,-43.457,-44.922,0.000
1709140583.697,-51.270,-34.668,-40.527,-40.039,0.000
1709140583.701,-50.781,-39.551,-37.109,-38.086,0.000
1709140583.705,-41.504,-33.691,-39.062,-45.410,0.000
1709140583.709,-40.527,-37.109,-33.203,-54.688,0.000
1709140583.713,-42.969,-49.805,-28.809,-48.340,0.000
1709140583.717,-34.180,-39.062,-31.738,-51.270,0.000
1709140583.721,-43.945,-53.711,-33.691,-62.500,0.000
1709140583.725,-57.617,-61.523,-40.039,-57.617,0.000
1709140583.729,-43.945,-38.574,-34.668,-55.176,0.000
1709140583.733,-38.086,-36.133,-30.273,-53.223,0.000
1709140583.737,-38.574,-37.109,-34.180,-46.875,0.000
1709140583.741,-41.016,-35.645,-31.250,-42.480,0.000
1709140583.744,-39.551,-35.156,-32.227,-54.199,0.000
1709140583.748,-26.855,-26.367,-30.762,-52.246,0.000
1709140583.752,-26.367,-16.113,-29.785,-51.758,0.000
1709140583.756,-37.109,-32.715,-30.273,-54.199,0.000
1709140583.760,-49.805,-52.246,-31.738,-55.664,0.000
1709140583.764,-43.945,-41.504,-29.297,-55.176,0.000
1709140583.768,-34.180,-41.992,-31.738,-50.781,0.000
1709140583.772,-34.668,-44.922,-39.062,-50.293,0.000
1709140583.776,-35.645,-49.316,-24.902,-31.250,0.000
1709140583.780,-37.598,-48.340,-20.996,-37.598,0.000
1709140583.784,-28.809,-40.527,-26.855,-46.387,0.000
1709140583.787,-32.715,-33.691,-21.484,-44.434,0.000
1709140583.791,-38.574,-30.273,-30.762,-54.688,0.000
1709140583.795,-37.109,-37.109,-37.109,-53.223,0.000
1709140583.799,-35.156,-39.551,-31.738,-40.039,0.000
1709140583.803,-36.133,-35.645,-30.762,-37.598,0.000
1709140583.807,-39.551,-33.203,-34.668,-45.410,0.000
1709140583.811,-44.434,-22.461,-42.480,-54.688,0.000
1709140583.815,-40.527,-26.855,-35.645,-52.246,0.000
1709140583.819,-35.156,-23.438,-29.785,-38.574,0.000
1709140583.823,-25.879,-25.879,-34.180,-31.250,0.000
1709140583.827,-30.762,-50.781,-37.598,-25.391,0.000
1709140583.831,-44.922,-46.875,-33.691,-39.551,0.000
1709140583.835,-43.457,-38.086,-30.762,-55.176,0.000
1709140583.839,-41.016,-41.992,-29.785,-48.340,0.000
1709140583.843,-44.434,-44.434,-25.391,-42.969,0.000
1709140583.847,-33.691,-47.363,-18.555,-36.133,0.000
1709140583.851,-26.367,-39.062,-19.531,-22.461,0.000
1709140583.854,-36.621,-36.133,-21.484,-33.203,0.000
1709140583.858,-43.945,-38.086,-22.461,-49.316,0.000
1709140583.862,-37.598,-33.203,-36.621,-38.574,0.000
1709140583.866,-31.250,-29.297,-38.086,-45.898,0.000
1709140583.870,-37.598,-31.250,-33.691,-55.176,0.000
1709140583.874,-25.391,-40.039,-41.992,-36.133,0.000
1709140583.878,-23.926,-35.645,-40.527,-40.039,0.000
1709140583.882,-43.457,-27.344,-28.320,-52.734,0.000
1709140583.886,-41.504,-21.973,-20.020,-48.828,0.000
1709140583.889,-38.574,-11.719,-25.391,-51.270,0.000
1709140583.893,-32.715,-32.227,-31.738,-46.387,0.000
1709140583.897,-33.203,-55.664,-31.250,-32.227,0.000
1709140583.901,-26.367,-37.109,-36.621,-16.113,0.000
1709140583.905,-20.020,-26.855,-39.062,-12.695,0.000
1709140583.909,-36.133,-28.809,-26.855,-21.484,0.000
1709140583.913,-45.410,-33.203,-23.438,-31.250,0.000
1709140583.917,-39.062,-42.969,-26.367,-38.574,0.000
1709140583.921,-37.109,-47.363,-28.320,-33.203,0.000
1709140583.925,-45.410,-35.645,-34.668,-37.598,0.000
1709140583.928,-49.805,-35.156,-32.715,-52.246,0.000
1709140583.932,-55.664,-42.480,-33.691,-57.129,0.000
1709140583.936,-66.895,-44.922,-40.039,-59.082,0.000
1709140583.940,-66.406,-55.176,-28.320,-41.016,0.000
1709140583.944,-43.457,-58.105,-18.066,-36.133,0.000
1709140583.948,-35.156,-41.504,-26.367,-39.062,0.000
1709140583.952,-53.223,-36.133,-31.250,-40.039,0.000
1709140583.956,-57.617,-25.391,-30.762,-50.781,0.000
1709140583.959,-47.852,-10.742,-30.762,-41.016,0.000
1709140583.963,-47.363,-30.762,-30.762,-28.320,0.000
1709140583.967,-41.992,-51.758,-29.785,-28.809,0.000
1709140583.971,-33.691,-42.969,-29.785,-38.086,0.000
1709140583.975,-41.504,-43.945,-23.438,-43.457,0.000
1709140583.979,-43.945,-26.855,-26.855,-42.480,0.000
1709140583.983,-34.180,-36.621,-33.203,-32.715,0.000
1709140583.987,-31.250,-58.594,-30.273,-31.738,0.000
1709140583.991,-31.738,-47.852,-26.367,-39.062,0.000
1709140583.995,-30.273,-37.109,-30.273,-42.969,0.000
1709140583.998,-35.156,-41.992,-36.621,-38.086,0.000
1709140584.002,-30.273,-30.762,-35.156,-29.297,0.000
1709140584.006,-20.996,-26.855,-46.387,-34.180,0.000
1709140584.010,-21.973,-51.270,-45.410,-44.434,0.000
1709140584.014,-24.414,-59.570,-36.621,-39.551,0.000
1709140584.018,-24.414,-42.969,-42.480,-26.367,0.000
1709140584.022,-20.020,-35.156,-46.387,-31.738,0.000
1709140584.026,-14.648,-38.574,-40.039,-38.574,0.000
1709140584.029,-26.367,-34.668,-34.668,-29.297,0.000
1709140584.033,-32.715,-29.297,-41.992,-35.156,0.000
1709140584.037,-34.180,-30.273,-37.109,-44.922,0.000
1709140584.041,-43.945,-31.250,-33.691,-47.363,0.000
1709140584.045,-33.691,-31.250,-39.551,-44.922,0.000
1709140584.049,-25.391,-29.785,-40.527,-38.574,0.000
1709140584.053,-30.762,-38.086,-36.621,-42.480,0.000
1709140584.056,-36.133,-42.969,-28.320,-41.504,0.000
1709140584.060,-28.320,-40.039,-31.250,-32.227,0.000
1709140584.064,-22.949,-60.059,-32.227,-27.344,0.000
1709140584.068,-34.180,-59.082,-21.484,-31.738,0.000
1709140584.072,-39.551,-41.992,-21.484,-33.691,0.000
1709140584.076,-37.598,-25.391,-36.621,-39.062,0.000
1709140584.080,-41.016,-23.438,-38.086,-44.434,0.000
1709140584.084,-41.992,-35.156,-33.203,-42.969,0.000
1709140584.088,-37.598,-30.273,-38.086,-48.340,0.000
1709140584.092,-43.945,-19.043,-35.156,-53.223,0.000
1709140584.095,-42.969,-40.039,-37.109,-53.223,0.000
1709140584.100,-34.180,-56.641,-39.551,-43.945,0.000
1709140584.103,-25.879,-45.898,-33.203,-39.062,0.000
1709140584.107,-22.461,-37.598,-22.461,-33.691,0.000
1709140584.111,-25.391,-28.809,-18.066,-34.668,0.000
1709140584.115,-15.137,-37.109,-23.926,-28.809,0.000
1709140584.119,-22.461,-51.270,-29.785,-18.066,0.000
1709140584.123,-32.227,-30.273,-34.668,-22.461,0.000
1709140584.127,-26.367,-22.461,-41.504,-37.109,0.000
1709140584.131,-32.715,-41.016,-39.551,-40.039,0.000
1709140584.135,-34.668,-35.645,-33.203,-31.250,0.000
1709140584.139,-35.156,-24.902,-30.273,-36.621,0.000
1709140584.143,-26.855,-30.273,-30.762,-40.039,0.000
1709140584.146,-19.531,-36.621,-26.855,-33.203,0.000
1709140584.150,-31.250,-34.180,-38.086,-32.227,0.000
1709140584.154,-38.086,-21.973,-50.781,-34.180,0.000
1709140584.158,-39.551,-34.668,-34.668,-29.785,0.000
1709140584.162,-33.203,-61.035,-30.273,-21.973,0.000
1709140584.166,-25.391,-49.805,-34.668,-21.973,0.000
1709140584.170,-37.109,-23.438,-29.297,-41.992,0.000
1709140584.174,-42.969,-20.996,-25.391,-39.551,0.000
1709140584.178,-37.598,-34.668,-25.879,-27.344,0.000
1709140584.182,-38.574,-38.086,-27.344,-29.785,0.000
1709140584.186,-41.992,-43.945,-27.832,-38.574,0.000
1709140584.189,-38.574,-46.875,-32.715,-41.016,0.000
1709140584.193,-40.527,-43.457,-35.156,-40.527,0.000
1709140584.197,-48.828,-41.992,-39.062,-37.598,0.000
1709140584.201,-42.969,-53.223,-41.992,-42.480,0.000
1709140584.205,-39.551,-48.340,-39.551,-46.875,0.000
1709140584.209,-57.129,-27.832,-40.527,-48.340,0.000
1709140584.213,-58.594,-30.273,-38.086,-43.457,0.000
1709140584.217,-42.480,-36.133,-26.367,-39.062,0.000
1709140584.221,-37.109,-34.180,-29.297,-41.016,0.000
1709140584.225,-42.480,-42.969,-35.156,-24.902,0.000
1709140584.229,-32.715,-43.457,-35.156,-22.461,0.000
1709140584.232,-27.344,-43.457,-38.086,-30.273,0.000
1709140584.236,-39.062,-37.109,-30.273,-39.062,0.000
1709140584.240,-44.922,-43.945,-34.668,-49.316,0.000
1709140584.244,-39.062,-51.758,-45.410,-45.410,0.000
1709140584.248,-36.133,-42.480,-40.527,-50.293,0.000
1709140584.252,-37.109,-26.855,-34.668,-56.641,0.000
1709140584.256,-49.316,-22.949,-37.109,-44.922,0.000
1709140584.260,-51.758,-48.828,-34.668,-40.039,0.000
1709140584.264,-46.875,-54.199,-31.250,-37.109,0.000
1709140584.268,-33.691,-35.156,-32.715,-39.551,0.000
1709140584.271,-35.156,-25.879,-38.086,-37.598,0.000
1709140584.275,-41.016,-46.387,-35.645,-33.203,0.000
1709140584.279,-28.320,-56.152,-33.203,-33.691,0.000
1709140584.283,-27.344,-39.551,-34.668,-30.273,0.000
1709140584.287,-31.250,-32.227,-36.133,-32.227,0.000
1709140584.291,-30.762,-42.480,-35.645,-38.574,0.000
1709140584.295,-34.668,-35.156,-31.250,-44.434,0.000
1709140584.299,-31.738,-19.043,-30.762,-44.434,0.000
1709140584.303,-30.762,-29.297,-27.832,-38.574,0.000
1709140584.307,-32.715,-21.484,-22.949,-38.574,0.000
1709140584.310,-31.250,-26.855,-20.996,-38.574,0.000
1709140584.314,-36.133,-59.570,-23.926,-27.832,0.000
1709140584.318,-37.598,-55.664,-26.367,-31.738,0.000
1709140584.322,-36.621,-52.734,-29.297,-37.109,0.000
1709140584.326,-39.062,-59.570,-34.668,-45.898,0.000
1709140584.330,-36.621,-39.551,-33.203,-51.758,0.000
1709140584.334,-44.434,-31.250,-36.621,-44.434,0.000
1709140584.338,-47.363,-33.203,-38.574,-38.574,0.000
1709140584.341,-40.527,-26.367,-40.527,-38.086,0.000
1709140584.345,-35.645,-37.109,-31.250,-41.016,0.000
1709140584.349,-32.715,-62.012,-18.555,-37.109,0.000
1709140584.353,-27.832,-56.152,-19.531,-29.297,0.000
1709140584.357,-21.484,-37.598,-27.832,-28.320,0.000
1709140584.361,-18.555,-28.809,-25.391,-22.461,0.000
1709140584.365,-21.973,-41.992,-23.438,-30.273,0.000
1709140584.369,-15.137,-34.180,-34.180,-40.039,0.000
1709140584.373,-24.414,-33.691,-30.762,-41.992,0.000
1709140584.377,-41.016,-35.645,-26.855,-44.922,0.000
1709140584.380,-37.598,-14.648,-35.156,-40.039,0.000
1709140584.384,-41.016,-18.555,-40.039,-36.621,0.000
1709140584.388,-44.922,-38.086,-33.691,-44.922,0.000
1709140584.392,-38.574,-43.945,-30.273,-47.852,0.000
1709140584.396,-33.203,-49.805,-34.180,-39.062,0.000
1709140584.400,-35.156,-44.922,-33.203,-37.109,0.000
1709140584.404,-39.062,-30.273,-39.551,-38.086,0.000
1709140584.408,-33.203,-42.969,-43.457,-43.457,0.000
1709140584.412,-33.691,-66.895,-40.527,-41.016,0.000
1709140584.415,-32.715,-47.363,-34.180,-37.109,0.000
1709140584.419,-35.156,-18.555,-34.668,-49.805,0.000
1709140584.423,-48.340,-11.719,-38.574,-56.641,0.000
1709140584.427,-47.363,-24.414,-37.598,-58.594,0.000
1709140584.431,-43.457,-40.527,-38.574,-54.199,0.000
1709140584.435,-49.805,-46.875,-41.504,-55.176,0.000
1709140584.439,-51.270,-47.363,-42.480,-56.641,0.000
1709140584.442,-44.922,-46.387,-39.062,-47.852,0.000
1709140584.446,-48.828,-60.547,-39.551,-46.387,0.000
1709140584.450,-51.270,-51.270,-42.969,-49.316,0.000
1709140584.454,-46.875,-41.016,-32.227,-51.270,0.000
1709140584.458,-45.410,-59.082,-31.738,-38.086,0.000
1709140584.462,-39.551,-62.012,-42.969,-23.438,0.000
1709140584.466,-32.715,-39.062,-47.363,-24.902,0.000
1709140584.470,-25.391,-22.461,-46.875,-31.250,0.000
1709140584.474,-22.461,-19.043,-30.273,-31.250,0.000
1709140584.478,-38.086,-34.668,-25.879,-22.949,0.000
1709140584.482,-40.527,-56.641,-25.879,-21.973,0.000
1709140584.486,-41.016,-42.480,-23.926,-33.691,0.000
1709140584.490,-50.293,-36.133,-27.832,-41.504,0.000
1709140584.493,-40.039,-68.848,-24.414,-33.203,0.000
1709140584.497,-33.691,-60.547,-25.879,-26.367,0.000
1709140584.501,-33.691,-25.391,-29.785,-24.902,0.000
1709140584.505,-30.762,-19.531,-38.574,-22.461,0.000
1709140584.509,-36.133,-37.598,-39.062,-21.484,0.000
1709140584.513,-36.621,-41.992,-29.785,-26.855,0.000
1709140584.517,-28.809,-31.738,-28.320,-30.762,0.000
1709140584.521,-35.156,-33.203,-32.227,-27.344,0.000
1709140584.525,-47.363,-44.922,-29.785,-41.504,0.000
1709140584.529,-53.711,-44.434,-26.855,-53.711,0.000
1709140584.533,-46.875,-34.668,-31.250,-53.223,0.000
1709140584.537,-43.945,-38.574,-35.645,-51.758,0.000
1709140584.540,-47.363,-37.598,-38.086,-48.340,0.000
1709140584.544,-41.992,-53.711,-36.133,-45.410,0.000
1709140584.548,-31.738,-51.270,-42.480,-44.434,0.000
1709140584.552,-35.156,-20.508,-49.805,-41.992,0.000
1709140584.556,-39.551,-11.719,-37.598,-38.086,0.000
1709140584.560,-38.574,-22.461,-36.133,-41.016,0.000
1709140584.564,-34.668,-27.344,-41.504,-49.805,0.000
1709140584.568,-32.227,-32.227,-37.598,-60.547,0.000
1709140584.572,-28.320,-41.016,-34.668,-59.082,0.000
1709140584.576,-26.367,-38.574,-35.645,-51.758,0.000
1709140584.580,-34.180,-52.246,-26.855,-39.062,0.000
1709140584.583,-30.762,-64.453,-22.461,-30.273,0.000
1709140584.587,-38.086,-39.551,-37.109,-25.391,0.000
1709140584.591,-47.363,-33.691,-37.109,-30.762,0.000
1709140584.595,-38.574,-34.180,-22.461,-30.273,0.000
1709140584.599,-30.762,-32.715,-26.855,-15.137,0.000
1709140584.603,-38.086,-45.410,-27.832,-28.320,0.000
1709140584.607,-34.668,-46.875,-27.344,-40.039,0.000
1709140584.611,-35.156,-31.738,-32.227,-38.574,0.000
1709140584.615,-35.156,-25.879,-26.855,-29.785,0.000
1709140584.619,-27.344,-49.316,-29.785,-26.367,0.000
1709140584.622,-19.531,-40.527,-32.227,-36.621,0.000
1709140584.626,-24.414,-10.742,-38.574,-43.457,0.000
1709140584.630,-30.762,-17.578,-45.898,-57.129,0.000
1709140584.634,-38.086,-19.043,-41.992,-58.105,0.000
1709140584.638,-43.945,-22.949,-32.715,-43.457,0.000
1709140584.642,-33.691,-38.086,-26.855,-35.645,0.000
1709140584.646,-32.715,-27.344,-26.855,-34.668,0.000
1709140584.650,-36.133,-30.273,-17.090,-43.457,0.000
1709140584.654,-44.922,-44.922,-20.508,-51.758,0.000
1709140584.658,-42.480,-50.781,-24.414,-37.598,0.000
1709140584.661,-33.691,-39.551,-25.879,-25.879,0.000
1709140584.665,-34.668,-18.066,-29.297,-33.691,0.000
1709140584.669,-41.504,-15.137,-30.273,-39.062,0.000
1709140584.673,-39.062,-18.066,-35.645,-38.574,0.000
1709140584.677,-38.086,-26.855,-40.039,-34.668,0.000
1709140584.681,-38.086,-31.738,-33.691,-32.715,0.000
1709140584.685,-35.156,-42.480,-31.738,-38.086,0.000
1709140584.689,-41.016,-54.688,-28.320,-30.273,0.000
1709140584.693,-45.898,-41.016,-23.926,-32.715,0.000
1709140584.697,-41.504,-43.457,-27.832,-40.527,0.000
1709140584.700,-33.203,-51.270,-25.879,-39.551,0.000
1709140584.704,-33.691,-52.246,-26.367,-42.969,0.000
1709140584.708,-31.738,-33.203,-37.109,-38.086,0.000
1709140584.712,-28.809,-8.301,-27.832,-30.273,0.000
1709140584.716,-33.203,-25.391,-22.461,-36.621,0.000
1709140584.720,-29.297,-40.527,-28.809,-40.039,0.000
1709140584.724,-17.090,-33.691,-21.973,-22.949,0.000
1709140584.728,-24.414,-36.621,-25.879,-23.926,0.000
1709140584.732,-22.949,-45.898,-30.273,-39.062,0.000
1709140584.735,-26.367,-36.133,-21.973,-36.133,0.000
1709140584.739,-39.062,-42.969,-21.484,-30.762,0.000
1709140584.743,-33.203,-54.688,-29.785,-40.039,0.000
1709140584.747,-26.855,-30.273,-32.227,-41.504,0.000
1709140584.751,-31.250,-23.438,-32.227,-42.480,0.000
1709140584.755,-31.738,-32.227,-33.203,-51.758,0.000
1709140584.759,-27.832,-22.949,-34.180,-47.363,0.000
1709140584.763,-27.344,-33.203,-34.180,-37.598,0.000
1709140584.766,-25.879,-37.598,-38.086,-33.203,0.000
1709140584.770,-28.320,-45.898,-50.781,-47.363,0.000
1709140584.774,-40.527,-62.012,-44.434,-61.035,0.000
1709140584.778,-43.945,-44.922,-32.715,-56.152,0.000
1709140584.782,-29.297,-26.367,-33.691,-58.594,0.000
1709140584.786,-30.762,-27.832,-38.086,-65.430,0.000
1709140584.790,-53.711,-32.715,-37.109,-59.570,0.000
1709140584.794,-53.223,-41.992,-31.738,-45.410,0.000
1709140584.798,-50.781,-36.621,-41.016,-43.945,0.000
1709140584.801,-43.945,-36.133,-41.504,-41.504,0.000
1709140584.805,-31.250,-47.852,-31.250,-39.551,0.000
1709140584.809,-44.922,-52.734,-34.180,-46.387,0.000
1709140584.813,-65.430,-48.340,-40.039,-59.570,0.000
1709140584.817,-63.477,-41.992,-37.109,-63.477,0.000
1709140584.821,-53.711,-31.738,-38.086,-55.664,0.000
1709140584.825,-47.852,-33.691,-41.992,-56.152,0.000
1709140584.829,-48.828,-45.898,-31.738,-51.758,0.000
1709140584.833,-52.734,-59.082,-24.902,-46.387,0.000
1709140584.836,-43.457,-54.199,-29.785,-44.922,0.000
1709140584.840,-42.480,-40.039,-30.762,-29.297,0.000
1709140584.844,-37.109,-37.109,-28.320,-20.508,0.000
1709140584.848,-44.434,-43.457,-26.855,-27.832,0.000
1709140584.852,-42.480,-58.594,-21.484,-27.832,0.000
1709140584.856,-33.691,-52.246,-29.785,-27.832,0.000
1709140584.860,-34.180,-38.086,-44.434,-29.785,0.000
1709140584.864,-30.273,-36.133,-27.344,-28.809,0.000
1709140584.868,-29.785,-31.250,-14.648,-27.832,0.000
1709140584.872,-36.133,-29.297,-12.695,-25.879,0.000
1709140584.876,-32.715,-48.340,-12.207,-22.949,0.000
1709140584.880,-35.645,-48.828,-17.578,-13.184,0.000
1709140584.884,-37.598,-31.250,-20.996,-13.672,0.000
1709140584.887,-34.668,-43.457,-24.902,-29.297,0.000
1709140584.891,-29.785,-36.133,-25.879,-37.598,0.000
1709140584.895,-33.691,-23.438,-26.855,-39.551,0.000
1709140584.899,-37.109,-43.945,-32.227,-40.527,0.000
1709140584.903,-32.227,-38.086,-36.621,-44.922,0.000
1709140584.907,-33.203,-25.879,-35.645,-51.270,0.000
1709140584.911,-41.016,-32.715,-35.156,-44.922,0.000
1709140584.915,-50.293,-30.273,-42.969,-42.480,0.000
1709140584.919,-48.340,-34.668,-45.410,-41.504,0.000
1709140584.923,-40.527,-48.340,-28.320,-43.457,0.000
1709140584.927,-32.715,-41.016,-23.438,-51.758,0.000
1709140584.931,-32.715,-42.480,-31.738,-50.293,0.000
1709140584.934,-47.852,-47.852,-31.250,-58.105,0.000
1709140584.938,-47.363,-31.738,-29.785,-50.781,0.000
1709140584.942,-37.109,-39.062,-32.715,-45.410,0.000
1709140584.946,-41.504,-50.781,-29.785,-56.641,0.000
1709140584.950,-42.480,-26.855,-31.738,-59.082,0.000
1709140584.954,-39.062,-18.066,-36.133,-55.176,0.000
1709140584.958,-33.203,-33.691,-37.109,-44.434,0.000
1709140584.962,-40.039,-51.270,-35.645,-35.156,0.000
1709140584.966,-41.992,-46.875,-32.227,-34.180,0.000
1709140584.970,-36.621,-54.688,-32.715,-34.180,0.000
1709140584.974,-38.574,-52.246,-37.598,-27.344,0.000
1709140584.977,-37.109,-40.039,-41.992,-33.691,0.000
1709140584.981,-40.039,-40.039,-36.133,-48.828,0.000
1709140584.985,-46.875,-40.039,-23.926,-51.758,0.000
1709140584.989,-40.039,-41.016,-25.879,-52.734,0.000
1709140584.993,-45.898,-42.480,-32.715,-43.457,0.000
1709140584.997,-57.617,-42.480,-31.250,-30.762,0.000
1709140585.001,-54.688,-41.504,-27.344,-34.180,0.000
1709140585.005,-44.922,-54.199,-27.832,-28.320,0.000
1709140585.009,-40.039,-51.270,-33.203,-31.250,0.000
1709140585.013,-44.434,-37.109,-34.180,-39.062,0.000
1709140585.016,-40.039,-43.945,-39.062,-36.133,0.000
1709140585.020,-40.039,-39.062,-38.086,-31.250,0.000
1709140585.024,-34.180,-29.785,-36.621,-29.297,0.000
1709140585.028,-29.297,-31.250,-35.156,-32.227,0.000
1709140585.032,-34.668,-23.438,-34.668,-35.645,0.000
1709140585.036,-37.109,-15.625,-36.621,-37.109,0.000
1709140585.040,-33.691,-32.227,-33.691,-37.109,0.000
1709140585.044,-32.227,-52.734,-34.668,-24.902,0.000
1709140585.048,-35.645,-49.805,-36.621,-33.203,0.000
1709140585.052,-35.156,-35.645,-26.367,-47.363,0.000
1709140585.055,-41.504,-31.738,-23.926,-46.875,0.000
1709140585.059,-45.410,-37.109,-29.785,-42.969,0.000
1709140585.063,-32.715,-47.363,-31.250,-34.180,0.000
1709140585.067,-31.250,-46.387,-32.227,-41.016,0.000
1709140585.071,-34.668,-41.992,-32.227,-49.805,0.000
1709140585.075,-45.410,-24.414,-33.203,-44.434,0.000
1709140585.079,-51.758,-18.066,-35.645,-36.621,0.000
1709140585.083,-50.293,-45.410,-35.156,-42.480,0.000
1709140585.087,-41.016,-37.109,-31.250,-47.363,0.000
1709140585.090,-34.668,-28.320,-38.574,-44.434,0.000
1709140585.094,-51.758,-39.062,-42.969,-43.945,0.000
1709140585.098,-53.711,-30.273,-38.086,-41.992,0.000
1709140585.102,-44.434,-33.691,-40.039,-35.645,0.000
1709140585.106,-47.852,-36.133,-36.621,-35.645,0.000
1709140585.110,-39.551,-37.109,-33.691,-34.180,0.000
1709140585.114,-53.711,-52.734,-39.551,-46.875,0.000
1709140585.118,-65.430,-61.523,-42.480,-49.316,0.000
1709140585.122,-56.641,-41.992,-41.504,-43.457,0.000
1709140585.126,-52.734,-20.508,-39.062,-50.781,0.000
1709140585.129,-49.316,-35.156,-38.574,-49.316,0.000
1709140585.133,-51.758,-54.688,-41.992,-49.805,0.000
1709140585.137,-48.828,-52.246,-36.133,-49.805,0.000
1709140585.141,-40.527,-37.109,-32.227,-38.086,0.000
1709140585.145,-31.250,-36.621,-41.992,-41.992,0.000
1709140585.149,-26.367,-50.781,-38.086,-47.363,0.000
1709140585.153,-40.039,-55.664,-28.320,-41.504,0.000
1709140585.157,-47.363,-43.945,-34.180,-50.781,0.000
1709140585.161,-30.762,-40.527,-33.203,-55.664,0.000
1709140585.164,-31.738,-61.523,-25.879,-40.527,0.000
1709140585.168,-45.410,-54.199,-26.367,-40.527,0.000
1709140585.172,-47.852,-13.672,-37.598,-58.105,0.000
1709140585.176,0.000,-25.391,-36.133,-53.711,0.000
1709140585.180,0.000,-48.340,-36.621,-41.992,0.000
1709140585.184,0.000,-36.621,-44.922,-39.551,0.000
1709140585.188,0.000,-39.062,-53.223,-42.969,0.000
1709140585.192,0.000,-48.340,-46.875,-48.828,0.000
1709140585.196,0.000,-49.316,-35.156,-41.016,0.000
1709140585.200,0.000,-33.691,-29.297,-25.879,0.000
1709140585.204,0.000,-20.020,-25.879,-22.949,0.000
1709140585.208,0.000,-32.715,-31.250,-28.809,0.000
1709140585.212,0.000,-57.129,-36.621,-36.621,0.000
1709140585.216,0.000,-53.223,-39.551,-39.062,0.000
1709140585.219,0.000,-41.016,-38.086,-31.250,0.000
1709140585.224,-40.039,-46.875,-30.273,-32.227,0.000
1709140585.227,-33.203,-50.293,-23.926,-39.062,0.000
1709140585.231,-34.668,-39.062,-34.180,-41.504,0.000
1709140585.235,-43.457,-19.531,-39.062,-46.875,0.000
1709140585.239,-46.875,-18.555,-25.879,-32.227,0.000
1709140585.243,-33.203,-26.367,-24.414,-23.926,0.000
1709140585.247,-18.066,-38.574,-24.902,-40.039,0.000
1709140585.251,-17.578,-45.410,-28.809,-52.734,0.000
1709140585.255,-38.574,-36.621,-37.109,-43.945,0.000
1709140585.259,-47.852,-31.250,-32.227,-32.715,0.000
1709140585.263,-39.551,-20.508,-26.855,-42.480,0.000
1709140585.266,-36.133,-29.785,-35.156,-54.199,0.000
1709140585.271,-28.320,-39.551,-38.574,-56.152,0.000
1709140585.274,-30.273,-41.016,-34.668,-50.781,0.000
1709140585.278,-36.621,-59.082,-34.180,-45.898,0.000
1709140585.282,-26.855,-47.363,-18.066,-41.992,0.000
1709140585.286,-33.203,-30.762,-17.578,-42.480,0.000
1709140585.290,-41.504,-47.363,-21.973,-41.992,0.000
1709140585.294,-35.156,-40.527,-22.461,-35.156,0.000
1709140585.298,-44.434,-26.855,-29.297,-39.551,0.000
1709140585.302,-52.246,-29.785,-28.809,-40.039,0.000
1709140585.306,-36.133,-24.902,-27.832,-39.062,0.000
1709140585.310,-47.363,-35.645,-34.180,-49.316,0.000
1709140585.313,-55.176,-31.250,-34.668,-48.828,0.000
1709140585.318,0.000,-48.340,0.000,-41.016,0.000
1709140585.321,0.000,-62.988,0.000,-34.668,0.000
1709140585.325,0.000,-32.227,0.000,-35.156,0.000
1709140585.329,0.000,-35.645,0.000,-35.645,0.000
1709140585.333,0.000,-42.969,0.000,-43.457,0.000
1709140585.337,0.000,-36.621,0.000,-42.480,0.000
1709140585.341,0.000,-40.527,0.000,-28.320,0.000
1709140585.345,0.000,-47.852,0.000,-23.926,0.000
1709140585.349,0.000,-40.039,0.000,-27.832,0.000
1709140585.353,0.000,-32.715,0.000,-41.992,0.000
1709140585.357,0.000,-39.062,0.000,-44.434,0.000
1709140585.361,0.000,-27.832,0.000,-43.457,0.000
1709140585.364,-46.387,-31.250,-28.320,-43.457,0.000
1709140585.368,-50.781,-44.922,-30.273,-54.199,0.000
1709140585.372,-46.875,-41.504,-25.879,-56.152,0.000
1709140585.376,-40.039,-38.086,-24.414,-45.410,0.000
1709140585.380,-32.715,-36.621,-28.809,-46.875,0.000
1709140585.384,-43.457,-20.508,-34.668,-53.223,0.000
1709140585.388,-56.152,-28.809,-30.762,-60.547,0.000
1709140585.392,-57.129,-38.086,-24.902,-63.477,0.000
1709140585.396,-59.082,-19.043,-29.785,-53.711,0.000
1709140585.400,-60.059,-21.973,-34.668,-53.711,0.000
1709140585.403,-48.340,-37.109,-25.879,-49.316,0.000
1709140585.407,-37.109,-40.039,-20.996,-46.875,0.000
1709140585.411,-35.645,-52.246,-20.508,-50.293,0.000
1709140585.415,-28.320,-48.828,-23.438,-48.340,0.000
1709140585.419,-40.039,-20.508,-26.367,-41.504,0.000
1709140585.423,-51.758,-21.973,-25.391,-32.227,0.000
1709140585.427,-33.203,-35.156,-20.020,-27.344,0.000
1709140585.431,-25.391,-34.180,-22.949,-32.227,0.000
1709140585.435,-40.527,-29.785,-29.785,-40.527,0.000
1709140585.439,-39.062,-39.551,-26.855,-26.367,0.000
1709140585.442,-27.344,-46.387,-30.273,-21.973,0.000
1709140585.446,-25.391,-36.621,-25.391,-37.109,0.000
1709140585.450,-20.020,-41.504,-22.461,-36.621,0.000
1709140585.454,-26.855,-42.480,-23.926,-33.691,0.000
1709140585.458,-31.738,-38.086,-20.508,-37.109,0.000
1709140585.462,-29.785,-46.387,-18.555,-33.691,0.000
1709140585.466,-34.668,-42.480,-20.020,-29.785,0.000
1709140585.470,-28.320,-50.293,-21.973,-27.832,0.000
1709140585.474,-21.973,-44.922,-25.879,-25.391,0.000
1709140585.477,-25.391,-27.832,-29.785,-29.785,0.000
1709140585.481,-32.227,-28.320,-22.949,-28.320,0.000
1709140585.485,-30.273,-21.973,-15.625,-27.832,0.000
1709140585.489,-33.203,-25.879,-17.090,-34.668,0.000
1709140585.493,-41.016,-41.992,-22.461,-39.062,0.000
1709140585.497,-48.340,-56.641,-20.508,-40.039,0.000
1709140585.501,-44.922,-61.035,-20.996,-32.227,0.000
1709140585.505,-40.527,-52.246,-28.809,-28.320,0.000
1709140585.508,-44.434,-35.645,-35.156,-37.598,0.000
1709140585.512,-43.457,-27.832,-34.668,-41.992,0.000
1709140585.516,-29.297,-27.832,-27.832,-46.387,0.000
1709140585.520,-26.855,-39.062,-26.367,-44.434,0.000
1709140585.524,-30.273,-54.199,-23.438,-36.621,0.000
1709140585.528,-28.320,-47.852,-24.414,-27.832,0.000
1709140585.532,-47.852,-32.227,-27.344,-32.715,0.000
1709140585.536,-58.594,-33.691,-25.879,-51.270,0.000
1709140585.540,-50.781,-40.039,-36.621,-54.199,0.000
1709140585.544,-36.621,-46.387,-34.668,-46.875,0.000
1709140585.547,-35.156,-40.527,-27.344,-43.457,0.000
1709140585.551,-34.668,-38.086,-27.832,-43.457,0.000
1709140585.555,-39.062,-42.969,-27.344,-40.527,0.000
1709140585.559,-47.852,-31.250,-40.039,-47.363,0.000
1709140585.563,-42.480,-28.320,-39.062,-48.340,0.000
1709140585.567,-44.434,-39.551,-27.832,-41.992,0.000
1709140585.571,-51.758,-41.504,-25.879,-37.109,0.000
1709140585.575,-50.293,-29.297,-26.855,-27.832,0.000
1709140585.578,-34.180,-23.926,-27.832,-26.367,0.000
1709140585.582,-25.879,-33.203,-32.227,-30.762,0.000
1709140585.586,-44.434,-41.016,-29.297,-34.668,0.000
1709140585.590,-47.363,-47.852,-24.902,-38.574,0.000
1709140585.594,-47.363,-58.594,-25.879,-34.180,0.000
1709140585.598,-45.898,-44.434,-21.484,-29.297,0.000
1709140585.602,-38.086,-32.227,-20.996,-34.180,0.000
1709140585.606,-37.109,-29.785,-32.715,-34.668,0.000
1709140585.610,-39.551,-34.180,-39.062,-39.062,0.000
1709140585.614,-38.086,-39.551,-29.297,-39.551,0.000
1709140585.618,-42.969,-45.410,-25.391,-38.574,0.000
1709140585.622,-45.898,-38.086,-34.668,-41.992,0.000
1709140585.626,-38.086,-36.621,-35.156,-48.340,0.000
1709140585.629,-38.086,-51.270,-20.508,-55.176,0.000
1709140585.633,-38.574,-52.246,-9.277,-39.062,0.000
1709140585.637,-41.992,-44.434,-18.555,-41.992,0.000
1709140585.641,-61.035,-47.852,-28.809,-44.434,0.000
1709140585.645,-60.059,-58.105,-32.227,-43.945,0.000
1709140585.649,-41.016,-51.270,-29.297,-50.293,0.000
1709140585.653,-42.969,-47.363,-27.344,-49.316,0.000
1709140585.657,-41.504,-47.852,-28.809,-36.621,0.000
1709140585.661,-32.715,-36.621,-29.785,-37.598,0.000
1709140585.665,-33.203,-44.922,-30.273,-44.922,0.000
1709140585.669,-36.621,-57.617,-28.320,-55.664,0.000
1709140585.673,-38.574,-52.246,-25.391,-60.547,0.000
1709140585.677,-44.922,-62.988,-26.367,-44.922,0.000
1709140585.680,-36.133,-67.383,-39.062,-32.715,0.000
1709140585.684,-30.762,-54.688,-54.688,-40.527,0.000
1709140585.688,-44.434,-37.109,-35.645,-54.688,0.000
1709140585.692,-49.805,-29.297,-22.461,-46.387,0.000
1709140585.696,-45.898,-37.109,-24.902,-44.434,0.000
1709140585.700,-41.016,-37.109,-17.090,-48.340,0.000
1709140585.704,-37.109,-31.738,-24.414,-47.852,0.000
1709140585.708,-41.016,-37.109,-31.738,-57.617,0.000
1709140585.712,-45.898,-36.133,-25.879,-49.316,0.000
1709140585.716,-43.945,-52.734,-19.531,-45.410,0.000
1709140585.720,-45.410,-56.152,-29.297,-56.641,0.000
1709140585.723,-51.758,-48.828,-34.180,-50.293,0.000
1709140585.727,-52.734,-32.715,-28.809,-53.223,0.000
1709140585.731,-39.062,-18.555,-26.855,-55.176,0.000
1709140585.735,-40.527,-35.645,-31.738,-56.641,0.000
1709140585.739,-49.805,-29.785,-32.227,-54.688,0.000
1709140585.743,-51.758,-19.043,-21.484,-52.734,0.000
1709140585.747,-53.223,-31.250,-20.020,-58.594,0.000
1709140585.751,-51.270,-38.086,-31.250,-62.012,0.000
1709140585.755,-40.527,-30.762,-34.180,-56.641,0.000
1709140585.759,-32.227,-32.227,-26.367,-48.340,0.000
1709140585.762,-43.457,-44.922,-19.531,-38.086,0.000
1709140585.766,-35.645,-61.523,-23.926,-36.621,0.000
1709140585.770,-26.367,-50.293,-31.250,-31.250,0.000
1709140585.774,-37.598,-16.113,-27.344,-39.551,0.000
1709140585.778,-35.645,-20.996,-22.461,-46.387,0.000
1709140585.782,-33.691,-41.504,-20.020,-39.062,0.000
1709140585.786,-40.039,-27.832,-20.508,-29.297,0.000
1709140585.790,-27.832,-33.203,-20.020,-34.180,0.000
1709140585.794,-30.273,-38.086,-21.484,-41.504,0.000
1709140585.798,-48.340,-25.879,-33.203,-38.086,0.000
1709140585.802,-41.504,-40.527,-31.250,-31.250,0.000
1709140585.805,-41.016,-55.176,-22.949,-39.551,0.000
1709140585.809,-39.062,-42.480,-22.461,-40.527,0.000
1709140585.813,-33.203,-30.762,-17.090,-24.902,0.000
1709140585.817,-35.156,-13.184,-20.020,-33.691,0.000
1709140585.821,-34.668,-16.113,-20.996,-46.387,0.000
1709140585.825,-28.320,-23.438,-12.207,-45.898,0.000
1709140585.829,-20.996,-11.230,-13.184,-36.133,0.000
1709140585.833,-13.672,-32.715,-14.648,-25.879,0.000
1709140585.837,-19.043,-66.895,-21.484,-25.391,0.000
1709140585.840,-23.438,-38.086,-30.762,-26.367,0.000
1709140585.844,-29.297,-13.184,-35.156,-27.832,0.000
1709140585.848,-39.551,-22.461,-30.273,-34.668,0.000
1709140585.852,-32.715,-34.668,-24.902,-39.062,0.000
1709140585.856,-26.855,-41.504,-36.133,-26.367,0.000
1709140585.860,-30.273,-41.016,-32.715,-21.484,0.000
1709140585.864,-28.809,-29.297,-23.438,-41.504,0.000
1709140585.868,-23.438,-47.852,-23.438,-43.457,0.000
1709140585.872,-27.344,-53.711,-20.020,-27.344,0.000
1709140585.876,-39.062,-30.273,-22.949,-29.785,0.000
1709140585.879,-45.898,-21.484,-26.367,-39.551,0.000
1709140585.883,-43.457,-26.367,-29.785,-36.621,0.000
1709140585.887,-35.645,-32.715,-31.250,-47.363,0.000
1709140585.891,-25.391,-37.109,-34.668,-57.617,0.000
1709140585.895,-39.551,-35.156,-39.062,-50.781,0.000
1709140585.899,-45.898,-39.551,-27.832,-45.898,0.000
1709140585.903,-35.156,-58.105,-11.719,-30.762,0.000
1709140585.907,-33.203,-48.340,-21.973,-39.062,0.000
1709140585.911,-38.574,-38.574,-32.227,-49.805,0.000
1709140585.914,-46.875,-54.688,-32.715,-37.598,0.000
1709140585.918,-40.039,-53.223,-34.180,-31.250,0.000
1709140585.922,-35.156,-37.598,-21.484,-32.227,0.000
1709140585.926,-36.133,-21.973,-23.438,-40.527,0.000
1709140585.930,-36.621,-27.832,-23.926,-44.434,0.000
1709140585.934,-33.691,-51.758,-23.438,-35.645,0.000
1709140585.938,-39.551,-52.246,-24.414,-34.668,0.000
1709140585.942,-41.504,-50.781,-20.020,-35.645,0.000
1709140585.945,-39.551,-42.480,-24.414,-32.227,0.000
1709140585.949,-49.316,-29.785,-31.738,-40.527,0.000
1709140585.953,-48.340,-33.691,-34.668,-42.969,0.000
1709140585.957,-50.781,-50.781,-36.621,-28.809,0.000
1709140585.961,-47.363,-56.152,-34.180,-17.578,0.000
1709140585.965,-42.480,-48.340,-40.527,-23.926,0.000
1709140585.969,-45.410,-53.223,-40.527,-30.273,0.000
1709140585.973,-38.086,-50.293,-32.715,-30.762,0.000
1709140585.977,-34.180,-33.203,-36.133,-30.762,0.000
1709140585.981,-40.039,-44.922,-38.086,-31.738,0.000
1709140585.985,-40.039,-48.340,-26.855,-34.668,0.000
1709140585.989,-38.574,-35.645,-22.949,-42.480,0.000
1709140585.993,-40.039,-41.016,-28.809,-39.551,0.000
1709140585.996,-38.574,-35.156,-27.344,-39.062,0.000
1709140586.000,-29.785,-42.969,-23.926,-33.203,0.000
1709140586.004,-23.926,-53.711,-26.855,-37.598,0.000
1709140586.008,-24.902,-41.504,-34.668,-41.016,0.000
1709140586.012,-35.645,-32.227,-36.621,-37.598,0.000
1709140586.016,-37.598,-41.992,-34.180,-34.668,0.000
1709140586.020,-42.969,-42.969,-35.156,-39.551,0.000
1709140586.024,-40.039,-54.688,-30.273,-47.852,0.000
1709140586.028,-37.109,-57.129,-36.133,-49.316,0.000
1709140586.032,-43.945,-41.504,-39.062,-47.852,0.000
1709140586.036,-42.480,-39.062,-30.762,-48.828,0.000
1709140586.040,-53.711,-32.715,-33.691,-54.199,0.000
1709140586.043,-58.105,-24.414,-29.297,-52.246,0.000
1709140586.047,-48.828,-33.691,-21.484,-50.781,0.000
1709140586.051,-48.828,-58.105,-21.484,-43.457,0.000
1709140586.055,-39.062,-41.504,-20.996,-41.504,0.000
1709140586.059,-41.992,-33.203,-29.785,-43.945,0.000
1709140586.063,-40.039,-57.617,-31.250,-36.621,0.000
1709140586.067,-40.039,-49.805,-25.879,-32.227,0.000
1709140586.071,-43.945,-31.250,-34.668,-38.086,0.000
1709140586.075,-42.480,-29.297,-43.945,-40.527,0.000
1709140586.079,-49.316,-30.762,-41.992,-39.551,0.000
1709140586.083,-35.645,-38.574,-34.668,-40.527,0.000
1709140586.086,-22.949,-46.875,-27.344,-43.457,0.000
1709140586.090,-41.504,-49.805,-23.926,-54.688,0.000
1709140586.094,-53.223,-47.363,-24.902,-55.664,0.000
1709140586.098,-40.039,-40.527,-31.738,-32.715,0.000
1709140586.102,-33.691,-44.434,-27.832,-35.156,0.000
1709140586.106,-38.574,-41.504,-26.367,-45.410,0.000
1709140586.110,-44.922,-41.992,-26.367,-39.062,0.000
1709140586.114,-45.410,-42.480,0.000,-40.527,0.000
1709140586.118,-35.645,-33.203,0.000,-44.434,0.000
1709140586.122,-36.133,-33.691,0.000,-43.945,0.000
1709140586.126,-47.852,-43.457,0.000,-45.898,0.000
1709140586.129,-52.246,-43.457,0.000,-52.734,0.000
1709140586.133,-48.340,-34.180,0.000,-56.152,0.000
1709140586.137,-37.109,-31.250,0.000,-54.688,0.000
1709140586.141,-43.457,-31.250,0.000,-58.105,0.000
1709140586.145,-47.363,-29.785,0.000,-56.152,0.000
1709140586.149,-40.039,-39.062,0.000,-47.852,0.000
1709140586.153,-27.344,-44.922,0.000,-37.598,0.000
1709140586.157,-23.438,-37.109,0.000,-36.621,0.000
1709140586.161,-20.020,-37.598,-21.973,-43.457,0.000
1709140586.165,-14.648,-32.227,-25.391,-44.922,0.000
1709140586.168,-19.531,-28.809,-26.855,-45.898,0.000
1709140586.172,-33.691,-28.809,-30.762,-45.898,0.000
1709140586.176,-39.062,-38.574,-30.273,-40.527,0.000
1709140586.180,-26.367,-30.762,-36.133,-40.039,0.000
1709140586.184,-27.832,-20.020,-33.691,-46.875,0.000
1709140586.188,-32.227,-28.320,-27.344,-40.039,0.000
1709140586.192,-36.133,-33.203,-31.738,-38.086,0.000
1709140586.196,-36.133,-46.875,-25.879,-37.598,0.000
1709140586.200,-28.809,-52.734,-19.531,-38.086,0.000
1709140586.204,-28.809,-47.363,-25.391,-41.016,0.000
1709140586.207,-26.855,-38.086,-33.691,-36.133,0.000
1709140586.211,-25.879,-33.203,-33.203,-41.992,0.000
1709140586.215,-19.531,-45.898,-29.297,-44.434,0.000
1709140586.219,-18.066,-47.363,-34.180,-39.551,0.000
1709140586.223,-35.156,-32.715,-35.156,-44.434,0.000
1709140586.227,-39.062,-23.926,-39.551,-50.293,0.000
1709140586.231,-30.273,-16.602,-37.109,-45.898,0.000
1709140586.235,-40.039,-29.297,-30.273,-39.551,0.000
1709140586.239,-48.340,-43.945,-28.809,-41.504,0.000
1709140586.243,-34.180,-40.039,-31.250,-49.316,0.000
1709140586.246,-27.832,-51.758,-26.367,-50.781,0.000
1709140586.250,-32.715,-58.105,-24.902,-48.828,0.000
1709140586.254,-41.016,-43.945,-40.527,-47.363,0.000
1709140586.258,-45.410,-33.691,-45.410,-46.387,0.000
1709140586.262,-41.992,-17.090,-36.621,-46.875,0.000
1709140586.266,-36.621,-5.371,-33.691,-36.621,0.000
1709140586.270,-26.367,-17.578,-34.668,-36.133,0.000
1709140586.274,-24.414,-36.133,-33.203,-29.785,0.000
1709140586.277,-33.691,-41.504,-30.762,-11.230,0.000
1709140586.281,-33.203,-38.574,-23.926,-17.090,0.000
1709140586.285,-27.832,-41.016,-20.996,-30.273,0.000
1709140586.289,-20.996,-48.828,-32.227,-29.785,0.000
1709140586.293,-28.320,-37.598,-42.480,-34.180,0.000
1709140586.297,-54.688,-21.484,-35.645,-41.016,0.000
1709140586.301,-49.805,-21.973,-28.809,-41.992,0.000
1709140586.305,-36.133,-26.367,-25.391,-40.527,0.000
1709140586.308,-36.133,-32.227,-26.855,-39.062,0.000
1709140586.312,-34.180,-36.621,-29.297,-36.133,0.000
1709140586.316,-28.809,-51.758,-22.949,-33.691,0.000
1709140586.320,-35.156,-58.594,-27.344,-35.645,0.000
1709140586.324,-38.086,-30.762,-27.832,-34.180,0.000
1709140586.328,-33.203,-22.949,-26.855,-34.668,0.000
1709140586.332,-38.574,-51.758,-25.879,-32.227,0.000
1709140586.336,-42.969,-68.359,-25.391,-28.320,0.000
1709140586.340,-37.598,-50.293,-21.973,-26.855,0.000
1709140586.344,-39.062,-22.949,-25.879,-30.762,0.000
1709140586.348,-45.898,-19.531,-30.273,-35.645,0.000
1709140586.352,-53.223,-24.902,-25.879,-48.340,0.000
1709140586.356,-54.688,-29.785,-24.414,-61.035,0.000
1709140586.360,-51.270,-40.039,-26.855,-57.617,0.000
1709140586.363,-38.086,-40.039,-30.762,-47.852,0.000
1709140586.367,-31.738,-38.086,-32.227,-46.875,0.000
1709140586.371,-40.527,-40.039,-27.344,-49.316,0.000
1709140586.375,-37.598,-37.598,-27.344,-43.457,0.000
1709140586.379,-35.645,-62.500,-22.461,-39.062,0.000
1709140586.383,-40.039,-78.613,-22.461,-36.133,0.000
1709140586.387,-40.527,-35.156,-28.320,-43.457,0.000
1709140586.391,-41.016,-13.184,-31.250,-55.176,0.000
1709140586.395,-42.480,-23.926,-28.320,-53.223,0.000
1709140586.399,-46.875,-29.297,-30.762,-48.340,0.000
1709140586.403,-38.574,-31.250,-39.551,-51.270,0.000
1709140586.407,-34.668,-34.668,-40.527,-51.758,0.000
1709140586.410,-43.457,-41.992,-36.133,-48.340,0.000
1709140586.414,-46.387,-55.664,-43.457,-47.363,0.000
1709140586.418,-48.340,-65.430,-43.457,-48.340,0.000
1709140586.422,-44.434,-59.570,-30.273,-37.598,0.000
1709140586.426,-39.062,-39.551,-23.926,-22.461,0.000
1709140586.430,-34.180,-38.574,-30.762,-22.949,0.000
1709140586.434,-35.156,-40.527,-28.809,-41.016,0.000
1709140586.438,-49.805,-40.527,-24.414,-50.781,0.000
1709140586.442,-48.828,-35.645,-34.180,-47.852,0.000
1709140586.446,-39.551,-20.508,-40.527,-48.828,0.000
1709140586.450,-48.340,-24.902,-34.668,-46.875,0.000
1709140586.453,-43.945,-24.902,-27.344,-42.969,0.000
1709140586.457,-38.086,-30.762,-25.391,-38.086,0.000
1709140586.461,-34.180,-40.527,-27.832,-39.062,0.000
1709140586.465,-32.715,-40.527,-31.250,-34.180,0.000
1709140586.469,-36.621,-45.898,-31.738,-28.809,0.000
1709140586.473,-28.809,-55.176,-27.832,-34.180,0.000
1709140586.477,-27.344,-38.574,-29.785,-40.039,0.000
1709140586.481,-24.902,-40.527,-26.367,-43.945,0.000
1709140586.485,-32.715,-50.781,-28.809,-38.574,0.000
1709140586.489,-46.875,-20.020,-41.992,-46.387,0.000
1709140586.493,-42.969,-19.043,-45.410,-57.129,0.000
1709140586.496,-44.922,-36.621,-49.316,-48.828,0.000
1709140586.500,-39.551,-39.062,-42.969,-41.992,0.000
1709140586.504,-27.344,-46.387,-38.086,-45.898,0.000
1709140586.508,-23.926,-41.504,-39.062,-41.992,0.000
1709140586.512,-33.203,-44.922,-32.715,-34.180,0.000
1709140586.516,-31.738,-53.223,-22.949,-24.414,0.000
1709140586.520,-30.762,-36.621,-22.949,-20.020,0.000
1709140586.524,-34.668,-37.598,-33.691,-33.691,0.000
1709140586.528,-27.344,-47.363,-39.551,-35.645,0.000
1709140586.532,-18.555,-47.852,-42.480,-32.227,0.000
1709140586.535,-29.785,-43.457,-35.156,-34.668,0.000
1709140586.539,-45.898,-44.434,-28.320,-31.250,0.000
1709140586.543,-42.969,-46.875,-31.250,-22.949,0.000
1709140586.547,-39.551,-32.715,-34.180,-26.367,0.000
1709140586.551,-37.109,-22.461,-35.645,-28.320,0.000
1709140586.555,-34.180,-47.363,-35.156,-29.785,0.000
1709140586.559,-33.203,-57.129,-36.133,-33.691,0.000
1709140586.563,-27.832,-38.574,-41.504,-31.250,0.000
1709140586.567,-39.062,-32.227,-41.016,-36.133,0.000
1709140586.571,-45.898,-34.180,-33.691,-43.457,0.000
1709140586.575,-49.316,-40.527,-28.809,-46.875,0.000
1709140586.578,-43.945,-46.387,-30.762,-45.898,0.000
1709140586.582,-39.062,-39.062,-36.621,-41.504,0.000
1709140586.586,-35.156,-26.855,-26.855,-45.410,0.000
1709140586.590,-38.574,-31.250,-28.809,-41.016,0.000
1709140586.594,-48.340,-28.809,-34.668,-29.297,0.000
1709140586.598,-42.480,-34.180,-31.250,-37.109,0.000
1709140586.602,-42.480,-41.992,-31.738,-47.852,0.000
1709140586.606,-46.875,-47.852,-29.785,-44.434,0.000
1709140586.610,-39.551,-43.457,-28.320,-36.133,0.000
1709140586.613,-35.156,-20.508,-33.203,-42.480,0.000
1709140586.617,-29.297,-18.555,-29.785,-41.992,0.000
1709140586.621,-24.902,-30.273,-30.273,-38.086,0.000
1709140586.625,-34.180,-28.809,-34.668,-40.527,0.000
1709140586.629,-35.156,-32.227,-30.762,-32.715,0.000
1709140586.633,-37.598,-51.270,-30.273,-25.879,0.000
1709140586.637,-27.344,-47.852,-33.691,-26.367,0.000
1709140586.641,-25.879,-36.621,-36.621,-25.879,0.000
1709140586.644,-39.551,-46.875,-37.598,-21.484,0.000
1709140586.648,-39.551,-67.871,-43.945,-19.531,0.000
1709140586.652,-40.039,-75.195,-38.574,-24.414,0.000
1709140586.656,-40.039,-57.617,-22.461,-31.250,0.000
1709140586.660,-34.668,-36.621,-19.531,-27.344,0.000
1709140586.664,-40.527,-26.855,-23.926,-29.785,0.000
1709140586.668,-48.828,-24.902,-22.461,-38.574,0.000
1709140586.672,-53.711,-31.250,-27.832,-41.504,0.000
1709140586.675,-50.293,-31.738,-29.785,-36.133,0.000
1709140586.679,-40.527,-31.738,-25.391,-26.855,0.000
1709140586.683,-24.902,-43.945,-29.297,-28.809,0.000
1709140586.687,-31.738,-41.992,-31.738,-36.133,0.000
1709140586.691,-44.922,-41.016,-27.832,-42.480,0.000
1709140586.695,-46.875,-51.270,-31.250,-43.945,0.000
1709140586.699,-43.945,-46.387,-37.598,-33.691,0.000
1709140586.703,-39.062,-44.434,-38.574,-38.086,0.000
1709140586.707,-24.414,-33.691,-38.574,-41.016,0.000
1709140586.711,-25.879,-27.832,-33.691,-45.410,0.000
1709140586.715,-43.457,-24.414,-32.227,-53.223,0.000
1709140586.718,-43.945,-18.555,-36.621,-53.223,0.000
1709140586.723,-30.762,-32.227,-41.504,-50.293,0.000
1709140586.726,-22.949,-37.109,-38.574,-45.410,0.000
1709140586.730,-19.531,-35.156,-33.691,-37.598,0.000
1709140586.734,-23.926,-45.898,-35.645,-36.133,0.000
1709140586.738,-26.367,-40.039,-33.691,-29.297,0.000
1709140586.742,-21.973,-27.832,-35.156,-20.508,0.000
1709140586.746,-22.461,-28.809,-33.203,-26.367,0.000
1709140586.750,-30.762,-29.785,-32.715,-40.527,0.000
1709140586.754,-42.480,-30.273,-31.738,-44.434,0.000
1709140586.758,-49.316,-43.945,-33.203,-38.086,0.000
1709140586.762,-40.039,-48.340,-30.762,-45.898,0.000
1709140586.766,-39.551,-41.992,-28.320,-48.828,0.000
1709140586.770,-37.598,-56.152,-35.645,-40.039,0.000
1709140586.774,-35.645,-52.734,-28.809,-41.992,0.000
1709140586.777,-39.551,-22.461,-20.020,-50.293,0.000
1709140586.781,-40.527,-24.414,-24.414,-45.410,0.000
1709140586.785,-41.992,-45.410,-31.738,-42.480,0.000
1709140586.789,-40.039,-48.828,-38.574,-38.574,0.000
1709140586.793,-39.551,-39.062,-38.574,-34.668,0.000
1709140586.797,-48.828,-31.738,-34.180,-47.363,0.000
1709140586.801,-44.434,-41.504,-32.715,-51.270,0.000
1709140586.805,-33.203,-44.434,-36.133,-38.086,0.000
1709140586.809,-34.668,-46.387,-35.645,-40.039,0.000
1709140586.813,-35.645,-52.734,-35.645,-40.527,0.000
1709140586.817,-53.711,-52.246,-42.969,-43.945,0.000
1709140586.821,-54.688,-50.293,-45.410,-48.340,0.000
1709140586.824,-40.039,-34.180,-34.180,-40.527,0.000
1709140586.828,-25.391,-30.273,-31.738,-30.762,0.000
1709140586.832,-30.762,-47.363,-33.691,-28.809,0.000
1709140586.836,-39.062,-45.410,-27.832,-34.668,0.000
1709140586.840,-27.344,-42.969,-26.855,-35.645,0.000
1709140586.844,-23.438,-53.711,-27.832,-35.645,0.000
1709140586.848,-23.926,-55.664,-30.762,-35.645,0.000
1709140586.852,-33.203,-41.992,-35.645,-41.992,0.000
1709140586.856,-34.668,-33.691,-31.738,-42.480,0.000
1709140586.860,-28.809,-27.344,-23.926,-31.738,0.000
1709140586.864,-33.691,-33.203,-27.832,-32.227,0.000
1709140586.867,-32.715,-47.363,-35.645,-44.434,0.000
1709140586.871,-39.062,-36.621,-37.598,-44.922,0.000
1709140586.875,-33.691,-31.738,-37.598,-36.133,0.000
1709140586.879,-23.438,-31.738,-38.086,-35.156,0.000
1709140586.883,-34.180,-45.898,-32.227,-33.203,0.000
1709140586.887,-32.227,-59.082,-30.273,-43.945,0.000
1709140586.891,-28.809,-42.480,-32.715,-55.664,0.000
1709140586.895,-36.621,-28.809,-36.621,-43.457,0.000
1709140586.899,-42.480,-41.016,-40.527,-41.992,0.000
1709140586.903,-36.621,-47.852,-44.434,-52.734,0.000
1709140586.907,-38.086,-44.922,-40.039,-42.480,0.000
1709140586.910,-39.062,-47.363,-36.133,-40.527,0.000
1709140586.914,-39.062,-35.645,-32.227,-50.781,0.000
1709140586.918,-52.246,-30.762,-24.414,-44.922,0.000
1709140586.922,-49.316,-39.551,-25.391,-45.410,0.000
1709140586.926,-45.898,-49.316,-27.832,-46.387,0.000
1709140586.930,-43.945,-60.059,-27.344,-45.898,0.000
1709140586.934,-42.480,-57.129,-27.344,-44.922,0.000
1709140586.938,-56.152,-39.062,-31.250,-39.062,0.000
1709140586.942,-58.594,-32.227,-35.156,-41.992,0.000
1709140586.946,-39.551,-32.715,-29.297,-41.992,0.000
1709140586.949,-29.297,-41.016,-23.926,-36.133,0.000
1709140586.953,-38.086,-38.086,-23.926,-36.621,0.000
1709140586.957,-43.945,-30.762,-25.391,-33.691,0.000
1709140586.961,-27.832,-30.273,-27.832,-30.273,0.000
1709140586.965,-18.066,-38.574,-36.133,-35.156,0.000
1709140586.969,-30.762,-35.645,-28.320,-33.203,0.000
1709140586.973,-39.551,-25.879,-20.020,-32.227,0.000
1709140586.977,-40.527,-32.227,-18.555,-32.227,0.000
1709140586.981,-31.738,-41.016,-20.508,-28.320,0.000
1709140586.984,-22.461,-41.992,-28.809,-30.273,0.000
1709140586.988,-22.461,-33.691,-32.715,-38.086,0.000
1709140586.992,-27.344,-45.898,-25.879,-38.574,0.000
1709140586.996,-22.461,-41.992,-20.020,-34.180,0.000
1709140587.000,-26.855,-18.066,-20.996,-31.738,0.000
1709140587.004,-26.855,-21.973,-23.438,-29.785,0.000
1709140587.008,-32.227,-30.762,-31.250,-35.645,0.000
1709140587.012,-41.992,-20.996,-30.273,-44.922,0.000
1709140587.015,-33.203,-33.691,-21.484,-40.039,0.000
1709140587.019,-22.949,-50.781,-15.625,-39.551,0.000
1709140587.023,-35.645,-37.598,-19.043,-46.875,0.000
1709140587.027,-49.316,-25.391,-31.250,-41.992,0.000
1709140587.031,-45.410,-33.203,-35.645,-39.062,0.000
1709140587.035,-44.922,-48.340,-29.297,-40.527,0.000
1709140587.039,-42.969,-35.156,-28.809,-42.480,0.000
1709140587.043,-41.504,-25.879,-38.086,-48.828,0.000
1709140587.047,-39.062,-28.809,-32.715,-41.504,0.000
1709140587.051,-36.621,-41.504,-20.020,-40.039,0.000
1709140587.055,-46.387,-49.316,-19.043,-41.504,0.000
1709140587.059,-47.852,-42.969,-25.391,-38.574,0.000
1709140587.063,-41.992,-38.086,-36.621,-47.363,0.000
1709140587.067,-51.758,-20.508,-39.062,-53.223,0.000
1709140587.070,-54.688,-13.184,-34.668,-40.039,0.000
1709140587.074,-60.547,-23.438,-29.297,-41.016,0.000
1709140587.078,-55.664,-37.109,-30.273,-49.316,0.000
1709140587.082,-38.574,-39.551,-32.715,-45.898,0.000
1709140587.086,-39.062,-48.340,-30.762,-45.898,0.000
1709140587.090,-46.875,-45.410,-32.227,-40.527,0.000
1709140587.094,-44.434,-36.621,-34.668,-30.762,0.000
1709140587.098,-32.715,-50.781,-28.320,-19.043,0.000
1709140587.102,-28.320,-48.828,-25.879,-26.367,0.000
1709140587.106,-36.133,-28.320,-27.344,-41.992,0.000
1709140587.110,-35.645,-28.809,-21.973,-38.086,0.000
1709140587.114,-22.461,-32.227,-20.996,-23.926,0.000
1709140587.118,-29.297,-27.832,-28.809,-24.902,0.000
1709140587.121,-41.504,-30.762,-31.250,-31.250,0.000
1709140587.125,-32.227,-39.062,-26.855,-35.645,0.000
1709140587.129,-26.855,-43.457,-27.344,-37.109,0.000
1709140587.133,-27.344,-45.410,-26.367,-30.273,0.000
1709140587.137,-32.227,-41.504,-26.855,-39.062,0.000
1709140587.141,-29.297,-29.297,-30.762,-45.410,0.000
1709140587.146,-34.668,-28.809,-30.762,-41.016,0.000
1709140587.149,-42.480,-36.133,-23.926,-34.668,0.000
1709140587.153,-42.480,-44.434,-26.367,-37.109,0.000
1709140587.157,-47.363,-54.199,-36.133,-47.363,0.000
1709140587.161,-29.785,-53.711,-26.855,-46.387,0.000
1709140587.165,-32.227,-43.457,-18.555,-36.621,0.000
1709140587.169,-41.016,-31.250,-29.297,-35.156,0.000
1709140587.173,-43.457,-37.598,-32.715,-38.574,0.000
1709140587.177,-46.387,-33.691,-22.949,-29.785,0.000
1709140587.181,-39.062,-17.578,-25.879,-20.996,0.000
1709140587.185,-32.227,-18.555,-31.738,-31.250,0.000
1709140587.189,-36.621,-24.414,-33.203,-34.668,0.000
1709140587.192,-42.969,-31.738,-30.273,-43.457,0.000
1709140587.196,-43.457,-34.668,-31.738,-43.457,0.000
1709140587.200,-39.062,-39.551,-33.203,-33.691,0.000
1709140587.204,-33.203,-50.781,-33.691,-33.691,0.000
1709140587.208,-45.898,-51.758,-35.645,-38.574,0.000
1709140587.212,-47.363,-56.152,-38.086,-49.316,0.000
1709140587.216,-38.574,-57.129,-28.320,-42.480,0.000
1709140587.220,-34.180,-42.969,-22.949,-33.203,0.000
1709140587.224,-32.715,-22.949,-33.203,-34.668,0.000
1709140587.228,-38.086,-16.602,-35.645,-35.645,0.000
1709140587.232,-35.156,-32.715,-35.645,-31.250,0.000
1709140587.235,-24.414,-37.109,-35.645,-22.461,0.000
1709140587.240,0.000,-32.715,-26.367,-15.137,0.000
1709140587.244,0.000,-36.133,-19.531,-24.902,0.000
1709140587.248,0.000,-52.246,-23.926,-35.156,0.000
1709140587.252,0.000,-48.340,-23.438,-43.945,0.000
1709140587.255,0.000,-25.879,-26.367,-42.480,0.000
1709140587.259,0.000,-20.020,-30.273,-36.621,0.000
1709140587.263,0.000,-34.180,-26.367,-38.574,0.000
1709140587.267,0.000,-36.133,-27.832,-38.574,0.000
1709140587.271,0.000,-35.156,-23.926,-36.133,0.000
1709140587.275,0.000,-36.133,-30.762,-41.992,0.000
1709140587.279,0.000,-47.852,-32.227,-35.645,0.000
1709140587.283,0.000,-48.828,-28.320,-25.391,0.000
1709140587.287,-36.621,-33.203,-36.621,-34.180,0.000
1709140587.291,-37.109,-27.832,-44.922,-48.340,0.000
1709140587.294,-34.668,-36.621,-35.156,-48.828,0.000
1709140587.298,-32.715,-48.340,-26.367,-34.180,0.000
1709140587.302,-30.762,-52.246,-40.527,-32.715,0.000
1709140587.306,-25.879,-58.105,-38.086,-37.109,0.000
1709140587.310,-27.832,-31.250,-26.367,-38.574,0.000
1709140587.314,-27.832,-17.578,-22.949,-49.805,0.000
1709140587.318,-32.715,-25.391,-21.973,-51.758,0.000
1709140587.322,-33.203,-35.645,-26.367,-43.457,0.000
1709140587.326,-26.855,-47.363,-29.785,-35.645,0.000
1709140587.330,-19.043,-48.340,-34.180,-26.367,0.000
1709140587.333,-13.672,-45.410,-34.180,-29.785,0.000
1709140587.337,-40.527,-45.898,-33.203,-40.039,0.000
1709140587.341,-49.805,-38.574,-32.227,-40.527,0.000
1709140587.345,-38.086,-36.621,-29.297,-33.691,0.000
1709140587.349,-44.434,-43.945,-34.180,-41.992,0.000
1709140587.353,-40.527,-34.668,-33.203,-52.734,0.000
1709140587.357,-35.156,-33.203,-32.227,-47.363,0.000
1709140587.361,-40.527,-39.551,-32.715,-39.551,0.000
1709140587.365,-35.645,-37.109,-38.574,-45.410,0.000
1709140587.368,-29.785,-37.598,-44.922,-45.410,0.000
1709140587.372,-31.250,-37.598,-33.203,-32.715,0.000
1709140587.376,-35.645,-34.668,-36.621,-39.062,0.000
1709140587.380,-40.039,-42.480,-41.016,-47.852,0.000
1709140587.384,-33.203,-41.504,-33.691,-34.668,0.000
1709140587.388,-28.809,-41.992,-29.297,-32.715,0.000
1709140587.392,-24.414,-35.645,-31.250,-40.039,0.000
1709140587.396,-22.461,-21.484,-33.203,-48.340,0.000
1709140587.399,-22.461,-32.715,-33.691,-48.828,0.000
1709140587.403,-16.602,-52.246,-41.992,-35.156,0.000
1709140587.407,-22.949,-42.480,-41.992,-34.180,0.000
1709140587.411,-24.902,-28.809,-33.691,-39.062,0.000
1709140587.415,-20.508,-44.922,-35.645,-42.480,0.000
1709140587.419,-33.203,-47.852,-43.945,-34.668,0.000
1709140587.423,-32.227,-33.203,-38.086,-37.109,0.000
1709140587.427,-16.113,-32.715,-25.391,-38.574,0.000
1709140587.430,-17.090,-50.781,-25.391,-32.715,0.000
1709140587.434,-39.062,-57.129,-35.156,-44.434,0.000
1709140587.438,-43.457,-31.738,-39.062,-53.223,0.000
1709140587.442,-42.969,-38.574,-37.109,-54.199,0.000
1709140587.446,-41.016,-43.457,-36.133,-57.129,0.000
1709140587.450,-37.598,-32.227,-36.133,-64.453,0.000
1709140587.454,-51.270,-44.922,-35.156,-67.383,0.000
1709140587.458,-51.270,-63.477,-42.969,-63.965,0.000
1709140587.462,-34.180,-57.617,-44.434,-56.152,0.000
1709140587.466,-44.922,-41.992,-32.227,-44.434,0.000
1709140587.470,-58.105,-39.551,-28.809,-44.922,0.000
1709140587.474,-50.781,-41.992,-24.902,-48.340,0.000
1709140587.478,-48.828,-50.293,-26.855,-45.410,0.000
1709140587.481,-42.480,-47.852,-30.273,-46.387,0.000
1709140587.485,-42.480,-39.062,-32.715,-53.223,0.000
1709140587.489,-43.457,-29.297,-36.133,-56.152,0.000
1709140587.493,-47.363,-35.645,-38.574,-60.547,0.000
1709140587.497,-56.641,-46.387,-31.250,-58.594,0.000
1709140587.501,-53.711,-49.805,-28.320,-45.410,0.000
1709140587.505,-51.758,-54.199,-31.250,-34.180,0.000
1709140587.509,-53.223,-38.574,-31.738,-33.203,0.000
1709140587.513,-53.711,-35.645,-37.598,-35.645,0.000
1709140587.517,-42.480,-45.410,-38.086,-30.273,0.000
1709140587.521,-31.250,-52.246,-36.621,-33.203,0.000
1709140587.525,-47.852,-56.641,-36.621,-30.762,0.000
1709140587.528,-53.711,-50.293,-33.203,-30.273,0.000
1709140587.532,-43.945,-52.246,-27.832,-33.691,0.000
1709140587.536,-41.504,-53.223,-29.785,-36.621,0.000
1709140587.540,-31.250,-40.527,-33.691,-42.969,0.000
1709140587.544,-26.367,-27.832,-31.738,-43.457,0.000
1709140587.548,-32.227,-30.273,-25.391,-46.875,0.000
1709140587.552,-33.203,-32.715,-22.949,-39.551,0.000
1709140587.556,-33.203,-37.109,-26.367,-23.926,0.000
1709140587.560,-32.227,-39.551,-29.785,-29.785,0.000
1709140587.564,-35.156,-35.156,-31.738,-34.668,0.000
1709140587.568,-35.156,-41.504,-28.809,-37.109,0.000
1709140587.571,-36.133,-39.551,-23.926,-42.969,0.000
1709140587.575,-41.504,-14.160,-22.461,-49.316,0.000
1709140587.579,-48.828,-20.996,-30.273,-41.992,0.000
1709140587.583,-30.273,-57.129,-30.273,-31.738,0.000
1709140587.587,-28.320,-42.969,-25.391,-44.922,0.000
1709140587.591,-54.199,-16.113,-28.809,-57.129,0.000
1709140587.595,-62.988,-21.973,-33.691,-64.453,0.000
1709140587.599,-72.266,-50.293,-42.480,-56.641,0.000
1709140587.603,-69.336,-43.457,-43.945,-54.199,0.000
1709140587.607,-60.547,-20.020,-38.086,-60.059,0.000
1709140587.610,-52.734,-39.062,-39.062,-49.805,0.000
1709140587.614,-44.434,-60.547,-39.551,-38.086,0.000
1709140587.618,-44.922,-46.387,-35.156,-36.133,0.000
1709140587.622,-44.922,-39.062,-28.809,-37.109,0.000
1709140587.626,-41.016,-43.457,-23.926,-38.574,0.000
1709140587.630,-39.551,-42.480,-30.273,-32.715,0.000
1709140587.634,-40.039,-33.203,-33.691,-36.133,0.000
1709140587.638,-41.016,-18.555,-33.691,-49.316,0.000
1709140587.642,-39.551,-23.438,-34.668,-41.992,0.000
1709140587.646,-37.598,-32.227,-41.992,-38.574,0.000
1709140587.650,-41.504,-29.297,-47.363,-60.059,0.000
1709140587.653,-35.645,-35.645,-43.457,-63.965,0.000
1709140587.657,-36.133,-53.223,-34.180,-42.969,0.000
1709140587.662,-42.969,-55.664,-32.227,-40.039,0.000
1709140587.666,-41.504,-41.504,-30.762,-47.852,0.000
1709140587.669,-46.387,-35.645,-30.273,-50.781,0.000
1709140587.673,-44.922,-39.551,-37.598,-50.293,0.000
1709140587.677,-44.922,-29.297,-35.156,-48.828,0.000
1709140587.681,-37.109,-23.926,-23.438,-38.086,0.000
1709140587.685,-23.926,-37.109,-22.949,-33.203,0.000
1709140587.689,-25.879,-23.438,-32.227,-41.992,0.000
1709140587.693,-35.156,-28.809,-36.621,-46.875,0.000
1709140587.697,-40.039,-39.062,-33.691,-48.828,0.000
1709140587.701,-39.062,-32.227,-25.879,-42.480,0.000
1709140587.705,-41.504,-32.227,-25.391,-37.109,0.000
1709140587.709,-33.203,-40.039,-24.902,-34.668,0.000
1709140587.713,-34.180,-45.410,-26.855,-39.551,0.000
1709140587.717,-51.270,-26.855,-24.902,-42.969,0.000
1709140587.721,-50.781,-14.648,-31.738,-36.133,0.000
1709140587.725,-29.785,-35.156,-44.922,-41.016,0.000
1709140587.728,-36.133,-54.199,-42.480,-44.922,0.000
1709140587.732,-49.316,-37.598,-29.297,-38.086,0.000
1709140587.736,-52.734,-49.316,-25.879,-42.480,0.000
1709140587.740,-56.152,-42.969,-28.809,-39.062,0.000
1709140587.744,-44.434,-15.625,-29.785,-22.949,0.000
1709140587.748,-30.762,-18.066,-27.344,-11.230,0.000
1709140587.752,-34.668,-39.551,-30.273,-15.137,0.000
1709140587.755,-44.922,-49.805,-33.203,-23.926,0.000
1709140587.759,-40.039,-45.898,-29.785,-17.090,0.000
1709140587.763,-29.785,-40.039,-22.461,-14.160,0.000
1709140587.767,-25.391,-43.457,-22.949,-17.578,0.000
1709140587.771,-18.066,-49.316,-30.762,-18.555,0.000
1709140587.775,-17.090,-38.574,-30.762,-24.902,0.000
1709140587.779,-20.996,-32.715,-34.180,-37.598,0.000
1709140587.783,-28.809,-35.645,-27.832,-33.203,0.000
1709140587.787,-33.691,-34.668,-20.996,-25.391,0.000
1709140587.791,-30.273,-37.109,-29.297,-28.809,0.000
1709140587.795,-40.039,-40.039,-33.203,-28.809,0.000
1709140587.798,-51.758,-27.832,-33.203,-35.156,0.000
1709140587.802,-32.715,-32.227,-34.180,-34.668,0.000
1709140587.806,-13.184,-66.895,-36.133,-20.508,0.000
1709140587.810,-29.785,-51.758,-31.250,-27.832,0.000
1709140587.814,-43.945,-27.832,-25.879,-56.152,0.000
1709140587.818,-52.246,-26.367,-21.973,-57.129,0.000
1709140587.822,-51.270,-32.227,-17.578,-40.039,0.000
1709140587.825,-46.387,-33.203,-25.391,-40.527,0.000
1709140587.829,-44.922,-36.621,-25.879,-47.363,0.000
1709140587.833,-36.621,-36.621,-20.508,-41.016,0.000
1709140587.837,-36.621,-40.039,-24.902,-35.156,0.000
1709140587.841,-34.668,-53.223,-31.738,-39.551,0.000
1709140587.845,-41.992,-55.664,-29.785,-41.992,0.000
1709140587.850,-39.062,-59.570,-26.367,-40.039,0.000
1709140587.854,-40.039,-43.457,-29.297,-39.062,0.000
1709140587.857,-52.246,-31.738,-33.203,-40.527,0.000
1709140587.861,-46.875,-37.109,-26.367,-32.715,0.000
1709140587.865,-41.016,-34.180,-28.809,-31.738,0.000
1709140587.869,-36.621,-29.297,-33.691,-41.016,0.000
1709140587.873,-38.086,-35.645,-30.273,-39.551,0.000
1709140587.877,-42.969,-51.758,-21.973,-41.504,0.000
1709140587.881,-41.992,-46.387,-23.926,-37.598,0.000
1709140587.885,-26.367,-33.203,-35.156,-22.949,0.000
1709140587.889,-30.273,-46.875,-26.367,-23.926,0.000
1709140587.893,-36.621,-46.875,-15.625,-34.180,0.000
1709140587.897,-37.598,-46.387,0.000,-33.691,0.000
1709140587.900,-32.715,-37.109,0.000,-37.598,0.000
1709140587.904,-31.250,-18.066,0.000,-41.504,0.000
1709140587.908,-39.062,-19.531,0.000,-41.992,0.000
1709140587.912,-42.480,-23.926,0.000,-45.410,0.000
1709140587.916,-42.969,-32.715,0.000,-42.969,0.000
1709140587.920,-42.969,-44.922,0.000,-34.180,0.000
1709140587.924,-39.551,-39.062,0.000,-30.273,0.000
1709140587.928,-37.598,-36.133,0.000,-35.156,0.000
1709140587.932,-33.691,-44.434,0.000,-34.668,0.000
1709140587.936,-28.320,-36.621,0.000,-28.809,0.000
1709140587.940,-23.438,-32.227,0.000,-31.738,0.000
1709140587.943,-29.785,-46.387,-23.438,-26.855,0.000
1709140587.947,-40.039,-52.246,-32.227,-15.137,0.000
1709140587.951,-34.668,-36.133,-31.738,-26.367,0.000
1709140587.955,-25.879,-44.434,-27.832,-38.574,0.000
1709140587.959,-39.062,-40.039,-26.855,-36.621,0.000
1709140587.963,-39.062,-29.785,-30.762,-36.133,0.000
1709140587.967,-45.898,-35.156,-30.762,-41.992,0.000
1709140587.971,-55.176,-23.926,-28.809,-44.922,0.000
1709140587.975,-41.504,-30.762,-31.250,-32.227,0.000
1709140587.979,-33.691,-41.016,-25.879,-31.738,0.000
1709140587.982,-46.387,-36.133,-26.855,-40.527,0.000
1709140587.986,-54.688,-42.480,-34.668,-41.016,0.000
1709140587.990,-47.852,-49.316,-36.621,-41.504,0.000
1709140587.994,-49.805,-57.617,-33.203,-46.875,0.000
1709140587.998,-59.082,-58.105,-30.273,-50.781,0.000
1709140588.002,-63.477,-44.434,-35.645,-47.363,0.000
1709140588.006,-39.551,-41.992,-36.621,-41.504,0.000
1709140588.010,-32.227,-40.039,-36.133,-34.180,0.000
1709140588.014,-59.570,-39.551,-34.668,-45.410,0.000
1709140588.018,-61.523,-33.691,-33.691,-45.898,0.000
1709140588.021,-44.434,-26.855,-39.062,-30.762,0.000
1709140588.025,-39.062,-33.203,-34.180,-40.039,0.000
1709140588.029,-37.598,-38.086,-26.855,-37.598,0.000
1709140588.033,-37.109,-53.711,-29.297,-37.109,0.000
1709140588.037,-31.738,-54.199,-27.832,-39.551,0.000
1709140588.041,-24.902,-48.828,-23.926,-35.645,0.000
1709140588.045,-33.691,-47.852,-30.762,-45.410,0.000
1709140588.049,-33.691,-30.273,-39.062,-44.434,0.000
1709140588.053,-33.203,-38.574,-37.109,-38.086,0.000
1709140588.057,-34.180,-38.574,-37.109,-38.574,0.000
1709140588.060,-32.227,-27.832,-41.504,-42.480,0.000
1709140588.064,-30.762,-30.273,-36.621,-31.738,0.000
1709140588.068,-27.832,-40.527,-31.738,-30.273,0.000
1709140588.072,-25.879,-44.434,-30.762,-36.621,0.000
1709140588.076,-26.855,-49.316,-31.250,-36.133,0.000
1709140588.080,-25.391,-52.734,-35.645,-40.039,0.000
1709140588.084,-36.621,-29.785,-39.551,-38.086,0.000
1709140588.088,-40.039,-22.949,-39.551,-43.457,0.000
1709140588.092,-37.598,-34.668,-43.945,-44.434,0.000
1709140588.095,-37.598,-35.645,-44.922,-39.062,0.000
1709140588.099,-30.762,-26.855,-42.969,-37.598,0.000
1709140588.103,-31.250,-32.227,-33.691,-41.016,0.000
1709140588.107,-30.762,-41.016,-28.320,-33.203,0.000
1709140588.111,-30.273,-33.203,-33.691,-24.902,0.000
1709140588.115,-41.504,-39.062,-35.156,-39.551,0.000
1709140588.119,-47.852,-49.805,-41.992,-41.016,0.000
1709140588.123,-39.551,-49.805,-38.574,-33.691,0.000
1709140588.127,-40.039,-41.504,-30.762,-41.992,0.000
1709140588.130,-43.457,-33.691,-32.227,-46.875,0.000
1709140588.134,-41.016,-27.832,-27.344,-41.992,0.000
1709140588.138,-51.758,-34.668,-33.203,-36.621,0.000
1709140588.142,-57.617,-35.645,-40.527,-29.785,0.000
1709140588.146,-38.086,-42.969,-36.621,-29.785,0.000
1709140588.150,-31.250,-48.828,-23.926,-23.926,0.000
1709140588.154,-41.992,-48.340,-15.625,-19.531,0.000
1709140588.158,-47.363,-31.738,-20.996,-40.527,0.000
1709140588.162,-35.156,-26.367,-23.438,-38.086,0.000
1709140588.165,-36.133,-52.246,-19.043,-38.086,0.000
1709140588.169,-37.598,-57.129,-27.344,-57.129,0.000
1709140588.173,-24.902,-34.180,-34.668,-60.547,0.000
1709140588.177,-30.762,-22.461,-36.133,-53.711,0.000
1709140588.181,-37.598,-33.691,-41.992,-56.152,0.000
1709140588.185,-31.250,-41.016,-38.574,-48.340,0.000
1709140588.189,-19.531,-53.711,-38.086,-34.180,0.000
1709140588.193,-20.508,-48.828,-35.645,-39.551,0.000
1709140588.197,-25.391,-36.133,-29.785,-48.828,0.000
1709140588.200,-22.949,-36.133,-33.203,-41.504,0.000
1709140588.204,-16.602,-42.480,-31.250,-36.621,0.000
1709140588.208,-29.297,-36.621,-38.574,-49.316,0.000
1709140588.212,-32.227,-40.039,-47.363,-45.898,0.000
1709140588.216,-45.898,-46.875,-43.945,-40.527,0.000
1709140588.220,-56.641,-36.621,-34.668,-48.828,0.000
1709140588.225,-47.852,-40.039,-30.273,-48.340,0.000
1709140588.228,-41.992,-39.551,-40.039,-43.945,0.000
1709140588.232,-43.945,-40.039,-35.156,-42.480,0.000
1709140588.236,-50.781,-43.457,-23.926,-39.062,0.000
1709140588.240,-47.852,-43.457,-33.691,-44.922,0.000
1709140588.244,-39.062,-45.898,-29.785,-40.039,0.000
1709140588.248,-31.738,-41.016,-23.926,-28.809,0.000
1709140588.252,-38.574,-35.645,-38.086,-44.434,0.000
1709140588.256,-44.434,-44.922,-41.504,-48.828,0.000
1709140588.260,-40.527,-56.641,-29.785,-29.785,0.000
1709140588.264,-38.574,-58.594,-28.320,-24.902,0.000
1709140588.267,-25.391,-36.621,-33.203,-40.527,0.000
1709140588.271,0.000,-26.855,-35.645,-54.199,0.000
1709140588.275,0.000,-41.016,-34.668,-51.270,0.000
1709140588.279,0.000,-45.898,-34.180,-50.781,0.000
1709140588.283,0.000,-33.203,-37.598,-55.176,0.000
1709140588.287,0.000,-35.645,-31.738,-51.270,0.000
1709140588.291,0.000,-54.199,-33.203,-57.129,0.000
1709140588.295,0.000,-41.016,-35.156,-58.594,0.000
1709140588.299,0.000,-24.902,-29.785,-58.594,0.000
1709140588.303,0.000,-28.809,-28.809,-51.758,0.000
1709140588.307,0.000,-28.809,-29.785,-37.109,0.000
1709140588.311,0.000,-27.832,-29.785,-35.156,0.000
1709140588.314,0.000,-32.227,-24.414,-32.227,0.000
1709140588.318,-33.203,-42.969,-24.902,-31.738,0.000
1709140588.322,-33.691,-40.527,-28.809,-33.203,0.000
1709140588.326,-20.508,-43.457,-32.227,-30.762,0.000
1709140588.330,-7.812,-57.129,-32.227,-37.598,0.000
1709140588.334,-40.039,-41.504,-30.273,-49.805,0.000
1709140588.338,-45.898,-20.996,-33.203,-44.434,0.000
1709140588.342,-35.156,-11.719,-33.691,-28.809,0.000
1709140588.346,-40.527,-23.926,-27.832,-31.738,0.000
1709140588.350,-35.156,-37.109,-27.344,-35.645,0.000
1709140588.354,-32.715,-36.133,-32.715,-42.480,0.000
1709140588.357,-34.668,-41.992,-31.738,-44.434,0.000
1709140588.361,-31.738,-50.781,-32.715,-34.180,0.000
1709140588.365,-29.785,-51.758,-37.109,-41.016,0.000
1709140588.369,-33.203,-41.992,-37.598,-47.363,0.000
1709140588.373,-34.180,-46.387,-36.621,-43.457,0.000
1709140588.377,-41.016,-36.133,-32.715,-40.527,0.000
1709140588.381,-39.062,-20.020,-21.484,-32.715,0.000
1709140588.385,-25.879,-16.113,-20.020,-30.762,0.000
1709140588.389,-43.945,-15.137,-29.785,-37.109,0.000
1709140588.393,-49.805,-30.273,-28.809,-37.109,0.000
1709140588.396,-37.598,-39.062,-30.762,-27.832,0.000
1709140588.400,-47.852,-37.598,-36.621,-37.598,0.000
1709140588.404,-50.781,-24.902,-31.738,-51.758,0.000
1709140588.408,-42.480,-19.531,-30.273,-49.316,0.000
1709140588.412,-31.738,-49.805,-36.621,-41.992,0.000
1709140588.416,-36.621,-66.895,-29.297,-42.480,0.000
1709140588.420,-51.758,-33.203,-34.668,-52.246,0.000
1709140588.424,-49.316,-16.113,-36.621,-57.617,0.000
1709140588.428,-34.668,-50.293,-31.250,-48.340,0.000
1709140588.431,-35.156,-49.805,-38.086,-52.246,0.000
1709140588.435,-32.227,-36.133,-39.551,-57.617,0.000
1709140588.439,-26.367,-23.926,-36.133,-43.457,0.000
1709140588.443,-26.855,-8.301,-39.551,-40.039,0.000
1709140588.447,-21.484,-29.785,-41.992,-39.551,0.000
1709140588.451,-16.113,-62.012,-41.992,-36.621,0.000
1709140588.455,-17.090,-43.945,-35.156,-41.992,0.000
1709140588.459,-41.992,-17.090,-37.598,-49.316,0.000
1709140588.463,-39.062,-8.301,-39.551,-41.016,0.000
1709140588.466,-24.414,-29.297,-34.668,-35.156,0.000
1709140588.470,-30.762,-48.828,-30.762,-40.527,0.000
1709140588.474,-34.668,-28.320,-34.668,-35.156,0.000
1709140588.478,-35.156,-23.438,-40.039,-32.227,0.000
1709140588.482,-39.062,-39.062,-36.621,-24.902,0.000
1709140588.486,-35.645,-47.363,-35.645,-26.855,0.000
1709140588.490,-40.039,-56.152,-33.691,-45.898,0.000
1709140588.494,-55.176,-49.316,-35.156,-53.711,0.000
1709140588.498,-58.594,-38.574,-37.109,-47.852,0.000
1709140588.502,-55.176,-44.434,-38.574,-41.504,0.000
1709140588.505,-51.270,-31.250,-41.992,-41.992,0.000
1709140588.509,-44.922,-26.855,-41.992,-42.480,0.000
1709140588.513,-41.504,-49.805,-43.945,-48.340,0.000
1709140588.517,-47.363,-48.828,-35.156,-52.734,0.000
1709140588.521,-54.688,-34.668,-29.297,-55.176,0.000
1709140588.525,-34.668,-25.879,-32.715,-46.387,0.000
1709140588.529,-22.949,-32.227,-27.344,-33.203,0.000
1709140588.533,-35.156,-51.270,-23.438,-36.621,0.000
1709140588.537,-39.551,-43.945,-30.273,-35.156,0.000
1709140588.540,-40.527,-36.621,-29.785,-42.969,0.000
1709140588.544,-36.621,-32.227,-24.414,-51.270,0.000
1709140588.548,-36.621,-34.180,-24.414,-41.016,0.000
1709140588.552,-41.992,-31.738,-26.367,-33.203,0.000
1709140588.556,-39.551,-33.203,-24.414,-36.621,0.000
1709140588.560,-34.668,-49.316,-25.391,-36.133,0.000
1709140588.564,-42.480,-39.062,-37.109,-35.156,0.000
1709140588.568,-43.457,-39.551,-43.945,-42.480,0.000
1709140588.572,-31.250,-47.852,-44.922,-32.227,0.000
1709140588.576,-28.320,-55.176,-34.668,-27.344,0.000
1709140588.580,-26.855,-67.383,-20.508,-38.086,0.000
1709140588.584,-21.484,-48.828,-22.461,-32.227,0.000
1709140588.588,-25.879,-27.344,-35.645,-31.250,0.000
1709140588.591,-34.668,-28.809,-39.062,-35.645,0.000
1709140588.595,-32.227,-29.297,-32.227,-29.297,0.000
1709140588.599,-35.156,-32.715,-31.250,-28.320,0.000
1709140588.603,-38.086,-46.387,-33.203,-30.762,0.000
1709140588.607,-34.668,-51.758,-35.645,-32.715,0.000
1709140588.611,-35.156,-33.203,-36.621,-43.945,0.000
1709140588.615,-36.621,-35.645,-32.715,-44.434,0.000
1709140588.619,-40.039,-47.363,-30.273,-36.133,0.000
1709140588.623,-31.250,-34.668,-37.109,-23.438,0.000
1709140588.627,-29.297,-18.555,-36.133,-29.297,0.000
1709140588.631,-28.809,-30.273,-24.414,-36.133,0.000
1709140588.635,-35.156,-44.922,-26.367,-34.668,0.000
1709140588.638,-46.387,-44.922,-36.621,-38.086,0.000
1709140588.642,-40.527,-52.734,-34.668,-21.973,0.000
1709140588.646,-39.062,-45.410,-34.668,-13.184,0.000
1709140588.650,-32.715,-28.320,-40.527,-28.320,0.000
1709140588.654,-32.227,-21.484,-39.062,-41.504,0.000
1709140588.658,-53.711,-26.855,-34.668,-36.621,0.000
1709140588.662,-62.500,-42.969,-38.574,-41.016,0.000
1709140588.666,-48.340,-38.086,-39.551,-52.734,0.000
1709140588.670,-34.180,-20.020,-34.668,-60.059,0.000
1709140588.674,-37.598,-36.621,-28.320,-51.758,0.000
1709140588.678,-45.410,-58.594,-28.809,-32.227,0.000
1709140588.681,-45.898,-42.969,-37.109,-25.391,0.000
1709140588.685,-39.551,-39.551,-46.875,-36.621,0.000
1709140588.689,-33.691,-53.711,-46.387,-35.645,0.000
1709140588.693,-43.945,-33.203,-44.922,-36.621,0.000
1709140588.697,-51.758,-25.391,-41.504,-44.434,0.000
1709140588.701,-42.969,-37.109,-38.574,-31.250,0.000
1709140588.705,-35.156,-44.922,-35.645,-23.926,0.000
1709140588.709,-36.621,-35.645,-31.250,-37.109,0.000
1709140588.713,-31.250,-30.762,-37.109,-38.574,0.000
1709140588.717,-25.879,-38.574,-34.668,-30.762,0.000
1709140588.721,-30.762,-39.551,-37.109,-40.039,0.000
1709140588.724,-25.879,-31.250,-37.598,-32.227,0.000
1709140588.728,-28.320,-24.902,-33.203,-25.879,0.000
1709140588.732,-26.367,-66.406,-33.691,-37.598,0.000
1709140588.736,-25.879,-87.891,-34.668,-28.809,0.000
1709140588.740,-35.156,-35.645,-37.598,-18.066,0.000
1709140588.744,-39.062,-14.160,-32.715,-15.625,0.000
1709140588.748,-43.457,-24.414,-29.785,-32.227,0.000
1709140588.752,-42.480,-14.160,-39.062,-53.711,0.000
1709140588.756,-41.016,-20.996,-46.387,-49.316,0.000
1709140588.760,-44.922,-41.992,-37.598,-43.945,0.000
1709140588.763,-41.992,-46.387,-32.227,-40.039,0.000
1709140588.767,-34.668,-36.133,-24.902,-32.715,0.000
1709140588.771,-28.320,-69.824,-23.926,-32.715,0.000
1709140588.775,-38.574,-78.613,-35.645,-41.016,0.000
1709140588.779,-43.945,-36.133,-41.016,-44.434,0.000
1709140588.783,-36.621,-40.527,-35.645,-34.180,0.000
1709140588.787,-33.691,-51.270,-35.156,-26.855,0.000
1709140588.791,-45.898,-44.922,-40.527,-24.902,0.000
1709140588.795,-65.430,-45.410,-39.551,-39.551,0.000
1709140588.799,-62.988,-50.781,-41.504,-48.340,0.000
1709140588.802,-55.664,-40.527,-43.457,-32.715,0.000
1709140588.806,-41.992,-39.551,-39.062,-33.691,0.000
1709140588.810,-35.645,-60.547,-36.133,-47.852,0.000
1709140588.814,-45.410,-65.430,-33.691,-43.457,0.000
1709140588.818,-38.574,-62.988,-31.250,-44.434,0.000
1709140588.822,-26.855,-51.270,-38.574,-41.504,0.000
1709140588.826,-29.297,-34.668,-44.922,-40.527,0.000
1709140588.830,-32.227,-30.273,-33.691,-49.805,0.000
1709140588.834,-32.227,-29.297,-33.203,-50.781,0.000
1709140588.837,-27.832,-30.273,-39.551,-54.688,0.000
1709140588.841,-32.715,-30.273,-35.645,-58.594,0.000
1709140588.845,-34.668,-30.273,-33.203,-53.711,0.000
1709140588.849,-28.320,-36.621,-32.715,-41.992,0.000
1709140588.853,-35.156,-57.129,-32.715,-44.922,0.000
1709140588.857,-47.852,-58.594,-35.645,-52.246,0.000
1709140588.861,-47.852,-51.270,-37.598,-37.109,0.000
1709140588.865,-46.875,-39.062,-32.227,-42.969,0.000
1709140588.869,-41.016,-23.926,-29.785,-55.176,0.000
1709140588.873,-30.273,-30.273,-30.762,-50.293,0.000
1709140588.876,-38.086,-36.621,-30.762,-45.898,0.000
1709140588.880,-47.852,-28.320,-37.598,-42.480,0.000
1709140588.884,-50.293,-33.691,-50.781,-49.805,0.000
1709140588.888,-42.969,-46.875,-44.922,-45.898,0.000
1709140588.892,-40.527,-35.156,-38.086,-46.387,0.000
1709140588.896,-52.246,-21.973,-35.645,-45.898,0.000
1709140588.900,-50.293,-29.297,-29.297,-27.344,0.000
1709140588.904,-37.598,-62.012,-36.621,-16.113,0.000
1709140588.908,-20.508,-55.664,-30.273,-28.320,0.000
1709140588.911,-20.508,-23.926,-22.949,-42.480,0.000
1709140588.915,-39.551,-45.410,-27.344,-39.062,0.000
1709140588.919,-42.969,-50.293,-28.809,-40.039,0.000
1709140588.923,-38.086,-22.461,-39.062,-39.062,0.000
1709140588.927,-28.809,-26.367,-49.805,-27.832,0.000
1709140588.931,-24.902,-26.367,-46.875,-35.156,0.000
1709140588.935,-36.621,-26.855,-46.387,-53.711,0.000
1709140588.938,-32.715,-28.809,-46.387,-47.363,0.000
1709140588.942,-25.391,-35.156,-41.016,-43.945,0.000
1709140588.946,-19.531,-52.734,-37.598,-43.945,0.000
1709140588.950,-15.137,-40.527,-34.180,-37.598,0.000
1709140588.954,-25.391,-30.273,-35.156,-43.945,0.000
1709140588.958,-29.785,-52.246,-34.180,-41.992,0.000
1709140588.962,-30.273,-47.363,-35.156,-41.016,0.000
1709140588.966,-45.410,-30.762,-44.922,-40.039,0.000
1709140588.970,-50.293,-30.762,-44.922,-41.992,0.000
1709140588.974,-47.852,-39.062,-41.992,-50.781,0.000
1709140588.978,-48.340,-49.316,-40.527,-53.223,0.000
1709140588.982,-45.410,-31.250,-45.410,-54.688,0.000
1709140588.986,-36.133,-15.625,-38.086,-44.922,0.000
1709140588.989,-41.016,-46.875,-21.973,-38.574,0.000
1709140588.993,-51.270,-48.828,-20.020,-48.828,0.000
1709140588.997,-49.316,-41.504,-20.996,-43.945,0.000
1709140589.001,-44.434,-46.387,-22.949,-29.297,0.000
1709140589.005,-39.062,-27.344,-30.273,-28.809,0.000
1709140589.009,-41.992,-29.785,-39.551,-31.738,0.000
1709140589.013,-43.457,-46.875,-33.203,-37.109,0.000
1709140589.017,-40.039,-33.691,-26.367,-41.504,0.000
1709140589.021,-39.062,-24.414,-22.949,-27.832,0.000
1709140589.025,-38.086,-47.852,-20.020,-10.254,0.000
1709140589.029,-36.133,-48.828,-32.227,-23.926,0.000
1709140589.033,-42.969,-40.039,-42.969,-44.922,0.000
1709140589.036,-49.805,-40.527,-41.504,-47.363,0.000
1709140589.040,-49.805,-46.387,-34.668,-37.109,0.000
1709140589.044,-46.387,-63.477,-31.250,-33.203,0.000
1709140589.048,-48.828,-41.992,-44.434,-38.574,0.000
1709140589.052,-47.363,-17.578,-42.480,-36.133,0.000
1709140589.056,-39.062,-37.109,-26.367,-27.832,0.000
1709140589.060,-41.504,-40.527,-24.902,-32.227,0.000
1709140589.064,-46.875,-27.832,-34.180,-34.668,0.000
1709140589.068,-47.852,-41.504,-37.109,-50.781,0.000
1709140589.072,-36.621,-72.266,-29.297,-66.895,0.000
1709140589.076,-39.062,-57.129,-27.832,-57.617,0.000
1709140589.079,-44.922,-25.391,-32.227,-54.199,0.000
1709140589.083,-25.879,-30.273,-31.250,-46.387,0.000
1709140589.087,-31.738,-38.574,-39.551,-44.922,0.000
1709140589.091,-43.945,-53.223,-40.039,-46.875,0.000
1709140589.095,-44.922,-48.828,-35.156,-36.621,0.000
1709140589.099,-46.875,-38.574,-25.879,-30.762,0.000
1709140589.103,-36.133,-33.691,-24.902,-34.180,0.000
1709140589.107,-23.438,-37.598,-34.668,-36.133,0.000
1709140589.111,-18.066,-32.715,-29.297,-42.969,0.000
1709140589.115,-27.344,-17.090,-23.926,-49.805,0.000
1709140589.119,-33.691,-25.391,-24.902,-41.504,0.000
1709140589.123,-28.320,-28.809,-19.531,-34.668,0.000
1709140589.126,-27.832,-27.344,-23.438,-41.016,0.000
1709140589.130,-30.762,-30.762,-24.902,-41.504,0.000
1709140589.134,-26.367,-25.879,-19.043,-39.551,0.000
1709140589.138,-27.832,-27.832,-26.855,-39.551,0.000
1709140589.142,-34.668,-40.527,-30.273,-28.320,0.000
1709140589.146,-20.508,-39.062,-19.043,-12.207,0.000
1709140589.150,-21.973,-22.949,-24.414,-20.020,0.000
1709140589.154,-28.320,-21.973,-29.785,-24.414,0.000
1709140589.158,-29.785,-54.688,-27.344,-17.090,0.000
1709140589.162,-33.203,-36.621,-27.344,-21.484,0.000
1709140589.165,-33.691,-2.930,-30.273,-33.691,0.000
1709140589.169,-32.227,-10.742,-36.621,-44.922,0.000
1709140589.173,-35.645,-30.762,-35.645,-46.875,0.000
1709140589.177,-31.250,-35.156,-39.062,-45.898,0.000
1709140589.181,-21.973,-36.133,-48.828,-48.828,0.000
1709140589.185,-31.250,-52.734,-36.133,-41.504,0.000
1709140589.189,-37.109,-41.504,-25.879,-33.203,0.000
1709140589.193,-44.434,-31.738,-29.785,-43.457,0.000
1709140589.197,-48.828,-33.203,-29.297,-47.363,0.000
1709140589.201,-41.016,-21.484,-28.809,-34.180,0.000
1709140589.204,-35.156,-25.879,-26.855,-23.438,0.000
1709140589.208,-31.250,-16.113,-32.227,-28.809,0.000
1709140589.212,-28.320,-16.602,-32.715,-43.457,0.000
1709140589.216,-29.297,-32.227,-36.133,-36.133,0.000
1709140589.220,-40.527,-41.504,-41.016,-20.020,0.000
1709140589.224,-41.016,-46.387,-41.992,-26.367,0.000
1709140589.228,-30.273,-50.781,-34.668,-38.574,0.000
1709140589.232,-38.574,-57.129,-25.879,-34.668,0.000
1709140589.236,-43.457,-52.734,-27.344,-22.461,0.000
1709140589.239,-37.109,-25.879,-29.785,-26.367,0.000
1709140589.243,-33.691,-16.113,-25.879,-25.391,0.000
1709140589.247,-35.645,-27.344,-25.879,-20.508,0.000
1709140589.251,-42.480,-24.902,-31.250,-22.949,0.000
1709140589.255,-48.340,-24.902,-27.344,-22.461,0.000
1709140589.259,-54.688,-43.945,-23.438,-21.973,0.000
1709140589.263,-46.387,-55.176,-20.508,-16.113,0.000
1709140589.267,-41.016,-41.016,-22.461,-17.578,0.000
1709140589.271,-43.945,-24.414,-25.879,-29.785,0.000
1709140589.274,-48.340,-36.133,-36.133,-39.062,0.000
1709140589.278,-45.898,-52.734,-35.156,-33.691,0.000
1709140589.282,-46.387,-53.711,-21.484,-29.297,0.000
1709140589.286,-40.039,-36.133,-19.043,-36.621,0.000
1709140589.290,-40.039,-23.926,-27.344,-44.922,0.000
1709140589.294,-48.340,-25.879,-26.855,-57.617,0.000
1709140589.298,-48.828,-21.973,-25.391,-61.035,0.000
1709140589.301,-48.828,-32.715,-39.551,-52.246,0.000
1709140589.305,-48.828,-33.203,-38.574,-49.805,0.000
1709140589.309,-36.621,-29.297,-31.738,-48.828,0.000
1709140589.313,-32.227,-40.039,-42.969,-39.062,0.000
1709140589.317,-39.551,-36.621,-37.109,-40.527,0.000
1709140589.321,-31.250,-54.199,-24.414,-52.734,0.000
1709140589.325,-47.852,-60.059,-29.297,-54.688,0.000
1709140589.329,-67.383,-39.062,-35.156,-55.664,0.000
1709140589.333,-61.523,-32.715,-37.598,-56.152,0.000
1709140589.337,-55.664,-45.410,-38.574,-44.922,0.000
1709140589.341,-57.617,-41.504,-31.738,-43.457,0.000
1709140589.344,-50.781,-35.645,-24.902,-48.828,0.000
1709140589.349,-42.480,-41.016,-24.414,-41.016,0.000
1709140589.352,-41.016,-41.016,-27.832,-42.969,0.000
1709140589.356,-41.504,-38.574,-33.203,-43.945,0.000
1709140589.360,-35.645,-33.691,-30.762,-37.109,0.000
1709140589.364,-31.738,-52.246,-31.738,-35.645,0.000
1709140589.368,-33.203,-52.246,-34.180,-33.691,0.000
1709140589.372,-39.551,-40.527,-31.738,-50.293,0.000
1709140589.376,-40.039,-51.758,-27.344,-54.199,0.000
1709140589.380,-42.969,-47.363,-23.926,-38.086,0.000
1709140589.384,-43.457,-26.855,-32.227,-40.527,0.000
1709140589.388,-38.574,-20.020,-31.738,-42.969,0.000
1709140589.391,-35.156,-17.578,-23.926,-36.133,0.000
