timestamps,TP9,AF7,AF8,TP10,Right AUX
1709297797.996,-37.598,-22.949,-47.852,-39.551,0.000
1709297798.000,-40.527,-15.625,-43.457,-36.621,0.000
1709297798.004,-34.668,-17.578,-45.410,-30.273,0.000
1709297798.008,-24.902,-22.461,-48.340,-23.438,0.000
1709297798.012,-22.461,-25.879,-46.875,-30.273,0.000
1709297798.016,-36.621,-25.391,-45.410,-39.062,0.000
1709297798.020,-46.387,-28.320,-45.898,-35.645,0.000
1709297798.024,-44.922,-27.832,-47.363,-32.715,0.000
1709297798.028,-35.645,-27.344,-46.387,-18.066,0.000
1709297798.031,-20.996,-30.762,-45.898,-14.160,0.000
1709297798.035,-24.414,-30.762,-44.922,-29.785,0.000
1709297798.039,-41.504,-34.668,-42.480,-31.738,0.000
1709297798.043,-43.457,-35.156,-38.574,-22.949,0.000
1709297798.047,-32.227,-35.156,-34.180,-17.578,0.000
1709297798.051,-29.297,-40.039,-36.133,-26.855,0.000
1709297798.055,-30.762,-41.992,-36.621,-35.645,0.000
1709297798.059,-35.156,-37.598,-34.180,-34.668,0.000
1709297798.063,-36.621,-32.715,-38.086,-36.621,0.000
1709297798.067,-24.414,-30.762,-40.039,-25.391,0.000
1709297798.071,-16.602,-29.785,-33.691,-10.742,0.000
1709297798.074,-17.090,-29.785,-35.156,-20.508,0.000
1709297798.078,-28.809,-30.762,-41.016,-32.715,0.000
1709297798.082,-39.062,-30.273,-40.527,-29.297,0.000
1709297798.086,-36.621,-32.715,-44.434,-20.996,0.000
1709297798.090,-28.809,-33.691,-41.504,-18.555,0.000
1709297798.094,-21.484,-34.180,-31.738,-26.855,0.000
1709297798.098,-29.785,-36.621,-31.738,-34.180,0.000
1709297798.102,-33.691,-35.645,-29.297,-30.762,0.000
1709297798.106,-28.320,-31.738,-27.344,-25.879,0.000
1709297798.110,-23.926,-29.785,-35.645,-22.461,0.000
1709297798.113,-17.090,-32.227,-42.480,-23.926,0.000
1709297798.117,-27.344,-31.738,-40.527,-37.598,0.000
1709297798.121,-38.574,-28.320,-39.551,-39.062,0.000
1709297798.125,-39.551,-31.250,-41.016,-28.320,0.000
1709297798.129,-31.250,-31.250,-37.598,-24.414,0.000
1709297798.133,-21.484,-26.367,-37.109,-25.391,0.000
1709297798.137,-28.809,-23.926,-36.621,-36.133,0.000
1709297798.141,-42.969,-25.391,-34.668,-43.457,0.000
1709297798.145,-41.992,-28.809,-35.156,-37.598,0.000
1709297798.149,-20.508,-27.832,-34.668,-28.320,0.000
1709297798.153,-20.996,-24.902,-41.016,-34.668,0.000
1709297798.156,-38.086,-30.762,-45.898,-37.598,0.000
1709297798.160,-48.828,-36.133,-45.898,-37.598,0.000
1709297798.164,-48.340,-31.250,-42.969,-41.504,0.000
1709297798.168,-35.645,-31.250,-38.086,-35.645,0.000
1709297798.172,-31.250,-39.062,-38.086,-35.645,0.000
1709297798.176,-41.992,-37.598,-37.109,-43.457,0.000
1709297798.180,-44.922,-33.203,-36.621,-50.781,0.000
1709297798.184,-41.016,-32.715,-34.180,-38.086,0.000
1709297798.188,-29.785,-28.809,-31.738,-22.949,0.000
1709297798.192,-23.926,-31.250,-34.668,-28.320,0.000
1709297798.196,-26.367,-32.715,-37.598,-32.715,0.000
1709297798.199,-34.180,-30.273,-39.551,-41.992,0.000
1709297798.203,-39.551,-31.738,-38.086,-42.480,0.000
1709297798.207,-27.832,-32.227,-37.598,-30.762,0.000
1709297798.211,-22.949,-33.691,-41.016,-34.180,0.000
1709297798.215,-22.461,-34.668,-38.574,-36.621,0.000
1709297798.219,-33.691,-35.645,-36.621,-40.039,0.000
1709297798.223,-43.457,-33.691,-40.039,-47.852,0.000
1709297798.227,-24.414,-33.691,-41.016,-45.410,0.000
1709297798.231,-16.602,-38.574,-40.039,-38.574,0.000
1709297798.235,-31.250,-38.574,-38.086,-42.480,0.000
1709297798.238,-41.016,-34.180,-39.062,-51.270,0.000
1709297798.242,-37.598,-27.832,-42.480,-48.340,0.000
1709297798.246,-28.809,-26.855,-44.922,-34.668,0.000
1709297798.250,-14.160,-30.762,-49.805,-26.367,0.000
1709297798.254,-10.254,-30.762,-48.828,-35.156,0.000
1709297798.258,-15.625,-26.855,-44.434,-48.828,0.000
1709297798.262,-20.508,-29.785,-44.922,-40.527,0.000
1709297798.266,-25.879,-32.227,-45.898,-29.785,0.000
1709297798.270,-12.695,-27.344,-47.852,-32.715,0.000
1709297798.274,-10.742,-26.855,-47.363,-37.598,0.000
1709297798.278,-28.809,-26.855,-45.410,-32.715,0.000
1709297798.281,-39.062,-23.438,-46.387,-31.250,0.000
1709297798.285,-33.691,-25.879,-49.316,-34.668,0.000
1709297798.289,-18.066,-28.809,-49.316,-27.832,0.000
1709297798.293,-19.043,-33.203,-47.852,-32.227,0.000
1709297798.297,-40.039,-38.086,-46.875,-36.621,0.000
1709297798.301,-46.875,-33.691,-45.410,-38.086,0.000
1709297798.305,-42.969,-38.086,-45.410,-41.504,0.000
1709297798.309,-37.598,-42.480,-46.875,-30.273,0.000
1709297798.313,-31.738,-34.668,-45.898,-31.738,0.000
1709297798.317,-37.109,-33.691,-45.898,-42.480,0.000
1709297798.321,-48.340,-39.551,-45.410,-44.922,0.000
1709297798.324,-55.176,-43.457,-45.898,-38.574,0.000
1709297798.328,-41.992,-43.945,-46.387,-24.902,0.000
1709297798.332,-33.691,-43.945,-48.828,-28.320,0.000
1709297798.336,-44.434,-41.992,-51.270,-37.598,0.000
1709297798.340,-52.246,-37.109,-44.434,-35.156,0.000
1709297798.344,-50.293,-31.738,-43.457,-29.785,0.000
1709297798.348,-39.062,-31.250,-46.387,-23.438,0.000
1709297798.352,-33.203,-30.273,-41.504,-14.160,0.000
1709297798.356,-49.805,-31.250,-44.434,-30.273,0.000
1709297798.360,-65.918,-32.715,-47.852,-50.781,0.000
1709297798.363,-62.500,-31.250,-41.504,-44.922,0.000
1709297798.367,-45.410,-29.297,-41.504,-40.039,0.000
1709297798.371,-33.691,-28.320,-41.016,-34.180,0.000
1709297798.375,-36.621,-29.297,-37.109,-28.320,0.000
1709297798.379,-51.270,-31.250,-38.086,-41.992,0.000
1709297798.383,-57.617,-33.203,-39.551,-41.016,0.000
1709297798.387,-40.527,-32.227,-36.621,-27.832,0.000
1709297798.391,-30.273,-29.297,-37.109,-29.297,0.000
1709297798.395,-43.457,-31.250,-40.039,-44.922,0.000
1709297798.399,-52.246,-34.180,-42.969,-49.805,0.000
1709297798.403,-50.293,-33.203,-48.828,-51.270,0.000
1709297798.406,-36.621,-28.320,-46.387,-45.898,0.000
1709297798.410,-26.855,-29.297,-44.922,-38.086,0.000
1709297798.414,-29.297,-27.344,-48.340,-49.316,0.000
1709297798.418,-40.039,-25.879,-48.340,-52.246,0.000
1709297798.422,-45.410,-30.762,-45.410,-47.363,0.000
1709297798.426,-38.574,-29.297,-43.945,-39.062,0.000
1709297798.430,-33.691,-31.738,-46.387,-36.621,0.000
1709297798.434,-30.762,-35.156,-43.457,-45.898,0.000
1709297798.438,-40.039,-33.691,-42.969,-58.594,0.000
1709297798.442,-46.387,-31.738,-42.969,-50.781,0.000
1709297798.445,-45.898,-33.691,-37.109,-29.297,0.000
1709297798.449,-31.738,-35.645,-40.039,-32.227,0.000
1709297798.453,-16.113,-30.762,-42.969,-33.203,0.000
1709297798.457,-26.855,-29.785,-44.434,-38.086,0.000
1709297798.461,-35.645,-27.832,-41.992,-38.574,0.000
1709297798.465,-32.227,-29.297,-39.062,-26.367,0.000
1709297798.469,-20.996,-30.273,-39.062,-14.160,0.000
1709297798.473,-12.695,-28.320,-40.527,-13.672,0.000
1709297798.477,-23.926,-27.344,-40.039,-28.809,0.000
1709297798.481,-45.410,-25.879,-42.480,-35.645,0.000
1709297798.485,-39.062,-23.438,-40.527,-20.508,0.000
1709297798.488,-25.391,-25.391,-40.527,-4.883,0.000
1709297798.492,-29.297,-30.762,-47.363,-15.137,0.000
1709297798.496,-34.668,-28.809,-48.828,-31.250,0.000
1709297798.500,-46.875,-30.273,-46.387,-33.203,0.000
1709297798.504,-49.805,-36.133,-43.457,-22.949,0.000
1709297798.508,-32.715,-34.180,-45.898,-11.230,0.000
1709297798.512,-25.391,-32.715,-46.875,-14.160,0.000
1709297798.516,-41.504,-32.227,-42.969,-18.066,0.000
1709297798.520,-52.734,-31.250,-43.457,-21.484,0.000
1709297798.524,-46.875,-32.715,-44.922,-16.113,0.000
1709297798.527,-33.691,-31.250,-42.480,-14.160,0.000
1709297798.531,-26.855,-31.738,-41.504,-15.137,0.000
1709297798.535,-27.832,-32.715,-41.504,-19.043,0.000
1709297798.539,-38.086,-29.785,-39.551,-32.227,0.000
1709297798.543,-43.945,-34.180,-43.457,-21.484,0.000
1709297798.547,-31.250,-39.551,-42.480,-4.395,0.000
1709297798.551,-25.879,-38.574,-43.457,-20.020,0.000
1709297798.555,-35.645,-38.574,-45.898,-42.969,0.000
1709297798.559,-52.246,-38.574,-44.922,-48.340,0.000
1709297798.563,-52.246,-34.180,-41.504,-46.875,0.000
1709297798.567,-39.062,-24.902,-35.156,-33.691,0.000
1709297798.570,-38.574,-27.832,-34.180,-29.785,0.000
1709297798.574,-39.551,-30.273,-39.551,-44.434,0.000
1709297798.578,-39.062,-31.738,-44.922,-57.617,0.000
1709297798.582,-58.594,-39.551,-42.480,-46.387,0.000
1709297798.586,-62.500,-36.133,-40.527,-33.203,0.000
1709297798.590,-50.781,-34.668,-47.363,-41.504,0.000
1709297798.594,-48.828,-32.227,-46.387,-38.574,0.000
1709297798.598,-55.176,-28.809,-41.992,-41.504,0.000
1709297798.602,-54.199,-31.250,-38.086,-49.316,0.000
1709297798.606,-40.039,-32.227,-32.715,-36.621,0.000
1709297798.610,-32.715,-35.156,-40.527,-26.367,0.000
1709297798.613,-37.109,-37.598,-42.969,-33.203,0.000
1709297798.617,-44.434,-32.227,-40.039,-41.504,0.000
1709297798.621,-51.270,-28.809,-42.480,-45.410,0.000
1709297798.625,-44.434,-30.273,-41.016,-39.062,0.000
1709297798.629,-29.297,-27.344,-42.969,-32.715,0.000
1709297798.633,-32.227,-29.297,-43.457,-36.621,0.000
1709297798.637,-37.109,-32.227,-36.621,5.371,0.000
1709297798.641,-40.527,-31.738,-42.969,-15.625,0.000
1709297798.645,-36.133,-29.785,-48.828,-68.359,0.000
1709297798.649,-18.066,-27.832,-41.992,-41.992,0.000
1709297798.653,-26.367,-29.785,-44.434,-39.062,0.000
1709297798.656,-50.293,-32.715,-50.293,-55.664,0.000
1709297798.660,-55.664,-30.273,-46.875,-52.246,0.000
1709297798.664,-57.617,-27.832,-43.457,-42.480,0.000
1709297798.668,-55.664,-29.297,-40.039,-47.363,0.000
1709297798.672,-46.387,-32.715,-39.062,-55.664,0.000
1709297798.676,-55.664,-39.062,-47.852,-60.059,0.000
1709297798.680,-62.500,-36.133,-46.387,-63.477,0.000
1709297798.684,-56.641,-32.227,-39.062,-45.898,0.000
1709297798.688,-47.363,-22.461,-34.668,-31.250,0.000
1709297798.692,-43.945,-13.672,-42.480,-58.594,0.000
1709297798.695,-61.523,-11.719,-44.434,-81.543,0.000
1709297798.699,-86.426,-4.883,-40.527,-93.262,0.000
1709297798.703,-98.145,5.371,-41.504,-83.496,0.000
1709297798.707,-80.078,12.207,-45.898,-77.637,0.000
1709297798.711,-60.547,15.625,-49.805,-85.938,0.000
1709297798.715,-57.129,28.320,-47.852,-84.473,0.000
1709297798.719,-55.664,43.945,-46.387,-86.914,0.000
1709297798.723,-64.453,49.805,-55.176,-79.102,0.000
1709297798.727,-59.570,51.758,-62.500,-61.035,0.000
1709297798.731,-43.457,54.688,-74.219,-71.289,0.000
1709297798.735,-25.879,64.941,-85.449,-89.844,0.000
1709297798.738,-20.020,72.266,-79.590,-66.406,0.000
1709297798.742,-21.973,71.777,-81.543,-36.621,0.000
1709297798.746,8.301,80.566,-85.938,-46.875,0.000
1709297798.750,38.574,82.520,-83.984,-41.504,0.000
1709297798.754,42.480,76.660,-88.379,-23.926,0.000
1709297798.758,44.434,80.566,-93.262,-10.742,0.000
1709297798.762,54.199,87.402,-91.309,8.789,0.000
1709297798.766,61.523,84.473,-90.820,28.320,0.000
1709297798.770,75.684,79.102,-94.238,32.227,0.000
1709297798.774,80.566,76.172,-98.145,28.809,0.000
1709297798.777,73.242,78.613,-96.680,32.715,0.000
1709297798.781,72.754,78.125,-95.215,40.039,0.000
1709297798.785,74.707,75.195,-97.168,54.688,0.000
1709297798.789,83.496,74.707,-93.750,60.059,0.000
1709297798.793,92.773,73.730,-90.332,57.129,0.000
1709297798.797,98.145,70.801,-93.262,59.570,0.000
1709297798.801,89.844,70.312,-92.773,51.758,0.000
1709297798.805,103.516,69.824,-90.820,53.223,0.000
1709297798.809,120.117,65.430,-92.773,65.918,0.000
1709297798.813,111.328,63.477,-87.891,67.383,0.000
1709297798.817,97.656,64.453,-87.891,62.500,0.000
1709297798.821,97.168,62.012,-92.285,63.965,0.000
1709297798.824,108.398,58.594,-89.355,76.172,0.000
1709297798.828,105.957,52.246,-81.543,80.566,0.000
1709297798.832,105.957,43.945,-80.078,91.309,0.000
1709297798.836,106.445,47.363,-81.055,78.613,0.000
1709297798.840,83.008,49.316,-73.730,47.852,0.000
1709297798.844,87.891,48.340,-74.707,56.641,0.000
1709297798.848,105.957,48.340,-79.102,58.594,0.000
1709297798.852,97.168,45.410,-74.219,57.129,0.000
1709297798.856,78.125,41.992,-73.730,45.410,0.000
1709297798.860,71.777,35.645,-73.242,40.039,0.000
1709297798.863,62.988,33.203,-69.336,47.363,0.000
1709297798.867,67.383,31.250,-70.312,69.824,0.000
1709297798.871,77.637,31.250,-72.266,60.059,0.000
1709297798.875,60.059,24.414,-72.754,20.996,0.000
1709297798.879,35.156,14.648,-66.406,33.691,0.000
1709297798.883,32.227,14.648,-62.500,47.852,0.000
1709297798.887,44.922,13.184,-60.547,40.527,0.000
1709297798.891,51.270,8.301,-57.617,53.223,0.000
1709297798.895,41.016,3.906,-58.594,53.223,0.000
1709297798.899,31.250,6.836,-56.641,36.133,0.000
1709297798.903,30.273,8.301,-50.781,40.527,0.000
1709297798.906,27.344,8.301,-48.340,41.016,0.000
1709297798.910,36.621,6.836,-54.688,28.320,0.000
1709297798.914,35.156,2.441,-59.570,20.508,0.000
1709297798.918,19.043,-3.418,-57.617,8.789,0.000
1709297798.922,6.836,-4.395,-53.711,10.254,0.000
1709297798.926,-2.930,-7.324,-54.688,16.602,0.000
1709297798.930,7.812,-10.254,-50.293,22.461,0.000
1709297798.934,15.137,-9.277,-52.734,13.672,0.000
1709297798.938,-1.465,-11.230,-53.711,-4.395,0.000
1709297798.942,-7.812,-9.766,-49.805,5.859,0.000
1709297798.946,1.953,-15.625,-56.152,1.465,0.000
1709297798.949,2.441,-21.484,-58.105,-1.465,0.000
1709297798.953,-7.324,-19.043,-55.664,-3.906,0.000
1709297798.957,-5.859,-16.602,-57.129,-26.855,0.000
1709297798.961,-15.625,-17.578,-60.059,-28.320,0.000
1709297798.965,-25.879,-19.043,-61.035,-22.949,0.000
1709297798.969,-9.277,-21.973,-53.711,15.137,0.000
1709297798.973,-3.906,-22.949,-48.340,40.527,0.000
1709297798.977,-10.742,-19.531,-48.828,-16.602,0.000
1709297798.981,-20.020,-20.508,-46.875,-50.781,0.000
1709297798.985,-21.973,-23.438,-51.270,-34.668,0.000
1709297798.989,-7.812,-20.020,-49.316,-30.762,0.000
1709297798.992,4.395,-11.719,-46.875,-29.785,0.000
1709297798.996,-4.883,-10.742,-51.270,-37.598,0.000
1709297799.000,-23.926,-15.625,-48.340,-36.621,0.000
1709297799.004,-38.086,-22.461,-53.711,-26.367,0.000
1709297799.008,-24.902,-24.902,-58.105,-25.391,0.000
1709297799.012,-17.090,-22.949,-51.270,-18.555,0.000
1709297799.016,-31.250,-19.043,-45.410,-20.508,0.000
1709297799.020,-36.133,-17.578,-43.945,-37.109,0.000
1709297799.024,-49.805,-23.926,-41.504,-34.180,0.000
1709297799.028,-46.875,-24.414,-42.969,-27.344,0.000
1709297799.031,-23.926,-20.508,-44.922,-28.320,0.000
1709297799.035,-20.508,-20.020,-44.434,-40.039,0.000
1709297799.039,-38.574,-23.438,-44.922,-53.711,0.000
1709297799.043,-50.781,-28.320,-47.363,-49.316,0.000
1709297799.047,-47.852,-27.832,-45.898,-34.180,0.000
1709297799.051,-34.668,-25.391,-46.387,-31.738,0.000
1709297799.055,-25.879,-25.391,-42.480,-35.156,0.000
1709297799.059,-38.574,-25.391,-38.086,-31.738,0.000
1709297799.063,-45.898,-27.832,-42.480,-40.039,0.000
1709297799.067,-23.438,-27.832,-44.434,-36.133,0.000
1709297799.071,-15.137,-31.738,-43.457,-28.809,0.000
1709297799.074,-26.367,-29.785,-42.480,-46.875,0.000
1709297799.078,-42.480,-27.344,-42.480,-63.477,0.000
1709297799.082,-46.387,-27.344,-44.434,-52.734,0.000
1709297799.086,-41.992,-25.391,-41.504,-32.715,0.000
1709297799.090,-38.574,-26.367,-39.062,-33.691,0.000
1709297799.094,-36.621,-22.949,-42.969,-43.945,0.000
1709297799.098,-42.480,-24.414,-42.969,-58.594,0.000
1709297799.102,-46.875,-29.297,-39.062,-52.734,0.000
1709297799.106,-38.574,-25.879,-38.574,-31.738,0.000
1709297799.110,-26.367,-20.020,-34.668,-33.203,0.000
1709297799.114,-39.062,-24.414,-33.691,-45.898,0.000
1709297799.117,-56.152,-25.879,-41.992,-52.246,0.000
1709297799.121,-47.852,-21.973,-46.875,-47.363,0.000
1709297799.125,-40.039,-26.855,-43.945,-42.969,0.000
1709297799.129,-40.527,-32.715,-39.551,-38.086,0.000
1709297799.133,-42.480,-28.320,-37.598,-36.133,0.000
1709297799.137,-54.199,-26.855,-37.598,-43.457,0.000
1709297799.141,-55.176,-30.273,-40.527,-47.852,0.000
1709297799.145,-44.434,-29.297,-35.645,-39.551,0.000
1709297799.149,-35.645,-25.391,-33.691,-28.320,0.000
1709297799.153,-28.809,-22.461,-36.621,-37.598,0.000
1709297799.156,-34.180,-21.973,-35.156,-54.199,0.000
1709297799.160,-44.434,-22.949,-37.109,-50.293,0.000
1709297799.164,-35.156,-19.531,-35.156,-32.715,0.000
1709297799.168,-28.809,-23.438,-34.668,-20.996,0.000
1709297799.172,-34.668,-22.461,-38.086,-16.602,0.000
1709297799.176,-28.320,-18.555,-39.062,-29.297,0.000
1709297799.180,-34.668,-18.555,-40.527,-39.551,0.000
1709297799.184,-46.387,-16.602,-38.574,-20.996,0.000
1709297799.188,-37.598,-21.973,-39.551,-23.926,0.000
1709297799.192,-28.320,-23.438,-43.457,-27.344,0.000
1709297799.196,-34.180,-26.367,-40.527,-33.203,0.000
1709297799.199,-42.480,-26.367,-41.992,-53.223,0.000
1709297799.203,-36.133,-22.461,-40.527,-48.340,0.000
1709297799.207,-31.250,-23.926,-36.621,-33.691,0.000
1709297799.211,-38.086,-25.391,-38.574,-34.668,0.000
1709297799.215,-41.504,-25.391,-41.016,-45.898,0.000
1709297799.219,-40.039,-31.738,-44.922,-40.527,0.000
1709297799.223,-45.410,-34.668,-44.434,-41.016,0.000
1709297799.227,-39.551,-34.180,-43.945,-35.645,0.000
1709297799.231,-21.973,-27.832,-39.551,-23.926,0.000
1709297799.235,-28.320,-22.461,-33.691,-31.250,0.000
1709297799.238,-42.480,-28.320,-41.016,-45.410,0.000
1709297799.242,-50.293,-25.391,-41.016,-45.898,0.000
1709297799.246,-42.480,-16.113,-44.434,-33.691,0.000
1709297799.250,-37.598,-20.020,-53.223,-61.523,0.000
1709297799.254,-48.828,-28.320,-47.852,-83.984,0.000
1709297799.258,-58.594,-31.738,-44.922,-79.590,0.000
1709297799.262,-62.012,-30.762,-43.457,-80.078,0.000
1709297799.266,-51.758,-28.809,-37.598,-67.871,0.000
1709297799.270,-34.668,-29.785,-37.109,-47.852,0.000
1709297799.274,-32.715,-27.832,-39.062,-54.199,0.000
1709297799.278,-48.828,-28.809,-44.922,-73.242,0.000
1709297799.281,-61.035,-31.738,-49.316,-66.406,0.000
1709297799.285,-52.734,-30.762,-44.922,-48.828,0.000
1709297799.289,-35.645,-27.344,-48.340,-55.664,0.000
1709297799.293,-40.039,-28.809,-50.781,-64.453,0.000
1709297799.297,-54.688,-26.855,-45.410,-64.941,0.000
1709297799.301,-62.012,-27.832,-43.945,-64.453,0.000
1709297799.305,-57.129,-33.691,-44.922,-56.152,0.000
1709297799.309,-42.480,-32.715,-45.410,-42.480,0.000
1709297799.313,-31.250,-30.273,-43.945,-38.574,0.000
1709297799.317,-41.016,-30.273,-43.945,-48.340,0.000
1709297799.320,-53.223,-34.180,-42.969,-46.875,0.000
1709297799.324,-54.199,-36.621,-44.434,-33.203,0.000
1709297799.328,-48.340,-34.180,-47.852,-32.715,0.000
1709297799.332,-32.715,-29.297,-47.363,-41.504,0.000
1709297799.336,-38.086,-29.785,-47.363,-50.781,0.000
1709297799.340,-55.176,-32.715,-44.922,-50.293,0.000
1709297799.344,-53.711,-33.691,-44.434,-41.504,0.000
1709297799.348,-39.062,-32.715,-48.340,-33.691,0.000
1709297799.352,-32.227,-35.645,-46.387,-29.297,0.000
1709297799.356,-41.992,-40.527,-41.992,-29.297,0.000
1709297799.360,-46.387,-41.016,-48.828,-50.293,0.000
1709297799.363,-41.992,-40.527,-54.688,-69.336,0.000
1709297799.367,-30.762,-41.016,-52.246,-57.129,0.000
1709297799.371,-22.949,-38.574,-50.781,-51.270,0.000
1709297799.375,-25.391,-41.016,-49.316,-57.617,0.000
1709297799.379,-41.992,-41.992,-48.340,-52.734,0.000
1709297799.383,-50.781,-38.086,-46.387,-45.898,0.000
1709297799.387,-31.250,-38.086,-48.340,-29.297,0.000
1709297799.391,-26.367,-33.691,-49.316,-20.020,0.000
1709297799.395,-26.855,-27.832,-42.969,-31.250,0.000
1709297799.399,-33.203,-30.273,-37.598,-32.227,0.000
1709297799.403,-46.387,-32.715,-39.551,-38.574,0.000
1709297799.406,-36.621,-32.715,-43.457,-33.691,0.000
1709297799.410,-20.996,-30.273,-38.086,-22.461,0.000
1709297799.414,-24.414,-31.250,-36.621,-27.832,0.000
1709297799.418,-42.969,-34.668,-40.039,-36.621,0.000
1709297799.422,-49.316,-33.691,-39.551,-35.645,0.000
1709297799.426,-41.992,-29.297,-39.551,-26.855,0.000
1709297799.430,-28.809,-25.391,-41.992,-22.949,0.000
1709297799.434,-25.879,-21.973,-40.527,-23.438,0.000
1709297799.438,-35.156,-24.414,-38.574,-32.227,0.000
1709297799.442,-35.645,-24.414,-39.062,-32.715,0.000
1709297799.446,-27.344,-24.902,-44.922,-20.020,0.000
1709297799.449,-19.531,-28.320,-43.945,-17.578,0.000
1709297799.453,-26.855,-29.785,-42.969,-40.039,0.000
1709297799.457,-32.715,-27.832,-46.387,-55.664,0.000
1709297799.461,-43.457,-28.809,-48.340,-59.082,0.000
1709297799.465,-47.363,-28.809,-47.852,-51.270,0.000
1709297799.469,-32.227,-25.879,-48.828,-36.621,0.000
1709297799.473,-27.832,-30.273,-51.758,-42.480,0.000
1709297799.477,-37.109,-30.762,-50.293,-42.480,0.000
1709297799.481,-36.621,-33.203,-55.176,-41.992,0.000
1709297799.485,-15.625,-29.785,-56.641,-26.367,0.000
1709297799.488,5.371,-25.879,-49.805,6.348,0.000
1709297799.492,-7.324,-38.574,-45.410,-11.230,0.000
1709297799.496,-42.480,-50.293,-39.551,-60.059,0.000
1709297799.500,-57.129,-53.711,-35.156,-66.895,0.000
1709297799.504,-54.688,-53.223,-36.133,-50.293,0.000
1709297799.508,-55.176,-57.129,-33.203,-40.039,0.000
1709297799.512,-43.945,-55.664,-32.227,-39.062,0.000
1709297799.516,-36.133,-46.875,-30.762,-56.641,0.000
1709297799.520,-51.270,-43.945,-31.738,-60.059,0.000
1709297799.524,-57.129,-42.969,-36.133,-37.598,0.000
1709297799.528,-44.434,-41.992,-38.086,-21.484,0.000
1709297799.531,-40.527,-43.945,-35.645,-14.160,0.000
1709297799.535,-47.363,-45.898,-37.598,-26.367,0.000
1709297799.539,-44.922,-43.945,-40.527,-40.039,0.000
1709297799.543,-49.316,-43.945,-37.598,-33.691,0.000
1709297799.547,-57.129,-45.898,-40.527,-23.926,0.000
1709297799.551,-50.781,-45.898,-46.875,-25.879,0.000
1709297799.555,-49.316,-45.410,-48.828,-43.457,0.000
1709297799.559,-58.594,-46.875,-50.293,-47.363,0.000
1709297799.563,-67.383,-45.410,-51.270,-34.668,0.000
1709297799.567,-60.059,-43.457,-51.270,-24.902,0.000
1709297799.570,-42.969,-39.062,-54.688,-15.625,0.000
1709297799.574,-41.992,-34.180,-53.711,-28.809,0.000
1709297799.578,-50.781,-40.039,-50.781,-38.086,0.000
1709297799.582,-55.664,-37.109,-45.898,-28.320,0.000
1709297799.586,-53.711,-36.621,-41.504,-20.996,0.000
1709297799.590,-38.086,-37.109,-39.062,-18.066,0.000
1709297799.594,-28.809,-32.227,-36.133,-23.438,0.000
1709297799.598,-40.039,-34.180,-39.062,-33.203,0.000
1709297799.602,-47.852,-28.320,-38.086,-36.133,0.000
1709297799.606,-38.574,-22.461,-36.133,-15.625,0.000
1709297799.610,-26.855,-26.367,-38.574,-11.230,0.000
1709297799.613,-21.484,-28.320,-37.109,-16.602,0.000
1709297799.617,-22.461,-21.973,-30.762,-19.531,0.000
1709297799.621,-27.832,-20.996,-29.785,-22.461,0.000
1709297799.625,-23.926,-26.855,-32.227,-15.625,0.000
1709297799.629,-10.742,-24.902,-32.715,-13.184,0.000
1709297799.633,-6.348,-20.020,-31.738,-16.113,0.000
1709297799.637,-25.879,-18.555,-28.809,-24.902,0.000
1709297799.641,-39.551,-21.973,-29.785,-26.855,0.000
1709297799.645,-31.738,-27.832,-31.738,-21.484,0.000
1709297799.649,-21.484,-29.297,-32.715,-18.555,0.000
1709297799.652,-24.414,-33.203,-37.598,-32.715,0.000
1709297799.656,-39.062,-33.691,-39.062,-34.668,0.000
1709297799.660,-45.410,-27.832,-40.039,-38.574,0.000
1709297799.664,-39.551,-28.809,-40.039,-46.387,0.000
1709297799.668,-29.297,-29.785,-41.504,-38.574,0.000
1709297799.672,-26.855,-29.297,-41.992,-36.621,0.000
1709297799.676,-37.109,-31.738,-40.039,-44.434,0.000
1709297799.680,-46.387,-30.273,-41.016,-48.828,0.000
1709297799.684,-45.898,-29.297,-43.945,-47.363,0.000
1709297799.688,-31.250,-26.855,-46.875,-33.203,0.000
1709297799.692,-25.391,-29.297,-49.316,-34.180,0.000
1709297799.695,-34.180,-29.297,-46.875,-43.945,0.000
1709297799.699,-43.945,-28.320,-44.434,-50.781,0.000
1709297799.703,-44.434,-30.273,-44.434,-48.340,0.000
1709297799.707,-29.297,-30.273,-41.016,-38.574,0.000
1709297799.711,-23.438,-30.762,-39.062,-41.992,0.000
1709297799.715,-31.738,-28.809,-41.504,-49.805,0.000
1709297799.719,-43.945,-29.785,-40.039,-51.270,0.000
1709297799.723,-53.223,-28.320,-43.945,-45.898,0.000
1709297799.727,-47.363,-25.391,-47.852,-35.156,0.000
1709297799.731,-26.855,-25.879,-46.875,-29.297,0.000
1709297799.735,-27.344,-20.508,-48.340,-29.785,0.000
1709297799.738,-50.293,-20.508,-48.828,-43.945,0.000
1709297799.742,-56.152,-27.344,-47.363,-44.434,0.000
1709297799.746,-37.109,-29.785,-43.457,-24.902,0.000
1709297799.750,-24.902,-31.738,-41.016,-21.484,0.000
1709297799.754,-27.344,-31.250,-41.016,-27.832,0.000
1709297799.758,-29.785,-33.691,-44.434,-33.691,0.000
1709297799.762,-35.645,-35.645,-44.922,-25.879,0.000
1709297799.766,-33.203,-30.762,-41.016,-14.648,0.000
1709297799.770,-16.113,-25.879,-35.645,-6.348,0.000
1709297799.774,-14.648,-26.367,-40.039,-10.254,0.000
1709297799.778,-30.762,-30.273,0.000,-25.391,0.000
1709297799.781,-31.738,-27.344,0.000,-21.973,0.000
1709297799.785,-29.297,-31.738,0.000,-13.672,0.000
1709297799.789,-31.250,-36.621,0.000,-3.906,0.000
1709297799.793,-27.344,-35.156,0.000,-13.672,0.000
1709297799.797,-30.762,-35.645,0.000,-24.902,0.000
1709297799.801,-32.227,-34.668,0.000,-33.691,0.000
1709297799.805,-28.809,-32.227,0.000,-35.645,0.000
1709297799.809,-26.367,-36.133,0.000,-17.578,0.000
1709297799.813,-22.461,-40.039,0.000,-31.250,0.000
1709297799.817,-32.715,-39.062,0.000,-55.176,0.000
1709297799.820,-44.434,-37.598,0.000,-54.199,0.000
1709297799.824,0.000,-35.645,-48.828,-43.457,0.000
1709297799.828,0.000,-34.668,-44.922,-36.133,0.000
1709297799.832,0.000,-32.227,-45.898,-35.156,0.000
1709297799.836,0.000,-29.297,-43.457,-33.203,0.000
1709297799.840,0.000,-27.832,-46.875,-35.156,0.000
1709297799.844,0.000,-29.785,-45.898,-37.109,0.000
1709297799.848,0.000,-32.715,-37.598,-18.066,0.000
1709297799.852,0.000,-28.809,-35.645,-15.625,0.000
1709297799.856,0.000,-23.926,-33.691,-31.250,0.000
1709297799.860,0.000,-27.832,-37.598,-40.527,0.000
1709297799.863,0.000,-26.855,-41.016,-24.414,0.000
1709297799.867,0.000,-25.391,-38.574,-17.578,0.000
1709297799.871,-23.438,-26.855,-40.527,-34.180,0.000
1709297799.875,-34.668,-29.297,-43.457,-43.945,0.000
1709297799.879,-50.781,-33.691,-38.086,-56.152,0.000
1709297799.883,-49.805,-29.297,-32.715,-47.852,0.000
1709297799.887,-41.504,-26.367,-36.133,-33.691,0.000
1709297799.891,-37.109,-27.832,-38.086,-36.133,0.000
1709297799.895,-36.133,-29.785,-39.062,-41.504,0.000
1709297799.899,-43.457,-28.320,-37.598,-47.852,0.000
1709297799.902,-48.340,-25.391,-35.645,-51.270,0.000
1709297799.906,-37.109,-21.973,-37.109,-50.293,0.000
1709297799.910,-24.902,-23.438,-37.109,-41.504,0.000
1709297799.914,-24.902,-21.484,-38.086,-36.133,0.000
1709297799.918,0.000,-21.484,-39.062,-34.180,0.000
1709297799.922,0.000,-27.344,-35.156,-41.016,0.000
1709297799.926,0.000,-32.227,-38.086,-48.340,0.000
1709297799.930,0.000,-36.133,-41.504,-36.621,0.000
1709297799.934,0.000,-38.086,-31.738,-48.340,0.000
1709297799.938,0.000,-39.062,-29.785,-70.312,0.000
1709297799.942,0.000,-41.504,-33.691,-60.059,0.000
1709297799.945,0.000,-44.922,-38.574,-45.410,0.000
1709297799.949,0.000,-41.016,-41.504,-40.039,0.000
1709297799.953,0.000,-41.016,-40.039,-42.969,0.000
1709297799.957,0.000,-39.551,-38.574,-48.828,0.000
1709297799.961,0.000,-37.109,-41.504,-58.594,0.000
1709297799.965,-45.410,-41.992,-42.480,-59.082,0.000
1709297799.969,-37.598,-44.922,-38.086,-42.969,0.000
1709297799.973,-29.785,-40.527,-37.109,-38.086,0.000
1709297799.977,-31.738,-36.621,-39.551,-48.340,0.000
1709297799.981,-39.062,-34.180,-39.551,-58.594,0.000
1709297799.985,-45.410,-35.156,-41.016,-45.410,0.000
1709297799.988,-40.039,-34.180,-38.574,-31.250,0.000
1709297799.992,-27.832,-28.809,-35.156,-37.598,0.000
1709297799.996,-32.227,-26.855,-36.621,-41.504,0.000
1709297800.000,-49.316,-31.250,-39.551,-52.734,0.000
1709297800.004,-49.805,-33.203,-41.016,-58.105,0.000
1709297800.008,-34.180,-33.203,-37.109,-42.480,0.000
1709297800.012,-27.344,-34.180,-35.156,-35.645,0.000
1709297800.016,-31.738,-34.668,-40.039,-46.387,0.000
1709297800.020,-39.551,-36.621,-41.504,-51.270,0.000
1709297800.024,-41.504,-34.180,-35.645,-37.598,0.000
1709297800.027,-34.668,-36.621,-33.691,-30.762,0.000
1709297800.031,-20.508,-39.062,-33.203,-17.090,0.000
1709297800.035,-20.508,-38.574,-35.645,-22.461,0.000
1709297800.039,-31.738,-36.621,-36.133,-42.969,0.000
1709297800.043,-36.133,-41.504,-39.062,-32.715,0.000
1709297800.047,-37.598,-45.410,-42.969,-28.809,0.000
1709297800.051,-32.715,-41.016,-41.504,-38.574,0.000
1709297800.055,-29.297,-39.551,-44.922,-45.410,0.000
1709297800.059,-39.062,-41.016,-43.945,-48.828,0.000
1709297800.063,-46.387,-41.016,-43.945,-46.875,0.000
1709297800.067,-35.645,-40.039,-49.805,-40.527,0.000
1709297800.070,-23.438,-40.527,-51.758,-37.109,0.000
1709297800.074,-29.785,-39.551,-51.758,-41.992,0.000
1709297800.078,-49.805,-43.945,-51.270,-49.805,0.000
1709297800.082,-50.781,-41.992,-47.363,-38.086,0.000
1709297800.086,-36.133,-38.574,-42.480,-27.344,0.000
1709297800.090,-33.691,-40.527,-42.969,-32.715,0.000
1709297800.094,-39.062,-38.574,-46.387,-34.180,0.000
1709297800.098,-42.969,-34.180,-41.992,-41.504,0.000
1709297800.102,-49.316,-31.738,-39.551,-44.922,0.000
1709297800.106,-43.457,-32.227,-40.039,-33.203,0.000
1709297800.110,-35.156,-32.715,-38.086,-29.297,0.000
1709297800.113,-35.645,-35.156,-44.922,-44.922,0.000
1709297800.117,-45.410,-34.668,-45.898,-53.223,0.000
1709297800.121,-59.082,-38.086,-41.992,-46.387,0.000
1709297800.125,-45.898,-39.062,-39.062,-30.762,0.000
1709297800.129,-22.461,-36.133,-37.598,-24.414,0.000
1709297800.133,-15.137,-35.156,-43.457,-38.574,0.000
1709297800.137,-31.250,-37.109,-46.387,-49.316,0.000
1709297800.141,-40.527,-40.039,-45.898,-47.363,0.000
1709297800.145,-36.621,-37.598,-44.434,-38.086,0.000
1709297800.149,-35.156,-37.109,-48.340,-34.180,0.000
1709297800.152,-34.668,-35.156,-50.293,-32.715,0.000
1709297800.156,-39.062,-35.645,-50.781,-38.086,0.000
1709297800.160,-49.805,-36.133,-50.781,-50.781,0.000
1709297800.164,-53.711,-38.086,-49.316,-43.945,0.000
1709297800.168,-29.297,-37.109,-45.898,-31.738,0.000
1709297800.172,-3.418,-33.203,-41.992,-22.461,0.000
1709297800.176,-14.648,-35.645,-41.992,-39.062,0.000
1709297800.180,-39.062,-38.086,-43.457,-55.664,0.000
1709297800.184,-40.039,-32.715,-48.828,-41.504,0.000
1709297800.188,-19.531,-28.320,-57.617,-20.020,0.000
1709297800.192,-3.418,-22.949,-61.523,-23.438,0.000
1709297800.195,-10.742,-13.184,-56.641,-43.457,0.000
1709297800.199,-20.020,-9.766,-57.617,-41.016,0.000
1709297800.203,-14.648,-7.324,-63.477,-31.738,0.000
1709297800.207,2.930,-4.883,-65.430,-26.367,0.000
1709297800.211,15.137,-3.418,-60.547,-22.949,0.000
1709297800.215,11.230,-9.766,-61.035,-28.809,0.000
1709297800.219,-9.277,-14.648,-61.523,-37.109,0.000
1709297800.223,-20.020,-13.672,-52.246,-35.156,0.000
1709297800.227,-8.789,-13.184,-47.363,-20.508,0.000
1709297800.231,-2.441,-14.160,-46.875,-14.160,0.000
1709297800.235,-5.371,-16.113,-49.316,-25.391,0.000
1709297800.238,-8.789,-17.578,-49.805,-38.086,0.000
1709297800.242,-19.043,-18.066,-48.828,-38.086,0.000
1709297800.246,-24.414,-16.113,-48.828,-24.414,0.000
1709297800.250,-18.555,-20.508,-51.758,-20.996,0.000
1709297800.254,-11.230,-22.949,-53.223,-30.273,0.000
1709297800.258,-22.949,-21.484,-53.223,-39.062,0.000
1709297800.262,-38.086,-23.438,-53.711,-36.621,0.000
1709297800.266,-24.414,-24.414,-50.781,-25.879,0.000
1709297800.270,-8.301,-19.531,-51.758,-24.414,0.000
1709297800.274,-13.184,-24.902,-56.152,-33.203,0.000
1709297800.277,-33.691,-28.809,-53.223,-51.270,0.000
1709297800.281,-39.551,-24.902,-50.781,-56.152,0.000
1709297800.285,-22.949,-28.809,-46.387,-41.016,0.000
1709297800.289,-17.090,-29.297,-48.340,-38.086,0.000
1709297800.293,-16.113,-30.762,-50.293,-33.691,0.000
1709297800.297,-26.367,-32.227,-48.828,-39.551,0.000
1709297800.301,-38.574,-31.738,-50.781,-40.039,0.000
1709297800.305,-37.109,-34.180,-51.270,-31.250,0.000
1709297800.309,-34.180,-31.250,-51.758,-25.879,0.000
1709297800.313,-37.109,-32.227,-51.270,-15.625,0.000
1709297800.317,-43.457,-35.645,-46.875,-19.531,0.000
1709297800.320,-46.387,-29.297,-44.922,-23.438,0.000
1709297800.324,-43.945,-28.320,-48.828,-26.855,0.000
1709297800.328,-36.133,-33.691,-50.293,-28.809,0.000
1709297800.332,-35.156,-35.645,-50.293,-29.297,0.000
1709297800.336,-36.133,-36.133,-52.734,-38.574,0.000
1709297800.340,-43.945,-37.109,-52.734,-43.945,0.000
1709297800.344,-54.688,-36.133,-46.387,-32.227,0.000
1709297800.348,-48.340,-38.086,-46.387,-28.320,0.000
1709297800.352,-41.016,-36.133,-50.781,-30.273,0.000
1709297800.356,-38.574,-31.250,-47.363,-16.113,0.000
1709297800.359,-35.645,-28.809,-46.875,-28.320,0.000
1709297800.363,-39.551,-30.273,-52.246,-49.316,0.000
1709297800.367,-32.227,-25.879,-52.246,-38.574,0.000
1709297800.371,-17.090,-22.461,-51.758,-36.621,0.000
1709297800.375,-24.414,-22.461,-53.711,-45.410,0.000
1709297800.379,-46.387,-24.414,-51.758,-47.852,0.000
1709297800.383,-49.316,-31.250,-50.293,-37.109,0.000
1709297800.387,-35.156,-27.832,-47.852,-27.344,0.000
1709297800.391,-25.879,-28.320,-46.875,-28.320,0.000
1709297800.395,-39.551,-34.668,-48.340,-36.621,0.000
1709297800.399,-54.199,-30.273,-48.340,-42.969,0.000
1709297800.402,-51.758,-30.273,-45.410,-42.480,0.000
1709297800.406,-54.688,-32.715,-43.457,-27.344,0.000
1709297800.410,-38.574,-26.855,-41.504,-6.836,0.000
1709297800.414,-22.461,-25.879,-39.062,-22.949,0.000
1709297800.418,-37.109,-33.691,-40.039,-44.922,0.000
1709297800.422,-52.246,-33.203,-42.480,-40.527,0.000
1709297800.426,-50.293,-27.832,-42.480,-27.344,0.000
1709297800.430,-34.668,-25.879,-37.598,-27.344,0.000
1709297800.434,-31.738,-31.250,-37.598,-38.574,0.000
1709297800.438,-43.457,-31.738,-39.062,-53.223,0.000
1709297800.442,-46.875,-28.320,-42.480,-52.246,0.000
1709297800.445,-41.504,-31.738,-47.363,-29.785,0.000
1709297800.449,-31.738,-35.156,-43.457,-14.160,0.000
1709297800.453,-29.785,-36.133,-39.062,-19.531,0.000
1709297800.457,-38.086,-36.133,-39.551,-33.203,0.000
1709297800.461,-48.340,-34.180,-40.039,-29.785,0.000
1709297800.465,-39.551,-32.715,-40.039,-25.391,0.000
1709297800.469,-26.367,-34.668,-40.039,-26.367,0.000
1709297800.473,-22.949,-30.273,-41.016,-35.156,0.000
1709297800.477,-30.273,-30.762,-42.969,-47.852,0.000
1709297800.481,-39.551,-35.156,-46.387,-49.316,0.000
1709297800.485,-34.668,-27.344,-44.922,-42.480,0.000
1709297800.488,-21.484,-24.414,-40.527,-32.715,0.000
1709297800.492,-21.484,-31.250,-41.992,-35.645,0.000
1709297800.496,-42.969,-36.133,-44.434,-42.480,0.000
1709297800.500,-49.316,-36.621,-44.922,-50.781,0.000
1709297800.504,-41.504,-33.691,-45.410,-50.293,0.000
1709297800.508,-34.668,-33.691,-48.828,-35.645,0.000
1709297800.512,-40.039,-36.133,-48.340,-30.273,0.000
1709297800.516,-54.199,-37.598,-47.363,-39.551,0.000
1709297800.520,-56.641,-35.156,-50.293,-46.875,0.000
1709297800.524,-59.082,-33.691,-49.805,-39.062,0.000
1709297800.528,-46.387,-34.668,-46.875,-31.738,0.000
1709297800.531,-31.250,-33.203,-44.922,-29.785,0.000
1709297800.535,-38.574,-34.668,-46.387,-32.227,0.000
1709297800.539,-55.664,-40.039,-50.293,-36.621,0.000
1709297800.543,-62.012,-38.574,-50.293,-40.039,0.000
1709297800.547,-45.898,-38.086,-52.246,-31.250,0.000
1709297800.551,-35.645,-38.574,-52.246,-24.414,0.000
1709297800.555,-35.645,-39.551,-46.387,-40.039,0.000
1709297800.559,-46.387,-39.551,-42.969,-41.504,0.000
1709297800.563,-50.293,-36.133,-42.969,-40.039,0.000
1709297800.567,-31.738,-35.156,-42.480,-44.434,0.000
1709297800.570,-24.902,-33.691,-42.969,-39.062,0.000
1709297800.574,-34.180,-33.203,-41.992,-41.504,0.000
1709297800.578,-46.875,-34.180,-45.898,-48.828,0.000
1709297800.582,-53.711,-33.691,-48.340,-49.805,0.000
1709297800.586,-52.246,-29.785,-42.969,-39.551,0.000
1709297800.590,-41.504,-27.832,-41.992,-30.273,0.000
1709297800.594,-30.762,-29.785,-39.062,-26.367,0.000
1709297800.598,-36.621,-26.855,-35.156,-33.691,0.000
1709297800.602,-55.176,-30.273,-39.062,-39.062,0.000
1709297800.606,-54.688,-32.227,-39.062,-23.438,0.000
1709297800.610,-33.691,-26.367,-41.016,-26.367,0.000
1709297800.613,-28.320,-35.645,-46.875,-35.156,0.000
1709297800.617,-30.762,-37.598,-46.387,-24.902,0.000
1709297800.621,-22.949,-30.273,-47.363,-5.859,0.000
1709297800.625,-29.785,-29.785,-43.945,-8.301,0.000
1709297800.629,-46.875,-37.109,-33.203,-21.973,0.000
1709297800.633,-40.039,-44.922,-35.156,-21.973,0.000
1709297800.637,-57.617,-48.340,-37.598,-41.016,0.000
1709297800.641,-84.473,-50.781,-34.668,-63.965,0.000
1709297800.645,-70.801,-48.828,-34.668,-56.641,0.000
1709297800.649,-62.988,-47.852,-35.645,-41.016,0.000
1709297800.652,-63.965,-47.363,-41.016,-42.969,0.000
1709297800.656,-65.430,-46.875,-43.945,-50.293,0.000
1709297800.660,-61.035,-43.457,-41.992,-49.805,0.000
1709297800.664,-58.105,-42.969,-38.086,-41.992,0.000
1709297800.668,-55.664,-47.852,-41.016,-38.086,0.000
1709297800.672,-46.387,-48.340,-43.945,-35.645,0.000
1709297800.676,-50.781,-45.898,-40.039,-39.551,0.000
1709297800.680,-59.082,-45.898,-40.039,-40.527,0.000
1709297800.684,-51.270,-44.922,-37.109,-34.668,0.000
1709297800.688,-41.016,-41.016,-34.180,-24.414,0.000
1709297800.692,-38.574,-38.574,-32.715,-18.555,0.000
1709297800.695,-41.992,-41.504,-32.715,-30.273,0.000
1709297800.699,-51.758,-42.480,-40.039,-43.945,0.000
1709297800.703,-51.758,-38.086,-39.551,-35.156,0.000
1709297800.707,-39.062,-40.527,-34.180,-18.066,0.000
1709297800.711,-30.273,-45.410,-34.668,-16.113,0.000
1709297800.715,-30.762,-41.992,-33.691,-25.391,0.000
1709297800.719,-34.668,-39.551,-32.715,-32.227,0.000
1709297800.723,-37.598,-36.133,-35.156,-29.297,0.000
1709297800.727,-33.203,-33.203,-39.062,-25.879,0.000
1709297800.731,-19.531,-33.691,-41.016,-31.250,0.000
1709297800.734,-16.113,-32.227,-39.062,-36.621,0.000
1709297800.738,-36.133,-34.180,-37.598,-38.574,0.000
1709297800.742,-48.340,-37.109,-41.016,-41.992,0.000
1709297800.746,-37.109,-36.133,-45.898,-45.898,0.000
1709297800.750,-32.227,-40.039,-42.969,-41.504,0.000
1709297800.754,-33.691,-41.016,-38.574,-39.062,0.000
1709297800.758,-36.621,-35.156,-36.133,-41.016,0.000
1709297800.762,-45.410,-29.785,-36.621,-42.480,0.000
1709297800.766,-40.527,-24.414,-37.598,-28.809,0.000
1709297800.770,-27.832,-28.320,-38.574,-23.926,0.000
1709297800.774,-31.738,-34.668,-42.969,-37.598,0.000
1709297800.777,-47.363,-33.691,-42.480,-47.852,0.000
1709297800.781,-58.594,-32.715,-44.434,-46.387,0.000
1709297800.785,-60.059,-31.250,-44.922,-34.668,0.000
1709297800.789,-41.016,-28.809,-38.574,-27.832,0.000
1709297800.793,-25.879,-27.344,-39.551,-24.414,0.000
1709297800.797,-36.621,-27.344,-41.504,-36.621,0.000
1709297800.801,-42.480,-27.832,-43.457,-41.992,0.000
1709297800.805,-33.203,-25.391,-45.898,-31.250,0.000
1709297800.809,-26.367,-25.879,-43.945,-19.531,0.000
1709297800.813,-21.484,-32.227,-43.945,-27.832,0.000
1709297800.817,-29.785,-40.527,-47.852,-48.340,0.000
1709297800.820,-38.574,-38.086,-50.781,-51.270,0.000
1709297800.824,-40.527,-30.762,-45.898,-40.527,0.000
1709297800.828,-44.434,-36.133,-46.875,-24.902,0.000
1709297800.832,-39.062,-42.969,-53.223,-31.738,0.000
1709297800.836,-36.621,-41.504,-48.340,-47.363,0.000
1709297800.840,-42.969,-35.156,-43.457,-46.875,0.000
1709297800.844,-53.223,-31.738,-45.410,-37.598,0.000
1709297800.848,-51.270,-33.203,-41.504,-23.926,0.000
1709297800.852,-39.062,-36.133,-39.062,-20.508,0.000
1709297800.856,-42.969,-36.621,-42.480,-35.645,0.000
1709297800.859,-41.992,-32.715,-36.621,-36.621,0.000
1709297800.863,-37.109,-30.273,-35.156,-29.785,0.000
1709297800.867,-30.762,-29.297,-39.062,-31.250,0.000
1709297800.871,-15.625,-26.367,-36.133,-26.855,0.000
1709297800.875,-12.695,-28.809,-34.668,-26.855,0.000
1709297800.879,-24.414,-30.273,-37.109,-39.551,0.000
1709297800.883,-29.785,-27.344,-38.574,-42.480,0.000
1709297800.887,-23.926,-24.902,-35.156,-17.090,0.000
1709297800.891,-21.973,-30.273,-42.480,-16.602,0.000
1709297800.895,-26.367,-33.691,-48.340,-41.992,0.000
1709297800.899,-32.715,-29.297,-43.457,-48.828,0.000
1709297800.902,-38.086,-26.855,-45.898,-47.363,0.000
1709297800.906,-24.414,-27.344,-46.875,-33.203,0.000
1709297800.910,-15.625,-30.762,-43.457,-24.414,0.000
1709297800.914,-31.738,-37.109,-43.457,-38.086,0.000
1709297800.918,-52.246,-37.598,-47.852,-50.781,0.000
1709297800.922,-55.176,-36.621,-49.805,-52.246,0.000
1709297800.926,-38.086,-35.645,-48.828,-39.062,0.000
1709297800.930,-30.273,-30.273,-48.340,-28.320,0.000
1709297800.934,-37.109,-32.715,-46.875,-21.484,0.000
1709297800.938,-41.016,-33.203,-45.898,-31.250,0.000
1709297800.942,-39.551,-29.297,-42.480,-34.180,0.000
1709297800.945,-34.668,-31.738,-40.527,-19.531,0.000
1709297800.949,-27.832,-32.227,-43.457,-22.461,0.000
1709297800.953,-26.855,-30.762,-45.410,-26.855,0.000
1709297800.957,-36.621,-34.668,-44.434,-33.691,0.000
1709297800.961,-51.758,-36.621,-44.922,-43.945,0.000
1709297800.965,-45.410,-34.180,-47.363,-41.504,0.000
1709297800.969,-30.762,-34.668,-50.781,-37.598,0.000
1709297800.973,-20.508,-33.691,-45.410,-33.691,0.000
1709297800.977,-29.297,-34.668,-39.551,-31.250,0.000
1709297800.981,-46.387,-35.645,-41.016,-33.203,0.000
1709297800.984,-37.109,-35.156,-39.551,-30.762,0.000
1709297800.988,-29.297,-35.645,-38.574,-18.555,0.000
1709297800.992,-33.203,-33.691,-39.062,-26.367,0.000
1709297800.996,-22.461,-30.762,-42.969,-35.156,0.000
1709297801.000,-24.414,-26.855,-44.922,-29.297,0.000
1709297801.004,-40.039,-30.273,-39.062,-15.137,0.000
1709297801.008,-46.875,-35.156,-29.297,-20.508,0.000
1709297801.012,-48.828,-41.504,-21.973,-28.320,0.000
1709297801.016,-62.500,-49.316,-26.855,-44.434,0.000
1709297801.020,-86.914,-48.828,-29.297,-62.012,0.000
1709297801.024,-92.285,-48.828,-32.715,-47.852,0.000
1709297801.027,-72.754,-48.828,-38.574,-35.645,0.000
1709297801.031,-49.805,-47.363,-34.180,-41.504,0.000
1709297801.035,-46.875,-44.922,-33.691,-48.828,0.000
1709297801.039,-55.664,-45.410,-38.574,-52.246,0.000
1709297801.043,-60.059,-46.387,-37.109,-44.922,0.000
1709297801.047,-49.316,-41.016,-36.133,-34.668,0.000
1709297801.051,-36.621,-39.551,-39.062,-28.320,0.000
1709297801.055,-40.527,-38.086,-38.086,-37.109,0.000
1709297801.059,-45.410,-36.621,-37.598,-47.363,0.000
1709297801.063,-43.457,-37.598,-37.109,-39.062,0.000
1709297801.066,-43.457,-40.527,-38.086,-26.367,0.000
1709297801.070,-38.086,-45.410,-38.086,-13.672,0.000
1709297801.074,-30.762,-40.527,-38.086,-33.203,0.000
1709297801.078,-44.922,-38.086,-40.039,-49.316,0.000
1709297801.082,-60.547,-42.969,-44.434,-45.898,0.000
1709297801.086,-51.758,-42.969,-46.387,-49.316,0.000
1709297801.090,-40.039,-39.551,-43.457,-40.039,0.000
1709297801.094,-36.621,-34.668,-35.645,-37.598,0.000
1709297801.098,-49.805,-32.715,-35.156,-54.688,0.000
1709297801.102,-64.941,-36.621,-41.016,-57.129,0.000
1709297801.106,-57.129,-38.086,-41.504,-43.945,0.000
1709297801.109,-39.062,-35.645,-39.551,-39.551,0.000
1709297801.113,-36.133,-39.551,-36.621,-35.156,0.000
1709297801.117,-39.551,-38.574,-37.109,-39.062,0.000
1709297801.121,-47.852,-34.180,-46.875,-49.316,0.000
1709297801.125,-56.152,-34.668,-47.852,-41.016,0.000
1709297801.129,-44.922,-32.715,-43.945,-35.645,0.000
1709297801.133,-37.109,-34.668,-45.410,-41.992,0.000
1709297801.137,-46.875,-34.180,-47.363,-50.293,0.000
1709297801.141,-61.523,-32.715,-48.828,-52.246,0.000
1709297801.145,-53.223,-34.668,-50.781,-40.527,0.000
1709297801.148,-37.109,-34.668,-54.688,-34.668,0.000
1709297801.152,-27.344,-31.250,-48.340,-28.320,0.000
1709297801.156,-33.203,-29.785,-46.875,-27.832,0.000
1709297801.160,-44.922,-31.250,-50.293,-42.480,0.000
1709297801.164,-47.363,-31.738,-46.875,-38.574,0.000
1709297801.168,-38.574,-30.273,-46.387,-30.762,0.000
1709297801.172,-24.902,-33.203,-44.434,-32.227,0.000
1709297801.176,-30.762,-34.668,-46.875,-40.527,0.000
1709297801.180,-45.898,-34.668,-47.852,-46.875,0.000
1709297801.184,-47.852,-37.109,-45.898,-47.363,0.000
1709297801.188,-40.039,-39.062,-50.293,-45.898,0.000
1709297801.191,-31.738,-36.621,-51.758,-41.504,0.000
1709297801.195,-37.109,-35.156,-55.664,-44.922,0.000
1709297801.199,-53.223,-38.086,-55.664,-54.199,0.000
1709297801.203,-62.012,-41.504,-49.316,-54.199,0.000
1709297801.207,-55.176,-41.992,-47.363,-37.109,0.000
1709297801.211,-40.527,-40.527,-42.480,-27.344,0.000
1709297801.215,-36.133,-35.645,-35.156,-24.414,0.000
1709297801.219,-46.875,-31.738,-38.574,-32.715,0.000
1709297801.223,-53.223,-31.250,-40.527,-43.945,0.000
1709297801.227,-39.062,-31.738,-39.551,-34.180,0.000
1709297801.231,-28.809,-30.273,-42.969,-35.156,0.000
1709297801.234,-29.297,-28.320,-40.527,-44.922,0.000
1709297801.238,-38.086,-29.785,-39.062,-47.363,0.000
1709297801.242,-62.500,-37.109,-46.875,-42.480,0.000
1709297801.246,-62.988,-40.039,-48.340,-37.598,0.000
1709297801.250,-35.645,-30.762,-41.504,-38.086,0.000
1709297801.254,-37.109,-28.320,-40.527,-41.504,0.000
1709297801.258,-50.781,-31.738,-42.969,-55.664,0.000
1709297801.262,-51.758,-34.180,-44.922,-50.293,0.000
1709297801.266,-41.992,-35.645,-48.828,-32.227,0.000
1709297801.270,-20.508,-33.203,-46.387,-34.668,0.000
1709297801.274,-23.926,-34.668,-41.992,-38.086,0.000
1709297801.277,-42.480,-36.621,-39.551,-38.574,0.000
1709297801.281,-55.176,-34.668,-38.574,-38.574,0.000
1709297801.285,-54.688,-34.180,-38.086,-37.109,0.000
1709297801.289,-37.109,-37.598,-38.086,-25.391,0.000
1709297801.293,-28.320,-36.133,-33.203,-28.809,0.000
1709297801.297,-36.621,-39.062,-37.109,-48.828,0.000
1709297801.301,-43.945,-41.016,-39.551,-45.410,0.000
1709297801.305,-37.598,-38.086,-36.133,-32.715,0.000
1709297801.309,-30.273,-38.574,-35.645,-17.090,0.000
1709297801.313,-31.738,-40.039,-33.691,-20.020,0.000
1709297801.316,-38.086,-44.434,-36.621,-30.762,0.000
1709297801.320,-47.852,-45.898,-43.945,-36.133,0.000
1709297801.324,-54.688,-39.551,-43.945,-34.668,0.000
1709297801.328,-40.527,-32.227,-36.621,-18.066,0.000
1709297801.332,-28.809,-35.645,-35.156,-17.090,0.000
1709297801.336,-32.227,-34.180,-41.504,-33.203,0.000
1709297801.340,-45.410,-32.227,-44.434,-40.527,0.000
1709297801.344,-52.246,-33.691,-44.434,-40.527,0.000
1709297801.348,-38.086,-28.809,-39.062,-31.738,0.000
1709297801.352,-27.344,-33.691,-37.598,-24.414,0.000
1709297801.356,-28.320,-39.062,-45.410,-38.574,0.000
1709297801.359,-34.668,-31.250,-46.387,-54.199,0.000
1709297801.363,-29.297,-29.297,-41.992,-38.086,0.000
1709297801.367,-13.672,-34.180,-42.480,-19.043,0.000
1709297801.371,-6.836,-32.227,-36.621,-11.719,0.000
1709297801.375,-30.273,-37.598,-32.227,-29.297,0.000
1709297801.379,-61.035,-42.969,-33.691,-50.293,0.000
1709297801.383,-61.035,-37.109,-31.738,-38.086,0.000
1709297801.387,-47.363,-36.621,-32.715,-22.949,0.000
1709297801.391,-36.621,-37.109,-35.156,-20.020,0.000
1709297801.395,-31.250,-40.039,-38.086,-32.227,0.000
1709297801.399,-47.363,-41.504,-44.922,-44.434,0.000
1709297801.402,-55.176,-41.504,-44.922,-40.527,0.000
1709297801.406,-42.969,-40.039,-41.504,-38.086,0.000
1709297801.410,-35.645,-40.039,-43.945,-37.109,0.000
1709297801.414,-46.387,-40.527,-48.828,-45.410,0.000
1709297801.418,-58.105,-39.551,-49.805,-59.570,0.000
1709297801.422,-58.105,-38.086,-50.293,-59.570,0.000
1709297801.426,-48.828,-36.621,-50.293,-33.691,0.000
1709297801.430,-33.203,-36.133,-46.387,-17.090,0.000
1709297801.434,-31.738,-36.621,-49.316,-32.227,0.000
1709297801.438,-39.551,-37.598,-45.410,-39.062,0.000
1709297801.441,-51.758,-41.992,-40.527,-22.949,0.000
1709297801.445,-60.059,-44.434,-44.922,-12.207,0.000
1709297801.449,-41.992,-37.109,-44.434,-16.113,0.000
1709297801.453,-27.344,-36.133,-45.898,-20.020,0.000
1709297801.457,-36.133,-38.574,-49.805,-31.738,0.000
1709297801.461,-39.062,-35.156,-47.852,-31.250,0.000
1709297801.465,-32.715,-35.156,-44.434,-16.113,0.000
1709297801.469,-19.043,-37.598,-43.457,-0.977,0.000
1709297801.473,-10.254,-36.133,-42.969,-5.371,0.000
1709297801.477,-20.020,-35.156,-43.457,-21.973,0.000
1709297801.480,-36.621,-37.109,-43.945,-22.461,0.000
1709297801.484,-37.598,-36.133,-43.945,-16.113,0.000
1709297801.488,-26.367,-34.180,-45.898,-7.812,0.000
1709297801.492,-18.555,-32.227,-47.363,-9.766,0.000
1709297801.496,-20.996,-30.762,-44.434,-21.973,0.000
1709297801.500,-33.203,-29.297,-41.016,-25.391,0.000
1709297801.504,-32.715,-29.785,-40.527,-18.555,0.000
1709297801.508,-27.344,-32.227,-45.898,-8.789,0.000
1709297801.512,-28.320,-34.180,-46.875,-15.625,0.000
1709297801.516,-19.531,-31.738,-41.016,-23.438,0.000
1709297801.520,-30.273,-28.320,-40.039,-37.598,0.000
1709297801.523,-42.480,-30.762,-40.527,-33.203,0.000
1709297801.527,-30.273,-33.691,-38.086,-21.484,0.000
1709297801.531,-23.438,-39.062,-43.457,-25.391,0.000
1709297801.535,-30.273,-37.598,-47.363,-29.785,0.000
1709297801.539,-39.062,-29.297,-46.387,-49.316,0.000
1709297801.543,-45.410,-27.832,-48.340,-56.152,0.000
1709297801.547,-38.574,-29.297,-45.898,-44.434,0.000
1709297801.551,-20.508,-26.367,-42.969,-29.785,0.000
1709297801.555,-21.973,-28.320,-44.434,-37.598,0.000
1709297801.559,-33.691,-31.738,-41.016,-38.086,0.000
1709297801.563,-35.156,-30.762,-40.527,-34.180,0.000
1709297801.566,-34.668,-33.203,-42.969,-36.133,0.000
1709297801.570,-25.879,-35.156,-44.434,-26.367,0.000
1709297801.574,-20.996,-34.668,-46.875,-33.691,0.000
1709297801.578,-37.109,-36.621,-46.875,-48.340,0.000
1709297801.582,-46.875,-36.133,-41.992,-49.805,0.000
1709297801.586,-44.922,-33.691,-42.480,-50.293,0.000
1709297801.590,-36.621,-31.250,-43.945,-41.016,0.000
1709297801.594,-45.410,-35.156,-41.992,-37.598,0.000
1709297801.598,-65.430,-41.992,-43.945,-44.922,0.000
1709297801.602,-69.824,-42.969,-39.551,-53.223,0.000
1709297801.606,-67.383,-40.039,-36.133,-45.410,0.000
1709297801.609,-50.781,-35.156,-39.551,-28.320,0.000
1709297801.613,-41.016,-37.109,-42.969,-36.621,0.000
1709297801.617,-51.270,-37.109,-42.480,-49.316,0.000
1709297801.621,-59.082,-34.180,-43.945,-42.969,0.000
1709297801.625,-53.711,-32.715,-43.945,-30.762,0.000
1709297801.629,-37.598,-28.320,-41.992,-19.043,0.000
1709297801.633,-20.020,-29.297,-41.992,-26.367,0.000
1709297801.637,-37.109,-34.668,-42.969,-41.016,0.000
1709297801.641,-54.688,-35.645,-41.992,-42.969,0.000
1709297801.645,-42.480,-34.180,-42.969,-42.480,0.000
1709297801.648,-32.227,-36.621,-50.293,-38.086,0.000
1709297801.652,-31.250,-39.551,-51.758,-41.016,0.000
1709297801.656,-38.574,-37.598,-47.363,-51.270,0.000
1709297801.660,-51.758,-38.574,-45.410,-54.688,0.000
1709297801.664,-57.129,-40.039,-39.551,-45.898,0.000
1709297801.668,-50.781,-46.387,-42.480,-36.621,0.000
1709297801.672,-38.086,-45.898,-47.852,-38.574,0.000
1709297801.676,-39.551,-37.109,-40.527,-39.551,0.000
1709297801.680,-48.340,-39.551,-41.504,-40.039,0.000
1709297801.684,-48.340,-43.457,-45.410,-37.109,0.000
1709297801.688,-47.363,-42.480,-45.410,-38.574,0.000
1709297801.691,-35.645,-38.574,-47.363,-45.898,0.000
1709297801.695,-32.227,-35.645,-45.898,-42.480,0.000
1709297801.699,-43.457,-34.180,-45.898,-41.504,0.000
1709297801.703,-43.945,-30.273,-42.969,-44.434,0.000
1709297801.707,-37.598,-29.297,-41.016,-34.180,0.000
1709297801.711,-30.273,-32.227,-41.016,-29.297,0.000
1709297801.715,-26.855,-30.273,-38.086,-26.855,0.000
1709297801.719,-31.250,-30.273,-41.992,-32.227,0.000
1709297801.723,-34.180,-31.738,-47.852,-34.180,0.000
1709297801.727,-30.273,-30.762,-43.457,-18.555,0.000
1709297801.731,-16.602,-34.180,-44.434,-13.184,0.000
1709297801.734,-5.371,-32.227,-42.969,-25.879,0.000
1709297801.738,-26.855,-32.227,-44.434,-35.156,0.000
1709297801.742,-45.898,-32.227,-47.852,-29.785,0.000
1709297801.746,-38.574,-32.227,-43.457,-27.344,0.000
1709297801.750,-20.996,-29.297,-45.898,-26.367,0.000
1709297801.754,-9.277,-29.297,-49.316,-30.762,0.000
1709297801.758,-30.273,-31.738,-44.434,-56.152,0.000
1709297801.762,-49.805,-31.250,-39.062,-62.012,0.000
1709297801.766,-46.875,-30.762,-42.480,-54.688,0.000
1709297801.770,-35.156,-30.762,-48.828,-46.387,0.000
1709297801.773,-26.367,-33.691,-49.316,-37.598,0.000
1709297801.777,-32.715,-34.668,-43.457,-45.898,0.000
1709297801.781,-42.480,-31.738,-41.504,-46.875,0.000
1709297801.785,-42.480,-36.133,-43.457,-33.691,0.000
1709297801.789,-30.762,-35.645,-41.992,-30.762,0.000
1709297801.793,-30.762,-32.715,-38.086,-37.598,0.000
1709297801.797,-41.992,-32.715,-39.062,-41.016,0.000
1709297801.801,-42.969,-35.645,-43.945,-43.457,0.000
1709297801.805,-41.016,-36.621,-40.527,-41.992,0.000
1709297801.809,-36.621,-31.738,-40.039,-34.180,0.000
1709297801.813,-29.785,-36.133,-40.527,-26.855,0.000
1709297801.816,-41.992,-36.621,-39.062,-32.715,0.000
1709297801.820,-56.152,-33.203,-42.480,-38.574,0.000
1709297801.824,-46.387,-30.273,-41.992,-30.762,0.000
1709297801.828,-34.180,-32.715,-39.062,-29.297,0.000
1709297801.832,-29.785,-36.133,-36.621,-31.738,0.000
1709297801.836,-32.227,-35.645,-37.109,-37.598,0.000
1709297801.840,-45.898,-32.715,-37.598,-38.574,0.000
1709297801.844,-46.387,-32.227,-39.551,-27.344,0.000
1709297801.848,-36.621,-35.645,-39.062,-21.484,0.000
1709297801.852,-38.574,-35.156,-39.551,-19.531,0.000
1709297801.855,-37.109,-31.250,-43.457,-29.785,0.000
1709297801.859,-39.551,-29.785,-45.410,-38.086,0.000
1709297801.863,-44.922,-31.738,-45.898,-22.949,0.000
1709297801.867,-41.016,-33.203,-45.410,-14.648,0.000
1709297801.871,-28.320,-31.738,-47.852,-27.344,0.000
1709297801.875,-22.461,-29.785,-44.922,-28.320,0.000
1709297801.879,-37.109,-29.785,-41.016,-33.691,0.000
1709297801.883,-40.527,-33.691,-41.992,-36.621,0.000
1709297801.887,-24.902,-34.180,-44.434,-24.902,0.000
1709297801.891,-20.508,-35.156,-43.457,-17.090,0.000
1709297801.895,-28.809,-32.227,-40.527,-23.438,0.000
1709297801.898,-43.457,-35.156,-41.504,-33.691,0.000
1709297801.902,-47.852,-38.086,-42.969,-38.086,0.000
1709297801.906,-38.086,-35.156,-46.387,-21.484,0.000
1709297801.910,-26.855,-35.156,-44.922,-11.230,0.000
1709297801.914,-38.086,-40.039,-43.457,-38.574,0.000
1709297801.918,-53.711,-41.504,-41.504,-56.152,0.000
1709297801.922,-55.176,-40.527,-41.992,-47.852,0.000
1709297801.926,-52.734,-39.062,-42.969,-34.668,0.000
1709297801.930,-50.293,-38.086,-43.945,-36.621,0.000
1709297801.934,-42.969,-35.156,-44.922,-46.875,0.000
1709297801.938,-44.922,-28.320,-42.480,-53.711,0.000
1709297801.941,-50.781,-27.832,-41.504,-42.969,0.000
1709297801.945,-42.480,-24.902,-40.039,-27.832,0.000
1709297801.949,-31.250,-22.949,-35.156,-22.461,0.000
1709297801.953,-32.715,-23.438,-31.250,-23.438,0.000
1709297801.957,-42.969,-27.832,-35.156,-39.062,0.000
1709297801.961,-50.293,-32.227,-39.062,-44.922,0.000
1709297801.965,-50.781,-33.203,-40.039,-35.645,0.000
1709297801.969,-45.898,-33.203,-40.039,-25.391,0.000
1709297801.973,-40.039,-30.762,-40.039,-28.320,0.000
1709297801.977,-42.480,-26.855,-41.992,-43.457,0.000
1709297801.981,-56.641,-23.926,-41.504,-42.480,0.000
1709297801.984,-56.641,-23.438,-37.598,-41.016,0.000
1709297801.988,-44.922,-24.414,-38.086,-37.109,0.000
1709297801.992,-36.621,-27.832,-41.016,-39.062,0.000
1709297801.996,-32.227,-29.297,-39.062,-48.340,0.000
1709297802.000,-43.945,-25.879,-35.156,-52.246,0.000
1709297802.004,-50.781,-28.320,-36.621,-38.574,0.000
1709297802.008,-38.086,-29.785,-38.574,-18.555,0.000
1709297802.012,-32.715,-28.320,-41.992,-20.996,0.000
1709297802.016,-29.297,-25.879,-49.316,-35.645,0.000
1709297802.020,-33.203,-23.438,-50.781,-38.574,0.000
1709297802.024,-46.387,-25.879,-50.293,-37.109,0.000
1709297802.027,-47.363,-31.250,-51.758,-22.949,0.000
1709297802.031,-41.992,-31.250,-51.758,-17.090,0.000
1709297802.035,-33.691,-31.738,-47.363,-37.598,0.000
1709297802.039,-38.574,-37.598,-45.410,-50.293,0.000
1709297802.043,-42.480,-34.180,-44.922,-45.410,0.000
1709297802.047,-35.156,-33.691,-44.434,-28.320,0.000
1709297802.051,-19.043,-32.227,-47.363,-27.344,0.000
1709297802.055,-16.602,-29.297,-47.363,-42.969,0.000
1709297802.059,-40.527,-33.203,-44.922,-43.457,0.000
1709297802.063,-50.781,-32.227,-43.945,-43.457,0.000
1709297802.066,-34.180,-27.832,-41.504,-44.922,0.000
1709297802.070,-14.648,-29.297,-39.062,-34.668,0.000
1709297802.074,-18.066,-33.691,-39.062,-31.250,0.000
1709297802.078,-39.062,-36.621,-41.992,-43.457,0.000
1709297802.082,-45.410,-36.133,-41.016,-46.875,0.000
1709297802.086,-41.504,-37.109,-41.504,-33.691,0.000
1709297802.090,-32.715,-39.551,-40.527,-23.438,0.000
1709297802.094,-29.297,-38.086,-39.551,-23.926,0.000
1709297802.098,-42.480,-36.621,-42.969,-31.250,0.000
1709297802.102,-52.246,-35.645,-39.551,-30.273,0.000
1709297802.106,-44.434,-36.621,-39.062,-21.973,0.000
1709297802.109,-25.879,-34.668,-40.527,-19.531,0.000
1709297802.113,-23.438,-36.621,-39.551,-21.484,0.000
1709297802.117,-39.551,-36.133,-40.039,-26.367,0.000
1709297802.121,-48.828,-34.668,-38.086,-29.297,0.000
1709297802.125,-43.457,-34.180,-39.551,-27.344,0.000
1709297802.129,-37.109,-33.691,-44.434,-18.066,0.000
1709297802.133,-35.156,-35.645,-47.852,-25.391,0.000
1709297802.137,-35.645,-31.738,-46.875,-41.504,0.000
1709297802.141,-45.898,-30.273,-47.852,-48.340,0.000
1709297802.145,-49.805,-31.738,-48.828,-50.293,0.000
1709297802.149,-40.527,-32.227,-48.340,-38.086,0.000
1709297802.152,-32.715,-30.273,-51.270,-36.621,0.000
1709297802.156,-36.621,-29.785,-49.316,-44.922,0.000
1709297802.160,-46.875,-36.133,-47.363,-40.527,0.000
1709297802.164,-49.316,-38.574,-46.387,-36.621,0.000
1709297802.168,-37.109,-30.273,-44.434,-33.691,0.000
1709297802.172,-30.762,-27.832,-43.945,-33.203,0.000
1709297802.176,-40.527,-31.738,-39.062,-34.180,0.000
1709297802.180,-49.316,-34.180,-35.156,-41.504,0.000
1709297802.184,-52.246,-33.691,-34.668,-47.852,0.000
1709297802.188,-42.480,-32.715,-30.762,-38.574,0.000
1709297802.191,-31.738,-34.668,-34.668,-28.809,0.000
1709297802.195,-41.504,-34.180,-42.480,-33.203,0.000
1709297802.199,-47.363,-32.715,-45.410,-44.922,0.000
1709297802.203,-42.480,-33.203,-45.410,-45.410,0.000
1709297802.207,-31.250,-31.738,-41.504,-25.879,0.000
1709297802.211,-21.973,-33.691,-41.016,-18.066,0.000
1709297802.215,-26.367,-32.227,-46.875,-30.273,0.000
1709297802.219,-32.715,-33.691,-44.434,-36.133,0.000
1709297802.223,-40.527,-38.574,-39.551,-35.645,0.000
1709297802.227,-39.062,-37.598,-41.992,-28.809,0.000
1709297802.231,-20.508,-34.180,-42.969,-27.832,0.000
1709297802.234,-13.672,-35.645,-45.410,-32.715,0.000
1709297802.238,-29.785,-41.992,-51.270,-28.809,0.000
1709297802.242,-45.410,-36.133,-48.828,-28.809,0.000
1709297802.246,-41.504,-27.344,-43.945,-30.762,0.000
1709297802.250,-30.273,-29.297,-42.480,-23.926,0.000
1709297802.254,-28.320,-32.715,-45.898,-27.344,0.000
1709297802.258,-34.668,-30.762,-45.410,-37.109,0.000
1709297802.262,-47.852,-33.203,-39.062,-41.992,0.000
1709297802.266,-42.969,-35.645,-36.621,-35.156,0.000
1709297802.270,-22.949,-37.109,-39.062,-24.414,0.000
1709297802.274,-15.625,-35.645,-35.156,-28.320,0.000
1709297802.277,-20.020,-34.668,-35.645,-41.016,0.000
1709297802.281,-31.738,-41.016,-34.668,-38.574,0.000
1709297802.285,-41.504,-46.875,-35.156,-31.738,0.000
1709297802.289,-28.320,-44.922,-40.527,-29.297,0.000
1709297802.293,-19.531,-40.527,-41.016,-34.180,0.000
1709297802.297,-39.062,-40.527,-40.527,-33.691,0.000
1709297802.301,-44.434,-36.621,-38.086,-36.133,0.000
1709297802.305,-40.039,-36.133,-39.062,-42.480,0.000
1709297802.309,-28.809,-35.156,-38.574,-30.762,0.000
1709297802.313,-14.648,-31.250,-38.086,-28.320,0.000
1709297802.316,-23.438,-34.668,-40.527,-37.109,0.000
1709297802.320,-34.180,-33.691,-41.992,-46.387,0.000
1709297802.324,-33.203,-29.785,-43.945,-41.016,0.000
1709297802.328,-27.344,-33.203,-43.945,-17.090,0.000
1709297802.332,-20.020,-35.645,-43.457,-19.531,0.000
1709297802.336,-23.926,-36.621,-42.969,-34.180,0.000
1709297802.340,-38.086,-33.203,-41.992,-36.133,0.000
1709297802.344,-41.992,-33.691,-44.434,-36.621,0.000
1709297802.348,-28.809,-37.109,-41.992,-16.113,0.000
1709297802.352,-18.555,-36.621,-39.551,-12.695,0.000
1709297802.356,-21.973,-36.133,-40.527,-28.809,0.000
1709297802.359,-29.785,-32.715,-39.062,-29.297,0.000
1709297802.363,-33.691,-29.297,-43.945,-35.156,0.000
1709297802.367,-25.391,-26.855,-43.457,-23.926,0.000
1709297802.371,-20.020,-27.832,-38.574,-20.508,0.000
1709297802.375,-22.461,-27.344,-41.016,-33.203,0.000
1709297802.379,-32.715,-25.879,-37.109,-37.109,0.000
1709297802.383,-43.457,-29.785,-34.180,-39.551,0.000
1709297802.387,-45.410,-34.180,-36.133,-25.879,0.000
1709297802.391,-39.062,-34.180,-36.133,-11.230,0.000
1709297802.395,-33.203,-31.250,-39.062,-26.367,0.000
1709297802.399,-42.969,-29.297,-36.621,-46.387,0.000
1709297802.402,-55.176,-28.809,-37.109,-47.852,0.000
1709297802.406,-50.781,-31.250,-36.621,-45.898,0.000
1709297802.410,-40.039,-33.203,-33.203,-42.969,0.000
1709297802.414,-40.039,-35.645,-36.133,-40.039,0.000
1709297802.418,-58.594,-36.133,-37.109,-50.781,0.000
1709297802.422,-64.453,-34.668,-32.715,-47.852,0.000
1709297802.426,-53.711,-34.668,-37.598,-32.227,0.000
1709297802.430,-38.574,-35.645,-43.457,-29.785,0.000
1709297802.434,-33.203,-36.621,-39.062,-28.320,0.000
1709297802.438,-44.434,-32.715,-37.598,-33.691,0.000
1709297802.442,-47.852,-34.668,-41.016,-36.133,0.000
1709297802.445,-43.945,-35.645,-43.945,-20.996,0.000
1709297802.449,-38.086,-35.645,-42.480,-17.578,0.000
1709297802.453,-36.133,-38.086,-47.363,-41.016,0.000
1709297802.457,-50.781,-34.668,-48.340,-55.664,0.000
1709297802.461,-61.523,-33.691,-43.457,-60.059,0.000
1709297802.465,-52.734,-38.086,-45.898,-46.875,0.000
1709297802.469,-37.109,-36.133,-45.410,-29.297,0.000
1709297802.473,-28.320,-32.227,-43.457,-37.598,0.000
1709297802.477,-36.621,-35.645,-44.434,-36.133,0.000
1709297802.481,-53.711,-37.598,-44.434,-38.086,0.000
1709297802.484,-51.758,-33.203,-43.457,-40.527,0.000
1709297802.488,-34.180,-30.762,-39.062,-33.691,0.000
1709297802.492,-26.855,-31.738,-40.039,-36.133,0.000
1709297802.496,-37.598,-32.227,-43.457,-39.551,0.000
1709297802.500,-52.246,-31.250,-42.969,-46.387,0.000
1709297802.504,-53.711,-34.668,-45.410,-44.434,0.000
1709297802.508,-39.551,-36.133,-46.875,-30.762,0.000
1709297802.512,-30.273,-38.574,-44.922,-18.066,0.000
1709297802.516,-38.574,-41.992,-44.434,-35.645,0.000
1709297802.520,-49.316,-37.109,-44.922,-52.734,0.000
1709297802.524,-49.805,-35.645,-39.551,-39.551,0.000
1709297802.527,-37.598,-36.133,-34.668,-27.832,0.000
1709297802.531,-20.020,-34.668,-38.086,-26.367,0.000
1709297802.535,-25.391,-36.621,-43.457,-35.156,0.000
1709297802.539,-39.062,-33.203,-46.875,-48.340,0.000
1709297802.543,-43.945,-32.227,-48.340,-48.828,0.000
1709297802.547,-43.945,-33.203,-47.363,-46.387,0.000
1709297802.551,-32.227,-29.297,-42.480,-35.156,0.000
1709297802.555,-23.438,-30.273,-39.551,-37.598,0.000
1709297802.559,-41.504,-35.645,-41.016,-47.363,0.000
1709297802.563,-47.852,-35.645,-44.434,-46.875,0.000
1709297802.566,-27.344,-30.762,-41.016,-26.367,0.000
1709297802.570,-21.973,-26.367,-39.062,-14.160,0.000
1709297802.574,-20.020,-24.902,-41.504,-22.461,0.000
1709297802.578,-21.484,-26.855,-41.504,-22.461,0.000
1709297802.582,-32.227,-30.762,-40.527,-36.133,0.000
1709297802.586,-25.879,-30.273,-43.457,-31.250,0.000
1709297802.590,-16.602,-26.367,-42.480,-22.949,0.000
1709297802.594,-24.902,-22.949,-36.133,-30.273,0.000
1709297802.598,-49.805,-22.949,-35.645,-38.086,0.000
1709297802.602,-63.965,-25.391,-37.598,-49.316,0.000
1709297802.606,-60.059,-29.297,-37.598,-49.316,0.000
1709297802.609,-54.688,-34.668,-44.922,-44.434,0.000
1709297802.613,-41.504,-30.762,-43.457,-35.156,0.000
1709297802.617,-36.621,-24.902,-44.434,-45.410,0.000
1709297802.621,-42.969,-24.902,-48.340,-53.223,0.000
1709297802.625,-35.645,-23.926,-42.480,-31.250,0.000
1709297802.629,-28.320,-27.832,-41.016,-24.414,0.000
1709297802.633,-31.250,-32.227,-39.062,-26.367,0.000
1709297802.637,-39.551,-32.227,-37.598,-27.832,0.000
1709297802.641,-54.688,-37.109,-38.086,-41.016,0.000
1709297802.645,-49.805,-36.621,-37.598,-40.039,0.000
1709297802.648,-26.855,-29.785,-40.527,-22.461,0.000
1709297802.652,-16.113,-29.785,-36.133,-7.324,0.000
1709297802.656,-24.902,-31.738,-39.062,-16.602,0.000
1709297802.660,-34.668,-31.250,-44.434,-28.809,0.000
1709297802.664,-39.551,-32.715,-43.457,-37.109,0.000
1709297802.668,-42.969,-29.785,-41.016,-32.227,0.000
1709297802.672,-40.527,-29.785,-40.039,-25.879,0.000
1709297802.676,-33.691,-30.762,-43.457,-32.715,0.000
1709297802.680,-42.969,-34.668,-44.922,-45.898,0.000
1709297802.684,-47.363,-37.598,-47.852,-51.270,0.000
1709297802.688,-38.086,-35.645,-45.898,-44.922,0.000
1709297802.691,-34.180,-32.227,-43.945,-42.480,0.000
1709297802.695,-39.551,-32.227,-42.969,-39.062,0.000
1709297802.699,-52.734,-34.668,-37.598,-43.945,0.000
1709297802.703,-55.664,-32.715,-37.598,-43.457,0.000
1709297802.707,-45.410,-32.227,-39.551,-36.621,0.000
1709297802.711,-29.297,-35.156,-46.387,-35.156,0.000
1709297802.715,-33.203,-40.527,-48.340,-40.039,0.000
1709297802.719,-47.852,-36.621,-42.969,-41.504,0.000
1709297802.723,-53.223,-33.691,-46.875,-41.016,0.000
1709297802.727,-49.805,-40.039,-49.805,-41.016,0.000
1709297802.731,-37.598,-41.992,-44.434,-29.785,0.000
1709297802.734,-30.762,-35.645,-43.457,-32.715,0.000
1709297802.738,-43.457,-38.574,-44.922,-48.828,0.000
1709297802.742,-54.199,-39.551,-40.527,-49.316,0.000
1709297802.746,-47.363,-33.203,-42.480,-38.574,0.000
1709297802.750,-37.109,-32.227,-44.434,-30.762,0.000
1709297802.754,-35.156,-29.785,-40.527,-32.227,0.000
1709297802.758,-34.668,-28.809,-40.039,-38.086,0.000
1709297802.762,-42.969,-32.715,-38.086,-33.691,0.000
1709297802.766,-48.340,-37.598,-46.875,-26.855,0.000
1709297802.770,-35.645,-39.062,-52.734,-33.691,0.000
1709297802.773,-23.438,-35.156,-45.410,-40.527,0.000
1709297802.777,-20.020,-28.320,-42.480,-45.898,0.000
1709297802.781,-33.203,-25.879,-42.969,-45.410,0.000
1709297802.785,-47.363,-27.832,-41.992,-36.133,0.000
1709297802.789,-33.203,-32.715,-38.086,-30.762,0.000
1709297802.793,-20.996,-30.762,-36.621,-34.180,0.000
1709297802.797,-29.297,-28.809,-40.527,-40.039,0.000
1709297802.801,-32.227,-29.785,-39.062,-40.039,0.000
1709297802.805,-34.668,-25.879,-36.133,-37.598,0.000
1709297802.809,-29.297,-23.438,-36.621,-26.367,0.000
1709297802.813,-20.508,-20.020,-38.086,-25.879,0.000
1709297802.816,-31.738,-24.414,-44.434,-51.270,0.000
1709297802.820,-43.457,-30.273,-43.945,-53.711,0.000
1709297802.824,-49.805,-29.297,-37.109,-37.109,0.000
1709297802.828,-40.039,-27.344,-37.109,-27.344,0.000
1709297802.832,-27.344,-29.297,-41.504,-34.180,0.000
1709297802.836,-39.062,-33.203,-43.945,-45.410,0.000
1709297802.840,-48.340,-33.691,-45.410,-51.758,0.000
1709297802.844,-43.945,-36.133,-44.434,-52.734,0.000
1709297802.848,-36.621,-34.180,-39.062,-46.875,0.000
1709297802.852,-29.297,-31.250,-41.504,-34.668,0.000
1709297802.856,-30.273,-30.273,-49.805,-38.574,0.000
1709297802.859,-35.645,-32.227,-50.781,-57.129,0.000
1709297802.863,-37.598,-34.668,-46.875,-47.852,0.000
1709297802.867,-23.926,-31.250,-45.410,-32.715,0.000
1709297802.871,-16.113,-29.297,-49.805,-32.227,0.000
1709297802.875,-25.879,-32.715,-51.270,-38.574,0.000
1709297802.879,-34.668,-33.691,-47.363,-41.016,0.000
1709297802.883,-39.062,-32.715,-45.898,-46.387,0.000
1709297802.887,-31.250,-33.691,-43.457,-32.227,0.000
1709297802.891,-26.367,-31.250,-41.016,-18.555,0.000
1709297802.895,-26.855,-29.297,-43.945,-39.551,0.000
1709297802.898,-40.039,-32.227,-45.410,-44.922,0.000
1709297802.902,-52.246,-29.785,-39.062,-41.016,0.000
1709297802.906,-44.922,-27.832,-38.086,-45.410,0.000
1709297802.910,-33.691,-30.762,-41.504,-38.086,0.000
1709297802.914,-34.668,-28.320,-41.016,-34.668,0.000
1709297802.918,-51.758,-30.762,-45.898,-49.805,0.000
1709297802.922,-60.059,-31.738,-50.781,-59.570,0.000
1709297802.926,-57.617,-28.320,-53.223,-50.293,0.000
1709297802.930,-39.551,-28.320,-49.316,-41.016,0.000
1709297802.934,-24.414,-32.227,-47.852,-35.645,0.000
1709297802.938,-35.156,-34.668,-48.828,-41.992,0.000
1709297802.941,-54.688,-28.320,-47.852,-43.945,0.000
1709297802.945,-52.734,-26.855,-49.316,-30.762,0.000
1709297802.949,-32.227,-27.344,-46.875,-29.297,0.000
1709297802.953,-29.297,-25.391,-47.852,-32.715,0.000
1709297802.957,-42.969,-29.297,-51.270,-41.016,0.000
1709297802.961,-51.758,-25.879,-50.293,-45.410,0.000
1709297802.965,-50.781,-23.926,-48.340,-42.969,0.000
1709297802.969,-35.156,-31.250,-46.387,-32.715,0.000
1709297802.973,-21.484,-31.250,-44.434,-26.367,0.000
1709297802.977,-28.320,-28.320,-47.852,-36.621,0.000
1709297802.980,-30.762,-26.367,-45.410,-44.434,0.000
1709297802.984,-29.297,-27.344,-42.969,-42.969,0.000
1709297802.988,-29.785,-32.227,-43.945,-27.832,0.000
1709297802.992,-27.344,-32.227,-38.086,-25.391,0.000
1709297802.996,-28.320,-31.250,-36.621,-35.156,0.000
1709297803.000,-38.086,-36.621,-38.574,-34.668,0.000
1709297803.004,-46.387,-34.668,-36.133,-32.715,0.000
1709297803.008,-40.039,-29.785,-31.250,-21.484,0.000
1709297803.012,-28.809,-26.367,-29.297,-9.766,0.000
1709297803.016,-33.691,-28.809,-36.621,-21.484,0.000
1709297803.020,-43.457,-29.785,-37.598,-33.691,0.000
1709297803.023,-45.410,-28.320,-33.691,-25.391,0.000
1709297803.027,-34.180,-27.832,-30.273,-20.996,0.000
1709297803.031,-30.762,-25.879,-31.738,-16.602,0.000
1709297803.035,-35.645,-26.855,-39.062,-14.160,0.000
1709297803.039,-35.156,-29.297,-39.062,-20.508,0.000
1709297803.043,-40.039,-31.250,-38.086,-20.996,0.000
1709297803.047,-29.297,-27.832,-36.621,-9.277,0.000
1709297803.051,-14.160,-24.414,-35.156,-1.953,0.000
1709297803.055,-16.113,-28.809,-36.621,-16.602,0.000
