timestamps,TP9,AF7,AF8,TP10,Right AUX
1709215361.706,-27.344,-34.668,-27.832,-41.016,0.000
1709215361.710,-40.527,-47.363,-25.879,-49.805,0.000
1709215361.714,-45.898,-45.410,-31.250,-47.852,0.000
1709215361.718,-40.039,-47.363,-37.109,-30.273,0.000
1709215361.722,-31.738,-45.410,-40.039,-25.391,0.000
1709215361.725,-25.391,-36.133,-50.781,-27.832,0.000
1709215361.729,-34.668,-30.762,-43.945,-28.320,0.000
1709215361.733,-46.387,-36.621,-19.531,-33.203,0.000
1709215361.737,-40.527,-44.434,-14.160,-29.297,0.000
1709215361.741,-30.762,-41.504,-18.555,-23.926,0.000
1709215361.745,-30.762,-52.246,-21.484,-28.320,0.000
1709215361.749,-45.898,-65.430,-41.992,-40.039,0.000
1709215361.752,-56.641,-50.781,-39.062,-44.434,0.000
1709215361.756,-58.105,-44.434,-25.879,-36.621,0.000
1709215361.760,-53.223,-43.945,-25.391,-26.855,0.000
1709215361.764,-43.945,-48.340,-36.133,-27.832,0.000
1709215361.768,-41.992,-50.781,-33.691,-53.223,0.000
1709215361.772,-44.434,-45.410,-23.438,-62.500,0.000
1709215361.776,-50.293,-53.711,-25.879,-41.992,0.000
1709215361.780,-41.016,-49.316,-39.062,-41.504,0.000
1709215361.784,-35.645,-49.316,-50.293,-52.734,0.000
1709215361.788,-42.480,-56.152,-32.715,-55.664,0.000
1709215361.791,-53.223,-49.316,-26.367,-51.270,0.000
1709215361.795,-31.738,-33.691,-31.738,-42.969,0.000
1709215361.800,0.000,-24.902,-26.855,-29.297,0.000
1709215361.804,0.000,-38.086,-37.109,-35.645,0.000
1709215361.808,0.000,-55.664,-41.992,-52.246,0.000
1709215361.812,0.000,-49.805,-24.902,-54.199,0.000
1709215361.816,0.000,-40.527,-28.809,-41.992,0.000
1709215361.820,0.000,-36.621,-29.297,-27.832,0.000
1709215361.824,0.000,-30.762,-30.762,-22.461,0.000
1709215361.827,0.000,-34.668,-37.109,-29.297,0.000
1709215361.831,0.000,-31.738,-28.809,-49.316,0.000
1709215361.835,0.000,-40.039,-25.391,-51.270,0.000
1709215361.839,0.000,-53.223,-35.156,-43.945,0.000
1709215361.843,0.000,-42.480,-42.480,-40.527,0.000
1709215361.847,-29.785,-41.992,-43.457,-53.223,0.000
1709215361.851,-50.781,-55.664,-18.555,-64.941,0.000
1709215361.855,-51.758,-48.828,-23.926,-49.805,0.000
1709215361.859,-38.086,-37.598,-43.457,-37.598,0.000
1709215361.863,-29.297,-58.594,-31.250,-35.645,0.000
1709215361.867,-27.832,-64.941,-20.996,-34.668,0.000
1709215361.871,-41.504,-47.852,-19.531,-45.898,0.000
1709215361.875,-57.617,-42.480,-32.715,-56.152,0.000
1709215361.879,-60.059,-53.223,-41.504,-41.992,0.000
1709215361.882,-44.922,-62.500,-33.203,-17.578,0.000
1709215361.886,-34.180,-48.828,-31.738,-25.879,0.000
1709215361.890,-40.527,-32.227,-36.621,-45.410,0.000
1709215361.894,-31.738,-38.086,-33.691,-35.156,0.000
1709215361.898,-38.086,-49.316,-28.320,-29.785,0.000
1709215361.902,-42.969,-37.598,-29.297,-25.391,0.000
1709215361.906,-44.922,-45.410,-32.715,-21.973,0.000
1709215361.910,-53.711,-56.641,-37.109,-39.551,0.000
1709215361.914,-50.781,-45.410,-51.270,-50.781,0.000
1709215361.918,-39.062,-52.246,-51.758,-55.176,0.000
1709215361.922,-24.414,-37.598,-33.203,-42.969,0.000
1709215361.926,-24.902,-24.902,-25.879,-26.367,0.000
1709215361.929,-31.738,-25.879,-32.227,-29.785,0.000
1709215361.933,-42.480,-31.250,-37.598,-46.875,0.000
1709215361.937,-52.734,-38.086,-42.480,-46.387,0.000
1709215361.941,-39.062,-34.668,-40.039,-41.016,0.000
1709215361.945,-25.391,-38.574,-24.414,-39.551,0.000
1709215361.949,-38.086,-50.293,-38.574,-46.875,0.000
1709215361.953,-49.805,-57.129,-49.805,-55.664,0.000
1709215361.957,-45.410,-52.734,-31.738,-42.480,0.000
1709215361.961,-39.551,-43.945,-32.227,-22.949,0.000
1709215361.965,-30.273,-20.020,-40.527,-37.598,0.000
1709215361.969,-33.691,-23.438,-34.668,-52.246,0.000
1709215361.972,-62.012,-40.527,-32.715,-53.223,0.000
1709215361.976,-64.941,-47.363,-41.504,-62.500,0.000
1709215361.980,-46.875,-47.363,-41.504,-50.293,0.000
1709215361.984,-29.785,-40.039,-39.062,-33.203,0.000
1709215361.988,-30.762,-33.203,-49.316,-33.691,0.000
1709215361.992,-49.316,-35.645,-42.969,-49.805,0.000
1709215361.996,-43.457,-41.016,-28.320,-42.480,0.000
1709215362.000,-38.574,-40.039,-25.879,-26.855,0.000
1709215362.004,-40.527,-33.691,-25.879,-28.809,0.000
1709215362.007,-37.598,-43.945,-41.016,-39.062,0.000
1709215362.011,-55.176,-37.109,-39.551,-48.828,0.000
1709215362.015,-46.387,-29.297,-41.992,-47.852,0.000
1709215362.019,-38.574,-42.969,-49.805,-41.504,0.000
1709215362.023,-41.016,-41.992,-35.156,-34.668,0.000
1709215362.027,-43.457,-39.551,-32.227,-38.574,0.000
1709215362.031,-61.523,-39.551,-35.645,-55.664,0.000
1709215362.035,-57.617,-30.273,-44.922,-58.594,0.000
1709215362.038,-46.387,-40.039,-51.758,-52.246,0.000
1709215362.042,-31.250,-48.828,-36.133,-44.922,0.000
1709215362.046,-27.344,-44.922,-27.344,-42.969,0.000
1709215362.050,-42.969,-37.598,-41.992,-53.711,0.000
1709215362.054,-50.781,-32.715,-57.129,-59.570,0.000
1709215362.058,-41.016,-41.016,-52.246,-49.316,0.000
1709215362.062,-37.598,-42.969,-44.922,-34.180,0.000
1709215362.066,-18.066,-31.250,-41.992,-37.109,0.000
1709215362.070,-13.672,-26.367,-36.133,-49.805,0.000
1709215362.074,-51.270,-49.316,-42.969,-62.500,0.000
1709215362.078,-48.340,-59.082,-42.480,-56.152,0.000
1709215362.081,-33.203,-45.410,-44.434,-36.133,0.000
1709215362.085,-45.410,-44.922,-50.293,-36.133,0.000
1709215362.089,-57.129,-50.781,-34.180,-60.059,0.000
1709215362.093,-61.523,-49.805,-45.898,-62.500,0.000
1709215362.097,-46.387,-35.645,-61.035,-47.852,0.000
1709215362.101,-27.344,-31.250,-41.992,-50.293,0.000
1709215362.105,-25.879,-38.574,-33.203,-41.992,0.000
1709215362.108,-22.949,-41.992,-37.109,-39.062,0.000
1709215362.112,-30.273,-48.340,-43.457,-47.363,0.000
1709215362.116,-35.156,-52.734,-39.062,-44.922,0.000
1709215362.120,-27.344,-49.316,-37.109,-34.668,0.000
1709215362.124,-27.344,-45.410,-27.832,-25.391,0.000
1709215362.128,-32.227,-47.852,-19.043,-39.551,0.000
1709215362.131,-46.875,-42.480,-37.109,-60.547,0.000
1709215362.135,-55.176,-26.367,-49.805,-56.641,0.000
1709215362.139,-42.480,-25.879,-29.297,-38.574,0.000
1709215362.143,-36.133,-34.668,-28.809,-35.156,0.000
1709215362.147,-48.828,-41.504,-33.203,-34.668,0.000
1709215362.151,-62.988,-44.922,-28.320,-39.062,0.000
1709215362.155,-54.688,-46.387,-26.367,-41.504,0.000
1709215362.159,-32.715,-53.223,-34.668,-27.344,0.000
1709215362.163,-21.484,-44.922,-34.180,-19.043,0.000
1709215362.167,-23.926,-31.738,-22.461,-30.273,0.000
1709215362.170,-37.109,-42.480,-33.691,-56.641,0.000
1709215362.175,-52.246,-47.363,-59.082,-63.477,0.000
1709215362.179,-34.180,-26.855,-51.758,-47.363,0.000
1709215362.183,-14.160,-25.879,-35.156,-39.062,0.000
1709215362.187,-36.133,-39.062,-47.363,-46.875,0.000
1709215362.190,-59.570,-36.133,-41.504,-59.570,0.000
1709215362.194,-51.270,-36.621,-30.762,-66.895,0.000
1709215362.198,-34.668,-38.574,-24.902,-53.711,0.000
1709215362.202,-35.156,-34.180,-33.203,-43.945,0.000
1709215362.206,-39.062,-38.086,-42.480,-43.457,0.000
1709215362.210,-40.039,-48.828,-33.203,-43.945,0.000
1709215362.214,-46.875,-51.270,-41.504,-49.316,0.000
1709215362.218,-46.875,-32.715,-46.387,-51.270,0.000
1709215362.222,-37.109,-41.016,-48.828,-40.527,0.000
1709215362.226,-37.598,-50.293,-55.176,-45.898,0.000
1709215362.230,-45.410,-39.551,-36.621,-52.734,0.000
1709215362.234,-58.105,-37.598,-32.227,-47.852,0.000
1709215362.238,-48.828,-27.344,-41.992,-43.457,0.000
1709215362.242,-21.484,-22.461,-32.715,-24.902,0.000
1709215362.245,-27.344,-39.062,-28.320,-18.066,0.000
1709215362.249,-45.410,-46.387,-38.086,-35.645,0.000
1709215362.253,-45.898,-43.945,-28.809,-40.039,0.000
1709215362.257,-36.133,-44.434,-24.414,-25.879,0.000
1709215362.261,-30.762,-34.668,-39.551,-34.180,0.000
1709215362.265,-22.949,-27.344,-55.176,-27.832,0.000
1709215362.269,-28.320,-22.949,-49.805,-20.996,0.000
1709215362.273,-35.156,-29.297,-42.969,-32.715,0.000
1709215362.277,-12.207,-27.344,-50.293,-30.273,0.000
1709215362.281,16.113,-14.160,-46.387,-1.953,0.000
1709215362.285,18.555,-15.625,-40.527,7.812,0.000
1709215362.289,7.812,-20.508,-42.969,-3.418,0.000
1709215362.292,0.000,-30.762,-39.551,-12.207,0.000
1709215362.296,7.324,-37.598,-43.945,3.906,0.000
1709215362.300,20.996,-29.785,-48.828,21.973,0.000
1709215362.304,28.320,-26.367,-40.527,11.719,0.000
1709215362.308,38.086,-30.762,-47.852,-2.441,0.000
1709215362.312,3.906,-32.715,-48.828,-14.648,0.000
1709215362.316,-19.043,-37.109,-41.992,-11.719,0.000
1709215362.320,5.859,-29.297,-43.457,-0.977,0.000
1709215362.324,14.648,-30.273,-37.598,2.930,0.000
1709215362.328,6.836,-38.086,-47.363,-6.348,0.000
1709215362.332,1.465,-24.414,-46.387,-25.391,0.000
1709215362.335,-5.859,-20.020,-40.527,-34.668,0.000
1709215362.339,4.395,-16.602,-46.875,-24.902,0.000
1709215362.343,23.438,-20.508,-46.387,-6.836,0.000
1709215362.347,8.789,-27.832,-55.664,-6.836,0.000
1709215362.351,-20.996,-33.203,-54.688,-29.785,0.000
1709215362.355,-24.902,-35.156,-41.992,-27.832,0.000
1709215362.359,-0.488,-31.250,-44.922,-18.555,0.000
1709215362.363,6.836,-41.504,-56.641,-14.648,0.000
1709215362.367,-16.113,-50.781,-49.805,-18.555,0.000
1709215362.371,-35.156,-34.668,-42.480,-45.898,0.000
1709215362.374,-43.457,-21.484,-41.992,-51.758,0.000
1709215362.378,-30.762,-25.879,-54.688,-40.527,0.000
1709215362.382,-8.301,-29.297,-52.246,-30.273,0.000
1709215362.386,-3.418,-34.180,-31.250,-25.391,0.000
1709215362.390,-18.555,-47.852,-34.668,-20.996,0.000
1709215362.394,-34.180,-38.086,-42.480,-25.879,0.000
1709215362.398,-25.879,-27.832,-45.410,-23.926,0.000
1709215362.402,-14.160,-37.598,-39.062,-10.742,0.000
1709215362.406,-23.926,-41.504,-37.109,-13.672,0.000
1709215362.409,-31.738,-35.156,-43.457,-32.227,0.000
1709215362.413,-34.180,-32.227,-36.621,-33.691,0.000
1709215362.417,-32.715,-36.621,-29.785,-2.441,0.000
1709215362.421,-27.832,-34.668,-21.973,-1.465,0.000
1709215362.425,-23.926,-36.133,-24.902,-25.879,0.000
1709215362.429,-21.484,-31.738,-36.133,-24.902,0.000
1709215362.433,-38.086,-34.180,-40.527,-25.391,0.000
1709215362.437,-39.062,-41.992,-39.551,-17.578,0.000
1709215362.441,-20.020,-38.086,-29.785,-3.906,0.000
1709215362.445,-3.906,-51.758,-24.902,-0.977,0.000
1709215362.448,12.695,-44.434,-20.020,-0.977,0.000
1709215362.452,-11.719,-28.809,-26.855,-14.648,0.000
1709215362.456,-36.133,-35.645,-35.156,-20.020,0.000
1709215362.460,-16.602,-37.598,-25.879,-12.207,0.000
1709215362.464,-0.977,-37.109,-23.438,-9.766,0.000
1709215362.468,-17.090,-48.828,-32.227,-34.180,0.000
1709215362.472,-32.715,-55.176,-34.180,-51.758,0.000
1709215362.475,-33.203,-46.387,-40.039,-46.875,0.000
1709215362.479,-20.996,-41.992,-39.551,-20.020,0.000
1709215362.483,-7.812,-33.691,-43.457,0.977,0.000
1709215362.487,-21.973,-39.062,-58.105,-21.484,0.000
1709215362.491,-34.180,-46.875,-46.387,-47.363,0.000
1709215362.495,-36.133,-46.387,-30.762,-56.641,0.000
1709215362.499,-29.297,-31.738,-22.949,-34.668,0.000
1709215362.502,-17.578,-29.297,-19.043,-23.926,0.000
1709215362.506,-18.555,-62.988,-27.344,-25.391,0.000
1709215362.510,-35.156,-59.082,-33.691,-35.156,0.000
1709215362.514,-52.734,-27.344,-31.738,-48.340,0.000
1709215362.518,-43.945,-22.949,-33.691,-32.715,0.000
1709215362.522,-24.902,-28.320,-25.391,-13.672,0.000
1709215362.526,-22.461,-32.715,-23.926,-16.602,0.000
1709215362.530,-34.180,-32.715,-26.855,-31.738,0.000
1709215362.534,-45.898,-41.016,-27.832,-45.898,0.000
1709215362.537,-46.387,-48.340,-37.109,-36.621,0.000
1709215362.541,-30.273,-43.457,-33.203,-19.531,0.000
1709215362.545,-23.926,-43.945,-29.297,-20.996,0.000
1709215362.550,-36.621,-51.758,-29.297,-30.762,0.000
1709215362.554,-51.758,-43.945,-23.438,-42.969,0.000
1709215362.557,-42.480,-32.715,-23.926,-47.852,0.000
1709215362.561,-14.648,-31.738,-25.879,-32.715,0.000
1709215362.565,-29.297,-28.809,-29.297,-30.273,0.000
1709215362.569,-53.223,-42.480,-34.668,-41.016,0.000
1709215362.573,-49.316,-43.457,-32.715,-44.922,0.000
1709215362.577,-36.133,-30.762,-37.109,-45.410,0.000
1709215362.581,-9.766,-30.273,-33.691,-29.785,0.000
1709215362.585,5.371,-32.715,-25.391,-1.465,0.000
1709215362.589,-6.836,-31.250,-33.691,-7.324,0.000
1709215362.593,-27.832,-27.344,-45.898,-32.715,0.000
1709215362.597,-14.648,-24.414,-52.734,-29.297,0.000
1709215362.601,-1.953,-23.438,-48.340,-19.043,0.000
1709215362.605,-7.812,-25.391,-44.434,-16.113,0.000
1709215362.609,-11.230,-28.809,-46.875,-27.832,0.000
1709215362.612,-15.625,-33.203,-46.387,-41.504,0.000
1709215362.616,-22.949,-26.855,-48.828,-28.320,0.000
1709215362.620,-27.344,-29.785,-56.152,-11.230,0.000
1709215362.624,-25.879,-55.176,-62.500,-29.785,0.000
1709215362.628,-40.527,-52.246,-47.363,-45.898,0.000
1709215362.632,-52.246,-35.156,-31.738,-49.316,0.000
1709215362.636,-30.762,-25.879,-25.879,-42.480,0.000
1709215362.640,-20.996,-39.551,-37.598,-26.367,0.000
1709215362.644,-23.438,-52.246,-41.504,-25.879,0.000
1709215362.648,-30.273,-43.457,-43.945,-36.621,0.000
1709215362.652,-36.133,-33.691,-52.734,-46.387,0.000
1709215362.656,-48.828,-33.691,-41.016,-44.434,0.000
1709215362.659,-41.016,-29.785,-32.227,-27.832,0.000
1709215362.663,-19.531,-32.227,-32.715,-16.113,0.000
1709215362.667,-31.738,-42.969,-33.691,-27.832,0.000
1709215362.671,-38.086,-37.598,-28.809,-37.109,0.000
1709215362.675,-37.598,-36.133,-42.480,-22.949,0.000
1709215362.679,-33.203,-44.922,-46.387,-14.648,0.000
1709215362.683,-23.926,-52.246,-33.203,-22.461,0.000
1709215362.687,-35.156,-46.387,-25.879,-35.156,0.000
1709215362.691,-45.898,-39.062,-25.391,-46.875,0.000
1709215362.695,-39.551,-31.250,-35.645,-55.664,0.000
1709215362.699,-37.598,-27.344,-40.039,-52.246,0.000
1709215362.703,-31.738,-35.156,-38.086,-43.945,0.000
1709215362.706,-34.180,-36.621,-36.133,-49.316,0.000
1709215362.710,-48.340,-43.457,-38.086,-66.406,0.000
1709215362.714,-51.758,-55.664,-40.527,-61.523,0.000
1709215362.718,-45.410,-56.152,-43.945,-26.855,0.000
1709215362.722,-41.504,-39.551,-48.828,-27.832,0.000
1709215362.726,-47.852,-19.531,-57.129,-66.895,0.000
1709215362.730,-55.176,-12.207,-57.129,-77.637,0.000
1709215362.734,-56.641,-7.324,-62.988,-76.660,0.000
1709215362.738,-52.246,-2.930,-68.359,-73.730,0.000
1709215362.741,-38.086,8.789,-66.406,-63.965,0.000
1709215362.745,-25.879,25.391,-64.941,-60.547,0.000
1709215362.749,-41.992,24.414,-75.195,-83.008,0.000
1709215362.753,-50.293,21.973,-78.613,-90.820,0.000
1709215362.757,-32.715,23.926,-77.148,-71.777,0.000
1709215362.761,-13.184,25.391,-80.078,-58.594,0.000
1709215362.765,-8.301,28.809,-76.172,-40.039,0.000
1709215362.769,-9.766,36.133,-81.055,-47.363,0.000
1709215362.773,-24.414,37.109,-87.402,-65.430,0.000
1709215362.777,-31.250,36.621,-92.773,-68.848,0.000
1709215362.781,-7.324,41.504,-95.215,-56.641,0.000
1709215362.784,-5.859,48.340,-95.215,-48.828,0.000
1709215362.788,-18.555,55.176,-102.051,-68.359,0.000
1709215362.792,-30.762,50.781,-102.539,-72.754,0.000
1709215362.796,-24.902,47.363,-104.980,-56.152,0.000
1709215362.800,12.695,53.223,-111.816,-36.621,0.000
1709215362.804,13.672,59.082,-102.539,-41.016,0.000
1709215362.808,-11.230,56.641,-100.098,-44.922,0.000
1709215362.812,-29.785,53.223,-110.840,-51.270,0.000
1709215362.815,-26.855,55.176,-108.398,-49.316,0.000
1709215362.819,-7.812,49.316,-102.051,-37.598,0.000
1709215362.823,3.906,55.176,-98.145,-43.945,0.000
1709215362.827,5.859,60.059,-92.773,-38.574,0.000
1709215362.831,-12.695,36.621,-88.867,-30.273,0.000
1709215362.835,-8.301,26.367,-80.078,-29.785,0.000
1709215362.839,8.789,27.832,-84.473,-21.973,0.000
1709215362.842,13.184,19.043,-95.703,-31.250,0.000
1709215362.846,10.254,17.090,-83.008,-47.852,0.000
1709215362.850,-18.555,13.184,-84.961,-59.082,0.000
1709215362.854,-32.227,8.301,-85.449,-52.246,0.000
1709215362.858,-15.137,5.371,-62.012,-26.855,0.000
1709215362.862,10.742,10.254,-58.594,-15.625,0.000
1709215362.866,-4.395,13.184,-71.777,-23.438,0.000
1709215362.870,-37.109,1.465,-65.430,-42.969,0.000
1709215362.874,-46.875,-4.395,-55.176,-45.898,0.000
1709215362.877,-35.645,-5.859,-58.105,-38.574,0.000
1709215362.881,-26.367,-15.137,-66.406,-36.133,0.000
1709215362.885,-32.227,-26.367,-64.453,-32.227,0.000
1709215362.889,-35.645,-28.320,-66.895,-45.898,0.000
1709215362.893,-46.387,-11.230,-71.289,-58.594,0.000
1709215362.897,-56.641,-14.648,-59.570,-40.527,0.000
1709215362.901,-39.551,-21.484,-58.105,-19.531,0.000
1709215362.905,-25.391,3.418,-55.664,-33.203,0.000
1709215362.908,-41.992,-3.906,-56.152,-61.035,0.000
1709215362.912,-48.340,-20.996,-70.801,-56.152,0.000
1709215362.916,-32.227,-18.066,-67.383,-37.598,0.000
1709215362.920,-23.438,-22.461,-59.570,-27.344,0.000
1709215362.925,-30.762,-23.926,-68.359,-24.414,0.000
1709215362.929,-50.293,-23.438,-66.895,-40.039,0.000
1709215362.932,-49.805,-35.156,-50.781,-54.199,0.000
1709215362.936,-36.621,-32.227,-43.457,-51.758,0.000
1709215362.940,-35.645,-14.648,-50.781,-38.574,0.000
1709215362.944,-24.902,-12.695,-55.176,-39.551,0.000
1709215362.948,-23.926,-19.043,-59.082,-56.641,0.000
1709215362.952,-37.598,-23.926,-56.152,-60.059,0.000
1709215362.956,-37.598,-36.133,-55.176,-51.758,0.000
1709215362.960,-35.156,-33.203,-55.176,-33.691,0.000
1709215362.964,-27.344,-21.973,-55.664,-36.133,0.000
1709215362.968,-35.156,-20.508,-64.941,-49.316,0.000
1709215362.972,-49.805,-17.090,-64.453,-53.711,0.000
1709215362.976,-52.246,-15.625,-49.316,-63.965,0.000
1709215362.980,-37.598,-33.203,-42.969,-57.129,0.000
1709215362.984,-32.715,-35.156,-47.852,-39.551,0.000
1709215362.987,-48.340,-28.320,-60.547,-56.641,0.000
1709215362.991,-57.617,-30.273,-70.312,-82.520,0.000
1709215362.995,-51.758,-28.320,-55.664,-65.430,0.000
1709215362.999,-29.785,-29.785,-38.574,-51.270,0.000
1709215363.003,-12.695,-30.762,-53.223,-45.898,0.000
1709215363.007,-36.133,-31.738,-59.082,-41.016,0.000
1709215363.011,-64.941,-28.809,-48.340,-73.242,0.000
1709215363.015,-55.664,-28.809,-40.039,-73.730,0.000
1709215363.019,-38.574,-28.320,-32.715,-39.062,0.000
1709215363.023,-28.320,-33.691,-39.062,-30.273,0.000
1709215363.027,-35.645,-38.086,-42.969,-34.668,0.000
1709215363.031,-38.574,-45.410,-48.828,-64.453,0.000
1709215363.034,-43.945,-50.293,-45.898,-78.125,0.000
1709215363.038,-40.527,-44.434,-33.691,-47.852,0.000
1709215363.042,-27.832,-36.133,-32.715,-22.461,0.000
1709215363.046,-22.461,-34.180,-38.574,-32.227,0.000
1709215363.050,-39.062,-48.828,-51.758,-58.594,0.000
1709215363.054,-61.035,-43.457,-58.105,-66.895,0.000
1709215363.058,-61.035,-40.039,-41.504,-64.453,0.000
1709215363.062,-47.363,-50.781,-37.598,-48.340,0.000
1709215363.066,-41.016,-46.387,-42.480,-37.598,0.000
1709215363.070,-44.922,-39.551,-31.250,-45.898,0.000
1709215363.074,-50.293,-33.203,-37.598,-52.734,0.000
1709215363.077,-40.039,-38.086,-41.992,-37.109,0.000
1709215363.081,-21.973,-34.668,-27.344,-26.855,0.000
1709215363.085,-6.348,-35.645,-27.832,-13.672,0.000
1709215363.089,-4.395,-48.340,-40.039,-7.812,0.000
1709215363.093,-12.695,-32.715,-29.785,-39.551,0.000
1709215363.097,-1.465,-19.043,-12.695,-37.109,0.000
1709215363.101,-13.672,-30.762,-22.949,-21.973,0.000
1709215363.105,-26.855,-34.180,-31.250,-28.809,0.000
1709215363.109,-29.785,-35.156,-20.996,-38.086,0.000
1709215363.113,-41.992,-44.434,-31.738,-40.039,0.000
1709215363.116,-46.387,-47.852,-44.922,-31.250,0.000
1709215363.120,-29.785,-44.922,-29.297,-17.578,0.000
1709215363.124,-31.738,-45.898,-27.344,-25.391,0.000
1709215363.128,-48.340,-46.875,-32.227,-39.062,0.000
1709215363.132,-46.387,-38.574,-25.391,-44.922,0.000
1709215363.136,-50.293,-34.180,-34.668,-45.410,0.000
1709215363.140,-38.086,-36.133,-42.480,-25.391,0.000
1709215363.144,-27.832,-31.250,-38.086,-21.484,0.000
1709215363.148,-36.133,-32.227,-36.621,-39.551,0.000
1709215363.152,-51.270,-41.504,-41.992,-50.781,0.000
1709215363.156,-54.199,-37.109,-38.574,-47.852,0.000
1709215363.159,-37.109,-35.645,-32.715,-30.762,0.000
1709215363.163,-34.180,-34.180,-26.855,-26.855,0.000
1709215363.167,-35.645,-26.367,-26.855,-31.738,0.000
1709215363.171,-44.434,-37.598,-39.062,-36.133,0.000
1709215363.175,-45.898,-59.082,-28.809,-45.898,0.000
1709215363.179,-41.992,-52.246,-26.367,-42.480,0.000
1709215363.183,-30.273,-31.738,-37.109,-14.160,0.000
1709215363.187,-22.949,-35.645,-38.574,-21.973,0.000
1709215363.190,-42.969,-40.527,-40.527,-58.594,0.000
1709215363.194,-58.594,-34.180,-42.480,-61.035,0.000
1709215363.198,-47.852,-22.461,-40.527,-43.945,0.000
1709215363.202,-43.457,-15.137,-42.969,-42.480,0.000
1709215363.206,-46.387,-28.809,-48.828,-49.316,0.000
1709215363.210,-52.246,-31.738,-57.129,-63.477,0.000
1709215363.214,-57.617,-21.484,-63.965,-81.055,0.000
1709215363.217,-49.316,-20.508,-57.129,-78.613,0.000
1709215363.221,-40.527,-24.902,-55.176,-66.406,0.000
1709215363.225,-40.039,-32.227,-57.617,-68.359,0.000
1709215363.229,-47.363,-40.039,-50.781,-65.430,0.000
1709215363.233,-58.105,-44.434,-45.410,-55.176,0.000
1709215363.237,-44.922,-45.410,-51.758,-58.105,0.000
1709215363.241,-32.227,-39.551,-45.898,-59.082,0.000
1709215363.245,-31.250,-41.016,-35.645,-42.969,0.000
1709215363.249,-52.734,-32.227,-35.156,-57.129,0.000
1709215363.252,-57.617,-29.297,-51.758,-80.566,0.000
1709215363.256,-41.992,-26.855,-61.035,-65.430,0.000
1709215363.260,-39.551,-38.574,-40.039,-41.992,0.000
1709215363.264,-23.926,-45.410,-25.879,-27.832,0.000
1709215363.268,-34.180,-38.574,-31.250,-44.922,0.000
1709215363.272,-44.922,-45.410,-32.715,-50.293,0.000
1709215363.276,-47.852,-35.645,-32.715,-32.227,0.000
1709215363.280,-44.434,-34.180,-40.527,-29.297,0.000
1709215363.283,-29.785,-43.457,-39.062,-23.926,0.000
1709215363.287,-32.715,-50.781,-24.902,-27.832,0.000
1709215363.291,-54.688,-38.574,-31.250,-41.016,0.000
1709215363.295,-50.781,-19.043,-51.758,-38.086,0.000
1709215363.300,-20.508,-33.691,-47.363,-24.414,0.000
1709215363.303,-16.113,-38.086,-33.203,-20.996,0.000
1709215363.307,-30.762,-36.133,-28.809,-26.367,0.000
1709215363.311,-49.316,-45.410,-27.344,-29.297,0.000
1709215363.315,-52.734,-43.457,-36.133,-36.621,0.000
1709215363.319,-45.898,-34.668,-42.480,-29.785,0.000
1709215363.323,-46.387,-26.855,-35.156,-21.484,0.000
1709215363.327,-54.199,-24.414,-29.297,-31.250,0.000
1709215363.331,-65.918,-39.551,-34.668,-51.270,0.000
1709215363.335,-43.945,-53.223,-34.180,-39.062,0.000
1709215363.339,-28.809,-50.293,-32.227,-19.531,0.000
1709215363.342,-47.852,-41.992,-46.387,-41.016,0.000
1709215363.347,-50.781,-41.016,-45.898,-58.105,0.000
1709215363.351,-61.035,-41.016,-39.551,-65.918,0.000
1709215363.354,-69.824,-25.879,-53.223,-54.688,0.000
1709215363.358,-51.758,-36.133,-51.758,-39.062,0.000
1709215363.362,-31.738,-52.734,-34.180,-24.414,0.000
1709215363.366,-19.043,-41.992,-42.969,-28.809,0.000
1709215363.370,-33.203,-30.762,-55.664,-67.383,0.000
1709215363.374,-51.758,-40.527,-46.875,-67.383,0.000
1709215363.378,-30.273,-51.758,-41.992,-34.668,0.000
1709215363.382,-22.461,-39.062,-48.340,-30.273,0.000
1709215363.386,-27.832,-23.438,-43.945,-42.969,0.000
1709215363.390,-43.945,-35.156,-42.480,-53.711,0.000
1709215363.394,-54.199,-37.598,-43.457,-52.246,0.000
1709215363.398,-25.879,-28.320,-40.527,-37.109,0.000
1709215363.402,-9.766,-35.156,-39.551,-22.461,0.000
1709215363.405,-33.691,-42.969,-60.059,-29.297,0.000
1709215363.409,-47.363,-47.363,-54.688,-41.016,0.000
1709215363.413,-33.203,-46.387,-27.344,-47.852,0.000
1709215363.417,-26.367,-34.180,-31.738,-46.875,0.000
1709215363.421,-48.340,-28.809,-44.922,-44.922,0.000
1709215363.425,-56.641,-40.527,-43.945,-33.691,0.000
1709215363.429,-49.805,-41.016,-39.062,-37.109,0.000
1709215363.433,-52.246,-35.645,-43.457,-68.848,0.000
1709215363.437,-46.387,-49.316,-34.180,-59.082,0.000
1709215363.441,-33.203,-56.152,-40.527,-42.969,0.000
1709215363.445,-37.598,-40.527,-48.340,-34.668,0.000
1709215363.448,-47.363,-39.062,-41.504,-47.852,0.000
1709215363.452,-53.711,-39.062,-48.340,-67.383,0.000
1709215363.456,-59.570,-41.992,-43.457,-54.688,0.000
1709215363.460,-49.316,-56.641,-29.297,-29.785,0.000
1709215363.464,-55.664,-47.852,-34.180,-34.180,0.000
1709215363.468,-66.406,-36.133,-50.293,-64.453,0.000
1709215363.472,-68.359,-31.738,-44.434,-78.125,0.000
1709215363.476,-65.430,-40.039,-30.273,-64.941,0.000
1709215363.480,-42.480,-49.316,-32.715,-43.457,0.000
1709215363.484,-31.250,-41.016,-41.016,-32.715,0.000
1709215363.487,-38.574,-41.504,-44.922,-46.387,0.000
1709215363.491,-48.828,-38.574,-45.410,-52.734,0.000
1709215363.495,-39.062,-28.809,-39.551,-28.320,0.000
1709215363.499,-27.832,-47.363,-36.133,-25.879,0.000
1709215363.503,-28.320,-52.246,-41.504,-32.227,0.000
1709215363.507,-32.227,-39.551,-51.270,-36.133,0.000
1709215363.511,-42.969,-49.805,-52.734,-52.246,0.000
1709215363.515,-45.898,-44.434,-38.574,-29.297,0.000
1709215363.519,-47.363,-32.227,-26.855,-6.836,0.000
1709215363.523,-34.668,-27.832,-22.461,-16.602,0.000
1709215363.526,-20.020,-32.715,-41.992,-27.832,0.000
1709215363.530,-47.363,-50.293,-46.875,-44.922,0.000
1709215363.534,-68.848,-54.199,-37.109,-50.293,0.000
1709215363.538,-46.387,-43.457,-32.715,-31.250,0.000
1709215363.542,-41.992,-47.852,-30.762,-26.855,0.000
1709215363.546,-47.852,-61.035,-34.180,-41.504,0.000
1709215363.550,-54.688,-44.922,-41.992,-51.270,0.000
1709215363.554,-66.895,-34.668,-41.992,-43.945,0.000
1709215363.558,-45.410,-27.344,-36.133,-38.574,0.000
1709215363.561,-32.227,-30.273,-35.156,-32.227,0.000
1709215363.565,-44.434,-41.504,-39.062,-41.992,0.000
1709215363.569,-57.617,-33.203,-45.898,-49.805,0.000
1709215363.573,-57.617,-39.062,-48.340,-45.898,0.000
1709215363.577,-16.602,-40.039,-47.852,-34.668,0.000
1709215363.581,-9.277,-35.645,-53.223,-29.297,0.000
1709215363.585,-32.227,-49.805,-61.523,-44.434,0.000
1709215363.588,-34.668,-48.828,-49.316,-41.016,0.000
1709215363.592,-37.598,-46.387,-39.551,-36.621,0.000
1709215363.596,-40.527,-46.875,-40.039,-39.062,0.000
1709215363.600,-31.250,-47.852,-31.738,-34.668,0.000
1709215363.604,-23.926,-48.340,-30.762,-29.297,0.000
1709215363.608,-40.527,-45.898,-39.062,-46.387,0.000
1709215363.612,-48.828,-45.898,-41.016,-58.594,0.000
1709215363.616,-37.109,-53.223,-39.551,-44.922,0.000
1709215363.620,-31.250,-46.875,-37.598,-32.715,0.000
1709215363.624,-27.344,-26.367,-35.156,-28.809,0.000
1709215363.627,-37.598,-36.621,-44.434,-38.086,0.000
1709215363.631,-70.312,-43.457,-43.945,-51.270,0.000
1709215363.635,-62.012,-41.504,-41.504,-58.105,0.000
1709215363.639,-34.180,-57.129,-41.992,-37.109,0.000
1709215363.643,-28.320,-56.152,-26.367,-25.391,0.000
1709215363.647,-49.316,-42.969,-29.297,-37.598,0.000
1709215363.651,-62.012,-37.109,-34.668,-37.598,0.000
1709215363.654,-48.828,-40.527,-26.367,-32.227,0.000
1709215363.658,-27.832,-45.410,-34.668,-26.367,0.000
1709215363.662,-23.926,-44.434,-54.199,-26.367,0.000
1709215363.666,-32.227,-41.016,-50.293,-35.156,0.000
1709215363.670,-27.832,-42.480,-42.969,-43.457,0.000
1709215363.674,-32.715,-49.316,-49.805,-49.805,0.000
1709215363.678,-37.598,-48.828,-48.828,-39.062,0.000
1709215363.682,-27.344,-45.898,-48.340,-31.738,0.000
1709215363.686,-18.066,-42.969,-40.527,-46.387,0.000
1709215363.690,-36.621,-32.715,-36.133,-50.293,0.000
1709215363.694,-40.527,-35.645,-38.574,-46.387,0.000
1709215363.698,-20.996,-38.086,-38.086,-35.645,0.000
1709215363.702,-23.926,-44.922,-40.527,-19.531,0.000
1709215363.706,-25.879,-58.594,-48.340,-15.137,0.000
1709215363.710,-33.691,-49.316,-34.668,-23.926,0.000
1709215363.714,-38.086,-44.922,-31.738,-29.785,0.000
1709215363.717,-21.484,-57.129,-49.316,-32.715,0.000
1709215363.722,-21.973,-39.062,-44.434,-38.574,0.000
1709215363.726,-35.156,-19.043,-38.574,-39.062,0.000
1709215363.729,-32.227,-27.832,-39.551,-58.105,0.000
1709215363.733,-42.969,-41.992,-35.645,-66.895,0.000
1709215363.737,-46.387,-31.250,-28.320,-42.969,0.000
1709215363.741,-31.738,-25.879,-29.297,-26.855,0.000
1709215363.745,-31.250,-38.574,-41.504,-38.574,0.000
1709215363.749,-35.645,-38.574,-47.852,-58.594,0.000
1709215363.753,-31.738,-28.320,-46.387,-35.645,0.000
1709215363.757,-19.531,-34.180,-43.945,-16.602,0.000
1709215363.761,-17.578,-41.504,-39.062,-25.879,0.000
1709215363.765,-23.926,-30.273,-46.387,-29.297,0.000
1709215363.769,-27.832,-39.062,-62.988,-48.340,0.000
1709215363.773,-28.809,-50.293,-47.852,-54.199,0.000
1709215363.777,-31.250,-47.852,-27.832,-27.344,0.000
1709215363.780,-15.625,-66.895,-29.785,-17.090,0.000
1709215363.784,-23.926,-62.500,-32.227,-33.691,0.000
1709215363.788,-58.105,-41.504,-33.203,-54.199,0.000
1709215363.792,-71.777,-38.574,-38.086,-66.895,0.000
1709215363.796,-61.523,-46.875,-40.039,-52.734,0.000
1709215363.800,-44.922,-51.270,-37.598,-29.785,0.000
1709215363.804,-47.363,-52.246,-29.785,-35.156,0.000
1709215363.808,-56.152,-41.016,-26.367,-57.129,0.000
1709215363.812,-63.965,-44.434,-38.086,-73.730,0.000
1709215363.816,-53.223,-59.082,-32.715,-67.871,0.000
1709215363.820,-33.691,-37.109,-28.320,-51.270,0.000
1709215363.823,-31.250,-20.020,-46.875,-50.293,0.000
1709215363.827,-37.109,-27.832,-40.527,-49.316,0.000
1709215363.831,-51.270,-36.621,-30.762,-57.129,0.000
1709215363.835,-38.086,-27.832,-35.645,-51.758,0.000
1709215363.839,-19.043,-22.461,-39.551,-32.227,0.000
1709215363.843,-30.762,-30.273,-40.527,-36.133,0.000
1709215363.847,-38.574,-33.691,-44.922,-31.250,0.000
1709215363.851,-43.945,-29.785,-43.457,-44.922,0.000
1709215363.855,-41.504,-33.203,-36.621,-57.617,0.000
1709215363.859,-43.945,-41.016,-40.039,-41.504,0.000
1709215363.862,-35.645,-27.832,-35.645,-22.461,0.000
1709215363.866,-37.109,-21.973,-43.457,-41.504,0.000
1709215363.870,-49.805,-34.180,-46.387,-83.496,0.000
1709215363.874,-53.711,-44.434,-40.527,-87.402,0.000
1709215363.878,-52.734,-48.828,-45.410,-71.289,0.000
1709215363.882,-48.340,-44.434,-41.016,-47.363,0.000
1709215363.886,-50.293,-33.203,-29.785,-48.828,0.000
1709215363.890,-40.527,-35.645,-32.227,-46.875,0.000
1709215363.894,-43.457,-32.715,-39.551,-34.668,0.000
1709215363.898,-47.363,-37.109,-29.785,-38.574,0.000
1709215363.901,-35.645,-41.504,-26.367,-33.203,0.000
1709215363.905,-37.109,-30.762,-26.855,-30.273,0.000
1709215363.909,-52.734,-29.785,-33.691,-49.316,0.000
1709215363.913,-44.922,-36.621,-33.691,-48.340,0.000
1709215363.917,-35.156,-41.016,-29.297,-14.648,0.000
1709215363.921,-23.926,-42.480,-36.133,-6.836,0.000
1709215363.925,-28.320,-38.574,-43.457,-32.227,0.000
1709215363.929,-29.297,-43.457,-44.434,-53.223,0.000
1709215363.933,-40.527,-48.340,-53.711,-53.711,0.000
1709215363.936,-57.129,-34.668,-51.270,-40.039,0.000
1709215363.940,-37.598,-18.066,-41.016,-33.691,0.000
1709215363.944,-30.273,-20.508,-36.133,-37.598,0.000
1709215363.948,-42.480,-36.621,-37.598,-47.363,0.000
1709215363.952,-53.223,-57.129,-43.457,-53.711,0.000
1709215363.956,-37.598,-48.340,-35.156,-43.945,0.000
1709215363.960,-19.531,-37.598,-35.156,-36.621,0.000
1709215363.963,-26.855,-51.270,-45.410,-40.527,0.000
1709215363.967,-49.316,-44.922,-40.039,-52.734,0.000
1709215363.971,-64.941,-39.551,-42.480,-62.988,0.000
1709215363.975,-58.105,-42.480,-45.898,-50.293,0.000
1709215363.979,-48.340,-43.945,-43.457,-30.762,0.000
1709215363.983,-61.523,-38.574,-46.387,-37.109,0.000
1709215363.987,-71.289,-43.457,-51.758,-58.594,0.000
1709215363.991,-63.477,-63.965,-46.387,-50.293,0.000
1709215363.995,-59.082,-52.734,-40.527,-37.109,0.000
1709215363.999,-60.059,-25.879,-49.805,-39.551,0.000
1709215364.002,-57.617,-40.039,-45.898,-37.109,0.000
1709215364.006,-54.199,-49.805,-37.109,-31.738,0.000
1709215364.010,-60.059,-44.434,-45.410,-42.480,0.000
1709215364.014,-57.129,-52.734,-49.316,-42.480,0.000
1709215364.018,-41.504,-41.016,-40.039,-29.297,0.000
1709215364.022,-24.902,-37.109,-29.297,-16.602,0.000
1709215364.025,-22.949,-47.363,-35.645,-10.254,0.000
1709215364.029,-50.293,-33.691,-43.945,-25.391,0.000
1709215364.033,-49.805,-35.156,-41.016,-38.574,0.000
1709215364.037,-27.832,-49.805,-33.691,-32.227,0.000
1709215364.041,-20.996,-42.969,-33.691,-22.949,0.000
1709215364.045,-25.879,-47.363,-40.039,-25.391,0.000
1709215364.049,-37.598,-67.871,-49.805,-31.250,0.000
1709215364.053,-30.762,-53.223,-49.316,-55.664,0.000
1709215364.057,-28.809,-25.391,-49.316,-62.988,0.000
1709215364.061,-18.066,-36.621,-57.617,-47.363,0.000
1709215364.065,-23.926,-49.316,-41.992,-49.805,0.000
1709215364.069,-37.598,-38.086,-33.203,-51.758,0.000
1709215364.073,-38.574,-36.133,-41.992,-43.945,0.000
1709215364.077,-36.133,-40.039,-46.387,-41.016,0.000
1709215364.081,-15.625,-42.480,-50.293,-34.668,0.000
1709215364.085,-21.973,-39.062,-51.270,-41.016,0.000
1709215364.088,-50.293,-34.668,-42.969,-58.594,0.000
1709215364.092,-51.758,-53.711,-43.457,-65.918,0.000
1709215364.097,-52.246,-61.035,-43.945,-65.918,0.000
1709215364.101,-45.898,-37.598,-41.016,-53.223,0.000
1709215364.104,-32.715,-34.668,-42.480,-42.480,0.000
1709215364.108,-39.551,-54.199,-31.250,-46.387,0.000
1709215364.112,-48.340,-59.570,-38.574,-50.293,0.000
1709215364.116,-40.527,-41.992,-48.828,-34.668,0.000
1709215364.120,-21.484,-35.645,-41.016,-25.391,0.000
1709215364.124,-18.066,-39.551,-39.062,-30.762,0.000
1709215364.128,-50.293,-26.367,-27.344,-38.574,0.000
1709215364.132,-52.734,-29.785,-19.531,-40.039,0.000
1709215364.136,-26.367,-39.551,-22.949,-30.762,0.000
1709215364.140,-26.855,-28.809,-23.438,-11.719,0.000
1709215364.144,-31.738,-25.391,-27.344,-5.859,0.000
1709215364.148,-26.367,-32.227,-35.645,-29.297,0.000
1709215364.151,-29.297,-41.016,-36.621,-42.969,0.000
1709215364.155,-27.344,-51.758,-37.109,-33.691,0.000
1709215364.159,-18.066,-43.457,-39.062,-28.809,0.000
1709215364.163,-17.090,-30.273,-39.551,-32.227,0.000
1709215364.167,-35.156,-31.738,-43.457,-52.246,0.000
1709215364.171,-42.480,-38.574,-37.598,-58.594,0.000
1709215364.175,-34.180,-47.852,-34.180,-36.133,0.000
1709215364.179,-27.344,-43.945,-42.480,-30.273,0.000
1709215364.183,-21.973,-41.504,-55.176,-45.898,0.000
1709215364.187,-33.203,-34.180,-56.641,-60.059,0.000
1709215364.191,-55.176,-26.855,-45.898,-61.035,0.000
1709215364.195,-64.941,-25.391,-41.992,-59.082,0.000
1709215364.198,-36.621,-30.273,-42.480,-56.641,0.000
1709215364.202,-20.508,-33.203,-40.527,-38.086,0.000
1709215364.206,-38.574,-35.645,-35.645,-41.016,0.000
1709215364.210,-36.621,-46.875,-29.785,-48.828,0.000
1709215364.214,-48.828,-45.898,-41.504,-50.293,0.000
1709215364.218,-59.082,-39.062,-45.898,-47.852,0.000
1709215364.222,-49.805,-43.457,-38.086,-31.738,0.000
1709215364.226,-50.293,-39.551,-42.480,-40.527,0.000
1709215364.230,-56.641,-47.363,-35.645,-58.105,0.000
1709215364.234,-57.617,-40.527,-32.227,-58.105,0.000
1709215364.237,-43.457,-23.438,-42.969,-37.109,0.000
1709215364.241,-31.250,-27.344,-43.945,-15.625,0.000
1709215364.245,-36.133,-31.738,-41.016,-20.508,0.000
1709215364.249,-34.668,-33.203,-48.340,-32.715,0.000
1709215364.253,-26.855,-41.504,-54.199,-46.875,0.000
1709215364.257,-31.738,-49.316,-35.156,-42.480,0.000
1709215364.261,-11.719,-33.203,-31.250,-19.043,0.000
1709215364.265,-15.137,-37.109,-39.551,-23.926,0.000
1709215364.269,-57.129,-47.363,-31.250,-44.922,0.000
1709215364.273,-64.453,-38.086,-34.180,-62.988,0.000
1709215364.276,-50.781,-36.133,-33.203,-50.781,0.000
1709215364.280,-42.969,-41.016,-32.715,-23.926,0.000
1709215364.285,-35.645,-47.852,-30.762,-20.020,0.000
1709215364.289,-45.898,-56.641,-37.598,-37.598,0.000
1709215364.293,-58.594,-44.434,-41.504,-49.316,0.000
1709215364.297,-42.480,-15.137,-33.203,-40.039,0.000
1709215364.301,-31.250,-15.137,-32.715,-34.180,0.000
1709215364.305,-33.691,-33.203,-45.410,-52.734,0.000
1709215364.309,-38.574,-44.922,-47.363,-68.359,0.000
1709215364.312,-45.410,-52.734,-40.527,-66.406,0.000
1709215364.316,-23.926,-46.387,-50.293,-58.594,0.000
1709215364.320,-20.508,-48.340,-46.875,-41.992,0.000
1709215364.324,-45.410,-54.688,-38.086,-32.227,0.000
1709215364.328,-47.363,-42.480,-40.039,-41.992,0.000
1709215364.332,-49.316,-44.434,-44.434,-58.594,0.000
1709215364.335,-50.293,-57.129,-47.852,-64.453,0.000
1709215364.339,-31.250,-54.688,-33.691,-47.363,0.000
1709215364.343,-25.879,-47.852,-24.902,-39.551,0.000
1709215364.347,-38.086,-36.621,-34.668,-44.434,0.000
1709215364.351,-50.293,-40.527,-50.293,-55.176,0.000
1709215364.355,-57.129,-50.293,-44.922,-55.664,0.000
1709215364.359,-45.898,-39.062,-32.715,-34.180,0.000
1709215364.363,-34.668,-39.551,-37.109,-23.438,0.000
1709215364.367,-40.039,-46.387,-43.457,-32.227,0.000
1709215364.371,-39.062,-43.457,-40.039,-27.344,0.000
1709215364.375,-28.809,-36.621,-31.738,-23.926,0.000
1709215364.378,-40.039,-33.203,-41.504,-29.785,0.000
1709215364.382,-33.691,-38.086,-40.039,-11.719,0.000
1709215364.386,-38.574,-39.062,-37.109,-17.090,0.000
1709215364.390,-41.504,-50.781,-36.133,-39.551,0.000
1709215364.394,-33.203,-53.223,-30.273,-54.688,0.000
1709215364.397,-40.039,-40.527,-41.504,-52.246,0.000
1709215364.401,-28.809,-38.086,-39.062,-25.391,0.000
1709215364.405,-25.391,-34.180,-29.297,-22.461,0.000
1709215364.409,-45.410,-41.504,-39.062,-42.480,0.000
1709215364.413,-52.734,-45.410,-43.457,-48.340,0.000
1709215364.417,-42.969,-41.504,-35.156,-42.969,0.000
1709215364.421,-29.297,-41.504,-36.133,-25.879,0.000
1709215364.425,-36.621,-36.621,-36.133,-27.832,0.000
1709215364.429,-51.270,-30.762,-33.691,-49.316,0.000
1709215364.433,-52.246,-34.180,-42.969,-59.570,0.000
1709215364.437,-57.129,-41.992,-49.316,-46.387,0.000
1709215364.441,-55.176,-50.781,-37.598,-32.227,0.000
1709215364.445,-44.434,-52.246,-35.645,-47.852,0.000
1709215364.449,-50.293,-48.828,-50.781,-65.430,0.000
1709215364.453,-57.129,-54.199,-38.574,-59.082,0.000
1709215364.456,-52.734,-56.641,-32.227,-43.945,0.000
1709215364.460,-46.875,-56.152,-40.039,-27.832,0.000
1709215364.464,-34.668,-41.992,-34.180,-26.367,0.000
1709215364.468,-34.668,-36.621,-29.297,-32.227,0.000
1709215364.472,-38.574,-50.781,-30.762,-40.039,0.000
1709215364.476,-27.344,-45.898,-34.668,-48.828,0.000
1709215364.480,-38.086,-45.410,-41.016,-37.598,0.000
1709215364.484,-40.039,-53.223,-41.992,-28.809,0.000
1709215364.488,-32.715,-56.641,-44.434,-42.480,0.000
1709215364.492,-37.109,-43.457,-54.688,-48.828,0.000
1709215364.496,-31.738,-30.762,-48.340,-37.109,0.000
1709215364.500,-24.414,-43.457,-40.527,-24.414,0.000
1709215364.504,-16.602,-64.453,-45.410,-12.207,0.000
1709215364.508,-25.879,-55.664,-44.434,-34.668,0.000
1709215364.512,-49.316,-35.156,-34.180,-70.801,0.000
1709215364.515,-33.691,-37.109,-32.715,-60.547,0.000
1709215364.519,-19.531,-32.227,-44.922,-42.969,0.000
1709215364.523,-25.391,-48.828,-46.387,-38.086,0.000
1709215364.527,-28.320,-59.570,-30.273,-32.227,0.000
1709215364.531,-52.246,-42.969,-40.527,-41.992,0.000
1709215364.535,-58.105,-34.180,-46.875,-52.246,0.000
1709215364.539,-41.016,-35.156,-36.133,-51.270,0.000
1709215364.543,-21.973,-41.504,-40.527,-41.504,0.000
1709215364.547,-23.438,-40.039,-45.898,-50.293,0.000
1709215364.551,-42.480,-44.922,-39.062,-55.664,0.000
1709215364.555,-43.457,-41.504,-30.273,-39.062,0.000
1709215364.558,-30.273,-37.598,-29.297,-28.809,0.000
1709215364.562,-23.438,-59.082,-41.504,-28.320,0.000
1709215364.566,-15.137,-54.199,-47.852,-40.039,0.000
1709215364.570,-23.926,-50.781,-44.922,-57.617,0.000
1709215364.574,-39.551,-55.664,-48.828,-51.758,0.000
1709215364.578,-39.062,-46.387,-50.781,-30.273,0.000
1709215364.582,-22.461,-41.992,-44.434,-26.367,0.000
1709215364.586,-5.859,-33.203,-44.922,-39.551,0.000
1709215364.590,-19.043,-33.691,-48.340,-53.711,0.000
1709215364.594,-39.062,-33.203,-48.340,-42.480,0.000
1709215364.598,-38.086,-39.551,-44.922,-39.551,0.000
1709215364.602,-30.762,-43.945,-38.086,-41.504,0.000
1709215364.605,-17.090,-37.109,-33.203,-24.902,0.000
1709215364.609,-38.574,-37.109,-37.109,-32.715,0.000
1709215364.613,-54.199,-47.363,-30.762,-39.551,0.000
1709215364.617,-45.410,-50.293,-32.715,-33.203,0.000
1709215364.621,-34.180,-46.875,-39.062,-29.297,0.000
1709215364.625,-26.367,-45.410,-46.387,-27.344,0.000
1709215364.629,-36.133,-40.039,-46.387,-44.434,0.000
1709215364.633,-28.809,-44.922,-32.227,-59.570,0.000
1709215364.637,-23.438,-48.828,-40.527,-54.199,0.000
1709215364.640,-26.855,-39.551,-46.387,-33.691,0.000
1709215364.644,-28.809,-39.551,-39.551,-30.273,0.000
1709215364.648,-49.805,-30.273,-43.945,-54.199,0.000
1709215364.652,-66.895,-22.949,-55.176,-70.312,0.000
1709215364.656,-54.199,-29.297,-45.898,-54.688,0.000
1709215364.660,-47.852,-41.504,-32.227,-52.734,0.000
1709215364.664,-50.781,-47.363,-33.203,-61.523,0.000
1709215364.668,-49.316,-39.551,-37.109,-63.965,0.000
1709215364.671,-47.363,-34.180,-42.969,-62.500,0.000
1709215364.675,-38.574,-50.781,-43.945,-47.852,0.000
1709215364.679,-40.527,-49.316,-45.410,-29.785,0.000
1709215364.683,-26.367,-48.828,-42.969,-22.461,0.000
1709215364.687,-20.508,-48.340,-41.992,-38.086,0.000
1709215364.691,-50.781,-24.414,-45.898,-65.918,0.000
1709215364.695,-62.012,-20.508,-39.062,-70.312,0.000
1709215364.699,-51.758,-33.203,-37.598,-43.945,0.000
1709215364.703,-34.180,-40.039,-33.691,-22.461,0.000
1709215364.706,-32.715,-39.551,-29.785,-43.457,0.000
1709215364.710,-48.828,-49.805,-41.016,-63.965,0.000
1709215364.714,-35.645,-58.594,-37.598,-43.457,0.000
1709215364.718,-30.273,-54.199,-38.574,-14.648,0.000
1709215364.722,-41.016,-51.270,-57.617,-15.137,0.000
1709215364.726,-40.527,-49.316,-40.039,-24.902,0.000
1709215364.730,-53.711,-40.039,-18.555,-35.156,0.000
1709215364.734,-62.012,-36.133,-19.043,-48.828,0.000
1709215364.738,-48.340,-27.832,-17.578,-47.852,0.000
1709215364.741,-30.762,-30.273,-23.926,-41.504,0.000
1709215364.745,-32.715,-37.598,-26.367,-46.387,0.000
1709215364.749,-47.852,-35.156,-31.738,-57.129,0.000
1709215364.753,-53.223,-46.387,-42.969,-59.570,0.000
1709215364.757,-43.945,-36.133,-33.691,-55.176,0.000
1709215364.760,-30.762,-36.133,-23.926,-47.363,0.000
1709215364.764,-40.039,-57.129,-28.320,-46.387,0.000
1709215364.768,-59.082,-43.945,-27.344,-58.105,0.000
1709215364.772,-59.082,-40.039,-34.180,-69.824,0.000
1709215364.776,-47.852,-47.852,-43.457,-56.152,0.000
1709215364.780,-23.438,-40.039,-41.016,-41.992,0.000
1709215364.784,-29.297,-36.133,-43.945,-51.758,0.000
1709215364.788,-61.523,-41.016,-47.363,-61.523,0.000
1709215364.792,-48.828,-40.039,-50.781,-56.641,0.000
1709215364.796,-36.133,-32.715,-56.152,-41.992,0.000
1709215364.800,-33.691,-38.086,-52.246,-14.160,0.000
1709215364.804,-25.879,-41.504,-48.828,-0.977,0.000
1709215364.808,-34.668,-30.273,-40.527,-20.020,0.000
1709215364.812,-48.340,-39.062,-34.180,-45.410,0.000
1709215364.816,-35.645,-37.109,-37.109,-50.781,0.000
1709215364.820,-18.066,-25.879,-36.621,-26.367,0.000
1709215364.823,-16.602,-31.250,-33.691,-11.230,0.000
1709215364.827,-28.320,-41.992,-35.645,-29.785,0.000
1709215364.831,-39.062,-46.875,-36.133,-51.270,0.000
1709215364.835,-36.133,-45.410,-27.832,-39.062,0.000
1709215364.839,-10.254,-51.758,-28.809,-14.160,0.000
1709215364.843,-1.465,-38.574,-34.180,-14.648,0.000
1709215364.847,-35.156,-24.414,-35.645,-38.086,0.000
1709215364.851,-53.711,-24.414,-34.180,-53.223,0.000
1709215364.855,-55.664,-24.902,-38.574,-56.641,0.000
1709215364.859,-40.039,-22.949,-38.574,-39.062,0.000
1709215364.863,-34.180,-35.156,-35.156,-26.367,0.000
1709215364.867,-57.617,-53.711,-42.969,-48.828,0.000
1709215364.871,-68.359,-45.898,-49.316,-58.594,0.000
1709215364.875,-61.035,-35.645,-44.922,-57.129,0.000
1709215364.878,-27.344,-52.734,-36.621,-41.016,0.000
1709215364.882,-8.789,-61.523,-36.133,-34.180,0.000
1709215364.886,-38.086,-47.852,-47.363,-53.711,0.000
1709215364.890,-58.594,-49.805,-42.480,-47.363,0.000
1709215364.894,-63.477,-42.969,-25.879,-34.668,0.000
1709215364.898,-44.922,-40.527,-30.273,-40.527,0.000
1709215364.902,-26.855,-54.199,-38.086,-37.109,0.000
1709215364.906,-35.645,-47.852,-38.574,-43.457,0.000
1709215364.910,-50.293,-37.109,-31.738,-59.570,0.000
1709215364.914,-54.688,-41.992,-28.809,-61.035,0.000
1709215364.918,-43.945,-39.062,-31.738,-40.527,0.000
1709215364.922,-42.969,-39.551,-28.320,-15.625,0.000
1709215364.925,-38.574,-47.363,-30.273,-13.672,0.000
1709215364.929,-31.250,-44.434,-35.156,-25.879,0.000
1709215364.933,-40.039,-41.992,-29.785,-39.551,0.000
1709215364.937,-39.551,-44.434,-29.785,-29.297,0.000
1709215364.941,0.000,-58.594,-44.434,-18.555,0.000
1709215364.945,0.000,-53.223,-42.480,-21.484,0.000
1709215364.949,0.000,-35.645,-39.062,-38.086,0.000
1709215364.953,0.000,-41.992,-47.363,-53.223,0.000
1709215364.957,0.000,-48.340,-42.480,-41.992,0.000
1709215364.961,0.000,-38.086,-39.551,-23.438,0.000
1709215364.965,0.000,-30.762,-37.109,-35.645,0.000
1709215364.968,0.000,-42.480,-33.691,-39.062,0.000
1709215364.972,0.000,-39.551,-35.156,-35.645,0.000
1709215364.976,0.000,-36.621,-39.551,-38.086,0.000
1709215364.980,0.000,-45.410,-51.758,-33.691,0.000
1709215364.984,0.000,-36.621,-49.805,-40.039,0.000
1709215364.988,-43.457,-28.809,-37.109,-41.504,0.000
1709215364.992,-49.316,-30.762,-31.250,-42.969,0.000
1709215364.996,-39.062,-37.598,-35.645,-49.316,0.000
1709215365.000,-16.113,-50.293,-34.180,-31.738,0.000
1709215365.004,-18.555,-35.645,-33.203,-20.508,0.000
1709215365.007,-32.227,-24.414,-42.480,-46.875,0.000
1709215365.011,-40.527,-42.480,-35.645,-63.965,0.000
1709215365.015,-26.367,-37.109,-26.367,-37.109,0.000
1709215365.019,-25.391,-25.391,-43.945,-26.367,0.000
1709215365.023,-40.039,-36.133,-48.340,-31.738,0.000
1709215365.027,-38.086,-44.922,-44.922,-33.203,0.000
1709215365.031,-43.945,-39.062,-41.992,-54.688,0.000
1709215365.035,-36.133,-30.273,-39.551,-54.688,0.000
1709215365.038,-24.902,-29.785,-35.645,-49.316,0.000
1709215365.042,-28.320,-27.832,-27.832,-50.293,0.000
1709215365.046,-34.668,-30.762,-32.715,-55.664,0.000
1709215365.050,-35.156,-49.805,-34.668,-54.199,0.000
1709215365.054,-29.785,-50.781,-49.316,-57.617,0.000
1709215365.058,-26.855,-38.086,-52.734,-49.316,0.000
1709215365.062,-25.879,-41.504,-45.898,-38.574,0.000
1709215365.066,-24.902,-43.945,-46.387,-46.387,0.000
1709215365.070,-45.410,-37.109,-45.410,-50.781,0.000
1709215365.074,-56.152,-39.551,-47.852,-43.457,0.000
1709215365.078,-35.156,-49.805,-47.363,-21.484,0.000
1709215365.081,-27.832,-50.781,-40.039,-17.578,0.000
1709215365.085,-26.855,-45.898,-28.320,-23.438,0.000
1709215365.089,-46.875,-49.805,-32.227,-34.180,0.000
1709215365.093,-54.688,-56.641,-38.086,-39.551,0.000
1709215365.097,-30.273,-49.316,-30.762,-30.273,0.000
1709215365.101,-21.484,-38.086,-34.180,-27.344,0.000
1709215365.105,-22.461,-35.645,-36.133,-26.855,0.000
1709215365.108,-31.738,-35.645,-32.227,-41.504,0.000
1709215365.112,-17.578,-48.340,-34.668,-49.316,0.000
1709215365.116,-19.043,-48.828,-42.480,-43.945,0.000
1709215365.120,-27.832,-34.180,-43.457,-23.926,0.000
1709215365.124,-18.066,-51.270,-39.062,-10.742,0.000
1709215365.127,-32.227,-52.734,-40.527,-32.227,0.000
1709215365.131,-52.734,-33.203,-42.969,-45.898,0.000
1709215365.135,-58.105,-33.203,-34.668,-43.457,0.000
1709215365.139,-40.527,-35.156,-41.992,-42.480,0.000
1709215365.143,-34.668,-46.875,-44.922,-47.363,0.000
1709215365.147,-41.504,-46.387,-36.133,-49.316,0.000
1709215365.151,-46.387,-33.203,-39.062,-41.504,0.000
1709215365.155,-52.246,-33.203,-43.457,-38.574,0.000
1709215365.159,-41.016,-32.227,-39.062,-23.926,0.000
1709215365.163,-28.809,-47.852,-35.645,-21.973,0.000
1709215365.167,-30.762,-53.223,-43.457,-36.621,0.000
1709215365.170,-29.785,-43.457,-43.457,-36.621,0.000
1709215365.175,-24.902,-52.734,-30.273,-26.367,0.000
1709215365.179,-41.992,-54.199,-41.992,-23.438,0.000
1709215365.183,-41.016,-42.480,-39.062,-21.973,0.000
1709215365.187,-40.527,-45.410,-25.391,-29.297,0.000
1709215365.190,-46.875,-43.945,-33.203,-37.109,0.000
1709215365.194,-37.109,-39.551,-37.109,-29.297,0.000
1709215365.198,-25.391,-44.922,-47.363,-29.785,0.000
1709215365.202,-18.066,-30.273,-49.316,-39.062,0.000
1709215365.206,-23.926,-22.461,-32.715,-55.176,0.000
1709215365.210,-36.133,-29.297,-31.250,-62.988,0.000
1709215365.214,-38.574,-29.785,-39.062,-51.270,0.000
1709215365.218,-34.668,-35.645,-41.992,-34.180,0.000
1709215365.222,-21.973,-46.875,-37.598,-29.785,0.000
1709215365.226,-26.855,-53.711,-40.527,-34.180,0.000
1709215365.230,-41.992,-50.781,-58.105,-36.621,0.000
1709215365.234,-43.945,-40.527,-51.758,-36.621,0.000
1709215365.238,-35.156,-38.086,-33.203,-25.879,0.000
1709215365.242,-21.973,-41.016,-39.551,-22.949,0.000
1709215365.245,-16.113,-41.504,-45.898,-49.805,0.000
1709215365.249,-24.414,-36.621,-35.156,-61.523,0.000
1709215365.253,-38.574,-41.504,-29.785,-40.039,0.000
1709215365.257,-21.973,-56.152,-34.668,-20.508,0.000
1709215365.261,-6.836,-31.738,-35.645,-21.484,0.000
1709215365.265,-17.578,-23.438,-30.273,-35.645,0.000
1709215365.269,-25.391,-42.969,-32.715,-57.617,0.000
1709215365.273,-36.621,-44.434,-39.551,-66.406,0.000
1709215365.277,-39.062,-41.504,-41.504,-41.504,0.000
1709215365.281,-31.250,-47.852,-44.922,-19.043,0.000
1709215365.285,-29.785,-41.016,-46.387,-33.691,0.000
1709215365.289,-40.527,-25.879,-42.480,-46.387,0.000
1709215365.293,-52.734,-28.809,-44.434,-40.039,0.000
1709215365.296,-30.762,-31.250,-43.945,-30.273,0.000
1709215365.300,-6.836,-47.363,-26.855,-26.855,0.000
1709215365.304,-20.020,-46.875,-21.973,-35.645,0.000
1709215365.308,-51.758,-29.297,-43.457,-63.477,0.000
1709215365.312,-65.430,-38.086,-49.316,-51.758,0.000
1709215365.316,-53.711,-39.551,-34.668,-25.879,0.000
1709215365.320,-48.828,-34.668,-34.668,-41.992,0.000
1709215365.324,-47.363,-43.945,-40.527,-61.523,0.000
1709215365.328,-49.805,-43.457,-37.598,-65.430,0.000
1709215365.332,-60.547,-37.598,-38.086,-57.617,0.000
1709215365.336,-54.199,-53.223,-44.434,-40.039,0.000
1709215365.339,-46.387,-57.129,-37.598,-28.320,0.000
1709215365.343,-39.551,-38.574,-33.203,-29.785,0.000
1709215365.347,-35.156,-27.344,-46.875,-43.457,0.000
1709215365.351,-50.293,-36.133,-44.434,-64.453,0.000
1709215365.355,-55.664,-35.645,-37.598,-38.086,0.000
1709215365.359,-42.969,-31.738,-41.016,-14.648,0.000
1709215365.363,-32.715,-38.574,-32.715,-27.832,0.000
1709215365.367,-32.715,-37.109,-35.156,-34.180,0.000
1709215365.371,-46.387,-42.969,-40.527,-37.109,0.000
1709215365.374,-49.316,-49.316,-42.480,-25.879,0.000
1709215365.378,-47.363,-42.969,-41.992,-30.273,0.000
1709215365.382,-41.016,-49.805,-32.715,-38.086,0.000
1709215365.386,-35.156,-49.805,-40.527,-47.363,0.000
1709215365.390,-49.805,-38.086,-53.223,-48.340,0.000
1709215365.394,-62.988,-35.156,-43.945,-38.574,0.000
1709215365.398,-45.410,-34.668,-26.855,-28.320,0.000
1709215365.402,-28.809,-43.945,-27.832,-20.996,0.000
1709215365.406,-48.828,-58.105,-35.156,-47.363,0.000
1709215365.409,-61.523,-50.293,-34.668,-60.547,0.000
1709215365.413,-64.941,-44.434,-38.086,-49.316,0.000
1709215365.417,-59.570,-45.898,-41.992,-37.598,0.000
1709215365.421,-36.133,-38.086,-54.199,-31.738,0.000
1709215365.425,-38.086,-46.387,-46.875,-47.852,0.000
1709215365.429,-56.641,-58.594,-27.832,-72.754,0.000
1709215365.433,-72.266,-47.852,-27.832,-77.148,0.000
1709215365.437,-63.477,-40.527,-29.785,-45.410,0.000
1709215365.441,-46.875,-39.551,-31.738,-26.855,0.000
1709215365.445,-44.434,-35.645,-33.691,-39.551,0.000
1709215365.448,-52.246,-39.551,-32.227,-63.477,0.000
1709215365.452,-55.664,-48.828,-37.109,-68.848,0.000
1709215365.456,-34.668,-39.062,-38.086,-45.410,0.000
1709215365.460,-22.461,-31.738,-42.969,-36.133,0.000
1709215365.464,-41.504,-41.992,-48.340,-43.457,0.000
1709215365.468,-60.059,-43.945,-42.969,-47.852,0.000
1709215365.472,-61.035,-34.180,-41.016,-43.945,0.000
1709215365.475,-44.434,-36.621,-43.457,-38.086,0.000
1709215365.479,-24.902,-54.199,-41.504,-28.809,0.000
1709215365.483,-16.602,-44.434,-34.180,-25.879,0.000
1709215365.487,-25.391,-29.297,-28.320,-34.668,0.000
1709215365.491,-40.039,-28.809,-24.902,-35.156,0.000
1709215365.495,-28.320,-39.062,-33.691,-20.508,0.000
1709215365.499,-10.254,-49.805,-45.410,-14.648,0.000
1709215365.503,-21.973,-44.434,-44.434,-30.273,0.000
1709215365.507,-27.832,-31.250,-43.457,-51.270,0.000
1709215365.511,-34.668,-32.715,-45.410,-63.965,0.000
1709215365.515,-52.246,-42.480,-43.945,-52.246,0.000
1709215365.519,-41.992,-41.504,-38.574,-28.320,0.000
1709215365.523,-27.344,-47.363,-39.551,-25.391,0.000
1709215365.527,-40.039,-52.734,-41.016,-41.016,0.000
1709215365.531,-49.805,-50.293,-36.133,-52.246,0.000
1709215365.535,-29.297,-42.480,-33.691,-42.969,0.000
1709215365.539,-19.043,-48.828,-35.645,-23.926,0.000
1709215365.542,-36.621,-47.363,-43.945,-30.762,0.000
1709215365.546,-46.875,-52.246,-43.457,-56.152,0.000
1709215365.551,-53.223,-57.617,-29.785,-72.754,0.000
1709215365.555,-59.570,-49.316,-33.691,-56.152,0.000
1709215365.558,-52.246,-62.500,-34.180,-31.738,0.000
1709215365.562,-39.551,-55.176,-31.738,-23.926,0.000
1709215365.566,-46.387,-36.133,-36.621,-43.945,0.000
1709215365.570,-59.082,-26.367,-30.273,-51.270,0.000
1709215365.574,-47.363,-19.043,-37.109,-42.969,0.000
1709215365.578,-38.086,-40.527,-50.293,-44.922,0.000
1709215365.582,-30.273,-57.617,-49.805,-42.480,0.000
1709215365.586,-33.691,-60.059,-46.875,-54.688,0.000
1709215365.590,-50.781,-48.828,-35.156,-77.148,0.000
1709215365.594,-48.828,-29.785,-24.902,-73.242,0.000
1709215365.598,-24.414,-27.832,-34.180,-41.504,0.000
1709215365.602,-6.836,-37.598,-43.945,-27.832,0.000
1709215365.606,-16.113,-38.086,-38.574,-41.504,0.000
1709215365.610,-19.043,-42.480,-35.645,-53.711,0.000
1709215365.613,-31.250,-44.922,-37.109,-51.270,0.000
1709215365.617,-20.996,-35.645,-35.156,-20.020,0.000
1709215365.621,-10.254,-47.852,-34.668,-4.395,0.000
1709215365.625,-10.742,-50.781,-34.180,-16.602,0.000
1709215365.629,-9.277,-48.340,-32.715,-25.391,0.000
1709215365.633,-36.133,-54.199,-47.363,-35.645,0.000
1709215365.637,-45.410,-36.133,-54.199,-31.738,0.000
1709215365.641,-34.180,-23.926,-43.945,-18.555,0.000
1709215365.646,-29.785,-36.621,-36.133,-27.832,0.000
1709215365.650,-38.574,-48.828,-33.691,-48.340,0.000
1709215365.654,-47.363,-41.504,-34.668,-47.363,0.000
1709215365.658,-37.598,-52.246,-49.316,-33.691,0.000
1709215365.662,-20.508,-58.594,-41.992,-17.090,0.000
1709215365.665,-24.902,-32.227,-23.438,-19.531,0.000
1709215365.669,-46.875,-30.273,-21.973,-48.828,0.000
1709215365.673,-58.105,-36.621,-27.832,-69.336,0.000
1709215365.677,-48.340,-35.156,-37.109,-49.316,0.000
1709215365.681,-31.738,-47.852,-40.527,-20.508,0.000
1709215365.685,-8.789,-53.711,-34.668,-16.113,0.000
1709215365.689,-35.645,-43.945,-37.109,-35.156,0.000
1709215365.693,-73.730,-48.828,-49.316,-69.336,0.000
1709215365.697,-62.988,-50.293,-44.434,-75.684,0.000
1709215365.700,-43.945,-39.551,-34.668,-57.129,0.000
1709215365.704,-38.086,-36.621,-37.109,-54.199,0.000
1709215365.708,-51.758,-46.875,-46.875,-55.664,0.000
1709215365.712,-53.223,-45.410,-46.387,-62.500,0.000
1709215365.716,-40.527,-32.715,-39.551,-54.199,0.000
1709215365.720,-28.809,-43.457,-37.598,-32.227,0.000
1709215365.724,-23.438,-51.270,-35.156,-22.461,0.000
1709215365.728,-44.434,-46.387,-39.062,-22.949,0.000
1709215365.732,-49.805,-36.621,-41.504,-45.898,0.000
1709215365.736,-47.852,-29.785,-40.039,-55.664,0.000
1709215365.739,-44.434,-32.227,-40.039,-31.738,0.000
1709215365.743,-15.137,-32.227,-42.969,-30.762,0.000
1709215365.747,-14.648,-35.156,-44.922,-44.922,0.000
1709215365.751,-41.016,-40.527,-38.574,-43.945,0.000
1709215365.755,-48.340,-41.504,-40.527,-40.527,0.000
1709215365.759,-40.039,-34.180,-49.805,-45.410,0.000
1709215365.763,-37.598,-37.109,-38.574,-40.527,0.000
1709215365.767,-43.945,-35.645,-26.367,-25.391,0.000
1709215365.771,-57.129,-32.715,-35.156,-37.109,0.000
1709215365.774,-53.711,-43.457,-44.922,-45.898,0.000
1709215365.778,-37.598,-51.758,-49.316,-24.414,0.000
1709215365.782,-36.133,-44.922,-38.574,-24.902,0.000
1709215365.786,-32.227,-30.762,-33.691,-39.062,0.000
1709215365.790,-48.340,-36.133,-39.062,-40.039,0.000
1709215365.794,-57.129,-40.527,-28.320,-38.574,0.000
1709215365.798,-40.527,-32.227,-23.926,-26.855,0.000
1709215365.801,-36.133,-35.645,-30.762,-35.645,0.000
1709215365.805,-33.203,-41.016,-31.738,-56.152,0.000
1709215365.809,-30.762,-43.945,-31.250,-55.664,0.000
1709215365.813,-44.434,-54.688,-42.969,-39.551,0.000
1709215365.817,-44.434,-51.270,-52.734,-28.320,0.000
1709215365.821,-29.297,-42.480,-47.852,-31.738,0.000
1709215365.825,-32.227,-41.504,-32.227,-27.344,0.000
1709215365.829,-30.273,-32.715,-35.156,-40.039,0.000
1709215365.832,-37.109,-27.344,-44.434,-61.523,0.000
1709215365.836,-54.688,-41.992,-38.086,-46.875,0.000
1709215365.840,-38.574,-52.734,-32.227,-29.297,0.000
1709215365.844,-25.879,-41.504,-37.598,-32.715,0.000
1709215365.848,-32.227,-26.855,-34.180,-33.691,0.000
1709215365.852,-43.945,-41.992,-42.480,-40.527,0.000
1709215365.856,-41.992,-60.547,-45.410,-37.598,0.000
1709215365.860,-35.645,-43.457,-32.227,-23.438,0.000
1709215365.864,-33.203,-25.391,-34.668,-29.297,0.000
1709215365.867,-41.016,-34.668,-38.574,-40.039,0.000
1709215365.871,-47.363,-33.203,-39.062,-43.457,0.000
1709215365.875,-44.434,-23.438,-52.246,-44.922,0.000
1709215365.879,-33.691,-36.621,-50.781,-42.480,0.000
1709215365.882,-42.480,-46.387,-32.715,-39.062,0.000
1709215365.886,-45.410,-46.387,-31.738,-50.781,0.000
1709215365.890,-44.922,-38.086,-37.109,-57.617,0.000
1709215365.894,-43.945,-34.180,-38.574,-47.852,0.000
1709215365.898,-32.227,-40.527,-37.598,-20.996,0.000
1709215365.902,-32.227,-38.086,-35.156,-9.766,0.000
1709215365.906,-26.855,-36.621,-37.598,-35.645,0.000
1709215365.910,-33.203,-45.898,-46.387,-46.387,0.000
1709215365.914,-53.223,-34.180,-50.781,-28.320,0.000
1709215365.918,-47.363,-27.832,-45.898,-25.879,0.000
1709215365.922,-32.715,-53.711,-53.223,-54.688,0.000
1709215365.927,-34.668,-57.617,-54.688,-79.102,0.000
1709215365.931,-41.504,-45.410,-38.086,-84.473,0.000
1709215365.935,-49.805,-18.555,-25.391,-68.359,0.000
1709215365.939,-36.621,-8.301,-32.227,-46.875,0.000
1709215365.943,-17.090,-30.273,-31.250,-41.016,0.000
1709215365.946,-23.926,-29.297,-34.180,-47.852,0.000
1709215365.950,-35.156,-20.996,-48.828,-57.617,0.000
1709215365.954,-45.410,-27.344,-40.527,-58.594,0.000
1709215365.958,-45.410,-28.809,-24.902,-33.691,0.000
1709215365.962,-23.438,-36.621,-22.949,-4.883,0.000
1709215365.966,-37.598,-48.340,-32.715,-30.762,0.000
1709215365.970,-68.359,-48.828,-35.645,-62.500,0.000
1709215365.974,-54.199,-45.898,-30.762,-47.852,0.000
1709215365.978,-38.086,-53.223,-28.809,-32.227,0.000
1709215365.982,-30.762,-43.457,-32.227,-36.133,0.000
1709215365.986,-35.156,-43.457,-46.875,-34.180,0.000
1709215365.990,-44.922,-59.082,-46.875,-36.621,0.000
1709215365.993,-52.734,-39.062,-28.809,-34.180,0.000
1709215365.997,-41.016,-27.832,-33.203,-21.484,0.000
1709215366.001,-18.066,-39.551,-40.039,-16.113,0.000
1709215366.005,-14.648,-34.668,-30.762,-30.273,0.000
1709215366.009,-30.273,-36.133,-32.715,-45.410,0.000
1709215366.013,-47.852,-37.598,-43.457,-50.293,0.000
1709215366.017,-37.598,-39.551,-42.969,-43.945,0.000
1709215366.022,-24.414,-44.434,-37.109,-28.320,0.000
1709215366.026,-22.949,-36.621,-36.621,-26.367,0.000
1709215366.029,-39.062,-35.645,-52.734,-45.410,0.000
1709215366.033,-55.664,-42.969,-53.223,-54.199,0.000
1709215366.037,-38.086,-45.410,-37.109,-37.109,0.000
1709215366.041,-16.113,-43.945,-31.738,-31.250,0.000
1709215366.045,-23.926,-41.016,-35.645,-32.715,0.000
1709215366.049,-37.598,-49.316,-38.574,-43.945,0.000
1709215366.053,-50.781,-43.457,-49.316,-48.828,0.000
1709215366.057,-44.434,-25.879,-47.852,-34.180,0.000
1709215366.061,-20.020,-24.414,-35.645,-24.902,0.000
1709215366.065,-25.391,-44.922,-39.551,-24.902,0.000
1709215366.069,-38.086,-49.805,-42.969,-47.852,0.000
1709215366.073,-44.434,-34.180,-41.504,-67.383,0.000
1709215366.077,-42.480,-35.645,-36.621,-51.758,0.000
1709215366.081,-31.250,-30.273,-38.574,-31.738,0.000
1709215366.085,-38.086,-27.832,-47.363,-33.203,0.000
1709215366.089,-43.945,-37.598,-37.109,-37.598,0.000
1709215366.093,-54.688,-46.387,-30.762,-52.734,0.000
1709215366.097,-71.289,-55.664,-41.992,-50.293,0.000
1709215366.101,-35.156,-54.688,-40.527,-22.461,0.000
1709215366.105,-19.531,-65.918,-39.062,-16.602,0.000
1709215366.108,-44.434,-63.965,-39.062,-16.113,0.000
1709215366.112,-43.457,-37.598,-39.062,-28.809,0.000
1709215366.116,-40.527,-29.297,-39.062,-43.945,0.000
1709215366.120,-39.062,-27.832,-26.855,-33.691,0.000
1709215366.124,-28.809,-25.391,-25.391,-22.949,0.000
1709215366.128,-26.855,-26.855,-21.973,-30.273,0.000
1709215366.132,-46.387,-36.133,-22.949,-44.434,0.000
1709215366.135,-53.711,-36.621,-41.992,-44.922,0.000
1709215366.139,-57.129,-39.551,-46.875,-29.297,0.000
1709215366.143,-47.363,-54.688,-34.668,-35.156,0.000
1709215366.147,-41.504,-50.781,-31.250,-58.594,0.000
1709215366.151,-56.641,-33.691,-31.250,-56.152,0.000
1709215366.155,-55.176,-40.527,-36.133,-57.129,0.000
1709215366.159,-40.527,-57.617,-40.039,-47.363,0.000
1709215366.162,-22.461,-51.758,-39.551,-30.762,0.000
1709215366.166,-25.391,-40.527,-37.598,-41.504,0.000
1709215366.170,-44.922,-38.574,-29.785,-47.852,0.000
1709215366.174,-48.828,-34.668,-40.527,-43.457,0.000
1709215366.178,-34.180,-33.691,-45.898,-37.109,0.000
1709215366.182,-25.879,-39.551,-41.504,-33.203,0.000
1709215366.186,-36.621,-37.109,-37.598,-28.809,0.000
1709215366.190,-52.734,-36.621,-38.574,-41.992,0.000
1709215366.194,-52.734,-50.781,-39.062,-42.480,0.000
1709215366.197,-43.457,-44.922,-35.156,-30.273,0.000
1709215366.201,-27.832,-32.715,-42.969,-20.508,0.000
1709215366.205,-24.414,-36.621,-45.898,-25.879,0.000
1709215366.210,-43.457,-38.574,-46.875,-56.152,0.000
1709215366.214,-46.875,-32.227,-44.922,-67.383,0.000
1709215366.217,-28.320,-23.926,-44.922,-54.199,0.000
1709215366.221,-4.883,-25.391,-41.016,-34.180,0.000
1709215366.225,-2.930,-30.762,-39.062,-31.250,0.000
1709215366.229,-37.109,-42.969,-46.875,-48.340,0.000
1709215366.233,-58.105,-44.922,-53.223,-47.363,0.000
1709215366.237,-51.758,-43.457,-57.129,-39.551,0.000
1709215366.241,-28.809,-56.152,-37.109,-41.016,0.000
1709215366.245,-20.020,-58.105,-37.109,-40.039,0.000
1709215366.249,-46.875,-52.734,-52.246,-62.988,0.000
1709215366.253,-69.336,-43.457,-46.875,-67.871,0.000
1709215366.256,-57.617,-33.691,-40.527,-47.363,0.000
1709215366.260,-42.480,-25.879,-44.434,-40.527,0.000
1709215366.264,-38.086,-29.785,-43.457,-35.645,0.000
1709215366.268,-35.645,-33.691,-41.504,-40.039,0.000
1709215366.271,-37.598,-46.387,-41.016,-62.012,0.000
1709215366.275,-38.574,-56.152,-31.250,-41.016,0.000
1709215366.279,-37.109,-52.734,-30.273,-25.879,0.000
1709215366.283,-18.066,-49.316,-32.715,-27.344,0.000
1709215366.287,-25.879,-24.414,-41.016,-28.320,0.000
1709215366.291,-60.547,-26.367,-43.457,-49.805,0.000
1709215366.295,-65.918,-40.039,-32.227,-45.898,0.000
1709215366.299,-37.109,-49.316,-32.227,-16.602,0.000
1709215366.303,-11.719,-46.387,-30.273,-20.020,0.000
1709215366.307,-29.297,-28.320,-24.414,-42.969,0.000
1709215366.311,-47.363,-28.809,-17.578,-41.504,0.000
1709215366.315,-45.410,-32.227,-25.391,-37.598,0.000
1709215366.319,-34.180,-31.738,-31.738,-19.043,0.000
1709215366.322,-31.250,-32.715,-23.438,-0.488,0.000
1709215366.326,-35.156,-36.133,-28.320,-20.020,0.000
1709215366.330,-34.180,-36.133,-37.598,-55.664,0.000
1709215366.334,-35.156,-44.922,-41.992,-69.824,0.000
1709215366.338,-35.156,-45.898,-36.621,-46.875,0.000
1709215366.342,-37.598,-32.227,-30.762,-24.414,0.000
1709215366.346,-35.156,-38.086,-38.086,-32.227,0.000
1709215366.350,-53.223,-39.551,-47.363,-42.969,0.000
1709215366.354,-57.617,-38.086,-45.898,-38.574,0.000
1709215366.358,-36.621,-36.621,-51.758,-33.203,0.000
1709215366.362,-14.648,-21.484,-53.223,-26.855,0.000
1709215366.366,-12.207,-28.809,-34.180,-32.715,0.000
1709215366.369,-34.668,-42.480,-24.902,-47.852,0.000
1709215366.373,-43.457,-34.668,-37.109,-53.223,0.000
1709215366.377,-45.410,-27.344,-41.016,-50.293,0.000
1709215366.381,-22.949,-35.156,-32.227,-25.879,0.000
1709215366.385,-7.324,-38.086,-37.109,-17.578,0.000
1709215366.389,-50.781,-30.762,-43.945,-50.293,0.000
1709215366.393,-65.918,-45.410,-46.875,-52.734,0.000
1709215366.397,-57.129,-54.199,-40.527,-27.832,0.000
1709215366.401,-41.992,-34.180,-30.273,-20.996,0.000
1709215366.405,-23.926,-29.785,-31.250,-28.809,0.000
1709215366.409,-26.855,-41.016,-32.227,-53.711,0.000
1709215366.412,-46.875,-41.016,-42.480,-63.965,0.000
1709215366.416,-41.992,-33.203,-47.363,-43.945,0.000
1709215366.420,-13.672,-34.668,-39.551,-34.180,0.000
1709215366.424,-16.602,-24.414,-35.156,-33.203,0.000
1709215366.428,-30.762,-16.602,-35.156,-40.527,0.000
1709215366.432,-40.527,-27.832,-40.527,-47.363,0.000
1709215366.436,-31.738,-49.316,-50.781,-44.434,0.000
1709215366.440,-6.836,-62.500,-42.969,-36.621,0.000
1709215366.443,-18.555,-38.086,-30.273,-32.227,0.000
1709215366.447,-39.062,-27.832,-31.738,-33.691,0.000
1709215366.451,-41.992,-41.016,-37.109,-43.945,0.000
1709215366.455,-39.062,-48.340,-39.551,-57.617,0.000
1709215366.459,-34.180,-38.086,-41.992,-47.852,0.000
1709215366.463,-31.250,-28.320,-44.434,-28.320,0.000
1709215366.467,-39.551,-34.180,-48.828,-34.668,0.000
1709215366.471,-53.711,-33.203,-54.199,-61.523,0.000
1709215366.475,-50.293,-38.086,-48.828,-52.734,0.000
1709215366.479,-36.133,-38.086,-35.156,-23.438,0.000
1709215366.483,-23.926,-36.621,-31.738,-20.996,0.000
1709215366.486,-25.879,-36.133,-39.551,-39.062,0.000
1709215366.490,-37.109,-40.527,-43.457,-55.176,0.000
1709215366.494,-36.133,-41.504,-44.434,-50.781,0.000
1709215366.498,-30.273,-40.527,-37.109,-37.109,0.000
1709215366.502,-36.621,-44.922,-34.668,-27.832,0.000
1709215366.506,-41.992,-49.316,-32.715,-36.621,0.000
1709215366.510,-48.828,-61.523,-26.367,-53.223,0.000
1709215366.513,-44.922,-61.523,-31.250,-69.336,0.000
1709215366.517,-41.992,-47.363,-39.551,-48.340,0.000
1709215366.521,-36.621,-44.434,-42.969,-19.043,0.000
1709215366.525,-34.668,-52.734,-45.898,-39.062,0.000
1709215366.529,-47.852,-48.828,-36.133,-49.805,0.000
1709215366.533,-43.457,-37.109,-28.809,-50.293,0.000
1709215366.537,-43.945,-39.062,-39.062,-44.434,0.000
1709215366.540,-30.273,-41.992,-38.574,-28.320,0.000
1709215366.544,-24.414,-42.969,-38.086,-31.738,0.000
1709215366.548,-54.688,-39.062,-42.969,-59.570,0.000
1709215366.552,-63.965,-40.039,-38.086,-69.336,0.000
1709215366.556,-50.293,-51.270,-37.598,-50.781,0.000
1709215366.560,-17.090,-47.363,-43.457,-25.879,0.000
1709215366.564,-13.184,-42.480,-48.828,-26.367,0.000
1709215366.568,-26.855,-39.062,-37.109,-41.504,0.000
1709215366.572,-26.367,-46.387,-27.344,-41.992,0.000
1709215366.576,-14.648,-57.617,-27.344,-22.461,0.000
1709215366.579,-6.836,-44.434,-32.715,-9.277,0.000
1709215366.583,-21.484,-38.086,-24.902,-19.043,0.000
1709215366.587,-33.691,-47.363,-28.809,-37.109,0.000
1709215366.591,-36.621,-48.340,-40.527,-63.965,0.000
1709215366.595,-56.152,-47.852,-42.480,-58.594,0.000
1709215366.599,-53.711,-40.039,-41.992,-29.785,0.000
1709215366.602,-33.203,-46.387,-34.180,-24.902,0.000
1709215366.606,-55.664,-58.105,-41.504,-46.875,0.000
1709215366.610,-76.172,-50.293,-46.875,-63.477,0.000
1709215366.614,-67.383,-45.410,-44.434,-60.059,0.000
1709215366.618,-43.945,-45.898,-36.133,-41.504,0.000
1709215366.622,-31.738,-45.898,-30.273,-36.621,0.000
1709215366.626,-46.875,-44.434,-39.062,-42.969,0.000
1709215366.630,-58.594,-44.922,-44.922,-47.852,0.000
1709215366.634,-49.805,-45.410,-44.922,-48.828,0.000
1709215366.638,-43.457,-38.086,-38.086,-41.992,0.000
1709215366.642,-28.809,-36.133,-32.227,-37.598,0.000
1709215366.646,-25.879,-49.316,-31.250,-41.016,0.000
1709215366.650,-55.664,-51.270,-37.598,-50.293,0.000
1709215366.654,-63.965,-40.527,-38.574,-45.410,0.000
1709215366.658,-47.852,-42.480,-31.738,-40.527,0.000
1709215366.661,-35.645,-50.293,-32.715,-29.785,0.000
1709215366.665,-35.645,-47.363,-35.645,-27.832,0.000
1709215366.669,-44.922,-39.062,-38.086,-52.734,0.000
1709215366.673,-53.223,-41.016,-37.598,-54.688,0.000
1709215366.676,-41.992,-48.828,-35.645,-49.316,0.000
1709215366.680,-23.926,-47.852,-30.762,-45.898,0.000
1709215366.684,-15.625,-34.668,-27.832,-43.945,0.000
1709215366.688,-27.832,-27.832,-32.715,-57.129,0.000
1709215366.692,-38.086,-37.109,-33.691,-59.570,0.000
1709215366.696,-32.715,-43.457,-33.203,-31.250,0.000
1709215366.700,-27.832,-44.922,-38.086,-16.602,0.000
1709215366.704,-11.230,-34.180,-45.898,-22.461,0.000
1709215366.708,-20.508,-30.762,-38.086,-23.926,0.000
1709215366.711,-46.387,-41.992,-25.879,-19.531,0.000
1709215366.715,-39.062,-46.875,-35.156,-19.043,0.000
1709215366.719,-27.344,-40.527,-39.551,-21.484,0.000
1709215366.724,-29.297,-40.039,-33.691,-24.902,0.000
1709215366.727,-38.574,-46.387,-43.457,-40.039,0.000
1709215366.731,-41.504,-37.109,-54.688,-54.688,0.000
1709215366.735,-39.062,-32.227,-51.758,-53.711,0.000
1709215366.739,-31.250,-35.156,-37.598,-37.109,0.000
1709215366.743,-26.855,-31.738,-28.320,-28.320,0.000
1709215366.747,-44.434,-31.738,-35.645,-45.410,0.000
1709215366.751,-51.270,-35.645,-32.715,-60.547,0.000
1709215366.755,-44.434,-40.039,-24.414,-44.434,0.000
1709215366.759,-39.062,-40.039,-27.344,-20.020,0.000
1709215366.763,-34.180,-37.109,-26.367,-18.555,0.000
1709215366.767,-24.902,-36.133,-23.926,-35.156,0.000
