timestamps,TP9,AF7,AF8,TP10,Right AUX
1709140431.661,-42.969,-48.828,-44.922,-46.387,0.000
1709140431.665,-40.039,-54.199,-41.992,-44.922,0.000
1709140431.668,-38.574,-40.039,-41.992,-43.457,0.000
1709140431.672,-31.250,-52.246,-43.457,-35.156,0.000
1709140431.676,-23.438,-40.039,-45.410,-35.156,0.000
1709140431.680,-31.738,-11.719,-37.109,-38.574,0.000
1709140431.684,-43.457,-18.555,-37.598,-36.621,0.000
1709140431.688,-37.109,-35.156,-36.621,-32.715,0.000
1709140431.692,-37.109,-38.086,-36.133,-34.668,0.000
1709140431.696,-37.598,-51.270,-34.668,-33.691,0.000
1709140431.700,-31.738,-46.387,-30.273,-23.926,0.000
1709140431.704,-23.926,-40.039,-27.832,-12.695,0.000
1709140431.707,-19.531,-59.082,-26.855,-12.695,0.000
1709140431.711,-30.273,-48.340,-34.180,-19.043,0.000
1709140431.715,-36.133,-29.785,-41.992,-30.762,0.000
1709140431.719,-28.809,-30.273,-49.316,-35.156,0.000
1709140431.723,-29.785,-35.645,-42.969,-33.203,0.000
1709140431.727,-26.367,-26.367,-30.273,-29.785,0.000
1709140431.731,-21.484,-32.715,-25.879,-18.066,0.000
1709140431.735,-23.926,-46.875,-22.461,-20.020,0.000
1709140431.739,-20.996,-35.156,-25.391,-31.250,0.000
1709140431.743,-25.879,-31.738,-30.273,-36.621,0.000
1709140431.746,-37.598,-41.504,-31.738,-47.363,0.000
1709140431.750,-39.551,-42.969,-29.297,-44.434,0.000
1709140431.754,-34.180,-48.340,-28.320,-33.203,0.000
1709140431.758,-16.602,-50.293,-27.832,-31.250,0.000
1709140431.762,-26.855,-42.480,-31.738,-34.180,0.000
1709140431.766,-46.387,-30.762,-38.574,-41.992,0.000
1709140431.770,-45.410,-43.945,-50.293,-52.734,0.000
1709140431.774,-42.969,-42.480,-42.969,-57.129,0.000
1709140431.778,-39.551,-42.480,-28.809,-55.664,0.000
1709140431.781,-35.156,-50.781,-28.809,-60.059,0.000
1709140431.785,-30.762,-42.480,-31.250,-53.223,0.000
1709140431.789,-43.945,-43.945,-30.762,-52.734,0.000
1709140431.793,-41.504,-48.828,-27.832,-51.758,0.000
1709140431.797,-28.809,-49.316,-35.645,-39.062,0.000
1709140431.801,-38.086,-39.062,-39.062,-45.898,0.000
1709140431.805,-50.293,-36.133,-35.156,-57.129,0.000
1709140431.809,-56.152,-52.734,-36.621,-53.711,0.000
1709140431.813,-51.758,-51.758,-38.086,-46.875,0.000
1709140431.817,-41.992,-41.992,-37.109,-51.270,0.000
1709140431.821,-39.062,-44.922,-38.086,-49.316,0.000
1709140431.825,-39.062,-44.434,-47.363,-40.527,0.000
1709140431.828,-37.598,-42.480,-47.363,-37.598,0.000
1709140431.832,-40.527,-51.270,-34.180,-41.016,0.000
1709140431.836,-43.457,-41.016,-34.668,-40.527,0.000
1709140431.840,-35.645,-30.273,-34.668,-37.109,0.000
1709140431.844,-28.320,-38.086,-33.203,-50.781,0.000
1709140431.848,-32.715,-49.316,-36.133,-56.152,0.000
1709140431.852,-46.875,-60.059,-35.156,-57.129,0.000
1709140431.856,-55.176,-62.012,-40.039,-63.965,0.000
1709140431.860,-51.270,-66.895,-41.504,-61.523,0.000
1709140431.864,-47.852,-58.105,-40.527,-52.246,0.000
1709140431.868,-49.805,-41.992,-39.551,-53.223,0.000
1709140431.872,-51.270,-39.062,-43.945,-52.734,0.000
1709140431.875,-46.387,-21.973,-50.293,-47.363,0.000
1709140431.879,-37.598,-21.973,-41.504,-42.969,0.000
1709140431.883,-32.715,-29.785,-37.109,-31.738,0.000
1709140431.887,-27.832,-30.273,-33.691,-32.227,0.000
1709140431.891,-30.762,-40.039,-26.367,-28.320,0.000
1709140431.895,-40.527,-55.664,-30.273,-30.762,0.000
1709140431.899,-37.109,-57.129,-37.109,-40.039,0.000
1709140431.903,-20.508,-48.340,-29.785,-33.203,0.000
1709140431.907,-23.438,-33.203,-34.180,-38.086,0.000
1709140431.911,-42.480,-25.391,-49.805,-50.293,0.000
1709140431.915,-39.551,-42.480,-39.551,-45.410,0.000
1709140431.918,-29.785,-41.504,-36.133,-42.480,0.000
1709140431.922,-32.227,-36.133,-42.969,-54.688,0.000
1709140431.926,-26.855,-43.457,-37.109,-45.410,0.000
1709140431.930,-27.344,-30.273,-34.180,-36.133,0.000
1709140431.934,-45.898,-29.785,-42.480,-48.340,0.000
1709140431.938,-41.504,-46.387,-42.969,-46.875,0.000
1709140431.942,-38.086,-42.969,-43.457,-43.945,0.000
1709140431.946,-47.363,-34.180,-51.270,-55.176,0.000
1709140431.950,-53.711,-39.551,-45.898,-60.059,0.000
1709140431.954,-49.316,-43.457,-36.133,-56.152,0.000
1709140431.957,-46.387,-43.457,-42.480,-61.523,0.000
1709140431.961,-47.852,-47.852,-38.086,-61.035,0.000
1709140431.965,-43.945,-44.434,-30.273,-48.828,0.000
1709140431.969,-40.039,-42.969,-32.227,-39.551,0.000
1709140431.973,-39.062,-41.016,-32.227,-33.691,0.000
1709140431.977,-33.203,-27.344,-23.438,-36.133,0.000
1709140431.981,-26.855,-36.621,-28.809,-34.668,0.000
1709140431.985,-37.109,-48.828,-44.922,-41.504,0.000
1709140431.989,-51.758,-42.480,-38.574,-57.129,0.000
1709140431.993,-57.617,-53.711,-34.180,-53.223,0.000
1709140431.997,-53.711,-47.852,-28.320,-41.992,0.000
1709140432.000,-46.387,-32.227,-30.762,-46.387,0.000
1709140432.004,-49.805,-25.879,-42.969,-51.758,0.000
1709140432.008,-44.922,-28.809,-42.480,-46.875,0.000
1709140432.012,-39.062,-41.992,-32.227,-39.062,0.000
1709140432.016,-32.715,-32.227,-35.645,-28.320,0.000
1709140432.020,-31.738,-23.438,-48.828,-33.691,0.000
1709140432.024,-48.828,-32.227,-44.922,-44.922,0.000
1709140432.028,-46.875,-39.551,-47.363,-46.875,0.000
1709140432.032,-35.645,-49.316,-49.316,-39.551,0.000
1709140432.035,-38.086,-50.293,-38.086,-41.504,0.000
1709140432.039,-39.062,-45.898,-32.227,-49.805,0.000
1709140432.043,-38.574,-28.809,-31.738,-51.758,0.000
1709140432.047,-43.945,-17.578,-35.645,-52.734,0.000
1709140432.051,-37.109,-37.109,-51.270,-50.781,0.000
1709140432.055,-35.156,-55.664,-52.246,-49.316,0.000
1709140432.059,-49.316,-55.176,-54.199,-48.340,0.000
1709140432.063,-46.875,-55.176,-55.176,-45.898,0.000
1709140432.067,-36.133,-47.363,-44.922,-43.945,0.000
1709140432.071,-44.434,-39.062,-46.875,-41.992,0.000
1709140432.075,-49.805,-47.363,-49.805,-40.527,0.000
1709140432.078,-41.504,-59.570,-36.133,-29.297,0.000
1709140432.082,-40.527,-43.457,-31.738,-18.066,0.000
1709140432.086,-42.480,-22.461,-34.668,-23.438,0.000
1709140432.090,-33.691,-28.809,-40.039,-26.855,0.000
1709140432.094,-25.879,-34.668,-40.527,-20.020,0.000
1709140432.098,-34.668,-34.180,-36.133,-21.484,0.000
1709140432.102,-34.668,-38.574,-39.062,-32.227,0.000
1709140432.106,-39.551,-55.664,-36.621,-26.367,0.000
1709140432.110,-40.039,-66.406,-38.574,-19.531,0.000
1709140432.113,-37.598,-33.691,-40.527,-25.391,0.000
1709140432.117,-43.457,-32.715,-36.133,-33.691,0.000
1709140432.121,-39.551,-50.781,-37.109,-32.227,0.000
1709140432.125,-41.504,-51.270,-38.574,-36.621,0.000
1709140432.129,-51.758,-44.434,-36.133,-44.434,0.000
1709140432.133,-49.805,-26.855,-37.109,-37.109,0.000
1709140432.137,-33.203,-33.691,-33.691,-34.180,0.000
1709140432.141,-19.531,-43.945,-22.461,-30.273,0.000
1709140432.145,-20.508,-38.086,-27.344,-31.738,0.000
1709140432.148,-24.414,-47.363,-39.551,-32.227,0.000
1709140432.152,-26.367,-55.664,-37.109,-25.391,0.000
1709140432.156,-28.320,-44.434,-32.227,-36.133,0.000
1709140432.160,-35.645,-41.992,-38.086,-43.457,0.000
1709140432.164,-45.410,-48.340,-41.016,-38.574,0.000
1709140432.168,-37.598,-41.016,-30.762,-36.133,0.000
1709140432.172,-37.109,-45.898,-28.320,-32.227,0.000
1709140432.176,-55.176,-51.758,-38.574,-32.715,0.000
1709140432.180,-53.223,-40.039,-39.551,-31.250,0.000
1709140432.184,-48.340,-39.551,-33.203,-28.809,0.000
1709140432.188,-43.945,-45.410,-31.250,-31.250,0.000
1709140432.192,-36.133,-57.129,-34.180,-34.180,0.000
1709140432.195,-27.832,-52.246,-27.344,-29.785,0.000
1709140432.199,-26.855,-28.320,-24.902,-26.855,0.000
1709140432.203,-31.250,-20.996,-28.320,-30.762,0.000
1709140432.207,-33.691,-33.203,-33.691,-30.762,0.000
1709140432.211,-34.668,-47.852,-38.574,-27.832,0.000
1709140432.215,-26.367,-34.180,-25.879,-20.020,0.000
1709140432.219,-13.672,-32.227,-24.902,-14.648,0.000
1709140432.223,-18.555,-41.016,-29.785,-24.902,0.000
1709140432.227,-31.250,-32.227,-27.344,-36.621,0.000
1709140432.231,-32.227,-37.598,-37.598,-34.180,0.000
1709140432.235,-23.438,-48.828,-35.645,-28.809,0.000
1709140432.239,-24.414,-43.457,-18.066,-25.391,0.000
1709140432.242,-37.598,-29.785,-27.344,-32.227,0.000
1709140432.246,-38.574,-38.574,-32.227,-36.133,0.000
1709140432.250,-45.410,-53.223,-24.414,-32.227,0.000
1709140432.254,-39.551,-59.570,-26.855,-38.086,0.000
1709140432.258,-31.250,-55.176,-29.785,-33.691,0.000
1709140432.262,-48.340,-48.340,-34.668,-45.898,0.000
1709140432.266,-51.270,-52.734,-45.410,-61.035,0.000
1709140432.270,-49.805,-57.129,-45.898,-50.293,0.000
1709140432.274,-51.758,-38.086,-40.527,-43.457,0.000
1709140432.278,-46.387,-29.297,-37.598,-36.621,0.000
1709140432.282,-42.480,-50.293,-32.715,-33.691,0.000
1709140432.285,-47.363,-54.688,-31.738,-39.062,0.000
1709140432.289,-46.875,-41.504,-36.621,-39.551,0.000
1709140432.293,-42.480,-44.434,-36.133,-40.039,0.000
1709140432.297,-34.668,-51.758,-26.367,-35.645,0.000
1709140432.301,-26.855,-45.410,-18.555,-23.438,0.000
1709140432.305,-23.438,-62.988,-31.250,-25.879,0.000
1709140432.309,-28.320,-74.707,-49.316,-29.785,0.000
1709140432.313,-31.250,-45.410,-50.293,-16.113,0.000
1709140432.317,-20.508,-29.297,-34.180,-8.301,0.000
1709140432.321,-10.742,-28.809,-24.414,-20.020,0.000
1709140432.325,-14.648,-33.691,-31.250,-20.020,0.000
1709140432.328,-24.414,-28.809,-38.574,-16.113,0.000
1709140432.332,-15.137,-19.531,-42.969,-14.160,0.000
1709140432.336,-8.789,-25.391,-40.527,-8.789,0.000
1709140432.340,-11.230,-25.879,-38.086,-4.883,0.000
1709140432.344,-3.418,-38.086,-41.992,-8.301,0.000
1709140432.348,-0.488,-53.711,-39.062,-8.789,0.000
1709140432.352,3.906,-39.062,-37.109,-10.742,0.000
1709140432.356,8.301,-42.480,-31.250,-19.531,0.000
1709140432.360,3.906,-40.039,-26.855,-18.066,0.000
1709140432.364,-1.465,-31.250,-31.738,-16.113,0.000
1709140432.367,-11.719,-44.922,-37.109,-15.625,0.000
1709140432.371,-21.973,-53.223,-34.180,-12.207,0.000
1709140432.375,-25.879,-38.086,-25.879,-16.602,0.000
1709140432.379,-19.531,-27.832,-22.949,-21.484,0.000
1709140432.383,-18.066,-41.992,-32.715,-25.879,0.000
1709140432.387,-33.691,-42.480,-36.133,-37.598,0.000
1709140432.391,-38.574,-48.340,-24.902,-32.715,0.000
1709140432.395,-36.133,-55.176,-29.297,-31.738,0.000
1709140432.399,-34.668,-45.410,-31.738,-31.738,0.000
1709140432.403,-37.598,-51.270,-35.645,-31.738,0.000
1709140432.407,-39.062,-52.246,-41.992,-37.598,0.000
1709140432.410,-31.738,-48.828,-27.832,-28.320,0.000
1709140432.414,-27.832,-45.898,-20.020,-21.973,0.000
1709140432.418,-25.391,-43.457,-28.320,-35.645,0.000
1709140432.422,-37.598,-27.832,-35.156,-47.852,0.000
1709140432.426,-44.922,-27.832,-38.086,-44.922,0.000
1709140432.430,-45.898,-48.340,-45.410,-47.363,0.000
1709140432.434,-42.969,-42.969,-44.922,-42.480,0.000
1709140432.438,-36.621,-34.180,-40.039,-41.504,0.000
1709140432.442,-32.715,-19.531,-35.645,-48.340,0.000
1709140432.445,-31.738,-20.508,-31.250,-47.852,0.000
1709140432.449,-31.738,-36.133,-36.133,-45.410,0.000
1709140432.453,-20.020,-38.086,-33.203,-29.785,0.000
1709140432.457,-9.277,-41.504,-23.926,-14.648,0.000
1709140432.461,-13.184,-40.039,-30.273,-14.160,0.000
1709140432.465,-21.973,-29.785,-36.621,-21.484,0.000
1709140432.469,-18.066,-22.949,-35.645,-16.602,0.000
1709140432.473,-8.789,-14.648,-34.668,-13.184,0.000
1709140432.477,-5.371,-18.555,-33.691,-12.695,0.000
1709140432.481,-9.277,-27.832,-36.133,-3.418,0.000
1709140432.484,-12.207,-12.695,-39.062,-16.113,0.000
1709140432.488,-15.137,-5.859,-40.039,-32.715,0.000
1709140432.492,-19.043,-5.859,-45.410,-32.227,0.000
1709140432.496,-25.879,5.859,-50.293,-34.180,0.000
1709140432.500,-35.156,4.395,-50.293,-38.086,0.000
1709140432.504,-34.180,0.488,-54.688,-48.828,0.000
1709140432.508,-34.180,-23.438,-52.734,-52.246,0.000
1709140432.512,-47.363,-30.762,-52.734,-58.105,0.000
1709140432.516,-36.133,-10.742,-55.664,-51.758,0.000
1709140432.520,-34.180,-11.230,-54.199,-41.992,0.000
1709140432.524,-54.199,-10.254,-51.270,-45.410,0.000
1709140432.528,-46.875,-24.414,-48.340,-42.480,0.000
1709140432.531,-36.133,-42.480,-50.293,-40.039,0.000
1709140432.535,-33.691,-22.461,-51.758,-38.574,0.000
1709140432.539,-32.715,-5.371,-48.828,-42.480,0.000
1709140432.543,-28.320,-20.508,-53.223,-46.875,0.000
1709140432.547,-19.043,-27.832,-53.223,-39.062,0.000
1709140432.551,-22.949,-20.020,-50.781,-33.691,0.000
1709140432.555,-25.391,-17.578,-45.410,-31.738,0.000
1709140432.559,-20.508,-19.043,-39.062,-36.621,0.000
1709140432.563,-22.949,-20.020,-51.270,-48.340,0.000
1709140432.567,-21.973,-36.621,-49.316,-51.758,0.000
1709140432.571,-30.273,-35.156,-37.109,-63.965,0.000
1709140432.575,-41.992,-16.113,-37.109,-64.941,0.000
1709140432.579,-43.945,-18.066,-43.945,-61.523,0.000
1709140432.582,-39.551,-11.719,-41.992,-64.941,0.000
1709140432.586,-38.086,-18.555,-38.086,-55.664,0.000
1709140432.590,-57.617,-30.273,-47.852,-64.453,0.000
1709140432.594,-64.941,-34.668,-49.805,-73.242,0.000
1709140432.598,-51.270,-42.969,-45.410,-63.477,0.000
1709140432.602,-46.387,-50.781,-51.758,-63.965,0.000
1709140432.606,-50.293,-49.805,-45.410,-67.383,0.000
1709140432.610,-43.457,-42.969,-40.039,-60.059,0.000
1709140432.614,-37.109,-34.180,-50.781,-54.688,0.000
1709140432.618,-48.340,-38.086,-50.293,-60.059,0.000
1709140432.622,-39.062,-45.898,-42.969,-57.617,0.000
1709140432.625,-20.996,-32.227,-40.039,-51.758,0.000
1709140432.629,-31.738,-26.367,-43.457,-48.828,0.000
1709140432.633,-38.086,-16.113,-44.922,-33.691,0.000
1709140432.637,-28.320,-8.301,-45.410,-29.785,0.000
1709140432.641,-32.715,-19.043,-44.922,-39.062,0.000
1709140432.645,-34.668,-24.414,-48.340,-47.363,0.000
1709140432.649,-39.062,-17.090,-62.988,-54.688,0.000
1709140432.653,-43.945,-21.484,-59.082,-53.223,0.000
1709140432.657,-33.203,-38.574,-44.922,-45.410,0.000
1709140432.661,-33.203,-49.805,-42.480,-51.270,0.000
1709140432.665,-39.551,-46.387,-44.434,-62.500,0.000
1709140432.668,-39.062,-36.133,-51.270,-62.500,0.000
1709140432.672,-41.992,-31.250,-46.387,-51.758,0.000
1709140432.676,-51.270,-40.527,-39.551,-41.992,0.000
1709140432.680,-41.504,-48.340,-41.016,-40.527,0.000
1709140432.684,-40.039,-41.992,-40.527,-45.898,0.000
1709140432.688,-47.852,-31.250,-32.715,-48.340,0.000
1709140432.692,-43.945,-31.738,-27.344,-39.551,0.000
1709140432.696,-51.758,-44.922,-36.133,-41.992,0.000
1709140432.700,-58.105,-47.363,-41.504,-58.105,0.000
1709140432.704,-37.109,-38.574,-32.715,-51.758,0.000
1709140432.708,-29.785,-45.410,-29.297,-48.340,0.000
1709140432.711,-38.574,-54.199,-30.762,-46.387,0.000
1709140432.715,-39.551,-47.852,-31.738,-29.297,0.000
1709140432.719,-44.434,-37.598,-30.762,-21.973,0.000
1709140432.723,-38.574,-41.016,-25.879,-21.973,0.000
1709140432.727,-33.203,-36.133,-31.250,-30.762,0.000
1709140432.731,-37.109,-18.066,-41.016,-31.250,0.000
1709140432.735,-42.969,-22.461,-41.504,-30.273,0.000
1709140432.739,-45.898,-36.621,-34.668,-23.926,0.000
1709140432.743,-48.828,-32.227,-29.785,-26.367,0.000
1709140432.747,-41.504,-37.109,-33.203,-30.273,0.000
1709140432.750,-40.527,-51.758,-37.598,-36.621,0.000
1709140432.754,-48.828,-50.293,-30.762,-34.180,0.000
1709140432.758,-36.621,-47.852,-27.832,-18.555,0.000
1709140432.762,-28.809,-37.598,-34.668,-30.273,0.000
1709140432.766,-34.180,-50.293,-34.180,-26.855,0.000
1709140432.770,-45.410,-54.199,-38.574,-25.879,0.000
1709140432.774,-40.527,-27.832,-43.457,-34.180,0.000
1709140432.778,-32.227,-26.367,-34.180,-35.645,0.000
1709140432.782,-38.574,-31.738,-35.156,-40.527,0.000
1709140432.786,-37.598,-35.645,-36.621,-43.945,0.000
1709140432.789,-36.621,-45.410,-20.508,-37.598,0.000
1709140432.793,-44.434,-59.082,-25.879,-34.668,0.000
1709140432.797,-47.852,-57.617,-38.086,-45.410,0.000
1709140432.801,-49.805,-38.086,-35.645,-41.504,0.000
1709140432.805,-45.898,-30.273,-38.574,-41.016,0.000
1709140432.809,-44.922,-37.109,-41.016,-38.574,0.000
1709140432.813,-44.922,-42.969,-37.598,-26.367,0.000
1709140432.817,-43.457,-46.387,-41.504,-25.879,0.000
1709140432.821,-22.949,-48.828,-45.410,-30.762,0.000
1709140432.825,-26.855,-32.715,-42.969,-57.129,0.000
1709140432.829,-58.105,-27.832,-39.062,-71.289,0.000
1709140432.833,-53.223,-29.785,-41.504,-62.500,0.000
1709140432.837,-48.340,-14.648,-55.664,-69.336,0.000
1709140432.840,-55.176,4.395,-59.570,-72.754,0.000
1709140432.844,-53.223,6.836,-54.688,-73.242,0.000
1709140432.848,-43.945,0.000,-58.105,-72.754,0.000
1709140432.852,-45.898,4.395,-58.594,-74.219,0.000
1709140432.856,-49.316,15.137,-56.152,-62.988,0.000
1709140432.860,-39.551,11.719,-64.941,-54.199,0.000
1709140432.864,-30.273,8.301,-66.406,-59.082,0.000
1709140432.868,-33.691,6.836,-64.453,-69.336,0.000
1709140432.872,-36.621,10.254,-74.219,-77.148,0.000
1709140432.876,-25.391,28.809,-76.172,-64.453,0.000
1709140432.879,-24.902,46.387,-71.777,-63.477,0.000
1709140432.883,-23.926,50.293,-71.289,-66.406,0.000
1709140432.887,-18.555,46.875,-70.312,-62.012,0.000
1709140432.891,-19.531,43.457,-71.777,-59.570,0.000
1709140432.895,-10.254,43.945,-77.637,-64.453,0.000
1709140432.899,-15.625,37.109,-81.543,-65.430,0.000
1709140432.903,-30.273,32.227,-79.590,-69.824,0.000
1709140432.907,-30.762,37.109,-81.055,-79.590,0.000
1709140432.911,-33.691,33.203,-88.867,-82.031,0.000
1709140432.914,-40.039,25.391,-86.426,-82.031,0.000
1709140432.918,-51.758,27.344,-85.449,-79.102,0.000
1709140432.922,-58.594,43.457,-88.867,-87.402,0.000
1709140432.926,-60.059,23.926,-82.031,-95.215,0.000
1709140432.930,-66.895,-14.160,-76.660,-92.773,0.000
1709140432.934,-80.078,7.812,-85.938,-106.934,0.000
1709140432.938,-84.473,42.480,-90.820,-114.746,0.000
1709140432.942,-78.125,49.805,-83.008,-108.398,0.000
1709140432.946,-75.684,40.527,-83.496,-110.840,0.000
1709140432.950,-72.754,21.973,-83.984,-100.098,0.000
1709140432.954,-68.359,22.461,-83.984,-88.867,0.000
1709140432.958,-56.641,22.461,-80.078,-80.566,0.000
1709140432.962,-63.965,9.277,-76.172,-69.824,0.000
1709140432.965,-63.965,20.508,-79.590,-72.754,0.000
1709140432.969,-47.363,24.414,-72.266,-68.848,0.000
1709140432.974,-37.109,24.414,-67.871,-60.547,0.000
1709140432.978,-36.133,22.949,-71.289,-68.848,0.000
1709140432.982,-41.016,10.254,-68.359,-63.965,0.000
1709140432.985,-31.738,-1.465,-67.383,-59.082,0.000
1709140432.989,-34.180,-11.719,-66.895,-65.430,0.000
1709140432.993,-37.109,-10.742,-57.617,-45.410,0.000
1709140432.997,-43.945,4.395,-58.594,-46.875,0.000
1709140433.001,-46.875,3.418,-59.570,-62.500,0.000
1709140433.005,-35.645,-13.672,-54.688,-43.457,0.000
1709140433.009,-34.180,-25.391,-50.293,-32.715,0.000
1709140433.013,-39.551,-20.508,-44.922,-44.922,0.000
1709140433.017,-48.828,-17.578,-39.551,-43.945,0.000
1709140433.021,-41.504,-29.785,-38.574,-39.062,0.000
1709140433.025,-40.527,-45.410,-42.969,-36.133,0.000
1709140433.028,-39.062,-47.852,-50.293,-35.645,0.000
1709140433.032,-32.715,-42.480,-45.898,-25.391,0.000
1709140433.036,-42.480,-40.039,-41.504,-12.695,0.000
1709140433.040,-39.551,-44.434,-40.527,-18.555,0.000
1709140433.044,-35.645,-41.992,-39.062,-30.273,0.000
1709140433.048,-32.227,-33.691,-40.039,-32.715,0.000
1709140433.052,-34.668,-31.250,-43.945,-27.344,0.000
1709140433.056,-29.297,-25.879,-39.062,-23.926,0.000
1709140433.060,-23.438,-37.109,-39.551,-25.879,0.000
1709140433.064,-22.461,-44.922,-46.875,-28.320,0.000
1709140433.067,-38.574,-46.875,-48.340,-36.621,0.000
1709140433.071,-45.898,-37.598,-50.781,-44.922,0.000
1709140433.075,-34.180,-24.902,-53.223,-38.574,0.000
1709140433.079,-31.738,-41.992,-45.410,-34.668,0.000
1709140433.083,-38.086,-53.223,-45.898,-43.457,0.000
1709140433.087,-37.109,-45.898,-50.781,-48.340,0.000
1709140433.091,-36.621,-30.273,-41.992,-40.039,0.000
1709140433.095,-46.387,-25.391,-33.691,-27.344,0.000
1709140433.099,-41.504,-35.645,-33.691,-25.879,0.000
1709140433.103,-24.414,-31.738,-40.527,-33.203,0.000
1709140433.107,-10.254,-29.785,-41.016,-32.227,0.000
1709140433.110,-19.531,-33.203,-38.574,-35.156,0.000
1709140433.114,0.000,-39.062,0.000,-37.109,0.000
1709140433.118,0.000,-43.457,0.000,-29.785,0.000
1709140433.122,0.000,-39.551,0.000,-21.484,0.000
1709140433.126,0.000,-32.227,0.000,-29.297,0.000
1709140433.130,0.000,-36.621,0.000,-41.016,0.000
1709140433.134,0.000,-61.035,0.000,-38.574,0.000
1709140433.138,0.000,-52.246,0.000,-38.574,0.000
1709140433.142,0.000,-28.809,0.000,-37.109,0.000
1709140433.146,0.000,-22.461,0.000,-42.969,0.000
1709140433.149,0.000,-22.461,0.000,-42.969,0.000
1709140433.153,0.000,-29.785,0.000,-35.645,0.000
1709140433.157,0.000,-36.621,0.000,-46.387,0.000
1709140433.161,-39.551,-29.297,-52.246,-54.199,0.000
1709140433.165,-31.250,-31.250,-48.340,-48.828,0.000
1709140433.169,-26.855,-47.852,-44.922,-43.945,0.000
1709140433.173,-38.086,-51.270,-41.992,-50.781,0.000
1709140433.177,-46.875,-40.039,-43.945,-62.012,0.000
1709140433.181,-46.387,-34.668,-47.852,-61.035,0.000
1709140433.185,-33.203,-47.363,-44.434,-49.316,0.000
1709140433.188,-32.715,-51.270,-49.805,-43.457,0.000
1709140433.192,-40.039,-30.762,-55.176,-55.176,0.000
1709140433.196,-44.434,-25.879,-49.805,-59.570,0.000
1709140433.200,-36.133,-20.996,-43.945,-60.059,0.000
1709140433.204,-30.273,-19.043,-44.922,-45.898,0.000
1709140433.208,-29.297,-52.246,-49.805,-24.902,0.000
1709140433.212,-36.133,-49.805,-38.574,-33.203,0.000
1709140433.216,-46.387,-26.855,-33.203,-39.062,0.000
1709140433.220,-34.668,-42.969,-36.621,-31.738,0.000
1709140433.223,-29.297,-43.457,-38.086,-38.086,0.000
1709140433.227,-44.434,-24.902,-41.992,-54.199,0.000
1709140433.231,-45.410,-33.203,-44.922,-37.598,0.000
1709140433.235,-27.832,-43.457,-39.551,-18.066,0.000
1709140433.239,-21.484,-56.152,-36.621,-24.902,0.000
1709140433.243,-22.461,-48.340,-38.086,-27.832,0.000
1709140433.247,-25.391,-41.504,-33.203,-33.691,0.000
1709140433.251,-30.762,-50.781,-27.832,-37.109,0.000
1709140433.254,-33.203,-34.180,-31.738,-36.621,0.000
1709140433.258,-39.551,-30.762,-32.715,-41.016,0.000
1709140433.262,-25.879,-43.945,-31.250,-39.062,0.000
1709140433.266,-36.133,-39.062,-41.992,-40.039,0.000
1709140433.270,-62.012,-34.668,-39.062,-37.109,0.000
1709140433.274,-54.688,-46.387,-27.344,-38.574,0.000
1709140433.278,-46.875,-41.504,-30.273,-39.551,0.000
1709140433.282,-41.504,-33.203,-34.180,-44.922,0.000
1709140433.286,-35.156,-54.688,-32.715,-51.270,0.000
1709140433.290,-30.273,-58.105,-31.738,-37.109,0.000
1709140433.294,-27.344,-42.480,-34.180,-29.297,0.000
1709140433.297,-24.902,-35.645,-31.250,-29.785,0.000
1709140433.302,-22.949,-47.363,-30.273,-23.926,0.000
1709140433.306,-27.344,-57.129,-32.715,-25.879,0.000
1709140433.310,-41.504,-44.922,-30.273,-29.785,0.000
1709140433.314,-45.898,-42.480,-29.785,-36.621,0.000
1709140433.318,-33.203,-45.898,-31.738,-40.039,0.000
1709140433.321,-27.832,-36.621,-29.785,-35.156,0.000
1709140433.325,-40.039,-34.668,-26.367,-39.062,0.000
1709140433.329,-44.434,-34.668,-29.785,-47.363,0.000
1709140433.333,-41.992,-38.574,-34.180,-47.852,0.000
1709140433.337,-36.133,-48.828,-37.598,-40.039,0.000
1709140433.341,-40.039,-39.551,-39.551,-33.691,0.000
1709140433.345,-46.875,-28.809,-34.668,-45.410,0.000
1709140433.349,-42.969,-43.457,-29.297,-51.270,0.000
1709140433.353,-50.781,-48.340,-35.156,-53.711,0.000
1709140433.357,-52.246,-24.902,-34.180,-53.223,0.000
1709140433.361,-36.133,-30.273,-28.320,-41.016,0.000
1709140433.364,-38.574,-52.734,-28.320,-45.410,0.000
1709140433.368,-51.758,-44.434,-33.203,-65.430,0.000
1709140433.372,-54.688,-42.480,-36.621,-67.383,0.000
1709140433.376,-55.664,-44.434,-41.016,-65.918,0.000
1709140433.380,-48.828,-48.340,-38.574,-65.918,0.000
1709140433.384,-38.086,-72.754,-36.621,-62.012,0.000
1709140433.388,-45.898,-76.660,-43.457,-53.223,0.000
1709140433.392,-53.223,-42.480,-50.293,-55.664,0.000
1709140433.396,-54.199,-31.250,-47.363,-45.410,0.000
1709140433.400,-56.641,-32.715,-40.527,-36.133,0.000
1709140433.404,-58.594,-28.809,-44.434,-42.480,0.000
1709140433.407,-55.176,-41.504,-48.340,-35.645,0.000
1709140433.411,-50.781,-48.828,-38.574,-35.645,0.000
1709140433.415,-45.898,-52.246,-32.715,-45.410,0.000
1709140433.419,-37.598,-46.875,-41.504,-53.711,0.000
1709140433.423,-36.621,-35.156,-44.434,-53.223,0.000
1709140433.427,-45.898,-43.457,-39.551,-47.363,0.000
1709140433.431,-41.504,-46.387,-34.668,-44.434,0.000
1709140433.435,-37.109,-30.273,-38.574,-48.828,0.000
1709140433.439,-35.645,-33.691,-40.527,-46.875,0.000
1709140433.443,-40.039,-38.086,-38.574,-52.734,0.000
1709140433.447,-39.551,-26.855,-46.875,-54.688,0.000
1709140433.450,-32.227,-31.250,-51.758,-38.086,0.000
1709140433.454,-38.574,-45.898,-47.363,-34.180,0.000
1709140433.458,-46.387,-38.574,-40.039,-42.480,0.000
1709140433.462,-47.852,-32.715,-35.645,-45.410,0.000
1709140433.466,-41.992,-39.062,-37.598,-51.270,0.000
1709140433.470,-39.062,-56.152,-39.062,-41.992,0.000
1709140433.474,-34.668,-54.199,-40.527,-27.832,0.000
1709140433.478,-32.715,-33.203,-35.156,-34.668,0.000
1709140433.482,-33.203,-41.992,-35.156,-32.715,0.000
1709140433.486,-35.645,-60.059,-41.504,-31.250,0.000
1709140433.489,-39.551,-45.410,-39.062,-34.180,0.000
1709140433.493,-39.551,-34.180,-40.527,-36.621,0.000
1709140433.497,-28.320,-34.180,-38.574,-43.945,0.000
1709140433.501,-26.855,-31.738,-28.809,-39.551,0.000
1709140433.505,-32.715,-38.086,-23.926,-32.227,0.000
1709140433.509,-36.133,-44.434,-26.855,-29.297,0.000
1709140433.513,-30.762,-39.062,-35.645,-35.645,0.000
1709140433.517,-34.668,-38.086,-37.109,-30.762,0.000
1709140433.521,-43.945,-55.664,-35.156,-21.973,0.000
1709140433.525,-37.598,-64.453,-35.645,-30.762,0.000
1709140433.528,-34.180,-49.316,-29.785,-24.414,0.000
1709140433.532,-31.738,-39.551,-28.320,-18.066,0.000
1709140433.536,-37.109,-46.875,-32.715,-13.672,0.000
1709140433.540,-48.828,-41.504,-32.715,-26.855,0.000
1709140433.544,-50.293,-32.715,-33.691,-42.480,0.000
1709140433.548,-51.758,-38.574,-36.621,-43.457,0.000
1709140433.552,-52.734,-45.410,-26.367,-41.016,0.000
1709140433.556,-51.270,-47.363,-23.438,-39.062,0.000
1709140433.560,-61.523,-39.062,-33.203,-34.668,0.000
1709140433.563,-54.199,-32.227,-34.668,-31.738,0.000
1709140433.567,-36.133,-32.715,-35.156,-41.992,0.000
1709140433.571,-32.715,-32.715,-30.762,-37.109,0.000
1709140433.575,-32.227,-42.480,-32.227,-37.598,0.000
1709140433.579,-32.227,-53.223,-41.504,-43.457,0.000
1709140433.583,-28.809,-48.340,-40.039,-41.504,0.000
1709140433.587,-33.203,-50.781,-38.086,-45.898,0.000
1709140433.591,-39.551,-42.480,-35.645,-46.387,0.000
1709140433.595,-48.828,-37.109,-36.133,-40.039,0.000
1709140433.598,-57.129,-32.715,-41.992,-39.551,0.000
1709140433.602,-52.734,-25.879,-42.969,-58.594,0.000
1709140433.606,-55.664,-41.992,-45.410,-64.453,0.000
1709140433.610,-62.988,-41.504,-45.410,-56.152,0.000
1709140433.614,-53.223,-40.527,-38.086,-50.293,0.000
1709140433.618,-41.992,-49.316,-30.273,-42.969,0.000
1709140433.622,-30.762,-70.312,-26.367,-45.410,0.000
1709140433.626,-40.527,-68.848,-32.227,-47.363,0.000
1709140433.630,-52.246,-37.109,-35.645,-36.133,0.000
1709140433.633,-46.387,-33.691,-27.832,-22.461,0.000
1709140433.637,-41.504,-42.480,-24.902,-16.113,0.000
1709140433.641,-36.621,-40.039,-26.855,-10.254,0.000
1709140433.645,-38.574,-38.086,-22.461,-12.207,0.000
1709140433.649,-34.180,-39.551,-31.250,-18.066,0.000
1709140433.653,-20.996,-34.668,-36.133,-5.371,0.000
1709140433.657,-11.719,-49.316,-21.973,-4.395,0.000
1709140433.661,-5.859,-52.734,-21.973,-16.113,0.000
1709140433.665,-9.766,-38.574,-30.273,-23.438,0.000
1709140433.669,-28.320,-32.715,-35.645,-34.180,0.000
1709140433.673,-42.480,-41.992,-36.133,-38.574,0.000
1709140433.677,-35.645,-47.852,-33.691,-33.691,0.000
1709140433.680,-28.809,-41.016,-34.668,-32.227,0.000
1709140433.684,-46.875,-29.785,-40.527,-38.086,0.000
1709140433.688,-59.082,-19.531,-48.340,-58.594,0.000
1709140433.692,-59.570,-37.109,-48.340,-63.965,0.000
1709140433.696,-51.270,-43.945,-49.805,-52.246,0.000
1709140433.700,-45.898,-39.551,-51.270,-56.152,0.000
1709140433.704,-47.852,-47.363,-41.992,-57.129,0.000
1709140433.708,-49.805,-43.457,-45.410,-55.176,0.000
1709140433.712,-39.062,-38.086,-44.434,-48.828,0.000
1709140433.716,-43.945,-29.785,-43.945,-50.293,0.000
1709140433.720,-58.105,-35.645,-48.340,-63.477,0.000
1709140433.723,-49.805,-53.711,-47.852,-59.570,0.000
1709140433.727,-47.852,-56.152,-41.504,-52.734,0.000
1709140433.731,-58.594,-42.480,-41.504,-58.594,0.000
1709140433.735,-62.988,-22.949,-52.734,-74.707,0.000
1709140433.739,-56.641,-25.879,-51.270,-75.684,0.000
1709140433.743,-64.941,-46.387,-43.457,-74.707,0.000
1709140433.747,-59.082,-55.176,-39.551,-71.777,0.000
1709140433.751,-51.270,-45.410,-42.969,-59.570,0.000
1709140433.755,-55.176,-43.457,-41.504,-40.527,0.000
1709140433.759,-42.969,-42.480,-40.039,-38.086,0.000
1709140433.763,-39.062,-41.016,-46.875,-44.434,0.000
1709140433.766,-46.387,-45.898,-46.387,-45.410,0.000
1709140433.770,-38.086,-46.387,-40.039,-34.668,0.000
1709140433.774,-33.203,-60.059,-39.062,-17.090,0.000
1709140433.778,-30.273,-54.688,-34.180,-14.648,0.000
1709140433.782,-15.137,-46.387,-35.645,-27.344,0.000
1709140433.786,-20.508,-45.410,-44.922,-40.527,0.000
1709140433.790,-32.227,-42.480,-39.062,-45.898,0.000
1709140433.794,-32.715,-56.152,-29.785,-38.574,0.000
1709140433.798,-25.879,-45.898,-32.715,-37.598,0.000
1709140433.802,-19.043,-31.738,-37.109,-35.156,0.000
1709140433.806,-30.273,-30.762,-41.504,-36.621,0.000
1709140433.809,-33.203,-34.180,-54.199,-56.152,0.000
1709140433.813,-38.574,-42.480,-46.387,-52.734,0.000
1709140433.817,-39.062,-40.527,-33.691,-45.410,0.000
1709140433.821,-32.227,-62.012,-34.668,-41.992,0.000
1709140433.825,-34.668,-67.871,-31.738,-41.016,0.000
1709140433.829,-39.551,-44.434,-36.133,-49.316,0.000
1709140433.833,-34.668,-56.152,-40.527,-49.805,0.000
1709140433.837,-36.621,-65.918,-43.457,-43.945,0.000
1709140433.841,-41.016,-41.016,-47.363,-46.387,0.000
1709140433.845,-27.832,-31.250,-37.109,-45.898,0.000
1709140433.849,-24.902,-33.203,-34.180,-51.758,0.000
1709140433.852,-31.738,-24.902,-39.551,-52.246,0.000
1709140433.856,-39.551,-37.598,-31.738,-42.969,0.000
1709140433.860,-43.457,-43.945,-31.250,-44.922,0.000
1709140433.864,-35.156,-42.969,-35.156,-43.945,0.000
1709140433.868,-25.879,-49.316,-41.504,-42.969,0.000
1709140433.872,-24.414,-50.781,-39.062,-24.902,0.000
1709140433.876,-28.809,-60.059,-28.320,-24.414,0.000
1709140433.880,-35.645,-47.363,-26.855,-42.969,0.000
1709140433.884,-43.457,-19.043,-33.691,-49.316,0.000
1709140433.888,-41.992,-21.484,-40.527,-55.176,0.000
1709140433.891,-41.016,-42.480,-35.156,-47.852,0.000
1709140433.895,-42.969,-45.898,-27.832,-39.062,0.000
1709140433.899,-37.598,-24.414,-25.879,-33.203,0.000
1709140433.903,-35.156,-33.203,-28.809,-42.480,0.000
1709140433.907,-26.367,-47.363,-34.668,-48.340,0.000
1709140433.911,-32.227,-50.293,-38.086,-36.621,0.000
1709140433.915,-40.039,-50.293,-35.156,-30.762,0.000
1709140433.919,-36.621,-33.691,-35.645,-29.297,0.000
1709140433.923,-35.645,-30.762,-40.527,-39.062,0.000
1709140433.926,-30.762,-34.180,-39.551,-38.574,0.000
1709140433.930,-24.414,-40.527,-39.551,-37.109,0.000
1709140433.934,-28.320,-31.250,-42.480,-36.133,0.000
1709140433.938,-24.902,-29.297,-36.621,-26.367,0.000
1709140433.942,-21.973,-56.152,-27.344,-33.203,0.000
1709140433.946,-26.367,-53.223,-36.621,-32.715,0.000
1709140433.950,-29.297,-45.410,-41.504,-30.762,0.000
1709140433.954,-31.738,-48.340,-29.297,-33.691,0.000
1709140433.958,-27.344,-44.434,-33.203,-38.574,0.000
1709140433.961,-21.484,-47.852,-30.273,-41.016,0.000
1709140433.965,-32.227,-35.156,-29.785,-31.250,0.000
1709140433.969,-52.246,-34.180,-35.645,-41.016,0.000
1709140433.973,-50.781,-44.434,-27.832,-42.480,0.000
1709140433.977,-35.156,-55.176,-28.809,-34.180,0.000
1709140433.981,-28.320,-67.871,-26.367,-20.996,0.000
1709140433.985,-36.621,-48.340,-19.043,-18.066,0.000
1709140433.989,-51.758,-30.273,-30.762,-34.668,0.000
1709140433.993,-47.363,-35.156,-32.715,-39.062,0.000
1709140433.997,-38.574,-38.086,-29.785,-32.715,0.000
1709140434.001,-34.180,-48.340,-33.203,-35.156,0.000
1709140434.004,-31.250,-39.551,-37.598,-44.922,0.000
1709140434.008,-39.551,-40.527,-44.434,-45.898,0.000
1709140434.012,-31.738,-51.270,-42.480,-38.574,0.000
1709140434.016,-17.090,-58.105,-40.527,-24.902,0.000
1709140434.020,-28.809,-45.410,-36.133,-32.227,0.000
1709140434.024,-27.344,-36.133,-28.809,-45.410,0.000
1709140434.028,-22.949,-47.363,-29.297,-33.691,0.000
1709140434.032,-39.551,-41.992,-36.133,-34.668,0.000
1709140434.036,-41.992,-27.344,-38.574,-43.457,0.000
1709140434.039,-41.992,-38.574,-32.715,-40.527,0.000
1709140434.043,-42.969,-55.176,-39.062,-41.992,0.000
1709140434.047,-42.969,-33.691,-49.805,-47.852,0.000
1709140434.051,-43.457,-23.926,-39.551,-44.434,0.000
1709140434.055,-38.086,-42.480,-31.250,-35.156,0.000
1709140434.059,-37.109,-66.406,-40.527,-40.039,0.000
1709140434.063,-40.527,-51.758,-42.969,-50.781,0.000
1709140434.067,-42.480,-31.250,-27.344,-46.387,0.000
1709140434.071,-51.758,-46.387,-31.250,-42.480,0.000
1709140434.075,-48.340,-49.316,-33.203,-36.621,0.000
1709140434.079,-22.949,-41.992,-26.367,-34.668,0.000
1709140434.083,-37.598,-49.316,-28.320,-45.898,0.000
1709140434.086,-61.035,-50.781,-38.086,-38.086,0.000
1709140434.090,-51.758,-46.875,-38.086,-26.855,0.000
1709140434.094,-59.082,-40.039,-36.621,-43.457,0.000
1709140434.098,-52.246,-26.367,-42.480,-51.270,0.000
1709140434.102,-43.945,-30.273,-32.715,-42.969,0.000
1709140434.106,-46.875,-46.875,-26.367,-46.387,0.000
1709140434.110,-42.969,-36.621,-28.320,-50.293,0.000
1709140434.114,-39.551,-33.691,-29.297,-42.480,0.000
1709140434.118,-41.016,-43.945,-39.062,-39.551,0.000
1709140434.122,-42.480,-35.645,-47.852,-43.457,0.000
1709140434.126,-42.969,-35.156,-45.898,-46.387,0.000
1709140434.129,-39.062,-43.457,-41.016,-47.363,0.000
1709140434.133,-31.250,-46.875,-40.039,-38.086,0.000
1709140434.137,-30.762,-37.598,-42.480,-42.969,0.000
1709140434.141,-29.297,-26.855,-39.062,-57.129,0.000
1709140434.145,-42.480,-20.996,-46.875,-62.988,0.000
1709140434.149,-50.781,-28.320,-41.016,-58.105,0.000
1709140434.153,-35.645,-40.527,-34.668,-49.805,0.000
1709140434.157,-46.387,-39.062,-45.898,-51.758,0.000
1709140434.161,-62.012,-42.969,-44.922,-55.664,0.000
1709140434.165,-56.152,-45.898,-43.945,-59.082,0.000
1709140434.169,-56.641,-38.574,-47.852,-63.965,0.000
1709140434.173,-55.664,-25.391,-46.875,-66.406,0.000
1709140434.176,-47.363,-30.273,-39.551,-52.734,0.000
1709140434.180,-48.828,-52.246,-39.551,-46.387,0.000
1709140434.184,-46.875,-47.852,-41.504,-60.547,0.000
1709140434.188,-47.363,-47.852,-42.969,-62.012,0.000
1709140434.192,0.000,-65.430,-50.293,-54.688,0.000
1709140434.196,0.000,-62.012,-41.016,-48.340,0.000
1709140434.200,0.000,-53.223,-29.785,-43.457,0.000
1709140434.204,0.000,-60.059,-32.227,-41.992,0.000
1709140434.208,0.000,-53.223,-35.156,-43.457,0.000
1709140434.212,0.000,-39.551,-39.551,-40.039,0.000
1709140434.216,0.000,-28.320,-38.574,-35.156,0.000
1709140434.220,0.000,-27.832,-36.133,-36.133,0.000
1709140434.223,0.000,-44.922,-29.785,-30.762,0.000
1709140434.227,0.000,-47.363,-25.879,-24.902,0.000
1709140434.231,0.000,-31.738,-30.762,-29.785,0.000
1709140434.235,0.000,-27.344,-29.297,-34.668,0.000
1709140434.239,-34.180,-51.758,-25.391,-30.273,0.000
1709140434.243,-37.598,-60.059,-29.785,-34.668,0.000
1709140434.247,-33.691,-34.668,-19.531,-41.016,0.000
1709140434.251,-40.527,-49.805,-11.719,-39.551,0.000
1709140434.255,-41.504,-78.125,-24.414,-30.762,0.000
1709140434.259,-35.645,-39.062,-31.738,-22.461,0.000
1709140434.262,-42.480,-31.250,-31.250,-32.227,0.000
1709140434.266,-47.852,-52.246,-42.969,-36.621,0.000
1709140434.270,-47.363,-43.945,-41.504,-44.434,0.000
1709140434.274,-53.711,-40.527,-32.715,-49.316,0.000
1709140434.278,-59.082,-40.039,-35.645,-43.457,0.000
1709140434.282,-53.711,-33.691,-32.227,-42.969,0.000
1709140434.286,-48.828,-43.457,-25.879,-45.898,0.000
1709140434.290,-45.898,-47.852,-28.809,-46.387,0.000
1709140434.294,-37.109,-45.410,-33.691,-39.062,0.000
1709140434.297,-36.133,-52.246,-41.504,-34.180,0.000
1709140434.301,-42.969,-49.316,-41.016,-30.762,0.000
1709140434.305,-38.086,-58.594,-33.203,-41.016,0.000
1709140434.309,-33.691,-54.688,-28.809,-49.805,0.000
1709140434.313,-43.945,-32.227,-31.738,-44.434,0.000
1709140434.317,-59.082,-33.691,-39.062,-44.434,0.000
1709140434.321,-56.152,-44.922,-41.016,-45.898,0.000
1709140434.325,-56.641,-42.480,-44.922,-43.945,0.000
1709140434.329,-41.504,-35.156,-46.875,-47.852,0.000
1709140434.332,-36.133,-35.645,-54.199,-61.035,0.000
1709140434.336,-51.758,-36.133,-49.805,-61.035,0.000
1709140434.340,-40.039,-39.551,-47.363,-59.082,0.000
1709140434.344,-35.645,-44.922,-44.922,-62.012,0.000
1709140434.348,-48.340,-43.945,-32.227,-58.105,0.000
1709140434.352,-46.387,-30.762,-33.203,-59.570,0.000
1709140434.356,-43.945,-27.344,-37.598,-50.293,0.000
1709140434.360,-41.992,-33.691,-46.387,-42.480,0.000
1709140434.364,-38.086,-41.016,-47.363,-50.293,0.000
1709140434.368,-50.293,-38.086,-39.062,-57.129,0.000
1709140434.372,-50.781,-20.996,-33.691,-49.316,0.000
1709140434.375,-46.875,-34.668,-39.551,-40.527,0.000
1709140434.379,-46.387,-53.711,-44.922,-53.223,0.000
1709140434.383,-50.781,-48.828,-40.527,-55.664,0.000
1709140434.387,-53.711,-57.129,-34.180,-49.316,0.000
1709140434.391,-69.824,-48.828,-36.621,-52.734,0.000
1709140434.395,-65.918,-31.738,-35.645,-39.551,0.000
1709140434.399,-52.734,-32.715,-31.738,-33.691,0.000
1709140434.403,-59.570,-37.598,-33.203,-39.062,0.000
1709140434.406,-60.547,-41.992,-35.645,-44.434,0.000
1709140434.410,-52.246,-53.711,-43.945,-38.086,0.000
1709140434.414,-46.875,-43.457,-47.852,-28.320,0.000
1709140434.418,-45.410,-33.203,-41.992,-29.297,0.000
1709140434.422,-40.039,-40.039,-43.457,-39.551,0.000
1709140434.426,-36.133,-37.598,-38.086,-41.504,0.000
1709140434.430,-50.293,-39.062,-40.527,-35.645,0.000
1709140434.434,-53.711,-46.875,-51.758,-34.180,0.000
1709140434.438,-52.246,-43.457,-44.434,-42.969,0.000
1709140434.442,-54.688,-33.691,-42.480,-57.617,0.000
1709140434.446,-41.016,-34.668,-43.945,-52.734,0.000
1709140434.450,-37.109,-41.016,-48.340,-40.527,0.000
1709140434.454,-57.129,-51.758,-45.898,-50.293,0.000
1709140434.457,-66.895,-62.500,-43.457,-69.824,0.000
1709140434.461,-56.152,-58.594,-50.781,-62.988,0.000
1709140434.465,-54.199,-59.570,-51.270,-48.340,0.000
1709140434.469,-60.547,-53.223,-50.293,-52.734,0.000
1709140434.473,-65.430,-28.809,-41.992,-58.105,0.000
1709140434.477,-62.500,-24.902,-27.344,-64.941,0.000
1709140434.481,-57.617,-33.691,-30.762,-71.777,0.000
1709140434.485,-46.875,-41.504,-30.762,-59.570,0.000
1709140434.489,-41.016,-49.805,-25.879,-53.223,0.000
1709140434.493,-48.340,-45.898,-32.715,-57.129,0.000
1709140434.497,-37.598,-43.945,-40.527,-52.246,0.000
1709140434.500,-35.645,-42.969,-36.133,-50.781,0.000
1709140434.504,-47.363,-46.875,-33.691,-59.082,0.000
1709140434.508,-37.598,-70.312,-38.086,-49.805,0.000
1709140434.512,-30.762,-56.641,-41.504,-53.223,0.000
1709140434.516,-33.203,-41.992,-41.016,-53.711,0.000
1709140434.520,-26.855,-36.621,-32.715,-35.156,0.000
1709140434.524,-32.715,-27.832,-29.785,-33.691,0.000
1709140434.528,-38.086,-25.391,-37.109,-40.039,0.000
1709140434.532,-29.297,-35.645,-46.387,-45.898,0.000
1709140434.536,-30.273,-37.598,-44.922,-41.016,0.000
1709140434.540,-30.762,-32.227,-36.133,-20.996,0.000
1709140434.543,-28.809,-45.410,-28.809,-26.855,0.000
1709140434.547,-32.227,-34.180,-32.227,-37.598,0.000
1709140434.551,-38.086,-38.574,-31.738,-21.973,0.000
1709140434.555,-34.180,-48.828,-25.391,-14.648,0.000
1709140434.559,-31.250,-41.504,-25.391,-23.438,0.000
1709140434.563,-34.180,-44.922,-28.809,-27.832,0.000
1709140434.567,-27.344,-35.645,-35.156,-33.203,0.000
1709140434.571,-39.062,-22.949,-41.016,-30.762,0.000
1709140434.575,-45.898,-21.484,-37.109,-21.973,0.000
1709140434.579,-35.156,-42.969,-29.785,-22.461,0.000
1709140434.583,-35.156,-43.945,-34.180,-24.414,0.000
1709140434.586,-30.273,-28.809,-42.480,-17.090,0.000
1709140434.590,-33.691,-34.668,-39.551,-18.555,0.000
1709140434.594,-32.715,-42.969,-34.180,-17.090,0.000
1709140434.598,-30.273,-39.551,-30.273,-16.602,0.000
1709140434.602,-31.250,-32.715,-29.297,-27.344,0.000
1709140434.606,-29.785,-41.992,-34.180,-36.133,0.000
1709140434.610,-31.250,-44.434,-34.180,-31.738,0.000
1709140434.614,-21.973,-49.316,-30.762,-25.391,0.000
1709140434.618,-19.531,-59.570,-31.250,-28.320,0.000
1709140434.622,-42.969,-52.734,-36.133,-32.715,0.000
1709140434.625,-48.340,-42.969,-37.109,-39.062,0.000
1709140434.629,-41.992,-41.992,-38.086,-34.180,0.000
1709140434.633,-36.621,-35.645,-38.574,-20.508,0.000
1709140434.637,-39.551,-44.434,-35.156,-15.625,0.000
1709140434.641,-45.410,-49.805,-38.574,-22.461,0.000
1709140434.645,-44.434,-35.645,-37.109,-32.227,0.000
1709140434.649,-39.551,-42.969,-25.879,-28.809,0.000
1709140434.653,-36.133,-50.293,-23.926,-20.020,0.000
1709140434.657,-31.250,-35.156,-33.691,-16.602,0.000
1709140434.661,-25.391,-38.086,-39.551,-16.113,0.000
1709140434.664,-20.996,-45.410,-33.203,-26.367,0.000
1709140434.668,-24.902,-39.062,-31.738,-28.809,0.000
1709140434.672,-13.672,-43.945,-30.273,-18.066,0.000
1709140434.676,1.465,-48.828,-25.391,-12.695,0.000
1709140434.680,-5.371,-40.039,-32.715,-15.625,0.000
1709140434.684,-14.648,-47.363,-35.645,-23.438,0.000
1709140434.688,-16.113,-39.062,-40.039,-24.414,0.000
1709140434.692,-19.531,-28.809,-35.156,-25.879,0.000
1709140434.696,-24.414,-36.133,-26.855,-20.996,0.000
1709140434.700,-30.273,-36.133,-27.344,-20.020,0.000
1709140434.704,-38.574,-44.434,-34.668,-27.344,0.000
1709140434.707,-38.574,-62.500,-37.109,-17.090,0.000
1709140434.711,-38.086,-59.082,-23.926,-16.602,0.000
1709140434.715,-37.598,-43.457,-20.996,-18.555,0.000
1709140434.719,-35.156,-38.086,-28.320,-11.230,0.000
1709140434.723,-33.691,-43.945,-36.133,-18.555,0.000
1709140434.727,-48.340,-53.223,-37.109,-37.598,0.000
1709140434.731,-46.387,-56.641,-26.855,-28.320,0.000
1709140434.735,-28.809,-35.645,-28.320,-17.090,0.000
1709140434.739,-29.785,-29.297,-36.133,-14.160,0.000
1709140434.742,-30.762,-37.598,-36.621,-13.184,0.000
1709140434.746,-30.273,-35.645,-36.621,-30.273,0.000
1709140434.750,-35.645,-42.480,-41.504,-41.016,0.000
1709140434.754,-36.621,-48.340,-39.551,-33.203,0.000
1709140434.758,-25.391,-56.641,-42.480,-23.438,0.000
1709140434.762,-26.855,-60.059,-45.898,-30.273,0.000
1709140434.766,-30.273,-42.480,-44.922,-36.621,0.000
1709140434.770,-24.414,-29.297,-41.504,-43.457,0.000
1709140434.773,-26.367,-25.391,-40.039,-40.527,0.000
1709140434.777,-26.367,-31.738,-36.133,-28.809,0.000
1709140434.781,-28.809,-36.133,-33.691,-50.293,0.000
1709140434.785,-20.996,-30.273,-33.691,-61.035,0.000
1709140434.789,-17.578,-40.039,-32.715,-43.457,0.000
1709140434.793,-20.508,-50.781,-37.598,-28.320,0.000
1709140434.797,-16.602,-48.828,-44.434,-32.715,0.000
1709140434.801,-31.738,-44.434,-38.086,-37.598,0.000
1709140434.805,-38.086,-38.086,-32.227,-39.062,0.000
1709140434.809,-25.879,-47.852,-37.109,-32.715,0.000
1709140434.813,-32.227,-58.105,-38.086,-34.668,0.000
1709140434.817,-37.109,-35.645,-41.016,-27.832,0.000
1709140434.821,-30.273,-21.973,-46.387,-20.508,0.000
1709140434.824,-27.832,-27.832,-40.039,-27.832,0.000
1709140434.828,-24.902,-38.086,-34.668,-30.273,0.000
1709140434.832,-24.902,-48.828,-31.738,-40.039,0.000
1709140434.836,-29.297,-52.246,-34.180,-27.832,0.000
1709140434.840,-25.879,-40.527,-43.457,-11.719,0.000
1709140434.844,-31.738,-36.621,-44.922,-24.414,0.000
1709140434.848,-27.832,-51.758,-41.504,-29.297,0.000
1709140434.852,-6.836,-43.945,-35.645,-22.461,0.000
1709140434.856,-19.531,-39.062,-33.203,-25.879,0.000
1709140434.860,-40.527,-54.688,-32.227,-36.621,0.000
1709140434.864,-28.809,-41.992,-38.086,-39.551,0.000
1709140434.867,-20.996,-20.020,-48.828,-35.645,0.000
1709140434.871,-24.414,-29.297,-37.598,-38.574,0.000
1709140434.875,-28.809,-37.109,-26.855,-47.363,0.000
1709140434.879,-20.508,-25.879,-33.203,-43.457,0.000
1709140434.883,-23.926,-32.715,-45.898,-41.504,0.000
1709140434.887,-35.645,-51.758,-44.922,-41.504,0.000
1709140434.891,-37.598,-58.105,-32.715,-41.504,0.000
1709140434.895,-45.898,-40.527,-34.668,-54.199,0.000
1709140434.899,-36.133,-35.645,-32.715,-54.688,0.000
1709140434.903,-23.438,-35.156,-33.203,-55.664,0.000
1709140434.907,-36.621,-36.621,-38.086,-46.875,0.000
1709140434.911,-53.711,-47.363,-35.156,-53.223,0.000
1709140434.914,-62.012,-31.250,-39.551,-65.430,0.000
1709140434.918,-51.270,-24.414,-42.480,-52.734,0.000
1709140434.922,-29.785,-29.785,-38.574,-55.664,0.000
1709140434.926,-29.297,-28.809,-41.016,-43.945,0.000
1709140434.930,-41.016,-49.316,-43.457,-32.715,0.000
1709140434.934,-48.828,-56.641,-40.039,-55.176,0.000
1709140434.938,-43.945,-29.297,-37.109,-55.176,0.000
1709140434.942,-45.898,-28.809,-34.668,-49.805,0.000
1709140434.946,-47.852,-28.809,-35.645,-55.664,0.000
1709140434.950,-40.527,-39.551,-40.527,-49.316,0.000
1709140434.953,-50.293,-57.129,-39.551,-40.039,0.000
1709140434.957,-59.082,-40.527,-35.645,-44.922,0.000
1709140434.961,-58.105,-18.555,-31.250,-43.457,0.000
1709140434.965,-45.410,-19.043,-30.762,-43.945,0.000
1709140434.969,-35.156,-50.781,-28.320,-47.363,0.000
1709140434.973,-49.805,-54.199,-41.016,-33.691,0.000
1709140434.977,-64.941,-37.109,-41.016,-31.738,0.000
1709140434.981,-62.500,-44.434,-27.832,-41.992,0.000
1709140434.985,-59.570,-45.410,-42.480,-50.293,0.000
1709140434.989,-59.570,-42.969,-60.547,-61.523,0.000
1709140434.993,-54.688,-51.270,-50.781,-52.246,0.000
1709140434.996,-59.570,-53.711,-40.527,-42.480,0.000
1709140435.000,-63.965,-53.711,-38.574,-53.223,0.000
1709140435.004,-68.848,-41.504,-36.133,-63.477,0.000
1709140435.008,-67.383,-32.715,-35.156,-56.641,0.000
1709140435.012,-56.152,-47.852,-33.203,-51.758,0.000
1709140435.016,-57.617,-66.406,-29.785,-53.223,0.000
1709140435.020,-65.918,-62.988,-27.344,-52.246,0.000
1709140435.024,-66.406,-46.875,-31.250,-60.547,0.000
1709140435.028,-64.453,-43.945,-33.691,-62.012,0.000
1709140435.032,-57.129,-42.480,-36.621,-55.664,0.000
1709140435.035,-47.363,-39.551,-40.039,-50.293,0.000
1709140435.039,-53.711,-31.250,-42.480,-60.059,0.000
1709140435.043,-56.641,-41.016,-41.504,-56.152,0.000
1709140435.047,-51.270,-46.387,-35.645,-47.363,0.000
1709140435.051,-51.270,-40.039,-33.203,-44.922,0.000
1709140435.055,-45.410,-43.945,-29.785,-39.062,0.000
1709140435.059,-41.504,-35.645,-32.715,-40.527,0.000
1709140435.063,-41.992,-30.762,-39.062,-37.598,0.000
1709140435.067,-31.738,-38.086,-34.180,-42.969,0.000
1709140435.071,-32.715,-60.059,-26.855,-55.176,0.000
1709140435.074,-47.363,-45.410,-29.297,-54.688,0.000
1709140435.078,-53.223,-28.320,-32.715,-45.898,0.000
1709140435.082,-41.504,-29.785,-39.062,-38.574,0.000
1709140435.086,-50.293,-28.320,-43.457,-45.898,0.000
1709140435.090,-59.082,-46.387,-49.805,-56.152,0.000
1709140435.094,-53.711,-57.129,-51.270,-49.805,0.000
1709140435.098,-52.734,-36.621,-40.527,-50.293,0.000
1709140435.102,-70.801,-24.902,-37.598,-73.730,0.000
1709140435.106,-91.797,-39.551,-39.551,-71.289,0.000
1709140435.109,-79.590,-53.711,-33.691,-54.688,0.000
1709140435.113,-76.172,-54.199,-30.762,-53.223,0.000
1709140435.117,-88.867,-44.434,-34.668,-51.270,0.000
1709140435.121,-78.125,-37.109,-37.598,-53.711,0.000
1709140435.125,-72.266,-34.180,-37.598,-61.035,0.000
1709140435.129,-73.730,-35.645,-45.898,-61.523,0.000
1709140435.133,-67.871,-38.086,-48.828,-48.340,0.000
1709140435.137,-62.988,-38.574,-44.434,-42.480,0.000
1709140435.141,-53.711,-49.316,-43.457,-52.246,0.000
1709140435.144,-42.969,-42.480,-44.922,-57.617,0.000
1709140435.148,-59.082,-47.852,-54.199,-62.500,0.000
1709140435.152,-55.176,-47.852,-51.758,-41.016,0.000
1709140435.156,-42.969,-37.109,-42.969,-36.621,0.000
1709140435.160,-41.992,-30.273,-40.527,-52.246,0.000
1709140435.164,-40.527,-26.855,-41.504,-52.246,0.000
1709140435.168,-47.363,-26.855,-41.992,-50.781,0.000
1709140435.172,-44.434,-27.832,-39.062,-59.570,0.000
1709140435.176,-36.621,-41.992,-37.109,-45.898,0.000
1709140435.180,-34.180,-38.086,-38.086,-33.691,0.000
1709140435.184,-24.414,-50.781,-41.992,-41.504,0.000
1709140435.188,-31.738,-62.988,-41.992,-56.152,0.000
1709140435.191,-41.504,-43.457,-39.062,-61.035,0.000
1709140435.195,-43.945,-34.668,-29.785,-49.805,0.000
1709140435.199,-56.641,-42.480,-30.273,-44.922,0.000
1709140435.203,-59.570,-41.992,-36.621,-51.758,0.000
1709140435.207,-66.895,-28.320,-38.574,-63.965,0.000
1709140435.211,-73.242,-23.926,-37.598,-49.316,0.000
1709140435.215,-67.871,-24.902,-39.551,-41.992,0.000
1709140435.219,-48.828,-38.574,-36.133,-40.039,0.000
1709140435.223,0.000,-46.875,-40.527,-35.156,0.000
1709140435.227,0.000,-56.641,-49.316,-27.832,0.000
1709140435.231,0.000,-68.848,-42.969,-16.602,0.000
1709140435.235,0.000,-43.945,-38.086,-29.297,0.000
1709140435.238,0.000,-21.973,-24.902,-37.598,0.000
1709140435.242,0.000,-37.598,-16.602,-40.527,0.000
1709140435.246,0.000,-41.504,-26.367,-38.574,0.000
1709140435.250,0.000,-43.945,-32.227,-34.668,0.000
1709140435.254,0.000,-48.340,-34.668,-40.527,0.000
1709140435.258,0.000,-45.898,-34.668,-29.297,0.000
1709140435.262,0.000,-43.457,-32.715,-33.691,0.000
1709140435.266,0.000,-38.086,-33.203,-38.086,0.000
1709140435.270,-46.875,-38.574,-33.203,-42.480,0.000
1709140435.274,-41.016,-49.316,-33.691,-52.734,0.000
1709140435.278,-24.902,-61.035,-35.156,-41.504,0.000
1709140435.281,-28.809,-42.969,-36.621,-30.273,0.000
1709140435.285,-47.852,-43.945,-38.574,-32.715,0.000
1709140435.289,-44.922,-56.152,-38.574,-37.598,0.000
1709140435.293,-52.734,-41.504,-45.898,-50.293,0.000
1709140435.297,-53.223,-38.086,-44.434,-54.688,0.000
1709140435.301,-44.434,-33.691,-39.551,-49.316,0.000
1709140435.305,-40.039,-28.320,-42.480,-53.223,0.000
1709140435.309,-47.363,-38.574,-38.574,-56.152,0.000
1709140435.313,-59.082,-45.410,-36.133,-51.758,0.000
1709140435.317,-61.035,-33.203,-41.992,-64.941,0.000
1709140435.321,-41.992,-33.691,-46.875,-64.453,0.000
1709140435.324,-47.363,-51.270,-41.016,-54.199,0.000
1709140435.328,-67.383,-55.664,-39.551,-55.176,0.000
1709140435.332,-46.387,-41.504,-52.734,-49.805,0.000
1709140435.336,-37.109,-30.762,-49.805,-36.133,0.000
1709140435.340,-31.250,-34.180,-35.645,-36.621,0.000
1709140435.344,-40.527,-44.434,-31.738,-52.734,0.000
1709140435.348,-50.781,-42.480,-31.738,-60.547,0.000
1709140435.352,-49.805,-29.297,-41.016,-51.758,0.000
1709140435.356,-37.598,-40.039,-46.875,-50.781,0.000
1709140435.360,-24.414,-53.223,-49.805,-51.270,0.000
1709140435.363,-23.926,-49.316,-48.828,-41.992,0.000
1709140435.367,-37.598,-38.574,-36.621,-38.574,0.000
1709140435.371,-56.641,-36.133,-32.715,-44.922,0.000
1709140435.375,-47.363,-33.203,-39.551,-42.969,0.000
1709140435.379,-34.180,-27.832,-39.062,-23.926,0.000
1709140435.383,-41.016,-31.250,-33.203,-25.879,0.000
1709140435.387,-37.598,-29.297,-42.480,-44.922,0.000
1709140435.391,-40.039,-29.785,-45.898,-39.062,0.000
1709140435.395,-42.480,-40.527,-37.598,-30.273,0.000
1709140435.399,-38.086,-47.363,-29.297,-32.715,0.000
1709140435.403,-41.504,-51.758,-28.320,-29.785,0.000
1709140435.406,-36.621,-43.457,-44.434,-31.738,0.000
1709140435.410,-50.781,-27.344,-47.852,-42.480,0.000
1709140435.414,-56.641,-31.250,-31.738,-56.152,0.000
1709140435.418,-50.293,-43.457,-35.645,-54.688,0.000
1709140435.422,-55.664,-50.293,-41.504,-56.641,0.000
1709140435.426,-33.691,-42.969,-30.273,-59.082,0.000
1709140435.430,-28.320,-46.387,-30.762,-51.758,0.000
1709140435.434,-36.621,-46.875,-36.621,-41.016,0.000
1709140435.438,-30.762,-43.945,-31.738,-37.598,0.000
1709140435.442,-38.086,-35.645,-34.668,-41.016,0.000
1709140435.445,-48.340,-27.344,-37.598,-53.223,0.000
1709140435.449,-51.758,-33.203,-34.668,-52.734,0.000
1709140435.453,-49.316,-39.062,-41.504,-41.504,0.000
1709140435.457,-38.086,-40.527,-38.574,-48.828,0.000
1709140435.461,-36.621,-46.387,-30.273,-48.828,0.000
1709140435.465,-39.551,-47.852,-29.785,-47.363,0.000
1709140435.469,-40.039,-48.340,-31.738,-42.480,0.000
1709140435.473,-39.551,-54.688,-33.691,-39.551,0.000
1709140435.477,-30.762,-47.852,-36.133,-24.414,0.000
1709140435.480,-34.180,-27.344,-38.574,-27.344,0.000
1709140435.484,-44.434,-17.090,-40.039,-40.527,0.000
1709140435.488,-36.621,-20.996,-39.062,-38.574,0.000
1709140435.492,-42.480,-33.203,-38.086,-37.109,0.000
1709140435.496,-42.969,-41.992,-36.133,-40.039,0.000
1709140435.500,-22.461,-20.996,-33.203,-33.203,0.000
1709140435.504,-38.086,-12.207,-34.668,-36.621,0.000
1709140435.508,-47.363,-21.484,-30.762,-49.316,0.000
1709140435.512,-30.762,-25.879,-28.809,-44.434,0.000
1709140435.515,-43.945,-24.414,-50.293,-41.504,0.000
1709140435.519,-66.406,-20.996,-54.199,-46.875,0.000
1709140435.523,-65.918,-23.438,-36.133,-48.340,0.000
1709140435.527,-62.500,-22.949,-33.203,-53.223,0.000
1709140435.531,-51.758,-22.949,-31.738,-49.805,0.000
1709140435.535,-54.688,-33.691,-33.203,-56.152,0.000
1709140435.539,-71.777,-33.691,-40.527,-68.848,0.000
1709140435.543,-62.988,-37.109,-43.457,-46.387,0.000
1709140435.547,-64.941,-38.086,-48.340,-41.016,0.000
1709140435.550,-66.895,-38.086,-54.199,-58.594,0.000
1709140435.554,-62.988,-44.922,-44.434,-62.012,0.000
1709140435.558,-68.359,-21.973,-44.922,-73.730,0.000
1709140435.562,-59.570,-12.207,-46.875,-69.336,0.000
1709140435.566,-35.156,-25.391,-44.434,-59.082,0.000
1709140435.570,-44.922,-34.180,-43.457,-63.965,0.000
1709140435.574,-64.453,-48.340,-41.992,-57.617,0.000
1709140435.578,-42.480,-40.039,-41.016,-40.039,0.000
1709140435.582,-37.109,-23.926,-38.574,-47.363,0.000
1709140435.586,-43.945,-28.809,-41.504,-46.387,0.000
1709140435.589,-41.504,-31.738,-45.410,-46.875,0.000
1709140435.593,-36.621,-25.879,-39.551,-61.035,0.000
1709140435.598,-37.598,-29.785,-32.227,-47.363,0.000
1709140435.602,-35.156,-41.992,-34.180,-50.293,0.000
1709140435.606,-40.527,-57.129,-38.574,-44.922,0.000
1709140435.609,-42.480,-43.945,-43.945,-32.715,0.000
1709140435.613,-39.062,-40.039,-50.293,-39.551,0.000
1709140435.617,-58.105,-40.527,-51.758,-42.969,0.000
1709140435.621,-48.828,-13.184,-55.664,-52.246,0.000
1709140435.625,-40.527,-13.672,-51.758,-54.688,0.000
1709140435.629,-54.199,-37.109,-36.621,-49.805,0.000
1709140435.633,-60.547,-30.762,-33.691,-56.641,0.000
1709140435.637,-47.852,-19.531,-36.133,-47.363,0.000
1709140435.641,-35.645,-33.691,-36.133,-37.598,0.000
1709140435.645,-43.457,-46.387,-39.551,-41.992,0.000
1709140435.649,-40.527,-42.480,-39.062,-42.969,0.000
1709140435.653,-50.781,-30.273,-37.109,-52.246,0.000
1709140435.656,-63.965,-37.598,-36.133,-72.266,0.000
1709140435.660,-39.062,-46.875,-41.016,-45.898,0.000
1709140435.664,-42.969,-33.203,-49.805,-36.621,0.000
1709140435.668,-29.785,-28.320,-44.922,-40.527,0.000
1709140435.672,-10.254,-37.598,-28.809,-20.508,0.000
1709140435.676,-27.832,-38.574,-26.367,-25.879,0.000
1709140435.680,-26.367,-29.297,-29.297,-33.691,0.000
1709140435.684,-33.691,-19.531,-35.645,-45.410,0.000
1709140435.688,-49.805,-14.648,-39.551,-44.922,0.000
1709140435.692,-32.227,-34.668,-34.180,-16.113,0.000
1709140435.695,-30.762,-50.293,-31.250,-13.184,0.000
1709140435.699,-35.156,-20.996,-37.109,-21.484,0.000
1709140435.703,-36.133,-21.973,-48.340,-22.949,0.000
1709140435.707,-32.227,-39.551,-41.504,-25.391,0.000
1709140435.711,-15.137,-28.320,-35.645,-20.508,0.000
1709140435.715,-21.484,-25.391,-46.387,-33.203,0.000
1709140435.719,-41.992,-43.945,-44.434,-47.363,0.000
1709140435.723,-28.320,-42.480,-40.039,-34.180,0.000
1709140435.727,-26.855,-15.137,-48.340,-29.297,0.000
1709140435.731,-35.156,-14.160,-47.363,-27.832,0.000
1709140435.735,-23.438,-32.227,-41.992,-21.484,0.000
1709140435.738,-23.926,-38.086,-38.574,-34.668,0.000
1709140435.742,-53.223,-40.039,-32.227,-41.504,0.000
1709140435.746,-48.828,-65.918,-30.762,-36.133,0.000
1709140435.750,-43.457,-46.875,-36.133,-39.551,0.000
1709140435.754,-37.109,-17.090,-36.621,-33.203,0.000
1709140435.758,-37.598,-19.043,-41.016,-20.996,0.000
1709140435.762,-43.457,-26.855,-45.410,-26.855,0.000
1709140435.766,-29.297,-36.133,-37.109,-25.391,0.000
1709140435.770,-26.367,-44.434,-28.320,-27.344,0.000
1709140435.774,-38.086,-38.574,-32.715,-39.062,0.000
1709140435.777,-50.293,-36.133,-37.598,-45.898,0.000
1709140435.781,-41.016,-47.363,-36.133,-44.434,0.000
1709140435.785,-35.645,-40.039,-34.668,-35.645,0.000
1709140435.789,-32.715,-37.598,-31.738,-34.180,0.000
1709140435.793,-38.574,-41.992,-33.691,-40.527,0.000
1709140435.797,-53.223,-51.758,-36.621,-44.922,0.000
1709140435.801,-47.363,-40.527,-45.898,-38.086,0.000
1709140435.805,-41.016,-19.043,-41.016,-39.062,0.000
1709140435.809,-32.227,-43.457,-27.832,-41.016,0.000
1709140435.813,-35.156,-43.945,-24.902,-35.156,0.000
1709140435.816,-45.410,-27.832,-25.391,-37.598,0.000
1709140435.820,-39.062,-36.133,-28.809,-36.621,0.000
1709140435.824,-34.668,-60.547,-25.879,-28.809,0.000
1709140435.828,-21.973,-78.613,-18.066,-24.414,0.000
1709140435.832,-20.020,-48.340,-27.832,-30.762,0.000
1709140435.836,-43.457,-24.414,-39.551,-41.016,0.000
1709140435.840,-43.945,-29.297,-37.109,-49.316,0.000
1709140435.844,-31.738,-32.715,-40.527,-46.875,0.000
1709140435.848,-32.715,-40.527,-33.691,-32.227,0.000
1709140435.852,-27.344,-47.363,-25.391,-26.855,0.000
1709140435.855,-20.020,-50.293,-37.598,-20.508,0.000
1709140435.859,-19.043,-38.086,-40.527,-32.715,0.000
1709140435.863,-24.414,-24.414,-38.086,-64.453,0.000
1709140435.867,-40.527,-38.086,-33.691,-57.129,0.000
1709140435.871,-39.062,-44.922,-28.320,-36.133,0.000
1709140435.875,-29.297,-45.410,-32.715,-34.668,0.000
1709140435.879,-17.578,-46.387,-35.156,-40.039,0.000
1709140435.883,-14.160,-43.945,-32.715,-38.574,0.000
1709140435.886,-33.203,-61.035,-40.039,-44.922,0.000
1709140435.890,-29.297,-59.570,-59.570,-44.922,0.000
1709140435.894,-19.043,-37.109,-52.246,-32.227,0.000
1709140435.898,-19.531,-30.762,-30.762,-34.180,0.000
1709140435.902,-40.039,-36.621,-30.273,-46.387,0.000
1709140435.906,-43.457,-44.434,-24.902,-39.551,0.000
1709140435.910,-27.344,-48.828,-20.020,-32.715,0.000
1709140435.914,-32.715,-42.480,-25.879,-29.297,0.000
1709140435.918,-39.062,-38.086,-28.320,-33.203,0.000
1709140435.922,-44.434,-45.410,-23.926,-38.086,0.000
1709140435.925,-41.504,-55.664,-27.832,-34.180,0.000
1709140435.929,-39.062,-63.477,-34.668,-34.668,0.000
1709140435.933,-44.434,-55.664,-32.715,-22.461,0.000
1709140435.937,-35.645,-35.645,-31.250,-17.090,0.000
1709140435.941,-23.926,-36.133,-31.250,-17.578,0.000
1709140435.945,-17.578,-58.594,-35.645,-23.438,0.000
1709140435.949,-11.230,-63.965,-36.621,-20.996,0.000
1709140435.953,-19.531,-50.781,-34.668,-12.695,0.000
1709140435.957,-15.137,-42.480,-36.621,-20.508,0.000
1709140435.960,-18.066,-28.809,-36.621,-26.367,0.000
1709140435.964,-27.344,-18.555,-35.645,-33.691,0.000
1709140435.968,-26.855,-20.996,-35.156,-42.480,0.000
1709140435.972,-27.832,-27.832,-27.832,-45.898,0.000
1709140435.976,-34.180,-39.551,-36.133,-41.504,0.000
1709140435.980,-30.273,-58.105,-43.945,-48.340,0.000
1709140435.984,-27.832,-47.363,-43.945,-44.922,0.000
1709140435.988,-40.039,-38.086,-41.504,-39.062,0.000
1709140435.992,-46.875,-52.246,-38.574,-37.598,0.000
1709140435.996,-30.762,-52.246,-45.410,-41.016,0.000
1709140436.000,-24.902,-49.316,-37.109,-50.293,0.000
1709140436.004,-48.340,-69.336,-35.156,-47.852,0.000
1709140436.007,-57.617,-65.430,-44.434,-43.457,0.000
1709140436.011,-52.246,-30.273,-46.875,-55.664,0.000
1709140436.015,-39.551,-18.066,-48.828,-51.270,0.000
1709140436.019,-33.691,-28.809,-41.992,-30.762,0.000
1709140436.023,-42.480,-37.598,-40.527,-39.062,0.000
1709140436.027,-45.898,-40.039,-41.504,-40.527,0.000
1709140436.031,-35.645,-41.504,-41.504,-30.762,0.000
1709140436.035,-40.039,-38.086,-47.363,-34.180,0.000
1709140436.039,-37.109,-38.574,-44.922,-34.180,0.000
1709140436.043,-30.273,-45.898,-43.457,-31.738,0.000
1709140436.047,-33.203,-41.992,-37.598,-30.762,0.000
1709140436.050,-42.969,-53.711,-36.621,-33.203,0.000
1709140436.054,-56.641,-55.176,-37.109,-31.250,0.000
1709140436.058,-47.852,-43.945,-30.762,-42.969,0.000
1709140436.062,-41.016,-34.668,-35.645,-55.664,0.000
1709140436.066,-42.480,-20.020,-39.551,-55.176,0.000
1709140436.070,-51.270,-20.996,-45.410,-57.617,0.000
1709140436.074,-44.922,-34.668,-48.828,-57.129,0.000
1709140436.078,-43.945,-53.711,-41.016,-49.316,0.000
1709140436.082,-48.828,-55.664,-35.156,-61.523,0.000
1709140436.086,-58.105,-45.898,-44.434,-71.777,0.000
1709140436.090,-81.543,-42.480,-54.688,-78.125,0.000
1709140436.093,-63.477,-38.574,-49.805,-71.289,0.000
1709140436.097,-55.664,-52.246,-44.434,-71.289,0.000
1709140436.101,-60.059,-52.246,-42.480,-58.105,0.000
1709140436.105,-51.270,-43.945,-32.227,-55.176,0.000
1709140436.109,-61.035,-51.270,-28.809,-63.965,0.000
1709140436.113,-63.477,-58.594,-29.297,-50.293,0.000
1709140436.117,-81.055,-49.805,-30.273,-75.195,0.000
1709140436.121,-82.031,-41.016,-43.945,-89.355,0.000
1709140436.125,-58.594,-43.457,-35.645,-83.496,0.000
1709140436.129,-60.059,-48.340,-27.344,-66.895,0.000
1709140436.133,-40.527,-40.527,-36.133,-33.691,0.000
1709140436.136,-48.828,-36.621,-32.227,-36.133,0.000
1709140436.140,-79.102,-38.574,-41.992,-44.434,0.000
1709140436.144,-59.082,-36.133,-41.504,-34.180,0.000
1709140436.148,-60.547,-43.945,-32.715,-36.621,0.000
1709140436.152,-66.406,-52.734,-32.227,-47.363,0.000
1709140436.156,-43.945,-51.758,-31.738,-20.020,0.000
1709140436.160,-33.203,-54.688,-30.273,16.113,0.000
1709140436.164,-50.781,-44.434,-32.227,-25.879,0.000
1709140436.168,-56.152,-33.203,-41.016,-62.500,0.000
1709140436.172,-43.945,-36.133,-40.039,-71.289,0.000
1709140436.175,-22.461,-37.109,-39.062,-65.430,0.000
1709140436.179,-49.805,-49.316,-23.926,-55.176,0.000
1709140436.183,-68.848,-53.223,-19.531,-40.039,0.000
1709140436.187,-51.270,-42.969,-37.109,-37.109,0.000
1709140436.191,-51.270,-27.344,-43.945,-42.480,0.000
1709140436.195,-50.293,-36.621,-34.668,-43.457,0.000
1709140436.199,-37.109,-56.152,-33.203,-43.945,0.000
1709140436.203,-34.668,-43.945,-34.668,-41.992,0.000
1709140436.207,-39.551,-25.879,-36.133,-52.246,0.000
1709140436.210,-45.410,-32.227,-43.945,-67.871,0.000
1709140436.214,-80.078,-42.480,-41.016,-69.336,0.000
1709140436.218,-86.914,-41.504,-26.855,-59.082,0.000
1709140436.222,-45.410,-34.180,-28.320,-78.613,0.000
1709140436.226,-43.945,-34.180,-30.762,-88.867,0.000
1709140436.230,-46.387,-29.297,-29.297,-63.477,0.000
1709140436.234,-39.062,-29.785,-32.715,-50.293,0.000
1709140436.238,-57.617,-61.035,-38.086,-39.062,0.000
1709140436.242,-44.434,-56.152,-43.457,-29.297,0.000
1709140436.246,-19.531,-35.156,-42.480,-47.363,0.000
1709140436.250,-46.387,-34.180,-41.992,-69.336,0.000
1709140436.253,-47.852,-40.039,-41.016,-61.035,0.000
1709140436.257,-22.949,-45.410,-49.805,-45.410,0.000
1709140436.261,-37.109,-32.715,-46.387,-39.062,0.000
1709140436.265,-26.367,-41.504,-25.391,-15.625,0.000
1709140436.269,-23.438,-51.758,-30.762,-26.367,0.000
1709140436.273,-53.711,-51.270,-41.504,-49.805,0.000
1709140436.277,-37.598,-39.062,-33.691,-41.992,0.000
1709140436.281,-46.387,-36.621,-33.691,-49.316,0.000
1709140436.285,-39.062,-46.387,-42.480,-49.316,0.000
1709140436.288,-15.625,-36.621,-50.293,-33.691,0.000
1709140436.292,-39.062,-37.598,-36.621,-43.945,0.000
1709140436.296,-31.250,-36.133,-38.574,-51.758,0.000
1709140436.300,-34.180,-39.551,0.000,-46.875,0.000
1709140436.304,-45.410,-43.457,0.000,-41.016,0.000
1709140436.308,-48.340,-33.691,0.000,-48.340,0.000
1709140436.312,-20.020,-32.227,0.000,-64.453,0.000
1709140436.316,-15.137,-45.898,0.000,-58.594,0.000
1709140436.320,-50.781,-41.992,0.000,-38.574,0.000
1709140436.324,-30.762,-24.414,0.000,-17.578,0.000
1709140436.328,-33.203,-20.996,0.000,-55.664,0.000
1709140436.332,-52.734,-31.250,0.000,-58.105,0.000
1709140436.336,-41.016,-46.387,0.000,-32.227,0.000
1709140436.339,-9.277,-50.293,0.000,-25.879,0.000
1709140436.343,-24.902,-30.273,0.000,-40.527,0.000
1709140436.347,-23.438,-23.926,-35.645,-49.805,0.000
1709140436.351,-9.277,-37.598,-39.062,-40.527,0.000
1709140436.355,-21.484,-36.133,-37.598,-25.391,0.000
1709140436.359,-31.250,-25.879,-39.062,-45.898,0.000
1709140436.363,-30.273,-37.109,-39.551,-52.246,0.000
1709140436.367,-23.926,-48.828,-34.668,-44.922,0.000
1709140436.371,-29.297,-35.156,-33.691,-58.594,0.000
1709140436.375,-33.691,-24.414,-42.969,-64.941,0.000
1709140436.379,-44.434,-39.062,-48.340,-75.195,0.000
1709140436.383,-39.551,-54.688,-42.480,-59.082,0.000
1709140436.386,-47.363,-42.969,-40.039,-46.387,0.000
1709140436.390,-15.137,-27.344,-43.457,-45.898,0.000
1709140436.394,-5.859,-34.668,-34.180,-44.434,0.000
1709140436.398,-14.160,-58.105,-25.879,-40.039,0.000
1709140436.402,-21.973,-53.711,-31.250,-44.922,0.000
1709140436.406,-43.457,-11.719,-42.480,-65.918,0.000
1709140436.410,-20.020,-1.465,-41.016,-31.738,0.000
1709140436.414,-29.297,-23.438,-35.156,-19.531,0.000
1709140436.418,-26.855,-26.855,-40.039,-59.082,0.000
1709140436.422,0.488,-17.578,-40.039,-40.527,0.000
1709140436.426,-31.250,-19.043,-36.133,-24.902,0.000
1709140436.429,-38.086,-25.879,-34.668,-36.621,0.000
1709140436.433,-5.859,-25.391,-41.016,-41.504,0.000
1709140436.437,-9.277,-36.133,-39.551,-26.367,0.000
1709140436.442,0.977,-43.945,-39.062,-31.738,0.000
1709140436.445,-14.160,-38.086,-48.340,-75.195,0.000
1709140436.449,-25.879,-39.551,-45.410,-75.195,0.000
1709140436.453,-11.230,-34.668,-43.945,-55.176,0.000
1709140436.457,-32.227,-34.180,-43.945,-17.090,0.000
1709140436.461,-9.277,-33.691,-41.016,-18.066,0.000
1709140436.465,-8.789,-32.227,-40.039,-30.273,0.000
1709140436.469,-67.383,-40.039,-38.574,-27.832,0.000
1709140436.473,-60.547,-46.387,-41.016,-36.133,0.000
1709140436.477,-22.461,-38.574,-43.457,-63.965,0.000
1709140436.481,-26.855,-43.457,-37.598,-77.148,0.000
1709140436.484,-34.668,-50.781,-30.762,-31.738,0.000
1709140436.488,-34.180,-40.039,-33.203,-12.695,0.000
1709140436.492,-31.250,-32.715,-35.645,-34.180,0.000
1709140436.496,-39.551,-32.715,-37.109,-23.926,0.000
1709140436.500,-27.344,-37.109,-42.969,-20.996,0.000
1709140436.504,-13.672,-36.621,-46.875,-59.082,0.000
1709140436.508,-36.133,-42.969,-42.480,-54.199,0.000
1709140436.512,-62.500,-48.828,-36.133,-27.344,0.000
1709140436.516,-54.688,-43.945,-35.645,-27.344,0.000
1709140436.520,-33.203,-31.738,-41.992,-49.316,0.000
1709140436.524,-45.410,-44.922,-38.086,-54.199,0.000
1709140436.527,-22.949,-48.828,-29.297,-5.371,0.000
1709140436.531,-11.230,-17.578,-38.574,-32.715,0.000
1709140436.535,-40.039,-17.578,-45.410,-71.777,0.000
1709140436.539,-42.969,-30.273,-32.715,-50.293,0.000
1709140436.543,-22.949,-32.227,-28.809,-40.039,0.000
1709140436.547,-12.207,-27.832,-30.762,-22.461,0.000
1709140436.551,-18.066,-28.320,-32.715,-8.789,0.000
1709140436.555,-35.156,-35.645,-32.715,-39.062,0.000
1709140436.559,-41.016,-35.645,-26.367,-41.992,0.000
1709140436.563,-33.203,-27.344,-29.785,-29.297,0.000
1709140436.566,-16.113,-18.555,-35.156,-44.922,0.000
1709140436.570,-20.508,-40.039,-36.133,-36.621,0.000
1709140436.574,-38.086,-43.457,-30.762,-13.184,0.000
1709140436.578,-26.855,-24.414,-42.969,-28.809,0.000
1709140436.582,-23.926,-37.109,-58.105,-87.891,0.000
1709140436.586,-53.223,-61.035,-42.969,-50.781,0.000
1709140436.590,-46.875,-52.246,-37.109,-35.156,0.000
1709140436.594,-52.734,-17.578,-44.922,-68.848,0.000
1709140436.598,-80.566,-25.391,-46.875,-95.703,0.000
1709140436.601,-43.945,-40.527,-45.898,-76.172,0.000
1709140436.605,-38.086,-42.969,-33.691,-30.273,0.000
1709140436.609,-49.316,-50.293,-31.250,-36.621,0.000
1709140436.613,-52.246,-47.852,-33.691,-43.945,0.000
1709140436.617,-66.406,-57.617,-28.809,-56.152,0.000
1709140436.621,-78.613,-62.500,-34.668,-63.965,0.000
1709140436.625,-64.941,-34.668,-47.363,-62.012,0.000
1709140436.629,-39.551,-7.812,-40.527,-51.758,0.000
1709140436.633,-34.180,-11.230,-29.297,-39.551,0.000
1709140436.636,-31.738,-33.691,-29.785,-21.973,0.000
1709140436.640,-43.457,-40.527,-37.109,-44.922,0.000
1709140436.644,-57.129,-35.156,-38.086,-71.777,0.000
1709140436.648,-49.805,-42.480,-35.645,-78.125,0.000
1709140436.652,-43.457,-45.898,-37.598,-52.734,0.000
1709140436.656,-34.668,-39.551,-38.086,-32.227,0.000
1709140436.660,-38.086,-35.156,-41.992,-52.246,0.000
1709140436.664,-41.016,-39.062,-38.574,-26.855,0.000
1709140436.668,-38.086,-44.434,-32.227,-12.695,0.000
1709140436.672,-41.016,-49.316,-39.551,-28.320,0.000
1709140436.676,-28.809,-51.270,-41.504,-25.879,0.000
1709140436.680,-27.344,-32.227,-37.109,-36.133,0.000
1709140436.683,-30.762,-17.578,-38.086,-49.316,0.000
1709140436.687,-35.645,-38.086,-40.039,-49.316,0.000
1709140436.691,-43.945,-58.594,-32.715,-49.316,0.000
1709140436.695,-35.645,-47.363,-37.598,-51.270,0.000
1709140436.699,-42.969,-21.973,-37.109,-54.199,0.000
1709140436.703,-52.734,-22.949,-25.879,-56.641,0.000
1709140436.707,-39.062,-26.367,-38.574,-55.664,0.000
1709140436.711,-24.414,-29.297,-46.387,-36.621,0.000
1709140436.715,-31.738,-27.832,-41.016,-30.762,0.000
1709140436.719,-52.246,-21.973,-36.133,-50.781,0.000
1709140436.723,-49.805,-41.504,-41.504,-46.387,0.000
1709140436.727,-30.273,-50.293,-43.457,-36.621,0.000
1709140436.730,-14.648,-23.438,-31.250,-38.086,0.000
1709140436.734,-21.484,-29.785,-26.855,-42.969,0.000
1709140436.738,-32.227,-47.852,-27.832,-41.016,0.000
1709140436.742,-33.691,-34.668,-40.039,-36.621,0.000
1709140436.746,-31.738,-27.344,-44.434,-40.039,0.000
1709140436.750,-27.832,-44.434,-30.762,-34.668,0.000
1709140436.754,-30.273,-38.086,-30.762,-40.039,0.000
1709140436.758,-22.461,-28.320,-32.715,-23.438,0.000
1709140436.762,-29.297,-28.809,-31.738,-28.320,0.000
1709140436.766,-24.902,-25.879,-36.133,-65.430,0.000
1709140436.770,-20.508,-40.039,-37.598,-53.223,0.000
1709140436.773,-47.363,-44.434,-32.715,-29.785,0.000
1709140436.777,-32.227,-41.504,-35.645,-39.551,0.000
1709140436.781,-20.020,-43.945,-44.922,-51.758,0.000
1709140436.785,-31.738,-59.082,-40.039,-61.035,0.000
1709140436.789,-54.199,-57.617,-39.551,-68.848,0.000
1709140436.793,-54.199,-21.484,-41.016,-65.430,0.000
1709140436.797,-28.809,-11.719,-31.738,-57.129,0.000
1709140436.801,-36.133,-26.367,-31.250,-50.293,0.000
1709140436.805,-55.176,-45.898,-38.086,-58.105,0.000
1709140436.809,-54.199,-46.387,-43.945,-70.801,0.000
1709140436.813,-25.391,-41.504,-44.434,-49.316,0.000
1709140436.816,-14.648,-41.992,-41.016,-28.809,0.000
1709140436.820,-32.715,-46.875,-37.109,-31.738,0.000
1709140436.824,-39.551,-56.152,-38.086,-46.875,0.000
1709140436.828,-48.828,-52.246,-33.691,-49.316,0.000
1709140436.832,-40.527,-48.340,-37.109,-48.828,0.000
1709140436.836,-36.621,-42.480,-41.016,-56.152,0.000
1709140436.840,-42.969,-32.715,-35.156,-40.039,0.000
1709140436.844,-27.344,-29.785,-41.992,-38.574,0.000
1709140436.848,-33.691,-35.645,-47.363,-43.457,0.000
1709140436.852,-28.320,-34.668,-39.551,-44.922,0.000
1709140436.856,-25.391,-31.738,-33.203,-44.922,0.000
1709140436.859,-50.293,-28.809,-32.715,-40.527,0.000
1709140436.863,-42.969,-45.410,-39.062,-46.387,0.000
1709140436.867,-37.109,-46.387,-37.109,-41.504,0.000
1709140436.871,-36.133,-33.203,-34.668,-34.180,0.000
1709140436.875,-33.691,-37.598,-39.551,-37.109,0.000
1709140436.879,-52.246,-40.527,-42.480,-32.227,0.000
1709140436.883,-48.828,-37.598,-37.598,-29.785,0.000
1709140436.887,-29.785,-41.992,-26.855,-33.691,0.000
1709140436.891,-37.109,-58.594,-29.297,-18.066,0.000
1709140436.895,-47.363,-52.734,-41.504,-28.809,0.000
1709140436.898,-65.430,-38.574,-45.898,-50.293,0.000
1709140436.902,-49.805,-36.133,-37.598,-36.621,0.000
1709140436.906,-16.602,-47.852,-30.273,-39.551,0.000
1709140436.910,-39.551,-41.504,-29.297,-40.039,0.000
1709140436.914,-47.363,-23.926,-39.551,-35.156,0.000
1709140436.918,-26.855,-34.180,-38.086,-41.016,0.000
1709140436.922,-32.227,-37.109,-26.367,-29.297,0.000
1709140436.926,-42.969,-41.504,-30.762,-32.715,0.000
1709140436.930,-33.691,-55.176,-33.691,-47.363,0.000
1709140436.934,-27.344,-47.852,-39.062,-40.527,0.000
1709140436.937,-29.297,-26.855,-47.852,-30.762,0.000
1709140436.941,-36.133,-37.109,-47.852,-41.016,0.000
1709140436.945,-31.250,-54.199,-40.527,-43.457,0.000
1709140436.949,-36.621,-38.086,-41.992,-41.504,0.000
1709140436.953,-45.898,-28.320,-40.527,-49.316,0.000
1709140436.957,-31.250,-35.156,-41.504,-55.664,0.000
1709140436.961,-33.203,-37.598,-45.410,-53.223,0.000
1709140436.965,-36.133,-36.621,-45.898,-54.199,0.000
1709140436.969,-32.715,-22.949,-49.316,-51.270,0.000
1709140436.972,-37.109,-25.879,-44.434,-51.758,0.000
1709140436.976,-41.504,-49.805,-40.039,-53.711,0.000
1709140436.980,-50.781,-58.105,-41.016,-30.273,0.000
1709140436.984,-44.434,-31.738,-43.945,-36.133,0.000
1709140436.988,-42.480,-26.855,-44.434,-60.547,0.000
1709140436.992,-63.965,-39.551,-40.039,-48.828,0.000
1709140436.996,-62.988,-33.691,-33.203,-50.781,0.000
1709140437.000,-54.688,-43.457,-41.992,-54.688,0.000
1709140437.004,-58.105,-53.223,-54.199,-41.504,0.000
1709140437.007,-61.035,-50.781,-37.598,-42.480,0.000
1709140437.011,-47.363,-54.199,-25.391,-50.781,0.000
1709140437.015,-37.598,-62.012,-27.344,-39.551,0.000
1709140437.019,-43.457,-46.387,-36.133,-39.551,0.000
1709140437.023,-50.781,-34.180,-41.992,-55.664,0.000
1709140437.027,-49.316,-49.316,-36.621,-30.762,0.000
1709140437.031,-13.672,-49.316,-41.504,-17.090,0.000
1709140437.035,-21.973,-35.645,-43.945,-33.203,0.000
1709140437.039,-39.551,-41.504,-38.574,-34.180,0.000
1709140437.043,-24.414,-40.527,-40.527,-41.992,0.000
1709140437.047,-33.691,-32.715,-37.598,-40.527,0.000
1709140437.051,-29.297,-43.457,-34.668,-27.832,0.000
1709140437.054,-21.484,-37.109,-26.855,-20.508,0.000
1709140437.058,-25.879,-27.832,-23.926,-29.785,0.000
1709140437.062,-21.484,-35.156,-30.762,-28.320,0.000
1709140437.066,-39.551,-32.715,-33.203,-40.039,0.000
1709140437.070,-43.457,-26.855,-35.156,-51.758,0.000
1709140437.074,-29.297,-57.617,-32.227,-35.645,0.000
1709140437.078,-18.066,-68.359,-29.785,-34.180,0.000
1709140437.082,-22.949,-34.668,-32.715,-32.715,0.000
1709140437.086,-29.785,-41.016,-35.156,-26.367,0.000
1709140437.090,-39.551,-47.363,-41.992,-46.875,0.000
1709140437.094,-52.734,-27.344,-37.598,-57.617,0.000
1709140437.098,-52.734,-28.809,-34.180,-45.410,0.000
1709140437.101,-47.852,-38.574,-41.992,-39.551,0.000
1709140437.105,-59.570,-41.992,-32.227,-42.480,0.000
1709140437.109,-73.242,-47.852,-23.438,-37.598,0.000
1709140437.113,-55.664,-53.711,-29.297,-32.715,0.000
1709140437.117,-36.621,-66.406,-33.203,-45.410,0.000
1709140437.121,-31.250,-84.473,-24.414,-46.875,0.000
1709140437.125,-36.133,-69.824,-21.484,-38.086,0.000
1709140437.129,-44.922,-32.227,-27.344,-41.504,0.000
1709140437.133,-46.387,-18.066,-37.109,-51.270,0.000
1709140437.137,-50.781,-28.320,-46.387,-55.176,0.000
1709140437.141,-39.551,-33.203,-46.875,-58.105,0.000
1709140437.144,-41.504,-40.527,-43.945,-62.988,0.000
1709140437.148,-61.035,-50.293,-39.551,-49.805,0.000
1709140437.152,-48.828,-46.875,-39.062,-49.316,0.000
1709140437.156,-30.762,-48.828,-37.109,-52.246,0.000
1709140437.160,-16.113,-56.641,-31.738,-39.551,0.000
1709140437.164,-17.090,-45.898,-38.574,-46.387,0.000
1709140437.168,-32.715,-38.574,-38.086,-50.293,0.000
1709140437.172,-36.133,-54.688,-32.227,-36.621,0.000
1709140437.176,-25.391,-60.059,-38.086,-21.973,0.000
1709140437.180,-20.508,-47.852,-36.133,-30.273,0.000
1709140437.184,-16.602,-33.691,-36.621,-54.688,0.000
1709140437.187,-7.324,-37.109,-43.457,-42.969,0.000
1709140437.191,-16.113,-31.250,-48.340,-28.320,0.000
1709140437.195,-20.508,-27.832,-43.457,-25.391,0.000
1709140437.199,-17.090,-40.527,-27.832,-28.809,0.000
1709140437.203,-21.973,-36.621,-28.809,-31.250,0.000
1709140437.207,-35.645,-36.621,-28.320,-20.020,0.000
1709140437.211,-34.668,-45.898,-32.227,-15.137,0.000
1709140437.215,-24.414,-42.969,-38.574,-12.695,0.000
1709140437.219,-33.203,-34.180,-36.133,-7.324,0.000
1709140437.223,-43.945,-32.715,-34.668,-16.113,0.000
1709140437.227,-57.129,-35.156,-22.949,-29.297,0.000
1709140437.230,-60.547,-54.688,-20.508,-34.180,0.000
1709140437.234,-43.945,-74.707,-27.832,-34.668,0.000
1709140437.238,-36.133,-59.570,-28.320,-33.691,0.000
1709140437.242,-49.316,-28.809,-35.645,-36.621,0.000
1709140437.246,-58.105,-20.996,-41.504,-43.457,0.000
1709140437.250,-49.316,-29.297,-31.738,-45.898,0.000
1709140437.254,-33.691,-49.805,-27.832,-28.320,0.000
1709140437.258,-43.457,-59.082,-41.992,-27.344,0.000
1709140437.262,-58.594,-47.852,-46.387,-52.246,0.000
1709140437.266,-67.383,-44.922,-38.574,-49.805,0.000
1709140437.269,-75.684,-46.387,-39.551,-47.363,0.000
1709140437.273,-76.660,-42.969,-42.969,-64.941,0.000
1709140437.277,-64.941,-44.434,-39.551,-60.059,0.000
1709140437.281,-48.340,-42.480,-32.715,-43.945,0.000
1709140437.285,-50.293,-44.434,-37.109,-46.387,0.000
1709140437.289,-54.199,-57.129,-40.039,-42.480,0.000
1709140437.293,-46.875,-48.340,-39.062,-45.898,0.000
1709140437.297,-44.434,-45.410,-37.109,-48.340,0.000
1709140437.301,-44.434,-49.805,-35.645,-45.898,0.000
1709140437.305,-35.645,-39.062,-41.992,-53.223,0.000
1709140437.308,-37.109,-28.809,-45.410,-49.316,0.000
1709140437.312,-45.898,-33.691,-48.340,-31.738,0.000
1709140437.316,-41.016,-44.434,-54.199,-29.785,0.000
1709140437.320,-39.551,-38.086,-42.969,-39.551,0.000
1709140437.324,-43.945,-37.109,-32.715,-43.457,0.000
1709140437.328,-41.992,-34.668,-27.832,-41.504,0.000
1709140437.332,-39.062,-36.133,-34.180,-37.109,0.000
1709140437.336,-39.551,-53.711,-40.527,-35.645,0.000
1709140437.340,-33.691,-51.270,-30.273,-34.668,0.000
1709140437.344,-39.062,-40.527,-28.809,-41.016,0.000
1709140437.347,-36.133,-46.875,-31.738,-53.223,0.000
1709140437.351,-33.691,-43.945,-33.691,-51.758,0.000
1709140437.355,-49.805,-35.645,-34.668,-39.551,0.000
1709140437.359,-55.176,-26.367,-40.039,-39.551,0.000
1709140437.363,-44.434,-25.391,-40.039,-53.711,0.000
1709140437.367,-41.992,-35.645,-40.527,-54.688,0.000
1709140437.371,-39.551,-49.316,-37.598,-36.621,0.000
1709140437.375,-34.180,-56.152,-30.273,-32.227,0.000
1709140437.379,-41.016,-43.945,-33.203,-44.922,0.000
1709140437.382,-46.875,-32.227,-33.203,-46.387,0.000
1709140437.386,-45.898,-41.992,-38.574,-40.039,0.000
1709140437.390,-44.922,-47.363,-41.016,-42.480,0.000
1709140437.394,-50.293,-50.781,-32.715,-38.574,0.000
1709140437.398,-46.875,-56.152,-30.762,-30.273,0.000
1709140437.402,-43.457,-36.133,-36.621,-45.410,0.000
1709140437.406,-45.410,-20.508,-41.504,-72.266,0.000
1709140437.410,-54.199,-25.879,-37.109,-63.965,0.000
1709140437.414,-46.875,-37.109,-32.715,-40.039,0.000
1709140437.418,-26.367,-44.922,-35.645,-28.809,0.000
1709140437.421,-34.668,-56.641,-38.574,-37.109,0.000
1709140437.426,-34.668,-55.176,-38.086,-58.105,0.000
1709140437.429,-42.480,-34.668,-37.109,-68.848,0.000
1709140437.433,-41.504,-33.203,-36.621,-59.082,0.000
1709140437.437,-39.062,-41.992,-39.062,-55.176,0.000
1709140437.441,-53.711,-36.621,-40.527,-50.293,0.000
1709140437.445,-49.805,-17.578,-37.109,-31.738,0.000
1709140437.449,-43.945,-14.160,-38.574,-32.227,0.000
1709140437.453,-40.039,-32.227,-41.016,-41.504,0.000
1709140437.457,-33.203,-53.223,-43.457,-35.156,0.000
1709140437.461,-25.879,-52.734,-43.457,-21.484,0.000
1709140437.465,-24.902,-37.109,-29.785,-35.645,0.000
1709140437.469,-34.180,-30.273,-23.438,-61.523,0.000
1709140437.473,-41.992,-33.203,0.000,-51.758,0.000
1709140437.477,-32.715,-39.062,0.000,-43.945,0.000
1709140437.480,-26.367,-48.828,0.000,-43.945,0.000
1709140437.484,-48.340,-44.922,0.000,-35.156,0.000
1709140437.488,-46.875,-26.367,0.000,-30.762,0.000
1709140437.492,-34.180,-28.320,0.000,-27.344,0.000
1709140437.496,-32.227,-31.738,0.000,-20.020,0.000
1709140437.500,-17.090,-29.297,0.000,-30.762,0.000
1709140437.504,-23.438,-44.434,0.000,-36.621,0.000
1709140437.508,-46.387,-50.293,0.000,-31.250,0.000
1709140437.512,-53.223,-39.062,0.000,-37.598,0.000
1709140437.516,-46.875,-32.227,0.000,-41.504,0.000
1709140437.520,-40.039,-35.156,-30.762,-37.598,0.000
1709140437.523,-34.668,-46.875,-35.156,-37.109,0.000
1709140437.527,-23.926,-52.734,-37.109,-35.645,0.000
1709140437.531,-46.387,-53.223,-40.527,-30.273,0.000
1709140437.535,-55.176,-43.945,-37.109,-26.855,0.000
1709140437.539,-33.203,-45.898,-29.297,-30.273,0.000
1709140437.543,-42.480,-54.199,-33.203,-37.598,0.000
1709140437.547,-45.898,-39.551,-40.039,-48.340,0.000
1709140437.551,-39.551,-39.551,-37.598,-40.527,0.000
1709140437.555,-36.621,-49.316,-34.668,-32.227,0.000
1709140437.559,-37.598,-41.016,-40.039,-40.527,0.000
1709140437.563,-41.504,-34.668,-39.062,-46.875,0.000
1709140437.566,-45.898,-33.691,-39.062,-50.293,0.000
1709140437.570,-37.109,-33.691,-41.992,-46.875,0.000
1709140437.574,-41.016,-37.109,-44.434,-42.480,0.000
1709140437.578,-42.969,-41.016,-49.805,-28.809,0.000
1709140437.582,-17.578,-62.988,-53.223,-25.391,0.000
1709140437.586,-27.344,-62.500,-46.387,-26.855,0.000
1709140437.590,-46.387,-30.762,-35.645,-31.738,0.000
1709140437.594,-40.527,-29.785,-29.297,-35.156,0.000
1709140437.598,-36.133,-35.156,-29.785,-29.785,0.000
1709140437.602,-40.039,-47.363,-34.180,-41.016,0.000
1709140437.605,-45.898,-61.035,-42.480,-53.223,0.000
1709140437.609,-36.133,-51.758,-42.969,-56.152,0.000
1709140437.613,-23.926,-44.434,-32.715,-49.805,0.000
1709140437.617,-22.949,-38.574,-29.297,-42.480,0.000
1709140437.621,-31.738,-40.527,-35.156,-34.180,0.000
1709140437.625,-45.410,-55.664,-40.527,-32.227,0.000
1709140437.629,-45.410,-71.289,-37.109,-30.273,0.000
1709140437.633,-36.133,-51.270,-28.809,-20.020,0.000
1709140437.637,-43.457,-29.297,-24.902,-21.484,0.000
1709140437.641,-59.082,-35.156,-26.367,-25.879,0.000
1709140437.645,-57.617,-35.156,-27.344,-36.133,0.000
1709140437.648,-49.316,-28.809,-25.391,-43.945,0.000
1709140437.652,-47.363,-27.832,-23.438,-33.203,0.000
1709140437.656,-35.645,-36.133,-26.367,-30.762,0.000
1709140437.660,-35.645,-57.617,-31.250,-38.086,0.000
1709140437.664,-48.828,-57.129,-34.180,-40.039,0.000
1709140437.668,-46.875,-44.434,-37.109,-42.969,0.000
1709140437.672,-46.387,-45.898,-41.992,-46.387,0.000
1709140437.676,-29.297,-43.457,-43.457,-49.805,0.000
1709140437.680,-27.832,-39.551,-40.039,-58.105,0.000
1709140437.684,-52.246,-49.805,-44.434,-54.688,0.000
1709140437.687,-50.781,-49.805,-48.340,-46.387,0.000
1709140437.691,-48.828,-38.086,-37.598,-41.016,0.000
1709140437.695,-41.992,-35.156,-42.969,-34.668,0.000
1709140437.699,-33.203,-27.344,-41.992,-36.621,0.000
1709140437.703,-37.598,-25.391,-35.156,-53.223,0.000
1709140437.707,-38.574,-27.344,-38.086,-67.383,0.000
1709140437.711,-36.133,-28.809,-42.480,-66.406,0.000
1709140437.715,-41.992,-34.668,-48.340,-56.152,0.000
1709140437.719,-36.133,-34.668,-41.016,-42.969,0.000
1709140437.722,-21.973,-43.945,-38.574,-34.180,0.000
1709140437.726,-29.785,-58.105,-42.969,-36.133,0.000
1709140437.730,-42.480,-45.898,-35.645,-41.992,0.000
1709140437.734,-41.016,-44.922,-34.180,-49.316,0.000
1709140437.738,-34.180,-42.480,-41.016,-52.246,0.000
1709140437.742,-33.691,-37.109,-43.945,-52.734,0.000
1709140437.746,-35.156,-27.344,-38.086,-56.152,0.000
1709140437.750,-24.902,-13.672,-32.715,-48.828,0.000
1709140437.754,-20.020,-28.320,-31.250,-37.109,0.000
1709140437.757,-21.973,-48.828,-29.785,-35.645,0.000
1709140437.761,-26.367,-43.945,-25.391,-37.598,0.000
1709140437.765,-41.504,-42.969,-30.273,-29.297,0.000
1709140437.769,-35.645,-50.293,-41.016,-29.785,0.000
1709140437.773,-25.879,-42.480,-39.062,-39.062,0.000
1709140437.777,-37.109,-42.480,-34.668,-40.527,0.000
1709140437.781,-35.156,-28.809,-35.645,-45.898,0.000
1709140437.785,-29.785,-19.531,-30.273,-48.340,0.000
1709140437.789,-36.621,-27.832,-29.785,-30.273,0.000
1709140437.793,-36.133,-34.180,-35.645,-25.879,0.000
1709140437.797,-28.809,-51.270,-29.785,-32.715,0.000
1709140437.801,-23.438,-53.711,-23.438,-37.598,0.000
1709140437.804,-24.902,-26.855,-25.879,-44.922,0.000
1709140437.808,-27.344,-32.715,-29.785,-44.434,0.000
1709140437.812,-27.832,-46.387,-31.738,-49.316,0.000
1709140437.816,-40.039,-37.598,-37.109,-44.922,0.000
1709140437.820,-52.734,-46.875,-41.504,-47.363,0.000
1709140437.824,-44.922,-57.617,-38.086,-54.199,0.000
1709140437.828,-43.457,-53.711,-44.922,-46.387,0.000
1709140437.832,-35.645,-36.621,-54.688,-41.504,0.000
1709140437.836,-27.344,-28.320,-47.363,-24.414,0.000
1709140437.840,-25.879,-38.086,-34.180,-29.297,0.000
1709140437.844,-35.645,-48.828,-29.785,-55.664,0.000
1709140437.848,-39.551,-35.156,-29.785,-55.176,0.000
1709140437.851,-35.156,-44.922,-29.785,-46.875,0.000
1709140437.855,-21.484,-66.406,-30.273,-37.598,0.000
1709140437.859,-26.367,-62.500,-26.855,-27.832,0.000
1709140437.863,-42.969,-49.316,-30.762,-28.809,0.000
1709140437.867,-34.180,-43.945,-39.551,-41.992,0.000
1709140437.871,-35.645,-41.016,-40.527,-37.598,0.000
1709140437.875,-40.039,-28.320,-40.039,-33.691,0.000
1709140437.879,-33.691,-38.086,-43.457,-43.945,0.000
1709140437.883,-41.016,-46.387,-45.410,-43.945,0.000
1709140437.887,-43.457,-37.109,-37.109,-51.270,0.000
1709140437.891,-48.340,-31.738,-41.504,-52.246,0.000
1709140437.894,-60.059,-42.969,-43.945,-41.992,0.000
1709140437.898,-53.711,-44.434,-31.738,-44.922,0.000
1709140437.902,-46.875,-37.598,-36.133,-44.434,0.000
1709140437.906,-49.805,-42.480,-36.621,-40.039,0.000
1709140437.910,-48.828,-58.105,-34.668,-54.199,0.000
1709140437.914,-52.734,-48.828,-37.109,-54.199,0.000
1709140437.918,-50.781,-19.531,-35.645,-43.457,0.000
1709140437.922,-43.945,-47.363,-33.691,-52.246,0.000
1709140437.926,-42.480,-63.477,-36.133,-58.105,0.000
1709140437.930,-41.016,-32.227,-42.480,-58.105,0.000
1709140437.934,-44.922,-16.113,-48.828,-59.570,0.000
1709140437.937,-48.828,-17.090,-40.527,-53.711,0.000
1709140437.941,-50.781,-37.109,-23.926,-47.852,0.000
1709140437.945,-61.523,-41.016,-30.273,-49.805,0.000
1709140437.949,-60.547,-33.691,-35.645,-48.340,0.000
1709140437.953,-53.223,-43.945,-34.668,-48.828,0.000
1709140437.957,-41.992,-59.082,-35.156,-48.828,0.000
1709140437.961,-25.879,-47.852,-42.480,-40.039,0.000
1709140437.965,-42.969,-61.035,-43.457,-37.598,0.000
1709140437.969,-56.152,-72.754,-37.598,-48.340,0.000
1709140437.973,-57.617,-32.227,-43.457,-47.363,0.000
1709140437.977,-50.293,-24.414,-41.992,-37.598,0.000
1709140437.980,-39.551,-44.434,-34.180,-38.574,0.000
1709140437.984,-41.016,-42.480,-37.109,-56.641,0.000
1709140437.989,-40.039,-19.531,-49.805,-62.500,0.000
1709140437.992,-40.039,-15.625,-54.199,-55.664,0.000
1709140437.996,-37.598,-30.762,-41.016,-51.758,0.000
1709140438.000,-32.227,-32.715,-34.668,-49.316,0.000
1709140438.004,-34.668,-41.016,-34.668,-41.016,0.000
1709140438.008,-30.273,-55.664,-34.180,-32.715,0.000
1709140438.012,-28.320,-48.828,-34.668,-38.574,0.000
1709140438.016,-43.457,-46.875,-36.621,-39.551,0.000
1709140438.020,-56.152,-47.363,-40.527,-33.691,0.000
1709140438.024,-51.270,-42.969,-44.434,-42.969,0.000
1709140438.028,-53.711,-33.691,-44.922,-51.758,0.000
1709140438.032,-50.781,-20.020,-53.223,-54.688,0.000
1709140438.035,-42.969,-30.273,-48.828,-54.199,0.000
1709140438.039,-33.691,-42.480,-36.133,-44.434,0.000
1709140438.043,-32.715,-49.805,-41.992,-51.758,0.000
1709140438.047,-45.410,-43.945,-36.133,-58.594,0.000
1709140438.051,-51.270,-41.992,-41.504,-51.270,0.000
1709140438.055,-41.016,-46.387,-49.316,-51.270,0.000
1709140438.059,-37.598,-44.434,-43.457,-52.246,0.000
1709140438.063,-34.180,-33.691,-43.945,-42.969,0.000
1709140438.067,-39.062,-27.344,-42.480,-40.527,0.000
1709140438.071,-41.992,-30.762,-45.898,-48.828,0.000
1709140438.074,-30.273,-37.109,-44.922,-30.762,0.000
1709140438.078,-25.879,-34.180,-34.668,-21.484,0.000
1709140438.082,-31.738,-21.484,-40.527,-36.133,0.000
1709140438.086,-28.320,-25.391,-41.504,-36.133,0.000
1709140438.090,-29.297,-27.344,-35.645,-35.645,0.000
1709140438.094,-34.180,-37.109,-34.180,-33.203,0.000
1709140438.098,-39.551,-43.945,-30.762,-29.785,0.000
1709140438.102,-39.551,-35.156,-36.621,-45.898,0.000
1709140438.106,-37.109,-30.762,-39.551,-45.898,0.000
1709140438.109,-29.785,-36.133,-40.039,-33.203,0.000
1709140438.113,-31.738,-47.363,-38.086,-36.621,0.000
1709140438.117,-35.156,-69.824,-30.762,-41.016,0.000
1709140438.121,-36.621,-40.527,-25.879,-42.969,0.000
1709140438.125,-48.828,-7.812,-30.762,-54.199,0.000
1709140438.129,-51.758,-20.508,-36.133,-54.688,0.000
1709140438.133,-46.387,-34.180,-34.180,-47.363,0.000
1709140438.137,-29.785,-38.574,-34.668,-44.922,0.000
1709140438.141,-27.832,-34.180,-35.156,-40.039,0.000
1709140438.144,-32.227,-38.574,-41.992,-38.574,0.000
1709140438.148,-29.297,-43.457,-43.457,-28.809,0.000
1709140438.152,-28.320,-45.410,-34.180,-33.203,0.000
1709140438.156,-26.855,-41.992,-35.645,-37.109,0.000
1709140438.160,-32.227,-34.668,-42.969,-41.016,0.000
1709140438.164,-35.645,-52.246,-38.086,-52.246,0.000
1709140438.168,-38.086,-73.730,-41.504,-42.480,0.000
1709140438.172,-35.645,-54.688,-43.457,-35.645,0.000
1709140438.175,-34.180,-27.344,-30.273,-49.805,0.000
1709140438.179,-37.109,-25.391,-34.180,-45.410,0.000
1709140438.183,-38.086,-41.016,-42.969,-43.457,0.000
1709140438.187,-36.133,-41.504,-42.480,-53.711,0.000
1709140438.191,-29.297,-38.574,-37.109,-38.086,0.000
1709140438.195,-25.391,-36.621,-33.203,-19.531,0.000
1709140438.199,-12.695,-29.785,-35.645,-13.672,0.000
1709140438.203,-24.902,-35.645,-41.992,-28.320,0.000
1709140438.207,-47.363,-51.758,-46.387,-45.410,0.000
1709140438.211,-29.297,-56.152,-38.086,-41.016,0.000
1709140438.215,-35.645,-42.480,-40.039,-45.410,0.000
1709140438.218,-57.617,-39.062,-47.363,-50.781,0.000
1709140438.222,-51.270,-36.133,-46.875,-47.852,0.000
1709140438.226,-34.180,-41.016,-37.109,-36.621,0.000
1709140438.230,-29.785,-46.875,-39.062,-26.855,0.000
1709140438.234,-32.227,-31.738,-49.805,-28.809,0.000
1709140438.238,-30.273,-28.809,-41.992,-36.133,0.000
1709140438.242,-35.156,-35.645,-35.156,-49.316,0.000
1709140438.246,-37.598,-34.180,-36.133,-54.688,0.000
1709140438.250,-35.156,-36.621,-38.574,-45.410,0.000
1709140438.254,-43.945,-45.410,-41.504,-40.039,0.000
1709140438.258,-45.898,-58.105,-43.945,-35.645,0.000
1709140438.262,-32.715,-55.176,-37.109,-36.133,0.000
1709140438.265,-30.273,-54.688,-30.273,-46.875,0.000
1709140438.269,-32.227,-56.641,-33.203,-44.434,0.000
1709140438.273,-51.270,-39.062,-42.969,-44.434,0.000
1709140438.277,-51.758,-28.320,-42.480,-47.852,0.000
1709140438.281,-43.945,-33.691,-37.109,-48.828,0.000
1709140438.285,-47.363,-45.410,-35.156,-52.734,0.000
1709140438.289,-42.480,-41.016,-35.645,-61.523,0.000
1709140438.293,-40.527,-35.645,-37.598,-58.594,0.000
1709140438.297,-41.504,-42.480,-37.109,-46.387,0.000
1709140438.301,-35.645,-48.828,-43.457,-37.109,0.000
1709140438.305,-33.691,-47.363,-49.805,-41.016,0.000
1709140438.308,-29.785,-45.898,-48.828,-56.152,0.000
1709140438.312,-22.461,-52.734,-44.434,-42.969,0.000
1709140438.316,-5.371,-56.641,-41.504,-25.879,0.000
1709140438.320,-5.371,-46.875,-44.922,-28.809,0.000
1709140438.324,-25.391,-50.293,-41.504,-37.598,0.000
1709140438.328,-28.320,-45.898,-40.039,-40.527,0.000
1709140438.332,-31.250,-20.996,-46.387,-43.945,0.000
1709140438.336,-38.086,-26.855,-45.898,-39.062,0.000
1709140438.340,-38.086,-41.992,-41.504,-28.809,0.000
1709140438.344,-36.621,-37.109,-33.203,-30.762,0.000
1709140438.348,-41.504,-37.598,-28.809,-34.668,0.000
1709140438.351,-42.969,-39.551,-30.762,-43.945,0.000
1709140438.355,-41.016,-38.086,-34.668,-41.504,0.000
1709140438.359,-33.203,-28.809,-36.621,-38.574,0.000
1709140438.363,-36.621,-26.855,-33.203,-41.992,0.000
1709140438.367,-37.598,-45.898,-29.785,-38.574,0.000
1709140438.371,-28.809,-44.434,-36.133,-47.363,0.000
1709140438.375,-24.414,-35.156,-44.434,-47.852,0.000
1709140438.379,-32.715,-50.293,-39.062,-47.363,0.000
1709140438.383,-31.738,-41.992,-32.715,-46.875,0.000
1709140438.387,-39.062,-25.879,-29.785,-46.387,0.000
1709140438.391,-50.293,-51.758,-37.109,-41.504,0.000
1709140438.394,-57.617,-57.617,-45.898,-40.527,0.000
1709140438.398,-64.453,-38.086,-33.691,-54.688,0.000
1709140438.402,-56.641,-41.992,-31.250,-60.547,0.000
1709140438.406,-50.781,-37.109,-37.598,-58.594,0.000
1709140438.410,-43.945,-37.598,-34.180,-57.129,0.000
1709140438.414,-36.133,-47.852,-29.785,-54.688,0.000
1709140438.418,-40.039,-43.945,-30.273,-51.758,0.000
1709140438.422,-44.434,-49.316,-31.738,-50.293,0.000
1709140438.426,-43.457,-52.246,-32.227,-47.852,0.000
1709140438.430,-34.668,-46.387,-38.574,-55.176,0.000
1709140438.433,-41.504,-43.457,-36.621,-53.711,0.000
1709140438.437,-50.293,-49.805,-39.062,-35.645,0.000
1709140438.441,-41.992,-47.852,-46.387,-34.180,0.000
1709140438.445,-44.922,-32.715,-40.039,-53.711,0.000
1709140438.449,-56.641,-44.922,-43.945,-71.289,0.000
1709140438.453,-45.410,-42.969,-44.434,-57.129,0.000
1709140438.457,0.000,-22.949,-37.598,-43.457,0.000
1709140438.461,0.000,-29.297,-37.109,-46.875,0.000
1709140438.465,0.000,-37.109,-41.992,-48.828,0.000
1709140438.469,0.000,-39.062,-35.645,-53.711,0.000
1709140438.472,0.000,-56.152,-36.133,-53.223,0.000
1709140438.476,0.000,-66.895,-38.086,-45.898,0.000
1709140438.480,0.000,-57.617,-32.715,-44.922,0.000
1709140438.484,0.000,-41.016,-37.109,-49.805,0.000
1709140438.488,0.000,-34.180,-42.969,-48.340,0.000
1709140438.492,0.000,-41.504,-37.109,-45.898,0.000
1709140438.496,0.000,-33.203,-35.156,-46.387,0.000
1709140438.500,0.000,-28.320,-47.363,-43.945,0.000
1709140438.504,-43.457,-19.531,-51.758,-41.504,0.000
1709140438.507,-32.227,-37.109,-36.621,-37.598,0.000
1709140438.511,-26.855,-66.895,-33.691,-35.645,0.000
1709140438.515,-29.297,-41.992,-41.992,-39.062,0.000
1709140438.519,-25.391,-22.949,-38.086,-42.480,0.000
1709140438.523,-25.879,-42.969,-38.086,-35.645,0.000
1709140438.527,-28.809,-42.480,-36.133,-19.043,0.000
1709140438.531,-34.180,-29.297,-38.086,-20.508,0.000
1709140438.535,-27.832,-30.273,-47.852,-20.996,0.000
1709140438.539,-26.855,-36.621,-46.387,-21.484,0.000
1709140438.543,-31.250,-44.434,-33.203,-29.785,0.000
1709140438.546,-36.621,-38.086,-27.832,-27.832,0.000
1709140438.550,-37.109,-40.039,-31.250,-32.227,0.000
1709140438.554,-36.133,-40.039,-37.109,-31.738,0.000
1709140438.558,-30.273,-39.551,-43.945,-17.090,0.000
1709140438.562,-23.438,-49.316,-41.504,-16.602,0.000
1709140438.566,-21.484,-62.500,-30.273,-25.879,0.000
1709140438.570,-26.367,-43.457,-28.809,-21.973,0.000
1709140438.574,-22.461,-25.879,-33.203,-27.832,0.000
1709140438.578,-21.973,-28.809,-36.133,-34.668,0.000
1709140438.582,-37.109,-17.578,-40.527,-36.621,0.000
1709140438.586,-35.156,-28.320,-46.387,-32.715,0.000
1709140438.589,-35.645,-41.992,-41.992,-20.996,0.000
1709140438.593,-48.340,-25.391,-37.109,-25.391,0.000
1709140438.597,-49.316,-30.273,-38.574,-27.832,0.000
1709140438.601,-38.086,-50.293,-40.527,-19.531,0.000
1709140438.605,-40.527,-51.758,-47.852,-30.273,0.000
1709140438.609,-38.086,-45.898,-36.133,-34.668,0.000
1709140438.613,-31.250,-44.922,-17.578,-22.461,0.000
1709140438.617,-29.785,-44.922,-20.508,-21.973,0.000
1709140438.621,-28.320,-30.273,-26.855,-31.250,0.000
1709140438.625,-30.273,-39.062,-33.203,-35.156,0.000
1709140438.629,-36.133,-36.621,-38.574,-37.598,0.000
1709140438.633,-32.715,-15.625,-37.598,-39.062,0.000
1709140438.636,-38.574,-20.508,-41.992,-50.293,0.000
1709140438.640,-47.852,-41.992,-45.898,-48.340,0.000
1709140438.644,-45.898,-45.898,-37.109,-37.109,0.000
1709140438.648,-38.086,-42.480,-21.973,-39.062,0.000
1709140438.652,-41.504,-42.480,-23.438,-44.434,0.000
1709140438.656,-45.898,-27.344,-31.250,-49.316,0.000
1709140438.660,-45.898,-41.504,-32.715,-46.875,0.000
1709140438.664,-45.410,-53.223,-32.227,-46.387,0.000
1709140438.668,-44.434,-46.387,-38.086,-47.363,0.000
1709140438.672,-49.316,-39.551,-40.039,-45.898,0.000
1709140438.676,-36.621,-42.480,-38.086,-30.762,0.000
1709140438.680,-30.762,-38.574,-41.504,-17.090,0.000
1709140438.683,-22.949,-35.645,-41.504,-35.156,0.000
1709140438.687,-27.832,-57.129,-38.086,-46.875,0.000
1709140438.691,-40.527,-52.246,-31.738,-41.016,0.000
1709140438.695,-39.062,-44.434,-34.668,-34.668,0.000
1709140438.699,-41.992,-37.109,-37.109,-31.250,0.000
1709140438.703,-44.922,-24.902,-39.551,-41.504,0.000
1709140438.707,-48.340,-26.855,-41.992,-51.270,0.000
1709140438.711,-44.922,-25.879,-36.133,-49.316,0.000
1709140438.715,-33.203,-47.852,-42.480,-38.574,0.000
1709140438.719,-32.715,-63.965,-47.852,-35.645,0.000
1709140438.723,-33.691,-47.363,-33.203,-33.203,0.000
1709140438.727,-37.109,-55.664,-24.902,-41.504,0.000
1709140438.731,-43.945,-65.430,-37.109,-41.992,0.000
1709140438.734,-43.945,-31.250,-34.668,-34.180,0.000
1709140438.738,-49.316,-28.320,-34.668,-44.922,0.000
1709140438.742,-49.316,-44.434,-43.945,-55.176,0.000
1709140438.746,-53.223,-34.180,-30.762,-56.641,0.000
1709140438.750,-51.270,-38.086,-28.809,-52.734,0.000
1709140438.754,-45.410,-47.363,-29.785,-43.945,0.000
1709140438.758,-48.340,-63.965,-32.227,-33.203,0.000
1709140438.762,-44.434,-69.336,-30.273,-37.109,0.000
1709140438.766,-50.781,-46.875,-25.879,-40.527,0.000
1709140438.770,-58.105,-32.227,-29.297,-37.598,0.000
1709140438.773,-49.805,-42.969,-29.785,-38.574,0.000
1709140438.777,-49.805,-44.922,-36.133,-50.781,0.000
1709140438.781,-52.734,-39.062,-40.039,-57.617,0.000
1709140438.785,-52.246,-50.781,-30.273,-44.434,0.000
1709140438.789,-70.312,-49.805,-32.227,-45.410,0.000
1709140438.793,-71.777,-42.480,-32.227,-53.223,0.000
1709140438.797,-62.988,-44.922,-29.785,-45.898,0.000
1709140438.801,-44.434,-41.016,-36.621,-41.504,0.000
1709140438.805,-38.574,-34.180,-40.527,-52.734,0.000
1709140438.809,-62.012,-49.805,-33.203,-53.711,0.000
1709140438.812,-58.594,-58.594,-29.297,-46.875,0.000
1709140438.816,-48.340,-38.086,-34.668,-44.434,0.000
1709140438.820,-46.387,-38.574,-37.598,-37.598,0.000
1709140438.824,-37.598,-57.617,-38.086,-25.391,0.000
1709140438.828,-29.785,-54.199,-45.898,-29.297,0.000
1709140438.832,-29.785,-40.527,-46.387,-49.316,0.000
1709140438.836,-28.809,-24.414,-32.715,-54.688,0.000
1709140438.840,-35.156,-12.695,-23.438,-48.340,0.000
1709140438.844,-48.828,-12.207,-21.973,-47.363,0.000
1709140438.847,-47.363,-23.926,-23.926,-46.387,0.000
1709140438.851,-40.527,-32.715,-25.879,-47.363,0.000
1709140438.855,-47.852,-35.645,-27.344,-38.086,0.000
1709140438.859,-51.270,-38.086,-33.203,-38.086,0.000
1709140438.863,-41.016,-41.992,-34.180,-47.852,0.000
1709140438.867,-37.598,-43.945,-35.156,-37.598,0.000
1709140438.871,-38.086,-42.969,-38.574,-24.902,0.000
1709140438.875,-34.180,-47.852,-39.551,-25.879,0.000
1709140438.879,-37.598,-50.293,-46.387,-30.762,0.000
1709140438.882,-44.922,-50.781,-45.898,-30.762,0.000
1709140438.886,-46.387,-37.109,-42.969,-35.156,0.000
1709140438.890,-51.758,-32.227,-40.039,-41.016,0.000
1709140438.894,-57.617,-43.457,-31.250,-39.551,0.000
1709140438.898,-45.898,-51.758,-28.320,-34.180,0.000
1709140438.902,-44.922,-40.527,-31.250,-30.762,0.000
1709140438.906,-36.133,-43.945,-38.086,-35.645,0.000
1709140438.910,-36.621,-36.621,-40.039,-49.316,0.000
1709140438.914,-53.223,-27.832,-36.133,-40.039,0.000
1709140438.918,-51.758,-43.457,-40.039,-31.250,0.000
1709140438.922,-48.828,-41.016,-41.992,-37.109,0.000
1709140438.925,-41.016,-56.641,-41.992,-26.855,0.000
1709140438.929,-34.668,-77.637,-41.992,-15.625,0.000
1709140438.933,-41.016,-59.570,-39.551,-27.832,0.000
1709140438.937,-47.852,-34.180,-36.621,-48.340,0.000
1709140438.941,-50.293,-31.738,-31.738,-52.734,0.000
1709140438.945,-55.176,-44.922,-31.738,-44.434,0.000
1709140438.949,-65.918,-33.691,-35.156,-48.340,0.000
1709140438.953,-53.223,-28.809,-37.598,-41.016,0.000
1709140438.956,-34.668,-32.715,-36.133,-26.855,0.000
1709140438.960,-38.574,-36.133,-28.809,-13.184,0.000
1709140438.964,-37.109,-51.270,-27.832,-8.301,0.000
1709140438.968,-28.320,-44.922,-29.785,-21.973,0.000
1709140438.972,-23.438,-37.109,-29.297,-21.973,0.000
1709140438.976,-19.043,-46.875,-32.715,-21.973,0.000
1709140438.980,-23.926,-40.527,-29.297,-24.414,0.000
1709140438.984,-29.297,-19.531,-23.438,-31.250,0.000
1709140438.988,-23.438,-36.621,-24.414,-36.621,0.000
1709140438.992,-31.250,-54.199,-30.273,-39.062,0.000
1709140438.996,-41.992,-25.879,-38.574,-36.621,0.000
1709140439.000,-37.598,-25.391,-34.668,-28.809,0.000
1709140439.003,-30.762,-40.527,-34.180,-30.273,0.000
1709140439.007,-28.809,-42.480,-40.039,-20.020,0.000
1709140439.011,-23.438,-29.785,-32.227,-20.020,0.000
1709140439.015,-14.160,-30.273,-30.762,-30.273,0.000
1709140439.019,-30.273,-55.664,-36.133,-43.945,0.000
1709140439.023,-40.527,-53.711,-36.621,-47.363,0.000
1709140439.027,-41.504,-35.156,-39.062,-46.875,0.000
1709140439.031,-47.852,-25.879,-41.504,-47.363,0.000
1709140439.035,-48.340,-31.738,-39.551,-44.922,0.000
1709140439.039,-45.410,-42.480,-44.922,-54.688,0.000
1709140439.043,-53.711,-41.016,-41.504,-65.918,0.000
1709140439.046,-54.199,-30.762,-30.762,-64.941,0.000
1709140439.050,-45.410,-28.320,-31.250,-50.781,0.000
1709140439.054,-42.480,-32.715,-34.180,-41.992,0.000
1709140439.058,-31.250,-40.527,-26.367,-28.320,0.000
1709140439.062,-22.461,-42.969,-19.531,-23.438,0.000
1709140439.066,-21.973,-33.203,-31.250,-34.668,0.000
1709140439.070,-36.621,-41.992,-46.875,-49.805,0.000
1709140439.074,-45.898,-36.133,-41.016,-55.664,0.000
1709140439.078,-44.922,-23.926,-35.156,-53.223,0.000
1709140439.082,-40.527,-50.293,-34.180,-52.246,0.000
1709140439.086,-37.109,-59.570,-33.691,-50.293,0.000
1709140439.089,-41.016,-34.180,-41.992,-48.340,0.000
1709140439.093,-38.574,-35.156,-37.598,-44.922,0.000
1709140439.097,-44.434,-42.969,-39.551,-44.922,0.000
1709140439.101,-38.574,-34.668,-41.504,-47.852,0.000
1709140439.105,-31.738,-52.734,-39.062,-44.922,0.000
1709140439.109,-25.391,-51.270,-43.457,-43.457,0.000
1709140439.113,-24.902,-22.461,-40.039,-37.109,0.000
1709140439.117,-29.785,-30.273,-30.762,-26.367,0.000
1709140439.121,-25.391,-49.805,-35.156,-30.762,0.000
1709140439.125,-23.926,-39.062,-41.504,-45.898,0.000
1709140439.129,-37.598,-34.180,-35.645,-41.016,0.000
1709140439.132,-44.922,-31.738,-30.273,-28.809,0.000
1709140439.136,-46.387,-27.832,-33.203,-38.086,0.000
1709140439.140,-44.434,-44.434,-39.062,-38.574,0.000
1709140439.144,-40.527,-55.176,-41.992,-35.156,0.000
1709140439.148,-42.969,-48.340,-33.203,-41.992,0.000
1709140439.152,-39.551,-48.828,-31.250,-35.645,0.000
1709140439.156,-25.391,-43.945,-32.227,-28.320,0.000
1709140439.160,-30.273,-45.898,-26.367,-25.391,0.000
1709140439.164,-42.969,-54.199,-32.227,-31.250,0.000
1709140439.167,-39.062,-35.156,-35.645,-30.273,0.000
1709140439.171,-34.180,-32.227,-36.621,-28.320,0.000
1709140439.175,-36.133,-40.039,-39.062,-35.645,0.000
1709140439.179,-37.598,-46.875,-37.598,-36.133,0.000
1709140439.183,-22.461,-42.969,-35.156,-29.297,0.000
1709140439.187,-28.809,-43.457,-34.668,-19.531,0.000
1709140439.191,-32.715,-46.387,-32.227,-27.832,0.000
1709140439.195,-33.691,-41.504,-32.715,-40.527,0.000
1709140439.199,-40.039,-40.527,-33.691,-36.133,0.000
1709140439.203,-34.180,-43.945,-33.691,-37.598,0.000
1709140439.207,-38.086,-41.016,-45.410,-44.434,0.000
1709140439.211,-39.062,-48.340,-51.758,-35.156,0.000
1709140439.215,-32.227,-38.574,-33.203,-39.062,0.000
1709140439.219,-31.738,-39.062,-31.250,-46.875,0.000
1709140439.222,-39.062,-56.152,-36.133,-45.898,0.000
1709140439.226,-34.180,-48.340,-32.227,-47.852,0.000
1709140439.230,-33.691,-35.156,-41.016,-44.434,0.000
1709140439.234,-38.086,-35.645,-41.504,-42.480,0.000
1709140439.238,-38.086,-49.805,-27.832,-45.410,0.000
1709140439.242,-35.156,-57.617,-25.391,-45.898,0.000
1709140439.246,-45.898,-52.246,-35.156,-50.293,0.000
1709140439.250,-50.781,-57.129,-36.621,-53.711,0.000
1709140439.253,-43.945,-54.199,-38.086,-52.734,0.000
1709140439.257,-46.387,-52.734,-34.180,-54.688,0.000
1709140439.261,-41.504,-55.664,-35.645,-57.129,0.000
1709140439.265,-42.480,-40.527,-36.133,-57.129,0.000
1709140439.269,-49.316,-27.832,-32.227,-54.688,0.000
1709140439.273,-40.527,-33.691,-43.945,-40.527,0.000
1709140439.277,-38.574,-36.133,-51.270,-39.551,0.000
1709140439.281,-39.551,-35.645,-35.645,-45.898,0.000
1709140439.285,-31.738,-52.734,-31.738,-51.270,0.000
1709140439.289,-38.574,-55.664,-36.133,-47.852,0.000
1709140439.293,-35.645,-47.363,-44.434,-32.227,0.000
1709140439.296,-34.180,-47.852,-50.293,-35.156,0.000
1709140439.300,-38.086,-45.898,-36.621,-42.480,0.000
1709140439.304,-33.203,-45.410,-23.438,-36.621,0.000
1709140439.308,-43.457,-37.598,-26.367,-41.504,0.000
1709140439.312,-44.922,-35.156,-31.738,-42.480,0.000
1709140439.316,-25.391,-61.523,-28.320,-33.691,0.000
1709140439.320,-33.691,-70.312,-30.762,-42.480,0.000
1709140439.324,-52.734,-34.180,-36.133,-54.199,0.000
1709140439.328,-40.527,-20.996,-38.086,-56.641,0.000
1709140439.331,-40.527,-40.039,-35.156,-46.875,0.000
1709140439.335,-58.594,-47.363,-41.992,-37.109,0.000
1709140439.339,-62.500,-36.621,-49.805,-42.969,0.000
1709140439.343,-56.641,-39.551,-35.156,-47.852,0.000
1709140439.347,-48.340,-55.664,-20.508,-44.922,0.000
1709140439.351,-40.527,-45.898,-20.508,-39.551,0.000
1709140439.355,-31.250,-41.992,-24.414,-30.273,0.000
1709140439.359,-32.715,-47.363,-26.855,-30.762,0.000
1709140439.363,-44.434,-37.109,-38.574,-40.039,0.000
1709140439.367,-51.270,-39.062,-44.434,-45.898,0.000
1709140439.371,-43.457,-38.574,-38.086,-41.992,0.000
1709140439.374,-37.109,-32.227,-39.551,-37.109,0.000
1709140439.378,-36.621,-42.480,-39.551,-31.738,0.000
1709140439.382,-29.785,-45.898,-45.898,-31.738,0.000
1709140439.386,-35.156,-31.250,-50.293,-43.457,0.000
1709140439.390,-28.320,-29.785,-40.527,-42.480,0.000
1709140439.394,-26.367,-50.293,-37.109,-34.668,0.000
1709140439.398,-30.273,-56.641,-41.016,-30.762,0.000
1709140439.402,-28.809,-62.988,-38.574,-37.598,0.000
1709140439.406,-32.715,-55.664,-33.203,-39.062,0.000
1709140439.410,-39.551,-35.156,-36.133,-35.645,0.000
1709140439.414,-45.898,-38.574,-41.016,-36.621,0.000
1709140439.418,-46.875,-43.945,-37.598,-43.945,0.000
1709140439.421,-58.105,-34.668,-33.203,-57.129,0.000
1709140439.425,-49.316,-50.781,-32.227,-45.410,0.000
1709140439.429,-37.598,-69.336,-35.645,-27.832,0.000
1709140439.433,-37.598,-39.551,-37.598,-44.434,0.000
1709140439.437,-41.504,-22.949,-38.574,-55.664,0.000
1709140439.441,-48.340,-38.574,-40.527,-49.316,0.000
1709140439.445,-39.551,-48.828,-44.922,-46.875,0.000
1709140439.449,-38.574,-54.199,-41.992,-45.410,0.000
1709140439.453,-34.668,-55.176,-30.762,-35.645,0.000
1709140439.457,-27.344,-42.969,-20.996,-19.531,0.000
1709140439.461,-22.949,-24.414,-28.809,-24.414,0.000
1709140439.464,-32.227,-16.602,-34.668,-39.551,0.000
1709140439.468,-48.340,-36.621,-31.250,-34.668,0.000
1709140439.472,-46.387,-48.340,-30.762,-25.391,0.000
1709140439.476,-27.344,-37.598,-36.621,-27.832,0.000
1709140439.480,-27.344,-38.086,-36.133,-30.762,0.000
1709140439.484,-39.062,-49.805,-24.902,-31.250,0.000
1709140439.488,-39.551,-51.758,-21.973,-28.320,0.000
1709140439.492,-41.992,-40.039,-29.297,-26.855,0.000
1709140439.496,-31.250,-36.133,-34.180,-30.273,0.000
1709140439.500,-26.367,-42.969,-36.133,-37.109,0.000
1709140439.503,-39.062,-37.109,-39.062,-40.039,0.000
1709140439.507,-41.992,-27.832,-36.621,-48.340,0.000
1709140439.511,-48.340,-21.973,-35.156,-57.129,0.000
1709140439.515,-46.875,-47.363,-30.273,-40.527,0.000
1709140439.519,-45.410,-63.477,-29.297,-35.645,0.000
1709140439.523,-42.480,-44.922,-40.527,-40.039,0.000
1709140439.527,-35.156,-39.062,-33.203,-30.762,0.000
1709140439.531,-41.504,-27.344,-23.926,-36.621,0.000
1709140439.535,-44.434,-31.250,-30.273,-43.457,0.000
1709140439.539,-38.574,-48.340,-34.668,-34.180,0.000
1709140439.542,-38.086,-36.621,-38.086,-33.691,0.000
1709140439.546,-44.434,-29.785,-33.203,-52.246,0.000
1709140439.550,-43.457,-35.645,-31.250,-51.270,0.000
1709140439.554,-52.734,-33.203,-37.598,-36.621,0.000
1709140439.558,-67.383,-36.621,-39.062,-40.039,0.000
1709140439.562,-66.895,-41.992,-34.668,-46.875,0.000
1709140439.566,-48.340,-48.828,-25.879,-44.922,0.000
1709140439.570,-32.715,-41.992,-22.461,-42.480,0.000
1709140439.574,-41.504,-26.855,-30.273,-37.109,0.000
1709140439.578,-38.574,-41.016,-40.039,-37.109,0.000
1709140439.581,-30.273,-44.922,-40.527,-37.598,0.000
1709140439.585,-44.922,-32.715,-40.039,-42.480,0.000
1709140439.589,-48.828,-30.273,-34.668,-41.016,0.000
1709140439.593,-44.434,-29.785,-20.996,-27.832,0.000
1709140439.597,-41.016,-33.691,-29.297,-24.902,0.000
1709140439.601,-29.297,-44.434,-41.504,-36.133,0.000
1709140439.605,-32.715,-34.668,-37.109,-38.086,0.000
1709140439.609,-38.574,-37.598,-31.738,-28.320,0.000
1709140439.613,-32.227,-48.340,-31.738,-34.668,0.000
1709140439.617,-28.809,-38.574,-32.227,-30.762,0.000
1709140439.621,-37.109,-57.129,-31.738,-32.715,0.000
1709140439.624,-41.504,-59.570,-41.504,-46.387,0.000
1709140439.628,-42.480,-39.551,-43.457,-45.410,0.000
1709140439.632,-43.457,-42.480,-37.598,-41.016,0.000
1709140439.636,-42.480,-35.156,-27.832,-41.992,0.000
1709140439.640,-42.969,-37.109,-26.855,-45.898,0.000
1709140439.644,-24.902,-44.922,-29.297,-37.598,0.000
1709140439.648,-19.531,-41.504,-29.785,-38.574,0.000
1709140439.652,-39.551,-42.480,-33.691,-38.086,0.000
1709140439.656,-53.223,-31.738,-35.645,-38.574,0.000
1709140439.659,-56.152,-25.391,-33.203,-50.293,0.000
1709140439.663,-42.969,-34.668,-28.320,-45.410,0.000
1709140439.667,-40.527,-58.594,-31.738,-41.992,0.000
1709140439.671,-50.781,-60.059,-42.969,-46.387,0.000
1709140439.675,-45.898,-34.180,-45.410,-50.293,0.000
1709140439.679,-43.945,-31.250,-42.480,-57.129,0.000
1709140439.683,-45.898,-37.109,-42.969,-57.129,0.000
1709140439.687,-46.387,-30.273,-45.410,-49.805,0.000
1709140439.691,-56.641,-23.926,-49.316,-36.621,0.000
1709140439.694,-53.711,-31.250,-42.969,-25.879,0.000
1709140439.698,-43.945,-37.598,-34.668,-33.691,0.000
1709140439.702,-38.574,-38.086,-36.133,-29.785,0.000
1709140439.706,-32.227,-39.551,-38.574,-18.555,0.000
1709140439.710,-34.180,-50.293,-40.039,-23.926,0.000
1709140439.714,-41.504,-66.406,-42.480,-27.344,0.000
1709140439.718,-45.898,-65.430,-37.109,-35.156,0.000
1709140439.722,-47.852,-47.852,-31.250,-36.133,0.000
1709140439.726,-48.828,-28.809,-33.203,-36.621,0.000
1709140439.730,-44.922,-23.438,-36.621,-35.645,0.000
1709140439.734,-50.293,-28.320,-32.227,-39.551,0.000
1709140439.738,-38.574,-40.039,-31.738,-42.969,0.000
1709140439.741,-32.227,-48.828,-39.551,-47.852,0.000
1709140439.745,-38.086,-42.969,-38.086,-48.340,0.000
1709140439.749,-32.715,-44.434,-34.668,-37.109,0.000
1709140439.753,-33.691,-50.781,-42.480,-42.969,0.000
1709140439.757,-33.691,-40.527,-45.898,-44.434,0.000
1709140439.761,-41.016,-39.062,-37.109,-37.598,0.000
1709140439.765,-43.945,-49.316,-25.879,-38.574,0.000
1709140439.769,-41.504,-47.852,-27.344,-37.598,0.000
1709140439.773,-37.598,-36.133,-28.320,-35.156,0.000
1709140439.777,-39.551,-27.832,-34.668,-40.527,0.000
1709140439.781,-38.574,-46.875,-39.551,-47.363,0.000
1709140439.784,-39.551,-53.223,-30.762,-47.363,0.000
1709140439.788,-38.574,-39.551,-33.203,-35.156,0.000
1709140439.792,-35.645,-30.273,-41.992,-34.668,0.000
1709140439.796,-20.020,-33.203,-38.574,-37.598,0.000
1709140439.800,-26.855,-47.363,-35.645,-22.949,0.000
1709140439.804,-35.156,-41.016,-36.621,-25.391,0.000
1709140439.808,-28.809,-36.133,-36.621,-32.227,0.000
1709140439.812,-30.762,-43.457,-36.133,-33.203,0.000
1709140439.816,-28.809,-39.062,-28.809,-31.738,0.000
1709140439.820,-18.555,-36.621,-28.809,-23.926,0.000
1709140439.824,-18.066,-56.641,-35.645,-25.391,0.000
1709140439.827,-21.973,-58.105,-31.738,-33.203,0.000
1709140439.831,-21.484,-30.273,-26.367,-38.086,0.000
1709140439.835,-28.320,-20.996,-39.551,-47.363,0.000
1709140439.839,-32.715,-29.785,-49.316,-54.199,0.000
1709140439.843,-33.203,-41.504,-42.480,-48.340,0.000
1709140439.847,-32.715,-49.316,-33.203,-35.156,0.000
1709140439.851,-36.621,-45.898,-34.668,-34.180,0.000
1709140439.855,-50.293,-43.457,-41.016,-31.250,0.000
1709140439.859,-53.223,-50.293,-36.133,-32.227,0.000
1709140439.863,-51.270,-54.199,-34.180,-40.527,0.000
1709140439.867,-50.781,-51.758,-33.691,-39.062,0.000
1709140439.870,-56.152,-45.898,-31.250,-43.945,0.000
1709140439.874,-52.246,-50.293,-37.109,-48.828,0.000
1709140439.878,-44.922,-56.641,-41.504,-36.133,0.000
1709140439.882,-41.504,-41.504,-40.527,-26.367,0.000
1709140439.886,-39.551,-39.062,-47.363,-40.527,0.000
1709140439.890,-43.457,-49.316,-36.133,-40.039,0.000
1709140439.894,-51.270,-41.504,-26.855,-37.109,0.000
1709140439.898,-57.617,-26.855,-36.621,-46.875,0.000
1709140439.902,-45.898,-29.785,-35.156,-42.969,0.000
1709140439.906,-39.062,-34.668,-31.250,-33.203,0.000
1709140439.909,-38.574,-38.574,-34.180,-29.297,0.000
1709140439.913,-22.461,-43.945,-31.738,-20.020,0.000
1709140439.917,-17.090,-53.223,-37.109,-13.184,0.000
1709140439.921,-35.645,-43.945,-38.574,-30.762,0.000
1709140439.925,-40.039,-28.809,-31.738,-38.574,0.000
1709140439.929,-38.574,-38.086,-30.273,-27.344,0.000
1709140439.933,-34.180,-43.457,-27.832,-25.391,0.000
1709140439.937,-38.574,-45.410,-27.832,-20.508,0.000
1709140439.941,-45.410,-28.320,-27.344,-19.043,0.000
1709140439.945,-37.598,-13.184,-27.344,-27.832,0.000
1709140439.948,-47.363,-20.020,-34.668,-40.527,0.000
1709140439.952,-50.781,-24.414,-34.668,-47.852,0.000
1709140439.956,-29.297,-38.086,-29.785,-41.992,0.000
1709140439.960,-32.227,-52.734,-34.668,-50.293,0.000
1709140439.964,-46.387,-39.062,-37.598,-59.570,0.000
1709140439.968,-42.969,-37.598,-35.156,-47.363,0.000
1709140439.972,-37.598,-48.340,-35.156,-36.133,0.000
1709140439.976,-41.016,-37.598,-36.621,-43.457,0.000
1709140439.980,-43.457,-26.367,-31.738,-36.133,0.000
1709140439.984,-41.992,-33.691,-31.250,-27.832,0.000
1709140439.987,-40.039,-32.715,-46.875,-49.805,0.000
1709140439.991,-34.668,-24.902,-40.527,-34.668,0.000
1709140439.995,-30.762,-26.367,-49.805,-27.832,0.000
1709140439.999,-25.879,-27.832,-53.711,-42.969,0.000
1709140440.003,-20.508,-50.293,-26.367,-48.340,0.000
1709140440.007,-27.832,-44.922,-24.414,-53.223,0.000
1709140440.011,-32.227,-34.668,-28.809,-40.527,0.000
1709140440.015,-32.227,-31.738,-28.809,-38.086,0.000
1709140440.019,-27.832,-30.762,-24.902,-34.668,0.000
1709140440.023,-22.949,-35.156,-28.320,-24.414,0.000
1709140440.027,-20.996,-37.109,-42.969,-29.785,0.000
1709140440.031,-27.832,-44.922,-42.969,-26.367,0.000
1709140440.035,-33.691,-55.664,-42.969,-26.855,0.000
1709140440.038,-30.273,-50.293,-44.922,-32.715,0.000
1709140440.042,-35.156,-39.551,-33.691,-28.809,0.000
1709140440.046,-38.574,-32.227,-26.855,-25.391,0.000
1709140440.050,-33.203,-26.367,-30.273,-24.414,0.000
1709140440.054,-28.320,-33.203,-35.156,-27.344,0.000
1709140440.058,-34.180,-34.180,-33.691,-36.133,0.000
1709140440.062,-43.457,-29.297,-32.227,-48.828,0.000
1709140440.066,-32.715,-32.715,-25.879,-42.480,0.000
1709140440.070,-32.715,-29.785,-23.926,-32.715,0.000
1709140440.074,-34.180,-46.875,-29.785,-35.156,0.000
1709140440.078,-28.320,-63.477,-33.691,-35.156,0.000
1709140440.082,-30.273,-41.504,-36.621,-37.109,0.000
1709140440.085,-46.875,-26.367,-35.156,-35.156,0.000
1709140440.089,-56.641,-27.832,-39.551,-31.738,0.000
1709140440.093,-51.758,-40.527,-45.898,-32.227,0.000
1709140440.097,-59.570,-44.922,-40.039,-36.133,0.000
1709140440.101,-62.012,-27.344,-41.016,-43.945,0.000
1709140440.105,-50.293,-28.320,-48.828,-48.340,0.000
1709140440.109,-42.480,-36.133,-47.363,-54.688,0.000
1709140440.113,-36.621,-43.945,-34.180,-49.805,0.000
1709140440.117,-42.480,-45.410,-30.273,-47.852,0.000
1709140440.121,-44.922,-44.434,-31.250,-51.270,0.000
1709140440.125,-45.410,-56.152,-31.738,-50.781,0.000
1709140440.129,-44.434,-54.199,-34.180,-50.293,0.000
1709140440.132,-32.227,-44.434,-35.645,-34.668,0.000
1709140440.136,-35.156,-33.691,-38.574,-36.621,0.000
1709140440.140,-45.898,-23.438,-40.527,-56.152,0.000
1709140440.144,-32.715,-32.227,-34.180,-45.898,0.000
1709140440.148,-25.879,-46.875,-27.832,-32.715,0.000
1709140440.152,-33.203,-39.551,-35.156,-27.344,0.000
1709140440.156,-35.645,-33.203,-34.180,-36.133,0.000
1709140440.160,-32.715,-43.945,-34.180,-53.711,0.000
1709140440.164,-40.527,-47.363,-36.621,-57.129,0.000
1709140440.168,-38.574,-49.805,-23.926,-49.805,0.000
1709140440.172,-31.738,-64.453,-24.414,-47.363,0.000
1709140440.175,-36.133,-46.875,-33.691,-39.551,0.000
1709140440.179,-40.039,-25.391,-35.156,-30.762,0.000
1709140440.183,-54.199,-22.461,-37.109,-39.062,0.000
1709140440.187,-49.316,-30.273,-37.598,-46.875,0.000
1709140440.191,-44.922,-42.969,-38.086,-43.457,0.000
1709140440.195,-43.457,-41.016,-41.504,-41.992,0.000
1709140440.199,-44.434,-53.223,-39.062,-45.898,0.000
1709140440.203,-49.316,-49.316,-36.621,-51.270,0.000
1709140440.207,-42.480,-46.387,-42.969,-49.316,0.000
1709140440.211,-43.945,-57.129,-37.598,-41.504,0.000
1709140440.215,-46.875,-52.246,-29.297,-39.551,0.000
1709140440.218,-41.992,-48.828,-35.156,-37.109,0.000
1709140440.222,-38.086,-57.129,-37.598,-33.203,0.000
1709140440.226,-31.738,-53.223,-35.156,-45.410,0.000
1709140440.230,-42.969,-39.062,-35.156,-48.828,0.000
1709140440.234,-49.316,-32.715,-28.809,-32.227,0.000
1709140440.238,-42.969,-30.762,-34.668,-43.945,0.000
1709140440.242,-45.898,-32.715,-43.457,-61.035,0.000
1709140440.246,-40.039,-37.109,-41.016,-57.129,0.000
1709140440.250,-34.668,-36.133,-34.668,-53.223,0.000
1709140440.254,-31.250,-38.574,-36.621,-48.340,0.000
1709140440.258,-35.156,-45.410,-43.457,-44.922,0.000
1709140440.261,-31.250,-39.551,-42.969,-40.527,0.000
1709140440.265,-25.879,-42.969,-41.504,-32.227,0.000
1709140440.269,-35.156,-45.410,-34.180,-34.180,0.000
1709140440.273,-41.992,-48.828,-27.832,-34.668,0.000
1709140440.277,-37.109,-43.457,-29.785,-38.574,0.000
1709140440.281,-26.855,-20.996,-28.320,-49.316,0.000
1709140440.285,-26.367,-26.367,-27.344,-44.434,0.000
1709140440.289,-39.551,-36.621,-23.926,-45.410,0.000
1709140440.293,-33.203,-32.715,-23.926,-48.340,0.000
1709140440.297,-20.996,-40.527,-35.645,-42.480,0.000
1709140440.300,-18.555,-58.105,-37.109,-37.598,0.000
1709140440.304,-21.484,-54.688,-27.832,-37.109,0.000
1709140440.308,-24.902,-35.156,-20.508,-44.922,0.000
1709140440.312,-27.832,-28.320,-26.367,-38.574,0.000
1709140440.316,-27.344,-44.922,-32.715,-31.738,0.000
1709140440.320,-20.020,-56.641,-34.668,-32.715,0.000
1709140440.324,-18.555,-42.480,-34.668,-34.668,0.000
1709140440.328,-30.762,-19.043,-33.203,-39.062,0.000
1709140440.332,-40.527,-27.832,-35.156,-42.969,0.000
1709140440.335,-52.246,-43.457,-33.203,-41.992,0.000
1709140440.339,-56.641,-50.781,-40.039,-43.457,0.000
1709140440.343,-54.688,-46.875,-37.598,-52.246,0.000
1709140440.347,-67.383,-37.109,-26.367,-53.223,0.000
1709140440.351,-63.477,-41.504,-36.621,-52.734,0.000
1709140440.355,-55.664,-47.363,-44.922,-57.617,0.000
1709140440.359,-51.758,-46.387,-41.016,-53.223,0.000
1709140440.363,-48.340,-35.645,-33.203,-50.781,0.000
1709140440.367,-50.781,-20.996,-31.250,-53.711,0.000
1709140440.371,-49.805,-30.273,-37.109,-42.969,0.000
1709140440.375,-43.945,-40.527,-35.156,-32.227,0.000
1709140440.378,-34.180,-42.480,-37.598,-30.762,0.000
1709140440.382,-24.414,-33.691,-39.062,-32.227,0.000
1709140440.386,-27.344,-18.555,-37.598,-41.016,0.000
1709140440.390,-35.156,-23.438,-40.039,-43.945,0.000
1709140440.394,-28.809,-34.180,-38.086,-45.410,0.000
1709140440.398,-41.016,-46.387,-41.992,-49.805,0.000
1709140440.402,-57.617,-59.570,-49.805,-40.527,0.000
1709140440.406,-48.340,-57.617,-43.945,-34.668,0.000
1709140440.410,-41.504,-42.480,-43.945,-42.969,0.000
1709140440.413,-36.621,-45.898,-46.387,-42.969,0.000
1709140440.417,-36.621,-52.246,-44.434,-33.691,0.000
1709140440.421,-34.668,-49.805,-42.480,-32.227,0.000
1709140440.425,-21.484,-52.246,-30.273,-31.738,0.000
1709140440.429,-18.555,-56.641,-32.715,-25.391,0.000
1709140440.433,-16.113,-53.711,-40.039,-16.113,0.000
1709140440.437,-10.742,-47.852,-37.109,-12.207,0.000
1709140440.441,-14.648,-56.152,-31.250,-19.531,0.000
1709140440.445,-20.020,-45.898,-27.832,-24.902,0.000
1709140440.448,-32.715,-27.832,-35.156,-31.250,0.000
1709140440.452,-34.668,-31.250,-33.691,-23.926,0.000
1709140440.456,-25.879,-51.758,-27.832,-11.230,0.000
1709140440.460,-35.645,-59.082,-39.551,-21.973,0.000
1709140440.464,-37.109,-45.410,-38.086,-34.668,0.000
1709140440.468,-39.551,-35.645,-23.926,-36.621,0.000
1709140440.472,-51.270,-32.227,-21.973,-45.898,0.000
1709140440.476,-45.898,-49.316,-24.902,-43.945,0.000
1709140440.480,-39.062,-53.711,-32.227,-33.691,0.000
1709140440.484,-35.156,-30.762,-36.133,-40.527,0.000
1709140440.488,-33.691,-34.180,-31.738,-39.551,0.000
1709140440.492,-36.621,-43.457,-36.133,-31.738,0.000
1709140440.495,-24.902,-36.621,-48.340,-38.086,0.000
1709140440.499,-33.691,-48.828,-41.992,-37.598,0.000
1709140440.503,-54.688,-58.594,-37.109,-48.340,0.000
1709140440.507,-52.734,-42.969,-35.156,-51.270,0.000
1709140440.511,-51.270,-27.832,-30.273,-46.387,0.000
1709140440.515,-46.387,-33.691,-35.645,-47.363,0.000
