timestamps,TP9,AF7,AF8,TP10,Right AUX
1709140252.832,-30.273,-37.109,-51.758,-40.527,0.000
1709140252.836,-29.297,-33.691,-47.852,-31.250,0.000
1709140252.840,-23.438,-29.785,-41.016,-34.180,0.000
1709140252.844,-32.715,-24.902,-33.203,-41.504,0.000
1709140252.848,-41.504,-41.992,-34.668,-37.598,0.000
1709140252.852,-32.227,-59.082,-47.852,-34.180,0.000
1709140252.856,-22.949,-37.598,-52.246,-34.668,0.000
1709140252.860,-34.668,-31.250,-42.969,-30.273,0.000
1709140252.864,-47.852,-28.320,-35.156,-28.320,0.000
1709140252.868,-44.434,-16.602,-33.691,-21.484,0.000
1709140252.871,-34.180,-10.742,-30.762,-24.414,0.000
1709140252.875,-29.297,-23.926,-35.645,-30.273,0.000
1709140252.879,-34.668,-30.273,-45.410,-31.738,0.000
1709140252.883,-42.480,-25.391,-39.062,-37.598,0.000
1709140252.887,-45.898,-39.551,-26.367,-36.621,0.000
1709140252.891,-42.480,-39.551,-30.762,-35.156,0.000
1709140252.895,-38.086,-15.625,-33.691,-28.809,0.000
1709140252.899,-42.480,-8.789,-35.645,-38.574,0.000
1709140252.903,-45.410,-23.438,-38.086,-52.246,0.000
1709140252.907,-51.270,-32.227,-30.273,-47.852,0.000
1709140252.911,-53.223,-32.715,-31.738,-39.062,0.000
1709140252.915,-39.062,-33.691,-39.062,-31.738,0.000
1709140252.918,-39.062,-36.133,-43.945,-45.410,0.000
1709140252.922,-47.363,-41.992,-47.363,-45.410,0.000
1709140252.926,-50.293,-44.434,-46.387,-38.574,0.000
1709140252.930,-38.086,-29.785,-34.180,-38.086,0.000
1709140252.934,-26.367,-17.578,-34.180,-34.668,0.000
1709140252.938,-20.020,-33.203,-40.527,-40.527,0.000
1709140252.942,-27.832,-29.785,-44.434,-42.969,0.000
1709140252.946,-33.691,-20.020,-52.246,-41.992,0.000
1709140252.950,-30.762,-30.762,-53.223,-38.086,0.000
1709140252.954,-23.926,-29.297,-54.199,-39.062,0.000
1709140252.958,-29.297,-29.297,-49.316,-32.715,0.000
1709140252.961,-41.504,-31.250,-40.527,-34.668,0.000
1709140252.965,-43.945,-31.250,-38.574,-49.316,0.000
1709140252.969,-53.223,-44.434,-40.039,-50.781,0.000
1709140252.973,-49.316,-45.410,-35.156,-39.062,0.000
1709140252.977,-44.922,-19.531,-35.645,-41.016,0.000
1709140252.981,-53.223,-34.180,-36.133,-47.852,0.000
1709140252.985,-59.082,-48.340,-36.133,-51.270,0.000
1709140252.989,-56.152,-32.227,-45.410,-55.176,0.000
1709140252.993,-49.805,-37.598,-44.434,-45.410,0.000
1709140252.997,-52.734,-42.480,-35.645,-49.316,0.000
1709140253.001,-50.293,-37.598,-33.691,-46.387,0.000
1709140253.004,-53.711,-38.086,-41.016,-33.691,0.000
1709140253.008,-55.176,-38.086,-43.945,-41.504,0.000
1709140253.012,-41.504,-33.691,-31.250,-35.156,0.000
1709140253.016,-35.156,-36.621,-22.949,-32.227,0.000
1709140253.020,-35.645,-43.945,-23.926,-32.715,0.000
1709140253.024,-45.898,-39.551,-39.551,-40.039,0.000
1709140253.028,-52.246,-33.203,-37.598,-44.922,0.000
1709140253.032,-50.293,-37.109,-26.855,-41.504,0.000
1709140253.036,-40.527,-32.715,-29.297,-38.574,0.000
1709140253.040,-33.691,-34.180,-22.461,-41.016,0.000
1709140253.043,-43.945,-31.250,-23.926,-53.223,0.000
1709140253.047,-49.805,-39.551,-33.691,-38.086,0.000
1709140253.051,-41.504,-60.547,-33.203,-22.949,0.000
1709140253.055,-31.738,-37.598,-31.738,-33.203,0.000
1709140253.059,-36.133,-14.648,-37.109,-35.156,0.000
1709140253.063,-43.457,-31.738,-27.832,-33.691,0.000
1709140253.067,-51.758,-34.668,-26.855,-37.598,0.000
1709140253.071,-49.805,-26.855,-28.320,-33.203,0.000
1709140253.075,-32.715,-29.297,-24.902,-33.203,0.000
1709140253.079,-34.180,-31.738,-30.762,-45.898,0.000
1709140253.083,-52.246,-36.133,-28.809,-48.828,0.000
1709140253.086,-53.711,-47.852,-28.809,-49.316,0.000
1709140253.090,-36.133,-39.551,-42.969,-39.551,0.000
1709140253.094,-26.855,-20.996,-55.664,-35.645,0.000
1709140253.098,-26.367,-13.672,-44.922,-45.898,0.000
1709140253.102,-30.762,-25.391,-40.039,-54.199,0.000
1709140253.106,-40.527,-39.551,-40.527,-50.293,0.000
1709140253.110,-42.969,-34.668,-41.992,-43.457,0.000
1709140253.114,-35.645,-28.320,-48.828,-45.898,0.000
1709140253.118,-29.297,-42.480,-50.781,-51.270,0.000
1709140253.122,-30.762,-38.086,-53.223,-51.758,0.000
1709140253.125,-36.621,-23.926,-53.711,-56.152,0.000
1709140253.129,-39.551,-30.273,-42.969,-54.199,0.000
1709140253.133,-37.109,-41.504,-43.457,-46.875,0.000
1709140253.137,-32.227,-55.664,-40.039,-47.852,0.000
1709140253.141,-34.180,-58.105,-28.320,-44.922,0.000
1709140253.145,-47.363,-30.762,-31.738,-49.316,0.000
1709140253.149,-57.617,-14.160,-36.133,-50.781,0.000
1709140253.153,-51.758,-21.484,-35.156,-39.551,0.000
1709140253.157,-38.574,-20.020,-34.668,-42.480,0.000
1709140253.161,-38.086,-36.133,-32.715,-53.223,0.000
1709140253.165,-42.969,-40.527,-40.527,-46.387,0.000
1709140253.169,-48.340,-19.531,-46.875,-45.898,0.000
1709140253.172,-43.457,-34.668,-36.621,-45.898,0.000
1709140253.176,-38.086,-43.945,-38.574,-39.551,0.000
1709140253.180,-45.410,-26.855,-36.621,-44.922,0.000
1709140253.184,-46.387,-22.461,-30.762,-50.781,0.000
1709140253.188,-45.410,-28.809,-35.645,-46.875,0.000
1709140253.192,-41.992,-35.645,-31.250,-38.086,0.000
1709140253.196,-25.879,-36.621,-31.738,-35.645,0.000
1709140253.200,-20.020,-28.809,-35.645,-38.086,0.000
1709140253.204,-30.762,-27.344,-43.457,-42.480,0.000
1709140253.208,-34.668,-34.180,-41.016,-40.039,0.000
1709140253.212,-28.320,-39.062,-34.668,-24.414,0.000
1709140253.216,-23.926,-39.062,-36.133,-22.461,0.000
1709140253.219,-33.203,-47.363,-41.504,-43.457,0.000
1709140253.223,-42.969,-36.621,-38.086,-57.129,0.000
1709140253.227,-46.875,-23.438,-40.527,-55.176,0.000
1709140253.231,-47.363,-14.160,-48.340,-55.664,0.000
1709140253.235,-38.086,1.953,-57.129,-56.641,0.000
1709140253.239,-33.691,2.441,-59.082,-52.246,0.000
1709140253.243,-34.668,-15.137,-57.129,-37.109,0.000
1709140253.247,-35.156,-0.977,-63.477,-43.457,0.000
1709140253.251,-41.016,8.789,-72.266,-60.059,0.000
1709140253.255,-35.645,0.488,-67.871,-53.711,0.000
1709140253.259,-24.902,1.465,-58.594,-47.363,0.000
1709140253.262,-28.320,-9.277,-59.082,-47.363,0.000
1709140253.266,-31.250,-13.184,-57.617,-42.969,0.000
1709140253.270,-29.785,0.000,-54.688,-43.945,0.000
1709140253.274,-23.438,8.301,-55.176,-49.316,0.000
1709140253.278,-15.625,7.812,-51.270,-49.316,0.000
1709140253.282,-13.672,5.371,-47.363,-50.293,0.000
1709140253.286,-16.113,-0.488,-46.875,-43.457,0.000
1709140253.290,-23.926,-6.348,-45.410,-37.598,0.000
1709140253.294,-26.855,-10.254,-46.387,-33.691,0.000
1709140253.298,-18.555,-25.879,-52.734,-28.320,0.000
1709140253.302,-13.672,-34.180,-51.270,-30.273,0.000
1709140253.305,-41.992,-23.926,-48.828,-37.598,0.000
1709140253.309,-42.480,-35.156,-45.898,-27.344,0.000
1709140253.313,-23.926,-50.781,-58.594,-20.020,0.000
1709140253.317,-30.273,-28.320,-62.500,-29.785,0.000
1709140253.321,-33.203,-3.418,-45.898,-37.598,0.000
1709140253.325,-40.039,-2.930,-41.504,-38.086,0.000
1709140253.329,-43.945,-14.160,-38.574,-34.180,0.000
1709140253.333,-34.668,-15.625,-35.645,-21.973,0.000
1709140253.337,-25.879,-14.648,-30.273,-25.879,0.000
1709140253.341,-29.785,-34.180,-29.297,-44.922,0.000
1709140253.345,-36.621,-45.410,-35.156,-50.293,0.000
1709140253.348,-37.598,-30.273,-29.785,-46.875,0.000
1709140253.352,-37.598,-20.996,-34.668,-43.457,0.000
1709140253.356,-30.273,-17.090,-46.387,-48.340,0.000
1709140253.360,-28.320,-24.414,-42.480,-41.992,0.000
1709140253.364,-34.180,-33.203,-35.156,-33.203,0.000
1709140253.368,-40.039,-29.297,-41.504,-41.992,0.000
1709140253.372,-37.598,-28.809,-51.758,-42.480,0.000
1709140253.376,-33.691,-34.180,-50.781,-44.922,0.000
1709140253.380,-32.715,-31.738,-50.781,-41.016,0.000
1709140253.384,-31.250,-27.832,-51.270,-43.457,0.000
1709140253.388,-34.668,-30.273,-38.574,-44.922,0.000
1709140253.391,-34.180,-32.715,-35.156,-41.016,0.000
1709140253.395,-15.137,-32.227,-35.645,-36.133,0.000
1709140253.399,-20.020,-17.090,-44.434,-41.016,0.000
1709140253.403,-36.621,-17.578,-46.387,-42.480,0.000
1709140253.407,-39.551,-34.180,-39.062,-39.551,0.000
1709140253.411,-33.203,-36.621,-39.551,-42.969,0.000
1709140253.415,-28.809,-30.762,-38.086,-44.434,0.000
1709140253.419,-39.062,-28.320,-34.668,-44.434,0.000
1709140253.423,-45.898,-34.180,-32.227,-41.992,0.000
1709140253.427,-52.246,-49.316,-36.621,-51.270,0.000
1709140253.430,-57.129,-47.363,-40.527,-50.781,0.000
1709140253.434,-54.688,-36.133,-40.527,-41.504,0.000
1709140253.438,-49.805,-27.832,-47.363,-52.246,0.000
1709140253.442,-50.781,-25.391,-42.480,-62.988,0.000
1709140253.446,-59.082,-46.387,-37.109,-44.922,0.000
1709140253.450,-55.176,-45.410,-34.180,-33.691,0.000
1709140253.454,-44.434,-25.391,-26.367,-39.062,0.000
1709140253.458,-41.992,-22.949,-28.809,-41.992,0.000
1709140253.462,-47.852,-32.227,-34.668,-47.852,0.000
1709140253.466,-48.828,-43.945,-32.715,-41.016,0.000
1709140253.470,-45.898,-35.156,-41.016,-24.902,0.000
1709140253.473,-34.668,-26.855,-33.691,-25.879,0.000
1709140253.477,-24.902,-36.133,-30.762,-34.668,0.000
1709140253.481,-31.738,-26.367,-36.133,-44.922,0.000
1709140253.485,-42.480,-11.230,-37.109,-45.410,0.000
1709140253.489,-40.527,-20.020,-49.316,-48.340,0.000
1709140253.493,-38.574,-37.598,-45.410,-47.363,0.000
1709140253.497,-34.668,-36.133,-35.156,-42.480,0.000
1709140253.501,-33.203,-28.809,-36.621,-46.875,0.000
1709140253.505,-34.668,-33.203,-42.969,-41.016,0.000
1709140253.509,-26.855,-47.363,-39.551,-31.738,0.000
1709140253.512,-27.344,-37.109,-35.156,-29.297,0.000
1709140253.516,-37.109,-29.785,-36.621,-30.762,0.000
1709140253.520,-38.086,-26.367,-41.016,-39.551,0.000
1709140253.524,-43.457,-15.137,-46.387,-42.480,0.000
1709140253.528,-63.477,-26.367,-32.227,-31.250,0.000
1709140253.532,-66.406,-31.738,-29.785,-41.016,0.000
1709140253.536,-52.246,-32.227,-42.969,-46.387,0.000
1709140253.540,-51.758,-39.551,-41.016,-44.434,0.000
1709140253.544,-60.547,-42.969,-31.738,-53.711,0.000
1709140253.548,-62.012,-43.945,-26.855,-47.852,0.000
1709140253.552,-56.152,-38.574,-27.832,-47.363,0.000
1709140253.556,-49.316,-32.715,-41.504,-45.410,0.000
1709140253.559,-44.922,-51.270,-36.621,-41.992,0.000
1709140253.563,-43.457,-48.340,-20.020,-41.504,0.000
1709140253.567,-47.363,-32.227,-22.949,-43.457,0.000
1709140253.571,-38.574,-36.133,-30.762,-42.969,0.000
1709140253.575,-27.344,-38.086,-28.320,-36.133,0.000
1709140253.579,-31.250,-39.551,-25.391,-42.969,0.000
1709140253.583,-38.574,-45.898,-32.715,-41.016,0.000
1709140253.587,-41.016,-38.086,-36.133,-36.133,0.000
1709140253.591,-34.668,-27.832,-38.574,-39.551,0.000
1709140253.595,-27.832,-19.531,-38.574,-45.898,0.000
1709140253.599,-25.391,-17.578,-37.109,-39.551,0.000
1709140253.602,-27.344,-30.762,-39.062,-34.668,0.000
1709140253.606,-28.320,-38.086,-40.527,-36.621,0.000
1709140253.610,-36.621,-38.086,-41.992,-36.621,0.000
1709140253.614,-31.250,-30.273,-49.316,-40.039,0.000
1709140253.618,-17.578,-30.273,-43.457,-32.227,0.000
1709140253.622,-34.180,-34.180,-29.785,-41.504,0.000
1709140253.626,-48.340,-29.785,-33.203,-48.340,0.000
1709140253.630,-57.129,-29.297,-35.156,-41.992,0.000
1709140253.634,-46.875,-43.945,-35.156,-36.621,0.000
1709140253.638,-39.551,-50.781,-34.180,-32.227,0.000
1709140253.642,-49.805,-38.086,-30.762,-43.945,0.000
1709140253.646,-55.176,-34.668,-35.645,-53.711,0.000
1709140253.649,-55.176,-34.180,-42.969,-48.828,0.000
1709140253.653,-51.758,-29.785,-41.992,-38.574,0.000
1709140253.657,-41.992,-43.945,-36.133,-30.273,0.000
1709140253.661,-41.992,-45.410,-30.762,-31.250,0.000
1709140253.665,-59.082,-23.438,-35.645,-42.969,0.000
1709140253.669,-65.430,-8.789,-44.434,-51.758,0.000
1709140253.673,-54.688,-16.113,-38.574,-47.363,0.000
1709140253.677,-41.992,-30.273,-24.414,-46.387,0.000
1709140253.681,-39.551,-32.227,-20.996,-49.316,0.000
1709140253.685,-50.781,-40.527,-24.902,-50.293,0.000
1709140253.689,-55.176,-45.410,-28.809,-45.898,0.000
1709140253.692,-44.922,-49.316,-33.691,-33.203,0.000
1709140253.696,-32.227,-52.246,-29.785,-33.203,0.000
1709140253.700,-33.691,-61.035,-32.715,-42.969,0.000
1709140253.704,-38.086,-66.895,-46.875,-41.504,0.000
1709140253.708,-39.551,-39.551,-43.945,-28.320,0.000
1709140253.712,-39.062,-12.207,-34.180,-31.250,0.000
1709140253.716,-30.273,-19.531,-37.598,-37.109,0.000
1709140253.720,-21.484,-33.691,-39.551,-33.691,0.000
1709140253.724,-22.949,-35.645,-33.691,-22.949,0.000
1709140253.728,-35.156,-37.109,-40.039,-22.949,0.000
1709140253.732,-35.156,-30.762,-39.062,-24.414,0.000
1709140253.735,-26.367,-32.715,-30.273,-29.297,0.000
1709140253.739,-27.832,-38.574,-31.738,-41.016,0.000
1709140253.743,-29.785,-36.133,-37.109,-38.086,0.000
1709140253.747,-28.320,-36.621,-44.434,-34.180,0.000
1709140253.751,-27.832,-47.363,-43.945,-27.832,0.000
1709140253.755,-17.578,-43.457,-47.363,-19.043,0.000
1709140253.759,-9.277,-32.227,-39.551,-22.461,0.000
1709140253.763,-20.508,-23.438,-20.996,-26.367,0.000
1709140253.767,-21.484,-24.902,-20.508,-26.367,0.000
1709140253.771,-12.207,-24.902,-26.367,-19.531,0.000
1709140253.774,-10.742,-22.949,-32.715,-24.902,0.000
1709140253.778,-14.648,-29.785,-39.062,-27.344,0.000
1709140253.782,-14.160,-30.762,-39.551,-18.555,0.000
1709140253.786,-17.578,-16.113,-38.086,-23.438,0.000
1709140253.790,-20.996,-16.602,-37.109,-24.902,0.000
1709140253.794,-16.113,-28.320,-34.668,-20.020,0.000
1709140253.798,-17.090,-30.762,-37.598,-16.113,0.000
1709140253.802,-30.273,-29.297,-42.969,-35.156,0.000
1709140253.806,-40.039,-25.391,-47.363,-54.199,0.000
1709140253.810,-37.598,-14.648,-54.199,-48.340,0.000
1709140253.814,-22.461,-4.883,-57.129,-37.598,0.000
1709140253.817,-10.742,7.812,-60.547,-36.621,0.000
1709140253.821,-12.695,20.996,-61.035,-46.875,0.000
1709140253.825,-25.879,13.184,-61.523,-51.758,0.000
1709140253.829,-27.344,10.742,-66.406,-44.434,0.000
1709140253.833,-12.695,11.719,-70.312,-41.504,0.000
1709140253.837,-11.230,5.859,-64.941,-41.016,0.000
1709140253.841,-9.766,4.395,-73.242,-48.828,0.000
1709140253.845,-18.066,15.137,-83.008,-48.340,0.000
1709140253.849,-26.855,27.832,-79.590,-50.293,0.000
1709140253.853,-17.578,31.738,-81.055,-54.199,0.000
1709140253.856,-8.789,32.227,-77.637,-48.828,0.000
1709140253.860,-8.789,28.809,-80.566,-42.969,0.000
1709140253.864,-17.578,19.531,-84.473,-53.711,0.000
1709140253.868,-28.809,17.090,-88.867,-62.012,0.000
1709140253.872,-22.461,28.320,-88.867,-48.828,0.000
1709140253.876,-7.812,34.668,-81.055,-42.480,0.000
1709140253.880,-16.602,45.898,-89.844,-48.340,0.000
1709140253.884,-33.203,46.875,-95.703,-59.082,0.000
1709140253.888,-32.715,35.156,-82.520,-55.664,0.000
1709140253.892,-29.785,38.086,-74.219,-39.551,0.000
1709140253.895,-26.855,35.645,-77.637,-42.969,0.000
1709140253.899,-25.391,26.855,-75.684,-47.852,0.000
1709140253.903,-38.086,27.832,-82.031,-42.480,0.000
1709140253.907,-45.410,35.156,-83.008,-46.875,0.000
1709140253.911,-35.645,35.156,-69.336,-58.594,0.000
1709140253.915,-31.738,35.156,-67.383,-57.129,0.000
1709140253.919,-40.527,38.086,-76.172,-55.176,0.000
1709140253.923,-51.758,37.109,-77.637,-59.082,0.000
1709140253.927,-59.570,25.391,-71.289,-65.918,0.000
1709140253.931,-59.570,13.184,-65.918,-59.570,0.000
1709140253.935,-50.781,16.113,-61.035,-38.574,0.000
1709140253.939,-48.340,18.555,-74.219,-45.410,0.000
1709140253.943,-49.316,20.020,-80.078,-61.523,0.000
1709140253.947,-52.246,15.625,-66.895,-62.988,0.000
1709140253.951,-52.734,24.414,-64.941,-45.898,0.000
1709140253.954,-38.086,30.273,-69.336,-26.367,0.000
1709140253.958,-24.414,5.859,-60.547,-18.066,0.000
1709140253.962,-26.855,-2.930,-49.805,-29.297,0.000
1709140253.966,-34.180,19.531,-52.734,-39.062,0.000
1709140253.970,-27.344,30.273,-57.617,-27.832,0.000
1709140253.974,-17.090,13.184,-53.711,-17.090,0.000
1709140253.978,-8.789,2.441,-48.340,-25.879,0.000
1709140253.982,-16.113,12.695,-56.641,-43.945,0.000
1709140253.986,-30.273,10.254,-61.523,-38.574,0.000
1709140253.990,-24.414,-1.953,-48.828,-30.762,0.000
1709140253.994,-25.879,0.000,-49.316,-37.598,0.000
1709140253.997,-33.691,5.859,-56.641,-47.363,0.000
1709140254.001,-39.551,15.137,-53.711,-50.781,0.000
1709140254.005,-33.691,6.348,-43.945,-43.945,0.000
1709140254.009,-27.832,-14.648,-42.480,-32.715,0.000
1709140254.013,-39.062,-17.578,-52.734,-40.527,0.000
1709140254.017,-37.598,-8.789,-54.199,-47.852,0.000
1709140254.021,-39.062,4.395,-55.176,-52.246,0.000
1709140254.025,-40.527,-0.977,-59.570,-56.641,0.000
1709140254.029,-35.645,4.883,-59.082,-45.898,0.000
1709140254.033,-28.320,17.090,-49.316,-28.320,0.000
1709140254.037,-21.973,-6.348,-44.922,-20.996,0.000
1709140254.041,-25.391,-23.926,-45.898,-24.902,0.000
1709140254.044,-36.133,-9.766,-48.340,-38.086,0.000
1709140254.048,-31.250,-23.926,-59.082,-41.016,0.000
1709140254.052,-23.926,-24.902,-50.781,-31.738,0.000
1709140254.056,-32.227,-12.207,-32.227,-29.297,0.000
1709140254.060,-34.668,-21.973,-34.668,-31.738,0.000
1709140254.064,-47.852,-19.531,-41.504,-39.062,0.000
1709140254.068,-57.617,-11.719,-38.574,-45.410,0.000
1709140254.072,-51.270,-11.230,-45.898,-41.504,0.000
1709140254.076,-41.992,-27.832,-41.992,-44.922,0.000
1709140254.080,-43.457,-41.016,-33.203,-57.617,0.000
1709140254.084,-55.664,-37.109,-38.086,-49.316,0.000
1709140254.087,-59.570,-21.484,-33.203,-41.016,0.000
1709140254.091,-51.758,-37.598,-28.320,-44.434,0.000
1709140254.095,-46.875,-45.410,-34.668,-45.898,0.000
1709140254.099,-34.180,-25.391,-41.504,-39.062,0.000
1709140254.103,-36.621,-29.297,-45.410,-40.527,0.000
1709140254.107,-52.734,-26.855,-44.922,-55.664,0.000
1709140254.111,-49.805,-13.184,-40.039,-56.641,0.000
1709140254.115,-43.945,-15.137,-43.457,-51.270,0.000
1709140254.119,-38.086,-39.551,-42.969,-49.805,0.000
1709140254.123,-27.344,-58.105,-42.480,-48.340,0.000
1709140254.127,-32.715,-31.250,-46.875,-55.176,0.000
1709140254.130,-41.504,-15.625,-46.875,-49.805,0.000
1709140254.134,-39.551,-23.926,-46.875,-36.621,0.000
1709140254.138,-29.297,-32.227,-44.922,-30.273,0.000
1709140254.142,-37.109,-37.598,-34.180,-43.945,0.000
1709140254.146,-57.617,-26.855,-26.855,-52.734,0.000
1709140254.150,-48.340,-19.043,-32.227,-51.758,0.000
1709140254.154,-36.621,-27.344,-40.527,-49.805,0.000
1709140254.158,-40.527,-26.367,-35.156,-35.645,0.000
1709140254.162,-33.691,-30.762,-31.250,-25.879,0.000
1709140254.166,-43.945,-41.016,-31.738,-38.086,0.000
1709140254.169,-47.363,-55.176,-34.180,-38.086,0.000
1709140254.173,-38.086,-32.227,-40.039,-30.762,0.000
1709140254.177,-43.945,-4.395,-38.574,-32.715,0.000
1709140254.181,-50.781,-10.742,-30.762,-32.715,0.000
1709140254.185,-49.316,-31.250,-36.133,-42.969,0.000
1709140254.189,-48.828,-32.715,-53.711,-47.852,0.000
1709140254.193,-45.898,-24.902,-51.270,-43.945,0.000
1709140254.197,-28.320,-25.391,-41.992,-42.969,0.000
1709140254.201,-37.109,-31.738,-40.527,-39.062,0.000
1709140254.205,-46.387,-35.645,-43.457,-40.039,0.000
1709140254.208,-44.922,-28.320,-43.945,-36.133,0.000
1709140254.212,-43.945,-20.508,-29.785,-38.086,0.000
1709140254.216,-36.621,-31.250,-25.391,-39.551,0.000
1709140254.220,-20.508,-42.480,-37.109,-27.344,0.000
1709140254.224,-33.691,-28.320,-44.922,-36.621,0.000
1709140254.228,-50.293,-24.902,-39.062,-38.086,0.000
1709140254.232,-39.062,-41.016,-37.109,-33.691,0.000
1709140254.236,-18.555,-17.578,-43.945,-31.738,0.000
1709140254.240,-26.367,-26.855,-36.621,-36.621,0.000
1709140254.244,-40.527,-46.875,-29.785,-49.805,0.000
1709140254.248,-38.086,-39.062,-34.668,-48.340,0.000
1709140254.252,-33.691,-30.762,-34.668,-33.691,0.000
1709140254.256,-35.645,-12.207,-44.434,-40.527,0.000
1709140254.259,-36.133,-27.344,-49.316,-49.316,0.000
1709140254.263,-39.062,-46.387,-40.527,-48.828,0.000
1709140254.267,-50.781,-39.062,-43.457,-63.965,0.000
1709140254.271,-62.988,-29.297,-46.875,-71.777,0.000
1709140254.275,-61.035,-36.133,-42.480,-54.199,0.000
1709140254.279,-43.945,-37.598,-50.781,-40.039,0.000
1709140254.283,-42.480,-40.527,-55.664,-41.504,0.000
1709140254.287,-58.594,-60.547,-43.945,-44.434,0.000
1709140254.291,-57.129,-45.410,-34.180,-38.086,0.000
1709140254.295,-47.852,-35.156,-39.551,-29.785,0.000
1709140254.299,-33.203,-30.762,-43.945,-34.180,0.000
1709140254.303,-34.180,-18.555,-39.551,-36.621,0.000
1709140254.306,-43.945,-39.551,-43.457,-32.227,0.000
1709140254.310,-46.387,-59.570,-39.062,-30.762,0.000
1709140254.314,-41.992,-31.738,-40.039,-30.273,0.000
1709140254.318,-33.203,-27.832,-37.598,-31.250,0.000
1709140254.322,-32.227,-41.016,-21.973,-34.180,0.000
1709140254.326,-40.039,-34.668,-17.090,-34.668,0.000
1709140254.330,-49.805,-24.414,-25.879,-43.945,0.000
1709140254.334,-40.527,-26.855,-29.785,-49.805,0.000
1709140254.338,-34.180,-31.738,-33.691,-44.922,0.000
1709140254.342,-40.527,-23.438,-36.133,-38.086,0.000
1709140254.346,-31.250,-41.016,-38.086,-44.434,0.000
1709140254.349,-38.574,-44.434,-48.340,-61.523,0.000
1709140254.353,-48.828,-39.551,-47.852,-52.734,0.000
1709140254.357,-33.691,-56.152,-37.109,-41.992,0.000
1709140254.361,-33.691,-37.109,-39.551,-54.199,0.000
1709140254.365,-47.363,-17.578,-50.781,-55.176,0.000
1709140254.369,-49.805,-24.414,-50.293,-42.969,0.000
1709140254.373,-36.621,-18.555,-41.992,-44.922,0.000
1709140254.377,-43.457,-15.137,-36.621,-61.523,0.000
1709140254.381,-50.293,-26.367,-33.203,-63.965,0.000
1709140254.385,-40.527,-30.762,-40.039,-55.176,0.000
1709140254.389,-46.387,-28.320,-43.945,-53.223,0.000
1709140254.393,-44.922,-39.062,-43.457,-48.828,0.000
1709140254.396,-26.855,-43.945,-40.039,-32.715,0.000
1709140254.400,-26.367,-40.039,-41.992,-22.949,0.000
1709140254.404,-35.156,-54.688,-50.781,-42.480,0.000
1709140254.408,-34.668,-60.059,-51.758,-51.270,0.000
1709140254.412,-32.715,-29.297,-39.551,-36.621,0.000
1709140254.416,-35.156,-23.926,-34.668,-35.645,0.000
1709140254.420,-34.668,-30.273,-35.156,-41.992,0.000
1709140254.424,-47.363,-35.156,-32.715,-41.504,0.000
1709140254.428,0.000,-37.598,-43.945,-43.457,0.000
1709140254.432,0.000,-24.902,-43.457,-42.480,0.000
1709140254.436,0.000,-23.926,-41.992,-38.574,0.000
1709140254.439,0.000,-40.527,-43.945,-33.203,0.000
1709140254.443,0.000,-43.945,-37.109,-51.270,0.000
1709140254.447,0.000,-32.715,-26.855,-59.570,0.000
1709140254.451,0.000,-42.480,-18.066,-36.621,0.000
1709140254.455,0.000,-61.035,-33.203,-23.926,0.000
1709140254.459,0.000,-35.156,-45.410,-20.508,0.000
1709140254.463,0.000,-9.766,-36.133,-27.344,0.000
1709140254.467,0.000,-14.648,-29.785,-36.133,0.000
1709140254.471,0.000,-18.555,-32.227,-38.086,0.000
1709140254.475,-25.879,-14.160,-37.109,-43.945,0.000
1709140254.479,-21.484,-18.066,-42.480,-46.875,0.000
1709140254.482,-16.602,-27.344,-48.340,-42.969,0.000
1709140254.486,-30.273,-42.480,-43.457,-43.945,0.000
1709140254.490,-43.457,-37.598,-43.457,-50.293,0.000
1709140254.494,-35.156,-19.531,-44.434,-42.480,0.000
1709140254.498,-32.715,-27.832,-40.039,-53.711,0.000
1709140254.502,-37.109,-40.039,-39.551,-53.711,0.000
1709140254.506,-36.621,-37.109,-41.504,-36.133,0.000
1709140254.510,-43.945,-24.902,-51.270,-44.434,0.000
1709140254.514,-45.410,-24.414,-42.480,-51.270,0.000
1709140254.518,-39.551,-33.203,-34.180,-44.922,0.000
1709140254.521,-42.969,-47.852,-50.293,-46.387,0.000
1709140254.525,-37.109,-40.527,-45.898,-47.852,0.000
1709140254.529,-40.527,-26.367,-36.133,-47.363,0.000
1709140254.533,-38.086,-35.645,-33.203,-36.133,0.000
1709140254.537,-13.672,-37.598,-30.762,-33.691,0.000
1709140254.541,-17.090,-29.297,-33.691,-47.363,0.000
1709140254.545,-45.410,-20.508,-37.109,-52.246,0.000
1709140254.549,-39.551,-21.973,-34.180,-40.527,0.000
1709140254.553,-29.297,-38.574,-31.738,-34.180,0.000
1709140254.557,-28.809,-41.504,-31.250,-31.738,0.000
1709140254.561,-24.902,-33.203,-31.738,-37.598,0.000
1709140254.564,-39.062,-35.156,-34.180,-40.527,0.000
1709140254.568,-50.293,-25.879,-44.922,-32.227,0.000
1709140254.572,-42.480,-25.391,-41.992,-35.156,0.000
1709140254.576,-25.391,-51.758,-32.227,-36.621,0.000
1709140254.580,-18.066,-68.359,-37.109,-36.133,0.000
1709140254.584,-20.996,-24.414,-36.621,-39.062,0.000
1709140254.588,-31.250,-11.719,-45.410,-42.480,0.000
1709140254.592,-32.715,-31.250,-50.781,-47.852,0.000
1709140254.596,-26.367,-25.391,-39.551,-40.039,0.000
1709140254.600,-30.273,-16.602,-39.551,-50.293,0.000
1709140254.603,-38.574,-19.043,-41.504,-58.105,0.000
1709140254.607,-41.992,-20.996,-44.434,-54.199,0.000
1709140254.611,-32.715,-32.227,-50.293,-45.898,0.000
1709140254.615,-35.156,-44.434,-43.457,-40.039,0.000
1709140254.619,-22.461,-39.062,-43.457,-35.156,0.000
1709140254.623,-18.066,-32.715,-50.781,-37.598,0.000
1709140254.627,-42.480,-32.227,-43.457,-45.410,0.000
1709140254.631,-35.645,-36.621,-35.645,-46.875,0.000
1709140254.635,-27.344,-34.180,-35.156,-43.457,0.000
1709140254.639,-26.855,-37.109,-36.133,-39.062,0.000
1709140254.642,-25.879,-26.855,-36.621,-45.898,0.000
1709140254.646,-40.039,-26.855,-40.039,-46.875,0.000
1709140254.650,-34.668,-32.715,-40.039,-20.508,0.000
1709140254.654,-23.438,-35.156,-38.574,-8.789,0.000
1709140254.658,-32.227,-32.227,-41.016,-36.133,0.000
1709140254.663,0.000,-35.156,-49.805,-55.664,0.000
1709140254.666,0.000,-39.551,-43.457,-53.223,0.000
1709140254.670,0.000,-26.855,-33.203,-48.828,0.000
1709140254.674,0.000,-25.391,-39.551,-35.645,0.000
1709140254.678,0.000,-50.781,-50.293,-24.902,0.000
1709140254.682,0.000,-62.012,-44.922,-34.180,0.000
1709140254.686,0.000,-44.922,-31.738,-31.738,0.000
1709140254.690,0.000,-35.645,-32.715,-27.832,0.000
1709140254.694,0.000,-20.996,-33.203,-38.086,0.000
1709140254.698,0.000,-22.461,-22.949,-34.180,0.000
1709140254.702,0.000,-23.926,-18.555,-31.250,0.000
1709140254.706,0.000,-23.438,-21.973,-40.527,0.000
1709140254.710,-57.617,-36.133,-34.668,-38.574,0.000
1709140254.713,-53.711,-42.480,-42.969,-36.621,0.000
1709140254.717,-52.734,-36.621,-31.250,-42.969,0.000
1709140254.721,-47.363,-27.344,-27.344,-42.969,0.000
1709140254.725,-39.551,-28.320,-35.645,-46.387,0.000
1709140254.729,-40.039,-54.688,-33.691,-40.527,0.000
1709140254.733,-37.109,-48.828,-23.438,-22.461,0.000
1709140254.737,-24.902,-24.414,-34.180,-24.902,0.000
1709140254.741,-27.344,-26.855,-39.062,-32.227,0.000
1709140254.745,-36.133,-50.293,-31.250,-25.391,0.000
1709140254.749,-32.227,-46.875,-35.156,-29.297,0.000
1709140254.753,-30.273,-21.484,-51.758,-29.297,0.000
1709140254.756,-31.738,-20.020,-48.340,-31.250,0.000
1709140254.760,-37.109,-19.531,-36.133,-39.551,0.000
1709140254.764,-46.387,-19.043,-31.738,-36.621,0.000
1709140254.768,-41.016,-41.504,-35.645,-29.297,0.000
1709140254.772,-31.250,-40.527,-33.691,-28.320,0.000
1709140254.776,-31.250,-21.484,-30.273,-22.461,0.000
1709140254.780,-22.949,-29.785,-40.039,-27.832,0.000
1709140254.784,-35.156,-32.715,-38.574,-37.598,0.000
1709140254.788,-50.781,-32.227,-37.109,-38.574,0.000
1709140254.792,-47.852,-19.531,-28.809,-27.344,0.000
1709140254.796,-35.156,-8.301,-23.926,-25.391,0.000
1709140254.799,-22.949,-26.855,-24.414,-29.785,0.000
1709140254.803,-30.762,-43.457,-18.066,-37.598,0.000
1709140254.807,-41.992,-29.785,-25.391,-40.039,0.000
1709140254.811,-44.922,-17.578,-31.738,-35.156,0.000
1709140254.815,-43.945,-22.949,-29.785,-39.551,0.000
1709140254.819,-35.645,-22.949,-34.668,-38.086,0.000
1709140254.823,-43.457,-22.949,-35.156,-43.945,0.000
1709140254.827,-39.551,-24.902,-28.320,-51.270,0.000
1709140254.831,-48.828,-38.086,-25.879,-49.805,0.000
1709140254.835,-59.082,-41.992,-32.227,-43.457,0.000
1709140254.839,-42.969,-23.438,-41.992,-42.480,0.000
1709140254.842,-38.574,-21.484,-47.852,-56.152,0.000
1709140254.846,-43.945,-31.250,-31.738,-60.547,0.000
1709140254.850,-43.457,-32.227,-26.855,-49.805,0.000
1709140254.854,-34.180,-41.016,-30.762,-45.898,0.000
1709140254.858,-39.062,-35.645,-32.715,-49.316,0.000
1709140254.862,-45.898,-41.016,-35.156,-58.594,0.000
1709140254.866,-49.805,-44.922,-38.086,-51.758,0.000
1709140254.870,-54.199,-28.809,-43.457,-41.992,0.000
1709140254.874,-37.598,-34.668,-43.457,-38.086,0.000
1709140254.878,-33.203,-45.898,-35.645,-19.531,0.000
1709140254.881,-39.062,-28.320,-24.902,-14.648,0.000
1709140254.885,-41.992,-27.832,-30.273,-31.738,0.000
1709140254.889,-37.598,-37.109,-38.574,-32.227,0.000
1709140254.893,-27.832,-34.668,-29.297,-23.438,0.000
1709140254.897,-25.391,-25.879,-20.996,-27.832,0.000
1709140254.901,-41.504,-20.996,-27.832,-43.945,0.000
1709140254.905,-53.711,-22.461,-30.273,-43.945,0.000
1709140254.909,-56.641,-20.508,-28.809,-40.039,0.000
1709140254.913,-49.805,-22.461,-37.598,-41.016,0.000
1709140254.917,-39.551,-29.297,-36.133,-39.062,0.000
1709140254.921,-36.621,-45.898,-33.203,-33.203,0.000
1709140254.925,-34.668,-41.992,-41.016,-26.855,0.000
1709140254.929,-48.828,-32.227,-45.898,-42.969,0.000
1709140254.932,-50.781,-37.598,-30.762,-47.363,0.000
1709140254.936,-34.668,-40.527,-26.367,-42.480,0.000
1709140254.940,-28.320,-26.367,-38.086,-41.992,0.000
1709140254.944,-37.109,-13.672,-34.180,-41.016,0.000
1709140254.948,-59.082,-18.555,-30.273,-48.828,0.000
1709140254.952,-63.477,-18.066,-32.227,-45.898,0.000
1709140254.956,-47.852,-27.832,-34.180,-48.340,0.000
1709140254.960,-35.156,-31.250,-29.785,-50.293,0.000
1709140254.964,-35.156,-30.762,-29.785,-43.945,0.000
1709140254.968,-40.527,-28.320,-35.645,-47.852,0.000
1709140254.971,-48.340,-19.531,-29.785,-48.828,0.000
1709140254.975,-45.898,-16.602,-32.715,-50.781,0.000
1709140254.979,-32.227,-19.043,-37.109,-49.316,0.000
1709140254.983,-33.203,-25.879,-30.762,-36.621,0.000
1709140254.987,-38.086,-26.367,-33.203,-27.344,0.000
1709140254.991,-32.227,-24.902,-41.016,-18.066,0.000
1709140254.995,-29.785,-35.645,-38.086,-20.996,0.000
1709140254.999,-37.109,-29.785,-40.527,-27.832,0.000
1709140255.003,-35.156,-16.113,-43.945,-29.785,0.000
1709140255.007,-39.551,-33.691,-36.621,-36.133,0.000
1709140255.010,-44.922,-43.457,-39.551,-42.480,0.000
1709140255.014,-40.039,-32.227,-43.945,-36.621,0.000
1709140255.018,-30.762,-37.598,-37.598,-33.691,0.000
1709140255.022,-21.973,-29.785,-29.297,-41.504,0.000
1709140255.026,-37.109,-19.531,-36.133,-38.574,0.000
1709140255.030,-59.082,-18.066,-44.922,-40.527,0.000
1709140255.034,-56.152,-22.949,-43.457,-35.645,0.000
1709140255.038,-42.480,-42.480,-44.922,-34.668,0.000
1709140255.042,-39.062,-43.457,-41.992,-45.898,0.000
1709140255.046,-41.992,-43.457,-36.133,-57.617,0.000
1709140255.050,-56.152,-33.691,-35.645,-62.012,0.000
1709140255.054,-62.988,-25.391,-40.039,-62.012,0.000
1709140255.058,-50.293,-21.973,-43.457,-59.570,0.000
1709140255.062,-52.246,-34.180,-43.457,-56.641,0.000
1709140255.065,-64.453,-36.621,-40.039,-67.871,0.000
1709140255.069,-57.617,-36.133,-38.086,-68.848,0.000
1709140255.073,-48.828,-35.156,-41.504,-51.758,0.000
1709140255.077,-53.711,-28.809,-41.992,-46.387,0.000
1709140255.081,-50.781,-26.855,-33.691,-49.805,0.000
1709140255.085,-46.387,-45.410,-27.344,-47.852,0.000
1709140255.089,-53.223,-46.875,-40.039,-43.457,0.000
1709140255.093,-50.293,-20.508,-41.016,-41.992,0.000
1709140255.097,-38.086,-22.949,-31.738,-40.039,0.000
1709140255.101,-37.109,-30.762,-34.180,-39.551,0.000
1709140255.105,-43.457,-33.691,-39.551,-44.922,0.000
1709140255.108,-46.875,-35.156,-40.039,-47.852,0.000
1709140255.112,-38.574,-30.273,-41.992,-37.598,0.000
1709140255.116,-34.180,-30.273,-40.527,-30.762,0.000
1709140255.120,-36.621,-39.062,-35.645,-33.691,0.000
1709140255.124,-41.992,-38.574,-26.367,-34.668,0.000
1709140255.128,-53.711,-50.781,-30.762,-40.527,0.000
1709140255.132,-51.270,-41.504,-40.527,-39.551,0.000
1709140255.136,-31.738,-14.648,-37.109,-9.277,0.000
1709140255.140,-21.973,-15.137,-30.762,-15.625,0.000
1709140255.144,-29.785,-24.414,-31.250,-38.086,0.000
1709140255.148,-30.762,-25.391,-39.551,-38.086,0.000
1709140255.151,-29.297,-32.227,-37.109,-26.367,0.000
1709140255.155,-25.879,-31.250,-29.785,-24.414,0.000
1709140255.159,-17.578,-22.461,-36.621,-29.785,0.000
1709140255.163,-11.230,-18.555,-46.387,-32.227,0.000
1709140255.167,-15.137,-32.715,-52.246,-20.020,0.000
1709140255.171,-24.414,-41.016,-51.758,-14.160,0.000
1709140255.175,-33.203,-20.508,-36.133,-20.508,0.000
1709140255.179,-29.785,-6.348,-20.020,-21.973,0.000
1709140255.183,-31.250,-12.695,-19.531,-21.973,0.000
1709140255.187,-44.922,-12.207,-29.785,-34.180,0.000
1709140255.191,-37.598,-8.789,-34.180,-37.109,0.000
1709140255.194,-22.949,-13.184,-31.250,-33.203,0.000
1709140255.198,-22.949,-19.043,-40.527,-26.367,0.000
1709140255.202,-29.297,-33.203,-50.293,-30.273,0.000
1709140255.206,-39.551,-32.715,-48.340,-47.363,0.000
1709140255.210,-44.922,-20.020,-52.246,-48.340,0.000
1709140255.214,-46.875,-25.391,-41.504,-44.434,0.000
1709140255.218,-44.922,-37.109,-27.344,-45.410,0.000
1709140255.222,-51.758,-30.762,-35.645,-53.223,0.000
1709140255.226,-65.918,-29.297,-42.480,-58.594,0.000
1709140255.230,-56.641,-36.133,-49.316,-55.176,0.000
1709140255.234,-46.387,-38.086,-41.504,-45.898,0.000
1709140255.237,-47.363,-35.156,-29.785,-37.109,0.000
1709140255.241,-45.898,-25.391,-32.227,-48.340,0.000
1709140255.245,-50.781,-23.438,-37.598,-56.152,0.000
1709140255.249,-56.641,-26.855,-42.480,-55.176,0.000
1709140255.253,-53.711,-32.227,-34.668,-41.016,0.000
1709140255.257,-44.434,-36.133,-33.203,-28.320,0.000
1709140255.261,-34.180,-27.832,-42.480,-45.410,0.000
1709140255.265,-35.156,-25.879,-34.668,-53.223,0.000
1709140255.269,-45.410,-29.297,-33.203,-50.293,0.000
1709140255.273,-41.016,-24.902,-44.922,-37.598,0.000
1709140255.276,-34.668,-42.480,-42.480,-33.691,0.000
1709140255.280,-41.016,-52.734,-42.969,-46.387,0.000
1709140255.284,-44.922,-42.480,-45.898,-59.082,0.000
1709140255.288,-66.406,-52.734,-44.922,-58.105,0.000
1709140255.292,-74.707,-43.457,-43.945,-54.688,0.000
1709140255.296,-46.387,-25.391,-41.504,-53.711,0.000
1709140255.300,-31.250,-24.414,-36.621,-45.898,0.000
1709140255.304,-34.180,-17.090,-27.832,-41.992,0.000
1709140255.308,-32.227,-35.645,-26.367,-43.945,0.000
1709140255.312,-36.133,-50.293,-28.809,-39.551,0.000
1709140255.316,-36.133,-31.250,-39.062,-39.062,0.000
1709140255.319,-30.273,-19.043,-48.340,-45.410,0.000
1709140255.323,-32.715,-21.973,-40.527,-44.434,0.000
1709140255.327,-36.133,-30.273,-37.598,-38.574,0.000
1709140255.331,-35.156,-36.133,-37.598,-41.016,0.000
1709140255.335,-31.250,-30.273,-29.297,-37.598,0.000
1709140255.339,-32.715,-20.508,-31.738,-35.156,0.000
1709140255.343,-31.250,-31.738,-31.250,-30.273,0.000
1709140255.347,-33.203,-32.227,-29.297,-23.926,0.000
1709140255.351,-31.738,-21.973,-33.691,-22.949,0.000
1709140255.355,-23.438,-34.668,-36.133,-13.672,0.000
1709140255.358,-13.672,-27.344,-44.922,-15.137,0.000
1709140255.362,-21.973,-14.648,-54.199,-27.832,0.000
1709140255.366,-34.668,-18.066,-50.293,-36.133,0.000
1709140255.370,-27.832,-24.902,-47.363,-37.109,0.000
1709140255.374,-20.996,-29.297,-35.645,-37.109,0.000
1709140255.378,-22.461,-28.809,-33.691,-37.109,0.000
1709140255.382,-27.344,-28.809,-39.062,-41.504,0.000
1709140255.386,-32.227,-23.438,-31.250,-48.828,0.000
1709140255.390,-37.109,-30.273,-31.250,-44.922,0.000
1709140255.394,-44.922,-37.598,-40.527,-43.945,0.000
1709140255.397,-42.969,-27.832,-37.109,-43.945,0.000
1709140255.401,-51.270,-22.461,-37.598,-49.316,0.000
1709140255.405,-60.059,-23.926,-34.180,-44.922,0.000
1709140255.409,-47.363,-28.809,-36.621,-34.668,0.000
1709140255.413,-45.410,-36.133,-38.574,-37.109,0.000
1709140255.417,-43.945,-51.270,-28.320,-28.320,0.000
1709140255.421,-40.039,-55.176,-31.738,-26.367,0.000
1709140255.425,-47.363,-34.180,-33.203,-35.645,0.000
1709140255.429,-49.805,-12.695,-36.621,-44.434,0.000
1709140255.433,-53.223,-28.320,-41.992,-45.898,0.000
1709140255.437,-53.223,-41.016,-39.062,-37.598,0.000
1709140255.441,-41.016,-28.320,-33.691,-36.133,0.000
1709140255.444,-40.527,-29.785,-29.785,-40.527,0.000
1709140255.448,-51.270,-33.691,-32.227,-44.434,0.000
1709140255.452,-44.922,-36.133,-33.691,-39.551,0.000
1709140255.456,-37.109,-43.945,-41.992,-33.691,0.000
1709140255.460,-41.016,-47.363,-45.410,-37.109,0.000
1709140255.464,-45.410,-43.945,-42.969,-43.945,0.000
1709140255.468,-54.688,-33.691,-41.016,-47.852,0.000
1709140255.472,-48.828,-22.461,-41.504,-43.457,0.000
1709140255.476,-36.621,-26.855,-44.922,-35.156,0.000
1709140255.480,-46.387,-44.922,-48.340,-36.621,0.000
1709140255.484,-43.457,-52.246,-42.969,-38.086,0.000
1709140255.487,-41.992,-41.016,-43.945,-33.691,0.000
1709140255.491,-46.387,-31.250,-50.293,-38.574,0.000
1709140255.495,-39.062,-35.645,-47.363,-23.438,0.000
1709140255.499,-30.762,-30.762,-49.805,-11.719,0.000
1709140255.503,-26.367,-20.996,-56.641,-33.691,0.000
1709140255.507,-37.598,-23.438,-51.758,-46.387,0.000
1709140255.511,-51.270,-29.297,-44.922,-47.363,0.000
1709140255.515,-43.457,-25.391,-33.691,-41.992,0.000
1709140255.519,-35.156,-31.738,-24.414,-38.086,0.000
1709140255.523,-41.992,-36.133,-29.297,-48.828,0.000
1709140255.527,-51.270,-30.762,-36.133,-51.270,0.000
1709140255.530,-52.246,-36.133,-31.738,-37.109,0.000
1709140255.534,-43.945,-30.762,-33.203,-34.180,0.000
1709140255.538,-36.133,-39.062,-39.551,-43.457,0.000
1709140255.542,-34.180,-33.691,-43.457,-39.062,0.000
1709140255.546,-43.457,-18.066,-39.551,-45.898,0.000
1709140255.550,-52.734,-37.598,-31.738,-51.758,0.000
1709140255.554,-53.223,-50.781,-28.320,-43.945,0.000
1709140255.558,-51.270,-34.668,-30.762,-42.480,0.000
1709140255.562,-46.387,-26.855,-36.621,-42.480,0.000
1709140255.566,-48.828,-22.461,-32.227,-39.062,0.000
1709140255.570,-47.852,-29.297,-26.855,-36.133,0.000
1709140255.573,-38.574,-47.363,-28.320,-29.785,0.000
1709140255.577,-37.598,-41.992,-37.598,-30.762,0.000
1709140255.581,-31.250,-29.785,-42.480,-35.156,0.000
1709140255.585,-26.855,-29.785,-36.133,-30.273,0.000
1709140255.589,-30.762,-44.922,-41.504,-36.133,0.000
1709140255.593,-32.715,-37.109,-42.969,-42.969,0.000
1709140255.597,-38.574,-21.973,-40.527,-31.738,0.000
1709140255.601,-34.668,-25.391,-33.691,-25.391,0.000
1709140255.605,-35.156,-30.762,-27.344,-21.484,0.000
1709140255.609,-41.016,-30.762,-34.180,-32.227,0.000
1709140255.613,-41.504,-49.805,-42.969,-36.133,0.000
1709140255.616,-31.738,-58.594,-44.922,-35.645,0.000
1709140255.620,-15.625,-28.320,-40.527,-33.203,0.000
1709140255.624,-27.832,-24.414,-39.062,-36.621,0.000
1709140255.628,-42.969,-42.969,-32.715,-34.180,0.000
1709140255.632,-43.945,-38.086,-37.598,-30.273,0.000
1709140255.636,-43.457,-31.738,-47.363,-39.551,0.000
1709140255.640,-38.086,-34.180,-50.781,-40.039,0.000
1709140255.644,-40.039,-38.574,-57.129,-47.363,0.000
1709140255.648,-53.711,-63.477,-49.316,-55.664,0.000
1709140255.652,-57.129,-58.105,-44.922,-57.617,0.000
1709140255.655,-47.363,-34.668,-49.316,-49.316,0.000
1709140255.659,-38.574,-20.508,-51.270,-48.340,0.000
1709140255.663,-36.133,-28.320,-41.016,-54.688,0.000
1709140255.667,-41.016,-35.156,-34.180,-45.410,0.000
1709140255.671,-46.875,-26.855,-43.457,-36.133,0.000
1709140255.675,-41.016,-34.668,-48.828,-35.645,0.000
1709140255.679,-28.320,-43.457,-43.945,-32.227,0.000
1709140255.683,-21.484,-22.949,-39.062,-29.785,0.000
1709140255.687,-26.855,-14.160,-41.504,-36.133,0.000
1709140255.691,-32.227,-32.715,-40.039,-42.969,0.000
1709140255.694,-21.973,-55.176,-40.527,-44.922,0.000
1709140255.698,-14.160,-45.898,-40.039,-43.457,0.000
1709140255.702,-33.203,-27.344,-32.715,-42.480,0.000
1709140255.706,-43.457,-30.762,-29.297,-45.898,0.000
1709140255.710,-49.805,-33.691,-40.039,-55.664,0.000
1709140255.714,-48.828,-26.855,-40.039,-52.734,0.000
1709140255.718,-36.621,-22.461,-31.738,-39.551,0.000
1709140255.722,-30.762,-29.785,-32.715,-41.992,0.000
1709140255.726,-38.086,-39.062,-35.645,-59.570,0.000
1709140255.730,-56.641,-36.133,-37.598,-56.152,0.000
1709140255.733,-57.129,-35.156,-30.273,-44.922,0.000
1709140255.737,-41.504,-47.852,-21.973,-40.527,0.000
1709140255.741,-36.133,-36.133,-31.738,-46.875,0.000
1709140255.745,-37.598,-33.691,-30.762,-45.898,0.000
1709140255.749,-47.363,-32.227,-25.879,-41.504,0.000
1709140255.753,-40.039,-28.809,-28.320,-29.297,0.000
1709140255.757,-29.297,-41.504,-31.738,-22.461,0.000
1709140255.761,-29.297,-48.340,-33.691,-30.273,0.000
1709140255.765,-50.781,-44.922,-33.203,-34.668,0.000
1709140255.769,-62.988,-38.086,-27.344,-36.621,0.000
1709140255.772,-50.293,-39.062,-28.809,-29.785,0.000
1709140255.776,-31.738,-47.363,-32.227,-11.230,0.000
1709140255.780,-27.832,-54.199,-29.297,-6.348,0.000
1709140255.784,-39.551,-47.852,-28.320,-33.203,0.000
1709140255.788,-48.828,-40.527,-28.809,-40.527,0.000
1709140255.792,-52.734,-50.293,-30.762,-29.297,0.000
1709140255.796,-41.016,-53.711,-32.227,-22.949,0.000
1709140255.800,-28.809,-49.316,-29.785,-21.973,0.000
1709140255.804,-42.480,-46.387,-37.109,-41.016,0.000
1709140255.808,-50.781,-46.875,-38.086,-51.270,0.000
1709140255.812,-45.898,-45.898,-29.297,-34.180,0.000
1709140255.816,-41.016,-37.598,-31.250,-19.043,0.000
1709140255.819,-39.551,-42.969,-31.250,-18.555,0.000
1709140255.823,-28.809,-39.551,-38.574,-21.973,0.000
1709140255.827,-37.598,-21.973,-38.086,-25.879,0.000
1709140255.831,-50.781,-28.320,-24.414,-33.691,0.000
1709140255.835,-41.016,-48.340,-27.344,-37.109,0.000
1709140255.839,-40.039,-56.641,-34.180,-44.922,0.000
1709140255.843,-49.805,-50.293,-31.250,-53.223,0.000
1709140255.847,-52.734,-39.062,-22.949,-49.316,0.000
1709140255.851,-43.945,-39.551,-18.555,-40.527,0.000
1709140255.855,-39.551,-41.504,-23.438,-41.992,0.000
1709140255.859,-34.180,-52.734,-28.320,-34.180,0.000
1709140255.862,-30.273,-56.641,-27.832,-20.996,0.000
1709140255.866,-34.180,-34.668,-27.832,-18.555,0.000
1709140255.870,-33.691,-16.602,-23.926,-12.207,0.000
1709140255.874,-35.645,-16.602,-29.297,-19.531,0.000
1709140255.878,-25.879,-3.418,-43.945,-25.391,0.000
1709140255.882,-21.484,-14.160,-32.227,-18.555,0.000
1709140255.886,-38.574,-29.785,-27.344,-35.156,0.000
1709140255.890,-50.293,-26.855,-31.738,-40.039,0.000
1709140255.894,-45.898,-37.109,-33.203,-28.809,0.000
1709140255.898,-41.504,-33.691,-39.062,-29.297,0.000
1709140255.902,-39.062,-30.762,-46.875,-36.133,0.000
1709140255.905,-38.574,-39.062,-35.645,-42.480,0.000
1709140255.909,-46.387,-49.316,-23.926,-51.270,0.000
1709140255.913,-42.969,-45.898,-32.227,-54.688,0.000
1709140255.917,-41.016,-41.016,-42.480,-49.316,0.000
1709140255.921,-39.062,-41.504,-48.340,-57.129,0.000
1709140255.925,-36.133,-46.387,-46.875,-62.012,0.000
1709140255.929,-40.039,-44.922,-42.480,-55.176,0.000
1709140255.933,-39.551,-41.504,-47.363,-53.711,0.000
1709140255.937,-31.738,-45.410,-52.734,-46.875,0.000
1709140255.941,-32.227,-45.410,-49.316,-43.945,0.000
1709140255.945,-35.156,-35.645,-46.875,-47.852,0.000
1709140255.948,-33.203,-23.438,-43.457,-43.945,0.000
1709140255.952,-31.250,-35.156,-40.039,-40.039,0.000
1709140255.956,-31.250,-50.293,-34.180,-41.504,0.000
1709140255.960,-22.949,-48.828,-27.344,-25.391,0.000
1709140255.964,-27.344,-42.480,-25.879,-22.949,0.000
1709140255.968,-35.156,-42.969,-26.367,-32.227,0.000
1709140255.972,-33.691,-40.039,-26.855,-27.832,0.000
1709140255.976,-39.062,-27.344,-29.297,-39.551,0.000
1709140255.980,-46.387,-30.762,-30.762,-52.246,0.000
1709140255.984,-44.922,-35.645,-33.691,-48.828,0.000
1709140255.988,-54.199,-34.180,-35.156,-40.527,0.000
1709140255.992,-58.594,-52.734,-40.039,-35.645,0.000
1709140255.996,-55.176,-63.965,-39.062,-38.574,0.000
1709140255.999,-53.711,-37.109,-41.504,-42.480,0.000
1709140256.003,-62.012,-31.738,-46.387,-44.922,0.000
1709140256.007,-60.059,-39.551,-32.715,-43.457,0.000
1709140256.011,-52.246,-8.789,-38.086,-48.828,0.000
1709140256.015,-49.805,-12.695,-47.363,-49.805,0.000
1709140256.019,-44.922,-32.227,-40.527,-54.199,0.000
1709140256.023,-45.410,-26.855,-44.434,-61.523,0.000
1709140256.027,-45.898,-31.250,-50.781,-54.688,0.000
1709140256.031,-41.016,-29.297,-45.898,-48.340,0.000
1709140256.035,-36.621,-42.480,-41.016,-46.875,0.000
1709140256.038,-34.668,-54.688,-43.945,-45.898,0.000
1709140256.042,-33.691,-30.762,-45.410,-41.016,0.000
1709140256.046,-41.504,-24.414,-40.039,-41.504,0.000
1709140256.050,-42.480,-32.715,-43.457,-41.016,0.000
1709140256.054,-41.992,-28.809,-38.574,-31.250,0.000
1709140256.058,-29.785,-39.551,-26.367,-36.133,0.000
1709140256.062,-38.086,-54.199,-32.715,-45.410,0.000
1709140256.066,-55.664,-45.410,-35.645,-43.945,0.000
1709140256.070,-52.734,-24.902,-32.227,-45.898,0.000
1709140256.074,-50.781,-16.602,-28.809,-44.922,0.000
1709140256.077,-40.039,-31.250,-21.484,-39.062,0.000
1709140256.081,-35.156,-20.508,-27.344,-43.457,0.000
1709140256.085,-42.969,-4.395,-31.250,-42.480,0.000
1709140256.089,-50.293,-18.555,-26.855,-41.504,0.000
1709140256.093,-51.270,-30.762,-35.645,-41.504,0.000
1709140256.097,-44.434,-38.574,-41.504,-30.273,0.000
1709140256.101,-44.434,-34.668,-46.387,-47.363,0.000
1709140256.105,-53.711,-29.785,-45.410,-55.176,0.000
1709140256.109,-57.617,-35.645,-50.781,-41.992,0.000
1709140256.113,-63.965,-41.992,-57.129,-54.199,0.000
1709140256.116,-61.035,-41.016,-45.898,-61.035,0.000
1709140256.120,-52.246,-30.762,-37.598,-57.617,0.000
1709140256.124,-51.758,-28.809,-36.621,-61.035,0.000
1709140256.128,-42.480,-33.691,-40.039,-55.664,0.000
1709140256.132,-39.551,-40.527,-46.875,-50.781,0.000
1709140256.136,-34.180,-47.363,-47.852,-51.270,0.000
1709140256.140,-24.414,-56.641,-43.945,-40.039,0.000
1709140256.144,-29.297,-43.457,-56.152,-46.387,0.000
1709140256.148,-26.855,-22.461,-60.059,-48.828,0.000
1709140256.152,-22.949,-22.461,-50.781,-39.551,0.000
1709140256.155,-17.578,-25.391,-49.316,-32.227,0.000
1709140256.159,-17.578,-23.926,-50.293,-39.551,0.000
1709140256.163,-29.785,-18.555,-44.922,-54.199,0.000
1709140256.167,-39.551,-27.344,-38.574,-48.828,0.000
1709140256.171,-41.992,-39.062,-40.527,-45.410,0.000
1709140256.175,-39.062,-42.480,-39.062,-45.410,0.000
1709140256.179,-41.992,-51.270,-41.016,-44.922,0.000
1709140256.183,-43.457,-56.152,-40.039,-43.457,0.000
1709140256.187,-41.504,-30.273,-39.062,-41.992,0.000
1709140256.191,-48.828,-22.949,-42.480,-42.480,0.000
1709140256.195,-49.805,-22.949,-42.480,-41.992,0.000
1709140256.199,-40.527,-21.973,-33.203,-41.504,0.000
1709140256.202,-33.203,-34.180,-30.273,-41.016,0.000
1709140256.206,-22.949,-40.527,-35.156,-41.504,0.000
1709140256.210,-37.109,-31.250,-29.785,-42.969,0.000
1709140256.214,-48.340,-33.203,-30.762,-39.062,0.000
1709140256.218,-43.457,-19.531,-35.645,-40.527,0.000
1709140256.222,-39.062,-11.719,-33.203,-44.922,0.000
1709140256.226,-40.527,-39.062,-39.551,-52.246,0.000
1709140256.230,-38.574,-43.945,-39.551,-51.270,0.000
1709140256.234,-37.109,-25.879,-40.039,-47.852,0.000
1709140256.238,-37.598,-18.066,-46.875,-50.781,0.000
1709140256.242,-40.527,-26.367,-38.574,-47.852,0.000
1709140256.245,-37.598,-45.898,-29.297,-33.691,0.000
1709140256.249,-34.180,-32.227,-38.086,-25.391,0.000
1709140256.253,-34.180,-12.695,-50.781,-39.551,0.000
1709140256.257,-29.785,-30.762,-45.410,-44.434,0.000
1709140256.261,-39.062,-40.039,-38.574,-37.598,0.000
1709140256.265,-39.062,-24.902,-38.086,-47.852,0.000
1709140256.269,-39.062,-20.508,-41.504,-55.176,0.000
1709140256.273,-37.109,-18.066,-43.457,-45.410,0.000
1709140256.277,-36.133,-32.227,-40.039,-36.621,0.000
1709140256.281,-37.109,-51.270,-35.645,-31.250,0.000
1709140256.285,-39.551,-26.367,-37.109,-23.438,0.000
1709140256.288,-45.410,-12.207,-39.551,-27.832,0.000
1709140256.292,-46.387,-33.203,-35.156,-23.438,0.000
1709140256.296,-43.945,-31.738,-32.715,-21.484,0.000
1709140256.300,-47.363,-28.809,-39.551,-37.109,0.000
1709140256.304,-42.480,-44.922,-40.039,-34.180,0.000
1709140256.308,-52.246,-38.574,-31.250,-33.691,0.000
1709140256.312,-57.129,-24.902,-31.738,-32.715,0.000
1709140256.316,-41.504,-33.203,-32.227,-29.297,0.000
1709140256.320,-42.969,-32.715,-33.203,-41.504,0.000
1709140256.324,-49.316,-20.020,-43.457,-53.223,0.000
1709140256.328,-50.781,-31.250,-40.039,-41.504,0.000
1709140256.331,-52.246,-38.086,-37.109,-38.086,0.000
1709140256.335,-53.223,-36.621,-46.875,-46.875,0.000
1709140256.339,-41.016,-41.992,-43.457,-42.969,0.000
1709140256.343,-38.574,-41.992,-38.086,-40.039,0.000
1709140256.347,-54.688,-33.691,-39.062,-42.969,0.000
1709140256.351,-51.270,-39.551,-35.645,-37.109,0.000
1709140256.355,-33.691,-55.664,-29.785,-30.762,0.000
1709140256.359,-35.156,-44.922,-24.902,-41.504,0.000
1709140256.363,-62.012,-28.320,-25.391,-56.641,0.000
1709140256.367,-68.848,-25.391,-34.668,-55.176,0.000
1709140256.371,-55.176,-37.598,-38.574,-49.316,0.000
1709140256.374,-58.594,-46.875,-33.203,-44.922,0.000
1709140256.378,-45.410,-37.598,-40.527,-36.621,0.000
1709140256.382,-43.457,-25.879,-25.391,-45.410,0.000
1709140256.386,-48.828,-29.297,-18.066,-55.664,0.000
1709140256.390,-42.480,-45.898,-27.832,-44.434,0.000
1709140256.394,-34.668,-37.109,-30.273,-30.762,0.000
1709140256.398,-24.414,-20.996,-32.227,-22.461,0.000
1709140256.402,-17.578,-30.762,-34.180,-28.809,0.000
1709140256.406,-14.160,-45.410,-36.621,-38.574,0.000
1709140256.410,-22.949,-48.340,-37.598,-34.668,0.000
1709140256.413,-30.273,-29.785,-34.668,-24.902,0.000
1709140256.417,-26.855,-20.508,-29.785,-29.785,0.000
1709140256.421,-27.832,-37.598,-37.598,-44.434,0.000
1709140256.425,-39.062,-36.621,-46.387,-42.969,0.000
1709140256.429,-56.641,-31.250,-39.551,-54.199,0.000
1709140256.433,-56.641,-42.480,-32.227,-54.688,0.000
1709140256.437,-49.316,-37.109,-36.133,-41.992,0.000
1709140256.441,-43.457,-32.227,-38.574,-36.133,0.000
1709140256.445,-42.480,-41.992,-33.203,-44.434,0.000
1709140256.449,-45.898,-47.363,-32.715,-57.617,0.000
1709140256.452,-43.457,-44.922,-31.738,-54.199,0.000
1709140256.456,-38.574,-40.039,-35.156,-45.898,0.000
1709140256.460,-42.969,-41.504,-39.551,-41.992,0.000
1709140256.464,-56.152,-32.715,-36.133,-48.340,0.000
1709140256.468,-55.176,-30.762,-37.109,-46.387,0.000
1709140256.472,-52.246,-39.551,-43.457,-34.180,0.000
1709140256.476,-42.480,-39.551,-43.945,-36.133,0.000
1709140256.480,-30.762,-42.969,-36.621,-35.645,0.000
1709140256.484,-33.691,-51.270,-36.133,-37.109,0.000
1709140256.488,-41.016,-50.293,-47.363,-43.457,0.000
1709140256.491,-43.945,-36.133,-51.270,-43.945,0.000
1709140256.495,-42.969,-34.668,-42.480,-41.504,0.000
1709140256.499,-35.645,-47.363,-30.762,-37.109,0.000
1709140256.503,-41.504,-53.711,-31.738,-47.363,0.000
1709140256.507,-49.316,-25.391,-33.691,-53.711,0.000
1709140256.511,-34.180,-18.555,-40.039,-46.387,0.000
1709140256.515,-32.715,-45.898,-40.527,-29.785,0.000
1709140256.519,-41.504,-43.945,-42.480,-32.227,0.000
1709140256.523,-44.922,-49.805,-37.598,-47.363,0.000
1709140256.527,-41.504,-71.289,-29.297,-42.969,0.000
1709140256.530,-35.156,-52.734,-32.715,-29.785,0.000
1709140256.534,-34.180,-20.996,-31.250,-23.438,0.000
1709140256.538,-28.809,-24.414,-26.367,-27.832,0.000
1709140256.542,-32.227,-42.480,-34.180,-36.133,0.000
1709140256.546,-40.039,-30.762,-38.574,-50.781,0.000
1709140256.550,-51.270,-21.484,-41.992,-60.547,0.000
1709140256.554,-57.129,-31.738,-43.945,-53.711,0.000
1709140256.558,-46.875,-37.598,-41.992,-50.781,0.000
1709140256.562,-46.387,-41.992,-40.527,-44.434,0.000
1709140256.566,-53.223,-46.875,-33.691,-40.527,0.000
1709140256.570,-51.270,-37.109,-27.832,-47.852,0.000
1709140256.574,-44.922,-31.738,-28.809,-47.852,0.000
1709140256.577,-34.668,-37.598,-24.902,-30.762,0.000
1709140256.581,-18.555,-41.504,-29.785,-20.020,0.000
1709140256.585,-27.344,-38.574,-40.039,-29.785,0.000
1709140256.589,-40.039,-25.391,-43.945,-34.180,0.000
1709140256.593,-38.574,-20.996,-40.527,-31.250,0.000
1709140256.597,-31.738,-36.133,-40.527,-36.133,0.000
1709140256.601,-33.203,-23.926,-45.410,-40.039,0.000
1709140256.605,-32.227,-20.508,-44.434,-36.621,0.000
1709140256.609,-36.133,-37.598,-47.852,-41.992,0.000
1709140256.613,-38.086,-25.391,-45.898,-36.133,0.000
1709140256.617,-34.668,-11.719,-34.668,-34.180,0.000
1709140256.620,-32.715,-16.113,-25.391,-31.250,0.000
1709140256.624,-30.762,-33.691,-26.367,-32.715,0.000
1709140256.628,-34.668,-49.805,-40.039,-36.621,0.000
1709140256.632,-41.992,-41.016,-48.340,-41.504,0.000
1709140256.636,-36.133,-32.227,-33.691,-53.223,0.000
1709140256.640,-20.020,-38.086,-28.320,-52.246,0.000
1709140256.644,-24.414,-40.527,-38.086,-48.340,0.000
1709140256.648,-44.434,-25.391,-37.598,-41.016,0.000
1709140256.652,-49.805,-23.926,-37.109,-33.203,0.000
1709140256.656,-36.621,-33.691,-40.527,-41.504,0.000
1709140256.660,-48.340,-29.297,-39.551,-47.363,0.000
1709140256.663,-61.035,-39.551,-39.062,-57.129,0.000
1709140256.667,-57.129,-48.828,-37.598,-58.594,0.000
1709140256.671,-58.105,-47.852,-28.809,-55.664,0.000
1709140256.675,-48.340,-37.109,-28.320,-47.363,0.000
1709140256.679,-34.180,-11.719,-41.016,-42.969,0.000
1709140256.683,-36.133,-15.625,-41.016,-56.641,0.000
1709140256.687,-47.852,-30.273,-36.133,-56.152,0.000
1709140256.691,-50.781,-42.480,-41.992,-39.551,0.000
1709140256.695,-50.293,-56.641,-42.969,-33.691,0.000
1709140256.699,-40.039,-59.082,-41.504,-38.574,0.000
1709140256.703,-26.855,-36.133,-39.062,-37.109,0.000
1709140256.706,-27.832,-22.949,-34.180,-35.156,0.000
1709140256.710,-31.250,-30.273,-43.945,-22.461,0.000
1709140256.714,-29.785,-26.855,-53.223,-14.160,0.000
1709140256.718,-20.508,-24.902,-37.109,-22.949,0.000
1709140256.722,-25.879,-24.902,-26.367,-32.715,0.000
1709140256.726,-43.945,-30.762,-37.109,-41.992,0.000
1709140256.730,-42.480,-25.879,-44.434,-38.574,0.000
1709140256.734,-33.691,-31.250,-45.410,-33.203,0.000
1709140256.738,-36.133,-36.133,-46.875,-29.297,0.000
1709140256.742,-46.875,-28.320,-39.551,-28.809,0.000
1709140256.745,-43.945,-33.691,-30.273,-35.645,0.000
1709140256.749,-31.738,-46.387,-26.855,-32.715,0.000
1709140256.753,-38.086,-54.688,-33.203,-16.113,0.000
1709140256.757,-39.551,-52.734,-41.504,-6.836,0.000
1709140256.761,-30.762,-35.645,-33.691,-23.926,0.000
1709140256.765,-40.039,-22.949,-33.203,-30.762,0.000
1709140256.769,-49.805,-43.945,-38.574,-39.062,0.000
1709140256.773,-34.668,-37.598,-36.621,-49.316,0.000
1709140256.777,-22.949,-16.113,-30.762,-40.039,0.000
1709140256.781,-21.973,-24.414,-37.109,-35.156,0.000
1709140256.785,-22.949,-42.969,-42.480,-47.852,0.000
1709140256.788,-30.762,-34.668,-41.504,-54.688,0.000
1709140256.792,-39.062,-28.809,-39.551,-45.410,0.000
1709140256.796,-33.691,-34.668,-34.668,-41.016,0.000
1709140256.800,-22.949,-47.852,-27.832,-36.133,0.000
1709140256.804,-29.785,-47.852,-30.762,-39.551,0.000
1709140256.808,-39.062,-43.945,-38.086,-46.875,0.000
1709140256.812,-36.133,-40.527,-43.457,-37.109,0.000
1709140256.816,-35.645,-33.203,-48.828,-34.668,0.000
1709140256.820,-38.086,-46.387,-47.363,-46.387,0.000
1709140256.823,-41.992,-50.781,-38.574,-51.270,0.000
1709140256.827,-45.898,-39.062,-37.598,-42.480,0.000
1709140256.831,-43.945,-30.762,-45.410,-46.387,0.000
1709140256.835,-40.039,-32.227,-39.062,-49.316,0.000
1709140256.839,-30.273,-33.691,-33.203,-43.945,0.000
1709140256.843,-23.926,-34.668,-36.621,-50.293,0.000
1709140256.847,-46.387,-41.992,-41.016,-40.039,0.000
1709140256.851,-48.828,-41.504,-44.434,-29.297,0.000
1709140256.855,-35.156,-48.828,-41.992,-31.738,0.000
1709140256.859,-47.852,-45.898,-41.992,-35.156,0.000
1709140256.863,-52.246,-41.016,-47.852,-40.527,0.000
1709140256.866,-40.039,-42.969,-41.992,-39.551,0.000
1709140256.870,-43.945,-41.504,-38.086,-41.992,0.000
1709140256.874,-50.781,-52.246,-41.016,-54.199,0.000
1709140256.878,-46.875,-58.105,-44.434,-49.805,0.000
1709140256.882,-44.922,-43.945,-41.016,-48.340,0.000
1709140256.886,-39.551,-54.688,-41.504,-45.898,0.000
1709140256.890,-26.367,-52.246,-39.062,-31.250,0.000
1709140256.894,-41.992,-26.367,-32.715,-37.109,0.000
1709140256.898,-47.363,-34.668,-33.691,-46.387,0.000
1709140256.902,-30.762,-59.082,-29.785,-34.180,0.000
1709140256.905,-30.762,-69.336,-37.598,-35.645,0.000
1709140256.909,-41.992,-42.480,-41.504,-49.805,0.000
1709140256.913,-38.574,-25.391,-25.879,-44.434,0.000
1709140256.917,-33.691,-25.391,-22.461,-38.086,0.000
1709140256.921,-41.992,-24.902,-32.227,-40.039,0.000
1709140256.925,-51.270,-33.691,-32.227,-42.480,0.000
1709140256.929,-52.246,-41.992,-35.156,-40.527,0.000
1709140256.933,-49.805,-48.340,-44.922,-28.320,0.000
1709140256.937,-39.551,-53.711,-31.250,-23.438,0.000
1709140256.941,-32.227,-50.781,-26.855,-37.598,0.000
1709140256.945,-43.945,-46.387,-29.297,-42.969,0.000
1709140256.948,-43.457,-46.875,-26.367,-38.086,0.000
1709140256.952,-43.945,-38.086,-30.762,-31.738,0.000
1709140256.956,-43.457,-42.969,-34.180,-25.879,0.000
1709140256.960,-40.527,-49.805,-38.574,-40.527,0.000
1709140256.964,-50.781,-34.668,-43.457,-48.340,0.000
1709140256.968,-49.805,-32.227,-40.039,-43.945,0.000
1709140256.972,-53.711,-39.062,-35.645,-43.457,0.000
1709140256.976,-46.875,-29.785,-39.551,-43.945,0.000
1709140256.980,-36.621,-33.691,-37.598,-36.133,0.000
1709140256.984,-34.180,-43.945,-38.086,-37.109,0.000
1709140256.988,-31.250,-46.875,-41.016,-40.527,0.000
1709140256.992,-45.898,-44.434,-32.715,-31.738,0.000
1709140256.995,-49.316,-41.016,-34.668,-26.855,0.000
1709140256.999,-34.668,-38.574,-35.645,-30.273,0.000
1709140257.003,-30.762,-32.715,-35.645,-41.504,0.000
1709140257.007,-30.273,-41.992,-33.203,-38.574,0.000
1709140257.011,-30.273,-54.688,-34.668,-34.668,0.000
1709140257.015,-34.668,-47.363,-43.457,-33.203,0.000
1709140257.019,-31.250,-38.086,-40.039,-33.691,0.000
1709140257.023,-26.855,-38.574,-32.227,-46.875,0.000
1709140257.027,-34.180,-60.547,-35.156,-61.523,0.000
1709140257.031,-41.016,-68.359,-41.016,-52.734,0.000
1709140257.035,-46.387,-30.762,-47.852,-47.363,0.000
1709140257.038,-56.152,-17.090,-42.480,-51.270,0.000
1709140257.042,-57.129,-18.555,-34.180,-43.945,0.000
1709140257.046,-47.852,-27.832,-44.434,-39.062,0.000
1709140257.050,-53.223,-55.176,-50.781,-35.156,0.000
1709140257.054,-54.199,-52.734,-36.133,-40.527,0.000
1709140257.058,-49.805,-35.156,-33.203,-48.340,0.000
1709140257.062,-52.246,-25.879,-32.715,-45.898,0.000
1709140257.066,-46.875,-27.832,-31.738,-27.832,0.000
1709140257.070,-34.180,-43.945,-36.621,-19.531,0.000
1709140257.074,-23.926,-40.039,-34.180,-24.902,0.000
1709140257.078,-27.344,-38.086,-40.527,-33.691,0.000
1709140257.081,-33.203,-35.156,-48.340,-46.387,0.000
1709140257.085,-35.645,-39.551,-44.922,-41.504,0.000
1709140257.089,-40.527,-45.898,-46.387,-28.809,0.000
1709140257.093,-41.504,-36.133,-50.293,-28.809,0.000
1709140257.097,-37.598,-28.320,-46.387,-38.574,0.000
1709140257.101,-33.203,-38.086,-43.945,-48.828,0.000
1709140257.105,-39.551,-38.086,-50.781,-46.875,0.000
1709140257.109,-49.805,-31.738,-48.340,-45.410,0.000
1709140257.113,-45.410,-42.969,-38.574,-32.227,0.000
1709140257.117,-34.180,-43.945,-41.992,-26.855,0.000
1709140257.120,-35.645,-45.898,-41.016,-45.898,0.000
1709140257.124,-47.852,-55.176,-28.809,-60.059,0.000
1709140257.128,-64.453,-53.223,-23.926,-54.688,0.000
1709140257.132,-68.359,-37.109,-26.855,-40.039,0.000
1709140257.136,-56.152,-30.762,-32.715,-40.527,0.000
1709140257.140,-42.969,-40.527,-31.738,-49.805,0.000
1709140257.144,-40.527,-35.156,-39.551,-49.316,0.000
1709140257.148,-44.922,-41.992,-43.945,-41.504,0.000
1709140257.152,-45.898,-43.457,-31.250,-46.875,0.000
1709140257.156,-46.875,-27.344,-31.738,-41.016,0.000
1709140257.159,-51.758,-33.691,-34.668,-47.363,0.000
1709140257.163,-49.316,-35.156,-39.551,-54.688,0.000
1709140257.167,-50.293,-33.691,-39.551,-46.875,0.000
1709140257.171,-47.363,-45.898,-32.227,-41.016,0.000
1709140257.175,-35.645,-56.641,-42.480,-25.391,0.000
1709140257.179,-26.367,-43.945,-40.039,-26.855,0.000
1709140257.183,-26.855,-25.879,-27.832,-40.527,0.000
1709140257.187,-31.738,-22.461,-27.832,-41.016,0.000
1709140257.191,-29.785,-25.391,-28.809,-35.645,0.000
1709140257.195,-26.855,-30.762,-32.227,-35.645,0.000
1709140257.198,-16.113,-38.086,-30.273,-33.203,0.000
1709140257.202,-23.926,-44.922,-23.926,-30.273,0.000
1709140257.206,-43.945,-32.227,-31.250,-30.762,0.000
1709140257.210,-43.945,-29.297,-35.156,-32.227,0.000
1709140257.214,-37.598,-35.645,-31.250,-38.574,0.000
1709140257.218,-31.250,-31.250,-24.902,-32.715,0.000
1709140257.222,-34.180,-26.855,-23.438,-21.484,0.000
1709140257.226,-31.738,-21.973,-33.691,-30.762,0.000
1709140257.230,-27.344,-35.645,-40.039,-33.691,0.000
1709140257.234,-35.156,-46.387,-35.645,-28.809,0.000
1709140257.238,-41.504,-31.738,-38.574,-38.574,0.000
1709140257.242,-53.223,-24.414,-47.852,-50.293,0.000
1709140257.245,-47.363,-27.832,-42.969,-48.828,0.000
1709140257.249,-42.969,-51.270,-38.086,-50.781,0.000
1709140257.253,-51.758,-65.918,-39.062,-50.781,0.000
1709140257.257,-57.617,-43.945,-37.109,-52.246,0.000
1709140257.261,-49.805,-29.297,-33.691,-58.105,0.000
1709140257.265,-49.805,-37.109,-32.715,-52.246,0.000
1709140257.269,-52.734,-34.668,-41.992,-46.875,0.000
1709140257.273,-58.105,-33.203,-49.805,-45.898,0.000
1709140257.277,-51.758,-41.992,-47.852,-43.945,0.000
1709140257.281,-34.180,-30.273,-47.363,-33.203,0.000
1709140257.285,-37.109,-30.273,-53.223,-39.062,0.000
1709140257.289,-38.574,-58.594,-45.410,-48.340,0.000
1709140257.292,-38.086,-40.527,-34.180,-49.316,0.000
1709140257.296,-45.898,-18.066,-39.551,-58.594,0.000
1709140257.300,-45.410,-26.367,-37.598,-56.152,0.000
1709140257.304,-32.227,-34.668,-37.109,-52.246,0.000
1709140257.308,-39.551,-44.434,-44.922,-48.828,0.000
1709140257.312,-50.781,-34.180,-45.410,-50.781,0.000
1709140257.316,-39.551,-24.902,-42.480,-53.223,0.000
1709140257.320,-20.508,-30.273,-44.434,-50.293,0.000
1709140257.324,-28.809,-48.828,-50.781,-47.852,0.000
1709140257.328,-49.805,-53.223,-50.781,-39.062,0.000
1709140257.331,-37.109,-50.781,-50.293,-55.176,0.000
1709140257.335,-42.480,-41.016,-50.781,-57.617,0.000
1709140257.339,-55.664,-27.832,-41.504,-59.082,0.000
1709140257.343,-50.781,-31.250,-41.016,-66.895,0.000
1709140257.347,-59.082,-41.992,-50.781,-61.035,0.000
1709140257.351,-67.383,-50.781,-52.246,-61.035,0.000
1709140257.355,-61.035,-53.223,-43.945,-52.246,0.000
1709140257.359,-58.105,-45.410,-37.598,-50.293,0.000
1709140257.363,-59.082,-49.316,-38.574,-53.223,0.000
1709140257.367,-52.246,-57.617,-52.246,-42.969,0.000
1709140257.371,-54.688,-42.480,-56.641,-31.738,0.000
1709140257.375,-42.969,-22.461,-47.852,-33.691,0.000
1709140257.378,-37.109,-17.090,-41.504,-37.598,0.000
1709140257.382,-45.410,-31.738,-34.668,-36.133,0.000
1709140257.386,-41.016,-39.551,-38.086,-34.668,0.000
1709140257.390,-35.645,-43.945,-39.551,-37.109,0.000
1709140257.394,-27.344,-34.668,-38.086,-36.621,0.000
1709140257.398,-15.625,-18.555,-42.480,-27.832,0.000
1709140257.402,-13.672,-30.273,-51.270,-29.785,0.000
1709140257.406,-23.438,-22.949,-62.012,-33.203,0.000
1709140257.410,-17.578,-21.484,-59.082,-26.855,0.000
1709140257.414,-21.973,-39.062,-46.875,-19.043,0.000
1709140257.418,-29.785,-38.086,-46.875,-25.879,0.000
1709140257.421,-34.180,-23.438,-45.410,-45.410,0.000
1709140257.425,-40.527,-24.414,-42.480,-42.969,0.000
1709140257.429,-36.133,-33.203,-40.527,-33.203,0.000
1709140257.433,-37.109,-42.480,-38.574,-32.227,0.000
1709140257.437,-44.434,-44.922,-43.945,-35.645,0.000
1709140257.441,-45.898,-46.387,-53.711,-37.109,0.000
1709140257.445,-47.852,-57.129,-47.363,-36.621,0.000
1709140257.449,-55.176,-60.547,-32.715,-46.387,0.000
1709140257.453,-60.547,-58.105,-26.367,-59.082,0.000
1709140257.457,-55.664,-47.852,-39.551,-59.082,0.000
1709140257.461,-63.477,-43.457,-60.547,-41.992,0.000
1709140257.464,-85.449,-51.758,-49.316,-48.828,0.000
1709140257.468,-93.262,-38.574,-17.090,-61.523,0.000
1709140257.472,-82.031,-32.715,-5.859,-41.016,0.000
1709140257.476,-71.289,-35.156,0.000,-32.715,0.000
1709140257.480,-61.035,-36.133,0.000,-46.875,0.000
1709140257.484,-69.824,-35.156,0.000,-56.641,0.000
1709140257.488,-67.871,-23.926,0.000,-54.688,0.000
1709140257.492,-51.758,-18.066,0.000,-51.270,0.000
1709140257.496,-42.480,-34.668,0.000,-42.969,0.000
1709140257.500,-29.785,-49.805,0.000,-36.621,0.000
1709140257.504,-38.086,-24.414,0.000,-47.852,0.000
1709140257.507,-45.410,-8.301,0.000,-55.664,0.000
1709140257.511,-31.738,-14.160,0.000,-47.363,0.000
1709140257.515,-17.090,-3.418,0.000,-47.852,0.000
1709140257.519,-16.602,-5.859,0.000,-46.387,0.000
1709140257.523,-28.809,-24.414,-48.340,-38.574,0.000
1709140257.527,-30.762,-26.367,-51.758,-41.016,0.000
1709140257.531,-22.461,-11.719,-48.828,-40.039,0.000
1709140257.535,-5.859,-16.113,-54.199,-32.715,0.000
1709140257.539,-2.441,-36.621,-44.922,-26.855,0.000
1709140257.543,-7.812,-39.062,-36.621,-28.320,0.000
1709140257.546,-11.719,-48.828,-53.711,-31.738,0.000
1709140257.550,-28.320,-30.762,-50.293,-29.297,0.000
1709140257.554,-33.691,-13.184,-26.367,-33.691,0.000
1709140257.558,-30.273,-31.738,-16.113,-40.039,0.000
1709140257.562,-27.344,-38.086,-15.137,-39.062,0.000
1709140257.566,-30.273,-41.016,-19.531,-40.039,0.000
1709140257.570,-45.898,-51.758,-22.949,-36.133,0.000
1709140257.574,-52.246,-44.434,-23.438,-30.762,0.000
1709140257.578,-59.570,-37.109,-27.344,-32.715,0.000
1709140257.582,-64.941,-44.922,-30.762,-28.320,0.000
1709140257.585,-62.500,-62.012,-26.855,-29.297,0.000
1709140257.589,-72.266,-72.266,-30.273,-43.457,0.000
1709140257.593,-80.566,-62.988,-35.156,-49.316,0.000
1709140257.597,-70.312,-46.875,-29.297,-41.016,0.000
1709140257.601,-68.848,-42.969,-25.879,-41.992,0.000
1709140257.605,-78.125,-49.316,-33.691,-52.734,0.000
1709140257.609,-81.055,-44.434,-35.156,-51.270,0.000
1709140257.613,-74.219,-41.016,-31.250,-36.621,0.000
1709140257.617,-62.500,-38.086,-37.598,-34.668,0.000
1709140257.620,-71.777,-35.645,-45.898,-46.387,0.000
1709140257.624,-72.266,-32.715,-50.781,-50.293,0.000
1709140257.628,-54.199,-31.738,-51.270,-51.270,0.000
1709140257.632,-65.430,-30.273,-47.852,-54.199,0.000
1709140257.636,-60.547,-26.367,-46.387,-52.246,0.000
1709140257.640,-46.387,-32.227,-54.688,-52.246,0.000
1709140257.644,-39.551,-34.180,-61.523,-57.617,0.000
1709140257.648,-41.504,-35.156,-49.805,-58.105,0.000
1709140257.652,-44.922,-26.855,-42.480,-53.223,0.000
1709140257.656,-36.621,-23.926,-41.016,-45.898,0.000
1709140257.660,-29.785,-27.832,-39.062,-50.781,0.000
1709140257.664,-29.297,-38.574,-45.898,-47.363,0.000
1709140257.667,-35.156,-38.086,-51.270,-44.434,0.000
1709140257.671,-39.551,-29.785,-46.387,-53.223,0.000
1709140257.675,-32.227,-29.297,-32.227,-51.270,0.000
1709140257.679,-32.715,-21.973,-25.879,-50.781,0.000
1709140257.683,-37.598,-29.785,-30.762,-48.828,0.000
1709140257.687,-32.227,-39.551,-35.645,-38.086,0.000
1709140257.691,-48.340,-40.039,-36.133,-40.527,0.000
1709140257.695,-53.711,-38.574,-32.715,-33.203,0.000
1709140257.699,-53.223,-36.621,-40.527,-24.902,0.000
1709140257.703,-49.805,-36.621,-40.527,-26.367,0.000
1709140257.707,-42.480,-46.875,-27.344,-31.250,0.000
1709140257.711,-44.434,-47.852,-27.832,-33.691,0.000
1709140257.715,-44.434,-46.387,-37.598,-32.715,0.000
1709140257.719,-42.969,-47.363,-32.227,-33.203,0.000
1709140257.722,-48.340,-32.227,-30.762,-34.668,0.000
1709140257.726,-57.129,-25.879,-34.180,-39.062,0.000
1709140257.730,-42.480,-31.738,-27.344,-36.621,0.000
1709140257.734,-32.227,-35.645,-30.273,-33.691,0.000
1709140257.738,-41.992,-41.992,-28.320,-34.180,0.000
1709140257.742,-42.969,-25.391,-29.785,-48.340,0.000
1709140257.746,-52.734,-23.926,-36.621,-59.082,0.000
1709140257.750,-59.082,-29.297,-41.504,-57.617,0.000
1709140257.754,-45.410,-23.438,-39.551,-49.805,0.000
1709140257.758,-26.855,-45.410,-40.039,-30.273,0.000
1709140257.762,-20.020,-62.988,-46.875,-34.668,0.000
1709140257.765,-20.996,-19.043,-41.992,-48.340,0.000
1709140257.769,-33.203,7.812,-41.504,-47.852,0.000
1709140257.773,-27.344,-8.301,-50.293,-42.969,0.000
1709140257.777,-10.254,-27.832,-37.598,-34.180,0.000
1709140257.781,-1.465,-35.156,-30.762,-35.156,0.000
1709140257.785,0.977,-30.273,-30.273,-38.086,0.000
1709140257.789,-11.719,-36.621,-34.180,-32.715,0.000
1709140257.793,-19.531,-32.227,-46.875,-23.438,0.000
1709140257.797,-21.484,-24.414,-41.016,-17.090,0.000
1709140257.801,-17.090,-37.598,-31.738,-23.926,0.000
1709140257.805,-13.672,-45.898,-27.832,-25.879,0.000
1709140257.808,-14.160,-46.875,-34.668,-12.207,0.000
1709140257.812,1.953,-45.410,-47.852,-8.301,0.000
1709140257.816,2.930,-26.855,-37.109,-22.461,0.000
1709140257.820,-12.695,-17.578,-21.973,-29.785,0.000
1709140257.824,-21.973,-24.414,-29.785,-39.062,0.000
1709140257.828,-16.602,-34.180,-32.227,-40.527,0.000
1709140257.832,-11.230,-28.809,-31.250,-30.273,0.000
1709140257.836,-11.719,-29.297,-36.621,-16.113,0.000
1709140257.840,-8.789,-39.062,-36.621,-17.090,0.000
1709140257.844,-21.484,-40.527,-37.598,-36.133,0.000
1709140257.847,-18.555,-32.715,-36.133,-36.133,0.000
1709140257.851,-19.531,-25.391,-36.621,-25.879,0.000
1709140257.855,-23.926,-35.156,-41.504,-22.461,0.000
1709140257.859,-17.090,-38.574,-41.504,-24.414,0.000
1709140257.863,-25.879,-42.969,-42.969,-40.039,0.000
1709140257.867,-40.039,-34.180,-55.176,-40.039,0.000
1709140257.871,-42.969,-20.508,-56.152,-33.691,0.000
1709140257.875,-39.551,-24.414,-42.480,-37.598,0.000
1709140257.879,-32.227,-22.949,-50.781,-43.945,0.000
1709140257.883,-29.785,-20.508,-47.363,-39.551,0.000
1709140257.887,-32.715,-33.691,-38.574,-36.133,0.000
1709140257.890,-35.156,-33.203,-47.363,-37.598,0.000
1709140257.894,-30.762,-21.973,-45.410,-42.480,0.000
1709140257.898,-27.832,-26.367,-37.109,-45.898,0.000
1709140257.902,-24.902,-35.645,-42.480,-48.828,0.000
1709140257.906,-31.738,-38.086,-51.270,-49.316,0.000
1709140257.910,-27.832,-41.016,-58.105,-42.480,0.000
1709140257.914,-33.691,-43.945,-44.434,-37.598,0.000
1709140257.918,-39.551,-34.668,-21.484,-37.109,0.000
1709140257.922,-38.086,-35.645,-20.508,-35.156,0.000
1709140257.926,-35.156,-31.250,-27.344,-33.203,0.000
1709140257.929,-36.133,-29.785,-30.762,-42.480,0.000
1709140257.933,-33.691,-43.945,-33.691,-54.199,0.000
1709140257.937,-39.062,-42.969,-40.527,-55.176,0.000
1709140257.941,-53.223,-44.434,-37.598,-52.246,0.000
1709140257.945,-37.598,-31.738,-29.297,-53.711,0.000
1709140257.949,-42.480,-23.438,-40.527,-55.176,0.000
1709140257.953,-47.852,-38.574,-54.688,-49.805,0.000
1709140257.957,-32.715,-37.109,-47.852,-43.457,0.000
1709140257.961,-36.133,-37.598,-35.645,-42.969,0.000
1709140257.965,-43.457,-41.992,-23.438,-44.922,0.000
1709140257.968,-33.203,-46.387,-20.508,-37.598,0.000
1709140257.972,-41.504,-41.504,-22.949,-24.902,0.000
1709140257.976,-46.875,-23.438,-24.902,-22.949,0.000
1709140257.980,-26.855,-38.574,-35.156,-24.902,0.000
1709140257.984,-25.391,-45.410,-42.480,-24.902,0.000
1709140257.988,-41.016,-31.738,-37.109,-27.832,0.000
1709140257.992,-39.062,-31.250,-31.250,-25.879,0.000
1709140257.996,-22.461,-32.715,-35.156,-23.438,0.000
1709140258.000,-13.184,-35.156,-38.086,-25.879,0.000
1709140258.003,-27.344,-31.738,-37.109,-36.133,0.000
1709140258.007,-33.203,-35.156,-42.969,-41.504,0.000
1709140258.011,-30.762,-43.457,-42.969,-41.504,0.000
1709140258.015,-34.180,-49.316,-38.086,-37.598,0.000
1709140258.019,-36.621,-53.711,-35.645,-31.250,0.000
1709140258.023,-28.320,-49.805,-32.715,-21.973,0.000
1709140258.027,-23.438,-38.086,-30.762,-18.555,0.000
1709140258.031,-34.180,-21.973,-34.180,-21.973,0.000
1709140258.035,-29.785,-14.648,-39.062,-23.438,0.000
1709140258.039,-22.461,-13.672,-39.551,-37.109,0.000
1709140258.043,-32.715,-23.438,-41.504,-47.852,0.000
1709140258.047,-41.504,-44.922,-36.133,-45.410,0.000
1709140258.050,-50.781,-31.738,-35.156,-48.828,0.000
1709140258.054,-53.223,-23.926,-42.969,-61.523,0.000
1709140258.058,-42.969,-33.691,-41.504,-63.477,0.000
1709140258.062,-35.645,-37.109,-38.574,-50.293,0.000
1709140258.066,-40.039,-35.645,-44.922,-57.617,0.000
1709140258.070,-39.062,-28.320,-45.410,-60.059,0.000
1709140258.074,-42.480,-30.762,-36.133,-52.246,0.000
1709140258.078,-43.457,-23.926,-32.227,-50.293,0.000
1709140258.082,-34.180,-27.344,-33.203,-51.270,0.000
1709140258.086,-29.785,-56.641,-33.203,-49.805,0.000
1709140258.090,-42.969,-58.594,-36.133,-45.898,0.000
1709140258.093,-41.016,-34.180,-45.898,-45.898,0.000
1709140258.097,-28.809,-32.227,-47.852,-42.480,0.000
1709140258.101,-38.086,-33.203,-43.945,-47.852,0.000
1709140258.105,-53.711,-33.203,-51.270,-54.199,0.000
1709140258.109,-53.223,-33.203,-48.828,-46.875,0.000
1709140258.113,-50.293,-36.621,-38.086,-41.504,0.000
1709140258.117,-44.434,-37.598,-36.133,-49.805,0.000
1709140258.121,-43.945,-34.180,-35.645,-46.387,0.000
1709140258.125,-54.199,-40.527,-38.574,-53.223,0.000
1709140258.129,-63.477,-45.410,-44.434,-62.012,0.000
1709140258.133,-64.941,-43.945,-48.340,-54.199,0.000
1709140258.136,-69.336,-39.551,-49.805,-48.828,0.000
1709140258.140,-70.312,-31.738,-48.828,-55.664,0.000
1709140258.144,-63.477,-41.016,-49.805,-64.941,0.000
1709140258.148,-71.289,-36.133,-50.293,-57.617,0.000
1709140258.152,-78.125,-32.227,-52.734,-46.387,0.000
1709140258.156,-65.918,-39.062,-51.758,-47.852,0.000
1709140258.160,-49.316,-41.016,-50.781,-43.457,0.000
1709140258.164,-46.875,-42.480,-55.664,-41.016,0.000
1709140258.168,-54.688,-39.551,-52.246,-40.527,0.000
1709140258.172,-57.617,-34.668,-52.246,-48.828,0.000
1709140258.176,-50.293,-30.762,-50.293,-50.781,0.000
1709140258.179,-37.109,-30.762,-49.316,-42.969,0.000
1709140258.183,-25.391,-46.387,-49.805,-37.109,0.000
1709140258.187,-28.320,-46.875,-47.852,-41.016,0.000
1709140258.191,-37.109,-39.062,-44.434,-42.480,0.000
1709140258.195,-34.180,-32.227,-37.109,-29.785,0.000
1709140258.199,-25.879,-16.113,-37.109,-28.320,0.000
1709140258.203,-24.902,-15.625,-35.645,-35.645,0.000
1709140258.207,-32.227,-23.926,-35.156,-37.109,0.000
1709140258.211,-41.992,-33.691,-41.016,-36.621,0.000
1709140258.215,-35.645,-17.090,-37.109,-46.387,0.000
1709140258.219,-31.250,-18.066,-40.039,-52.734,0.000
1709140258.222,-35.156,-37.109,-38.574,-54.688,0.000
1709140258.226,-42.480,-34.180,-25.391,-58.594,0.000
1709140258.230,-53.711,-27.344,-28.809,-57.617,0.000
1709140258.234,-58.105,-24.414,-36.133,-60.059,0.000
1709140258.238,-53.223,-26.855,-29.785,-57.617,0.000
1709140258.242,-42.480,-37.109,-27.344,-52.734,0.000
1709140258.246,-43.945,-43.945,-35.645,-51.758,0.000
1709140258.250,-47.852,-38.574,-43.457,-46.387,0.000
1709140258.254,-48.828,-24.902,-37.109,-40.039,0.000
1709140258.258,-51.758,-22.949,-39.551,-29.297,0.000
1709140258.261,-42.480,-41.504,-40.527,-29.297,0.000
1709140258.265,-38.574,-38.086,-31.250,-44.922,0.000
1709140258.269,-46.387,-24.902,-32.715,-44.922,0.000
1709140258.273,-54.199,-38.086,-28.809,-36.133,0.000
1709140258.277,-54.199,-41.016,-28.809,-43.945,0.000
1709140258.281,-50.293,-30.762,-40.039,-52.246,0.000
1709140258.285,-58.105,-32.715,-41.016,-46.875,0.000
1709140258.289,-60.547,-49.805,-40.527,-42.480,0.000
1709140258.293,-57.617,-61.523,-39.551,-47.852,0.000
1709140258.297,-61.035,-43.945,-43.945,-52.734,0.000
1709140258.300,-50.781,-35.156,-48.828,-43.945,0.000
1709140258.304,-40.527,-40.527,-39.062,-42.969,0.000
1709140258.308,-43.457,-35.156,-32.227,-41.504,0.000
1709140258.312,-56.641,-34.668,-44.922,-33.203,0.000
1709140258.316,-52.246,-43.457,-53.711,-33.691,0.000
1709140258.320,-41.992,-56.152,-39.062,-44.434,0.000
1709140258.324,-48.828,-44.434,-39.062,-46.875,0.000
1709140258.328,-50.293,-33.203,-43.945,-49.316,0.000
1709140258.332,-51.270,-37.109,-37.598,-56.152,0.000
1709140258.336,-46.387,-24.902,-42.480,-55.664,0.000
1709140258.339,-39.062,-24.414,-45.410,-61.523,0.000
1709140258.343,-37.598,-34.180,-35.645,-64.453,0.000
1709140258.347,-42.480,-35.156,-39.551,-56.641,0.000
1709140258.351,-41.504,-34.668,-43.945,-54.199,0.000
1709140258.355,-39.062,-60.547,-41.016,-54.688,0.000
1709140258.359,-44.922,-56.641,-41.992,-55.176,0.000
1709140258.363,-37.109,-25.879,-34.180,-49.316,0.000
1709140258.367,0.000,-25.391,-39.551,-47.363,0.000
1709140258.371,0.000,-28.320,-51.270,-49.316,0.000
1709140258.375,0.000,-34.180,-44.922,-46.387,0.000
1709140258.378,0.000,-41.504,-40.527,-50.781,0.000
1709140258.382,0.000,-41.016,-38.086,-48.828,0.000
1709140258.386,0.000,-43.457,-40.527,-39.062,0.000
1709140258.390,0.000,-37.598,-40.039,-39.551,0.000
1709140258.394,0.000,-42.969,-34.668,-31.250,0.000
1709140258.398,0.000,-38.086,-38.574,-32.227,0.000
1709140258.402,0.000,-22.949,-35.645,-36.621,0.000
1709140258.406,0.000,-27.344,-31.738,-21.973,0.000
1709140258.410,0.000,-31.250,-44.434,-29.297,0.000
1709140258.414,-33.691,-39.062,-46.875,-35.156,0.000
1709140258.418,-24.902,-41.992,-35.645,-32.715,0.000
1709140258.421,-37.109,-31.738,-37.109,-41.992,0.000
1709140258.425,-40.039,-25.391,-35.156,-34.668,0.000
1709140258.429,-29.785,-31.738,-40.039,-23.926,0.000
1709140258.433,-32.715,-38.574,-45.898,-24.414,0.000
1709140258.437,-56.641,-37.109,-33.691,-28.320,0.000
1709140258.441,-58.594,-29.297,-25.879,-41.016,0.000
1709140258.445,-51.758,-30.273,-28.320,-47.852,0.000
1709140258.449,-50.293,-39.551,-32.227,-41.504,0.000
1709140258.453,-38.574,-42.480,-35.645,-30.762,0.000
1709140258.457,-35.156,-42.480,-38.574,-25.879,0.000
1709140258.461,-35.645,-41.504,-38.086,-31.738,0.000
1709140258.465,-33.203,-35.645,-37.109,-38.574,0.000
1709140258.468,-38.574,-35.645,-39.062,-30.273,0.000
1709140258.472,-36.133,-36.621,-40.039,-28.809,0.000
1709140258.476,-33.203,-41.992,-41.016,-34.180,0.000
1709140258.480,-40.527,-41.016,-40.039,-30.273,0.000
1709140258.484,-42.969,-44.922,-41.016,-35.645,0.000
1709140258.488,-33.203,-47.363,-36.621,-46.387,0.000
1709140258.492,-36.621,-42.969,-34.180,-52.734,0.000
1709140258.496,-40.527,-51.270,-41.992,-44.434,0.000
1709140258.500,-39.551,-46.875,-46.875,-50.293,0.000
1709140258.504,-47.852,-41.992,-40.527,-65.918,0.000
1709140258.508,-54.199,-37.598,-35.156,-62.500,0.000
1709140258.511,-48.340,-30.273,-39.551,-52.246,0.000
1709140258.515,-36.621,-38.086,-42.969,-41.016,0.000
1709140258.519,-24.414,-49.805,-45.410,-41.016,0.000
1709140258.523,-30.273,-33.691,-48.340,-50.781,0.000
1709140258.527,-41.992,-24.414,-47.852,-52.734,0.000
1709140258.531,-37.109,-29.297,-45.410,-44.922,0.000
1709140258.535,-31.250,-25.879,-44.922,-35.156,0.000
1709140258.539,-26.367,-35.156,-47.852,-29.785,0.000
1709140258.543,-28.320,-41.504,-42.969,-21.973,0.000
1709140258.547,-35.645,-29.785,-39.062,-31.250,0.000
1709140258.550,-41.016,-30.273,-33.691,-41.992,0.000
1709140258.554,-39.551,-32.227,-32.227,-28.809,0.000
1709140258.558,-25.391,-29.785,-35.645,-20.996,0.000
1709140258.562,-24.902,-35.156,-37.598,-32.715,0.000
1709140258.566,-40.039,-49.805,-32.715,-41.016,0.000
1709140258.570,-38.574,-50.781,-28.809,-39.062,0.000
1709140258.574,-37.598,-36.133,-31.250,-37.598,0.000
1709140258.578,-37.598,-38.086,-30.273,-30.273,0.000
1709140258.582,-22.949,-32.715,-31.738,-26.367,0.000
1709140258.586,-29.297,-40.527,-38.574,-20.020,0.000
1709140258.590,-42.969,-44.434,-35.156,-14.160,0.000
1709140258.593,-52.734,-36.133,-26.855,-24.902,0.000
1709140258.597,-51.270,-37.109,-27.344,-30.762,0.000
1709140258.601,-33.203,-41.016,-24.902,-35.645,0.000
1709140258.605,-38.574,-41.504,-31.250,-35.156,0.000
1709140258.609,-45.410,-28.809,-34.668,-36.621,0.000
1709140258.613,-37.598,-21.484,-28.809,-35.645,0.000
1709140258.617,-36.133,-27.832,-28.809,-32.715,0.000
1709140258.621,-27.832,-35.645,-29.785,-41.504,0.000
1709140258.625,-19.043,-40.039,-34.180,-40.039,0.000
1709140258.629,-26.855,-35.156,-44.434,-34.180,0.000
1709140258.633,-19.531,-28.809,-42.969,-32.227,0.000
1709140258.636,-14.648,-22.949,-39.062,-27.344,0.000
1709140258.640,-14.160,-32.715,-41.016,-27.344,0.000
1709140258.644,-10.254,-47.363,-36.133,-39.551,0.000
1709140258.648,0.000,-47.363,-30.762,-39.062,0.000
1709140258.652,0.000,-35.645,-41.016,-43.945,0.000
1709140258.656,0.000,-29.297,-41.016,-43.945,0.000
1709140258.660,0.000,-25.391,-37.109,-38.574,0.000
1709140258.664,0.000,-23.926,-42.480,-45.898,0.000
1709140258.668,0.000,-43.457,-46.387,-42.969,0.000
1709140258.672,0.000,-42.969,-46.875,-46.875,0.000
1709140258.675,0.000,-37.598,-47.852,-46.387,0.000
1709140258.679,0.000,-42.969,-48.828,-45.410,0.000
1709140258.683,0.000,-34.668,-43.945,-44.922,0.000
1709140258.687,0.000,-33.691,-39.551,-38.574,0.000
1709140258.691,0.000,-37.109,-38.574,-36.621,0.000
1709140258.694,-12.695,-41.504,-39.062,-37.598,0.000
1709140258.698,-20.508,-50.293,-40.039,-46.387,0.000
1709140258.702,-27.344,-42.969,-40.527,-50.293,0.000
1709140258.706,-43.457,-42.969,-40.039,-48.828,0.000
1709140258.710,-50.293,-47.363,-36.133,-44.922,0.000
1709140258.714,-47.363,-48.828,-35.156,-43.945,0.000
1709140258.718,-49.805,-52.246,-41.016,-36.133,0.000
1709140258.722,-47.852,-47.363,-40.527,-33.691,0.000
1709140258.725,-49.316,-42.969,-41.016,-42.969,0.000
1709140258.729,-48.828,-53.711,-52.246,-51.270,0.000
1709140258.733,-52.246,-54.199,-50.293,-47.852,0.000
1709140258.737,-57.129,-43.945,-43.945,-38.086,0.000
1709140258.741,-27.344,-48.340,-41.992,-31.738,0.000
1709140258.745,-28.809,-45.410,-45.410,-22.461,0.000
1709140258.749,-22.461,-36.621,-48.340,-28.809,0.000
1709140258.753,-13.184,-29.297,-39.551,-34.180,0.000
1709140258.757,-6.348,-33.691,-42.969,-40.039,0.000
1709140258.760,-6.348,-30.762,-46.387,-39.551,0.000
1709140258.764,-6.836,-30.273,-41.504,-24.414,0.000
1709140258.768,-4.883,-42.969,-41.992,-19.043,0.000
1709140258.772,-11.230,-31.250,-39.551,-23.926,0.000
1709140258.776,-22.461,-19.043,-36.133,-23.438,0.000
1709140258.780,-16.602,-19.531,-39.551,-14.648,0.000
1709140258.784,-19.043,-12.695,-40.527,-24.902,0.000
1709140258.788,-29.785,-26.367,-39.062,-23.438,0.000
1709140258.792,-32.227,-31.738,-33.691,-10.742,0.000
1709140258.796,-36.621,-23.438,-22.949,-30.273,0.000
1709140258.800,-41.992,-36.621,-20.020,-49.805,0.000
1709140258.804,-47.852,-44.434,-25.391,-52.246,0.000
1709140258.807,-47.363,-37.598,-20.508,-41.504,0.000
1709140258.811,-37.109,-39.062,-17.090,-31.738,0.000
1709140258.815,-48.340,-28.320,-25.391,-44.922,0.000
1709140258.819,-55.176,-32.227,-36.621,-58.594,0.000
1709140258.823,-42.480,-48.340,-31.738,-51.270,0.000
1709140258.827,-51.270,-37.109,-31.250,-42.480,0.000
1709140258.831,-50.781,-33.203,-40.039,-44.922,0.000
1709140258.835,-41.504,-28.320,-38.086,-53.711,0.000
1709140258.839,-50.781,-11.230,-37.109,-62.988,0.000
1709140258.843,-57.129,-15.137,-37.109,-65.918,0.000
1709140258.847,-57.129,-36.621,-35.645,-68.359,0.000
1709140258.851,-53.223,-51.270,-40.039,-59.082,0.000
1709140258.854,-40.039,-40.039,-48.340,-54.199,0.000
1709140258.858,-31.738,-28.809,-41.992,-50.293,0.000
1709140258.862,-45.410,-26.367,-31.250,-39.062,0.000
1709140258.866,-48.340,-30.762,-32.715,-38.574,0.000
1709140258.870,-34.668,-35.645,-36.133,-31.738,0.000
1709140258.874,-33.691,-31.250,-40.039,-21.973,0.000
1709140258.878,-28.320,-33.691,-41.992,-27.832,0.000
1709140258.882,0.000,-21.973,0.000,-30.273,0.000
1709140258.886,0.000,-20.508,0.000,-30.273,0.000
1709140258.890,0.000,-25.879,0.000,-43.945,0.000
1709140258.894,0.000,-32.227,0.000,-39.551,0.000
1709140258.897,0.000,-39.062,0.000,-28.320,0.000
1709140258.901,0.000,-35.645,0.000,-34.668,0.000
1709140258.905,0.000,-35.645,0.000,-38.574,0.000
1709140258.909,0.000,-44.434,0.000,-30.273,0.000
1709140258.913,0.000,-50.781,0.000,-19.531,0.000
1709140258.917,0.000,-38.574,0.000,-22.949,0.000
1709140258.921,0.000,-18.555,0.000,-40.527,0.000
1709140258.925,0.000,-18.066,0.000,-45.898,0.000
1709140258.929,-55.176,-29.785,-32.227,-42.480,0.000
1709140258.933,-53.223,-35.645,-31.250,-43.945,0.000
1709140258.937,-53.711,-22.949,-31.250,-46.387,0.000
1709140258.940,-51.270,-27.832,-34.180,-47.852,0.000
1709140258.944,-45.410,-34.180,-31.250,-57.129,0.000
1709140258.948,-50.781,-33.203,-30.762,-61.035,0.000
1709140258.952,-51.758,-52.734,-38.574,-62.500,0.000
1709140258.956,-38.574,-55.176,-40.527,-66.406,0.000
1709140258.960,-49.316,-43.945,-36.133,-52.246,0.000
1709140258.964,-66.406,-39.551,-37.109,-45.898,0.000
1709140258.968,-59.570,-51.270,-41.992,-51.758,0.000
1709140258.972,-51.270,-46.387,-44.434,-52.734,0.000
1709140258.976,-51.758,-37.109,-50.781,-50.781,0.000
1709140258.980,-54.199,-38.574,-54.199,-46.875,0.000
1709140258.983,-52.734,-34.668,-45.410,-47.852,0.000
1709140258.987,-50.781,-32.715,-35.156,-41.016,0.000
1709140258.991,-36.133,-36.133,-34.668,-33.203,0.000
1709140258.995,-20.508,-36.133,-37.109,-25.879,0.000
1709140258.999,-20.020,-41.504,-31.738,-38.574,0.000
1709140259.003,-27.832,-49.805,-31.250,-50.781,0.000
1709140259.007,-30.273,-48.340,-27.832,-37.109,0.000
1709140259.011,-41.992,-41.016,-30.762,-42.480,0.000
1709140259.015,-46.875,-26.367,-35.156,-51.758,0.000
1709140259.019,-44.922,-30.762,-35.156,-44.434,0.000
1709140259.022,-36.621,-34.668,-37.598,-43.945,0.000
1709140259.026,-38.086,-32.715,-32.715,-55.176,0.000
1709140259.030,-46.387,-37.598,-27.344,-57.617,0.000
1709140259.034,-33.203,-31.250,-30.273,-45.898,0.000
1709140259.038,-24.902,-22.949,-35.645,-40.527,0.000
1709140259.042,-34.180,-36.133,-36.133,-45.410,0.000
1709140259.046,-52.246,-44.434,-35.156,-51.758,0.000
1709140259.050,-56.152,-36.133,-28.809,-41.016,0.000
1709140259.054,-52.246,-42.480,-25.391,-30.273,0.000
1709140259.058,-50.781,-49.316,-30.273,-38.086,0.000
1709140259.061,-57.129,-36.621,-33.691,-56.641,0.000
1709140259.065,-59.570,-25.879,-36.621,-65.918,0.000
1709140259.069,-46.875,-20.508,-30.762,-51.270,0.000
1709140259.073,-47.363,-39.551,-22.949,-42.480,0.000
1709140259.077,-51.758,-54.199,-34.180,-43.457,0.000
1709140259.081,-46.875,-33.691,-31.250,-46.875,0.000
1709140259.085,-47.852,-21.973,-23.926,-54.688,0.000
1709140259.089,-55.176,-27.344,-32.227,-53.711,0.000
1709140259.093,-55.176,-36.621,-30.762,-49.805,0.000
1709140259.097,-47.852,-41.992,-30.762,-41.016,0.000
1709140259.101,-35.645,-43.945,-36.621,-43.457,0.000
1709140259.105,-26.855,-52.246,-33.691,-47.363,0.000
1709140259.109,-28.320,-57.617,-35.645,-36.621,0.000
1709140259.112,-31.250,-35.645,-39.062,-34.180,0.000
1709140259.116,0.000,-19.531,-36.133,0.000,0.000
1709140259.120,0.000,-34.180,-35.156,0.000,0.000
1709140259.124,0.000,-27.344,-36.133,0.000,0.000
1709140259.128,0.000,-39.062,-38.086,0.000,0.000
1709140259.132,0.000,-63.965,-36.621,0.000,0.000
1709140259.136,0.000,-39.551,-41.992,0.000,0.000
1709140259.140,0.000,-18.555,-32.715,0.000,0.000
1709140259.144,0.000,-32.227,-25.879,0.000,0.000
1709140259.148,0.000,-42.480,-34.180,0.000,0.000
1709140259.151,0.000,-33.691,-39.551,0.000,0.000
1709140259.155,0.000,-32.715,-40.039,0.000,0.000
1709140259.159,0.000,-31.738,-37.109,0.000,0.000
1709140259.163,-30.762,-23.438,-31.250,-26.855,0.000
1709140259.167,-36.621,-30.273,-31.738,-21.973,0.000
1709140259.171,-28.809,-41.016,-32.715,-14.160,0.000
1709140259.175,-32.227,-37.109,-30.762,-20.996,0.000
1709140259.179,-31.250,-41.016,-29.785,-23.926,0.000
1709140259.183,-29.297,-39.551,-33.691,-22.949,0.000
1709140259.187,-42.480,-36.621,-39.551,-28.809,0.000
1709140259.191,-47.363,-34.180,-43.945,-41.504,0.000
1709140259.195,-42.969,-36.133,-46.387,-41.016,0.000
1709140259.198,-41.504,-40.039,-44.922,-45.410,0.000
1709140259.202,-44.922,-41.504,-37.598,-59.570,0.000
1709140259.206,-46.875,-33.691,-31.250,-53.711,0.000
1709140259.210,-45.410,-20.020,-38.574,-50.781,0.000
1709140259.214,-47.852,-23.926,-33.203,-61.035,0.000
1709140259.218,-51.758,-29.785,-29.297,-63.965,0.000
1709140259.222,-52.246,-32.227,-32.715,-57.617,0.000
1709140259.226,-45.410,-37.598,-32.227,-55.664,0.000
1709140259.230,-34.668,-39.551,-34.668,-52.246,0.000
1709140259.234,-39.551,-41.992,-39.062,-44.434,0.000
1709140259.238,-38.086,-39.062,-42.480,-51.270,0.000
1709140259.241,-44.922,-29.785,-39.551,-54.199,0.000
1709140259.245,-47.852,-48.828,-34.180,-36.133,0.000
1709140259.249,-39.062,-45.898,-36.133,-28.809,0.000
1709140259.253,-33.691,-24.902,-43.945,-36.621,0.000
1709140259.257,-47.363,-28.809,-46.875,-33.691,0.000
1709140259.261,-55.176,-28.809,-52.734,-34.668,0.000
1709140259.265,-49.805,-23.438,-42.969,-37.598,0.000
1709140259.269,-49.805,-30.273,-37.598,-27.344,0.000
1709140259.273,-47.363,-45.898,-39.551,-19.531,0.000
1709140259.277,-41.504,-44.434,-29.297,-26.855,0.000
1709140259.281,-32.227,-45.898,-26.855,-34.668,0.000
1709140259.284,-28.809,-46.387,-31.250,-42.480,0.000
1709140259.288,-35.645,-33.691,-33.691,-41.504,0.000
1709140259.292,-30.762,-38.574,-39.551,-17.090,0.000
1709140259.296,-16.602,-33.691,-33.203,-20.020,0.000
1709140259.300,-40.039,-31.250,-25.879,-37.109,0.000
1709140259.304,-55.176,-40.527,-35.645,-29.785,0.000
1709140259.308,-47.852,-47.363,-35.645,-37.109,0.000
1709140259.312,-45.410,-44.434,-29.297,-46.387,0.000
1709140259.316,-48.340,-29.297,-36.621,-52.734,0.000
1709140259.320,-51.758,-32.715,-34.668,-57.129,0.000
1709140259.324,-52.246,-32.715,-28.320,-56.152,0.000
1709140259.327,-58.594,-19.043,-35.645,-59.082,0.000
1709140259.331,-58.594,-23.438,-41.504,-61.523,0.000
1709140259.335,-48.340,-36.621,-40.039,-48.340,0.000
1709140259.339,-43.945,-36.621,-40.527,-54.688,0.000
1709140259.343,-42.480,-46.387,-38.086,-70.312,0.000
1709140259.347,-45.898,-62.012,-34.180,-65.430,0.000
1709140259.351,-47.363,-39.062,-30.273,-54.199,0.000
1709140259.355,-44.922,-15.625,-29.785,-47.852,0.000
1709140259.359,-29.785,-21.973,-30.762,-41.992,0.000
1709140259.363,-30.762,-33.203,-31.250,-35.156,0.000
1709140259.367,-36.133,-28.320,-36.133,-39.062,0.000
1709140259.370,-29.785,-22.949,-42.969,-43.457,0.000
1709140259.374,-29.297,-31.250,-41.504,-41.016,0.000
1709140259.378,-21.484,-45.898,-41.992,-37.109,0.000
1709140259.382,-20.996,-35.645,-38.574,-26.855,0.000
1709140259.386,-25.879,-9.766,-30.762,-26.367,0.000
1709140259.390,-26.855,-12.695,-32.227,-32.227,0.000
1709140259.394,-25.879,-29.297,-34.180,-28.809,0.000
1709140259.398,-27.344,-48.828,-31.738,-23.438,0.000
1709140259.402,-34.668,-52.246,-30.273,-25.879,0.000
1709140259.406,-26.367,-35.156,-30.762,-28.809,0.000
1709140259.409,-34.180,-32.227,-23.926,-20.020,0.000
1709140259.413,-41.016,-41.992,-24.414,-8.301,0.000
1709140259.417,-31.738,-37.598,-36.133,-5.859,0.000
1709140259.421,-34.180,-33.691,-41.992,-18.555,0.000
1709140259.425,-46.875,-29.785,-37.598,-20.996,0.000
1709140259.429,-50.781,-22.461,-36.133,-18.555,0.000
1709140259.433,-40.527,-28.809,-29.785,-27.832,0.000
1709140259.437,-28.809,-39.062,-35.156,-20.996,0.000
1709140259.441,-35.645,-39.551,-41.016,-20.508,0.000
1709140259.444,-50.781,-47.852,-31.738,-35.645,0.000
1709140259.448,-58.594,-50.781,-32.227,-44.434,0.000
1709140259.452,-50.293,-46.387,-42.480,-44.434,0.000
1709140259.456,-43.945,-49.316,-38.574,-44.922,0.000
1709140259.460,-42.969,-46.875,-41.992,-46.875,0.000
1709140259.464,-38.086,-35.156,-52.734,-49.805,0.000
1709140259.468,-49.316,-35.156,-47.363,-54.688,0.000
1709140259.472,-52.734,-46.875,-33.691,-43.457,0.000
1709140259.476,-46.387,-29.297,-30.762,-47.363,0.000
1709140259.480,-39.551,-22.949,-33.203,-55.664,0.000
1709140259.484,-25.391,-29.785,-32.715,-50.293,0.000
1709140259.487,-36.621,-20.020,-35.156,-41.992,0.000
1709140259.491,-39.551,-15.137,-39.551,-41.992,0.000
1709140259.495,-28.320,-28.320,-37.598,-48.340,0.000
1709140259.499,-23.438,-53.223,-40.527,-38.574,0.000
1709140259.503,-24.414,-59.570,-41.992,-26.367,0.000
1709140259.507,-29.785,-44.922,-40.039,-33.691,0.000
1709140259.511,-35.645,-34.668,-41.016,-37.598,0.000
1709140259.515,-26.855,-38.574,-33.691,-25.391,0.000
1709140259.519,-13.672,-27.344,-35.156,-28.320,0.000
1709140259.523,-20.508,-20.508,-38.574,-32.715,0.000
1709140259.527,-36.621,-27.832,-30.273,-26.855,0.000
1709140259.531,-50.293,-32.227,-26.855,-14.160,0.000
1709140259.534,-48.340,-35.645,-42.480,-18.555,0.000
1709140259.539,-39.551,-36.133,0.000,-33.691,0.000
1709140259.542,-46.875,-27.832,0.000,-35.156,0.000
1709140259.546,-43.945,-28.320,0.000,-36.621,0.000
1709140259.550,-38.086,-37.598,0.000,-30.762,0.000
1709140259.554,-40.039,-41.992,0.000,-24.902,0.000
1709140259.558,-33.691,-37.109,0.000,-19.531,0.000
1709140259.562,-30.762,-45.410,0.000,-16.602,0.000
1709140259.566,-49.316,-43.945,0.000,-27.344,0.000
1709140259.570,-60.547,-35.156,0.000,-41.016,0.000
1709140259.574,-53.711,-40.527,0.000,-43.945,0.000
1709140259.578,-58.594,-46.387,0.000,-32.715,0.000
1709140259.581,-62.500,-60.059,0.000,-45.410,0.000
1709140259.585,0.000,-65.430,-44.922,-54.199,0.000
1709140259.589,0.000,-40.039,-28.320,-37.109,0.000
1709140259.593,0.000,-26.367,-22.949,-34.180,0.000
1709140259.596,0.000,-25.879,-27.344,-40.039,0.000
1709140259.600,0.000,-28.809,-29.297,-32.227,0.000
1709140259.604,0.000,-34.180,-28.320,-33.691,0.000
1709140259.608,0.000,-42.480,-32.227,-38.574,0.000
1709140259.612,0.000,-42.480,-33.203,-33.691,0.000
1709140259.616,0.000,-36.621,-35.645,-35.645,0.000
1709140259.620,0.000,-50.293,-27.344,-39.551,0.000
1709140259.624,0.000,-42.969,-30.273,-49.805,0.000
1709140259.628,0.000,-30.273,-43.457,-58.594,0.000
1709140259.632,-38.574,-29.785,-34.668,-47.363,0.000
1709140259.636,-30.762,-38.574,-37.109,-39.551,0.000
1709140259.640,-29.297,-40.527,-31.738,-31.738,0.000
1709140259.643,-35.156,-20.508,-34.668,-41.016,0.000
1709140259.647,-37.109,-14.648,-36.621,-49.316,0.000
1709140259.651,-39.062,-29.785,-23.438,-45.898,0.000
1709140259.655,-36.133,-38.086,-20.996,-43.945,0.000
1709140259.659,-30.762,-33.691,-32.227,-37.109,0.000
1709140259.663,-34.180,-27.344,-41.016,-27.832,0.000
1709140259.667,-27.832,-29.297,-36.621,-12.695,0.000
1709140259.671,-34.668,-36.133,-32.227,-28.320,0.000
1709140259.675,-43.945,-36.133,-38.086,-48.828,0.000
1709140259.679,-43.945,-46.875,-42.969,-54.688,0.000
1709140259.682,-40.527,-55.176,-32.715,-58.594,0.000
1709140259.686,-43.945,-42.480,-30.762,-59.082,0.000
1709140259.690,-50.781,-36.621,-33.203,-53.223,0.000
1709140259.694,-44.434,-50.293,-31.250,-38.574,0.000
1709140259.698,-35.156,-37.598,-38.086,-32.715,0.000
1709140259.702,-35.645,-32.227,-40.527,-45.410,0.000
1709140259.706,-41.016,-42.969,-38.086,-58.105,0.000
1709140259.710,-45.410,-29.297,-35.645,-53.711,0.000
1709140259.714,-39.551,-23.926,-36.133,-44.922,0.000
1709140259.718,-33.203,-39.062,-36.133,-41.016,0.000
1709140259.722,-45.898,-38.574,-43.457,-44.922,0.000
1709140259.725,-42.969,-29.297,-46.387,-41.992,0.000
1709140259.729,-31.738,-24.902,-33.691,-31.738,0.000
1709140259.733,-33.203,-39.551,-29.785,-32.715,0.000
1709140259.737,-28.809,-42.480,-41.992,-35.156,0.000
1709140259.741,-31.738,-40.039,-55.664,-36.621,0.000
1709140259.745,-28.320,-47.852,-45.898,-25.879,0.000
1709140259.749,-21.973,-36.133,-41.016,-26.367,0.000
1709140259.753,-40.039,-20.508,-39.062,-36.621,0.000
1709140259.757,-41.016,-17.578,-29.785,-29.785,0.000
1709140259.761,-27.832,-16.602,-33.203,-34.668,0.000
1709140259.765,-26.367,-12.207,-35.156,-41.992,0.000
1709140259.768,-25.391,-16.602,-31.250,-35.156,0.000
1709140259.772,-22.461,-24.414,-37.598,-35.645,0.000
1709140259.776,-24.414,-25.879,-41.992,-33.691,0.000
1709140259.780,-32.227,-35.156,-37.109,-36.133,0.000
1709140259.784,-42.969,-33.203,-39.551,-46.875,0.000
1709140259.788,-38.086,-32.715,-44.922,-41.992,0.000
1709140259.792,-16.113,-25.879,-33.691,-28.320,0.000
1709140259.796,-22.461,-28.320,-34.180,-39.551,0.000
1709140259.800,-24.414,-31.250,-40.527,-42.480,0.000
1709140259.804,-32.227,-16.113,-36.621,-47.852,0.000
1709140259.807,-44.434,-15.625,-39.551,-64.941,0.000
1709140259.811,-31.738,-34.668,-38.086,-56.152,0.000
1709140259.815,-25.391,-39.062,-35.645,-40.039,0.000
1709140259.819,-31.738,-43.945,-40.527,-40.527,0.000
1709140259.823,-30.762,-43.457,-34.180,-41.504,0.000
1709140259.827,-49.316,-45.410,-33.691,-45.898,0.000
1709140259.831,-55.664,-35.645,-36.621,-43.457,0.000
1709140259.835,-39.062,-17.090,-34.180,-31.738,0.000
1709140259.839,-36.133,-23.438,-35.156,-24.902,0.000
1709140259.843,-39.062,-33.691,-41.992,-23.926,0.000
1709140259.846,-42.480,-36.133,-44.434,-23.926,0.000
1709140259.850,-45.410,-30.273,-41.016,-34.180,0.000
1709140259.854,-44.922,-23.926,-42.480,-46.387,0.000
1709140259.858,-54.688,-26.367,-38.574,-50.781,0.000
1709140259.862,-66.406,-28.809,-32.715,-56.641,0.000
1709140259.866,-61.523,-25.879,-35.645,-57.129,0.000
1709140259.870,-45.410,-29.785,-34.180,-57.129,0.000
1709140259.874,-52.734,-37.598,-31.738,-44.922,0.000
1709140259.878,-53.223,-49.805,-31.738,-41.504,0.000
1709140259.882,-35.156,-51.270,-36.621,-49.316,0.000
1709140259.885,-33.691,-32.227,-38.574,-48.340,0.000
1709140259.889,-49.805,-28.809,-39.062,-46.875,0.000
1709140259.893,-50.781,-32.715,-39.062,-44.922,0.000
1709140259.897,-49.316,-25.879,-45.898,-38.086,0.000
1709140259.901,-52.246,-23.438,-47.363,-33.691,0.000
1709140259.905,-45.898,-35.156,-38.574,-45.898,0.000
1709140259.909,-40.527,-41.992,-36.133,-45.410,0.000
1709140259.913,-40.039,-35.645,-34.668,-35.645,0.000
1709140259.917,-22.461,-32.715,-34.668,-36.133,0.000
1709140259.921,-13.184,-32.227,-33.691,-42.969,0.000
1709140259.925,-26.855,-37.598,-32.227,-47.852,0.000
1709140259.929,-38.574,-40.527,-27.832,-46.387,0.000
1709140259.933,-35.645,-42.969,-27.344,-43.457,0.000
1709140259.937,-43.945,-41.016,-37.109,-45.410,0.000
1709140259.940,-46.875,-28.809,-38.086,-61.523,0.000
1709140259.944,-32.715,-42.969,-36.621,-73.730,0.000
1709140259.948,-27.832,-52.734,-38.574,-64.941,0.000
1709140259.952,-52.734,-35.645,-37.598,-57.129,0.000
1709140259.956,-56.152,-23.438,-40.527,-56.641,0.000
1709140259.960,-38.086,-38.574,-32.715,-53.711,0.000
1709140259.964,-35.156,-46.875,-26.367,-47.852,0.000
1709140259.968,-45.410,-55.664,-35.156,-50.293,0.000
1709140259.972,-48.340,-47.363,-33.203,-56.152,0.000
1709140259.976,-36.621,-23.438,-28.809,-48.828,0.000
1709140259.980,-36.621,-32.715,-35.156,-41.016,0.000
1709140259.984,-47.852,-41.992,-32.227,-43.457,0.000
1709140259.987,-51.270,-37.109,-28.320,-47.363,0.000
1709140259.991,-37.109,-45.410,-32.227,-37.598,0.000
1709140259.995,-30.762,-47.363,-35.156,-25.879,0.000
1709140259.999,-41.016,-40.527,-46.875,-41.992,0.000
1709140260.003,-43.945,-42.969,-44.434,-44.434,0.000
1709140260.007,-45.898,-39.551,-30.273,-28.320,0.000
1709140260.011,-40.039,-41.016,-30.273,-11.230,0.000
1709140260.015,-22.949,-53.711,-34.668,-11.719,0.000
1709140260.019,-26.855,-44.922,-40.039,-41.504,0.000
1709140260.023,-33.691,-29.297,-42.480,-49.316,0.000
1709140260.027,-41.992,-31.250,-37.598,-38.086,0.000
1709140260.030,-49.805,-25.391,-37.598,-34.180,0.000
1709140260.034,-45.410,-37.598,-36.621,-32.227,0.000
1709140260.038,-43.457,-49.316,-30.273,-29.297,0.000
1709140260.042,-35.645,-40.527,-39.551,-39.551,0.000
1709140260.046,-30.273,-38.086,-46.875,-53.223,0.000
1709140260.050,-34.180,-35.645,-45.898,-44.434,0.000
1709140260.054,-38.574,-25.879,-45.410,-41.504,0.000
1709140260.058,-47.852,-25.391,-39.062,-53.711,0.000
1709140260.062,-51.270,-32.715,-33.691,-55.664,0.000
1709140260.066,-50.781,-41.016,-32.227,-50.781,0.000
1709140260.070,-50.781,-54.688,-27.832,-52.246,0.000
1709140260.073,-54.688,-44.922,-22.949,-52.246,0.000
1709140260.077,-48.340,-32.715,-25.391,-53.711,0.000
1709140260.081,-33.691,-35.156,-34.668,-52.246,0.000
1709140260.085,-33.691,-38.574,-36.133,-42.480,0.000
1709140260.089,-45.898,-41.992,-28.320,-46.875,0.000
1709140260.093,-38.574,-40.527,-21.973,-42.480,0.000
1709140260.097,-27.832,-49.805,-19.043,-29.785,0.000
1709140260.101,-29.785,-43.457,-35.645,-38.086,0.000
1709140260.105,-35.156,-9.766,-39.062,-50.293,0.000
1709140260.109,-42.969,-1.465,-23.926,-47.363,0.000
1709140260.112,-35.645,-17.090,-21.973,-33.691,0.000
1709140260.116,-27.832,-41.016,-31.738,-27.344,0.000
1709140260.120,-33.203,-38.574,-34.668,-39.062,0.000
1709140260.124,-33.691,-25.391,-39.062,-53.223,0.000
1709140260.128,-36.133,-38.086,-37.109,-50.293,0.000
1709140260.132,-36.133,-43.945,-34.668,-26.855,0.000
1709140260.136,-30.762,-29.785,-34.180,-27.344,0.000
1709140260.140,-29.297,-30.273,-39.551,-28.809,0.000
1709140260.144,-34.668,-46.387,-45.898,-16.602,0.000
1709140260.148,-48.340,-42.969,-38.086,-27.344,0.000
1709140260.151,-48.340,-34.668,-33.203,-28.320,0.000
1709140260.155,-39.551,-49.805,-32.227,-17.090,0.000
1709140260.159,-37.598,-54.688,-28.809,-19.531,0.000
1709140260.163,-38.086,-42.969,-32.715,-33.203,0.000
1709140260.167,-45.410,-46.387,-41.992,-42.480,0.000
1709140260.171,-43.945,-28.809,-33.203,-43.457,0.000
1709140260.175,-49.805,-23.438,-28.320,-34.180,0.000
1709140260.179,-48.340,-21.973,-35.645,-28.809,0.000
1709140260.183,-35.156,-23.926,-37.598,-39.062,0.000
1709140260.187,-47.363,-31.738,-32.227,-35.645,0.000
1709140260.191,-50.293,-37.109,-30.273,-27.344,0.000
1709140260.194,-39.062,-29.785,-32.227,-23.438,0.000
1709140260.198,-33.691,-35.156,-30.762,-33.691,0.000
1709140260.202,-32.227,-24.414,-31.250,-37.109,0.000
1709140260.206,-29.785,-16.113,-37.109,-27.832,0.000
1709140260.210,-25.391,-41.016,-37.109,-29.785,0.000
1709140260.214,-21.973,-31.250,-34.180,-31.250,0.000
1709140260.218,-17.578,-25.391,-36.133,-31.250,0.000
1709140260.222,-23.926,-36.621,-29.785,-21.484,0.000
1709140260.226,-35.156,-26.855,-34.180,-33.691,0.000
1709140260.230,-35.645,-20.996,-39.062,-43.945,0.000
1709140260.233,-28.809,-29.297,-37.109,-34.180,0.000
1709140260.237,-27.832,-47.852,-38.574,-34.668,0.000
1709140260.241,-31.250,-42.480,-41.016,-34.180,0.000
1709140260.245,-25.879,-24.902,-31.738,-30.273,0.000
1709140260.249,-38.574,-25.879,-27.344,-32.715,0.000
1709140260.253,-53.711,-34.180,-38.574,-42.480,0.000
1709140260.257,-46.875,-32.715,-40.039,-43.457,0.000
1709140260.261,-42.480,-34.180,-44.922,-45.898,0.000
1709140260.265,-34.180,-32.227,-47.852,-41.992,0.000
1709140260.268,-40.039,-27.344,-39.062,-39.551,0.000
1709140260.272,-44.434,-30.762,-31.738,-43.457,0.000
1709140260.276,-33.203,-44.922,-29.785,-43.945,0.000
1709140260.280,-40.039,-48.828,-31.250,-38.086,0.000
1709140260.284,-44.922,-25.391,-29.785,-51.270,0.000
1709140260.288,-44.922,-18.066,-31.738,-60.547,0.000
1709140260.292,-41.016,-23.926,-33.691,-45.898,0.000
1709140260.296,-43.945,-27.832,-45.410,-45.898,0.000
1709140260.300,-44.922,-40.527,-47.363,-57.129,0.000
1709140260.304,-44.434,-42.969,-42.969,-50.781,0.000
1709140260.308,-49.805,-45.410,-37.109,-42.480,0.000
1709140260.312,-49.316,-55.664,-28.809,-30.273,0.000
1709140260.315,-33.203,-43.945,-28.809,-25.391,0.000
1709140260.319,-22.949,-22.461,-31.250,-33.203,0.000
1709140260.323,-27.832,-20.020,-34.180,-38.086,0.000
1709140260.327,-32.227,-24.902,-38.086,-42.480,0.000
1709140260.331,-29.297,-27.832,-44.434,-34.180,0.000
1709140260.335,-21.973,-37.109,-48.340,-27.832,0.000
1709140260.339,-16.602,-41.992,-42.969,-41.504,0.000
1709140260.343,-22.461,-28.809,-40.039,-48.828,0.000
1709140260.347,-32.227,-19.531,-41.992,-42.480,0.000
1709140260.351,-36.621,-37.109,-40.527,-33.203,0.000
1709140260.355,-40.527,-41.504,-37.109,-26.855,0.000
1709140260.359,-40.527,-30.273,-37.109,-33.691,0.000
1709140260.362,-24.414,-21.973,-36.133,-33.203,0.000
1709140260.366,-29.297,-33.203,-31.738,-38.086,0.000
1709140260.370,-42.969,-46.387,-30.762,-30.273,0.000
1709140260.374,-35.645,-41.016,-33.203,-20.508,0.000
1709140260.378,-49.316,-35.156,-41.504,-47.852,0.000
1709140260.382,-60.547,-37.598,-39.062,-57.129,0.000
1709140260.386,-61.035,-41.504,-37.109,-46.875,0.000
1709140260.390,-66.406,-43.457,-37.598,-44.434,0.000
1709140260.394,-61.523,-36.133,-30.273,-45.898,0.000
1709140260.398,-56.152,-29.297,-30.273,-48.828,0.000
1709140260.402,-57.617,-32.715,-33.691,-55.176,0.000
1709140260.406,-58.594,-32.715,-36.133,-62.012,0.000
1709140260.410,-56.641,-38.574,-33.203,-58.594,0.000
1709140260.414,-57.617,-52.734,-28.320,-43.457,0.000
1709140260.417,-46.387,-49.316,-29.785,-34.668,0.000
1709140260.421,-33.203,-51.270,-35.645,-41.504,0.000
1709140260.425,-39.062,-68.359,-35.156,-41.504,0.000
1709140260.429,-44.922,-42.969,-36.621,-45.410,0.000
1709140260.433,-51.270,-27.344,-46.875,-44.922,0.000
1709140260.437,-42.969,-35.645,-45.410,-37.598,0.000
1709140260.441,-23.438,-38.574,-33.203,-37.598,0.000
1709140260.445,-15.625,-41.016,-47.363,-39.062,0.000
1709140260.449,-26.855,-34.668,-51.270,-40.039,0.000
1709140260.453,-35.156,-34.180,-35.156,-42.480,0.000
1709140260.456,-25.879,-49.805,-40.039,-40.039,0.000
1709140260.460,-16.602,-55.176,-37.109,-38.574,0.000
1709140260.464,-21.484,-48.828,-32.227,-43.457,0.000
1709140260.468,-23.926,-48.340,-39.062,-46.387,0.000
1709140260.472,-8.789,-41.992,-40.039,-36.133,0.000
1709140260.476,-11.719,-52.246,-39.551,-19.531,0.000
1709140260.480,-33.203,-43.945,-44.922,-26.367,0.000
1709140260.484,-38.574,-34.180,-47.852,-48.340,0.000
1709140260.488,-41.016,-40.039,-44.434,-51.270,0.000
1709140260.492,-49.805,-30.762,-41.504,-53.223,0.000
1709140260.496,-49.316,-31.250,-41.016,-55.176,0.000
1709140260.499,-44.434,-25.879,-40.527,-55.176,0.000
1709140260.503,-46.387,-36.133,-29.785,-53.223,0.000
1709140260.507,-50.293,-64.941,-27.344,-35.156,0.000
1709140260.511,-44.922,-52.734,-39.062,-28.809,0.000
1709140260.515,-40.039,-29.785,-27.344,-32.715,0.000
1709140260.519,-45.898,-34.180,-20.508,-32.715,0.000
1709140260.523,-45.410,-42.969,-30.762,-31.250,0.000
1709140260.527,-47.852,-50.293,-43.457,-42.969,0.000
1709140260.531,-54.688,-40.039,-47.363,-59.082,0.000
1709140260.535,-60.547,-32.715,-33.203,-55.664,0.000
1709140260.538,-56.152,-51.270,-29.297,-50.293,0.000
1709140260.542,-46.387,-55.176,-30.762,-53.711,0.000
1709140260.546,-49.316,-41.016,-33.691,-52.734,0.000
1709140260.550,-45.410,-33.203,-46.875,-39.551,0.000
1709140260.554,-38.086,-27.832,-37.109,-24.414,0.000
1709140260.558,-26.367,-27.344,-18.555,-25.391,0.000
1709140260.562,-19.043,-27.344,-34.180,-26.367,0.000
1709140260.566,-34.668,-31.738,-42.969,-34.180,0.000
1709140260.570,-39.551,-36.133,-33.691,-36.621,0.000
1709140260.574,-28.809,-29.297,-30.762,-30.273,0.000
1709140260.577,-22.461,-34.668,-32.715,-30.273,0.000
1709140260.581,-24.414,-41.992,-33.691,-29.785,0.000
1709140260.585,-29.297,-38.086,-31.738,-34.180,0.000
1709140260.589,-24.902,-40.527,-35.156,-34.180,0.000
1709140260.593,-26.367,-36.133,-37.598,-30.762,0.000
1709140260.597,-31.250,-29.785,-40.039,-35.156,0.000
1709140260.601,-29.297,-30.273,-40.039,-49.316,0.000
1709140260.605,-41.504,-46.875,-31.738,-52.734,0.000
1709140260.609,-55.664,-46.387,-32.715,-45.898,0.000
1709140260.613,-49.316,-43.945,-40.527,-38.574,0.000
1709140260.616,-41.992,-37.598,-38.574,-31.738,0.000
1709140260.620,-42.480,-19.531,-33.203,-36.621,0.000
1709140260.624,-36.621,-17.578,-28.320,-41.016,0.000
1709140260.628,-32.715,-20.020,-26.367,-36.621,0.000
1709140260.632,-32.227,-38.086,-27.832,-28.809,0.000
1709140260.636,-31.250,-50.293,-32.715,-23.926,0.000
1709140260.640,-28.320,-37.109,-32.715,-35.156,0.000
1709140260.644,-30.273,-29.785,-27.832,-43.945,0.000
1709140260.648,-21.484,-43.457,-26.855,-34.180,0.000
1709140260.652,-16.113,-54.199,-33.691,-30.762,0.000
1709140260.655,-43.945,-43.457,-37.109,-31.250,0.000
1709140260.659,-56.152,-38.574,-39.062,-37.598,0.000
1709140260.663,-51.270,-46.387,-43.945,-45.410,0.000
1709140260.667,-44.922,-42.480,-47.363,-46.875,0.000
1709140260.671,-40.039,-46.387,-37.109,-43.945,0.000
1709140260.675,-33.203,-62.500,-26.855,-38.086,0.000
1709140260.679,-40.039,-48.828,-37.109,-42.969,0.000
1709140260.683,-46.387,-31.250,-45.410,-52.734,0.000
1709140260.687,-48.828,-32.227,-48.340,-48.340,0.000
1709140260.691,-47.852,-32.227,-43.945,-52.246,0.000
1709140260.695,-39.062,-34.668,-40.039,-55.176,0.000
1709140260.699,-38.574,-39.062,-45.410,-42.480,0.000
1709140260.702,-39.551,-26.855,-44.434,-37.598,0.000
1709140260.706,-46.387,-22.461,-42.480,-53.223,0.000
1709140260.710,-55.176,-37.598,-40.527,-50.781,0.000
1709140260.714,-48.340,-45.898,-42.480,-41.992,0.000
1709140260.718,-46.387,-40.527,-56.152,-41.016,0.000
1709140260.722,-43.457,-36.621,-57.129,-42.969,0.000
1709140260.726,-45.410,-39.062,-36.621,-50.293,0.000
1709140260.730,-46.387,-48.828,-32.715,-50.781,0.000
1709140260.734,-39.062,-41.504,-38.574,-44.922,0.000
1709140260.737,-29.297,-49.316,-38.086,-35.645,0.000
1709140260.741,-28.809,-49.316,-39.062,-39.551,0.000
1709140260.745,-40.039,-27.344,-36.133,-39.551,0.000
1709140260.749,-43.945,-14.160,-30.273,-29.297,0.000
1709140260.753,-38.086,-20.996,-34.668,-27.832,0.000
1709140260.757,-35.156,-45.898,-35.645,-41.016,0.000
1709140260.761,-35.156,-51.270,-36.133,-62.500,0.000
1709140260.765,-48.828,-31.250,-36.133,-64.453,0.000
1709140260.769,-57.129,-27.832,-41.016,-55.664,0.000
1709140260.773,-50.293,-39.551,-48.828,-51.270,0.000
1709140260.777,-51.270,-47.852,-44.434,-46.875,0.000
1709140260.780,-53.223,-32.715,-38.574,-45.410,0.000
1709140260.784,-34.180,-42.969,-34.180,-42.969,0.000
1709140260.788,-27.344,-43.457,-26.855,-35.156,0.000
1709140260.792,-43.457,-25.879,-30.762,-33.691,0.000
1709140260.796,-44.434,-28.320,-39.062,-33.691,0.000
1709140260.800,-36.133,-31.738,-39.551,-36.133,0.000
1709140260.804,-40.527,-34.668,-41.992,-50.293,0.000
1709140260.808,-46.875,-41.504,-42.969,-56.152,0.000
1709140260.812,-48.828,-34.180,-41.016,-45.410,0.000
1709140260.816,-41.504,-28.809,-40.039,-40.039,0.000
1709140260.820,-36.133,-43.945,-33.203,-31.250,0.000
1709140260.823,-43.457,-55.664,-31.250,-29.785,0.000
1709140260.827,-52.734,-56.641,-38.574,-40.039,0.000
1709140260.831,-42.480,-46.387,-39.062,-40.527,0.000
1709140260.835,-35.645,-30.273,-33.203,-40.527,0.000
1709140260.839,-39.551,-23.926,-36.133,-48.340,0.000
1709140260.843,-39.062,-33.691,-46.387,-59.082,0.000
1709140260.847,-49.316,-43.945,-46.875,-52.734,0.000
1709140260.851,-49.805,-39.551,-38.574,-46.875,0.000
1709140260.855,-42.480,-39.551,-33.203,-52.734,0.000
1709140260.859,-50.781,-37.598,-33.203,-55.176,0.000
1709140260.863,-40.039,-33.203,-35.645,-45.898,0.000
1709140260.866,-37.598,-38.086,-39.062,-39.551,0.000
1709140260.870,-46.875,-36.133,-39.062,-41.504,0.000
1709140260.874,-44.922,-35.156,-32.227,-37.598,0.000
1709140260.878,-48.340,-41.504,-36.133,-30.273,0.000
1709140260.882,-43.457,-42.480,-41.016,-17.090,0.000
1709140260.886,-40.039,-42.480,-39.062,-20.020,0.000
1709140260.890,-47.363,-38.574,-36.133,-31.738,0.000
1709140260.894,-46.875,-31.250,-38.574,-26.367,0.000
1709140260.898,-45.410,-35.645,-41.504,-22.461,0.000
1709140260.902,-39.062,-45.898,-36.133,-25.391,0.000
1709140260.905,-31.738,-44.434,-29.297,-25.391,0.000
1709140260.909,-36.621,-34.668,-35.645,-25.879,0.000
1709140260.913,-41.016,-47.363,-48.828,-26.855,0.000
1709140260.917,-37.598,-34.668,-39.551,-33.203,0.000
1709140260.921,-28.809,-19.531,-29.785,-30.762,0.000
1709140260.925,-34.180,-27.344,-35.645,-27.344,0.000
1709140260.929,-41.992,-36.133,-30.762,-26.855,0.000
1709140260.933,-41.016,-37.109,-26.367,-22.461,0.000
1709140260.937,-39.062,-27.832,-35.645,-32.227,0.000
1709140260.941,-36.621,-23.926,-35.645,-43.457,0.000
1709140260.944,-30.273,-36.133,-29.785,-40.039,0.000
1709140260.948,-29.297,-48.340,-25.391,-41.992,0.000
1709140260.952,-27.832,-47.363,-29.297,-41.504,0.000
1709140260.956,-38.086,-28.809,-36.133,-35.156,0.000
1709140260.960,-46.875,-19.531,-42.480,-43.457,0.000
1709140260.964,-45.410,-35.645,-37.109,-47.363,0.000
1709140260.968,-43.457,-34.180,-34.180,-41.504,0.000
1709140260.972,-40.039,-30.273,-32.715,-24.902,0.000
1709140260.976,-41.016,-42.480,-36.133,-23.926,0.000
1709140260.980,-34.668,-45.898,-43.457,-26.855,0.000
1709140260.983,-27.344,-43.945,-32.715,-27.832,0.000
1709140260.987,-34.180,-44.434,-37.109,-33.203,0.000
1709140260.991,-41.016,-39.551,-43.945,-37.598,0.000
1709140260.995,-32.227,-27.832,-30.273,-38.574,0.000
1709140260.999,-24.414,-28.809,-30.273,-31.250,0.000
1709140261.003,-23.926,-53.223,-37.598,-28.320,0.000
1709140261.007,-25.391,-54.688,-33.203,-42.480,0.000
1709140261.011,-41.992,-41.016,-26.367,-48.340,0.000
1709140261.015,-50.781,-49.805,-26.855,-36.133,0.000
1709140261.019,-49.805,-43.457,-36.621,-40.039,0.000
1709140261.022,-41.992,-31.250,-41.504,-41.016,0.000
1709140261.026,-38.574,-35.156,-36.621,-27.832,0.000
1709140261.030,-42.969,-30.762,-28.809,-25.879,0.000
1709140261.034,-30.273,-28.809,-31.250,-32.715,0.000
1709140261.038,-20.508,-39.062,-35.156,-32.715,0.000
1709140261.042,-26.367,-39.551,-42.480,-38.574,0.000
1709140261.046,-32.227,-38.086,-51.758,-41.992,0.000
1709140261.050,-28.809,-44.922,-51.270,-32.715,0.000
1709140261.054,-21.484,-57.617,-42.969,-34.668,0.000
1709140261.058,-26.367,-48.828,-43.945,-42.480,0.000
1709140261.062,-34.668,-30.273,-42.969,-35.645,0.000
1709140261.066,-41.016,-33.203,-45.410,-57.129,0.000
1709140261.069,-42.969,-33.203,-45.410,-58.594,0.000
1709140261.073,-35.156,-26.367,-39.551,-36.621,0.000
1709140261.077,-24.414,-31.250,-48.828,-39.551,0.000
1709140261.081,-21.484,-41.016,-48.340,-44.922,0.000
1709140261.085,-19.043,-37.109,-38.086,-32.227,0.000
1709140261.089,-19.531,-36.133,-38.574,-29.297,0.000
1709140261.093,-16.113,-38.086,-34.180,-35.645,0.000
1709140261.097,-25.391,-35.645,-32.227,-34.180,0.000
1709140261.100,-37.598,-39.062,-40.527,-35.645,0.000
1709140261.104,-35.645,-45.410,-35.645,-47.363,0.000
1709140261.108,-38.086,-58.105,-32.227,-41.504,0.000
1709140261.112,-41.016,-51.758,-42.969,-30.273,0.000
1709140261.116,-37.598,-22.949,-49.316,-44.922,0.000
1709140261.120,-31.738,-16.602,-31.738,-39.551,0.000
1709140261.124,-39.062,-31.738,-23.438,-33.691,0.000
1709140261.128,-57.617,-35.156,-39.551,-50.293,0.000
1709140261.132,-58.594,-39.551,-47.363,-43.945,0.000
1709140261.136,-51.270,-41.992,-39.551,-35.156,0.000
1709140261.140,-37.598,-27.344,-36.133,-42.480,0.000
1709140261.144,-38.574,-30.273,-41.504,-45.410,0.000
1709140261.147,-39.551,-35.645,-39.551,-37.598,0.000
1709140261.151,-33.203,-33.691,-38.574,-25.879,0.000
1709140261.155,-25.391,-35.156,-39.062,-12.207,0.000
1709140261.159,-19.043,-35.156,-31.250,-9.766,0.000
1709140261.163,-20.996,-35.645,-34.668,-20.508,0.000
1709140261.167,-27.832,-33.691,-47.852,-34.668,0.000
1709140261.171,-23.926,-37.109,-38.574,-36.621,0.000
1709140261.175,-16.602,-20.996,-31.738,-34.668,0.000
1709140261.179,-20.996,-19.531,-38.574,-33.203,0.000
1709140261.183,-26.367,-32.715,-36.621,-37.598,0.000
1709140261.187,-20.508,-25.879,-31.250,-37.598,0.000
1709140261.190,-19.043,-24.902,-31.738,-31.250,0.000
1709140261.194,-28.320,-24.414,-30.273,-21.484,0.000
1709140261.198,-29.785,-23.438,-28.320,-18.555,0.000
1709140261.202,-22.461,-32.227,-32.715,-19.531,0.000
1709140261.206,-28.320,-46.875,-44.434,-22.461,0.000
1709140261.210,-38.574,-53.223,-52.246,-19.531,0.000
1709140261.214,-39.551,-36.133,-32.715,-25.879,0.000
1709140261.218,-36.133,-27.344,-21.973,-41.992,0.000
1709140261.222,-35.645,-30.273,-25.879,-41.016,0.000
1709140261.226,-49.316,-31.250,-31.250,-38.086,0.000
1709140261.229,-67.871,-32.715,-34.668,-43.945,0.000
1709140261.233,-62.012,-32.227,-33.203,-41.992,0.000
1709140261.237,-51.270,-34.668,-39.551,-38.574,0.000
1709140261.241,-55.664,-39.551,-43.945,-50.293,0.000
1709140261.245,-59.082,-44.922,-39.062,-57.129,0.000
1709140261.249,-55.664,-41.504,-37.598,-53.223,0.000
1709140261.253,-63.477,-29.297,-42.969,-55.176,0.000
1709140261.257,-66.895,-27.344,-47.852,-49.316,0.000
1709140261.261,-52.246,-28.320,-46.387,-50.781,0.000
1709140261.265,-56.641,-23.438,-41.504,-51.270,0.000
1709140261.269,-65.430,-34.180,-40.527,-52.246,0.000
1709140261.272,-56.152,-44.922,-34.668,-54.199,0.000
1709140261.276,-55.176,-44.922,-34.180,-51.758,0.000
1709140261.280,-59.570,-38.574,-42.480,-54.199,0.000
1709140261.284,-47.852,-31.738,-37.598,-44.434,0.000
1709140261.288,-36.621,-36.133,-33.203,-38.574,0.000
1709140261.292,-41.016,-34.180,-39.062,-40.039,0.000
1709140261.296,-42.480,-35.156,-35.645,-38.086,0.000
1709140261.300,-25.391,-44.922,-31.738,-24.414,0.000
1709140261.304,-15.137,-36.133,-36.621,-18.555,0.000
1709140261.308,-22.949,-29.297,-35.156,-22.949,0.000
1709140261.311,-39.062,-25.879,-28.809,-24.414,0.000
1709140261.315,-37.598,-31.738,-26.367,-24.414,0.000
1709140261.319,-27.832,-44.434,-24.414,-23.926,0.000
1709140261.323,-21.484,-45.898,-22.949,-27.344,0.000
1709140261.327,-22.461,-41.504,-31.738,-35.645,0.000
1709140261.331,-30.762,-61.035,-40.039,-36.133,0.000
1709140261.335,-39.062,-63.965,-33.691,-44.922,0.000
1709140261.339,-36.133,-35.156,-34.180,-57.617,0.000
1709140261.343,-41.992,-38.086,-38.086,-52.246,0.000
1709140261.347,-54.199,-38.086,-41.504,-43.457,0.000
1709140261.350,-54.688,-41.016,-44.434,-48.828,0.000
1709140261.354,-52.246,-41.016,-47.363,-50.293,0.000
1709140261.358,-51.758,-22.949,-42.969,-45.410,0.000
1709140261.362,-43.945,-24.902,-33.691,-51.758,0.000
1709140261.366,-42.480,-42.969,-23.926,-55.664,0.000
1709140261.370,-49.805,-43.945,-22.949,-52.734,0.000
1709140261.374,-52.734,-43.457,-30.762,-45.898,0.000
1709140261.378,-54.688,-41.016,-38.086,-50.293,0.000
1709140261.382,-51.270,-34.668,-41.992,-62.012,0.000
1709140261.385,-53.223,-47.363,-41.016,-66.406,0.000
1709140261.389,-61.035,-40.039,-41.992,-59.570,0.000
1709140261.393,-50.781,-26.367,-41.016,-50.781,0.000
1709140261.397,-44.434,-31.738,-42.480,-41.504,0.000
1709140261.401,-36.621,-54.688,-44.434,-41.992,0.000
1709140261.405,-40.527,-63.965,-42.969,-43.945,0.000
1709140261.409,-48.828,-46.387,-42.969,-47.363,0.000
1709140261.413,-36.621,-31.738,-45.410,-41.992,0.000
1709140261.417,-23.438,-32.715,-35.156,-31.250,0.000
1709140261.421,-9.766,-51.758,-33.691,-17.578,0.000
1709140261.425,-10.742,-47.852,-45.410,-20.996,0.000
1709140261.429,-25.879,-34.180,-41.504,-43.945,0.000
1709140261.432,-31.250,-34.180,-36.621,-47.852,0.000
1709140261.436,-28.809,-33.203,-37.109,-31.738,0.000
1709140261.440,-15.137,-33.203,-39.062,-32.227,0.000
1709140261.444,-24.902,-39.062,-44.922,-34.180,0.000
1709140261.448,-34.668,-55.176,-38.086,-36.621,0.000
1709140261.452,-34.180,-40.039,-35.645,-48.828,0.000
1709140261.456,-33.691,-21.484,-33.691,-53.223,0.000
1709140261.460,-28.320,-33.203,-29.297,-46.875,0.000
1709140261.464,-31.250,-46.875,-35.645,-46.387,0.000
1709140261.468,-41.504,-40.527,-39.551,-44.434,0.000
1709140261.472,-50.293,-41.992,-37.598,-44.434,0.000
1709140261.476,-55.664,-42.480,-44.434,-45.898,0.000
1709140261.479,-47.363,-39.062,-44.434,-42.969,0.000
1709140261.483,-37.598,-46.387,-46.387,-43.945,0.000
1709140261.487,-48.828,-46.387,-47.852,-41.504,0.000
1709140261.491,-47.363,-44.434,-37.109,-40.039,0.000
1709140261.495,-25.391,-52.246,-26.855,-27.832,0.000
1709140261.499,-19.043,-47.852,-22.461,-29.297,0.000
1709140261.503,-32.227,-36.133,-29.785,-43.945,0.000
1709140261.507,-46.875,-36.133,-41.016,-41.992,0.000
1709140261.511,-47.852,-34.180,-30.762,-34.668,0.000
1709140261.515,-49.316,-45.410,-25.391,-35.156,0.000
1709140261.519,-48.828,-65.430,-33.691,-41.016,0.000
1709140261.522,-53.711,-63.477,-39.551,-54.199,0.000
1709140261.526,-51.758,-44.434,-38.574,-52.734,0.000
1709140261.530,-43.457,-27.832,-38.574,-41.992,0.000
1709140261.534,-41.016,-35.645,-39.551,-47.852,0.000
1709140261.538,-48.340,-36.621,-33.203,-51.758,0.000
1709140261.542,-49.316,-42.480,-37.109,-43.945,0.000
1709140261.546,-49.316,-46.387,-38.574,-46.875,0.000
1709140261.550,-52.246,-47.852,-40.527,-47.363,0.000
1709140261.554,-43.457,-42.480,-47.852,-44.434,0.000
1709140261.558,-37.598,-24.902,-42.480,-48.340,0.000
1709140261.562,-42.480,-33.203,-32.715,-52.734,0.000
1709140261.565,-52.734,-48.828,-32.227,-51.270,0.000
1709140261.569,-56.152,-44.922,-35.645,-49.316,0.000
1709140261.573,-57.617,-40.527,-35.645,-48.340,0.000
1709140261.577,-50.781,-43.457,-41.992,-48.828,0.000
1709140261.581,-50.293,-36.621,-39.551,-46.387,0.000
1709140261.585,-59.082,-28.320,-39.062,-43.945,0.000
1709140261.589,-53.223,-36.621,-45.898,-40.039,0.000
1709140261.593,-50.781,-41.016,-45.898,-38.086,0.000
1709140261.597,-55.176,-31.738,-41.992,-38.574,0.000
1709140261.601,-57.129,-29.785,-38.574,-37.109,0.000
1709140261.605,-58.105,-46.875,-46.387,-37.598,0.000
1709140261.608,-43.457,-41.016,-52.734,-39.062,0.000
1709140261.612,-40.527,-29.297,-45.898,-38.086,0.000
1709140261.616,-54.199,-31.738,-42.969,-43.457,0.000
1709140261.620,-51.270,-25.391,-43.457,-42.969,0.000
1709140261.624,-47.363,-33.203,-42.480,-39.551,0.000
1709140261.628,-47.852,-39.551,-47.852,-33.203,0.000
1709140261.632,-35.156,-35.645,-46.387,-25.879,0.000
1709140261.636,-46.875,-23.438,-41.992,-42.969,0.000
1709140261.640,-51.758,-13.672,-45.898,-55.176,0.000
1709140261.644,-48.828,-20.508,-43.457,-51.758,0.000
1709140261.648,-55.664,-21.973,0.000,-53.223,0.000
1709140261.652,-54.199,-27.344,0.000,-56.152,0.000
1709140261.655,-51.270,-30.273,0.000,-55.664,0.000
1709140261.659,-47.363,-32.715,0.000,-61.035,0.000
1709140261.663,-41.992,-31.250,0.000,-61.523,0.000
1709140261.667,-42.480,-34.668,0.000,-55.664,0.000
1709140261.671,-43.945,-46.875,0.000,-49.316,0.000
1709140261.675,-29.785,-50.293,0.000,-34.668,0.000
1709140261.679,-28.320,-36.133,0.000,-36.133,0.000
1709140261.683,-29.785,-16.602,0.000,-56.152,0.000
1709140261.687,-22.461,-19.043,0.000,-62.988,0.000
1709140261.691,-34.668,-26.855,0.000,-64.453,0.000
1709140261.694,-38.574,-35.156,-41.016,-61.035,0.000
1709140261.698,-28.809,-40.039,-50.781,-56.152,0.000
1709140261.702,-28.809,-37.598,-41.992,-51.758,0.000
