timestamps,TP9,AF7,AF8,TP10,Right AUX
1709140304.774,-16.602,-11.719,-61.523,-44.922,0.000
1709140304.778,-9.766,7.324,-64.453,-38.574,0.000
1709140304.782,-10.254,-16.602,-69.824,-37.598,0.000
1709140304.786,-8.789,-12.695,-68.359,-36.133,0.000
1709140304.790,-8.301,5.859,-61.523,-33.691,0.000
1709140304.794,-5.371,-0.977,-50.293,-32.715,0.000
1709140304.798,-5.371,-10.254,-51.758,-27.344,0.000
1709140304.802,-9.766,-20.996,-56.641,-20.996,0.000
1709140304.805,-9.766,-31.250,-51.758,-23.438,0.000
1709140304.809,-6.836,-16.602,-50.293,-24.414,0.000
1709140304.813,-9.766,-14.160,-56.641,-28.809,0.000
1709140304.817,-12.695,-28.320,-58.105,-30.273,0.000
1709140304.821,-11.230,-20.508,-57.129,-26.855,0.000
1709140304.825,-10.742,-17.578,-53.711,-19.531,0.000
1709140304.829,-9.766,-30.762,-50.781,-20.508,0.000
1709140304.833,-8.301,-25.391,-38.574,-29.297,0.000
1709140304.837,-20.996,-32.715,-43.457,-42.480,0.000
1709140304.840,-34.668,-49.316,-56.641,-53.711,0.000
1709140304.844,-33.691,-36.133,-48.340,-42.969,0.000
1709140304.848,-40.527,-52.246,-46.875,-42.969,0.000
1709140304.852,-43.945,-76.660,-45.898,-53.223,0.000
1709140304.856,-32.715,-50.781,-39.551,-50.293,0.000
1709140304.860,-37.598,-36.133,-38.086,-42.969,0.000
1709140304.864,-40.039,-52.246,-38.086,-38.574,0.000
1709140304.868,-38.574,-42.480,-42.480,-38.086,0.000
1709140304.872,-33.203,-25.391,-37.598,-43.945,0.000
1709140304.876,-36.133,-33.203,-26.855,-48.340,0.000
1709140304.879,-37.598,-35.156,-26.367,-38.574,0.000
1709140304.883,-22.461,-32.227,-25.879,-30.273,0.000
1709140304.887,-15.625,-44.922,-24.902,-30.762,0.000
1709140304.891,-14.648,-47.852,-24.902,-21.484,0.000
1709140304.895,-30.273,-26.367,-23.438,-26.855,0.000
1709140304.899,-34.668,-26.855,-21.973,-26.855,0.000
1709140304.903,-25.879,-40.039,-25.391,-18.555,0.000
1709140304.907,-31.250,-27.344,-33.691,-20.996,0.000
1709140304.911,-36.621,-23.438,-39.062,-27.344,0.000
1709140304.915,-38.086,-35.156,-36.621,-35.156,0.000
1709140304.919,-36.133,-32.715,-34.668,-43.945,0.000
1709140304.922,-34.180,-35.645,-39.062,-49.316,0.000
1709140304.926,-33.203,-49.316,-43.945,-47.363,0.000
1709140304.930,-39.062,-50.293,-46.387,-52.734,0.000
1709140304.934,-45.410,-34.180,-43.457,-61.035,0.000
1709140304.938,-41.016,-23.926,-32.227,-55.664,0.000
1709140304.942,-35.156,-29.785,-25.879,-46.875,0.000
1709140304.946,-42.969,-44.922,-21.973,-36.133,0.000
1709140304.950,-40.039,-49.805,-31.250,-20.996,0.000
1709140304.954,-32.715,-41.016,-42.480,-27.344,0.000
1709140304.958,-38.086,-23.926,-41.016,-33.203,0.000
1709140304.962,-43.945,-41.504,-37.109,-30.273,0.000
1709140304.966,-41.992,-60.547,-32.715,-25.879,0.000
1709140304.969,-41.504,-40.039,-34.180,-28.320,0.000
1709140304.973,-47.363,-24.902,-43.945,-41.016,0.000
1709140304.977,-54.688,-24.902,-42.480,-44.922,0.000
1709140304.981,-51.270,-38.086,-31.250,-37.598,0.000
1709140304.985,-46.387,-29.785,-30.273,-36.133,0.000
1709140304.989,-50.293,-19.043,-35.156,-54.688,0.000
1709140304.993,-51.270,-24.902,-38.086,-60.547,0.000
1709140304.997,-47.852,-31.738,-41.504,-51.270,0.000
1709140305.001,-47.852,-32.715,-44.434,-52.734,0.000
1709140305.005,-44.434,-46.387,-45.410,-47.363,0.000
1709140305.009,-37.109,-47.852,-39.062,-41.016,0.000
1709140305.012,-36.133,-36.133,-39.551,-41.504,0.000
1709140305.016,-40.527,-40.527,-44.922,-44.434,0.000
1709140305.020,-48.340,-43.945,-36.621,-46.387,0.000
1709140305.024,-48.828,-45.898,-32.715,-47.852,0.000
1709140305.028,-41.016,-47.852,-39.062,-52.246,0.000
1709140305.032,-44.922,-34.180,-38.574,-55.176,0.000
1709140305.036,-34.180,-26.367,-34.180,-42.969,0.000
1709140305.040,-32.715,-40.527,-35.156,-31.738,0.000
1709140305.044,-39.062,-37.598,-39.551,-35.645,0.000
1709140305.048,-30.273,-30.762,-36.133,-41.504,0.000
1709140305.051,-23.438,-33.691,-36.133,-42.969,0.000
1709140305.055,-25.391,-38.574,-36.621,-30.762,0.000
1709140305.059,-25.879,-54.199,-33.691,-21.484,0.000
1709140305.063,-24.902,-45.410,-40.039,-26.367,0.000
1709140305.067,-27.344,-38.086,-43.457,-36.621,0.000
1709140305.071,-39.062,-55.176,-45.898,-45.410,0.000
1709140305.075,-40.039,-43.457,-41.992,-47.363,0.000
1709140305.079,-35.156,-33.691,-32.227,-40.527,0.000
1709140305.083,-34.180,-36.133,-21.484,-33.203,0.000
1709140305.087,-37.109,-29.297,-25.391,-34.180,0.000
1709140305.091,-30.762,-47.363,-33.203,-39.062,0.000
1709140305.094,-27.832,-76.660,-34.180,-40.527,0.000
1709140305.098,-48.828,-48.828,-44.922,-49.316,0.000
1709140305.102,-46.387,-22.949,-45.410,-43.945,0.000
1709140305.106,-24.902,-32.715,-39.551,-37.598,0.000
1709140305.110,-24.414,-45.898,-43.945,-49.316,0.000
1709140305.114,-41.016,-43.457,-39.062,-57.617,0.000
1709140305.118,-41.992,-44.434,-41.504,-51.270,0.000
1709140305.122,-39.062,-35.156,-48.828,-45.410,0.000
1709140305.126,-38.574,-32.227,-41.016,-49.805,0.000
1709140305.130,-39.062,-40.527,-38.086,-41.504,0.000
1709140305.133,-39.062,-34.668,-40.039,-39.551,0.000
1709140305.137,-30.273,-46.387,-38.086,-49.316,0.000
1709140305.141,-23.438,-41.504,-38.086,-35.156,0.000
1709140305.145,-21.484,-16.602,-25.879,-22.949,0.000
1709140305.149,-22.949,-19.531,-24.902,-25.391,0.000
1709140305.153,-30.762,-28.809,-29.297,-24.902,0.000
1709140305.157,-33.691,-33.691,-27.832,-20.996,0.000
1709140305.161,-29.785,-30.762,-32.227,-20.020,0.000
1709140305.165,-29.785,-22.949,-28.320,-20.508,0.000
1709140305.169,-37.109,-27.832,-31.250,-29.297,0.000
1709140305.172,-31.250,-36.133,-34.668,-40.039,0.000
1709140305.176,-31.738,-31.250,-31.738,-33.691,0.000
1709140305.180,-41.992,-26.367,-29.785,-38.086,0.000
1709140305.184,-38.086,-49.805,-26.855,-42.969,0.000
1709140305.188,-47.363,-58.105,-32.227,-39.062,0.000
1709140305.192,-50.781,-42.480,-35.645,-38.086,0.000
1709140305.196,-49.316,-43.457,-37.109,-41.504,0.000
1709140305.200,-58.594,-44.434,-38.086,-41.016,0.000
1709140305.204,-60.547,-51.270,-33.203,-36.621,0.000
1709140305.208,-54.688,-60.059,-22.949,-36.621,0.000
1709140305.211,-51.270,-51.270,-18.555,-40.039,0.000
1709140305.215,-49.805,-60.059,-23.926,-38.086,0.000
1709140305.219,-51.758,-70.312,-26.855,-31.250,0.000
1709140305.223,-52.246,-43.945,-30.762,-33.691,0.000
1709140305.227,-51.270,-31.738,-34.668,-44.922,0.000
1709140305.231,-51.758,-46.387,-32.715,-56.152,0.000
1709140305.235,-58.105,-42.969,-37.598,-48.828,0.000
1709140305.239,-60.547,-40.527,-47.852,-41.016,0.000
1709140305.243,-51.270,-56.152,-35.156,-51.758,0.000
1709140305.246,-47.852,-57.617,-33.691,-64.941,0.000
1709140305.250,-44.434,-55.664,-44.434,-58.105,0.000
1709140305.254,-41.504,-58.594,-39.062,-45.410,0.000
1709140305.258,-52.734,-62.988,-36.133,-47.852,0.000
1709140305.262,-53.711,-46.875,-41.992,-43.457,0.000
1709140305.266,-46.875,-35.156,-39.062,-40.039,0.000
1709140305.270,-50.781,-53.711,-35.156,-53.223,0.000
1709140305.274,-54.199,-53.711,-37.598,-59.082,0.000
1709140305.278,-48.828,-34.668,-39.551,-44.922,0.000
1709140305.282,-52.734,-27.832,-48.828,-43.945,0.000
1709140305.286,-60.059,-38.086,-52.734,-56.641,0.000
1709140305.290,-71.289,-45.898,-41.016,-67.383,0.000
1709140305.294,-76.172,-48.828,-35.156,-68.848,0.000
1709140305.297,-64.453,-69.824,-48.340,-61.523,0.000
1709140305.301,-53.711,-50.293,-43.457,-51.758,0.000
1709140305.305,-59.570,-30.273,-32.227,-47.852,0.000
1709140305.309,-59.082,-48.340,-30.273,-42.480,0.000
1709140305.313,-54.199,-52.246,-31.250,-40.527,0.000
1709140305.317,-62.012,-42.969,-28.320,-42.480,0.000
1709140305.321,-58.594,-45.410,-31.250,-41.992,0.000
1709140305.325,-50.781,-50.293,-45.898,-44.434,0.000
1709140305.329,-63.477,-51.758,-46.387,-51.270,0.000
1709140305.333,-70.312,-38.086,-41.992,-57.617,0.000
1709140305.337,-67.383,-37.109,-39.551,-56.152,0.000
1709140305.340,-58.105,-55.664,-38.086,-49.316,0.000
1709140305.344,-54.199,-45.410,-39.062,-44.434,0.000
1709140305.348,-62.500,-36.621,-34.180,-53.711,0.000
1709140305.352,-57.617,-44.922,-38.574,-44.922,0.000
1709140305.356,-50.781,-40.039,-40.527,-32.227,0.000
1709140305.360,-52.246,-41.016,-35.156,-31.738,0.000
1709140305.364,-47.852,-55.176,-37.598,-35.645,0.000
1709140305.368,-44.434,-48.340,-41.992,-38.086,0.000
1709140305.372,-48.828,-36.621,-32.715,-35.645,0.000
1709140305.376,-48.828,-55.664,-31.250,-38.086,0.000
1709140305.380,-39.551,-57.129,-38.086,-32.715,0.000
1709140305.383,-39.062,-34.180,-35.156,-36.133,0.000
1709140305.387,-38.086,-31.250,-30.273,-48.340,0.000
1709140305.391,-34.180,-29.785,-37.598,-52.246,0.000
1709140305.395,-41.016,-36.621,-38.574,-45.898,0.000
1709140305.399,-31.250,-54.688,-34.668,-29.297,0.000
1709140305.403,-20.508,-51.758,-33.691,-22.461,0.000
1709140305.407,-24.414,-36.133,-39.062,-30.762,0.000
1709140305.411,-27.832,-30.762,-30.762,-38.574,0.000
1709140305.415,-30.273,-44.434,-24.902,-35.645,0.000
1709140305.419,-37.109,-49.805,-26.367,-31.738,0.000
1709140305.423,-33.203,-52.246,-28.320,-36.133,0.000
1709140305.426,-30.762,-52.734,-35.156,-46.387,0.000
1709140305.431,-34.668,-33.691,-37.109,-51.270,0.000
1709140305.435,-44.434,-27.344,-41.504,-49.805,0.000
1709140305.438,-48.828,-41.504,-43.945,-48.828,0.000
1709140305.442,-39.062,-53.223,-36.133,-41.504,0.000
1709140305.446,-26.855,-54.688,-37.598,-37.109,0.000
1709140305.450,-41.504,-57.617,-41.992,-43.945,0.000
1709140305.454,-51.758,-39.062,-40.527,-57.129,0.000
1709140305.458,-51.270,-28.809,-32.715,-54.199,0.000
1709140305.462,-43.945,-40.039,-24.414,-38.086,0.000
1709140305.466,-35.645,-46.387,-33.691,-37.109,0.000
1709140305.470,-37.109,-39.551,-37.109,-43.457,0.000
1709140305.474,-38.574,-28.320,-32.715,-40.527,0.000
1709140305.477,-46.387,-32.715,-34.668,-48.828,0.000
1709140305.481,-56.641,-36.133,-38.574,-57.617,0.000
1709140305.485,-52.734,-39.062,-39.062,-46.875,0.000
1709140305.489,-41.992,-43.457,-38.574,-43.457,0.000
1709140305.493,-38.086,-44.434,-42.480,-54.199,0.000
1709140305.497,-34.180,-38.574,-42.969,-53.223,0.000
1709140305.501,-38.574,-41.016,-44.434,-41.992,0.000
1709140305.505,-28.320,-40.039,-40.527,-32.715,0.000
1709140305.509,-18.066,-35.645,-45.410,-40.527,0.000
1709140305.513,-35.645,-53.223,-44.434,-51.758,0.000
1709140305.517,-38.086,-47.852,-32.227,-50.781,0.000
1709140305.520,-41.992,-30.273,-42.969,-46.875,0.000
1709140305.524,-54.688,-17.578,-49.805,-52.734,0.000
1709140305.528,-52.734,-18.555,-40.527,-62.012,0.000
1709140305.532,-44.922,-27.344,-33.691,-58.105,0.000
1709140305.536,-29.297,-30.273,-31.250,-38.086,0.000
1709140305.540,-37.598,-33.691,-39.062,-42.969,0.000
1709140305.544,-44.922,-33.691,-53.711,-59.082,0.000
1709140305.548,-37.598,-26.855,-56.641,-60.547,0.000
1709140305.552,-37.598,-20.508,-55.664,-55.664,0.000
1709140305.555,-43.945,-8.301,-56.152,-63.965,0.000
1709140305.559,-50.781,-2.441,-64.941,-79.102,0.000
1709140305.563,-54.688,-6.348,-66.406,-84.961,0.000
1709140305.567,-73.242,-1.953,-69.824,-95.703,0.000
1709140305.571,-83.496,5.859,-80.566,-109.863,0.000
1709140305.575,-71.289,27.344,-73.242,-104.980,0.000
1709140305.579,-68.848,24.902,-74.219,-105.469,0.000
1709140305.583,-73.242,16.602,-88.379,-111.816,0.000
1709140305.587,-72.266,29.297,-88.379,-110.840,0.000
1709140305.591,-72.266,26.367,-91.797,-123.047,0.000
1709140305.594,-85.938,29.297,-98.145,-125.000,0.000
1709140305.598,-86.426,50.781,-94.727,-115.723,0.000
1709140305.602,-75.684,45.898,-88.379,-110.352,0.000
1709140305.606,-74.219,24.414,-86.426,-106.445,0.000
1709140305.610,-76.660,24.902,-102.051,-120.117,0.000
1709140305.614,-66.406,37.598,-91.309,-122.559,0.000
1709140305.618,-66.406,25.879,-78.125,-104.980,0.000
1709140305.622,-71.777,39.551,-90.820,-100.586,0.000
1709140305.626,-69.824,66.406,-81.055,-111.816,0.000
1709140305.629,-62.988,62.012,-72.754,-123.535,0.000
1709140305.633,-63.965,54.199,-80.566,-135.254,0.000
1709140305.637,-92.285,45.410,-87.891,-137.207,0.000
1709140305.641,-104.980,45.898,-87.891,-137.695,0.000
1709140305.645,-99.609,44.922,-88.867,-131.348,0.000
1709140305.649,-92.285,40.039,-104.492,-127.930,0.000
1709140305.653,-104.980,40.527,-111.328,-150.879,0.000
1709140305.657,-114.746,52.734,-92.773,-155.762,0.000
1709140305.661,-114.746,52.246,-75.684,-153.320,0.000
1709140305.665,-122.559,41.992,-78.125,-155.273,0.000
1709140305.669,-121.094,44.922,-81.543,-146.484,0.000
1709140305.673,-115.234,31.738,-76.172,-141.113,0.000
1709140305.676,-112.793,27.344,-68.359,-126.465,0.000
1709140305.680,-120.117,30.273,-77.148,-122.070,0.000
1709140305.684,-116.699,20.996,-91.797,-128.418,0.000
1709140305.688,-113.281,22.461,-82.520,-131.836,0.000
1709140305.692,-101.562,27.344,-70.801,-133.789,0.000
1709140305.696,-98.633,28.320,-73.242,-125.977,0.000
1709140305.700,-106.445,32.227,-81.543,-109.863,0.000
1709140305.704,-93.750,15.137,-80.078,-93.750,0.000
1709140305.708,-68.359,-5.859,-71.289,-76.660,0.000
1709140305.712,-55.664,7.812,-67.383,-71.289,0.000
1709140305.716,-67.871,0.977,-71.777,-66.406,0.000
1709140305.719,-52.734,-10.742,-61.523,-49.805,0.000
1709140305.723,-41.504,-10.254,-61.523,-48.340,0.000
1709140305.727,-48.828,-5.371,-66.895,-63.965,0.000
1709140305.731,-41.504,20.020,-51.758,-65.430,0.000
1709140305.735,-41.016,13.184,-41.992,-58.105,0.000
1709140305.739,-41.992,5.859,-49.316,-58.594,0.000
1709140305.743,-37.598,2.930,-60.547,-51.758,0.000
1709140305.747,-27.344,-30.273,-59.570,-42.969,0.000
1709140305.751,-18.066,-27.832,-46.875,-41.992,0.000
1709140305.755,-24.902,-29.297,-46.875,-34.668,0.000
1709140305.759,-17.090,-43.457,-54.688,-7.324,0.000
1709140305.762,6.348,-48.828,-45.898,12.207,0.000
1709140305.766,1.953,-65.430,-37.598,-1.953,0.000
1709140305.770,-16.602,-28.809,-40.527,-14.160,0.000
1709140305.774,-7.812,-8.301,-40.527,-3.418,0.000
1709140305.778,4.395,-33.691,-34.180,3.418,0.000
1709140305.782,19.531,-43.945,-29.297,13.672,0.000
1709140305.786,25.879,-50.781,-47.363,18.555,0.000
1709140305.790,15.137,-55.664,-45.410,21.484,0.000
1709140305.794,13.184,-41.504,-38.086,19.043,0.000
1709140305.798,8.789,-55.664,-44.922,9.766,0.000
1709140305.802,1.953,-71.289,-39.062,17.578,0.000
1709140305.805,5.371,-70.801,-33.203,13.672,0.000
1709140305.809,5.371,-74.707,-39.062,-2.441,0.000
1709140305.813,-3.418,-62.500,-41.504,-2.441,0.000
1709140305.817,-16.113,-64.941,-34.180,-1.953,0.000
1709140305.821,-24.414,-66.406,-38.086,-2.441,0.000
1709140305.825,-13.672,-59.570,-40.039,0.977,0.000
1709140305.829,-19.531,-79.590,-34.668,-7.324,0.000
1709140305.833,-30.762,-99.121,-29.297,0.000,0.000
1709140305.837,-20.996,-80.566,-32.715,18.555,0.000
1709140305.841,-23.926,-47.363,-35.645,6.348,0.000
1709140305.845,-21.484,-47.363,-29.785,-5.371,0.000
1709140305.848,-7.324,-70.801,-31.738,1.465,0.000
1709140305.852,-1.465,-72.754,-33.691,0.977,0.000
1709140305.856,2.930,-82.031,-26.855,6.836,0.000
1709140305.860,16.113,-84.473,-26.367,21.484,0.000
1709140305.864,11.719,-60.059,-33.203,12.207,0.000
1709140305.868,-3.906,-52.734,-42.480,0.000,0.000
1709140305.872,-2.441,-49.805,-44.434,4.883,0.000
1709140305.876,-1.465,-60.059,-24.414,-5.859,0.000
1709140305.880,-5.371,-62.012,-29.297,-10.742,0.000
1709140305.884,-6.348,-45.898,-51.758,-11.230,0.000
1709140305.887,-5.859,-55.176,-27.344,-8.301,0.000
1709140305.891,0.977,-58.594,-8.789,-15.625,0.000
1709140305.895,-12.207,-57.129,-26.367,-33.203,0.000
1709140305.899,-31.250,-65.918,-41.992,-30.762,0.000
1709140305.903,-16.602,-72.754,-42.480,-28.320,0.000
1709140305.907,-10.254,-73.242,-35.156,-35.156,0.000
1709140305.911,-12.695,-45.898,-27.832,-32.715,0.000
1709140305.915,-7.812,-32.227,-35.156,-30.273,0.000
1709140305.919,-7.324,-69.824,-39.062,-22.949,0.000
1709140305.923,-5.859,-83.984,-36.621,-10.254,0.000
1709140305.926,-17.578,-40.527,-41.504,-16.602,0.000
1709140305.930,-35.645,-20.508,-42.480,-31.250,0.000
1709140305.934,-36.621,-24.902,-38.574,-34.668,0.000
1709140305.938,-43.945,-34.180,-27.344,-26.855,0.000
1709140305.942,-46.875,-57.129,-26.367,-17.090,0.000
1709140305.946,-40.039,-66.406,-33.203,-13.672,0.000
1709140305.950,-25.391,-66.895,-26.367,-15.625,0.000
1709140305.954,-21.484,-64.941,-23.926,-17.578,0.000
1709140305.958,-19.531,-51.758,-27.832,-18.555,0.000
1709140305.962,-23.926,-69.824,-32.715,-17.090,0.000
1709140305.965,-34.180,-78.125,-38.086,-15.137,0.000
1709140305.969,-32.715,-32.715,-35.645,-11.230,0.000
1709140305.973,-29.785,-18.555,-34.668,-19.531,0.000
1709140305.977,-34.180,-41.016,-29.297,-21.973,0.000
1709140305.981,-31.250,-61.523,-34.668,-18.066,0.000
1709140305.985,-25.879,-76.172,-36.621,-17.090,0.000
1709140305.989,-26.367,-55.176,-25.391,-14.648,0.000
1709140305.993,-38.086,-28.809,-28.809,-17.578,0.000
1709140305.997,-42.480,-30.273,-31.250,-20.996,0.000
1709140306.000,-39.551,-31.738,-28.320,-24.902,0.000
1709140306.004,-27.344,-26.855,-24.902,-22.949,0.000
1709140306.008,-20.508,-30.762,-28.320,-16.113,0.000
1709140306.012,-27.344,-70.801,-38.574,-1.953,0.000
1709140306.016,-37.598,-81.055,-34.668,-6.348,0.000
1709140306.020,-45.410,-41.504,-29.785,-30.762,0.000
1709140306.024,-42.480,-62.500,-32.715,-40.039,0.000
1709140306.028,-31.250,-75.684,-32.715,-38.086,0.000
1709140306.032,-34.180,-27.832,-38.574,-34.180,0.000
1709140306.036,-39.062,-16.113,-42.480,-30.273,0.000
1709140306.040,-36.621,-34.180,-44.922,-28.809,0.000
1709140306.044,-33.203,-38.086,-58.105,-29.785,0.000
1709140306.047,-27.344,-51.270,-55.176,-25.879,0.000
1709140306.051,-26.855,-59.082,-40.039,-26.855,0.000
1709140306.055,-24.902,-64.941,-28.809,-20.020,0.000
1709140306.059,-20.508,-72.266,-39.551,-9.277,0.000
1709140306.063,-28.320,-41.016,-49.316,-25.391,0.000
1709140306.067,-33.203,-50.293,-34.668,-31.250,0.000
1709140306.071,-25.391,-56.152,-31.738,-25.879,0.000
1709140306.075,-34.668,-29.297,-30.273,-30.273,0.000
1709140306.079,-38.086,-41.016,-33.691,-23.926,0.000
1709140306.083,-37.109,-41.992,-38.574,-32.227,0.000
1709140306.087,-34.180,-33.203,-33.203,-34.668,0.000
1709140306.090,-31.250,-46.875,-32.715,-33.691,0.000
1709140306.094,-38.574,-57.617,-36.133,-42.969,0.000
1709140306.098,-33.691,-54.688,-32.715,-33.691,0.000
1709140306.102,-22.949,-68.359,-40.527,-21.484,0.000
1709140306.106,-27.344,-74.219,-37.598,-31.250,0.000
1709140306.110,-39.062,-30.273,-21.484,-44.434,0.000
1709140306.114,-41.016,-20.508,-21.484,-41.992,0.000
1709140306.118,-33.691,-42.480,-26.367,-24.902,0.000
1709140306.122,-33.691,-41.016,-32.715,-26.855,0.000
1709140306.126,-37.109,-26.367,-41.016,-44.434,0.000
1709140306.130,-38.574,-28.809,-36.621,-41.016,0.000
1709140306.133,-35.645,-55.664,-45.898,-35.645,0.000
1709140306.137,-42.480,-63.477,-60.059,-38.086,0.000
1709140306.141,-47.852,-47.363,-44.434,-44.922,0.000
1709140306.145,-44.434,-41.992,-30.762,-48.828,0.000
1709140306.149,-44.434,-49.316,-29.297,-56.152,0.000
1709140306.153,-35.645,-59.082,-32.715,-52.734,0.000
1709140306.157,-38.086,-63.477,-32.715,-47.363,0.000
1709140306.161,-54.688,-57.617,-30.273,-49.805,0.000
1709140306.165,-44.434,-50.781,-33.691,-39.062,0.000
1709140306.169,-33.203,-39.551,-38.086,-44.434,0.000
1709140306.173,-43.457,-37.598,-29.785,-52.246,0.000
1709140306.176,-44.434,-31.738,-24.902,-45.410,0.000
1709140306.180,-43.945,-38.574,-31.738,-43.457,0.000
1709140306.184,-41.504,-53.223,-35.156,-48.340,0.000
1709140306.188,-27.832,-52.246,-32.227,-52.246,0.000
1709140306.192,-28.809,-44.434,-32.715,-46.875,0.000
1709140306.196,-29.297,-43.945,-33.203,-32.227,0.000
1709140306.200,-25.391,-87.891,-31.738,-21.973,0.000
1709140306.204,-38.574,-83.984,-39.062,-33.203,0.000
1709140306.208,-33.691,-31.738,-39.062,-42.969,0.000
1709140306.212,-26.367,-34.180,-29.785,-38.574,0.000
1709140306.215,-27.344,-36.621,-28.809,-24.414,0.000
1709140306.219,-11.719,-31.738,-33.203,-19.043,0.000
1709140306.223,-10.742,-36.621,-36.621,-24.902,0.000
1709140306.227,-24.414,-34.668,-37.109,-24.902,0.000
1709140306.231,-23.926,-39.551,-34.180,-27.832,0.000
1709140306.235,-27.344,-58.105,-34.668,-30.273,0.000
1709140306.239,-25.879,-61.035,-25.391,-26.855,0.000
1709140306.243,-20.996,-61.035,-25.391,-20.996,0.000
1709140306.247,-27.832,-57.129,-38.086,-35.156,0.000
1709140306.251,-31.738,-27.344,-44.434,-48.340,0.000
1709140306.255,-35.645,-26.855,-44.922,-35.645,0.000
1709140306.258,-34.180,-43.457,-40.527,-28.809,0.000
1709140306.262,-24.902,-29.785,-41.504,-24.414,0.000
1709140306.266,-24.414,-26.367,-47.363,-25.391,0.000
1709140306.270,-34.180,-25.879,-44.434,-50.781,0.000
1709140306.274,-43.457,-29.785,-44.434,-55.176,0.000
1709140306.278,-37.109,-43.945,-55.664,-50.293,0.000
1709140306.282,-35.645,-50.293,-46.875,-53.711,0.000
1709140306.286,-44.922,-67.871,-27.832,-47.852,0.000
1709140306.290,-46.387,-64.941,-34.180,-57.129,0.000
1709140306.294,-54.688,-48.828,-32.227,-68.359,0.000
1709140306.297,-62.012,-36.621,-40.527,-58.105,0.000
1709140306.301,-58.105,-40.527,-44.434,-44.922,0.000
1709140306.305,-51.270,-31.250,-35.645,-49.316,0.000
1709140306.309,-49.316,-26.367,-40.039,-58.594,0.000
1709140306.313,-48.828,-52.734,-40.039,-48.340,0.000
1709140306.317,-42.480,-60.547,-38.574,-39.551,0.000
1709140306.321,-52.734,-50.293,-34.668,-52.246,0.000
1709140306.325,-60.547,-48.828,-31.250,-53.223,0.000
1709140306.329,-51.758,-46.875,-35.645,-40.527,0.000
1709140306.333,-47.852,-49.316,-38.574,-41.992,0.000
1709140306.336,-56.641,-55.176,-33.691,-41.016,0.000
1709140306.340,-60.547,-44.434,-31.738,-41.016,0.000
1709140306.344,-48.828,-43.457,-41.992,-33.203,0.000
1709140306.348,-43.945,-46.875,-47.852,-24.414,0.000
1709140306.352,-53.223,-33.691,-31.738,-39.551,0.000
1709140306.356,-60.059,-32.227,-19.531,-39.062,0.000
1709140306.360,-59.082,-48.340,-23.438,-30.273,0.000
1709140306.364,-46.875,-56.152,-25.879,-25.391,0.000
1709140306.368,-45.410,-61.035,-30.273,-26.367,0.000
1709140306.371,-49.805,-60.059,-38.574,-38.086,0.000
1709140306.375,-41.016,-35.156,-41.504,-39.062,0.000
1709140306.379,-38.086,-31.250,-42.969,-35.156,0.000
1709140306.383,-32.715,-38.574,-55.664,-38.574,0.000
1709140306.387,-23.926,-45.410,-58.105,-25.391,0.000
1709140306.391,-29.785,-58.594,-40.039,-15.625,0.000
1709140306.395,-40.039,-45.898,-32.715,-35.156,0.000
1709140306.399,-48.340,-27.832,-36.621,-46.387,0.000
1709140306.403,-46.387,-35.645,-41.504,-50.293,0.000
1709140306.407,-33.203,-46.875,-37.109,-51.270,0.000
1709140306.411,-37.598,-43.457,-34.668,-57.129,0.000
1709140306.415,-42.969,-39.062,-35.645,-52.734,0.000
1709140306.418,-34.668,-62.012,-36.133,-35.645,0.000
1709140306.422,-39.062,-61.035,-40.039,-32.227,0.000
1709140306.426,-48.340,-33.203,-47.852,-49.805,0.000
1709140306.430,-52.246,-41.016,-48.340,-62.500,0.000
1709140306.434,-58.105,-49.805,-38.574,-50.781,0.000
1709140306.438,-55.664,-31.250,-37.109,-44.922,0.000
1709140306.442,-50.293,-40.039,-37.598,-50.781,0.000
1709140306.446,-42.969,-39.062,-38.086,-56.152,0.000
1709140306.450,-46.387,-34.668,-46.387,-48.828,0.000
1709140306.454,-55.664,-50.781,-59.570,-43.457,0.000
1709140306.457,-48.828,-44.922,-47.852,-40.039,0.000
1709140306.461,-36.133,-31.250,-35.645,-40.527,0.000
1709140306.465,-26.855,-38.086,-35.156,-43.945,0.000
1709140306.469,-37.109,-56.152,-37.109,-46.875,0.000
1709140306.473,-37.109,-43.457,-35.645,-51.270,0.000
1709140306.477,-28.809,-31.250,-36.133,-44.922,0.000
1709140306.481,-23.926,-40.527,-34.668,-31.250,0.000
1709140306.485,-25.879,-35.156,-41.992,-40.039,0.000
1709140306.489,-26.855,-12.695,-51.270,-47.852,0.000
1709140306.493,-27.832,-35.156,-44.434,-41.016,0.000
1709140306.497,-32.227,-63.965,-42.480,-45.410,0.000
1709140306.501,-48.340,-42.480,-36.621,-49.316,0.000
1709140306.504,-46.387,-29.785,-32.715,-43.457,0.000
1709140306.508,-32.715,-39.062,-41.992,-46.387,0.000
1709140306.512,-27.344,-36.133,-45.410,-49.805,0.000
1709140306.516,-23.438,-49.316,-37.598,-43.945,0.000
1709140306.520,-11.230,-79.590,-35.156,-33.203,0.000
1709140306.524,-17.578,-84.961,-34.180,-30.273,0.000
1709140306.528,-27.832,-56.641,-43.457,-32.227,0.000
1709140306.532,-29.785,-22.949,-40.039,-40.527,0.000
1709140306.536,-32.715,-19.043,-22.949,-44.434,0.000
1709140306.540,-31.250,-38.574,-25.391,-24.414,0.000
1709140306.544,-38.086,-38.574,-33.691,-24.414,0.000
1709140306.547,-42.480,-38.086,-36.133,-40.039,0.000
1709140306.551,-30.762,-54.688,-36.133,-37.598,0.000
1709140306.556,-36.621,-55.176,-38.574,-33.691,0.000
1709140306.559,-49.316,-51.270,-41.016,-37.598,0.000
1709140306.563,-47.852,-56.641,-45.898,-41.504,0.000
1709140306.567,-40.039,-73.730,-46.875,-39.551,0.000
1709140306.571,-24.414,-50.781,-41.016,-34.668,0.000
1709140306.575,-27.832,-19.531,-33.691,-35.645,0.000
1709140306.579,-29.785,-31.738,-20.996,-29.785,0.000
1709140306.583,-24.902,-37.109,-20.996,-29.297,0.000
1709140306.587,-33.691,-32.227,-24.902,-26.855,0.000
1709140306.591,-38.086,-33.691,-33.203,-35.156,0.000
1709140306.595,-38.086,-47.852,-34.180,-40.527,0.000
1709140306.598,-40.527,-50.293,-28.320,-34.668,0.000
1709140306.602,-36.133,-63.965,-34.180,-25.391,0.000
1709140306.606,-36.621,-67.871,-39.551,-29.297,0.000
1709140306.610,-36.621,-41.504,-41.016,-47.363,0.000
1709140306.614,-46.875,-35.645,-44.922,-47.363,0.000
1709140306.618,-40.527,-31.738,-44.434,-37.598,0.000
1709140306.622,-33.203,-28.809,-36.133,-32.227,0.000
1709140306.626,-48.828,-53.223,-30.273,-41.992,0.000
1709140306.630,-55.176,-30.273,-46.875,-55.664,0.000
1709140306.634,-52.246,-25.391,-49.805,-45.410,0.000
1709140306.638,-51.270,-46.875,-37.109,-42.480,0.000
1709140306.641,-55.664,-48.828,-42.480,-48.340,0.000
1709140306.645,-55.664,-49.805,-45.410,-43.457,0.000
1709140306.649,-51.758,-33.203,-34.668,-40.527,0.000
1709140306.653,-42.969,-32.715,-30.762,-43.457,0.000
1709140306.657,-31.250,-37.598,-29.297,-34.668,0.000
1709140306.661,-32.715,-42.969,-33.203,-28.320,0.000
1709140306.665,-31.738,-62.500,-41.016,-35.645,0.000
1709140306.669,-35.645,-62.988,-44.922,-46.387,0.000
1709140306.673,-43.457,-60.059,-47.852,-43.457,0.000
1709140306.677,-42.969,-54.688,-51.270,-33.691,0.000
1709140306.680,-43.457,-26.855,-46.875,-46.875,0.000
1709140306.684,-43.457,-26.367,-41.504,-52.246,0.000
1709140306.688,-39.062,-37.109,-33.203,-42.480,0.000
1709140306.692,-37.598,-40.039,-33.691,-36.133,0.000
1709140306.696,-36.133,-41.992,-46.875,-32.715,0.000
1709140306.700,-41.016,-51.758,-34.180,-23.926,0.000
1709140306.704,-34.180,-56.641,-21.973,-17.090,0.000
1709140306.708,-40.039,-59.570,-26.367,-25.879,0.000
1709140306.712,-49.316,-48.828,-30.273,-31.250,0.000
1709140306.715,-43.457,-42.480,-32.715,-30.762,0.000
1709140306.719,-38.086,-58.594,-36.133,-23.438,0.000
1709140306.723,-35.645,-60.059,-38.574,-31.250,0.000
1709140306.727,-43.945,-32.715,-35.645,-42.969,0.000
1709140306.731,-49.805,-39.062,-36.133,-42.480,0.000
1709140306.735,-49.805,-54.688,-39.551,-38.574,0.000
1709140306.739,-51.270,-35.156,-41.992,-44.922,0.000
1709140306.743,-46.387,-44.922,-44.434,-43.457,0.000
1709140306.747,-39.551,-67.383,-42.480,-41.992,0.000
1709140306.751,-43.945,-61.035,-47.852,-51.758,0.000
1709140306.754,-58.105,-64.941,-53.711,-48.340,0.000
1709140306.758,-48.340,-65.918,-46.875,-43.945,0.000
1709140306.762,-37.598,-42.480,-38.574,-53.223,0.000
1709140306.766,-43.457,-18.555,-43.457,-51.758,0.000
1709140306.770,-44.922,-19.531,-43.457,-55.664,0.000
1709140306.774,-43.945,-39.062,-39.551,-65.918,0.000
1709140306.778,-38.574,-55.176,-41.016,-51.758,0.000
1709140306.782,-44.434,-44.922,-42.480,-49.316,0.000
1709140306.786,-56.152,-31.738,-33.691,-54.688,0.000
1709140306.790,-57.617,-32.227,-39.062,-59.082,0.000
1709140306.794,-55.176,-30.762,-45.410,-55.176,0.000
1709140306.797,-53.711,-52.246,-40.527,-45.898,0.000
1709140306.801,-55.664,-56.641,-41.016,-47.363,0.000
1709140306.805,-55.176,-35.645,-37.598,-61.035,0.000
1709140306.809,-53.711,-35.645,-44.922,-65.918,0.000
1709140306.813,-48.828,-39.062,-41.016,-58.105,0.000
1709140306.817,-41.504,-43.945,-31.250,-48.340,0.000
1709140306.821,-42.480,-48.340,-43.457,-53.711,0.000
1709140306.825,-57.617,-47.363,-50.293,-62.500,0.000
1709140306.829,-51.270,-61.523,-41.504,-56.641,0.000
1709140306.833,-46.387,-54.688,-36.133,-47.363,0.000
1709140306.837,-52.246,-53.223,-32.715,-38.574,0.000
1709140306.841,-56.641,-49.316,-37.598,-30.762,0.000
1709140306.844,-63.965,-22.461,-39.062,-44.922,0.000
1709140306.848,-49.805,-20.020,-29.297,-47.852,0.000
1709140306.852,-41.992,-38.574,-24.902,-40.039,0.000
1709140306.856,-44.922,-43.457,-32.227,-38.086,0.000
1709140306.860,-41.992,-35.156,-39.551,-37.109,0.000
1709140306.864,-43.945,-31.738,-37.109,-39.062,0.000
1709140306.868,-53.711,-40.039,-35.156,-40.527,0.000
1709140306.872,-57.617,-57.617,-37.598,-39.062,0.000
1709140306.876,-51.758,-39.062,-39.551,-44.434,0.000
1709140306.880,-45.898,-24.414,-34.180,-41.992,0.000
1709140306.884,0.000,-47.363,-25.879,-33.691,0.000
1709140306.887,0.000,-62.500,-33.691,-37.598,0.000
1709140306.891,0.000,-42.969,-47.852,-39.551,0.000
1709140306.895,0.000,-30.273,-46.875,-44.434,0.000
1709140306.899,0.000,-39.551,-37.109,-49.316,0.000
1709140306.903,0.000,-43.457,-38.574,-48.828,0.000
1709140306.907,0.000,-38.086,-44.434,-55.664,0.000
1709140306.911,0.000,-36.621,-41.992,-60.547,0.000
1709140306.915,0.000,-52.734,-45.898,-57.617,0.000
1709140306.919,0.000,-47.363,-43.945,-50.293,0.000
1709140306.923,0.000,-32.227,-32.715,-45.410,0.000
1709140306.927,0.000,-56.152,-34.180,-45.898,0.000
1709140306.930,-38.574,-64.453,-47.852,-42.969,0.000
1709140306.934,-39.062,-54.688,-44.434,-38.574,0.000
1709140306.938,-41.992,-49.805,-37.109,-39.551,0.000
1709140306.942,-38.574,-47.852,-37.598,-38.086,0.000
1709140306.946,-41.016,-32.715,-38.574,-40.039,0.000
1709140306.950,-38.086,-37.109,-43.457,-38.086,0.000
1709140306.954,-24.414,-60.547,-41.016,-28.809,0.000
1709140306.958,-42.480,-46.875,-36.133,-40.527,0.000
1709140306.962,-49.316,-36.621,-27.832,-41.504,0.000
1709140306.966,-40.527,-41.992,-29.785,-42.969,0.000
1709140306.969,-43.945,-35.156,-45.410,-48.340,0.000
1709140306.973,-44.922,-45.898,-48.340,-43.945,0.000
1709140306.978,-44.434,-65.918,-41.016,0.000,0.000
1709140306.981,-43.945,-48.340,-26.855,0.000,0.000
1709140306.985,-41.504,-24.414,-16.113,0.000,0.000
1709140306.989,-29.785,-37.598,-24.414,0.000,0.000
1709140306.993,-29.785,-44.434,-45.410,0.000,0.000
1709140306.997,-51.758,-25.879,-37.109,0.000,0.000
1709140307.001,-52.246,-22.949,-27.344,0.000,0.000
1709140307.005,-39.551,-30.762,-34.180,0.000,0.000
1709140307.009,-42.969,-28.320,-50.293,0.000,0.000
1709140307.013,-44.434,-22.949,-44.922,0.000,0.000
1709140307.017,-39.551,-22.461,-27.832,0.000,0.000
1709140307.021,-45.410,-41.504,-27.832,0.000,0.000
1709140307.024,-47.852,-55.176,-31.738,-40.527,0.000
1709140307.028,-36.621,-44.434,-39.062,-39.062,0.000
1709140307.032,-35.645,-35.645,-47.363,-47.852,0.000
1709140307.036,-39.062,-40.527,-53.223,-52.246,0.000
1709140307.040,-35.156,-31.250,-50.781,-52.734,0.000
1709140307.044,-33.691,-23.926,-40.527,-54.199,0.000
1709140307.048,-40.039,-31.250,-36.133,-44.922,0.000
1709140307.052,-37.598,-32.227,-35.156,-40.527,0.000
1709140307.056,-30.273,-32.715,-28.320,-44.922,0.000
1709140307.060,-35.156,-30.273,-25.391,-41.504,0.000
1709140307.063,-36.133,-21.973,-24.414,-37.598,0.000
1709140307.067,-25.391,-40.527,-23.926,-25.391,0.000
1709140307.071,-24.414,-32.227,-35.645,-28.809,0.000
1709140307.075,-22.949,-18.555,-48.828,-31.250,0.000
1709140307.079,-16.113,-39.062,-44.922,-23.438,0.000
1709140307.083,-24.414,-26.367,-39.062,-32.715,0.000
1709140307.087,-38.086,-22.949,-38.574,-44.922,0.000
1709140307.091,-28.320,-40.527,-37.109,-43.945,0.000
1709140307.095,-21.484,-42.969,-34.180,-34.180,0.000
1709140307.098,-28.320,-23.926,-44.922,-37.598,0.000
1709140307.102,-32.715,-22.461,-47.852,-44.922,0.000
1709140307.106,-37.109,-34.180,-33.203,-39.062,0.000
1709140307.110,-36.621,-24.414,-39.551,-35.645,0.000
1709140307.114,-30.762,-31.738,-41.016,-42.969,0.000
1709140307.118,-31.738,-33.203,-28.320,-41.016,0.000
1709140307.122,-31.738,-21.484,-32.227,-32.715,0.000
1709140307.126,-26.855,-39.551,-27.832,-33.203,0.000
1709140307.130,-23.926,-63.477,-23.438,-34.668,0.000
1709140307.133,-21.973,-42.480,-37.598,-36.621,0.000
1709140307.137,-23.438,-25.391,-36.621,-25.391,0.000
1709140307.141,-22.949,-49.316,-24.902,-8.301,0.000
1709140307.145,-20.020,-43.945,-29.785,-18.555,0.000
1709140307.149,-28.809,-21.484,-35.156,-28.809,0.000
1709140307.153,-42.480,-29.297,-34.668,-29.297,0.000
1709140307.157,-41.016,-37.598,-27.832,-43.457,0.000
1709140307.161,-34.668,-37.109,-35.645,-42.969,0.000
1709140307.165,-45.898,-27.344,-43.945,-46.875,0.000
1709140307.169,-46.875,-30.273,-41.016,-47.363,0.000
1709140307.173,-40.039,-41.504,-35.156,-41.504,0.000
1709140307.177,-47.363,-43.945,-32.715,-43.457,0.000
1709140307.181,-53.711,-44.922,-39.062,-42.969,0.000
1709140307.185,-48.340,-48.828,-36.133,-40.527,0.000
1709140307.189,-45.898,-58.594,-29.297,-42.480,0.000
1709140307.192,-50.781,-48.828,-38.086,-44.922,0.000
1709140307.196,-44.922,-33.691,-37.109,-33.203,0.000
1709140307.200,-43.457,-39.062,-43.945,-21.484,0.000
1709140307.204,-34.180,-35.645,-34.180,-27.832,0.000
1709140307.208,-41.504,-39.551,-21.484,-44.922,0.000
1709140307.212,-58.594,-40.527,-30.762,-61.035,0.000
1709140307.216,-48.828,-34.668,-29.785,-55.664,0.000
1709140307.220,-30.273,-42.480,-31.738,-32.715,0.000
1709140307.224,-29.297,-48.828,-46.387,-29.297,0.000
1709140307.228,-41.992,-48.828,-47.363,-51.270,0.000
1709140307.232,-40.039,-42.480,-46.875,-60.547,0.000
1709140307.236,-42.969,-32.715,-46.875,-53.711,0.000
1709140307.239,-49.316,-27.344,-41.016,-45.410,0.000
1709140307.243,-46.875,-28.320,-44.434,-44.434,0.000
1709140307.247,-43.945,-53.223,-44.434,-36.133,0.000
1709140307.251,-40.527,-53.223,-35.156,-25.879,0.000
1709140307.255,-34.180,-20.996,-39.551,-36.133,0.000
1709140307.259,-32.227,-26.367,-44.922,-39.551,0.000
1709140307.263,-32.715,-29.785,-29.785,-26.367,0.000
1709140307.267,-29.785,-30.762,-28.320,-31.250,0.000
1709140307.271,-28.320,-54.688,-42.969,-44.922,0.000
1709140307.275,-37.598,-58.105,-47.363,-43.945,0.000
1709140307.279,-40.039,-42.969,-42.969,-39.551,0.000
1709140307.282,-30.273,-37.109,-54.688,-37.598,0.000
1709140307.286,-22.949,-47.363,-51.758,-42.480,0.000
1709140307.290,-20.508,-47.363,-38.574,-43.457,0.000
1709140307.294,-17.578,-70.312,-41.992,-25.879,0.000
1709140307.298,-19.043,-52.734,-50.781,-25.879,0.000
1709140307.302,-26.855,-10.254,-43.945,-42.969,0.000
1709140307.306,-27.832,-36.133,-31.250,-44.434,0.000
1709140307.310,-29.785,-47.852,-29.785,-42.480,0.000
1709140307.314,-34.180,-33.203,-37.598,-48.340,0.000
1709140307.318,-31.250,-36.133,-27.344,-47.363,0.000
1709140307.321,-28.809,-33.691,-23.926,-44.434,0.000
1709140307.325,-38.086,-51.758,-38.086,-42.969,0.000
1709140307.329,-41.992,-69.824,-32.227,-37.598,0.000
1709140307.333,-48.828,-51.758,-30.762,-33.691,0.000
1709140307.337,-50.293,-43.457,-37.598,-25.879,0.000
1709140307.341,-45.410,-44.922,-44.434,-33.203,0.000
1709140307.345,-44.922,-42.969,-50.781,-41.992,0.000
1709140307.349,-39.551,-40.527,-50.293,-36.621,0.000
1709140307.353,-50.781,-44.434,-41.016,-39.062,0.000
1709140307.357,-53.223,-40.527,-27.344,-37.109,0.000
1709140307.361,-40.527,-45.898,-36.621,-30.273,0.000
1709140307.364,-37.109,-63.477,-49.805,-32.227,0.000
1709140307.368,-34.668,-67.383,-25.391,-28.320,0.000
1709140307.372,-37.598,-62.012,-16.602,-32.715,0.000
1709140307.376,-52.734,-55.664,-30.273,-44.434,0.000
1709140307.380,-59.082,-42.969,-32.715,-39.551,0.000
1709140307.384,-57.129,-28.320,-26.855,-40.039,0.000
1709140307.388,-53.711,-41.016,-25.391,-51.270,0.000
1709140307.392,-46.387,-55.664,-34.180,-50.293,0.000
1709140307.396,-45.898,-46.875,-42.480,-46.875,0.000
1709140307.400,-58.594,-45.410,-35.156,-43.945,0.000
1709140307.404,-49.316,-44.922,-29.297,-42.480,0.000
1709140307.408,-36.621,-53.711,-36.133,-39.062,0.000
1709140307.411,-36.133,-68.359,-40.527,-41.992,0.000
1709140307.415,-41.016,-46.875,-34.180,-47.363,0.000
1709140307.419,-45.898,-43.457,-31.250,-46.875,0.000
1709140307.423,-44.434,-72.754,-31.250,-45.410,0.000
1709140307.427,-44.434,-58.105,-31.738,-40.039,0.000
1709140307.431,-49.316,-31.738,-41.016,-47.363,0.000
1709140307.435,-51.758,-48.828,-53.711,-53.711,0.000
1709140307.439,-44.434,-55.176,-39.062,-45.898,0.000
1709140307.443,-46.387,-51.270,-25.391,-53.223,0.000
1709140307.447,0.000,-41.016,-33.691,-62.500,0.000
1709140307.451,0.000,-34.668,-44.434,-47.852,0.000
1709140307.454,0.000,-44.434,-46.387,-46.387,0.000
1709140307.458,0.000,-39.062,-41.016,-51.270,0.000
1709140307.462,0.000,-25.879,-33.203,-38.086,0.000
1709140307.466,0.000,-41.016,-33.203,-39.551,0.000
1709140307.470,0.000,-58.105,-27.832,-35.645,0.000
1709140307.474,0.000,-49.805,-32.227,-20.508,0.000
1709140307.478,0.000,-45.898,-49.316,-24.902,0.000
1709140307.482,0.000,-37.598,-41.504,-34.180,0.000
1709140307.486,0.000,-45.898,-22.949,-23.438,0.000
1709140307.490,0.000,-46.387,-19.531,-21.484,0.000
1709140307.493,-22.949,-29.785,-27.832,-37.109,0.000
1709140307.497,-21.973,-28.320,-41.504,-35.156,0.000
1709140307.501,-17.578,-25.879,-36.621,-28.809,0.000
1709140307.505,-7.812,-13.672,-31.738,-23.438,0.000
1709140307.509,-12.695,-15.137,-29.785,-25.391,0.000
1709140307.513,-29.297,-14.648,-33.691,-27.832,0.000
1709140307.517,-25.879,-19.531,-35.645,-15.137,0.000
1709140307.521,-32.227,-46.387,-34.180,-23.438,0.000
1709140307.525,-38.574,-48.828,-39.062,-30.762,0.000
1709140307.529,-32.715,-46.387,-45.410,-25.879,0.000
1709140307.532,-30.273,-28.320,-39.551,-29.297,0.000
1709140307.536,-30.273,-18.066,-40.527,-38.574,0.000
1709140307.540,-34.180,-38.574,-48.340,-42.969,0.000
1709140307.544,-33.691,-53.223,-34.668,-39.062,0.000
1709140307.548,-33.203,-40.527,-36.133,-33.691,0.000
1709140307.552,-34.180,-28.809,-35.156,-35.645,0.000
1709140307.556,-39.551,-33.691,-34.180,-43.945,0.000
1709140307.560,-45.898,-43.945,-37.109,-44.434,0.000
1709140307.564,-52.246,-42.480,-28.320,-50.293,0.000
1709140307.568,-60.059,-38.086,-33.203,-51.758,0.000
1709140307.572,-59.570,-47.363,-36.621,-43.457,0.000
1709140307.576,-44.434,-34.668,-31.738,-39.551,0.000
1709140307.579,-47.363,-28.320,-29.297,-40.039,0.000
1709140307.583,-41.992,-44.922,-23.926,-27.344,0.000
1709140307.587,-32.715,-62.012,-36.133,-27.832,0.000
1709140307.591,-41.016,-60.059,-42.969,-48.340,0.000
1709140307.595,-48.340,-31.250,-29.297,-52.734,0.000
1709140307.599,-51.758,-26.855,-32.715,-52.734,0.000
1709140307.603,-48.828,-38.086,-34.668,-52.734,0.000
1709140307.607,-49.316,-37.598,-33.691,-55.664,0.000
1709140307.611,-51.758,-35.645,-34.180,-62.012,0.000
1709140307.615,-52.246,-33.203,-40.039,-63.477,0.000
1709140307.619,-40.527,-33.691,-48.340,-46.875,0.000
1709140307.622,-29.297,-62.988,-51.270,-17.578,0.000
1709140307.626,-35.156,-64.941,-49.316,-18.555,0.000
1709140307.630,-46.875,-30.762,-42.480,-37.598,0.000
1709140307.634,-37.109,-20.996,-40.039,-40.039,0.000
1709140307.638,-25.391,-41.504,-35.156,-35.645,0.000
1709140307.642,-30.762,-46.875,-32.715,-40.527,0.000
1709140307.646,-33.691,-35.645,-35.645,-39.551,0.000
1709140307.650,-28.809,-52.734,-34.668,-34.180,0.000
1709140307.654,-25.391,-50.293,-40.527,-37.598,0.000
1709140307.658,-35.645,-32.227,-38.574,-31.738,0.000
1709140307.662,-44.922,-40.527,-36.621,-29.297,0.000
1709140307.665,-45.898,-45.410,-44.922,-29.297,0.000
1709140307.669,-44.922,-30.273,-32.227,-24.414,0.000
1709140307.673,-45.410,-24.414,-26.855,-37.598,0.000
1709140307.677,-43.457,-51.270,-34.668,-41.016,0.000
1709140307.681,-50.293,-40.527,-45.410,-31.738,0.000
1709140307.685,-49.316,-39.062,-42.480,-36.133,0.000
1709140307.689,-33.691,-68.848,-33.203,-34.180,0.000
1709140307.693,-30.762,-56.152,-29.785,-36.133,0.000
1709140307.697,-33.203,-37.109,-32.227,-43.945,0.000
1709140307.701,-48.828,-51.758,-34.180,-32.227,0.000
1709140307.705,-58.594,-43.945,-37.598,-32.227,0.000
1709140307.708,-54.199,-40.527,-39.062,-39.062,0.000
1709140307.712,-52.734,-50.781,-31.738,-33.203,0.000
1709140307.716,-42.480,-38.086,-15.625,-33.691,0.000
1709140307.720,-33.691,-49.316,-22.461,-30.762,0.000
1709140307.724,-28.809,-54.199,-42.480,-28.320,0.000
1709140307.728,-33.691,-28.809,-36.133,-39.062,0.000
1709140307.732,-31.738,-25.391,-38.574,-41.504,0.000
1709140307.736,-21.973,-37.598,-42.480,-39.062,0.000
1709140307.740,-28.320,-41.504,-41.504,-40.039,0.000
1709140307.744,-25.879,-49.805,-40.039,-36.133,0.000
1709140307.747,-26.855,-34.668,-28.809,-38.086,0.000
1709140307.751,-34.668,-26.367,-31.250,-51.270,0.000
1709140307.755,-36.621,-31.250,-28.809,-49.805,0.000
1709140307.759,-30.273,-43.457,-27.344,-36.133,0.000
1709140307.763,-38.086,-51.270,-36.621,-33.691,0.000
1709140307.767,-41.016,-26.367,-32.715,-32.227,0.000
1709140307.771,-42.969,-6.348,-43.457,-33.203,0.000
1709140307.775,-41.992,-20.020,-52.734,-28.809,0.000
1709140307.779,-36.621,-41.504,-36.133,-20.508,0.000
1709140307.783,-34.180,-46.387,-26.367,-27.832,0.000
1709140307.786,-28.809,-29.785,-33.691,-30.762,0.000
1709140307.790,-33.203,-22.949,-34.180,-26.367,0.000
1709140307.794,-34.180,-20.020,-27.344,-31.250,0.000
1709140307.798,-33.203,-36.621,-42.480,-25.879,0.000
1709140307.802,-37.109,-49.805,-44.922,-20.020,0.000
1709140307.806,-41.504,-37.109,-31.250,-28.320,0.000
1709140307.810,-45.410,-44.922,-35.156,-36.133,0.000
1709140307.814,-46.875,-43.945,-34.668,-40.039,0.000
1709140307.818,-45.898,-37.598,-34.668,-36.133,0.000
1709140307.821,-32.715,-53.223,-34.668,-26.855,0.000
1709140307.825,-39.551,-49.805,-35.645,-24.414,0.000
1709140307.829,-53.711,-26.367,-42.480,-40.527,0.000
1709140307.833,-45.410,-29.785,-46.875,-51.758,0.000
1709140307.837,-50.781,-32.715,-49.805,-56.152,0.000
1709140307.841,-53.711,-45.898,-46.387,-56.641,0.000
1709140307.845,-32.715,-50.781,-38.086,-38.574,0.000
1709140307.849,-32.715,-42.480,-42.480,-43.457,0.000
1709140307.853,-40.039,-35.645,-49.805,-51.758,0.000
1709140307.857,-23.926,-49.316,-35.645,-34.180,0.000
1709140307.861,-33.203,-62.012,-34.180,-33.203,0.000
1709140307.864,-39.062,-22.461,-47.852,-41.016,0.000
1709140307.868,-39.062,-13.184,-46.387,-49.316,0.000
1709140307.872,-45.410,-31.250,-41.504,-54.688,0.000
1709140307.876,-45.898,-34.180,-33.691,-43.457,0.000
1709140307.880,-41.504,-33.691,-31.738,-38.574,0.000
1709140307.884,-25.391,-41.504,-32.715,-36.133,0.000
1709140307.888,-30.273,-48.828,-35.645,-31.250,0.000
1709140307.892,-38.086,-41.016,-39.551,-29.785,0.000
1709140307.896,-30.273,-53.223,-35.156,-34.668,0.000
1709140307.899,-29.785,-65.430,-38.086,-35.645,0.000
1709140307.903,-33.203,-41.016,-44.434,-21.484,0.000
1709140307.907,-40.039,-35.156,-55.664,-16.602,0.000
1709140307.911,-41.504,-34.180,-44.922,-30.273,0.000
1709140307.915,-46.875,-24.414,-28.320,-39.062,0.000
1709140307.919,-43.457,-23.926,-20.996,-26.367,0.000
1709140307.923,-28.320,-26.367,-21.973,-16.113,0.000
1709140307.927,-20.996,-38.574,-28.320,-14.648,0.000
1709140307.931,-20.020,-42.480,-30.762,-15.625,0.000
1709140307.935,-19.531,-43.945,-40.527,-19.531,0.000
1709140307.939,-23.438,-45.410,-41.016,-19.531,0.000
1709140307.943,-17.578,-34.180,-29.785,-22.461,0.000
1709140307.946,-24.902,-34.180,-25.879,-20.508,0.000
1709140307.950,-33.203,-68.359,-31.738,-8.301,0.000
1709140307.954,-41.992,-59.570,-35.156,-16.113,0.000
1709140307.958,-62.988,-22.949,-28.809,-31.738,0.000
1709140307.962,-57.617,-19.043,-27.832,-35.645,0.000
1709140307.966,-53.711,-30.762,-31.250,-37.598,0.000
1709140307.970,-55.176,-39.062,-38.086,-37.598,0.000
1709140307.974,-54.688,-44.434,-41.016,-50.293,0.000
1709140307.978,-54.688,-45.410,-36.133,-56.641,0.000
1709140307.982,-41.992,-53.711,-33.691,-45.898,0.000
1709140307.986,-30.273,-72.754,-28.320,-42.480,0.000
1709140307.989,-40.039,-66.895,-30.762,-50.781,0.000
1709140307.993,-50.781,-35.645,-31.738,-48.340,0.000
1709140307.997,-43.457,-31.738,-30.273,-37.598,0.000
1709140308.001,-38.574,-39.062,-38.574,-39.062,0.000
1709140308.005,-31.250,-26.855,-41.992,-31.738,0.000
1709140308.009,-29.297,-36.133,-43.457,-37.109,0.000
1709140308.013,-36.621,-51.758,-38.086,-46.387,0.000
1709140308.017,-35.156,-42.480,-33.691,-42.969,0.000
1709140308.021,-34.180,-37.109,-27.344,-48.828,0.000
1709140308.025,-30.762,-45.410,-28.809,-50.293,0.000
1709140308.029,-26.367,-44.434,-34.668,-41.016,0.000
1709140308.032,-25.879,-33.203,-38.086,-38.574,0.000
1709140308.036,-32.227,-44.434,-41.992,-52.246,0.000
1709140308.040,-30.762,-55.664,-39.551,-45.898,0.000
1709140308.044,-20.996,-52.734,-34.180,-28.320,0.000
1709140308.048,-15.625,-47.852,-38.574,-30.273,0.000
1709140308.052,-14.160,-28.320,-45.898,-34.668,0.000
1709140308.056,-19.531,-18.555,-46.875,-41.504,0.000
1709140308.060,-29.785,-30.762,-41.992,-40.527,0.000
1709140308.064,-21.973,-34.668,-41.504,-20.508,0.000
1709140308.068,-25.879,-38.086,-38.574,-24.902,0.000
1709140308.071,-39.551,-36.621,-28.320,-47.363,0.000
1709140308.075,-38.086,-25.391,-17.578,-46.387,0.000
1709140308.079,-46.875,-49.805,-21.973,-49.805,0.000
1709140308.083,-55.176,-61.035,-32.715,-49.316,0.000
1709140308.087,-49.805,-53.223,-35.156,-31.250,0.000
1709140308.091,-45.410,-62.988,-41.504,-41.504,0.000
1709140308.095,-55.176,-44.434,-40.039,-61.523,0.000
1709140308.099,-62.012,-27.832,-32.227,-62.012,0.000
1709140308.103,-53.223,-33.203,-25.879,-54.199,0.000
1709140308.107,-43.457,-35.645,-25.391,-49.805,0.000
1709140308.111,-37.598,-34.668,-32.227,-43.457,0.000
1709140308.114,-31.250,-41.992,-38.574,-43.945,0.000
1709140308.118,-40.527,-41.016,-46.387,-52.246,0.000
1709140308.122,-53.223,-39.062,-54.199,-57.129,0.000
1709140308.126,-34.180,-45.410,-48.828,-47.363,0.000
1709140308.130,-16.113,-63.965,-56.152,-32.227,0.000
1709140308.134,-25.879,-62.012,-45.410,-38.574,0.000
1709140308.138,-34.180,-37.109,-21.973,-45.898,0.000
1709140308.142,-38.574,-20.996,-28.809,-49.316,0.000
1709140308.146,-39.551,-21.484,-40.527,-50.293,0.000
1709140308.150,-35.156,-12.207,-35.645,-43.945,0.000
1709140308.153,-27.344,-15.625,-24.902,-43.945,0.000
1709140308.157,-21.973,-36.621,-28.809,-39.062,0.000
1709140308.161,-22.461,-37.109,-41.504,-31.250,0.000
1709140308.165,-24.414,-22.461,-43.457,-36.621,0.000
1709140308.169,-20.020,-23.926,-39.551,-38.086,0.000
1709140308.173,-17.090,-58.594,-34.668,-27.832,0.000
1709140308.177,-38.086,-73.730,-41.504,-18.555,0.000
1709140308.181,-47.363,-31.250,-43.945,-28.809,0.000
1709140308.185,-43.945,-24.902,-36.133,-36.621,0.000
1709140308.189,-44.922,-40.527,-33.691,-31.250,0.000
1709140308.192,-52.734,-23.438,-31.250,-33.203,0.000
1709140308.196,-57.129,-9.766,-38.086,-41.992,0.000
1709140308.200,-47.363,-25.391,-34.180,-36.621,0.000
1709140308.204,-38.574,-30.762,-31.738,-24.414,0.000
1709140308.208,-39.062,-37.598,-41.504,-28.809,0.000
1709140308.212,-32.227,-65.918,-32.715,-32.227,0.000
1709140308.216,-35.645,-54.688,-36.621,-46.875,0.000
1709140308.220,-38.086,-47.363,-44.434,-42.969,0.000
1709140308.224,-31.738,-58.594,-32.227,-28.320,0.000
1709140308.228,-32.227,-26.367,-31.738,-41.504,0.000
1709140308.231,-32.227,-17.090,-36.621,-37.598,0.000
1709140308.235,-26.855,-35.156,-38.574,-30.273,0.000
1709140308.239,-35.645,-24.902,-47.363,-36.133,0.000
1709140308.243,-40.527,-23.926,-45.898,-34.668,0.000
1709140308.247,-39.551,-36.621,-33.691,-33.691,0.000
1709140308.251,-35.645,-37.109,-36.621,-32.227,0.000
1709140308.255,-24.902,-36.133,-49.805,-35.645,0.000
1709140308.259,-27.344,-36.621,-52.734,-42.969,0.000
1709140308.263,-32.715,-36.133,-38.574,-39.551,0.000
1709140308.267,-30.273,-54.688,-33.203,-34.668,0.000
1709140308.271,-22.949,-42.480,-30.273,-39.551,0.000
1709140308.274,-28.809,-27.344,-34.180,-50.293,0.000
1709140308.278,-41.504,-31.738,-39.062,-47.852,0.000
1709140308.282,-31.250,-38.574,-31.250,-37.109,0.000
1709140308.286,-38.086,-42.969,-34.180,-36.621,0.000
1709140308.290,-49.316,-28.320,-43.457,-35.645,0.000
1709140308.294,-43.945,-41.504,-36.133,-41.504,0.000
1709140308.298,-43.945,-41.504,-32.715,-41.992,0.000
1709140308.302,-35.645,-36.621,-30.273,-33.203,0.000
1709140308.306,-30.273,-36.133,-32.715,-39.062,0.000
1709140308.310,-37.109,-28.809,-29.785,-42.480,0.000
1709140308.314,-44.434,-41.016,-36.133,-54.199,0.000
1709140308.318,-47.363,-36.133,-45.898,-59.082,0.000
1709140308.321,-49.805,-19.531,-36.133,-46.387,0.000
1709140308.325,-50.293,-34.180,-40.527,-40.527,0.000
1709140308.329,-40.039,-59.082,-39.062,-45.898,0.000
1709140308.333,-50.781,-48.828,-35.156,-53.223,0.000
1709140308.337,-62.500,-28.320,-45.410,-48.340,0.000
1709140308.341,-54.199,-28.320,-45.410,-45.898,0.000
1709140308.345,-57.129,-31.738,-38.086,-46.387,0.000
1709140308.349,-52.246,-39.062,-39.551,-39.551,0.000
1709140308.353,-51.758,-54.199,-41.992,-40.039,0.000
1709140308.357,-57.617,-68.848,-43.457,-42.480,0.000
1709140308.361,-59.082,-46.875,-35.156,-49.316,0.000
1709140308.364,-57.129,-31.738,-32.715,-59.082,0.000
1709140308.368,-55.664,-47.852,-39.062,-48.828,0.000
1709140308.372,-51.758,-44.922,-52.734,-36.621,0.000
1709140308.376,-46.387,-46.387,-49.805,-43.457,0.000
1709140308.380,-45.410,-48.828,-34.668,-34.668,0.000
1709140308.384,-54.199,-33.203,-38.574,-27.344,0.000
1709140308.388,-50.293,-30.762,-39.062,-33.691,0.000
1709140308.392,-33.203,-36.621,-39.551,-36.621,0.000
1709140308.396,-34.180,-42.969,-40.039,-33.691,0.000
1709140308.400,-41.992,-39.551,-40.039,-35.645,0.000
1709140308.404,-42.480,-35.645,-48.340,-40.039,0.000
1709140308.407,-41.016,-36.133,-55.664,-38.574,0.000
1709140308.411,-42.480,-52.246,-45.898,-36.621,0.000
1709140308.415,-43.457,-64.453,-30.273,-26.855,0.000
1709140308.419,-34.668,-45.898,-31.738,-26.367,0.000
1709140308.423,-27.832,-31.738,-32.715,-27.344,0.000
1709140308.427,-31.738,-40.527,-33.203,-20.508,0.000
1709140308.431,-35.645,-37.109,-40.039,-22.949,0.000
1709140308.435,-39.062,-13.672,-35.156,-25.391,0.000
1709140308.439,-40.039,-27.344,-47.363,-32.715,0.000
1709140308.443,-28.320,-46.875,-46.875,-26.367,0.000
1709140308.447,-23.926,-25.879,-25.391,-18.066,0.000
1709140308.450,-35.645,-14.648,-29.297,-39.551,0.000
1709140308.454,-43.457,-19.043,-39.551,-59.570,0.000
1709140308.458,-36.621,-42.969,-31.250,-38.086,0.000
1709140308.462,-37.598,-52.734,-40.039,-20.508,0.000
1709140308.466,-45.410,-28.320,-43.457,-37.598,0.000
1709140308.470,-46.875,-30.273,-29.297,-42.969,0.000
1709140308.474,-41.992,-48.340,-29.785,-38.574,0.000
1709140308.478,-39.551,-44.434,-33.203,-44.922,0.000
1709140308.482,-41.016,-39.551,-28.809,-54.688,0.000
1709140308.486,-41.992,-44.922,-27.344,-48.340,0.000
1709140308.489,-42.969,-42.480,-47.852,-35.156,0.000
1709140308.493,-48.340,-42.480,-60.547,-44.434,0.000
1709140308.497,-47.852,-39.062,-50.781,-61.035,0.000
1709140308.501,-42.480,-54.688,-46.387,-48.340,0.000
1709140308.505,-33.691,-84.961,-39.551,-28.320,0.000
1709140308.509,-37.109,-64.453,-38.086,-34.668,0.000
1709140308.513,-55.176,-37.598,-34.180,-42.969,0.000
1709140308.517,-53.711,-28.320,-41.016,-39.551,0.000
1709140308.521,-43.457,-34.668,-33.203,-39.551,0.000
1709140308.525,-39.062,-55.176,-26.367,-37.109,0.000
1709140308.529,-35.645,-35.645,-36.133,-37.598,0.000
1709140308.533,-36.621,-20.508,-35.645,-47.363,0.000
1709140308.537,-36.133,-27.832,-36.133,-48.828,0.000
1709140308.540,-30.273,-24.414,-34.668,-41.992,0.000
1709140308.544,-32.715,-48.828,-31.738,-40.039,0.000
1709140308.548,-33.203,-81.543,-35.156,-29.785,0.000
1709140308.552,-38.086,-48.340,-34.668,-33.203,0.000
1709140308.556,-50.293,-13.672,-41.504,-47.363,0.000
1709140308.560,-47.363,-23.438,-37.598,-52.246,0.000
1709140308.564,-39.551,-40.527,-23.926,-42.480,0.000
1709140308.568,-43.457,-38.574,-28.809,-43.945,0.000
1709140308.572,-45.410,-30.762,-32.227,-52.734,0.000
1709140308.576,-34.668,-42.480,-27.832,-44.434,0.000
1709140308.579,-27.832,-47.852,-28.320,-31.250,0.000
1709140308.583,-35.156,-48.340,-34.668,-35.156,0.000
1709140308.587,-42.969,-55.664,-35.156,-41.992,0.000
1709140308.591,-34.668,-40.527,-36.621,-49.316,0.000
1709140308.595,-41.992,-34.180,-38.086,-55.664,0.000
1709140308.599,-46.387,-46.387,-32.227,-46.387,0.000
1709140308.603,-35.645,-46.875,-19.043,-28.809,0.000
1709140308.607,-33.691,-58.105,-19.043,-27.344,0.000
1709140308.611,-36.621,-48.828,-32.715,-28.809,0.000
1709140308.615,-47.363,-30.762,-45.410,-34.180,0.000
1709140308.618,-52.246,-36.621,-49.805,-41.016,0.000
1709140308.622,-46.387,-37.109,-38.086,-39.551,0.000
1709140308.626,-44.922,-46.387,-19.531,-40.527,0.000
1709140308.630,-53.223,-47.852,-21.973,-44.434,0.000
1709140308.634,-55.664,-44.922,-29.297,-50.293,0.000
1709140308.638,-43.457,-55.176,-30.273,-36.133,0.000
1709140308.642,-30.762,-46.387,-36.133,-12.207,0.000
1709140308.646,-34.180,-31.738,-40.039,-23.926,0.000
1709140308.650,-27.344,-39.062,-41.016,-28.320,0.000
1709140308.653,-17.090,-49.316,-35.156,-13.672,0.000
1709140308.657,-19.043,-51.758,-28.809,-10.254,0.000
1709140308.661,-16.113,-43.945,-27.832,-7.812,0.000
1709140308.665,-22.461,-37.598,-30.273,-19.043,0.000
1709140308.669,-34.180,-24.414,-37.109,-35.645,0.000
1709140308.673,-37.598,-35.156,-40.039,-42.480,0.000
1709140308.677,-32.715,-40.039,-40.039,-49.316,0.000
1709140308.681,-33.203,-31.738,-39.062,-46.875,0.000
1709140308.685,-37.598,-42.480,-36.133,-38.574,0.000
1709140308.689,-45.898,-38.574,-35.645,-47.363,0.000
1709140308.693,-51.758,-35.645,-39.062,-64.941,0.000
1709140308.697,-50.781,-55.176,-31.738,-66.895,0.000
1709140308.700,-41.016,-53.223,-27.344,-49.805,0.000
1709140308.704,-38.574,-37.109,-32.227,-40.527,0.000
1709140308.708,-54.688,-32.715,-37.109,-50.293,0.000
1709140308.712,-55.176,-31.250,-41.016,-51.270,0.000
1709140308.716,-41.504,-49.805,-42.480,-40.527,0.000
1709140308.720,-40.527,-71.289,-42.480,-29.297,0.000
1709140308.724,-45.410,-63.965,-37.598,-27.832,0.000
1709140308.728,-43.945,-24.902,-28.809,-32.227,0.000
1709140308.732,-48.340,-12.207,-32.227,-40.527,0.000
1709140308.736,-48.340,-21.484,-32.715,-39.551,0.000
1709140308.740,-52.734,-30.273,-33.203,-42.969,0.000
1709140308.743,-59.570,-27.832,-37.109,-47.852,0.000
1709140308.747,-52.734,-38.086,-39.551,-37.598,0.000
1709140308.751,-48.340,-53.223,-49.316,-39.062,0.000
1709140308.755,-39.551,-46.875,-40.527,-35.645,0.000
1709140308.759,-36.133,-38.086,-31.250,-24.902,0.000
1709140308.763,-45.410,-41.504,-37.598,-29.297,0.000
1709140308.767,-49.805,-45.410,-44.434,-37.109,0.000
1709140308.771,-41.992,-43.945,-57.129,-37.109,0.000
1709140308.775,-43.945,-58.105,-54.199,-42.969,0.000
1709140308.779,-42.480,-43.945,-38.086,-44.434,0.000
1709140308.783,-37.109,-52.246,-34.668,-35.645,0.000
1709140308.786,-32.227,-60.059,-42.480,-41.504,0.000
1709140308.790,-33.203,-31.250,-48.340,-44.922,0.000
1709140308.794,-40.039,-25.391,-37.598,-41.016,0.000
1709140308.798,-44.434,-42.480,-32.715,-45.898,0.000
1709140308.802,-43.945,-38.574,-34.668,-41.504,0.000
1709140308.806,-36.133,-32.227,-46.387,-37.598,0.000
1709140308.810,-30.762,-33.691,-46.875,-46.875,0.000
1709140308.814,-29.785,-45.898,-40.039,-39.551,0.000
1709140308.818,-29.785,-45.898,-40.527,-37.598,0.000
1709140308.822,-23.438,-34.180,-37.598,-43.457,0.000
1709140308.826,-26.855,-43.945,-41.016,-41.504,0.000
1709140308.829,-32.227,-42.969,-53.223,-41.016,0.000
1709140308.833,-34.668,-50.293,-50.781,-48.828,0.000
1709140308.837,-44.434,-50.781,-34.180,-48.340,0.000
1709140308.841,-51.270,-39.062,-34.180,-44.434,0.000
1709140308.845,-48.340,-45.898,-36.133,-46.875,0.000
1709140308.849,-38.574,-47.852,-35.645,-34.668,0.000
1709140308.853,-40.527,-46.387,-42.480,-28.320,0.000
1709140308.857,-52.734,-51.758,-49.316,-37.109,0.000
1709140308.861,-51.270,-48.340,-40.527,-42.480,0.000
1709140308.865,-49.805,-35.156,-32.227,-50.781,0.000
1709140308.868,-50.293,-28.809,-35.156,-49.316,0.000
1709140308.872,-49.316,-32.715,-35.156,-42.480,0.000
1709140308.876,-41.504,-39.062,-35.645,-51.270,0.000
1709140308.880,-37.598,-30.273,-38.574,-52.734,0.000
1709140308.884,-40.039,-40.039,-38.574,-37.109,0.000
1709140308.888,-36.621,-57.617,-36.133,-36.133,0.000
1709140308.892,-44.434,-43.457,-46.387,-36.621,0.000
1709140308.896,-42.969,-35.645,-50.293,-35.156,0.000
1709140308.900,-41.992,-48.828,-45.898,-45.898,0.000
1709140308.904,-49.805,-50.781,-43.457,-50.293,0.000
1709140308.907,-51.270,-41.016,-43.945,-53.711,0.000
1709140308.911,-47.363,-29.297,-39.551,-57.129,0.000
1709140308.915,-48.340,-15.625,-34.668,-56.152,0.000
1709140308.919,-43.945,-32.227,-34.180,-46.875,0.000
1709140308.923,-38.574,-47.363,-29.297,-37.598,0.000
1709140308.927,-38.574,-63.965,-43.457,-25.879,0.000
1709140308.931,-37.598,-64.453,-54.199,-29.297,0.000
1709140308.935,-36.133,-24.414,-37.109,-43.945,0.000
1709140308.939,-53.711,-15.625,-38.574,-45.410,0.000
1709140308.943,-61.523,-35.156,-41.992,-45.898,0.000
1709140308.946,-48.828,-28.809,-36.621,-44.922,0.000
1709140308.950,-41.504,-34.180,-38.574,-42.969,0.000
1709140308.954,-48.340,-50.293,-35.156,-49.316,0.000
1709140308.958,-45.898,-41.016,-29.785,-49.316,0.000
1709140308.962,-34.668,-22.949,-31.738,-41.992,0.000
1709140308.966,-32.227,-37.598,-38.574,-39.551,0.000
1709140308.970,-29.297,-52.734,-45.410,-38.086,0.000
1709140308.974,-36.621,-42.480,-38.086,-41.504,0.000
1709140308.978,-51.270,-33.203,-27.832,-43.457,0.000
1709140308.982,-41.504,-40.039,-33.691,-26.367,0.000
1709140308.985,-36.133,-50.781,-40.039,-19.043,0.000
1709140308.989,-41.504,-27.832,-42.969,-29.297,0.000
1709140308.993,-38.086,-27.344,-40.527,-39.551,0.000
1709140308.997,-36.133,-40.039,-36.621,-35.156,0.000
1709140309.001,-30.273,-41.016,-25.391,-28.809,0.000
1709140309.005,-26.855,-49.316,-24.414,-29.785,0.000
1709140309.009,-23.926,-58.105,-29.297,-36.133,0.000
1709140309.013,-17.578,-60.547,-32.715,-27.344,0.000
1709140309.017,-20.508,-46.875,-38.574,-8.789,0.000
1709140309.020,-29.297,-24.902,-37.109,-26.855,0.000
1709140309.024,-29.785,-1.953,-35.645,-41.016,0.000
1709140309.028,-23.926,0.977,-40.039,-39.062,0.000
1709140309.032,-23.438,-8.789,-40.039,-39.551,0.000
1709140309.036,-33.203,-20.996,-48.340,-37.109,0.000
1709140309.040,-37.109,-44.434,-43.945,-38.574,0.000
1709140309.044,-30.273,-52.246,-44.434,-40.039,0.000
1709140309.048,-30.273,-37.109,-43.457,-36.133,0.000
1709140309.052,-33.203,-46.387,-31.250,-46.875,0.000
1709140309.056,-43.945,-55.176,-38.086,-53.711,0.000
1709140309.060,-40.039,-37.598,-39.551,-39.551,0.000
1709140309.064,-37.109,-16.113,-44.434,-41.016,0.000
1709140309.068,-43.945,-19.531,-48.340,-57.617,0.000
1709140309.072,-41.016,-30.762,-37.598,-56.641,0.000
1709140309.076,-45.898,-28.320,-42.969,-46.875,0.000
1709140309.079,-50.781,-32.227,-51.758,-44.922,0.000
1709140309.083,-47.363,-32.715,-49.316,-47.852,0.000
1709140309.087,-42.969,-28.320,-49.805,-41.992,0.000
1709140309.091,-36.133,-49.805,-45.410,-37.109,0.000
1709140309.095,-28.320,-45.898,-48.340,-39.062,0.000
1709140309.099,-46.875,-35.645,-50.781,-35.645,0.000
1709140309.103,-44.434,-28.809,-45.410,-31.738,0.000
1709140309.107,-29.785,-24.414,-45.898,-33.691,0.000
1709140309.111,-41.016,-28.809,-45.898,-38.086,0.000
1709140309.115,-48.340,-25.391,-44.434,-35.156,0.000
1709140309.119,-52.734,-13.672,-41.504,-41.504,0.000
1709140309.122,-51.758,-36.133,-37.598,-42.480,0.000
1709140309.126,-41.992,-72.266,-35.156,-36.133,0.000
1709140309.130,-36.621,-43.945,-39.062,-41.504,0.000
1709140309.134,-40.527,-15.625,-37.598,-39.551,0.000
1709140309.138,-46.875,-35.156,-41.016,-31.250,0.000
1709140309.142,-52.734,-31.250,-47.852,-40.039,0.000
1709140309.146,-45.898,-24.414,-42.969,-44.434,0.000
1709140309.150,-46.387,-51.758,-47.363,-53.223,0.000
1709140309.154,-52.246,-46.875,-66.406,-55.664,0.000
1709140309.158,-37.598,-35.156,-49.316,-35.156,0.000
1709140309.162,-41.504,-32.715,-29.297,-26.855,0.000
1709140309.165,-61.035,-40.527,-42.969,-30.273,0.000
1709140309.169,-48.828,-54.688,-41.504,-26.367,0.000
1709140309.173,-37.109,-45.898,-30.273,-26.367,0.000
1709140309.177,-45.410,-25.879,-28.320,-23.438,0.000
1709140309.181,-51.270,-28.809,-32.715,-23.926,0.000
1709140309.185,-51.758,-32.715,-46.387,-28.320,0.000
1709140309.189,-45.410,-36.621,-53.711,-36.621,0.000
1709140309.193,-43.457,-49.316,-48.340,-41.016,0.000
1709140309.197,-51.758,-43.945,-30.762,-40.527,0.000
1709140309.201,-45.410,-43.457,-32.715,-35.645,0.000
1709140309.204,-33.203,-35.156,-28.320,-24.414,0.000
1709140309.208,-44.434,-30.273,-22.461,-29.785,0.000
1709140309.212,-52.734,-45.898,-27.344,-28.320,0.000
1709140309.216,-46.875,-43.945,-33.203,-31.250,0.000
1709140309.220,-45.410,-33.691,-44.922,-36.621,0.000
1709140309.224,-32.227,-35.156,-47.363,-34.180,0.000
1709140309.228,0.000,-39.551,-42.480,-34.180,0.000
1709140309.232,0.000,-50.781,-43.945,-36.133,0.000
1709140309.236,0.000,-47.363,-39.062,-46.387,0.000
1709140309.240,0.000,-29.785,-30.273,-38.574,0.000
1709140309.244,0.000,-25.391,-29.297,-31.738,0.000
1709140309.247,0.000,-22.461,-29.297,-41.992,0.000
1709140309.251,0.000,-41.992,-32.227,-45.410,0.000
1709140309.255,0.000,-64.453,-31.250,-34.668,0.000
1709140309.259,0.000,-41.016,-38.574,-27.832,0.000
1709140309.263,0.000,-26.367,-45.410,-40.527,0.000
1709140309.267,0.000,-29.297,-36.133,-43.945,0.000
1709140309.271,0.000,-40.527,-29.297,-41.992,0.000
1709140309.275,-41.016,-40.039,-29.785,-39.551,0.000
1709140309.279,-39.551,-23.926,-31.250,-45.898,0.000
1709140309.283,-37.109,-41.504,-38.086,-43.457,0.000
1709140309.286,-31.250,-46.875,-40.527,-36.621,0.000
1709140309.290,-36.621,-41.016,-29.297,-40.039,0.000
1709140309.294,-39.062,-48.828,-36.621,-40.039,0.000
1709140309.298,-47.852,-44.922,-42.969,-45.410,0.000
1709140309.302,-53.223,-38.574,-25.391,-42.480,0.000
1709140309.306,-46.875,-26.367,-24.414,-45.898,0.000
1709140309.310,-42.969,-26.367,-35.156,-56.152,0.000
1709140309.314,-32.227,-41.992,-41.504,-47.852,0.000
1709140309.318,-32.715,-61.035,-40.039,-39.551,0.000
1709140309.322,-37.109,-51.758,-37.598,-37.598,0.000
1709140309.325,-43.457,-31.250,-40.039,-40.527,0.000
1709140309.329,-46.387,-44.434,-37.109,-44.922,0.000
1709140309.333,-33.691,-50.293,-36.621,-45.410,0.000
1709140309.337,-40.527,-34.180,-33.203,-48.340,0.000
1709140309.341,-52.246,-32.227,-38.574,-45.410,0.000
1709140309.345,-37.109,-38.086,-39.551,-38.086,0.000
1709140309.349,-34.668,-36.621,-37.598,-35.645,0.000
1709140309.353,-46.387,-45.898,-37.598,-34.180,0.000
1709140309.357,-44.434,-47.363,-37.598,-34.180,0.000
1709140309.361,-41.504,-49.805,-43.945,-38.086,0.000
1709140309.364,-39.062,-48.828,-34.668,-35.645,0.000
1709140309.368,-33.691,-33.691,-24.414,-31.250,0.000
1709140309.372,-34.180,-36.133,-32.227,-36.621,0.000
1709140309.376,-29.297,-40.039,-32.715,-35.156,0.000
1709140309.380,-27.344,-26.855,-36.621,-25.391,0.000
1709140309.384,-36.621,-39.551,-45.410,-30.273,0.000
1709140309.388,-35.156,-38.574,-46.875,-41.992,0.000
1709140309.392,-34.180,-21.484,-36.133,-33.203,0.000
1709140309.396,-37.109,-30.762,-32.227,-26.855,0.000
1709140309.399,-35.156,-54.199,-39.551,-36.133,0.000
1709140309.403,-26.367,-43.457,-41.016,-41.992,0.000
1709140309.407,-34.180,-28.320,-47.363,-41.016,0.000
1709140309.411,-45.410,-44.922,-49.805,-50.781,0.000
1709140309.415,-37.109,-51.270,-40.527,-53.223,0.000
1709140309.419,-33.203,-46.387,-37.109,-47.852,0.000
1709140309.423,-37.109,-19.531,-38.086,-48.340,0.000
1709140309.427,-40.039,-22.461,-37.598,-41.504,0.000
1709140309.431,-43.945,-45.410,-35.156,-42.480,0.000
1709140309.435,-43.945,-47.852,-39.062,-49.316,0.000
1709140309.439,-41.504,-48.828,-50.781,-49.805,0.000
1709140309.443,-48.340,-45.410,-56.641,-53.711,0.000
1709140309.446,-41.992,-46.387,-44.922,-53.711,0.000
1709140309.450,-33.203,-50.293,-33.691,-48.340,0.000
1709140309.454,-50.293,-33.691,-38.086,-47.363,0.000
1709140309.458,-57.129,-26.367,-44.434,-44.434,0.000
1709140309.462,-50.293,-55.664,-41.504,-44.434,0.000
1709140309.466,-49.805,-52.734,-34.668,-50.293,0.000
1709140309.470,-49.805,-33.203,-33.691,-50.293,0.000
1709140309.474,-51.270,-51.270,-37.109,-48.340,0.000
1709140309.478,-50.293,-49.316,-33.203,-46.875,0.000
1709140309.482,-42.480,-38.086,-38.574,-43.457,0.000
1709140309.486,-36.133,-40.039,-50.781,-35.156,0.000
1709140309.489,-35.156,-26.367,-35.645,-38.574,0.000
1709140309.493,-32.227,-25.879,-32.227,-40.039,0.000
1709140309.497,-37.598,-54.199,-35.156,-22.949,0.000
1709140309.501,-37.598,-50.781,-24.902,-31.250,0.000
1709140309.505,-32.715,-39.551,-36.133,-44.434,0.000
1709140309.509,-11.230,-71.289,-37.109,-28.809,0.000
1709140309.513,-16.602,-62.988,-37.598,-36.133,0.000
1709140309.517,-43.457,-11.719,-37.598,-45.410,0.000
1709140309.521,-41.016,-2.441,-31.250,-47.363,0.000
1709140309.525,-34.180,-23.438,-43.457,-47.852,0.000
1709140309.529,-39.551,-31.250,-52.246,-42.480,0.000
1709140309.533,-41.016,-46.875,-41.016,-43.945,0.000
1709140309.536,-38.574,-49.316,-30.273,-46.875,0.000
1709140309.540,-42.480,-38.086,-34.668,-40.527,0.000
1709140309.544,-44.922,-51.758,-40.527,-28.320,0.000
1709140309.548,-43.457,-53.711,-44.434,-36.621,0.000
1709140309.552,-47.363,-50.781,-33.691,-52.734,0.000
1709140309.556,0.000,-36.133,0.000,-60.059,0.000
1709140309.560,0.000,-35.156,0.000,-64.453,0.000
1709140309.564,0.000,-28.809,0.000,-53.711,0.000
1709140309.568,0.000,-16.113,0.000,-48.828,0.000
1709140309.572,0.000,-50.293,0.000,-50.781,0.000
1709140309.576,0.000,-86.914,0.000,-42.969,0.000
1709140309.579,0.000,-36.133,0.000,-47.363,0.000
1709140309.583,0.000,-14.648,0.000,-47.363,0.000
1709140309.587,0.000,-38.086,0.000,-38.086,0.000
1709140309.591,0.000,-50.781,0.000,-42.480,0.000
1709140309.595,0.000,-41.016,0.000,-48.828,0.000
1709140309.599,0.000,-24.414,0.000,-50.293,0.000
1709140309.603,-38.574,-36.133,-40.039,-46.875,0.000
1709140309.607,-39.551,-40.039,-46.875,-45.410,0.000
1709140309.611,-29.297,-56.641,-46.387,-35.156,0.000
1709140309.615,-24.414,-71.777,-41.992,-32.227,0.000
1709140309.619,-29.785,-42.480,-41.504,-38.574,0.000
1709140309.623,-32.227,-32.227,-38.574,-34.668,0.000
1709140309.627,-42.480,-32.715,-36.133,-31.738,0.000
1709140309.630,-43.457,-42.480,-36.133,-29.785,0.000
1709140309.634,-51.758,-43.945,-38.574,-32.227,0.000
1709140309.638,-55.664,-27.344,-39.551,-38.086,0.000
1709140309.642,-53.223,-33.691,-29.297,-32.715,0.000
1709140309.646,-42.969,-42.480,-22.461,-29.297,0.000
1709140309.650,-28.809,-60.059,-24.902,-33.203,0.000
1709140309.654,-32.715,-60.547,-35.645,-39.551,0.000
1709140309.658,-38.574,-38.574,-41.016,-41.504,0.000
1709140309.662,-32.715,-30.273,-43.457,-39.062,0.000
1709140309.666,-32.227,-26.855,-38.086,-37.109,0.000
1709140309.669,-30.762,-25.391,-28.809,-43.457,0.000
1709140309.673,-19.043,-30.762,-27.832,-47.363,0.000
1709140309.677,-28.809,-33.203,-34.180,-44.434,0.000
1709140309.681,-47.363,-34.180,-38.086,-38.086,0.000
1709140309.685,-38.574,-42.969,-35.156,-39.062,0.000
1709140309.689,-31.250,-59.082,-38.574,-32.227,0.000
1709140309.693,-36.621,-44.434,-41.992,-17.090,0.000
1709140309.697,-38.574,-31.250,-38.574,-31.738,0.000
1709140309.701,-38.086,-46.387,-56.641,-37.109,0.000
1709140309.704,-41.992,-38.086,-54.688,-23.438,0.000
1709140309.708,-42.480,-28.320,-34.180,-29.297,0.000
1709140309.712,-40.039,-37.598,-23.926,-40.527,0.000
1709140309.716,-38.574,-56.152,-32.715,-43.945,0.000
1709140309.720,-35.645,-51.758,-45.898,-44.434,0.000
1709140309.724,-46.387,-41.016,-33.691,-38.086,0.000
1709140309.728,-45.898,-42.969,-29.297,-41.992,0.000
1709140309.732,-39.062,-41.992,-34.668,-46.387,0.000
1709140309.736,-38.086,-37.598,-31.250,-37.598,0.000
1709140309.740,-42.969,-53.223,-32.227,-41.016,0.000
1709140309.743,-54.199,-43.457,-39.062,-53.223,0.000
1709140309.747,-50.293,-30.762,-43.945,-46.875,0.000
1709140309.751,-42.969,-34.668,-47.363,-49.805,0.000
1709140309.755,-40.039,-32.227,-48.828,-51.270,0.000
1709140309.759,-32.227,-46.875,-39.551,-47.852,0.000
1709140309.763,-25.879,-52.246,-32.227,-38.086,0.000
1709140309.767,-31.738,-38.574,-27.832,-21.973,0.000
1709140309.771,-36.133,-25.391,-27.344,-34.668,0.000
1709140309.775,-32.715,-16.602,-33.691,-45.898,0.000
1709140309.779,-28.320,-35.156,-40.527,-34.180,0.000
1709140309.782,-30.273,-41.504,-42.480,-29.297,0.000
1709140309.786,-26.855,-22.461,-43.457,-28.809,0.000
1709140309.790,-32.227,-28.809,-41.992,-44.922,0.000
1709140309.794,-32.227,-49.805,-36.133,-45.410,0.000
1709140309.798,-28.320,-49.316,-47.363,-34.180,0.000
1709140309.802,-32.227,-41.504,-51.270,-39.551,0.000
1709140309.806,-35.645,-41.504,-37.598,-41.992,0.000
1709140309.810,-42.969,-52.246,-34.668,-43.457,0.000
1709140309.814,-46.387,-68.848,-38.086,-42.969,0.000
1709140309.818,-37.109,-50.781,-31.250,-45.410,0.000
1709140309.822,-37.109,-21.484,-37.109,-48.828,0.000
1709140309.826,-42.969,-18.066,-48.340,-39.551,0.000
1709140309.829,-41.016,-31.738,-52.734,-39.062,0.000
1709140309.833,-37.598,-40.039,-44.434,-49.316,0.000
1709140309.837,-34.180,-35.156,-37.109,-54.688,0.000
1709140309.841,-22.949,-36.133,-42.969,-45.898,0.000
1709140309.845,-30.762,-47.852,-35.645,-33.691,0.000
1709140309.849,-37.598,-42.969,-30.273,-39.062,0.000
1709140309.853,-36.133,-28.320,-35.156,-45.410,0.000
1709140309.857,-31.738,-26.367,-38.086,-41.016,0.000
1709140309.861,-38.574,-57.129,-31.738,-49.316,0.000
1709140309.865,-41.992,-81.055,-30.762,-51.270,0.000
1709140309.869,-43.457,-52.734,-39.062,-46.387,0.000
1709140309.872,-49.805,-31.738,-43.945,-40.527,0.000
1709140309.876,-47.363,-43.457,-40.527,-44.922,0.000
1709140309.880,-43.945,-43.457,-35.156,-39.062,0.000
1709140309.884,-40.527,-44.434,-33.691,-26.367,0.000
1709140309.888,-29.785,-42.969,-27.344,-26.855,0.000
1709140309.892,-27.344,-40.039,-23.438,-32.227,0.000
1709140309.896,-38.574,-19.043,-32.715,-41.992,0.000
1709140309.900,-51.270,-17.578,-33.691,-43.457,0.000
1709140309.904,-54.688,-53.711,-28.809,-42.480,0.000
1709140309.908,-54.688,-45.898,-23.926,-43.457,0.000
1709140309.912,-53.711,-30.273,-22.949,-49.316,0.000
1709140309.915,-55.176,-43.945,-40.527,-56.152,0.000
1709140309.919,-67.871,-49.805,-43.457,-60.547,0.000
1709140309.923,-71.289,-35.156,-33.203,-54.688,0.000
1709140309.927,-59.570,-33.203,-32.227,-50.293,0.000
1709140309.931,-49.805,-54.688,-42.480,-47.852,0.000
1709140309.935,-50.781,-46.875,-54.688,-56.152,0.000
1709140309.939,-55.664,-39.551,-47.852,-62.988,0.000
1709140309.943,-47.852,-43.945,-31.738,-55.176,0.000
1709140309.947,-36.133,-41.016,-28.809,-42.969,0.000
1709140309.951,-39.062,-39.551,-37.109,-40.039,0.000
1709140309.955,-47.363,-44.922,-43.457,-46.875,0.000
1709140309.958,-47.363,-38.574,-40.527,-41.016,0.000
1709140309.962,-40.039,-38.086,-34.180,-26.367,0.000
1709140309.966,-32.715,-45.898,-36.621,-28.809,0.000
1709140309.970,-30.273,-57.617,-29.785,-25.879,0.000
1709140309.974,-26.855,-51.270,-19.043,-19.043,0.000
1709140309.978,-34.180,-45.898,-29.297,-25.879,0.000
1709140309.982,-42.969,-21.484,-41.992,-32.715,0.000
1709140309.986,-42.969,-12.695,-35.156,-36.621,0.000
1709140309.990,-41.504,-30.273,-28.809,-37.109,0.000
1709140309.994,-37.109,-35.645,-24.414,-36.621,0.000
1709140309.998,-32.227,-37.598,-24.414,-31.250,0.000
1709140310.002,-37.109,-47.363,-38.086,-25.879,0.000
1709140310.006,-32.227,-42.480,-38.086,-28.320,0.000
1709140310.009,-23.438,-38.086,-38.574,-29.785,0.000
1709140310.013,-25.391,-46.875,-35.156,-30.762,0.000
1709140310.017,-32.715,-41.504,-25.879,-36.133,0.000
1709140310.021,-38.574,-28.809,-31.738,-34.180,0.000
1709140310.025,-39.062,-18.066,-29.785,-31.738,0.000
1709140310.029,-42.969,-16.602,-29.297,-42.480,0.000
1709140310.033,-46.875,-37.109,-33.203,-44.434,0.000
1709140310.037,-48.828,-47.363,-38.574,-41.504,0.000
1709140310.041,-40.039,-52.734,-47.363,-34.668,0.000
1709140310.045,-39.062,-76.172,-41.992,-29.785,0.000
1709140310.048,-35.156,-60.547,-29.785,-37.598,0.000
1709140310.052,-32.715,-31.250,-25.879,-41.504,0.000
1709140310.056,-48.828,-45.898,-38.574,-48.340,0.000
1709140310.060,-56.152,-43.945,-44.434,-49.316,0.000
1709140310.064,-43.945,-40.527,-45.410,-42.969,0.000
1709140310.068,-46.387,-35.156,-38.574,-43.945,0.000
1709140310.072,-52.246,-26.855,-35.645,-50.293,0.000
1709140310.076,-50.293,-40.039,-41.992,-52.734,0.000
1709140310.080,-47.852,-54.688,-37.598,-39.062,0.000
1709140310.083,-43.945,-55.176,-35.645,-29.785,0.000
1709140310.087,-41.504,-56.152,-36.133,-27.344,0.000
1709140310.091,-38.086,-58.105,-36.621,-27.344,0.000
1709140310.095,-41.992,-63.477,-37.598,-29.785,0.000
1709140310.099,-31.250,-64.453,-35.645,-20.996,0.000
1709140310.103,-28.809,-23.926,-41.016,-27.344,0.000
1709140310.107,-36.133,-17.090,-36.133,-39.551,0.000
1709140310.111,-32.715,-49.805,-34.180,-34.180,0.000
1709140310.115,-33.691,-42.969,-43.945,-31.250,0.000
1709140310.118,0.000,-28.320,0.000,-34.668,0.000
1709140310.122,0.000,-36.133,0.000,-28.320,0.000
1709140310.126,0.000,-38.574,0.000,-15.625,0.000
1709140310.130,0.000,-55.176,0.000,-13.672,0.000
1709140310.134,0.000,-55.664,0.000,-18.555,0.000
1709140310.138,0.000,-48.828,0.000,-17.578,0.000
1709140310.142,0.000,-56.152,0.000,-14.648,0.000
1709140310.146,0.000,-35.156,0.000,-24.414,0.000
1709140310.150,0.000,-24.414,0.000,-34.180,0.000
1709140310.154,0.000,-19.043,0.000,-43.945,0.000
1709140310.158,0.000,-17.578,0.000,-45.898,0.000
1709140310.161,0.000,-36.133,0.000,-37.109,0.000
1709140310.165,-41.504,-44.434,-28.809,-33.203,0.000
1709140310.169,-37.109,-50.293,-29.297,-26.367,0.000
1709140310.173,-27.832,-40.039,-23.438,-20.020,0.000
1709140310.177,-25.879,-38.086,-23.926,-22.461,0.000
1709140310.181,-25.391,-56.152,-28.809,-22.461,0.000
1709140310.185,-31.738,-45.898,-25.879,-22.461,0.000
1709140310.189,-46.387,-37.598,-31.250,-33.203,0.000
1709140310.192,-52.246,-32.227,-35.156,-48.828,0.000
1709140310.196,-44.922,-22.461,-39.551,-54.688,0.000
1709140310.200,-41.016,-46.387,-55.176,-43.457,0.000
1709140310.204,-45.410,-63.477,-58.105,-42.480,0.000
1709140310.208,-36.621,-46.875,-44.434,-52.246,0.000
1709140310.212,-29.785,-45.898,-33.203,-47.852,0.000
1709140310.216,-42.969,-36.621,-27.344,-52.246,0.000
1709140310.220,-45.898,-27.832,-21.484,-45.898,0.000
1709140310.224,-40.039,-36.133,-25.879,-36.621,0.000
1709140310.228,-44.922,-31.738,-36.621,-45.410,0.000
1709140310.232,-50.781,-38.574,-36.133,-42.480,0.000
1709140310.236,-42.969,-34.668,-45.898,-46.875,0.000
1709140310.239,-30.762,-22.949,-59.082,-51.270,0.000
1709140310.243,-43.457,-32.227,-37.598,-36.621,0.000
1709140310.247,-54.199,-47.852,-26.367,-21.484,0.000
1709140310.251,-42.480,-54.688,-32.715,-23.438,0.000
1709140310.255,-29.297,-49.316,-29.297,-20.996,0.000
1709140310.259,-29.785,-31.738,-26.855,-17.090,0.000
1709140310.263,-38.574,-37.598,-34.180,-22.949,0.000
1709140310.267,-39.551,-62.988,-44.922,-28.320,0.000
1709140310.271,-41.504,-41.016,-48.828,-33.691,0.000
1709140310.275,-40.039,-27.344,-44.922,-37.598,0.000
1709140310.279,-32.227,-55.664,-50.293,-32.227,0.000
1709140310.282,-39.551,-43.457,-56.641,-36.133,0.000
1709140310.286,-51.270,-21.484,-37.598,-43.945,0.000
1709140310.290,-39.062,-38.574,-30.273,-37.598,0.000
1709140310.294,-22.949,-46.875,-34.180,-33.691,0.000
1709140310.298,-33.691,-47.852,-29.785,-38.086,0.000
1709140310.302,-43.457,-35.156,-32.715,-37.109,0.000
1709140310.306,-40.527,-30.273,-37.109,-43.945,0.000
1709140310.310,-41.504,-45.410,-42.480,-60.547,0.000
1709140310.314,-41.016,-57.129,-33.203,-61.035,0.000
1709140310.318,-46.387,-53.223,-27.344,-58.105,0.000
1709140310.321,-50.293,-29.297,-27.344,-51.758,0.000
1709140310.325,-48.340,-35.645,-37.598,-45.898,0.000
1709140310.329,-50.781,-31.250,-41.992,-54.688,0.000
1709140310.333,-48.340,-30.273,-34.180,-53.711,0.000
1709140310.337,-44.434,-43.945,-38.574,-40.039,0.000
1709140310.341,-45.410,-42.480,-39.062,-38.574,0.000
1709140310.345,-44.434,-35.645,-34.180,-43.457,0.000
1709140310.349,-33.203,-14.648,-30.762,-40.527,0.000
1709140310.353,-34.180,-40.039,-35.645,-37.598,0.000
1709140310.357,-38.574,-62.012,-47.852,-42.969,0.000
1709140310.361,-30.273,-29.297,-49.316,-41.992,0.000
1709140310.364,-25.879,-20.508,-38.086,-24.902,0.000
1709140310.368,-29.297,-47.852,-42.480,-35.156,0.000
1709140310.372,-46.875,-44.434,-43.457,-55.664,0.000
1709140310.376,-62.988,-36.133,-28.320,-51.758,0.000
1709140310.380,-61.035,-45.410,-25.879,-40.527,0.000
1709140310.384,-56.641,-52.246,-26.855,-31.738,0.000
1709140310.388,-47.852,-46.387,-25.879,-42.480,0.000
1709140310.392,-45.898,-54.688,-31.250,-51.758,0.000
1709140310.396,-50.293,-57.129,-38.574,-53.711,0.000
1709140310.399,-43.945,-40.527,-38.574,-52.734,0.000
1709140310.403,-31.250,-51.270,-39.062,-41.504,0.000
1709140310.407,-28.809,-56.152,-49.805,-31.250,0.000
1709140310.411,-25.391,-57.617,-47.852,-25.391,0.000
1709140310.415,-28.809,-62.988,-37.109,-34.668,0.000
1709140310.419,-37.109,-51.758,-31.250,-42.480,0.000
1709140310.423,-37.109,-41.016,-23.926,-41.992,0.000
1709140310.427,-42.969,-34.180,-29.785,-44.922,0.000
1709140310.431,-51.270,-31.738,-32.227,-57.617,0.000
1709140310.435,-56.152,-42.969,-42.969,-63.477,0.000
1709140310.439,-56.152,-44.922,-42.480,-48.828,0.000
1709140310.442,-47.363,-40.527,-34.180,-40.039,0.000
1709140310.446,-41.504,-39.551,-35.156,-47.852,0.000
1709140310.450,-37.598,-37.109,-38.574,-56.641,0.000
1709140310.454,-47.363,-44.922,-49.805,-65.918,0.000
1709140310.458,-44.434,-43.945,-44.434,-63.477,0.000
1709140310.462,-36.621,-26.855,-41.504,-48.828,0.000
1709140310.466,-50.781,-43.945,-53.711,-49.805,0.000
1709140310.470,-49.316,-53.223,-50.781,-58.594,0.000
1709140310.474,-47.852,-31.738,-38.574,-49.316,0.000
1709140310.478,-48.340,-36.621,-36.621,-54.688,0.000
1709140310.481,-46.387,-65.430,-46.875,-53.223,0.000
1709140310.485,-48.828,-44.922,-44.434,-43.945,0.000
1709140310.489,-47.852,-39.062,-39.551,-49.316,0.000
1709140310.493,-46.387,-45.410,-34.180,-51.270,0.000
1709140310.497,-47.363,-41.992,-28.320,-46.875,0.000
1709140310.501,-47.363,-42.969,-32.715,-42.480,0.000
1709140310.505,-40.527,-38.574,-41.992,-39.062,0.000
1709140310.509,-37.109,-48.340,-37.109,-37.598,0.000
1709140310.513,-37.598,-52.246,-39.551,-32.715,0.000
1709140310.516,-33.691,-51.758,-44.434,-34.668,0.000
1709140310.520,-41.016,-62.988,-26.855,-33.203,0.000
1709140310.524,-41.992,-58.594,-27.832,-29.785,0.000
1709140310.528,-27.344,-36.621,-43.945,-31.738,0.000
1709140310.532,-29.785,-30.273,-40.039,-35.156,0.000
1709140310.536,-40.039,-39.551,-34.668,-39.551,0.000
1709140310.540,-37.109,-46.387,-37.598,-38.086,0.000
1709140310.544,-33.203,-56.152,-39.062,-33.203,0.000
1709140310.548,-30.762,-47.852,-33.691,-38.086,0.000
1709140310.552,-26.367,-38.086,-32.715,-39.062,0.000
1709140310.556,-24.902,-35.645,-33.203,-42.480,0.000
1709140310.560,-23.926,-41.992,-29.785,-37.109,0.000
1709140310.563,-24.902,-52.246,-38.574,-26.367,0.000
1709140310.567,-24.414,-41.992,-39.062,-26.367,0.000
1709140310.571,-22.949,-32.715,-28.320,-26.367,0.000
1709140310.575,-24.414,-40.527,-25.391,-19.043,0.000
1709140310.579,-31.738,-45.898,-31.738,-19.531,0.000
1709140310.583,-33.203,-43.457,-34.180,-22.461,0.000
1709140310.587,-32.227,-50.781,-34.668,-18.066,0.000
1709140310.591,-33.691,-39.551,-37.109,-20.996,0.000
1709140310.595,-32.715,-33.203,-39.062,-27.344,0.000
1709140310.599,-16.113,-33.691,-37.109,-21.973,0.000
1709140310.603,-18.555,-35.645,-35.156,-16.602,0.000
1709140310.606,-31.738,-46.875,-34.668,-11.230,0.000
1709140310.610,-29.785,-37.109,-38.086,-19.043,0.000
1709140310.614,-31.738,-22.461,-38.086,-35.156,0.000
1709140310.618,-34.180,-21.973,-31.250,-32.227,0.000
1709140310.622,-29.297,-21.973,-30.273,-23.926,0.000
1709140310.626,-24.414,-38.574,-34.180,-30.273,0.000
1709140310.630,-22.949,-44.922,-37.109,-29.297,0.000
1709140310.634,-14.160,-39.551,-41.992,-15.625,0.000
1709140310.638,-15.625,-36.621,-43.457,-20.996,0.000
1709140310.642,-27.344,-19.531,-44.922,-31.738,0.000
1709140310.646,-30.762,-20.020,-46.387,-37.598,0.000
1709140310.649,-28.320,-26.367,-35.156,-45.898,0.000
1709140310.653,-31.250,-18.066,-30.762,-46.875,0.000
1709140310.657,-32.227,-34.668,-29.297,-37.598,0.000
1709140310.661,-30.762,-45.410,-31.250,-25.879,0.000
1709140310.665,-33.691,-43.945,-33.691,-19.531,0.000
1709140310.669,-30.273,-41.016,-38.574,-24.414,0.000
1709140310.673,-36.133,-34.180,-46.387,-36.621,0.000
1709140310.677,-45.898,-42.480,-42.480,-41.016,0.000
1709140310.681,-42.969,-32.715,-37.598,-39.062,0.000
1709140310.685,-38.574,-24.414,-31.250,-33.691,0.000
1709140310.689,-33.691,-33.691,-24.902,-33.691,0.000
1709140310.692,-52.246,-45.898,-29.297,-37.598,0.000
1709140310.696,-58.594,-45.898,-34.180,-41.016,0.000
1709140310.700,-53.223,-49.805,-38.574,-44.922,0.000
1709140310.704,-61.035,-39.551,-42.969,-46.387,0.000
1709140310.708,-62.988,-40.527,-45.410,-41.992,0.000
1709140310.712,-48.340,-54.199,-39.062,-26.855,0.000
1709140310.716,-50.781,-41.504,-41.504,-43.945,0.000
1709140310.720,-57.617,-42.480,-58.594,-59.082,0.000
1709140310.724,-48.828,-57.129,-46.387,-47.852,0.000
1709140310.728,-45.898,-60.059,-29.297,-47.852,0.000
1709140310.731,-44.434,-45.898,-37.598,-53.711,0.000
1709140310.735,-49.805,-29.785,-39.551,-58.594,0.000
1709140310.739,-59.082,-33.203,-29.297,-54.199,0.000
1709140310.743,-52.734,-30.273,-28.320,-42.969,0.000
1709140310.747,-42.480,-42.480,-36.621,-42.480,0.000
1709140310.751,-36.621,-46.875,-40.527,-51.270,0.000
1709140310.755,-39.062,-38.086,-36.621,-46.875,0.000
1709140310.759,-44.922,-45.898,-35.156,-42.969,0.000
1709140310.763,-45.898,-45.410,-32.715,-43.457,0.000
1709140310.767,-43.945,-41.992,-26.367,-35.645,0.000
1709140310.770,-44.434,-46.387,-38.574,-40.527,0.000
1709140310.774,-48.340,-35.156,-45.898,-49.316,0.000
1709140310.778,-45.898,-12.207,-38.086,-47.363,0.000
1709140310.782,-41.016,-24.902,-36.621,-44.922,0.000
1709140310.786,-37.109,-35.156,-47.852,-44.922,0.000
1709140310.790,-35.156,-40.039,-65.430,-38.574,0.000
1709140310.794,-34.180,-56.152,-45.410,-38.086,0.000
1709140310.798,-45.898,-47.852,-29.297,-46.875,0.000
1709140310.802,-47.852,-38.086,-35.156,-45.898,0.000
1709140310.806,-46.875,-29.785,-35.156,-50.781,0.000
1709140310.809,-36.133,-33.203,-37.109,-54.199,0.000
1709140310.813,-27.832,-58.594,-39.062,-48.340,0.000
1709140310.817,-41.992,-52.734,-39.551,-51.270,0.000
1709140310.821,0.000,-25.391,-41.504,-57.129,0.000
1709140310.825,0.000,-21.973,-41.016,-55.176,0.000
1709140310.829,0.000,-37.109,-37.109,-50.293,0.000
1709140310.833,0.000,-45.898,-38.574,-52.246,0.000
1709140310.837,0.000,-48.828,-37.109,-50.293,0.000
1709140310.841,0.000,-49.805,-38.086,-38.574,0.000
1709140310.845,0.000,-50.293,-38.574,-26.367,0.000
1709140310.848,0.000,-55.176,-30.273,-35.645,0.000
1709140310.852,0.000,-62.988,-33.691,-57.617,0.000
1709140310.856,0.000,-46.387,-32.227,-64.941,0.000
1709140310.860,0.000,-36.621,-27.832,-54.199,0.000
1709140310.864,0.000,-54.688,-41.992,-51.758,0.000
1709140310.868,-44.434,-57.129,-41.504,-50.293,0.000
1709140310.872,-54.688,-48.828,-41.016,-57.129,0.000
1709140310.876,-64.941,-36.621,-42.480,-62.500,0.000
1709140310.880,-55.176,-32.227,-31.738,-51.270,0.000
1709140310.883,-42.969,-22.949,-34.180,-46.387,0.000
1709140310.887,-30.273,-32.227,-23.926,-33.691,0.000
1709140310.891,-30.273,-52.246,-18.555,-25.391,0.000
1709140310.895,-29.297,-53.711,-25.391,-27.832,0.000
1709140310.899,-26.855,-38.086,-23.438,-26.367,0.000
1709140310.903,-27.344,-33.691,-24.414,-22.461,0.000
1709140310.907,-26.855,-49.805,-36.133,-19.531,0.000
1709140310.911,-20.020,-39.551,-37.598,-20.508,0.000
1709140310.915,-20.508,-19.043,-34.180,-34.180,0.000
1709140310.918,-21.484,-18.555,-48.828,-38.086,0.000
1709140310.922,-34.668,-28.320,-41.504,-22.949,0.000
1709140310.926,-38.086,-40.039,-29.785,-20.996,0.000
1709140310.930,-34.180,-39.062,-32.715,-28.320,0.000
1709140310.934,-36.133,-44.922,-29.297,-38.574,0.000
1709140310.938,-41.504,-51.758,-22.949,-43.945,0.000
1709140310.942,-53.711,-42.969,-17.090,-42.969,0.000
1709140310.946,-57.129,-49.316,-25.879,-44.922,0.000
1709140310.950,-56.641,-57.617,-34.668,-45.898,0.000
1709140310.954,-56.641,-50.293,-31.250,-52.734,0.000
1709140310.958,-62.988,-35.645,-31.250,-51.758,0.000
1709140310.962,-57.617,-33.691,-38.574,-46.875,0.000
1709140310.965,-43.945,-48.340,-39.551,-47.852,0.000
1709140310.969,-54.688,-46.875,-34.668,-45.898,0.000
1709140310.973,-60.059,-32.227,-41.016,-57.617,0.000
1709140310.977,-68.359,-32.227,-47.852,-50.781,0.000
1709140310.981,-72.754,-46.875,-37.598,-35.645,0.000
1709140310.985,-64.453,-55.176,-25.391,-42.969,0.000
1709140310.989,-56.641,-37.598,-28.809,-49.805,0.000
1709140310.993,-49.805,-51.270,-34.668,-48.340,0.000
1709140310.997,-46.387,-63.477,-39.062,-37.109,0.000
1709140311.001,-48.340,-45.410,-32.715,-38.086,0.000
1709140311.004,-41.992,-32.227,-30.762,-37.109,0.000
1709140311.008,-27.344,-27.344,-34.180,-28.320,0.000
1709140311.012,-18.066,-37.109,-25.879,-19.531,0.000
1709140311.016,-21.973,-44.434,-40.527,-22.461,0.000
1709140311.020,-30.762,-44.434,-47.852,-33.691,0.000
1709140311.024,-38.574,-48.828,-31.738,-43.457,0.000
1709140311.028,-36.621,-35.645,-25.391,-37.598,0.000
1709140311.032,-40.527,-23.438,-26.855,-35.645,0.000
1709140311.036,-38.574,-40.527,-34.180,-43.945,0.000
1709140311.040,-38.574,-48.828,-40.039,-37.598,0.000
1709140311.044,-42.480,-42.969,-41.992,-31.738,0.000
1709140311.047,-35.156,-43.457,-43.945,-29.297,0.000
1709140311.051,-32.227,-35.156,-37.109,-32.227,0.000
1709140311.055,-33.203,-28.320,-29.297,-34.668,0.000
1709140311.059,-35.645,-39.062,-33.203,-31.738,0.000
1709140311.063,-37.598,-50.781,-38.574,-33.691,0.000
1709140311.067,-36.621,-46.387,-34.668,-37.109,0.000
1709140311.071,-51.758,-39.062,-41.016,-43.457,0.000
1709140311.075,-60.547,-51.270,-51.270,-53.711,0.000
1709140311.079,-58.594,-50.781,-49.805,-57.617,0.000
1709140311.083,-56.152,-47.852,-45.410,-47.363,0.000
1709140311.087,-49.805,-54.688,-37.598,-32.715,0.000
1709140311.090,-46.387,-46.387,-35.645,-48.340,0.000
1709140311.094,-49.805,-40.527,-43.457,-55.664,0.000
1709140311.098,-49.316,-40.527,-41.992,-44.434,0.000
1709140311.102,-41.016,-29.785,-38.086,-39.062,0.000
1709140311.106,-43.457,-33.203,-39.062,-38.574,0.000
1709140311.110,-44.922,-56.641,-39.551,-45.410,0.000
1709140311.114,-43.945,-55.664,-41.504,-46.387,0.000
1709140311.118,-45.410,-39.551,-41.992,-31.738,0.000
1709140311.122,-29.297,-38.086,-38.086,-17.578,0.000
1709140311.126,-37.109,-49.805,-48.828,-27.344,0.000
1709140311.129,-50.781,-35.645,-62.012,-41.992,0.000
1709140311.133,-45.898,-24.414,-43.945,-39.062,0.000
1709140311.137,-42.969,-34.668,-32.227,-37.109,0.000
1709140311.141,-43.457,-37.109,-37.109,-41.504,0.000
1709140311.145,-43.457,-27.344,-33.691,-40.039,0.000
1709140311.149,-49.316,-30.762,-29.785,-45.410,0.000
1709140311.153,-46.875,-41.016,-33.203,-43.945,0.000
1709140311.157,-41.504,-48.340,-38.086,-40.527,0.000
1709140311.161,-37.109,-42.969,-41.504,-39.551,0.000
1709140311.165,-26.367,-20.020,-36.133,-33.203,0.000
1709140311.168,-17.578,-22.461,-34.668,-37.598,0.000
1709140311.172,-20.996,-41.504,-39.062,-41.992,0.000
1709140311.176,-26.367,-31.738,-35.156,-27.832,0.000
1709140311.180,-27.832,-23.926,-32.227,-26.367,0.000
1709140311.184,-27.832,-37.109,-27.344,-33.691,0.000
1709140311.188,-40.527,-34.180,-28.320,-41.504,0.000
1709140311.192,-41.504,-34.668,-39.551,-47.363,0.000
1709140311.196,-43.945,-54.688,-35.645,-43.457,0.000
1709140311.200,-46.387,-59.570,-30.273,-27.832,0.000
1709140311.204,-39.551,-42.480,-31.738,-21.484,0.000
1709140311.208,-39.551,-30.762,-32.715,-34.668,0.000
1709140311.212,-41.992,-42.969,-40.039,-45.898,0.000
1709140311.216,-45.410,-38.086,-46.387,-45.410,0.000
1709140311.219,-43.945,-37.598,-36.133,-33.203,0.000
1709140311.223,-37.109,-42.969,-30.273,-26.855,0.000
1709140311.227,-37.598,-42.969,-42.480,-33.203,0.000
1709140311.231,-39.062,-52.246,-42.480,-34.668,0.000
1709140311.235,-35.645,-44.922,-30.273,-33.203,0.000
1709140311.239,-36.621,-33.203,-40.527,-29.297,0.000
1709140311.243,-51.758,-33.691,-51.758,-37.598,0.000
1709140311.247,-51.758,-44.434,-30.762,-51.758,0.000
1709140311.251,-41.504,-48.828,-28.809,-49.316,0.000
1709140311.254,-29.297,-55.664,-43.945,-36.621,0.000
1709140311.258,-30.273,-58.105,-36.133,-31.738,0.000
1709140311.262,-35.645,-46.875,-28.809,-21.973,0.000
1709140311.266,-28.809,-41.016,-34.668,-12.695,0.000
1709140311.270,-26.855,-33.691,-41.992,-24.902,0.000
1709140311.274,-20.996,-46.387,-48.828,-30.273,0.000
1709140311.278,-20.508,-41.016,-43.945,-20.996,0.000
1709140311.282,-26.367,-25.879,-29.297,-6.348,0.000
1709140311.286,-26.367,-30.762,-25.879,-12.695,0.000
1709140311.289,-20.020,-45.410,-24.414,-20.020,0.000
1709140311.293,-20.020,-53.711,-21.973,-17.578,0.000
1709140311.297,-15.625,-55.664,-23.438,-17.578,0.000
1709140311.301,-15.137,-61.523,-32.227,-21.973,0.000
1709140311.305,-9.277,-46.875,-39.062,-26.367,0.000
1709140311.309,-19.531,-37.598,-34.180,-25.879,0.000
1709140311.313,-33.691,-40.527,-35.645,-41.504,0.000
1709140311.317,-32.227,-32.227,-39.551,-40.527,0.000
1709140311.321,-24.414,-34.180,-32.715,-27.832,0.000
1709140311.325,-27.344,-39.551,-28.809,-22.949,0.000
1709140311.328,-28.809,-27.344,-31.738,-30.273,0.000
1709140311.332,-31.738,-28.320,-40.527,-47.852,0.000
1709140311.336,-43.457,-43.457,-43.457,-54.688,0.000
1709140311.340,-43.945,-49.805,-35.645,-48.828,0.000
1709140311.344,-45.410,-65.918,-38.574,-43.457,0.000
1709140311.348,-47.363,-58.594,-41.504,-53.711,0.000
1709140311.352,-44.922,-29.785,-38.086,-57.617,0.000
1709140311.356,-41.992,-40.527,-38.086,-48.340,0.000
1709140311.360,-31.738,-57.129,-38.574,-35.156,0.000
1709140311.364,-37.109,-41.504,-35.645,-33.203,0.000
1709140311.368,-45.410,-29.297,-29.785,-38.086,0.000
1709140311.372,-40.527,-25.879,-31.250,-40.039,0.000
1709140311.375,-41.992,-32.227,-35.156,-48.340,0.000
1709140311.379,-34.668,-43.457,-37.109,-43.457,0.000
1709140311.383,-28.809,-29.297,-36.621,-36.621,0.000
1709140311.387,-27.344,-20.996,-34.668,-34.180,0.000
1709140311.391,-20.508,-32.227,-31.250,-35.156,0.000
1709140311.395,-26.367,-40.039,-32.227,-42.969,0.000
1709140311.399,-35.645,-42.969,-41.992,-38.574,0.000
1709140311.403,-29.785,-42.480,-47.363,-38.574,0.000
1709140311.407,-23.438,-42.480,-38.574,-40.527,0.000
1709140311.411,-20.996,-60.059,-33.203,-35.156,0.000
1709140311.415,-18.555,-72.754,-34.668,-37.109,0.000
1709140311.418,-36.133,-41.016,-30.273,-41.016,0.000
1709140311.422,-42.969,-8.301,-27.832,-37.598,0.000
1709140311.426,-37.598,-18.555,-30.762,-32.227,0.000
1709140311.430,-28.809,-29.785,-28.809,-28.809,0.000
1709140311.434,-27.344,-21.973,-31.250,-25.391,0.000
1709140311.438,-37.109,-39.062,-34.668,-26.367,0.000
1709140311.442,-45.410,-49.316,-38.086,-39.062,0.000
1709140311.446,-44.434,-39.551,-39.062,-43.945,0.000
1709140311.450,-41.504,-41.992,-32.715,-41.016,0.000
1709140311.454,-42.969,-44.922,-28.320,-43.945,0.000
1709140311.458,-33.691,-53.223,-18.555,-26.855,0.000
1709140311.461,-34.180,-42.969,-20.996,-17.578,0.000
1709140311.465,-41.992,-27.344,-30.762,-34.668,0.000
1709140311.469,-42.480,-38.086,-43.457,-50.781,0.000
1709140311.473,-50.781,-22.461,-55.664,-49.805,0.000
1709140311.477,-52.246,-19.043,-45.898,-39.062,0.000
1709140311.481,-42.969,-38.574,-43.457,-30.273,0.000
1709140311.485,-39.062,-42.480,-45.410,-32.715,0.000
1709140311.489,-42.969,-41.016,-37.109,-40.527,0.000
1709140311.493,-43.457,-34.668,-32.227,-40.527,0.000
1709140311.497,-41.992,-41.016,-31.250,-41.016,0.000
1709140311.500,-35.156,-55.664,-33.203,-35.645,0.000
1709140311.504,-30.762,-65.430,-45.898,-32.715,0.000
1709140311.508,-38.086,-56.641,-51.270,-40.039,0.000
1709140311.512,-50.293,-31.250,-37.109,-47.363,0.000
1709140311.516,-53.223,-15.625,-39.551,-54.688,0.000
1709140311.520,-42.969,-33.203,-42.480,-53.711,0.000
1709140311.524,-45.410,-43.457,-42.969,-48.828,0.000
1709140311.528,-61.523,-44.434,-37.109,-50.781,0.000
1709140311.532,-60.059,-58.594,-29.297,-57.129,0.000
1709140311.536,-59.082,-57.129,-34.180,-54.688,0.000
1709140311.540,-58.105,-40.527,-40.039,-43.945,0.000
1709140311.543,-50.781,-54.688,-33.203,-41.992,0.000
1709140311.547,-51.270,-55.176,-30.762,-43.945,0.000
1709140311.551,-46.387,-59.570,-32.715,-28.320,0.000
1709140311.555,-39.062,-51.758,-33.691,-30.273,0.000
1709140311.559,-49.805,-21.484,-42.969,-46.387,0.000
1709140311.563,-58.594,-32.715,-36.621,-56.152,0.000
1709140311.567,-47.852,-30.273,-34.180,-51.270,0.000
1709140311.571,-37.598,-40.039,-46.875,-47.852,0.000
1709140311.575,-43.945,-60.059,-49.805,-52.246,0.000
1709140311.578,-39.551,-36.133,-29.297,-51.758,0.000
1709140311.582,-38.086,-18.555,-28.320,-46.875,0.000
1709140311.586,-49.316,-19.043,-38.086,-48.828,0.000
1709140311.590,-48.828,-26.367,-48.828,-50.293,0.000
1709140311.594,-42.969,-36.133,-43.457,-42.969,0.000
1709140311.598,-43.945,-57.129,-24.902,-34.180,0.000
1709140311.602,-41.992,-53.223,-35.156,-33.691,0.000
1709140311.606,-38.574,-39.551,-39.551,-38.574,0.000
1709140311.610,-41.992,-45.410,-40.527,-49.316,0.000
1709140311.614,-45.898,-49.316,-45.898,-56.152,0.000
1709140311.618,-41.016,-44.434,-49.316,-46.875,0.000
1709140311.622,-30.273,-27.344,-49.805,-44.434,0.000
1709140311.626,-35.645,-20.996,-37.109,-36.621,0.000
1709140311.629,-34.668,-41.992,-36.621,-36.621,0.000
1709140311.633,-37.109,-41.504,-39.062,-38.086,0.000
1709140311.637,-48.340,-31.738,-40.039,-34.180,0.000
1709140311.641,-39.062,-35.645,-33.691,-23.438,0.000
1709140311.645,-34.668,-39.551,-27.832,-22.461,0.000
1709140311.649,-35.645,-45.410,-33.691,-26.855,0.000
1709140311.653,-39.062,-39.551,-37.598,-25.391,0.000
1709140311.657,-51.758,-32.227,-42.969,-47.363,0.000
1709140311.661,-52.734,-41.504,-43.945,-57.617,0.000
1709140311.664,-45.898,-54.688,-38.574,-50.781,0.000
1709140311.668,-40.527,-46.875,-39.062,-50.781,0.000
1709140311.672,-32.227,-55.176,-42.480,-46.875,0.000
1709140311.676,-36.621,-48.828,-47.852,-41.016,0.000
1709140311.680,-34.668,-18.555,-39.551,-38.574,0.000
1709140311.684,-29.297,-31.738,-36.621,-41.504,0.000
1709140311.688,-30.273,-37.109,-35.645,-45.410,0.000
1709140311.692,-36.621,-28.320,-34.668,-48.828,0.000
1709140311.696,-34.180,-35.156,-37.109,-45.410,0.000
1709140311.700,-29.297,-30.762,-36.133,-30.273,0.000
1709140311.703,-30.762,-39.551,-43.945,-21.484,0.000
1709140311.707,-31.738,-47.852,-51.758,-48.828,0.000
1709140311.711,-34.180,-38.574,-41.504,-58.594,0.000
1709140311.715,-36.621,-57.129,-36.133,-52.246,0.000
1709140311.719,-39.062,-40.527,-38.086,-52.734,0.000
1709140311.723,-41.016,-45.410,-36.621,-50.293,0.000
1709140311.727,-39.551,-63.477,-37.598,-59.082,0.000
1709140311.731,-29.297,-36.621,-43.945,-59.570,0.000
1709140311.735,-36.621,-33.203,-44.434,-45.410,0.000
1709140311.739,-50.293,-32.715,-39.551,-40.527,0.000
1709140311.743,-45.410,-42.480,-39.062,-37.598,0.000
1709140311.747,-37.109,-50.293,-40.527,-33.203,0.000
1709140311.750,-38.086,-37.109,-45.898,-33.203,0.000
1709140311.754,-47.852,-34.668,-45.410,-27.832,0.000
1709140311.758,-54.688,-59.082,-43.945,-34.180,0.000
1709140311.762,-57.129,-59.570,-41.016,-28.809,0.000
1709140311.766,-47.363,-33.691,-35.645,-24.902,0.000
1709140311.770,-36.621,-49.316,-37.109,-31.738,0.000
1709140311.774,-35.645,-53.711,-38.574,-34.180,0.000
1709140311.778,-32.715,-44.922,-32.715,-33.691,0.000
1709140311.782,-45.410,-50.293,-24.902,-30.762,0.000
1709140311.786,-53.711,-45.410,-28.809,-33.203,0.000
1709140311.790,-41.992,-49.316,-23.926,-25.391,0.000
1709140311.793,-43.457,-52.246,-25.391,-28.809,0.000
1709140311.797,-49.316,-35.645,-36.133,-41.016,0.000
1709140311.801,-41.016,-34.180,-39.062,-33.203,0.000
1709140311.805,-30.273,-51.758,-35.645,-29.785,0.000
1709140311.809,-30.273,-41.992,-36.133,-33.691,0.000
1709140311.813,-36.621,-29.785,-28.320,-39.062,0.000
1709140311.817,-43.945,-35.156,-30.762,-42.480,0.000
1709140311.821,-41.016,-43.945,-29.785,-35.156,0.000
1709140311.825,-36.621,-39.551,-27.344,-36.621,0.000
1709140311.829,-33.691,-27.832,-34.180,-41.992,0.000
1709140311.833,-30.273,-34.668,-31.738,-36.621,0.000
1709140311.836,-31.250,-48.828,-30.273,-20.508,0.000
1709140311.840,-35.645,-41.016,-30.273,-21.973,0.000
1709140311.844,-41.016,-38.086,-26.855,-32.227,0.000
1709140311.848,-41.016,-46.387,-26.855,-39.062,0.000
1709140311.852,-41.016,-47.363,-29.297,-45.410,0.000
1709140311.856,-44.434,-49.805,-34.668,-39.062,0.000
1709140311.860,-48.340,-54.199,-36.133,-32.715,0.000
1709140311.864,-48.828,-44.922,-34.668,-33.691,0.000
1709140311.868,-52.734,-40.527,-33.203,-37.598,0.000
1709140311.872,-51.270,-44.434,-37.598,-37.598,0.000
1709140311.875,-44.434,-49.316,-42.480,-35.156,0.000
1709140311.879,-39.551,-37.598,-34.668,-30.762,0.000
1709140311.883,-38.086,-27.832,-35.156,-24.902,0.000
1709140311.887,-37.109,-24.902,-38.086,-36.133,0.000
1709140311.891,-34.180,-32.715,-34.180,-41.504,0.000
1709140311.895,-42.480,-53.223,-37.109,-42.969,0.000
1709140311.899,-42.969,-59.570,-44.922,-37.109,0.000
1709140311.903,-26.855,-50.781,-47.852,-43.457,0.000
1709140311.907,-32.227,-46.387,-42.969,-49.805,0.000
1709140311.911,-43.945,-42.969,-41.992,-53.223,0.000
1709140311.914,-35.645,-35.156,-41.016,-54.199,0.000
1709140311.918,-27.832,-41.504,-35.645,-43.945,0.000
1709140311.922,-32.227,-49.316,-42.969,-46.875,0.000
1709140311.926,-36.621,-39.551,-44.434,-49.316,0.000
1709140311.930,-43.457,-33.203,-34.668,-51.758,0.000
1709140311.934,-51.758,-22.949,-36.621,-58.594,0.000
1709140311.938,-50.781,-32.227,-42.480,-64.941,0.000
1709140311.942,-46.875,-43.457,-44.922,-58.105,0.000
1709140311.946,-46.875,-46.875,-46.387,-53.223,0.000
1709140311.949,-46.875,-53.711,-52.734,-57.129,0.000
1709140311.953,-47.363,-44.922,-50.781,-53.711,0.000
1709140311.957,-47.852,-29.297,-38.086,-55.176,0.000
1709140311.961,-46.875,-33.203,-38.574,-61.523,0.000
1709140311.965,-56.152,-41.016,-44.922,-62.012,0.000
1709140311.969,-45.410,-54.688,-40.039,-45.410,0.000
1709140311.973,-37.109,-62.012,-37.598,-37.598,0.000
1709140311.977,-47.363,-39.062,-38.086,-49.805,0.000
1709140311.981,-44.922,-30.273,-38.574,-48.828,0.000
1709140311.985,-35.645,-34.668,-38.086,-47.363,0.000
1709140311.989,-35.645,-40.039,-38.086,-39.062,0.000
1709140311.992,-40.527,-41.504,-41.992,-37.598,0.000
1709140311.996,-40.527,-45.898,-45.410,-39.062,0.000
1709140312.000,-36.133,-48.340,-42.480,-39.062,0.000
1709140312.004,-27.344,-37.598,-34.180,-33.203,0.000
1709140312.008,-25.879,-35.156,-32.227,-30.273,0.000
1709140312.012,-33.203,-36.133,-35.156,-46.387,0.000
1709140312.016,-35.156,-37.598,-33.203,-44.434,0.000
1709140312.020,-43.945,-37.109,-35.645,-39.551,0.000
1709140312.024,-41.504,-39.062,-41.016,-43.457,0.000
1709140312.027,-36.133,-38.574,-38.574,-34.180,0.000
1709140312.031,-31.738,-42.480,-26.367,-34.180,0.000
1709140312.035,-29.785,-34.180,-30.762,-44.434,0.000
1709140312.039,-36.133,-32.715,-33.691,-36.133,0.000
1709140312.043,-41.016,-50.293,-34.180,-34.668,0.000
1709140312.047,-42.480,-45.410,-43.945,-44.434,0.000
1709140312.051,-46.387,-28.809,-46.875,-53.223,0.000
1709140312.055,-47.363,-40.527,-41.992,-62.012,0.000
1709140312.059,-48.828,-54.688,-49.805,-50.781,0.000
1709140312.062,-46.875,-41.504,-55.176,-42.969,0.000
1709140312.066,-50.781,-46.387,-34.668,-48.340,0.000
1709140312.070,-50.781,-48.828,-21.973,-56.641,0.000
1709140312.074,-53.711,-41.016,-33.691,-60.547,0.000
1709140312.078,-66.406,-62.012,-34.668,-49.805,0.000
1709140312.082,-62.012,-36.621,-31.738,-45.898,0.000
1709140312.086,-49.805,-20.996,-34.180,-45.898,0.000
1709140312.090,-54.688,-38.086,-37.109,-48.340,0.000
1709140312.094,-62.012,-41.992,-39.551,-58.105,0.000
1709140312.098,-53.711,-41.504,-37.109,-53.223,0.000
1709140312.102,-48.340,-42.480,-38.574,-41.016,0.000
1709140312.106,-43.945,-49.316,-38.574,-44.922,0.000
1709140312.109,-35.645,-46.387,-26.367,-41.504,0.000
1709140312.113,-39.551,-32.715,-24.902,-39.062,0.000
1709140312.117,-56.641,-38.086,-38.574,-48.828,0.000
1709140312.121,-51.758,-48.828,-39.551,-36.133,0.000
1709140312.125,-44.922,-25.879,-34.180,-40.527,0.000
1709140312.129,-40.527,-19.531,-35.156,-51.758,0.000
1709140312.133,-34.668,-49.805,-35.645,-45.898,0.000
1709140312.137,-50.781,-52.246,-37.598,-45.898,0.000
1709140312.141,-50.293,-31.250,-41.504,-43.457,0.000
1709140312.145,-36.621,-42.480,-33.691,-36.133,0.000
1709140312.149,-38.574,-50.293,-30.762,-38.574,0.000
1709140312.152,-46.875,-36.133,-35.645,-48.340,0.000
1709140312.156,-44.434,-34.668,-35.645,-41.504,0.000
1709140312.160,-42.969,-46.875,-33.203,-26.855,0.000
1709140312.164,-44.434,-47.363,-36.621,-24.414,0.000
1709140312.168,-39.551,-37.598,-40.527,-23.438,0.000
1709140312.172,-34.180,-44.922,-33.691,-25.879,0.000
1709140312.176,-41.992,-42.969,-40.527,-30.762,0.000
1709140312.180,-41.016,-41.992,-37.109,-38.086,0.000
1709140312.184,-37.109,-31.738,-26.855,-39.062,0.000
1709140312.188,-49.805,-24.902,-30.273,-46.387,0.000
1709140312.192,-47.363,-38.574,-30.273,-49.805,0.000
1709140312.195,-46.387,-38.086,-34.668,-47.363,0.000
1709140312.199,-39.062,-36.133,-38.086,-40.527,0.000
1709140312.203,-18.555,-39.551,-30.273,-35.156,0.000
1709140312.207,-16.602,-37.109,-35.156,-33.691,0.000
1709140312.211,-38.086,-30.762,-41.016,-32.715,0.000
1709140312.215,-49.805,-20.020,-40.527,-43.457,0.000
1709140312.219,-40.039,-33.691,-31.738,-37.598,0.000
1709140312.223,-34.180,-40.527,-23.438,-26.855,0.000
1709140312.227,-32.715,-34.668,-31.250,-36.133,0.000
1709140312.231,-24.902,-43.945,-34.668,-30.273,0.000
1709140312.234,-22.949,-47.852,-26.855,-24.902,0.000
1709140312.238,-26.855,-29.785,-29.785,-38.086,0.000
1709140312.242,-28.809,-35.156,-48.828,-43.945,0.000
1709140312.246,-23.438,-55.176,-37.598,-48.828,0.000
1709140312.250,-27.832,-40.527,-17.090,-50.781,0.000
1709140312.254,-39.551,-38.574,-24.414,-45.410,0.000
1709140312.258,-47.363,-40.527,-32.715,-39.551,0.000
1709140312.262,-39.551,-36.621,-35.156,-41.992,0.000
1709140312.266,-25.879,-51.270,-36.133,-34.180,0.000
1709140312.270,-31.738,-54.199,-40.527,-29.785,0.000
1709140312.273,-41.016,-40.527,-43.457,-36.621,0.000
1709140312.277,-39.551,-39.551,-38.574,-31.250,0.000
1709140312.281,-32.715,-46.875,-35.645,-20.996,0.000
1709140312.285,-27.344,-48.340,-45.410,-29.785,0.000
1709140312.289,-33.691,-47.363,-46.875,-45.410,0.000
1709140312.293,-39.551,-48.828,-36.133,-41.504,0.000
1709140312.297,-41.992,-39.062,-35.156,-38.086,0.000
1709140312.301,-25.879,-42.480,-33.691,-29.785,0.000
1709140312.305,-20.996,-36.133,-30.273,-21.973,0.000
1709140312.309,-28.320,-36.621,-33.203,-29.785,0.000
1709140312.313,-45.410,-50.781,-37.109,-42.480,0.000
1709140312.316,-49.805,-39.551,-37.109,-40.527,0.000
1709140312.320,-43.945,-30.273,-37.598,-37.598,0.000
1709140312.324,-50.293,-39.551,-41.992,-29.785,0.000
1709140312.328,-43.945,-49.805,-40.039,-29.297,0.000
1709140312.332,-31.738,-48.340,-37.598,-32.715,0.000
1709140312.336,-39.062,-34.180,-47.852,-31.738,0.000
1709140312.340,-39.551,-50.293,-40.039,-32.715,0.000
1709140312.344,-30.762,-60.059,-25.879,-28.320,0.000
1709140312.348,-33.691,-41.992,-27.344,-34.180,0.000
1709140312.351,-51.758,-28.809,-40.527,-52.734,0.000
1709140312.355,-48.340,-36.621,-39.551,-42.969,0.000
1709140312.359,-38.574,-47.363,-29.785,-31.250,0.000
1709140312.363,-42.969,-44.922,-30.762,-39.062,0.000
1709140312.367,-45.410,-39.062,-38.574,-41.992,0.000
1709140312.371,-41.992,-34.668,-38.574,-45.410,0.000
1709140312.375,-41.992,-46.387,-30.273,-44.922,0.000
1709140312.379,-39.062,-65.918,-31.250,-26.855,0.000
1709140312.383,-38.574,-68.848,-33.691,-38.086,0.000
1709140312.387,-42.969,-39.062,-41.504,-58.594,0.000
1709140312.390,-45.898,-30.273,-38.574,-51.270,0.000
1709140312.394,-41.992,-49.805,-33.203,-45.898,0.000
1709140312.398,-42.480,-41.504,-38.574,-41.504,0.000
1709140312.402,-35.156,-24.902,-29.297,-38.086,0.000
1709140312.406,-32.715,-34.180,-20.508,-31.250,0.000
1709140312.410,-40.527,-52.734,-28.320,-30.762,0.000
1709140312.414,-40.527,-57.129,-36.621,-39.062,0.000
1709140312.418,-38.086,-41.504,-31.250,-36.133,0.000
1709140312.422,-41.016,-13.672,-28.809,-41.016,0.000
1709140312.426,-42.480,-28.320,-29.297,-58.105,0.000
1709140312.430,-44.922,-46.875,-31.250,-51.270,0.000
1709140312.434,-44.922,-41.504,-41.504,-36.621,0.000
1709140312.437,-39.062,-42.480,-35.156,-39.551,0.000
1709140312.441,-37.598,-19.531,-26.855,-37.109,0.000
1709140312.445,-34.668,-24.902,-30.762,-36.133,0.000
1709140312.449,-34.180,-49.316,-31.738,-44.922,0.000
1709140312.453,-32.227,-39.062,-40.039,-52.246,0.000
1709140312.457,-33.691,-32.227,-43.945,-47.852,0.000
1709140312.461,-38.574,-38.086,-41.504,-41.016,0.000
1709140312.465,-44.434,-34.668,-37.109,-43.457,0.000
1709140312.469,-48.828,-45.898,-36.133,-48.340,0.000
1709140312.473,-38.574,-51.270,-43.457,-45.898,0.000
1709140312.477,-39.062,-24.902,-42.480,-39.551,0.000
1709140312.480,-42.969,-11.719,-31.738,-32.715,0.000
1709140312.484,-51.270,-27.344,-26.367,-35.156,0.000
1709140312.488,-57.129,-34.668,-30.273,-45.898,0.000
1709140312.492,-49.316,-44.922,-22.461,-47.852,0.000
1709140312.496,-50.781,-54.199,-22.949,-37.598,0.000
1709140312.500,-48.828,-36.133,-36.133,-39.551,0.000
1709140312.504,-43.945,-21.973,-44.922,-37.598,0.000
1709140312.508,-35.156,-33.203,-48.828,-34.180,0.000
1709140312.512,-26.855,-28.809,-43.457,-41.992,0.000
1709140312.516,-38.086,-28.320,-38.574,-43.457,0.000
1709140312.520,-49.805,-25.879,-32.227,-47.363,0.000
1709140312.524,-34.668,-33.203,-32.715,-47.363,0.000
1709140312.527,-23.438,-42.480,-36.133,-40.527,0.000
1709140312.531,-28.809,-31.738,-28.809,-45.898,0.000
1709140312.535,-31.738,-39.062,-29.297,-49.316,0.000
1709140312.539,-34.180,-45.410,-40.039,-43.457,0.000
1709140312.543,-38.574,-18.066,-34.180,-36.621,0.000
1709140312.547,-42.969,-13.184,-29.785,-44.434,0.000
1709140312.551,-43.457,-39.551,-36.133,-48.340,0.000
1709140312.555,-46.387,-48.828,-40.039,-40.039,0.000
1709140312.559,-31.250,-43.945,-34.668,-28.809,0.000
1709140312.563,-30.273,-42.480,-24.902,-23.438,0.000
1709140312.567,-45.898,-28.809,-22.949,-39.062,0.000
1709140312.570,-31.250,-42.480,-32.715,-46.875,0.000
1709140312.574,-40.039,-47.852,-40.039,-42.969,0.000
1709140312.578,-50.293,-37.598,-38.086,-44.922,0.000
1709140312.582,-38.574,-33.691,-44.434,-42.480,0.000
1709140312.586,-39.062,-33.203,-43.945,-28.809,0.000
1709140312.590,-42.480,-31.250,-41.992,-32.715,0.000
1709140312.594,-35.156,-44.434,-51.758,-41.992,0.000
1709140312.598,-37.598,-46.875,-41.504,-46.875,0.000
1709140312.602,-55.176,-37.109,-35.156,-55.664,0.000
1709140312.606,-47.852,-61.035,-39.551,-50.781,0.000
1709140312.609,-38.574,-62.500,-38.574,-42.969,0.000
1709140312.613,-43.457,-35.645,-45.410,-39.551,0.000
1709140312.617,-48.340,-38.086,-41.504,-33.203,0.000
1709140312.621,-47.363,-34.180,-29.785,-40.527,0.000
1709140312.625,-42.480,-24.414,-31.250,-42.480,0.000
1709140312.629,-47.852,-26.367,-37.109,-35.156,0.000
1709140312.633,-42.969,-41.016,-38.574,-34.668,0.000
1709140312.637,-37.598,-51.270,-42.480,-35.645,0.000
1709140312.641,-32.715,-62.012,-40.527,-31.250,0.000
1709140312.645,-31.250,-52.734,-34.668,-30.762,0.000
1709140312.648,-31.738,-29.297,-28.320,-29.785,0.000
1709140312.652,-33.691,-32.227,-26.855,-40.039,0.000
1709140312.656,-45.898,-40.527,-39.551,-53.711,0.000
1709140312.660,-49.805,-21.973,-43.945,-45.410,0.000
1709140312.664,-41.016,-30.273,-48.828,-39.062,0.000
1709140312.668,-41.504,-29.785,-47.852,-46.387,0.000
1709140312.672,-44.434,-36.621,-39.551,-43.945,0.000
1709140312.676,-32.715,-36.621,-43.457,-33.691,0.000
1709140312.680,-31.250,-42.969,-42.480,-42.969,0.000
1709140312.684,-27.344,-50.781,-29.785,-38.086,0.000
1709140312.688,-29.297,-36.621,-32.227,-33.203,0.000
1709140312.691,-42.480,-43.945,-44.434,-41.504,0.000
1709140312.695,-49.316,-62.500,-42.969,-42.969,0.000
1709140312.699,-45.898,-59.570,-41.992,-42.480,0.000
1709140312.703,-45.410,-31.738,-55.176,-36.133,0.000
1709140312.707,-50.293,-27.344,-61.035,-35.645,0.000
1709140312.711,-47.363,-23.438,-53.711,-38.086,0.000
1709140312.715,-43.457,-30.273,-45.410,-35.645,0.000
1709140312.719,-36.621,-49.805,-47.852,-35.645,0.000
1709140312.723,-36.133,-53.223,-47.363,-31.250,0.000
1709140312.726,-41.016,-48.828,-34.668,-35.156,0.000
1709140312.730,-33.691,-53.223,-29.297,-38.086,0.000
1709140312.734,-33.691,-53.711,-28.809,-40.039,0.000
1709140312.738,-38.086,-49.805,-37.109,-41.504,0.000
1709140312.742,-43.457,-40.039,-50.781,-39.551,0.000
1709140312.746,-40.527,-30.273,-46.875,-39.062,0.000
1709140312.750,-39.551,-38.574,-47.363,-44.922,0.000
1709140312.754,-46.875,-42.969,-51.758,-58.105,0.000
1709140312.758,-50.781,-48.340,-45.410,-67.383,0.000
1709140312.762,-46.387,-41.504,-48.340,-58.105,0.000
1709140312.765,-39.551,-38.086,-39.551,-36.621,0.000
1709140312.769,-36.621,-43.457,-40.039,-36.621,0.000
1709140312.773,-31.738,-42.480,-47.852,-47.363,0.000
1709140312.777,-45.410,-62.988,-28.320,-42.480,0.000
1709140312.781,-41.504,-47.363,-24.414,-30.762,0.000
1709140312.785,-32.715,-20.508,-37.109,-29.297,0.000
1709140312.789,-39.062,-23.438,-28.320,-31.738,0.000
1709140312.793,-35.156,-36.621,-27.344,-28.809,0.000
1709140312.797,-39.062,-47.852,-23.926,-28.809,0.000
1709140312.801,-33.691,-53.711,-15.137,-30.762,0.000
1709140312.805,-27.832,-73.242,-17.578,-30.762,0.000
1709140312.809,-40.039,-58.105,-32.715,-29.297,0.000
1709140312.812,-45.898,-19.043,-45.898,-39.551,0.000
1709140312.816,-43.457,-25.879,-35.156,-50.293,0.000
1709140312.820,-41.992,-25.879,-34.668,-49.316,0.000
1709140312.824,-28.809,-24.414,-33.691,-41.016,0.000
1709140312.828,-28.809,-41.016,-38.574,-41.016,0.000
1709140312.832,-38.086,-42.969,-41.992,-48.828,0.000
1709140312.836,-36.133,-44.434,-25.391,-48.828,0.000
1709140312.840,-34.180,-48.340,-29.297,-41.992,0.000
1709140312.844,-39.062,-57.129,-36.133,-40.039,0.000
1709140312.848,-42.480,-64.453,-27.344,-39.062,0.000
1709140312.852,-34.668,-57.129,-26.367,-43.945,0.000
1709140312.856,-31.738,-41.992,-38.086,-48.340,0.000
1709140312.859,-29.785,-25.879,-28.809,-45.898,0.000
1709140312.863,-24.414,-31.738,-25.879,-36.133,0.000
1709140312.867,-24.902,-45.410,-46.387,-34.668,0.000
1709140312.871,-29.785,-32.715,-44.434,-44.434,0.000
1709140312.875,-32.227,-20.508,-36.133,-47.363,0.000
1709140312.879,-32.227,-35.156,-33.203,-40.527,0.000
1709140312.883,-30.273,-41.992,-29.297,-34.180,0.000
1709140312.887,-19.531,-47.363,-39.062,-36.621,0.000
1709140312.891,-22.949,-54.199,-42.969,-48.828,0.000
1709140312.895,-34.180,-35.156,-40.527,-49.316,0.000
1709140312.899,-39.551,-28.809,-38.086,-39.062,0.000
1709140312.902,-46.387,-27.344,-38.574,-42.480,0.000
1709140312.906,-43.945,-19.043,-40.039,-49.805,0.000
1709140312.910,-35.645,-31.738,-32.227,-42.969,0.000
1709140312.914,-40.039,-48.828,-33.203,-39.551,0.000
1709140312.918,-41.016,-32.715,-44.434,-42.480,0.000
1709140312.922,-50.293,-29.297,-43.945,-47.363,0.000
1709140312.926,-45.898,-42.480,-31.250,-43.457,0.000
1709140312.930,-28.320,-65.918,-27.832,-36.621,0.000
1709140312.934,-40.527,-63.477,-35.645,-44.434,0.000
1709140312.938,-44.922,-40.527,-34.668,-44.434,0.000
1709140312.942,-38.574,-23.926,-32.715,-33.203,0.000
1709140312.945,-35.645,-23.438,-29.297,-31.250,0.000
1709140312.949,-42.969,-43.457,-31.250,-40.039,0.000
1709140312.953,-48.828,-39.551,-34.180,-44.922,0.000
1709140312.957,-41.504,-34.180,-29.297,-39.551,0.000
1709140312.961,-33.691,-33.691,-28.320,-20.508,0.000
1709140312.965,-40.527,-39.062,-34.668,-17.578,0.000
1709140312.969,-42.480,-52.246,-41.504,-29.785,0.000
1709140312.973,-43.945,-41.992,-41.504,-30.273,0.000
1709140312.977,-54.199,-40.039,-28.320,-28.320,0.000
1709140312.981,-42.480,-48.340,-28.809,-26.855,0.000
1709140312.984,-48.828,-37.598,-35.156,-29.297,0.000
1709140312.988,-52.246,-31.738,-33.203,-37.598,0.000
1709140312.992,-48.340,-23.926,-36.133,-44.434,0.000
1709140312.996,-47.363,-23.438,-38.574,-45.410,0.000
1709140313.000,-48.340,-36.621,-41.016,-49.805,0.000
1709140313.004,-53.711,-52.246,-43.945,-43.457,0.000
1709140313.008,-50.781,-60.547,-44.434,-37.109,0.000
1709140313.012,-48.340,-36.621,-40.527,-53.223,0.000
1709140313.016,-42.969,-33.203,-40.527,-54.688,0.000
1709140313.020,-30.762,-53.711,-43.945,-42.969,0.000
1709140313.023,-37.109,-43.457,-45.898,-38.574,0.000
1709140313.027,-37.109,-27.344,-34.668,-41.016,0.000
1709140313.031,-31.738,-33.203,-32.715,-44.434,0.000
1709140313.035,-35.645,-26.855,-45.410,-41.016,0.000
1709140313.039,-38.574,-21.484,-36.621,-34.180,0.000
1709140313.043,-49.316,-37.109,-31.738,-36.133,0.000
1709140313.047,-51.758,-45.410,-29.785,-46.387,0.000
1709140313.051,-45.410,-43.945,-29.297,-46.387,0.000
1709140313.055,-50.293,-47.363,-35.156,-52.246,0.000
1709140313.059,-37.598,-53.223,-31.738,-50.293,0.000
1709140313.063,-44.922,-53.223,-34.180,-47.852,0.000
1709140313.066,-57.129,-44.922,-50.293,-49.316,0.000
1709140313.070,-48.340,-49.805,-55.664,-48.828,0.000
1709140313.074,-44.434,-52.246,-49.316,-48.828,0.000
1709140313.078,-39.062,-37.109,-46.875,-36.133,0.000
1709140313.082,-33.691,-25.879,-44.922,-34.668,0.000
1709140313.086,-29.297,-26.367,-41.016,-35.645,0.000
1709140313.090,-31.250,-39.551,-38.086,-31.250,0.000
1709140313.094,-44.922,-55.664,-40.527,-33.691,0.000
1709140313.098,-46.387,-41.016,-48.340,-28.809,0.000
1709140313.102,-38.086,-25.391,-44.434,-26.855,0.000
1709140313.105,-39.062,-57.617,-33.203,-28.320,0.000
1709140313.109,-32.227,-52.734,-31.250,-33.691,0.000
1709140313.113,-33.203,-27.832,-33.691,-32.227,0.000
1709140313.117,-36.133,-38.574,-35.156,-29.297,0.000
1709140313.121,-40.039,-31.250,-41.504,-34.180,0.000
1709140313.125,-44.434,-29.297,-41.504,-32.715,0.000
1709140313.129,-42.480,-44.434,-38.086,-28.320,0.000
1709140313.133,-49.805,-39.551,-30.762,-41.504,0.000
1709140313.137,-47.852,-35.156,-25.879,-46.387,0.000
1709140313.140,-40.527,-42.480,-30.762,-25.391,0.000
1709140313.144,-29.785,-48.828,-44.434,-23.438,0.000
1709140313.148,-26.855,-38.574,-45.410,-38.574,0.000
1709140313.152,-30.273,-44.434,-35.156,-33.203,0.000
1709140313.156,-30.273,-56.641,-32.715,-27.344,0.000
1709140313.160,-44.922,-53.711,-37.598,-39.551,0.000
1709140313.164,-51.270,-48.340,-36.133,-38.086,0.000
1709140313.168,-43.945,-46.387,-33.203,-36.621,0.000
1709140313.172,-42.969,-40.527,-34.668,-40.039,0.000
1709140313.175,-37.109,-38.086,-33.203,-33.691,0.000
1709140313.179,-26.855,-32.715,-31.738,-32.227,0.000
1709140313.183,-26.367,-27.344,-31.250,-21.973,0.000
1709140313.187,-29.297,-45.410,-28.809,-21.484,0.000
1709140313.191,-29.785,-69.336,-22.949,-32.715,0.000
1709140313.195,-32.227,-59.570,-26.367,-33.691,0.000
1709140313.199,-43.945,-42.969,-41.992,-40.039,0.000
1709140313.203,-43.457,-21.484,-44.434,-43.945,0.000
1709140313.207,-46.387,-18.066,-51.758,-36.621,0.000
1709140313.211,-49.805,-34.180,0.000,-45.410,0.000
1709140313.215,-45.410,-31.738,0.000,-56.641,0.000
1709140313.219,-47.852,-36.621,0.000,-52.246,0.000
1709140313.222,-50.781,-43.457,0.000,-48.340,0.000
1709140313.226,-47.363,-45.898,0.000,-49.316,0.000
1709140313.230,-41.016,-59.570,0.000,-48.828,0.000
1709140313.234,-34.668,-61.035,0.000,-47.852,0.000
1709140313.238,-32.715,-55.664,0.000,-53.223,0.000
1709140313.242,-38.086,-33.691,0.000,-46.387,0.000
1709140313.246,-48.340,-15.625,0.000,-36.133,0.000
1709140313.250,-47.363,-28.809,0.000,-45.898,0.000
1709140313.254,-30.762,-55.664,0.000,-53.223,0.000
1709140313.258,-38.574,-64.453,-25.391,-43.457,0.000
1709140313.262,-41.992,-43.457,-37.109,-32.227,0.000
1709140313.265,-33.691,-35.156,-38.574,-39.062,0.000
1709140313.269,-38.574,-44.922,-35.645,-42.969,0.000
1709140313.273,-31.250,-59.570,-37.109,-40.039,0.000
1709140313.277,-37.109,-52.246,-41.992,-41.016,0.000
1709140313.281,-38.574,-30.273,-58.594,-39.551,0.000
1709140313.285,-36.133,-39.062,-43.457,-36.133,0.000
1709140313.289,-48.340,-49.805,-28.320,-35.645,0.000
1709140313.293,-47.852,-41.992,-37.598,-40.039,0.000
1709140313.297,-43.945,-29.297,-41.016,-52.734,0.000
1709140313.301,-44.434,-38.086,-45.410,-42.480,0.000
1709140313.305,-36.621,-33.691,-37.109,-26.367,0.000
1709140313.308,-35.645,-39.551,-33.203,-37.109,0.000
1709140313.312,-40.527,-63.477,-38.086,-53.223,0.000
1709140313.316,-40.527,-54.688,-32.715,-55.664,0.000
1709140313.320,-38.574,-36.621,-30.273,-42.969,0.000
1709140313.324,-27.832,-31.250,-38.086,-26.855,0.000
1709140313.328,-29.785,-39.062,-37.109,-30.273,0.000
1709140313.332,-37.109,-40.039,-34.180,-40.039,0.000
1709140313.336,-40.039,-40.527,-33.691,-33.203,0.000
1709140313.340,-43.945,-40.527,-41.504,-34.180,0.000
1709140313.344,-37.109,-41.504,-42.969,-38.574,0.000
1709140313.348,-40.039,-51.270,-29.785,-25.879,0.000
1709140313.351,-37.598,-75.684,-26.367,-26.367,0.000
1709140313.355,-38.574,-70.312,-36.133,-30.762,0.000
1709140313.359,-47.363,-25.879,-44.434,-38.574,0.000
1709140313.363,-40.527,-18.066,-40.039,-47.363,0.000
1709140313.367,-34.668,-44.434,-30.762,-41.016,0.000
1709140313.371,-38.086,-55.664,-35.156,-40.039,0.000
1709140313.375,-39.551,-46.387,-35.156,-39.062,0.000
1709140313.379,-34.180,-48.340,-26.855,-35.645,0.000
1709140313.383,-32.227,-39.062,-35.645,-33.691,0.000
1709140313.387,-45.410,-42.480,-37.598,-33.203,0.000
1709140313.390,-45.410,-59.570,-27.832,-37.598,0.000
1709140313.394,-48.828,-56.152,-29.297,-44.434,0.000
1709140313.398,-58.594,-30.762,-32.715,-45.410,0.000
1709140313.402,-55.176,-20.508,-36.133,-35.156,0.000
1709140313.406,-38.086,-42.480,-37.598,-28.320,0.000
1709140313.410,-39.551,-56.641,-34.180,-35.645,0.000
1709140313.414,-41.016,-44.922,-28.809,-40.527,0.000
1709140313.418,-26.855,-32.715,-37.598,-42.480,0.000
1709140313.422,-18.555,-37.109,-56.641,-45.410,0.000
1709140313.426,-33.203,-55.176,-45.898,-34.180,0.000
1709140313.429,-34.180,-45.410,-28.809,-37.598,0.000
1709140313.433,-36.133,-27.832,-28.809,-54.688,0.000
1709140313.437,-44.922,-38.086,-40.527,-51.270,0.000
1709140313.441,-40.527,-46.875,-50.781,-39.062,0.000
1709140313.445,-37.598,-44.922,-34.180,-36.621,0.000
1709140313.449,-38.086,-36.621,-23.438,-41.016,0.000
1709140313.453,-40.039,-43.457,-23.926,-31.738,0.000
1709140313.457,-32.715,-57.129,-28.809,-28.809,0.000
1709140313.461,-25.879,-47.363,-30.762,-32.715,0.000
1709140313.465,-32.715,-47.852,-29.785,-37.109,0.000
1709140313.468,-46.875,-47.363,-45.410,-45.410,0.000
1709140313.472,-49.805,-47.363,-44.434,-46.875,0.000
1709140313.476,-39.062,-48.828,-42.969,-51.270,0.000
1709140313.480,-44.922,-38.574,-46.875,-46.875,0.000
1709140313.484,-48.828,-39.551,-37.598,-41.016,0.000
1709140313.488,-57.617,-43.945,-41.992,-56.641,0.000
1709140313.492,-61.523,-41.016,-40.527,-67.871,0.000
1709140313.496,-52.734,-38.086,-38.086,-59.570,0.000
1709140313.500,-51.270,-48.340,-38.574,-52.734,0.000
1709140313.504,-49.316,-42.969,-30.762,-47.852,0.000
1709140313.507,-37.598,-38.574,-27.832,-46.875,0.000
1709140313.511,-31.738,-67.383,-32.227,-45.898,0.000
1709140313.515,-45.898,-66.406,-43.457,-40.039,0.000
1709140313.519,-41.992,-40.527,-41.992,-48.340,0.000
1709140313.523,-39.551,-37.109,-27.344,-52.246,0.000
1709140313.527,-43.457,-45.410,-27.832,-43.945,0.000
1709140313.531,-43.945,-42.969,-39.062,-42.969,0.000
1709140313.535,-46.387,-23.926,-49.316,-44.434,0.000
1709140313.539,0.000,-36.621,-42.969,-47.852,0.000
1709140313.542,0.000,-46.387,-37.109,-43.945,0.000
1709140313.546,0.000,-33.203,-41.016,-44.922,0.000
1709140313.550,0.000,-27.832,-39.062,-46.875,0.000
1709140313.554,0.000,-37.109,-34.180,-43.945,0.000
1709140313.558,0.000,-56.152,-39.551,-38.086,0.000
1709140313.562,0.000,-55.176,-45.410,-29.297,0.000
1709140313.566,0.000,-46.387,-57.617,-38.574,0.000
1709140313.570,0.000,-33.691,-50.293,-47.852,0.000
1709140313.574,0.000,-14.160,-32.227,-43.945,0.000
1709140313.578,0.000,-24.902,-28.809,-36.133,0.000
1709140313.581,0.000,-46.387,-31.250,-31.738,0.000
1709140313.585,-37.598,-51.758,-33.691,-37.598,0.000
1709140313.589,-32.715,-47.852,-30.762,-41.016,0.000
1709140313.593,-26.367,-42.480,-31.250,-30.762,0.000
1709140313.597,-31.738,-52.734,-44.434,-23.926,0.000
1709140313.601,-41.992,-29.297,-56.152,-32.715,0.000
1709140313.605,-44.434,-20.508,-37.598,-38.574,0.000
1709140313.609,-51.758,-36.621,-15.625,-47.363,0.000
1709140313.613,-44.434,-45.410,-12.695,-42.969,0.000
1709140313.617,-35.645,-46.387,-21.973,-31.738,0.000
1709140313.621,-34.180,-31.250,-34.180,-20.996,0.000
1709140313.625,-30.762,-47.852,-31.738,-21.484,0.000
1709140313.628,-21.484,-70.801,-27.344,-23.926,0.000
1709140313.632,-22.949,-31.738,-36.133,-30.762,0.000
1709140313.636,-31.250,-1.953,-33.203,-34.668,0.000
