timestamps,TP9,AF7,AF8,TP10,Right AUX
1709299333.235,-42.969,-64.941,-48.828,0.000,0.000
1709299333.239,-42.480,-53.223,-41.992,0.000,0.000
1709299333.243,-37.598,-38.574,-41.504,0.000,0.000
1709299333.247,-39.551,-45.410,-45.410,0.000,0.000
1709299333.250,-40.527,-49.316,-34.180,0.000,0.000
1709299333.254,-42.969,-48.340,-34.180,0.000,0.000
1709299333.258,-54.688,-55.664,-39.551,0.000,0.000
1709299333.262,-57.129,-64.453,-41.016,0.000,0.000
1709299333.266,-41.992,-55.176,-32.715,0.000,0.000
1709299333.270,-39.551,-56.152,-27.832,0.000,0.000
1709299333.274,-45.898,-71.289,-27.344,0.000,0.000
1709299333.278,-47.852,-69.336,-28.320,0.000,0.000
1709299333.282,-43.945,-52.246,-38.086,-35.645,0.000
1709299333.286,-34.668,-39.551,-33.691,-28.809,0.000
1709299333.289,-33.691,-36.133,-34.668,-41.504,0.000
1709299333.293,-41.016,-36.133,-39.551,-48.340,0.000
1709299333.297,-41.992,-42.969,-38.574,-46.387,0.000
1709299333.301,-40.039,-41.504,-38.086,-40.039,0.000
1709299333.305,-36.133,-41.992,-42.969,-35.156,0.000
1709299333.309,-35.156,-48.340,-46.875,-41.016,0.000
1709299333.313,-39.551,-52.734,-43.945,-47.852,0.000
1709299333.317,-39.062,-56.152,-41.504,-47.852,0.000
1709299333.321,-36.133,-52.734,-39.551,-41.504,0.000
1709299333.325,-32.715,-38.086,-38.086,-28.809,0.000
1709299333.329,0.000,-34.180,-45.410,-35.156,0.000
1709299333.333,0.000,-35.156,-44.922,-39.551,0.000
1709299333.336,0.000,-43.945,-43.457,-38.086,0.000
1709299333.340,0.000,-43.945,-41.016,-31.250,0.000
1709299333.344,0.000,-37.598,-39.062,-21.484,0.000
1709299333.348,0.000,-36.133,-45.898,-21.484,0.000
1709299333.352,0.000,-40.527,-32.715,-27.344,0.000
1709299333.356,0.000,-43.457,-22.949,-26.367,0.000
1709299333.360,0.000,-42.969,-30.273,-29.785,0.000
1709299333.364,0.000,-47.852,-33.691,-31.738,0.000
1709299333.368,0.000,-53.711,-33.203,-28.809,0.000
1709299333.372,0.000,-46.875,-33.691,-30.273,0.000
1709299333.375,-51.758,-40.527,-38.086,-37.109,0.000
1709299333.379,-56.152,-39.062,-45.410,-36.133,0.000
1709299333.383,-42.969,-42.480,-40.527,-32.715,0.000
1709299333.387,-36.621,-47.852,-31.738,-33.203,0.000
1709299333.391,-41.992,-46.875,-36.133,-40.527,0.000
1709299333.395,-45.410,-48.828,-41.016,-50.781,0.000
1709299333.399,-40.527,-61.523,-47.363,-44.434,0.000
1709299333.403,-35.156,-58.105,-50.293,-31.738,0.000
1709299333.407,-41.992,-58.105,-42.480,-36.133,0.000
1709299333.411,-38.086,-52.246,-46.875,-48.340,0.000
1709299333.414,-33.203,-52.734,-53.223,-46.387,0.000
1709299333.418,-44.434,-58.105,-51.758,-36.621,0.000
1709299333.422,-38.086,-58.594,-43.945,-20.996,0.000
1709299333.426,-26.855,-65.430,-31.250,-9.766,0.000
1709299333.430,-27.344,-62.012,-26.855,-16.602,0.000
1709299333.434,-21.973,-52.734,-30.762,-23.926,0.000
1709299333.438,-12.695,-54.688,-37.598,-21.484,0.000
1709299333.442,-7.812,-50.293,-35.645,-9.766,0.000
1709299333.445,-3.418,-36.133,-31.738,10.742,0.000
1709299333.449,-9.277,-42.969,-35.645,4.395,0.000
1709299333.453,-14.648,-48.828,-33.203,-6.836,0.000
1709299333.457,-17.090,-38.574,-40.039,-7.812,0.000
1709299333.461,-28.809,-34.668,-46.875,-17.090,0.000
1709299333.465,-31.250,-35.156,-40.039,-20.508,0.000
1709299333.469,-27.344,-37.598,-30.762,-20.996,0.000
1709299333.473,-35.156,-50.781,-38.574,-35.645,0.000
1709299333.477,-35.156,-52.246,-48.340,-39.062,0.000
1709299333.481,-36.621,-43.457,-40.039,-39.062,0.000
1709299333.485,-41.504,-45.410,-36.621,-44.434,0.000
1709299333.489,-41.016,-47.363,-41.016,-40.527,0.000
1709299333.492,-38.086,-43.945,-47.363,-49.805,0.000
1709299333.496,-41.016,-47.852,-50.781,-58.105,0.000
1709299333.500,-42.480,-50.293,-53.223,-55.176,0.000
1709299333.504,-31.738,-53.223,-50.293,-38.086,0.000
1709299333.508,-25.391,-53.223,-47.852,-36.621,0.000
1709299333.512,-38.574,-48.340,-48.828,-55.176,0.000
1709299333.516,-37.598,-44.922,-46.387,-55.176,0.000
1709299333.520,-34.180,-38.086,-38.574,-42.969,0.000
1709299333.524,-35.156,-33.691,-32.227,-37.598,0.000
1709299333.528,-36.621,-32.715,-37.109,-39.062,0.000
1709299333.532,-33.691,-40.039,-40.527,-41.504,0.000
1709299333.536,-27.832,-44.922,-35.156,-40.039,0.000
1709299333.539,-34.668,-41.504,-38.086,-33.203,0.000
1709299333.543,-41.504,-56.152,-46.875,-34.180,0.000
1709299333.547,-43.945,-67.871,-36.621,-33.203,0.000
1709299333.551,-48.828,-61.035,-32.227,-33.203,0.000
1709299333.555,-46.387,-54.199,-35.156,-46.387,0.000
1709299333.559,-43.945,-58.105,-33.691,-45.898,0.000
1709299333.563,-47.852,-55.176,-37.109,-40.039,0.000
1709299333.567,-41.992,-45.410,-36.133,-32.715,0.000
1709299333.571,-40.527,-43.945,-32.227,-41.016,0.000
1709299333.575,-42.480,-48.340,-29.785,-46.387,0.000
1709299333.579,-40.527,-53.223,-34.180,-34.668,0.000
1709299333.582,-36.621,-50.781,-35.156,-32.227,0.000
1709299333.586,-37.598,-42.969,-35.156,-37.598,0.000
1709299333.590,-37.109,-53.711,-36.133,-44.434,0.000
1709299333.594,-29.297,-60.059,-34.180,-43.457,0.000
1709299333.598,-25.391,-45.898,-34.668,-36.133,0.000
1709299333.602,-25.879,-40.039,-38.574,-37.109,0.000
1709299333.606,-15.625,-45.898,-38.574,-29.297,0.000
1709299333.610,-17.090,-46.387,-36.133,-31.250,0.000
1709299333.614,-23.926,-24.902,-28.320,-39.062,0.000
1709299333.618,-14.648,-21.484,-24.902,-33.691,0.000
1709299333.622,-8.301,-30.762,-32.227,-26.367,0.000
1709299333.625,-11.719,-23.926,-35.156,-30.762,0.000
1709299333.629,-17.090,-23.926,-38.574,-39.062,0.000
1709299333.633,-26.367,-28.320,-39.062,-38.574,0.000
1709299333.637,-40.039,-32.227,-37.109,-38.086,0.000
1709299333.641,-40.527,-32.715,-44.434,-36.621,0.000
1709299333.645,-39.551,-24.414,-46.875,-34.180,0.000
1709299333.649,-42.480,-28.320,-49.316,-44.922,0.000
1709299333.653,-45.410,-36.621,-48.340,-48.828,0.000
1709299333.657,-50.293,-34.668,-40.527,-44.434,0.000
1709299333.661,-48.828,-34.180,-43.945,-47.363,0.000
1709299333.664,-48.340,-38.086,-48.828,-43.457,0.000
1709299333.668,-43.457,-38.086,-43.945,-37.598,0.000
1709299333.672,-39.062,-38.086,-43.945,-39.551,0.000
1709299333.676,-41.992,-43.945,-42.969,-45.410,0.000
1709299333.680,-35.645,-44.922,-34.180,-43.945,0.000
1709299333.684,-32.227,-44.434,-33.203,-26.855,0.000
1709299333.688,-34.668,-49.316,-35.156,-23.438,0.000
1709299333.692,-32.715,-43.945,-36.133,-36.133,0.000
1709299333.696,-38.086,-37.109,-34.668,-34.668,0.000
1709299333.700,-35.645,-46.875,-29.297,-21.973,0.000
1709299333.704,-30.273,-56.641,-26.367,0.000,0.000
1709299333.707,-33.691,-44.434,-26.367,0.000,0.000
1709299333.711,-37.109,-34.668,-28.809,0.000,0.000
1709299333.715,-46.875,-47.363,-28.320,0.000,0.000
1709299333.719,-53.223,-50.781,-23.926,0.000,0.000
1709299333.723,-44.434,-47.852,-27.344,0.000,0.000
1709299333.727,-43.945,-53.711,-32.715,0.000,0.000
1709299333.731,-47.363,-43.457,-32.715,0.000,0.000
1709299333.735,-53.223,-36.133,-31.250,0.000,0.000
1709299333.739,-62.012,-51.758,-30.273,0.000,0.000
1709299333.743,-59.570,-44.434,-35.156,0.000,0.000
1709299333.746,-44.922,-37.598,-39.551,0.000,0.000
1709299333.750,-40.527,-45.410,-43.945,-34.668,0.000
1709299333.754,-46.387,-41.992,-40.527,-37.109,0.000
1709299333.758,-47.852,-36.621,-33.203,-31.738,0.000
1709299333.762,-50.781,-36.621,-39.062,-36.133,0.000
1709299333.766,-45.410,-37.109,-39.062,-38.086,0.000
1709299333.770,-37.109,-39.062,-31.250,-40.527,0.000
1709299333.774,-40.527,-49.805,-32.227,-42.480,0.000
1709299333.778,-46.875,-49.805,-36.621,-36.621,0.000
1709299333.782,-45.410,-35.645,-35.156,-37.109,0.000
1709299333.785,-47.363,-41.016,-41.016,-43.457,0.000
1709299333.789,-49.805,-48.828,-42.480,-45.410,0.000
1709299333.793,-49.316,-45.410,-47.363,-47.363,0.000
1709299333.797,0.000,-45.898,-52.246,-48.828,0.000
1709299333.801,0.000,-47.363,-44.434,-43.457,0.000
1709299333.805,0.000,-42.969,-40.039,-31.738,0.000
1709299333.809,0.000,-43.457,-45.410,-32.227,0.000
1709299333.813,0.000,-45.410,-45.898,-40.039,0.000
1709299333.817,0.000,-53.223,-36.621,-32.227,0.000
1709299333.820,0.000,-63.965,-43.457,-18.555,0.000
1709299333.824,0.000,-58.105,-52.246,-28.320,0.000
1709299333.828,0.000,-50.293,-45.410,-36.133,0.000
1709299333.832,0.000,-53.223,-38.086,-35.645,0.000
1709299333.836,0.000,-62.988,-41.016,-44.922,0.000
1709299333.840,0.000,-59.570,-40.527,-41.016,0.000
1709299333.844,-43.945,-53.711,-34.180,-23.438,0.000
1709299333.848,-33.691,-50.781,-31.738,-21.484,0.000
1709299333.852,-35.645,-46.875,-37.598,-31.738,0.000
1709299333.856,-35.645,-50.781,-40.039,-34.180,0.000
1709299333.860,-38.086,-51.758,-40.039,-31.250,0.000
1709299333.864,-43.457,-38.086,-34.668,-26.855,0.000
1709299333.867,-40.527,-35.645,-33.203,-29.785,0.000
1709299333.871,-36.621,-43.457,-35.645,-47.363,0.000
1709299333.875,-37.598,-39.062,-39.062,-51.758,0.000
1709299333.879,-41.504,-37.598,-49.316,-46.387,0.000
1709299333.883,-49.316,-40.039,-46.875,-37.598,0.000
1709299333.887,-44.434,-49.805,-45.898,-33.203,0.000
1709299333.891,-43.945,-51.758,-45.410,-41.504,0.000
1709299333.895,-46.875,-51.270,-39.062,-46.875,0.000
1709299333.899,-47.852,-52.734,-39.551,-45.410,0.000
1709299333.903,-50.781,-51.758,-44.434,-43.945,0.000
1709299333.907,-48.828,-48.828,-48.340,-47.363,0.000
1709299333.910,-48.828,-47.363,-45.410,-53.223,0.000
1709299333.914,-55.664,-50.781,-48.828,-58.105,0.000
1709299333.918,-59.082,-50.781,-46.875,-55.176,0.000
1709299333.922,-55.176,-50.781,-35.156,-49.316,0.000
1709299333.926,-53.711,-51.270,-39.551,-41.992,0.000
1709299333.930,-50.293,-52.734,-45.898,-45.898,0.000
1709299333.934,-43.945,-57.617,-41.992,-50.293,0.000
1709299333.938,-51.270,-55.664,-45.898,-51.270,0.000
1709299333.942,-45.410,-38.574,-48.828,-44.434,0.000
1709299333.946,-33.203,-25.879,-40.527,-33.203,0.000
1709299333.950,-33.203,-39.551,-38.574,-35.645,0.000
1709299333.953,-35.645,-44.434,-39.551,-41.504,0.000
1709299333.957,-40.527,-32.227,-36.621,-43.945,0.000
1709299333.961,-42.480,-34.668,-39.062,-42.969,0.000
1709299333.965,-41.504,-41.016,-37.109,-37.598,0.000
1709299333.969,-43.945,-39.062,-34.668,-33.203,0.000
1709299333.973,-49.316,-36.133,-37.109,-29.297,0.000
1709299333.977,-46.875,-43.945,-35.645,-30.273,0.000
1709299333.981,-39.062,-55.664,-34.668,-27.832,0.000
1709299333.985,0.000,-51.270,-37.598,-21.484,0.000
1709299333.989,0.000,-44.434,-40.527,-33.691,0.000
1709299333.993,0.000,-46.875,-39.551,-46.387,0.000
1709299333.996,0.000,-43.457,-40.039,-44.922,0.000
1709299334.000,0.000,-42.480,-46.387,-45.410,0.000
1709299334.004,0.000,-45.410,-40.527,-39.062,0.000
1709299334.008,0.000,-52.734,-36.621,-43.457,0.000
1709299334.012,0.000,-42.969,-39.062,-46.875,0.000
1709299334.016,0.000,-34.180,-37.109,-46.875,0.000
1709299334.020,0.000,-45.410,-34.180,-51.270,0.000
1709299334.024,0.000,-44.922,-32.715,-50.781,0.000
1709299334.028,0.000,-46.875,-32.715,-45.410,0.000
1709299334.032,-39.062,-58.105,-37.109,-44.434,0.000
1709299334.035,-46.387,-43.945,-52.734,-58.594,0.000
1709299334.039,-46.875,-29.785,-55.176,-63.477,0.000
1709299334.043,-36.621,-25.879,-48.340,-53.223,0.000
1709299334.047,-20.996,-24.902,-45.410,-41.992,0.000
1709299334.051,-20.996,-21.484,-41.504,-43.945,0.000
1709299334.055,-26.855,-14.160,-42.480,-55.664,0.000
1709299334.059,-25.391,-17.090,-44.922,-50.781,0.000
1709299334.063,-26.367,-15.625,-47.363,-39.062,0.000
1709299334.067,-25.391,-17.090,-46.875,-41.992,0.000
1709299334.071,-22.949,-16.113,-45.898,-47.363,0.000
1709299334.075,-32.227,-9.277,-55.176,-52.246,0.000
1709299334.078,-34.180,-6.836,-62.012,-51.270,0.000
1709299334.082,-30.762,-0.488,-61.523,-58.594,0.000
1709299334.086,-31.250,11.230,-63.477,-61.035,0.000
1709299334.090,-27.344,14.160,-71.289,-49.316,0.000
1709299334.094,-25.391,8.789,-76.172,-58.105,0.000
1709299334.098,-19.043,6.836,-74.707,-63.477,0.000
1709299334.102,-20.020,4.883,-77.637,-63.477,0.000
1709299334.106,-20.020,9.277,-78.125,-51.758,0.000
1709299334.110,-21.973,20.508,-78.125,-52.734,0.000
1709299334.114,-19.531,25.391,-79.590,-63.965,0.000
1709299334.117,-14.160,29.785,-87.402,-59.082,0.000
1709299334.121,-17.578,33.203,-89.355,-56.152,0.000
1709299334.125,-13.184,35.156,-84.961,-56.152,0.000
1709299334.129,-7.324,34.180,-84.961,-62.988,0.000
1709299334.133,-8.301,34.668,-87.402,-64.941,0.000
1709299334.137,-6.836,41.016,-88.867,-63.477,0.000
1709299334.141,-1.953,47.363,-84.473,-58.105,0.000
1709299334.145,7.812,41.992,-85.449,-44.434,0.000
1709299334.149,8.301,32.227,-93.262,-39.551,0.000
1709299334.152,6.348,43.945,-94.238,-39.551,0.000
1709299334.156,-2.441,52.734,-92.773,-50.293,0.000
1709299334.160,-0.977,45.898,-91.797,-39.551,0.000
1709299334.164,8.789,39.551,-93.262,-32.715,0.000
1709299334.168,11.230,39.062,-98.633,-30.273,0.000
1709299334.172,10.254,37.109,-100.586,-29.785,0.000
1709299334.176,7.324,31.250,-91.797,-41.504,0.000
1709299334.180,10.742,30.762,-93.262,-40.039,0.000
1709299334.184,7.324,26.855,-96.680,-29.297,0.000
1709299334.187,10.254,21.973,-89.844,-20.508,0.000
1709299334.191,13.672,17.090,-87.891,-13.672,0.000
1709299334.195,10.742,15.625,-88.867,-12.207,0.000
1709299334.199,6.836,16.113,-90.332,-17.090,0.000
1709299334.203,10.254,10.742,-87.402,-11.719,0.000
1709299334.207,21.973,12.207,-75.684,-3.906,0.000
1709299334.211,18.066,15.137,-69.336,-5.859,0.000
1709299334.215,8.789,10.254,-67.871,-10.742,0.000
1709299334.219,19.043,13.184,-67.383,0.488,0.000
1709299334.222,21.973,7.324,-64.941,9.277,0.000
1709299334.226,10.254,-7.324,-70.312,0.977,0.000
1709299334.230,4.883,-3.906,-69.824,-6.836,0.000
1709299334.234,-1.953,-8.301,-68.359,-15.625,0.000
1709299334.238,-13.184,-27.832,-75.684,-19.531,0.000
1709299334.242,-9.766,-26.855,-72.266,-20.020,0.000
1709299334.246,-6.836,-12.207,-64.453,-26.367,0.000
1709299334.250,-11.230,-10.254,-65.430,-28.320,0.000
1709299334.254,-12.207,-11.230,-62.500,-19.043,0.000
1709299334.258,-10.254,-10.254,-58.105,-18.555,0.000
1709299334.262,-6.348,-19.531,-54.199,-22.949,0.000
1709299334.266,-10.742,-18.555,-53.711,-19.043,0.000
1709299334.269,-12.695,-14.160,-59.082,-22.461,0.000
1709299334.273,-16.602,-18.066,-62.988,-28.320,0.000
1709299334.277,-24.414,-19.531,-62.988,-32.715,0.000
1709299334.281,-23.438,-16.113,-63.477,-33.203,0.000
1709299334.285,-27.344,-16.113,-62.988,-31.250,0.000
1709299334.289,-33.691,-19.531,-62.012,-42.480,0.000
1709299334.293,-35.645,-22.949,-59.570,-47.363,0.000
1709299334.297,-37.109,-26.855,-57.129,-39.062,0.000
1709299334.301,-34.668,-31.738,-59.570,-27.832,0.000
1709299334.305,-28.320,-33.691,-61.035,-25.391,0.000
1709299334.309,-21.973,-32.227,-60.059,-27.832,0.000
1709299334.312,-22.949,-25.391,-56.641,-32.715,0.000
1709299334.316,-18.555,-15.625,-53.711,-31.250,0.000
1709299334.320,-7.324,-21.484,-54.199,-17.090,0.000
1709299334.324,-6.348,-28.320,-47.852,-9.766,0.000
1709299334.328,-17.090,-35.156,-47.363,-23.926,0.000
1709299334.332,-23.438,-42.480,-53.711,-32.227,0.000
1709299334.336,-20.996,-37.109,-49.316,-30.273,0.000
1709299334.340,-24.414,-36.133,-46.875,-38.574,0.000
1709299334.344,-20.020,-38.574,-50.293,-27.832,0.000
1709299334.348,-20.020,-39.551,-45.898,-21.484,0.000
1709299334.352,-29.297,-46.875,-44.434,-33.691,0.000
1709299334.355,-27.832,-50.293,-41.992,-37.109,0.000
1709299334.359,-31.738,-43.945,-42.969,-32.715,0.000
1709299334.363,-40.527,-43.945,-50.781,-29.297,0.000
1709299334.367,-38.574,-44.434,-42.969,-21.973,0.000
1709299334.371,-36.133,-49.805,-36.621,-22.461,0.000
1709299334.375,-45.410,-41.016,-36.133,-36.133,0.000
1709299334.379,-47.852,-36.621,-39.551,-42.480,0.000
1709299334.383,-49.316,-46.875,-43.945,-41.504,0.000
1709299334.387,-55.664,-50.781,-40.039,-35.645,0.000
1709299334.391,-46.387,-49.805,-39.551,-23.926,0.000
1709299334.395,-48.340,-50.293,-43.457,-41.016,0.000
1709299334.398,-60.059,-47.363,-44.922,-57.129,0.000
1709299334.402,-54.688,-44.922,-41.016,-46.875,0.000
1709299334.406,-41.992,-45.410,-35.645,-33.691,0.000
1709299334.410,-38.574,-42.480,-40.527,-34.180,0.000
1709299334.414,-44.434,-43.945,-44.434,-38.086,0.000
1709299334.418,-43.457,-43.457,-41.992,-39.062,0.000
1709299334.422,-35.156,-39.551,-48.828,-32.227,0.000
1709299334.426,-29.297,-40.527,-47.852,-26.367,0.000
1709299334.430,-29.785,-34.668,-48.340,-35.156,0.000
1709299334.434,-30.762,-23.926,-53.223,-34.668,0.000
1709299334.437,-25.391,-20.996,-48.340,-27.832,0.000
1709299334.441,-15.625,-24.414,-49.316,-23.438,0.000
1709299334.445,-11.719,-22.949,-48.828,-20.508,0.000
1709299334.449,-9.766,-24.414,-47.363,-21.484,0.000
1709299334.453,-5.371,-32.227,-42.480,-23.438,0.000
1709299334.457,1.465,-38.086,-38.086,-23.438,0.000
1709299334.461,-10.254,-32.227,-49.805,-24.902,0.000
1709299334.465,-24.902,-19.531,-55.664,-26.367,0.000
1709299334.469,-28.809,-26.367,-53.223,-38.086,0.000
1709299334.473,-33.203,-31.250,-48.828,-46.875,0.000
1709299334.476,-34.668,-34.668,-48.340,-39.551,0.000
1709299334.480,-39.062,-41.016,-48.828,-19.043,0.000
1709299334.484,-39.062,-40.527,-45.410,-20.996,0.000
1709299334.488,-38.086,-33.691,-42.480,-40.039,0.000
1709299334.492,-47.363,-29.785,-39.551,-45.410,0.000
1709299334.496,-54.688,-29.785,-40.039,-46.875,0.000
1709299334.500,-49.316,-39.062,-43.945,-46.875,0.000
1709299334.504,-49.805,-41.504,-45.410,-40.527,0.000
1709299334.508,-45.898,-31.738,-42.969,-35.645,0.000
1709299334.512,-41.504,-36.621,-42.969,-45.410,0.000
1709299334.515,-57.617,-42.480,-44.922,-51.758,0.000
1709299334.519,-62.988,-40.527,-46.875,-43.945,0.000
1709299334.523,-52.246,-34.668,-42.480,-22.949,0.000
1709299334.527,-46.387,-33.203,-41.504,-13.184,0.000
1709299334.531,-52.734,-36.621,-44.922,-34.180,0.000
1709299334.535,-47.852,-41.992,-45.410,-42.969,0.000
1709299334.539,-42.480,-42.969,-42.969,-41.016,0.000
1709299334.543,-39.062,-37.109,-43.945,-37.598,0.000
1709299334.547,0.000,-36.133,-47.363,-34.668,0.000
1709299334.550,0.000,-47.363,-51.758,-47.363,0.000
1709299334.554,0.000,-52.246,-50.293,-52.734,0.000
1709299334.558,0.000,-45.410,-45.410,-46.387,0.000
1709299334.562,0.000,-42.969,-44.434,-39.551,0.000
1709299334.566,0.000,-52.734,-44.434,-33.203,0.000
1709299334.570,0.000,-45.898,-47.363,-33.203,0.000
1709299334.574,0.000,-34.180,-50.781,-42.480,0.000
1709299334.578,0.000,-35.645,-45.898,-40.527,0.000
1709299334.582,0.000,-33.203,-39.551,-38.086,0.000
1709299334.586,0.000,-28.809,-31.250,-39.062,0.000
1709299334.589,0.000,-35.645,-31.738,-41.504,0.000
1709299334.593,-46.387,-39.551,-40.039,-49.316,0.000
1709299334.597,-56.152,-39.062,-40.527,-52.246,0.000
1709299334.601,-54.688,-45.410,-39.062,-46.387,0.000
1709299334.605,-49.805,-40.039,-32.715,-35.156,0.000
1709299334.609,-44.922,-41.016,-28.809,-32.715,0.000
1709299334.613,-50.781,-51.270,-36.621,-40.527,0.000
1709299334.617,-63.477,-45.898,-39.062,-45.898,0.000
1709299334.621,-59.570,-36.133,-36.621,-48.828,0.000
1709299334.624,-46.875,-45.410,-39.062,-48.340,0.000
1709299334.628,-47.363,-43.945,-38.086,-36.133,0.000
1709299334.632,-52.246,-32.227,-37.109,-37.598,0.000
1709299334.636,-49.805,-34.668,-44.434,-51.758,0.000
1709299334.640,-41.016,-34.180,-41.504,-38.086,0.000
1709299334.644,-35.156,-35.156,-35.645,-25.391,0.000
1709299334.648,-33.691,-38.574,-42.969,-36.621,0.000
1709299334.652,-37.109,-39.551,-45.410,-43.457,0.000
1709299334.656,-39.551,-45.410,-46.875,-33.691,0.000
1709299334.660,-39.062,-42.969,-43.945,-24.902,0.000
1709299334.664,-34.180,-40.039,-40.527,-36.621,0.000
1709299334.668,-27.832,-52.246,-40.527,-38.086,0.000
1709299334.671,-36.133,-44.922,-45.410,-36.133,0.000
1709299334.675,-42.969,-30.762,-43.457,-40.039,0.000
1709299334.679,-46.387,-43.457,-44.922,-47.852,0.000
1709299334.683,-45.410,-54.199,-49.316,-58.594,0.000
1709299334.687,-53.711,-45.898,-49.316,-66.895,0.000
1709299334.691,-56.641,-35.156,-47.363,-68.848,0.000
1709299334.695,-51.270,-43.945,-43.457,-69.336,0.000
1709299334.699,-50.293,-51.758,-46.875,-67.871,0.000
1709299334.703,-49.805,-44.434,-49.316,-56.152,0.000
1709299334.707,-48.828,-45.410,-45.898,-47.852,0.000
1709299334.711,-42.480,-50.293,-42.480,-47.363,0.000
1709299334.714,-43.945,-48.340,-40.039,-52.734,0.000
1709299334.718,-58.105,-46.387,-41.016,-40.527,0.000
1709299334.722,-69.824,-63.965,-42.480,-28.809,0.000
1709299334.726,-65.430,-61.523,-49.316,-44.434,0.000
1709299334.730,-63.965,-48.340,-48.340,-55.664,0.000
1709299334.734,-69.824,-46.387,-43.945,-60.547,0.000
1709299334.738,-73.242,-42.480,-46.387,-61.035,0.000
1709299334.742,-65.430,-47.363,-44.434,-51.758,0.000
1709299334.746,-54.688,-52.734,-37.598,-37.109,0.000
1709299334.750,-69.336,-50.293,-38.574,-43.457,0.000
1709299334.754,-71.777,-47.363,-41.016,-61.035,0.000
1709299334.757,-61.035,-50.293,-39.062,-61.523,0.000
1709299334.761,-53.223,-61.523,-36.133,-40.039,0.000
1709299334.765,-47.852,-67.871,-34.668,-19.043,0.000
1709299334.769,-42.969,-54.199,-31.738,-35.645,0.000
1709299334.773,-39.551,-55.176,-34.668,-60.059,0.000
1709299334.777,-39.062,-56.152,-41.016,-56.152,0.000
1709299334.781,-39.062,-50.293,-33.691,-41.504,0.000
1709299334.785,-37.598,-55.664,-29.785,-36.133,0.000
1709299334.789,-40.527,-50.293,-35.645,-38.574,0.000
1709299334.793,-36.621,-53.711,-35.645,-35.156,0.000
1709299334.796,-37.598,-39.062,-36.621,-39.551,0.000
1709299334.800,-43.457,-30.762,-41.992,-44.922,0.000
1709299334.804,-35.645,-36.133,-33.203,-41.992,0.000
1709299334.808,-37.598,-41.992,-29.297,-41.992,0.000
1709299334.812,-53.711,-54.199,-38.086,-43.945,0.000
1709299334.816,-52.246,-51.758,-44.434,-48.828,0.000
1709299334.820,-47.852,-42.480,-43.945,-48.340,0.000
1709299334.824,-37.598,-49.805,-39.551,-37.109,0.000
1709299334.828,-30.273,-58.594,-36.621,-39.551,0.000
1709299334.832,-40.039,-49.805,-37.109,-46.875,0.000
1709299334.835,-45.410,-46.387,-37.598,-49.805,0.000
1709299334.839,-44.434,-54.199,-37.109,-42.480,0.000
1709299334.843,-42.969,-46.387,-39.062,-34.180,0.000
1709299334.847,-43.945,-41.504,-40.527,-41.016,0.000
1709299334.851,-43.945,-47.852,-38.086,-45.410,0.000
1709299334.855,-48.828,-45.410,-39.551,-39.062,0.000
1709299334.859,-52.734,-42.480,-43.457,-44.434,0.000
1709299334.863,-43.457,-45.410,-40.527,-40.039,0.000
1709299334.867,-35.156,-56.641,-37.109,-20.996,0.000
1709299334.871,-41.504,-54.688,-40.527,-25.879,0.000
1709299334.875,-54.199,-40.039,-44.922,-38.574,0.000
1709299334.879,-40.039,-42.480,-43.945,-25.879,0.000
1709299334.883,-35.645,-49.805,-41.504,-23.438,0.000
1709299334.886,-48.340,-46.875,-43.945,-37.109,0.000
1709299334.890,-41.992,-39.551,-41.504,-36.621,0.000
1709299334.894,-40.039,-35.645,-38.086,-39.551,0.000
1709299334.898,-47.852,-44.434,-43.457,-43.457,0.000
1709299334.902,-41.016,-48.828,-41.016,-27.832,0.000
1709299334.906,-28.320,-43.945,-36.133,-19.531,0.000
1709299334.910,-17.090,-38.574,-38.086,-16.113,0.000
1709299334.914,-20.020,-39.062,-37.109,-24.414,0.000
1709299334.918,-17.578,-49.316,-38.086,-26.855,0.000
1709299334.921,-11.230,-47.363,-41.504,-17.090,0.000
1709299334.925,-22.461,-33.691,-40.527,-17.578,0.000
1709299334.929,-18.555,-30.762,-41.016,-21.484,0.000
1709299334.933,-17.090,-32.715,-43.945,-33.203,0.000
1709299334.937,-28.320,-45.410,-48.340,-39.062,0.000
1709299334.941,-24.414,-56.152,-49.316,-36.621,0.000
1709299334.945,-16.602,-60.547,-39.062,-23.926,0.000
1709299334.949,-20.508,-53.223,-31.250,-10.742,0.000
1709299334.953,-27.832,-44.434,-29.297,-16.113,0.000
1709299334.957,-25.391,-49.805,-30.273,-27.832,0.000
1709299334.961,-28.320,-50.781,-42.480,-22.949,0.000
1709299334.964,-28.320,-41.992,-48.340,-19.531,0.000
1709299334.968,-24.902,-35.156,-44.434,-20.020,0.000
1709299334.972,-32.715,-41.992,-42.480,-27.832,0.000
1709299334.976,-36.621,-46.387,-39.551,-35.156,0.000
1709299334.980,-41.992,-47.363,-41.504,-34.668,0.000
1709299334.984,-42.480,-39.551,-36.621,-39.062,0.000
1709299334.988,-44.434,-33.203,-34.668,-33.203,0.000
1709299334.992,-49.316,-34.180,-43.457,-36.133,0.000
1709299334.996,-57.617,-41.016,-43.457,-52.734,0.000
1709299334.999,-56.641,-50.781,-41.016,-43.945,0.000
1709299335.003,-45.898,-53.711,-37.598,-35.645,0.000
1709299335.007,-53.223,-43.945,-36.133,-43.457,0.000
1709299335.011,-55.664,-37.598,-38.086,-50.293,0.000
1709299335.015,-55.176,-41.992,-33.203,-51.270,0.000
1709299335.019,-50.781,-51.758,-31.738,-39.551,0.000
1709299335.023,-44.434,-53.223,-34.668,-27.344,0.000
1709299335.027,-51.270,-50.293,-37.109,-37.109,0.000
1709299335.031,-52.734,-45.898,-34.668,-48.340,0.000
1709299335.035,-44.922,-40.039,-34.668,-44.434,0.000
1709299335.039,-47.363,-39.551,-36.621,-43.945,0.000
1709299335.042,-57.617,-44.434,-37.109,-50.293,0.000
1709299335.046,-57.129,-45.410,-37.598,-49.805,0.000
1709299335.050,-48.340,-39.551,-36.621,-45.898,0.000
1709299335.054,-41.992,-33.691,-39.551,-39.062,0.000
1709299335.058,-44.922,-41.992,-43.457,-41.992,0.000
1709299335.062,-39.062,-50.293,-40.039,-41.992,0.000
1709299335.066,-40.039,-44.922,-43.945,-37.109,0.000
1709299335.070,-39.551,-36.621,-46.875,-43.945,0.000
1709299335.074,-32.715,-29.297,-42.480,-45.410,0.000
1709299335.078,-35.645,-36.133,-44.434,-50.293,0.000
1709299335.082,-36.621,-43.457,-44.434,-41.504,0.000
1709299335.086,-34.180,-40.527,-46.387,-37.109,0.000
1709299335.089,-29.297,-42.969,-46.387,-46.387,0.000
1709299335.093,-30.762,-37.109,-43.457,-47.852,0.000
1709299335.097,-31.738,-28.809,-41.504,-45.898,0.000
1709299335.101,-23.438,-31.738,-37.109,-34.180,0.000
1709299335.105,-17.578,-40.527,-34.668,-25.879,0.000
1709299335.109,-21.484,-49.805,-37.598,-30.762,0.000
1709299335.113,-32.715,-55.664,-37.109,-35.156,0.000
1709299335.117,-49.316,-43.945,-35.645,-42.480,0.000
1709299335.121,-45.410,-37.598,-34.180,-37.109,0.000
1709299335.125,-38.086,-41.016,-40.039,-30.273,0.000
1709299335.129,-38.086,-38.574,-44.434,-34.668,0.000
1709299335.132,-36.133,-33.691,-36.621,-41.992,0.000
1709299335.136,-28.809,-41.992,-33.203,-40.527,0.000
1709299335.140,-31.250,-53.223,-35.645,-20.996,0.000
1709299335.144,-41.016,-47.363,-40.039,-26.855,0.000
1709299335.148,-41.504,-41.992,-42.480,-40.039,0.000
1709299335.152,-41.992,-42.480,-36.621,-44.922,0.000
1709299335.156,-43.945,-44.434,-38.086,-49.316,0.000
1709299335.160,-38.574,-46.387,-42.480,-38.574,0.000
1709299335.164,-37.598,-45.410,-41.992,-33.203,0.000
1709299335.168,-37.109,-44.922,-36.133,-37.109,0.000
1709299335.171,-38.574,-41.504,-38.086,-43.457,0.000
1709299335.175,-42.969,-48.340,-43.945,-47.852,0.000
1709299335.179,-40.527,-53.711,-44.922,-38.574,0.000
1709299335.183,-29.785,-47.363,-36.621,-15.137,0.000
1709299335.187,-23.926,-45.898,-37.109,-5.371,0.000
1709299335.191,-33.203,-45.898,-40.039,-35.156,0.000
1709299335.195,-42.480,-44.922,-29.785,-47.852,0.000
1709299335.199,-47.852,-38.574,-32.227,-39.062,0.000
1709299335.203,-50.781,-40.527,-39.551,-42.969,0.000
1709299335.207,-50.781,-48.828,-41.992,-49.805,0.000
1709299335.210,-42.480,-45.410,-41.016,-47.852,0.000
1709299335.214,-41.016,-43.945,-39.062,-46.875,0.000
1709299335.218,-47.852,-56.152,-41.992,-43.457,0.000
1709299335.222,-52.734,-60.547,-48.828,-38.086,0.000
1709299335.226,-49.805,-50.781,-48.828,-37.598,0.000
1709299335.230,-43.945,-44.922,-46.387,-34.180,0.000
1709299335.234,-37.598,-40.039,-42.969,-40.527,0.000
1709299335.238,-36.133,-40.039,-42.969,-38.086,0.000
1709299335.242,-37.109,-48.828,-43.457,-28.809,0.000
1709299335.246,-40.039,-53.223,-41.016,-24.902,0.000
1709299335.249,-50.781,-51.270,-40.527,-36.621,0.000
1709299335.253,-57.617,-51.758,-43.945,-46.387,0.000
1709299335.257,-58.105,-61.035,-43.457,-34.180,0.000
1709299335.261,-59.570,-56.641,-42.480,-25.391,0.000
1709299335.265,-53.711,-47.852,-43.457,-21.973,0.000
1709299335.269,-53.223,-48.828,-43.457,-22.461,0.000
1709299335.273,-55.664,-44.434,-40.527,-36.621,0.000
1709299335.277,-52.734,-44.434,-38.574,-32.227,0.000
1709299335.281,-51.270,-47.852,-41.504,-30.762,0.000
1709299335.285,-49.805,-54.688,-43.457,-25.391,0.000
1709299335.288,-41.992,-54.199,-34.668,-16.113,0.000
1709299335.292,-38.574,-38.086,-31.738,-29.297,0.000
1709299335.296,-40.039,-41.992,-37.109,-39.062,0.000
1709299335.300,-42.969,-56.641,-36.621,-29.785,0.000
1709299335.304,-39.062,-52.246,-37.598,-25.391,0.000
1709299335.308,-34.668,-45.410,-37.109,-32.715,0.000
1709299335.312,-39.551,-42.480,-30.273,-34.180,0.000
1709299335.316,-46.875,-49.316,-33.691,-29.297,0.000
1709299335.320,-45.898,-50.781,-39.062,-19.043,0.000
1709299335.323,-44.922,-43.457,-37.109,-22.461,0.000
1709299335.327,-45.410,-40.039,-35.645,-31.250,0.000
1709299335.331,-39.062,-45.898,-34.180,-19.043,0.000
1709299335.335,-34.180,-59.570,-32.715,-16.602,0.000
1709299335.339,-39.551,-51.758,-39.062,-40.527,0.000
1709299335.343,-45.410,-47.363,-42.969,-43.945,0.000
1709299335.347,-48.340,-47.363,-40.527,-47.363,0.000
1709299335.351,-51.270,-40.527,-40.039,-54.199,0.000
1709299335.355,-43.457,-37.109,-37.109,-44.922,0.000
1709299335.359,-40.039,-43.457,-40.039,-45.410,0.000
1709299335.363,-40.039,-55.176,-39.062,-38.574,0.000
1709299335.367,-40.039,-55.664,-33.691,-33.203,0.000
1709299335.371,-41.016,-38.086,-37.109,-47.852,0.000
1709299335.374,-45.410,-37.109,-39.551,-52.734,0.000
1709299335.378,-53.223,-54.199,-44.922,-41.016,0.000
1709299335.382,-54.199,-49.805,-45.410,-36.621,0.000
1709299335.386,-46.387,-39.062,-42.969,-41.504,0.000
1709299335.390,-43.457,-38.086,-41.992,-43.945,0.000
1709299335.394,-54.199,-41.504,-40.039,-45.898,0.000
1709299335.398,-43.945,-44.434,-36.621,-32.227,0.000
1709299335.402,-25.879,-47.363,-33.691,-20.508,0.000
1709299335.406,-33.691,-48.340,-41.016,-25.391,0.000
1709299335.410,-38.086,-38.086,-43.945,-27.344,0.000
1709299335.414,-35.156,-49.805,-44.434,-35.645,0.000
1709299335.418,-38.086,-56.152,-44.434,-32.227,0.000
1709299335.421,-36.133,-46.387,-41.016,-16.113,0.000
1709299335.425,-39.551,-40.527,-45.410,-9.277,0.000
1709299335.429,-48.340,-31.738,-46.387,-35.645,0.000
1709299335.433,-48.340,-29.785,-43.457,-50.293,0.000
1709299335.437,-45.898,-30.762,-41.504,-45.898,0.000
1709299335.441,-39.551,-36.621,-41.016,-43.945,0.000
1709299335.445,-35.645,-53.223,-40.527,-39.551,0.000
1709299335.449,-34.180,-53.223,-34.668,-31.738,0.000
1709299335.453,-29.785,-45.898,-33.691,-27.832,0.000
1709299335.457,-31.250,-39.062,-37.109,-36.133,0.000
1709299335.461,-36.621,-47.852,-39.551,-40.039,0.000
1709299335.464,-36.133,-48.340,-44.434,-32.227,0.000
1709299335.468,-38.574,-41.992,-41.504,-24.414,0.000
1709299335.472,-46.875,-56.152,-40.527,-31.250,0.000
1709299335.476,-47.363,-53.223,-41.016,-41.992,0.000
1709299335.480,-45.898,-40.527,-38.086,-37.109,0.000
1709299335.484,-42.480,-31.738,-35.645,-32.715,0.000
1709299335.488,-43.945,-24.902,-37.598,-34.180,0.000
1709299335.492,-46.875,-34.180,-41.992,-42.480,0.000
1709299335.496,-46.875,-49.316,-34.180,-45.410,0.000
1709299335.500,-45.410,-52.246,-36.133,-41.992,0.000
1709299335.504,-41.504,-45.410,-42.969,-40.527,0.000
1709299335.507,-41.504,-31.250,-40.039,-40.527,0.000
1709299335.511,-38.086,-30.762,-36.133,-38.086,0.000
1709299335.515,-38.086,-57.129,-30.273,-36.621,0.000
1709299335.519,-46.875,-50.781,-39.062,-41.992,0.000
1709299335.523,-44.922,-28.809,-44.922,-43.945,0.000
1709299335.527,-35.156,-26.855,-34.668,-38.086,0.000
1709299335.531,-35.645,-23.926,-30.762,-39.551,0.000
1709299335.535,-39.551,-32.227,-42.480,-38.086,0.000
1709299335.539,-35.645,-46.387,-43.457,-39.551,0.000
1709299335.543,-34.180,-41.992,-39.062,-36.133,0.000
1709299335.547,-30.762,-47.852,-37.598,-28.809,0.000
1709299335.550,-38.086,-43.457,-40.039,-32.715,0.000
1709299335.554,-48.340,-25.879,-34.668,-33.203,0.000
1709299335.558,-53.223,-31.250,-37.109,-31.250,0.000
1709299335.562,-49.805,-34.668,-40.527,-23.438,0.000
1709299335.566,-38.574,-33.203,-32.715,-9.766,0.000
1709299335.570,-42.480,-39.551,-33.203,-23.438,0.000
1709299335.574,-45.410,-39.062,-34.180,-45.898,0.000
1709299335.578,-34.180,-34.668,-31.738,-42.480,0.000
1709299335.582,-25.391,-35.156,-35.156,-23.438,0.000
1709299335.586,-27.344,-29.785,-36.621,-13.672,0.000
1709299335.589,-41.016,-32.227,-42.969,-34.180,0.000
1709299335.593,-55.176,-36.621,-43.457,-41.504,0.000
1709299335.597,-50.293,-40.039,-39.062,-34.180,0.000
1709299335.601,-40.039,-42.969,-41.992,-31.250,0.000
1709299335.605,-42.480,-39.551,-40.527,-18.066,0.000
1709299335.609,-39.551,-36.133,-36.621,-20.020,0.000
1709299335.613,-31.250,-36.621,-38.574,-32.227,0.000
1709299335.617,-41.992,-39.062,-41.016,-33.691,0.000
1709299335.621,-50.293,-28.809,-45.898,-31.738,0.000
1709299335.624,-40.039,-25.391,-38.574,-33.691,0.000
1709299335.628,-40.039,-30.762,-31.738,-41.016,0.000
1709299335.632,-46.875,-35.645,-38.574,-50.781,0.000
1709299335.636,-48.340,-34.180,-38.574,-43.457,0.000
1709299335.640,-44.434,-26.367,-32.227,-27.344,0.000
1709299335.644,-40.039,-25.879,-28.320,-37.109,0.000
1709299335.648,-41.016,-36.621,-28.809,-39.551,0.000
1709299335.652,-44.434,-46.387,-32.715,-33.691,0.000
1709299335.656,-39.062,-43.457,-32.227,-36.133,0.000
1709299335.660,-37.598,-34.180,-36.133,-40.039,0.000
1709299335.664,-45.410,-38.574,-42.969,-50.781,0.000
1709299335.667,-40.527,-35.645,-39.551,-53.711,0.000
1709299335.671,-37.598,-27.832,-35.645,-56.152,0.000
1709299335.675,-40.039,-30.273,-40.527,-51.270,0.000
1709299335.679,-29.785,-31.250,-41.504,-32.227,0.000
1709299335.683,-25.391,-37.598,-39.062,-17.090,0.000
1709299335.687,-24.414,-43.945,-34.180,-15.625,0.000
1709299335.691,-26.855,-41.016,-30.273,-22.949,0.000
1709299335.695,-27.832,-47.363,-32.715,-20.996,0.000
1709299335.699,-31.250,-53.223,-30.762,-28.809,0.000
1709299335.702,-41.992,-38.574,-33.203,-34.180,0.000
1709299335.706,-38.574,-37.598,-27.832,-22.949,0.000
1709299335.710,-35.645,-37.109,-21.484,-25.391,0.000
1709299335.714,-34.180,-36.621,-24.902,-29.297,0.000
1709299335.718,-35.156,-50.781,-26.367,-22.949,0.000
1709299335.722,-39.551,-38.086,-29.785,-24.414,0.000
1709299335.726,-39.062,-29.785,-27.344,-31.738,0.000
1709299335.730,-28.809,-34.180,-23.926,-27.832,0.000
1709299335.734,-30.273,-38.086,-32.227,-35.645,0.000
1709299335.737,-44.922,-40.039,-38.574,-55.664,0.000
1709299335.741,-33.691,-36.133,-33.203,-40.039,0.000
1709299335.745,-23.926,-41.992,-23.926,-19.043,0.000
1709299335.749,-33.691,-40.527,-32.715,-34.180,0.000
1709299335.753,-36.133,-37.598,-40.039,-47.852,0.000
1709299335.757,-35.156,-34.180,-35.645,-47.852,0.000
1709299335.761,-34.668,-30.762,-33.691,-45.898,0.000
1709299335.765,-35.645,-35.645,-33.691,-40.039,0.000
1709299335.769,-36.133,-42.969,-39.551,-35.156,0.000
1709299335.773,-26.855,-49.805,-39.551,-38.086,0.000
1709299335.777,-22.461,-47.852,-37.109,-33.203,0.000
1709299335.781,-36.621,-40.527,-38.574,-35.156,0.000
1709299335.784,-38.086,-44.434,-38.574,-35.156,0.000
1709299335.788,-32.715,-47.852,-34.180,-33.691,0.000
1709299335.792,-34.668,-36.621,-31.250,-35.645,0.000
1709299335.796,-34.668,-29.297,-34.180,-23.926,0.000
1709299335.800,-29.297,-32.227,-38.574,-10.742,0.000
1709299335.804,-32.227,-31.738,-41.504,-17.090,0.000
1709299335.808,-37.598,-31.250,-39.551,-30.762,0.000
1709299335.812,-42.969,-40.039,-37.598,-41.992,0.000
1709299335.816,-43.457,-40.039,-39.062,-41.504,0.000
1709299335.820,-44.434,-38.574,-39.062,-40.039,0.000
1709299335.824,-47.363,-41.016,-42.480,-38.574,0.000
1709299335.827,-42.969,-44.434,-37.598,-36.133,0.000
1709299335.831,-46.875,-48.828,-33.203,-46.875,0.000
1709299335.835,-46.875,-53.223,-33.691,-50.293,0.000
1709299335.839,-36.621,-59.570,-35.156,-41.504,0.000
1709299335.843,-32.715,-51.758,-42.480,-25.391,0.000
1709299335.847,-35.645,-43.945,-39.551,-24.414,0.000
1709299335.851,-40.527,-48.828,-36.133,-38.086,0.000
1709299335.855,-44.434,-44.922,-39.551,-45.410,0.000
1709299335.859,-33.203,-35.156,-37.598,-36.621,0.000
1709299335.863,-28.809,-41.504,-41.504,-37.109,0.000
1709299335.867,-33.691,-46.387,-43.457,-46.875,0.000
1709299335.870,-32.227,-49.805,-42.480,-40.527,0.000
1709299335.874,-37.109,-45.410,-45.898,-46.387,0.000
1709299335.878,-40.527,-30.273,-44.434,-49.316,0.000
1709299335.882,-30.273,-39.062,-41.992,-37.598,0.000
1709299335.886,-31.250,-49.805,-44.922,-34.180,0.000
1709299335.890,-33.203,-40.039,-41.016,-26.855,0.000
1709299335.894,-22.949,-27.344,-38.574,-30.762,0.000
1709299335.898,-22.949,-31.250,-40.039,-39.062,0.000
1709299335.902,-22.949,-49.316,-35.645,-31.250,0.000
1709299335.906,-15.137,-52.246,-34.180,-23.438,0.000
1709299335.910,-15.625,-49.316,-36.621,-33.691,0.000
1709299335.913,-27.344,-48.340,-38.086,-46.387,0.000
1709299335.917,-35.156,-43.457,-40.527,-39.551,0.000
1709299335.921,-37.109,-40.527,-42.480,-30.762,0.000
1709299335.925,-41.016,-44.922,-42.480,-40.039,0.000
1709299335.929,-42.480,-51.270,-42.480,-39.062,0.000
1709299335.933,-44.434,-48.828,-38.574,-35.645,0.000
1709299335.937,-43.457,-38.086,-32.715,-28.809,0.000
1709299335.941,-38.086,-44.922,-29.297,-19.531,0.000
1709299335.945,-41.992,-55.176,-29.785,-28.809,0.000
1709299335.949,-43.945,-40.527,-32.715,-32.227,0.000
1709299335.952,-41.992,-21.484,-30.273,-31.250,0.000
1709299335.956,-44.434,-24.414,-29.297,-32.227,0.000
1709299335.960,-40.527,-47.852,-28.809,-19.531,0.000
1709299335.964,-44.434,-50.781,-31.250,-22.949,0.000
1709299335.968,-43.945,-40.527,-29.297,-31.250,0.000
1709299335.972,-48.340,-44.922,-31.250,-35.645,0.000
1709299335.976,-52.246,-41.016,-34.668,-31.250,0.000
1709299335.980,-47.363,-39.551,-30.762,-19.531,0.000
1709299335.984,-42.969,-53.711,-29.785,-19.531,0.000
1709299335.988,-42.480,-61.523,-28.320,-19.043,0.000
1709299335.991,-43.457,-55.176,-29.297,-30.273,0.000
1709299335.995,-42.480,-42.969,-31.250,-42.969,0.000
1709299335.999,-44.434,-42.969,-35.645,-39.551,0.000
1709299336.003,-37.598,-46.875,-39.062,-26.855,0.000
1709299336.007,-41.992,-43.945,-41.504,-30.273,0.000
1709299336.011,-47.363,-37.598,-39.062,-38.086,0.000
1709299336.015,-43.457,-39.551,-33.203,-37.598,0.000
1709299336.019,-40.039,-43.457,-34.668,-38.574,0.000
1709299336.023,-37.598,-49.316,-38.086,-28.809,0.000
1709299336.027,-40.039,-44.922,-39.551,-24.902,0.000
1709299336.030,-36.133,-31.250,-34.668,-39.551,0.000
1709299336.034,-44.434,-34.668,-28.320,-47.852,0.000
1709299336.038,-50.293,-40.039,-27.832,-46.875,0.000
1709299336.042,-43.945,-37.109,-30.273,-36.133,0.000
1709299336.046,-41.992,-40.039,-29.785,-27.832,0.000
1709299336.050,-39.551,-49.316,-30.273,-26.855,0.000
1709299336.054,-38.086,-53.711,-30.762,-32.715,0.000
1709299336.058,-40.527,-47.852,-32.227,-35.645,0.000
1709299336.062,-38.086,-38.086,-34.668,-23.926,0.000
1709299336.065,-20.996,-35.645,-26.855,-9.277,0.000
1709299336.069,-27.832,-39.062,-34.668,-18.555,0.000
1709299336.073,-46.875,-33.203,-47.852,-41.992,0.000
1709299336.077,-40.039,-31.738,-39.062,-44.922,0.000
1709299336.081,-29.785,-45.898,-33.691,-34.668,0.000
1709299336.085,-33.691,-51.270,-37.109,-28.809,0.000
1709299336.089,-35.645,-37.598,-36.621,-29.785,0.000
1709299336.093,-31.250,-38.574,-39.551,-34.668,0.000
1709299336.097,-38.086,-37.598,-36.621,-40.527,0.000
1709299336.100,-43.945,-23.926,-40.527,-42.969,0.000
1709299336.104,-41.016,-37.598,-43.945,-40.039,0.000
1709299336.108,-39.551,-55.176,-39.551,-35.156,0.000
1709299336.112,-42.969,-43.945,-37.109,-40.527,0.000
1709299336.116,-42.969,-33.203,-41.504,-48.340,0.000
1709299336.120,-41.992,-31.738,-46.387,-46.875,0.000
1709299336.124,-46.387,-40.039,-41.016,-43.457,0.000
1709299336.128,-47.363,-40.039,-33.691,-40.039,0.000
1709299336.132,-48.340,-41.504,-33.691,-42.480,0.000
1709299336.136,-41.992,-47.363,-34.180,-44.922,0.000
1709299336.140,-32.715,-38.086,-33.203,-41.992,0.000
1709299336.144,-32.227,-34.668,-34.180,-32.227,0.000
1709299336.147,-34.180,-36.133,-39.062,-32.227,0.000
1709299336.151,-43.945,-41.504,-37.598,-45.410,0.000
1709299336.155,-50.293,-37.109,-35.156,-52.246,0.000
1709299336.159,-47.363,-38.574,-36.621,-39.551,0.000
1709299336.163,-43.945,-45.898,-36.133,-34.668,0.000
1709299336.167,-45.898,-46.387,-32.715,-45.898,0.000
1709299336.171,-45.410,-59.570,-29.297,-41.016,0.000
1709299336.175,-43.457,-57.617,-29.297,-22.949,0.000
1709299336.179,-48.340,-37.598,-36.621,-34.668,0.000
1709299336.183,-49.805,-26.855,-35.645,-45.410,0.000
1709299336.187,-46.387,-31.738,-32.227,-45.410,0.000
1709299336.190,-44.922,-30.273,-35.156,-47.852,0.000
1709299336.194,-47.852,-37.598,-39.062,-46.387,0.000
1709299336.198,-56.152,-46.387,-34.668,-43.945,0.000
1709299336.202,-50.293,-42.969,-29.297,-31.250,0.000
1709299336.206,-41.992,-47.852,-34.668,-29.297,0.000
1709299336.210,-45.410,-47.852,-37.598,-43.457,0.000
1709299336.214,-47.852,-50.293,-36.621,-50.293,0.000
1709299336.218,-41.992,-59.570,-36.133,-30.273,0.000
1709299336.222,-41.016,-54.199,-42.969,-23.926,0.000
1709299336.226,-36.621,-34.668,-40.527,-33.691,0.000
1709299336.230,-35.156,-35.645,-36.621,-55.176,0.000
1709299336.233,-35.645,-31.250,-38.574,-64.453,0.000
1709299336.237,-29.785,-28.809,-37.598,-50.293,0.000
1709299336.241,-24.902,-38.086,-36.133,-37.109,0.000
1709299336.245,-17.578,-46.875,-35.156,-31.738,0.000
1709299336.249,-14.648,-53.711,-34.180,-31.250,0.000
1709299336.253,-16.602,-52.734,-32.227,-25.879,0.000
1709299336.257,-25.879,-56.641,-31.250,-35.645,0.000
1709299336.261,-38.086,-43.457,-34.180,-39.062,0.000
1709299336.265,-33.691,-41.016,-32.227,-15.137,0.000
1709299336.269,-35.156,-40.527,-37.109,-20.020,0.000
1709299336.273,-43.457,-39.551,-39.551,-35.156,0.000
1709299336.276,-47.852,-42.969,-33.691,-42.480,0.000
1709299336.280,-44.922,-34.180,-35.645,-35.645,0.000
1709299336.284,-41.016,-38.574,-38.574,-18.555,0.000
1709299336.288,-42.480,-45.410,-32.715,-27.832,0.000
1709299336.292,-38.086,-43.945,-28.320,-43.457,0.000
1709299336.296,-38.086,-43.945,-31.738,-38.086,0.000
1709299336.300,-42.480,-53.711,-39.551,-24.902,0.000
1709299336.304,-35.645,-51.758,-37.598,-23.438,0.000
1709299336.308,-31.738,-41.992,-33.203,-27.832,0.000
1709299336.312,-50.781,-45.410,-40.039,-29.297,0.000
1709299336.315,-57.617,-50.781,-39.062,-34.180,0.000
1709299336.319,-49.316,-60.547,-39.551,-31.738,0.000
1709299336.323,-50.781,-60.547,-46.387,-35.645,0.000
1709299336.327,-48.340,-44.922,-44.922,-41.504,0.000
1709299336.331,-37.109,-38.574,-39.062,-40.527,0.000
1709299336.335,-31.250,-47.852,-34.668,-41.992,0.000
1709299336.339,-31.250,-49.805,-36.133,-27.832,0.000
1709299336.343,-42.969,-41.016,-43.457,-30.762,0.000
1709299336.347,-46.875,-34.668,-39.551,-41.016,0.000
1709299336.351,-48.340,-34.180,-36.133,-39.551,0.000
1709299336.355,-48.340,-38.574,-35.645,-30.273,0.000
1709299336.358,-47.363,-36.133,-32.715,-33.691,0.000
1709299336.362,-50.293,-34.668,-33.691,-37.109,0.000
1709299336.366,-45.898,-35.156,-37.598,-32.715,0.000
1709299336.370,-42.480,-46.875,-38.574,-42.480,0.000
1709299336.374,-40.527,-43.457,-39.062,-45.898,0.000
1709299336.378,-30.762,-30.273,-35.156,-41.504,0.000
1709299336.382,-32.227,-35.645,-35.156,-50.293,0.000
1709299336.386,-34.668,-41.504,-38.574,-43.945,0.000
1709299336.390,-36.133,-38.086,-41.504,-37.109,0.000
1709299336.394,-36.133,-35.156,-41.504,-40.039,0.000
1709299336.397,-31.738,-52.734,-35.645,-28.809,0.000
1709299336.401,-32.715,-51.270,-36.621,-27.344,0.000
1709299336.405,-43.457,-19.531,-46.387,-36.621,0.000
1709299336.409,-51.758,-17.090,-39.551,-45.898,0.000
1709299336.413,-53.711,-21.484,-32.715,-50.781,0.000
1709299336.417,-51.758,-19.043,-34.180,-50.293,0.000
1709299336.421,-55.664,-29.785,-37.598,-51.758,0.000
1709299336.425,-58.594,-45.410,-37.109,-43.945,0.000
1709299336.429,-53.711,-45.898,-36.621,-44.434,0.000
1709299336.433,-51.758,-41.016,-35.156,-50.293,0.000
1709299336.437,-53.223,-42.969,-34.668,-46.387,0.000
1709299336.441,-54.688,-45.410,-36.621,-35.156,0.000
1709299336.444,-45.898,-46.387,-33.203,-16.602,0.000
1709299336.448,-37.109,-42.480,-32.227,-17.090,0.000
1709299336.452,-43.457,-45.898,-36.621,-31.738,0.000
1709299336.456,-46.875,-51.270,-28.320,-31.738,0.000
1709299336.460,-34.668,-45.898,-26.367,-22.461,0.000
1709299336.464,-24.902,-47.852,-33.691,-13.184,0.000
1709299336.468,-28.809,-57.129,-26.367,-15.625,0.000
1709299336.472,-35.156,-57.129,-24.902,-36.133,0.000
1709299336.476,-38.574,-46.387,-36.621,-49.316,0.000
1709299336.479,-39.062,-34.668,-37.109,-41.016,0.000
1709299336.483,-36.133,-43.945,-33.691,-35.645,0.000
1709299336.487,-31.738,-43.457,-32.715,-37.598,0.000
1709299336.491,-26.855,-27.832,-35.156,-33.203,0.000
1709299336.495,-28.320,-25.879,-38.086,-38.574,0.000
1709299336.499,-32.227,-35.645,-33.691,-37.598,0.000
1709299336.503,-37.598,-55.664,-40.527,-38.086,0.000
1709299336.507,-41.504,-55.664,-47.363,-52.246,0.000
1709299336.511,-37.598,-49.805,-40.527,-54.688,0.000
1709299336.515,-33.203,-45.898,-34.180,-49.805,0.000
1709299336.519,-39.551,-39.551,-31.250,-50.293,0.000
1709299336.523,-41.992,-41.992,-41.992,-50.293,0.000
1709299336.526,-37.109,-43.457,-43.945,-39.551,0.000
1709299336.530,-41.504,-55.176,-42.969,-42.480,0.000
1709299336.534,-44.922,-53.711,-43.945,-47.852,0.000
1709299336.538,-38.574,-45.410,-35.156,-51.270,0.000
1709299336.542,-27.832,-57.129,-30.273,-41.016,0.000
1709299336.546,-25.391,-53.711,-32.715,-30.762,0.000
1709299336.550,-30.273,-43.457,-35.645,-36.133,0.000
1709299336.554,-35.156,-35.156,-37.109,-41.016,0.000
1709299336.558,-30.273,-30.762,-34.668,-30.762,0.000
1709299336.562,-17.578,-32.227,-32.227,-13.184,0.000
1709299336.566,-20.508,-43.945,-31.738,-16.113,0.000
1709299336.569,-30.762,-41.992,-27.344,-15.625,0.000
1709299336.573,-28.320,-35.645,-29.785,-25.391,0.000
1709299336.577,-26.855,-45.410,-34.180,-36.621,0.000
1709299336.581,-34.180,-50.293,-39.062,-36.621,0.000
1709299336.585,-39.551,-42.480,-46.387,-37.109,0.000
1709299336.589,-39.062,-45.410,-41.016,-31.738,0.000
1709299336.593,-37.598,-51.270,-38.574,-18.066,0.000
1709299336.597,-31.250,-34.180,-36.621,-15.625,0.000
1709299336.601,-21.973,-36.621,-37.598,-30.273,0.000
1709299336.605,-15.137,-54.688,-41.016,-32.715,0.000
1709299336.609,-22.949,-56.641,-37.109,-34.668,0.000
1709299336.612,-34.180,-40.527,-41.992,-46.875,0.000
1709299336.616,-37.598,-25.391,-36.133,-52.246,0.000
1709299336.620,-40.527,-34.668,-32.227,-44.434,0.000
1709299336.624,-34.180,-39.062,-32.715,-37.109,0.000
1709299336.628,-31.738,-44.922,-34.668,-34.180,0.000
1709299336.632,-42.480,-59.082,-42.480,-44.434,0.000
1709299336.636,-49.805,-55.176,-45.410,-53.711,0.000
1709299336.640,-47.852,-37.598,-42.480,-40.527,0.000
1709299336.644,-29.785,-46.875,-39.062,-30.762,0.000
1709299336.648,-22.461,-47.363,-39.551,-25.391,0.000
1709299336.652,-36.133,-30.762,-40.039,-36.133,0.000
1709299336.655,-36.621,-37.109,-44.434,-51.270,0.000
1709299336.659,-27.344,-40.527,-42.969,-34.180,0.000
1709299336.663,-24.902,-53.711,-36.621,-17.578,0.000
1709299336.667,-20.996,-63.477,-33.691,-22.949,0.000
1709299336.671,-22.949,-38.574,-37.109,-27.344,0.000
1709299336.675,-30.762,-35.156,-38.574,-36.621,0.000
1709299336.679,-40.039,-49.805,-39.551,-50.293,0.000
1709299336.683,-41.992,-47.852,-43.457,-47.852,0.000
1709299336.687,-39.062,-32.715,-40.039,-37.598,0.000
1709299336.691,-42.480,-27.344,-37.598,-48.828,0.000
1709299336.694,-46.387,-51.758,-41.504,-58.594,0.000
1709299336.698,-44.434,-44.922,-41.504,-41.016,0.000
1709299336.702,-42.969,-30.273,-41.016,-24.414,0.000
1709299336.706,-44.434,-42.480,-42.969,-28.809,0.000
1709299336.710,-41.504,-53.223,-41.992,-36.621,0.000
1709299336.714,-37.598,-47.363,-36.621,-31.738,0.000
1709299336.718,-36.621,-35.645,-37.109,-27.344,0.000
1709299336.722,-36.621,-34.180,-35.645,-23.926,0.000
1709299336.726,-32.715,-29.785,-33.203,-20.508,0.000
1709299336.730,-31.250,-37.598,-35.156,-19.531,0.000
1709299336.733,-36.621,-42.969,-36.621,-25.391,0.000
1709299336.737,-40.527,-33.203,-39.062,-30.762,0.000
1709299336.741,-32.227,-37.109,-38.574,-32.227,0.000
1709299336.745,-23.926,-46.387,-37.598,-26.855,0.000
1709299336.749,-27.832,-33.691,-39.551,-30.762,0.000
1709299336.753,-32.715,-26.367,-36.133,-32.227,0.000
1709299336.757,-38.086,-32.715,-28.809,-25.879,0.000
1709299336.761,-41.504,-41.016,-35.645,-28.809,0.000
1709299336.765,-43.945,-45.410,-41.992,-25.879,0.000
1709299336.769,-47.363,-41.504,-42.480,-28.809,0.000
1709299336.773,-43.945,-45.898,-40.527,-38.574,0.000
1709299336.777,-41.016,-50.781,-35.156,-37.598,0.000
1709299336.781,-52.734,-49.316,-33.203,-38.574,0.000
1709299336.785,-51.758,-42.480,-32.715,-36.621,0.000
1709299336.788,-47.852,-38.086,-35.156,-35.156,0.000
1709299336.792,-52.734,-47.363,-37.109,-40.527,0.000
1709299336.796,-56.641,-50.781,-40.039,-50.293,0.000
1709299336.800,-55.664,-42.969,-48.828,-48.340,0.000
1709299336.804,-46.875,-45.410,-50.293,-34.668,0.000
1709299336.808,-48.828,-54.199,-46.875,-31.738,0.000
1709299336.812,-57.129,-48.340,-43.945,-39.062,0.000
1709299336.816,-62.012,-44.434,-36.133,-39.062,0.000
1709299336.820,-60.059,-47.852,-33.691,-33.203,0.000
1709299336.823,-49.805,-48.340,-31.250,-26.855,0.000
1709299336.827,-42.480,-47.852,-29.785,-27.832,0.000
1709299336.831,-32.715,-54.688,-27.832,-29.297,0.000
1709299336.835,-33.691,-46.387,-32.715,-32.715,0.000
1709299336.839,-41.504,-40.039,-40.039,-37.598,0.000
1709299336.843,-30.273,-50.293,-29.297,-28.809,0.000
1709299336.847,-24.902,-45.898,-26.855,-26.367,0.000
1709299336.851,-25.391,-49.805,-31.250,-27.344,0.000
1709299336.855,-29.297,-70.801,-30.273,-24.414,0.000
1709299336.859,-39.551,-47.363,-30.762,-41.504,0.000
1709299336.863,-42.480,-21.973,-33.691,-48.340,0.000
1709299336.867,-47.363,-27.344,-37.109,-44.922,0.000
1709299336.871,-44.434,-33.203,-33.691,-46.387,0.000
1709299336.874,-40.527,-43.457,-31.738,-41.504,0.000
1709299336.878,-41.504,-50.781,-28.320,-41.016,0.000
1709299336.882,-48.828,-46.875,-25.391,-41.504,0.000
1709299336.886,-53.223,-41.504,-29.297,-40.039,0.000
1709299336.890,-48.340,-39.551,-31.738,-40.527,0.000
1709299336.894,-46.875,-38.086,-29.785,-45.898,0.000
1709299336.898,-52.734,-34.668,-26.367,-41.016,0.000
1709299336.902,-53.223,-50.781,-31.250,-38.086,0.000
1709299336.906,-51.758,-46.875,-28.320,-37.598,0.000
1709299336.910,-58.594,-38.574,-29.785,-40.039,0.000
1709299336.914,-64.941,-36.133,-40.039,-50.293,0.000
1709299336.917,-55.664,-27.832,-38.086,-46.875,0.000
1709299336.921,-46.387,-41.016,-34.180,-43.457,0.000
1709299336.925,-43.457,-54.688,-32.227,-33.691,0.000
1709299336.929,-42.480,-46.387,-35.156,-35.156,0.000
1709299336.933,-44.434,-39.551,-34.180,-43.457,0.000
1709299336.937,-40.039,-34.180,-30.762,-42.969,0.000
1709299336.941,-38.574,-39.551,-37.109,-46.387,0.000
1709299336.945,-34.180,-49.805,-37.109,-37.598,0.000
1709299336.949,-29.785,-49.805,-36.621,-31.250,0.000
1709299336.953,-36.621,-39.551,-40.527,-40.039,0.000
1709299336.957,-43.945,-45.410,-39.062,-50.781,0.000
1709299336.961,-40.527,-51.758,-36.621,-38.574,0.000
1709299336.964,-33.203,-53.711,-36.621,-17.090,0.000
1709299336.968,-32.715,-57.129,-34.180,-20.996,0.000
1709299336.972,-45.898,-49.316,-38.574,-39.551,0.000
1709299336.976,-51.758,-40.039,-42.480,-44.434,0.000
1709299336.980,-46.387,-29.785,-38.574,-38.086,0.000
1709299336.984,-45.410,-41.992,-39.062,-34.668,0.000
1709299336.988,-38.574,-54.199,-34.668,-27.344,0.000
1709299336.992,-29.785,-40.039,-30.762,-30.762,0.000
1709299336.996,-33.203,-40.039,-35.156,-33.691,0.000
1709299337.000,-31.250,-42.969,-34.180,-23.438,0.000
1709299337.004,-31.250,-43.457,-39.551,-26.855,0.000
1709299337.007,-38.086,-37.109,-38.574,-38.086,0.000
1709299337.011,-32.227,-35.645,-32.227,-38.574,0.000
1709299337.015,-32.715,-50.781,-34.180,-40.527,0.000
1709299337.019,-47.852,-39.062,-37.598,-45.898,0.000
1709299337.023,-44.922,-37.109,-37.109,-34.668,0.000
1709299337.027,-38.574,-62.012,-39.551,-30.273,0.000
1709299337.031,-40.527,-44.434,-46.387,-40.527,0.000
1709299337.035,-42.969,-21.973,-45.410,-49.316,0.000
1709299337.039,-52.246,-36.621,-40.527,-52.246,0.000
1709299337.043,-47.852,-33.691,-37.598,-41.504,0.000
1709299337.046,-41.504,-39.062,-40.039,-33.691,0.000
1709299337.050,-42.480,-58.105,-40.527,-36.133,0.000
1709299337.054,-47.852,-46.875,-40.527,-47.852,0.000
1709299337.058,-40.039,-37.598,-38.574,-48.340,0.000
1709299337.062,-32.715,-55.664,-36.621,-26.367,0.000
1709299337.066,-37.109,-64.453,-38.574,-24.902,0.000
1709299337.070,-35.156,-40.039,-41.992,-43.457,0.000
1709299337.074,-33.691,-28.809,-33.691,-43.457,0.000
1709299337.078,-40.039,-37.109,-27.344,-35.156,0.000
1709299337.082,-54.199,-44.922,-31.250,-38.574,0.000
1709299337.086,-49.316,-52.246,-34.180,-34.668,0.000
1709299337.090,-33.691,-53.711,-28.320,-28.809,0.000
1709299337.094,-40.527,-48.340,-28.320,-36.621,0.000
1709299337.098,-50.293,-41.992,-35.156,-46.387,0.000
1709299337.101,-48.828,-41.992,-32.227,-43.945,0.000
1709299337.105,-39.062,-50.781,-32.715,-31.250,0.000
1709299337.109,-38.574,-48.340,-35.645,-31.738,0.000
1709299337.113,-32.227,-31.738,-31.738,-37.109,0.000
1709299337.117,-28.809,-32.227,-35.156,-30.273,0.000
1709299337.121,-35.156,-38.574,-39.062,-26.855,0.000
1709299337.125,-40.527,-34.180,-43.945,-31.250,0.000
1709299337.129,-33.691,-41.016,-41.016,-36.133,0.000
1709299337.133,-28.809,-47.852,-32.715,-34.180,0.000
1709299337.137,-29.785,-45.410,-34.180,-21.484,0.000
1709299337.141,-28.809,-42.969,-29.785,-16.602,0.000
1709299337.145,-37.598,-33.691,-30.762,-30.273,0.000
1709299337.149,-50.293,-27.832,-35.645,-36.133,0.000
1709299337.152,-44.434,-31.250,-33.691,-35.645,0.000
1709299337.156,-40.039,-36.621,-33.691,-26.855,0.000
1709299337.160,-40.527,-36.621,-34.180,-9.277,0.000
1709299337.164,-31.738,-44.922,-37.109,-17.578,0.000
1709299337.168,-28.320,-48.828,-35.156,-35.156,0.000
1709299337.172,-35.645,-37.109,-30.273,-25.879,0.000
1709299337.176,-31.738,-40.527,-34.668,-11.719,0.000
1709299337.180,-27.832,-33.203,-37.109,-29.297,0.000
1709299337.184,-33.691,-31.738,-38.086,-39.551,0.000
1709299337.188,-37.598,-42.969,-40.527,-39.551,0.000
1709299337.192,-41.016,-49.805,-39.062,-46.875,0.000
1709299337.196,-37.109,-51.270,-35.645,-38.574,0.000
1709299337.199,-25.879,-55.664,-39.062,-28.320,0.000
1709299337.203,-26.855,-69.336,-44.434,-31.738,0.000
1709299337.207,-42.969,-56.152,-42.969,-42.969,0.000
1709299337.211,-48.828,-37.109,-42.480,-50.781,0.000
1709299337.215,-39.551,-46.387,-37.109,-35.156,0.000
1709299337.219,-30.762,-56.641,-37.109,-16.602,0.000
1709299337.223,-34.180,-44.922,-42.480,-38.086,0.000
1709299337.227,-39.551,-33.203,-41.016,-56.641,0.000
1709299337.231,-41.992,-29.297,-38.574,-46.875,0.000
1709299337.235,-31.738,-47.852,-33.203,-33.203,0.000
1709299337.239,-26.367,-47.852,-32.227,-29.785,0.000
1709299337.243,-31.738,-19.043,-33.691,-36.133,0.000
1709299337.246,-30.762,-19.531,-38.086,-41.016,0.000
1709299337.250,-30.273,-33.691,-36.133,-41.504,0.000
1709299337.254,-30.273,-40.039,-31.250,-44.434,0.000
1709299337.258,-28.320,-41.504,-29.297,-34.668,0.000
1709299337.262,-20.508,-46.387,-29.297,-31.250,0.000
1709299337.266,-15.625,-45.898,-32.227,-28.320,0.000
1709299337.270,-29.785,-39.551,-37.598,-29.785,0.000
1709299337.274,-36.621,-41.504,-35.156,-41.016,0.000
1709299337.278,-31.250,-46.875,-28.809,-32.227,0.000
1709299337.282,-28.320,-41.992,-24.902,-23.438,0.000
1709299337.286,-39.062,-35.645,-30.762,-41.016,0.000
1709299337.290,-49.316,-37.109,-35.156,-44.922,0.000
1709299337.293,-43.457,-43.945,-34.668,-28.320,0.000
1709299337.297,-34.668,-41.992,-27.832,-23.926,0.000
1709299337.301,-36.133,-46.875,-36.621,-38.086,0.000
1709299337.305,-40.039,-44.922,-47.852,-53.711,0.000
1709299337.309,-39.062,-43.945,-36.621,-49.316,0.000
1709299337.313,-39.062,-42.969,-39.062,-37.598,0.000
1709299337.317,-30.273,-43.457,-39.551,-36.621,0.000
1709299337.321,-36.133,-54.688,-32.715,-35.645,0.000
1709299337.325,-50.781,-56.641,-34.180,-40.527,0.000
1709299337.329,-51.270,-54.199,-39.062,-41.016,0.000
1709299337.333,-51.758,-48.340,-41.504,-45.898,0.000
1709299337.336,-46.387,-46.875,-38.574,-50.293,0.000
1709299337.340,-43.945,-52.734,-40.039,-39.062,0.000
1709299337.344,-44.922,-51.270,-42.969,-42.969,0.000
1709299337.348,-43.457,-47.363,-32.227,-50.781,0.000
1709299337.352,-46.387,-46.875,-36.133,-51.758,0.000
1709299337.356,-48.828,-48.828,-44.434,-47.363,0.000
1709299337.360,-43.945,-50.781,-41.016,-38.086,0.000
1709299337.364,-41.504,-46.875,-38.086,-36.133,0.000
1709299337.368,-43.457,-49.316,-36.621,-43.457,0.000
1709299337.372,-43.945,-57.129,-35.156,-42.969,0.000
1709299337.376,-37.109,-47.852,-35.645,-34.668,0.000
1709299337.380,-44.922,-43.457,-38.086,-29.785,0.000
1709299337.384,-54.688,-44.922,-40.039,-27.832,0.000
1709299337.388,-53.223,-50.293,-47.363,-43.457,0.000
1709299337.391,-55.176,-62.988,-51.758,-43.945,0.000
1709299337.395,-47.363,-49.805,-45.898,-28.809,0.000
1709299337.399,-42.969,-40.039,-40.527,-32.227,0.000
1709299337.403,-41.504,-59.570,-42.969,-38.086,0.000
1709299337.407,-42.480,-55.176,-41.504,-37.109,0.000
1709299337.411,-56.641,-48.828,-39.551,-48.828,0.000
1709299337.415,-47.363,-48.828,-39.551,-41.504,0.000
1709299337.419,-42.969,-48.340,-41.504,-29.297,0.000
1709299337.423,-48.828,-50.781,-38.086,-30.762,0.000
1709299337.427,-51.758,-56.152,-40.527,-32.715,0.000
1709299337.430,-50.293,-63.965,-42.969,-41.992,0.000
1709299337.434,-34.668,-57.129,-43.945,-35.645,0.000
1709299337.438,-35.156,-43.945,-41.504,-26.855,0.000
1709299337.442,-42.969,-48.828,-35.156,-21.484,0.000
1709299337.446,-44.434,-51.270,-35.156,-29.297,0.000
1709299337.450,-44.922,-34.180,-41.016,-42.969,0.000
1709299337.454,-39.062,-25.391,-41.504,-38.086,0.000
1709299337.458,-29.785,-41.016,-34.180,-24.902,0.000
1709299337.462,-34.668,-59.082,-33.691,-25.879,0.000
1709299337.466,-40.527,-36.621,-39.551,-40.527,0.000
1709299337.470,-43.945,-25.879,-43.945,-53.711,0.000
1709299337.474,-44.922,-34.180,-41.992,-45.410,0.000
1709299337.478,-41.992,-25.879,-41.992,-20.020,0.000
1709299337.482,-44.434,-35.645,-45.898,-19.043,0.000
1709299337.486,-46.387,-49.316,-41.016,-41.016,0.000
1709299337.489,-44.434,-41.016,-33.203,-44.434,0.000
1709299337.493,-46.387,-25.391,-32.227,-42.480,0.000
1709299337.497,-46.387,-23.438,-42.480,-45.898,0.000
1709299337.501,-45.410,-35.156,-45.410,-40.527,0.000
1709299337.505,-44.922,-41.016,-38.574,-42.480,0.000
1709299337.509,-46.875,-35.645,-33.691,-49.805,0.000
1709299337.513,-54.199,-42.969,-35.645,-51.758,0.000
1709299337.517,-46.875,-47.852,-34.180,-39.062,0.000
1709299337.521,-40.527,-52.734,-36.133,-33.203,0.000
1709299337.525,-42.969,-62.012,-33.203,-46.387,0.000
1709299337.529,-37.109,-48.828,-23.438,-42.480,0.000
1709299337.533,-41.504,-43.457,-22.461,-32.715,0.000
1709299337.537,-46.875,-55.664,-28.809,-31.250,0.000
1709299337.540,-37.109,-55.664,-30.273,-22.461,0.000
1709299337.544,-37.598,-48.340,-31.738,-23.438,0.000
1709299337.548,-42.480,-50.293,-37.109,-38.574,0.000
1709299337.552,-32.715,-54.688,-30.273,-41.016,0.000
1709299337.556,-37.598,-51.270,-33.691,-37.109,0.000
1709299337.560,-45.410,-47.363,-35.156,-25.879,0.000
1709299337.564,-38.086,-47.363,-28.809,-11.719,0.000
1709299337.568,-28.809,-46.387,-29.785,-17.090,0.000
1709299337.572,-30.762,-48.828,-34.180,-33.691,0.000
1709299337.576,-29.297,-53.711,-33.691,-25.879,0.000
1709299337.580,-22.461,-56.641,-34.668,-1.953,0.000
1709299337.584,-29.297,-63.477,-37.109,-25.879,0.000
1709299337.587,-36.621,-52.734,-31.250,-50.293,0.000
1709299337.591,-31.738,-32.715,-28.809,-42.480,0.000
1709299337.595,-31.250,-32.715,-34.668,-43.945,0.000
1709299337.599,-31.250,-40.527,-39.551,-39.551,0.000
1709299337.603,-29.297,-46.387,-37.109,-34.180,0.000
1709299337.607,-26.855,-42.969,-35.645,-39.062,0.000
1709299337.611,-32.715,-44.922,-39.551,-43.945,0.000
1709299337.615,-35.645,-44.434,-41.504,-41.992,0.000
1709299337.619,-36.621,-40.527,-41.992,-48.828,0.000
1709299337.623,-44.922,-40.039,-37.598,-45.410,0.000
1709299337.627,-44.922,-41.992,-37.109,-44.434,0.000
1709299337.631,-46.387,-47.363,-41.992,-61.035,0.000
1709299337.634,-51.758,-53.223,-45.898,-60.059,0.000
1709299337.638,-51.270,-50.293,-48.828,-53.711,0.000
1709299337.642,-52.246,-41.016,-45.898,-48.340,0.000
1709299337.646,-51.758,-39.551,-43.457,-52.734,0.000
1709299337.650,-51.758,-41.016,-47.363,-72.266,0.000
1709299337.654,-52.246,-40.527,-43.945,-67.383,0.000
1709299337.658,-44.922,-38.574,-42.480,-46.387,0.000
1709299337.662,-38.574,-44.922,-46.387,-42.969,0.000
1709299337.666,-38.086,-41.992,-42.969,-50.781,0.000
1709299337.670,-47.363,-41.504,-41.504,-53.711,0.000
1709299337.674,-55.664,-41.504,-44.434,-45.410,0.000
1709299337.677,-44.922,-41.016,-43.457,-39.551,0.000
1709299337.681,-31.738,-41.504,-42.480,-35.645,0.000
1709299337.685,-33.203,-37.109,-41.992,-36.621,0.000
1709299337.689,-35.645,-42.969,-40.527,-38.574,0.000
1709299337.693,-32.227,-50.781,-39.551,-34.668,0.000
1709299337.697,-28.320,-48.828,-34.180,-18.066,0.000
1709299337.701,-23.926,-44.922,-25.391,-9.277,0.000
1709299337.705,-24.414,-39.062,-25.879,-21.973,0.000
1709299337.709,-32.715,-34.180,-27.832,-34.180,0.000
1709299337.713,-41.504,-32.715,-25.391,-29.297,0.000
1709299337.717,-51.270,-32.715,-27.832,-22.949,0.000
1709299337.720,-49.805,-40.039,-36.133,-41.016,0.000
1709299337.724,-32.715,-47.852,-30.762,-49.316,0.000
1709299337.728,-33.691,-54.688,-28.809,-54.688,0.000
1709299337.732,-44.922,-42.480,-39.551,-58.105,0.000
1709299337.736,-34.180,-33.691,-40.527,-41.992,0.000
1709299337.740,-22.461,-41.016,-34.668,-37.598,0.000
1709299337.744,-24.414,-41.504,-31.738,-46.387,0.000
1709299337.748,-23.438,-33.203,-29.785,-43.945,0.000
1709299337.752,-30.762,-37.109,-25.391,-40.527,0.000
1709299337.756,-32.227,-49.316,-28.809,-38.086,0.000
1709299337.759,-25.391,-51.270,-29.297,-20.508,0.000
1709299337.763,-33.203,-46.387,-27.344,-21.484,0.000
1709299337.767,-40.039,-42.480,-28.320,-32.715,0.000
1709299337.771,-40.527,-42.480,-27.832,-30.273,0.000
1709299337.775,-44.434,-53.711,-32.715,-11.230,0.000
1709299337.779,-38.574,-59.570,-34.668,-15.137,0.000
1709299337.783,-31.250,-42.969,-37.598,-31.250,0.000
1709299337.787,-39.551,-47.852,-34.668,-33.203,0.000
1709299337.791,-45.898,-49.805,-29.297,-35.156,0.000
1709299337.795,-50.293,-40.527,-31.738,-33.691,0.000
1709299337.798,-47.363,-39.551,-27.832,-22.949,0.000
1709299337.802,-45.898,-41.504,-30.762,-19.531,0.000
1709299337.806,-53.223,-51.270,-37.598,-27.344,0.000
1709299337.810,-55.176,-50.293,-37.598,-38.574,0.000
1709299337.814,-49.805,-52.734,-34.668,-44.922,0.000
1709299337.818,-49.805,-61.035,-36.621,-39.551,0.000
1709299337.822,-57.129,-51.758,-38.086,-43.945,0.000
1709299337.826,-53.223,-39.551,-38.086,-57.617,0.000
1709299337.830,-53.711,-34.668,-36.133,-58.594,0.000
1709299337.834,-59.082,-37.109,-33.691,-43.945,0.000
1709299337.838,-48.340,-33.203,-33.691,-23.926,0.000
1709299337.842,-35.156,-39.062,-33.691,-17.578,0.000
1709299337.846,-25.879,-65.430,-29.785,-21.484,0.000
1709299337.849,-31.250,-63.477,-30.762,-31.738,0.000
1709299337.853,-39.062,-40.527,-37.598,-36.133,0.000
1709299337.857,-37.109,-27.832,-35.645,-25.879,0.000
1709299337.861,-32.715,-33.203,-31.738,-19.043,0.000
1709299337.865,-32.715,-40.527,-29.785,-20.020,0.000
1709299337.869,-37.598,-39.551,-31.250,-38.574,0.000
1709299337.873,-48.340,-40.527,-33.203,-48.828,0.000
1709299337.877,-48.828,-35.156,-29.297,-32.715,0.000
1709299337.881,-36.621,-39.062,-26.855,-26.855,0.000
1709299337.885,-30.762,-42.480,-31.250,-31.738,0.000
1709299337.889,-36.133,-43.945,-32.227,-30.762,0.000
1709299337.893,-35.156,-44.922,-25.879,-36.621,0.000
1709299337.897,-38.086,-45.410,-24.414,-39.062,0.000
1709299337.900,-40.039,-52.246,-27.832,-37.109,0.000
1709299337.904,-39.062,-49.805,-26.855,-53.223,0.000
1709299337.908,-50.781,-52.734,-28.320,-63.965,0.000
1709299337.912,-55.664,-55.664,-32.715,-57.129,0.000
1709299337.916,-54.199,-50.293,-27.832,-47.852,0.000
1709299337.920,-47.852,-47.852,-23.926,-38.574,0.000
1709299337.924,-43.945,-47.363,-29.785,-41.504,0.000
1709299337.928,-42.480,-51.758,-27.832,-41.504,0.000
1709299337.932,-36.133,-59.570,-22.461,-41.504,0.000
1709299337.936,-32.715,-46.387,-23.438,-42.480,0.000
1709299337.940,-27.344,-32.715,-22.461,-27.344,0.000
1709299337.944,-20.020,-35.645,-22.949,-19.043,0.000
1709299337.947,-17.090,-46.875,-27.832,-29.785,0.000
1709299337.951,-23.926,-47.852,-33.203,-39.062,0.000
1709299337.955,-29.785,-42.480,-29.785,-26.367,0.000
1709299337.959,-17.090,-41.992,-25.879,-14.648,0.000
1709299337.963,-10.254,-43.457,-25.879,-15.137,0.000
1709299337.967,-12.695,-45.410,-22.949,-23.438,0.000
1709299337.971,-17.578,-44.922,-25.879,-31.250,0.000
1709299337.975,-15.625,-44.922,-28.320,-21.973,0.000
1709299337.979,-14.648,-44.922,-25.879,-16.113,0.000
1709299337.983,-16.602,-40.039,-25.391,-22.461,0.000
1709299337.987,-25.391,-33.203,-25.879,-37.109,0.000
1709299337.991,-27.832,-39.062,-27.832,-43.945,0.000
1709299337.994,-25.391,-46.387,-23.438,-37.598,0.000
1709299337.998,-23.926,-49.316,-23.438,-26.367,0.000
1709299338.002,-22.949,-50.781,-29.297,-28.809,0.000
1709299338.006,-31.250,-47.363,-27.344,-48.340,0.000
1709299338.010,-34.180,-47.852,-28.809,-57.129,0.000
1709299338.014,-35.645,-47.852,-29.785,-51.270,0.000
1709299338.018,-37.598,-47.852,-29.785,-39.062,0.000
1709299338.022,-39.062,-42.969,-33.691,-38.574,0.000
1709299338.026,-49.805,-43.945,-35.156,-52.246,0.000
1709299338.030,-59.082,-56.152,-31.250,-62.988,0.000
1709299338.034,-59.570,-44.434,-28.320,-55.664,0.000
1709299338.037,-46.875,-29.785,-27.832,-46.387,0.000
1709299338.041,-37.109,-33.691,-20.996,-43.945,0.000
1709299338.045,-38.086,-34.180,-17.090,-32.715,0.000
1709299338.049,-45.410,-36.133,-22.949,-36.133,0.000
1709299338.053,-51.270,-41.504,-30.273,-37.598,0.000
1709299338.057,-39.551,-41.016,-26.367,-21.484,0.000
1709299338.061,-41.016,-42.480,-15.137,-14.648,0.000
1709299338.065,-49.805,-42.969,-19.043,-34.668,0.000
1709299338.069,-48.828,-39.551,-26.855,-46.387,0.000
1709299338.073,-47.852,-41.016,-28.809,-39.062,0.000
1709299338.077,-45.898,-36.133,-30.273,-34.668,0.000
1709299338.080,-44.922,-38.574,-35.645,-34.180,0.000
1709299338.084,-45.898,-45.898,-31.738,-38.086,0.000
1709299338.088,-45.410,-42.969,-29.785,-36.621,0.000
1709299338.092,-51.758,-36.621,-27.832,-42.480,0.000
1709299338.096,-54.688,-36.621,-23.438,-45.410,0.000
1709299338.100,-41.992,-40.039,-23.926,-32.227,0.000
1709299338.104,-32.227,-42.480,-24.414,-30.273,0.000
1709299338.108,-31.738,-46.387,-27.832,-44.922,0.000
1709299338.112,-33.691,-49.316,-34.180,-50.781,0.000
1709299338.116,-41.992,-53.711,-35.645,-52.246,0.000
1709299338.119,-33.691,-48.340,-27.832,-40.527,0.000
1709299338.123,-24.414,-35.645,-24.414,-35.156,0.000
1709299338.127,-31.738,-34.668,-29.297,-45.898,0.000
1709299338.131,-30.762,-42.480,-28.809,-42.480,0.000
1709299338.135,-24.902,-44.922,-27.344,-23.926,0.000
1709299338.139,-30.762,-41.016,-32.715,-26.855,0.000
1709299338.143,-28.809,-34.668,-34.668,-29.785,0.000
1709299338.147,-27.832,-38.086,-39.062,-33.691,0.000
1709299338.151,-32.715,-42.480,-32.715,-38.574,0.000
1709299338.155,-36.133,-61.523,-27.832,-25.879,0.000
1709299338.158,-36.621,-62.988,-31.250,-27.344,0.000
1709299338.162,-27.344,-41.016,-24.414,-24.902,0.000
1709299338.166,-26.855,-40.527,-24.902,-24.902,0.000
1709299338.170,-40.039,-41.504,-33.203,-38.574,0.000
1709299338.174,-40.039,-40.039,-28.809,-38.086,0.000
1709299338.178,-28.320,-40.527,-25.391,-20.996,0.000
1709299338.182,-29.297,-41.504,-29.785,-15.625,0.000
1709299338.186,-35.156,-41.016,-30.273,-26.855,0.000
1709299338.190,-37.598,-41.016,-30.273,-34.180,0.000
1709299338.194,-34.668,-44.434,-26.855,-35.156,0.000
1709299338.197,-37.109,-52.246,-27.344,-33.691,0.000
1709299338.201,-40.527,-50.781,-32.227,-36.621,0.000
1709299338.206,-45.898,-37.109,-28.320,-40.039,0.000
1709299338.209,-49.316,-36.621,-27.344,-44.922,0.000
1709299338.213,-41.504,-40.039,-29.785,-49.316,0.000
1709299338.217,-35.156,-47.363,-21.973,-41.504,0.000
1709299338.221,-36.133,-62.988,-18.555,-27.344,0.000
1709299338.225,-32.227,-56.641,-20.996,-29.785,0.000
1709299338.229,-32.227,-40.039,-17.090,-37.598,0.000
1709299338.233,-40.527,-33.691,-20.996,-39.551,0.000
1709299338.237,-40.527,-33.691,-26.855,-21.973,0.000
1709299338.241,-32.715,-41.016,-22.461,0.977,0.000
1709299338.245,-32.715,-46.875,-24.414,-26.367,0.000
1709299338.248,-36.133,-40.527,-25.391,-47.852,0.000
1709299338.253,-36.621,-42.480,-26.855,-36.621,0.000
1709299338.256,-34.180,-42.969,-28.320,-33.203,0.000
1709299338.260,-32.715,-38.574,-28.320,-29.297,0.000
1709299338.264,-44.434,-50.781,-41.504,-34.668,0.000
1709299338.268,-47.852,-48.340,-41.504,-51.758,0.000
1709299338.272,-39.062,-36.621,-27.832,-49.316,0.000
1709299338.276,-36.133,-36.621,-21.484,-32.227,0.000
1709299338.280,-37.109,-35.645,-23.438,-31.250,0.000
1709299338.284,-39.062,-42.480,-31.250,-36.133,0.000
1709299338.288,-41.992,-49.805,-26.855,-25.391,0.000
1709299338.292,-46.387,-52.734,-26.855,-39.551,0.000
1709299338.296,-54.199,-48.340,-39.062,-49.805,0.000
