timestamps,TP9,AF7,AF8,TP10,Right AUX
1709374364.983,15.625,-26.367,-31.250,10.742,0.000
1709374364.986,-20.020,-28.320,-32.715,-18.066,0.000
1709374364.990,-55.176,-31.250,-36.621,-51.270,0.000
1709374364.994,-54.688,-36.133,-32.715,-50.293,0.000
1709374364.998,-23.926,-33.691,-34.180,-19.531,0.000
1709374365.002,12.695,-33.203,-39.062,6.348,0.000
1709374365.006,-18.066,-31.738,-37.109,-26.855,0.000
1709374365.010,-56.152,-33.203,-36.621,-58.105,0.000
1709374365.014,-56.152,-37.109,-40.039,-49.316,0.000
1709374365.018,-35.645,-38.574,-44.922,-29.785,0.000
1709374365.022,0.977,-42.480,-48.828,-1.465,0.000
1709374365.026,-11.719,-40.527,-38.086,-9.277,0.000
1709374365.030,-49.805,-33.691,-36.621,-50.781,0.000
1709374365.033,-54.688,-31.738,-41.504,-63.477,0.000
1709374365.037,-36.621,-34.180,-39.551,-46.387,0.000
1709374365.041,9.277,-34.668,-42.480,-7.324,0.000
1709374365.045,4.395,-32.715,-43.945,-19.531,0.000
1709374365.049,-45.410,-32.227,-40.527,-60.547,0.000
1709374365.053,-55.176,-27.832,-32.715,-69.336,0.000
1709374365.057,-37.109,-25.391,-25.879,-50.293,0.000
1709374365.061,-5.859,-34.180,-27.832,-1.953,0.000
1709374365.065,-10.254,-39.062,-34.180,-9.277,0.000
1709374365.069,-53.711,-39.551,-35.156,-51.758,0.000
1709374365.072,-68.359,-39.551,-36.621,-63.477,0.000
1709374365.076,-47.363,-37.109,-38.086,-43.945,0.000
1709374365.080,-9.277,-36.621,-39.062,-4.883,0.000
1709374365.084,-10.742,-39.062,-38.574,-6.836,0.000
1709374365.088,-55.664,-40.039,-39.062,-50.781,0.000
1709374365.092,-74.219,-40.039,-39.551,-65.430,0.000
1709374365.096,-55.664,-39.062,-35.645,-52.246,0.000
1709374365.100,-10.742,-39.062,-37.598,-21.484,0.000
1709374365.104,10.254,-42.480,-39.062,-4.883,0.000
1709374365.108,-37.598,-42.480,-40.039,-36.621,0.000
1709374365.111,-65.430,-45.410,-38.574,-69.824,0.000
1709374365.115,-55.176,-48.828,-38.086,-65.430,0.000
1709374365.119,-18.555,-40.527,-40.527,-27.832,0.000
1709374365.123,3.418,-38.086,-47.852,-8.301,0.000
1709374365.127,-43.945,-39.062,-48.828,-44.434,0.000
1709374365.131,-77.148,-40.039,-46.875,-68.359,0.000
1709374365.135,-67.871,-41.992,-51.270,-59.570,0.000
1709374365.139,-24.414,-40.527,-46.387,-23.438,0.000
1709374365.143,7.324,-40.527,-40.527,2.441,0.000
1709374365.147,-35.156,-40.527,-40.039,-33.203,0.000
1709374365.150,-67.871,-38.574,-39.551,-66.895,0.000
1709374365.154,-56.641,-36.621,-41.992,-62.500,0.000
1709374365.158,-22.949,-39.062,-41.992,-34.180,0.000
1709374365.162,10.742,-40.039,-40.527,-2.441,0.000
1709374365.166,-21.973,-37.109,-37.109,-20.996,0.000
1709374365.170,-64.453,-40.039,-35.156,-50.781,0.000
1709374365.174,-66.895,-40.527,-35.645,-55.664,0.000
1709374365.178,-37.109,-39.062,-35.156,-36.133,0.000
1709374365.181,-6.348,-41.504,-37.109,-2.441,0.000
1709374365.185,-26.855,-44.922,-35.156,-20.508,0.000
1709374365.189,-58.594,-41.504,-34.668,-59.082,0.000
1709374365.193,-61.523,-31.738,-34.668,-59.082,0.000
1709374365.197,-37.109,-34.180,-34.180,-30.273,0.000
1709374365.201,1.953,-41.992,-33.203,-0.488,0.000
1709374365.205,-17.578,-41.992,-33.691,-22.949,0.000
1709374365.209,-65.430,-43.945,-35.645,-64.453,0.000
1709374365.213,-71.777,-40.527,-34.180,-66.406,0.000
1709374365.216,-43.457,-31.250,-36.133,-44.922,0.000
1709374365.220,2.441,-30.762,-37.109,-3.906,0.000
1709374365.224,-2.930,-31.250,-32.715,-8.301,0.000
1709374365.228,-55.664,-30.762,-37.109,-52.734,0.000
1709374365.232,-67.383,-29.785,-37.598,-61.523,0.000
1709374365.236,-38.574,-29.785,-35.645,-41.992,0.000
1709374365.240,7.812,-37.109,-41.992,-1.465,0.000
1709374365.244,2.441,-39.551,-43.457,-10.254,0.000
1709374365.247,-48.340,-34.668,-38.086,-52.246,0.000
1709374365.251,-61.523,-30.273,-32.227,-56.152,0.000
1709374365.255,-44.922,-33.203,-33.691,-47.363,0.000
1709374365.259,-2.930,-36.621,-40.039,-12.207,0.000
1709374365.263,11.230,-32.227,-36.133,0.488,0.000
1709374365.267,-32.715,-32.715,-31.250,-41.016,0.000
1709374365.270,-63.477,-32.715,-29.297,-65.918,0.000
1709374365.274,-50.781,-35.645,-32.227,-48.828,0.000
1709374365.278,-8.301,-41.504,-36.621,-17.090,0.000
1709374365.282,4.883,-40.527,-34.180,-5.859,0.000
1709374365.286,-37.109,-39.551,-32.715,-35.156,0.000
1709374365.290,-63.477,-44.922,-34.668,-54.688,0.000
1709374365.294,-55.664,-39.551,-35.156,-44.922,0.000
1709374365.298,-14.160,-34.668,-34.180,-5.859,0.000
1709374365.302,9.277,-35.156,-33.691,12.207,0.000
1709374365.306,-32.227,-31.738,-34.180,-28.320,0.000
1709374365.310,-61.523,-34.180,-38.086,-55.664,0.000
1709374365.314,-59.082,-35.156,-40.039,-56.641,0.000
1709374365.318,-26.367,-31.250,-37.598,-32.227,0.000
1709374365.322,1.953,-34.668,-40.039,-15.625,0.000
1709374365.326,-29.785,-32.715,-33.203,-37.109,0.000
1709374365.329,-68.848,-32.715,-32.227,-62.500,0.000
1709374365.333,-79.590,-33.691,-36.621,-68.359,0.000
1709374365.337,-41.992,-38.086,-34.668,-34.668,0.000
1709374365.341,0.977,-37.109,-27.344,7.324,0.000
1709374365.345,-36.621,-32.715,-27.344,-14.160,0.000
1709374365.349,-76.660,-33.203,-35.156,-49.805,0.000
1709374365.353,-71.777,-38.574,-33.691,-52.246,0.000
1709374365.357,-45.410,-39.062,-29.297,-31.738,0.000
1709374365.361,-8.301,-40.039,-37.598,-3.418,0.000
1709374365.365,-25.391,-39.062,-35.156,-22.949,0.000
1709374365.369,-64.453,-35.156,-27.832,-50.293,0.000
1709374365.373,-66.895,-36.133,-28.320,-52.734,0.000
1709374365.377,-34.668,-38.574,-33.691,-30.762,0.000
1709374365.380,12.695,-38.574,-37.109,2.441,0.000
1709374365.384,-2.930,-32.715,-38.086,-15.625,0.000
1709374365.388,-42.969,-31.738,-33.691,-43.457,0.000
1709374365.392,-55.176,-37.109,-32.715,-47.852,0.000
1709374365.396,-46.387,-36.621,-35.645,-49.805,0.000
1709374365.400,1.465,-32.227,-35.156,-12.695,0.000
1709374365.405,3.906,-25.391,-34.180,0.000,0.000
1709374365.408,-52.246,-25.879,-39.062,0.000,0.000
1709374365.412,-76.660,-31.738,-41.016,0.000,0.000
1709374365.416,-53.711,-33.691,-42.969,0.000,0.000
1709374365.420,-1.465,-38.574,-42.969,0.000,0.000
1709374365.424,-0.977,-37.109,-40.527,0.000,0.000
1709374365.428,-48.340,-31.738,-38.574,0.000,0.000
1709374365.432,-66.406,-34.668,-38.086,0.000,0.000
1709374365.436,-49.316,-42.969,-40.039,0.000,0.000
1709374365.440,-2.930,-41.016,-43.457,0.000,0.000
1709374365.444,1.465,-36.133,-44.922,0.000,0.000
1709374365.447,-38.086,-37.598,-44.434,0.000,0.000
1709374365.451,-45.410,-29.785,-43.457,-44.922,0.000
1709374365.455,-52.246,-15.625,-45.898,-57.129,0.000
1709374365.459,-22.949,-13.672,-53.711,-40.039,0.000
1709374365.463,9.277,-10.742,-56.641,-15.137,0.000
1709374365.467,-20.020,-1.953,-55.664,-38.574,0.000
1709374365.471,-49.805,6.348,-55.664,-66.406,0.000
1709374365.475,-41.992,15.137,-61.035,-65.918,0.000
1709374365.479,19.531,23.926,-61.523,-18.066,0.000
1709374365.483,61.523,32.715,-53.711,14.648,0.000
1709374365.487,23.926,47.363,-60.059,-27.344,0.000
1709374365.490,-11.719,57.129,-63.965,-56.641,0.000
1709374365.494,-8.789,63.477,-60.547,-47.852,0.000
1709374365.498,24.414,71.289,-62.988,-20.508,0.000
1709374365.502,50.293,75.195,-67.383,1.953,0.000
1709374365.506,18.066,79.102,-68.848,-15.625,0.000
1709374365.510,-3.906,86.426,-71.777,-38.574,0.000
1709374365.514,1.465,94.238,-78.125,-43.457,0.000
1709374365.518,23.926,96.191,-78.125,-16.113,0.000
1709374365.521,65.430,100.098,-76.172,20.996,0.000
1709374365.525,59.570,110.352,-79.102,16.113,0.000
1709374365.529,17.578,116.211,-79.590,-15.625,0.000
1709374365.533,12.695,119.629,-81.543,-32.227,0.000
1709374365.537,53.711,127.441,-87.891,-4.395,0.000
1709374365.541,93.262,125.000,-86.914,45.898,0.000
1709374365.547,70.312,121.094,-81.055,30.273,0.000
1709374365.551,38.086,128.418,-85.449,-2.930,0.000
1709374365.555,31.738,127.441,-88.379,-7.324,0.000
1709374365.559,48.828,125.488,-88.867,5.371,0.000
1709374365.562,91.797,132.324,-91.309,41.016,0.000
1709374365.566,81.055,131.348,-86.914,39.062,0.000
1709374365.570,39.551,125.488,-82.031,12.695,0.000
1709374365.574,27.832,125.977,-77.637,4.883,0.000
1709374365.578,51.270,127.441,-75.195,20.508,0.000
1709374365.582,87.402,118.652,-76.660,51.758,0.000
1709374365.586,73.730,108.398,-79.590,42.969,0.000
1709374365.590,28.809,106.445,-78.613,0.977,0.000
1709374365.593,13.672,99.609,-72.754,-13.184,0.000
1709374365.597,29.785,89.355,-76.660,2.441,0.000
1709374365.601,78.125,81.543,-75.684,41.016,0.000
1709374365.605,80.078,70.312,-68.359,40.039,0.000
1709374365.609,25.391,61.523,-64.941,-1.953,0.000
1709374365.613,-3.418,54.688,-64.941,-18.555,0.000
1709374365.617,7.324,47.363,-62.988,-4.395,0.000
1709374365.621,47.363,45.898,-57.617,31.250,0.000
1709374365.624,54.688,44.922,-56.641,30.273,0.000
1709374365.628,7.324,41.504,-60.547,-16.602,0.000
1709374365.632,-18.555,36.621,-58.105,-33.691,0.000
1709374365.636,-7.812,28.809,-60.059,-27.832,0.000
1709374365.640,35.645,25.879,-63.965,-1.953,0.000
1709374365.644,44.922,19.531,-63.965,6.836,0.000
1709374365.648,-2.930,10.742,-58.105,-22.461,0.000
1709374365.652,-36.133,8.789,-55.664,-44.434,0.000
1709374365.656,-33.691,7.812,-53.223,-42.969,0.000
1709374365.660,14.160,10.742,-45.898,0.977,0.000
1709374365.664,44.922,15.137,-46.387,28.809,0.000
1709374365.668,2.441,13.184,-44.922,-11.719,0.000
1709374365.672,-31.738,13.184,-41.992,-37.598,0.000
1709374365.676,-27.344,12.695,-45.410,-28.809,0.000
1709374365.679,2.930,6.836,-45.898,-7.812,0.000
1709374365.683,32.227,5.859,-45.410,8.301,0.000
1709374365.687,0.488,10.254,-46.387,-16.113,0.000
1709374365.691,-41.504,0.977,-44.434,-48.340,0.000
1709374365.695,-38.574,-8.301,-44.922,-49.316,0.000
1709374365.699,-7.324,-13.672,-47.363,-25.879,0.000
1709374365.703,31.250,-14.648,-46.387,7.812,0.000
1709374365.707,5.371,-11.719,-41.504,-6.348,0.000
1709374365.711,-43.945,-10.742,-42.480,-46.875,0.000
1709374365.715,-40.039,-7.812,-45.410,-52.734,0.000
1709374365.719,-13.184,-8.301,-47.852,-29.785,0.000
1709374365.723,13.184,-13.184,-54.199,8.301,0.000
1709374365.727,-3.906,-11.719,-53.223,-7.324,0.000
1709374365.730,-54.688,-11.230,-48.828,-52.734,0.000
1709374365.734,-67.871,-18.555,-50.781,-63.965,0.000
1709374365.738,-42.969,-22.949,-55.664,-51.270,0.000
1709374365.742,1.465,-19.043,-52.246,-17.578,0.000
1709374365.746,-7.324,-21.973,-48.828,-15.625,0.000
1709374365.750,-51.758,-23.438,-44.434,-43.945,0.000
1709374365.754,-63.477,-23.926,-39.062,-52.246,0.000
1709374365.758,-45.898,-29.297,-41.504,-41.504,0.000
1709374365.762,-2.441,-31.250,-41.016,-9.277,0.000
1709374365.766,-7.324,-25.391,-35.645,1.953,0.000
1709374365.770,-61.035,-24.902,-38.086,-33.691,0.000
1709374365.773,-72.266,-25.391,-36.133,-60.547,0.000
1709374365.777,-54.688,-28.320,-35.645,-56.641,0.000
1709374365.781,-14.648,-34.668,-40.527,-21.973,0.000
1709374365.785,-7.324,-35.645,-35.645,-10.742,0.000
1709374365.789,-55.176,-33.691,-33.203,-44.922,0.000
1709374365.793,-77.148,-32.227,-34.668,-59.570,0.000
1709374365.797,-63.477,-37.598,-39.062,-46.387,0.000
1709374365.801,-21.484,-46.875,-41.992,-12.207,0.000
1709374365.805,-8.301,-41.016,-36.621,8.301,0.000
1709374365.809,-50.293,-30.762,-37.109,-19.531,0.000
1709374365.812,-70.312,-33.691,-40.527,-38.086,0.000
1709374365.816,-53.223,-34.180,-40.039,-47.363,0.000
1709374365.820,-14.648,-36.133,-39.062,-26.367,0.000
1709374365.824,6.836,-34.668,-38.086,-1.953,0.000
1709374365.829,-28.320,-30.273,-37.109,-32.227,0.000
1709374365.832,-63.965,-32.715,-35.645,-61.523,0.000
1709374365.836,-57.129,-33.203,-33.203,-62.012,0.000
1709374365.840,-18.555,-29.297,-36.621,-30.273,0.000
1709374365.844,11.230,-30.273,-40.039,-0.488,0.000
1709374365.848,-22.461,-32.715,-40.039,-37.109,0.000
1709374365.852,-55.664,-31.250,-37.109,-64.453,0.000
1709374365.856,-50.781,-29.785,-32.227,-49.316,0.000
1709374365.860,-21.973,-35.645,-35.156,-22.461,0.000
1709374365.864,5.859,-41.992,-41.992,-7.324,0.000
1709374365.868,-30.762,-36.621,-42.480,-40.039,0.000
1709374365.871,-55.664,-30.273,-37.598,-54.199,0.000
1709374365.875,-51.758,-26.855,-40.527,-46.875,0.000
1709374365.879,-38.086,-25.391,-46.875,-39.062,0.000
1709374365.883,-3.418,-26.855,-41.016,-15.137,0.000
1709374365.887,-24.414,-24.414,-39.551,-25.879,0.000
1709374365.891,-61.035,-20.508,-41.992,-54.688,0.000
1709374365.895,-66.406,-20.508,-41.016,-64.941,0.000
1709374365.899,-46.387,-24.414,-38.574,-41.016,0.000
1709374365.902,-2.930,-22.461,-42.480,5.859,0.000
1709374365.906,-18.555,-19.043,-44.922,-17.578,0.000
1709374365.910,-61.035,-24.902,-41.504,-59.082,0.000
1709374365.914,-63.477,-29.785,-41.016,-62.012,0.000
1709374365.918,-40.039,-25.391,-40.527,-45.410,0.000
1709374365.922,6.348,-24.414,-41.016,-7.812,0.000
1709374365.926,-2.930,-31.250,-42.969,-6.348,0.000
1709374365.929,-52.734,-33.691,-47.852,-52.246,0.000
1709374365.933,-69.336,-31.738,-44.922,-69.336,0.000
1709374365.937,-58.594,-33.203,-42.969,-55.176,0.000
1709374365.941,-13.184,-32.227,-45.410,-20.508,0.000
1709374365.945,-0.977,-30.762,-42.969,-3.418,0.000
1709374365.949,-52.734,-33.203,-42.480,-40.527,0.000
1709374365.953,-77.637,-32.227,-40.527,-67.871,0.000
1709374365.957,-61.035,-32.715,-40.039,-53.711,0.000
1709374365.961,-15.137,-31.738,-42.969,-14.648,0.000
1709374365.965,4.883,-33.691,-39.551,-6.348,0.000
1709374365.968,-40.527,-38.574,-34.668,-46.875,0.000
1709374365.972,-63.477,-34.180,-32.227,-60.059,0.000
1709374365.976,-48.828,-33.691,-33.691,-51.270,0.000
1709374365.980,-8.789,-35.156,-34.668,-24.414,0.000
1709374365.984,6.836,-37.109,-35.645,-12.695,0.000
1709374365.988,-44.434,-37.109,-33.691,-52.734,0.000
1709374365.991,-77.148,-34.180,-34.180,-68.359,0.000
1709374365.995,-69.824,-37.109,-42.480,-65.918,0.000
1709374365.999,-32.715,-41.016,-44.434,-37.598,0.000
1709374366.003,1.953,-38.574,-41.504,-11.230,0.000
1709374366.007,-30.762,-41.016,-40.039,-41.992,0.000
1709374366.011,-64.941,-46.875,-45.898,-68.848,0.000
1709374366.015,-63.965,-41.504,-48.828,-62.500,0.000
1709374366.019,-35.645,-40.039,-42.969,-29.297,0.000
1709374366.023,-3.418,-43.945,-41.992,-2.930,0.000
1709374366.027,-29.785,-38.574,-41.016,-31.738,0.000
1709374366.031,-64.453,-32.715,-38.086,-57.129,0.000
1709374366.035,-63.477,-32.715,-37.598,-56.641,0.000
1709374366.039,-26.367,-33.203,-35.645,-40.039,0.000
1709374366.043,15.625,-31.738,-36.133,-6.348,0.000
1709374366.046,-17.578,-34.180,-37.598,-26.855,0.000
1709374366.050,-60.059,-29.297,-34.180,-59.082,0.000
1709374366.054,-60.059,-25.879,-34.668,-61.523,0.000
1709374366.058,-35.645,-31.738,-40.039,-45.410,0.000
1709374366.062,4.883,-38.574,-43.945,-5.859,0.000
1709374366.066,-9.277,-32.715,-45.898,-13.184,0.000
1709374366.070,-49.805,-26.367,-42.480,-53.223,0.000
1709374366.074,-54.199,-31.738,-40.039,-64.453,0.000
1709374366.078,-29.785,-33.691,-40.527,-36.133,0.000
1709374366.082,9.277,-32.715,-37.598,6.836,0.000
1709374366.086,-6.348,-34.180,-36.133,-12.695,0.000
1709374366.090,-48.828,-33.203,-33.691,-47.363,0.000
1709374366.094,-51.758,-33.691,-32.715,-48.828,0.000
1709374366.097,-38.574,-28.809,-32.715,-40.527,0.000
1709374366.101,-2.441,-28.320,-36.133,-6.348,0.000
1709374366.105,1.953,-30.762,-39.062,-7.812,0.000
1709374366.109,-44.434,-26.367,-39.551,-49.316,0.000
1709374366.113,-63.477,-26.855,-39.551,-60.059,0.000
1709374366.117,-45.898,-32.715,-39.062,-50.293,0.000
1709374366.121,-4.395,-31.250,-39.062,-17.090,0.000
1709374366.125,-3.418,-28.320,-43.945,-10.742,0.000
1709374366.129,-50.781,-26.367,-39.551,-43.457,0.000
1709374366.133,-73.242,-33.691,-34.668,-65.918,0.000
1709374366.137,-69.824,-40.527,-37.598,-70.312,0.000
1709374366.140,-29.785,-39.062,-37.109,-36.621,0.000
1709374366.144,-8.301,-36.133,-39.551,-9.766,0.000
1709374366.148,-40.527,-35.156,-43.457,-39.062,0.000
1709374366.152,-69.336,-38.086,-37.109,-63.477,0.000
1709374366.156,-76.172,-42.969,-31.738,-67.383,0.000
1709374366.160,-34.180,-44.434,-33.691,-27.832,0.000
1709374366.164,-0.488,-47.363,-33.203,1.465,0.000
1709374366.168,-32.227,-46.387,-30.762,-32.715,0.000
1709374366.172,-65.430,-38.574,-33.691,-61.523,0.000
1709374366.176,-60.059,-36.133,-35.156,-56.641,0.000
1709374366.180,-19.043,-38.574,-38.086,-23.926,0.000
1709374366.183,11.230,-38.086,-38.086,2.441,0.000
1709374366.187,-21.973,-32.227,-31.250,-14.648,0.000
1709374366.191,-68.359,-32.715,-40.039,-49.316,0.000
1709374366.195,-63.477,-38.086,-41.504,-59.082,0.000
1709374366.199,-23.926,-34.180,-38.574,-32.715,0.000
1709374366.203,1.953,-36.133,-41.992,-3.418,0.000
1709374366.207,-31.738,-42.969,-43.945,-29.785,0.000
1709374366.211,-72.266,-39.062,-44.434,-60.547,0.000
1709374366.215,-73.730,-33.691,-43.457,-66.406,0.000
1709374366.218,-35.156,-37.598,-41.504,-47.852,0.000
1709374366.222,7.812,-38.086,-40.039,-0.977,0.000
1709374366.226,-18.555,-35.645,-42.480,-21.973,0.000
1709374366.230,-58.105,-34.180,-39.062,-59.082,0.000
1709374366.234,-64.941,-33.203,-38.574,-54.688,0.000
1709374366.238,-38.086,-36.621,-41.992,-38.574,0.000
1709374366.242,1.465,-34.668,-41.504,-7.324,0.000
1709374366.246,-17.090,-33.691,-36.621,-12.695,0.000
1709374366.249,-61.035,-41.016,-33.691,-48.828,0.000
1709374366.253,-66.406,-37.109,-37.109,-59.082,0.000
1709374366.257,-42.969,-32.715,-33.203,-38.574,0.000
1709374366.261,-1.465,-37.598,-34.668,-2.441,0.000
1709374366.265,-4.883,-40.527,-33.691,-8.789,0.000
1709374366.269,-48.828,-39.551,-28.809,-51.270,0.000
1709374366.273,-71.289,-39.062,-32.227,-60.547,0.000
1709374366.277,-57.617,-38.086,-34.180,-41.016,0.000
1709374366.281,-11.719,-39.551,-35.645,-1.465,0.000
1709374366.285,-6.348,-41.992,-33.203,-0.977,0.000
1709374366.288,-52.734,-42.480,-31.250,-43.457,0.000
1709374366.292,-78.125,-43.945,-27.344,-56.641,0.000
1709374366.296,-65.918,-41.016,-26.367,-46.387,0.000
1709374366.300,-20.020,-42.480,-27.344,-10.254,0.000
1709374366.304,1.953,-43.457,-23.438,-2.930,0.000
1709374366.308,-37.598,-38.574,-29.785,-43.457,0.000
1709374366.312,-60.547,-32.227,-33.691,-57.129,0.000
1709374366.315,-46.387,-29.297,-31.738,-50.293,0.000
1709374366.319,-10.254,-27.832,-33.691,-12.207,0.000
1709374366.323,4.883,-31.250,-37.598,2.441,0.000
1709374366.327,-39.062,-29.785,-35.645,-39.062,0.000
1709374366.331,-68.359,-29.785,-32.715,-58.105,0.000
1709374366.335,-53.711,-40.527,-35.156,-59.082,0.000
1709374366.339,-14.160,-38.574,-34.180,-29.785,0.000
1709374366.342,10.254,-30.273,-32.715,2.441,0.000
1709374366.346,-28.809,-30.273,-33.691,-31.250,0.000
1709374366.350,-71.777,-36.621,-37.109,-62.012,0.000
1709374366.354,-70.312,-44.922,-38.086,-59.082,0.000
1709374366.358,-30.273,-46.875,-37.109,-28.320,0.000
1709374366.362,5.859,-44.922,-35.156,-0.977,0.000
1709374366.366,-21.484,-42.969,-34.668,-23.438,0.000
1709374366.370,-54.199,-44.434,-35.156,-55.664,0.000
1709374366.374,-56.152,-44.434,-36.621,-57.129,0.000
1709374366.378,-24.414,-39.551,-35.156,-20.508,0.000
1709374366.381,11.719,-39.062,-37.598,12.207,0.000
1709374366.385,-18.555,-36.621,-36.133,-7.812,0.000
1709374366.390,-57.129,-41.504,-35.156,-36.621,0.000
1709374366.394,-61.035,-42.480,-38.574,-45.410,0.000
1709374366.397,-28.320,-34.668,-37.598,-20.996,0.000
1709374366.401,20.020,-32.227,-36.621,16.113,0.000
1709374366.405,-1.465,-33.691,-35.645,-13.672,0.000
1709374366.409,-46.875,-36.621,-34.668,-52.734,0.000
1709374366.413,-50.293,-41.504,-28.809,-59.082,0.000
1709374366.417,-24.414,-40.527,-28.320,-46.387,0.000
1709374366.421,6.836,-36.621,-39.551,-8.301,0.000
1709374366.425,-16.113,-33.691,-39.551,-10.742,0.000
1709374366.429,-64.941,-32.715,-37.109,-56.152,0.000
1709374366.433,-73.730,-30.762,-37.598,-65.918,0.000
1709374366.437,-53.711,-36.133,-39.551,-47.363,0.000
1709374366.441,-8.789,-40.527,-41.016,-13.672,0.000
1709374366.445,-8.301,-34.668,-34.668,-14.648,0.000
1709374366.449,-58.594,-35.645,-32.715,-51.270,0.000
1709374366.452,-73.242,-38.086,-35.156,-65.430,0.000
1709374366.456,-47.852,-38.086,-32.715,-54.199,0.000
1709374366.460,-9.277,-38.574,-31.250,-23.438,0.000
1709374366.464,-13.672,-40.039,-35.156,-20.996,0.000
1709374366.468,-61.523,-40.039,-33.691,-51.270,0.000
1709374366.472,-82.520,-33.691,-30.762,-56.152,0.000
1709374366.476,-69.824,-34.180,-32.715,-51.270,0.000
1709374366.480,-22.949,-31.738,-33.691,-17.090,0.000
1709374366.484,-5.371,-25.879,-31.250,-0.488,0.000
1709374366.488,-49.805,-27.832,-29.297,-41.504,0.000
1709374366.492,-77.637,-36.133,-25.391,-65.430,0.000
1709374366.496,-68.848,-34.668,-28.320,-57.617,0.000
1709374366.499,-24.902,-36.621,-32.227,-28.809,0.000
1709374366.503,-0.977,-43.457,-32.715,-9.766,0.000
1709374366.507,-52.246,-41.016,-28.320,-42.969,0.000
1709374366.511,-81.543,-40.527,-25.879,-66.895,0.000
1709374366.515,-63.965,-40.527,-24.902,-55.176,0.000
1709374366.519,-32.227,-41.992,-24.414,-21.973,0.000
1709374366.523,-0.977,-44.922,-30.273,3.418,0.000
1709374366.527,-35.645,-42.480,-32.227,-25.391,0.000
1709374366.531,-67.871,-41.504,-27.832,-46.875,0.000
1709374366.535,-62.012,-42.969,-33.691,-49.805,0.000
1709374366.538,-25.879,-37.598,-36.133,-30.273,0.000
1709374366.542,16.602,-33.691,-32.715,0.977,0.000
1709374366.546,-12.695,-36.133,-33.691,-22.949,0.000
1709374366.550,-55.664,-38.574,-36.133,-56.152,0.000
1709374366.554,-58.594,-37.598,-38.086,-63.477,0.000
1709374366.558,-18.066,-40.039,-34.180,-38.086,0.000
1709374366.562,31.250,-36.133,-30.273,9.277,0.000
1709374366.566,-1.953,-29.297,-33.203,-14.648,0.000
1709374366.570,-46.875,-27.344,-33.203,-57.129,0.000
1709374366.574,-49.805,-29.297,-30.273,-62.988,0.000
1709374366.577,-31.738,-37.109,-34.668,-47.363,0.000
1709374366.581,15.625,-39.062,-36.621,-7.812,0.000
1709374366.585,3.418,-34.668,-32.227,-18.555,0.000
1709374366.589,-43.945,-31.738,-29.785,-58.105,0.000
1709374366.593,-61.035,-34.668,-31.250,-69.336,0.000
1709374366.597,-48.340,-37.598,-36.133,-53.223,0.000
1709374366.601,-0.977,-31.738,-34.180,-14.648,0.000
1709374366.605,-8.301,-32.227,-33.691,-16.602,0.000
1709374366.609,-60.547,-35.156,-39.062,-54.688,0.000
1709374366.613,-79.102,-33.691,-38.086,-67.871,0.000
1709374366.617,-61.035,-41.504,-36.621,-61.523,0.000
1709374366.620,-14.160,-45.410,-35.645,-24.414,0.000
1709374366.624,-17.090,-39.551,-35.645,-19.043,0.000
1709374366.628,-65.430,-36.621,-42.480,-61.035,0.000
1709374366.632,-73.730,-37.598,-42.480,-75.195,0.000
1709374366.636,-46.387,-41.504,-41.504,-57.129,0.000
1709374366.640,-3.418,-40.039,-42.969,-23.438,0.000
1709374366.644,-7.812,-33.203,-37.109,-26.367,0.000
1709374366.648,-48.828,-29.297,-35.156,-59.082,0.000
1709374366.651,-56.641,-29.297,-37.109,-67.383,0.000
1709374366.655,-55.664,-37.109,-41.992,-71.777,0.000
1709374366.659,-16.602,-30.762,-41.992,-44.434,0.000
1709374366.663,10.742,-21.973,-36.133,-20.020,0.000
1709374366.667,-34.668,-24.414,-37.109,-49.805,0.000
1709374366.671,-78.125,-24.414,-42.969,-74.219,0.000
1709374366.675,-72.754,-24.902,-46.387,-72.266,0.000
1709374366.679,-20.996,-28.320,-46.875,-41.992,0.000
1709374366.682,1.953,-32.715,-42.969,-18.555,0.000
1709374366.686,-48.340,-29.785,-38.574,-47.852,0.000
1709374366.690,-76.172,-27.344,-39.062,-71.289,0.000
1709374366.694,-70.312,-28.320,-42.480,-61.523,0.000
1709374366.698,-37.598,-31.738,-44.434,-29.297,0.000
1709374366.702,-0.488,-32.227,-41.504,-6.836,0.000
1709374366.706,-33.203,-25.391,-35.156,-29.297,0.000
1709374366.710,-62.988,-24.902,-33.203,-54.688,0.000
1709374366.714,-65.430,-31.738,-38.086,-62.988,0.000
1709374366.717,-35.645,-36.133,-37.598,-38.086,0.000
1709374366.721,8.301,-31.738,-35.156,-2.441,0.000
1709374366.725,-17.090,-26.367,-40.527,-25.391,0.000
1709374366.729,-61.035,-25.391,-43.457,-59.570,0.000
1709374366.733,-62.500,-25.879,-37.109,-65.918,0.000
1709374366.737,-31.250,-28.320,-32.227,-40.039,0.000
1709374366.741,9.766,-32.715,-37.598,5.859,0.000
1709374366.745,-17.090,-28.320,-41.504,-14.160,0.000
1709374366.748,-68.848,-25.391,-38.086,-60.547,0.000
1709374366.752,-77.148,-29.297,-36.133,-70.801,0.000
1709374366.756,-52.246,-34.668,-35.156,-55.176,0.000
1709374366.760,-2.441,-36.133,-31.738,-18.555,0.000
1709374366.764,-10.254,-32.227,-35.156,-27.344,0.000
1709374366.768,-63.477,-29.785,-37.598,-68.848,0.000
1709374366.771,-81.543,-31.250,-37.598,-83.496,0.000
1709374366.775,-62.988,-31.738,-41.992,-65.430,0.000
1709374366.779,-20.996,-35.645,-42.480,-23.438,0.000
1709374366.783,-17.578,-39.551,-40.039,-20.020,0.000
1709374366.787,-58.105,-40.039,-40.527,-65.430,0.000
1709374366.791,-78.125,-38.574,-40.527,-79.102,0.000
1709374366.795,-57.617,-36.133,-37.109,-49.316,0.000
1709374366.799,-7.812,-40.039,-41.992,-4.395,0.000
1709374366.803,-4.395,-43.457,-42.480,-2.441,0.000
1709374366.807,-56.641,-36.133,-41.016,-41.016,0.000
1709374366.811,-71.777,-34.668,-43.945,-51.758,0.000
1709374366.815,-52.246,-40.039,-41.016,-44.434,0.000
1709374366.819,-16.113,-41.016,-40.527,-11.230,0.000
1709374366.823,-4.883,-34.180,-34.668,3.906,0.000
1709374366.826,-50.781,-33.691,-29.785,-30.273,0.000
1709374366.830,-78.125,-45.898,-33.203,-51.758,0.000
1709374366.834,-69.336,-49.805,-31.738,-46.875,0.000
1709374366.838,-30.762,-44.922,-29.785,-19.043,0.000
1709374366.842,-6.836,-45.410,-26.855,3.418,0.000
1709374366.846,-36.133,-42.969,-25.879,-16.602,0.000
1709374366.850,-67.383,-37.109,-31.738,-51.270,0.000
1709374366.854,-78.613,-38.086,-32.715,-71.289,0.000
1709374366.858,-43.945,-32.715,-32.227,-38.574,0.000
1709374366.862,-9.766,-28.320,-34.668,-7.324,0.000
1709374366.866,-48.828,-29.297,-32.715,-42.969,0.000
1709374366.870,-83.008,-30.273,-28.320,-65.918,0.000
1709374366.873,-72.754,-34.180,-24.414,-64.453,0.000
1709374366.877,-32.227,-35.156,-28.320,-44.922,0.000
1709374366.881,6.348,-30.273,-32.715,-7.812,0.000
1709374366.885,-23.926,-27.832,-30.762,-31.738,0.000
1709374366.889,-66.895,-28.809,-29.785,-64.453,0.000
1709374366.893,-61.523,-26.855,-30.273,-54.688,0.000
1709374366.897,-30.273,-27.832,-33.203,-38.574,0.000
1709374366.901,7.324,-31.738,-34.668,-14.648,0.000
1709374366.905,-16.113,-34.180,-32.715,-29.785,0.000
1709374366.909,-58.105,-32.227,-30.273,-62.500,0.000
1709374366.913,-57.617,-30.762,-28.320,-62.500,0.000
1709374366.916,-26.367,-30.762,-28.809,-36.133,0.000
1709374366.920,20.508,-33.203,-26.855,-0.977,0.000
1709374366.924,-0.488,-34.668,-24.902,-11.230,0.000
1709374366.928,-56.152,-38.086,-26.855,-47.852,0.000
1709374366.932,-59.570,-40.527,-28.809,-53.223,0.000
1709374366.936,-33.203,-41.504,-27.832,-21.484,0.000
1709374366.940,-1.953,-37.598,-29.785,8.789,0.000
1709374366.944,-8.789,-34.668,-31.250,-5.859,0.000
1709374366.948,-43.945,-32.715,-28.809,-42.480,0.000
1709374366.952,-60.059,-29.297,-30.762,-54.688,0.000
1709374366.955,-48.828,-35.156,-39.062,-39.062,0.000
1709374366.959,-1.465,-39.062,-36.133,1.953,0.000
1709374366.963,0.977,-40.039,-31.250,1.465,0.000
1709374366.967,-51.758,-36.133,-35.645,-46.875,0.000
1709374366.971,-75.195,-33.203,-34.668,-59.082,0.000
1709374366.975,-51.270,-35.156,-30.762,-50.781,0.000
1709374366.979,0.488,-33.691,-31.250,-19.531,0.000
1709374366.983,-3.906,-34.180,-34.668,-12.207,0.000
1709374366.987,-54.688,-38.086,-35.156,-52.246,0.000
1709374366.991,-69.824,-36.133,-34.668,-67.383,0.000
1709374366.995,-58.105,-37.598,-37.598,-57.617,0.000
1709374366.998,-12.695,-40.527,-41.016,-25.879,0.000
1709374367.002,8.789,-39.551,-38.086,-11.230,0.000
1709374367.006,-38.086,-36.621,-34.180,-44.922,0.000
1709374367.010,-63.965,-35.156,-35.156,-69.824,0.000
1709374367.014,-56.641,-38.574,-36.621,-60.547,0.000
1709374367.018,-23.438,-37.598,-37.598,-26.367,0.000
1709374367.022,0.488,-37.109,-40.527,-8.789,0.000
1709374367.026,-38.086,-38.574,-41.504,-35.156,0.000
1709374367.030,-67.383,-35.156,-40.527,-64.941,0.000
1709374367.033,-62.988,-41.504,-40.527,-63.965,0.000
1709374367.037,-24.902,-50.293,-41.992,-33.203,0.000
1709374367.041,3.906,-41.504,-37.109,-3.906,0.000
1709374367.045,-36.133,-35.156,-30.762,-33.203,0.000
1709374367.049,-74.219,-36.133,-31.250,-66.406,0.000
1709374367.053,-64.941,-36.133,-31.250,-53.711,0.000
1709374367.057,-36.133,-41.504,-34.180,-32.227,0.000
1709374367.061,-5.371,-41.016,-32.715,-5.859,0.000
1709374367.064,-37.109,-41.992,-32.715,-28.809,0.000
1709374367.068,-78.125,-41.016,-38.574,-61.035,0.000
1709374367.072,-64.453,-35.645,-36.133,-52.734,0.000
1709374367.076,-31.250,-33.691,-35.645,-29.785,0.000
1709374367.080,5.859,-36.621,-40.039,0.488,0.000
1709374367.084,-9.277,-37.109,-39.551,-18.555,0.000
1709374367.088,-45.410,-32.715,-38.574,-47.363,0.000
1709374367.091,-54.688,-33.691,-40.527,-56.152,0.000
1709374367.095,-29.297,-37.109,-39.062,-39.551,0.000
1709374367.099,9.277,-39.062,-41.992,-6.836,0.000
1709374367.103,-4.883,-33.203,-46.875,-16.113,0.000
1709374367.107,-45.410,-28.320,-46.387,-59.570,0.000
1709374367.111,-50.781,-29.297,-47.363,-73.242,0.000
1709374367.115,-33.203,-33.691,-48.340,-44.922,0.000
1709374367.119,5.859,-36.133,-49.316,-11.719,0.000
1709374367.123,7.324,-34.180,-45.898,-17.090,0.000
1709374367.127,-38.574,-30.762,-41.504,-49.316,0.000
1709374367.130,-55.176,-25.391,-42.969,-60.547,0.000
1709374367.134,-41.016,-26.855,-39.551,-46.387,0.000
1709374367.138,0.000,-33.691,0.000,-2.441,0.000
1709374367.142,0.000,-34.668,0.000,3.906,0.000
1709374367.146,0.000,-30.762,0.000,-40.527,0.000
1709374367.150,0.000,-32.715,0.000,-61.035,0.000
1709374367.153,0.000,-42.480,0.000,-49.316,0.000
1709374367.157,0.000,-46.387,0.000,-11.719,0.000
1709374367.161,0.000,-43.945,0.000,0.488,0.000
1709374367.165,0.000,-41.504,0.000,-43.457,0.000
1709374367.169,0.000,-34.180,0.000,-65.918,0.000
1709374367.173,0.000,-34.180,0.000,-48.828,0.000
1709374367.177,0.000,-40.527,0.000,-10.254,0.000
1709374367.181,0.000,-39.062,0.000,5.859,0.000
1709374367.185,-30.762,-31.738,-34.180,-34.668,0.000
1709374367.189,-63.477,-28.809,-35.156,-61.523,0.000
1709374367.193,-56.641,-31.738,-36.133,-59.570,0.000
1709374367.197,-10.742,-30.273,-38.574,-27.832,0.000
1709374367.201,13.672,-26.855,-41.504,-4.883,0.000
1709374367.205,-26.367,-27.832,-39.551,-33.203,0.000
1709374367.208,-61.523,-30.762,-39.551,-66.895,0.000
1709374367.212,-64.941,-35.645,-41.016,-77.148,0.000
1709374367.216,-27.832,-41.992,-41.016,-42.480,0.000
1709374367.220,8.301,-39.551,-41.016,-4.395,0.000
1709374367.224,-20.020,-29.785,-39.551,-36.621,0.000
1709374367.228,-55.664,-35.645,-39.062,-68.848,0.000
1709374367.232,-58.105,-37.598,-39.551,-67.383,0.000
1709374367.236,-31.738,-33.203,-44.434,-49.805,0.000
1709374367.240,-2.441,-37.598,-49.316,-25.879,0.000
1709374367.244,-21.484,-32.715,-42.480,-43.945,0.000
1709374367.248,-64.941,-26.367,-34.668,-67.871,0.000
1709374367.252,-72.754,-36.621,-36.621,-73.242,0.000
1709374367.256,-37.598,-45.898,-44.434,-60.547,0.000
1709374367.259,6.836,-44.434,-45.898,-20.508,0.000
1709374367.263,-15.625,-44.922,-40.527,-24.414,0.000
1709374367.267,-57.617,-44.434,-36.621,-56.152,0.000
1709374367.271,-66.406,-43.945,-31.250,-60.547,0.000
1709374367.275,-42.969,-44.922,-28.320,-28.320,0.000
1709374367.279,8.789,-37.598,-28.320,16.113,0.000
1709374367.283,-13.672,-35.645,-29.785,-3.418,0.000
1709374367.287,-72.266,-34.180,-31.250,-53.223,0.000
1709374367.291,-80.566,-28.809,-36.133,-60.059,0.000
1709374367.295,-50.293,-31.738,-39.551,-43.457,0.000
1709374367.299,-10.254,-38.086,-38.574,-17.090,0.000
1709374367.303,-9.277,-41.016,-36.133,-18.555,0.000
1709374367.306,-42.480,-37.598,-35.156,-41.992,0.000
1709374367.310,-63.965,-37.109,-37.598,-46.875,0.000
1709374367.314,-58.105,-37.598,-37.598,-53.711,0.000
1709374367.318,-16.113,-32.715,-36.133,-23.926,0.000
1709374367.322,-3.906,-27.344,-34.668,-2.441,0.000
1709374367.326,-50.293,-27.832,-34.180,-34.668,0.000
1709374367.330,-72.754,-28.809,-37.109,-56.152,0.000
1709374367.334,-63.477,-33.203,-46.387,-55.176,0.000
1709374367.338,-24.414,-37.109,-48.828,-24.902,0.000
1709374367.342,-4.883,-32.227,-43.945,-6.348,0.000
1709374367.345,-50.781,-38.574,-44.434,-48.828,0.000
1709374367.349,-78.125,-42.480,-41.992,-73.242,0.000
1709374367.353,-66.895,-36.621,-38.086,-63.965,0.000
1709374367.357,-27.344,-37.598,-41.016,-32.715,0.000
1709374367.361,-7.324,-38.086,-41.504,-18.555,0.000
1709374367.365,-46.387,-41.504,-41.504,-51.758,0.000
1709374367.369,-64.941,-41.504,-38.086,-66.406,0.000
1709374367.373,-61.035,-36.133,-41.504,-63.477,0.000
1709374367.377,-32.227,-36.621,-45.410,-36.133,0.000
1709374367.380,-6.836,-37.109,-43.457,-14.648,0.000
1709374367.384,-46.875,-31.738,-39.551,-40.527,0.000
1709374367.388,-70.801,-28.320,-34.668,-62.500,0.000
1709374367.392,-65.430,-33.203,-35.645,-63.965,0.000
1709374367.396,-35.645,-36.133,-38.574,-38.086,0.000
1709374367.400,3.906,-43.457,-37.109,4.883,0.000
1709374367.404,-24.902,-46.387,-32.715,-18.555,0.000
1709374367.408,-66.406,-39.062,-30.762,-55.664,0.000
1709374367.412,-71.289,-34.668,-33.691,-51.758,0.000
1709374367.416,-42.480,-37.109,-42.969,-35.645,0.000
1709374367.419,1.953,-42.480,-48.828,-6.348,0.000
1709374367.423,-17.090,-40.527,-43.457,-15.137,0.000
1709374367.427,-62.012,-38.574,-35.156,-48.828,0.000
1709374367.431,-71.289,-43.945,-36.621,-57.129,0.000
1709374367.435,-47.852,-43.945,-35.645,-34.668,0.000
1709374367.439,2.441,-41.016,-26.855,5.859,0.000
1709374367.443,-7.324,-40.527,-27.344,-3.418,0.000
1709374367.447,-53.223,-41.504,-33.691,-44.922,0.000
1709374367.451,-61.035,-41.504,-35.645,-61.035,0.000
1709374367.454,-39.551,-41.992,-37.109,-41.504,0.000
1709374367.458,9.277,-41.016,-35.645,-3.418,0.000
1709374367.462,4.395,-36.133,-37.109,-11.230,0.000
1709374367.466,-54.688,-35.156,-39.551,-53.223,0.000
1709374367.470,-72.754,-30.762,-31.738,-58.105,0.000
1709374367.474,-47.363,-27.832,-29.297,-38.574,0.000
1709374367.478,2.930,-26.367,-30.273,-4.395,0.000
1709374367.481,4.883,-28.320,-27.832,5.859,0.000
1709374367.485,-43.457,-43.457,-31.250,-38.086,0.000
1709374367.489,-59.570,-42.969,-35.156,-52.734,0.000
1709374367.493,-45.410,-34.180,-34.668,-35.645,0.000
1709374367.497,3.906,-32.715,-30.273,-0.977,0.000
1709374367.501,8.301,-32.715,-33.203,1.465,0.000
1709374367.505,-46.875,-40.527,-36.621,-43.457,0.000
1709374367.509,-66.406,-44.434,-34.180,-59.570,0.000
1709374367.512,-50.781,-36.133,-31.738,-51.270,0.000
1709374367.516,-10.742,-33.691,-31.250,-18.555,0.000
1709374367.520,8.789,-35.645,-34.180,-5.371,0.000
1709374367.524,-35.156,-41.992,-41.992,-51.270,0.000
1709374367.528,-62.012,-42.969,-40.039,-76.172,0.000
1709374367.532,-53.711,-41.504,-37.109,-65.430,0.000
1709374367.536,-22.461,-39.062,-40.039,-29.785,0.000
1709374367.540,-1.465,-34.180,-41.504,-10.742,0.000
1709374367.544,-45.410,-34.668,-37.598,-48.340,0.000
1709374367.547,-75.195,-38.574,-33.691,-68.848,0.000
1709374367.551,-68.359,-40.039,-36.133,-58.594,0.000
1709374367.555,-36.133,-39.062,-41.016,-33.691,0.000
1709374367.560,-4.883,-40.527,-43.457,-9.766,0.000
1709374367.563,-43.457,-43.945,-38.086,-32.227,0.000
1709374367.567,-73.242,-45.410,-33.691,-61.523,0.000
1709374367.571,-65.918,-44.922,-36.621,-63.965,0.000
1709374367.575,-41.992,-41.992,-40.039,-42.480,0.000
1709374367.579,-3.418,-39.551,-40.039,-12.207,0.000
1709374367.583,-32.715,-43.945,-39.551,-38.086,0.000
1709374367.587,-76.172,-45.410,-39.062,-69.824,0.000
1709374367.591,-72.754,-37.598,-40.039,-66.406,0.000
1709374367.595,-49.805,-36.621,-44.434,-36.621,0.000
1709374367.599,-11.719,-42.480,-41.992,-3.418,0.000
1709374367.603,-26.367,-41.992,-38.574,-22.461,0.000
1709374367.607,-66.895,-41.992,-40.527,-58.594,0.000
1709374367.611,-70.801,-41.504,-39.551,-56.641,0.000
1709374367.614,-45.898,-35.156,-33.691,-30.762,0.000
1709374367.618,-1.465,-35.156,-32.227,-4.883,0.000
1709374367.622,-13.672,-37.109,-35.156,-14.160,0.000
1709374367.626,-60.059,-37.109,-40.039,-49.316,0.000
1709374367.630,-68.848,-37.109,-41.016,-56.641,0.000
1709374367.634,-54.199,-39.551,-40.039,-47.852,0.000
1709374367.638,-3.906,-36.133,-37.109,-8.789,0.000
1709374367.642,-0.488,-29.785,-37.598,0.488,0.000
1709374367.646,-55.664,-32.227,-38.086,-48.828,0.000
1709374367.650,-71.777,-35.156,-36.133,-68.848,0.000
1709374367.656,-56.641,-34.668,-35.645,-59.570,0.000
1709374367.660,-10.254,-33.203,-41.016,-17.578,0.000
1709374367.664,-6.836,-33.691,-41.504,-10.742,0.000
1709374367.668,-55.176,-37.598,-36.621,-50.293,0.000
1709374367.672,-64.941,-34.668,-32.715,-53.223,0.000
1709374367.675,-51.758,-30.762,-31.250,-33.691,0.000
1709374367.679,-14.648,-32.227,-29.785,-3.418,0.000
1709374367.683,1.465,-30.273,-29.785,7.812,0.000
1709374367.687,-41.016,-25.879,-29.785,-17.090,0.000
1709374367.691,-70.312,-30.762,-34.180,-51.270,0.000
1709374367.695,-58.105,-33.203,-35.156,-50.293,0.000
1709374367.699,-15.137,-30.762,-35.156,-12.695,0.000
1709374367.703,2.930,-35.645,-38.574,0.977,0.000
1709374367.707,-36.621,-37.109,-38.086,-29.785,0.000
1709374367.711,-64.453,-38.086,-40.527,-59.082,0.000
1709374367.714,-57.617,-37.598,-40.039,-60.547,0.000
1709374367.718,-26.367,-31.250,-37.598,-20.020,0.000
1709374367.722,1.465,-34.180,-31.250,10.254,0.000
1709374367.726,-30.762,-40.527,-31.250,-29.297,0.000
1709374367.730,-59.082,-35.156,-26.367,-55.664,0.000
1709374367.734,-63.477,-34.668,-21.484,-47.363,0.000
1709374367.738,-37.109,-42.969,-29.785,-30.762,0.000
1709374367.742,1.465,-43.457,-33.203,-14.160,0.000
1709374367.746,-31.738,-43.457,-28.320,-36.133,0.000
1709374367.749,-71.289,-39.551,-27.344,-61.035,0.000
1709374367.753,-66.406,-32.715,-31.738,-67.871,0.000
1709374367.757,-32.227,-28.809,-30.762,-40.527,0.000
1709374367.761,9.766,-27.344,-29.785,-1.953,0.000
1709374367.765,-20.020,-30.273,-35.156,-25.879,0.000
1709374367.769,-66.406,-30.762,-36.133,-63.965,0.000
1709374367.773,-72.754,-36.621,-41.504,-64.453,0.000
1709374367.777,-40.527,-40.039,-43.457,-27.832,0.000
1709374367.781,2.441,-35.645,-43.457,3.906,0.000
1709374367.785,-17.578,-36.133,-40.527,-17.090,0.000
1709374367.788,-62.500,-41.504,-32.715,-52.734,0.000
1709374367.792,-66.895,-36.133,-35.645,-67.383,0.000
1709374367.796,0.000,-30.273,0.000,0.000,0.000
1709374367.800,0.000,-33.691,0.000,0.000,0.000
1709374367.804,0.000,-29.297,0.000,0.000,0.000
1709374367.808,0.000,-24.414,0.000,0.000,0.000
1709374367.812,0.000,-23.926,0.000,0.000,0.000
1709374367.816,0.000,-24.414,0.000,0.000,0.000
1709374367.820,0.000,-28.809,0.000,0.000,0.000
1709374367.824,0.000,-40.527,0.000,0.000,0.000
1709374367.828,0.000,-49.805,0.000,0.000,0.000
1709374367.831,0.000,-38.574,0.000,0.000,0.000
1709374367.835,0.000,-35.156,0.000,0.000,0.000
1709374367.839,0.000,-41.504,0.000,0.000,0.000
1709374367.843,-8.301,-35.156,-33.691,-3.418,0.000
1709374367.847,-49.805,-35.156,-32.227,-37.109,0.000
1709374367.851,-68.848,-41.992,-30.273,-61.035,0.000
1709374367.854,-61.035,-41.504,-33.203,-55.664,0.000
1709374367.858,-16.113,-37.109,-41.016,-21.973,0.000
1709374367.862,7.324,-37.598,-37.109,-3.906,0.000
1709374367.866,-38.086,-38.574,-34.668,-31.250,0.000
1709374367.870,-75.684,-33.203,-39.551,-64.453,0.000
1709374367.874,-75.195,-34.668,-42.969,-71.289,0.000
1709374367.878,-30.273,-40.527,-40.527,-32.715,0.000
1709374367.882,2.441,-35.645,-36.133,-8.301,0.000
1709374367.886,-29.297,-30.762,-33.203,-38.086,0.000
1709374367.889,-61.035,-38.574,-35.156,-62.988,0.000
1709374367.893,-62.500,-39.551,-41.504,-64.453,0.000
1709374367.897,-28.320,-36.621,-43.457,-34.668,0.000
1709374367.901,3.418,-36.621,-41.992,-0.488,0.000
1709374367.905,-27.832,-37.109,-40.527,-33.203,0.000
1709374367.909,-62.012,-33.203,-37.598,-66.406,0.000
1709374367.913,-61.035,-28.809,-37.109,-61.523,0.000
1709374367.916,-31.250,-27.832,-37.598,-34.668,0.000
1709374367.920,1.953,-31.250,-39.551,-2.930,0.000
1709374367.924,-22.949,-30.273,-41.016,-22.949,0.000
1709374367.928,-66.406,-29.297,-39.551,-52.734,0.000
1709374367.932,-74.707,-39.551,-43.457,-63.965,0.000
1709374367.936,-37.109,-40.527,-42.480,-40.039,0.000
1709374367.940,4.883,-37.109,-37.598,2.930,0.000
1709374367.944,-21.484,-38.086,-40.039,-14.648,0.000
1709374367.948,-60.059,-42.969,-39.551,-50.781,0.000
1709374367.952,-64.941,-40.527,-37.598,-56.641,0.000
1709374367.956,-42.969,-33.691,-41.992,-38.574,0.000
1709374367.960,-4.395,-40.527,-43.457,-9.277,0.000
1709374367.964,-12.207,-37.109,-38.086,-14.648,0.000
1709374367.967,-53.711,-35.156,-37.109,-45.898,0.000
1709374367.971,-70.312,-42.480,-41.016,-57.617,0.000
1709374367.975,-46.875,-38.086,-38.086,-48.828,0.000
1709374367.979,-0.977,-39.551,-36.621,-11.719,0.000
1709374367.983,-8.301,-41.504,-34.180,-15.625,0.000
1709374367.987,-48.340,-40.039,-31.250,-60.059,0.000
1709374367.991,-60.547,-42.969,-35.645,-69.824,0.000
1709374367.995,-43.457,-38.574,-41.504,-56.152,0.000
1709374367.999,0.000,-33.203,-40.039,-19.531,0.000
1709374368.003,-5.371,-32.715,-41.992,-7.812,0.000
1709374368.007,-52.246,-37.109,-40.039,-48.828,0.000
1709374368.011,-66.895,-37.598,-33.203,-72.266,0.000
1709374368.014,-52.734,-38.086,-33.691,-54.199,0.000
1709374368.018,-10.742,-45.410,-36.133,-13.672,0.000
1709374368.022,2.441,-45.898,-41.504,-11.719,0.000
1709374368.026,-41.504,-39.551,-42.480,-53.223,0.000
1709374368.030,-70.312,-40.039,-38.574,-72.266,0.000
1709374368.034,-63.965,-48.340,-40.039,-65.918,0.000
1709374368.038,-27.832,-41.504,-43.457,-33.691,0.000
1709374368.042,-2.930,-30.762,-39.551,-14.648,0.000
1709374368.046,-29.297,-31.738,-37.109,-48.828,0.000
1709374368.050,-51.758,-37.109,-37.109,-68.848,0.000
1709374368.054,-45.410,-38.574,-40.039,-65.918,0.000
1709374368.057,-7.324,-38.086,-44.922,-35.645,0.000
1709374368.061,16.113,-41.992,-42.480,0.977,0.000
1709374368.065,-31.250,-41.992,-41.016,-34.668,0.000
1709374368.069,-69.824,-40.527,-39.062,-65.430,0.000
1709374368.073,-65.430,-39.551,-40.527,-62.500,0.000
1709374368.077,-35.645,-33.203,-36.133,-38.086,0.000
1709374368.081,-2.930,-31.250,-28.809,-8.789,0.000
1709374368.085,-31.250,-37.109,-31.738,-34.180,0.000
1709374368.089,-70.312,-40.527,-33.203,-61.523,0.000
1709374368.093,-65.430,-36.133,-26.367,-56.152,0.000
1709374368.096,-30.762,-36.133,-31.250,-33.203,0.000
1709374368.100,11.719,-37.598,-37.109,-6.836,0.000
1709374368.104,-10.254,-37.109,-31.738,-19.043,0.000
1709374368.108,-56.641,-40.039,-30.762,-48.828,0.000
1709374368.112,-64.453,-40.039,-33.203,-51.758,0.000
1709374368.116,-34.180,-37.598,-33.203,-28.809,0.000
1709374368.120,9.766,-30.273,-32.227,-0.488,0.000
1709374368.124,-9.277,-29.297,-27.344,-10.254,0.000
1709374368.128,-52.734,-37.598,-35.645,-47.363,0.000
1709374368.131,-64.453,-45.898,-40.527,-62.500,0.000
1709374368.135,-49.316,-44.434,-36.621,-46.875,0.000
1709374368.139,-3.906,-37.109,-33.691,-11.230,0.000
1709374368.143,-8.789,-37.598,-29.297,-18.555,0.000
1709374368.147,-55.664,-40.039,-28.809,-51.270,0.000
1709374368.151,-70.312,-43.945,-30.762,-53.711,0.000
1709374368.155,-49.316,-45.410,-36.133,-41.016,0.000
1709374368.159,-1.465,-40.039,-44.434,-4.883,0.000
1709374368.163,1.953,-38.574,-40.527,-3.906,0.000
1709374368.167,-44.922,-41.992,-36.133,-45.410,0.000
1709374368.170,-70.801,-41.504,-39.551,-63.965,0.000
1709374368.174,-58.594,-44.434,-37.109,-54.199,0.000
1709374368.178,-14.160,-45.410,-37.598,-15.625,0.000
1709374368.182,-6.836,-45.410,-39.551,-11.719,0.000
1709374368.186,-44.434,-46.387,-36.133,-56.641,0.000
1709374368.190,-63.477,-46.875,-36.621,-70.801,0.000
1709374368.194,-55.176,-43.457,-32.715,-49.316,0.000
1709374368.198,-12.207,-41.504,-35.156,-14.648,0.000
1709374368.201,10.254,-39.062,-37.109,-6.348,0.000
1709374368.205,-35.156,-33.691,-33.691,-42.480,0.000
1709374368.209,-72.266,-37.109,-38.574,-67.871,0.000
1709374368.213,-62.988,-37.598,-38.086,-62.988,0.000
1709374368.217,0.000,-33.691,-33.691,-26.855,0.000
1709374368.221,0.000,-30.273,-32.715,-5.859,0.000
1709374368.224,0.000,-29.297,-36.133,-34.180,0.000
1709374368.228,0.000,-33.691,-38.086,-58.594,0.000
1709374368.232,0.000,-34.668,-34.668,-61.035,0.000
1709374368.236,0.000,-35.156,-37.109,-22.461,0.000
1709374368.240,0.000,-38.574,-41.016,7.324,0.000
1709374368.244,0.000,-41.992,-37.598,-28.809,0.000
1709374368.248,0.000,-40.527,-38.574,-58.105,0.000
1709374368.252,0.000,-37.598,-40.039,-60.059,0.000
1709374368.256,0.000,-39.062,-41.016,-36.621,0.000
1709374368.260,0.000,-41.016,-41.504,-9.277,0.000
1709374368.263,-28.320,-41.992,-35.156,-34.180,0.000
1709374368.267,-61.035,-43.457,-35.645,-61.035,0.000
1709374368.271,-52.734,-43.457,-36.621,-55.664,0.000
1709374368.275,-27.344,-42.969,-39.062,-31.738,0.000
1709374368.279,6.348,-45.898,-39.551,0.977,0.000
1709374368.283,-23.926,-49.316,-34.668,-18.555,0.000
1709374368.287,-65.918,-47.363,-35.645,-44.922,0.000
1709374368.290,-65.430,-44.922,-35.156,-48.828,0.000
1709374368.294,-41.016,-41.016,-34.668,-35.156,0.000
1709374368.298,0.000,-41.016,-40.039,5.371,0.000
1709374368.302,-14.648,-39.551,-40.039,-7.324,0.000
1709374368.306,-54.688,-37.598,-38.086,-51.758,0.000
1709374368.310,-61.035,-41.504,-38.086,-62.500,0.000
1709374368.314,-48.828,-47.363,-37.598,-44.434,0.000
1709374368.318,-8.789,-48.340,-39.062,-10.742,0.000
1709374368.322,-0.977,-41.504,-38.086,-11.230,0.000
1709374368.326,-43.945,-40.527,-34.180,-44.922,0.000
1709374368.330,-65.430,-42.480,-33.203,-56.641,0.000
1709374368.334,-46.875,-35.645,-39.551,-45.898,0.000
1709374368.338,-4.883,-32.715,-46.387,-10.742,0.000
1709374368.342,1.953,-32.715,-37.598,0.000,0.000
1709374368.345,-44.434,-31.738,-34.668,-31.738,0.000
1709374368.349,-73.242,-31.738,-42.480,-61.523,0.000
1709374368.353,-57.129,-35.156,-40.527,-53.711,0.000
1709374368.357,-7.812,-31.738,-36.133,-12.695,0.000
1709374368.361,3.418,-30.273,-36.621,-8.789,0.000
1709374368.365,-47.852,-29.297,-38.574,-43.457,0.000
1709374368.369,-73.730,-23.926,-36.621,-56.641,0.000
1709374368.373,-63.477,-28.320,-35.645,-52.734,0.000
1709374368.377,-16.113,-37.109,-35.645,-18.066,0.000
1709374368.381,7.324,-35.645,-38.086,5.859,0.000
1709374368.385,-45.898,-33.691,-39.062,-33.691,0.000
1709374368.389,-69.824,-33.203,-34.180,-54.688,0.000
1709374368.392,-58.594,-32.227,-33.203,-43.457,0.000
1709374368.396,-28.320,-40.527,-35.645,-18.066,0.000
1709374368.400,-6.348,-48.828,-32.227,2.441,0.000
1709374368.404,-43.457,-48.828,-28.809,-28.809,0.000
1709374368.408,-73.242,-44.922,-29.785,-58.594,0.000
1709374368.412,-63.477,-41.016,-29.785,-50.781,0.000
1709374368.416,-21.484,-37.109,-26.367,-18.555,0.000
1709374368.420,5.859,-36.621,-26.855,3.418,0.000
1709374368.424,-30.762,-39.062,-31.250,-30.762,0.000
1709374368.428,-59.570,-40.527,-34.668,-60.059,0.000
1709374368.432,-53.223,-38.574,-32.715,-51.758,0.000
1709374368.436,-24.414,-37.598,-31.738,-21.484,0.000
1709374368.439,12.207,-35.645,-35.645,2.930,0.000
1709374368.443,-13.672,-29.785,-36.133,-28.809,0.000
1709374368.447,-55.176,-24.902,-34.180,-61.035,0.000
1709374368.451,-61.035,-28.320,-33.691,-56.152,0.000
1709374368.455,-33.203,-33.203,-31.250,-33.691,0.000
1709374368.459,16.113,-34.180,-31.738,-7.812,0.000
1709374368.463,-9.277,-33.691,-32.715,-28.320,0.000
1709374368.467,-58.594,-34.668,-30.762,-58.594,0.000
1709374368.471,-64.941,-34.180,-30.273,-56.641,0.000
1709374368.475,-41.016,-35.156,-33.203,-44.922,0.000
1709374368.478,-3.906,-40.039,-39.062,-19.531,0.000
1709374368.482,-20.508,-42.969,-41.504,-22.949,0.000
1709374368.486,-67.383,-47.363,-41.992,-65.918,0.000
1709374368.490,-83.984,-44.922,-41.504,-79.102,0.000
1709374368.494,-60.059,-36.133,-42.480,-52.246,0.000
1709374368.498,-5.859,-32.715,-42.969,-8.789,0.000
1709374368.502,-1.465,-34.180,-39.551,-5.371,0.000
1709374368.506,-52.246,-41.504,-39.551,-46.875,0.000
1709374368.510,-66.895,-41.504,-40.527,-61.035,0.000
1709374368.514,-51.270,-40.039,-43.457,-47.852,0.000
1709374368.517,-3.418,-38.086,-42.480,-14.160,0.000
1709374368.521,11.230,-32.227,-39.062,-3.418,0.000
1709374368.525,-40.527,-30.762,-39.062,-30.762,0.000
1709374368.529,-64.941,-34.180,-41.992,-57.129,0.000
1709374368.533,-45.898,-35.156,-40.039,-52.246,0.000
1709374368.537,-2.441,-33.691,-39.062,-10.742,0.000
1709374368.541,0.000,-34.668,-43.457,-0.977,0.000
1709374368.545,-46.875,-36.133,-41.992,-41.016,0.000
1709374368.548,-63.477,-34.180,-41.992,-70.801,0.000
1709374368.552,-59.082,-37.109,-42.969,-68.359,0.000
1709374368.556,-22.461,-41.504,-39.551,-29.785,0.000
1709374368.560,4.395,-42.480,-38.086,-8.789,0.000
1709374368.564,-42.480,-38.086,-40.039,-43.945,0.000
1709374368.568,-74.219,-33.691,-42.969,-67.871,0.000
1709374368.572,-67.871,-36.133,-39.551,-60.547,0.000
1709374368.576,-31.738,-37.598,-42.969,-41.504,0.000
1709374368.580,3.418,-35.645,-45.410,-21.484,0.000
1709374368.584,-37.109,-36.621,-45.898,-51.270,0.000
1709374368.587,-80.566,-39.551,-45.898,-80.078,0.000
1709374368.591,-77.637,-37.109,-39.062,-75.684,0.000
1709374368.595,-38.086,-40.039,-35.156,-39.062,0.000
1709374368.599,2.441,-38.574,-37.598,-4.395,0.000
1709374368.603,-27.344,-29.785,-37.109,-22.461,0.000
1709374368.607,-65.918,-30.762,-37.109,-50.781,0.000
1709374368.611,-64.941,-37.109,-40.039,-58.594,0.000
1709374368.614,-29.297,-39.062,-34.668,-22.949,0.000
1709374368.618,10.742,-28.320,-28.320,13.184,0.000
1709374368.622,-20.996,-25.879,-27.344,-12.695,0.000
1709374368.626,-62.500,-30.762,-29.785,-44.434,0.000
1709374368.630,-63.965,-33.691,-31.250,-47.363,0.000
1709374368.634,-39.062,-38.574,-33.203,-31.738,0.000
1709374368.637,9.766,-32.227,-32.715,0.488,0.000
1709374368.641,1.465,-30.762,-30.273,-10.742,0.000
1709374368.645,-46.875,-33.203,-32.715,-47.852,0.000
1709374368.649,-55.664,-31.250,-32.715,-51.758,0.000
1709374368.653,-35.645,-36.621,-33.691,-35.645,0.000
1709374368.657,4.883,-38.574,-36.621,-3.418,0.000
1709374368.661,-8.789,-32.715,-35.156,-6.348,0.000
1709374368.665,-58.105,-32.715,-36.133,-46.387,0.000
1709374368.669,-68.848,-37.109,-33.203,-59.570,0.000
1709374368.673,-53.223,-35.156,-29.297,-42.480,0.000
1709374368.677,-14.648,-36.621,-33.691,-12.695,0.000
1709374368.680,-12.695,-42.969,-37.598,-18.066,0.000
1709374368.685,-58.105,-41.504,-40.039,-53.711,0.000
1709374368.689,-76.172,-41.992,-41.016,-66.895,0.000
1709374368.693,-49.805,-46.875,-43.945,-48.340,0.000
1709374368.696,1.465,-47.363,-47.852,-11.719,0.000
1709374368.700,-9.766,-45.410,-43.457,-11.230,0.000
1709374368.704,-59.082,-31.738,-39.062,-42.969,0.000
1709374368.708,-71.289,-26.855,-43.945,-60.059,0.000
1709374368.712,-66.406,-31.738,-41.504,-62.988,0.000
1709374368.716,-22.461,-35.156,-41.016,-28.320,0.000
1709374368.720,-0.488,-35.645,-38.086,-5.859,0.000
1709374368.724,-47.852,-39.551,-44.434,-49.805,0.000
1709374368.728,-75.684,-41.992,-47.852,-73.730,0.000
1709374368.732,-63.477,-34.180,-46.875,-68.359,0.000
1709374368.736,-23.438,-39.062,-52.246,-38.574,0.000
1709374368.740,7.812,-43.945,-48.340,-12.695,0.000
1709374368.744,-28.809,-41.992,-44.922,-44.434,0.000
1709374368.747,-63.965,-41.016,-42.480,-67.383,0.000
1709374368.751,-55.664,-35.645,-41.016,-67.383,0.000
1709374368.755,-23.926,-40.039,-41.992,-36.133,0.000
1709374368.759,4.883,-39.551,-37.598,-2.441,0.000
1709374368.763,-19.043,-33.691,-35.156,-28.320,0.000
1709374368.767,-50.293,-32.715,-37.109,-53.711,0.000
1709374368.771,-51.270,-30.273,-36.133,-57.129,0.000
1709374368.775,-22.949,-30.762,-37.109,-30.762,0.000
1709374368.779,7.324,-33.203,-35.645,4.395,0.000
1709374368.783,-28.320,-32.715,-35.156,-23.926,0.000
1709374368.787,-69.336,-35.645,-38.574,-69.336,0.000
1709374368.791,-63.477,-39.062,-41.504,-67.383,0.000
1709374368.794,-31.738,-35.645,-35.645,-35.156,0.000
1709374368.798,-5.371,-34.668,-35.156,-6.348,0.000
1709374368.802,-21.973,-35.156,-34.668,-23.438,0.000
1709374368.806,-56.152,-30.273,-31.250,-53.711,0.000
1709374368.810,-68.359,-32.715,-38.086,-52.246,0.000
1709374368.814,-39.551,-34.180,-41.016,-41.016,0.000
1709374368.818,5.859,-33.203,-40.039,-14.648,0.000
1709374368.822,-5.859,-34.180,-41.504,-17.090,0.000
1709374368.826,-46.875,-38.086,-36.133,-51.758,0.000
1709374368.830,-66.406,-40.039,-31.738,-59.570,0.000
1709374368.834,-44.434,-36.133,-29.785,-41.016,0.000
1709374368.837,-0.977,-36.133,-36.621,-5.371,0.000
1709374368.841,-10.742,-36.133,-34.180,-6.836,0.000
1709374368.845,-58.105,-34.668,-26.367,-44.922,0.000
1709374368.849,-73.242,-36.621,-34.668,-61.523,0.000
1709374368.853,-46.875,-36.621,-37.109,-42.969,0.000
1709374368.857,0.977,-40.527,-35.645,6.348,0.000
1709374368.861,4.883,-35.645,-34.668,9.766,0.000
1709374368.865,-46.387,-33.203,-33.691,-37.598,0.000
1709374368.869,-70.801,-35.645,-34.180,-60.547,0.000
1709374368.872,-53.223,-32.227,-35.156,-43.945,0.000
1709374368.876,-3.906,-33.691,-36.621,-8.789,0.000
1709374368.880,8.789,-34.180,-38.086,-5.859,0.000
1709374368.884,-46.875,-28.809,-36.621,-43.945,0.000
1709374368.888,-76.172,-32.227,-39.062,-67.871,0.000
1709374368.892,-57.129,-38.086,-40.527,-66.406,0.000
1709374368.896,-11.230,-39.062,-39.551,-33.203,0.000
1709374368.900,9.766,-37.598,-39.062,-1.465,0.000
1709374368.904,-28.320,-34.180,-34.668,-33.691,0.000
1709374368.908,-51.758,-38.086,-31.738,-70.801,0.000
1709374368.912,-37.109,-35.156,-32.715,-62.500,0.000
1709374368.915,0.977,-27.344,-30.273,-26.367,0.000
1709374368.919,24.902,-31.250,-29.785,1.465,0.000
1709374368.923,-23.926,-34.180,-39.551,-32.715,0.000
1709374368.927,-64.453,-30.762,-39.551,-60.547,0.000
1709374368.931,-60.547,-33.203,-33.203,-50.293,0.000
1709374368.935,-38.086,-40.039,-35.645,-28.320,0.000
1709374368.939,-12.695,-37.109,-38.574,-3.906,0.000
1709374368.943,-45.410,-32.227,-33.691,-23.438,0.000
1709374368.946,-87.891,-42.969,-30.273,-52.246,0.000
1709374368.950,-85.938,-45.410,-30.762,-52.734,0.000
1709374368.954,-49.316,-35.645,-29.297,-30.273,0.000
1709374368.958,-11.719,-30.273,-27.832,-6.348,0.000
1709374368.962,-37.598,-34.180,-28.809,-34.180,0.000
1709374368.966,-75.684,-35.645,-24.902,-62.012,0.000
1709374368.970,-72.754,-30.762,-23.926,-56.152,0.000
1709374368.974,-47.363,-32.715,-30.273,-37.598,0.000
1709374368.977,-10.742,-38.086,-32.715,-6.348,0.000
1709374368.981,-28.320,-42.969,-32.227,-20.996,0.000
1709374368.985,-71.289,-44.922,-36.621,-62.500,0.000
1709374368.989,-79.102,-43.945,-35.645,-58.105,0.000
1709374368.993,-53.223,-41.504,-34.668,-40.039,0.000
1709374368.997,-6.348,-42.969,-39.551,-8.301,0.000
1709374369.001,-15.137,-42.969,-37.598,-11.719,0.000
1709374369.005,-61.035,-34.180,-32.227,-48.828,0.000
1709374369.009,-71.777,-30.273,-30.762,-58.594,0.000
1709374369.012,-46.387,-33.203,-32.715,-47.363,0.000
1709374369.016,1.953,-33.203,-35.156,-10.254,0.000
1709374369.020,0.977,-35.156,-35.645,-14.160,0.000
1709374369.024,-49.316,-32.227,-38.086,-50.293,0.000
1709374369.028,-69.824,-30.273,-36.133,-62.988,0.000
1709374369.032,-54.199,-35.645,-35.156,-54.199,0.000
1709374369.036,-5.859,-34.180,-42.969,-20.508,0.000
1709374369.040,4.883,-27.832,-41.992,-6.348,0.000
1709374369.043,-45.898,-33.203,-37.598,-44.434,0.000
1709374369.047,-72.754,-35.156,-38.574,-63.477,0.000
1709374369.051,-58.105,-33.203,-36.621,-51.758,0.000
1709374369.055,-12.695,-36.621,-33.691,-17.578,0.000
1709374369.059,2.441,-36.621,-34.180,-3.906,0.000
1709374369.063,-36.621,-37.109,-30.273,-35.645,0.000
1709374369.067,-60.547,-46.387,-36.133,-54.199,0.000
1709374369.071,-51.758,-36.621,-33.203,-54.688,0.000
1709374369.075,-10.742,-27.832,-29.785,-24.414,0.000
1709374369.079,8.789,-32.715,-32.715,-3.418,0.000
1709374369.083,-34.668,-36.621,-32.715,-43.457,0.000
1709374369.087,-63.477,-41.504,-38.086,-72.266,0.000
1709374369.091,-60.059,-42.480,-40.039,-61.523,0.000
1709374369.095,-30.762,-44.434,-37.109,-25.879,0.000
1709374369.098,0.977,-44.434,-39.062,-7.812,0.000
1709374369.102,-29.297,-46.387,-40.527,-34.668,0.000
1709374369.107,-60.547,-44.922,-35.156,-61.035,0.000
1709374369.110,-62.012,-41.992,-36.133,-66.895,0.000
1709374369.114,-33.691,-39.551,-39.062,-45.898,0.000
1709374369.118,1.953,-40.527,-37.109,-15.137,0.000
1709374369.122,-24.902,-48.340,-36.133,-39.551,0.000
1709374369.126,-57.129,-40.039,-30.273,-62.012,0.000
1709374369.130,-52.246,-31.738,-29.785,-57.129,0.000
1709374369.134,-22.461,-35.645,-34.668,-40.527,0.000
1709374369.138,18.066,-35.645,-33.203,2.441,0.000
1709374369.142,-4.395,-30.273,-31.250,-6.348,0.000
1709374369.146,-48.340,-29.785,-34.180,-56.641,0.000
1709374369.149,-52.734,-30.762,-30.762,-68.359,0.000
1709374369.154,-28.320,-34.180,-33.691,-48.828,0.000
1709374369.157,9.766,-32.715,-41.016,-16.602,0.000
1709374369.161,-13.672,-32.715,-42.969,-30.273,0.000
1709374369.165,-58.594,-41.504,-39.062,-64.453,0.000
1709374369.169,-58.105,-39.062,-35.156,-63.965,0.000
1709374369.173,-37.109,-35.645,-34.668,-42.969,0.000
1709374369.177,2.930,-39.551,-33.691,-5.859,0.000
1709374369.181,-2.930,-39.062,-34.668,-13.184,0.000
1709374369.185,-56.641,-35.156,-38.086,-44.434,0.000
1709374369.189,-72.266,-28.320,-38.086,-52.734,0.000
1709374369.193,-51.270,-30.762,-39.551,-43.457,0.000
1709374369.197,-8.301,-36.621,-42.480,-9.277,0.000
1709374369.200,-15.625,-37.109,-38.086,-15.137,0.000
1709374369.204,-59.570,-33.691,-34.180,-55.664,0.000
1709374369.208,-70.801,-28.809,-34.180,-63.477,0.000
1709374369.212,-59.570,-36.133,-39.551,-47.363,0.000
1709374369.216,-12.695,-42.480,-41.504,-9.277,0.000
1709374369.220,3.418,-39.062,-41.504,-0.488,0.000
1709374369.224,-44.434,-37.598,-38.574,-43.945,0.000
1709374369.228,-71.289,-30.273,-31.250,-53.223,0.000
1709374369.232,-58.594,-30.273,-28.809,-34.668,0.000
1709374369.236,-18.555,-40.039,-34.180,-12.207,0.000
1709374369.239,-2.441,-50.293,-35.645,3.418,0.000
1709374369.243,-44.434,-47.363,-28.320,-30.273,0.000
1709374369.247,-76.660,-31.738,-26.367,-52.246,0.000
1709374369.251,-66.406,-32.715,-33.203,-50.293,0.000
1709374369.255,-22.949,-37.109,-32.715,-22.949,0.000
1709374369.259,-3.418,-39.062,-28.320,0.000,0.000
1709374369.263,-49.805,-44.922,-36.133,-36.133,0.000
1709374369.267,-80.566,-46.875,-40.527,-71.777,0.000
1709374369.271,-73.242,-41.504,-33.691,-69.824,0.000
1709374369.275,-34.668,-44.922,-32.227,-35.156,0.000
1709374369.278,-0.488,-47.852,-41.016,-10.254,0.000
1709374369.282,-35.156,-45.410,-36.133,-33.691,0.000
1709374369.286,-72.754,-38.086,-22.461,-62.988,0.000
1709374369.290,-71.289,-37.598,-30.273,-68.848,0.000
1709374369.294,-36.133,-38.086,-36.621,-39.551,0.000
1709374369.298,-0.488,-34.668,-37.598,-10.254,0.000
1709374369.302,-30.273,-39.551,-41.016,-35.645,0.000
1709374369.306,-70.312,-40.527,-37.109,-64.941,0.000
1709374369.309,-69.336,-44.922,-36.621,-69.824,0.000
1709374369.313,-44.434,-44.434,-38.086,-52.246,0.000
1709374369.317,-10.254,-38.574,-40.039,-15.137,0.000
1709374369.321,-26.367,-37.109,-39.062,-25.391,0.000
1709374369.325,-71.289,-43.457,-38.574,-63.965,0.000
1709374369.329,-76.660,-41.504,-38.086,-62.500,0.000
1709374369.333,-50.293,-29.297,-40.039,-48.828,0.000
1709374369.337,-18.066,-32.227,-48.340,-27.344,0.000
1709374369.340,-31.250,-35.645,-45.410,-29.785,0.000
1709374369.344,-72.754,-38.086,-39.551,-57.617,0.000
1709374369.348,-89.355,-47.363,-41.992,-71.777,0.000
1709374369.352,-72.266,-47.852,-41.992,-61.035,0.000
1709374369.356,-14.648,-44.922,-39.062,-20.508,0.000
1709374369.360,-8.789,-41.992,-39.062,-18.066,0.000
1709374369.364,-53.223,-41.992,-33.203,-40.527,0.000
1709374369.368,-69.336,-41.992,-34.180,-52.734,0.000
1709374369.372,-53.711,-36.621,-37.598,-47.852,0.000
1709374369.376,-2.441,-44.434,-35.156,-7.812,0.000
1709374369.380,4.883,-55.176,-42.480,-0.488,0.000
1709374369.383,-40.039,-35.645,-40.527,-36.621,0.000
1709374369.387,-58.105,-28.320,-34.180,-49.316,0.000
1709374369.391,-52.734,-38.086,-38.086,-42.480,0.000
1709374369.395,-9.766,-38.086,-41.992,-19.043,0.000
1709374369.399,11.230,-34.180,-37.109,-8.789,0.000
1709374369.403,-31.250,-36.621,-35.645,-42.969,0.000
1709374369.406,-60.059,-38.574,-41.504,-64.453,0.000
1709374369.410,-51.758,-39.551,-43.457,-53.223,0.000
1709374369.414,-17.578,-41.504,-47.852,-19.043,0.000
1709374369.418,8.789,-39.062,-48.828,-8.301,0.000
1709374369.422,-32.227,-40.527,-41.016,-37.598,0.000
1709374369.426,-69.824,-45.410,-39.551,-52.734,0.000
1709374369.430,-51.758,-42.480,-44.922,-43.945,0.000
1709374369.434,-14.160,-37.598,-46.387,-21.973,0.000
1709374369.438,-0.488,-38.574,-42.969,-6.836,0.000
1709374369.442,-38.086,-34.668,-37.598,-35.156,0.000
1709374369.446,-67.871,-28.320,-31.738,-65.430,0.000
1709374369.450,-67.383,-31.250,-29.785,-67.383,0.000
1709374369.454,-37.598,-35.156,-35.645,-36.133,0.000
1709374369.458,-4.883,-33.691,-40.527,-6.348,0.000
1709374369.462,-33.691,-31.250,-38.574,-31.250,0.000
1709374369.465,-62.012,-32.227,-36.133,-50.293,0.000
1709374369.469,-59.082,-35.645,-36.133,-49.805,0.000
1709374369.473,-31.738,-40.039,-43.457,-40.039,0.000
1709374369.477,1.953,-38.086,-39.551,-8.789,0.000
1709374369.481,-29.785,-37.109,-38.574,-27.832,0.000
1709374369.485,-72.754,-34.668,-43.457,-63.965,0.000
1709374369.489,-75.195,-27.832,-41.504,-67.871,0.000
1709374369.493,-46.387,-32.715,-35.645,-41.504,0.000
1709374369.497,-7.324,-38.574,-34.668,-0.488,0.000
1709374369.501,-20.996,-31.250,-35.645,-15.625,0.000
1709374369.505,-64.453,-30.762,-34.668,-53.711,0.000
1709374369.509,-68.848,-36.621,-32.715,-60.547,0.000
1709374369.513,-38.086,-33.691,-31.738,-41.504,0.000
1709374369.517,5.371,-31.250,-33.691,-2.930,0.000
1709374369.520,-4.395,-36.621,-34.668,-17.578,0.000
1709374369.524,-47.363,-44.922,-35.645,-60.547,0.000
1709374369.528,-57.129,-41.992,-33.691,-73.242,0.000
1709374369.532,-44.922,-35.156,-36.133,-59.570,0.000
1709374369.536,-5.859,-33.691,-41.504,-20.508,0.000
1709374369.540,0.000,-30.762,-37.109,-13.672,0.000
1709374369.544,-39.551,-30.762,-32.227,-56.641,0.000
1709374369.548,-50.781,-36.133,-35.156,-69.824,0.000
1709374369.552,-40.527,-39.551,-38.574,-54.688,0.000
1709374369.556,-1.953,-36.621,-33.203,-17.090,0.000
1709374369.560,8.789,-35.156,-28.320,7.324,0.000
1709374369.564,-40.039,-37.109,-32.227,-32.715,0.000
1709374369.567,-65.430,-36.133,-36.133,-64.453,0.000
1709374369.571,-52.246,-25.879,-36.621,-53.223,0.000
1709374369.575,-10.742,-26.367,-41.992,-14.160,0.000
1709374369.579,11.719,-31.250,-37.109,2.441,0.000
1709374369.583,-30.273,-32.227,-33.203,-27.832,0.000
1709374369.587,-58.105,-31.250,-36.621,-60.059,0.000
1709374369.591,-49.316,-28.809,-39.062,-66.406,0.000
1709374369.595,-14.648,-27.344,-39.062,-28.809,0.000
1709374369.599,9.766,-36.621,-41.504,-5.371,0.000
1709374369.603,-30.762,-37.109,-38.574,-34.180,0.000
1709374369.607,-69.336,-34.180,-36.621,-48.828,0.000
1709374369.610,-65.918,-38.086,-42.480,-50.293,0.000
1709374369.614,-23.926,-32.715,-37.109,-26.855,0.000
1709374369.618,15.137,-27.832,-30.273,7.812,0.000
1709374369.622,-24.414,-33.203,-33.691,-24.902,0.000
1709374369.626,-67.871,-36.133,-32.715,-62.500,0.000
1709374369.630,-56.641,-33.691,-27.832,-64.453,0.000
1709374369.634,-20.996,-29.297,-28.809,-39.551,0.000
1709374369.638,7.812,-29.297,-33.691,-12.695,0.000
1709374369.642,-28.320,-30.762,-29.785,-37.109,0.000
1709374369.646,-70.312,-29.297,-26.367,-68.359,0.000
1709374369.649,-66.895,-33.203,-27.344,-59.082,0.000
1709374369.653,-41.504,-46.387,-36.133,-37.598,0.000
1709374369.657,-12.207,-52.734,-40.527,-11.719,0.000
1709374369.661,-29.297,-43.457,-35.156,-20.508,0.000
1709374369.665,-68.359,-37.109,-31.250,-60.059,0.000
1709374369.669,-78.125,-39.551,-29.785,-66.406,0.000
1709374369.673,-48.340,-40.039,-29.785,-45.898,0.000
1709374369.677,-4.883,-37.598,-30.273,-10.254,0.000
1709374369.681,-28.320,-36.621,-31.738,-16.602,0.000
1709374369.684,-72.754,-35.156,-31.738,-52.734,0.000
1709374369.688,-78.613,-34.668,-31.738,-64.453,0.000
1709374369.692,-57.129,-34.668,-29.297,-48.340,0.000
1709374369.696,-7.812,-39.062,-29.297,-7.324,0.000
1709374369.700,-14.160,-41.504,-36.133,-20.020,0.000
1709374369.704,-66.895,-38.086,-41.992,-61.035,0.000
1709374369.708,-78.613,-36.621,-43.945,-77.148,0.000
1709374369.712,-60.059,-37.598,-49.805,-65.430,0.000
1709374369.715,-18.555,-35.645,-45.898,-22.949,0.000
1709374369.719,-14.648,-40.039,-39.062,-19.043,0.000
1709374369.723,-64.941,-44.434,-41.992,-62.012,0.000
1709374369.727,-82.520,-39.062,-44.922,-71.777,0.000
1709374369.731,-59.570,-36.621,-43.945,-56.641,0.000
1709374369.735,-19.043,-38.086,-43.945,-22.461,0.000
1709374369.739,-4.395,-40.039,-41.504,-0.977,0.000
1709374369.743,-43.457,-36.133,-37.109,-34.180,0.000
1709374369.747,-71.777,-37.109,-38.574,-64.453,0.000
1709374369.751,-60.059,-40.527,-35.645,-59.570,0.000
1709374369.754,-12.695,-36.133,-33.691,-23.438,0.000
1709374369.758,0.000,-36.133,-39.062,-9.766,0.000
1709374369.762,-49.316,-41.992,-43.457,-47.852,0.000
1709374369.766,-82.520,-41.016,-40.039,-65.918,0.000
1709374369.770,-76.172,-37.598,-39.062,-61.035,0.000
1709374369.774,-32.227,-45.410,-41.504,-29.785,0.000
1709374369.778,-12.207,-48.340,-45.410,-12.695,0.000
1709374369.781,-53.223,-41.016,-46.387,-52.734,0.000
1709374369.785,-75.195,-39.062,-41.992,-73.730,0.000
1709374369.789,-62.500,-40.527,-40.039,-76.172,0.000
1709374369.793,-25.391,-38.574,-39.551,-51.270,0.000
1709374369.797,11.719,-37.109,-36.621,-11.230,0.000
1709374369.801,-11.719,-35.156,-33.691,-30.762,0.000
1709374369.805,-40.527,-30.273,-34.668,-68.359,0.000
1709374369.809,-43.457,-27.344,-34.180,-72.266,0.000
1709374369.813,-19.043,-26.367,-34.180,-44.922,0.000
1709374369.817,12.207,-28.320,-35.156,-11.719,0.000
1709374369.821,-17.578,-30.273,-33.203,-29.785,0.000
1709374369.825,-56.641,-28.809,-33.203,-61.523,0.000
1709374369.829,-64.453,-31.250,-33.691,-63.965,0.000
1709374369.833,-35.156,-34.180,-32.715,-41.992,0.000
1709374369.836,5.371,-33.691,-35.645,-7.812,0.000
1709374369.840,-21.484,-35.156,-41.504,-26.367,0.000
1709374369.844,-62.500,-27.344,-37.598,-52.734,0.000
1709374369.848,-59.082,-24.414,-35.156,-57.617,0.000
1709374369.852,-33.691,-30.273,-40.039,-42.969,0.000
1709374369.856,5.371,-37.109,-40.039,1.953,0.000
1709374369.860,-7.812,-36.133,-39.062,-10.254,0.000
1709374369.864,-60.547,-34.668,-34.180,-52.734,0.000
1709374369.868,-75.684,-36.133,-30.273,-58.105,0.000
1709374369.872,-44.922,-35.156,-33.203,-36.621,0.000
1709374369.876,-3.906,-35.156,-35.156,-1.465,0.000
1709374369.880,-7.812,-37.109,-38.574,-6.836,0.000
1709374369.884,-50.781,-38.574,-42.480,-46.387,0.000
1709374369.888,-62.988,-35.645,-41.504,-58.594,0.000
1709374369.891,-43.457,-36.621,-42.969,-40.527,0.000
1709374369.895,0.488,-41.016,-43.945,-6.836,0.000
1709374369.899,6.836,-42.480,-41.016,-2.930,0.000
1709374369.903,-45.898,-41.504,-38.086,-34.180,0.000
1709374369.907,-72.266,-36.621,-37.598,-54.688,0.000
1709374369.911,-61.523,-38.086,-42.969,-51.758,0.000
1709374369.915,-19.531,-46.875,-45.410,-20.020,0.000
1709374369.919,10.254,-45.410,-37.598,-4.883,0.000
1709374369.923,-33.203,-38.574,-34.668,-34.180,0.000
1709374369.927,-62.012,-35.645,-35.645,-55.664,0.000
1709374369.931,-51.270,-34.668,-34.180,-46.875,0.000
1709374369.935,-9.277,-35.645,-34.180,-4.395,0.000
1709374369.938,10.254,-41.016,-37.598,5.859,0.000
1709374369.942,-31.738,-41.504,-37.598,-36.133,0.000
1709374369.946,-59.570,-39.551,-35.156,-55.176,0.000
1709374369.950,0.000,-41.016,-36.621,-53.223,0.000
1709374369.954,0.000,-37.598,-40.039,-24.414,0.000
1709374369.958,0.000,-36.133,-39.062,11.719,0.000
1709374369.962,0.000,-33.691,-37.109,-19.043,0.000
1709374369.966,0.000,-28.809,-37.598,-52.246,0.000
1709374369.970,0.000,-27.344,-32.715,-46.875,0.000
1709374369.974,0.000,-32.227,-28.809,-21.973,0.000
1709374369.978,0.000,-31.738,-26.367,14.160,0.000
1709374369.982,0.000,-29.297,-24.902,-4.395,0.000
1709374369.985,0.000,-31.250,-29.297,-48.340,0.000
1709374369.989,0.000,-31.250,-31.250,-49.805,0.000
1709374369.993,0.000,-35.156,-31.250,-26.855,0.000
1709374369.997,16.113,-38.086,-35.645,-4.883,0.000
1709374370.001,-13.672,-41.016,-37.109,-22.461,0.000
1709374370.005,-52.734,-34.668,-32.227,-51.758,0.000
1709374370.009,-49.805,-24.414,-28.320,-60.547,0.000
1709374370.013,-27.832,-27.344,-34.180,-44.922,0.000
1709374370.017,9.766,-30.762,-37.598,-5.371,0.000
1709374370.020,-9.766,-28.809,-34.668,-13.184,0.000
1709374370.024,-53.223,-25.391,-31.738,-44.434,0.000
1709374370.028,-66.895,-29.785,-30.273,-53.223,0.000
1709374370.032,-46.875,-34.668,-35.156,-43.457,0.000
1709374370.036,3.906,-32.227,-38.086,0.488,0.000
1709374370.040,-0.977,-35.645,-38.086,-5.859,0.000
