timestamps,TP9,AF7,AF8,TP10,Right AUX
1709291851.088,-26.367,-30.273,-33.691,-25.879,0.000
1709291851.092,-19.043,-33.691,-32.227,-26.855,0.000
1709291851.096,-5.859,-29.785,-34.180,-18.555,0.000
1709291851.100,-12.207,-27.832,-35.156,-20.020,0.000
1709291851.104,-25.879,-29.297,-31.738,-27.832,0.000
1709291851.108,-25.391,-33.203,-36.133,-26.367,0.000
1709291851.112,-24.414,-32.227,-37.598,-33.203,0.000
1709291851.115,-15.625,-27.344,-32.715,-26.367,0.000
1709291851.119,-17.578,-30.762,-34.668,-14.160,0.000
1709291851.123,-37.598,-35.156,-35.645,-30.762,0.000
1709291851.127,-40.039,-34.668,-35.645,-32.227,0.000
1709291851.131,-32.227,-36.133,-36.133,-21.484,0.000
1709291851.135,0.000,-36.133,0.000,-21.973,0.000
1709291851.139,0.000,-36.133,0.000,-32.715,0.000
1709291851.143,0.000,-34.668,0.000,-40.039,0.000
1709291851.147,0.000,-34.180,0.000,-37.109,0.000
1709291851.151,0.000,-33.203,0.000,-33.691,0.000
1709291851.155,0.000,-26.855,0.000,-27.832,0.000
1709291851.159,0.000,-26.367,0.000,-25.391,0.000
1709291851.163,0.000,-26.855,0.000,-19.531,0.000
1709291851.167,0.000,-25.391,0.000,-12.695,0.000
1709291851.170,0.000,-24.414,0.000,-20.020,0.000
1709291851.174,0.000,-19.531,0.000,-17.578,0.000
1709291851.178,0.000,-18.555,0.000,-15.625,0.000
1709291851.182,-22.461,-19.043,-33.203,-25.879,0.000
1709291851.186,-26.367,-13.184,-28.320,-25.391,0.000
1709291851.190,-15.137,-21.973,-31.250,-10.742,0.000
1709291851.194,-14.648,-33.203,-32.715,-11.230,0.000
1709291851.198,-10.742,-24.902,-29.297,-20.508,0.000
1709291851.202,-18.066,-23.438,-28.320,-27.832,0.000
1709291851.205,-34.180,-24.414,-28.320,-28.320,0.000
1709291851.209,-29.297,-23.438,-30.762,-13.672,0.000
1709291851.213,-20.020,-22.949,-38.574,-16.113,0.000
1709291851.217,-13.672,-23.438,-38.574,-26.855,0.000
1709291851.221,-20.020,-25.879,-34.668,-26.367,0.000
1709291851.225,-34.668,-31.250,-34.180,-23.438,0.000
1709291851.229,-36.621,-30.762,-32.715,-15.137,0.000
1709291851.232,-27.344,-29.297,-31.738,-15.137,0.000
1709291851.236,-11.230,-31.250,-28.809,-16.602,0.000
1709291851.240,-4.883,-25.879,-30.273,-18.066,0.000
1709291851.244,-17.090,-26.855,-35.645,-24.902,0.000
1709291851.248,-19.043,-28.809,-37.109,-19.531,0.000
1709291851.252,-7.324,-29.297,-35.156,-7.812,0.000
1709291851.256,-8.301,-30.273,-36.621,-9.766,0.000
1709291851.260,-14.648,-24.902,-40.039,-19.531,0.000
1709291851.264,-22.461,-24.414,-43.457,-20.508,0.000
1709291851.268,-18.555,-27.344,-42.480,-17.578,0.000
1709291851.272,-9.277,-25.879,-35.156,-18.066,0.000
1709291851.275,-9.766,-20.508,-35.645,-12.207,0.000
1709291851.279,-7.324,-19.531,-32.227,-8.301,0.000
1709291851.283,-5.859,-22.461,-27.344,-7.812,0.000
1709291851.287,-12.695,-23.926,-31.250,-5.859,0.000
1709291851.291,-14.648,-22.949,-34.180,-7.812,0.000
1709291851.295,-8.789,-22.949,-33.691,-9.766,0.000
1709291851.298,-13.184,-26.367,-29.785,-11.230,0.000
1709291851.302,-26.367,-27.832,-25.879,-14.160,0.000
1709291851.306,-33.203,-27.344,-29.785,-16.602,0.000
1709291851.310,-24.902,-29.297,-30.762,-27.344,0.000
1709291851.314,-17.090,-30.273,-27.832,-26.855,0.000
1709291851.318,-25.879,-31.738,-27.832,-24.414,0.000
1709291851.321,-28.809,-29.785,-20.508,-21.484,0.000
1709291851.325,-23.438,-27.832,-18.555,-11.719,0.000
1709291851.329,-23.926,-25.879,-21.973,-12.207,0.000
1709291851.333,-18.066,-28.320,-22.461,-19.531,0.000
1709291851.337,-23.926,-24.902,-24.902,-16.602,0.000
1709291851.341,-27.832,-24.902,-24.902,-9.277,0.000
1709291851.345,-29.297,-27.832,-29.297,-11.719,0.000
1709291851.349,-30.762,-28.320,-29.785,-20.020,0.000
1709291851.352,-20.508,-28.320,-28.320,-21.484,0.000
1709291851.356,-19.531,-29.785,-27.832,-14.160,0.000
1709291851.360,-23.438,-29.785,-28.809,-10.254,0.000
1709291851.364,-25.391,-29.297,-34.180,-20.996,0.000
1709291851.369,-24.414,-31.250,-33.203,-21.973,0.000
1709291851.373,-18.066,-34.180,-33.691,-13.184,0.000
1709291851.377,-13.672,-31.250,-40.527,-22.461,0.000
1709291851.380,-16.602,-26.855,-35.156,-22.461,0.000
1709291851.384,-20.508,-27.832,-34.668,-13.672,0.000
1709291851.388,-24.902,-36.133,-35.645,-15.137,0.000
1709291851.392,-25.391,-37.598,-34.668,-16.602,0.000
1709291851.396,-11.230,-27.832,-35.156,-13.672,0.000
1709291851.400,-12.695,-26.367,-34.668,-12.695,0.000
1709291851.404,-24.414,-25.879,-38.574,-3.418,0.000
1709291851.408,-23.926,-24.414,-37.598,-8.789,0.000
1709291851.412,-20.996,-28.320,-33.691,-20.508,0.000
1709291851.416,-19.043,-23.926,-33.691,-15.625,0.000
1709291851.420,-22.461,-23.926,-34.180,-20.996,0.000
1709291851.424,-31.738,-35.645,-37.109,-29.785,0.000
1709291851.428,-31.250,-34.668,-41.016,-31.250,0.000
1709291851.432,-22.461,-30.273,-40.527,-23.438,0.000
1709291851.436,-18.555,-35.156,-36.621,-20.020,0.000
1709291851.439,-26.367,-35.156,-32.715,-20.508,0.000
1709291851.443,-33.203,-31.738,-32.715,-18.066,0.000
1709291851.447,-28.320,-30.273,-32.227,-15.137,0.000
1709291851.451,-26.367,-23.438,-32.715,-14.648,0.000
1709291851.455,-20.996,-20.020,-29.297,-17.090,0.000
1709291851.459,-17.578,-26.367,-24.414,-19.531,0.000
1709291851.463,-21.973,-28.320,-22.949,-23.926,0.000
1709291851.467,-34.180,-27.832,-24.902,-24.902,0.000
1709291851.471,-37.109,-28.809,-27.832,-25.391,0.000
1709291851.475,-21.973,-27.832,-27.344,-20.020,0.000
1709291851.479,-14.648,-27.832,-24.902,-13.672,0.000
1709291851.483,-18.555,-30.273,-20.020,-20.996,0.000
1709291851.487,-23.438,-27.832,-22.949,-23.438,0.000
1709291851.490,-25.391,-25.879,-25.879,-16.602,0.000
1709291851.494,-22.949,-31.250,-27.344,-9.766,0.000
1709291851.498,-20.996,-28.320,-27.344,-19.531,0.000
1709291851.502,-24.902,-26.855,-20.508,-19.043,0.000
1709291851.506,-36.133,-29.785,-21.484,-22.949,0.000
1709291851.510,-31.250,-32.227,-21.973,-21.484,0.000
1709291851.514,-17.090,-30.762,-16.602,-12.207,0.000
1709291851.518,-12.695,-25.879,-20.508,-20.508,0.000
1709291851.522,-21.484,-23.926,-22.461,-23.926,0.000
1709291851.526,-32.227,-21.484,-24.902,-20.508,0.000
1709291851.530,-23.438,-20.996,-28.320,-14.648,0.000
1709291851.533,-16.602,-24.414,-28.320,-16.602,0.000
1709291851.537,-17.578,-22.949,-25.391,-13.184,0.000
1709291851.541,-19.531,-22.461,-24.414,-6.348,0.000
1709291851.545,-32.227,-21.973,-25.879,-16.113,0.000
1709291851.549,-28.320,-21.973,-18.066,-13.672,0.000
1709291851.553,-14.160,-23.926,-16.113,-11.230,0.000
1709291851.557,-18.066,-26.367,-22.949,-19.531,0.000
1709291851.561,-26.855,-26.367,-30.273,-29.785,0.000
1709291851.565,-33.203,-26.855,-28.320,-31.250,0.000
1709291851.568,-36.621,-27.344,-21.484,-22.461,0.000
1709291851.572,-21.973,-26.367,-27.344,-17.090,0.000
1709291851.576,-14.160,-21.484,-29.297,-15.137,0.000
1709291851.580,-18.555,-17.090,-23.438,-18.555,0.000
1709291851.584,-19.531,-25.391,-20.020,-14.160,0.000
1709291851.588,-16.602,-23.926,-24.902,-13.672,0.000
1709291851.592,-9.766,-24.414,-25.879,-20.020,0.000
1709291851.596,-11.719,-32.715,-25.879,-27.832,0.000
1709291851.600,-22.949,-30.273,-28.320,-29.785,0.000
1709291851.606,-32.715,-32.715,-29.785,-25.879,0.000
1709291851.610,-39.062,-41.504,-34.180,-24.902,0.000
1709291851.614,-25.391,-37.598,-29.785,-17.578,0.000
1709291851.618,-6.836,-26.367,-23.438,-14.648,0.000
1709291851.622,-14.160,-26.855,-28.320,-21.484,0.000
1709291851.625,-22.949,-29.297,-30.273,-22.949,0.000
1709291851.629,-24.902,-30.273,-31.250,-21.973,0.000
1709291851.633,-21.484,-29.297,-31.250,-8.301,0.000
1709291851.637,-11.719,-26.855,-31.738,-15.137,0.000
1709291851.641,-15.625,-30.273,-34.668,-30.762,0.000
1709291851.645,-25.879,-31.738,-30.762,-27.344,0.000
1709291851.649,-29.297,-36.621,-31.250,-27.832,0.000
1709291851.652,-22.461,-33.203,-34.180,-23.438,0.000
1709291851.656,-10.254,-27.344,-25.391,-8.301,0.000
1709291851.660,-6.348,-26.855,-23.926,-15.625,0.000
1709291851.664,-18.066,-23.438,-27.832,-28.320,0.000
1709291851.668,-24.902,-23.926,-27.344,-28.809,0.000
1709291851.672,-18.066,-30.762,-35.645,-30.273,0.000
1709291851.676,-16.602,-29.785,-39.551,-29.297,0.000
1709291851.680,-21.484,-27.344,-38.086,-27.832,0.000
1709291851.683,-29.297,-30.273,-42.480,-37.598,0.000
1709291851.687,-40.039,-33.203,-41.992,-29.297,0.000
1709291851.691,-27.832,-32.227,-36.621,-15.625,0.000
1709291851.695,-14.648,-29.297,-34.668,-19.531,0.000
1709291851.698,-21.484,-29.785,-35.645,-27.344,0.000
1709291851.702,-27.344,-35.156,-34.668,-22.949,0.000
1709291851.706,-31.250,-38.574,-34.668,-7.324,0.000
1709291851.710,-29.785,-30.762,-41.016,-14.160,0.000
1709291851.714,-16.602,-31.738,-47.363,-27.344,0.000
1709291851.718,-4.883,-31.738,-42.480,-13.672,0.000
1709291851.722,-13.184,-29.297,-40.039,0.488,0.000
1709291851.726,-22.949,-32.715,-44.434,-14.160,0.000
1709291851.729,-18.066,-33.691,-42.480,-22.949,0.000
1709291851.733,-10.742,-34.668,-40.527,-18.066,0.000
1709291851.737,-18.066,-32.227,-35.645,-21.484,0.000
1709291851.741,-30.273,-31.738,-34.180,-37.109,0.000
1709291851.746,-33.203,-30.273,-37.109,-36.133,0.000
1709291851.749,-23.438,-27.344,-29.785,-21.973,0.000
1709291851.753,-20.508,-30.762,-29.785,-22.461,0.000
1709291851.757,-17.578,-29.785,-34.668,-23.926,0.000
1709291851.761,-19.043,-22.949,-34.180,-17.578,0.000
1709291851.765,-27.344,-22.461,-35.156,-14.648,0.000
1709291851.769,-24.902,-27.344,-36.621,-19.043,0.000
1709291851.773,-21.484,-22.949,-37.109,-21.484,0.000
1709291851.777,-17.090,-20.508,-34.668,-22.949,0.000
1709291851.781,-14.160,-18.555,-29.297,-10.742,0.000
1709291851.785,-21.484,-13.672,-30.762,-15.137,0.000
1709291851.789,-27.344,-18.066,-35.156,-24.902,0.000
1709291851.793,-26.855,-24.902,-37.109,-22.461,0.000
1709291851.797,-23.926,-27.832,-35.645,-25.879,0.000
1709291851.800,-20.508,-24.902,-33.203,-28.809,0.000
1709291851.804,-28.809,-27.832,-30.273,-23.438,0.000
1709291851.808,-32.227,-33.203,-30.273,-26.367,0.000
1709291851.812,-24.414,-30.273,-36.621,-21.484,0.000
1709291851.816,-15.137,-24.902,-38.086,-11.719,0.000
1709291851.820,-13.184,-25.879,-36.133,-18.555,0.000
1709291851.824,-21.484,-32.715,-41.016,-26.367,0.000
1709291851.828,-24.414,-33.203,-37.598,-20.996,0.000
1709291851.832,-16.602,-30.762,-33.203,-26.367,0.000
1709291851.836,-9.766,-29.785,-36.133,-35.156,0.000
1709291851.840,-16.113,-31.250,-37.598,-32.227,0.000
1709291851.843,-30.273,-35.156,-36.133,-29.297,0.000
1709291851.847,-35.645,-38.086,-34.180,-34.180,0.000
1709291851.851,-33.203,-39.551,-31.250,-32.227,0.000
1709291851.855,-25.391,-32.715,-32.227,-22.461,0.000
1709291851.859,-22.949,-28.809,-34.668,-23.438,0.000
1709291851.863,-32.715,-28.809,-34.180,-25.879,0.000
1709291851.867,-33.691,-27.344,-30.273,-19.531,0.000
1709291851.871,-25.879,-27.344,-25.391,-4.883,0.000
1709291851.875,-18.066,-21.484,-26.855,-9.766,0.000
1709291851.879,-8.301,-19.531,-27.344,-11.719,0.000
1709291851.883,-10.254,-26.855,-28.320,-10.254,0.000
1709291851.886,-22.949,-28.809,-33.203,-15.137,0.000
1709291851.890,-28.320,-29.297,-31.250,-19.531,0.000
1709291851.894,-27.832,-25.879,-30.273,-28.320,0.000
1709291851.898,-25.391,-26.367,-32.715,-27.832,0.000
1709291851.902,-26.367,-27.832,-31.250,-27.832,0.000
1709291851.906,-37.598,-28.320,-34.668,-26.855,0.000
1709291851.910,-29.297,-28.809,-35.156,-19.043,0.000
1709291851.914,-15.625,-22.461,-30.762,-15.137,0.000
1709291851.918,-20.020,-20.996,-32.715,-18.555,0.000
1709291851.921,-23.438,-22.949,-35.645,-24.414,0.000
1709291851.925,-24.902,-20.020,-31.250,-18.066,0.000
1709291851.929,-25.391,-20.020,-29.297,-10.254,0.000
1709291851.933,-15.625,-20.020,-30.762,-10.742,0.000
1709291851.937,-12.695,-20.996,-34.180,-21.484,0.000
1709291851.941,-18.066,-23.438,-35.156,-34.180,0.000
1709291851.945,-21.973,-25.879,-32.715,-33.691,0.000
1709291851.948,-28.809,-26.367,-30.762,-28.809,0.000
1709291851.952,-31.738,-28.809,-37.598,-26.855,0.000
1709291851.956,-26.367,-29.785,-45.410,-30.762,0.000
1709291851.960,-22.461,-26.855,-38.574,-23.926,0.000
1709291851.964,-21.484,-20.020,-34.668,-25.879,0.000
1709291851.968,-20.508,-18.555,-36.621,-28.809,0.000
1709291851.972,-18.066,-23.926,-37.109,-24.902,0.000
1709291851.976,-10.742,-22.461,-35.645,-24.414,0.000
1709291851.979,-13.184,-20.508,-35.156,-21.484,0.000
1709291851.983,-32.227,-25.391,-35.645,-23.438,0.000
1709291851.987,-35.645,-27.344,-34.180,-29.297,0.000
1709291851.991,-22.949,-22.461,-32.715,-25.879,0.000
1709291851.995,-8.789,-17.578,-26.855,-18.066,0.000
1709291851.999,-5.371,-18.066,-24.902,-20.996,0.000
1709291852.003,-18.066,-16.113,-27.344,-20.508,0.000
1709291852.007,-31.250,-21.973,-26.367,-12.695,0.000
1709291852.011,-15.625,-29.297,-25.879,6.348,0.000
1709291852.014,14.648,-16.602,-34.668,10.254,0.000
1709291852.018,-3.906,-3.906,-38.086,-19.043,0.000
1709291852.022,-37.109,-10.254,-35.156,-34.180,0.000
1709291852.027,-26.367,-11.230,-38.086,-25.391,0.000
1709291852.031,-14.648,0.000,-37.109,-21.484,0.000
1709291852.035,-8.789,5.371,-38.574,-22.949,0.000
1709291852.039,-1.465,10.742,-44.922,-25.879,0.000
1709291852.043,-10.254,11.719,-44.434,-40.039,0.000
1709291852.046,-16.113,11.719,-39.062,-42.480,0.000
1709291852.050,-10.254,15.137,-41.992,-37.109,0.000
1709291852.054,-7.812,17.090,-45.410,-41.016,0.000
1709291852.058,-10.742,19.043,-45.410,-52.734,0.000
1709291852.062,-24.902,15.137,-47.852,-57.617,0.000
1709291852.066,-32.227,22.461,-49.316,-54.688,0.000
1709291852.070,-32.715,27.832,-46.875,-55.176,0.000
1709291852.073,-28.809,22.949,-46.875,-60.547,0.000
1709291852.077,-31.250,21.484,-53.711,-71.289,0.000
1709291852.081,-45.898,24.902,-57.617,-81.055,0.000
1709291852.085,-43.457,29.297,-57.129,-76.172,0.000
1709291852.089,-33.203,25.879,-56.152,-78.125,0.000
1709291852.093,-41.016,20.020,-60.059,-92.285,0.000
1709291852.096,-41.016,22.461,-62.012,-90.332,0.000
1709291852.100,-26.367,31.250,-60.059,-73.730,0.000
1709291852.104,-21.484,36.621,-60.059,-64.453,0.000
1709291852.108,-18.066,38.574,-60.547,-47.852,0.000
1709291852.112,-3.418,38.574,-63.965,-34.668,0.000
1709291852.116,9.277,41.992,-66.895,-32.715,0.000
1709291852.120,13.672,45.898,-67.383,-33.691,0.000
1709291852.124,13.672,46.875,-67.383,-26.367,0.000
1709291852.128,18.555,46.387,-68.848,-9.277,0.000
1709291852.132,31.250,40.039,-69.824,-2.930,0.000
1709291852.136,48.340,42.480,-67.871,4.395,0.000
1709291852.140,49.316,43.457,-65.430,13.672,0.000
1709291852.144,43.945,40.039,-64.941,16.602,0.000
1709291852.148,44.434,35.156,-66.895,21.484,0.000
1709291852.152,46.875,32.227,-62.500,37.598,0.000
1709291852.156,54.688,30.762,-56.641,48.340,0.000
1709291852.159,53.711,31.250,-56.641,35.156,0.000
1709291852.163,47.363,23.438,-54.199,23.926,0.000
1709291852.168,41.504,21.484,-53.711,26.367,0.000
1709291852.171,43.945,23.438,-54.199,33.203,0.000
1709291852.175,49.316,20.508,-48.828,30.273,0.000
1709291852.179,47.852,18.066,-44.922,23.438,0.000
1709291852.183,38.574,12.207,-42.480,20.020,0.000
1709291852.187,29.785,10.254,-41.992,14.160,0.000
1709291852.191,23.926,10.742,-41.992,17.090,0.000
1709291852.195,22.461,5.859,-41.992,18.066,0.000
1709291852.199,27.832,1.953,-42.969,21.973,0.000
1709291852.203,25.391,5.859,-38.086,30.762,0.000
1709291852.207,14.648,7.812,-36.621,14.160,0.000
1709291852.210,11.230,7.324,-33.203,8.789,0.000
1709291852.215,10.742,6.836,-31.250,20.020,0.000
1709291852.219,15.137,0.488,-37.598,9.277,0.000
1709291852.223,20.020,-5.859,-38.574,-8.301,0.000
1709291852.227,7.812,-7.324,-37.598,-4.883,0.000
1709291852.231,4.883,-6.836,-32.227,8.789,0.000
1709291852.234,8.789,-2.930,-33.691,2.930,0.000
1709291852.238,4.883,-1.465,-39.551,-0.488,0.000
1709291852.242,1.953,-4.883,-41.504,3.418,0.000
1709291852.246,-7.324,-14.648,-41.992,2.930,0.000
1709291852.250,-10.254,-13.672,-38.574,1.953,0.000
1709291852.254,1.953,-10.254,-39.551,1.953,0.000
1709291852.258,10.742,-15.625,-40.527,-1.465,0.000
1709291852.262,4.395,-17.578,-38.574,-6.836,0.000
1709291852.266,-6.836,-12.207,-32.227,-3.906,0.000
1709291852.270,-12.207,-8.301,-29.785,-3.418,0.000
1709291852.273,-7.812,-7.324,-37.598,-6.836,0.000
1709291852.277,-6.348,-9.766,-38.574,-14.648,0.000
1709291852.281,-5.371,-13.672,-38.574,-16.113,0.000
1709291852.285,-6.348,-13.184,-37.109,-15.137,0.000
1709291852.289,-13.672,-9.277,-33.203,-17.578,0.000
1709291852.293,-6.348,-4.395,-32.227,5.859,0.000
1709291852.297,-3.418,-4.395,-35.156,-9.766,0.000
1709291852.301,-12.695,-11.230,-34.180,-20.020,0.000
1709291852.305,-14.648,-15.137,-27.344,-2.930,0.000
1709291852.308,-16.113,-19.043,-30.273,-5.371,0.000
1709291852.312,-13.184,-20.508,-35.156,-9.766,0.000
1709291852.316,0.488,-18.066,-34.180,-20.020,0.000
1709291852.320,-2.930,-17.090,-37.109,-24.414,0.000
1709291852.324,-18.066,-22.461,-41.504,-21.484,0.000
1709291852.328,-25.391,-25.879,-37.109,-21.484,0.000
1709291852.332,-15.137,-24.414,-34.180,-14.160,0.000
1709291852.336,-3.418,-25.391,-33.203,-14.160,0.000
1709291852.339,-4.395,-21.484,-34.668,-22.461,0.000
1709291852.343,-13.672,-21.484,-34.668,-37.109,0.000
1709291852.347,-27.344,-23.926,-34.180,-39.551,0.000
1709291852.351,-26.855,-23.438,-33.691,-22.461,0.000
1709291852.355,-17.090,-20.996,-28.320,-18.066,0.000
1709291852.359,-16.113,-20.508,-21.484,-15.625,0.000
1709291852.363,-18.066,-17.090,-22.461,-27.344,0.000
1709291852.366,-21.973,-14.160,-22.949,-24.414,0.000
1709291852.370,-24.414,-16.602,-24.902,-18.555,0.000
1709291852.374,-17.578,-20.508,-26.367,-21.484,0.000
1709291852.378,-7.324,-26.367,-26.855,-20.020,0.000
1709291852.382,-4.883,-24.902,-27.832,-9.277,0.000
1709291852.386,-15.137,-25.879,-29.297,-10.254,0.000
1709291852.390,-20.996,-27.344,-28.809,-19.043,0.000
1709291852.394,-14.648,-18.555,-23.926,-13.184,0.000
1709291852.398,-10.254,-18.555,-24.902,-10.254,0.000
1709291852.401,-19.531,-22.461,-24.414,-21.484,0.000
1709291852.405,-28.320,-23.926,-26.367,-20.996,0.000
1709291852.409,-29.785,-21.484,-28.320,-25.391,0.000
1709291852.413,-20.020,-19.043,-30.273,-26.367,0.000
1709291852.417,-16.602,-17.090,-30.273,-22.949,0.000
1709291852.420,-22.949,-20.508,-29.785,-22.461,0.000
1709291852.424,-22.949,-20.020,-29.785,-9.766,0.000
1709291852.428,-21.973,-16.602,-30.762,-14.160,0.000
1709291852.432,-21.484,-21.973,-34.668,-30.762,0.000
1709291852.436,-19.531,-21.973,-33.691,-31.250,0.000
1709291852.440,-20.996,-19.043,-26.367,-14.160,0.000
1709291852.444,-18.555,-16.602,-26.855,-16.113,0.000
1709291852.447,-20.508,-14.648,-26.367,-19.043,0.000
1709291852.451,-17.578,-17.090,-29.297,-19.043,0.000
1709291852.455,-9.766,-20.508,-31.738,-25.879,0.000
1709291852.459,-13.184,-16.113,-27.832,-19.531,0.000
1709291852.463,-13.184,-12.207,-31.738,-13.184,0.000
1709291852.467,-13.184,-12.695,-26.855,-9.766,0.000
1709291852.471,-22.461,-13.184,-24.414,-14.648,0.000
1709291852.474,-18.066,-14.160,-29.297,-20.508,0.000
1709291852.478,-9.766,-21.484,-31.250,-15.625,0.000
1709291852.482,-17.090,-20.508,-32.227,-28.809,0.000
1709291852.486,-28.809,-17.090,-36.133,-29.785,0.000
1709291852.490,-26.367,-18.555,-36.133,-21.484,0.000
1709291852.494,-17.090,-20.020,-37.109,-20.020,0.000
1709291852.498,-16.602,-22.949,-35.156,-22.461,0.000
1709291852.502,-23.926,-20.996,-33.203,-25.879,0.000
1709291852.506,-22.949,-20.996,-31.250,-23.926,0.000
1709291852.510,-18.066,-20.996,-27.832,-16.113,0.000
1709291852.514,-15.137,-20.996,-25.879,-20.020,0.000
1709291852.518,-17.578,-22.461,-28.320,-21.484,0.000
1709291852.522,-23.926,-20.508,-28.320,-11.230,0.000
1709291852.526,-25.879,-19.531,-28.320,-28.809,0.000
1709291852.530,-24.902,-20.996,-29.297,-19.531,0.000
1709291852.534,-24.902,-23.438,-28.320,-13.184,0.000
1709291852.537,-21.973,-21.484,-31.250,-23.926,0.000
1709291852.542,-21.973,-17.578,-36.621,-24.414,0.000
1709291852.546,-28.320,-13.184,-28.320,-23.926,0.000
1709291852.549,-30.273,-18.066,-21.484,-18.555,0.000
1709291852.553,-19.043,-22.461,-29.297,-25.879,0.000
1709291852.557,-18.555,-22.949,-31.250,-26.855,0.000
1709291852.561,-24.902,-22.949,-27.832,-21.973,0.000
1709291852.565,-31.250,-27.832,-27.832,-28.320,0.000
1709291852.569,-35.156,-29.297,-30.273,-39.062,0.000
1709291852.573,-24.414,-28.809,-27.344,-22.461,0.000
1709291852.577,-15.137,-25.879,-28.320,-10.254,0.000
1709291852.581,-25.391,-20.996,-29.297,-27.344,0.000
1709291852.585,-33.691,-21.484,-28.809,-37.109,0.000
1709291852.589,-40.527,-24.902,-30.273,-27.344,0.000
1709291852.593,-26.367,-24.902,-33.691,-17.578,0.000
1709291852.596,-10.742,-20.508,-33.203,-14.160,0.000
1709291852.600,-30.762,-23.926,-27.832,-14.160,0.000
1709291852.604,-39.551,-28.320,-32.715,-20.020,0.000
1709291852.608,-34.668,-26.855,-35.156,-27.832,0.000
1709291852.612,-28.320,-28.320,-36.133,-27.344,0.000
1709291852.616,-20.020,-32.227,-33.203,-29.785,0.000
1709291852.620,-20.020,-27.832,-24.414,-12.207,0.000
1709291852.624,-32.715,-28.320,-31.250,-7.812,0.000
1709291852.628,-32.715,-31.250,-35.156,-27.344,0.000
1709291852.632,-26.855,-36.621,-32.715,-19.531,0.000
1709291852.635,-15.625,-36.621,-34.180,-13.184,0.000
1709291852.639,-14.160,-26.367,-35.156,-28.809,0.000
1709291852.643,-33.203,-28.320,-34.668,-29.297,0.000
1709291852.647,-32.715,-35.645,-32.715,-23.438,0.000
1709291852.651,-26.367,-32.715,-31.250,-21.484,0.000
1709291852.655,-20.020,-29.297,-30.762,-15.625,0.000
1709291852.659,-14.648,-26.855,-36.133,-13.672,0.000
1709291852.663,-24.414,-27.344,-33.691,-9.277,0.000
1709291852.667,-36.621,-28.320,-33.203,-14.160,0.000
1709291852.671,-34.668,-28.809,-39.551,-23.926,0.000
1709291852.675,-16.602,-26.367,-34.180,-15.625,0.000
1709291852.678,-11.719,-24.414,-29.297,-5.371,0.000
1709291852.682,-21.484,-26.367,-29.785,-6.348,0.000
1709291852.686,-28.809,-23.926,-32.715,-13.672,0.000
1709291852.690,-30.273,-21.973,-31.738,-18.066,0.000
1709291852.694,-18.555,-17.578,-27.832,-14.160,0.000
1709291852.698,-15.625,-17.090,-26.855,-5.859,0.000
1709291852.702,-21.973,-20.508,-29.785,-4.395,0.000
1709291852.706,-26.855,-23.926,-27.832,-5.859,0.000
1709291852.709,-30.762,-25.879,-30.273,0.000,0.000
1709291852.713,-26.367,-21.484,-36.133,-5.371,0.000
1709291852.717,-10.742,-16.602,-34.180,-13.672,0.000
1709291852.721,-4.883,-17.578,-26.855,-15.625,0.000
1709291852.725,-21.973,-23.926,-25.391,-12.207,0.000
1709291852.729,-30.273,-26.855,-26.855,-14.648,0.000
1709291852.733,-20.996,-25.391,-28.320,-16.113,0.000
1709291852.736,-13.672,-26.855,-30.273,-21.484,0.000
1709291852.740,-18.066,-30.273,-31.738,-26.855,0.000
1709291852.744,-24.902,-24.902,-30.762,-35.645,0.000
1709291852.748,-19.531,-20.996,-33.203,-41.992,0.000
1709291852.752,-16.113,-24.414,-32.227,-31.250,0.000
1709291852.756,-21.484,-28.809,-30.273,-24.902,0.000
1709291852.760,-29.297,-24.414,-37.109,-36.621,0.000
1709291852.764,-25.391,-21.973,-32.715,-33.691,0.000
1709291852.768,-26.855,-23.438,-21.973,-24.414,0.000
1709291852.772,-21.973,-24.414,-22.461,-25.391,0.000
1709291852.775,-17.090,-26.367,-20.996,-26.855,0.000
1709291852.779,-29.297,-26.367,-20.508,-31.738,0.000
1709291852.783,-35.156,-33.203,-23.438,-26.367,0.000
1709291852.787,-28.809,-31.250,-22.461,-23.926,0.000
1709291852.791,-22.461,-24.902,-24.902,-29.297,0.000
1709291852.795,-12.207,-31.250,-23.438,-17.090,0.000
1709291852.798,-4.883,-30.762,-20.508,-7.324,0.000
1709291852.802,-19.043,-24.902,-24.902,-11.230,0.000
1709291852.806,-31.738,-22.949,-26.855,-20.508,0.000
1709291852.810,-21.973,-25.391,-23.438,-18.555,0.000
1709291852.814,-4.395,-20.508,-23.438,1.465,0.000
1709291852.818,-3.418,-14.648,-22.949,0.000,0.000
1709291852.821,-25.879,-18.555,-26.367,-27.344,0.000
1709291852.825,-32.227,-20.508,-31.738,-27.832,0.000
1709291852.829,-27.344,-19.531,-33.691,-20.996,0.000
1709291852.833,-36.133,-15.625,-37.109,-31.738,0.000
1709291852.837,-21.484,-10.742,-36.133,-25.879,0.000
1709291852.841,-12.207,-9.766,-37.109,-18.066,0.000
1709291852.845,-36.133,-13.184,-35.156,-22.461,0.000
1709291852.849,-33.203,-14.160,-31.738,-25.391,0.000
1709291852.853,-14.648,-17.090,-33.691,-19.531,0.000
1709291852.856,-18.066,-23.438,-30.762,-18.066,0.000
1709291852.860,-25.391,-21.484,-31.738,-27.832,0.000
1709291852.864,-34.180,-21.484,-33.691,-30.273,0.000
1709291852.869,-30.273,-19.043,-36.621,-28.320,0.000
1709291852.873,-17.578,-16.602,-37.598,-25.391,0.000
1709291852.877,-14.648,-15.625,-33.203,-18.555,0.000
1709291852.880,-18.555,-16.602,-34.668,-20.020,0.000
1709291852.884,-28.809,-20.508,-38.086,-18.555,0.000
1709291852.888,-29.297,-20.020,-36.133,-18.555,0.000
1709291852.892,-18.555,-16.113,-34.180,-23.438,0.000
1709291852.896,-15.137,-18.066,-32.715,-32.715,0.000
1709291852.900,-21.484,-24.414,-31.738,-22.949,0.000
1709291852.904,-33.691,-22.461,-30.273,-8.301,0.000
1709291852.908,-34.180,-20.508,-35.645,-19.531,0.000
1709291852.912,-18.555,-21.484,-34.668,-17.090,0.000
1709291852.916,-4.883,-19.531,-33.691,-6.836,0.000
1709291852.920,-2.930,-19.531,-37.109,-14.160,0.000
1709291852.924,-15.137,-17.578,-38.574,-14.648,0.000
1709291852.928,-17.090,-21.484,-39.062,-19.531,0.000
1709291852.932,-15.137,-26.855,-38.086,-15.137,0.000
1709291852.936,-12.695,-24.414,-39.551,-6.836,0.000
1709291852.939,-7.812,-19.531,-36.133,-9.766,0.000
1709291852.943,-20.508,-21.973,-37.598,-22.461,0.000
1709291852.947,-32.227,-30.762,-36.621,-16.113,0.000
1709291852.951,-24.414,-25.391,-32.715,-10.254,0.000
1709291852.955,-23.438,-21.973,-36.133,-23.438,0.000
1709291852.959,-20.508,-24.902,-37.598,-21.973,0.000
1709291852.964,0.000,-23.926,-34.668,-14.160,0.000
1709291852.968,0.000,-21.484,-37.109,-15.137,0.000
1709291852.972,0.000,-24.414,-36.621,-20.508,0.000
1709291852.976,0.000,-26.367,-30.273,-16.602,0.000
1709291852.980,0.000,-22.949,-25.391,-12.207,0.000
1709291852.984,0.000,-19.043,-27.832,-19.043,0.000
1709291852.988,0.000,-17.578,-26.367,-21.484,0.000
1709291852.992,0.000,-18.066,-24.902,-25.879,0.000
1709291852.996,0.000,-21.484,-26.367,-22.461,0.000
1709291853.000,0.000,-21.973,-30.273,-24.902,0.000
1709291853.003,0.000,-25.879,-32.227,-35.645,0.000
1709291853.007,0.000,-20.996,-31.250,-35.645,0.000
1709291853.011,-20.020,-21.973,-29.785,-27.344,0.000
1709291853.015,-21.484,-26.855,-28.320,-27.832,0.000
1709291853.019,-14.648,-22.461,-28.320,-27.344,0.000
1709291853.023,-20.996,-21.484,-26.367,-26.367,0.000
1709291853.027,-29.297,-23.926,-21.973,-25.391,0.000
1709291853.031,-24.414,-23.926,-25.879,-27.832,0.000
1709291853.035,-24.414,-25.391,-31.250,-26.367,0.000
1709291853.039,-22.949,-30.273,-26.855,-32.715,0.000
1709291853.043,-20.508,-27.344,-28.320,-29.785,0.000
1709291853.047,-24.414,-21.484,-29.785,-21.973,0.000
1709291853.050,-25.391,-20.020,-27.832,-28.809,0.000
1709291853.054,-20.996,-19.043,-29.785,-33.203,0.000
1709291853.058,-17.578,-20.508,-31.250,-38.574,0.000
1709291853.062,-21.484,-21.973,-33.203,-42.969,0.000
1709291853.066,-28.809,-21.973,-29.785,-34.180,0.000
1709291853.070,-27.832,-20.996,-27.344,-23.438,0.000
1709291853.074,-20.020,-17.578,-28.809,-20.020,0.000
1709291853.078,-13.184,-18.066,-25.879,-18.555,0.000
1709291853.082,-20.996,-20.508,-24.414,-15.625,0.000
1709291853.085,-37.598,-21.484,-28.320,-20.020,0.000
1709291853.089,-41.992,-23.926,-29.297,-25.879,0.000
1709291853.093,-29.785,-23.926,-34.180,-22.461,0.000
1709291853.097,-21.484,-25.879,-32.715,-18.066,0.000
1709291853.101,-15.625,-25.391,-23.438,-17.090,0.000
1709291853.104,-23.926,-20.508,-26.855,-20.508,0.000
1709291853.108,-33.691,-18.555,-30.273,-24.902,0.000
1709291853.112,-25.879,-14.648,-26.855,-25.391,0.000
1709291853.116,-16.602,-19.531,-31.738,-22.949,0.000
1709291853.120,-18.555,-20.996,-33.691,-20.508,0.000
1709291853.124,-25.879,-17.090,-22.949,-19.531,0.000
1709291853.128,-28.809,-16.113,-24.414,-14.160,0.000
1709291853.132,-24.902,-16.602,-24.414,-10.254,0.000
1709291853.136,-16.602,-14.648,-25.879,-21.484,0.000
1709291853.140,-22.461,-24.414,-35.645,-29.785,0.000
1709291853.144,-35.156,-31.250,-36.133,-31.250,0.000
1709291853.147,-42.969,-25.879,-37.598,-35.645,0.000
1709291853.151,0.000,-32.227,-43.457,-36.621,0.000
1709291853.155,0.000,-37.109,-43.945,-38.086,0.000
1709291853.159,0.000,-29.297,-41.016,-28.320,0.000
1709291853.163,0.000,-26.367,-42.969,-23.926,0.000
1709291853.166,0.000,-28.809,-44.922,-30.762,0.000
1709291853.170,0.000,-25.391,-38.574,-27.832,0.000
1709291853.174,0.000,-23.926,-33.691,-13.184,0.000
1709291853.178,0.000,-18.066,-35.645,-9.277,0.000
1709291853.182,0.000,-18.066,-39.551,-25.391,0.000
1709291853.186,0.000,-20.020,-34.180,-24.414,0.000
1709291853.190,0.000,-17.578,-34.668,-15.625,0.000
1709291853.194,0.000,-20.996,-35.645,-19.531,0.000
1709291853.197,-8.789,-20.508,-35.156,-21.973,0.000
1709291853.201,-12.695,-17.090,-36.133,-20.020,0.000
1709291853.205,-20.508,-17.578,-35.645,-21.484,0.000
1709291853.209,-20.508,-15.625,-35.156,-19.043,0.000
1709291853.213,-11.230,-21.973,-32.715,-21.484,0.000
1709291853.217,-3.906,-26.367,-31.738,-19.531,0.000
1709291853.220,-14.648,-23.438,-34.180,-23.438,0.000
1709291853.224,-35.156,-22.461,-36.133,-30.273,0.000
1709291853.228,-34.668,-16.602,-35.645,-14.160,0.000
1709291853.232,-23.438,-20.508,-34.668,-5.371,0.000
1709291853.236,-12.207,-20.508,-35.645,-3.906,0.000
1709291853.240,-13.672,-16.113,-30.762,-11.719,0.000
1709291853.244,-22.949,-15.625,-30.762,-19.531,0.000
1709291853.248,-25.391,-16.602,-34.668,-17.090,0.000
1709291853.252,-22.949,-16.113,-34.668,-23.926,0.000
1709291853.256,-14.160,-13.672,-32.227,-23.438,0.000
1709291853.260,-18.555,-14.648,-31.250,-21.484,0.000
1709291853.264,-17.090,-20.508,-29.297,-20.508,0.000
1709291853.268,-17.090,-22.461,-26.367,-16.602,0.000
1709291853.272,-8.789,-14.648,-23.438,-0.977,0.000
1709291853.276,-7.812,-6.348,-26.855,-5.371,0.000
1709291853.280,-19.531,-10.254,-29.785,-9.766,0.000
1709291853.283,-21.484,-15.137,-29.297,-13.672,0.000
1709291853.287,-28.320,-15.625,-31.250,-28.809,0.000
1709291853.292,-34.180,-18.066,-29.785,-30.273,0.000
1709291853.296,-20.996,-19.043,-30.762,-25.879,0.000
1709291853.299,-15.625,-16.113,-31.738,-22.949,0.000
1709291853.303,-23.438,-16.113,-27.344,-22.949,0.000
1709291853.307,-17.578,-17.578,-31.250,-25.879,0.000
1709291853.311,-16.602,-18.066,-29.785,-25.391,0.000
1709291853.315,-14.160,-13.672,-25.391,-20.996,0.000
1709291853.319,-9.277,-12.695,-30.762,-28.809,0.000
1709291853.323,-19.043,-19.043,-31.250,-26.855,0.000
1709291853.327,-26.367,-20.996,-24.414,-12.695,0.000
1709291853.331,-14.160,-17.090,-22.461,-12.207,0.000
1709291853.335,-6.836,-15.137,-24.902,-17.090,0.000
1709291853.339,-6.836,-15.137,-23.438,-12.207,0.000
1709291853.343,-11.719,-14.648,-29.297,-20.508,0.000
1709291853.346,-24.902,-14.160,-32.715,-31.738,0.000
1709291853.350,-26.367,-17.090,-29.297,-25.391,0.000
1709291853.354,-11.719,-18.066,-32.227,-21.973,0.000
1709291853.358,-12.695,-18.555,-33.691,-22.949,0.000
1709291853.362,-25.391,-15.625,-33.203,-23.438,0.000
1709291853.366,-20.020,-13.672,-31.250,-30.273,0.000
1709291853.370,-18.066,-19.531,-31.738,-26.367,0.000
1709291853.374,-12.695,-16.113,-35.645,-17.090,0.000
1709291853.378,-7.324,-14.648,-34.180,-17.578,0.000
1709291853.382,-14.160,-17.090,-31.250,-26.367,0.000
1709291853.386,-14.648,-11.230,-28.320,-28.320,0.000
1709291853.389,-13.672,-13.672,-24.902,-19.043,0.000
1709291853.393,-15.137,-25.391,-27.344,-16.113,0.000
1709291853.397,-19.043,-23.438,-29.297,-18.555,0.000
1709291853.401,-25.391,-20.996,-27.832,-23.926,0.000
1709291853.405,-24.902,-20.996,-31.738,-25.391,0.000
1709291853.409,-24.414,-25.879,-36.621,-23.926,0.000
1709291853.413,-26.367,-27.344,-26.367,-19.043,0.000
1709291853.417,-15.137,-19.043,-27.344,-19.531,0.000
1709291853.421,-13.184,-17.090,-31.738,-24.414,0.000
1709291853.425,-25.391,-20.996,-26.855,-22.461,0.000
1709291853.428,-24.414,-21.973,-26.367,-12.695,0.000
1709291853.432,-20.020,-19.043,-31.738,-20.020,0.000
1709291853.436,-20.508,-17.090,-34.668,-29.297,0.000
1709291853.440,-19.043,-20.508,-32.715,-15.137,0.000
1709291853.444,-26.855,-21.973,-27.832,-18.555,0.000
1709291853.448,-27.344,-21.484,-24.902,-22.949,0.000
1709291853.452,-12.695,-21.973,-31.738,-12.207,0.000
1709291853.456,-13.184,-28.809,-36.621,-18.555,0.000
1709291853.460,-23.438,-28.320,-31.738,-18.555,0.000
1709291853.463,-30.273,-23.926,-32.715,-12.207,0.000
1709291853.467,-24.902,-26.855,-34.180,-14.648,0.000
1709291853.471,-16.602,-29.297,-34.180,-21.973,0.000
1709291853.475,-15.625,-24.902,-33.691,-17.578,0.000
1709291853.479,-21.973,-23.926,-35.645,-19.531,0.000
1709291853.483,-33.691,-27.344,-41.016,-28.809,0.000
1709291853.487,-36.133,-25.879,-37.109,-27.832,0.000
1709291853.490,-35.645,-28.809,-33.203,-34.180,0.000
1709291853.494,-27.344,-31.738,-32.715,-30.762,0.000
1709291853.498,-21.484,-32.715,-34.180,-24.902,0.000
1709291853.502,-26.367,-35.645,-34.180,-28.809,0.000
1709291853.506,-25.391,-36.621,-33.691,-16.113,0.000
1709291853.510,-27.344,-33.203,-37.109,-18.555,0.000
1709291853.514,-23.926,-31.738,-36.621,-23.926,0.000
1709291853.518,-18.555,-27.344,-35.156,-11.230,0.000
1709291853.522,-27.832,-25.879,-37.109,-18.555,0.000
1709291853.525,-34.180,-30.273,-35.156,-23.926,0.000
1709291853.529,-31.250,-29.785,-35.645,-18.066,0.000
1709291853.533,-21.484,-32.227,-36.621,-17.090,0.000
1709291853.537,-22.949,-36.621,-36.621,-14.160,0.000
1709291853.541,-25.879,-36.621,-36.133,-19.043,0.000
1709291853.545,-34.668,-38.086,-37.109,-22.461,0.000
1709291853.549,-36.133,-38.086,-36.621,-16.602,0.000
1709291853.552,-28.320,-34.180,-38.574,-17.578,0.000
1709291853.556,-18.066,-31.250,-40.039,-20.020,0.000
1709291853.560,-20.996,-33.203,-44.434,-35.156,0.000
1709291853.564,-32.227,-35.156,-42.480,-37.109,0.000
1709291853.568,-32.227,-37.109,-42.969,-25.879,0.000
1709291853.571,-34.180,-41.992,-43.945,-27.832,0.000
1709291853.575,-28.809,-41.016,-40.039,-30.273,0.000
1709291853.579,-19.043,-35.645,-40.527,-26.367,0.000
1709291853.583,-17.090,-33.203,-39.062,-26.367,0.000
1709291853.587,-15.625,-32.227,-37.598,-27.344,0.000
1709291853.591,-14.648,-31.738,-38.086,-29.297,0.000
1709291853.595,-15.625,-35.156,-41.504,-39.062,0.000
1709291853.599,-19.531,-35.156,-42.969,-40.039,0.000
1709291853.603,-23.438,-35.156,-41.504,-35.156,0.000
1709291853.606,-31.250,-36.621,-41.016,-30.273,0.000
1709291853.610,-26.855,-32.715,-44.922,-18.066,0.000
1709291853.614,-16.602,-31.738,-45.898,-17.578,0.000
1709291853.619,-24.414,-33.691,-42.480,-30.273,0.000
1709291853.623,-27.344,-32.227,-37.598,-30.273,0.000
1709291853.627,-29.785,-34.180,-35.645,-20.996,0.000
1709291853.630,-27.344,-32.227,-34.180,-16.602,0.000
1709291853.634,-14.648,-26.855,-36.133,-13.672,0.000
1709291853.638,-15.625,-31.738,-42.969,-20.996,0.000
1709291853.642,-25.391,-33.691,-44.434,-24.414,0.000
1709291853.646,-31.250,-26.855,-45.410,-25.391,0.000
1709291853.650,-25.391,-20.996,-42.969,-26.367,0.000
1709291853.654,-12.695,-25.391,-37.109,-12.207,0.000
1709291853.658,-2.930,-22.949,-39.062,-20.020,0.000
1709291853.662,-1.465,-16.602,-37.109,-21.484,0.000
1709291853.666,-5.859,-18.555,-35.645,-15.625,0.000
1709291853.670,-4.395,-24.414,-37.598,-18.555,0.000
1709291853.674,-1.953,-25.879,-32.227,-23.926,0.000
1709291853.678,0.000,-23.926,-30.762,-24.414,0.000
1709291853.682,-5.859,-23.438,-32.227,-22.461,0.000
1709291853.686,-27.344,-28.320,-36.133,-27.832,0.000
1709291853.689,-31.250,-27.832,-37.598,-28.320,0.000
1709291853.693,-26.855,-22.461,-33.691,-31.250,0.000
1709291853.697,-24.902,-22.949,-36.621,-24.902,0.000
1709291853.701,-25.879,-22.461,-36.621,-18.066,0.000
1709291853.705,-33.691,-17.578,-35.645,-33.691,0.000
1709291853.709,-37.598,-15.625,-38.086,-37.598,0.000
1709291853.713,-32.715,-17.090,-40.039,-29.297,0.000
1709291853.717,-20.020,-11.230,-36.621,-22.461,0.000
1709291853.721,-20.996,-13.184,-32.715,-18.555,0.000
1709291853.725,-22.461,-20.508,-28.320,-20.508,0.000
1709291853.729,-20.508,-24.414,-28.320,-21.484,0.000
1709291853.733,-16.602,-29.785,-28.809,-17.578,0.000
1709291853.736,-7.324,-24.902,-26.367,-12.695,0.000
1709291853.740,-12.695,-24.414,-24.414,-14.648,0.000
1709291853.744,-20.508,-26.367,-21.973,-6.836,0.000
1709291853.748,-24.902,-21.973,-29.297,-14.648,0.000
1709291853.752,-20.508,-22.461,-29.297,-32.715,0.000
1709291853.756,-9.766,-15.625,-20.996,-24.902,0.000
1709291853.760,-11.230,-10.254,-20.996,-16.113,0.000
1709291853.764,-20.020,-18.066,-20.020,-17.090,0.000
1709291853.768,-16.113,-17.090,-20.020,-20.996,0.000
1709291853.772,-6.836,-13.672,-21.973,-20.996,0.000
1709291853.775,-7.812,-18.555,-22.949,-20.508,0.000
1709291853.779,-13.672,-22.461,-21.973,-20.996,0.000
1709291853.783,-20.996,-20.508,-26.367,-17.090,0.000
1709291853.787,-27.344,-25.391,-30.762,-15.137,0.000
1709291853.791,-24.902,-29.785,-32.715,-13.184,0.000
1709291853.795,-19.043,-23.438,-33.203,-25.391,0.000
1709291853.799,-20.508,-20.508,-33.691,-34.180,0.000
1709291853.803,-27.832,-29.785,-37.598,-29.297,0.000
1709291853.807,0.000,-29.785,-36.621,-29.297,0.000
1709291853.810,0.000,-26.855,-31.250,-21.973,0.000
1709291853.814,0.000,-24.414,-26.855,-9.766,0.000
1709291853.818,0.000,-21.484,-25.391,-14.160,0.000
1709291853.822,0.000,-24.902,-26.367,-19.531,0.000
1709291853.826,0.000,-28.809,-26.855,-12.207,0.000
1709291853.830,0.000,-27.344,-28.809,-0.977,0.000
1709291853.834,0.000,-26.367,-32.227,0.977,0.000
1709291853.838,0.000,-31.738,-32.715,-8.301,0.000
1709291853.842,0.000,-32.715,-34.668,-12.695,0.000
1709291853.846,0.000,-29.297,-33.691,-15.625,0.000
1709291853.850,0.000,-28.809,-35.645,-23.926,0.000
1709291853.853,-17.578,-30.273,-39.062,-18.066,0.000
1709291853.857,-13.672,-27.832,-38.574,-16.113,0.000
1709291853.861,-20.508,-25.879,-40.039,-22.461,0.000
1709291853.865,-34.668,-28.809,-42.969,-30.762,0.000
1709291853.869,-27.344,-32.227,-46.387,-22.461,0.000
1709291853.873,-15.137,-33.203,-50.293,-18.555,0.000
1709291853.877,-4.883,-30.273,-41.992,-27.832,0.000
1709291853.881,-0.977,-31.250,-37.598,-19.531,0.000
1709291853.884,-14.160,-34.668,-41.992,-18.066,0.000
1709291853.888,-20.508,-30.762,-38.086,-17.090,0.000
1709291853.892,-10.742,-29.785,-38.574,-18.555,0.000
1709291853.896,-11.230,-29.297,-40.039,-16.602,0.000
1709291853.900,-13.184,-27.832,-40.527,-15.625,0.000
1709291853.903,-13.672,-27.344,-41.992,-22.461,0.000
1709291853.907,-11.719,-20.020,-35.645,-22.949,0.000
1709291853.911,0.000,-17.578,-35.156,-22.461,0.000
1709291853.915,-0.977,-20.020,-36.133,-20.996,0.000
1709291853.919,-4.395,-17.578,-36.133,-17.090,0.000
1709291853.923,-10.742,-22.461,-36.621,-16.113,0.000
1709291853.927,-17.090,-23.926,-38.574,-20.508,0.000
1709291853.931,-24.414,-20.508,-33.203,-20.020,0.000
1709291853.935,-23.926,-16.602,-27.832,-16.113,0.000
1709291853.939,-18.066,-23.926,-27.832,-20.020,0.000
1709291853.943,-15.625,-22.461,-29.297,-19.531,0.000
1709291853.946,-19.043,-12.695,-27.344,-16.113,0.000
1709291853.950,-14.648,-15.625,-25.879,-18.066,0.000
1709291853.954,-7.324,-19.531,-30.273,-15.137,0.000
1709291853.958,-7.812,-21.484,-34.668,-21.484,0.000
1709291853.962,-20.508,-23.926,-33.691,-28.320,0.000
1709291853.965,-28.809,-24.902,-38.574,-22.461,0.000
1709291853.969,-30.273,-24.902,-40.039,-23.926,0.000
1709291853.973,-26.367,-24.414,-36.133,-25.879,0.000
1709291853.977,-16.602,-21.973,-36.621,-14.160,0.000
1709291853.981,-18.555,-25.879,-37.598,-11.230,0.000
1709291853.985,-30.273,-29.297,-39.551,-23.926,0.000
1709291853.989,-24.902,-26.367,-37.598,-27.344,0.000
1709291853.993,-16.113,-23.438,-32.227,-17.578,0.000
1709291853.997,-10.254,-23.926,-33.203,-16.602,0.000
1709291854.001,-22.461,-25.391,-37.109,-26.367,0.000
1709291854.005,-37.598,-28.320,-35.156,-29.785,0.000
1709291854.009,-37.109,-29.785,-33.691,-21.484,0.000
1709291854.013,-34.668,-31.738,-33.203,-12.695,0.000
1709291854.017,-32.227,-27.344,-35.156,-21.484,0.000
1709291854.021,-30.273,-21.973,-41.016,-37.109,0.000
1709291854.025,-30.762,-22.461,-41.016,-33.691,0.000
1709291854.029,-29.785,-26.855,-38.086,-26.855,0.000
1709291854.032,-26.855,-27.832,-38.086,-33.691,0.000
1709291854.036,-21.973,-29.297,-37.598,-36.133,0.000
1709291854.041,-23.438,-29.297,-34.668,-36.133,0.000
1709291854.045,-26.855,-25.879,-30.762,-35.156,0.000
1709291854.048,-32.715,-27.832,-36.133,-37.109,0.000
1709291854.052,-26.855,-30.273,-42.969,-41.504,0.000
1709291854.056,-17.578,-30.762,-38.574,-28.809,0.000
1709291854.060,-21.973,-27.832,-40.039,-27.344,0.000
1709291854.064,-33.691,-18.555,-38.086,-22.461,0.000
1709291854.068,-33.691,-18.066,-35.645,-16.113,0.000
1709291854.072,-25.879,-20.020,-35.645,-8.301,0.000
1709291854.076,-18.066,-18.555,-36.133,4.395,0.000
1709291854.080,-20.508,-21.973,-38.086,-12.207,0.000
1709291854.084,-25.391,-22.949,-42.969,-22.461,0.000
1709291854.088,-13.672,-17.090,-46.387,-4.883,0.000
1709291854.092,-8.789,-14.160,-38.574,-9.277,0.000
1709291854.096,-16.113,-14.160,-32.715,-30.273,0.000
1709291854.099,-27.344,-15.625,-32.227,-31.250,0.000
1709291854.103,-41.504,-21.484,-36.133,-31.250,0.000
1709291854.107,-41.504,-27.344,-43.457,-31.250,0.000
1709291854.111,-40.527,-26.855,-49.316,-25.879,0.000
1709291854.115,-47.852,-27.832,-46.387,-30.273,0.000
1709291854.119,-52.246,-32.715,-46.875,-33.203,0.000
1709291854.123,-43.457,-26.367,-48.828,-23.438,0.000
1709291854.127,-36.621,-22.949,-48.828,-23.438,0.000
1709291854.131,-32.227,-32.715,-49.805,-28.809,0.000
1709291854.135,-24.902,-30.273,-45.410,-28.320,0.000
1709291854.139,-26.367,-26.367,-42.969,-20.020,0.000
1709291854.142,-29.785,-28.320,-42.969,-20.996,0.000
1709291854.146,-33.691,-26.367,-45.898,-22.461,0.000
1709291854.150,-31.738,-29.297,-54.199,-19.043,0.000
1709291854.154,-21.973,-36.133,-60.059,-22.461,0.000
1709291854.158,-16.113,-35.156,-55.664,-15.137,0.000
1709291854.162,-24.414,-34.668,-53.223,-20.508,0.000
1709291854.166,-31.738,-36.621,-53.711,-23.438,0.000
1709291854.170,-27.344,-32.715,-54.199,-21.484,0.000
1709291854.174,-14.160,-32.715,-56.641,-18.555,0.000
1709291854.178,-6.348,-37.598,-56.152,-19.043,0.000
1709291854.181,-11.230,-36.621,-52.246,-25.391,0.000
1709291854.185,-20.996,-37.109,-50.293,-22.461,0.000
1709291854.189,-23.438,-34.668,-55.664,-30.273,0.000
1709291854.193,-16.113,-37.598,-53.711,-26.855,0.000
1709291854.197,-17.090,-43.945,-51.758,-18.066,0.000
1709291854.201,-25.879,-42.969,-58.105,-22.461,0.000
1709291854.205,-25.879,-42.480,-59.570,-24.414,0.000
1709291854.209,-16.113,-39.551,-58.105,-17.578,0.000
1709291854.213,-20.508,-35.645,-56.641,-16.113,0.000
1709291854.217,-12.695,-32.227,-53.711,-24.414,0.000
1709291854.220,-2.930,-28.809,-45.898,-18.555,0.000
1709291854.224,-15.625,-33.203,-46.875,-20.020,0.000
1709291854.228,-26.367,-30.762,-51.758,-30.273,0.000
1709291854.232,-21.484,-30.273,-50.293,-28.809,0.000
1709291854.236,-10.742,-41.992,-44.434,-18.555,0.000
1709291854.240,-18.555,-41.016,-44.434,-20.508,0.000
1709291854.244,-31.738,-35.156,-44.434,-23.926,0.000
1709291854.248,-31.250,-32.715,-43.945,-29.785,0.000
1709291854.251,-24.902,-33.691,-43.945,-19.531,0.000
1709291854.255,-20.996,-31.250,-41.016,-7.324,0.000
1709291854.259,-19.043,-26.367,-43.945,-20.508,0.000
1709291854.263,-21.973,-28.809,-40.039,-32.227,0.000
1709291854.267,-23.438,-27.344,-33.691,-19.531,0.000
1709291854.271,-17.578,-24.414,-34.668,-9.277,0.000
1709291854.274,-14.160,-25.391,-34.668,-9.766,0.000
1709291854.278,-16.113,-27.344,-37.598,-16.113,0.000
1709291854.282,-18.066,-27.832,-35.156,-23.438,0.000
1709291854.286,-18.066,-24.414,-26.367,-14.160,0.000
1709291854.290,-9.766,-24.414,-21.973,-7.812,0.000
1709291854.294,-7.324,-28.320,-21.973,-13.184,0.000
1709291854.298,-5.859,-26.855,-24.902,-12.207,0.000
1709291854.302,-19.043,-24.414,-25.391,-20.996,0.000
1709291854.306,-19.531,-21.973,-27.344,-25.391,0.000
1709291854.310,-10.254,-23.926,-27.344,-18.555,0.000
1709291854.314,-17.578,-27.344,-31.738,-23.926,0.000
1709291854.317,-15.137,-25.391,-34.180,-30.273,0.000
1709291854.321,-18.555,-27.344,-29.785,-25.391,0.000
1709291854.325,-30.762,-23.926,-28.809,-27.832,0.000
1709291854.329,-24.902,-23.926,-32.227,-36.133,0.000
1709291854.332,-6.348,-23.438,-41.016,-25.879,0.000
1709291854.336,8.301,-19.531,-36.621,-9.277,0.000
1709291854.340,-5.859,-28.320,-20.996,0.977,0.000
1709291854.344,-37.109,-31.250,-17.090,-10.742,0.000
1709291854.348,-46.387,-30.273,-20.996,-37.109,0.000
1709291854.352,-43.457,-34.668,-20.996,-41.992,0.000
1709291854.356,-28.320,-41.016,-21.973,-23.926,0.000
1709291854.360,-19.043,-34.180,-18.555,-18.555,0.000
1709291854.364,-30.762,-28.809,-21.484,-33.203,0.000
1709291854.368,-33.691,-34.180,-27.344,-32.715,0.000
1709291854.372,-14.648,-33.691,-26.367,-17.578,0.000
1709291854.376,-1.465,-29.297,-26.855,-12.207,0.000
1709291854.380,-9.277,-27.344,-25.879,-19.531,0.000
1709291854.384,-17.578,-30.762,-22.949,-16.113,0.000
1709291854.388,-20.996,-36.621,-22.949,-3.906,0.000
1709291854.392,-17.578,-33.691,-24.902,-2.930,0.000
1709291854.396,-14.160,-33.691,-24.414,-4.883,0.000
1709291854.399,-17.090,-36.133,-25.391,-18.555,0.000
1709291854.403,-21.484,-33.691,-22.949,-11.719,0.000
1709291854.407,-15.625,-31.250,-22.949,-0.488,0.000
1709291854.411,-3.418,-29.785,-21.973,-10.742,0.000
1709291854.415,-3.906,-29.785,-23.438,-14.648,0.000
1709291854.419,-15.625,-26.367,-25.879,-12.695,0.000
1709291854.423,-30.273,-30.273,-29.297,-17.090,0.000
1709291854.427,-34.180,-36.133,-33.691,-25.391,0.000
1709291854.431,-23.926,-35.645,-34.668,-32.227,0.000
1709291854.435,-12.207,-31.250,-33.203,-23.926,0.000
1709291854.439,-11.719,-26.367,-26.367,-16.113,0.000
1709291854.443,-21.973,-26.855,-23.438,-17.578,0.000
1709291854.447,-23.926,-28.320,-23.926,-16.602,0.000
1709291854.451,-15.625,-28.320,-25.879,-5.859,0.000
1709291854.455,-12.207,-27.832,-24.902,-3.906,0.000
1709291854.458,-12.695,-30.762,-21.973,-12.207,0.000
1709291854.463,-17.090,-26.855,-20.020,-8.789,0.000
1709291854.466,-22.949,-28.809,-21.484,-9.766,0.000
1709291854.470,-21.973,-30.273,-24.414,-12.695,0.000
1709291854.474,-16.602,-27.832,-24.902,-21.484,0.000
1709291854.478,-18.066,-29.785,-24.902,-28.320,0.000
1709291854.482,-24.902,-28.320,-26.855,-15.137,0.000
1709291854.486,-29.785,-29.297,-28.809,-23.926,0.000
1709291854.490,-29.297,-32.227,-30.762,-20.020,0.000
1709291854.494,-21.484,-34.180,-31.250,-5.371,0.000
1709291854.498,-17.578,-32.227,-34.668,-13.184,0.000
1709291854.502,-18.555,-31.738,-36.133,-21.484,0.000
1709291854.506,-20.508,-31.738,-31.250,-18.555,0.000
1709291854.510,-22.949,-24.902,-28.320,-24.902,0.000
1709291854.513,-18.066,-24.414,-32.715,-29.297,0.000
1709291854.517,-16.602,-29.785,-36.133,-29.785,0.000
1709291854.521,-23.438,-25.391,-33.203,-24.414,0.000
1709291854.525,-32.227,-22.949,-36.133,-26.855,0.000
1709291854.529,-28.809,-25.391,-31.250,-21.973,0.000
1709291854.533,-20.508,-26.367,-22.949,-14.160,0.000
1709291854.537,-16.602,-27.832,-26.855,-12.207,0.000
1709291854.541,-7.324,-25.391,-34.180,0.000,0.000
1709291854.545,-18.066,-19.531,-39.062,-14.648,0.000
1709291854.549,-27.832,-19.531,-32.227,-22.949,0.000
1709291854.552,-14.160,-24.414,-29.785,-16.602,0.000
1709291854.556,-8.301,-25.391,-37.109,-15.137,0.000
1709291854.560,-10.742,-23.926,-36.133,-15.137,0.000
1709291854.564,-13.672,-23.926,-33.203,-11.719,0.000
1709291854.568,-19.531,-21.973,-28.809,-8.301,0.000
1709291854.572,-15.137,-20.996,-30.762,-10.742,0.000
1709291854.576,-7.812,-19.531,-34.180,-10.254,0.000
1709291854.580,-14.648,-14.160,-34.668,-14.648,0.000
1709291854.584,-23.438,-11.230,-35.645,-18.066,0.000
1709291854.587,-25.391,-8.301,-38.086,-17.090,0.000
1709291854.591,-16.602,-9.766,-34.668,-15.625,0.000
1709291854.595,-8.301,-9.766,-31.250,-15.137,0.000
1709291854.599,-9.766,-1.953,-32.227,-12.695,0.000
1709291854.603,-22.461,4.395,-35.156,-12.695,0.000
1709291854.607,-28.320,5.371,-32.715,-11.719,0.000
1709291854.611,-17.578,5.859,-29.785,-10.742,0.000
1709291854.615,-12.207,5.859,-33.203,-16.602,0.000
1709291854.619,-18.555,0.488,-36.133,-18.555,0.000
1709291854.622,-22.461,-6.348,-41.504,-21.484,0.000
1709291854.626,-25.879,-7.812,-41.504,-24.902,0.000
1709291854.630,-19.043,-5.859,-35.156,-17.090,0.000
1709291854.634,-6.836,-4.883,-34.668,-20.020,0.000
1709291854.638,3.418,0.000,-38.574,-21.484,0.000
1709291854.642,-2.441,1.465,-42.969,-13.184,0.000
1709291854.646,-12.695,-0.488,-42.480,-10.742,0.000
1709291854.649,0.000,1.465,-41.016,-12.207,0.000
1709291854.653,0.000,6.348,-41.016,-5.859,0.000
1709291854.657,0.000,6.348,-40.527,-7.812,0.000
1709291854.661,0.000,0.488,-42.969,-22.461,0.000
1709291854.665,0.000,5.371,-40.039,-28.809,0.000
1709291854.669,0.000,15.625,-41.504,-20.020,0.000
1709291854.673,0.000,15.625,-41.016,-12.207,0.000
1709291854.677,0.000,15.625,-35.156,-12.695,0.000
1709291854.681,0.000,11.230,-36.621,-17.578,0.000
1709291854.685,0.000,5.371,-42.480,-17.090,0.000
1709291854.688,0.000,-1.953,-39.062,-8.789,0.000
1709291854.692,0.000,-6.348,-40.527,-12.695,0.000
1709291854.696,-19.043,-9.277,-38.574,-17.578,0.000
1709291854.700,-20.996,-15.137,-39.062,-20.996,0.000
1709291854.704,-28.809,-16.113,-44.434,-23.926,0.000
1709291854.707,-30.273,-16.602,-41.504,-18.066,0.000
1709291854.711,-17.090,-14.648,-37.109,-11.719,0.000
1709291854.715,-7.812,-17.578,-34.180,-13.672,0.000
1709291854.719,-18.555,-22.949,-36.621,-12.207,0.000
1709291854.723,-28.809,-28.320,-36.621,-14.648,0.000
1709291854.727,-28.809,-28.809,-33.203,-29.297,0.000
1709291854.731,-28.320,-23.926,-33.691,-34.180,0.000
1709291854.735,-19.043,-17.578,-41.016,-29.785,0.000
1709291854.739,-7.812,-13.184,-49.316,-22.949,0.000
1709291854.743,-6.836,-16.602,-42.969,-10.254,0.000
1709291854.747,-23.438,-19.531,-32.227,-16.113,0.000
1709291854.751,-30.762,-21.973,-32.715,-32.715,0.000
1709291854.755,-23.926,-23.438,-38.086,-27.832,0.000
1709291854.759,-21.973,-24.902,-34.180,-21.484,0.000
1709291854.763,-28.320,-28.320,-30.273,-27.344,0.000
1709291854.767,-28.320,-26.855,-34.668,-23.926,0.000
1709291854.771,-25.391,-26.367,-33.203,-21.973,0.000
1709291854.775,-25.391,-29.785,-37.109,-23.926,0.000
1709291854.778,-20.508,-34.180,-39.551,-15.137,0.000
1709291854.782,-22.949,-34.668,-35.156,-19.531,0.000
1709291854.786,-24.902,-32.715,-34.180,-18.066,0.000
1709291854.791,-19.043,-31.738,-29.297,-12.207,0.000
1709291854.794,-13.184,-31.738,-25.879,-15.625,0.000
1709291854.798,-6.348,-32.227,-30.762,-7.324,0.000
1709291854.802,-12.207,-31.738,-31.250,-6.836,0.000
1709291854.806,-20.996,-28.320,-25.879,-8.789,0.000
1709291854.810,-22.461,-31.738,-24.414,-9.766,0.000
1709291854.814,-24.414,-36.133,-26.367,-19.043,0.000
1709291854.818,-15.625,-36.133,-24.902,-17.090,0.000
1709291854.822,-12.695,-37.598,-23.926,-13.184,0.000
1709291854.826,-19.043,-37.109,-21.484,-16.602,0.000
1709291854.830,-19.531,-38.086,-27.832,-24.414,0.000
1709291854.834,-17.090,-42.969,-34.180,-24.414,0.000
1709291854.838,-10.742,-38.574,-27.832,-21.973,0.000
1709291854.842,-8.789,-30.273,-25.391,-13.184,0.000
1709291854.845,-17.578,-30.762,-21.973,-13.184,0.000
1709291854.849,-15.137,-34.180,-20.508,-14.160,0.000
1709291854.853,-9.277,-33.203,-19.531,-1.465,0.000
1709291854.857,-14.160,-35.156,-18.066,-4.395,0.000
1709291854.861,-15.625,-34.668,-21.484,-13.672,0.000
1709291854.865,-28.320,-41.504,-26.367,-13.184,0.000
1709291854.869,-29.785,-42.480,-23.926,-8.789,0.000
1709291854.873,-19.043,-36.133,-26.855,-13.184,0.000
1709291854.877,-14.160,-34.180,-26.367,-19.531,0.000
1709291854.881,-15.625,-28.809,-24.414,-13.672,0.000
1709291854.885,-22.949,-22.461,-27.832,-11.719,0.000
1709291854.888,-22.949,-24.902,-23.926,-13.672,0.000
1709291854.892,-18.555,-29.297,-27.832,-15.137,0.000
1709291854.896,-16.602,-31.738,-32.715,-14.648,0.000
1709291854.900,-11.719,-30.273,-29.297,-12.207,0.000
1709291854.904,-15.137,-32.715,-32.227,-19.531,0.000
1709291854.908,-23.438,-35.645,-29.785,-23.926,0.000
1709291854.912,-29.297,-37.109,-28.809,-19.043,0.000
1709291854.916,-25.879,-33.691,-33.691,-14.160,0.000
1709291854.920,-24.414,-25.391,-29.785,-21.973,0.000
1709291854.924,-33.203,-30.762,-30.762,-26.367,0.000
1709291854.928,-39.551,-34.180,-33.691,-23.438,0.000
1709291854.931,-31.738,-27.832,-32.227,-22.461,0.000
1709291854.935,-26.367,-32.227,-30.762,-18.555,0.000
1709291854.939,-32.227,-36.133,-31.250,-31.738,0.000
1709291854.943,-37.598,-39.551,-30.273,-35.645,0.000
1709291854.947,-40.527,-40.527,-33.203,-27.344,0.000
1709291854.951,-38.086,-41.504,-35.645,-22.949,0.000
1709291854.955,-22.949,-42.480,-32.227,-19.043,0.000
1709291854.959,-19.043,-41.992,-29.785,-10.254,0.000
1709291854.963,-33.691,-42.480,-34.180,-24.902,0.000
1709291854.966,-45.410,-44.922,-36.621,-31.250,0.000
1709291854.970,-35.645,-41.504,-31.250,-24.414,0.000
1709291854.974,-24.902,-37.598,-25.879,-24.414,0.000
1709291854.978,-23.438,-39.062,-24.414,-21.973,0.000
1709291854.982,-25.879,-36.133,-29.785,-27.832,0.000
1709291854.986,-41.016,-34.668,-28.320,-29.297,0.000
1709291854.990,-37.598,-36.621,-22.949,-24.414,0.000
1709291854.994,-23.926,-33.203,-24.414,-20.508,0.000
1709291854.997,-26.367,-33.691,-24.414,-19.043,0.000
1709291855.001,-29.785,-36.621,-20.996,-18.555,0.000
1709291855.005,-29.785,-35.645,-21.973,-20.020,0.000
1709291855.009,-26.367,-32.227,-26.367,-25.879,0.000
1709291855.013,-24.414,-32.227,-28.809,-28.809,0.000
1709291855.017,-21.973,-31.250,-28.320,-37.598,0.000
1709291855.021,-15.137,-32.227,-24.902,-34.180,0.000
1709291855.024,-19.043,-29.785,-23.438,-27.344,0.000
1709291855.028,-26.855,-31.250,-24.902,-32.715,0.000
1709291855.032,-22.461,-35.645,-25.879,-28.320,0.000
1709291855.036,-17.578,-33.203,-26.855,-27.344,0.000
1709291855.040,-19.531,-31.250,-29.785,-25.391,0.000
1709291855.044,-26.855,-31.738,-33.203,-27.344,0.000
1709291855.048,-22.949,-34.180,-29.297,-20.020,0.000
1709291855.052,-19.043,-29.785,-31.738,-17.578,0.000
1709291855.056,-20.020,-26.367,-32.715,-21.973,0.000
1709291855.060,-23.438,-32.227,-32.227,-21.484,0.000
1709291855.063,-31.250,-33.691,-36.621,-21.484,0.000
1709291855.067,-32.227,-31.738,-35.156,-17.090,0.000
1709291855.071,-22.461,-30.273,-32.715,-18.555,0.000
1709291855.075,-13.672,-32.227,-32.715,-24.902,0.000
1709291855.079,-11.719,-29.785,-30.762,-27.832,0.000
1709291855.083,-12.207,-28.320,-31.738,-24.414,0.000
1709291855.086,-12.695,-31.738,-29.785,-19.043,0.000
1709291855.090,-10.742,-30.762,-27.832,-17.578,0.000
1709291855.094,-16.113,-32.715,-29.297,-18.555,0.000
1709291855.098,-20.020,-29.297,-28.809,-25.879,0.000
1709291855.102,-22.461,-26.367,-28.809,-25.879,0.000
1709291855.106,-26.855,-27.344,-26.367,-24.902,0.000
1709291855.110,-21.484,-25.879,-23.926,-18.066,0.000
1709291855.114,-7.324,-25.391,-24.902,-14.648,0.000
1709291855.118,-11.230,-26.855,-26.855,-21.484,0.000
1709291855.122,-21.484,-32.227,-30.273,-19.531,0.000
1709291855.126,-26.367,-31.738,-31.250,-27.832,0.000
1709291855.130,-30.762,-26.367,-32.227,-26.367,0.000
1709291855.134,-25.391,-29.297,-33.691,-12.695,0.000
1709291855.138,-18.066,-30.273,-31.738,-12.695,0.000
1709291855.142,-21.484,-30.762,-31.738,-20.020,0.000
1709291855.146,-26.367,-31.738,-32.227,-17.090,0.000
1709291855.150,-26.855,-29.297,-31.738,-18.555,0.000
1709291855.153,-20.996,-32.715,-27.832,-11.719,0.000
1709291855.157,-14.648,-30.762,-28.809,-13.184,0.000
1709291855.161,-20.996,-27.832,-32.227,-23.926,0.000
1709291855.166,-33.203,-31.738,-31.250,-21.484,0.000
1709291855.169,-29.785,-28.320,-30.762,-13.184,0.000
1709291855.173,-17.578,-27.344,-31.738,-8.789,0.000
1709291855.177,-4.395,-24.902,-31.250,-3.906,0.000
1709291855.181,-7.324,-19.043,-33.203,-6.348,0.000
1709291855.185,-32.715,-17.578,-41.992,-20.020,0.000
1709291855.189,-48.828,-21.973,-40.039,-25.879,0.000
1709291855.193,-35.156,-23.438,-36.621,-29.297,0.000
1709291855.197,-28.809,-27.344,-40.527,-34.668,0.000
1709291855.201,-25.391,-27.832,-41.016,-29.785,0.000
1709291855.205,-32.715,-24.414,-36.621,-35.645,0.000
1709291855.208,-36.621,-23.926,-27.344,-39.062,0.000
1709291855.213,-20.996,-24.902,-23.438,-25.391,0.000
1709291855.217,-9.766,-24.902,-25.391,-22.461,0.000
1709291855.220,-20.508,-23.926,-26.367,-28.809,0.000
1709291855.224,-27.344,-23.438,-28.809,-22.949,0.000
1709291855.228,-20.996,-22.461,-29.785,-16.113,0.000
1709291855.232,-23.926,-26.367,-25.879,-22.461,0.000
1709291855.236,-23.926,-26.367,-28.320,-18.555,0.000
1709291855.240,-19.043,-22.461,-29.297,-14.648,0.000
1709291855.244,-20.508,-26.855,-29.297,-16.113,0.000
1709291855.248,-25.391,-28.809,-29.297,-19.043,0.000
1709291855.252,-19.043,-29.297,-28.809,-15.625,0.000
1709291855.256,-9.766,-32.227,-31.738,-15.625,0.000
1709291855.259,-8.789,-32.227,-29.785,-21.484,0.000
1709291855.263,-21.484,-32.715,-30.762,-25.391,0.000
1709291855.267,-36.133,-29.785,-30.762,-35.645,0.000
1709291855.271,-28.320,-26.367,-30.273,-31.250,0.000
1709291855.275,-17.090,-27.832,-29.785,-17.578,0.000
1709291855.279,-15.137,-26.855,-31.250,-23.438,0.000
1709291855.283,-26.367,-28.809,-32.227,-26.367,0.000
1709291855.287,-28.320,-25.879,-31.250,-22.461,0.000
1709291855.291,-21.484,-19.531,-30.273,-15.625,0.000
1709291855.295,-11.719,-20.020,-31.250,-19.531,0.000
1709291855.299,-12.207,-24.414,-29.785,-27.832,0.000
1709291855.302,-31.250,-34.668,-32.715,-31.738,0.000
1709291855.306,-34.180,-37.598,-34.180,-28.320,0.000
1709291855.310,-34.668,-31.250,-31.738,-26.855,0.000
1709291855.314,-29.297,-28.809,-36.621,-25.879,0.000
1709291855.318,-21.484,-30.762,-34.180,-21.973,0.000
1709291855.322,-30.762,-29.297,-28.809,-29.297,0.000
1709291855.326,-36.133,-29.785,-27.832,-37.109,0.000
1709291855.330,-34.668,-29.785,-26.855,-33.203,0.000
1709291855.334,-29.297,-29.297,-27.832,-11.719,0.000
1709291855.338,-24.902,-30.762,-25.879,-7.324,0.000
1709291855.341,-33.203,-32.227,-27.832,-25.879,0.000
1709291855.345,-37.109,-34.668,-28.320,-24.902,0.000
1709291855.349,-28.809,-32.715,-30.762,-31.250,0.000
1709291855.353,-27.832,-34.180,-31.250,-29.297,0.000
1709291855.357,-16.113,-35.156,-20.020,-14.160,0.000
1709291855.361,-17.578,-32.715,-21.484,-23.438,0.000
1709291855.365,-33.203,-33.691,-25.879,-28.320,0.000
1709291855.369,-36.133,-34.180,-25.391,-20.020,0.000
1709291855.372,-28.809,-32.227,-23.926,-20.508,0.000
1709291855.376,-25.879,-35.645,-23.926,-23.438,0.000
1709291855.380,-27.832,-32.715,-27.832,-20.996,0.000
1709291855.384,-31.738,-29.785,-25.391,-21.484,0.000
1709291855.388,-39.551,-36.621,-29.785,-20.996,0.000
1709291855.392,-32.227,-35.645,-32.715,-11.230,0.000
1709291855.396,-16.602,-27.832,-32.227,-15.137,0.000
1709291855.400,-24.414,-32.227,-34.180,-32.715,0.000
1709291855.403,-29.297,-33.203,-29.297,-27.832,0.000
1709291855.407,-31.250,-33.203,-27.832,-25.391,0.000
1709291855.411,-27.832,-29.785,-27.344,-25.391,0.000
1709291855.415,-20.020,-29.785,-25.879,-25.391,0.000
1709291855.419,-21.484,-38.574,-32.715,-32.715,0.000
1709291855.423,-21.973,-36.621,-33.203,-22.461,0.000
1709291855.427,-24.414,-30.762,-31.250,-12.207,0.000
1709291855.431,-23.438,-29.297,-31.250,-23.438,0.000
1709291855.435,-12.695,-30.273,-35.645,-22.949,0.000
1709291855.439,-8.789,-28.809,-33.691,-20.020,0.000
1709291855.442,-10.742,-22.949,-26.855,-16.602,0.000
1709291855.446,-17.578,-24.902,-30.762,-20.508,0.000
1709291855.450,-22.461,-27.344,-36.621,-14.160,0.000
1709291855.454,-13.184,-26.855,-32.715,-3.906,0.000
1709291855.458,-14.160,-28.320,-29.785,-15.625,0.000
1709291855.461,-21.484,-27.832,-29.785,-22.949,0.000
1709291855.465,-26.855,-28.809,-30.273,-25.879,0.000
1709291855.469,-27.832,-28.809,-30.273,-21.484,0.000
1709291855.473,-17.090,-23.926,-30.762,-20.508,0.000
1709291855.477,-12.207,-28.809,-33.203,-20.996,0.000
1709291855.481,-20.996,-28.809,-35.645,-20.020,0.000
1709291855.485,-30.762,-28.809,-35.156,-21.973,0.000
1709291855.489,-36.133,-33.203,-34.180,-21.484,0.000
1709291855.493,-29.297,-35.156,-34.668,-13.184,0.000
1709291855.497,-23.438,-30.762,-33.691,-6.836,0.000
1709291855.501,-34.180,-28.320,-36.621,-18.555,0.000
1709291855.505,-42.480,-36.621,-33.203,-30.762,0.000
1709291855.509,-38.574,-36.133,-28.320,-23.438,0.000
1709291855.513,-29.785,-36.621,-29.785,-13.672,0.000
1709291855.517,-19.043,-33.691,-30.273,-20.020,0.000
1709291855.521,-15.625,-28.320,-28.320,-30.273,0.000
1709291855.525,-25.391,-32.715,-28.320,-20.508,0.000
1709291855.529,-28.809,-33.691,-27.832,-12.695,0.000
1709291855.532,-25.879,-32.227,-31.250,-25.391,0.000
1709291855.536,-17.578,-34.668,-28.809,-26.855,0.000
1709291855.541,-14.648,-33.691,-24.414,-17.578,0.000
1709291855.545,-24.902,-31.738,-27.832,-21.484,0.000
1709291855.548,-37.109,-35.645,-31.738,-24.902,0.000
1709291855.552,-34.180,-36.133,-32.715,-17.090,0.000
1709291855.556,-19.531,-33.691,-29.785,-12.207,0.000
1709291855.560,-21.973,-30.273,-26.855,-17.578,0.000
1709291855.564,-31.250,-30.762,-29.785,-23.926,0.000
1709291855.568,-34.668,-33.203,-32.715,-31.738,0.000
1709291855.572,-33.691,-33.203,-33.203,-31.738,0.000
1709291855.576,-33.203,-34.180,-34.668,-24.414,0.000
1709291855.580,-29.785,-32.715,-37.598,-32.715,0.000
1709291855.584,-35.156,-36.133,-38.574,-38.086,0.000
1709291855.588,-31.738,-37.598,-37.109,-30.762,0.000
1709291855.592,-24.414,-34.180,-34.668,-29.785,0.000
1709291855.596,-23.926,-31.250,-29.297,-23.926,0.000
1709291855.599,-22.461,-26.855,-28.320,-17.090,0.000
1709291855.603,-23.926,-24.902,-29.785,-18.066,0.000
1709291855.607,-28.320,-24.414,-24.414,-20.508,0.000
1709291855.611,-31.250,-25.879,-20.020,-23.926,0.000
1709291855.615,-21.973,-26.367,-21.484,-23.926,0.000
1709291855.619,-18.066,-27.344,-27.344,-19.043,0.000
1709291855.623,-24.414,-23.438,-26.855,-20.508,0.000
1709291855.627,-32.715,-19.043,-16.602,-21.484,0.000
1709291855.631,-29.297,-26.367,-22.949,-17.578,0.000
1709291855.635,-17.578,-26.367,-29.785,-14.648,0.000
1709291855.639,-19.531,-26.855,-28.809,-19.043,0.000
1709291855.642,-24.902,-27.832,-27.344,-23.438,0.000
1709291855.646,-19.531,-20.996,-23.438,-12.695,0.000
1709291855.650,-11.719,-22.461,-18.555,-12.695,0.000
1709291855.654,-6.836,-26.855,-24.414,-25.391,0.000
1709291855.658,-4.395,-26.367,-25.391,-15.625,0.000
1709291855.662,-14.648,-26.367,-18.066,-3.906,0.000
1709291855.666,-23.926,-26.367,-15.137,3.418,0.000
1709291855.670,-24.902,-29.785,-20.508,-7.812,0.000
1709291855.674,-17.578,-25.391,-20.508,-11.230,0.000
1709291855.678,-11.719,-27.832,-19.043,-9.277,0.000
1709291855.681,-14.648,-31.250,-21.973,-11.230,0.000
1709291855.685,-15.625,-25.879,-19.043,-12.695,0.000
1709291855.689,-14.648,-26.367,-18.066,-12.695,0.000
1709291855.693,-13.184,-30.273,-20.020,-12.207,0.000
1709291855.697,-8.789,-26.367,-20.996,-19.531,0.000
1709291855.701,-10.742,-26.855,-24.902,-18.066,0.000
1709291855.705,-20.508,-29.297,-20.996,-16.113,0.000
1709291855.709,-24.414,-27.344,-16.602,-13.672,0.000
1709291855.713,-23.926,-31.738,-26.367,-15.625,0.000
1709291855.717,-21.484,-33.691,-32.715,-20.508,0.000
1709291855.720,-25.391,-32.227,-32.715,-25.879,0.000
1709291855.724,-30.762,-35.645,-29.785,-30.762,0.000
1709291855.729,-24.902,-33.203,-31.250,-24.414,0.000
1709291855.733,-16.113,-24.902,-31.250,-15.137,0.000
1709291855.737,-10.742,-20.508,-25.391,-16.113,0.000
1709291855.741,-11.719,-20.508,-26.367,-19.531,0.000
1709291855.745,-22.461,-25.391,-28.320,-27.344,0.000
1709291855.749,-28.809,-25.879,-26.367,-20.996,0.000
1709291855.753,-24.902,-27.344,-26.855,-19.531,0.000
1709291855.757,-21.973,-28.809,-28.809,-21.484,0.000
1709291855.761,-20.996,-27.344,-25.879,-24.902,0.000
1709291855.765,-27.344,-31.738,-26.855,-27.832,0.000
1709291855.768,-29.785,-31.738,-29.297,-32.715,0.000
1709291855.772,-23.438,-22.949,-28.320,-30.762,0.000
1709291855.776,-23.438,-20.020,-26.855,-31.250,0.000
1709291855.780,-21.484,-23.926,-24.902,-30.273,0.000
1709291855.783,-27.832,-24.414,-25.879,-27.832,0.000
1709291855.787,-31.250,-25.879,-30.762,-36.621,0.000
1709291855.791,-20.996,-29.297,-29.297,-32.715,0.000
1709291855.795,-22.949,-31.738,-27.344,-30.762,0.000
1709291855.799,-26.855,-28.320,-26.367,-32.227,0.000
1709291855.803,-27.344,-31.250,-31.738,-31.738,0.000
1709291855.807,-32.715,-37.109,-32.715,-32.227,0.000
1709291855.811,-32.715,-37.109,-22.949,-31.738,0.000
1709291855.815,-22.949,-37.109,-18.066,-20.996,0.000
1709291855.819,-23.438,-33.691,-23.438,-23.926,0.000
1709291855.822,-31.738,-37.598,-27.832,-36.621,0.000
1709291855.826,-30.273,-35.645,-23.438,-32.715,0.000
1709291855.830,-25.391,-31.738,-22.949,-30.273,0.000
1709291855.834,-20.508,-28.809,-25.879,-28.809,0.000
1709291855.838,-21.973,-30.762,-31.250,-32.715,0.000
1709291855.841,-25.879,-34.668,-33.691,-34.668,0.000
1709291855.845,-27.344,-29.297,-29.785,-24.902,0.000
1709291855.849,-28.809,-24.414,-32.227,-27.832,0.000
1709291855.853,-26.855,-24.414,-34.180,-23.438,0.000
1709291855.857,-19.043,-27.344,-31.738,-13.184,0.000
1709291855.861,-18.066,-26.367,-31.738,-20.996,0.000
1709291855.865,-21.973,-22.949,-33.691,-27.344,0.000
1709291855.869,-29.785,-26.855,-33.691,-23.438,0.000
1709291855.873,-25.391,-28.809,-34.668,-21.484,0.000
1709291855.877,-5.859,-22.949,-34.180,-23.926,0.000
1709291855.881,-6.348,-18.066,-31.250,-33.691,0.000
1709291855.885,-39.551,-17.578,-30.273,-37.109,0.000
1709291855.889,-44.922,-23.926,-36.133,-20.508,0.000
1709291855.893,-32.715,-25.391,-31.738,-14.648,0.000
1709291855.897,-29.785,-22.461,-26.855,-17.090,0.000
1709291855.901,-27.832,-25.391,-26.367,-30.762,0.000
1709291855.905,-31.738,-28.320,-25.879,-27.344,0.000
1709291855.908,-37.109,-28.320,-26.855,-21.484,0.000
1709291855.912,-36.133,-21.973,-29.297,-27.832,0.000
1709291855.917,-28.809,-20.508,-29.297,-19.531,0.000
1709291855.921,-20.996,-23.438,-26.367,-14.160,0.000
1709291855.924,-24.414,-28.809,-26.855,-15.625,0.000
1709291855.928,-26.855,-30.762,-28.320,-19.043,0.000
1709291855.932,-23.926,-29.297,-27.832,-18.555,0.000
1709291855.936,-25.391,-34.180,-24.414,-9.766,0.000
1709291855.940,-25.391,-31.738,-25.879,-7.812,0.000
1709291855.944,-31.738,-30.273,-30.762,-17.578,0.000
1709291855.948,-32.715,-41.504,-27.344,-11.230,0.000
1709291855.952,-30.762,-37.598,-25.391,7.812,0.000
1709291855.956,-23.438,-31.250,-29.297,-4.395,0.000
1709291855.960,-19.531,-34.668,-28.809,-14.648,0.000
1709291855.964,0.000,-35.156,-26.855,-11.719,0.000
1709291855.968,0.000,-33.691,-27.344,-19.531,0.000
1709291855.971,0.000,-35.156,-25.879,-22.461,0.000
1709291855.975,0.000,-34.668,-24.902,-18.066,0.000
1709291855.979,0.000,-34.180,-25.879,-12.207,0.000
1709291855.983,0.000,-37.109,-27.344,-17.090,0.000
1709291855.987,0.000,-33.691,-25.879,-20.508,0.000
1709291855.991,0.000,-29.785,-24.414,-16.113,0.000
1709291855.995,0.000,-32.227,-22.461,-4.395,0.000
1709291855.999,0.000,-29.297,-23.438,-6.836,0.000
1709291856.003,0.000,-25.879,-27.344,-21.973,0.000
1709291856.007,0.000,-27.832,-24.414,-15.137,0.000
1709291856.010,-39.551,-28.809,-23.438,-9.277,0.000
1709291856.014,-37.598,-35.645,-32.227,-13.184,0.000
1709291856.018,-27.344,-31.250,-30.273,-17.090,0.000
1709291856.022,-24.902,-23.438,-26.855,-23.926,0.000
1709291856.026,-27.344,-26.367,-27.344,-19.043,0.000
1709291856.030,-33.691,-29.297,-31.250,-19.531,0.000
1709291856.034,-30.273,-29.785,-34.180,-34.668,0.000
1709291856.038,-21.973,-25.879,-32.227,-22.461,0.000
1709291856.042,-28.320,-21.973,-29.785,-8.301,0.000
1709291856.046,-35.156,-25.391,-31.250,-22.461,0.000
1709291856.050,-31.250,-30.273,-33.203,-22.461,0.000
1709291856.053,-27.344,-29.297,-30.762,-20.996,0.000
1709291856.057,-35.156,-31.738,-34.668,-20.996,0.000
1709291856.061,-32.227,-31.250,-35.645,-21.973,0.000
1709291856.065,-26.367,-28.320,-33.203,-21.973,0.000
1709291856.069,-27.832,-27.832,-34.668,-18.555,0.000
1709291856.073,-17.090,-24.414,-31.738,-15.625,0.000
1709291856.077,-9.277,-21.973,-25.391,-12.695,0.000
1709291856.081,-10.742,-20.508,-24.414,-19.531,0.000
1709291856.084,-10.742,-28.809,-33.691,-17.578,0.000
1709291856.088,-26.367,-28.809,-36.621,-20.020,0.000
1709291856.092,-25.391,-21.484,-36.133,-20.996,0.000
1709291856.096,-20.508,-28.809,-41.504,-25.391,0.000
1709291856.100,-21.973,-33.203,-41.016,-35.156,0.000
1709291856.104,-26.367,-28.809,-39.062,-38.086,0.000
1709291856.108,-27.344,-25.391,-37.598,-30.762,0.000
1709291856.112,-20.020,-28.809,-33.691,-24.414,0.000
1709291856.115,-10.254,-34.180,-33.691,-24.902,0.000
1709291856.119,-3.906,-33.203,-33.691,-26.855,0.000
1709291856.123,-20.020,-30.273,-36.133,-30.762,0.000
1709291856.127,-32.715,-33.691,-36.621,-31.738,0.000
1709291856.131,-33.691,-40.527,-35.156,-22.461,0.000
1709291856.135,-24.902,-36.621,-29.297,-20.508,0.000
1709291856.139,-20.508,-30.762,-26.367,-21.484,0.000
1709291856.143,-25.391,-28.320,-27.832,-21.484,0.000
1709291856.147,-24.902,-25.879,-27.832,-26.855,0.000
