timestamps,TP9,AF7,AF8,TP10,Right AUX
1709212208.585,-11.719,-28.809,-45.898,0.000,0.000
1709212208.589,-9.766,-32.227,-49.316,0.000,0.000
1709212208.593,-11.719,-33.691,-39.062,0.000,0.000
1709212208.597,-21.973,-36.133,-35.156,0.000,0.000
1709212208.601,-26.855,-41.992,-36.621,0.000,0.000
1709212208.604,-13.672,-47.363,-41.504,0.000,0.000
1709212208.608,-13.672,-50.293,-51.270,0.000,0.000
1709212208.612,-24.414,-50.781,-47.363,0.000,0.000
1709212208.616,-35.645,-52.246,-45.410,0.000,0.000
1709212208.620,-38.086,-45.898,-46.875,0.000,0.000
1709212208.624,-34.180,-42.480,-45.898,0.000,0.000
1709212208.628,-27.344,-45.898,-47.363,0.000,0.000
1709212208.632,-29.785,-43.457,-45.898,-51.758,0.000
1709212208.636,-40.527,-49.805,-42.969,-51.758,0.000
1709212208.640,-34.668,-52.246,-34.668,-41.016,0.000
1709212208.644,-27.832,-49.805,-40.527,-27.832,0.000
1709212208.647,-20.020,-48.340,-44.434,-28.320,0.000
1709212208.651,-23.438,-53.711,-43.945,-35.156,0.000
1709212208.655,-38.086,-51.270,-50.781,-37.109,0.000
1709212208.659,-43.457,-46.875,-46.387,-32.715,0.000
1709212208.663,-38.574,-50.293,-39.062,-19.043,0.000
1709212208.667,-32.715,-43.457,-37.109,-19.531,0.000
1709212208.671,-32.715,-41.016,-35.645,-27.832,0.000
1709212208.675,-38.086,-33.691,-39.551,-26.855,0.000
1709212208.679,-36.621,-37.598,-33.691,-20.020,0.000
1709212208.683,-34.180,-44.922,-24.414,-9.766,0.000
1709212208.687,-35.645,-40.527,-28.809,-7.812,0.000
1709212208.690,-38.086,-33.691,-32.227,-15.625,0.000
1709212208.694,-41.992,-34.180,-28.809,-26.855,0.000
1709212208.698,-43.457,-40.039,-23.926,-19.531,0.000
1709212208.702,-52.246,-40.039,-28.320,-23.438,0.000
1709212208.706,-57.129,-39.062,-33.691,-28.320,0.000
1709212208.710,-53.711,-33.203,-26.855,-27.344,0.000
1709212208.714,-61.035,-43.945,-30.273,-49.316,0.000
1709212208.718,-65.918,-59.570,-30.762,-56.641,0.000
1709212208.722,-54.199,-57.617,-32.227,-54.688,0.000
1709212208.726,-45.410,-50.293,-34.668,-63.477,0.000
1709212208.729,-55.176,-45.410,-41.016,-77.148,0.000
1709212208.733,-60.059,-40.527,-46.387,-70.801,0.000
1709212208.737,-55.176,-41.504,-41.504,-61.035,0.000
1709212208.741,-51.270,-40.039,-42.480,-66.895,0.000
1709212208.745,-48.340,-33.203,-43.457,-69.824,0.000
1709212208.749,-49.805,-31.250,-46.875,-71.289,0.000
1709212208.753,-45.898,-38.086,-44.922,-63.965,0.000
1709212208.757,-48.828,-49.805,-39.062,-60.059,0.000
1709212208.761,-56.152,-50.781,-44.922,-65.430,0.000
1709212208.765,-53.711,-40.527,-57.129,-63.965,0.000
1709212208.769,-55.176,-37.598,-41.992,-61.523,0.000
1709212208.772,0.000,-34.180,-28.320,-61.523,0.000
1709212208.776,0.000,-38.574,-33.691,-58.105,0.000
1709212208.780,0.000,-50.293,-36.621,-57.617,0.000
1709212208.784,0.000,-44.434,-37.109,-51.758,0.000
1709212208.788,0.000,-38.574,-40.039,-41.992,0.000
1709212208.792,0.000,-49.316,-43.945,-48.828,0.000
1709212208.796,0.000,-55.176,-40.039,-47.852,0.000
1709212208.800,0.000,-46.875,-38.086,-36.133,0.000
1709212208.804,0.000,-38.574,-39.551,-35.645,0.000
1709212208.808,0.000,-27.344,-33.691,-39.551,0.000
1709212208.811,0.000,-28.320,-35.645,-50.293,0.000
1709212208.815,0.000,-36.621,-36.133,-54.199,0.000
1709212208.819,-60.059,-37.598,-31.738,-54.688,0.000
1709212208.823,-56.641,-35.156,-34.668,-52.246,0.000
1709212208.827,-53.711,-31.738,-35.156,-58.105,0.000
1709212208.831,-61.035,-40.527,-38.574,-71.289,0.000
1709212208.835,-70.312,-43.945,-45.898,-82.031,0.000
1709212208.839,-65.918,-37.109,-45.898,-82.031,0.000
1709212208.843,-55.176,-34.668,-45.898,-71.289,0.000
1709212208.847,-57.129,-31.250,-54.199,-74.707,0.000
1709212208.850,-64.941,-35.645,-57.617,-87.891,0.000
1709212208.854,-71.289,-47.363,-61.035,-94.238,0.000
1709212208.858,-68.848,-45.898,-60.059,-91.797,0.000
1709212208.862,-65.430,-42.969,-53.711,-79.590,0.000
1709212208.866,-50.781,-44.922,-55.176,-75.684,0.000
1709212208.870,-41.504,-44.922,-47.852,-76.660,0.000
1709212208.874,-52.734,-46.875,-41.992,-74.219,0.000
1709212208.878,-55.176,-55.664,-36.621,-70.801,0.000
1709212208.882,-47.363,-59.082,-36.621,-65.430,0.000
1709212208.886,-48.828,-51.270,-38.086,-62.500,0.000
1709212208.889,-56.641,-46.387,-39.551,-62.988,0.000
1709212208.893,-62.500,-41.992,-40.527,-73.242,0.000
1709212208.897,-62.012,-38.086,-35.156,-70.801,0.000
1709212208.901,-56.641,-47.852,-33.203,-57.617,0.000
1709212208.905,-47.852,-42.480,-34.668,-58.105,0.000
1709212208.909,-46.875,-34.668,-40.039,-70.801,0.000
1709212208.913,-61.035,-47.852,-36.621,-79.590,0.000
1709212208.917,-71.289,-52.734,-33.203,-75.684,0.000
1709212208.921,-73.730,-45.410,-43.945,-75.684,0.000
1709212208.925,-65.430,-47.363,-41.504,-75.195,0.000
1709212208.929,-64.941,-54.688,-41.504,-76.172,0.000
1709212208.933,-66.895,-46.875,-48.828,-74.219,0.000
1709212208.936,-65.430,-44.434,-49.316,-65.918,0.000
1709212208.940,-61.035,-42.969,-42.480,-67.383,0.000
1709212208.944,-50.293,-29.785,-33.691,-61.035,0.000
1709212208.948,-43.945,-29.297,-35.645,-49.805,0.000
1709212208.952,-42.969,-28.320,-38.086,-54.688,0.000
1709212208.956,-49.316,-33.691,-39.551,-57.617,0.000
1709212208.960,-53.223,-35.645,-38.574,-53.711,0.000
1709212208.964,-40.527,-22.461,-43.457,-52.734,0.000
1709212208.968,-40.039,-26.367,-47.363,-52.246,0.000
1709212208.972,-49.805,-29.297,-40.039,-57.129,0.000
1709212208.976,-44.922,-32.227,-34.180,-59.570,0.000
1709212208.979,-38.574,-40.527,-36.133,-58.594,0.000
1709212208.983,-28.320,-27.832,-33.691,-54.199,0.000
1709212208.987,-24.902,-18.066,-34.180,-53.223,0.000
1709212208.991,-33.203,-30.762,-41.016,-57.617,0.000
1709212208.995,-40.039,-31.738,-38.086,-55.664,0.000
1709212208.999,-52.734,-25.391,-36.133,-58.105,0.000
1709212209.003,-53.223,-30.762,-33.203,-57.617,0.000
1709212209.007,-51.758,-35.645,-32.227,-62.012,0.000
1709212209.011,-55.664,-34.180,-40.527,-69.824,0.000
1709212209.015,-53.711,-41.504,-48.340,-72.754,0.000
1709212209.019,-52.734,-41.504,-47.363,-71.289,0.000
1709212209.022,-56.641,-38.574,-42.969,-64.453,0.000
1709212209.026,-51.758,-42.969,-44.434,-62.988,0.000
1709212209.030,-50.293,-35.156,-45.898,-67.871,0.000
1709212209.034,-55.176,-31.250,-48.828,-71.777,0.000
1709212209.038,-54.199,-28.320,-49.316,-57.617,0.000
1709212209.042,-50.781,-26.855,-50.293,-50.293,0.000
1709212209.046,-41.016,-27.344,-48.828,-54.688,0.000
1709212209.050,-41.504,-33.203,-47.852,-54.688,0.000
1709212209.054,-42.969,-36.133,-50.293,-50.781,0.000
1709212209.058,-40.527,-40.039,-48.340,-51.270,0.000
1709212209.061,-37.109,-42.969,-39.551,-50.781,0.000
1709212209.065,-36.133,-36.133,-35.645,-46.875,0.000
1709212209.069,-40.039,-38.574,-40.039,-57.617,0.000
1709212209.073,-43.945,-36.621,-44.922,-62.988,0.000
1709212209.077,-47.852,-26.855,-42.480,-52.734,0.000
1709212209.081,-49.316,-34.668,-44.922,-49.805,0.000
1709212209.085,-46.875,-45.410,-43.945,-38.574,0.000
1709212209.089,-42.969,-33.691,-33.203,-41.504,0.000
1709212209.093,-41.016,-25.391,-33.691,-54.199,0.000
1709212209.097,-42.969,-37.109,-39.551,-54.688,0.000
1709212209.101,-35.156,-49.316,-33.203,-49.805,0.000
1709212209.104,-22.461,-43.457,-27.344,-43.945,0.000
1709212209.108,-29.297,-37.109,-36.621,-40.527,0.000
1709212209.112,-46.387,-40.527,-39.062,-38.086,0.000
1709212209.116,-60.547,-38.574,-39.062,-41.992,0.000
1709212209.120,-60.059,-30.762,-46.875,-42.969,0.000
1709212209.124,-37.598,-25.879,-47.363,-24.902,0.000
1709212209.128,-32.227,-34.180,-42.969,-17.090,0.000
1709212209.132,-33.691,-37.598,-36.621,-24.414,0.000
1709212209.136,-32.715,-31.738,-32.227,-32.715,0.000
1709212209.140,-40.039,-43.945,-37.109,-40.527,0.000
1709212209.143,-33.691,-47.852,-31.738,-38.574,0.000
1709212209.147,-28.320,-39.551,-30.762,-38.574,0.000
1709212209.151,-31.250,-40.527,-49.805,-45.898,0.000
1709212209.155,-32.715,-36.133,-49.316,-45.410,0.000
1709212209.159,-38.086,-36.621,-42.480,-45.410,0.000
1709212209.163,-34.180,-44.922,-44.922,-37.109,0.000
1709212209.167,-30.273,-45.410,-47.363,-27.832,0.000
1709212209.171,-37.109,-41.504,-48.340,-32.227,0.000
1709212209.175,-43.457,-44.434,-43.945,-29.785,0.000
1709212209.179,-46.387,-44.434,-40.039,-39.062,0.000
1709212209.183,-39.551,-46.875,-39.062,-42.969,0.000
1709212209.186,-27.832,-52.734,-41.504,-32.227,0.000
1709212209.190,-25.391,-51.758,-41.016,-30.273,0.000
1709212209.194,-29.297,-39.551,-37.109,-35.645,0.000
1709212209.198,-28.809,-29.297,-34.180,-30.762,0.000
1709212209.202,-21.484,-39.551,-30.762,-24.414,0.000
1709212209.206,-23.438,-41.016,-29.297,-27.832,0.000
1709212209.210,-26.367,-40.039,-31.250,-35.645,0.000
1709212209.214,-27.832,-44.434,-31.738,-33.691,0.000
1709212209.218,-31.738,-43.457,-32.227,-15.625,0.000
1709212209.222,-30.762,-44.922,-42.480,-17.090,0.000
1709212209.225,-23.438,-42.969,-46.387,-24.414,0.000
1709212209.229,-19.531,-30.273,-38.086,-19.043,0.000
1709212209.233,-19.531,-18.066,-31.738,-14.160,0.000
1709212209.237,-20.020,-17.578,-30.273,-15.625,0.000
1709212209.241,-21.973,-29.297,-30.762,-16.113,0.000
1709212209.245,-18.066,-40.039,-28.809,-13.184,0.000
1709212209.249,-14.160,-39.551,-28.320,-16.113,0.000
1709212209.253,-22.461,-28.809,-21.484,-20.508,0.000
1709212209.257,-37.109,-28.809,-20.508,-30.273,0.000
1709212209.260,-44.922,-34.668,-31.250,-28.809,0.000
1709212209.264,-38.086,-47.363,-30.273,-24.902,0.000
1709212209.268,-23.926,-57.129,-22.949,-26.367,0.000
1709212209.272,-24.414,-40.527,-26.855,-29.297,0.000
1709212209.276,-33.203,-20.508,-33.691,-39.062,0.000
1709212209.280,-34.668,-15.137,-33.691,-38.574,0.000
1709212209.284,-22.949,-6.836,-34.668,-26.855,0.000
1709212209.288,-11.230,-2.930,-39.062,-24.902,0.000
1709212209.292,-11.230,-3.906,-41.992,-28.809,0.000
1709212209.296,-14.648,9.766,-43.945,-30.762,0.000
1709212209.300,-8.301,20.996,-44.922,-28.809,0.000
1709212209.304,2.930,24.414,-53.711,-26.855,0.000
1709212209.307,6.836,23.438,-58.105,-21.973,0.000
1709212209.311,-4.883,19.043,-64.941,-29.297,0.000
1709212209.315,-1.953,22.949,-68.359,-33.691,0.000
1709212209.319,5.859,27.344,-71.777,-29.297,0.000
1709212209.323,6.348,24.414,-76.660,-24.902,0.000
1709212209.327,10.742,29.785,-82.520,-31.738,0.000
1709212209.331,6.348,34.180,-86.426,-42.480,0.000
1709212209.335,-2.441,34.180,-92.773,-53.711,0.000
1709212209.339,-1.953,48.828,-98.145,-61.523,0.000
1709212209.343,7.324,53.711,-100.586,-55.176,0.000
1709212209.347,23.926,49.316,-94.727,-38.574,0.000
1709212209.350,25.879,47.363,-100.586,-39.551,0.000
1709212209.354,20.020,48.340,-106.445,-41.016,0.000
1709212209.358,23.438,57.617,-104.980,-42.480,0.000
1709212209.362,33.203,67.871,-103.027,-33.691,0.000
1709212209.366,35.156,58.594,-101.562,-19.043,0.000
1709212209.370,35.645,48.828,-100.098,-14.160,0.000
1709212209.374,30.273,55.664,-106.445,-26.367,0.000
1709212209.378,28.320,59.082,-103.516,-29.785,0.000
1709212209.382,31.738,52.734,-100.098,-12.695,0.000
1709212209.386,34.668,58.105,-104.980,-6.348,0.000
1709212209.390,47.852,56.641,-101.074,-4.883,0.000
1709212209.393,46.875,54.688,-104.004,2.930,0.000
1709212209.397,33.203,52.246,-106.934,3.418,0.000
1709212209.401,37.109,39.551,-102.051,5.859,0.000
1709212209.405,45.898,39.062,-97.656,4.883,0.000
1709212209.409,44.922,48.828,-92.773,0.000,0.000
1709212209.413,41.992,54.199,-89.355,8.789,0.000
1709212209.417,36.621,47.363,-94.238,0.000,0.000
1709212209.421,36.133,33.203,-94.238,-5.859,0.000
1709212209.425,33.203,34.180,-86.914,-0.488,0.000
1709212209.429,26.855,34.668,-83.984,-7.324,0.000
1709212209.433,19.043,25.879,-86.426,-19.531,0.000
1709212209.436,7.812,26.855,-88.867,-27.344,0.000
1709212209.440,8.301,32.227,-83.496,-24.414,0.000
1709212209.444,10.742,30.273,-78.613,-20.508,0.000
1709212209.448,-0.977,15.625,-83.008,-18.066,0.000
1709212209.452,-5.859,-1.953,-87.891,-27.832,0.000
1709212209.456,-13.184,-8.301,-85.938,-45.898,0.000
1709212209.460,-14.648,-3.906,-84.961,-42.480,0.000
1709212209.464,-3.418,1.953,-83.496,-41.992,0.000
1709212209.468,-6.836,5.371,-81.055,-51.270,0.000
1709212209.472,-16.113,-2.930,-75.195,-54.688,0.000
1709212209.475,-27.832,-11.719,-71.289,-54.199,0.000
1709212209.479,-30.762,-8.789,-71.289,-57.617,0.000
1709212209.483,-31.250,-5.371,-77.148,-60.059,0.000
1709212209.487,-28.809,-0.488,-75.684,-46.875,0.000
1709212209.491,-25.879,-3.906,-72.754,-42.480,0.000
1709212209.495,-22.949,-11.230,-66.406,-41.992,0.000
1709212209.499,-21.484,-17.090,-62.988,-36.133,0.000
1709212209.503,-20.508,-18.555,-60.059,-21.973,0.000
1709212209.507,-12.207,-14.648,-59.082,-19.531,0.000
1709212209.511,-8.301,-7.324,-57.129,-25.391,0.000
1709212209.515,-27.832,-6.836,-51.270,-30.273,0.000
1709212209.518,-36.621,-25.391,-58.105,-38.574,0.000
1709212209.522,-33.691,-34.180,-61.523,-38.574,0.000
1709212209.526,-38.086,-24.414,-60.059,-38.574,0.000
1709212209.530,-33.203,-15.137,-62.500,-40.527,0.000
1709212209.534,-23.438,-19.531,-58.105,-36.621,0.000
1709212209.538,-25.391,-21.484,-49.316,-38.086,0.000
1709212209.542,-26.367,-22.949,-46.387,-35.156,0.000
1709212209.546,-21.484,-28.320,-39.551,-24.414,0.000
1709212209.550,-16.113,-25.391,-39.551,-20.020,0.000
1709212209.554,-25.391,-20.996,-45.898,-30.762,0.000
1709212209.557,-25.879,-16.113,-42.480,-33.203,0.000
1709212209.561,-19.531,-23.438,-40.527,-33.691,0.000
1709212209.565,-19.043,-39.551,-43.457,-37.109,0.000
1709212209.569,-28.809,-41.504,-48.828,-37.598,0.000
1709212209.573,-32.715,-35.156,-53.711,-36.621,0.000
1709212209.577,-26.855,-30.762,-42.480,-27.832,0.000
1709212209.581,-33.691,-20.996,-40.039,-20.020,0.000
1709212209.585,-34.180,-24.902,-49.316,-20.996,0.000
1709212209.589,-28.809,-29.785,-44.922,-28.320,0.000
1709212209.593,-34.668,-28.320,-43.945,-26.367,0.000
1709212209.597,-34.180,-29.785,-47.363,-24.902,0.000
1709212209.600,-29.297,-28.809,-41.504,-34.668,0.000
1709212209.604,-33.691,-31.250,-43.457,-38.086,0.000
1709212209.608,-39.062,-30.273,-46.387,-34.668,0.000
1709212209.612,-33.203,-21.973,-38.574,-32.227,0.000
1709212209.616,-33.203,-35.156,-38.086,-43.457,0.000
1709212209.620,-42.969,-38.086,-43.457,-44.922,0.000
1709212209.624,-42.480,-32.227,-43.945,-36.621,0.000
1709212209.628,-33.691,-30.762,-41.504,-39.062,0.000
1709212209.632,-25.391,-28.320,-36.133,-35.156,0.000
1709212209.636,-27.344,-37.598,-31.738,-34.180,0.000
1709212209.639,-28.320,-32.715,-34.668,-34.668,0.000
1709212209.643,-18.066,-22.949,-31.738,-23.438,0.000
1709212209.647,-21.484,-31.250,-41.016,-17.090,0.000
1709212209.651,-26.367,-38.086,-41.992,-22.949,0.000
1709212209.655,-33.203,-38.086,-29.785,-27.832,0.000
1709212209.659,-33.691,-38.574,-23.438,-23.926,0.000
1709212209.663,-26.367,-40.527,-25.391,-24.414,0.000
1709212209.667,-22.461,-35.156,-30.762,-25.879,0.000
1709212209.671,-23.926,-27.344,-33.691,-24.414,0.000
1709212209.675,-28.320,-29.297,-31.250,-24.414,0.000
1709212209.679,-36.621,-40.039,-32.715,-33.691,0.000
1709212209.682,-34.180,-41.992,-37.598,-37.598,0.000
1709212209.686,-29.297,-42.480,-37.598,-32.227,0.000
1709212209.690,-34.668,-54.199,-39.551,-32.227,0.000
1709212209.694,-38.086,-48.828,-38.086,-31.738,0.000
1709212209.698,-37.109,-42.969,-36.133,-25.879,0.000
1709212209.702,-41.504,-45.898,-40.039,-35.156,0.000
1709212209.706,-38.086,-38.086,-41.504,-36.621,0.000
1709212209.710,-34.180,-41.992,-40.527,-38.574,0.000
1709212209.714,-44.434,-44.922,-38.574,-52.734,0.000
1709212209.718,-47.363,-32.715,-36.133,-52.734,0.000
1709212209.722,-41.016,-33.203,-41.504,-49.805,0.000
1709212209.725,-45.410,-38.574,-43.945,-51.758,0.000
1709212209.729,-47.852,-42.480,-39.062,-59.082,0.000
1709212209.733,-50.293,-41.504,-40.527,-70.801,0.000
1709212209.737,-58.594,-39.062,-44.434,-69.336,0.000
1709212209.741,-48.828,-38.086,-39.551,-53.223,0.000
1709212209.745,-44.434,-42.969,-36.133,-39.062,0.000
1709212209.749,-50.781,-40.527,-41.016,-45.410,0.000
1709212209.753,-49.805,-43.457,-41.016,-49.316,0.000
1709212209.757,-49.805,-55.664,-38.574,-54.688,0.000
1709212209.761,-49.316,-42.969,-41.504,-56.152,0.000
1709212209.765,-49.316,-29.297,-45.898,-45.410,0.000
1709212209.768,-40.527,-25.391,-43.457,-37.598,0.000
1709212209.772,-39.062,-27.832,-40.527,-39.062,0.000
1709212209.776,-41.992,-38.574,-46.387,-34.668,0.000
1709212209.780,-34.668,-41.504,-48.828,-27.832,0.000
1709212209.784,-36.621,-32.227,-35.156,-37.598,0.000
1709212209.788,-39.062,-33.203,-30.273,-34.668,0.000
1709212209.792,-46.387,-38.574,-35.156,-45.410,0.000
1709212209.796,-51.758,-35.645,-34.668,-60.547,0.000
1709212209.800,-48.340,-41.992,-32.227,-51.758,0.000
1709212209.804,-45.410,-45.410,-37.109,-41.016,0.000
1709212209.808,-40.039,-34.180,-44.434,-44.434,0.000
1709212209.811,-44.922,-30.273,-41.016,-51.270,0.000
1709212209.815,-49.316,-34.180,-37.109,-55.176,0.000
1709212209.819,-48.828,-34.668,-34.180,-58.105,0.000
1709212209.823,-48.340,-36.621,-32.227,-48.340,0.000
1709212209.827,-41.016,-40.039,-35.645,-52.246,0.000
1709212209.831,-31.250,-44.922,-39.062,-60.059,0.000
1709212209.835,-35.156,-47.363,-32.715,-45.898,0.000
1709212209.839,-43.457,-38.086,-36.133,-45.410,0.000
1709212209.843,-36.133,-43.945,-37.598,-46.875,0.000
1709212209.847,-28.809,-43.945,-39.062,-54.199,0.000
1709212209.850,-34.668,-31.250,-45.410,-60.059,0.000
1709212209.854,-49.805,-30.762,-57.617,-68.848,0.000
1709212209.858,-49.805,-32.227,-56.641,-70.801,0.000
1709212209.862,-46.387,-39.062,-49.316,-62.500,0.000
1709212209.866,-30.273,-42.969,-47.363,-50.293,0.000
1709212209.870,-24.414,-43.457,-40.527,-49.316,0.000
1709212209.874,-30.762,-39.062,-35.156,-48.340,0.000
1709212209.878,-32.227,-35.156,-32.227,-41.016,0.000
1709212209.882,-41.016,-37.109,-41.504,-44.922,0.000
1709212209.886,-37.598,-26.855,-47.852,-51.758,0.000
1709212209.890,-31.250,-22.461,-42.480,-49.316,0.000
1709212209.893,-35.645,-32.715,-41.016,-44.922,0.000
1709212209.897,-48.828,-40.527,-39.551,-48.340,0.000
1709212209.901,-49.316,-43.945,-41.504,-50.293,0.000
1709212209.905,-41.016,-35.645,-48.340,-52.246,0.000
1709212209.909,-47.363,-23.926,-41.016,-54.199,0.000
1709212209.913,-52.246,-29.297,-32.715,-53.711,0.000
1709212209.917,-52.734,-44.922,-31.250,-51.758,0.000
1709212209.921,-63.965,-45.898,-33.691,-51.270,0.000
1709212209.925,-60.547,-41.016,-41.016,-40.527,0.000
1709212209.929,-52.246,-24.902,-39.062,-45.898,0.000
1709212209.932,-56.641,-15.137,-42.969,-51.758,0.000
1709212209.936,-66.406,-29.785,-56.641,-54.688,0.000
1709212209.940,-63.477,-30.273,-55.664,-53.223,0.000
1709212209.944,-52.246,-26.855,-46.875,-37.109,0.000
1709212209.948,-46.387,-41.992,-49.805,-41.504,0.000
1709212209.952,-40.039,-36.621,-47.363,-53.223,0.000
1709212209.956,-44.434,-33.203,-42.969,-65.430,0.000
1709212209.960,-49.805,-41.504,-49.316,-73.730,0.000
1709212209.964,-38.086,-38.574,-45.410,-61.035,0.000
1709212209.968,-25.879,-42.969,-41.504,-45.898,0.000
1709212209.972,-36.133,-39.062,-44.922,-49.805,0.000
1709212209.976,-44.922,-28.809,-47.852,-60.059,0.000
1709212209.979,-46.387,-22.949,-45.410,-47.852,0.000
1709212209.983,-47.852,-36.133,-53.711,-53.223,0.000
1709212209.987,-40.527,-37.598,-62.012,-56.641,0.000
1709212209.991,-33.691,-30.762,-51.758,-49.805,0.000
1709212209.995,-35.156,-30.273,-45.898,-46.387,0.000
1709212209.999,-43.457,-32.227,-47.852,-44.434,0.000
1709212210.003,-41.016,-38.086,-40.527,-46.875,0.000
1709212210.007,-28.320,-33.691,-36.621,-42.480,0.000
1709212210.011,-34.668,-31.250,-44.922,-45.410,0.000
1709212210.015,-50.781,-36.621,-42.969,-55.176,0.000
1709212210.018,-53.223,-37.598,-32.227,-52.246,0.000
1709212210.022,-47.363,-27.832,-37.109,-49.316,0.000
1709212210.026,-42.480,-34.668,-38.086,-39.062,0.000
1709212210.030,-35.645,-46.875,-35.645,-29.297,0.000
1709212210.034,-39.551,-33.691,-42.480,-46.387,0.000
1709212210.038,-43.945,-21.973,-39.062,-53.711,0.000
1709212210.042,-50.781,-21.973,-44.434,-49.316,0.000
1709212210.046,-51.270,-15.625,-49.316,-50.293,0.000
1709212210.050,-44.922,-17.578,-48.340,-58.594,0.000
1709212210.054,-42.480,-21.973,-49.805,-57.129,0.000
1709212210.058,-36.133,-21.973,-42.969,-49.316,0.000
1709212210.061,-27.344,-32.227,-43.457,-56.641,0.000
1709212210.065,-25.391,-34.180,-46.387,-61.523,0.000
1709212210.069,-28.320,-29.297,-42.480,-61.523,0.000
1709212210.073,-33.203,-35.645,-41.992,-59.570,0.000
1709212210.077,-37.109,-38.574,-44.434,-62.500,0.000
1709212210.081,-38.086,-39.062,-44.922,-61.523,0.000
1709212210.085,-26.855,-43.457,-40.039,-55.664,0.000
1709212210.089,-18.555,-37.109,-46.387,-47.852,0.000
1709212210.093,-16.602,-28.809,-47.852,-33.691,0.000
1709212210.097,-13.184,-31.738,-41.016,-36.621,0.000
1709212210.101,-12.207,-39.062,-33.203,-34.180,0.000
1709212210.104,-6.836,-38.086,-26.855,-20.996,0.000
1709212210.108,-1.465,-34.180,-41.992,-20.508,0.000
1709212210.112,-10.254,-33.203,-43.457,-20.508,0.000
1709212210.116,-28.320,-45.898,-29.297,-23.438,0.000
1709212210.120,-30.273,-45.410,-30.273,-25.879,0.000
1709212210.124,-17.090,-38.086,-31.738,-21.973,0.000
1709212210.128,-17.090,-39.551,-32.227,-20.508,0.000
1709212210.132,-20.508,-34.180,-35.156,-27.344,0.000
1709212210.136,-21.484,-36.133,-34.668,-25.879,0.000
1709212210.140,-26.855,-40.527,-34.180,-27.832,0.000
1709212210.144,-26.855,-36.133,-34.668,-23.926,0.000
1709212210.147,-26.367,-47.363,-43.457,-18.555,0.000
1709212210.151,-30.273,-48.828,-37.598,-24.414,0.000
1709212210.155,-38.086,-34.668,-27.344,-35.156,0.000
1709212210.159,-37.109,-37.109,-22.949,-36.133,0.000
1709212210.163,-27.832,-39.062,-13.672,-16.113,0.000
1709212210.167,-29.785,-41.016,-18.066,-15.625,0.000
1709212210.171,-35.156,-43.945,-25.391,-33.691,0.000
1709212210.175,-43.457,-36.133,-25.391,-34.668,0.000
1709212210.179,-48.828,-34.668,-34.668,-31.250,0.000
1709212210.183,-42.480,-37.109,-40.527,-29.297,0.000
1709212210.187,-31.738,-32.227,-36.621,-27.344,0.000
1709212210.190,-36.621,-44.922,-38.086,-31.738,0.000
1709212210.194,-41.504,-53.223,-41.992,-36.621,0.000
1709212210.198,-44.922,-48.340,-42.969,-46.387,0.000
1709212210.202,-37.109,-52.246,-41.016,-42.480,0.000
1709212210.206,-21.973,-58.105,-39.062,-21.973,0.000
1709212210.210,-27.832,-43.945,-36.133,-8.301,0.000
1709212210.214,-41.992,-32.715,-36.133,-20.996,0.000
1709212210.218,-43.945,-30.273,-40.527,-30.273,0.000
1709212210.222,-37.598,-32.715,-40.527,-24.902,0.000
1709212210.226,-35.645,-29.297,-36.621,-15.625,0.000
1709212210.229,-36.621,-26.855,-35.156,-15.625,0.000
1709212210.233,-36.621,-52.734,-36.621,-30.273,0.000
1709212210.237,-47.852,-58.105,-35.645,-39.551,0.000
1709212210.241,-44.434,-40.527,-26.855,-34.180,0.000
1709212210.245,-35.156,-44.434,-29.785,-31.250,0.000
1709212210.249,-27.832,-41.016,-41.992,-26.367,0.000
1709212210.253,-28.809,-28.320,-36.133,-17.578,0.000
1709212210.257,-47.852,-29.297,-27.832,-27.344,0.000
1709212210.261,-55.664,-33.691,-32.227,-44.922,0.000
1709212210.265,-45.898,-37.598,-34.180,-42.480,0.000
1709212210.269,-38.574,-36.621,-33.691,-41.504,0.000
1709212210.272,-41.992,-39.551,-36.621,-56.641,0.000
1709212210.276,-44.434,-40.039,-31.250,-51.270,0.000
1709212210.280,-46.875,-38.574,-35.645,-53.223,0.000
1709212210.284,-42.969,-47.363,-41.992,-54.688,0.000
1709212210.288,-31.250,-42.969,-39.551,-49.805,0.000
1709212210.292,-39.551,-31.250,-41.992,-61.035,0.000
1709212210.296,-49.805,-32.715,-38.574,-50.781,0.000
1709212210.300,-41.504,-26.367,-30.273,-33.691,0.000
1709212210.304,-46.387,-23.438,-32.715,-39.551,0.000
1709212210.308,-53.711,-28.809,-37.109,-42.969,0.000
1709212210.311,-54.199,-27.832,-33.203,-45.898,0.000
1709212210.315,-56.152,-41.504,-33.203,-41.992,0.000
1709212210.319,-60.059,-48.828,-37.109,-39.062,0.000
1709212210.323,-62.012,-48.340,-41.992,-48.828,0.000
1709212210.327,-52.246,-49.316,-47.363,-46.875,0.000
1709212210.331,-46.875,-41.504,-47.363,-50.293,0.000
1709212210.335,-45.410,-44.922,-43.457,-59.082,0.000
1709212210.339,-58.105,-46.387,-45.410,-62.988,0.000
1709212210.343,-61.523,-34.668,-43.457,-53.711,0.000
1709212210.347,-52.246,-28.809,-40.039,-44.922,0.000
1709212210.350,-57.617,-41.504,-46.875,-49.316,0.000
1709212210.354,-63.965,-52.734,-51.270,-60.547,0.000
1709212210.358,-69.824,-48.340,-51.270,-72.754,0.000
1709212210.362,-61.523,-39.062,-45.410,-60.059,0.000
1709212210.366,-51.758,-46.387,-41.992,-48.828,0.000
1709212210.370,-51.758,-60.547,-47.852,-52.246,0.000
1709212210.374,-60.547,-55.664,-52.246,-46.875,0.000
1709212210.378,-68.359,-42.969,-48.340,-50.293,0.000
1709212210.382,-62.500,-39.551,-41.992,-63.477,0.000
1709212210.386,-51.270,-48.828,-38.086,-50.781,0.000
1709212210.389,-50.781,-50.781,-35.645,-34.180,0.000
1709212210.393,-49.805,-34.668,-32.715,-40.527,0.000
1709212210.397,-42.969,-36.621,-27.832,-45.410,0.000
1709212210.401,-34.180,-47.363,-24.902,-37.109,0.000
1709212210.405,-32.715,-43.945,-29.297,-35.156,0.000
1709212210.409,-32.227,-44.434,-33.691,-44.922,0.000
1709212210.413,-27.344,-41.504,-33.203,-49.316,0.000
1709212210.417,-27.344,-45.410,-28.320,-40.527,0.000
1709212210.421,-34.668,-48.340,-31.250,-42.969,0.000
1709212210.425,-36.133,-33.203,-38.574,-45.898,0.000
1709212210.429,-30.762,-35.156,-38.574,-45.410,0.000
1709212210.432,-32.715,-38.086,-32.715,-43.457,0.000
1709212210.436,-43.457,-36.621,-33.691,-41.016,0.000
1709212210.440,-52.734,-44.434,-38.086,-45.898,0.000
1709212210.444,-51.270,-39.062,-42.969,-53.223,0.000
1709212210.448,-44.922,-28.320,-42.480,-43.457,0.000
1709212210.452,-46.387,-33.203,-41.016,-49.316,0.000
1709212210.456,-57.617,-39.062,-48.340,-57.129,0.000
1709212210.460,-66.406,-41.504,-45.898,-52.246,0.000
1709212210.464,-65.430,-44.434,-45.410,-56.152,0.000
1709212210.468,-60.547,-43.945,-44.922,-55.176,0.000
1709212210.472,-51.270,-43.945,-38.574,-51.758,0.000
1709212210.475,-58.594,-36.621,-32.715,-54.688,0.000
1709212210.479,-63.477,-32.715,-34.180,-54.199,0.000
1709212210.483,-60.547,-41.504,-44.434,-42.969,0.000
1709212210.487,-53.711,-46.875,-40.527,-36.621,0.000
1709212210.491,-40.039,-39.551,-30.762,-39.551,0.000
1709212210.495,-31.250,-36.621,-28.320,-22.949,0.000
1709212210.499,-33.203,-42.969,-31.738,-22.949,0.000
1709212210.503,-30.273,-38.086,-32.227,-23.926,0.000
1709212210.507,-11.719,-23.926,-32.715,-15.625,0.000
1709212210.511,-13.672,-27.832,-36.133,-14.160,0.000
1709212210.515,-23.438,-45.410,-32.227,-21.973,0.000
1709212210.518,-25.879,-43.945,-33.203,-34.668,0.000
1709212210.522,-28.809,-37.109,-47.852,-36.133,0.000
1709212210.526,-26.855,-33.691,-41.992,-31.250,0.000
1709212210.530,-29.297,-31.250,-34.180,-30.762,0.000
1709212210.534,-26.855,-31.738,-41.992,-36.133,0.000
1709212210.538,-27.832,-32.227,-37.598,-30.273,0.000
1709212210.542,-39.551,-28.320,-39.062,-34.668,0.000
1709212210.546,-37.109,-38.574,-44.434,-49.316,0.000
1709212210.550,-33.203,-47.363,-41.504,-49.316,0.000
1709212210.554,-38.574,-37.598,-40.039,-45.898,0.000
1709212210.558,-40.527,-43.945,-52.246,-45.898,0.000
1709212210.561,-35.645,-46.387,-53.223,-45.410,0.000
1709212210.565,-34.180,-23.438,-42.480,-54.199,0.000
1709212210.569,-28.809,-12.695,-36.133,-62.988,0.000
1709212210.573,-39.551,-21.973,-43.945,-65.430,0.000
1709212210.577,-53.711,-28.320,-50.293,-68.359,0.000
1709212210.581,-48.340,-23.926,-43.945,-59.082,0.000
1709212210.585,-36.621,-26.855,-41.504,-39.551,0.000
1709212210.589,-31.738,-33.203,-43.945,-42.969,0.000
1709212210.593,-23.926,-28.320,-41.504,-48.828,0.000
1709212210.597,-29.785,-34.668,-44.434,-51.758,0.000
1709212210.601,0.000,-44.434,-48.340,-46.387,0.000
1709212210.604,0.000,-37.109,-45.410,-34.668,0.000
1709212210.608,0.000,-32.715,-38.086,-31.738,0.000
1709212210.612,0.000,-42.969,-38.086,-33.691,0.000
1709212210.616,0.000,-51.758,-37.109,-35.645,0.000
1709212210.620,0.000,-41.504,-38.574,-34.668,0.000
1709212210.624,0.000,-27.344,-43.457,-32.227,0.000
1709212210.628,0.000,-33.691,-38.086,-26.855,0.000
1709212210.632,0.000,-42.480,-32.227,-41.016,0.000
1709212210.636,0.000,-38.086,-37.598,-56.152,0.000
1709212210.640,0.000,-37.598,-36.621,-46.875,0.000
1709212210.644,0.000,-45.898,-36.133,-32.227,0.000
1709212210.647,-32.227,-42.480,-39.551,-44.434,0.000
1709212210.651,-38.574,-40.527,-38.086,-56.641,0.000
1709212210.655,-48.340,-43.945,-33.691,-56.641,0.000
1709212210.659,-54.199,-43.457,-40.527,-62.988,0.000
1709212210.663,-43.457,-36.621,-46.875,-57.617,0.000
1709212210.667,-34.668,-41.504,-47.852,-55.176,0.000
1709212210.671,-42.480,-40.039,-46.875,-51.758,0.000
1709212210.675,-52.734,-31.738,-41.016,-45.898,0.000
1709212210.679,-64.453,-41.992,-44.434,-65.430,0.000
1709212210.683,-67.383,-38.574,-44.922,-68.848,0.000
1709212210.686,-58.105,-30.762,-41.016,-51.758,0.000
1709212210.690,-57.129,-42.969,-44.922,-53.223,0.000
1709212210.694,-53.223,-50.781,-41.504,-62.500,0.000
1709212210.698,-44.434,-39.551,-44.434,-63.965,0.000
1709212210.702,-51.270,-40.527,-49.805,-64.453,0.000
1709212210.706,-51.270,-41.016,-40.039,-50.293,0.000
1709212210.710,-43.457,-36.621,-37.109,-42.480,0.000
1709212210.714,-47.363,-41.504,-36.621,-46.387,0.000
1709212210.718,-53.711,-49.316,-34.180,-37.109,0.000
1709212210.722,-51.270,-44.922,-36.133,-38.086,0.000
1709212210.725,-36.133,-30.762,-32.227,-40.527,0.000
1709212210.729,-36.133,-29.297,-33.203,-41.992,0.000
1709212210.733,-45.410,-32.715,-33.691,-43.457,0.000
1709212210.737,-48.340,-39.062,-29.297,-39.062,0.000
1709212210.741,-49.316,-47.363,-36.621,-39.062,0.000
1709212210.745,-42.480,-35.645,-39.062,-24.902,0.000
1709212210.749,-47.852,-32.715,-34.180,-19.531,0.000
1709212210.753,-42.969,-37.109,-36.621,-26.855,0.000
1709212210.757,-38.086,-34.180,-39.551,-37.598,0.000
1709212210.760,-40.039,-32.715,-35.645,-39.551,0.000
1709212210.764,-25.879,-36.621,-34.668,-29.297,0.000
1709212210.768,-24.414,-41.504,-37.109,-31.738,0.000
1709212210.772,-35.645,-41.016,-40.527,-38.086,0.000
1709212210.776,-32.715,-43.945,-46.387,-33.691,0.000
1709212210.780,-27.832,-43.945,-43.945,-33.203,0.000
1709212210.784,-37.598,-49.316,-39.062,-46.875,0.000
1709212210.788,-51.270,-44.434,-42.969,-49.316,0.000
1709212210.792,-52.246,-30.762,-41.016,-47.852,0.000
1709212210.796,-50.293,-27.832,-42.969,-59.570,0.000
1709212210.800,-48.340,-28.809,-48.828,-52.734,0.000
1709212210.804,-46.387,-36.621,-44.922,-44.922,0.000
1709212210.807,-41.992,-42.480,-35.156,-42.480,0.000
1709212210.811,-38.086,-41.504,-37.109,-41.504,0.000
1709212210.815,-48.340,-35.156,-52.734,-57.617,0.000
1709212210.819,-54.199,-36.621,-55.176,-61.523,0.000
1709212210.823,-46.387,-41.504,-37.598,-41.016,0.000
1709212210.827,-33.203,-38.574,-34.668,-31.738,0.000
1709212210.831,-32.715,-42.969,-32.715,-31.250,0.000
1709212210.835,-37.598,-48.340,-31.738,-35.645,0.000
1709212210.839,-36.621,-45.410,-34.180,-41.992,0.000
1709212210.843,-35.645,-35.156,-29.785,-46.387,0.000
1709212210.847,-39.551,-24.414,-36.621,-44.434,0.000
1709212210.850,-38.574,-34.180,-38.086,-38.086,0.000
1709212210.854,-40.039,-42.480,-35.156,-41.504,0.000
1709212210.858,-50.781,-39.551,-39.551,-48.828,0.000
1709212210.862,-49.316,-39.062,-40.039,-46.387,0.000
1709212210.866,-41.016,-45.898,-36.621,-33.203,0.000
1709212210.870,-38.574,-48.828,-41.016,-23.438,0.000
1709212210.874,-40.527,-42.969,-47.363,-33.691,0.000
1709212210.878,-40.039,-36.621,-42.480,-34.180,0.000
1709212210.882,-35.645,-38.574,-40.527,-32.715,0.000
1709212210.886,-31.738,-49.316,-43.457,-36.133,0.000
1709212210.890,-33.691,-50.781,-38.086,-32.227,0.000
1709212210.893,-34.180,-33.691,-27.832,-28.809,0.000
1709212210.897,-31.738,-32.715,-27.832,-24.414,0.000
1709212210.901,-34.668,-50.781,-32.715,-20.996,0.000
1709212210.905,-30.762,-51.758,-33.203,-17.090,0.000
1709212210.909,-28.809,-45.898,-32.715,-22.949,0.000
1709212210.913,-42.969,-41.016,-28.320,-25.391,0.000
1709212210.917,-56.152,-38.574,-32.227,-28.809,0.000
1709212210.921,-56.641,-36.133,-39.062,-41.504,0.000
1709212210.925,-49.805,-35.645,-37.109,-48.828,0.000
1709212210.929,-43.457,-48.340,-39.551,-46.387,0.000
1709212210.932,-37.598,-55.664,-44.434,-51.758,0.000
1709212210.936,-43.457,-52.246,-46.387,-58.105,0.000
1709212210.940,-47.852,-53.223,-43.945,-63.477,0.000
1709212210.944,-49.316,-38.086,-38.086,-65.430,0.000
1709212210.948,-42.969,-25.879,-37.598,-60.059,0.000
1709212210.952,-40.039,-36.621,-40.527,-62.012,0.000
1709212210.956,-41.992,-41.016,-42.969,-63.965,0.000
1709212210.960,-49.805,-40.039,-46.387,-54.688,0.000
1709212210.964,-42.969,-41.504,-45.410,-51.758,0.000
1709212210.968,-38.086,-42.969,-44.922,-52.246,0.000
1709212210.972,-36.133,-45.410,-46.875,-53.711,0.000
1709212210.975,-41.016,-48.828,-45.898,-49.805,0.000
1709212210.979,-47.363,-38.574,-60.547,-52.734,0.000
1709212210.983,-36.133,-28.320,-61.035,-58.594,0.000
1709212210.987,-29.297,-37.598,-41.016,-56.152,0.000
1709212210.991,-32.715,-37.598,-32.227,-50.293,0.000
1709212210.995,-35.645,-45.898,-36.621,-52.734,0.000
1709212210.999,-40.527,-52.734,-49.316,-57.129,0.000
1709212211.003,-42.480,-41.992,-46.387,-45.898,0.000
1709212211.007,-37.598,-38.086,-38.086,-39.062,0.000
1709212211.011,-41.992,-47.363,-46.875,-55.664,0.000
1709212211.014,-44.922,-37.109,-41.016,-57.129,0.000
1709212211.018,-46.875,-26.367,-32.715,-41.992,0.000
1709212211.022,-41.504,-35.645,-35.156,-32.715,0.000
1709212211.026,-27.344,-43.457,-34.180,-29.297,0.000
1709212211.030,-31.738,-41.992,-33.203,-34.668,0.000
1709212211.034,-42.969,-35.156,-35.645,-45.410,0.000
1709212211.038,-39.062,-30.273,-33.203,-46.875,0.000
1709212211.042,-40.039,-38.574,-30.273,-48.340,0.000
1709212211.046,-37.109,-38.086,-32.715,-35.156,0.000
1709212211.050,-36.133,-35.156,-31.250,-18.066,0.000
1709212211.054,-37.109,-38.086,-35.156,-33.691,0.000
1709212211.057,-32.227,-42.480,-41.016,-53.223,0.000
1709212211.061,-35.156,-41.992,-41.504,-52.246,0.000
1709212211.065,-34.668,-34.180,-40.527,-48.340,0.000
1709212211.069,-27.832,-29.297,-38.574,-47.852,0.000
1709212211.073,-36.621,-40.527,-35.156,-45.898,0.000
1709212211.077,-42.969,-52.734,-36.621,-36.621,0.000
1709212211.081,-47.363,-49.316,-41.016,-36.621,0.000
1709212211.085,-46.387,-44.434,-43.457,-41.992,0.000
1709212211.089,-40.039,-43.945,-44.922,-54.199,0.000
1709212211.093,-37.109,-48.828,-47.852,-61.035,0.000
1709212211.096,-38.086,-39.551,-47.852,-60.547,0.000
1709212211.100,-40.039,-27.832,-49.805,-68.848,0.000
1709212211.104,-32.715,-32.227,-50.781,-59.082,0.000
1709212211.108,-27.344,-34.668,-46.387,-49.316,0.000
1709212211.112,-26.855,-27.344,-44.434,-56.152,0.000
1709212211.116,-29.297,-21.973,-43.457,-56.152,0.000
1709212211.120,-26.855,-25.879,-40.527,-47.363,0.000
1709212211.124,-24.414,-37.109,-34.668,-46.387,0.000
1709212211.128,-27.832,-46.387,-42.969,-48.828,0.000
1709212211.131,-29.785,-31.250,-43.945,-50.781,0.000
1709212211.135,-28.320,-24.902,-38.574,-49.316,0.000
1709212211.139,-32.227,-35.156,-39.551,-46.875,0.000
1709212211.143,-35.156,-33.203,-38.574,-52.734,0.000
1709212211.147,-35.156,-31.738,-38.086,-56.152,0.000
1709212211.151,-36.621,-38.086,-39.062,-51.270,0.000
1709212211.155,-43.457,-41.504,-41.504,-47.852,0.000
1709212211.159,-50.293,-37.598,-40.527,-51.270,0.000
1709212211.163,-46.387,-28.320,-36.133,-46.387,0.000
1709212211.167,-41.016,-24.414,-33.691,-36.133,0.000
1709212211.171,-34.180,-32.715,-33.203,-33.691,0.000
1709212211.175,-33.691,-33.203,-33.203,-38.086,0.000
1709212211.178,-44.434,-35.156,-37.598,-41.016,0.000
1709212211.182,-49.805,-43.457,-42.969,-30.273,0.000
1709212211.186,-42.480,-38.574,-43.945,-29.785,0.000
1709212211.190,-49.316,-30.762,-47.852,-42.480,0.000
1709212211.194,-56.152,-29.785,-39.062,-42.480,0.000
1709212211.198,-52.734,-39.551,-36.621,-38.086,0.000
1709212211.202,-44.434,-38.086,-42.969,-41.992,0.000
1709212211.206,-34.180,-35.645,-38.574,-41.504,0.000
1709212211.210,-31.250,-52.734,-33.691,-34.180,0.000
1709212211.214,-40.039,-50.293,-35.645,-44.922,0.000
1709212211.218,-44.922,-38.086,-41.016,-52.734,0.000
1709212211.221,-38.574,-38.574,-41.992,-50.781,0.000
1709212211.225,-32.227,-36.621,-36.621,-40.527,0.000
1709212211.229,-24.902,-33.691,-34.668,-38.574,0.000
1709212211.233,-28.320,-32.715,-40.527,-46.875,0.000
1709212211.237,-42.969,-34.180,-44.922,-51.758,0.000
1709212211.241,-40.039,-42.969,-40.039,-39.062,0.000
1709212211.245,-37.109,-40.527,-36.621,-19.531,0.000
1709212211.249,-41.016,-30.273,-35.645,-22.949,0.000
1709212211.253,-39.062,-36.133,-37.109,-31.250,0.000
1709212211.257,-43.945,-42.969,-37.109,-27.832,0.000
1709212211.261,-43.945,-41.016,-40.039,-30.762,0.000
1709212211.264,-46.387,-40.527,-44.434,-40.039,0.000
1709212211.268,-45.898,-29.297,-42.969,-43.457,0.000
1709212211.272,-38.574,-26.855,-41.016,-46.875,0.000
1709212211.276,-34.668,-40.039,-40.527,-48.340,0.000
1709212211.280,-38.086,-37.598,-39.062,-49.805,0.000
1709212211.284,-43.457,-30.273,-40.527,-58.594,0.000
1709212211.288,-34.668,-38.086,-41.016,-56.152,0.000
1709212211.292,-35.156,-41.016,-45.410,-58.105,0.000
1709212211.296,-42.480,-39.062,-45.898,-60.547,0.000
1709212211.300,-41.016,-48.340,-39.062,-62.500,0.000
1709212211.304,-41.504,-44.434,-33.691,-64.453,0.000
1709212211.307,-42.480,-43.457,-36.133,-56.641,0.000
1709212211.311,-41.992,-41.016,-34.668,-57.617,0.000
1709212211.315,-43.945,-23.438,-30.762,-55.664,0.000
1709212211.319,-49.316,-19.043,-35.645,-49.316,0.000
1709212211.323,-42.480,-31.250,-42.480,-51.270,0.000
1709212211.327,-32.227,-37.598,-49.316,-47.363,0.000
1709212211.331,-26.855,-32.715,-41.992,-39.062,0.000
1709212211.335,-40.039,-36.133,-35.645,-38.086,0.000
1709212211.339,-65.918,-44.434,-35.645,-47.852,0.000
1709212211.343,-59.082,-40.527,-34.668,-42.969,0.000
1709212211.346,-42.480,-40.039,-28.320,-24.414,0.000
1709212211.350,-50.781,-49.805,-28.809,-30.273,0.000
1709212211.354,-63.965,-44.434,-35.156,-47.363,0.000
1709212211.358,-72.266,-41.992,-39.062,-48.340,0.000
1709212211.362,-71.289,-43.457,-40.527,-42.969,0.000
1709212211.366,-63.477,-34.180,-38.574,-42.969,0.000
1709212211.370,-57.129,-36.621,-40.039,-44.434,0.000
1709212211.374,-56.152,-34.180,-41.016,-51.270,0.000
1709212211.378,-58.594,-32.227,-36.133,-52.246,0.000
1709212211.382,-56.152,-35.156,-35.156,-47.363,0.000
1709212211.386,-49.805,-35.156,-43.457,-48.340,0.000
1709212211.389,-41.504,-37.109,-46.875,-53.711,0.000
1709212211.393,-34.668,-36.133,-31.250,-49.316,0.000
1709212211.397,-45.898,-41.504,-34.180,-50.781,0.000
1709212211.401,-57.129,-43.457,-43.457,-55.664,0.000
1709212211.405,-37.598,-38.574,-32.715,-42.480,0.000
1709212211.409,-30.762,-46.387,-35.156,-39.551,0.000
1709212211.413,-35.156,-42.480,-42.480,-45.410,0.000
1709212211.417,-35.645,-32.227,-38.086,-47.363,0.000
1709212211.421,-41.992,-39.551,-41.016,-49.316,0.000
1709212211.425,-44.434,-41.992,-42.969,-33.203,0.000
1709212211.428,-40.527,-27.344,-44.922,-27.344,0.000
1709212211.432,-38.574,-25.391,-37.109,-38.086,0.000
1709212211.436,-41.992,-33.203,-25.879,-44.434,0.000
1709212211.440,-41.504,-33.203,-26.855,-45.410,0.000
1709212211.444,-30.762,-45.898,-33.203,-41.504,0.000
1709212211.448,-22.461,-41.504,-38.086,-33.691,0.000
1709212211.452,-25.879,-29.785,-42.969,-31.738,0.000
1709212211.456,-41.992,-36.621,-45.898,-37.109,0.000
1709212211.460,-46.875,-29.297,-41.504,-38.086,0.000
1709212211.464,-34.668,-31.738,-40.039,-32.227,0.000
1709212211.468,-27.344,-41.992,-41.504,-23.926,0.000
1709212211.472,-21.484,-46.387,-37.109,-21.484,0.000
1709212211.475,-19.043,-44.922,-30.273,-33.203,0.000
1709212211.479,-21.973,-38.574,-32.715,-36.133,0.000
1709212211.483,-23.926,-43.945,-39.062,-29.297,0.000
1709212211.487,-22.461,-33.691,-37.598,-25.879,0.000
1709212211.491,-26.855,-27.344,-39.551,-24.414,0.000
1709212211.495,-33.203,-39.062,-42.480,-24.902,0.000
1709212211.499,-29.785,-47.852,-45.898,-41.992,0.000
1709212211.503,-24.902,-57.129,-44.434,-53.711,0.000
1709212211.507,-23.438,-51.758,-43.457,-50.781,0.000
1709212211.511,-27.832,-47.852,-47.363,-54.688,0.000
1709212211.514,-22.461,-46.875,-50.781,-56.152,0.000
1709212211.518,-25.879,-38.086,-50.293,-58.105,0.000
1709212211.522,-32.227,-41.016,-42.969,-57.129,0.000
1709212211.526,-24.414,-45.898,-42.480,-51.270,0.000
1709212211.530,-25.879,-37.598,-38.574,-31.738,0.000
1709212211.534,-40.527,-39.062,-31.738,-34.180,0.000
1709212211.538,-44.922,-41.016,-33.203,-43.945,0.000
1709212211.542,-28.320,-32.715,-28.320,-39.551,0.000
1709212211.546,-18.066,-39.062,-29.785,-38.574,0.000
1709212211.550,-29.297,-47.363,-41.016,-41.992,0.000
1709212211.554,-48.340,-43.457,-43.945,-42.969,0.000
1709212211.557,-53.223,-44.922,-40.527,-42.969,0.000
1709212211.561,-49.805,-48.340,-36.621,-43.945,0.000
1709212211.565,-41.992,-47.852,-28.809,-39.551,0.000
1709212211.569,-31.250,-45.410,-30.762,-37.109,0.000
1709212211.573,-27.832,-50.781,-32.715,-30.273,0.000
1709212211.577,-39.062,-53.711,-29.297,-34.180,0.000
1709212211.581,-50.293,-42.480,-34.180,-46.875,0.000
1709212211.585,-40.527,-41.992,-36.133,-44.922,0.000
1709212211.589,-36.133,-52.734,-36.133,-41.016,0.000
1709212211.593,-37.109,-49.805,-33.691,-41.504,0.000
1709212211.597,-41.504,-51.270,-32.715,-43.945,0.000
1709212211.600,-46.875,-52.734,-44.922,-41.016,0.000
1709212211.604,-32.715,-46.387,-48.828,-42.480,0.000
1709212211.608,-29.785,-41.016,-38.086,-39.062,0.000
1709212211.612,-29.297,-38.086,-28.320,-33.203,0.000
1709212211.616,-31.250,-40.039,-27.344,-39.062,0.000
1709212211.620,-41.504,-39.551,-33.691,-32.715,0.000
1709212211.624,-41.504,-38.086,-37.109,-30.762,0.000
1709212211.628,-33.203,-42.969,-36.133,-27.344,0.000
1709212211.632,-28.809,-46.875,-36.133,-25.879,0.000
1709212211.636,-30.762,-39.062,-32.227,-37.598,0.000
1709212211.640,-29.297,-39.062,-29.785,-53.223,0.000
1709212211.643,-30.273,-44.922,-33.691,-45.410,0.000
1709212211.647,-29.785,-41.992,-33.691,-31.250,0.000
1709212211.651,-35.645,-40.039,-43.457,-41.016,0.000
1709212211.655,-42.480,-36.621,-47.852,-52.734,0.000
1709212211.659,-41.016,-31.738,-40.527,-46.387,0.000
1709212211.663,-35.156,-38.574,-43.457,-27.344,0.000
1709212211.667,-30.762,-44.434,-49.316,-29.297,0.000
1709212211.671,-23.438,-38.086,-49.316,-42.480,0.000
1709212211.675,-30.273,-29.297,-44.434,-51.758,0.000
1709212211.679,-45.898,-36.133,-42.969,-54.199,0.000
1709212211.683,-45.898,-47.363,-48.340,-52.734,0.000
1709212211.686,-42.969,-46.875,-43.945,-50.293,0.000
1709212211.690,-47.363,-43.945,-40.527,-43.945,0.000
1709212211.694,-52.734,-39.062,-38.574,-41.992,0.000
1709212211.698,-53.711,-39.062,-31.738,-52.734,0.000
1709212211.702,-52.734,-40.527,-32.715,-60.059,0.000
1709212211.706,-52.734,-48.828,-38.086,-51.270,0.000
1709212211.710,-51.758,-51.758,-34.180,-36.621,0.000
1709212211.714,-53.223,-39.551,-33.691,-42.969,0.000
1709212211.718,-58.105,-41.016,-33.691,-51.270,0.000
1709212211.722,-75.684,-33.203,-34.180,-60.547,0.000
1709212211.725,-75.195,-31.250,-40.039,-67.383,0.000
1709212211.729,-56.152,-47.363,-35.645,-62.012,0.000
1709212211.733,-49.805,-45.410,-30.273,-50.781,0.000
1709212211.737,-51.758,-36.621,-32.715,-41.992,0.000
1709212211.741,-56.641,-38.574,-27.832,-34.668,0.000
1709212211.745,-54.688,-48.340,-36.133,-41.016,0.000
1709212211.749,-42.480,-49.805,-39.062,-41.992,0.000
1709212211.753,-33.203,-42.969,-32.227,-28.320,0.000
1709212211.757,-44.922,-41.992,-39.551,-42.969,0.000
1709212211.761,-43.945,-44.922,-44.434,-53.223,0.000
1709212211.765,-37.109,-45.898,-44.922,-43.945,0.000
1709212211.768,-32.715,-40.039,-42.480,-39.551,0.000
1709212211.772,-26.367,-34.180,-39.551,-42.480,0.000
1709212211.776,-32.227,-38.086,-37.109,-43.457,0.000
1709212211.780,-33.691,-37.598,-37.598,-39.551,0.000
1709212211.784,-30.273,-39.062,-43.945,-37.598,0.000
1709212211.788,-27.344,-38.574,-42.969,-37.598,0.000
1709212211.792,-25.391,-32.715,-41.992,-43.457,0.000
1709212211.796,-27.832,-30.273,-44.434,-48.340,0.000
1709212211.800,-22.461,-33.691,-42.969,-33.203,0.000
1709212211.804,-15.625,-34.668,-41.504,-40.039,0.000
1709212211.807,-26.855,-34.180,-39.062,-49.805,0.000
1709212211.811,-41.504,-29.785,-33.691,-42.969,0.000
1709212211.815,-43.457,-26.367,-30.762,-43.457,0.000
1709212211.819,-50.781,-29.297,-28.320,-42.969,0.000
1709212211.823,-60.547,-42.480,-28.320,-41.992,0.000
1709212211.827,-60.547,-45.898,-33.691,-47.363,0.000
1709212211.831,-59.082,-41.504,-40.039,-62.500,0.000
1709212211.835,-59.082,-41.016,-40.527,-64.941,0.000
1709212211.839,-59.082,-52.734,-42.480,-53.223,0.000
1709212211.843,-62.988,-58.594,-42.480,-43.945,0.000
1709212211.846,-57.129,-46.387,-37.598,-44.434,0.000
1709212211.850,-44.434,-28.809,-30.762,-42.480,0.000
1709212211.854,-49.805,-28.320,-29.785,-38.086,0.000
1709212211.858,-53.711,-36.621,-34.180,-37.598,0.000
1709212211.862,-50.781,-36.621,-31.738,-39.551,0.000
1709212211.866,-41.504,-37.109,-37.598,-41.504,0.000
1709212211.870,-38.574,-36.621,-39.062,-43.945,0.000
1709212211.874,-33.203,-33.203,-34.668,-41.504,0.000
1709212211.878,-34.180,-35.156,-38.574,-30.273,0.000
1709212211.882,-44.922,-42.969,-40.039,-28.809,0.000
1709212211.885,-34.668,-42.480,-33.691,-18.555,0.000
1709212211.889,-29.785,-32.715,-31.738,-6.348,0.000
1709212211.893,-37.598,-36.621,-36.621,-22.461,0.000
1709212211.897,-40.527,-48.828,-30.273,-33.203,0.000
1709212211.901,-40.039,-42.969,-31.250,-30.762,0.000
1709212211.905,-32.715,-29.297,-36.133,-24.414,0.000
1709212211.909,-20.020,-26.367,-35.156,-3.418,0.000
1709212211.913,-25.879,-28.320,-38.574,-2.441,0.000
1709212211.917,-32.227,-27.344,-38.086,-36.133,0.000
1709212211.921,-36.621,-20.996,-33.203,-38.574,0.000
1709212211.925,-28.809,-20.996,-38.574,-30.762,0.000
1709212211.929,-9.277,-24.414,-38.086,-32.227,0.000
1709212211.932,-18.066,-30.762,-37.598,-29.785,0.000
1709212211.936,-29.785,-34.180,-43.457,-37.109,0.000
1709212211.940,-41.016,-32.715,-44.434,-43.945,0.000
1709212211.944,-53.711,-36.133,-36.133,-26.367,0.000
1709212211.948,-41.016,-40.039,-30.762,-29.297,0.000
1709212211.952,-37.598,-27.344,-36.133,-69.336,0.000
1709212211.956,-44.922,-26.367,-44.922,-86.914,0.000
1709212211.960,-46.875,-35.156,-52.246,-71.777,0.000
1709212211.964,-57.617,-36.621,-46.387,-59.570,0.000
1709212211.968,-66.406,-42.480,-41.992,-57.617,0.000
1709212211.972,-55.664,-40.527,-45.410,-56.641,0.000
1709212211.975,-47.852,-32.715,-43.457,-51.758,0.000
1709212211.979,-49.316,-32.715,-39.062,-42.969,0.000
1709212211.983,-40.527,-32.715,-38.574,-30.762,0.000
1709212211.987,-31.738,-28.320,-40.527,-28.320,0.000
1709212211.991,-28.809,-35.645,-35.645,-26.855,0.000
1709212211.995,-23.438,-48.340,-30.762,-14.648,0.000
1709212211.999,-27.832,-34.180,-28.320,-23.438,0.000
1709212212.003,-27.344,-34.668,-28.320,-31.738,0.000
1709212212.007,-22.461,-51.758,-32.227,-21.484,0.000
1709212212.011,-21.973,-34.180,-34.180,-22.461,0.000
1709212212.015,-23.438,-22.949,-39.551,-32.227,0.000
1709212212.018,-34.668,-29.785,-42.969,-43.945,0.000
1709212212.022,-29.785,-24.414,-33.203,-31.738,0.000
1709212212.026,-22.461,-24.902,-33.203,-16.113,0.000
1709212212.030,-24.902,-36.133,-34.668,-25.391,0.000
1709212212.034,-25.391,-51.270,-32.715,-36.133,0.000
1709212212.038,-31.250,-65.918,-38.086,-38.574,0.000
1709212212.042,-27.832,-45.898,-37.598,-39.551,0.000
1709212212.046,-28.320,-26.855,-40.527,-48.340,0.000
1709212212.050,-35.156,-30.762,-42.480,-51.758,0.000
1709212212.054,-27.832,-30.762,-29.297,-43.945,0.000
1709212212.057,-20.996,-34.180,-31.250,-50.293,0.000
1709212212.061,-22.461,-32.715,-41.504,-51.758,0.000
1709212212.065,-28.320,-29.785,-43.945,-41.992,0.000
1709212212.069,-27.832,-36.621,-44.922,-34.668,0.000
1709212212.073,-21.973,-43.457,-40.527,-31.250,0.000
1709212212.077,-25.391,-40.039,-40.039,-42.480,0.000
1709212212.081,-32.715,-29.297,-43.945,-54.199,0.000
1709212212.085,-36.621,-34.180,-46.387,-48.340,0.000
1709212212.089,-40.039,-33.691,-49.805,-41.992,0.000
1709212212.093,-40.527,-33.691,-43.457,-42.480,0.000
1709212212.097,-46.875,-38.086,-38.086,-36.621,0.000
1709212212.100,-46.875,-29.785,-44.434,-34.668,0.000
1709212212.104,-40.527,-28.320,-42.969,-44.922,0.000
1709212212.108,-33.203,-34.180,-41.016,-41.992,0.000
1709212212.112,-32.227,-32.227,-41.992,-37.109,0.000
1709212212.116,-39.062,-31.250,-41.504,-31.738,0.000
1709212212.120,-46.875,-43.945,-40.039,-26.367,0.000
1709212212.124,-46.875,-43.945,-40.039,-20.508,0.000
1709212212.128,-32.715,-35.645,-42.969,-16.602,0.000
1709212212.132,-22.949,-37.109,-44.434,-35.645,0.000
1709212212.136,-21.484,-36.133,-38.086,-44.434,0.000
1709212212.139,-31.738,-36.621,-32.715,-38.574,0.000
1709212212.143,-44.922,-44.434,-34.180,-37.598,0.000
1709212212.147,0.000,-46.387,-36.133,-37.598,0.000
1709212212.151,0.000,-41.504,-41.504,-43.945,0.000
1709212212.155,0.000,-36.133,-41.016,-47.852,0.000
1709212212.159,0.000,-40.039,-42.480,-44.922,0.000
1709212212.163,0.000,-40.039,-45.410,-35.645,0.000
1709212212.167,0.000,-35.156,-44.434,-39.062,0.000
1709212212.171,0.000,-39.551,-45.410,-46.387,0.000
1709212212.175,0.000,-35.645,-39.551,-39.551,0.000
1709212212.179,0.000,-39.551,-40.527,-44.922,0.000
1709212212.182,0.000,-43.457,-34.180,-46.387,0.000
1709212212.186,0.000,-45.898,-31.250,-40.039,0.000
1709212212.190,0.000,-41.992,-36.621,-39.551,0.000
1709212212.194,-39.551,-26.367,-35.645,-41.992,0.000
1709212212.198,-35.156,-23.926,-38.574,-48.340,0.000
1709212212.202,-38.574,-31.250,-42.969,-46.875,0.000
1709212212.206,-40.039,-35.645,-45.898,-42.969,0.000
1709212212.210,-39.062,-30.762,-42.480,-37.109,0.000
1709212212.214,-39.551,-33.203,-42.480,-42.969,0.000
1709212212.217,-39.062,-40.039,-49.316,-44.434,0.000
1709212212.221,-31.250,-42.969,-46.387,-50.293,0.000
1709212212.225,-22.949,-39.551,-41.016,-51.270,0.000
1709212212.229,-29.785,-40.527,-41.504,-33.691,0.000
1709212212.233,-43.457,-42.969,-38.574,-33.203,0.000
1709212212.237,-38.574,-48.828,-40.039,-41.016,0.000
1709212212.241,-26.855,-48.828,-44.434,-47.363,0.000
1709212212.245,-20.020,-43.945,-46.875,-38.086,0.000
1709212212.249,-39.551,-48.340,-53.223,-34.668,0.000
1709212212.253,-47.363,-39.551,-49.316,-41.992,0.000
1709212212.256,-41.016,-37.109,-48.340,-39.062,0.000
1709212212.260,-41.504,-47.852,-48.828,-32.227,0.000
1709212212.264,-30.273,-40.039,-41.992,-26.855,0.000
1709212212.268,-18.066,-36.621,-42.480,-39.062,0.000
1709212212.272,-22.949,-41.504,-47.852,-51.270,0.000
1709212212.276,-34.668,-38.574,-44.434,-54.688,0.000
1709212212.280,-40.527,-47.363,-46.387,-52.246,0.000
1709212212.284,-42.480,-43.457,-46.875,-33.203,0.000
1709212212.288,-37.598,-30.273,-41.504,-22.949,0.000
1709212212.292,-30.762,-44.434,-37.598,-37.598,0.000
1709212212.296,-30.762,-43.457,-32.715,-52.734,0.000
1709212212.300,-31.250,-37.598,-33.203,-58.594,0.000
1709212212.303,-30.273,-38.574,-29.297,-47.363,0.000
1709212212.307,-31.738,-37.598,-24.414,-23.438,0.000
1709212212.311,-28.809,-37.109,-35.156,-23.438,0.000
1709212212.315,-30.273,-37.598,-39.062,-21.973,0.000
1709212212.319,-32.227,-37.598,-39.551,-16.113,0.000
1709212212.323,-26.367,-36.133,-33.691,-10.742,0.000
1709212212.327,-17.090,-35.156,-29.297,-18.066,0.000
1709212212.331,-8.789,-38.086,-33.691,-29.785,0.000
1709212212.335,-12.695,-41.016,-31.738,-22.461,0.000
1709212212.339,-20.020,-53.223,-33.691,-22.949,0.000
1709212212.343,-19.531,-35.645,-39.551,-26.367,0.000
1709212212.346,-19.043,-18.555,-31.738,-26.367,0.000
1709212212.350,-27.832,-36.621,-36.133,-31.250,0.000
1709212212.354,-33.203,-39.062,-54.199,-32.227,0.000
1709212212.358,-34.668,-28.809,-47.852,-41.992,0.000
1709212212.362,-40.527,-33.203,-34.180,-47.852,0.000
1709212212.366,-41.504,-40.039,-30.762,-34.668,0.000
1709212212.370,-41.992,-40.527,-33.691,-19.531,0.000
1709212212.374,-48.828,-41.504,-31.250,-28.320,0.000
1709212212.378,-53.223,-42.480,-24.902,-39.551,0.000
1709212212.382,-45.410,-30.762,-25.391,-37.109,0.000
1709212212.386,-35.156,-25.879,-27.832,-39.551,0.000
1709212212.389,-37.598,-35.645,-28.809,-45.410,0.000
1709212212.393,-40.527,-46.875,-34.180,-43.945,0.000
1709212212.397,-46.387,-50.293,-36.621,-41.992,0.000
1709212212.401,-52.734,-45.898,-31.738,-39.551,0.000
1709212212.405,-47.852,-48.340,-38.574,-39.551,0.000
1709212212.409,-38.086,-48.340,-40.527,-54.688,0.000
1709212212.413,-39.062,-42.480,-37.109,-54.199,0.000
1709212212.417,-42.969,-40.527,-39.551,-58.105,0.000
1709212212.421,-33.691,-41.992,-36.621,-63.477,0.000
1709212212.425,-39.551,-41.504,-32.715,-55.664,0.000
1709212212.428,-49.805,-41.992,-33.691,-49.316,0.000
1709212212.432,-49.316,-44.434,-31.738,-42.480,0.000
1709212212.436,-45.898,-46.387,-34.668,-44.434,0.000
1709212212.440,-47.852,-48.828,-43.945,-49.805,0.000
1709212212.444,-52.734,-43.945,-48.340,-48.340,0.000
1709212212.448,-46.387,-39.062,-51.270,-40.039,0.000
1709212212.452,-49.805,-45.410,-51.758,-41.504,0.000
1709212212.456,-55.176,-46.387,-43.457,-41.016,0.000
1709212212.460,-52.246,-51.270,-43.945,-31.738,0.000
1709212212.464,-45.410,-45.898,-49.805,-41.504,0.000
1709212212.468,-36.133,-33.691,-43.945,-46.387,0.000
1709212212.471,-29.297,-31.738,-41.504,-45.410,0.000
1709212212.476,-33.203,-29.785,-39.062,-39.551,0.000
1709212212.479,-45.410,-35.645,-35.156,-40.039,0.000
1709212212.483,-44.922,-39.551,-31.738,-38.086,0.000
1709212212.487,-37.109,-31.738,-36.621,-31.738,0.000
1709212212.491,-33.203,-36.133,-41.992,-48.828,0.000
1709212212.495,-34.668,-46.875,-39.551,-59.082,0.000
1709212212.499,-37.109,-43.945,-33.691,-50.781,0.000
1709212212.503,-45.410,-47.852,-35.156,-41.504,0.000
1709212212.507,-44.434,-41.992,-40.527,-45.898,0.000
1709212212.511,-32.227,-28.809,-38.574,-51.270,0.000
1709212212.515,-24.902,-30.762,-39.551,-52.246,0.000
1709212212.519,-28.320,-33.691,-38.086,-60.547,0.000
1709212212.522,-22.461,-37.109,-32.715,-62.012,0.000
1709212212.526,-35.156,-38.574,-32.227,-50.781,0.000
1709212212.530,-49.805,-36.621,-32.715,-35.645,0.000
1709212212.534,-43.945,-30.762,-26.855,-31.250,0.000
1709212212.538,-25.879,-29.785,-24.902,-36.621,0.000
1709212212.542,-11.719,-26.367,-36.133,-49.316,0.000
1709212212.546,-12.207,-27.344,-39.551,-46.387,0.000
1709212212.550,-23.438,-39.551,-35.645,-36.621,0.000
1709212212.554,-53.223,-42.969,-40.527,-41.504,0.000
1709212212.558,-58.105,-43.457,-40.039,-51.270,0.000
1709212212.561,-33.691,-49.316,-37.598,-40.527,0.000
1709212212.565,-35.156,-51.270,-41.016,-30.762,0.000
1709212212.569,-50.781,-43.945,-40.039,-41.992,0.000
1709212212.573,-51.758,-35.645,-39.062,-50.781,0.000
1709212212.577,-49.805,-30.762,-41.504,-50.781,0.000
1709212212.581,-52.246,-29.785,-38.574,-54.688,0.000
1709212212.585,-49.316,-33.203,-37.598,-45.898,0.000
1709212212.589,-35.156,-36.133,-37.598,-46.387,0.000
1709212212.593,-26.855,-33.203,-44.922,-57.617,0.000
1709212212.596,-27.832,-34.668,-51.758,-49.316,0.000
1709212212.600,-32.715,-41.504,-46.875,-44.434,0.000
1709212212.604,-44.434,-45.410,-39.551,-43.945,0.000
1709212212.608,-45.410,-54.199,-41.016,-43.457,0.000
1709212212.612,-33.691,-43.945,-39.062,-38.574,0.000
1709212212.616,-20.020,-34.180,-33.203,-38.086,0.000
1709212212.620,-20.020,-34.180,-36.133,-38.086,0.000
1709212212.624,-29.785,-25.879,-35.645,-30.273,0.000
1709212212.628,-47.852,-31.250,-36.621,-28.809,0.000
1709212212.632,-47.363,-42.480,-36.621,-32.227,0.000
1709212212.635,-35.156,-42.969,-35.645,-36.133,0.000
1709212212.639,-32.227,-35.645,-37.109,-33.203,0.000
1709212212.643,-21.484,-32.715,-37.109,-28.809,0.000
1709212212.647,-17.578,-36.621,-34.668,-21.484,0.000
1709212212.651,-26.367,-43.457,-34.180,-23.926,0.000
1709212212.655,-17.578,-41.504,-32.227,-25.391,0.000
1709212212.659,-21.973,-30.273,-34.668,-27.832,0.000
1709212212.663,-44.434,-38.574,-32.715,-24.902,0.000
1709212212.667,-34.668,-45.898,-27.344,-14.648,0.000
1709212212.671,-27.832,-44.434,-31.738,-20.996,0.000
1709212212.675,-31.250,-40.527,-29.297,-23.926,0.000
1709212212.679,-25.879,-23.926,-21.973,-23.438,0.000
1709212212.682,-27.832,-22.949,-27.344,-26.855,0.000
1709212212.686,-28.320,-38.574,-36.133,-33.203,0.000
1709212212.690,-16.602,-35.156,-41.016,-31.738,0.000
1709212212.694,-12.207,-29.785,-41.992,-21.484,0.000
1709212212.698,-12.695,-38.574,-50.293,-22.461,0.000
1709212212.702,-12.695,-43.457,-57.129,-35.645,0.000
1709212212.706,-18.555,-34.668,-44.434,-45.410,0.000
1709212212.710,-35.645,-36.621,-45.898,-48.828,0.000
1709212212.714,-51.270,-35.645,-50.293,-49.316,0.000
1709212212.718,-47.852,-30.273,-50.293,-52.246,0.000
1709212212.722,-35.156,-34.668,-51.758,-52.734,0.000
1709212212.725,-36.621,-31.250,-50.293,-46.387,0.000
1709212212.729,-36.621,-26.855,-47.363,-40.039,0.000
1709212212.733,-34.668,-32.227,-43.457,-47.852,0.000
1709212212.737,-50.781,-35.645,-42.969,-58.105,0.000
1709212212.741,-64.941,-41.504,-48.340,-47.363,0.000
1709212212.745,-62.988,-39.062,-44.922,-33.203,0.000
1709212212.749,-50.293,-30.273,-39.551,-40.527,0.000
1709212212.753,-43.457,-27.832,-39.551,-47.363,0.000
1709212212.757,-49.316,-31.738,-36.621,-39.062,0.000
1709212212.761,-56.152,-30.273,-37.109,-35.645,0.000
1709212212.765,-47.852,-28.320,-34.668,-42.480,0.000
1709212212.768,-35.156,-36.133,-38.574,-59.082,0.000
1709212212.772,-21.973,-50.293,-39.551,-64.453,0.000
1709212212.776,-36.133,-47.852,-41.504,-62.012,0.000
1709212212.780,-50.781,-36.133,-44.434,-56.641,0.000
1709212212.784,-41.504,-33.691,-41.504,-49.805,0.000
1709212212.788,-30.273,-42.480,-40.039,-36.133,0.000
1709212212.792,-20.996,-41.504,-39.062,-36.621,0.000
1709212212.796,-15.625,-38.086,-35.645,-48.340,0.000
1709212212.800,-7.324,-44.434,-34.180,-49.805,0.000
1709212212.804,-5.371,-41.016,-34.180,-38.086,0.000
1709212212.808,-19.531,-39.062,-31.738,-31.738,0.000
1709212212.811,-34.668,-42.480,-29.785,-34.180,0.000
1709212212.815,-50.781,-39.551,-23.926,-27.344,0.000
1709212212.819,-50.293,-35.645,-20.020,-30.273,0.000
1709212212.823,-43.945,-36.621,-26.367,-33.691,0.000
1709212212.827,-34.180,-37.109,-28.809,-23.438,0.000
1709212212.831,-28.809,-41.992,-27.832,-26.367,0.000
1709212212.835,-33.203,-47.852,-35.645,-27.344,0.000
1709212212.839,-38.574,-47.363,-38.086,-43.457,0.000
1709212212.843,-46.387,-32.715,-34.180,-60.059,0.000
1709212212.847,-45.898,-36.133,-36.133,-58.594,0.000
1709212212.850,-46.387,-47.852,-43.945,-61.523,0.000
1709212212.854,-56.641,-35.645,-42.969,-70.312,0.000
1709212212.858,-57.129,-27.832,-41.016,-76.660,0.000
1709212212.862,-58.594,-39.062,-43.945,-79.102,0.000
1709212212.866,-57.617,-49.316,-42.969,-72.266,0.000
1709212212.870,-52.246,-40.039,-44.434,-62.500,0.000
1709212212.874,-46.875,-40.039,-42.480,-65.918,0.000
1709212212.878,-33.203,-40.527,-35.156,-55.664,0.000
1709212212.882,-31.250,-28.320,-31.250,-43.457,0.000
1709212212.886,-51.758,-32.715,-33.691,-50.293,0.000
1709212212.890,-56.641,-40.039,-41.016,-57.617,0.000
1709212212.893,-41.016,-41.992,-40.527,-58.105,0.000
1709212212.897,0.000,-41.016,-31.738,-55.664,0.000
1709212212.901,0.000,-36.133,-29.297,-51.758,0.000
1709212212.905,0.000,-39.062,-34.180,-40.039,0.000
1709212212.909,0.000,-46.875,-33.691,-33.203,0.000
1709212212.913,0.000,-38.086,-31.738,-22.949,0.000
1709212212.917,0.000,-34.668,-35.156,-31.250,0.000
1709212212.921,0.000,-37.109,-33.203,-42.969,0.000
1709212212.925,0.000,-33.203,-34.180,-17.090,0.000
1709212212.929,0.000,-32.227,-38.086,-16.113,0.000
1709212212.932,0.000,-37.598,-36.133,-26.367,0.000
1709212212.936,0.000,-41.016,-35.645,-37.598,0.000
1709212212.940,0.000,-39.062,-35.645,-43.457,0.000
1709212212.944,-25.391,-34.668,-37.109,-38.086,0.000
1709212212.948,-18.555,-33.203,-41.504,-45.898,0.000
1709212212.952,-13.184,-40.527,-37.109,-43.945,0.000
1709212212.956,-33.203,-46.387,-32.227,-45.410,0.000
1709212212.960,-35.645,-55.176,-38.086,-49.805,0.000
1709212212.964,-30.273,-50.293,-41.504,-55.664,0.000
1709212212.968,-23.926,-37.109,-43.945,-47.363,0.000
1709212212.971,-23.926,-37.109,-43.457,-36.621,0.000
1709212212.975,-44.434,-40.039,-52.734,-46.875,0.000
1709212212.979,-53.711,-40.039,-49.805,-60.059,0.000
1709212212.983,-50.781,-38.574,-39.062,-59.570,0.000
1709212212.987,-46.387,-40.039,-37.598,-51.270,0.000
1709212212.991,-43.945,-44.434,-36.133,-51.270,0.000
1709212212.995,-50.781,-48.340,-34.180,-49.805,0.000
1709212212.999,-60.547,-47.852,-37.109,-49.805,0.000
1709212213.003,-57.617,-37.109,-37.109,-45.898,0.000
1709212213.007,-40.527,-34.668,-38.574,-42.480,0.000
1709212213.010,-36.621,-44.434,-39.551,-49.316,0.000
1709212213.014,-43.945,-55.664,-43.457,-47.852,0.000
1709212213.018,-46.387,-59.570,-43.457,-55.664,0.000
1709212213.022,-46.387,-44.922,-35.156,-61.035,0.000
1709212213.026,-45.898,-36.621,-35.156,-49.316,0.000
1709212213.030,-45.410,-48.340,-44.922,-48.340,0.000
1709212213.034,-35.156,-51.270,-45.410,-57.617,0.000
1709212213.038,-26.855,-46.387,-42.969,-57.617,0.000
1709212213.042,-33.203,-47.363,-43.945,-51.758,0.000
1709212213.046,-40.039,-53.711,-40.039,-45.898,0.000
1709212213.050,-37.109,-53.711,-40.527,-35.645,0.000
1709212213.053,-38.574,-45.410,-39.551,-40.039,0.000
1709212213.057,-35.645,-41.504,-41.504,-43.945,0.000
1709212213.061,-27.832,-47.852,-42.969,-40.039,0.000
1709212213.065,-32.227,-42.480,-42.969,-47.852,0.000
1709212213.069,-42.969,-35.156,-47.363,-48.828,0.000
1709212213.073,-34.180,-40.527,-43.945,-33.691,0.000
1709212213.077,-31.250,-37.598,-36.621,-29.785,0.000
1709212213.081,-38.086,-37.598,-35.645,-31.738,0.000
1709212213.085,-31.250,-49.805,-36.621,-31.250,0.000
1709212213.089,-20.508,-42.969,-35.645,-36.133,0.000
1709212213.093,-17.090,-29.297,-37.598,-43.457,0.000
1709212213.096,-27.344,-32.227,-39.551,-45.410,0.000
1709212213.100,-46.387,-32.715,-39.062,-55.176,0.000
1709212213.104,-54.688,-29.785,-36.621,-60.059,0.000
1709212213.108,-44.922,-34.668,-41.992,-48.340,0.000
1709212213.112,-33.203,-36.621,-42.480,-41.016,0.000
1709212213.116,-32.715,-45.898,-34.668,-47.852,0.000
1709212213.120,-33.203,-52.734,-36.621,-41.016,0.000
1709212213.124,-34.180,-28.320,-34.668,-39.062,0.000
1709212213.128,-26.855,-23.926,-37.598,-40.527,0.000
1709212213.132,-33.691,-40.039,-39.062,-36.133,0.000
1709212213.136,-54.199,-31.738,-37.109,-45.898,0.000
1709212213.139,-55.176,-32.227,-41.016,-55.664,0.000
1709212213.143,-41.992,-28.809,-36.621,-47.363,0.000
1709212213.147,-26.367,-40.039,-39.062,-36.133,0.000
1709212213.151,-22.949,-47.363,-40.527,-42.480,0.000
1709212213.155,-42.969,-38.086,-39.062,-55.176,0.000
1709212213.159,-73.242,-39.551,-38.574,-61.523,0.000
1709212213.163,-62.500,-36.133,-34.180,-50.293,0.000
1709212213.167,-46.387,-30.762,-34.180,-49.316,0.000
1709212213.171,-42.969,-29.785,-40.527,-57.617,0.000
1709212213.175,-58.105,-38.574,-43.945,-50.293,0.000
1709212213.179,-66.406,-46.387,-35.156,-44.434,0.000
1709212213.182,-53.711,-42.480,-33.691,-48.340,0.000
1709212213.186,-54.199,-44.434,-40.039,-50.293,0.000
1709212213.190,-59.570,-52.246,-45.410,-48.340,0.000
1709212213.194,-55.176,-44.434,-50.781,-42.480,0.000
1709212213.198,-52.246,-42.969,-52.734,-43.945,0.000
1709212213.202,-50.781,-41.016,-49.316,-53.223,0.000
1709212213.206,-40.527,-35.156,-44.922,-52.734,0.000
1709212213.210,-30.273,-46.387,-41.016,-37.598,0.000
1709212213.214,-32.227,-40.527,-41.504,-40.039,0.000
1709212213.218,-38.086,-20.508,-40.527,-47.852,0.000
1709212213.222,-42.969,-26.367,-37.598,-44.434,0.000
1709212213.225,-38.086,-43.457,-36.133,-41.016,0.000
1709212213.229,-27.832,-37.598,-40.527,-44.434,0.000
1709212213.233,-29.785,-25.879,-42.480,-53.223,0.000
1709212213.237,-43.457,-35.645,-41.016,-55.664,0.000
1709212213.241,-48.340,-34.180,-43.457,-43.945,0.000
1709212213.245,-47.363,-36.133,-45.898,-34.180,0.000
1709212213.249,-40.039,-34.668,-38.086,-32.715,0.000
1709212213.253,-32.227,-43.945,-34.668,-29.785,0.000
1709212213.257,-37.598,-48.340,-38.086,-39.551,0.000
1709212213.261,-44.922,-35.156,-38.574,-39.062,0.000
1709212213.264,-57.617,-29.785,-38.574,-33.691,0.000
1709212213.268,-60.059,-36.621,-40.039,-34.668,0.000
1709212213.272,-57.617,-43.457,-38.086,-32.715,0.000
1709212213.276,-46.387,-50.781,-35.156,-33.203,0.000
1709212213.280,-35.156,-41.504,-37.598,-32.715,0.000
1709212213.284,-44.434,-33.203,-39.062,-30.762,0.000
1709212213.288,-41.992,-37.109,-42.480,-32.227,0.000
1709212213.292,-37.109,-43.457,-44.434,-37.109,0.000
1709212213.296,-40.039,-55.176,-38.086,-21.484,0.000
1709212213.300,-43.945,-47.852,-31.250,-14.160,0.000
1709212213.303,-47.363,-33.691,-36.133,-28.809,0.000
1709212213.307,-38.574,-35.156,-46.387,-33.691,0.000
1709212213.311,-31.738,-34.180,-43.457,-31.738,0.000
1709212213.315,-32.227,-34.668,-36.621,-23.926,0.000
1709212213.319,-29.297,-35.645,-35.156,-22.461,0.000
1709212213.323,-37.598,-38.086,-35.645,-18.555,0.000
1709212213.327,-37.109,-36.133,-38.574,-15.137,0.000
1709212213.331,-21.973,-37.598,-37.598,-11.230,0.000
1709212213.335,-11.719,-48.828,-28.809,-1.953,0.000
1709212213.339,-20.020,-41.992,-32.227,-11.719,0.000
1709212213.342,-32.715,-36.133,-38.086,-12.695,0.000
1709212213.346,-35.156,-32.715,-32.715,-13.184,0.000
1709212213.350,-30.762,-26.855,-31.738,-20.996,0.000
1709212213.354,-26.855,-34.668,-36.133,-24.414,0.000
1709212213.358,-33.203,-45.410,-38.086,-40.039,0.000
1709212213.362,-34.180,-49.805,-30.762,-41.504,0.000
1709212213.366,-29.785,-37.598,-31.250,-39.062,0.000
1709212213.370,-32.715,-26.367,-30.762,-35.156,0.000
1709212213.374,-44.434,-37.598,-28.809,-30.273,0.000
1709212213.378,-49.805,-47.852,-34.668,-41.016,0.000
1709212213.381,-44.434,-32.715,-28.809,-45.898,0.000
1709212213.385,-40.039,-31.250,-25.391,-33.203,0.000
1709212213.389,-35.645,-50.781,-34.180,-32.227,0.000
1709212213.393,-33.203,-35.645,-39.062,-44.434,0.000
1709212213.397,-41.992,-30.762,-40.527,-40.039,0.000
1709212213.401,-44.922,-41.992,-46.387,-38.086,0.000
1709212213.405,-38.086,-33.203,-44.434,-32.715,0.000
1709212213.409,-33.691,-33.691,-36.621,-25.391,0.000
1709212213.413,-26.855,-43.945,-44.922,-38.086,0.000
1709212213.417,-26.855,-43.945,-52.734,-46.387,0.000
1709212213.421,-43.945,-38.574,-40.527,-54.199,0.000
1709212213.424,-44.434,-38.574,-32.715,-53.223,0.000
1709212213.428,-36.133,-38.574,-36.621,-45.410,0.000
1709212213.432,-37.598,-41.016,-37.109,-33.203,0.000
1709212213.436,-33.203,-47.852,-39.551,-24.902,0.000
1709212213.440,-33.691,-52.246,-44.434,-29.297,0.000
1709212213.444,-31.250,-45.898,-41.016,-23.438,0.000
1709212213.448,-20.996,-31.250,-41.504,-14.648,0.000
1709212213.452,-16.113,-30.273,-44.434,-18.555,0.000
1709212213.456,-30.273,-44.922,-42.480,-30.762,0.000
1709212213.460,-38.574,-44.434,-40.039,-38.086,0.000
1709212213.464,-37.598,-46.875,-38.574,-31.250,0.000
1709212213.468,-34.668,-43.457,-34.180,-18.066,0.000
1709212213.471,-29.785,-45.410,-34.668,-18.066,0.000
1709212213.475,-21.484,-49.316,-38.574,-29.297,0.000
1709212213.479,-17.090,-39.062,-36.133,-41.016,0.000
1709212213.483,-21.973,-37.598,-37.598,-49.316,0.000
1709212213.487,-30.762,-37.109,-38.574,-52.246,0.000
1709212213.491,-42.480,-39.062,-39.062,-48.340,0.000
1709212213.495,-43.945,-47.852,-39.062,-35.645,0.000
1709212213.499,-41.504,-50.781,-39.062,-46.875,0.000
1709212213.503,-32.227,-45.410,-38.574,-51.758,0.000
1709212213.507,-20.020,-50.781,-32.715,-41.504,0.000
1709212213.511,-17.090,-46.875,-42.480,-49.805,0.000
1709212213.514,-29.297,-38.086,-44.922,-58.105,0.000
1709212213.518,-43.457,-42.969,-39.551,-51.758,0.000
1709212213.522,-47.852,-40.527,-45.898,-45.898,0.000
1709212213.526,-43.945,-36.621,-45.410,-47.852,0.000
1709212213.530,-39.551,-41.504,-36.621,-43.945,0.000
1709212213.534,-36.621,-43.945,-41.992,-36.133,0.000
1709212213.538,-35.645,-42.969,-43.457,-28.320,0.000
1709212213.542,-39.551,-35.156,-37.109,-28.320,0.000
1709212213.546,-28.809,-28.320,-38.086,-29.297,0.000
1709212213.550,-26.367,-39.062,-36.133,-28.809,0.000
1709212213.553,-32.227,-45.898,-29.785,-33.203,0.000
1709212213.557,-27.832,-47.852,-28.320,-42.480,0.000
1709212213.561,-30.762,-38.574,-29.785,-45.410,0.000
1709212213.565,-38.574,-30.273,-36.133,-47.363,0.000
1709212213.569,-37.109,-33.691,-38.574,-47.363,0.000
1709212213.573,-31.738,-30.762,-33.691,-40.527,0.000
1709212213.577,-38.574,-30.273,-29.297,-43.457,0.000
1709212213.581,-46.387,-46.387,-29.297,-41.504,0.000
1709212213.585,-41.016,-49.805,-31.250,-32.227,0.000
1709212213.589,-37.109,-33.691,-34.668,-41.016,0.000
1709212213.593,-36.621,-30.273,-35.156,-39.551,0.000
1709212213.596,-35.645,-29.785,-38.086,-33.203,0.000
1709212213.600,-46.875,-35.156,-40.039,-43.945,0.000
1709212213.604,-49.805,-47.852,-37.598,-47.852,0.000
1709212213.608,-49.805,-41.016,-39.551,-37.598,0.000
1709212213.612,-51.270,-35.156,-47.852,-35.156,0.000
1709212213.616,-54.688,-29.297,-49.316,-34.180,0.000
1709212213.620,-63.965,-42.969,-46.875,-39.551,0.000
1709212213.624,-64.453,-50.781,-47.852,-47.363,0.000
1709212213.628,-57.129,-41.016,-48.340,-35.156,0.000
1709212213.632,-51.270,-45.410,-41.016,-34.668,0.000
1709212213.635,-48.340,-47.363,-44.922,-53.711,0.000
1709212213.639,-48.828,-43.457,-45.410,-54.199,0.000
1709212213.643,-50.293,-35.156,-38.574,-61.035,0.000
