timestamps,TP9,AF7,AF8,TP10,Right AUX
1709297780.466,-32.227,-37.109,-41.504,-16.602,0.000
1709297780.470,-27.344,-36.621,-43.945,-19.043,0.000
1709297780.474,-29.297,-32.715,-45.898,-33.203,0.000
1709297780.478,-35.156,-33.203,-51.270,-42.969,0.000
1709297780.482,-36.133,-33.203,-46.875,-47.363,0.000
1709297780.486,-29.785,-35.156,-44.922,-44.922,0.000
1709297780.490,-25.391,-34.668,-46.875,-31.250,0.000
1709297780.494,-24.902,-27.832,-42.480,-36.621,0.000
1709297780.497,-29.297,-27.344,-40.527,-49.805,0.000
1709297780.501,-30.762,-30.273,-42.969,-47.852,0.000
1709297780.505,-19.043,-31.250,-43.457,-43.457,0.000
1709297780.509,1.953,-29.297,-41.504,-38.574,0.000
1709297780.513,-2.930,-29.785,-41.504,-36.133,0.000
1709297780.517,-27.344,-34.180,-43.945,-51.270,0.000
1709297780.521,-39.551,-32.227,-46.875,-62.988,0.000
1709297780.525,-36.621,-31.738,-44.434,-50.781,0.000
1709297780.529,-23.438,-32.227,-44.434,-41.992,0.000
1709297780.533,-21.484,-27.344,-45.410,-48.340,0.000
1709297780.536,-33.203,-28.809,-41.016,-56.641,0.000
1709297780.540,-43.457,-34.668,-41.504,-55.176,0.000
1709297780.544,-50.293,-37.109,-47.852,-50.293,0.000
1709297780.548,-39.062,-38.574,-45.410,-42.480,0.000
1709297780.552,-36.133,-42.969,-42.969,-49.805,0.000
1709297780.556,-50.781,-40.039,-43.457,-58.594,0.000
1709297780.560,-66.406,-40.039,-46.387,-65.918,0.000
1709297780.564,-63.477,-39.062,-46.387,-55.664,0.000
1709297780.568,-41.992,-38.086,-43.457,-39.551,0.000
1709297780.572,-31.250,-44.434,-43.945,-41.016,0.000
1709297780.576,-47.852,-46.387,-43.457,-51.758,0.000
1709297780.579,-65.430,-43.945,-41.504,-50.781,0.000
1709297780.583,-54.688,-41.016,-41.504,-41.992,0.000
1709297780.587,-38.574,-35.156,-41.016,-30.273,0.000
1709297780.591,-37.598,-32.715,-39.062,-24.414,0.000
1709297780.595,-46.387,-36.133,-41.504,-22.949,0.000
1709297780.599,-51.758,-34.180,-38.086,-33.203,0.000
1709297780.603,-51.270,-31.738,-37.109,-44.922,0.000
1709297780.607,-37.598,-33.691,-47.363,-39.062,0.000
1709297780.611,-33.691,-36.133,-52.246,-36.133,0.000
1709297780.615,-41.992,-31.738,-51.270,-50.293,0.000
1709297780.619,-46.875,-31.250,-53.223,-53.711,0.000
1709297780.622,-53.223,-36.133,-54.199,-45.410,0.000
1709297780.626,-55.176,-36.133,-51.270,-38.086,0.000
1709297780.630,-47.363,-36.621,-49.316,-40.039,0.000
1709297780.634,-45.898,-40.039,-45.898,-50.781,0.000
1709297780.638,-61.035,-41.504,-43.945,-44.434,0.000
1709297780.642,-60.547,-35.156,-43.457,-30.273,0.000
1709297780.646,-50.781,-38.086,-46.387,-24.414,0.000
1709297780.650,-45.898,-42.969,-47.363,-15.137,0.000
1709297780.654,-45.410,-37.598,-44.922,-23.926,0.000
1709297780.658,-58.594,-38.086,-47.852,-46.387,0.000
1709297780.662,-70.801,-38.574,-49.316,-49.316,0.000
1709297780.665,-58.594,-38.086,-45.898,-35.156,0.000
1709297780.669,-35.645,-40.527,-43.457,-29.785,0.000
1709297780.673,-32.715,-39.551,-41.992,-41.992,0.000
1709297780.677,-46.875,-37.598,-44.434,-60.059,0.000
1709297780.681,-53.711,-37.109,-48.340,-55.664,0.000
1709297780.685,-45.410,-36.133,-45.898,-29.297,0.000
1709297780.689,-35.156,-31.738,-45.898,-22.949,0.000
1709297780.693,-28.809,-33.203,-44.434,-33.691,0.000
1709297780.697,-40.039,-35.156,-41.016,-42.480,0.000
1709297780.701,-57.129,-33.691,-38.574,-44.434,0.000
1709297780.704,-51.758,-32.715,-37.598,-38.086,0.000
1709297780.708,-37.598,-34.180,-39.551,-31.250,0.000
1709297780.712,-24.414,-36.621,-37.109,-25.391,0.000
1709297780.716,-23.438,-39.551,-34.668,-38.574,0.000
1709297780.720,-34.180,-37.598,-38.086,-42.969,0.000
1709297780.724,-28.320,-33.691,-40.039,-34.180,0.000
1709297780.728,-12.695,-36.621,-38.574,-24.414,0.000
1709297780.732,-9.277,-35.156,-35.645,-26.367,0.000
1709297780.736,-14.160,-32.227,-33.691,-39.062,0.000
1709297780.740,-28.809,-33.203,-38.086,-36.133,0.000
1709297780.744,-37.598,-32.227,-42.969,-35.156,0.000
1709297780.747,-19.043,-30.273,-45.410,-30.273,0.000
1709297780.751,-6.348,-30.762,-38.574,-23.438,0.000
1709297780.755,-21.973,-33.691,-33.691,-29.297,0.000
1709297780.759,-38.086,-29.785,-36.621,-29.297,0.000
1709297780.763,-33.691,-29.297,-36.621,-11.230,0.000
1709297780.767,-25.879,-32.227,-38.086,-5.371,0.000
1709297780.771,-21.973,-30.273,-41.504,-20.996,0.000
1709297780.775,-26.855,-29.785,-43.945,-30.273,0.000
1709297780.779,-41.504,-30.273,-46.387,-40.039,0.000
1709297780.783,-48.828,-32.227,-52.734,-46.387,0.000
1709297780.786,-41.504,-31.250,-51.270,-34.180,0.000
1709297780.790,-31.250,-30.762,-46.387,-25.879,0.000
1709297780.794,-37.598,-33.203,-46.875,-40.527,0.000
1709297780.798,-50.781,-37.598,-46.875,-52.734,0.000
1709297780.802,-51.758,-39.062,-42.969,-44.434,0.000
1709297780.806,-42.480,-37.109,-40.527,-32.715,0.000
1709297780.810,-29.297,-38.574,-39.551,-33.203,0.000
1709297780.814,-25.391,-30.762,-40.527,-33.691,0.000
1709297780.818,-37.109,-26.855,-44.922,-35.156,0.000
1709297780.822,-41.504,-34.668,-48.340,-37.598,0.000
1709297780.826,-36.133,-32.227,-47.852,-33.691,0.000
1709297780.829,-23.438,-33.691,-48.340,-26.855,0.000
1709297780.833,-15.625,-35.645,-42.480,-26.367,0.000
1709297780.837,-26.855,-31.738,-41.016,-41.016,0.000
1709297780.841,-37.598,-35.156,-41.992,-39.551,0.000
1709297780.845,-32.227,-33.691,-33.691,-26.367,0.000
1709297780.849,-23.438,-26.855,-33.691,-20.020,0.000
1709297780.853,-16.602,-22.461,-35.645,-15.625,0.000
1709297780.857,-16.113,-22.949,-30.273,-23.926,0.000
1709297780.861,-28.320,-26.855,-31.250,-28.809,0.000
1709297780.865,-32.227,-31.738,-33.203,-10.742,0.000
1709297780.868,-20.020,-27.832,-32.715,-13.672,0.000
1709297780.872,-20.020,-26.855,-34.668,-45.410,0.000
1709297780.876,-38.574,-31.738,-37.598,-55.176,0.000
1709297780.880,-57.617,-31.250,-39.551,-53.223,0.000
1709297780.884,-57.129,-32.227,-38.574,-45.898,0.000
1709297780.888,-38.086,-31.250,-37.598,-28.320,0.000
1709297780.892,-21.973,-27.344,-34.668,-26.855,0.000
1709297780.896,-24.414,-40.527,-32.227,-33.691,0.000
1709297780.900,-40.527,-46.875,-33.691,-25.879,0.000
1709297780.904,-44.922,-33.203,-32.227,-20.996,0.000
1709297780.907,-40.527,-24.902,-33.203,-23.438,0.000
1709297780.911,-45.898,-24.414,-38.086,-31.250,0.000
1709297780.915,-49.805,-25.879,-42.969,-49.316,0.000
1709297780.919,-55.664,-22.461,-42.969,-50.781,0.000
1709297780.923,-53.711,-23.926,-40.039,-24.902,0.000
1709297780.927,-38.086,-30.273,-41.992,-12.207,0.000
1709297780.931,-31.738,-28.320,-44.434,-41.992,0.000
1709297780.935,-44.434,-30.762,-43.457,-64.941,0.000
1709297780.939,-50.781,-38.574,-41.504,-55.176,0.000
1709297780.943,-48.340,-23.926,-38.574,-41.992,0.000
1709297780.947,-49.316,-22.949,-39.062,-34.668,0.000
1709297780.950,-37.109,-33.203,-42.480,-24.902,0.000
1709297780.954,-38.574,-32.227,-38.574,-32.227,0.000
1709297780.958,-52.734,-34.180,-39.551,-52.734,0.000
1709297780.962,-50.781,-29.785,-43.945,-42.480,0.000
1709297780.966,-41.992,-26.367,-40.039,-21.484,0.000
1709297780.970,-28.809,-28.320,-37.598,-15.137,0.000
1709297780.974,-36.621,-26.367,-39.062,-32.715,0.000
1709297780.978,-46.387,-27.832,-38.086,-41.016,0.000
1709297780.982,-39.551,-29.785,-33.691,-33.691,0.000
1709297780.986,-32.227,-26.367,-34.180,-26.855,0.000
1709297780.990,-20.020,-26.855,-38.574,-25.879,0.000
1709297780.993,-22.949,-32.715,-38.086,-27.344,0.000
1709297780.997,-41.504,-35.645,-40.039,-35.156,0.000
1709297781.001,-50.293,-34.668,-41.504,-40.039,0.000
1709297781.005,-46.387,-35.645,-46.875,-35.156,0.000
1709297781.009,-37.109,-39.551,-51.270,-27.832,0.000
1709297781.013,-39.551,-33.691,-46.387,-19.531,0.000
1709297781.017,-47.852,-28.809,-42.969,-37.109,0.000
1709297781.021,-51.758,-25.879,-43.945,-59.570,0.000
1709297781.025,-43.457,-27.832,-45.898,-41.504,0.000
1709297781.029,-27.344,-32.227,-45.410,-19.043,0.000
1709297781.033,-17.090,-31.738,-41.504,-11.719,0.000
1709297781.036,-16.602,-27.344,-37.598,-28.320,0.000
1709297781.040,-26.855,-27.832,-39.551,-41.504,0.000
1709297781.044,-32.227,-36.621,-42.969,-30.762,0.000
1709297781.048,-26.367,-35.645,-42.969,-29.785,0.000
1709297781.052,-29.785,-30.273,-42.969,-41.016,0.000
1709297781.056,-36.621,-24.414,-37.109,-45.898,0.000
1709297781.060,-46.387,-26.855,-39.551,-34.180,0.000
1709297781.064,-46.875,-29.785,-41.992,-29.297,0.000
1709297781.068,-27.344,-25.391,-32.715,-26.855,0.000
1709297781.072,-20.996,-24.414,-30.273,-21.973,0.000
1709297781.075,-24.902,-24.414,-33.203,-28.809,0.000
1709297781.079,-32.227,-25.391,-38.574,-36.621,0.000
1709297781.083,-32.227,-30.273,-40.039,-33.203,0.000
1709297781.087,-22.461,-31.250,-41.992,-16.602,0.000
1709297781.091,-16.602,-28.320,-42.480,-5.859,0.000
1709297781.095,-27.344,-27.344,-41.504,-15.625,0.000
1709297781.099,-40.527,-26.855,-41.504,-21.484,0.000
1709297781.103,-38.574,-24.902,-39.551,-4.395,0.000
1709297781.107,-24.902,-20.996,-40.039,-3.418,0.000
1709297781.111,-10.254,-24.902,-40.527,-20.020,0.000
1709297781.115,-11.230,-32.227,-41.016,-24.414,0.000
1709297781.118,-25.879,-32.227,-41.016,-23.438,0.000
1709297781.122,-32.715,-29.297,-38.086,-25.391,0.000
1709297781.126,-27.832,-26.367,-38.086,-14.648,0.000
1709297781.130,-25.391,-26.855,-40.039,-9.277,0.000
1709297781.134,-27.832,-25.879,-42.480,-23.438,0.000
1709297781.138,-43.945,-27.344,-43.457,-33.203,0.000
1709297781.142,-54.199,-33.691,-44.434,-31.250,0.000
1709297781.146,-45.410,-32.227,-47.363,-23.438,0.000
1709297781.150,-35.645,-28.320,-42.969,-12.695,0.000
1709297781.154,-35.645,-28.320,-43.945,-20.996,0.000
1709297781.158,-41.992,-29.785,-49.316,-35.645,0.000
1709297781.161,-44.922,-30.762,-45.410,-30.762,0.000
1709297781.165,-38.086,-26.367,-41.504,-27.832,0.000
1709297781.169,-29.297,-26.367,-41.504,-23.438,0.000
1709297781.173,-32.227,-30.762,-49.316,-26.367,0.000
1709297781.177,-47.852,-36.621,-52.734,-33.691,0.000
1709297781.181,-52.734,-38.574,-53.711,-32.227,0.000
1709297781.185,-41.504,-36.621,-56.641,-21.973,0.000
1709297781.189,-32.227,-35.156,-52.246,-15.625,0.000
1709297781.193,-31.738,-34.668,-50.781,-18.555,0.000
1709297781.197,-40.039,-29.785,-52.246,-23.438,0.000
1709297781.200,-39.062,-28.320,-47.852,-30.762,0.000
1709297781.204,-29.297,-34.668,-48.828,-19.531,0.000
1709297781.208,-25.391,-41.504,-49.805,-8.301,0.000
1709297781.212,-25.879,-43.457,-46.875,-12.207,0.000
1709297781.216,-35.156,-37.109,-49.316,-20.508,0.000
1709297781.220,-43.945,-37.598,-46.387,-26.367,0.000
1709297781.224,-38.086,-41.504,-48.828,-20.996,0.000
1709297781.228,-26.855,-39.551,-50.781,-12.695,0.000
1709297781.232,-20.020,-37.109,-42.480,-20.508,0.000
1709297781.236,-27.344,-35.156,-40.039,-23.926,0.000
1709297781.239,-42.969,-36.621,-37.598,-21.484,0.000
1709297781.243,-38.574,-33.691,-32.715,-18.555,0.000
1709297781.247,-29.297,-28.809,-28.320,-2.441,0.000
1709297781.251,-33.691,-30.762,-34.668,-6.348,0.000
1709297781.255,-48.340,-31.250,-41.504,-28.809,0.000
1709297781.259,-50.293,-27.832,-41.016,-39.062,0.000
1709297781.263,-40.039,-24.902,-38.574,-32.715,0.000
1709297781.267,-26.855,-22.949,-40.039,-15.137,0.000
1709297781.271,-26.367,-26.855,-43.457,-20.996,0.000
1709297781.275,-32.227,-26.367,-44.922,-41.504,0.000
1709297781.279,-33.691,-22.949,-41.992,-38.574,0.000
1709297781.282,-36.133,-28.320,-38.574,-27.832,0.000
1709297781.286,-31.250,-29.297,-44.922,-26.855,0.000
1709297781.290,-24.414,-27.832,-47.852,-28.809,0.000
1709297781.294,-33.691,-32.227,-47.852,-36.133,0.000
1709297781.298,-41.016,-30.273,-44.434,-40.039,0.000
1709297781.302,-41.504,-22.461,-41.504,-34.668,0.000
1709297781.306,-39.062,-23.438,-41.504,-32.227,0.000
1709297781.310,-22.949,-28.320,-40.527,-25.391,0.000
1709297781.314,-28.320,-25.879,-40.527,-35.645,0.000
1709297781.318,-37.598,-21.484,-38.574,-53.223,0.000
1709297781.321,-40.527,-26.367,-40.039,-55.664,0.000
1709297781.325,-45.410,-30.273,-42.969,-45.898,0.000
1709297781.329,-38.574,-29.297,-38.574,-36.621,0.000
1709297781.333,-41.016,-32.227,-38.574,-48.828,0.000
1709297781.337,-46.387,-31.738,-45.410,-66.406,0.000
1709297781.341,-45.898,-33.203,-49.805,-55.176,0.000
1709297781.345,-47.363,-36.621,-43.945,-28.320,0.000
1709297781.349,-34.180,-33.691,-44.434,-36.621,0.000
1709297781.353,-36.133,-32.227,-46.875,-43.945,0.000
1709297781.357,-65.918,-32.715,-42.480,-20.020,0.000
1709297781.361,-80.566,-35.156,-44.434,-47.852,0.000
1709297781.364,-62.988,-34.668,-45.898,-76.172,0.000
1709297781.368,-40.527,-33.691,-43.457,-53.223,0.000
1709297781.372,-29.297,-34.180,-46.875,-48.828,0.000
1709297781.376,-39.551,-29.785,-46.387,-54.199,0.000
1709297781.380,-41.992,-25.391,-41.992,-42.969,0.000
1709297781.384,-38.086,-31.250,-39.551,-25.879,0.000
1709297781.388,-42.969,-37.109,-45.410,-18.555,0.000
1709297781.392,-36.621,-34.668,-46.387,-19.043,0.000
1709297781.396,-30.273,-30.762,-41.992,-34.668,0.000
1709297781.400,-40.039,-31.738,-38.086,-34.668,0.000
1709297781.404,-48.828,-26.367,-37.598,-15.137,0.000
1709297781.408,-27.832,-21.973,-36.621,-3.906,0.000
1709297781.411,-10.254,-20.996,-33.691,-6.836,0.000
1709297781.415,-25.391,-22.461,-39.551,-28.809,0.000
1709297781.419,-47.363,-26.367,-41.992,-29.297,0.000
1709297781.423,-43.945,-26.855,-35.645,-11.719,0.000
1709297781.427,-36.133,-28.809,-33.691,8.789,0.000
1709297781.431,-28.320,-34.668,-34.180,25.879,0.000
1709297781.435,-20.508,-37.598,-36.621,20.020,0.000
1709297781.439,-24.414,-35.156,-37.109,0.977,0.000
1709297781.443,-29.785,-33.203,-36.621,-24.414,0.000
1709297781.447,-20.996,-35.156,-41.016,-34.668,0.000
1709297781.450,-8.789,-35.645,-46.387,-49.316,0.000
1709297781.454,-17.090,-40.527,-44.922,-69.336,0.000
1709297781.458,-25.391,-40.039,-46.387,-69.336,0.000
1709297781.462,-5.371,-31.738,-48.340,-80.566,0.000
1709297781.466,-23.438,-28.809,-44.434,-70.801,0.000
1709297781.470,-35.156,-31.250,-39.551,-45.898,0.000
1709297781.474,-29.297,-34.180,-37.598,-47.363,0.000
1709297781.478,-50.293,-31.738,-36.621,-49.316,0.000
1709297781.482,-56.152,-32.715,-41.016,-43.945,0.000
1709297781.486,-32.227,-36.621,-42.480,-32.715,0.000
1709297781.490,-15.625,-36.133,-38.086,-33.203,0.000
1709297781.493,-26.367,-38.086,-42.969,-41.504,0.000
1709297781.497,-33.203,-37.598,-45.898,-44.434,0.000
1709297781.501,-41.992,-36.133,-45.898,-46.875,0.000
1709297781.505,-51.270,-40.039,-50.293,-39.062,0.000
1709297781.509,-33.691,-35.645,-50.781,-30.273,0.000
1709297781.513,-24.902,-31.738,-49.316,-36.621,0.000
1709297781.517,-44.434,-32.715,-46.875,-38.574,0.000
1709297781.521,-64.453,-35.645,-43.945,-14.160,0.000
1709297781.525,-52.246,-38.574,-41.016,-14.160,0.000
1709297781.529,-30.273,-40.039,-43.945,6.348,0.000
1709297781.532,-17.090,-39.062,-43.945,-5.859,0.000
1709297781.536,-21.484,-39.062,-42.969,-69.824,0.000
1709297781.540,-19.531,-36.621,-47.363,-75.195,0.000
1709297781.544,-23.926,-32.227,-46.387,-48.828,0.000
1709297781.548,-28.809,-30.273,-41.504,-28.809,0.000
1709297781.552,-30.273,-31.250,-40.039,-26.855,0.000
1709297781.556,-36.133,-28.320,-39.062,-38.086,0.000
1709297781.560,-47.852,-27.344,-39.062,-38.574,0.000
1709297781.564,-52.734,-31.250,-39.062,-26.855,0.000
1709297781.568,-38.574,-35.156,-37.598,-10.254,0.000
1709297781.572,-20.508,-29.785,-39.062,-9.766,0.000
1709297781.575,-21.484,-29.785,-40.527,-26.855,0.000
1709297781.579,-28.809,-36.133,-41.504,-38.574,0.000
1709297781.583,-37.109,-34.180,-42.969,-35.156,0.000
1709297781.587,-8.789,-30.762,-40.039,-8.301,0.000
1709297781.591,20.020,-29.297,-34.668,13.672,0.000
1709297781.595,-4.395,-20.508,-37.598,-30.273,0.000
1709297781.599,-36.621,-13.672,-47.363,-65.918,0.000
1709297781.603,-30.762,-7.812,-47.852,-38.086,0.000
1709297781.607,-20.020,-5.371,-53.711,-27.832,0.000
1709297781.611,-22.461,-2.441,-63.477,-41.992,0.000
1709297781.614,-23.926,7.324,-64.941,-30.273,0.000
1709297781.618,-27.832,17.090,-68.848,-44.922,0.000
1709297781.622,-29.297,26.855,-65.430,-37.109,0.000
1709297781.626,-20.020,36.133,-70.801,-34.180,0.000
1709297781.630,-4.883,41.016,-81.543,-73.730,0.000
1709297781.634,10.254,53.711,-82.520,-79.102,0.000
1709297781.638,6.836,61.523,-84.961,-79.102,0.000
1709297781.642,-23.438,61.523,-87.891,-64.941,0.000
1709297781.646,-23.438,70.801,-84.961,-52.246,0.000
1709297781.650,5.859,79.102,-84.473,-54.199,0.000
1709297781.653,23.438,86.426,-90.332,-62.500,0.000
1709297781.657,4.883,88.867,-91.309,-54.688,0.000
1709297781.661,-22.949,89.355,-94.238,-38.086,0.000
1709297781.665,-3.906,91.309,-92.773,-20.996,0.000
1709297781.669,22.949,91.309,-89.844,-23.926,0.000
1709297781.673,39.062,94.238,-91.309,-22.949,0.000
1709297781.677,38.574,100.098,-97.168,-4.883,0.000
1709297781.681,35.645,97.656,-100.586,-3.906,0.000
1709297781.685,44.922,90.820,-97.656,24.902,0.000
1709297781.689,79.590,88.867,-98.145,67.383,0.000
1709297781.693,106.445,94.727,-103.516,24.902,0.000
1709297781.696,91.309,91.309,-105.469,6.348,0.000
1709297781.700,82.031,82.520,-107.422,28.320,0.000
1709297781.704,85.449,76.172,-107.910,36.133,0.000
1709297781.708,106.445,79.102,-104.492,58.105,0.000
1709297781.712,108.398,77.637,-95.215,71.777,0.000
1709297781.716,97.168,69.336,-96.680,48.340,0.000
1709297781.720,91.309,65.430,-100.586,44.434,0.000
1709297781.724,86.914,62.012,-95.703,53.223,0.000
1709297781.728,89.355,60.059,-90.332,81.055,0.000
1709297781.732,86.426,55.176,-85.938,91.797,0.000
1709297781.736,89.355,51.758,-85.938,41.992,0.000
1709297781.739,80.078,51.270,-86.914,19.043,0.000
1709297781.743,62.012,46.387,-80.078,34.668,0.000
1709297781.747,62.988,44.922,-76.660,46.387,0.000
1709297781.751,62.500,42.480,-77.637,43.945,0.000
1709297781.755,51.758,35.156,-74.707,36.621,0.000
1709297781.759,37.598,33.691,-72.754,30.762,0.000
1709297781.763,33.203,30.762,-70.801,29.785,0.000
1709297781.767,34.180,27.344,-66.406,41.016,0.000
1709297781.771,38.086,24.414,-65.918,41.992,0.000
1709297781.775,35.156,20.020,-69.336,30.762,0.000
1709297781.779,20.508,18.555,-63.965,32.227,0.000
1709297781.782,9.766,19.043,-59.082,34.180,0.000
1709297781.786,11.719,17.090,-54.688,54.199,0.000
1709297781.790,22.461,13.672,-51.758,61.523,0.000
1709297781.794,16.113,12.695,-51.758,10.254,0.000
1709297781.798,-2.441,11.719,-54.199,-11.719,0.000
1709297781.802,-16.602,7.324,-58.594,0.000,0.000
1709297781.806,-11.719,3.418,-57.129,20.996,0.000
1709297781.810,-0.977,2.441,-57.129,41.504,0.000
1709297781.814,-5.371,1.953,-61.035,-1.953,0.000
1709297781.818,-10.254,-0.488,-64.941,-30.273,0.000
1709297781.821,-34.180,-8.789,-67.871,-24.902,0.000
1709297781.825,-33.203,-10.254,-67.383,-20.508,0.000
1709297781.829,-4.395,-6.836,-58.594,-13.672,0.000
1709297781.833,-2.930,-8.789,-53.711,-15.137,0.000
1709297781.837,-19.043,-11.719,-53.223,-20.996,0.000
1709297781.841,-33.691,-14.648,-52.246,-28.320,0.000
1709297781.845,-40.039,-20.508,-58.105,-19.531,0.000
1709297781.849,-24.414,-20.996,-60.059,-15.137,0.000
1709297781.853,-22.949,-20.508,-59.082,-17.090,0.000
1709297781.857,-35.156,-21.973,-55.664,-22.949,0.000
1709297781.861,-39.551,-16.113,-52.246,-13.672,0.000
1709297781.864,-34.668,-15.625,-51.758,4.395,0.000
1709297781.868,-11.719,-20.020,-52.734,-10.254,0.000
1709297781.872,1.465,-21.973,-57.617,-22.461,0.000
1709297781.876,-12.695,-20.020,-57.617,-30.762,0.000
1709297781.880,-28.809,-17.578,-56.641,-39.551,0.000
1709297781.884,-22.949,-17.090,-57.617,-20.020,0.000
1709297781.888,-16.113,-12.207,-54.199,-6.348,0.000
1709297781.892,-10.742,-15.137,-50.781,-11.719,0.000
1709297781.896,-16.113,-22.461,-52.246,-25.391,0.000
1709297781.900,-41.016,-20.996,-53.223,-31.250,0.000
1709297781.904,-56.152,-23.438,-53.223,-26.367,0.000
1709297781.907,-39.551,-28.320,-56.152,-26.367,0.000
1709297781.911,-29.297,-27.832,-56.641,-30.762,0.000
1709297781.915,-37.109,-30.762,-57.129,-34.180,0.000
1709297781.919,-50.781,-32.227,-57.129,-14.648,0.000
1709297781.923,-55.664,-26.855,-53.711,-22.461,0.000
1709297781.927,-31.250,-21.484,-53.711,-37.109,0.000
1709297781.931,-11.230,-22.461,-50.293,5.859,0.000
1709297781.935,-28.809,-26.367,-53.711,3.906,0.000
1709297781.939,-33.691,-23.438,-57.617,-31.738,0.000
1709297781.943,-24.902,-20.996,-58.105,-5.371,0.000
1709297781.946,-21.973,-24.902,-60.547,-7.812,0.000
1709297781.950,-15.137,-27.344,-64.941,-62.988,0.000
1709297781.954,-17.090,-26.367,-64.453,-80.566,0.000
1709297781.958,-34.180,-23.926,-56.641,-67.871,0.000
1709297781.962,-40.039,-21.484,-51.758,-47.852,0.000
1709297781.966,-20.020,-18.066,-49.805,-32.715,0.000
1709297781.970,-18.555,-20.020,-50.781,-37.598,0.000
1709297781.974,-32.227,-23.926,-49.805,-41.992,0.000
1709297781.978,-43.457,-23.438,-49.316,-41.504,0.000
1709297781.982,-45.410,-24.414,-51.758,-46.875,0.000
1709297781.985,-34.180,-25.879,-50.293,-34.668,0.000
1709297781.989,-21.973,-25.391,-46.387,-18.555,0.000
1709297781.993,-26.855,-22.949,-43.457,-17.090,0.000
1709297781.997,-36.621,-23.438,-40.039,-21.973,0.000
1709297782.001,-45.410,-24.902,-41.504,-41.016,0.000
1709297782.005,-42.480,-27.344,-41.992,-23.438,0.000
1709297782.009,-23.926,-31.250,-42.480,-10.254,0.000
1709297782.013,-19.531,-33.203,-45.898,-37.598,0.000
1709297782.017,-33.691,-34.180,-44.922,-46.387,0.000
1709297782.021,-44.922,-31.250,-41.992,-31.738,0.000
1709297782.025,-36.621,-33.203,-40.039,-21.484,0.000
1709297782.028,-17.578,-39.062,-41.504,-13.672,0.000
1709297782.032,-11.230,-34.668,-44.922,-10.742,0.000
1709297782.036,-23.438,-33.691,-44.434,-30.762,0.000
1709297782.040,-37.598,-32.715,-41.504,-16.113,0.000
1709297782.044,-39.551,-28.320,-43.945,22.949,0.000
1709297782.048,-32.227,-32.227,-48.828,11.230,0.000
1709297782.052,-14.160,-30.762,-53.223,-4.883,0.000
1709297782.056,-16.113,-27.344,-52.246,-21.973,0.000
1709297782.060,-33.203,-27.832,-52.734,-47.363,0.000
1709297782.064,-23.926,-24.414,-52.246,-38.086,0.000
1709297782.067,-8.789,-26.367,-45.898,-24.902,0.000
1709297782.071,-9.277,-29.785,-46.387,-39.062,0.000
1709297782.075,-22.461,-30.762,-45.898,-53.711,0.000
1709297782.079,-29.785,-29.297,-45.898,-57.617,0.000
1709297782.083,-24.414,-21.973,-47.363,-51.270,0.000
1709297782.087,-26.367,-21.973,-45.898,-38.086,0.000
1709297782.091,-30.273,-29.785,-47.363,-41.016,0.000
1709297782.095,-38.574,-30.273,-50.781,-50.781,0.000
1709297782.099,-41.016,-29.297,-50.293,-56.641,0.000
1709297782.103,-43.457,-32.227,-48.828,-55.176,0.000
1709297782.107,-29.297,-31.738,-51.758,-44.922,0.000
1709297782.110,-23.926,-29.297,-56.641,-41.992,0.000
1709297782.114,-40.039,-29.785,-56.152,-48.828,0.000
1709297782.118,-53.711,-34.668,-54.688,-54.199,0.000
1709297782.122,-46.875,-37.109,-52.734,-42.969,0.000
1709297782.126,-26.367,-29.297,-44.434,-27.344,0.000
1709297782.130,-21.973,-26.855,-38.574,-35.645,0.000
1709297782.134,-25.391,-23.438,-38.574,-45.410,0.000
1709297782.138,-36.621,-23.438,-41.992,-42.480,0.000
1709297782.142,-33.203,-27.344,-45.898,-55.664,0.000
1709297782.146,-23.438,-29.297,-46.387,-62.500,0.000
1709297782.150,-23.926,-33.203,-53.711,-49.316,0.000
1709297782.153,-16.113,-28.320,-57.617,-52.246,0.000
1709297782.157,-24.414,-23.438,-53.223,-57.129,0.000
1709297782.161,-45.898,-21.484,-46.387,-46.875,0.000
1709297782.165,-32.715,-22.949,-44.434,-39.062,0.000
1709297782.169,-26.367,-28.320,-45.898,-41.016,0.000
1709297782.173,-33.691,-29.297,-43.945,-50.293,0.000
1709297782.177,-28.320,-24.414,-44.434,-61.035,0.000
1709297782.181,-30.762,-28.320,-44.922,-55.664,0.000
1709297782.185,-41.016,-31.738,-46.387,-34.668,0.000
1709297782.189,-28.809,-28.809,-48.340,-38.574,0.000
1709297782.193,-20.020,-28.809,-44.434,-48.828,0.000
1709297782.196,-42.969,-30.273,-41.992,-52.246,0.000
1709297782.200,-58.105,-29.297,-45.410,-45.410,0.000
1709297782.204,-52.246,-32.227,-44.434,-43.945,0.000
1709297782.208,-40.527,-31.250,-41.504,-32.227,0.000
1709297782.212,-23.926,-28.320,-45.898,-41.016,0.000
1709297782.216,-24.902,-34.180,-48.340,-67.383,0.000
1709297782.220,-44.434,-36.621,-46.387,-56.641,0.000
1709297782.224,-45.898,-35.156,-47.363,-56.641,0.000
1709297782.228,-32.715,-36.133,-46.387,-46.875,0.000
1709297782.232,-31.250,-37.598,-42.480,-32.715,0.000
1709297782.235,-41.016,-33.203,-37.109,-42.480,0.000
1709297782.239,-57.129,-28.320,-41.504,-59.082,0.000
1709297782.243,-56.641,-27.832,-52.246,-62.012,0.000
1709297782.247,-50.781,-28.320,-50.293,-54.688,0.000
1709297782.251,-49.316,-30.273,-47.852,-50.781,0.000
1709297782.255,-51.270,-28.320,-45.898,-54.688,0.000
1709297782.259,-55.664,-24.902,-38.574,-58.594,0.000
1709297782.263,-47.852,-24.414,-37.598,-45.410,0.000
1709297782.267,-42.969,-26.367,-38.574,-35.156,0.000
1709297782.271,-44.434,-29.785,-36.621,-29.297,0.000
1709297782.275,-54.688,-31.250,-36.133,-31.738,0.000
1709297782.278,-62.988,-30.273,-40.527,-58.594,0.000
1709297782.282,-58.105,-31.738,-44.922,-57.129,0.000
1709297782.286,-47.363,-33.203,-47.363,-35.156,0.000
1709297782.290,-30.762,-32.227,-46.387,-32.227,0.000
1709297782.294,-24.902,-30.273,-43.945,-29.785,0.000
1709297782.298,-35.645,-28.320,-42.480,-23.926,0.000
1709297782.302,-37.598,-30.273,-41.992,-22.949,0.000
1709297782.306,-37.598,-32.715,-48.828,-25.879,0.000
1709297782.310,-21.973,-30.762,-55.664,-25.391,0.000
1709297782.314,-19.043,-28.809,-49.316,-39.551,0.000
1709297782.317,-27.832,-23.926,-45.898,-52.734,0.000
1709297782.321,-27.832,-24.414,-47.363,-36.133,0.000
1709297782.325,-29.785,-24.902,-39.062,-14.160,0.000
1709297782.329,-23.926,-27.832,-32.715,3.418,0.000
1709297782.333,-18.066,-33.203,-37.109,-12.695,0.000
1709297782.337,-26.367,-31.250,-41.992,-47.852,0.000
1709297782.341,-38.574,-33.691,-43.457,-41.992,0.000
1709297782.345,-25.391,-36.133,-41.504,-25.391,0.000
1709297782.349,-11.230,-34.180,-41.992,-21.973,0.000
1709297782.353,-17.578,-36.621,-40.527,-25.879,0.000
1709297782.357,-27.832,-37.598,-39.062,-35.156,0.000
1709297782.360,-38.574,-37.598,-44.922,-42.480,0.000
1709297782.364,-45.898,-37.598,-46.875,-34.668,0.000
1709297782.368,-25.879,-35.645,-41.016,-29.297,0.000
1709297782.372,-21.484,-36.621,-41.504,-39.062,0.000
1709297782.376,-34.180,-35.645,-41.992,-49.316,0.000
1709297782.380,-34.668,-33.203,-41.504,-42.480,0.000
1709297782.384,-22.949,-34.180,-44.922,-38.086,0.000
1709297782.388,-22.949,-35.156,-43.457,-38.574,0.000
1709297782.392,-28.320,-34.180,-41.016,-39.551,0.000
1709297782.396,-35.156,-31.250,-37.598,-37.598,0.000
1709297782.399,-46.875,-30.762,-37.109,-38.574,0.000
1709297782.403,-39.551,-33.691,-38.086,-33.691,0.000
1709297782.407,-31.738,-36.133,-37.109,-10.742,0.000
1709297782.411,-24.902,-32.227,-37.598,-12.695,0.000
1709297782.415,-38.574,-27.344,-41.016,-30.762,0.000
1709297782.419,-49.805,-25.391,-44.434,-36.133,0.000
1709297782.423,-39.551,-27.344,-48.340,-39.551,0.000
1709297782.427,-26.367,-28.320,-46.875,-33.691,0.000
1709297782.431,-11.719,-23.926,-42.969,-25.391,0.000
1709297782.435,-20.508,-24.902,-40.527,-20.020,0.000
1709297782.439,-37.109,-31.250,-40.527,-31.250,0.000
1709297782.442,-35.645,-29.297,-36.133,-35.156,0.000
1709297782.446,-21.973,-28.320,-37.109,-39.062,0.000
1709297782.450,-21.484,-31.250,-40.039,-46.387,0.000
1709297782.454,-30.762,-32.715,-33.691,-43.457,0.000
1709297782.458,-36.621,-36.621,-33.203,-47.363,0.000
1709297782.462,-40.039,-30.762,-37.109,-44.922,0.000
1709297782.466,-36.133,-29.785,-34.668,-32.715,0.000
1709297782.470,-21.484,-38.574,-33.203,-16.602,0.000
1709297782.474,-17.090,-36.621,-33.203,-14.648,0.000
1709297782.478,-27.344,-35.156,-35.645,-30.762,0.000
1709297782.481,-42.969,-39.062,-40.527,-25.391,0.000
1709297782.485,-44.922,-35.156,-39.062,-15.625,0.000
1709297782.489,-30.273,-28.320,-34.668,-15.137,0.000
1709297782.493,-35.645,-26.367,-39.062,-36.133,0.000
1709297782.497,-56.641,-23.926,-40.527,-55.176,0.000
1709297782.501,-74.219,-23.438,-41.992,-52.246,0.000
1709297782.505,-60.547,-25.391,-49.316,-26.367,0.000
1709297782.509,-46.875,-25.879,-51.758,-2.930,0.000
1709297782.513,-41.992,-26.855,-49.805,-18.555,0.000
1709297782.517,-50.293,-31.738,-45.898,-42.969,0.000
1709297782.521,-72.266,-34.668,-47.363,-61.035,0.000
1709297782.524,-69.336,-36.133,-48.828,-58.594,0.000
1709297782.528,-51.270,-34.180,-44.434,-42.969,0.000
1709297782.532,-39.062,-32.227,-43.945,-40.039,0.000
1709297782.536,-37.109,-28.320,-42.480,-38.574,0.000
1709297782.540,-42.480,-31.250,-38.086,-31.738,0.000
1709297782.544,-45.410,-31.738,-41.504,-30.273,0.000
1709297782.548,-40.039,-26.367,-42.480,-25.391,0.000
1709297782.552,-43.457,-27.832,-44.434,-26.367,0.000
1709297782.556,-57.617,-32.227,-44.922,-36.621,0.000
1709297782.560,-63.965,-34.668,-41.504,-29.785,0.000
1709297782.564,-61.035,-32.715,-39.551,-26.367,0.000
1709297782.567,-45.410,-25.879,-34.668,-26.855,0.000
1709297782.571,-30.762,-27.832,-38.086,-22.949,0.000
1709297782.575,-40.039,-33.203,-47.852,-32.227,0.000
1709297782.579,-50.781,-30.762,-52.734,-36.133,0.000
1709297782.583,-43.457,-27.832,-54.199,-29.297,0.000
1709297782.587,-38.574,-32.715,-53.711,-28.320,0.000
1709297782.591,-29.785,-30.762,-54.199,-27.832,0.000
1709297782.595,-39.062,-28.320,-54.199,-36.621,0.000
1709297782.599,-61.523,-32.715,-56.152,-51.270,0.000
1709297782.603,-60.547,-37.109,-50.293,-42.480,0.000
1709297782.606,-54.688,-39.062,-52.246,-32.715,0.000
1709297782.610,-33.691,-35.156,-50.781,-43.457,0.000
1709297782.614,-27.832,-29.785,-41.992,-47.852,0.000
1709297782.618,-44.922,-33.691,-45.410,-49.316,0.000
1709297782.622,-44.922,-39.062,-49.316,-43.945,0.000
1709297782.626,-35.156,-39.062,-47.852,-31.250,0.000
1709297782.630,-27.832,-43.945,-47.363,-23.926,0.000
1709297782.634,-35.645,-46.875,-44.922,-38.086,0.000
1709297782.638,-48.828,-43.457,-43.457,-49.805,0.000
1709297782.642,-43.945,-41.992,-45.898,-45.410,0.000
1709297782.646,-38.086,-39.551,-46.875,-43.457,0.000
1709297782.649,-42.480,-41.992,-47.363,-26.367,0.000
1709297782.653,-34.668,-32.715,-49.805,-39.062,0.000
1709297782.657,-41.504,-27.832,-52.246,-66.895,0.000
1709297782.661,-51.270,-31.738,-54.688,-72.266,0.000
1709297782.665,-42.969,-28.320,-55.664,-59.570,0.000
1709297782.669,-27.832,-26.855,-55.176,-51.758,0.000
1709297782.673,-20.020,-26.855,-55.664,-56.152,0.000
1709297782.677,-30.762,-24.902,-57.129,-69.336,0.000
1709297782.681,-41.504,-24.414,-55.176,-70.312,0.000
1709297782.685,-41.992,-27.832,-52.734,-50.293,0.000
1709297782.688,-33.203,-28.809,-50.781,-44.434,0.000
1709297782.692,-21.484,-26.855,-48.828,-51.270,0.000
1709297782.696,-21.973,-25.391,-42.480,-45.898,0.000
1709297782.700,-31.250,-22.461,-39.062,-47.852,0.000
1709297782.704,-30.273,-25.879,-39.062,-29.297,0.000
1709297782.708,-5.859,-32.715,-41.504,0.977,0.000
1709297782.712,3.418,-28.809,-48.828,-28.809,0.000
1709297782.716,-28.809,-26.855,-48.340,-49.805,0.000
1709297782.720,-44.434,-33.203,-44.922,-46.875,0.000
1709297782.724,-39.551,-31.738,-45.898,-40.527,0.000
1709297782.728,-29.297,-30.273,-42.969,-37.109,0.000
1709297782.731,-31.250,-35.645,-44.434,-50.781,0.000
1709297782.735,-44.434,-38.574,-46.875,-52.246,0.000
1709297782.739,-50.293,-41.504,-44.434,-43.457,0.000
1709297782.743,-46.387,-37.109,-46.387,-43.945,0.000
1709297782.747,-29.785,-35.156,-47.363,-31.738,0.000
1709297782.751,-26.367,-39.062,-46.875,-30.762,0.000
1709297782.755,-33.203,-35.645,-44.434,-35.156,0.000
1709297782.759,-37.598,-35.156,-43.457,-29.297,0.000
1709297782.763,-41.992,-36.133,-44.434,-33.691,0.000
1709297782.767,-36.133,-36.133,-44.434,-33.691,0.000
1709297782.770,-33.203,-36.133,-44.434,-38.574,0.000
1709297782.774,-37.598,-40.527,-51.270,-47.363,0.000
1709297782.778,-31.738,-39.551,-49.805,-34.180,0.000
1709297782.782,-30.273,-35.156,-41.016,-19.531,0.000
1709297782.786,-44.922,-43.945,-33.691,-31.250,0.000
1709297782.790,-38.574,-52.246,-30.273,-49.316,0.000
1709297782.794,-41.016,-53.223,-35.156,-61.035,0.000
1709297782.798,-68.848,-54.199,-29.297,-71.289,0.000
1709297782.802,-71.777,-57.129,-33.203,-68.848,0.000
1709297782.806,-47.363,-52.246,-33.691,-61.035,0.000
1709297782.810,-38.086,-49.316,-36.621,-52.734,0.000
1709297782.813,-45.410,-52.246,-46.875,-44.434,0.000
1709297782.817,-45.410,-49.805,-42.480,-45.898,0.000
1709297782.821,-45.898,-43.945,-37.598,-45.898,0.000
1709297782.825,-36.621,-42.480,-36.621,-36.133,0.000
1709297782.829,-21.484,-41.992,-39.062,-21.973,0.000
1709297782.833,-20.996,-41.504,-45.898,-35.645,0.000
1709297782.837,-28.809,-41.992,-51.270,-49.805,0.000
1709297782.841,-40.527,-45.410,-49.805,-34.180,0.000
1709297782.845,-43.945,-46.387,-48.340,-12.695,0.000
1709297782.849,-24.414,-41.992,-51.758,-8.789,0.000
1709297782.852,-18.066,-47.852,-52.246,-29.297,0.000
1709297782.856,-26.855,-50.781,-46.387,-23.926,0.000
1709297782.860,-33.691,-46.875,-43.457,-18.555,0.000
1709297782.864,-27.344,-48.828,-49.316,-49.316,0.000
1709297782.868,-7.324,-43.457,-48.340,-46.387,0.000
1709297782.872,7.812,-35.156,-42.969,-36.133,0.000
1709297782.876,-18.555,-38.574,-44.434,-43.945,0.000
1709297782.880,-32.227,-47.363,-43.945,-50.781,0.000
1709297782.884,-12.695,-44.922,-47.363,-50.293,0.000
1709297782.888,-3.906,-39.551,-46.387,-44.434,0.000
1709297782.892,-2.441,-39.062,-41.504,-39.062,0.000
1709297782.895,-19.043,-41.504,-41.504,-43.457,0.000
1709297782.899,-25.391,-39.062,-42.480,-39.062,0.000
1709297782.903,-14.160,-33.691,-40.527,-33.203,0.000
1709297782.907,-8.789,-32.227,-37.598,-28.320,0.000
1709297782.911,2.930,-32.227,-36.133,-15.137,0.000
1709297782.915,5.859,-33.203,-38.086,-53.223,0.000
1709297782.919,-9.277,-32.715,-35.156,-77.637,0.000
1709297782.923,-22.461,-32.227,-34.180,-55.664,0.000
1709297782.927,-21.973,-31.738,-44.434,-53.711,0.000
1709297782.931,-12.695,-30.762,-45.898,-59.082,0.000
1709297782.935,-24.414,-30.762,-43.457,-44.922,0.000
1709297782.938,-33.203,-31.738,-43.945,-48.340,0.000
1709297782.942,-21.484,-31.738,-43.945,-64.941,0.000
1709297782.946,-34.668,-34.180,-42.480,-53.711,0.000
1709297782.950,-30.273,-34.180,-41.504,-42.480,0.000
1709297782.954,-31.250,-39.062,-43.457,-55.664,0.000
1709297782.958,-45.410,-39.062,-45.410,-65.430,0.000
1709297782.962,-46.875,-33.203,-47.363,-54.688,0.000
1709297782.966,-45.898,-32.227,-49.805,-43.457,0.000
1709297782.970,-34.668,-29.297,-49.805,-35.645,0.000
1709297782.974,-27.832,-30.273,-44.922,-35.156,0.000
1709297782.978,-31.250,-32.715,-41.504,-32.715,0.000
1709297782.981,-35.645,-32.227,-45.898,-19.043,0.000
1709297782.985,-23.438,-28.809,-43.457,-12.695,0.000
1709297782.989,-17.578,-30.762,-43.945,-12.695,0.000
1709297782.993,-32.715,-34.668,-51.758,-34.180,0.000
1709297782.997,-43.945,-31.738,-51.270,-53.223,0.000
1709297783.001,-40.039,-31.250,-49.316,-48.340,0.000
1709297783.005,-36.133,-34.668,-48.828,-35.156,0.000
1709297783.009,-24.414,-31.250,-44.922,-36.133,0.000
1709297783.013,-18.555,-26.367,-40.527,-41.504,0.000
1709297783.017,-34.180,-25.391,-40.527,-45.410,0.000
1709297783.020,-49.805,-26.367,-41.992,-43.945,0.000
1709297783.024,-62.988,-26.855,-43.457,-32.227,0.000
1709297783.028,-56.152,-27.832,-47.852,-32.227,0.000
1709297783.032,-41.504,-30.273,-49.316,-37.109,0.000
1709297783.036,-35.645,-26.855,-47.852,-34.668,0.000
1709297783.040,-52.734,-26.855,-47.363,-38.086,0.000
1709297783.044,-56.152,-31.738,-46.387,-38.086,0.000
1709297783.048,-45.410,-38.086,-43.945,-32.227,0.000
1709297783.052,-51.270,-39.551,-44.922,-33.691,0.000
1709297783.056,-61.523,-37.109,-42.480,-36.621,0.000
1709297783.060,-60.547,-37.109,-42.969,-41.016,0.000
1709297783.063,-48.828,-39.062,-47.363,-38.574,0.000
1709297783.067,-31.738,-39.062,-47.852,-16.602,0.000
1709297783.071,-28.809,-37.598,-42.969,-9.277,0.000
1709297783.075,-37.598,-38.086,-38.086,-54.199,0.000
1709297783.079,-58.105,-41.992,-39.551,-78.125,0.000
1709297783.083,-81.543,-47.852,-35.645,-65.918,0.000
1709297783.087,-83.008,-52.246,-34.668,-68.848,0.000
1709297783.091,-65.918,-53.223,-38.574,-72.266,0.000
1709297783.095,-57.617,-48.828,-37.109,-62.500,0.000
1709297783.099,-58.594,-46.387,-38.574,-51.758,0.000
1709297783.102,-42.969,-45.898,-38.574,-42.969,0.000
1709297783.106,-36.621,-42.480,-37.109,-38.086,0.000
1709297783.110,-42.969,-41.016,-39.551,-28.809,0.000
1709297783.114,-50.293,-43.945,-40.527,-20.020,0.000
1709297783.118,-61.523,-41.504,-43.457,-36.133,0.000
1709297783.122,-52.246,-39.062,-41.504,-45.898,0.000
1709297783.126,-31.250,-41.016,-35.645,-27.832,0.000
1709297783.130,-21.484,-41.992,-32.715,-21.484,0.000
1709297783.134,-31.738,-41.992,-32.227,-22.949,0.000
1709297783.138,-47.852,-40.039,-34.180,-25.879,0.000
1709297783.141,-47.363,-35.645,-34.180,-33.691,0.000
1709297783.145,-40.039,-33.691,-38.086,-34.180,0.000
1709297783.149,-35.645,-35.156,-39.062,-30.762,0.000
1709297783.153,-37.109,-41.504,-43.457,-37.109,0.000
1709297783.157,-41.504,-41.992,-46.387,-42.969,0.000
1709297783.161,-49.805,-40.039,-45.898,-41.016,0.000
1709297783.165,-35.645,-38.574,-41.992,-18.555,0.000
1709297783.169,-14.160,-33.203,-42.969,-12.207,0.000
1709297783.173,-24.902,-42.969,-46.387,-26.367,0.000
1709297783.177,-47.852,-47.852,-41.992,-28.320,0.000
1709297783.181,-52.246,-44.434,-41.016,-28.809,0.000
1709297783.184,-43.945,-42.969,-41.504,-22.461,0.000
1709297783.188,-33.691,-36.621,-41.016,-13.672,0.000
1709297783.192,-37.109,-35.645,-42.969,-23.438,0.000
1709297783.196,-41.992,-35.156,-36.133,-43.457,0.000
1709297783.200,-39.062,-31.738,-33.203,-42.969,0.000
1709297783.204,-53.711,-34.668,-39.551,-33.691,0.000
1709297783.208,-44.922,-36.621,-40.039,-22.949,0.000
1709297783.212,-26.367,-35.645,-40.527,-23.926,0.000
1709297783.216,-39.062,-39.062,-41.992,-13.672,0.000
1709297783.220,-58.105,-41.992,-38.086,-0.488,0.000
1709297783.224,-57.129,-35.156,-40.039,-45.898,0.000
1709297783.227,-43.457,-30.762,-40.527,-44.922,0.000
1709297783.231,-41.992,-34.668,-39.551,-13.672,0.000
1709297783.235,-58.105,-35.156,-41.504,-44.434,0.000
1709297783.239,-62.500,-32.227,-41.016,-24.902,0.000
1709297783.243,-44.434,-34.668,-36.621,3.906,0.000
1709297783.247,-43.945,-31.250,-38.574,-57.129,0.000
1709297783.251,-40.039,-29.785,-41.504,-70.312,0.000
1709297783.255,-47.363,-34.668,-44.434,-59.570,0.000
1709297783.259,-53.711,-30.273,-39.551,-57.617,0.000
1709297783.263,-58.594,-30.273,-36.621,-39.551,0.000
1709297783.266,-51.758,-31.250,-41.016,-28.809,0.000
1709297783.270,-32.227,-25.879,-43.457,-38.086,0.000
1709297783.274,-39.062,-28.320,-43.457,-43.457,0.000
1709297783.278,-47.852,-31.250,-47.363,-58.105,0.000
1709297783.282,-58.105,-29.785,-52.246,-61.523,0.000
1709297783.286,-34.180,-26.855,-51.758,-43.457,0.000
1709297783.290,-14.648,-30.273,-51.270,-41.016,0.000
1709297783.294,-39.062,-37.109,-49.316,-55.664,0.000
1709297783.298,-45.410,-35.645,-41.504,-59.570,0.000
1709297783.302,-36.133,-32.227,-39.551,-45.898,0.000
1709297783.306,-33.203,-35.156,-43.945,-25.391,0.000
1709297783.309,-29.297,-40.039,-48.340,-20.508,0.000
1709297783.313,-25.879,-37.598,-45.410,-46.387,0.000
1709297783.317,-28.320,-33.691,-39.551,-62.988,0.000
1709297783.321,-22.461,-28.320,-39.551,-46.387,0.000
1709297783.325,-17.578,-28.320,-43.457,-37.598,0.000
1709297783.329,-18.555,-31.738,-41.992,-37.598,0.000
1709297783.333,-17.578,-35.156,-39.551,-27.832,0.000
1709297783.337,-21.973,-33.691,-44.434,-50.781,0.000
1709297783.341,-37.598,-29.785,-43.945,-65.430,0.000
1709297783.345,-37.109,-26.855,-42.480,-45.898,0.000
1709297783.349,-26.367,-28.320,-44.434,-42.480,0.000
1709297783.352,-27.344,-31.738,-39.551,-42.969,0.000
1709297783.356,-39.551,-28.320,-38.086,-38.086,0.000
1709297783.360,-46.387,-25.391,-42.969,-46.387,0.000
1709297783.364,-35.645,-28.320,-46.387,-35.156,0.000
1709297783.368,-33.203,-31.250,-46.875,-20.996,0.000
1709297783.372,-36.621,-33.203,-48.340,-32.715,0.000
1709297783.376,-44.434,-34.668,-47.363,-43.457,0.000
1709297783.380,-51.758,-30.762,-45.898,-42.969,0.000
1709297783.384,-47.363,-31.250,-45.898,-35.645,0.000
1709297783.388,-40.039,-33.203,-45.898,-24.902,0.000
1709297783.391,-41.504,-34.180,-47.852,-26.367,0.000
1709297783.395,-43.945,-31.250,-48.340,-37.598,0.000
1709297783.399,-34.668,-24.902,-44.922,-37.598,0.000
1709297783.403,-33.691,-25.391,-43.945,-29.297,0.000
1709297783.407,-31.250,-28.320,-42.480,-13.184,0.000
1709297783.411,-27.832,-31.738,-41.016,0.488,0.000
1709297783.415,-30.762,-30.762,-42.969,-20.996,0.000
1709297783.419,-39.551,-29.785,-41.992,-42.480,0.000
1709297783.423,-42.969,-34.180,-44.434,-40.527,0.000
1709297783.427,-28.320,-34.180,-45.898,-20.020,0.000
1709297783.431,-14.160,-31.250,-43.945,-4.395,0.000
1709297783.435,-12.695,-28.809,-41.016,-28.809,0.000
1709297783.438,-22.949,-28.809,-39.062,-50.781,0.000
1709297783.442,-24.902,-33.691,-41.992,-34.180,0.000
1709297783.446,-24.414,-35.156,-44.434,-7.324,0.000
1709297783.450,-29.297,-34.180,-46.875,-17.090,0.000
1709297783.454,-21.484,-37.109,-47.363,-30.762,0.000
1709297783.458,-26.855,-32.715,-44.434,-20.020,0.000
1709297783.462,-36.133,-27.832,-42.480,-15.625,0.000
1709297783.466,-38.574,-27.832,-44.434,-19.043,0.000
1709297783.470,-25.391,-29.297,-50.781,-18.555,0.000
1709297783.474,-20.020,-33.203,-51.270,-29.785,0.000
1709297783.477,-40.039,-30.762,-45.898,-31.738,0.000
1709297783.481,-51.758,-32.715,-47.363,-22.461,0.000
1709297783.485,-44.434,-39.062,-48.828,-25.391,0.000
1709297783.489,-29.785,-40.527,-48.340,-24.902,0.000
1709297783.493,-37.109,-38.086,-51.270,-31.250,0.000
1709297783.497,-51.758,-36.133,-50.293,-44.922,0.000
1709297783.501,-48.340,-38.086,-47.852,-44.922,0.000
1709297783.505,-34.668,-36.133,-48.340,-24.902,0.000
1709297783.509,-8.789,-31.250,-48.340,-18.555,0.000
1709297783.513,-8.301,-34.180,-46.875,-39.062,0.000
1709297783.517,-27.832,-32.715,-42.969,-46.875,0.000
1709297783.520,-30.273,-30.273,-42.969,-49.316,0.000
1709297783.524,-23.438,-33.203,-41.992,-29.785,0.000
1709297783.528,-21.973,-37.109,-46.875,-26.855,0.000
1709297783.532,-20.020,-36.621,-48.340,-44.434,0.000
1709297783.536,-21.973,-33.203,-42.480,-55.176,0.000
1709297783.540,-40.527,-33.203,-42.969,-61.523,0.000
1709297783.544,-40.527,-31.738,-42.480,-34.180,0.000
1709297783.548,-24.902,-33.203,-40.039,-14.648,0.000
1709297783.552,-14.648,-33.691,-43.945,-32.227,0.000
1709297783.556,-21.973,-31.250,-42.480,-43.945,0.000
1709297783.560,-39.551,-33.203,-35.645,-52.734,0.000
1709297783.563,-44.434,-37.598,-39.551,-51.270,0.000
1709297783.567,-41.992,-40.039,-43.457,-41.016,0.000
1709297783.571,-41.504,-37.598,-37.109,-42.480,0.000
1709297783.575,-41.016,-37.109,-37.109,-51.270,0.000
1709297783.579,-50.781,-40.527,-39.551,-60.059,0.000
1709297783.583,-59.570,-40.527,-41.016,-56.152,0.000
1709297783.587,-46.387,-41.992,-46.387,-47.363,0.000
1709297783.591,-36.133,-40.527,-45.898,-43.457,0.000
1709297783.595,-45.898,-43.945,-43.945,-39.551,0.000
1709297783.599,-56.152,-43.457,-45.898,-36.621,0.000
1709297783.602,-54.199,-37.598,-44.434,-38.574,0.000
1709297783.606,-41.504,-38.574,-48.340,-41.504,0.000
1709297783.610,-29.785,-39.551,-47.363,-26.855,0.000
1709297783.614,-36.621,-38.574,-45.410,-25.391,0.000
1709297783.618,-46.875,-36.133,-48.340,-36.621,0.000
1709297783.622,-41.504,-33.691,-43.457,-34.180,0.000
1709297783.626,-32.715,-33.691,-43.945,-23.438,0.000
1709297783.630,-31.250,-32.227,-48.340,-20.020,0.000
1709297783.634,-34.668,-34.180,-47.852,-25.391,0.000
1709297783.638,-30.273,-34.668,-46.875,-31.738,0.000
1709297783.642,-45.410,-37.598,-46.387,-29.785,0.000
1709297783.645,-41.016,-44.434,-51.758,-25.391,0.000
1709297783.649,-18.555,-42.969,-49.805,-16.113,0.000
1709297783.653,-22.949,-36.133,-42.480,-12.695,0.000
1709297783.657,-44.922,-39.062,-46.387,-27.832,0.000
1709297783.661,-56.152,-43.945,-49.316,-35.156,0.000
1709297783.665,-44.922,-42.969,-43.457,-22.949,0.000
1709297783.669,-33.203,-35.156,-41.016,-14.648,0.000
1709297783.673,-37.109,-36.133,-47.363,-22.949,0.000
1709297783.677,-43.945,-42.480,-56.152,-34.180,0.000
1709297783.681,-50.781,-37.598,-54.688,-27.832,0.000
1709297783.685,-43.945,-37.109,-52.734,1.465,0.000
1709297783.688,-17.090,-37.598,-50.293,22.461,0.000
1709297783.692,-7.812,-34.180,-52.246,-24.902,0.000
1709297783.696,-26.855,-35.156,-50.293,-46.387,0.000
1709297783.700,-37.109,-34.180,-46.875,-36.621,0.000
1709297783.704,-33.691,-32.715,-48.828,-36.133,0.000
1709297783.708,-22.949,-31.250,-43.457,-20.508,0.000
1709297783.712,-13.184,-28.809,-39.062,-6.836,0.000
1709297783.716,-28.809,-32.227,-40.527,-17.090,0.000
1709297783.720,-47.852,-41.016,-43.945,-30.762,0.000
1709297783.724,-46.875,-45.410,-44.922,-28.809,0.000
1709297783.727,-31.250,-43.945,-46.387,-15.137,0.000
1709297783.731,-13.672,-39.062,-43.945,-4.395,0.000
1709297783.735,-17.578,-36.621,-44.434,-24.414,0.000
1709297783.739,-31.738,-37.109,-47.363,-31.250,0.000
1709297783.743,-34.180,-37.598,-44.434,-25.391,0.000
1709297783.747,-23.926,-41.992,-42.969,-16.113,0.000
1709297783.751,-18.555,-43.945,-43.945,-14.160,0.000
1709297783.755,-20.996,-39.062,-36.133,-24.414,0.000
1709297783.759,-32.715,-36.133,-36.133,-27.344,0.000
1709297783.763,-33.691,-33.203,-41.992,-22.461,0.000
1709297783.767,-20.020,-34.668,-42.969,-19.531,0.000
1709297783.770,-2.930,-35.156,-42.480,-16.602,0.000
1709297783.774,-10.254,-31.250,-42.480,-13.672,0.000
1709297783.778,-33.203,-30.273,-47.852,-30.273,0.000
1709297783.782,-36.621,-29.297,-48.340,-31.250,0.000
1709297783.786,-30.273,-31.250,-49.316,-12.695,0.000
1709297783.790,-20.020,-31.250,-52.734,-11.719,0.000
1709297783.794,-13.672,-27.832,-47.852,-33.203,0.000
1709297783.798,-27.344,-29.297,-41.504,-43.945,0.000
1709297783.802,-46.387,-31.250,-37.109,-41.504,0.000
1709297783.806,-38.086,-31.250,-33.203,-29.297,0.000
1709297783.809,-31.250,-33.691,-38.086,-28.320,0.000
1709297783.813,-35.156,-33.203,-43.945,-38.086,0.000
1709297783.817,-42.969,-32.715,-38.086,-24.414,0.000
1709297783.821,-54.688,-31.738,-35.156,-29.785,0.000
1709297783.825,-50.781,-26.855,-38.086,-50.781,0.000
1709297783.829,-42.969,-25.879,-36.621,-42.969,0.000
1709297783.833,-46.387,-27.832,-34.668,-40.039,0.000
1709297783.837,-47.852,-27.832,-36.133,-41.504,0.000
1709297783.841,-45.898,-30.273,-33.203,-35.156,0.000
1709297783.845,-55.664,-33.691,-30.273,-21.484,0.000
1709297783.849,-43.945,-30.273,-30.273,-13.184,0.000
1709297783.853,-24.414,-28.320,-30.762,-21.973,0.000
1709297783.856,-36.133,-28.809,-32.715,-32.227,0.000
1709297783.860,-49.316,-29.785,-35.645,-43.457,0.000
1709297783.864,-46.875,-32.227,-38.574,-28.320,0.000
1709297783.868,-37.598,-33.203,-41.504,-13.672,0.000
1709297783.872,-28.320,-29.297,-39.551,-23.926,0.000
1709297783.876,-38.574,-28.320,-41.504,-37.598,0.000
1709297783.880,-45.898,-34.180,-44.434,-43.945,0.000
1709297783.884,-41.504,-35.645,-44.922,-38.086,0.000
1709297783.888,-36.621,-33.691,-41.504,-31.250,0.000
1709297783.892,-30.762,-32.227,-39.551,-30.762,0.000
1709297783.896,-32.227,-31.250,-41.992,-41.992,0.000
1709297783.899,-42.480,-27.344,-40.527,-35.156,0.000
1709297783.903,-46.875,-28.809,-41.504,-20.996,0.000
1709297783.907,-34.668,-33.691,-43.945,-30.273,0.000
1709297783.911,-31.738,-28.809,-45.410,-49.316,0.000
1709297783.915,-45.898,-29.297,-45.898,-64.453,0.000
1709297783.919,-57.617,-33.691,-45.898,-68.359,0.000
1709297783.923,-55.664,-38.574,-45.898,-57.129,0.000
1709297783.927,-37.109,-33.203,-40.527,-42.480,0.000
1709297783.931,-22.949,-30.762,-40.527,-44.434,0.000
1709297783.935,-28.320,-31.738,-43.457,-50.781,0.000
1709297783.938,-43.945,-31.250,-36.621,-48.340,0.000
1709297783.942,-48.828,-35.156,-31.738,-40.039,0.000
1709297783.946,-35.645,-34.180,-38.574,-33.203,0.000
1709297783.950,-24.414,-33.203,-41.504,-33.691,0.000
1709297783.954,-38.574,-34.668,-40.039,-37.109,0.000
1709297783.958,-44.434,-34.668,-41.504,-47.852,0.000
1709297783.962,-35.645,-33.203,-42.480,-42.480,0.000
1709297783.966,-20.508,-30.762,-41.504,-30.762,0.000
1709297783.970,-20.508,-34.180,-43.945,-34.180,0.000
1709297783.974,-40.527,-35.156,-43.457,-45.898,0.000
1709297783.978,-53.223,-33.691,-42.480,-64.453,0.000
1709297783.981,-71.289,-37.598,-41.504,-46.387,0.000
1709297783.985,-56.152,-38.086,-43.945,-18.555,0.000
1709297783.989,-27.344,-36.621,-46.875,-27.344,0.000
1709297783.993,-37.109,-36.621,-43.457,-38.574,0.000
1709297783.997,-50.293,-37.598,-42.969,-41.016,0.000
1709297784.001,-57.129,-36.621,-44.922,-36.621,0.000
1709297784.005,-50.293,-33.203,-47.852,-24.902,0.000
1709297784.009,-33.691,-32.227,-50.781,-15.137,0.000
1709297784.013,-24.902,-30.273,-51.270,-14.648,0.000
1709297784.017,-17.578,-31.250,-51.758,-10.742,0.000
1709297784.021,-13.672,-29.785,-51.270,-17.578,0.000
1709297784.024,-36.621,-34.668,-49.805,-42.480,0.000
1709297784.028,-38.086,-41.016,-48.340,-35.645,0.000
1709297784.032,-27.344,-39.551,-41.992,-4.395,0.000
1709297784.036,-32.715,-33.691,-41.992,-0.977,0.000
1709297784.040,-54.199,-33.203,-45.410,-46.875,0.000
1709297784.044,-60.547,-41.504,-47.363,-29.297,0.000
1709297784.048,-41.016,-42.480,-50.781,0.000,0.000
1709297784.052,-30.762,-40.527,-52.246,-27.832,0.000
1709297784.056,-29.785,-38.574,-50.293,-38.086,0.000
1709297784.060,-34.180,-39.062,-44.434,-28.809,0.000
1709297784.064,-36.621,-37.598,-41.016,-27.832,0.000
1709297784.067,-30.762,-36.621,-43.945,-24.902,0.000
1709297784.071,-15.137,-39.062,-40.039,-13.672,0.000
1709297784.075,-10.254,-35.156,-35.156,-9.277,0.000
1709297784.079,-20.996,-32.227,-39.551,-24.414,0.000
1709297784.083,-20.996,-37.109,-43.945,-25.879,0.000
1709297784.087,0.000,-36.133,-45.410,1.465,0.000
1709297784.091,9.766,-29.297,-42.969,0.488,0.000
1709297784.095,-3.906,-29.297,-42.969,-20.020,0.000
1709297784.099,-10.254,-29.297,-41.992,-24.902,0.000
1709297784.103,-20.508,-30.273,-41.504,-12.695,0.000
1709297784.106,-22.461,-29.297,-39.551,-0.977,0.000
1709297784.110,-21.973,-33.203,-40.527,-13.184,0.000
1709297784.114,-29.297,-37.109,-40.527,-25.391,0.000
1709297784.118,-43.945,-32.715,-35.645,-27.832,0.000
1709297784.122,-48.828,-26.367,-34.180,-32.715,0.000
1709297784.126,-31.738,-27.832,-34.668,-20.020,0.000
1709297784.130,-22.949,-35.645,-38.086,-20.996,0.000
1709297784.134,-34.668,-37.109,-40.527,-36.133,0.000
1709297784.138,-54.688,-31.738,-45.898,-50.293,0.000
1709297784.142,-59.570,-31.738,-49.805,-51.270,0.000
1709297784.146,-41.504,-34.180,-47.852,-31.250,0.000
1709297784.149,-27.344,-35.645,-48.340,-21.484,0.000
1709297784.153,-30.762,-36.133,-48.340,-30.273,0.000
1709297784.157,-44.434,-39.551,-48.340,-44.922,0.000
1709297784.161,-54.199,-42.969,-49.316,-41.504,0.000
1709297784.165,-45.410,-38.086,-47.363,-28.809,0.000
1709297784.169,-22.461,-36.621,-50.293,-28.809,0.000
1709297784.173,-20.996,-38.574,-54.199,-36.133,0.000
1709297784.177,-35.645,-40.527,-52.246,-38.574,0.000
1709297784.181,-32.715,-35.645,-48.828,-38.574,0.000
1709297784.185,-19.531,-33.203,-43.945,-33.203,0.000
1709297784.188,-20.508,-37.598,-44.922,-31.738,0.000
1709297784.192,-23.438,-39.062,-52.734,-40.039,0.000
1709297784.196,-24.414,-37.598,-51.270,-37.598,0.000
1709297784.200,-34.180,-33.203,-43.945,-43.945,0.000
1709297784.204,-30.273,-27.832,-45.410,-41.504,0.000
1709297784.208,-17.090,-29.297,-46.387,-30.273,0.000
1709297784.212,-20.020,-35.645,-47.852,-37.598,0.000
1709297784.216,-25.879,-36.133,-49.805,-44.922,0.000
1709297784.220,-38.086,-36.133,-44.922,-41.992,0.000
1709297784.224,-38.086,-36.133,-47.852,-39.062,0.000
1709297784.227,-22.461,-34.180,-48.828,-30.762,0.000
1709297784.231,-29.297,-35.645,-46.875,-28.809,0.000
1709297784.235,-40.039,-38.574,-50.781,-39.551,0.000
1709297784.239,-54.199,-37.598,-55.176,-44.922,0.000
1709297784.243,-56.152,-33.691,-55.176,-42.969,0.000
1709297784.247,-38.086,-34.668,-51.270,-38.574,0.000
1709297784.251,-27.344,-35.645,-50.781,-39.551,0.000
1709297784.255,-29.297,-32.715,-49.805,-43.945,0.000
1709297784.259,-45.410,-33.203,-46.875,-50.781,0.000
1709297784.263,-56.152,-36.621,-49.805,-48.828,0.000
1709297784.267,-45.898,-33.691,-48.828,-34.180,0.000
1709297784.270,-37.598,-30.762,-45.898,-41.016,0.000
1709297784.274,-40.039,-29.785,-49.805,-51.758,0.000
1709297784.278,-40.039,-30.273,-51.758,-51.270,0.000
1709297784.282,-44.434,-38.574,-52.734,-43.457,0.000
1709297784.286,-41.016,-39.551,-53.223,-35.645,0.000
1709297784.290,-26.855,-36.133,-49.805,-31.738,0.000
1709297784.294,-27.832,-33.691,-44.434,-32.227,0.000
1709297784.298,-49.805,-36.621,-44.434,-40.527,0.000
1709297784.302,-54.688,-35.156,-44.434,-37.109,0.000
1709297784.306,-48.828,-33.691,-44.922,-31.738,0.000
1709297784.310,-40.527,-39.062,-45.410,-29.297,0.000
1709297784.313,-41.992,-33.691,-39.062,-36.621,0.000
1709297784.317,-55.664,-32.227,-38.574,-52.246,0.000
1709297784.321,-56.152,-36.133,-43.457,-51.758,0.000
1709297784.325,-50.781,-29.297,-42.969,-37.109,0.000
1709297784.329,-38.574,-26.855,-41.992,-24.902,0.000
1709297784.333,-38.086,-29.297,-41.016,-40.527,0.000
1709297784.337,-42.480,-27.832,-37.109,-48.828,0.000
1709297784.341,-48.828,-29.297,-34.180,-30.762,0.000
1709297784.345,-50.293,-34.180,-35.156,-17.578,0.000
1709297784.349,-37.109,-33.691,-32.227,-20.020,0.000
1709297784.352,-30.762,-30.273,-30.762,-18.555,0.000
1709297784.356,-32.227,-26.855,-29.785,-28.320,0.000
1709297784.360,-36.133,-28.320,-31.738,-35.645,0.000
1709297784.364,-37.109,-34.668,-36.621,-20.020,0.000
1709297784.368,-24.902,-34.180,-38.574,-9.277,0.000
1709297784.372,-20.996,-32.227,-38.086,-17.578,0.000
1709297784.376,-34.180,-34.180,-42.480,-34.180,0.000
1709297784.380,-50.293,-35.156,-45.898,-38.086,0.000
1709297784.384,-57.617,-33.691,-43.457,-27.832,0.000
1709297784.388,-52.246,-31.250,-40.039,-10.742,0.000
1709297784.392,-53.711,-35.156,-44.434,-17.090,0.000
1709297784.395,-57.617,-36.621,-48.340,-45.410,0.000
1709297784.399,-60.059,-33.691,-51.758,-52.734,0.000
1709297784.403,-56.152,-38.086,-54.199,-43.945,0.000
1709297784.407,-43.945,-39.551,-51.758,-38.086,0.000
1709297784.411,-32.227,-39.062,-49.316,-37.109,0.000
1709297784.415,-38.086,-38.574,-48.340,-35.156,0.000
1709297784.419,-51.758,-37.109,-46.387,-45.410,0.000
1709297784.423,-45.898,-41.016,-46.387,-41.504,0.000
1709297784.427,-30.273,-39.062,-46.875,-33.691,0.000
1709297784.431,-21.484,-36.133,-45.898,-28.809,0.000
1709297784.435,-31.250,-36.621,-49.316,-23.926,0.000
1709297784.438,-48.340,-36.621,-53.223,-40.039,0.000
1709297784.442,-47.852,-32.715,-50.781,-45.410,0.000
1709297784.446,-33.203,-36.621,-51.758,-42.480,0.000
1709297784.450,-26.367,-36.621,-52.246,-41.504,0.000
1709297784.454,-25.879,-28.320,-48.828,-43.945,0.000
1709297784.458,-28.809,-27.344,-50.293,-54.199,0.000
1709297784.462,-42.969,-32.715,-51.270,-50.781,0.000
1709297784.466,-40.527,-31.250,-46.387,-30.273,0.000
1709297784.470,-33.203,-29.297,-44.922,-24.902,0.000
1709297784.474,-34.180,-32.715,-46.387,-31.738,0.000
1709297784.477,-39.551,-38.574,-46.387,-40.527,0.000
1709297784.481,-43.945,-43.457,-45.898,-30.273,0.000
1709297784.485,-28.809,-39.062,-43.945,-18.555,0.000
1709297784.489,-20.508,-38.086,-38.086,-14.648,0.000
1709297784.493,-21.484,-39.551,-36.621,-13.672,0.000
1709297784.497,-25.879,-32.715,-40.527,-20.020,0.000
1709297784.501,-38.086,-29.297,-40.527,-19.531,0.000
1709297784.505,-33.203,-32.227,-41.992,-9.766,0.000
1709297784.509,-19.043,-32.715,-39.551,-8.301,0.000
1709297784.513,-13.672,-31.250,-34.180,-9.766,0.000
1709297784.517,-21.973,-31.738,-34.180,-11.719,0.000
1709297784.520,-37.598,-32.715,-40.039,-18.066,0.000
1709297784.524,-41.992,-37.598,-42.969,-4.395,0.000
1709297784.528,-23.438,-35.645,-37.598,3.906,0.000
1709297784.532,-13.672,-28.320,-36.621,-7.812,0.000
1709297784.536,-32.715,-31.738,-40.527,-20.020,0.000
1709297784.540,-44.434,-36.621,-40.527,-23.926,0.000
1709297784.544,-39.062,-36.133,-37.109,-16.602,0.000
1709297784.548,-29.297,-33.203,-37.598,-9.766,0.000
1709297784.552,-28.809,-36.621,-42.480,-11.230,0.000
1709297784.556,-36.133,-40.527,-42.969,-25.879,0.000
1709297784.559,-41.992,-37.598,-43.457,-30.273,0.000
1709297784.563,-43.945,-34.668,-42.969,-18.555,0.000
1709297784.567,-37.109,-30.273,-40.527,-2.930,0.000
1709297784.571,-26.855,-25.391,-37.598,-0.488,0.000
1709297784.575,-25.391,-20.996,-37.109,-22.949,0.000
1709297784.579,-34.180,-23.438,-39.062,-46.387,0.000
1709297784.583,-40.527,-28.809,-40.527,-46.387,0.000
1709297784.587,-26.367,-24.902,-40.039,-29.297,0.000
1709297784.591,-10.742,-24.902,-39.551,-21.973,0.000
1709297784.595,-18.555,-31.250,-38.574,-34.668,0.000
1709297784.599,-37.109,-28.320,-36.621,-36.133,0.000
1709297784.602,-36.133,-21.484,-33.203,-25.879,0.000
1709297784.606,-28.809,-22.461,-32.227,-24.902,0.000
1709297784.610,-22.461,-22.461,-36.133,-21.973,0.000
1709297784.614,-31.250,-19.531,-38.086,-20.508,0.000
1709297784.618,-42.480,-23.438,-38.086,-32.227,0.000
1709297784.622,-41.016,-31.250,-42.480,-37.598,0.000
1709297784.626,-33.203,-31.738,-42.969,-25.879,0.000
1709297784.630,-17.578,-28.320,-39.551,-24.902,0.000
1709297784.634,-20.020,-28.809,-45.410,-35.645,0.000
1709297784.638,-30.273,-30.762,-48.828,-43.457,0.000
1709297784.641,-40.527,-31.250,-47.363,-33.691,0.000
1709297784.645,-38.574,-28.320,-44.434,-22.949,0.000
1709297784.649,-27.344,-34.180,-44.922,-20.020,0.000
1709297784.653,-26.855,-39.062,-44.922,-23.926,0.000
1709297784.657,-30.762,-29.297,-38.574,-26.855,0.000
1709297784.661,-40.039,-26.855,-38.574,-26.367,0.000
1709297784.665,-33.691,-30.273,-41.504,-24.902,0.000
1709297784.669,-22.461,-33.203,-43.945,-26.367,0.000
1709297784.673,-29.297,-30.762,-40.527,-33.691,0.000
1709297784.677,-36.133,-28.809,-38.086,-42.969,0.000
1709297784.681,-48.340,-30.762,-38.574,-49.805,0.000
1709297784.684,-46.387,-26.855,-34.668,-40.527,0.000
1709297784.688,-32.715,-21.484,-33.691,-24.902,0.000
1709297784.692,-26.367,-21.973,-37.109,-30.762,0.000
1709297784.696,-31.250,-29.297,-39.062,-47.852,0.000
1709297784.700,-43.457,-32.227,-47.852,-57.129,0.000
1709297784.704,-41.016,-36.133,-45.898,-39.551,0.000
1709297784.708,-37.109,-34.668,-40.039,-26.855,0.000
1709297784.712,-37.598,-29.785,-38.086,-35.645,0.000
1709297784.716,-37.109,-30.273,-37.109,-40.039,0.000
1709297784.720,-49.316,-28.320,-37.109,-35.645,0.000
1709297784.723,-56.641,-28.809,-34.668,-37.109,0.000
1709297784.727,-41.992,-34.668,-39.062,-41.504,0.000
1709297784.731,-30.762,-33.203,-43.457,-39.551,0.000
1709297784.735,-39.551,-33.203,-41.016,-44.434,0.000
1709297784.739,-51.758,-36.621,-46.387,-68.359,0.000
1709297784.743,-56.641,-37.598,-49.316,-67.871,0.000
1709297784.747,-44.434,-37.109,-46.387,-44.922,0.000
1709297784.751,-38.574,-36.621,-46.387,-44.922,0.000
1709297784.755,-48.828,-37.109,-42.969,-54.688,0.000
1709297784.759,-51.270,-35.645,-43.945,-60.547,0.000
1709297784.763,-42.480,-32.227,-41.016,-38.574,0.000
1709297784.766,-36.621,-33.203,-39.551,-15.137,0.000
1709297784.770,-24.902,-34.668,-43.945,-28.320,0.000
1709297784.774,-28.809,-30.762,-43.457,-48.828,0.000
1709297784.778,-35.645,-27.832,-40.527,-51.758,0.000
1709297784.782,-32.227,-35.156,-43.457,-41.504,0.000
1709297784.786,-36.133,-35.645,-44.922,-26.367,0.000
1709297784.790,-29.785,-31.250,-39.062,-25.879,0.000
1709297784.794,-23.926,-35.156,-36.621,-36.621,0.000
1709297784.798,-37.598,-41.016,-39.551,-46.387,0.000
1709297784.802,-46.875,-41.504,-44.434,-47.363,0.000
1709297784.806,-37.109,-39.062,-45.898,-45.410,0.000
1709297784.809,-29.297,-42.480,-46.875,-34.668,0.000
1709297784.813,-29.785,-38.086,-47.363,-36.621,0.000
1709297784.817,-38.086,-34.668,-43.945,-48.340,0.000
1709297784.821,-45.898,-38.574,-39.551,-50.293,0.000
1709297784.825,-34.180,-35.156,-38.086,-43.457,0.000
1709297784.829,-20.508,-34.668,-39.062,-29.785,0.000
1709297784.833,-16.602,-34.668,-43.457,-34.180,0.000
1709297784.837,-23.926,-27.832,-45.410,-42.969,0.000
1709297784.841,-39.551,-27.344,-44.922,-42.480,0.000
1709297784.845,-34.668,-30.762,-46.875,-27.832,0.000
1709297784.849,-18.066,-29.785,-48.828,-24.902,0.000
1709297784.852,-19.531,-30.762,-46.387,-36.621,0.000
1709297784.856,-29.785,-31.738,-44.434,-39.062,0.000
1709297784.860,-44.922,-31.738,-46.875,-48.340,0.000
1709297784.864,-44.922,-33.203,-46.387,-45.410,0.000
1709297784.868,-27.832,-31.738,-50.781,-37.598,0.000
1709297784.872,-22.949,-32.227,-53.223,-37.598,0.000
1709297784.876,-31.738,-34.180,-50.293,-47.363,0.000
1709297784.880,-41.504,-33.691,-45.410,-49.805,0.000
1709297784.884,-37.598,-33.203,-43.945,-43.945,0.000
1709297784.888,-29.297,-32.715,-45.410,-32.227,0.000
1709297784.891,-29.297,-40.039,-46.387,-39.062,0.000
1709297784.895,-31.250,-40.527,-48.340,-50.781,0.000
1709297784.899,-49.805,-34.668,-45.898,-40.527,0.000
1709297784.903,-50.781,-31.250,-48.340,-34.668,0.000
1709297784.907,-34.668,-30.762,-52.246,-34.668,0.000
1709297784.911,-29.785,-29.785,-49.316,-34.668,0.000
1709297784.915,-22.949,-25.879,-44.434,-33.203,0.000
1709297784.919,0.000,-24.414,0.000,-41.504,0.000
1709297784.923,0.000,-27.832,0.000,-50.781,0.000
1709297784.927,0.000,-30.273,0.000,-40.527,0.000
1709297784.931,0.000,-34.180,0.000,-36.133,0.000
1709297784.934,0.000,-31.738,0.000,-41.016,0.000
1709297784.938,0.000,-29.785,0.000,-47.852,0.000
1709297784.942,0.000,-31.250,0.000,-42.969,0.000
1709297784.946,0.000,-32.715,0.000,-21.484,0.000
1709297784.950,0.000,-35.645,0.000,-21.973,0.000
1709297784.954,0.000,-37.598,0.000,-40.527,0.000
1709297784.958,0.000,-41.016,0.000,-47.852,0.000
1709297784.962,0.000,-43.945,0.000,-43.945,0.000
1709297784.966,-41.504,-38.574,-44.922,-31.738,0.000
1709297784.970,-31.250,-37.109,-44.434,-24.902,0.000
1709297784.973,-33.203,-39.062,-46.387,-41.016,0.000
1709297784.977,-49.316,-37.109,-49.316,-52.734,0.000
1709297784.981,-49.805,-35.645,-48.340,-41.992,0.000
1709297784.985,-38.086,-37.109,-44.922,-29.297,0.000
1709297784.989,-34.668,-40.527,-52.734,-18.066,0.000
1709297784.993,-36.133,-39.551,-55.176,-20.508,0.000
1709297784.997,-42.969,-37.598,-51.270,-43.945,0.000
1709297785.001,-46.875,-40.527,-48.828,-39.551,0.000
1709297785.005,-42.969,-42.969,-44.434,-18.555,0.000
1709297785.009,-35.645,-41.504,-43.945,-13.672,0.000
1709297785.013,-38.086,-36.133,-44.434,-27.832,0.000
1709297785.016,-45.410,-34.180,-42.480,-38.574,0.000
1709297785.020,-50.781,-31.738,-41.504,-39.551,0.000
1709297785.024,-47.363,-26.855,-42.480,-37.109,0.000
1709297785.028,-31.250,-27.344,-46.387,-32.227,0.000
1709297785.032,-21.973,-33.203,-47.852,-27.344,0.000
1709297785.036,-35.156,-31.250,-49.316,-34.180,0.000
1709297785.040,-45.898,-28.809,-50.781,-41.992,0.000
1709297785.044,-37.598,-35.156,-43.945,-29.297,0.000
1709297785.048,-30.762,-36.621,-41.992,-21.484,0.000
1709297785.052,-18.066,-33.691,-41.016,-22.949,0.000
1709297785.055,-20.996,-34.180,-42.969,-41.504,0.000
1709297785.059,-36.621,-32.715,-47.852,-48.340,0.000
1709297785.063,-44.922,-31.738,-46.387,-36.621,0.000
1709297785.067,-35.645,-29.297,-44.922,-30.762,0.000
1709297785.071,-14.648,-25.879,-45.898,-25.879,0.000
1709297785.075,-24.902,-33.203,-47.852,-28.809,0.000
1709297785.079,-43.945,-38.086,-46.875,-42.480,0.000
1709297785.083,-38.574,-29.785,-45.410,-43.945,0.000
1709297785.087,-24.902,-28.320,-45.898,-36.621,0.000
1709297785.091,-22.949,-34.180,-46.387,-34.668,0.000
1709297785.095,-34.668,-39.062,-47.363,-34.668,0.000
1709297785.098,-42.480,-34.668,-46.875,-43.457,0.000
1709297785.102,-41.016,-32.227,-49.316,-47.363,0.000
1709297785.106,-30.273,-32.227,-46.875,-31.250,0.000
1709297785.110,-14.160,-28.320,-42.969,-18.066,0.000
1709297785.114,-19.531,-25.391,-39.551,-29.785,0.000
1709297785.118,-36.621,-29.785,-37.109,-40.527,0.000
1709297785.122,-32.715,-30.273,-39.551,-38.086,0.000
1709297785.126,-25.391,-28.809,-43.945,-32.227,0.000
1709297785.130,-20.996,-30.762,-44.922,-28.809,0.000
1709297785.134,-23.926,-29.297,-41.016,-38.086,0.000
1709297785.138,-38.574,-28.809,-40.039,-41.504,0.000
1709297785.141,-49.316,-32.715,-40.527,-33.203,0.000
1709297785.145,-40.039,-31.738,-41.504,-30.762,0.000
1709297785.149,-23.926,-32.227,-42.969,-23.926,0.000
1709297785.153,-18.066,-31.738,-48.828,-30.762,0.000
1709297785.157,-22.949,-23.926,-53.223,-40.527,0.000
1709297785.161,-30.273,-20.996,-43.945,-30.762,0.000
1709297785.165,-25.391,-24.902,-41.504,-19.043,0.000
1709297785.169,-20.508,-27.832,-43.945,-17.578,0.000
1709297785.173,-27.832,-29.785,-46.387,-29.297,0.000
1709297785.177,-36.621,-27.344,-44.434,-42.969,0.000
1709297785.181,-45.410,-27.344,-38.086,-37.598,0.000
1709297785.184,-47.852,-34.180,-36.621,-18.555,0.000
1709297785.188,-31.738,-34.180,-37.109,-14.648,0.000
1709297785.192,-19.043,-31.738,-40.039,-29.785,0.000
1709297785.196,-30.273,-29.785,-42.480,-43.457,0.000
1709297785.200,-45.410,-28.320,-41.016,-38.086,0.000
1709297785.204,-41.992,-32.227,-45.410,-32.227,0.000
1709297785.208,-30.273,-32.715,-47.363,-35.645,0.000
1709297785.212,-28.320,-31.250,-44.434,-30.762,0.000
1709297785.216,-37.109,-31.250,-44.434,-34.668,0.000
1709297785.220,-41.016,-33.691,-43.945,-40.527,0.000
1709297785.223,-44.922,-36.133,-44.922,-37.598,0.000
1709297785.227,-44.922,-35.645,-44.434,-21.973,0.000
1709297785.231,-41.992,-32.715,-45.410,-13.672,0.000
1709297785.235,-36.133,-29.297,-43.945,-29.785,0.000
1709297785.239,-42.480,-30.273,-42.480,-39.551,0.000
1709297785.243,-41.992,-29.297,-46.387,-32.715,0.000
1709297785.247,-25.391,-29.785,-41.016,-22.461,0.000
1709297785.251,-20.508,-30.762,-42.480,-23.926,0.000
1709297785.255,-35.645,-28.320,-48.828,-42.969,0.000
1709297785.259,-44.922,-32.715,-46.387,-57.129,0.000
1709297785.263,-33.203,-33.691,-44.922,-41.504,0.000
1709297785.266,-20.020,-31.250,-42.480,-25.391,0.000
1709297785.270,-21.973,-34.668,-43.945,-25.391,0.000
1709297785.274,-24.414,-32.715,-44.922,-22.461,0.000
1709297785.278,-31.738,-32.715,-44.922,-34.668,0.000
1709297785.282,-45.898,-39.551,-45.898,-45.410,0.000
1709297785.286,-41.504,-38.086,-47.852,-33.203,0.000
1709297785.290,-24.414,-33.203,-46.387,-27.344,0.000
1709297785.294,-29.297,-36.621,-46.387,-39.062,0.000
1709297785.298,-40.527,-37.598,-44.922,-41.504,0.000
1709297785.302,-37.109,-33.691,-46.387,-46.875,0.000
1709297785.305,-31.250,-30.762,-48.340,-43.457,0.000
1709297785.309,-24.902,-29.785,-42.969,-32.715,0.000
1709297785.313,-48.828,-32.227,-41.504,-42.969,0.000
1709297785.317,-77.637,-35.156,-41.504,-58.594,0.000
1709297785.321,-87.402,-35.645,-42.480,-52.246,0.000
1709297785.325,-73.242,-34.668,-39.062,-36.621,0.000
1709297785.329,-56.641,-34.668,-34.180,-29.297,0.000
1709297785.333,-61.523,-33.203,-41.504,-41.992,0.000
1709297785.337,-68.848,-37.109,-45.410,-49.316,0.000
1709297785.341,-75.684,-38.574,-44.434,-48.828,0.000
1709297785.345,-72.266,-31.738,-43.457,-37.598,0.000
1709297785.348,-61.523,-32.227,-45.410,-22.461,0.000
1709297785.352,-56.641,-38.086,-50.293,-29.297,0.000
1709297785.356,-56.152,-38.574,-48.340,-35.156,0.000
1709297785.360,-63.965,-39.551,-48.828,-38.574,0.000
1709297785.364,-62.012,-39.551,-49.805,-28.809,0.000
1709297785.368,-47.363,-41.504,-49.316,-25.879,0.000
1709297785.372,-48.828,-44.434,-49.316,-34.180,0.000
1709297785.376,-57.129,-41.504,-44.434,-41.016,0.000
1709297785.380,-64.941,-36.621,-46.387,-45.410,0.000
1709297785.384,-69.824,-36.621,-49.805,-43.457,0.000
1709297785.387,-53.223,-35.156,-47.363,-38.086,0.000
1709297785.391,-40.039,-35.156,-42.969,-34.668,0.000
1709297785.395,-49.316,-36.133,-38.086,-48.340,0.000
1709297785.399,-63.965,-32.715,-35.156,-47.363,0.000
1709297785.403,-52.246,-29.785,-38.086,-37.109,0.000
1709297785.407,-25.391,-25.391,-39.551,-23.438,0.000
1709297785.411,-23.438,-25.879,-37.598,-17.578,0.000
1709297785.415,-28.809,-31.738,-40.039,-33.203,0.000
1709297785.419,-29.785,-31.738,-43.945,-41.504,0.000
1709297785.423,-29.297,-24.902,-41.504,-40.527,0.000
1709297785.426,-18.066,-27.832,-40.039,-32.227,0.000
1709297785.430,-3.418,-32.227,-42.969,-30.273,0.000
1709297785.434,-21.973,-27.832,-41.504,-35.156,0.000
1709297785.438,-46.875,-27.832,-37.598,-41.992,0.000
1709297785.442,-47.363,-35.645,-41.504,-42.480,0.000
1709297785.446,-37.109,-34.180,-44.434,-33.203,0.000
1709297785.450,-18.066,-31.250,-44.434,-28.809,0.000
1709297785.454,-20.020,-33.203,-48.828,-32.715,0.000
1709297785.458,-31.738,-29.785,-47.363,-39.062,0.000
1709297785.462,-30.762,-35.156,-51.758,-42.480,0.000
1709297785.466,-26.367,-36.133,-53.711,-30.273,0.000
1709297785.469,-20.020,-27.832,-44.434,-16.602,0.000
1709297785.473,-4.883,-29.297,-37.598,-21.973,0.000
1709297785.477,-19.531,-36.133,-34.180,-38.574,0.000
1709297785.481,-34.668,-28.320,-34.668,-40.527,0.000
1709297785.485,-21.973,-22.461,-35.645,-23.438,0.000
1709297785.489,-8.301,-26.367,-33.203,-29.297,0.000
1709297785.493,-10.742,-18.555,-38.086,-42.480,0.000
1709297785.497,-25.879,-13.672,-35.645,-52.734,0.000
1709297785.501,-33.203,-8.301,-36.133,-60.547,0.000
1709297785.505,-34.668,-7.812,-41.016,-54.688,0.000
1709297785.509,-27.832,-6.348,-25.879,-44.434,0.000
1709297785.512,-25.879,13.184,-22.461,-42.969,0.000
1709297785.516,-48.828,19.043,-25.879,-59.082,0.000
1709297785.520,-74.219,18.555,-34.668,-83.008,0.000
1709297785.524,-92.773,19.531,-42.480,-97.656,0.000
