timestamps,TP9,AF7,AF8,TP10,Right AUX
1709298711.582,-39.551,-28.320,-37.109,-33.691,0.000
1709298711.586,-37.598,-37.109,-37.598,-25.879,0.000
1709298711.590,-26.367,-35.156,-36.133,-14.160,0.000
1709298711.594,-16.602,-37.109,-39.551,-20.996,0.000
1709298711.598,-24.414,-32.715,-43.945,-35.645,0.000
1709298711.602,-33.203,-32.227,-40.039,-30.762,0.000
1709298711.606,-34.668,-34.668,-33.203,-20.508,0.000
1709298711.610,-32.715,-33.691,-33.691,-14.648,0.000
1709298711.614,-36.133,-35.645,-37.109,-16.602,0.000
1709298711.617,-35.645,-40.527,-33.691,-27.832,0.000
1709298711.621,-34.180,-44.434,-31.738,-25.879,0.000
1709298711.625,-42.969,-38.574,-33.691,-15.137,0.000
1709298711.629,-46.875,-33.691,-34.180,-15.625,0.000
1709298711.633,-46.875,-32.715,-34.180,-25.391,0.000
1709298711.637,-47.363,-41.992,-36.621,-39.062,0.000
1709298711.641,-41.504,-40.527,-40.527,-39.062,0.000
1709298711.645,-37.109,-32.715,-41.504,-33.203,0.000
1709298711.649,-36.133,-33.203,-37.109,-28.320,0.000
1709298711.653,-29.297,-33.203,-36.621,-32.715,0.000
1709298711.657,-28.320,-37.109,-42.969,-46.387,0.000
1709298711.660,-34.668,-38.086,-41.504,-46.387,0.000
1709298711.664,-33.691,-38.086,-39.551,-40.527,0.000
1709298711.668,-33.203,-44.922,-45.898,-38.086,0.000
1709298711.672,-32.715,-47.363,-44.922,-34.668,0.000
1709298711.676,-33.691,-41.504,-41.016,-35.156,0.000
1709298711.680,-40.527,-29.785,-39.062,-45.898,0.000
1709298711.684,-42.969,-33.691,-35.645,-42.480,0.000
1709298711.688,-37.109,-36.133,-27.344,-30.762,0.000
1709298711.692,-29.785,-34.180,-28.809,-28.320,0.000
1709298711.696,-31.738,-33.691,-30.762,-26.855,0.000
1709298711.700,-35.156,-27.344,-21.484,-37.109,0.000
1709298711.703,-38.086,-28.809,-21.484,-29.297,0.000
1709298711.707,-36.133,-34.180,-28.320,-13.184,0.000
1709298711.711,-30.762,-34.668,-26.855,-19.043,0.000
1709298711.715,-40.527,-37.598,-31.250,-33.203,0.000
1709298711.719,-45.410,-39.062,-40.039,-34.668,0.000
1709298711.723,-41.016,-35.645,-41.504,-25.879,0.000
1709298711.727,-36.621,-37.598,-42.480,-20.508,0.000
1709298711.731,-23.926,-41.504,-40.527,-10.742,0.000
1709298711.735,-22.461,-38.574,-35.645,-15.137,0.000
1709298711.739,-25.879,-31.250,-31.738,-24.902,0.000
1709298711.742,-31.738,-35.645,-32.227,-26.855,0.000
1709298711.746,-38.086,-45.898,-39.062,-23.926,0.000
1709298711.750,-32.227,-43.457,-33.691,-7.812,0.000
1709298711.754,-36.133,-36.133,-30.273,-15.137,0.000
1709298711.758,-43.457,-25.879,-40.527,-36.621,0.000
1709298711.762,-48.828,-34.668,-39.062,-34.668,0.000
1709298711.766,-43.457,-39.551,-32.715,-29.297,0.000
1709298711.770,-40.527,-30.762,-36.133,-32.715,0.000
1709298711.774,-39.551,-31.250,-32.715,-33.203,0.000
1709298711.778,-31.738,-36.133,-28.809,-30.273,0.000
1709298711.782,-42.969,-36.621,-34.668,-37.109,0.000
1709298711.785,-42.480,-31.250,-37.109,-33.203,0.000
1709298711.789,-25.879,-34.180,-40.527,-21.973,0.000
1709298711.793,-24.902,-38.086,-35.645,-14.648,0.000
1709298711.797,-27.344,-35.645,-30.273,-17.090,0.000
1709298711.801,-28.320,-25.879,-34.180,-27.344,0.000
1709298711.805,-30.273,-23.926,-35.156,-14.648,0.000
1709298711.809,-20.996,-30.762,-33.203,-10.742,0.000
1709298711.813,-10.254,-28.809,-29.785,-11.230,0.000
1709298711.817,-18.066,-22.461,-38.086,-15.137,0.000
1709298711.821,-32.227,-23.926,-43.457,-30.762,0.000
1709298711.824,-36.133,-29.785,-35.156,-29.785,0.000
1709298711.828,-29.785,-32.227,-39.062,-22.461,0.000
1709298711.832,-27.344,-28.809,-51.270,-26.367,0.000
1709298711.836,-26.855,-28.809,-47.363,-33.691,0.000
1709298711.840,-27.832,-34.668,-41.992,-26.855,0.000
1709298711.844,-37.598,-29.785,-51.758,-28.320,0.000
1709298711.848,-37.109,-26.367,-42.969,-30.273,0.000
1709298711.852,-29.297,-33.203,-29.297,-15.625,0.000
1709298711.856,-33.691,-39.062,-30.762,-17.578,0.000
1709298711.860,-38.086,-37.109,-31.250,-29.785,0.000
1709298711.864,-39.062,-33.203,-30.762,-27.832,0.000
1709298711.867,-34.180,-34.668,-36.621,-20.508,0.000
1709298711.871,-22.949,-36.133,-35.645,-18.555,0.000
1709298711.875,-32.227,-38.086,-28.320,-24.414,0.000
1709298711.879,-45.410,-49.805,-32.227,-39.062,0.000
1709298711.883,-43.945,-54.199,-30.762,-34.668,0.000
1709298711.887,-44.434,-44.434,-29.297,-19.043,0.000
1709298711.891,-34.180,-28.809,-30.762,-10.742,0.000
1709298711.895,-36.133,-33.691,-29.297,-24.414,0.000
1709298711.899,-49.805,-45.410,-28.809,-40.039,0.000
1709298711.903,-50.781,-42.969,-25.879,-34.668,0.000
1709298711.906,-48.340,-39.551,-25.391,-26.367,0.000
1709298711.910,-41.504,-39.551,-24.414,-19.043,0.000
1709298711.914,-41.504,-41.992,-27.344,-23.926,0.000
1709298711.918,-46.387,-40.039,-27.344,-33.203,0.000
1709298711.922,-44.922,-34.668,-28.320,-29.297,0.000
1709298711.926,-39.551,-40.039,-30.273,-14.648,0.000
1709298711.930,-38.574,-39.062,-24.414,-13.184,0.000
1709298711.934,-30.273,-29.785,-22.461,-24.902,0.000
1709298711.938,-24.902,-28.809,-29.785,-30.273,0.000
1709298711.942,-29.785,-33.203,-38.086,-31.250,0.000
1709298711.946,-25.391,-33.691,-31.738,-17.090,0.000
1709298711.949,-24.902,-28.320,-33.203,-11.230,0.000
1709298711.953,-22.949,-29.297,-41.992,-18.066,0.000
1709298711.957,-26.855,-30.762,-43.457,-29.297,0.000
1709298711.961,-41.016,-32.227,-41.016,-41.016,0.000
1709298711.965,-49.316,-33.203,-42.969,-40.039,0.000
1709298711.969,-52.246,-39.062,-46.875,-36.133,0.000
1709298711.973,-42.969,-46.875,-47.363,-32.227,0.000
1709298711.977,-40.039,-47.363,-43.945,-43.457,0.000
1709298711.981,-41.992,-41.992,-41.016,-43.945,0.000
1709298711.985,-40.527,-36.621,-39.551,-26.367,0.000
1709298711.989,-38.574,-41.504,-39.062,-16.602,0.000
1709298711.992,-24.902,-42.480,-36.133,-12.695,0.000
1709298711.996,-20.020,-25.391,-31.250,-22.949,0.000
1709298712.000,-29.297,-27.344,-26.855,-32.227,0.000
1709298712.004,0.000,-32.227,-27.344,-24.414,0.000
1709298712.008,0.000,-30.273,-26.367,-17.578,0.000
1709298712.012,0.000,-25.879,-24.414,-14.648,0.000
1709298712.016,0.000,-22.949,-25.391,-23.926,0.000
1709298712.020,0.000,-23.926,-22.461,-41.504,0.000
1709298712.024,0.000,-27.344,-15.625,-38.574,0.000
1709298712.028,0.000,-28.320,-17.578,-27.344,0.000
1709298712.032,0.000,-30.273,-26.855,-26.855,0.000
1709298712.035,0.000,-33.691,-25.391,-29.297,0.000
1709298712.039,0.000,-32.715,-25.391,-41.992,0.000
1709298712.043,0.000,-40.039,-33.691,-54.688,0.000
1709298712.047,0.000,-47.852,-41.504,-42.969,0.000
1709298712.051,-28.320,-44.434,-37.598,-28.320,0.000
1709298712.055,-23.438,-40.039,-37.598,-30.762,0.000
1709298712.059,-24.414,-37.598,-41.504,-44.922,0.000
1709298712.063,-32.715,-36.621,-40.039,-41.992,0.000
1709298712.067,-40.527,-38.086,-41.016,-25.391,0.000
1709298712.071,-42.480,-31.250,-36.621,-15.137,0.000
1709298712.074,-39.062,-27.344,-38.086,-17.578,0.000
1709298712.078,-33.203,-33.691,-39.551,-16.602,0.000
1709298712.082,-36.621,-32.715,-34.668,-11.230,0.000
1709298712.086,-45.898,-30.762,-32.715,-7.812,0.000
1709298712.090,-50.293,-31.738,-34.668,-5.371,0.000
1709298712.094,-46.875,-22.461,-37.598,-6.836,0.000
1709298712.098,-13.672,-25.391,-42.480,-26.367,0.000
1709298712.102,-19.531,-28.320,-47.363,-37.598,0.000
1709298712.106,-18.066,-26.855,-41.016,-21.973,0.000
1709298712.110,-25.879,-38.086,-35.645,-17.090,0.000
1709298712.114,-30.762,-39.551,-32.227,-20.508,0.000
1709298712.117,-34.180,-34.668,-32.715,-33.203,0.000
1709298712.121,-48.828,-37.109,-37.598,-43.457,0.000
1709298712.125,-56.152,-43.457,-33.203,-36.133,0.000
1709298712.129,-62.012,-50.781,-28.320,-39.551,0.000
1709298712.133,-66.406,-46.875,-26.855,-52.734,0.000
1709298712.137,-68.359,-43.457,-33.203,-61.523,0.000
1709298712.141,-70.801,-52.734,-43.457,-69.824,0.000
1709298712.145,-62.012,-53.711,-43.945,-66.895,0.000
1709298712.149,-56.641,-46.875,-32.715,-54.688,0.000
1709298712.153,-47.363,-55.176,-32.227,-43.945,0.000
1709298712.156,-38.086,-58.105,-37.598,-45.898,0.000
1709298712.160,-40.527,-46.875,-35.645,-49.316,0.000
1709298712.164,-35.645,-41.504,-32.715,-35.645,0.000
1709298712.168,-23.438,-42.969,-33.203,-16.602,0.000
1709298712.172,-17.578,-34.668,-39.062,-13.672,0.000
1709298712.176,-20.020,-31.250,-36.133,-28.320,0.000
1709298712.180,-16.602,-34.180,-33.203,-31.250,0.000
1709298712.184,-18.555,-35.645,-34.668,-22.461,0.000
1709298712.188,-30.273,-31.738,-38.086,-22.949,0.000
1709298712.192,-24.902,-24.414,-43.945,-23.438,0.000
1709298712.196,-31.250,-26.855,-48.340,-32.227,0.000
1709298712.199,-46.387,-31.250,-48.340,-48.828,0.000
1709298712.203,-50.781,-32.715,-40.527,-50.293,0.000
1709298712.207,-52.246,-30.762,-38.574,-43.945,0.000
1709298712.211,-54.199,-40.039,-48.828,-48.340,0.000
1709298712.215,-58.594,-52.246,-46.875,-49.805,0.000
1709298712.219,-67.871,-48.828,-41.016,-68.359,0.000
1709298712.223,-75.195,-43.945,-46.387,-78.125,0.000
1709298712.227,-69.824,-38.086,-51.270,-63.477,0.000
1709298712.231,-66.895,-38.574,-55.664,-70.312,0.000
1709298712.235,-71.289,-41.504,-55.176,-79.590,0.000
1709298712.238,-65.430,-32.715,-48.340,-80.078,0.000
1709298712.242,-61.035,-32.227,-47.852,-83.008,0.000
1709298712.246,-56.641,-43.457,-44.434,-76.660,0.000
1709298712.250,-47.363,-45.898,-40.039,-60.547,0.000
1709298712.254,-44.434,-38.574,-45.410,-57.129,0.000
1709298712.258,-45.410,-47.852,-39.551,-54.199,0.000
1709298712.262,-49.316,-60.547,-32.715,-50.293,0.000
1709298712.266,-57.129,-54.688,-37.598,-50.781,0.000
1709298712.270,-54.688,-45.410,-30.762,-45.410,0.000
1709298712.274,-50.781,-47.363,-30.762,-47.363,0.000
1709298712.278,-56.152,-54.199,-39.062,-51.758,0.000
1709298712.281,-58.105,-46.387,-34.668,-57.129,0.000
1709298712.285,0.000,-47.852,-38.574,-54.688,0.000
1709298712.289,0.000,-55.176,-46.387,-48.828,0.000
1709298712.293,0.000,-60.059,-46.875,-52.734,0.000
1709298712.297,0.000,-60.059,-49.316,-68.848,0.000
1709298712.301,0.000,-47.852,-48.340,-75.684,0.000
1709298712.305,0.000,-42.480,-50.293,-69.336,0.000
1709298712.309,0.000,-41.504,-48.828,-62.012,0.000
1709298712.313,0.000,-39.062,-46.875,-60.059,0.000
1709298712.317,0.000,-31.250,-41.504,-55.664,0.000
1709298712.321,0.000,-32.715,-45.410,-56.641,0.000
1709298712.324,0.000,-37.598,-57.617,-62.988,0.000
1709298712.328,0.000,-37.598,-55.176,-62.988,0.000
1709298712.332,-41.992,-33.691,-50.781,-57.617,0.000
1709298712.336,-41.504,-36.133,-48.340,-56.641,0.000
1709298712.340,-41.992,-35.156,-42.480,-60.059,0.000
1709298712.344,-41.504,-22.461,-40.527,-54.199,0.000
1709298712.348,-41.992,-32.227,-43.945,-37.598,0.000
1709298712.352,-40.527,-45.410,-45.898,-40.527,0.000
1709298712.356,-39.551,-32.715,-50.293,-41.992,0.000
1709298712.360,-40.039,-29.297,-49.316,-37.109,0.000
1709298712.363,-41.992,-45.898,-48.340,-32.715,0.000
1709298712.367,-51.270,-39.062,-50.293,-24.902,0.000
1709298712.371,-50.781,-22.461,-49.316,-26.855,0.000
1709298712.375,-43.457,-21.484,-49.805,-34.180,0.000
1709298712.379,-50.293,-23.438,-52.734,-49.805,0.000
1709298712.383,-49.316,-21.484,-54.199,-44.434,0.000
1709298712.387,-36.621,-15.625,-53.223,-34.180,0.000
1709298712.391,-41.016,-15.137,-57.129,-48.340,0.000
1709298712.395,-44.434,-9.766,-60.547,-56.641,0.000
1709298712.399,-40.527,-0.977,-61.035,-56.641,0.000
1709298712.403,-40.527,1.465,-59.570,-55.176,0.000
1709298712.406,-39.062,-5.371,-59.082,-46.387,0.000
1709298712.410,-29.297,-9.766,-61.523,-35.156,0.000
1709298712.414,-19.043,5.371,-62.012,-39.062,0.000
1709298712.418,-10.742,16.113,-60.059,-52.734,0.000
1709298712.422,-9.766,12.695,-67.383,-57.617,0.000
1709298712.426,-21.484,11.719,-77.148,-56.152,0.000
1709298712.430,-23.926,14.160,-74.707,-48.340,0.000
1709298712.434,-11.230,15.625,-73.730,-47.363,0.000
1709298712.438,-13.184,17.578,-79.102,-68.848,0.000
1709298712.442,-18.555,18.555,-76.172,-77.637,0.000
1709298712.446,-14.160,22.949,-69.336,-68.848,0.000
1709298712.449,-13.672,25.391,-74.219,-65.430,0.000
1709298712.453,-15.625,14.648,-79.102,-57.129,0.000
1709298712.457,-20.020,10.742,-78.125,-57.617,0.000
1709298712.461,-23.926,20.996,-83.008,-71.289,0.000
1709298712.465,-19.531,30.273,-79.102,-66.895,0.000
1709298712.469,-15.625,36.133,-79.102,-50.781,0.000
1709298712.473,-8.301,41.016,-79.102,-45.898,0.000
1709298712.477,-1.953,41.992,-76.660,-50.293,0.000
1709298712.481,-1.953,45.898,-77.637,-51.270,0.000
1709298712.485,-10.742,38.574,-83.496,-41.504,0.000
1709298712.488,-5.371,36.621,-82.031,-27.344,0.000
1709298712.492,6.348,49.805,-80.566,-22.461,0.000
1709298712.496,5.859,56.152,-81.055,-22.461,0.000
1709298712.500,3.418,50.781,-75.684,-20.508,0.000
1709298712.504,-0.488,50.293,-74.707,-21.973,0.000
1709298712.508,3.418,53.223,-74.707,-19.043,0.000
1709298712.512,6.836,42.969,-76.172,-17.090,0.000
1709298712.516,4.883,35.156,-82.520,-26.367,0.000
1709298712.520,-7.324,24.414,-77.148,-27.344,0.000
1709298712.524,-14.648,17.578,-70.312,-18.066,0.000
1709298712.528,-18.066,30.273,-83.496,-20.508,0.000
1709298712.531,-12.207,35.645,-83.984,-19.531,0.000
1709298712.535,-5.371,34.180,-77.637,-22.949,0.000
1709298712.539,-5.371,35.156,-81.543,-34.668,0.000
1709298712.543,0.977,34.180,-80.078,-22.949,0.000
1709298712.547,-3.906,31.738,-77.148,-13.672,0.000
1709298712.551,-1.953,33.203,-80.078,-17.090,0.000
1709298712.555,9.766,35.156,-80.566,-14.648,0.000
1709298712.559,12.695,32.227,-70.801,-23.926,0.000
1709298712.563,-0.977,21.973,-70.801,-36.133,0.000
1709298712.567,-3.418,10.742,-74.707,-23.438,0.000
1709298712.571,15.625,13.184,-69.336,-3.906,0.000
1709298712.574,17.090,23.926,-72.266,-11.230,0.000
1709298712.578,8.301,23.438,-68.848,-18.555,0.000
1709298712.582,3.906,20.020,-62.988,-14.648,0.000
1709298712.586,5.859,14.648,-63.965,-9.277,0.000
1709298712.590,9.766,14.648,-62.500,0.488,0.000
1709298712.594,3.418,20.508,-59.570,-0.977,0.000
1709298712.598,-1.465,3.418,-54.199,-15.625,0.000
1709298712.602,-6.836,-1.953,-48.340,-13.184,0.000
1709298712.606,-19.043,2.441,-52.734,-13.672,0.000
1709298712.610,-7.812,-4.395,-54.199,-5.371,0.000
1709298712.613,6.348,-8.789,-46.387,6.348,0.000
1709298712.617,-2.441,-4.883,-45.898,-6.348,0.000
1709298712.621,-8.301,-2.930,-43.945,-6.348,0.000
1709298712.625,-12.695,-12.695,-41.016,-9.766,0.000
1709298712.629,-10.742,-3.418,-46.387,-12.207,0.000
1709298712.633,-5.371,9.766,-43.457,6.836,0.000
1709298712.637,-8.301,-9.766,-44.434,5.371,0.000
1709298712.641,-24.414,-24.414,-44.434,-23.438,0.000
1709298712.645,-33.203,-17.090,-44.922,-24.902,0.000
1709298712.649,-29.785,-19.531,-44.434,-13.672,0.000
1709298712.652,-27.344,-20.508,-38.086,-12.695,0.000
1709298712.656,-31.738,-26.855,-37.109,-21.973,0.000
1709298712.660,-41.016,-33.691,-36.133,-39.062,0.000
1709298712.664,-38.574,-24.902,-35.156,-41.016,0.000
1709298712.668,-39.551,-22.949,-33.203,-27.344,0.000
1709298712.672,-35.645,-36.133,-31.250,-30.273,0.000
1709298712.676,-32.715,-41.504,-34.180,-38.086,0.000
1709298712.680,-40.527,-30.273,-36.621,-41.016,0.000
1709298712.684,-48.828,-23.438,-32.715,-42.480,0.000
1709298712.688,-52.246,-26.367,-34.668,-39.551,0.000
1709298712.692,-46.387,-27.832,-40.039,-29.785,0.000
1709298712.695,-39.062,-23.438,-33.691,-28.320,0.000
1709298712.699,-39.062,-20.508,-33.203,-36.621,0.000
1709298712.703,-43.945,-21.973,-38.574,-40.527,0.000
1709298712.707,-40.039,-26.367,-32.715,-32.715,0.000
1709298712.711,-33.203,-24.902,-35.645,-29.297,0.000
1709298712.715,-34.180,-18.066,-41.504,-36.621,0.000
1709298712.719,-35.645,-17.090,-41.504,-45.410,0.000
1709298712.723,-34.668,-22.949,-38.086,-42.480,0.000
1709298712.727,-38.574,-23.438,-43.945,-36.621,0.000
1709298712.731,-31.738,-27.832,-47.363,-32.715,0.000
1709298712.735,-24.414,-24.414,-37.598,-30.762,0.000
1709298712.738,-41.016,-15.137,-40.039,-34.180,0.000
1709298712.742,-49.316,-15.625,-46.387,-41.992,0.000
1709298712.746,-45.898,-16.113,-44.434,-46.875,0.000
1709298712.750,-36.621,-24.414,-43.457,-34.180,0.000
1709298712.754,-32.227,-29.297,-43.945,-32.227,0.000
1709298712.758,-34.668,-21.973,-37.109,-46.875,0.000
1709298712.762,-40.039,-20.996,-37.109,-50.293,0.000
1709298712.766,-48.828,-31.250,-41.504,-38.574,0.000
1709298712.770,-48.828,-33.691,-47.852,-28.320,0.000
1709298712.774,-39.062,-31.250,-42.969,-30.762,0.000
1709298712.778,-35.156,-29.785,-27.344,-35.156,0.000
1709298712.781,-45.410,-28.320,-36.621,-41.016,0.000
1709298712.785,-54.688,-31.738,-50.293,-45.410,0.000
1709298712.789,-52.246,-23.438,-41.016,-25.879,0.000
1709298712.793,-52.734,-25.391,-35.156,-20.020,0.000
1709298712.797,-48.340,-34.180,-36.621,-36.133,0.000
1709298712.801,-49.316,-37.109,-36.621,-39.551,0.000
1709298712.805,-50.293,-37.598,-37.109,-31.250,0.000
1709298712.809,-36.621,-33.203,-38.086,-26.855,0.000
1709298712.813,-31.738,-35.156,-36.621,-26.855,0.000
1709298712.817,-36.133,-41.016,-34.668,-27.832,0.000
1709298712.820,-34.668,-38.574,-38.086,-36.621,0.000
1709298712.824,-29.785,-35.645,-38.574,-38.086,0.000
1709298712.828,-32.227,-44.922,-34.180,-16.113,0.000
1709298712.832,-30.273,-41.992,-39.551,-2.441,0.000
1709298712.836,-17.578,-33.203,-42.969,-22.461,0.000
1709298712.840,-15.137,-31.738,-45.898,-46.875,0.000
1709298712.844,-25.391,-31.738,-52.246,-53.223,0.000
1709298712.848,-20.996,-30.762,-45.898,-42.969,0.000
1709298712.852,-11.230,-33.203,-41.016,-34.668,0.000
1709298712.856,-14.160,-37.109,-49.805,-46.875,0.000
1709298712.860,-27.832,-28.320,-47.852,-58.105,0.000
1709298712.863,-25.879,-25.391,-44.434,-47.852,0.000
1709298712.867,-9.277,-30.762,-43.457,-33.203,0.000
1709298712.871,-15.137,-29.785,-39.551,-28.320,0.000
1709298712.875,-27.832,-34.180,-43.457,-29.297,0.000
1709298712.879,-24.414,-31.738,-47.363,-39.551,0.000
1709298712.883,-21.484,-27.344,-48.828,-47.363,0.000
1709298712.887,-31.738,-32.715,-40.039,-32.715,0.000
1709298712.891,-24.414,-29.785,-32.715,-22.461,0.000
1709298712.895,-17.578,-20.020,-38.574,-28.809,0.000
1709298712.899,-28.320,-22.949,-35.156,-37.598,0.000
1709298712.903,-36.133,-35.645,-34.668,-43.457,0.000
1709298712.906,-42.969,-32.715,-39.062,-36.133,0.000
1709298712.910,-39.062,-18.555,-29.785,-22.949,0.000
1709298712.914,-36.621,-22.949,-32.715,-21.484,0.000
1709298712.918,-37.598,-36.621,-40.527,-27.344,0.000
1709298712.922,-44.922,-38.574,-35.156,-26.367,0.000
1709298712.926,-51.758,-34.180,-33.691,-27.832,0.000
1709298712.930,-54.199,-30.762,-35.156,-21.973,0.000
1709298712.934,-61.035,-35.645,-36.621,-20.020,0.000
1709298712.938,-53.711,-42.480,-38.574,-28.809,0.000
1709298712.942,-48.828,-35.156,-32.227,-36.621,0.000
1709298712.945,-56.152,-34.668,-33.691,-41.504,0.000
1709298712.949,-55.664,-45.410,-36.133,-30.273,0.000
1709298712.953,-53.223,-39.062,-28.809,-17.090,0.000
1709298712.957,-48.828,-32.227,-27.832,-36.621,0.000
1709298712.961,-46.387,-36.133,-33.203,-53.223,0.000
1709298712.965,-49.805,-42.480,-39.062,-44.922,0.000
1709298712.969,-51.758,-38.574,-40.527,-41.504,0.000
1709298712.973,-40.527,-27.344,-41.992,-39.551,0.000
1709298712.977,-27.832,-34.180,-41.504,-38.574,0.000
1709298712.981,-33.203,-34.668,-43.457,-45.898,0.000
1709298712.985,-26.367,-29.785,-39.062,-46.875,0.000
1709298712.988,-21.484,-35.156,-37.598,-40.039,0.000
1709298712.992,-21.973,-36.133,-37.598,-32.715,0.000
1709298712.996,-31.250,-38.574,-36.621,-40.039,0.000
1709298713.000,-52.734,-42.969,-40.527,-52.246,0.000
1709298713.004,-47.363,-36.133,-41.504,-44.434,0.000
1709298713.008,-37.109,-40.527,-41.992,-33.691,0.000
1709298713.012,-39.551,-46.387,-44.434,-29.785,0.000
1709298713.016,-43.945,-37.598,-47.852,-40.527,0.000
1709298713.020,-43.945,-37.109,-45.898,-55.176,0.000
1709298713.024,-46.387,-38.574,-41.992,-50.781,0.000
1709298713.027,-51.270,-36.133,-42.480,-44.922,0.000
1709298713.031,-46.387,-32.227,-46.875,-34.668,0.000
1709298713.035,-38.574,-38.086,-49.316,-29.297,0.000
1709298713.039,-45.410,-48.340,-44.922,-48.340,0.000
1709298713.043,-61.035,-38.574,-38.574,-46.875,0.000
1709298713.047,-67.871,-37.109,-41.504,-40.527,0.000
1709298713.051,-52.734,-38.086,-42.480,-38.574,0.000
1709298713.055,-50.293,-35.156,-47.363,-37.109,0.000
1709298713.059,-50.781,-44.922,-47.363,-52.734,0.000
1709298713.063,-52.734,-48.340,-41.504,-54.199,0.000
1709298713.067,-60.547,-51.270,-41.016,-45.898,0.000
1709298713.070,-60.547,-48.828,-41.504,-32.715,0.000
1709298713.074,-48.340,-36.133,-39.062,-34.668,0.000
1709298713.078,-48.828,-33.203,-37.598,-45.898,0.000
1709298713.082,-56.152,-29.297,-38.086,-45.898,0.000
1709298713.086,-52.246,-27.344,-36.133,-43.945,0.000
1709298713.090,-56.152,-27.832,-40.527,-43.457,0.000
1709298713.094,-50.293,-22.461,-37.598,-35.156,0.000
1709298713.098,-36.133,-23.438,-31.250,-33.203,0.000
1709298713.102,-34.180,-27.832,-35.645,-42.969,0.000
1709298713.106,-35.645,-33.691,-37.109,-35.156,0.000
1709298713.110,-26.855,-42.480,-32.715,-23.438,0.000
1709298713.113,-22.461,-40.039,-30.762,-16.602,0.000
1709298713.117,-26.855,-31.250,-40.527,-20.508,0.000
1709298713.121,-37.109,-33.203,-46.387,-31.250,0.000
1709298713.125,-33.691,-42.969,-38.574,-29.297,0.000
1709298713.129,-24.902,-34.180,-40.039,-30.273,0.000
1709298713.133,-16.602,-20.020,-41.992,-31.738,0.000
1709298713.137,-25.391,-31.250,-41.504,-39.551,0.000
1709298713.141,-39.062,-44.434,-41.016,-54.688,0.000
1709298713.145,-36.621,-50.293,-35.645,-49.316,0.000
1709298713.149,-45.898,-55.176,-36.621,-36.133,0.000
1709298713.152,-40.527,-41.016,-40.527,-28.809,0.000
1709298713.156,-34.180,-29.785,-38.574,-29.297,0.000
1709298713.160,-41.992,-44.434,-32.715,-33.203,0.000
1709298713.164,-41.504,-59.570,-33.203,-36.133,0.000
1709298713.168,-38.086,-50.781,-36.621,-33.203,0.000
1709298713.172,-26.855,-41.992,-35.645,-21.973,0.000
1709298713.176,-18.555,-38.574,-31.250,-21.484,0.000
1709298713.180,-23.438,-40.039,-37.109,-28.809,0.000
1709298713.184,-20.508,-45.410,-41.016,-32.715,0.000
1709298713.188,-20.508,-38.574,-36.133,-36.133,0.000
1709298713.192,-23.438,-34.180,-34.180,-40.527,0.000
1709298713.195,-15.137,-32.715,-35.156,-35.645,0.000
1709298713.199,-20.020,-30.762,-38.086,-38.574,0.000
1709298713.203,-37.109,-36.621,-43.945,-39.062,0.000
1709298713.207,-34.180,-41.992,-47.363,-23.926,0.000
1709298713.211,-30.273,-44.434,-45.898,-33.203,0.000
1709298713.215,-28.320,-41.992,-43.457,-38.086,0.000
1709298713.219,-21.973,-31.250,-35.156,-36.133,0.000
1709298713.223,-21.973,-40.039,-31.250,-41.992,0.000
1709298713.227,-24.414,-42.969,-36.133,-37.109,0.000
1709298713.231,-26.367,-34.668,-38.574,-37.598,0.000
1709298713.235,-34.180,-45.898,-45.410,-48.828,0.000
1709298713.238,-32.715,-42.969,-44.922,-56.152,0.000
1709298713.242,-40.039,-45.410,-41.016,-57.617,0.000
1709298713.246,-48.340,-54.199,-43.945,-49.316,0.000
1709298713.250,-38.574,-56.152,-41.016,-26.855,0.000
1709298713.254,-34.668,-58.105,-40.039,-26.855,0.000
1709298713.258,-41.016,-48.828,-43.945,-55.176,0.000
1709298713.262,-45.898,-38.574,-40.527,-62.988,0.000
1709298713.266,-49.316,-32.715,-37.598,-45.898,0.000
1709298713.270,-48.828,-30.762,-34.180,-29.297,0.000
1709298713.274,-45.410,-32.227,-37.598,-28.809,0.000
1709298713.277,-48.828,-41.016,-40.039,-34.180,0.000
1709298713.281,-50.293,-45.410,-34.180,-39.551,0.000
1709298713.285,-50.781,-48.340,-33.691,-36.133,0.000
1709298713.289,-55.664,-42.969,-33.203,-25.391,0.000
1709298713.293,-43.457,-41.016,-34.180,-20.020,0.000
1709298713.297,-41.016,-58.105,-34.668,-27.344,0.000
1709298713.301,-61.523,-55.176,-41.016,-48.828,0.000
1709298713.305,-53.711,-41.016,-44.434,-45.898,0.000
1709298713.309,-39.551,-34.180,-36.621,-27.832,0.000
1709298713.313,-38.574,-38.086,-35.156,-26.367,0.000
1709298713.317,-36.133,-38.086,-36.133,-28.809,0.000
1709298713.320,-41.992,-31.738,-40.527,-27.344,0.000
1709298713.324,-50.781,-34.668,-41.504,-30.273,0.000
1709298713.328,-47.852,-27.832,-35.645,-35.645,0.000
1709298713.332,-38.574,-23.926,-35.156,-36.621,0.000
1709298713.336,-35.156,-30.273,-41.992,-39.551,0.000
1709298713.340,-41.016,-36.621,-45.898,-45.410,0.000
1709298713.344,-50.781,-45.410,-43.457,-48.340,0.000
1709298713.348,-47.852,-41.504,-42.969,-49.805,0.000
1709298713.352,-38.086,-36.133,-47.852,-45.410,0.000
1709298713.356,-39.551,-41.504,-42.480,-43.457,0.000
1709298713.359,-48.340,-40.527,-40.039,-53.223,0.000
1709298713.363,-52.734,-42.969,-41.016,-57.129,0.000
1709298713.367,-57.129,-45.898,-41.504,-37.598,0.000
1709298713.371,-61.035,-49.805,-42.969,-27.344,0.000
1709298713.375,-46.875,-42.480,-40.039,-42.969,0.000
1709298713.379,-50.293,-40.039,-47.363,-54.688,0.000
1709298713.383,-53.223,-53.711,-50.293,-46.387,0.000
1709298713.387,-43.457,-63.477,-42.480,-35.156,0.000
1709298713.391,-46.875,-56.152,-41.016,-37.109,0.000
1709298713.395,-48.340,-41.016,-45.898,-42.480,0.000
1709298713.399,-51.758,-35.645,-44.434,-35.645,0.000
1709298713.402,-49.316,-38.574,-41.504,-31.250,0.000
1709298713.406,-45.898,-48.828,-42.969,-33.691,0.000
1709298713.410,-45.410,-50.293,-46.387,-20.508,0.000
1709298713.414,-36.133,-41.016,-43.945,-10.742,0.000
1709298713.418,-31.250,-44.434,-42.969,-22.949,0.000
1709298713.422,-28.320,-71.777,-38.086,-32.715,0.000
1709298713.426,-39.551,-63.965,-37.109,-31.738,0.000
1709298713.430,-42.480,-29.785,-48.340,-25.879,0.000
1709298713.434,-34.180,-30.273,-45.898,-24.902,0.000
1709298713.438,-40.527,-44.434,-40.527,-35.156,0.000
1709298713.442,-51.270,-48.340,-42.969,-36.621,0.000
1709298713.445,-53.223,-41.992,-37.109,-30.273,0.000
1709298713.449,-46.387,-44.434,-35.645,-32.715,0.000
1709298713.453,-39.551,-51.758,-43.457,-31.738,0.000
1709298713.457,-35.156,-48.828,-40.039,-33.203,0.000
1709298713.461,-40.527,-48.340,-32.227,-37.598,0.000
1709298713.465,-42.969,-45.410,-29.297,-39.062,0.000
1709298713.469,-36.133,-47.363,-28.809,-32.227,0.000
1709298713.473,-25.879,-46.387,-28.809,-24.902,0.000
1709298713.477,-22.949,-45.410,-31.250,-35.156,0.000
1709298713.481,-28.809,-45.898,-32.227,-40.527,0.000
1709298713.484,-30.762,-40.039,-31.250,-41.992,0.000
1709298713.488,-39.551,-40.039,-34.180,-40.039,0.000
1709298713.492,-41.016,-31.250,-31.738,-36.133,0.000
1709298713.496,-39.551,-32.227,-31.738,-33.203,0.000
1709298713.500,-49.316,-43.945,-40.039,-45.898,0.000
1709298713.504,-58.594,-43.457,-38.574,-49.805,0.000
1709298713.508,-54.199,-38.574,-32.715,-33.691,0.000
1709298713.512,-50.781,-36.621,-33.691,-34.180,0.000
1709298713.516,-46.875,-41.992,-37.598,-37.598,0.000
1709298713.520,-44.434,-47.852,-40.527,-40.527,0.000
1709298713.524,-51.270,-47.363,-37.598,-44.434,0.000
1709298713.527,-55.664,-43.945,-37.598,-37.109,0.000
1709298713.531,-46.875,-38.574,-37.109,-24.414,0.000
1709298713.535,-34.180,-42.969,-33.203,-12.695,0.000
1709298713.539,-31.250,-33.203,-26.367,-14.160,0.000
1709298713.543,-42.969,-28.320,-26.855,-21.484,0.000
1709298713.547,-52.734,-48.828,-29.785,-22.949,0.000
1709298713.551,-44.922,-51.758,-25.879,-27.832,0.000
1709298713.555,-41.504,-41.504,-34.180,-32.227,0.000
1709298713.559,-41.504,-30.762,-37.109,-31.250,0.000
1709298713.563,-41.016,-31.738,-33.203,-37.598,0.000
1709298713.567,-50.781,-41.992,-41.504,-39.062,0.000
1709298713.570,-50.781,-45.410,-49.316,-33.691,0.000
1709298713.574,-40.527,-46.875,-46.387,-33.691,0.000
1709298713.578,-39.551,-36.621,-37.598,-29.297,0.000
1709298713.582,-42.969,-34.180,-34.180,-27.832,0.000
1709298713.586,-44.434,-42.969,-34.668,-41.504,0.000
1709298713.590,-41.504,-46.387,-38.086,-44.922,0.000
1709298713.594,-40.039,-47.852,-39.062,-41.992,0.000
1709298713.598,-38.574,-39.062,-32.227,-40.527,0.000
1709298713.602,-44.922,-37.109,-35.645,-41.016,0.000
1709298713.606,-41.504,-43.457,-41.992,-34.668,0.000
1709298713.609,-38.574,-46.875,-38.574,-26.367,0.000
1709298713.613,-41.992,-44.434,-37.598,-21.973,0.000
1709298713.617,-35.645,-44.434,-38.086,-27.832,0.000
1709298713.621,-29.785,-52.734,-37.598,-35.645,0.000
1709298713.625,-23.438,-50.781,-28.809,-20.020,0.000
1709298713.629,-28.809,-41.992,-29.297,-7.812,0.000
1709298713.633,-29.785,-44.922,-35.156,-19.531,0.000
1709298713.637,-29.785,-50.781,-33.691,-25.879,0.000
1709298713.641,-39.551,-42.480,-33.691,-26.367,0.000
1709298713.645,-39.551,-34.180,-29.785,-27.832,0.000
1709298713.649,-31.738,-36.621,-30.273,-20.508,0.000
1709298713.652,-27.344,-39.062,-33.203,-20.020,0.000
1709298713.656,-36.133,-42.480,-36.621,-33.691,0.000
1709298713.660,-36.621,-41.504,-38.574,-39.551,0.000
1709298713.664,-39.551,-42.969,-41.016,-47.852,0.000
1709298713.668,-48.340,-41.016,-48.340,-40.527,0.000
1709298713.672,-38.086,-38.086,-50.293,-30.762,0.000
1709298713.676,-37.598,-33.691,-48.340,-48.828,0.000
1709298713.680,-33.203,-30.273,-38.574,-51.270,0.000
1709298713.684,-37.109,-35.645,-33.691,-45.410,0.000
1709298713.688,-48.828,-37.598,-41.504,-43.945,0.000
1709298713.692,-42.480,-36.133,-42.969,-41.016,0.000
1709298713.695,-36.133,-34.180,-44.434,-40.527,0.000
1709298713.699,-38.086,-33.203,-47.852,-45.410,0.000
1709298713.703,-37.598,-33.691,-41.504,-44.922,0.000
1709298713.707,-30.273,-35.156,-33.691,-27.344,0.000
1709298713.711,-21.484,-36.621,-28.809,-9.277,0.000
1709298713.715,-20.996,-40.527,-23.438,-0.977,0.000
1709298713.719,-31.738,-47.363,-29.297,-14.648,0.000
1709298713.723,-36.621,-42.969,-31.250,-25.879,0.000
1709298713.727,-35.645,-43.457,-22.949,-16.602,0.000
1709298713.731,-40.527,-45.898,-25.391,-7.324,0.000
1709298713.734,-41.992,-43.945,-20.996,-1.953,0.000
1709298713.738,-29.297,-44.922,-20.020,-8.789,0.000
1709298713.742,-35.645,-40.527,-27.832,-12.207,0.000
1709298713.746,-45.898,-33.203,-24.902,-9.277,0.000
1709298713.750,-36.621,-28.320,-24.414,-14.648,0.000
1709298713.754,-34.180,-30.273,-29.297,-24.414,0.000
1709298713.758,-43.457,-29.785,-36.133,-30.762,0.000
1709298713.762,-46.875,-24.414,-41.504,-36.621,0.000
1709298713.766,-50.293,-21.484,-39.551,-57.617,0.000
1709298713.770,-45.898,-24.902,-35.645,-49.316,0.000
1709298713.774,-45.410,-32.715,-44.434,-40.527,0.000
1709298713.777,-34.180,-23.926,-40.527,-43.457,0.000
1709298713.781,-29.297,-25.879,-41.504,-45.410,0.000
1709298713.785,-46.875,-34.180,-49.805,-52.246,0.000
1709298713.789,-39.062,-25.391,-43.945,-37.109,0.000
1709298713.793,-30.273,-29.785,-42.969,-27.832,0.000
1709298713.797,-27.344,-50.293,-43.945,-40.527,0.000
1709298713.801,-35.645,-56.641,-42.480,-48.828,0.000
1709298713.805,-44.922,-40.527,-39.551,-44.434,0.000
1709298713.809,-38.086,-28.809,-35.156,-30.273,0.000
1709298713.813,-25.879,-41.992,-37.598,-21.973,0.000
1709298713.816,-24.902,-61.523,-37.109,-34.668,0.000
1709298713.820,-37.598,-53.711,-29.785,-46.875,0.000
1709298713.824,-49.805,-29.297,-33.691,-57.129,0.000
1709298713.828,-56.152,-27.344,-36.133,-48.828,0.000
1709298713.832,-47.363,-33.691,-33.203,-29.785,0.000
1709298713.836,-42.969,-27.832,-30.273,-34.668,0.000
1709298713.840,-50.293,-33.203,-30.273,-38.574,0.000
1709298713.844,-60.059,-39.062,-30.762,-39.551,0.000
1709298713.848,-62.500,-31.738,-31.250,-41.016,0.000
1709298713.852,-58.594,-42.480,-38.086,-35.156,0.000
1709298713.856,-60.547,-49.316,-42.480,-39.551,0.000
1709298713.859,-69.336,-36.133,-41.016,-43.945,0.000
1709298713.863,-73.242,-37.109,-40.039,-39.551,0.000
1709298713.867,-68.359,-39.551,-37.598,-41.504,0.000
1709298713.871,-62.500,-40.527,-39.062,-46.875,0.000
1709298713.875,-53.711,-38.574,-40.039,-44.434,0.000
1709298713.879,-49.805,-26.855,-37.109,-41.504,0.000
1709298713.883,-48.828,-25.391,-39.062,-45.898,0.000
1709298713.887,-43.945,-29.297,-37.109,-50.781,0.000
1709298713.891,-35.156,-23.926,-34.668,-43.945,0.000
1709298713.895,-31.738,-18.555,-37.109,-42.480,0.000
1709298713.899,-45.410,-16.113,-40.527,-59.570,0.000
1709298713.902,-52.734,-16.113,-41.992,-65.430,0.000
1709298713.906,-47.363,-11.719,-37.598,-51.758,0.000
1709298713.910,-50.293,-11.719,-40.527,-42.969,0.000
1709298713.914,-50.781,-23.438,-47.852,-56.641,0.000
1709298713.918,-45.410,-21.973,-39.062,-61.035,0.000
1709298713.922,-49.805,-22.949,-37.598,-57.129,0.000
1709298713.926,-56.641,-35.156,-43.457,-49.805,0.000
1709298713.930,-49.805,-29.297,-36.621,-36.621,0.000
1709298713.934,-39.062,-22.949,-37.109,-40.039,0.000
1709298713.938,-38.086,-22.949,-48.340,-47.852,0.000
1709298713.941,-36.621,-18.066,-45.410,-44.434,0.000
1709298713.945,-36.621,-18.555,-41.992,-44.434,0.000
1709298713.949,-38.574,-18.555,-43.457,-41.504,0.000
1709298713.953,-33.203,-20.996,-41.016,-28.320,0.000
1709298713.957,-30.762,-22.949,-41.016,-23.926,0.000
1709298713.961,-31.250,-18.066,-41.992,-42.969,0.000
1709298713.965,-34.668,-18.066,-38.086,-48.828,0.000
1709298713.969,-38.574,-20.508,-39.551,-37.598,0.000
1709298713.973,-32.715,-20.508,-39.551,-38.086,0.000
1709298713.977,-29.785,-22.949,-38.574,-45.410,0.000
1709298713.981,-36.133,-31.250,-39.062,-52.734,0.000
1709298713.984,-46.387,-53.223,-28.809,-42.480,0.000
1709298713.988,-47.852,-52.246,-24.414,-28.809,0.000
1709298713.992,-45.898,-32.227,-34.180,-36.133,0.000
1709298713.996,-44.434,-31.738,-35.645,-46.875,0.000
1709298714.000,-41.992,-32.715,-30.273,-36.621,0.000
1709298714.004,-37.598,-32.715,-30.273,-30.762,0.000
1709298714.008,-30.762,-35.156,-31.250,-36.133,0.000
1709298714.012,-31.738,-45.410,-35.156,-37.598,0.000
1709298714.016,-27.344,-42.969,-33.691,-35.156,0.000
1709298714.020,-30.762,-37.109,-35.645,-38.574,0.000
1709298714.024,-42.480,-43.945,-41.992,-46.387,0.000
1709298714.027,-38.086,-45.898,-39.551,-39.551,0.000
1709298714.031,-28.809,-34.668,-35.645,-31.738,0.000
1709298714.035,-32.715,-26.855,-40.527,-40.039,0.000
1709298714.039,-41.504,-33.203,-47.363,-55.176,0.000
1709298714.043,-40.527,-34.668,-46.387,-53.223,0.000
1709298714.047,-39.551,-38.086,-50.781,-48.340,0.000
1709298714.051,-35.645,-40.527,-52.734,-38.574,0.000
1709298714.055,-32.227,-33.691,-53.223,-36.621,0.000
1709298714.059,-36.133,-31.250,-50.293,-35.156,0.000
1709298714.063,-42.969,-33.203,-46.875,-37.598,0.000
1709298714.066,-44.922,-32.227,-51.270,-48.340,0.000
1709298714.070,-39.551,-37.109,-48.828,-43.945,0.000
1709298714.074,-39.062,-30.273,-49.805,-35.645,0.000
1709298714.078,-49.316,-25.879,-51.270,-45.410,0.000
1709298714.082,-55.664,-32.227,-47.852,-55.176,0.000
1709298714.086,-53.223,-30.762,-50.781,-44.434,0.000
1709298714.090,-50.293,-29.297,-49.805,-29.297,0.000
1709298714.094,-44.434,-27.344,-50.781,-34.668,0.000
1709298714.098,-32.227,-25.879,-51.270,-52.246,0.000
1709298714.102,-32.227,-19.531,-43.945,-52.246,0.000
1709298714.106,-42.480,-24.902,-41.016,-47.363,0.000
1709298714.109,-49.805,-28.320,-47.852,-44.434,0.000
1709298714.113,-46.875,-20.020,-49.805,-45.410,0.000
1709298714.117,-47.363,-16.113,-47.363,-52.246,0.000
1709298714.121,-54.688,-21.484,-49.805,-52.734,0.000
1709298714.125,-52.734,-28.809,-48.828,-52.246,0.000
1709298714.129,-46.387,-34.668,-43.457,-44.434,0.000
1709298714.133,-37.598,-32.715,-41.504,-31.738,0.000
1709298714.137,-23.926,-27.832,-40.527,-33.203,0.000
1709298714.141,-27.832,-28.320,-42.969,-47.363,0.000
1709298714.145,-36.621,-28.809,-40.039,-37.109,0.000
1709298714.148,-33.203,-32.715,-38.086,-24.414,0.000
1709298714.152,-35.156,-21.484,-36.621,-22.461,0.000
1709298714.156,-32.715,-18.555,-29.297,-27.344,0.000
1709298714.160,-30.273,-30.762,-30.762,-31.250,0.000
1709298714.164,-42.480,-37.109,-34.180,-35.645,0.000
1709298714.168,-45.410,-27.344,-36.133,-45.410,0.000
1709298714.172,-41.504,-21.973,-40.039,-39.062,0.000
1709298714.176,-47.852,-20.996,-40.527,-32.715,0.000
1709298714.180,-46.387,-21.973,-41.504,-41.016,0.000
1709298714.184,-42.480,-18.555,-41.992,-46.875,0.000
1709298714.188,-39.551,-17.090,-37.109,-46.387,0.000
1709298714.191,-39.551,-25.391,-38.574,-47.363,0.000
1709298714.195,-41.504,-18.066,-38.086,-44.922,0.000
1709298714.199,-49.805,-18.066,-35.156,-50.293,0.000
1709298714.203,-49.316,-16.113,-37.109,-55.176,0.000
1709298714.207,-46.875,-9.766,-40.039,-49.805,0.000
1709298714.211,-40.039,-18.066,-41.016,-43.457,0.000
1709298714.215,-29.785,-20.996,-41.504,-39.062,0.000
1709298714.219,-27.344,-13.672,-42.480,-38.574,0.000
1709298714.223,-38.086,-15.625,-40.039,-40.039,0.000
1709298714.227,-42.480,-13.672,-35.156,-27.344,0.000
1709298714.231,-32.715,-18.555,-36.621,-25.879,0.000
1709298714.234,-40.527,-32.227,-45.410,-44.922,0.000
1709298714.238,-44.434,-27.832,-42.480,-33.203,0.000
1709298714.242,-39.551,-24.902,-34.668,-28.320,0.000
1709298714.246,-47.852,-19.531,-38.086,-53.223,0.000
1709298714.250,-46.387,-15.625,-37.598,-52.734,0.000
1709298714.254,-34.180,-20.996,-36.621,-42.480,0.000
1709298714.258,-33.691,-28.320,-36.133,-40.039,0.000
1709298714.262,-34.180,-25.879,-36.133,-42.969,0.000
1709298714.266,-32.715,-19.531,-38.574,-37.109,0.000
1709298714.270,-22.461,-27.832,-36.621,-16.113,0.000
1709298714.273,-23.926,-28.320,-39.062,-20.508,0.000
1709298714.277,-35.645,-5.371,-44.922,-31.250,0.000
1709298714.281,-30.762,4.395,-47.852,-30.273,0.000
1709298714.285,-32.715,-13.672,-48.340,-25.879,0.000
1709298714.289,-33.691,-18.555,-42.480,-12.207,0.000
1709298714.293,-35.645,-14.160,-44.922,-13.672,0.000
1709298714.297,-33.203,-20.508,-46.875,-26.367,0.000
1709298714.301,-27.832,-23.926,-39.551,-32.715,0.000
1709298714.305,-34.668,-30.273,-37.598,-30.273,0.000
1709298714.309,-28.320,-39.062,-36.133,-24.902,0.000
1709298714.313,-29.297,-39.551,-35.645,-24.414,0.000
1709298714.316,-42.480,-28.809,-38.086,-35.645,0.000
1709298714.320,-37.109,-17.090,-39.062,-36.133,0.000
1709298714.324,-43.945,-20.996,-39.551,-33.691,0.000
1709298714.328,-42.969,-22.461,-40.527,-31.738,0.000
1709298714.332,-34.668,-14.160,-44.922,-28.809,0.000
1709298714.336,-37.109,-15.137,-47.363,-37.109,0.000
1709298714.340,-36.621,-25.391,-46.387,-39.062,0.000
1709298714.344,-36.621,-27.832,-44.434,-34.668,0.000
1709298714.348,-39.062,-26.855,-48.828,-34.180,0.000
1709298714.352,-30.762,-25.879,-51.758,-34.180,0.000
1709298714.356,-29.785,-22.949,-47.363,-31.250,0.000
1709298714.359,-37.598,-22.949,-46.875,-41.504,0.000
1709298714.363,-42.969,-23.926,-47.852,-42.480,0.000
1709298714.367,-39.551,-22.949,-48.340,-30.273,0.000
1709298714.371,-38.574,-28.809,-50.293,-28.809,0.000
1709298714.375,-35.645,-36.621,-43.457,-10.742,0.000
1709298714.379,-25.879,-33.203,-41.016,-17.090,0.000
1709298714.383,-37.109,-22.461,-40.039,-50.781,0.000
1709298714.387,-47.363,-20.508,-34.180,-47.852,0.000
1709298714.391,-44.434,-24.902,-35.645,-36.133,0.000
1709298714.395,0.000,-27.832,-36.133,0.000,0.000
1709298714.398,0.000,-28.320,-31.738,0.000,0.000
1709298714.402,0.000,-22.461,-33.691,0.000,0.000
1709298714.406,0.000,-21.484,-33.691,0.000,0.000
1709298714.410,0.000,-24.414,-28.809,0.000,0.000
1709298714.414,0.000,-25.879,-28.809,0.000,0.000
1709298714.418,0.000,-29.785,-30.762,0.000,0.000
1709298714.422,0.000,-35.156,-37.598,0.000,0.000
1709298714.426,0.000,-29.297,-45.898,0.000,0.000
1709298714.430,0.000,-31.250,-46.875,0.000,0.000
1709298714.434,0.000,-40.039,-38.086,0.000,0.000
1709298714.438,0.000,-41.504,-38.574,0.000,0.000
1709298714.441,-40.527,-39.551,-49.805,-51.758,0.000
1709298714.445,-43.457,-31.250,-43.945,-40.039,0.000
1709298714.449,-37.109,-32.715,-37.598,-20.020,0.000
1709298714.453,-40.527,-31.738,-41.016,-25.391,0.000
1709298714.457,-40.527,-35.156,-44.922,-38.086,0.000
1709298714.461,-42.480,-38.086,-43.945,-53.711,0.000
1709298714.465,-41.504,-30.273,-36.621,-45.410,0.000
1709298714.469,-29.297,-28.809,-35.645,-27.344,0.000
1709298714.473,-25.879,-19.531,-39.551,-28.320,0.000
1709298714.477,-28.320,-19.531,-41.016,-31.250,0.000
1709298714.480,-38.574,-24.902,-39.062,-43.457,0.000
1709298714.484,-41.016,-24.414,-41.016,-36.133,0.000
1709298714.488,0.000,-39.551,-49.805,-13.184,0.000
1709298714.492,0.000,-35.645,-44.434,-21.973,0.000
1709298714.496,0.000,-26.855,-32.227,-45.410,0.000
1709298714.500,0.000,-35.645,-28.320,-50.781,0.000
1709298714.504,0.000,-36.621,-29.297,-44.922,0.000
1709298714.508,0.000,-37.598,-27.832,-31.250,0.000
1709298714.512,0.000,-53.223,-25.879,-11.230,0.000
1709298714.516,0.000,-54.688,-26.855,-13.672,0.000
1709298714.520,0.000,-36.133,-30.273,-29.297,0.000
1709298714.523,0.000,-28.809,-35.156,-33.203,0.000
1709298714.527,0.000,-41.992,-31.738,-23.438,0.000
1709298714.531,0.000,-51.758,-29.297,-20.508,0.000
1709298714.535,-35.156,-36.621,-32.715,-25.391,0.000
1709298714.539,-48.340,-37.109,-34.180,-37.109,0.000
1709298714.543,-51.270,-37.598,-33.203,-48.828,0.000
1709298714.547,-53.711,-34.668,-31.250,-41.992,0.000
1709298714.551,-50.293,-38.574,-34.668,-23.438,0.000
1709298714.555,-44.434,-38.574,-39.062,-28.320,0.000
1709298714.559,-47.852,-39.551,-36.133,-45.410,0.000
1709298714.563,-49.316,-48.340,-40.527,-57.129,0.000
1709298714.566,-51.270,-51.758,-37.598,-51.270,0.000
1709298714.570,-42.480,-43.945,-25.879,-25.391,0.000
1709298714.574,-39.551,-48.340,-40.527,-26.367,0.000
1709298714.578,-49.316,-54.688,-42.969,-43.457,0.000
1709298714.582,-51.758,-46.387,-32.715,-52.734,0.000
1709298714.586,-48.340,-45.410,-31.250,-54.199,0.000
1709298714.590,-46.875,-48.340,-32.715,-39.062,0.000
1709298714.594,-35.156,-56.641,-37.109,-23.926,0.000
1709298714.598,-42.480,-52.734,-40.039,-34.668,0.000
1709298714.602,-55.664,-31.250,-38.086,-52.246,0.000
1709298714.606,-53.711,-24.902,-33.691,-53.223,0.000
1709298714.609,-48.340,-29.297,-31.250,-40.039,0.000
1709298714.613,-43.457,-36.621,-32.227,-26.367,0.000
1709298714.617,-44.434,-43.945,-32.227,-24.414,0.000
1709298714.621,-41.992,-33.691,-28.320,-25.879,0.000
1709298714.625,-42.480,-31.738,-24.902,-28.320,0.000
1709298714.629,-41.016,-45.898,-26.367,-16.602,0.000
1709298714.633,-41.016,-38.574,-27.344,-6.836,0.000
1709298714.637,-37.598,-28.320,-26.855,-19.043,0.000
1709298714.641,-31.738,-30.762,-21.973,-29.785,0.000
1709298714.645,-35.645,-30.762,-23.926,-34.180,0.000
1709298714.648,-33.691,-29.785,-34.180,-26.367,0.000
1709298714.652,-32.227,-33.691,-30.273,-18.555,0.000
1709298714.656,-35.645,-30.762,-33.203,-23.438,0.000
1709298714.660,-37.598,-34.668,-44.922,-31.738,0.000
1709298714.664,-44.434,-46.875,-39.551,-32.227,0.000
1709298714.668,-33.203,-37.109,-38.086,-34.180,0.000
1709298714.672,-34.180,-30.762,-44.434,-34.668,0.000
1709298714.676,-43.945,-31.738,-41.504,-23.926,0.000
1709298714.680,-38.086,-24.902,-38.086,-35.156,0.000
1709298714.684,-38.574,-23.438,-41.016,-37.109,0.000
1709298714.688,-40.527,-28.320,-43.457,-33.691,0.000
1709298714.691,-33.691,-33.691,-42.480,-44.434,0.000
1709298714.695,-25.879,-32.227,-41.016,-40.527,0.000
1709298714.699,-24.902,-25.879,-40.527,-45.898,0.000
1709298714.703,-29.785,-33.203,-37.598,-49.805,0.000
1709298714.707,-32.227,-45.410,-35.645,-40.039,0.000
1709298714.711,-39.062,-41.016,-39.062,-42.480,0.000
1709298714.715,-45.898,-37.109,-38.574,-51.758,0.000
1709298714.719,-38.086,-41.504,-37.109,-49.805,0.000
1709298714.723,-37.598,-48.828,-39.062,-48.828,0.000
1709298714.727,-34.180,-40.527,-37.598,-43.457,0.000
1709298714.731,-32.227,-28.320,-35.156,-32.715,0.000
1709298714.734,-26.367,-37.109,-32.227,-23.926,0.000
1709298714.738,-14.160,-48.340,-31.738,-16.602,0.000
1709298714.742,-15.137,-28.320,-30.273,-18.555,0.000
1709298714.746,-19.531,-14.160,-30.762,-20.020,0.000
1709298714.750,-16.602,-15.137,-39.551,-16.602,0.000
1709298714.754,-14.160,-21.973,-43.945,-16.113,0.000
1709298714.758,-11.719,-31.738,-39.551,-16.602,0.000
1709298714.762,-11.230,-25.879,-36.133,-18.066,0.000
1709298714.766,-15.625,-17.578,-31.250,-4.883,0.000
1709298714.770,-14.160,-13.672,-32.227,1.465,0.000
1709298714.773,-11.719,-17.090,-37.598,-3.418,0.000
1709298714.777,-17.090,-26.855,-38.574,-3.418,0.000
1709298714.781,-24.902,-28.320,-37.109,-20.020,0.000
1709298714.785,-18.555,-20.996,-31.738,-17.090,0.000
1709298714.789,-20.996,-22.949,-28.809,-6.836,0.000
1709298714.793,-27.832,-28.320,-28.809,-0.977,0.000
1709298714.797,-20.020,-24.414,-32.227,-12.695,0.000
1709298714.801,-16.113,-21.484,-36.133,-23.926,0.000
1709298714.805,-28.809,-20.020,-31.738,-38.086,0.000
1709298714.809,-38.574,-20.996,-30.762,-39.551,0.000
1709298714.813,-37.598,-22.461,-38.574,-28.809,0.000
1709298714.816,-37.109,-25.879,-39.551,-40.039,0.000
1709298714.820,-40.039,-24.414,-39.551,-43.457,0.000
1709298714.824,-45.898,-33.203,-41.992,-46.387,0.000
1709298714.828,-47.363,-39.062,-40.527,-40.039,0.000
1709298714.832,-50.781,-32.715,-37.598,-33.691,0.000
1709298714.836,-49.805,-26.367,-36.621,-26.855,0.000
1709298714.840,-48.340,-23.926,-37.598,-19.043,0.000
1709298714.844,-48.340,-29.297,-41.992,-28.809,0.000
1709298714.848,-46.387,-35.156,-37.598,-33.691,0.000
1709298714.852,-41.992,-37.109,-32.227,-22.949,0.000
1709298714.855,-37.598,-28.809,-29.785,-13.672,0.000
1709298714.859,-43.457,-26.367,-27.832,-20.996,0.000
1709298714.863,-53.711,-30.762,-29.297,-31.250,0.000
1709298714.867,-50.781,-30.762,-26.855,-24.414,0.000
1709298714.871,-50.293,-30.273,-29.297,-18.066,0.000
1709298714.875,-53.223,-28.809,-28.320,-13.184,0.000
1709298714.879,-49.316,-41.504,-27.832,-18.066,0.000
1709298714.883,-53.223,-44.922,-31.250,-27.832,0.000
1709298714.887,-59.082,-42.969,-25.391,-21.973,0.000
1709298714.891,-51.758,-50.293,-26.855,-25.879,0.000
1709298714.895,-43.457,-46.875,-29.785,-33.203,0.000
1709298714.898,-42.480,-29.785,-22.949,-37.109,0.000
1709298714.902,-42.969,-13.184,-24.902,-44.434,0.000
1709298714.906,-51.758,-17.578,-37.109,-47.852,0.000
1709298714.910,0.000,-33.691,-36.133,-42.969,0.000
1709298714.914,0.000,-33.203,-33.691,-40.039,0.000
1709298714.918,0.000,-31.250,-43.457,-51.270,0.000
1709298714.922,0.000,-34.180,-44.434,-65.918,0.000
1709298714.926,0.000,-30.273,-37.109,-62.500,0.000
1709298714.930,0.000,-26.855,-37.109,-50.781,0.000
1709298714.934,0.000,-18.555,-39.551,-41.992,0.000
1709298714.938,0.000,-18.066,-39.551,-48.340,0.000
1709298714.941,0.000,-26.855,-36.133,-55.176,0.000
1709298714.945,0.000,-31.250,-37.109,-43.945,0.000
1709298714.949,0.000,-28.320,-41.504,-41.016,0.000
1709298714.953,0.000,-36.621,-35.156,-35.645,0.000
1709298714.957,-36.621,-38.086,-31.738,-30.273,0.000
1709298714.961,-48.340,-30.273,-40.039,-42.480,0.000
1709298714.965,-55.176,-27.832,-40.039,-50.781,0.000
1709298714.969,-50.293,-31.738,-38.086,-40.039,0.000
1709298714.973,-32.715,-30.762,-36.621,-22.461,0.000
1709298714.977,-28.809,-28.320,-36.133,-27.832,0.000
1709298714.980,-37.109,-30.762,-43.457,-47.363,0.000
1709298714.984,-33.203,-29.785,-43.945,-46.387,0.000
1709298714.988,-29.785,-41.504,-39.551,-25.391,0.000
1709298714.992,-27.832,-36.621,-40.039,-12.695,0.000
1709298714.996,-33.691,-22.949,-42.480,-26.367,0.000
1709298715.000,-35.645,-23.438,-41.992,-31.738,0.000
1709298715.004,-40.039,-18.066,-35.645,-26.367,0.000
1709298715.008,-46.387,-20.508,-34.668,-23.926,0.000
1709298715.012,-36.621,-25.879,-38.574,-12.695,0.000
1709298715.016,-33.203,-28.809,-34.180,-12.695,0.000
1709298715.020,-41.504,-32.227,-35.156,-31.738,0.000
1709298715.023,-50.293,-25.879,-35.645,-43.457,0.000
1709298715.027,-49.316,-20.020,-27.832,-29.785,0.000
1709298715.031,-33.691,-24.414,-26.367,-16.602,0.000
1709298715.035,-32.715,-31.738,-26.367,-16.602,0.000
1709298715.039,-41.016,-27.832,-28.809,-20.996,0.000
1709298715.043,-47.363,-26.855,-39.551,-30.273,0.000
1709298715.047,-49.805,-31.738,-44.434,-25.391,0.000
1709298715.051,-43.945,-28.320,-36.133,-16.602,0.000
1709298715.055,-35.645,-35.156,-35.645,-13.672,0.000
1709298715.059,-41.016,-47.363,-36.621,-21.973,0.000
1709298715.063,-55.664,-34.180,-39.551,-37.109,0.000
1709298715.066,-53.711,-18.066,-44.434,-36.133,0.000
1709298715.070,-41.504,-25.391,-37.109,-20.020,0.000
1709298715.074,-41.992,-49.805,-32.715,-27.344,0.000
1709298715.078,-60.059,-39.551,-36.621,-53.223,0.000
1709298715.082,-65.430,-20.996,-43.945,-57.617,0.000
1709298715.086,-56.152,-30.762,-44.434,-50.293,0.000
1709298715.090,-45.898,-50.781,-40.527,-39.062,0.000
1709298715.094,-44.922,-37.598,-42.969,-39.062,0.000
1709298715.098,-45.410,-12.695,-45.898,-46.875,0.000
1709298715.102,-39.062,-20.020,-41.504,-49.805,0.000
1709298715.105,-44.434,-34.668,-37.598,-55.664,0.000
1709298715.109,-53.711,-35.645,-41.504,-43.945,0.000
1709298715.113,-48.340,-31.250,-41.016,-29.297,0.000
1709298715.117,-41.992,-35.156,-38.574,-48.828,0.000
1709298715.121,-44.922,-32.227,-42.480,-62.988,0.000
1709298715.125,-54.199,-27.832,-41.992,-51.758,0.000
1709298715.129,-55.664,-27.344,-43.457,-45.410,0.000
1709298715.133,-42.480,-31.250,-44.922,-41.992,0.000
1709298715.137,-27.344,-29.785,-35.645,-29.785,0.000
1709298715.141,-27.344,-19.043,-26.367,-31.250,0.000
1709298715.145,-34.180,-19.531,-24.414,-43.945,0.000
1709298715.148,-38.086,-22.461,-32.715,-38.086,0.000
1709298715.152,-36.133,-28.320,-31.250,-25.391,0.000
1709298715.156,-36.621,-23.926,-25.391,-39.062,0.000
1709298715.160,-39.062,-20.508,-29.785,-49.316,0.000
1709298715.164,-39.551,-29.785,-31.250,-45.898,0.000
1709298715.168,-41.016,-27.344,-28.809,-32.715,0.000
1709298715.172,-37.109,-24.902,-30.762,-13.184,0.000
1709298715.176,-30.273,-20.020,-36.133,-12.207,0.000
1709298715.180,-26.367,-13.184,-40.039,-23.438,0.000
1709298715.184,-26.855,-24.902,-38.086,-29.297,0.000
1709298715.187,-25.879,-20.020,-36.133,-22.461,0.000
1709298715.191,-20.508,-15.625,-33.691,-17.090,0.000
1709298715.195,-21.973,-29.297,-31.250,-24.902,0.000
1709298715.199,-23.926,-22.461,-39.062,-29.297,0.000
1709298715.203,-26.855,-11.719,-43.945,-33.203,0.000
1709298715.207,-38.086,-13.184,-39.551,-35.645,0.000
1709298715.211,-40.039,-16.113,-38.086,-27.832,0.000
1709298715.215,-34.180,-20.020,-36.621,-21.973,0.000
1709298715.219,-34.668,-15.625,-37.109,-30.762,0.000
1709298715.223,-45.410,-16.602,-35.156,-50.293,0.000
1709298715.227,-49.805,-21.973,-31.250,-46.387,0.000
1709298715.230,-41.016,-24.902,-26.855,-23.926,0.000
1709298715.234,-28.809,-27.832,-30.273,-28.809,0.000
1709298715.238,-28.809,-29.297,-38.574,-49.316,0.000
1709298715.242,-41.016,-32.227,-39.062,-58.105,0.000
1709298715.246,-46.387,-31.250,-39.062,-54.199,0.000
1709298715.250,-43.945,-29.297,-34.180,-41.016,0.000
1709298715.254,-45.898,-27.344,-39.062,-41.504,0.000
1709298715.258,-41.016,-24.414,-40.527,-43.945,0.000
1709298715.262,-43.945,-24.414,-33.691,-46.387,0.000
1709298715.266,-54.199,-27.832,-40.039,-56.641,0.000
1709298715.270,-50.781,-21.484,-45.410,-39.062,0.000
1709298715.273,-38.574,-34.668,-38.574,-14.160,0.000
1709298715.277,-27.344,-48.340,-37.598,-20.996,0.000
1709298715.281,-25.391,-31.250,-43.945,-41.992,0.000
1709298715.285,-20.996,-21.484,-40.527,-38.086,0.000
1709298715.289,-19.043,-18.555,-37.109,-29.297,0.000
1709298715.293,-22.461,-20.020,-35.156,-18.066,0.000
1709298715.297,-16.113,-16.602,-36.133,-10.254,0.000
1709298715.301,-29.297,-16.602,-37.109,-29.297,0.000
1709298715.305,-37.109,-19.043,-30.273,-33.203,0.000
1709298715.309,-29.297,-20.996,-33.691,-15.137,0.000
1709298715.312,-34.180,-21.973,-37.598,-9.766,0.000
1709298715.316,-37.598,-17.578,-35.645,-11.230,0.000
1709298715.320,-40.527,-19.043,-35.156,-19.531,0.000
1709298715.324,-42.480,-20.020,-37.598,-28.809,0.000
1709298715.328,-35.156,-21.484,-37.598,-31.250,0.000
1709298715.332,-31.738,-32.715,-35.645,-24.414,0.000
1709298715.336,-36.621,-35.156,-35.645,-23.926,0.000
1709298715.340,-45.898,-29.297,-37.109,-40.039,0.000
1709298715.344,-49.316,-34.180,-35.156,-44.434,0.000
1709298715.348,-53.223,-32.715,-31.738,-45.898,0.000
1709298715.352,-64.453,-14.648,-38.086,-51.270,0.000
1709298715.355,-56.641,-8.301,-34.180,-43.945,0.000
1709298715.359,-50.293,-18.555,-34.180,-48.340,0.000
1709298715.363,-55.176,-32.715,-37.109,-56.152,0.000
1709298715.367,-59.082,-38.574,-40.039,-56.152,0.000
1709298715.371,-54.688,-32.715,-53.711,-64.941,0.000
1709298715.375,-44.434,-28.809,-47.363,-54.199,0.000
1709298715.379,-43.457,-31.738,-41.504,-48.828,0.000
1709298715.383,-47.852,-23.438,-50.293,-56.152,0.000
1709298715.387,-44.434,-20.020,-53.223,-51.758,0.000
1709298715.391,-28.320,-37.109,-41.504,-35.645,0.000
1709298715.395,-27.832,-20.508,-34.668,-27.832,0.000
1709298715.398,-35.156,-5.859,-38.086,-37.109,0.000
1709298715.402,-33.691,-10.742,-35.645,-44.922,0.000
1709298715.406,-27.344,-7.324,-30.273,-35.156,0.000
1709298715.410,-32.227,-18.066,-33.203,-23.438,0.000
1709298715.414,-39.551,-21.973,-40.527,-28.809,0.000
1709298715.418,-31.250,-10.742,-41.016,-41.504,0.000
1709298715.422,-33.203,-14.648,-40.039,-43.945,0.000
1709298715.426,-41.504,-24.414,-39.062,-45.410,0.000
1709298715.430,-36.133,-23.438,-38.086,-40.039,0.000
1709298715.434,-34.668,-24.902,-41.992,-38.086,0.000
1709298715.437,-32.715,-27.832,-40.527,-37.109,0.000
1709298715.441,-32.715,-22.949,-41.016,-38.086,0.000
1709298715.445,-41.016,-18.066,-38.574,-43.945,0.000
1709298715.449,-42.969,-20.508,-41.992,-41.992,0.000
1709298715.453,-36.133,-29.297,-43.945,-29.785,0.000
1709298715.457,-35.645,-22.949,-37.598,-26.367,0.000
1709298715.461,-34.668,-10.254,-34.180,-31.250,0.000
1709298715.465,-40.527,-9.766,-32.227,-38.086,0.000
1709298715.469,-45.410,-23.926,-38.086,-33.203,0.000
1709298715.473,-37.598,-35.156,-40.527,-26.367,0.000
1709298715.477,-36.133,-26.367,-38.086,-42.969,0.000
1709298715.480,-33.691,-23.926,-37.598,-47.852,0.000
1709298715.484,-42.480,-31.738,-38.574,-45.898,0.000
1709298715.488,-55.176,-32.715,-40.527,-37.109,0.000
1709298715.492,-42.969,-28.320,-35.156,-27.344,0.000
1709298715.496,-35.156,-29.785,-30.273,-34.668,0.000
1709298715.500,-34.180,-30.762,-34.180,-24.902,0.000
1709298715.504,-29.785,-26.855,-41.992,-27.832,0.000
1709298715.508,-26.855,-19.043,-39.062,-33.691,0.000
1709298715.512,-19.531,-16.113,-33.203,-13.184,0.000
1709298715.516,-8.301,-17.090,-35.156,-1.465,0.000
1709298715.520,-15.137,-17.090,-36.133,-16.113,0.000
1709298715.523,-25.391,-19.043,-34.180,-30.762,0.000
1709298715.527,-24.902,-20.508,-31.250,-27.344,0.000
1709298715.531,-15.137,-19.531,-31.738,-12.695,0.000
1709298715.535,-16.113,-21.484,-39.062,-12.695,0.000
1709298715.539,-23.438,-14.648,-43.457,-33.691,0.000
1709298715.543,-21.484,-10.742,-43.457,-41.016,0.000
1709298715.547,-28.320,-13.672,-41.016,-22.461,0.000
1709298715.551,-34.668,-20.508,-35.645,-17.090,0.000
1709298715.555,-27.832,-23.926,-43.945,-24.414,0.000
1709298715.559,-27.344,-20.508,-47.852,-23.926,0.000
1709298715.562,-42.480,-24.902,-35.156,-33.203,0.000
1709298715.566,-39.551,-30.273,-33.203,-38.086,0.000
1709298715.570,-34.668,-33.203,-34.668,-24.902,0.000
1709298715.574,-38.086,-37.598,-32.715,-23.438,0.000
1709298715.578,-41.992,-41.992,-30.273,-32.227,0.000
1709298715.582,-42.480,-34.180,-26.367,-33.691,0.000
1709298715.586,-45.410,-31.250,-27.344,-29.785,0.000
1709298715.590,-55.176,-28.320,-33.203,-33.691,0.000
1709298715.594,-57.129,-16.113,-38.086,-35.156,0.000
1709298715.598,-48.340,-18.066,-36.133,-36.133,0.000
1709298715.602,-41.504,-32.227,-27.832,-34.668,0.000
1709298715.605,-49.316,-41.992,-33.203,-25.391,0.000
1709298715.609,-55.176,-20.996,-39.062,-36.133,0.000
1709298715.613,-47.852,-4.395,-31.738,-41.992,0.000
1709298715.617,-46.387,-11.230,-29.297,-37.598,0.000
1709298715.621,-48.828,-20.996,-34.668,-43.945,0.000
1709298715.625,-49.805,-19.531,-31.250,-49.805,0.000
1709298715.629,-47.852,-32.227,-28.320,-39.551,0.000
1709298715.633,-40.527,-34.180,-31.250,-28.809,0.000
1709298715.637,-39.062,-19.043,-32.715,-36.133,0.000
1709298715.641,-39.062,-25.879,-32.227,-44.922,0.000
1709298715.645,-36.133,-31.250,-33.203,-47.852,0.000
1709298715.648,-35.645,-20.996,-39.551,-33.203,0.000
1709298715.652,-37.109,-14.648,-45.898,-18.555,0.000
1709298715.656,-34.668,-17.090,-46.387,-29.785,0.000
1709298715.660,-32.227,-19.531,-44.922,-38.086,0.000
1709298715.664,-34.180,-25.391,-43.457,-33.203,0.000
1709298715.668,-38.574,-32.715,-43.457,-29.297,0.000
1709298715.672,-33.203,-32.227,-45.898,-37.598,0.000
1709298715.676,-36.133,-26.855,-43.945,-31.738,0.000
1709298715.680,-44.922,-28.809,-40.039,-33.203,0.000
1709298715.684,-38.574,-40.527,-40.527,-49.805,0.000
1709298715.687,-48.828,-35.156,-45.410,-53.223,0.000
1709298715.691,-53.223,-22.461,-41.992,-48.828,0.000
1709298715.695,-38.086,-26.367,-32.227,-37.109,0.000
1709298715.699,-19.531,-35.156,-29.297,-20.996,0.000
1709298715.703,-25.879,-44.434,-45.898,-34.180,0.000
1709298715.707,-47.852,-30.762,-50.293,-65.918,0.000
1709298715.711,-54.199,-10.254,-39.062,-63.965,0.000
1709298715.715,-55.176,-14.648,-43.457,-53.223,0.000
1709298715.719,-57.129,-24.902,-45.898,-59.082,0.000
1709298715.723,-61.523,-25.879,-45.410,-68.848,0.000
1709298715.727,-56.152,-28.320,-47.363,-59.082,0.000
1709298715.730,-54.199,-41.016,-42.969,-50.293,0.000
1709298715.734,-54.199,-40.039,-39.551,-53.223,0.000
1709298715.738,-52.246,-39.062,-40.527,-47.852,0.000
1709298715.742,-54.199,-44.434,-44.434,-41.992,0.000
1709298715.746,-49.316,-39.062,-44.922,-55.664,0.000
1709298715.750,-40.527,-44.434,-39.551,-45.410,0.000
1709298715.754,-38.574,-39.551,-36.621,-28.320,0.000
1709298715.758,-36.133,-23.926,-41.016,-31.250,0.000
1709298715.762,-31.738,-28.809,-42.969,-28.320,0.000
1709298715.766,-33.203,-32.227,-43.457,-27.344,0.000
1709298715.770,-33.691,-24.902,-39.062,-28.809,0.000
1709298715.773,-27.344,-18.066,-35.156,-18.066,0.000
1709298715.777,-23.438,-21.484,-38.574,-18.066,0.000
1709298715.781,-22.461,-31.250,-35.645,-26.855,0.000
1709298715.785,-19.531,-19.531,-30.762,-12.695,0.000
1709298715.789,-23.438,-19.043,-32.715,-12.695,0.000
1709298715.793,-28.809,-25.391,-39.062,-32.715,0.000
1709298715.797,-28.809,-20.508,-40.039,-31.738,0.000
1709298715.801,-28.320,-20.996,-34.180,-27.832,0.000
1709298715.805,-35.156,-30.273,-32.715,-31.250,0.000
1709298715.809,-38.574,-33.691,-32.715,-36.621,0.000
1709298715.813,-33.691,-34.180,-29.785,-28.320,0.000
1709298715.816,-34.668,-25.879,-30.762,-15.625,0.000
1709298715.820,-40.527,-29.785,-32.227,-26.855,0.000
1709298715.824,-50.781,-30.762,-33.691,-42.969,0.000
1709298715.828,-46.387,-15.137,-33.203,-29.785,0.000
1709298715.832,-39.062,-16.113,-32.227,-11.719,0.000
1709298715.836,-41.016,-22.949,-37.109,-17.090,0.000
1709298715.840,-37.598,-28.809,-39.551,-25.879,0.000
1709298715.844,-37.598,-32.227,-33.691,-31.738,0.000
1709298715.848,-32.715,-29.785,-28.809,-26.367,0.000
1709298715.852,-30.273,-29.297,-28.320,-19.531,0.000
1709298715.855,-36.621,-21.484,-32.227,-14.648,0.000
1709298715.859,-38.086,-33.203,-39.551,-16.602,0.000
1709298715.863,-32.715,-46.875,-37.598,-26.855,0.000
1709298715.867,-36.133,-27.832,-34.180,-35.156,0.000
1709298715.871,-39.062,-10.742,-39.062,-37.598,0.000
1709298715.875,-37.109,-8.301,-40.527,-26.367,0.000
1709298715.879,-37.109,-15.625,-39.551,-31.738,0.000
1709298715.883,-34.668,-19.531,-40.527,-53.711,0.000
1709298715.887,-35.645,-22.461,-35.156,-51.758,0.000
1709298715.891,-37.109,-26.367,-33.203,-46.875,0.000
1709298715.895,0.000,-24.902,-36.133,-47.363,0.000
1709298715.898,0.000,-18.066,-37.109,-44.922,0.000
1709298715.902,0.000,-19.531,-42.969,-51.758,0.000
1709298715.906,0.000,-24.414,-40.527,-54.688,0.000
1709298715.910,0.000,-23.926,-36.621,-42.480,0.000
1709298715.914,0.000,-21.484,-37.598,-34.668,0.000
1709298715.918,0.000,-31.250,-37.598,-37.598,0.000
1709298715.922,0.000,-29.297,-36.133,-41.992,0.000
1709298715.926,0.000,-22.949,-34.180,-44.922,0.000
1709298715.930,0.000,-32.715,-33.203,-33.691,0.000
1709298715.934,0.000,-36.133,-32.715,-26.367,0.000
1709298715.937,0.000,-29.297,-32.715,-29.785,0.000
1709298715.941,-43.945,-23.438,-35.645,-34.668,0.000
1709298715.945,-50.781,-22.949,-33.691,-27.832,0.000
1709298715.949,-49.805,-25.879,-38.086,-27.344,0.000
1709298715.953,-33.691,-27.832,-38.574,-6.836,0.000
1709298715.957,-20.996,-36.133,-32.715,-0.977,0.000
1709298715.961,-29.785,-38.574,-34.668,-36.133,0.000
1709298715.965,-41.504,-30.762,-40.039,-39.551,0.000
1709298715.969,-32.715,-29.785,-38.574,-27.832,0.000
1709298715.973,-29.785,-31.250,-33.203,-20.020,0.000
1709298715.977,-33.691,-36.133,-36.133,-11.719,0.000
1709298715.980,-36.621,-38.574,-42.480,-16.602,0.000
1709298715.984,-37.598,-34.180,-49.805,-28.809,0.000
1709298715.988,-37.598,-25.879,-43.945,-23.926,0.000
1709298715.992,-44.922,-29.785,-39.062,-15.137,0.000
1709298715.996,-39.062,-37.598,-40.527,-13.184,0.000
1709298716.000,-28.809,-28.320,-42.969,-19.531,0.000
1709298716.004,-40.039,-29.297,-45.410,-41.992,0.000
1709298716.008,-52.246,-41.504,-38.086,-42.969,0.000
1709298716.012,-52.734,-40.527,-38.086,-36.133,0.000
1709298716.016,-48.828,-33.691,-38.574,-44.434,0.000
1709298716.020,-42.480,-36.133,-30.273,-49.805,0.000
1709298716.023,-46.387,-35.645,-33.203,-62.012,0.000
1709298716.027,-47.852,-29.785,-33.691,-56.152,0.000
1709298716.031,-42.969,-36.133,-31.250,-44.922,0.000
1709298716.035,-35.645,-39.062,-32.227,-43.457,0.000
1709298716.039,-36.133,-25.391,-34.180,-40.039,0.000
1709298716.043,-43.945,-17.578,-31.250,-45.410,0.000
1709298716.047,-46.387,-27.344,-29.785,-47.363,0.000
1709298716.051,-41.992,-39.062,-28.320,-40.039,0.000
1709298716.055,-39.551,-29.297,-30.762,-39.551,0.000
1709298716.059,-35.156,-17.090,-28.320,-34.668,0.000
1709298716.062,-39.062,-20.020,-27.344,-33.691,0.000
1709298716.066,-44.922,-30.273,-36.621,-37.598,0.000
1709298716.070,-46.387,-33.203,-35.645,-24.902,0.000
1709298716.074,-42.969,-25.879,-32.715,-13.184,0.000
1709298716.078,-35.156,-31.250,-36.621,-17.090,0.000
1709298716.082,-35.645,-37.598,-40.527,-33.691,0.000
1709298716.086,-37.598,-27.832,-36.133,-29.785,0.000
1709298716.090,-34.668,-25.391,-36.621,-10.254,0.000
1709298716.094,-30.273,-29.297,-37.109,-1.465,0.000
1709298716.098,-29.297,-25.391,-35.645,-10.254,0.000
1709298716.102,-29.785,-19.531,-40.527,-22.949,0.000
1709298716.105,-44.922,-13.672,-41.504,-23.438,0.000
1709298716.109,-49.805,-8.789,-36.133,-23.926,0.000
1709298716.113,-41.016,-19.531,-37.109,-18.555,0.000
1709298716.117,-47.363,-29.785,-39.551,-16.113,0.000
1709298716.121,-46.387,-29.297,-39.062,-34.180,0.000
1709298716.125,-50.293,-29.297,-38.086,-47.852,0.000
1709298716.129,-49.805,-26.367,-33.203,-43.945,0.000
1709298716.133,-38.574,-21.484,-31.250,-38.574,0.000
1709298716.137,-33.203,-22.461,-40.039,-41.992,0.000
1709298716.141,-32.715,-22.949,-39.062,-49.316,0.000
1709298716.145,-34.668,-25.879,-36.133,-50.293,0.000
1709298716.148,-28.809,-32.227,-28.809,-38.086,0.000
1709298716.152,-26.855,-24.414,-26.367,-35.156,0.000
1709298716.156,-30.273,-19.043,-32.227,-36.621,0.000
1709298716.160,-31.250,-30.762,-29.785,-31.250,0.000
1709298716.164,-34.180,-42.480,-32.715,-33.691,0.000
1709298716.168,-32.227,-36.133,-36.133,-45.410,0.000
1709298716.172,-30.273,-28.320,-34.180,-41.016,0.000
1709298716.176,-31.738,-22.461,-37.109,-34.180,0.000
1709298716.180,-33.691,-20.020,-33.691,-36.621,0.000
1709298716.184,-35.645,-22.461,-29.297,-33.203,0.000
1709298716.188,-32.227,-28.809,-31.738,-31.738,0.000
1709298716.191,-27.344,-38.574,-29.297,-25.879,0.000
1709298716.195,-24.414,-41.992,-30.762,-15.137,0.000
1709298716.199,-22.461,-40.527,-32.715,-18.555,0.000
1709298716.203,-23.926,-40.039,-29.297,-21.973,0.000
1709298716.207,-18.555,-35.156,-27.344,-18.066,0.000
1709298716.211,-23.926,-24.902,-27.832,-25.879,0.000
1709298716.215,-30.273,-22.461,-28.809,-22.461,0.000
1709298716.219,-27.344,-28.809,-34.668,-28.320,0.000
1709298716.223,-37.598,-34.668,-38.086,-42.480,0.000
1709298716.227,-40.527,-31.250,-35.156,-41.016,0.000
1709298716.230,-40.039,-30.762,-36.621,-35.156,0.000
1709298716.234,-40.039,-31.250,-37.598,-32.715,0.000
1709298716.238,-42.969,-30.273,-37.598,-39.551,0.000
1709298716.242,-44.922,-38.086,-39.551,-56.641,0.000
1709298716.246,-43.945,-37.598,-40.039,-62.500,0.000
1709298716.250,-51.270,-28.320,-41.016,-51.270,0.000
1709298716.254,-46.875,-23.438,-39.062,-44.434,0.000
1709298716.258,-38.574,-29.785,-32.715,-49.316,0.000
1709298716.262,-46.387,-31.738,-32.715,-54.688,0.000
1709298716.266,-58.594,-28.809,-35.645,-57.617,0.000
1709298716.270,-57.617,-35.156,-32.715,-52.246,0.000
1709298716.273,-51.758,-44.922,-31.738,-48.340,0.000
1709298716.277,-47.852,-50.781,-32.227,-45.410,0.000
1709298716.281,-50.293,-31.738,-25.879,-47.852,0.000
1709298716.285,-57.617,-19.531,-17.090,-50.781,0.000
1709298716.289,-54.199,-29.785,-21.484,-46.387,0.000
1709298716.293,-41.504,-38.086,-22.461,-30.762,0.000
1709298716.297,-46.875,-36.133,-28.809,-25.391,0.000
1709298716.301,-51.270,-25.391,-36.133,-47.852,0.000
1709298716.305,-50.293,-28.809,-33.691,-45.898,0.000
1709298716.309,-48.340,-31.738,-39.062,-36.621,0.000
1709298716.312,-40.039,-35.645,-38.086,-30.273,0.000
1709298716.316,-25.879,-34.180,-35.645,-25.391,0.000
1709298716.320,-17.090,-20.020,-30.273,-29.785,0.000
1709298716.324,-29.297,-27.344,-27.344,-38.086,0.000
1709298716.328,-37.109,-38.086,-30.762,-34.180,0.000
1709298716.332,-33.203,-29.785,-29.785,-14.160,0.000
1709298716.336,-21.973,-28.809,-28.809,-9.766,0.000
1709298716.340,-26.855,-28.809,-27.344,-14.648,0.000
1709298716.344,-42.969,-28.320,-29.785,-18.066,0.000
1709298716.348,-41.504,-27.832,-27.832,-16.113,0.000
1709298716.352,-41.504,-36.621,-24.414,-11.719,0.000
1709298716.355,-43.945,-49.805,-31.738,-9.277,0.000
1709298716.359,-50.293,-43.945,-36.133,-18.066,0.000
1709298716.363,-50.781,-30.273,-35.156,-26.855,0.000
1709298716.367,-42.969,-26.855,-37.109,-29.297,0.000
1709298716.371,-45.410,-33.203,-31.738,-31.250,0.000
1709298716.375,-47.852,-38.574,-26.855,-30.762,0.000
1709298716.379,-46.875,-46.875,-30.273,-44.922,0.000
1709298716.383,-46.875,-52.246,-28.809,-54.199,0.000
1709298716.387,-54.688,-47.852,-31.250,-51.758,0.000
1709298716.391,-57.617,-34.668,-36.133,-49.805,0.000
1709298716.394,-51.758,-33.691,-36.133,-47.363,0.000
1709298716.398,-47.363,-38.086,-34.668,-43.945,0.000
1709298716.402,-55.176,-34.668,-36.133,-53.223,0.000
1709298716.406,-59.082,-33.203,-36.621,-61.523,0.000
1709298716.410,-45.410,-34.180,-31.250,-48.340,0.000
1709298716.414,-38.574,-48.340,-33.691,-36.621,0.000
1709298716.418,-38.574,-51.758,-35.156,-39.551,0.000
1709298716.422,-41.504,-48.828,-33.203,-45.410,0.000
1709298716.426,-46.387,-43.457,-32.715,-42.480,0.000
1709298716.430,-34.668,-38.574,-29.785,-20.020,0.000
1709298716.434,-27.832,-35.645,-26.855,-16.602,0.000
1709298716.437,-27.832,-35.645,-34.180,-35.156,0.000
1709298716.441,-28.809,-41.504,-36.133,-37.598,0.000
1709298716.445,-42.480,-40.527,-34.180,-39.551,0.000
1709298716.449,-41.504,-44.434,-42.480,-37.109,0.000
1709298716.453,-28.320,-43.457,-37.598,-23.438,0.000
1709298716.457,-25.391,-30.273,-29.785,-14.160,0.000
1709298716.461,-25.391,-24.414,-30.762,-23.926,0.000
1709298716.465,-29.785,-30.762,-31.250,-29.785,0.000
1709298716.469,-43.457,-38.086,-34.668,-23.438,0.000
1709298716.473,-36.133,-40.527,-36.621,-13.184,0.000
1709298716.477,-27.832,-46.387,-39.551,-20.508,0.000
1709298716.480,-34.180,-38.574,-37.109,-35.156,0.000
1709298716.484,-36.621,-34.668,-27.344,-31.250,0.000
1709298716.488,-40.039,-41.016,-28.809,-19.531,0.000
1709298716.492,-37.598,-41.992,-34.668,-5.859,0.000
1709298716.496,-31.250,-41.016,-27.832,-12.695,0.000
1709298716.500,-45.410,-32.715,-31.738,-34.668,0.000
1709298716.504,-62.500,-28.809,-38.574,-42.969,0.000
1709298716.508,-56.641,-30.762,-30.762,-36.621,0.000
1709298716.512,-47.852,-33.203,-30.273,-24.902,0.000
1709298716.516,-52.734,-41.504,-32.715,-22.949,0.000
1709298716.520,-53.711,-45.410,-35.156,-32.227,0.000
1709298716.523,-56.641,-43.945,-40.527,-45.898,0.000
1709298716.527,-60.059,-31.738,-44.434,-53.223,0.000
1709298716.531,-54.199,-31.738,-42.480,-49.316,0.000
1709298716.535,-47.852,-40.039,-32.227,-41.504,0.000
1709298716.539,-45.410,-36.621,-30.762,-41.016,0.000
1709298716.543,-38.574,-34.180,-30.762,-41.504,0.000
1709298716.547,-43.945,-38.086,-33.203,-42.969,0.000
1709298716.551,-41.016,-42.969,-30.762,-41.016,0.000
1709298716.555,-30.273,-37.598,-24.902,-32.227,0.000
1709298716.559,-32.715,-29.785,-28.809,-31.250,0.000
1709298716.562,-35.645,-32.227,-30.273,-39.062,0.000
1709298716.566,-38.086,-36.621,-30.762,-40.527,0.000
1709298716.570,-36.133,-31.738,-27.344,-35.645,0.000
1709298716.574,-41.992,-32.227,-27.344,-36.133,0.000
1709298716.578,-41.504,-33.691,-29.785,-35.156,0.000
1709298716.582,-37.109,-35.645,-31.250,-41.992,0.000
1709298716.586,-39.551,-36.621,-30.273,-39.062,0.000
1709298716.590,-30.762,-38.086,-31.738,-22.949,0.000
1709298716.594,-25.879,-43.945,-32.715,-12.207,0.000
1709298716.598,-34.668,-40.039,-31.250,-15.137,0.000
1709298716.602,-35.156,-28.320,-29.785,-32.715,0.000
1709298716.605,-34.180,-17.090,-27.344,-30.273,0.000
1709298716.609,-45.410,-25.879,-31.738,-27.832,0.000
1709298716.613,-44.434,-35.645,-33.203,-21.973,0.000
1709298716.617,-35.645,-32.715,-30.762,-17.090,0.000
1709298716.621,-31.250,-32.227,-27.832,-27.832,0.000
1709298716.625,-33.691,-34.668,-30.273,-35.645,0.000
1709298716.629,-34.668,-40.039,-32.227,-24.902,0.000
1709298716.633,-33.691,-36.621,-36.133,-23.438,0.000
1709298716.637,-31.738,-29.785,-38.086,-29.785,0.000
1709298716.641,-36.621,-29.297,-26.855,-24.414,0.000
