timestamps,TP9,AF7,AF8,TP10,Right AUX
1709291869.604,-35.645,-27.344,-30.762,-32.715,0.000
1709291869.608,-44.434,-25.879,-30.273,-30.273,0.000
1709291869.612,-33.691,-27.344,-30.273,-31.250,0.000
1709291869.616,-25.391,-25.879,-27.344,-27.344,0.000
1709291869.619,-31.250,-31.250,-29.297,-28.320,0.000
1709291869.623,-36.621,-35.645,-31.250,-37.109,0.000
1709291869.627,-37.109,-32.715,-27.832,-26.855,0.000
1709291869.631,-39.062,-25.391,-27.344,-15.137,0.000
1709291869.635,-33.203,-22.461,-35.645,-24.902,0.000
1709291869.639,-22.949,-20.020,-31.250,-22.461,0.000
1709291869.643,-20.996,-17.578,-21.484,-26.855,0.000
1709291869.647,-28.809,-22.461,-28.320,-33.203,0.000
1709291869.650,-32.715,-23.438,-31.250,-27.344,0.000
1709291869.654,-22.461,-22.949,-26.855,-24.414,0.000
1709291869.658,-10.254,-20.020,-26.855,-22.461,0.000
1709291869.662,-13.184,-23.926,-29.297,-27.344,0.000
1709291869.666,-24.414,-30.273,-33.203,-35.156,0.000
1709291869.670,-32.715,-31.250,-33.203,-28.320,0.000
1709291869.674,-32.227,-31.250,-34.668,-15.137,0.000
1709291869.677,-26.367,-29.785,-37.598,-15.625,0.000
1709291869.681,-21.973,-24.902,-32.227,-21.484,0.000
1709291869.685,-24.414,-26.855,-31.250,-26.367,0.000
1709291869.689,-29.785,-29.785,-33.203,-28.809,0.000
1709291869.693,-31.250,-30.762,-32.227,-29.785,0.000
1709291869.696,-28.809,-35.645,-32.227,-35.645,0.000
1709291869.700,-22.949,-33.203,-29.785,-32.715,0.000
1709291869.704,-22.949,-26.367,-21.973,-22.461,0.000
1709291869.708,-37.598,-26.367,-24.902,-24.902,0.000
1709291869.712,-43.457,-30.273,-31.738,-32.715,0.000
1709291869.716,-31.738,-30.762,-30.762,-24.902,0.000
1709291869.720,-26.855,-28.809,-27.832,-25.879,0.000
1709291869.724,-26.855,-22.461,-26.855,-35.645,0.000
1709291869.728,-28.809,-22.949,-31.250,-36.133,0.000
1709291869.731,-31.738,-25.879,-31.250,-29.785,0.000
1709291869.735,-29.785,-23.926,-29.297,-25.391,0.000
1709291869.739,-24.414,-31.738,-33.691,-29.297,0.000
1709291869.744,-29.297,-30.762,0.000,-32.715,0.000
1709291869.748,-39.551,-26.855,0.000,-31.738,0.000
1709291869.752,-36.133,-32.227,0.000,-31.738,0.000
1709291869.756,-23.438,-34.180,0.000,-28.320,0.000
1709291869.759,-21.973,-34.668,0.000,-30.273,0.000
1709291869.763,-21.973,-30.273,0.000,-25.879,0.000
1709291869.767,-25.391,-30.273,0.000,-21.484,0.000
1709291869.771,-34.668,-35.156,0.000,-30.273,0.000
1709291869.775,-35.645,-30.273,0.000,-30.762,0.000
1709291869.779,-28.320,-28.320,0.000,-19.043,0.000
1709291869.783,-23.926,-34.180,0.000,-11.230,0.000
1709291869.787,-25.391,-30.762,0.000,-13.672,0.000
1709291869.791,-26.367,-30.762,-42.969,-20.020,0.000
1709291869.795,-25.879,-34.180,-38.574,-23.438,0.000
1709291869.799,-20.996,-28.809,-29.785,-20.020,0.000
1709291869.803,-19.531,-26.855,-29.297,-17.090,0.000
1709291869.807,-25.391,-28.320,-32.715,-16.113,0.000
1709291869.811,-31.250,-27.344,-35.645,-19.043,0.000
1709291869.815,-29.785,-25.879,-38.574,-19.531,0.000
1709291869.818,-21.484,-24.902,-34.668,-16.602,0.000
1709291869.822,-24.414,-27.832,-31.738,-14.160,0.000
1709291869.826,-26.855,-25.391,-33.691,-15.625,0.000
1709291869.830,-32.227,-23.438,-35.156,-26.855,0.000
1709291869.834,-38.086,-24.902,-36.133,-24.902,0.000
1709291869.838,-21.484,-28.809,-32.227,-20.508,0.000
1709291869.842,-15.137,-31.738,-31.250,-26.855,0.000
1709291869.846,-28.809,-26.855,-36.621,-27.344,0.000
1709291869.850,-36.621,-30.762,-35.156,-27.832,0.000
1709291869.854,-29.297,-35.645,-32.227,-31.738,0.000
1709291869.858,-23.926,-37.598,-35.156,-25.391,0.000
1709291869.862,-21.973,-35.645,-33.691,-22.461,0.000
1709291869.866,-24.414,-30.273,-30.762,-31.738,0.000
1709291869.870,-30.273,-29.297,-26.855,-21.973,0.000
1709291869.873,-33.691,-31.250,-30.273,-19.043,0.000
1709291869.877,-26.855,-31.250,-35.156,-31.738,0.000
1709291869.881,-20.508,-30.273,-35.645,-30.273,0.000
1709291869.885,-27.344,-29.297,0.000,-26.855,0.000
1709291869.889,-34.668,-27.832,0.000,-32.227,0.000
1709291869.893,-32.227,-28.809,0.000,-30.762,0.000
1709291869.897,-26.855,-31.250,0.000,-28.320,0.000
1709291869.901,-21.973,-30.762,0.000,-32.227,0.000
1709291869.905,-29.785,-33.203,0.000,-34.180,0.000
1709291869.909,-38.086,-34.180,0.000,-32.227,0.000
1709291869.913,-34.668,-35.645,0.000,-25.879,0.000
1709291869.917,-27.832,-36.621,0.000,-19.043,0.000
1709291869.920,-13.184,-34.668,0.000,-19.531,0.000
1709291869.924,-8.301,-32.715,0.000,-22.949,0.000
1709291869.928,-18.066,-31.250,0.000,-22.461,0.000
1709291869.932,-31.250,-34.668,-34.180,-20.996,0.000
1709291869.936,-18.066,-35.156,-35.156,-18.066,0.000
1709291869.940,-3.418,-28.320,-39.062,-22.949,0.000
1709291869.944,-7.324,-24.902,-43.945,-24.902,0.000
1709291869.948,-7.324,-27.832,-36.621,-12.695,0.000
1709291869.951,-25.391,-31.738,-26.367,-15.625,0.000
1709291869.955,-35.156,-34.180,-28.809,-28.320,0.000
1709291869.959,-25.879,-31.250,-32.227,-25.879,0.000
1709291869.963,-26.855,-32.715,-33.203,-25.879,0.000
1709291869.967,-41.504,-36.621,-34.668,-41.016,0.000
1709291869.971,-47.363,-40.527,-34.668,-42.969,0.000
1709291869.975,-37.109,-43.457,-36.621,-40.039,0.000
1709291869.979,0.000,-42.480,-39.551,-39.062,0.000
1709291869.982,0.000,-40.039,-36.133,-32.227,0.000
1709291869.986,0.000,-44.434,-31.250,-23.438,0.000
1709291869.990,0.000,-38.574,-30.273,-21.484,0.000
1709291869.994,0.000,-33.203,-31.250,-20.996,0.000
1709291869.998,0.000,-31.738,-29.785,-20.508,0.000
1709291870.002,0.000,-29.785,-27.832,-22.949,0.000
1709291870.006,0.000,-32.227,-31.250,-23.926,0.000
1709291870.010,0.000,-32.715,-37.598,-29.297,0.000
1709291870.014,0.000,-31.738,-38.086,-23.438,0.000
1709291870.018,0.000,-33.203,-39.551,-23.926,0.000
1709291870.022,0.000,-33.203,-40.039,-30.762,0.000
1709291870.025,-23.438,-28.320,-38.086,-29.297,0.000
1709291870.029,-35.156,-29.785,-37.598,-32.227,0.000
1709291870.033,-37.109,-34.180,-36.133,-26.855,0.000
1709291870.037,-30.762,-24.414,-30.273,-24.902,0.000
1709291870.041,-27.344,-26.367,-28.809,-29.297,0.000
1709291870.045,-32.227,-34.180,-33.203,-23.926,0.000
1709291870.049,-42.480,-32.715,-34.180,-8.301,0.000
1709291870.052,-39.551,-28.320,-31.738,-4.883,0.000
1709291870.056,-31.738,-29.785,-33.691,-18.555,0.000
1709291870.060,-27.344,-32.227,-31.250,-23.926,0.000
1709291870.064,-28.320,-28.320,-29.785,-25.879,0.000
1709291870.068,-41.016,-32.227,-30.762,-31.738,0.000
1709291870.071,-42.480,-38.574,-33.203,-29.297,0.000
1709291870.075,-24.902,-33.691,-35.645,-20.508,0.000
1709291870.079,-19.531,-28.320,-36.133,-20.508,0.000
1709291870.083,-20.508,-26.855,-33.691,-24.902,0.000
1709291870.087,-23.926,-20.996,-29.297,-25.391,0.000
1709291870.091,-32.227,-21.484,-28.320,-17.578,0.000
1709291870.095,-30.273,-25.879,-31.250,-14.648,0.000
1709291870.099,-25.879,-27.344,-35.156,-26.367,0.000
1709291870.103,-32.227,-31.250,-37.598,-36.133,0.000
1709291870.106,-38.086,-35.645,-41.016,-34.668,0.000
1709291870.110,-34.668,-33.203,-38.086,-28.320,0.000
1709291870.114,-28.320,-25.391,-34.180,-27.832,0.000
1709291870.119,-21.484,-24.902,-33.691,-29.785,0.000
1709291870.123,-21.973,-31.738,-40.039,-29.785,0.000
1709291870.127,-29.297,-29.785,-39.062,-28.320,0.000
1709291870.131,-31.738,-26.367,-37.598,-25.391,0.000
1709291870.134,-24.414,-31.250,-42.480,-29.297,0.000
1709291870.138,-23.438,-29.297,-43.945,-28.809,0.000
1709291870.142,-22.949,-21.973,-45.410,-28.320,0.000
1709291870.146,-26.855,-25.391,-45.898,-35.156,0.000
1709291870.150,-33.203,-29.785,-45.410,-33.203,0.000
1709291870.154,-30.273,-19.531,-40.039,-15.625,0.000
1709291870.158,-26.855,-19.043,-38.574,-18.066,0.000
1709291870.162,-21.484,-23.438,-38.086,-32.227,0.000
1709291870.166,0.000,-22.949,-30.762,-19.043,0.000
1709291870.170,0.000,-24.902,-28.809,-14.648,0.000
1709291870.174,0.000,-21.484,-29.785,-19.531,0.000
1709291870.178,0.000,-20.996,-26.367,-22.461,0.000
1709291870.182,0.000,-21.484,-24.902,-27.344,0.000
1709291870.186,0.000,-23.438,-26.855,-27.832,0.000
1709291870.190,0.000,-29.297,-26.367,-26.367,0.000
1709291870.193,0.000,-30.273,-31.250,-21.973,0.000
1709291870.197,0.000,-33.203,-34.180,-17.578,0.000
1709291870.201,0.000,-34.180,-33.203,-12.695,0.000
1709291870.205,0.000,-27.832,-38.574,-24.414,0.000
1709291870.209,0.000,-27.344,-35.156,-32.227,0.000
1709291870.213,-21.973,-27.832,-30.273,-34.180,0.000
1709291870.217,-17.578,-25.879,-31.250,-33.203,0.000
1709291870.221,-13.184,-31.250,-27.344,-29.785,0.000
1709291870.225,-23.438,-30.273,-22.949,-25.391,0.000
1709291870.229,-40.039,-29.785,-23.926,-23.926,0.000
1709291870.233,-44.922,-30.762,-25.879,-23.438,0.000
1709291870.237,-42.969,-31.250,-29.297,-22.461,0.000
1709291870.241,-37.109,-35.645,-31.250,-29.297,0.000
1709291870.245,-31.738,-33.203,-27.344,-21.484,0.000
1709291870.248,-37.109,-27.344,-29.297,-15.625,0.000
1709291870.252,-33.691,-28.809,-32.227,-26.367,0.000
1709291870.256,-28.320,-30.273,-31.250,-30.762,0.000
1709291870.260,-23.926,-32.227,-33.691,-25.391,0.000
1709291870.264,-20.508,-37.109,-34.180,-27.832,0.000
1709291870.268,-27.344,-38.574,-36.621,-37.109,0.000
1709291870.272,-34.668,-40.039,-40.527,-31.250,0.000
1709291870.276,-32.227,-38.086,-40.039,-20.996,0.000
1709291870.280,-24.902,-38.086,-39.551,-23.438,0.000
1709291870.284,-28.809,-39.551,-42.969,-30.273,0.000
1709291870.287,-39.062,-37.598,-39.551,-34.180,0.000
1709291870.291,-43.457,-30.762,-33.203,-21.973,0.000
1709291870.295,-35.645,-27.832,-34.668,-18.066,0.000
1709291870.299,-30.273,-29.785,-32.715,-22.461,0.000
1709291870.303,-30.762,-34.668,-31.738,-27.344,0.000
1709291870.307,0.000,-34.180,-33.203,-29.297,0.000
1709291870.311,0.000,-30.273,-34.180,-31.250,0.000
1709291870.315,0.000,-35.156,-36.133,-30.273,0.000
1709291870.319,0.000,-35.156,-40.039,-29.297,0.000
1709291870.322,0.000,-34.668,-38.574,-29.785,0.000
1709291870.326,0.000,-36.133,-32.715,-27.832,0.000
1709291870.330,0.000,-39.062,-38.086,-29.297,0.000
1709291870.334,0.000,-44.922,-37.109,-17.090,0.000
1709291870.338,0.000,-37.598,-32.715,-12.695,0.000
1709291870.342,0.000,-32.715,-35.156,-30.762,0.000
1709291870.346,0.000,-40.039,-34.668,-30.762,0.000
1709291870.350,0.000,-44.434,-36.621,-30.762,0.000
1709291870.353,-33.203,-40.039,-41.504,-33.203,0.000
1709291870.357,-25.391,-38.086,-39.062,-21.973,0.000
1709291870.361,-20.020,-38.574,-34.180,-20.508,0.000
1709291870.365,-30.273,-38.086,-36.133,-26.855,0.000
1709291870.369,-38.086,-39.062,-36.133,-32.227,0.000
1709291870.373,-30.273,-42.969,-35.645,-36.621,0.000
1709291870.377,-24.414,-41.504,-36.133,-25.391,0.000
1709291870.381,-21.484,-36.133,-32.715,-17.578,0.000
1709291870.385,-24.902,-27.832,-33.691,-28.809,0.000
1709291870.388,-33.203,-25.879,-35.645,-27.832,0.000
1709291870.392,-38.574,-31.250,-37.109,-21.484,0.000
1709291870.396,-34.180,-27.832,-37.598,-19.531,0.000
1709291870.400,-29.297,-23.438,-40.039,-30.762,0.000
1709291870.404,-32.715,-25.879,-39.062,-31.250,0.000
1709291870.408,-36.621,-25.879,-37.109,-22.949,0.000
1709291870.411,-36.621,-31.738,-36.621,-28.320,0.000
1709291870.415,-27.832,-28.320,-29.785,-20.508,0.000
1709291870.419,-21.484,-24.902,-28.809,-19.531,0.000
1709291870.423,-20.020,-35.156,-32.715,-21.973,0.000
1709291870.427,-23.926,-34.668,-37.109,-19.043,0.000
1709291870.431,-28.320,-32.227,-42.480,-25.391,0.000
1709291870.435,-22.461,-36.621,-38.574,-25.879,0.000
1709291870.439,-19.043,-34.180,-38.086,-26.855,0.000
1709291870.443,-17.090,-36.133,-37.598,-31.250,0.000
1709291870.446,-22.461,-38.574,-41.992,-33.203,0.000
1709291870.450,-33.203,-37.598,-45.410,-30.762,0.000
1709291870.454,-28.320,-36.133,-40.039,-29.297,0.000
1709291870.458,-21.484,-37.598,-41.992,-32.715,0.000
1709291870.462,-18.066,-37.598,-43.945,-34.180,0.000
1709291870.466,-27.832,-34.180,-42.480,-25.391,0.000
1709291870.469,-42.969,-33.203,-43.457,-26.855,0.000
1709291870.473,-39.551,-30.273,-44.922,-34.180,0.000
1709291870.477,-31.250,-30.762,-40.527,-27.344,0.000
1709291870.481,-25.391,-36.621,-37.109,-25.391,0.000
1709291870.485,-25.879,-33.691,-36.133,-26.855,0.000
1709291870.489,-31.738,-26.855,-33.691,-30.762,0.000
1709291870.494,0.000,-33.203,-35.645,-32.227,0.000
1709291870.497,0.000,-35.645,-33.203,-30.762,0.000
1709291870.501,0.000,-30.273,-29.785,-28.809,0.000
1709291870.505,0.000,-33.203,-31.738,-32.715,0.000
1709291870.509,0.000,-30.762,-31.250,-32.227,0.000
1709291870.513,0.000,-27.832,-28.809,-21.973,0.000
1709291870.517,0.000,-28.320,-29.297,-20.996,0.000
1709291870.521,0.000,-22.461,-31.250,-22.461,0.000
1709291870.525,0.000,-25.391,-31.738,-22.949,0.000
1709291870.529,0.000,-25.879,-31.250,-17.090,0.000
1709291870.533,0.000,-23.926,-32.227,-19.531,0.000
1709291870.537,0.000,-24.414,-30.762,-28.809,0.000
1709291870.541,-17.090,-27.832,-25.879,-27.344,0.000
1709291870.545,-22.949,-29.785,-29.785,-26.855,0.000
1709291870.549,-30.762,-24.902,-32.715,-26.855,0.000
1709291870.553,-30.273,-25.391,-26.367,-14.648,0.000
1709291870.557,-24.414,-27.344,-24.902,-11.719,0.000
1709291870.560,-11.719,-25.879,-22.461,-17.578,0.000
1709291870.564,-17.090,-22.461,-21.973,-19.043,0.000
1709291870.568,-32.227,-28.809,-28.320,-21.973,0.000
1709291870.572,-35.156,-34.180,-29.785,-15.625,0.000
1709291870.576,-23.438,-27.344,-25.391,-3.906,0.000
1709291870.580,-13.672,-25.879,-25.879,-14.160,0.000
1709291870.584,-14.160,-27.832,-26.855,-23.438,0.000
1709291870.588,-25.879,-32.715,-25.391,-19.043,0.000
1709291870.592,-40.527,-36.621,-26.855,-23.926,0.000
1709291870.596,-31.250,-32.715,-25.879,-20.508,0.000
1709291870.600,-20.508,-30.762,-29.785,-17.578,0.000
1709291870.604,-24.414,-35.156,-34.668,-29.785,0.000
1709291870.608,-39.551,-37.598,-36.621,-29.785,0.000
1709291870.611,-38.574,-40.039,-38.574,-27.344,0.000
1709291870.615,-26.367,-38.574,-40.039,-30.273,0.000
1709291870.619,-20.996,-36.621,-41.016,-19.043,0.000
1709291870.623,-19.043,-30.273,-40.039,-19.043,0.000
1709291870.627,-24.414,-28.320,-38.574,-26.855,0.000
1709291870.631,-33.203,-36.133,-35.645,-30.273,0.000
1709291870.635,0.000,-36.621,-33.203,-33.203,0.000
1709291870.639,0.000,-31.738,-31.250,-31.250,0.000
1709291870.643,0.000,-29.785,-29.297,-22.949,0.000
1709291870.647,0.000,-29.297,-25.391,-22.949,0.000
1709291870.650,0.000,-29.785,-27.832,-34.668,0.000
1709291870.654,0.000,-28.320,-33.691,-39.062,0.000
1709291870.658,0.000,-35.645,-30.762,-24.902,0.000
1709291870.662,0.000,-41.992,-31.738,3.418,0.000
1709291870.666,0.000,-25.391,-44.434,9.766,0.000
1709291870.670,0.000,-16.602,-45.898,-24.902,0.000
1709291870.674,0.000,-20.508,-37.598,-32.715,0.000
1709291870.678,0.000,-16.113,-40.039,-29.297,0.000
1709291870.683,-22.949,-13.672,-47.852,-41.992,0.000
1709291870.687,-35.645,-13.672,-51.270,-42.480,0.000
1709291870.691,-43.945,-13.184,-53.711,-48.828,0.000
1709291870.695,-41.504,-13.672,-52.734,-47.363,0.000
1709291870.699,-28.320,-12.695,-57.617,-41.016,0.000
1709291870.703,-28.320,-18.066,-61.523,-60.547,0.000
1709291870.706,-36.133,-18.555,-59.082,-62.500,0.000
1709291870.710,-45.898,-15.625,-62.500,-47.363,0.000
1709291870.714,-42.480,-14.160,-60.547,-55.664,0.000
1709291870.718,-27.344,-9.766,-55.664,-51.270,0.000
1709291870.722,-26.367,-6.836,-56.641,-51.270,0.000
1709291870.726,-36.133,-6.836,-58.594,-68.848,0.000
1709291870.729,-38.086,0.488,-58.594,-67.871,0.000
1709291870.733,-38.574,3.906,-55.176,-55.176,0.000
1709291870.737,-36.133,2.930,-58.105,-41.992,0.000
1709291870.741,-34.668,3.906,-57.129,-46.387,0.000
1709291870.745,-32.227,3.418,-53.223,-54.199,0.000
1709291870.749,-29.785,0.488,-54.199,-47.852,0.000
1709291870.753,-33.691,-0.488,-49.316,-44.434,0.000
1709291870.757,-24.414,1.953,-47.852,-47.363,0.000
1709291870.761,-16.113,3.906,-48.340,-52.246,0.000
1709291870.765,-15.137,4.395,-49.805,-46.387,0.000
1709291870.769,-13.672,1.953,-45.410,-26.855,0.000
1709291870.772,-7.324,4.395,-41.016,-10.742,0.000
1709291870.776,4.395,9.277,-44.434,-13.184,0.000
1709291870.780,7.324,0.977,-45.410,-13.672,0.000
1709291870.784,4.395,-3.906,-42.480,-13.672,0.000
1709291870.787,5.859,-1.465,-40.039,-9.766,0.000
1709291870.791,-3.906,-3.906,-39.062,-11.719,0.000
1709291870.795,-7.812,-6.836,-37.598,-12.207,0.000
1709291870.799,6.348,-8.301,-39.551,0.000,0.000
1709291870.803,4.395,-6.348,-43.457,-4.883,0.000
1709291870.807,-7.324,-9.277,-37.109,-20.508,0.000
1709291870.811,-8.789,-18.555,-34.668,-19.531,0.000
1709291870.815,-15.625,-23.438,-37.109,-18.555,0.000
1709291870.819,-14.648,-20.996,-35.156,-14.160,0.000
1709291870.822,-1.465,-16.602,-32.715,-5.859,0.000
1709291870.826,-10.742,-20.020,-35.156,-5.371,0.000
1709291870.830,-13.672,-19.531,-34.180,-5.859,0.000
1709291870.834,-14.160,-17.578,-32.227,-7.812,0.000
1709291870.838,-16.113,-24.414,-35.645,-11.230,0.000
1709291870.841,0.000,-24.414,-31.738,2.441,0.000
1709291870.845,2.441,-16.602,-26.855,7.812,0.000
1709291870.849,-10.742,-20.508,-33.203,0.000,0.000
1709291870.853,-7.324,-27.344,-33.691,4.395,0.000
1709291870.857,0.000,-25.879,-31.250,10.742,0.000
1709291870.861,-0.977,-22.949,-35.645,10.742,0.000
1709291870.865,-7.812,-24.902,-34.180,-2.441,0.000
1709291870.870,0.000,-28.809,-36.133,-11.719,0.000
1709291870.873,0.000,-22.461,-41.992,-10.742,0.000
1709291870.877,0.000,-20.996,-38.574,-20.020,0.000
1709291870.881,0.000,-21.484,-34.668,-22.461,0.000
1709291870.885,0.000,-24.414,-35.156,-22.949,0.000
1709291870.889,0.000,-27.344,-34.180,-20.020,0.000
1709291870.893,0.000,-27.344,-36.621,-17.090,0.000
1709291870.897,0.000,-27.344,-33.691,-12.207,0.000
1709291870.901,0.000,-25.391,-29.785,7.812,0.000
1709291870.905,0.000,-21.973,-38.574,7.324,0.000
1709291870.909,0.000,-20.996,-42.969,-16.602,0.000
1709291870.913,0.000,-20.508,-39.551,-26.367,0.000
1709291870.918,12.695,-13.672,-37.109,-15.625,0.000
1709291870.922,18.555,-6.348,-42.480,-8.301,0.000
1709291870.926,10.254,-9.766,-49.316,-4.883,0.000
1709291870.930,8.301,-7.324,-49.805,0.977,0.000
1709291870.934,10.742,-2.441,-51.270,1.465,0.000
1709291870.938,27.832,0.977,-53.223,5.371,0.000
1709291870.942,31.738,8.789,-47.363,3.906,0.000
1709291870.946,32.227,9.277,-49.316,2.930,0.000
1709291870.950,26.855,4.883,-59.082,11.230,0.000
1709291870.953,33.203,9.277,-62.500,31.738,0.000
1709291870.957,44.434,10.742,-59.570,24.902,0.000
1709291870.961,29.785,2.441,-51.270,8.789,0.000
1709291870.965,25.391,2.930,-45.898,4.883,0.000
1709291870.969,23.438,9.766,-42.480,2.930,0.000
1709291870.973,19.043,9.766,-49.316,12.695,0.000
1709291870.977,23.438,4.883,-51.270,11.230,0.000
1709291870.981,34.668,2.441,-44.922,3.418,0.000
1709291870.985,24.902,1.465,-42.969,-2.441,0.000
1709291870.989,15.137,-2.930,-44.922,-4.883,0.000
1709291870.992,14.160,-6.348,-47.852,0.000,0.000
1709291870.996,16.113,-2.441,-45.898,12.207,0.000
1709291871.000,20.996,1.953,-43.457,12.695,0.000
1709291871.004,25.391,3.906,-42.480,2.930,0.000
1709291871.008,18.066,-3.418,-43.945,-3.418,0.000
1709291871.013,-0.977,-8.301,-41.016,4.395,0.000
1709291871.017,-0.977,-3.906,-39.551,8.789,0.000
1709291871.021,11.230,-1.953,-37.109,4.883,0.000
1709291871.025,13.184,-7.812,-37.109,3.418,0.000
1709291871.029,8.301,-11.719,-38.574,0.977,0.000
1709291871.033,0.977,-11.230,-38.086,-4.395,0.000
1709291871.037,-2.441,-14.160,-38.086,-4.883,0.000
1709291871.041,3.906,-17.090,-35.645,0.977,0.000
1709291871.045,5.371,-15.625,-37.109,7.324,0.000
1709291871.048,7.324,-11.230,-34.668,0.977,0.000
1709291871.052,1.465,-9.277,-32.715,-2.441,0.000
1709291871.056,-3.906,-11.719,-32.715,0.488,0.000
1709291871.060,-5.371,-12.695,-31.250,-6.348,0.000
1709291871.064,-2.441,-3.418,-35.645,-7.324,0.000
1709291871.068,-2.441,-7.324,-37.109,-3.906,0.000
1709291871.071,-16.113,-18.555,-34.668,-5.371,0.000
1709291871.075,-16.602,-15.137,-35.645,-5.859,0.000
1709291871.079,-12.207,-14.648,-34.180,-2.930,0.000
1709291871.083,-4.883,-14.648,-32.715,-5.859,0.000
1709291871.087,-6.348,-18.555,-30.762,-12.695,0.000
1709291871.091,-18.066,-22.461,-31.738,-21.484,0.000
1709291871.095,-21.973,-23.438,-35.156,-21.973,0.000
1709291871.099,-18.555,-22.949,-37.598,-18.555,0.000
1709291871.103,-11.719,-24.902,-40.527,-16.602,0.000
1709291871.106,-16.113,-24.414,-37.109,-23.926,0.000
1709291871.110,-32.715,-26.367,-44.434,-34.180,0.000
1709291871.114,-36.133,-31.738,-46.387,-28.809,0.000
1709291871.118,-27.344,-27.832,-43.945,-27.832,0.000
1709291871.122,-20.508,-27.832,-47.852,-33.203,0.000
1709291871.125,-18.066,-33.203,-45.898,-27.344,0.000
1709291871.129,-26.855,-33.691,-44.434,-27.344,0.000
1709291871.133,-26.855,-31.250,-43.945,-30.273,0.000
1709291871.137,-21.484,-30.273,-42.969,-32.715,0.000
1709291871.141,-20.508,-32.227,-40.527,-29.785,0.000
1709291871.145,-20.996,-32.227,-38.086,-20.996,0.000
1709291871.149,-24.414,-32.227,-41.992,-26.367,0.000
1709291871.152,-28.809,-28.320,-39.062,-32.227,0.000
1709291871.156,-29.785,-23.438,-34.180,-25.391,0.000
1709291871.160,-22.949,-28.320,-40.527,-28.320,0.000
1709291871.164,-24.902,-31.738,-43.457,-29.785,0.000
1709291871.168,-36.621,-29.297,-38.086,-21.484,0.000
1709291871.172,-34.180,-31.738,-39.551,-22.461,0.000
1709291871.175,-30.273,-31.738,-40.039,-18.555,0.000
1709291871.179,-24.414,-25.879,-36.621,-16.113,0.000
1709291871.183,-20.996,-23.438,-39.551,-30.273,0.000
1709291871.187,-29.785,-25.391,-38.086,-35.156,0.000
1709291871.191,-35.156,-26.855,-32.715,-34.180,0.000
1709291871.195,-39.062,-30.762,-37.598,-35.645,0.000
1709291871.200,-35.645,-33.691,-37.598,-30.762,0.000
1709291871.203,-24.902,-38.574,-33.203,-21.484,0.000
1709291871.207,-27.832,-42.969,-37.598,-22.949,0.000
1709291871.211,-32.715,-37.598,-45.410,-27.832,0.000
1709291871.215,-29.297,-39.062,-46.387,-36.621,0.000
1709291871.219,-24.414,-41.504,-44.922,-29.297,0.000
1709291871.223,-16.113,-38.574,-39.062,-24.414,0.000
1709291871.227,-22.461,-28.320,-33.203,-34.180,0.000
1709291871.231,-35.156,-33.691,-30.762,-39.062,0.000
1709291871.235,-30.273,-40.527,-27.344,-34.668,0.000
1709291871.239,-19.043,-33.203,-25.391,-22.461,0.000
1709291871.243,-18.555,-28.320,-24.902,-15.137,0.000
1709291871.248,-19.531,-30.762,-26.367,-17.090,0.000
1709291871.252,-24.902,-31.250,-29.297,-29.785,0.000
1709291871.256,-38.574,-31.738,-30.273,-30.762,0.000
1709291871.260,-31.250,-31.738,-29.297,-28.320,0.000
1709291871.264,-20.508,-30.273,-30.273,-31.738,0.000
1709291871.268,-30.762,-32.715,-29.785,-37.109,0.000
1709291871.272,-42.480,-31.738,-28.809,-41.016,0.000
1709291871.276,-43.945,-31.738,-28.809,-31.738,0.000
1709291871.280,-32.227,-33.691,-33.691,-26.855,0.000
1709291871.283,-19.043,-31.738,-33.691,-25.879,0.000
1709291871.287,-28.809,-34.180,-23.926,-22.949,0.000
1709291871.291,-43.945,-33.691,-22.461,-24.414,0.000
1709291871.296,-44.922,-34.668,-27.832,-20.996,0.000
1709291871.300,-27.344,-31.738,-29.785,-13.672,0.000
1709291871.304,-18.066,-31.250,-31.250,-18.555,0.000
1709291871.307,-22.949,-36.133,-33.203,-20.996,0.000
1709291871.311,-28.320,-37.109,-37.109,-22.949,0.000
1709291871.315,-31.738,-40.039,-39.062,-15.625,0.000
1709291871.319,-21.484,-39.551,-36.133,-6.836,0.000
1709291871.323,-12.695,-38.086,-35.645,-20.508,0.000
1709291871.327,-13.672,-41.016,-37.598,-27.832,0.000
1709291871.331,-27.832,-37.598,-36.621,-20.996,0.000
1709291871.335,-39.551,-35.645,-35.645,-22.949,0.000
1709291871.339,-35.156,-41.504,-34.180,-24.414,0.000
1709291871.342,-21.973,-37.109,-28.320,-4.883,0.000
1709291871.346,-20.996,-32.715,-28.809,-1.953,0.000
1709291871.350,-28.809,-37.598,-30.762,-18.555,0.000
1709291871.354,-26.367,-34.180,-26.367,-22.461,0.000
1709291871.358,-25.879,-27.832,-28.320,-22.461,0.000
1709291871.362,-20.508,-23.926,-28.809,-13.184,0.000
1709291871.366,-8.301,-25.391,-26.855,-13.672,0.000
1709291871.370,-14.160,-29.297,-30.762,-23.926,0.000
1709291871.374,-25.879,-28.809,-34.180,-22.949,0.000
1709291871.378,-24.414,-27.832,-35.156,-18.066,0.000
1709291871.381,-15.625,-31.250,-35.645,-13.184,0.000
1709291871.385,-18.066,-28.320,-33.203,-12.207,0.000
1709291871.389,-27.344,-32.715,-33.691,-17.090,0.000
1709291871.393,-30.273,-40.527,-43.457,-24.902,0.000
1709291871.397,-31.738,-41.016,-47.363,-29.297,0.000
1709291871.401,-24.902,-41.016,-40.527,-24.414,0.000
1709291871.405,-19.531,-38.086,-40.039,-21.973,0.000
1709291871.408,-21.484,-35.645,-40.527,-21.484,0.000
1709291871.412,-29.785,-40.527,-38.574,-25.391,0.000
1709291871.416,-32.227,-42.969,-40.039,-22.461,0.000
1709291871.420,-24.902,-36.621,-35.156,-9.766,0.000
1709291871.424,-26.855,-37.109,-34.180,-22.949,0.000
1709291871.428,-35.156,-41.016,-37.109,-31.738,0.000
1709291871.432,-37.598,-43.457,-35.156,-31.250,0.000
1709291871.435,-39.062,-44.434,-34.668,-39.062,0.000
1709291871.439,-41.504,-45.410,-37.109,-40.527,0.000
1709291871.443,-31.738,-42.969,-35.645,-33.691,0.000
1709291871.447,-22.461,-39.062,-35.645,-32.715,0.000
1709291871.451,-35.156,-41.504,-33.691,-33.203,0.000
1709291871.455,-39.551,-41.992,-31.738,-26.855,0.000
1709291871.459,-31.250,-44.922,-35.156,-25.879,0.000
1709291871.463,-27.832,-42.480,-36.133,-24.414,0.000
1709291871.466,-20.020,-32.715,-34.180,-26.367,0.000
1709291871.470,-20.508,-30.762,-35.156,-34.668,0.000
1709291871.474,-32.227,-41.504,-36.621,-35.645,0.000
1709291871.478,-25.391,-35.156,-34.180,-21.973,0.000
1709291871.481,-17.090,-29.785,-28.320,-20.996,0.000
1709291871.485,-26.367,-33.203,-29.785,-22.949,0.000
1709291871.489,-28.809,-33.203,-30.762,-29.785,0.000
1709291871.493,-30.273,-36.133,-27.344,-39.551,0.000
1709291871.497,-30.273,-33.691,-30.762,-23.926,0.000
1709291871.501,-18.066,-34.180,-31.738,-21.973,0.000
1709291871.505,-14.648,-35.156,-24.902,-26.367,0.000
1709291871.509,-25.391,-28.809,-20.508,-16.602,0.000
1709291871.513,-29.297,-31.250,-28.809,-29.297,0.000
1709291871.517,-39.551,-37.598,-41.016,-31.250,0.000
1709291871.521,-37.109,-38.086,-39.551,-23.438,0.000
1709291871.524,-26.855,-37.598,-35.156,-26.855,0.000
1709291871.528,0.000,-32.227,-35.156,-24.902,0.000
1709291871.531,0.000,-35.156,-34.668,-20.020,0.000
1709291871.535,0.000,-40.039,-35.645,-21.484,0.000
1709291871.539,0.000,-36.621,-38.574,-26.855,0.000
1709291871.543,0.000,-32.715,-32.715,-26.855,0.000
1709291871.547,0.000,-35.645,-33.691,-23.926,0.000
1709291871.551,0.000,-37.109,-38.086,-18.555,0.000
1709291871.555,0.000,-31.738,-30.762,-15.625,0.000
1709291871.559,0.000,-31.250,-32.227,-23.926,0.000
1709291871.563,0.000,-37.109,-36.621,-32.227,0.000
1709291871.567,0.000,-36.621,-36.133,-37.598,0.000
1709291871.571,0.000,-27.344,-35.156,-29.785,0.000
1709291871.574,-32.715,-24.902,-34.668,-25.391,0.000
1709291871.577,-25.391,-27.832,-32.715,-17.090,0.000
1709291871.581,-22.461,-28.320,-35.645,-13.184,0.000
1709291871.585,-22.461,-24.902,-37.598,-22.949,0.000
1709291871.589,-30.273,-27.344,-34.180,-31.738,0.000
1709291871.593,-32.227,-31.250,-34.180,-28.320,0.000
1709291871.597,-24.414,-29.297,-33.203,-16.602,0.000
1709291871.601,-23.438,-29.785,-30.273,-29.785,0.000
1709291871.605,-23.926,-29.785,-28.809,-34.668,0.000
1709291871.609,-23.438,-24.414,-26.367,-19.043,0.000
1709291871.613,-22.949,-21.484,-29.297,-21.484,0.000
1709291871.616,-19.043,-24.414,-35.645,-30.273,0.000
1709291871.621,-13.184,-26.855,-37.598,-22.949,0.000
1709291871.625,-12.207,-26.367,-33.203,-18.066,0.000
1709291871.629,-24.902,-27.832,-35.156,-15.625,0.000
1709291871.633,-30.273,-29.785,-31.250,-20.508,0.000
1709291871.637,-28.809,-27.832,-26.855,-22.461,0.000
1709291871.640,-16.602,-24.414,-30.273,-14.160,0.000
1709291871.644,-9.277,-25.879,-31.738,-18.555,0.000
1709291871.648,-20.508,-31.738,-31.738,-24.902,0.000
1709291871.652,-32.227,-32.227,-33.691,-27.344,0.000
1709291871.656,-22.949,-28.320,-32.715,-13.672,0.000
1709291871.660,-20.508,-24.902,-32.715,-7.812,0.000
1709291871.664,-21.973,-26.855,-35.645,-24.902,0.000
1709291871.668,-24.902,-26.855,-30.762,-25.391,0.000
1709291871.672,-35.156,-31.250,-30.273,-19.043,0.000
1709291871.676,-40.039,-35.645,-33.691,-26.367,0.000
1709291871.680,-32.227,-38.086,-32.715,-29.297,0.000
1709291871.684,-28.809,-36.621,-34.180,-26.367,0.000
1709291871.688,-27.832,-37.598,-34.180,-25.391,0.000
1709291871.691,-21.973,-32.715,-29.785,-26.855,0.000
1709291871.695,-24.902,-26.855,-24.902,-27.344,0.000
1709291871.699,-21.973,-30.762,-21.973,-16.602,0.000
1709291871.703,-21.973,-31.250,-21.484,-14.160,0.000
1709291871.707,-33.203,-31.738,-28.320,-27.344,0.000
1709291871.711,-39.062,-30.762,-29.785,-32.715,0.000
1709291871.715,-35.645,-28.320,-29.785,-35.645,0.000
1709291871.719,-31.250,-29.297,-34.180,-32.227,0.000
1709291871.723,-24.902,-27.832,-35.156,-33.691,0.000
1709291871.727,-21.973,-27.832,-32.715,-40.039,0.000
1709291871.731,-26.855,-28.809,-31.250,-32.715,0.000
1709291871.734,-36.621,-26.367,-31.738,-29.297,0.000
1709291871.738,-31.250,-27.832,-33.691,-29.297,0.000
1709291871.742,-20.508,-23.438,-33.691,-28.320,0.000
1709291871.746,-27.832,-29.785,-32.227,-20.020,0.000
1709291871.750,-44.434,-39.551,-34.180,-25.391,0.000
1709291871.754,-42.480,-33.691,-32.227,-38.574,0.000
1709291871.758,-34.180,-36.133,-27.344,-31.738,0.000
1709291871.762,-30.273,-34.668,-26.855,-27.344,0.000
1709291871.766,-30.273,-25.391,-27.832,-25.391,0.000
1709291871.769,-38.086,-23.926,-30.273,-28.320,0.000
1709291871.773,-36.621,-21.973,-26.855,-25.879,0.000
1709291871.777,-30.273,-20.996,-24.414,-19.043,0.000
1709291871.781,-23.926,-23.438,-27.832,-19.043,0.000
1709291871.785,-19.531,-29.785,-30.273,-23.926,0.000
1709291871.789,-29.785,-33.691,-29.785,-28.809,0.000
1709291871.793,-36.133,-27.344,-24.902,-21.973,0.000
1709291871.797,-30.273,-22.949,-23.438,-30.762,0.000
1709291871.801,-26.855,-31.250,-28.320,-34.180,0.000
1709291871.805,-32.227,-34.180,-31.250,-31.738,0.000
1709291871.808,-40.527,-29.785,-35.156,-32.227,0.000
1709291871.812,-46.387,-30.273,-36.133,-27.832,0.000
1709291871.816,-43.457,-29.785,-29.785,-32.715,0.000
1709291871.820,-34.180,-26.855,-26.367,-35.645,0.000
1709291871.824,-26.367,-23.926,-28.320,-30.762,0.000
1709291871.828,-25.391,-19.043,-27.344,-26.367,0.000
1709291871.832,-32.715,-20.996,-28.320,-33.203,0.000
1709291871.836,-37.109,-19.531,-32.227,-34.180,0.000
1709291871.839,-38.086,-26.367,-35.645,-31.250,0.000
1709291871.843,-38.086,-33.203,-36.621,-34.180,0.000
1709291871.847,-36.621,-27.344,-36.133,-42.969,0.000
1709291871.851,-42.480,-29.785,-35.645,-38.574,0.000
1709291871.855,-42.480,-29.297,-36.133,-33.691,0.000
1709291871.858,-27.344,-23.926,-33.203,-37.109,0.000
1709291871.862,-22.949,-24.902,-33.691,-34.668,0.000
1709291871.866,-32.227,-26.855,-38.086,-41.504,0.000
1709291871.870,-38.086,-26.367,-38.574,-45.410,0.000
1709291871.874,-39.062,-23.438,-37.109,-38.086,0.000
1709291871.878,-31.738,-24.902,-33.203,-33.203,0.000
1709291871.882,-22.949,-16.602,-33.691,-19.531,0.000
1709291871.886,-20.508,-9.277,-37.109,-17.090,0.000
1709291871.890,-25.391,-17.090,-37.598,-25.879,0.000
1709291871.894,-26.367,-20.996,-32.715,-33.203,0.000
1709291871.898,-22.461,-19.043,-27.832,-22.949,0.000
1709291871.905,-25.879,-18.555,-32.715,-20.020,0.000
1709291871.909,-32.715,-23.926,-32.227,-26.855,0.000
1709291871.913,-36.621,-21.484,-29.785,-25.391,0.000
1709291871.917,-35.645,-17.578,-31.738,-26.367,0.000
1709291871.921,-23.926,-26.367,-34.668,-27.832,0.000
1709291871.925,-17.090,-26.367,-37.598,-32.227,0.000
1709291871.929,-17.578,-20.020,-34.668,-24.414,0.000
1709291871.933,-25.391,-20.508,-33.691,-22.461,0.000
1709291871.936,-25.391,-21.973,-32.715,-25.879,0.000
1709291871.940,-16.602,-24.414,-27.832,-23.438,0.000
1709291871.944,-19.531,-27.344,-30.762,-22.949,0.000
1709291871.948,-20.996,-25.879,-35.156,-19.531,0.000
1709291871.954,-24.414,-28.320,-35.156,-15.625,0.000
1709291871.958,-37.109,-28.320,-33.691,-17.090,0.000
1709291871.962,-32.227,-30.273,-36.621,-21.973,0.000
1709291871.966,-17.578,-31.250,-41.016,-23.926,0.000
1709291871.970,-27.832,-33.203,-38.086,-31.738,0.000
1709291871.974,-40.527,-37.598,-31.738,-27.344,0.000
1709291871.978,-40.527,-36.133,-34.180,-17.090,0.000
1709291871.981,-37.109,-31.250,-38.086,-26.367,0.000
1709291871.985,-29.297,-30.273,-32.227,-30.762,0.000
1709291871.989,-20.508,-29.297,-27.344,-20.508,0.000
1709291871.993,-23.926,-30.273,-28.809,-26.367,0.000
1709291871.997,-23.926,-34.180,-33.203,-28.809,0.000
1709291872.001,0.000,-35.645,-39.062,-24.902,0.000
1709291872.005,0.000,-32.715,-39.062,-31.738,0.000
1709291872.009,0.000,-29.785,-36.621,-31.738,0.000
1709291872.013,0.000,-28.809,-31.250,-23.438,0.000
1709291872.017,0.000,-30.273,-27.344,-15.625,0.000
1709291872.021,0.000,-27.344,-26.367,-11.719,0.000
1709291872.024,0.000,-25.391,-25.391,-16.113,0.000
1709291872.028,0.000,-28.320,-28.320,-18.555,0.000
1709291872.032,0.000,-28.320,-30.762,-17.090,0.000
1709291872.036,0.000,-32.715,-32.715,-5.859,0.000
1709291872.040,0.000,-33.691,-36.133,-5.859,0.000
1709291872.044,0.000,-30.273,-38.574,-11.719,0.000
1709291872.048,-6.348,-24.902,-34.180,-10.254,0.000
1709291872.052,-16.113,-23.926,-31.250,-17.090,0.000
1709291872.055,-24.902,-28.809,-39.062,-22.461,0.000
1709291872.059,-31.250,-29.785,-33.203,-21.484,0.000
1709291872.063,-30.273,-31.738,-27.344,-23.438,0.000
1709291872.067,-26.855,-28.320,-30.273,-25.391,0.000
1709291872.071,-23.438,-29.297,-35.645,-23.438,0.000
1709291872.075,-29.785,-35.156,-41.016,-31.738,0.000
1709291872.079,-35.156,-36.621,-39.551,-36.133,0.000
1709291872.083,-32.715,-35.645,-36.621,-20.508,0.000
1709291872.087,-33.203,-29.297,-32.715,-27.344,0.000
1709291872.091,-28.320,-29.297,-30.762,-34.668,0.000
1709291872.094,-35.645,-32.227,-27.832,-27.344,0.000
1709291872.098,-36.621,-30.273,-32.227,-27.832,0.000
1709291872.102,-29.785,-29.297,-37.109,-36.621,0.000
1709291872.106,-26.367,-29.785,-38.086,-39.551,0.000
1709291872.110,-30.273,-33.203,-41.504,-40.039,0.000
1709291872.114,-42.969,-32.715,-42.969,-33.691,0.000
1709291872.118,-41.504,-26.855,-38.574,-24.414,0.000
1709291872.121,-29.785,-31.250,-38.086,-22.949,0.000
1709291872.125,-27.832,-36.133,-40.039,-20.996,0.000
1709291872.129,-37.598,-32.227,-40.039,-28.809,0.000
1709291872.133,-41.992,-30.762,-41.504,-38.086,0.000
1709291872.137,-38.086,-27.832,-42.480,-28.320,0.000
1709291872.140,-19.043,-25.391,-41.992,-24.902,0.000
1709291872.144,-11.230,-23.926,-44.922,-34.180,0.000
1709291872.148,-19.043,-22.949,-48.828,-33.203,0.000
1709291872.152,-31.250,-20.508,-44.922,-24.902,0.000
1709291872.156,-29.785,-14.160,-36.133,-24.414,0.000
1709291872.160,-17.578,-12.207,-37.598,-18.555,0.000
1709291872.164,-12.207,-14.648,-41.504,-19.531,0.000
1709291872.168,-13.672,-15.625,-40.039,-18.066,0.000
1709291872.172,-25.879,-18.066,-41.504,-13.672,0.000
1709291872.176,-31.738,-15.625,-43.457,-29.785,0.000
1709291872.179,-25.391,-12.207,-38.574,-32.227,0.000
1709291872.183,-16.113,-15.625,-38.574,-29.297,0.000
1709291872.187,-18.555,-17.578,-41.504,-24.902,0.000
1709291872.190,-25.391,-15.625,-39.062,-26.855,0.000
1709291872.194,-28.320,-22.461,-33.691,-30.273,0.000
1709291872.198,-23.438,-26.855,-33.203,-21.484,0.000
1709291872.202,-19.531,-24.902,-35.645,-19.043,0.000
1709291872.206,-25.879,-24.414,-33.691,-24.902,0.000
1709291872.210,-27.344,-20.996,-34.668,-28.320,0.000
1709291872.214,-31.250,-20.996,-39.551,-25.391,0.000
1709291872.218,-32.227,-21.973,-39.062,-25.391,0.000
1709291872.222,-27.344,-20.996,-37.598,-24.414,0.000
1709291872.226,-20.020,-20.508,-35.645,-17.090,0.000
1709291872.230,-23.926,-25.879,-35.156,-31.250,0.000
1709291872.233,-26.367,-30.273,-39.551,-35.156,0.000
1709291872.237,-17.578,-27.832,-43.457,-19.043,0.000
1709291872.241,-17.578,-27.832,-37.109,-20.020,0.000
1709291872.244,-32.227,-33.691,-35.645,-34.180,0.000
1709291872.248,-40.039,-31.738,-35.156,-30.762,0.000
1709291872.252,-38.574,-23.926,-33.203,-26.855,0.000
1709291872.256,-46.875,-26.855,-32.227,-32.227,0.000
1709291872.260,-40.039,-27.344,-35.156,-20.996,0.000
1709291872.264,-28.809,-23.926,-41.504,-23.926,0.000
1709291872.268,-34.668,-25.391,-41.504,-29.785,0.000
1709291872.272,-41.992,-27.344,-39.062,-27.832,0.000
1709291872.276,-41.016,-30.762,-39.551,-27.344,0.000
1709291872.279,-31.738,-33.691,-39.062,-24.902,0.000
1709291872.283,-22.949,-31.738,-34.180,-25.391,0.000
1709291872.287,-19.531,-30.273,-32.715,-23.926,0.000
1709291872.290,-32.227,-33.691,-34.668,-25.879,0.000
1709291872.294,-42.480,-30.273,-37.109,-30.762,0.000
1709291872.298,-41.504,-28.809,-36.133,-32.227,0.000
1709291872.302,-34.180,-31.738,-32.227,-17.578,0.000
1709291872.306,-26.855,-24.414,-32.227,-10.742,0.000
1709291872.310,-34.668,-31.250,-34.668,-21.484,0.000
1709291872.314,-35.156,-37.598,-33.691,-19.043,0.000
1709291872.318,-27.344,-34.180,-33.203,-15.137,0.000
1709291872.322,-23.438,-34.180,-30.273,-21.484,0.000
1709291872.325,-22.949,-33.203,-24.414,-22.461,0.000
1709291872.329,-25.391,-34.180,-27.344,-21.973,0.000
1709291872.332,-28.809,-35.156,-30.273,-24.902,0.000
1709291872.336,-28.320,-35.156,-31.250,-28.320,0.000
1709291872.340,-21.973,-30.762,-29.297,-29.297,0.000
1709291872.344,-18.555,-28.809,-33.203,-18.555,0.000
1709291872.348,-28.809,-32.715,-32.227,-15.625,0.000
1709291872.352,-31.250,-33.203,-29.297,-23.926,0.000
1709291872.356,-28.809,-29.785,-36.133,-24.414,0.000
1709291872.360,-27.832,-31.250,-33.691,-20.996,0.000
1709291872.364,-23.438,-32.227,-27.344,-24.414,0.000
1709291872.368,-32.227,-31.250,-26.855,-24.414,0.000
1709291872.372,-32.227,-31.250,-27.832,-22.461,0.000
1709291872.376,-22.461,-31.250,-25.879,-25.391,0.000
1709291872.380,-14.648,-27.344,-23.926,-18.066,0.000
1709291872.384,-11.719,-26.855,-26.855,-15.137,0.000
1709291872.388,-12.695,-23.926,-25.879,-19.043,0.000
1709291872.391,-20.996,-20.508,-21.973,-12.207,0.000
1709291872.395,-23.926,-26.855,-24.902,-16.602,0.000
1709291872.399,-19.043,-25.391,-31.250,-26.855,0.000
1709291872.403,-6.836,-23.438,-27.832,-17.578,0.000
1709291872.407,-6.836,-26.855,-25.391,-9.277,0.000
1709291872.411,-24.902,-30.273,-30.762,-16.602,0.000
1709291872.415,-34.668,-31.738,-35.645,-19.043,0.000
1709291872.419,-33.691,-28.809,-37.109,-23.438,0.000
1709291872.423,-24.414,-28.809,-35.156,-32.227,0.000
1709291872.427,-21.973,-29.785,-37.109,-27.832,0.000
1709291872.431,-34.180,-27.344,-39.551,-22.461,0.000
1709291872.435,-34.180,-30.273,-42.969,-25.391,0.000
1709291872.439,-28.809,-28.809,-41.016,-29.297,0.000
1709291872.442,-29.785,-30.273,-40.527,-29.297,0.000
1709291872.446,-32.227,-35.156,-42.969,-39.551,0.000
1709291872.450,-33.203,-32.715,-40.039,-29.785,0.000
1709291872.454,-36.621,-32.227,-33.691,-15.625,0.000
1709291872.458,-28.320,-31.250,-31.738,-24.902,0.000
1709291872.462,-16.602,-31.738,-30.762,-21.484,0.000
1709291872.466,-18.555,-31.738,-28.320,-24.902,0.000
1709291872.470,-25.391,-31.738,-34.668,-32.227,0.000
1709291872.474,-29.785,-29.785,-36.133,-24.414,0.000
1709291872.478,-21.973,-22.949,-32.227,-20.508,0.000
1709291872.481,-19.043,-29.785,-35.156,-18.066,0.000
1709291872.485,-31.250,-37.109,-37.598,-20.020,0.000
1709291872.489,-41.992,-34.180,-41.504,-32.227,0.000
1709291872.493,-45.410,-35.156,-42.480,-39.062,0.000
1709291872.497,-43.945,-41.016,-37.598,-25.879,0.000
1709291872.501,-36.621,-41.992,-41.992,-18.555,0.000
1709291872.505,-33.691,-38.574,-41.016,-29.297,0.000
1709291872.509,-36.133,-37.598,-37.598,-29.297,0.000
1709291872.512,-44.434,-40.039,-37.598,-26.367,0.000
1709291872.516,-41.504,-34.180,-35.645,-28.320,0.000
1709291872.520,-29.785,-33.691,-39.062,-30.762,0.000
1709291872.524,-31.250,-35.645,-40.527,-32.227,0.000
1709291872.528,-39.062,-32.715,-41.016,-31.738,0.000
1709291872.532,-49.805,-32.715,-37.109,-30.762,0.000
1709291872.536,-42.480,-32.227,-37.109,-29.297,0.000
1709291872.540,-29.297,-33.203,-37.109,-23.438,0.000
1709291872.544,-27.344,-34.668,-34.180,-13.672,0.000
1709291872.548,-22.461,-32.715,-35.645,-25.879,0.000
1709291872.551,-23.438,-37.598,-36.621,-30.273,0.000
1709291872.555,-30.762,-36.621,-36.133,-24.414,0.000
1709291872.559,-28.320,-33.203,-35.645,-24.902,0.000
1709291872.563,-23.438,-34.180,-36.133,-25.391,0.000
1709291872.567,-27.344,-34.180,-31.738,-30.762,0.000
1709291872.571,-30.762,-38.574,-29.785,-36.621,0.000
1709291872.575,-32.715,-36.133,-28.809,-37.109,0.000
1709291872.578,-37.109,-37.598,-31.250,-38.086,0.000
1709291872.582,-32.227,-41.016,-36.133,-37.598,0.000
1709291872.586,-34.180,-47.363,-34.668,-34.180,0.000
1709291872.590,-44.922,-44.922,-34.180,-37.598,0.000
1709291872.594,-39.551,-34.180,-34.668,-37.109,0.000
1709291872.598,-21.484,-29.785,-34.668,-22.949,0.000
1709291872.602,-17.090,-30.273,-30.762,-22.461,0.000
1709291872.605,0.000,-29.785,-29.785,-31.738,0.000
1709291872.609,0.000,-32.227,-35.156,-36.621,0.000
1709291872.613,0.000,-31.250,-35.156,-28.809,0.000
1709291872.617,0.000,-30.273,-34.668,-27.832,0.000
1709291872.621,0.000,-30.762,-33.691,-32.715,0.000
1709291872.625,0.000,-29.297,-36.133,-33.691,0.000
1709291872.629,0.000,-30.762,-32.227,-29.297,0.000
1709291872.633,0.000,-29.785,-28.809,-16.602,0.000
1709291872.636,0.000,-22.461,-33.203,-21.973,0.000
1709291872.640,0.000,-21.973,-32.227,-26.367,0.000
1709291872.644,0.000,-29.297,-35.645,-24.902,0.000
1709291872.648,0.000,-32.227,-38.086,-32.227,0.000
1709291872.651,-21.973,-28.320,-35.156,-34.668,0.000
1709291872.655,-17.578,-25.391,-34.180,-35.645,0.000
1709291872.659,-13.672,-23.926,-31.738,-27.344,0.000
1709291872.663,-16.113,-27.344,-30.273,-20.020,0.000
1709291872.667,-18.555,-31.738,-34.180,-18.066,0.000
1709291872.671,-24.902,-31.250,-34.180,-24.414,0.000
1709291872.675,-29.297,-27.832,-34.668,-21.484,0.000
1709291872.679,-12.207,-23.438,-34.180,-16.113,0.000
1709291872.683,-1.465,-20.508,-26.855,-17.090,0.000
1709291872.687,-4.883,-24.902,-28.320,-17.578,0.000
1709291872.691,-15.625,-27.344,-29.785,-15.625,0.000
1709291872.694,-20.020,-26.367,-27.832,-11.719,0.000
1709291872.698,-9.277,-30.762,-27.344,-14.160,0.000
1709291872.702,-7.812,-32.227,-33.203,-13.184,0.000
1709291872.706,-15.625,-27.344,-37.109,-16.602,0.000
1709291872.709,-18.066,-20.508,-28.809,-15.137,0.000
1709291872.713,-22.949,-24.414,-30.762,-12.207,0.000
1709291872.717,-19.531,-28.809,-32.227,-16.113,0.000
1709291872.721,-17.578,-23.438,-30.762,-15.137,0.000
1709291872.725,-24.414,-29.297,-29.785,-23.438,0.000
1709291872.729,-31.250,-29.785,-26.367,-32.715,0.000
1709291872.733,-28.809,-19.043,-26.367,-25.391,0.000
1709291872.737,-15.137,-17.578,-26.855,-25.391,0.000
1709291872.741,-8.301,-20.508,-32.715,-29.785,0.000
1709291872.745,-18.066,-26.367,-34.668,-33.691,0.000
1709291872.749,-28.320,-29.297,-35.645,-37.109,0.000
1709291872.753,-31.250,-29.785,-40.039,-40.527,0.000
1709291872.757,-31.738,-35.156,-42.480,-36.621,0.000
1709291872.761,-23.438,-38.574,-46.875,-18.066,0.000
1709291872.765,-20.508,-37.109,-41.016,-10.254,0.000
1709291872.769,-30.762,-40.527,-38.086,-21.484,0.000
1709291872.772,-47.363,-42.480,-46.875,-44.434,0.000
1709291872.776,-52.734,-41.504,-42.480,-51.270,0.000
1709291872.780,-40.527,-41.504,-40.527,-33.203,0.000
1709291872.784,-31.250,-37.598,-46.387,-32.227,0.000
1709291872.788,-33.203,-36.133,-43.457,-40.527,0.000
1709291872.792,-33.203,-38.086,-39.062,-41.504,0.000
1709291872.796,-36.133,-43.457,-42.480,-39.551,0.000
1709291872.800,-39.551,-45.410,-47.363,-42.969,0.000
1709291872.804,-33.691,-44.922,-41.992,-37.109,0.000
1709291872.808,-32.715,-35.645,-31.250,-22.949,0.000
1709291872.812,-42.969,-37.598,-37.109,-27.344,0.000
1709291872.816,-44.434,-41.992,-41.016,-36.133,0.000
1709291872.820,-34.668,-41.016,-37.598,-35.645,0.000
1709291872.824,-31.250,-42.969,-37.598,-19.043,0.000
1709291872.828,-35.156,-37.598,-38.086,-8.301,0.000
1709291872.831,-39.551,-29.785,-36.133,-26.855,0.000
1709291872.835,-37.109,-34.668,-33.203,-34.668,0.000
1709291872.839,-26.855,-37.598,-30.762,-23.926,0.000
1709291872.843,-25.879,-35.156,-29.785,-28.320,0.000
1709291872.847,-32.715,-31.738,-29.785,-29.297,0.000
1709291872.851,-34.180,-30.762,-31.738,-23.438,0.000
1709291872.855,-31.738,-37.109,-38.086,-25.391,0.000
1709291872.859,-33.203,-36.621,-38.574,-23.926,0.000
1709291872.863,-30.273,-37.109,-39.551,-24.902,0.000
1709291872.867,-29.297,-43.457,-40.527,-33.691,0.000
1709291872.871,-40.527,-40.039,-36.621,-25.879,0.000
1709291872.875,-43.457,-37.598,-38.086,-26.367,0.000
1709291872.878,-34.180,-40.039,-39.062,-33.203,0.000
1709291872.882,-33.691,-37.109,-35.645,-32.227,0.000
1709291872.886,-33.691,-34.668,-34.180,-29.785,0.000
1709291872.890,-30.273,-33.691,-34.668,-25.391,0.000
1709291872.894,-30.273,-31.250,-31.250,-28.320,0.000
1709291872.898,-34.180,-30.273,-36.133,-26.367,0.000
1709291872.902,-28.320,-28.809,-35.645,-19.531,0.000
1709291872.906,-26.855,-29.297,-33.691,-23.438,0.000
1709291872.910,-37.598,-38.574,-41.504,-37.598,0.000
1709291872.913,-40.039,-41.504,-40.527,-31.250,0.000
1709291872.917,-26.367,-36.133,-36.133,-23.926,0.000
1709291872.921,-16.602,-34.180,-41.016,-33.203,0.000
1709291872.925,-21.484,-40.527,-48.340,-43.457,0.000
1709291872.929,-34.180,-45.410,-48.340,-45.410,0.000
1709291872.933,-36.621,-40.039,-44.922,-39.551,0.000
1709291872.937,-22.461,-32.715,-42.969,-26.855,0.000
1709291872.941,-15.625,-30.762,-42.969,-20.996,0.000
1709291872.944,-13.672,-33.203,-41.992,-26.367,0.000
1709291872.948,-16.602,-36.133,-40.527,-24.902,0.000
1709291872.952,-25.391,-34.668,-34.180,-17.578,0.000
1709291872.956,-24.902,-31.738,-37.109,-24.414,0.000
1709291872.960,-20.020,-38.086,-41.016,-18.066,0.000
1709291872.964,-31.738,-42.480,-42.480,-13.672,0.000
1709291872.968,-41.016,-39.062,-42.480,-32.715,0.000
1709291872.972,-36.621,-37.598,-36.621,-31.250,0.000
1709291872.976,-30.273,-38.574,-38.574,-29.297,0.000
1709291872.979,-21.484,-36.621,-43.457,-25.391,0.000
1709291872.983,-24.414,-38.086,-42.969,-26.367,0.000
1709291872.987,-33.203,-44.434,-43.457,-30.273,0.000
1709291872.991,-32.715,-41.016,-49.805,-25.879,0.000
1709291872.995,-27.344,-33.691,-44.922,-25.391,0.000
1709291872.999,-16.113,-30.762,-37.598,-20.996,0.000
1709291873.003,-15.625,-28.809,-38.574,-19.531,0.000
1709291873.007,-25.879,-26.367,-42.969,-18.555,0.000
1709291873.010,-27.832,-27.344,-46.387,-10.742,0.000
1709291873.014,-20.996,-27.832,-44.434,-20.508,0.000
1709291873.018,-20.020,-32.227,-40.527,-30.273,0.000
1709291873.022,-14.648,-30.273,-36.621,-16.602,0.000
1709291873.026,-9.766,-23.926,-38.086,-17.090,0.000
1709291873.029,-19.531,-27.344,-41.016,-18.066,0.000
1709291873.033,-26.855,-27.344,-39.062,-15.137,0.000
1709291873.037,-20.996,-22.949,-36.621,-19.531,0.000
1709291873.041,-19.531,-20.508,-38.086,-17.578,0.000
1709291873.045,-23.438,-21.973,-39.551,-21.484,0.000
1709291873.049,-33.691,-26.855,-39.551,-22.461,0.000
1709291873.053,-40.527,-27.344,-39.551,-18.555,0.000
1709291873.057,-29.785,-24.902,-38.574,-25.879,0.000
1709291873.061,-6.836,-22.461,-38.574,-16.602,0.000
1709291873.065,-11.719,-24.902,-38.086,-13.184,0.000
1709291873.069,-44.434,-35.645,-36.621,-33.203,0.000
1709291873.072,-49.805,-39.062,-40.527,-35.645,0.000
1709291873.076,-39.062,-36.621,-42.969,-29.297,0.000
1709291873.080,-33.203,-32.227,-41.992,-23.438,0.000
1709291873.084,-40.527,-29.785,-43.457,-24.902,0.000
1709291873.087,-39.062,-29.785,-40.527,-26.367,0.000
1709291873.091,-35.156,-31.250,-35.156,-23.926,0.000
1709291873.095,-33.203,-34.180,-37.109,-17.578,0.000
1709291873.099,-18.555,-34.180,-37.109,-15.137,0.000
1709291873.103,-14.160,-27.344,-38.574,-20.020,0.000
1709291873.107,-23.438,-25.879,-41.504,-11.719,0.000
1709291873.111,-28.320,-26.367,-41.504,-10.742,0.000
1709291873.115,-20.508,-29.785,-41.016,-16.113,0.000
1709291873.119,-16.113,-32.715,-35.645,-13.184,0.000
1709291873.123,-20.508,-29.785,-36.133,-20.508,0.000
1709291873.127,-24.414,-21.484,-38.574,-21.484,0.000
1709291873.131,-21.484,-18.066,-33.691,-9.277,0.000
1709291873.135,-14.648,-19.531,-29.297,-5.371,0.000
1709291873.139,-15.137,-24.414,-31.738,-14.648,0.000
1709291873.143,-18.555,-22.949,-36.133,-20.020,0.000
1709291873.147,-25.879,-27.832,-36.621,-22.949,0.000
1709291873.151,-30.762,-32.227,-37.598,-20.508,0.000
1709291873.155,-28.320,-26.855,-37.109,-13.184,0.000
1709291873.158,-14.160,-26.367,-37.109,-9.277,0.000
1709291873.162,-9.766,-23.926,-34.180,-8.301,0.000
1709291873.167,-14.648,-26.855,-30.762,-13.672,0.000
1709291873.171,-19.043,-29.785,-34.668,-18.066,0.000
1709291873.174,-19.531,-31.250,-38.086,-20.020,0.000
1709291873.178,-12.207,-31.250,-38.086,-20.996,0.000
1709291873.182,-10.742,-28.809,-32.227,-25.879,0.000
1709291873.186,-11.230,-31.250,-29.785,-25.879,0.000
1709291873.190,-19.531,-32.715,-32.715,-20.996,0.000
1709291873.194,-24.414,-23.926,-34.668,-22.461,0.000
1709291873.198,-10.742,-20.020,-34.180,-21.484,0.000
1709291873.202,-4.883,-23.438,-33.203,-16.113,0.000
1709291873.206,-19.043,-21.973,-34.668,-24.902,0.000
1709291873.210,-25.879,-25.391,-33.691,-28.320,0.000
1709291873.214,-23.926,-29.785,-34.668,-22.949,0.000
1709291873.218,-26.855,-21.973,-35.645,-30.273,0.000
1709291873.221,-18.066,-24.414,-37.598,-41.992,0.000
1709291873.225,-10.742,-28.320,-34.180,-40.527,0.000
1709291873.229,-23.926,-29.297,-32.715,-32.715,0.000
1709291873.233,-35.645,-32.715,-39.062,-28.320,0.000
1709291873.237,-35.645,-29.297,-39.062,-27.344,0.000
1709291873.241,-26.855,-26.855,-34.668,-24.902,0.000
1709291873.245,-30.762,-34.180,-34.668,-15.137,0.000
1709291873.249,-42.969,-39.551,-35.156,-21.484,0.000
1709291873.253,-40.527,-30.762,-35.156,-27.832,0.000
1709291873.257,-31.738,-30.273,-36.133,-18.555,0.000
1709291873.262,-28.320,-35.645,-32.227,-20.020,0.000
1709291873.266,-36.133,-36.621,-35.645,-25.879,0.000
1709291873.270,-37.598,-37.109,-39.551,-22.949,0.000
1709291873.274,-32.715,-39.551,-35.645,-11.230,0.000
1709291873.277,-28.320,-34.180,-38.086,-8.301,0.000
1709291873.281,-28.320,-24.902,-38.574,-19.531,0.000
1709291873.285,-31.250,-21.484,-35.645,-36.133,0.000
1709291873.289,-38.086,-26.855,-36.621,-29.785,0.000
1709291873.293,-43.945,-29.297,-41.992,-23.438,0.000
1709291873.297,-42.969,-24.414,-39.062,-36.133,0.000
1709291873.301,-38.574,-22.949,-35.156,-37.598,0.000
1709291873.305,-34.180,-25.391,-34.668,-40.039,0.000
1709291873.308,-37.109,-29.297,-32.715,-38.574,0.000
1709291873.312,-43.457,-32.715,-35.645,-41.504,0.000
1709291873.316,-42.969,-35.156,-37.598,-43.945,0.000
1709291873.320,-33.691,-33.203,-33.203,-37.598,0.000
1709291873.324,-37.598,-37.598,-37.598,-41.992,0.000
1709291873.328,-40.039,-39.551,-42.969,-44.434,0.000
1709291873.332,-48.340,-41.016,-41.504,-42.969,0.000
1709291873.336,-52.246,-39.062,-40.527,-37.109,0.000
1709291873.340,-35.156,-36.133,-41.992,-32.227,0.000
1709291873.344,-22.461,-35.645,-41.992,-34.668,0.000
1709291873.348,-31.738,-34.668,-45.410,-37.598,0.000
1709291873.351,-38.574,-35.645,-43.945,-25.879,0.000
1709291873.355,0.000,-38.086,-42.969,-28.320,0.000
1709291873.359,0.000,-37.598,-44.434,-40.039,0.000
1709291873.363,0.000,-35.645,-37.598,-22.949,0.000
1709291873.367,0.000,-31.250,-33.203,-15.625,0.000
1709291873.370,0.000,-31.250,-40.527,-34.180,0.000
1709291873.374,0.000,-36.621,-45.898,-40.039,0.000
1709291873.378,0.000,-33.691,-40.527,-25.391,0.000
1709291873.382,0.000,-33.691,-32.715,-21.973,0.000
1709291873.386,0.000,-33.203,-34.668,-27.832,0.000
1709291873.390,0.000,-31.738,-42.969,-32.715,0.000
1709291873.394,0.000,-29.785,-41.504,-20.508,0.000
1709291873.398,0.000,-33.691,-39.551,-12.695,0.000
1709291873.402,-23.438,-33.691,-39.062,-23.438,0.000
1709291873.406,-27.344,-33.691,-38.086,-27.344,0.000
1709291873.410,-32.227,-31.250,-35.645,-30.762,0.000
1709291873.414,-30.762,-30.273,-38.574,-30.762,0.000
1709291873.418,-23.438,-34.180,-45.898,-27.832,0.000
1709291873.422,-12.695,-33.203,-41.504,-22.461,0.000
1709291873.426,-10.742,-34.180,-35.156,-13.672,0.000
1709291873.430,-24.414,-35.156,-40.527,-19.531,0.000
1709291873.434,-33.203,-34.180,-37.109,-26.855,0.000
1709291873.437,-26.367,-31.250,-29.785,-23.926,0.000
1709291873.441,-13.184,-28.809,-28.320,-21.484,0.000
1709291873.445,-14.160,-25.879,-26.855,-20.508,0.000
1709291873.448,0.000,-28.320,-31.738,-28.320,0.000
1709291873.452,0.000,-30.273,-35.156,-32.715,0.000
1709291873.456,0.000,-27.832,-34.668,-35.156,0.000
1709291873.460,0.000,-24.902,-32.715,-39.551,0.000
1709291873.464,0.000,-29.785,-34.180,-38.574,0.000
1709291873.468,0.000,-28.809,-32.715,-31.250,0.000
1709291873.472,0.000,-24.902,-30.762,-25.391,0.000
1709291873.476,0.000,-30.762,-34.668,-30.762,0.000
1709291873.480,0.000,-34.668,-32.227,-30.762,0.000
1709291873.484,0.000,-37.109,-33.203,-23.926,0.000
1709291873.487,0.000,-35.645,-30.273,-12.695,0.000
1709291873.491,0.000,-32.715,-26.367,-20.020,0.000
1709291873.496,-20.508,-29.785,-33.691,-30.273,0.000
1709291873.500,-13.184,-28.320,-37.109,-27.832,0.000
1709291873.503,-16.602,-32.715,-40.527,-34.668,0.000
1709291873.507,-24.414,-35.156,-39.062,-37.109,0.000
1709291873.511,-35.645,-41.016,-37.109,-33.691,0.000
1709291873.515,-26.367,-41.016,-36.133,-28.809,0.000
1709291873.519,-22.949,-39.062,-36.621,-31.250,0.000
1709291873.523,-25.879,-41.992,-40.527,-40.527,0.000
1709291873.527,-24.902,-42.969,-35.645,-39.062,0.000
1709291873.531,-30.273,-38.086,-36.621,-28.809,0.000
1709291873.535,-34.668,-36.621,-43.945,-31.250,0.000
1709291873.539,-31.738,-39.062,-41.504,-29.297,0.000
1709291873.543,-27.344,-42.969,-41.504,-22.949,0.000
1709291873.547,-24.902,-40.039,-38.086,-21.973,0.000
1709291873.551,-37.598,-41.016,-38.086,-26.855,0.000
1709291873.555,-41.992,-44.922,-42.969,-30.273,0.000
1709291873.559,-27.344,-41.016,-38.574,-23.926,0.000
1709291873.563,-19.043,-37.598,-35.645,-22.949,0.000
1709291873.566,-24.414,-38.574,-41.992,-28.809,0.000
1709291873.570,-32.227,-38.086,-40.527,-24.902,0.000
1709291873.574,-32.227,-33.203,-36.133,-18.066,0.000
1709291873.578,-29.297,-34.668,-37.598,-19.531,0.000
1709291873.582,-29.785,-36.621,-34.668,-26.367,0.000
1709291873.586,-25.879,-39.062,-37.598,-33.691,0.000
1709291873.590,-28.809,-39.551,-40.527,-26.855,0.000
1709291873.594,-36.133,-37.109,-40.039,-18.066,0.000
1709291873.598,-28.809,-35.156,-39.062,-21.973,0.000
1709291873.602,-16.602,-30.762,-36.621,-26.855,0.000
1709291873.606,-20.508,-33.203,-36.621,-30.273,0.000
1709291873.610,-32.715,-35.645,-36.621,-22.949,0.000
1709291873.613,-38.086,-36.133,-35.645,-19.043,0.000
1709291873.617,-32.227,-38.086,-34.668,-22.949,0.000
1709291873.621,-23.926,-40.039,-38.086,-19.043,0.000
1709291873.625,-25.391,-37.598,-41.504,-19.043,0.000
1709291873.629,-38.574,-31.738,-39.062,-23.438,0.000
1709291873.633,-41.016,-39.551,-38.086,-26.855,0.000
1709291873.637,-38.086,-41.992,-41.016,-34.668,0.000
1709291873.641,-30.762,-40.527,-39.062,-30.762,0.000
1709291873.645,-23.438,-43.457,-39.062,-26.367,0.000
1709291873.648,-20.996,-45.898,-35.645,-25.879,0.000
1709291873.652,-27.344,-44.434,-31.250,-18.066,0.000
1709291873.656,-38.086,-41.504,-36.133,-22.949,0.000
1709291873.660,-25.391,-41.992,-36.621,-23.926,0.000
1709291873.664,-20.020,-42.969,-38.574,-21.484,0.000
1709291873.668,-30.273,-41.992,-36.133,-18.066,0.000
1709291873.672,-31.738,-35.156,-36.133,-19.043,0.000
1709291873.676,-30.273,-31.738,-37.109,-20.996,0.000
1709291873.680,-26.855,-42.480,-30.762,-21.484,0.000
1709291873.683,-17.090,-43.945,-32.227,-20.996,0.000
1709291873.687,-25.879,-37.109,-39.551,-27.344,0.000
1709291873.691,-46.875,-36.621,-38.086,-31.250,0.000
1709291873.695,-40.039,-34.668,-35.645,-28.809,0.000
1709291873.699,-24.414,-35.156,-36.133,-26.855,0.000
1709291873.703,-22.461,-27.344,-33.203,-24.414,0.000
1709291873.707,-20.020,-21.973,-36.621,-34.668,0.000
1709291873.711,-27.344,-24.414,-38.086,-27.832,0.000
1709291873.714,-38.574,-20.508,-37.109,-16.113,0.000
1709291873.718,-33.203,-22.461,-40.527,-22.461,0.000
1709291873.722,-20.020,-24.902,-38.086,-20.508,0.000
1709291873.726,-20.996,-30.762,-32.715,-18.066,0.000
1709291873.730,-41.016,-36.133,-30.762,-21.973,0.000
1709291873.734,-44.434,-33.691,-30.762,-22.461,0.000
1709291873.737,-20.020,-32.715,-32.227,-19.531,0.000
1709291873.741,-20.996,-34.180,-32.227,-26.367,0.000
1709291873.745,-31.738,-32.227,-35.645,-27.344,0.000
1709291873.749,-38.574,-34.180,-35.645,-25.391,0.000
1709291873.753,-40.039,-35.645,-34.180,-32.715,0.000
1709291873.757,-28.320,-33.203,-38.574,-38.086,0.000
1709291873.761,-27.344,-34.180,-37.109,-47.363,0.000
1709291873.765,-29.297,-38.574,-31.738,-43.945,0.000
1709291873.769,-29.785,-41.504,-32.227,-36.621,0.000
1709291873.773,-39.062,-43.457,-33.203,-28.320,0.000
1709291873.776,-40.039,-37.598,-37.109,-32.715,0.000
1709291873.780,-23.438,-36.621,-35.156,-26.367,0.000
1709291873.784,-28.320,-37.109,-29.785,-21.973,0.000
1709291873.788,-37.109,-36.133,-29.297,-33.203,0.000
1709291873.792,-40.527,-36.621,-25.391,-32.227,0.000
1709291873.795,-41.992,-39.551,-28.809,-34.180,0.000
1709291873.799,-30.762,-40.039,-31.738,-30.762,0.000
1709291873.803,-23.926,-34.668,-29.785,-27.344,0.000
1709291873.807,-29.297,-29.297,-33.203,-38.086,0.000
1709291873.811,-31.738,-31.250,-32.715,-38.086,0.000
1709291873.815,-26.855,-33.203,-32.227,-34.668,0.000
1709291873.819,-22.461,-27.344,-37.109,-41.992,0.000
1709291873.822,-28.320,-31.738,-38.574,-40.527,0.000
1709291873.826,-41.016,-36.621,-31.738,-32.715,0.000
1709291873.830,-45.410,-40.527,-29.785,-36.133,0.000
1709291873.834,-38.086,-41.992,-36.621,-41.504,0.000
1709291873.838,-31.250,-38.086,-36.621,-36.133,0.000
1709291873.842,-32.715,-40.527,-32.715,-34.180,0.000
1709291873.846,-34.180,-41.016,-34.180,-34.668,0.000
1709291873.849,-32.715,-36.133,-37.109,-39.062,0.000
1709291873.853,-27.344,-32.715,-37.598,-37.109,0.000
1709291873.857,-21.973,-35.156,-38.086,-24.414,0.000
1709291873.861,-15.137,-34.668,-32.715,-22.461,0.000
1709291873.865,-19.531,-31.738,-32.715,-31.250,0.000
1709291873.870,-33.691,-36.621,-33.691,-34.668,0.000
1709291873.874,-38.574,-39.062,-34.180,-32.227,0.000
1709291873.877,-32.227,-40.527,-36.621,-33.203,0.000
1709291873.881,-16.602,-35.645,-36.621,-33.691,0.000
1709291873.885,-13.672,-32.227,-35.645,-22.949,0.000
1709291873.889,-25.879,-29.785,-36.133,-18.066,0.000
1709291873.893,-41.016,-32.715,-37.598,-28.320,0.000
1709291873.897,-29.297,-38.574,-34.180,-24.414,0.000
1709291873.901,-16.113,-36.621,-32.715,-21.484,0.000
1709291873.905,-18.555,-37.109,-29.785,-18.555,0.000
1709291873.909,-24.902,-34.668,-28.320,-20.996,0.000
1709291873.913,-21.484,-31.738,-29.297,-26.367,0.000
1709291873.917,-20.508,-31.738,-29.785,-22.461,0.000
1709291873.921,-21.484,-33.203,-28.320,-23.438,0.000
1709291873.925,-20.020,-29.297,-23.926,-25.879,0.000
1709291873.929,-31.738,-32.715,-26.855,-34.180,0.000
1709291873.933,-30.273,-36.133,-28.809,-35.156,0.000
1709291873.936,-20.020,-34.180,-30.273,-25.391,0.000
1709291873.940,-17.578,-36.621,-28.809,-17.090,0.000
1709291873.944,-14.160,-32.227,-26.855,-18.555,0.000
1709291873.948,-20.020,-30.273,-25.879,-16.113,0.000
1709291873.952,-35.645,-36.133,-25.879,-13.184,0.000
1709291873.956,-32.227,-34.180,-24.902,-23.438,0.000
1709291873.960,-25.391,-33.203,-21.484,-22.461,0.000
1709291873.964,-33.691,-31.250,-16.602,-21.973,0.000
1709291873.968,-39.551,-30.273,-20.996,-28.320,0.000
1709291873.972,-34.668,-33.203,-27.344,-23.926,0.000
1709291873.976,-34.668,-33.203,-25.879,-26.367,0.000
1709291873.980,-27.344,-32.227,-23.926,-29.297,0.000
1709291873.983,-13.184,-29.785,-22.949,-30.762,0.000
1709291873.987,-20.020,-26.855,-22.461,-29.297,0.000
1709291873.991,-24.902,-23.926,-21.973,-22.461,0.000
1709291873.995,-18.555,-27.832,-22.949,-10.254,0.000
1709291873.999,-20.996,-35.645,-25.879,-6.836,0.000
1709291874.003,-21.973,-34.668,-24.414,-13.672,0.000
1709291874.007,-26.367,-33.203,-17.578,-20.508,0.000
1709291874.011,-31.738,-38.574,-20.508,-27.832,0.000
1709291874.015,-31.738,-35.645,-24.414,-25.391,0.000
1709291874.019,-25.879,-31.738,-22.949,-23.926,0.000
1709291874.022,-14.160,-33.203,-24.902,-21.973,0.000
1709291874.026,-14.160,-33.691,-24.414,-14.648,0.000
1709291874.030,-33.691,-36.621,-27.344,-19.531,0.000
1709291874.034,-33.203,-35.645,-28.809,-21.484,0.000
1709291874.038,-17.578,-34.668,-28.320,-10.742,0.000
1709291874.042,-14.160,-32.715,-30.762,-12.695,0.000
1709291874.046,-25.879,-28.320,-31.250,-22.949,0.000
1709291874.050,-32.715,-26.367,-30.273,-19.043,0.000
1709291874.054,-26.367,-25.391,-27.832,-15.137,0.000
1709291874.057,-17.090,-23.438,-29.297,-16.113,0.000
1709291874.061,-11.230,-20.020,-32.227,-18.555,0.000
1709291874.065,-18.555,-23.926,-31.250,-23.926,0.000
1709291874.069,-28.320,-27.832,-32.715,-25.879,0.000
1709291874.073,-31.250,-25.391,-37.109,-23.438,0.000
1709291874.077,-30.273,-29.297,-36.621,-22.461,0.000
1709291874.081,-30.273,-34.180,-34.668,-26.367,0.000
1709291874.085,-32.715,-37.109,-34.180,-19.043,0.000
1709291874.089,-33.203,-34.180,-38.086,-24.902,0.000
1709291874.092,-37.109,-33.203,-35.645,-37.598,0.000
1709291874.096,-37.598,-33.203,-33.691,-31.250,0.000
1709291874.100,-31.738,-31.738,-35.156,-30.273,0.000
1709291874.104,-27.344,-33.691,-34.668,-28.320,0.000
1709291874.108,-31.250,-30.762,-34.180,-29.297,0.000
1709291874.112,-38.574,-33.203,-41.504,-45.898,0.000
1709291874.116,-27.832,-35.156,-41.504,-42.969,0.000
1709291874.120,-20.508,-34.668,-38.574,-25.391,0.000
1709291874.123,-21.973,-35.156,-40.039,-20.996,0.000
1709291874.127,-26.855,-33.203,-35.645,-22.949,0.000
1709291874.131,-27.832,-31.250,-30.762,-20.020,0.000
1709291874.135,-20.508,-31.250,-27.832,-20.508,0.000
1709291874.139,-13.672,-33.691,-27.344,-25.391,0.000
1709291874.143,-14.160,-30.762,-26.855,-27.344,0.000
1709291874.147,-16.602,-31.738,-27.832,-30.762,0.000
1709291874.150,-28.809,-31.738,-29.297,-28.320,0.000
1709291874.154,-33.691,-30.273,-29.785,-25.879,0.000
1709291874.158,-24.414,-32.715,-34.180,-28.320,0.000
1709291874.162,-17.578,-30.762,-33.203,-26.367,0.000
1709291874.166,-21.484,-30.762,-35.156,-22.949,0.000
1709291874.170,-34.180,-34.668,-39.551,-24.902,0.000
1709291874.174,-32.227,-32.715,-35.645,-14.648,0.000
1709291874.178,-22.461,-31.250,-34.180,-11.719,0.000
1709291874.182,-15.137,-28.320,-36.621,-24.902,0.000
1709291874.185,-19.043,-23.438,-38.086,-23.438,0.000
1709291874.189,-38.086,-25.879,-40.527,-22.461,0.000
1709291874.193,-32.227,-25.391,-36.133,-20.020,0.000
1709291874.197,-23.438,-27.344,-33.691,-16.113,0.000
1709291874.200,-25.879,-30.762,-32.227,-21.484,0.000
1709291874.204,-22.949,-30.273,-32.715,-24.414,0.000
1709291874.208,-32.715,-30.762,-33.203,-26.367,0.000
1709291874.212,-30.273,-28.320,-33.691,-25.391,0.000
1709291874.216,-20.996,-31.250,-35.645,-24.414,0.000
1709291874.220,-19.043,-28.809,-30.273,-16.113,0.000
1709291874.224,-20.996,-25.879,-34.668,-21.973,0.000
1709291874.228,-27.344,-33.203,-40.527,-34.668,0.000
1709291874.232,-25.391,-35.156,-35.645,-27.344,0.000
1709291874.236,-32.227,-31.250,-34.180,-22.949,0.000
1709291874.240,-32.227,-28.320,-37.598,-28.809,0.000
1709291874.244,-27.344,-29.297,-43.457,-30.762,0.000
1709291874.248,-22.949,-27.344,-41.016,-20.508,0.000
1709291874.252,-23.438,-25.391,-31.250,-8.789,0.000
1709291874.256,-14.160,-25.879,-24.414,-2.930,0.000
1709291874.260,-9.766,-29.297,-19.043,-4.883,0.000
1709291874.264,-35.645,-35.156,-15.625,-21.973,0.000
1709291874.267,-50.781,-37.598,-20.996,-32.227,0.000
1709291874.271,-42.480,-38.086,-27.344,-23.926,0.000
1709291874.275,-34.668,-37.109,-30.273,-12.207,0.000
1709291874.279,-31.250,-37.109,-35.156,-7.324,0.000
1709291874.283,-29.785,-36.133,-38.574,-20.020,0.000
1709291874.287,-26.855,-34.668,-37.109,-28.320,0.000
1709291874.291,-33.691,-34.180,-36.133,-27.832,0.000
1709291874.295,-29.785,-35.156,-36.621,-30.762,0.000
1709291874.299,-20.996,-35.645,-36.621,-28.809,0.000
1709291874.303,-28.809,-36.621,-38.086,-32.227,0.000
1709291874.307,-32.715,-39.062,-36.133,-27.344,0.000
1709291874.311,-31.250,-36.133,-32.715,-19.043,0.000
1709291874.315,-28.320,-29.785,-31.738,-15.625,0.000
1709291874.319,-15.137,-29.297,-34.180,-16.602,0.000
1709291874.323,-10.254,-29.297,-32.227,-12.695,0.000
1709291874.326,-31.738,-33.203,-32.227,-13.672,0.000
1709291874.330,-39.551,-32.715,-36.133,-18.555,0.000
1709291874.334,-35.156,-28.809,-33.203,-16.602,0.000
1709291874.338,-35.645,-32.715,-33.691,-27.832,0.000
1709291874.342,-25.391,-29.785,-31.738,-27.344,0.000
1709291874.346,-22.461,-26.367,-28.320,-17.090,0.000
1709291874.350,-28.809,-32.715,-34.180,-16.113,0.000
1709291874.354,-29.297,-30.762,-36.621,-9.766,0.000
1709291874.358,-23.926,-23.438,-28.320,-9.277,0.000
1709291874.362,-19.531,-20.996,-21.484,-13.184,0.000
1709291874.366,-9.766,-14.648,-24.414,-12.695,0.000
1709291874.370,-17.578,-17.090,-29.297,-8.301,0.000
1709291874.374,-28.320,-19.531,-33.203,-10.254,0.000
1709291874.377,-20.996,-17.578,-32.715,-11.230,0.000
1709291874.381,-19.531,-22.949,-32.227,-10.742,0.000
1709291874.385,-19.531,-25.391,-33.691,-16.113,0.000
1709291874.389,-24.902,-24.902,-32.715,-28.320,0.000
1709291874.393,-34.180,-26.367,-35.645,-33.691,0.000
1709291874.397,-37.598,-27.344,-34.180,-21.484,0.000
1709291874.401,-21.484,-27.832,-35.645,-25.879,0.000
1709291874.405,-12.207,-20.508,-38.574,-28.320,0.000
1709291874.409,-25.879,-23.438,-39.551,-14.160,0.000
1709291874.413,-30.273,-30.273,-40.527,-11.719,0.000
1709291874.417,-30.762,-27.344,-44.434,-13.672,0.000
1709291874.420,-30.273,-28.320,-45.898,-22.461,0.000
1709291874.424,-22.461,-30.762,-41.992,-27.344,0.000
1709291874.428,-21.484,-33.203,-41.016,-28.320,0.000
1709291874.432,0.000,-32.227,-42.969,-37.109,0.000
1709291874.436,0.000,-31.738,-43.457,-39.062,0.000
1709291874.440,0.000,-30.762,-41.992,-35.645,0.000
1709291874.444,0.000,-27.832,-37.109,-35.645,0.000
1709291874.448,0.000,-30.762,-33.203,-32.227,0.000
1709291874.451,0.000,-34.180,-33.203,-20.508,0.000
1709291874.455,0.000,-30.762,-36.133,-22.461,0.000
1709291874.459,0.000,-28.809,-40.527,-24.414,0.000
1709291874.463,0.000,-31.250,-39.551,-33.203,0.000
1709291874.467,0.000,-28.320,-39.062,-40.527,0.000
1709291874.471,0.000,-32.227,-40.527,-25.391,0.000
1709291874.475,0.000,-41.992,-40.527,-28.320,0.000
1709291874.479,-38.574,-37.109,-38.086,-29.297,0.000
1709291874.482,-28.809,-35.645,-37.109,-27.832,0.000
1709291874.486,-30.762,-35.156,-34.180,-39.551,0.000
1709291874.490,-31.250,-31.738,-30.273,-39.062,0.000
1709291874.494,-28.320,-29.785,-29.785,-28.809,0.000
1709291874.498,-24.902,-34.668,-32.715,-28.809,0.000
1709291874.502,-27.344,-37.598,-39.551,-34.668,0.000
1709291874.506,-28.320,-30.273,-41.504,-26.367,0.000
1709291874.510,-34.180,-27.344,-41.504,-30.273,0.000
1709291874.514,-36.621,-31.738,-42.480,-34.668,0.000
1709291874.518,-25.391,-33.691,-39.062,-27.344,0.000
1709291874.521,-28.320,-33.203,-41.016,-26.855,0.000
1709291874.525,-34.180,-31.250,-42.480,-35.156,0.000
1709291874.529,-33.203,-24.902,-33.203,-37.109,0.000
1709291874.533,-28.809,-24.414,-34.668,-24.414,0.000
1709291874.537,-28.320,-29.297,-41.504,-19.043,0.000
1709291874.541,-24.902,-32.715,-37.109,-28.809,0.000
1709291874.544,-29.297,-35.645,-38.574,-37.598,0.000
1709291874.548,-38.574,-36.621,-46.387,-22.949,0.000
1709291874.552,-34.180,-33.203,-46.875,-20.508,0.000
1709291874.556,-34.180,-35.156,-46.387,-28.809,0.000
1709291874.560,-32.227,-35.645,-43.945,-31.738,0.000
1709291874.564,-35.156,-34.180,-43.457,-29.785,0.000
1709291874.568,-37.598,-35.156,-42.969,-30.273,0.000
1709291874.571,-38.086,-34.668,-37.109,-33.691,0.000
1709291874.575,-33.203,-36.621,-35.645,-27.344,0.000
1709291874.579,-27.832,-37.598,-39.551,-22.949,0.000
1709291874.583,-29.297,-37.109,-39.062,-30.273,0.000
1709291874.587,-30.273,-33.691,-36.133,-31.738,0.000
1709291874.591,-34.180,-28.809,-37.109,-20.508,0.000
1709291874.595,-33.203,-31.738,-33.691,-8.789,0.000
1709291874.599,-22.461,-31.250,-33.691,-11.719,0.000
1709291874.602,-15.625,-31.738,-36.133,-21.973,0.000
1709291874.606,-23.926,-31.738,-35.156,-26.855,0.000
1709291874.610,-37.598,-29.297,-32.227,-23.438,0.000
1709291874.614,-35.645,-27.832,-32.227,-22.461,0.000
1709291874.619,-21.484,-25.391,-33.203,-20.020,0.000
1709291874.623,-20.996,-28.809,-30.762,-21.484,0.000
1709291874.627,-30.762,-23.438,-25.391,-21.973,0.000
1709291874.630,-29.785,-20.508,-25.391,-22.949,0.000
1709291874.634,-22.949,-24.414,-28.320,-25.391,0.000
1709291874.638,-23.438,-26.855,-31.250,-30.273,0.000
1709291874.642,-19.043,-29.785,-32.227,-28.809,0.000
1709291874.646,-27.832,-32.227,-35.645,-30.273,0.000
1709291874.650,-46.387,-30.762,-34.180,-36.133,0.000
1709291874.654,-44.922,-33.691,-33.203,-26.367,0.000
1709291874.658,-25.391,-30.762,-35.645,-24.414,0.000
1709291874.662,-16.113,-25.391,-34.668,-30.762,0.000
