timestamps,TP9,AF7,AF8,TP10,Right AUX
1709298792.632,-45.898,-32.715,-37.109,-26.367,0.000
1709298792.636,-50.781,-47.363,-39.551,-22.949,0.000
1709298792.640,-38.086,-45.410,-36.133,-29.785,0.000
1709298792.643,-33.203,-54.199,-33.203,-32.227,0.000
1709298792.647,-38.574,-55.176,-37.109,-32.227,0.000
1709298792.651,-38.574,-30.273,-36.133,-40.039,0.000
1709298792.655,-40.039,-32.715,-38.574,-40.527,0.000
1709298792.659,-34.180,-39.551,-42.480,-33.203,0.000
1709298792.663,-24.414,-27.832,-36.621,-21.973,0.000
1709298792.667,-22.461,-25.879,-34.668,-17.090,0.000
1709298792.671,-31.738,-36.133,-28.320,-35.645,0.000
1709298792.675,-42.480,-34.668,-33.691,-43.457,0.000
1709298792.679,-41.504,-27.832,-43.945,-34.180,0.000
1709298792.683,-34.668,-30.762,-36.621,-30.762,0.000
1709298792.686,-35.645,-34.668,-32.227,-42.969,0.000
1709298792.690,-46.875,-36.133,-39.062,-53.711,0.000
1709298792.694,-51.270,-40.039,-41.992,-50.781,0.000
1709298792.698,-52.734,-42.480,-40.527,-45.410,0.000
1709298792.702,-56.641,-45.410,-38.086,-43.945,0.000
1709298792.706,-52.246,-46.875,-34.668,-47.852,0.000
1709298792.710,-50.781,-39.551,-35.645,-50.293,0.000
1709298792.714,-55.664,-41.992,-39.062,-55.664,0.000
1709298792.718,-46.875,-48.340,-37.598,-48.828,0.000
1709298792.722,-41.016,-37.109,-38.086,-37.109,0.000
1709298792.726,-31.738,-26.855,-41.504,-36.133,0.000
1709298792.729,-31.250,-35.156,-41.016,-34.668,0.000
1709298792.733,-40.527,-51.270,-42.480,-41.504,0.000
1709298792.737,-41.504,-43.945,-44.922,-46.875,0.000
1709298792.741,-40.527,-27.832,-40.527,-35.645,0.000
1709298792.745,-33.691,-28.809,-39.551,-26.855,0.000
1709298792.749,-30.273,-30.762,-41.504,-35.645,0.000
1709298792.753,-30.273,-41.016,-35.645,-41.504,0.000
1709298792.757,-37.109,-45.898,-36.133,-35.156,0.000
1709298792.761,-32.227,-41.504,-43.457,-39.062,0.000
1709298792.765,-24.902,-44.922,-41.504,-37.109,0.000
1709298792.769,-28.320,-49.316,-38.574,-41.992,0.000
1709298792.772,-31.738,-41.992,-46.387,-54.199,0.000
1709298792.776,-33.203,-30.273,-46.875,-47.852,0.000
1709298792.780,-27.344,-34.668,-43.945,-37.109,0.000
1709298792.784,-24.414,-32.715,-48.340,-32.715,0.000
1709298792.788,-28.320,-32.227,-48.828,-36.621,0.000
1709298792.792,-34.668,-37.598,-42.480,-52.246,0.000
1709298792.796,-38.086,-39.551,-41.016,-45.898,0.000
1709298792.800,-33.691,-49.805,-38.574,-25.391,0.000
1709298792.804,-37.109,-56.152,-39.062,-32.227,0.000
1709298792.808,-37.109,-53.223,-41.504,-45.410,0.000
1709298792.811,-33.203,-41.992,-34.668,-43.457,0.000
1709298792.815,-44.922,-35.156,-35.645,-38.574,0.000
1709298792.819,0.000,-32.715,-36.133,-36.133,0.000
1709298792.823,0.000,-31.250,-27.832,-38.574,0.000
1709298792.827,0.000,-25.391,-29.297,-35.645,0.000
1709298792.831,0.000,-31.250,-36.133,-35.156,0.000
1709298792.835,0.000,-34.668,-34.180,-34.668,0.000
1709298792.839,0.000,-29.785,-33.203,-34.668,0.000
1709298792.843,0.000,-37.598,-32.715,-30.762,0.000
1709298792.847,0.000,-35.156,-31.250,-27.344,0.000
1709298792.851,0.000,-25.879,-31.738,-43.457,0.000
1709298792.854,0.000,-41.504,-31.250,-47.363,0.000
1709298792.858,0.000,-51.758,-33.691,-41.016,0.000
1709298792.862,0.000,-35.645,-42.480,-32.715,0.000
1709298792.866,-51.758,-29.297,-43.945,-41.504,0.000
1709298792.870,-50.781,-30.762,-48.340,-54.688,0.000
1709298792.874,-50.293,-31.738,-48.828,-54.199,0.000
1709298792.878,-43.945,-30.273,-36.621,-40.527,0.000
1709298792.882,-42.969,-33.203,-37.598,-33.203,0.000
1709298792.886,-46.875,-37.598,-35.156,-33.203,0.000
1709298792.890,-52.246,-49.316,-35.156,-39.551,0.000
1709298792.894,-55.664,-42.969,-42.969,-54.199,0.000
1709298792.897,-55.664,-39.062,-46.387,-55.664,0.000
1709298792.901,-52.246,-50.781,-46.387,-46.875,0.000
1709298792.905,-44.434,-38.574,-40.527,-39.062,0.000
1709298792.909,-39.551,-29.297,-39.062,-42.480,0.000
1709298792.913,-47.852,-38.574,-43.457,-41.504,0.000
1709298792.917,-48.340,-46.387,-44.922,-40.039,0.000
1709298792.921,-44.434,-41.504,-40.039,-34.668,0.000
1709298792.925,-42.480,-35.645,-43.457,-31.250,0.000
1709298792.929,-32.227,-44.922,-40.039,-31.738,0.000
1709298792.933,-29.297,-56.641,-32.715,-27.344,0.000
1709298792.937,-34.668,-46.875,-37.109,-21.973,0.000
1709298792.940,-29.785,-34.668,-35.156,-19.531,0.000
1709298792.944,-26.855,-35.156,-26.367,-16.602,0.000
1709298792.948,-32.227,-33.203,-22.949,-20.996,0.000
1709298792.952,-37.598,-33.203,-23.438,-25.391,0.000
1709298792.956,-40.527,-37.598,-27.832,-18.066,0.000
1709298792.960,-39.062,-32.227,-24.414,-14.160,0.000
1709298792.964,-34.668,-33.691,-25.879,-21.973,0.000
1709298792.968,-34.668,-37.109,-30.273,-27.344,0.000
1709298792.972,-38.574,-34.180,-27.832,-31.250,0.000
1709298792.976,-36.621,-41.504,-30.762,-25.391,0.000
1709298792.980,-37.109,-50.781,-32.227,-14.160,0.000
1709298792.983,-39.551,-49.805,-33.691,-22.949,0.000
1709298792.987,-37.109,-38.574,-35.645,-43.945,0.000
1709298792.991,-40.039,-45.410,-38.086,-53.711,0.000
1709298792.995,-43.945,-44.922,-32.715,-45.410,0.000
1709298792.999,-52.246,-43.457,-31.738,-32.715,0.000
1709298793.003,-46.387,-42.480,-40.527,-27.832,0.000
1709298793.007,-37.109,-41.016,-41.992,-28.320,0.000
1709298793.011,-46.387,-55.664,-41.504,-35.645,0.000
1709298793.015,-44.434,-52.246,-29.785,-34.668,0.000
1709298793.019,-34.668,-34.180,-34.668,-20.996,0.000
1709298793.023,-37.109,-44.434,-48.828,-25.391,0.000
1709298793.026,-41.504,-45.410,-46.875,-38.086,0.000
1709298793.030,-42.480,-29.785,-40.527,-41.016,0.000
1709298793.034,-42.969,-37.598,-33.203,-35.156,0.000
1709298793.038,-43.457,-41.992,-33.691,-23.438,0.000
1709298793.042,-43.457,-38.574,-34.668,-24.902,0.000
1709298793.046,-39.551,-38.086,-36.133,-37.598,0.000
1709298793.050,-33.691,-31.738,-33.203,-31.738,0.000
1709298793.054,-35.645,-28.320,-27.832,-27.344,0.000
1709298793.058,-36.621,-35.156,-36.621,-25.391,0.000
1709298793.062,-34.180,-40.527,-39.062,-18.066,0.000
1709298793.066,-23.926,-42.480,-34.668,-20.508,0.000
1709298793.069,-28.320,-41.016,-35.156,-31.250,0.000
1709298793.073,-38.086,-35.645,-30.273,-30.762,0.000
1709298793.077,-32.227,-34.668,-28.320,-23.926,0.000
1709298793.081,-29.297,-30.273,-33.203,-15.137,0.000
1709298793.085,-20.996,-29.785,-35.645,-0.977,0.000
1709298793.089,-14.648,-36.621,-33.691,-11.230,0.000
1709298793.093,-26.367,-33.203,-36.621,-28.320,0.000
1709298793.097,-29.785,-33.203,-42.969,-20.020,0.000
1709298793.101,-20.020,-36.621,-43.945,-12.695,0.000
1709298793.105,-15.137,-38.574,-41.504,-20.508,0.000
1709298793.109,-28.809,-35.645,-38.574,-36.133,0.000
1709298793.112,-35.645,-21.973,-44.922,-54.199,0.000
1709298793.116,-41.992,-25.879,-55.176,-57.129,0.000
1709298793.120,-54.199,-34.668,-52.246,-49.805,0.000
1709298793.124,-49.805,-32.715,-48.340,-54.688,0.000
1709298793.128,-42.480,-32.227,-46.875,-54.199,0.000
1709298793.132,-48.828,-37.109,-49.805,-48.828,0.000
1709298793.136,-53.223,-48.828,-48.828,-61.035,0.000
1709298793.140,-40.039,-59.570,-36.621,-51.270,0.000
1709298793.144,-32.227,-48.828,-40.039,-36.621,0.000
1709298793.148,-26.367,-24.414,-41.992,-37.598,0.000
1709298793.152,-21.484,-21.973,-39.062,-44.922,0.000
1709298793.155,-28.809,-24.414,-36.621,-48.340,0.000
1709298793.159,-23.438,-21.484,-30.762,-32.715,0.000
1709298793.163,-17.090,-22.949,-36.621,-29.785,0.000
1709298793.167,-29.785,-24.902,-42.480,-41.992,0.000
1709298793.171,-32.227,-24.902,-33.203,-41.992,0.000
1709298793.175,-31.250,-33.691,-34.180,-37.598,0.000
1709298793.179,-35.156,-36.133,-40.039,-35.645,0.000
1709298793.183,-29.297,-38.086,-32.227,-29.785,0.000
1709298793.187,-31.738,-57.617,-29.297,-27.832,0.000
1709298793.191,-43.457,-60.547,-32.715,-22.949,0.000
1709298793.194,-46.875,-41.016,-31.250,-26.855,0.000
1709298793.198,-46.875,-30.762,-31.250,-33.691,0.000
1709298793.202,-53.223,-18.555,-34.668,-34.180,0.000
1709298793.206,-58.594,-15.137,-44.434,-46.875,0.000
1709298793.210,-65.430,-16.602,-49.805,-63.477,0.000
1709298793.214,-58.105,-9.277,-47.852,-61.035,0.000
1709298793.218,-40.527,-0.488,-48.340,-51.758,0.000
1709298793.222,-37.109,-2.441,-48.828,-50.293,0.000
1709298793.226,-32.715,-3.418,-51.758,-61.035,0.000
1709298793.230,-36.133,13.672,-53.711,-67.383,0.000
1709298793.234,-37.598,21.484,-50.781,-54.199,0.000
1709298793.237,-34.180,21.484,-53.711,-48.828,0.000
1709298793.241,-34.180,20.508,-54.199,-61.035,0.000
1709298793.245,-29.297,20.996,-60.547,-65.430,0.000
1709298793.249,-22.461,21.484,-65.918,-71.289,0.000
1709298793.253,-29.297,15.137,-65.430,-75.195,0.000
1709298793.257,-44.434,22.949,-63.965,-88.379,0.000
1709298793.261,-43.945,30.762,-66.895,-94.727,0.000
1709298793.265,-49.316,36.621,-71.289,-88.867,0.000
1709298793.269,-63.965,45.410,-77.637,-109.375,0.000
1709298793.273,-76.172,44.922,-78.613,-127.930,0.000
1709298793.277,-80.566,36.133,-72.754,-123.047,0.000
1709298793.280,-70.801,51.270,-70.312,-116.699,0.000
1709298793.284,-72.754,67.871,-79.590,-115.723,0.000
1709298793.288,-81.543,63.965,-83.984,-127.930,0.000
1709298793.292,-78.613,58.105,-75.195,-123.535,0.000
1709298793.296,-79.102,57.617,-75.684,-120.117,0.000
1709298793.300,-75.195,61.523,-83.008,-122.070,0.000
1709298793.304,-67.871,57.617,-85.449,-116.699,0.000
1709298793.308,-59.570,52.246,-84.473,-110.352,0.000
1709298793.312,-66.406,53.711,-84.473,-109.863,0.000
1709298793.316,-82.520,50.781,-84.961,-109.863,0.000
1709298793.319,-85.938,51.758,-87.402,-104.980,0.000
1709298793.323,-76.660,59.082,-81.543,-100.586,0.000
1709298793.327,-71.777,45.898,-80.566,-110.352,0.000
1709298793.331,-68.359,41.992,-84.961,-118.652,0.000
1709298793.335,-70.312,49.316,-83.008,-104.492,0.000
1709298793.339,-83.008,45.410,-89.355,-100.586,0.000
1709298793.343,-79.102,54.688,-93.262,-90.332,0.000
1709298793.347,-67.383,56.152,-98.633,-86.426,0.000
1709298793.351,-57.617,54.688,-96.680,-94.727,0.000
1709298793.355,-41.504,59.570,-92.285,-78.125,0.000
1709298793.359,-36.621,49.316,-95.215,-56.641,0.000
1709298793.363,-34.180,36.133,-88.379,-54.688,0.000
1709298793.366,-23.926,29.297,-86.914,-54.688,0.000
1709298793.370,-9.766,34.180,-89.355,-47.363,0.000
1709298793.374,-10.742,33.691,-100.586,-32.715,0.000
1709298793.378,-2.930,31.250,-100.098,-11.719,0.000
1709298793.382,16.602,25.879,-84.961,2.441,0.000
1709298793.386,15.137,23.438,-93.750,7.324,0.000
1709298793.390,22.949,13.672,-98.145,10.742,0.000
1709298793.394,31.250,7.324,-91.309,10.254,0.000
1709298793.398,38.574,15.137,-86.426,13.184,0.000
1709298793.402,30.762,11.230,-89.844,10.254,0.000
1709298793.406,21.484,4.883,-94.238,9.277,0.000
1709298793.409,47.363,-2.930,-81.055,21.484,0.000
1709298793.413,54.688,-11.719,-74.707,22.461,0.000
1709298793.417,48.340,-4.395,-75.684,23.438,0.000
1709298793.421,52.246,-0.488,-71.777,37.109,0.000
1709298793.425,55.176,-7.324,-74.707,41.016,0.000
1709298793.429,62.988,-14.648,-76.660,38.574,0.000
1709298793.433,63.477,-14.160,-74.219,42.480,0.000
1709298793.437,57.617,-11.230,-69.824,57.129,0.000
1709298793.441,61.035,-15.137,-69.824,59.082,0.000
1709298793.445,61.523,-20.020,-71.289,49.316,0.000
1709298793.449,53.223,-29.785,-61.523,42.480,0.000
1709298793.452,47.363,-37.598,-56.641,41.504,0.000
1709298793.456,44.922,-26.367,-61.523,44.434,0.000
1709298793.460,44.434,-15.625,-62.012,51.758,0.000
1709298793.464,45.898,-21.484,-60.059,57.129,0.000
1709298793.468,45.898,-33.691,-58.105,52.246,0.000
1709298793.472,39.062,-51.758,-60.059,41.504,0.000
1709298793.476,0.000,-45.898,0.000,0.000,0.000
1709298793.480,0.000,-26.367,0.000,0.000,0.000
1709298793.484,0.000,-27.344,0.000,0.000,0.000
1709298793.488,0.000,-34.668,0.000,0.000,0.000
1709298793.492,0.000,-39.062,0.000,0.000,0.000
1709298793.495,0.000,-39.062,0.000,0.000,0.000
1709298793.499,0.000,-44.434,0.000,0.000,0.000
1709298793.503,0.000,-42.969,0.000,0.000,0.000
1709298793.507,0.000,-26.367,0.000,0.000,0.000
1709298793.511,0.000,-22.461,0.000,0.000,0.000
1709298793.515,0.000,-28.809,0.000,0.000,0.000
1709298793.519,0.000,-35.645,0.000,0.000,0.000
1709298793.523,17.090,-33.203,-49.316,4.395,0.000
1709298793.527,13.184,-29.785,-47.852,3.906,0.000
1709298793.531,14.648,-36.133,-39.551,-13.672,0.000
1709298793.534,1.953,-39.062,-41.016,-18.066,0.000
1709298793.538,-11.230,-41.016,-49.316,-19.531,0.000
1709298793.542,-19.043,-53.223,-46.875,-20.996,0.000
1709298793.546,-19.043,-62.500,-37.598,-22.461,0.000
1709298793.550,-16.113,-42.480,-35.156,-29.297,0.000
1709298793.554,-28.320,-29.297,-34.668,-36.621,0.000
1709298793.558,-30.273,-39.062,-25.879,-28.320,0.000
1709298793.562,-19.043,-45.898,-25.391,-21.484,0.000
1709298793.566,-18.066,-45.898,-27.832,-28.320,0.000
1709298793.570,-20.996,-47.363,-28.320,-15.137,0.000
1709298793.574,-22.461,-55.176,-25.879,-4.883,0.000
1709298793.577,-35.645,-48.340,-16.602,-11.230,0.000
1709298793.581,-41.016,-46.875,-17.090,-6.836,0.000
1709298793.585,-31.250,-50.293,-21.973,-8.301,0.000
1709298793.589,-24.414,-36.133,-25.391,-1.953,0.000
1709298793.593,-20.508,-34.180,-28.809,0.000,0.000
1709298793.597,-25.879,-27.344,-26.367,-4.395,0.000
1709298793.601,-29.297,-27.832,-35.156,4.883,0.000
1709298793.605,-18.066,-47.363,-33.203,21.484,0.000
1709298793.609,-17.578,-39.551,-22.461,15.137,0.000
1709298793.613,-28.320,-27.344,-27.344,-20.508,0.000
1709298793.617,0.000,-37.109,-38.574,-34.180,0.000
1709298793.620,0.000,-35.156,-39.062,-22.461,0.000
1709298793.624,0.000,-25.879,-30.762,-18.555,0.000
1709298793.628,0.000,-24.902,-28.320,-27.344,0.000
1709298793.632,0.000,-29.297,-31.738,-26.367,0.000
1709298793.636,0.000,-48.828,-34.180,-15.625,0.000
1709298793.640,0.000,-61.035,-33.691,-6.348,0.000
1709298793.644,0.000,-47.852,-35.645,-15.137,0.000
1709298793.648,0.000,-47.363,-38.574,-36.133,0.000
1709298793.652,0.000,-58.594,-34.180,-39.062,0.000
1709298793.656,0.000,-49.316,-37.109,-40.527,0.000
1709298793.660,0.000,-41.016,-36.133,-32.227,0.000
1709298793.663,-31.250,-49.316,-32.227,-32.227,0.000
1709298793.667,-36.133,-39.551,-36.133,-43.945,0.000
1709298793.671,-37.109,-25.391,-31.250,-41.504,0.000
1709298793.675,-37.109,-39.551,-28.809,-40.527,0.000
1709298793.679,-26.367,-47.363,-23.926,-28.320,0.000
1709298793.683,-17.090,-40.039,-23.926,-9.766,0.000
1709298793.687,-28.320,-42.969,-35.156,-5.859,0.000
1709298793.691,-30.762,-50.293,-42.480,-24.414,0.000
1709298793.695,-29.785,-51.270,-41.992,-41.504,0.000
1709298793.699,-30.273,-41.504,-35.156,-29.785,0.000
1709298793.702,-21.484,-31.738,-30.762,-11.719,0.000
1709298793.706,-17.578,-30.273,-31.738,-18.066,0.000
1709298793.710,-18.555,-34.668,-32.227,-31.250,0.000
1709298793.714,-21.484,-40.039,-36.133,-39.551,0.000
1709298793.718,-27.344,-40.527,-32.227,-28.320,0.000
1709298793.722,-20.996,-29.785,-28.320,-19.043,0.000
1709298793.726,-18.555,-40.527,-45.898,-17.090,0.000
1709298793.730,-20.020,-59.082,-42.480,-20.020,0.000
1709298793.734,-33.203,-40.527,-36.133,-47.363,0.000
1709298793.738,-41.992,-23.926,-46.387,-50.781,0.000
1709298793.742,-30.762,-36.133,-44.434,-26.367,0.000
1709298793.745,-27.344,-42.969,-42.969,-20.996,0.000
1709298793.749,-31.250,-34.180,-44.922,-37.109,0.000
1709298793.753,-37.598,-35.156,-44.922,-38.574,0.000
1709298793.757,-39.551,-37.598,-45.898,-29.297,0.000
1709298793.761,-35.156,-41.504,-44.922,-35.156,0.000
1709298793.765,-41.992,-49.316,-38.574,-51.758,0.000
1709298793.769,-57.129,-47.852,-40.039,-70.312,0.000
1709298793.773,-58.105,-43.457,-39.551,-69.824,0.000
1709298793.777,-52.734,-54.688,-31.250,-51.270,0.000
1709298793.781,-50.293,-56.641,-28.809,-34.180,0.000
1709298793.785,-45.410,-38.086,-26.855,-44.434,0.000
1709298793.788,-44.434,-36.621,-28.320,-62.988,0.000
1709298793.792,-43.457,-35.645,-26.367,-55.176,0.000
1709298793.796,-37.598,-23.438,-25.391,-52.734,0.000
1709298793.800,-25.879,-25.391,-28.809,-48.340,0.000
1709298793.804,-24.414,-34.668,-32.715,-38.086,0.000
1709298793.808,-32.227,-31.250,-39.062,-41.016,0.000
1709298793.812,-26.855,-20.020,-41.992,-39.551,0.000
1709298793.816,-22.461,-22.461,-41.992,-34.668,0.000
1709298793.820,-27.832,-34.668,-48.340,-29.297,0.000
1709298793.824,-27.832,-32.715,-50.781,-14.160,0.000
1709298793.828,-32.715,-20.996,-50.781,-15.625,0.000
1709298793.831,-43.945,-14.160,-52.734,-34.668,0.000
1709298793.835,-38.574,-12.695,-56.641,-24.414,0.000
1709298793.839,-20.508,-22.949,-57.617,-1.953,0.000
1709298793.843,-25.879,-39.062,-44.434,-4.395,0.000
1709298793.847,-32.227,-27.344,-41.016,-14.648,0.000
1709298793.851,-34.668,-7.812,-43.457,-24.414,0.000
1709298793.855,-38.574,-12.207,-39.551,-22.949,0.000
1709298793.859,-41.504,-19.531,-41.016,-12.207,0.000
1709298793.863,-43.945,-21.973,-36.621,-3.418,0.000
1709298793.867,-39.062,-28.809,-32.715,0.000,0.000
1709298793.871,-43.457,-30.273,-33.203,-15.137,0.000
1709298793.874,-41.992,-24.902,-30.762,-30.762,0.000
1709298793.878,-47.363,-17.090,-31.738,-21.484,0.000
1709298793.882,-53.711,-20.996,-29.785,-22.949,0.000
1709298793.886,-49.805,-29.785,-26.367,-47.363,0.000
1709298793.890,-48.340,-22.461,-24.414,-58.594,0.000
1709298793.894,-49.316,-17.578,-22.949,-49.316,0.000
1709298793.898,-50.781,-33.203,-24.414,-44.434,0.000
1709298793.902,-45.898,-36.621,-21.484,-45.898,0.000
1709298793.906,-45.898,-34.668,-23.926,-49.316,0.000
1709298793.910,-38.574,-29.785,-34.180,-45.410,0.000
1709298793.914,-35.645,-24.902,-29.785,-41.016,0.000
1709298793.917,-43.457,-33.203,-23.926,-42.969,0.000
1709298793.921,-41.016,-39.551,-30.273,-37.109,0.000
1709298793.925,-35.156,-37.109,-29.785,-22.461,0.000
1709298793.929,-39.551,-41.992,-32.227,-27.832,0.000
1709298793.933,-43.945,-48.828,-29.297,-27.832,0.000
1709298793.937,-42.969,-33.203,-24.414,-16.113,0.000
1709298793.941,-39.062,-20.508,-24.414,-21.484,0.000
1709298793.945,-31.250,-27.344,-19.531,-27.344,0.000
1709298793.949,-33.691,-33.691,-19.531,-23.926,0.000
1709298793.953,-36.621,-30.762,-20.996,-26.367,0.000
1709298793.957,-26.367,-24.414,-19.043,-14.160,0.000
1709298793.960,-29.297,-25.879,-21.484,-4.883,0.000
1709298793.964,-35.645,-35.156,-27.344,-17.090,0.000
1709298793.968,-29.297,-40.527,-23.926,-16.113,0.000
1709298793.972,-33.691,-46.387,-26.855,-16.113,0.000
1709298793.976,-42.969,-36.621,-29.297,-27.344,0.000
1709298793.980,-43.457,-20.508,-26.367,-30.273,0.000
1709298793.984,-33.691,-27.344,-32.227,-32.715,0.000
1709298793.988,-32.715,-34.668,-38.086,-39.551,0.000
1709298793.992,-38.086,-27.832,-32.227,-48.340,0.000
1709298793.996,-40.039,-32.715,-29.785,-53.711,0.000
1709298793.999,-39.551,-35.156,-22.949,-37.598,0.000
1709298794.003,-44.922,-31.250,-18.555,-26.367,0.000
1709298794.007,-48.828,-27.832,-23.438,-26.367,0.000
1709298794.011,-49.316,-42.969,-20.020,-29.785,0.000
1709298794.015,-56.152,-53.711,-23.926,-42.480,0.000
1709298794.019,-42.480,-42.480,-29.297,-37.598,0.000
1709298794.023,-40.039,-40.039,-26.367,-34.180,0.000
1709298794.027,-43.945,-37.598,-24.902,-35.156,0.000
1709298794.031,-40.039,-35.156,-23.438,-37.598,0.000
1709298794.035,-41.016,-40.039,-31.738,-45.410,0.000
1709298794.039,-33.691,-29.785,-34.668,-36.621,0.000
1709298794.042,-35.156,-28.809,-34.180,-29.785,0.000
1709298794.046,-36.133,-25.879,-33.203,-33.691,0.000
1709298794.050,-39.551,-28.320,-34.668,-42.480,0.000
1709298794.054,-48.828,-32.715,-36.133,-48.340,0.000
1709298794.058,-48.828,-32.715,-32.227,-35.156,0.000
1709298794.062,-39.551,-43.945,-30.762,-20.020,0.000
1709298794.066,-36.133,-35.156,-31.738,-20.996,0.000
1709298794.070,-32.227,-39.062,-29.785,-30.762,0.000
1709298794.074,-45.898,-41.016,-29.297,-41.016,0.000
1709298794.078,-48.828,-28.320,-33.691,-40.039,0.000
1709298794.082,-36.621,-28.320,-34.668,-27.344,0.000
1709298794.085,-34.180,-35.156,-33.203,-25.879,0.000
1709298794.089,-35.156,-24.414,-40.039,-30.762,0.000
1709298794.093,-49.316,-24.902,-41.016,-34.180,0.000
1709298794.097,-44.434,-34.180,-36.621,-35.645,0.000
1709298794.101,-39.551,-33.203,-29.785,-33.203,0.000
1709298794.105,-53.711,-35.156,-29.297,-35.645,0.000
1709298794.109,-61.523,-29.785,-37.598,-40.039,0.000
1709298794.113,-60.059,-24.902,-39.062,-41.992,0.000
1709298794.117,-57.129,-28.320,-34.180,-32.715,0.000
1709298794.121,-44.922,-31.250,-27.344,-11.719,0.000
1709298794.125,-36.621,-34.668,-29.297,-16.113,0.000
1709298794.128,-44.922,-41.504,-41.016,-41.016,0.000
1709298794.132,-53.711,-30.273,-39.551,-47.363,0.000
1709298794.136,-56.152,-20.508,-31.738,-43.945,0.000
1709298794.140,-44.434,-25.879,-33.691,-38.574,0.000
1709298794.144,-41.016,-28.320,-33.691,-35.156,0.000
1709298794.148,-53.223,-31.250,-27.832,-45.898,0.000
1709298794.152,-54.688,-28.809,-29.297,-51.270,0.000
1709298794.156,-46.875,-22.461,-29.297,-49.805,0.000
1709298794.160,-35.156,-22.949,-21.973,-30.762,0.000
1709298794.164,-25.391,-28.809,-22.461,-15.625,0.000
1709298794.167,-31.250,-35.645,-27.832,-32.227,0.000
1709298794.171,-36.133,-41.016,-38.086,-47.852,0.000
1709298794.175,-36.621,-30.273,-35.645,-40.039,0.000
1709298794.179,-40.039,-25.879,-38.574,-35.156,0.000
1709298794.183,-35.645,-31.738,-41.504,-32.715,0.000
1709298794.187,-31.738,-41.992,-32.715,-25.879,0.000
1709298794.191,-29.785,-41.504,-36.133,-25.879,0.000
1709298794.195,-34.180,-23.926,-36.621,-26.855,0.000
1709298794.199,-41.016,-27.832,-35.156,-9.277,0.000
1709298794.203,-35.645,-36.621,-37.598,-1.953,0.000
1709298794.207,-29.785,-42.480,-37.598,-18.066,0.000
1709298794.210,-41.992,-49.805,-41.016,-23.926,0.000
1709298794.214,-49.805,-35.645,-40.039,-35.156,0.000
1709298794.218,-48.340,-16.602,-41.016,-44.434,0.000
1709298794.222,-47.363,-31.250,-49.316,-34.180,0.000
1709298794.226,-40.039,-41.504,-42.480,-30.762,0.000
1709298794.230,-38.086,-53.223,-33.203,-34.180,0.000
1709298794.234,-45.410,-54.688,-34.180,-39.062,0.000
1709298794.238,-45.898,-33.691,-38.086,-42.480,0.000
1709298794.242,-43.457,-32.227,-36.133,-31.738,0.000
1709298794.246,-35.645,-36.621,-38.574,-23.438,0.000
1709298794.250,-38.086,-31.738,-41.504,-46.387,0.000
1709298794.253,-53.223,-28.320,-39.062,-65.430,0.000
1709298794.257,-56.641,-32.715,-42.480,-51.758,0.000
1709298794.261,-43.945,-29.785,-46.875,-47.852,0.000
1709298794.265,-33.691,-27.832,-39.062,-45.410,0.000
1709298794.269,-32.227,-40.039,-31.250,-41.016,0.000
1709298794.273,-35.156,-50.781,-42.480,-42.969,0.000
1709298794.277,-38.086,-42.969,-49.805,-36.133,0.000
1709298794.281,-40.527,-34.668,-44.434,-27.832,0.000
1709298794.285,-41.504,-36.621,-40.039,-31.738,0.000
1709298794.289,-40.039,-37.598,-35.645,-36.621,0.000
1709298794.293,-36.621,-40.527,-35.156,-27.344,0.000
1709298794.296,-34.668,-58.105,-31.250,-25.391,0.000
1709298794.300,-41.016,-47.363,-33.203,-34.180,0.000
1709298794.304,-48.828,-25.879,-41.504,-36.621,0.000
1709298794.308,-40.527,-30.762,-39.551,-37.598,0.000
1709298794.312,-41.504,-42.480,-37.109,-38.574,0.000
1709298794.316,-44.434,-40.039,-39.062,-41.504,0.000
1709298794.320,-38.086,-26.855,-41.992,-28.320,0.000
1709298794.324,-39.062,-28.320,-41.016,-12.695,0.000
1709298794.328,-38.086,-41.016,-32.715,-19.531,0.000
1709298794.332,-39.062,-40.039,-34.180,-26.855,0.000
1709298794.336,-43.945,-29.297,-41.504,-30.273,0.000
1709298794.339,-44.434,-23.926,-38.574,-23.926,0.000
1709298794.343,-40.039,-34.180,-31.250,-11.719,0.000
1709298794.347,-46.387,-40.527,-36.133,-16.602,0.000
1709298794.351,-52.734,-30.273,-41.504,-41.504,0.000
1709298794.355,-49.805,-34.668,-38.574,-52.734,0.000
1709298794.359,-44.434,-30.762,-36.133,-45.898,0.000
1709298794.363,-37.598,-48.340,-38.086,-48.828,0.000
1709298794.367,-36.621,-47.363,-35.645,-50.293,0.000
1709298794.371,-45.898,-21.973,-31.738,-59.570,0.000
1709298794.375,-59.570,-23.926,-36.621,-74.219,0.000
1709298794.379,-47.852,-10.742,-33.203,-53.711,0.000
1709298794.382,-21.484,-15.625,-30.762,-36.621,0.000
1709298794.386,-28.320,-41.016,-34.180,-49.805,0.000
1709298794.390,-39.551,-37.598,-33.691,-48.828,0.000
1709298794.394,-37.109,-24.902,-35.156,-40.527,0.000
1709298794.398,-48.340,-30.273,-41.992,-35.645,0.000
1709298794.402,-38.574,-36.621,-38.574,-22.461,0.000
1709298794.406,-22.949,-35.645,-38.086,-17.578,0.000
1709298794.410,-29.297,-29.785,-47.363,-20.020,0.000
1709298794.414,-40.527,-35.156,-44.922,-30.273,0.000
1709298794.418,-37.109,-32.227,-39.551,-33.691,0.000
1709298794.421,-41.016,-22.461,-39.551,-17.578,0.000
1709298794.425,-40.527,-26.367,-41.016,-16.602,0.000
1709298794.429,-36.133,-32.715,-44.434,-36.621,0.000
1709298794.433,-34.668,-40.039,-41.016,-31.250,0.000
1709298794.437,-32.227,-32.715,-37.598,-18.066,0.000
1709298794.441,-35.645,-15.625,-37.598,-19.043,0.000
1709298794.445,-30.273,-20.996,-34.180,-12.695,0.000
1709298794.449,-28.320,-23.926,-31.738,-20.020,0.000
1709298794.453,-36.621,-15.137,-32.227,-31.738,0.000
1709298794.457,-48.828,-25.879,-39.551,-38.086,0.000
1709298794.461,-46.875,-32.227,-45.410,-52.246,0.000
1709298794.464,-41.992,-34.668,-43.457,-50.781,0.000
1709298794.468,-45.898,-44.922,-44.434,-47.363,0.000
1709298794.472,-56.152,-40.527,-41.992,-65.918,0.000
1709298794.476,-66.895,-23.926,-41.504,-69.336,0.000
1709298794.480,-60.547,-18.555,-42.969,-55.176,0.000
1709298794.484,-49.805,-26.855,-35.645,-36.621,0.000
1709298794.488,-46.875,-28.320,-38.574,-32.715,0.000
1709298794.492,-52.246,-34.668,-41.992,-50.781,0.000
1709298794.496,-62.012,-36.133,-30.273,-56.641,0.000
1709298794.500,-54.688,-43.945,-25.391,-44.922,0.000
1709298794.504,-45.410,-42.480,-32.227,-32.715,0.000
1709298794.507,-42.969,-22.461,-38.086,-36.133,0.000
1709298794.511,-35.645,-16.602,-35.645,-38.086,0.000
1709298794.515,-23.926,-25.391,-30.762,-41.016,0.000
1709298794.519,-22.949,-37.598,-33.691,-41.016,0.000
1709298794.523,-20.996,-29.785,-31.738,-26.855,0.000
1709298794.527,-23.438,-23.926,-31.738,-26.367,0.000
1709298794.531,-34.180,-30.273,-38.086,-42.969,0.000
1709298794.535,-42.480,-28.320,-33.203,-45.898,0.000
1709298794.539,-47.852,-26.367,-37.598,-27.344,0.000
1709298794.543,-39.551,-35.156,-42.969,-20.996,0.000
1709298794.547,-31.250,-49.805,-35.645,-32.227,0.000
1709298794.550,-36.133,-46.387,-37.109,-25.391,0.000
1709298794.554,-41.992,-41.016,-39.062,-27.344,0.000
1709298794.558,-41.504,-51.758,-32.227,-36.133,0.000
1709298794.562,-40.039,-34.180,-29.785,-23.926,0.000
1709298794.566,-38.086,-22.949,-33.691,-27.832,0.000
1709298794.570,-41.504,-32.227,-42.480,-45.410,0.000
1709298794.574,-49.316,-41.992,-41.504,-39.551,0.000
1709298794.578,-45.410,-41.992,-36.133,-33.203,0.000
1709298794.582,-45.410,-38.574,-35.645,-36.133,0.000
1709298794.586,-44.434,-50.781,-33.691,-25.879,0.000
1709298794.590,-34.180,-69.824,-36.133,-31.738,0.000
1709298794.593,-41.016,-58.105,-39.062,-54.199,0.000
1709298794.597,-62.012,-26.367,-40.527,-54.688,0.000
1709298794.601,-52.734,-15.137,-43.945,-45.410,0.000
1709298794.605,-46.387,-26.855,-41.016,-43.457,0.000
1709298794.609,-50.293,-34.180,-47.363,-52.246,0.000
1709298794.613,-44.434,-34.668,-51.758,-61.035,0.000
1709298794.617,-35.156,-34.180,-37.109,-51.270,0.000
1709298794.621,-27.832,-28.809,-36.133,-53.223,0.000
1709298794.625,-27.832,-22.461,-40.527,-56.641,0.000
1709298794.629,-30.762,-24.902,-40.039,-45.410,0.000
1709298794.633,-33.203,-39.551,-35.156,-36.621,0.000
1709298794.636,-41.016,-41.016,-34.180,-44.434,0.000
1709298794.640,-41.992,-32.227,-40.039,-40.039,0.000
1709298794.644,-41.504,-28.320,-39.062,-29.297,0.000
1709298794.648,-40.039,-25.391,-39.062,-31.250,0.000
1709298794.652,-29.785,-30.273,-42.969,-40.527,0.000
1709298794.656,-32.227,-36.621,-37.109,-35.645,0.000
1709298794.660,-29.297,-33.691,-30.273,-18.555,0.000
1709298794.664,-29.297,-34.180,-37.598,-15.625,0.000
1709298794.668,-38.086,-44.922,-42.969,-26.367,0.000
1709298794.672,-35.645,-65.918,-37.109,-26.855,0.000
1709298794.675,-43.457,-57.617,-32.715,-15.625,0.000
1709298794.679,-39.551,-31.250,-33.691,-21.973,0.000
1709298794.683,-34.668,-41.016,-35.645,-28.809,0.000
1709298794.687,-47.852,-53.223,-36.133,-31.250,0.000
1709298794.691,-50.781,-43.945,-35.645,-41.504,0.000
1709298794.695,-51.758,-37.109,-35.156,-43.945,0.000
1709298794.699,-52.246,-41.504,-30.762,-37.598,0.000
1709298794.703,-36.621,-38.574,-22.949,-36.133,0.000
1709298794.707,-34.668,-27.832,-28.320,-43.945,0.000
1709298794.711,-41.992,-44.922,-44.434,-52.734,0.000
1709298794.715,-47.852,-58.105,-43.457,-61.035,0.000
1709298794.718,-58.594,-41.504,-37.109,-46.387,0.000
1709298794.722,-49.316,-30.273,-36.133,-31.250,0.000
1709298794.726,-44.922,-28.809,-33.203,-32.715,0.000
1709298794.730,-53.711,-43.945,-35.156,-45.898,0.000
1709298794.734,-46.875,-40.039,-44.922,-59.082,0.000
1709298794.738,-40.527,-19.531,-40.527,-48.340,0.000
1709298794.742,-32.227,-31.250,-33.203,-37.109,0.000
1709298794.746,-29.297,-46.387,-34.180,-38.086,0.000
1709298794.750,-45.898,-29.785,-34.668,-50.781,0.000
1709298794.754,-53.223,-22.461,-36.621,-61.035,0.000
1709298794.758,-46.875,-30.762,-35.645,-50.293,0.000
1709298794.761,-48.340,-35.156,-40.039,-51.270,0.000
1709298794.765,-44.434,-30.762,-41.016,-50.293,0.000
1709298794.769,-40.039,-23.438,-39.551,-46.387,0.000
1709298794.773,-47.363,-25.391,-39.551,-65.430,0.000
1709298794.777,-38.574,-26.367,-38.086,-57.129,0.000
1709298794.781,-21.484,-22.949,-32.715,-34.180,0.000
1709298794.785,-15.625,-19.531,-32.715,-23.926,0.000
1709298794.789,-17.578,-23.438,-35.645,-27.832,0.000
1709298794.793,-32.715,-24.902,-37.109,-36.133,0.000
1709298794.797,-34.668,-23.926,-32.227,-28.320,0.000
1709298794.801,-26.855,-27.344,-30.762,-11.719,0.000
1709298794.804,-30.273,-31.738,-40.039,-10.254,0.000
1709298794.808,-28.809,-34.668,-40.527,-10.742,0.000
1709298794.812,-32.715,-35.645,-36.621,-20.996,0.000
1709298794.816,-35.156,-37.109,-31.250,-33.691,0.000
1709298794.820,-29.785,-39.551,-36.621,-34.180,0.000
1709298794.824,-32.227,-32.715,-43.945,-30.762,0.000
1709298794.828,-26.367,-26.367,-41.504,-29.297,0.000
1709298794.832,-31.738,-25.391,-39.062,-37.598,0.000
1709298794.836,-44.434,-25.391,-41.016,-53.711,0.000
1709298794.840,-38.574,-19.043,-44.922,-61.523,0.000
1709298794.844,-36.621,-14.648,-42.969,-49.316,0.000
1709298794.847,-33.691,-22.461,-37.109,-38.574,0.000
1709298794.851,-36.621,-24.414,-34.180,-41.504,0.000
1709298794.855,-51.270,-31.250,-34.180,-47.363,0.000
1709298794.859,-44.922,-34.668,-38.086,-35.645,0.000
1709298794.863,-34.180,-23.438,-43.457,-28.320,0.000
1709298794.867,-34.180,-15.137,-44.434,-40.039,0.000
1709298794.871,-30.762,-9.277,-41.016,-39.551,0.000
1709298794.875,-32.227,-12.207,-35.156,-41.992,0.000
1709298794.879,-29.785,-21.973,-30.273,-40.527,0.000
1709298794.883,-31.738,-29.785,-30.273,-22.949,0.000
1709298794.887,-39.062,-32.715,-35.645,-18.555,0.000
1709298794.890,-36.133,-29.785,-37.109,-24.414,0.000
1709298794.894,-28.809,-46.875,-26.367,-20.508,0.000
1709298794.898,-32.715,-57.617,-31.738,-20.020,0.000
1709298794.902,-44.922,-19.531,-44.922,-16.113,0.000
1709298794.906,-31.738,3.906,-37.109,-7.812,0.000
1709298794.910,-22.949,-6.836,-35.156,-30.762,0.000
1709298794.914,-30.273,-15.625,-34.180,-39.062,0.000
1709298794.918,-25.879,-14.160,-28.320,-18.555,0.000
1709298794.922,-23.926,-12.207,-27.832,-14.648,0.000
1709298794.926,-28.809,-11.719,-30.762,-13.184,0.000
1709298794.930,-32.227,-22.461,-34.180,-20.020,0.000
1709298794.933,-32.227,-28.809,-37.109,-31.250,0.000
1709298794.937,-25.391,-31.250,-34.180,-36.133,0.000
1709298794.941,-32.715,-31.738,-32.715,-35.156,0.000
1709298794.945,-40.039,-34.668,-38.574,-32.715,0.000
1709298794.949,-36.133,-37.109,-33.203,-35.645,0.000
1709298794.953,-37.598,-32.227,-35.645,-46.875,0.000
1709298794.957,-35.156,-26.855,-40.039,-55.176,0.000
1709298794.961,-34.668,-28.320,-34.668,-40.039,0.000
1709298794.965,-36.621,-29.785,-32.227,-31.738,0.000
1709298794.969,-38.086,-19.531,-36.621,-41.016,0.000
1709298794.972,-36.133,-30.273,-30.762,-36.133,0.000
1709298794.976,-32.715,-41.016,-29.785,-30.762,0.000
1709298794.980,-37.109,-36.133,-37.598,-36.621,0.000
1709298794.984,-32.715,-32.715,-34.180,-35.645,0.000
1709298794.988,-26.855,-34.668,-29.785,-33.203,0.000
1709298794.992,-35.156,-36.133,-31.250,-23.438,0.000
1709298794.996,-44.434,-28.809,-36.133,-25.391,0.000
1709298795.000,-49.805,-34.180,-40.527,-34.180,0.000
1709298795.004,-41.504,-38.574,-42.969,-24.414,0.000
1709298795.008,-32.227,-43.945,-41.504,-21.973,0.000
1709298795.012,-32.715,-45.410,-39.062,-29.785,0.000
1709298795.015,-37.109,-39.062,-42.480,-31.738,0.000
1709298795.019,-38.574,-38.574,-42.480,-30.762,0.000
1709298795.023,-47.363,-31.738,-40.527,-32.715,0.000
1709298795.027,-42.969,-27.832,-41.016,-38.574,0.000
1709298795.031,-38.086,-34.668,-39.551,-37.598,0.000
1709298795.035,-31.738,-40.039,-39.551,-33.691,0.000
1709298795.039,-29.297,-37.109,-37.109,-34.180,0.000
1709298795.043,-35.156,-35.645,-39.551,-27.832,0.000
1709298795.047,-36.621,-24.902,-42.480,-38.574,0.000
1709298795.051,-36.133,-14.160,-40.527,-32.715,0.000
1709298795.055,-31.250,-25.879,-48.340,-31.250,0.000
1709298795.058,-35.156,-51.270,-51.270,-55.176,0.000
1709298795.062,-40.527,-44.434,-41.504,-51.270,0.000
1709298795.066,-40.527,-23.438,-38.086,-54.688,0.000
1709298795.070,-41.992,-31.738,-40.527,-57.617,0.000
1709298795.074,-44.922,-45.898,-44.434,-61.523,0.000
1709298795.078,-45.898,-39.062,-42.480,-56.641,0.000
1709298795.082,-45.898,-24.902,-39.551,-46.875,0.000
1709298795.086,-50.293,-25.391,-40.039,-47.363,0.000
1709298795.090,-36.133,-28.320,-44.434,-49.805,0.000
1709298795.094,-39.062,-37.109,-45.410,-49.316,0.000
1709298795.098,-65.430,-46.387,-40.527,-46.387,0.000
1709298795.101,-64.453,-47.363,-38.086,-41.992,0.000
1709298795.105,-45.898,-35.156,-37.109,-34.668,0.000
1709298795.109,-43.945,-27.344,-41.504,-40.527,0.000
1709298795.113,-49.805,-40.039,-41.504,-58.105,0.000
1709298795.117,-42.969,-28.320,-39.062,-47.852,0.000
1709298795.121,-37.598,-12.695,-33.203,-22.949,0.000
1709298795.125,-33.203,-17.090,-33.203,-31.250,0.000
1709298795.129,-37.109,-17.090,-44.434,-47.852,0.000
1709298795.133,-43.457,-23.438,-50.293,-57.617,0.000
1709298795.137,-37.109,-33.691,-44.922,-48.828,0.000
1709298795.140,-40.527,-41.504,-41.992,-41.992,0.000
1709298795.144,-44.922,-37.109,-42.480,-34.668,0.000
1709298795.148,-40.039,-28.809,-43.945,-40.039,0.000
1709298795.152,-36.133,-34.180,-38.086,-44.922,0.000
1709298795.156,-34.180,-37.109,-37.109,-29.297,0.000
1709298795.160,-38.086,-22.949,-36.621,-29.785,0.000
1709298795.164,0.000,-24.902,-38.086,-39.062,0.000
1709298795.168,0.000,-34.668,-38.086,-38.086,0.000
1709298795.172,0.000,-30.273,-31.250,-40.527,0.000
1709298795.176,0.000,-30.273,-31.250,-40.039,0.000
1709298795.180,0.000,-22.461,-27.832,-36.621,0.000
1709298795.183,0.000,-15.137,-25.391,-18.555,0.000
1709298795.187,0.000,-23.438,-28.320,-17.578,0.000
1709298795.191,0.000,-36.133,-30.762,-34.668,0.000
1709298795.195,0.000,-40.039,-28.809,-31.738,0.000
1709298795.199,0.000,-30.762,-32.227,-35.645,0.000
1709298795.203,0.000,-25.879,-34.668,-25.391,0.000
1709298795.207,0.000,-31.738,-32.227,-2.441,0.000
1709298795.211,-36.621,-37.598,-29.785,-17.578,0.000
1709298795.215,-48.340,-37.109,-30.762,-43.457,0.000
1709298795.219,-52.246,-46.387,-34.180,-36.621,0.000
1709298795.223,-50.781,-54.688,-31.250,-27.344,0.000
1709298795.226,-46.875,-38.086,-38.086,-24.414,0.000
1709298795.230,-52.734,-28.809,-40.527,-33.691,0.000
1709298795.234,-55.664,-32.715,-37.109,-51.270,0.000
1709298795.238,-50.293,-30.273,-41.992,-44.434,0.000
1709298795.242,-52.246,-32.715,-39.551,-32.227,0.000
1709298795.246,-42.480,-37.598,-30.273,-24.902,0.000
1709298795.250,-41.992,-41.504,-33.691,-38.086,0.000
1709298795.254,-42.969,-38.574,-41.016,-52.734,0.000
1709298795.258,0.000,-29.785,-40.527,-35.645,0.000
1709298795.262,0.000,-33.691,-41.504,-28.809,0.000
1709298795.266,0.000,-35.645,-45.898,-31.250,0.000
1709298795.269,0.000,-37.109,-48.340,-36.621,0.000
1709298795.273,0.000,-43.457,-41.992,-52.246,0.000
1709298795.277,0.000,-41.016,-39.551,-53.223,0.000
1709298795.281,0.000,-37.598,-42.969,-33.203,0.000
1709298795.285,0.000,-30.762,-44.434,-26.367,0.000
1709298795.289,0.000,-31.250,-43.457,-38.086,0.000
1709298795.293,0.000,-28.320,-43.457,-37.109,0.000
1709298795.297,0.000,-27.832,-47.852,-41.992,0.000
1709298795.301,0.000,-42.480,-55.664,-38.086,0.000
1709298795.305,-41.504,-47.363,-52.246,-35.645,0.000
1709298795.309,-40.039,-34.668,-40.527,-31.738,0.000
1709298795.312,-36.133,-44.434,-41.992,-42.969,0.000
1709298795.316,-42.969,-55.176,-41.504,-51.270,0.000
1709298795.320,-42.969,-41.992,-32.715,-37.598,0.000
1709298795.324,-37.598,-46.387,-25.879,-35.645,0.000
1709298795.328,-25.391,-65.918,-25.879,-38.086,0.000
1709298795.332,-26.855,-46.875,-35.645,-43.945,0.000
1709298795.336,-48.340,-36.133,-40.039,-46.387,0.000
1709298795.340,-46.387,-39.062,-38.086,-42.480,0.000
1709298795.344,-33.691,-37.598,-36.133,-39.062,0.000
1709298795.348,-40.039,-51.270,-36.621,-46.387,0.000
1709298795.352,-41.016,-48.828,-29.785,-49.316,0.000
1709298795.355,-44.434,-44.434,-28.809,-45.898,0.000
1709298795.359,-44.434,-38.086,-34.180,-41.016,0.000
1709298795.363,-32.715,-34.180,-34.668,-21.484,0.000
1709298795.367,-27.832,-41.504,-28.809,-17.090,0.000
1709298795.371,-25.391,-43.945,-38.086,-34.668,0.000
1709298795.375,-29.785,-41.992,-43.945,-37.598,0.000
1709298795.379,-18.555,-57.129,-35.645,-14.160,0.000
1709298795.383,-15.625,-51.758,-34.668,-5.371,0.000
1709298795.387,-31.738,-25.879,-29.785,-20.996,0.000
1709298795.391,-31.250,-23.438,-30.762,-28.320,0.000
1709298795.394,-41.504,-35.645,-33.691,-36.133,0.000
1709298795.398,-52.734,-35.645,-33.691,-35.645,0.000
1709298795.402,-46.875,-39.551,-42.480,-31.738,0.000
1709298795.406,-48.828,-60.059,-38.086,-29.785,0.000
1709298795.410,-53.711,-47.852,-33.691,-33.691,0.000
1709298795.414,-55.176,-32.227,-35.156,-44.922,0.000
1709298795.418,-51.270,-42.480,-33.203,-40.039,0.000
1709298795.422,-51.270,-43.945,-31.738,-46.387,0.000
1709298795.426,-39.551,-40.039,-28.809,-44.922,0.000
1709298795.430,-37.598,-46.387,-30.762,-47.852,0.000
1709298795.434,-44.434,-43.945,-36.133,-63.965,0.000
1709298795.437,-33.691,-42.969,-31.738,-53.223,0.000
1709298795.441,-36.621,-45.898,-29.785,-41.016,0.000
1709298795.445,-46.875,-40.527,-38.574,-47.363,0.000
1709298795.449,-46.875,-35.156,-35.645,-50.293,0.000
1709298795.453,-49.805,-33.203,-31.250,-42.480,0.000
1709298795.457,-53.711,-42.969,-28.809,-37.598,0.000
1709298795.461,-44.434,-35.156,-23.438,-26.855,0.000
1709298795.465,-31.250,-29.785,-29.785,-21.484,0.000
1709298795.469,-39.062,-32.715,-32.715,-19.531,0.000
1709298795.473,-47.363,-34.180,-32.715,-24.902,0.000
1709298795.477,-47.363,-39.062,-38.086,-43.945,0.000
1709298795.480,-47.852,-34.668,-39.551,-41.504,0.000
1709298795.484,-33.691,-30.273,-35.156,-19.043,0.000
1709298795.488,-37.598,-32.715,-30.762,-20.020,0.000
1709298795.492,-46.875,-54.688,-34.180,-35.645,0.000
1709298795.496,-44.434,-50.293,-39.551,-37.109,0.000
1709298795.500,-41.992,-22.949,-39.551,-34.180,0.000
1709298795.504,-31.738,-32.715,-36.621,-26.367,0.000
1709298795.508,-37.109,-39.062,-41.504,-36.133,0.000
1709298795.512,-46.387,-20.020,-42.480,-43.457,0.000
1709298795.516,-42.969,-20.996,-39.551,-34.180,0.000
1709298795.520,-41.504,-25.879,-44.434,-31.250,0.000
1709298795.523,-34.668,-21.484,-43.457,-20.508,0.000
1709298795.527,-40.039,-23.926,-37.109,-29.785,0.000
1709298795.531,-45.898,-39.062,-34.180,-60.547,0.000
1709298795.535,-41.992,-46.387,-34.668,-68.848,0.000
1709298795.539,-50.293,-30.762,-31.738,-55.664,0.000
1709298795.543,-49.316,-38.086,-31.738,-31.250,0.000
1709298795.547,-45.410,-41.504,-38.574,-25.391,0.000
1709298795.551,-48.340,-35.645,-38.574,-42.969,0.000
1709298795.555,-53.223,-52.734,-36.621,-55.664,0.000
1709298795.559,-56.641,-41.504,-41.016,-58.594,0.000
1709298795.563,-49.316,-26.367,-42.480,-42.969,0.000
1709298795.566,-48.828,-24.902,-41.016,-36.621,0.000
1709298795.570,-46.875,-28.809,-39.062,-42.969,0.000
1709298795.574,-41.016,-42.480,-33.691,-47.363,0.000
1709298795.578,-50.781,-45.410,-38.574,-51.270,0.000
1709298795.582,-54.688,-44.434,-42.480,-39.062,0.000
1709298795.586,-35.156,-45.410,-38.574,0.000,0.000
1709298795.590,-29.785,-37.109,-38.086,0.000,0.000
1709298795.594,-41.992,-32.227,-42.480,0.000,0.000
1709298795.598,-39.062,-31.738,-42.480,0.000,0.000
1709298795.602,-20.996,-38.086,-39.551,0.000,0.000
1709298795.606,-12.695,-46.875,-41.016,0.000,0.000
1709298795.609,-17.090,-34.180,-44.434,0.000,0.000
1709298795.613,-20.020,-15.137,-47.363,0.000,0.000
1709298795.617,-20.020,-8.301,-40.039,0.000,0.000
1709298795.621,-26.855,-3.906,-36.621,0.000,0.000
1709298795.625,-30.762,-12.207,-42.480,0.000,0.000
1709298795.629,-27.344,-27.832,-41.992,0.000,0.000
1709298795.633,-37.109,-29.297,-39.551,-54.199,0.000
1709298795.637,-43.457,-20.020,-40.039,-52.734,0.000
1709298795.641,-33.203,-20.996,-38.574,-38.086,0.000
1709298795.645,-27.832,-26.855,-37.109,-29.297,0.000
1709298795.649,-33.203,-23.438,-36.621,-34.668,0.000
1709298795.652,-38.086,-22.949,-40.527,-41.992,0.000
1709298795.656,-33.691,-30.762,-39.062,-36.621,0.000
1709298795.660,-36.621,-29.785,-33.691,-20.508,0.000
1709298795.664,-47.363,-19.531,-41.016,-21.973,0.000
1709298795.668,-46.875,-12.695,-41.016,-33.691,0.000
1709298795.672,-41.016,-3.418,-26.855,-40.039,0.000
1709298795.676,-40.039,-7.324,-22.461,-45.410,0.000
1709298795.680,0.000,-17.090,-27.832,-42.969,0.000
1709298795.684,0.000,-20.020,-27.832,-38.574,0.000
1709298795.688,0.000,-23.926,-29.297,-41.504,0.000
1709298795.692,0.000,-28.320,-37.598,-48.828,0.000
1709298795.695,0.000,-37.598,-44.434,-51.758,0.000
1709298795.699,0.000,-41.016,-38.574,-39.062,0.000
1709298795.703,0.000,-37.598,-32.227,-27.832,0.000
1709298795.707,0.000,-28.809,-35.645,-32.227,0.000
1709298795.711,0.000,-19.043,-40.039,-38.574,0.000
1709298795.715,0.000,-20.996,-36.621,-40.527,0.000
1709298795.719,0.000,-40.527,-34.180,-40.039,0.000
1709298795.723,0.000,-38.086,-40.527,-32.715,0.000
1709298795.727,-41.992,-21.973,-47.363,-27.344,0.000
1709298795.731,-49.316,-28.320,-43.457,-35.645,0.000
1709298795.735,-50.781,-30.273,-40.527,-40.039,0.000
1709298795.738,-41.992,-27.832,-41.992,-36.133,0.000
1709298795.742,-38.574,-49.805,-36.133,-32.715,0.000
1709298795.746,-39.062,-52.246,-34.180,-27.832,0.000
1709298795.750,-32.715,-33.203,-38.574,-29.785,0.000
1709298795.754,-41.016,-26.855,-34.180,-35.645,0.000
1709298795.758,-53.711,-20.020,-44.434,-40.527,0.000
1709298795.762,-39.551,-29.785,-51.270,-43.945,0.000
1709298795.766,-37.109,-34.668,-39.062,-51.270,0.000
1709298795.770,-46.387,-14.648,-35.645,-53.223,0.000
1709298795.774,-59.570,-20.996,-42.480,-61.035,0.000
1709298795.777,-73.242,-37.109,-42.969,-66.895,0.000
1709298795.781,-63.965,-41.504,-34.180,-60.059,0.000
1709298795.785,-58.594,-35.645,-28.809,-51.270,0.000
1709298795.789,-58.594,-26.855,-27.832,-41.504,0.000
1709298795.793,-62.012,-41.016,-31.738,-49.316,0.000
1709298795.797,-67.871,-47.852,-30.273,-50.293,0.000
1709298795.801,-56.152,-30.762,-33.691,-41.992,0.000
1709298795.805,-41.992,-33.691,-33.691,-43.457,0.000
1709298795.809,-40.527,-54.688,-23.438,-30.762,0.000
1709298795.813,-44.434,-42.480,-36.133,-29.297,0.000
1709298795.817,-47.852,-23.926,-38.086,-34.180,0.000
1709298795.820,-48.828,-25.391,-31.738,-25.391,0.000
1709298795.824,-36.133,-29.785,-29.785,-18.066,0.000
1709298795.828,-19.531,-30.762,-29.785,-17.090,0.000
1709298795.832,-17.090,-25.391,-36.133,-27.832,0.000
1709298795.836,-21.973,-28.320,-40.527,-29.785,0.000
1709298795.840,-24.414,-39.551,-37.598,-19.043,0.000
1709298795.844,-31.738,-36.133,-37.109,-22.461,0.000
1709298795.848,-35.156,-41.504,-40.039,-35.645,0.000
1709298795.852,-38.574,-45.898,-39.551,-42.480,0.000
1709298795.856,-40.039,-36.133,-44.922,-42.969,0.000
1709298795.860,-33.691,-30.762,-41.016,-27.344,0.000
1709298795.863,-32.715,-40.039,-38.086,-19.043,0.000
1709298795.867,-28.320,-43.945,-41.992,-29.297,0.000
1709298795.871,-33.691,-40.039,-33.691,-31.250,0.000
1709298795.875,-50.293,-48.828,-31.738,-41.992,0.000
1709298795.879,-50.781,-54.688,-39.551,-57.617,0.000
1709298795.883,-47.363,-38.086,-39.062,-45.410,0.000
1709298795.887,-51.758,-29.297,-33.691,-42.969,0.000
1709298795.891,-52.246,-41.504,-39.062,-47.363,0.000
1709298795.895,-56.641,-48.340,-38.574,-42.480,0.000
1709298795.899,-58.105,-41.016,-32.227,-46.875,0.000
1709298795.902,-55.176,-35.156,-32.227,-38.574,0.000
1709298795.906,-50.781,-37.598,-35.156,-30.762,0.000
1709298795.910,-49.805,-39.062,-39.551,-40.039,0.000
1709298795.914,-54.688,-36.133,-39.062,-45.898,0.000
1709298795.918,-52.734,-34.668,-29.785,-40.039,0.000
1709298795.922,-41.992,-57.129,-22.949,-25.879,0.000
1709298795.926,-48.828,-57.617,-27.832,-29.785,0.000
1709298795.930,-58.594,-31.250,-40.039,-44.922,0.000
1709298795.934,-56.641,-30.273,-41.504,-48.340,0.000
1709298795.938,-61.523,-33.691,-39.551,-44.922,0.000
1709298795.942,-50.293,-37.109,-40.527,-35.645,0.000
1709298795.945,-37.598,-39.062,-33.691,-32.715,0.000
1709298795.949,-36.621,-43.945,-33.203,-34.180,0.000
1709298795.953,-39.551,-48.340,-39.062,-35.645,0.000
1709298795.957,-42.969,-37.109,-43.457,-41.016,0.000
1709298795.961,-42.480,-31.738,-41.016,-28.320,0.000
1709298795.965,-43.945,-31.738,-42.969,-17.090,0.000
1709298795.969,-35.645,-35.156,-48.340,-35.156,0.000
1709298795.973,-25.879,-45.410,-44.434,-43.457,0.000
1709298795.977,-36.621,-41.016,-39.551,-40.527,0.000
1709298795.981,-39.062,-35.156,-38.574,-36.621,0.000
1709298795.985,-27.344,-41.504,-34.180,-29.297,0.000
1709298795.988,-32.715,-41.992,-28.809,-29.785,0.000
1709298795.992,-42.480,-37.109,-34.668,-37.598,0.000
1709298795.996,-41.016,-32.715,-43.945,-33.691,0.000
1709298796.000,-36.133,-39.062,-45.410,-14.648,0.000
1709298796.004,-41.504,-44.434,-46.387,-21.973,0.000
1709298796.008,-51.270,-41.016,-43.945,-38.574,0.000
1709298796.012,-43.945,-46.875,-39.062,-34.180,0.000
1709298796.016,-45.898,-46.387,-36.133,-40.527,0.000
1709298796.020,-53.711,-41.504,-35.645,-45.898,0.000
1709298796.024,-43.457,-47.852,-35.156,-39.062,0.000
1709298796.028,-36.133,-54.199,-34.180,-37.109,0.000
1709298796.031,-47.852,-50.293,-35.156,-42.969,0.000
1709298796.035,-52.246,-36.133,-33.691,-53.223,0.000
1709298796.039,-43.945,-28.809,-32.715,-47.363,0.000
1709298796.043,-47.363,-35.156,-39.551,-35.156,0.000
1709298796.047,-42.969,-43.457,-39.551,-37.109,0.000
1709298796.051,-24.414,-40.527,-33.691,-46.387,0.000
1709298796.055,-33.691,-32.227,-33.203,-49.316,0.000
1709298796.059,-42.969,-35.156,-31.738,-42.969,0.000
1709298796.063,-34.180,-41.504,-33.691,-26.367,0.000
1709298796.067,-30.273,-46.875,-35.156,-20.996,0.000
1709298796.071,-27.832,-56.152,-39.062,-35.645,0.000
1709298796.074,-28.320,-49.316,-41.016,-38.086,0.000
1709298796.078,-33.203,-38.574,-36.133,-32.715,0.000
1709298796.082,-38.086,-39.551,-36.621,-25.879,0.000
1709298796.086,-26.367,-40.527,-37.109,-18.555,0.000
1709298796.090,-31.738,-29.297,-41.992,-41.504,0.000
1709298796.094,-47.852,-32.715,-39.062,-60.547,0.000
1709298796.098,-43.457,-49.316,-35.645,-44.434,0.000
1709298796.102,-38.574,-59.082,-38.574,-21.484,0.000
1709298796.106,-36.133,-54.688,-34.668,-15.137,0.000
1709298796.110,-44.922,-36.133,-36.133,-34.668,0.000
1709298796.114,-52.246,-36.621,-41.016,-58.594,0.000
1709298796.117,-45.898,-51.270,-39.551,-61.035,0.000
1709298796.121,-41.992,-46.875,-39.551,-50.293,0.000
1709298796.125,-39.551,-37.598,-41.504,-45.410,0.000
1709298796.129,-34.180,-44.922,-38.086,-36.133,0.000
1709298796.133,-35.156,-48.828,-38.086,-34.180,0.000
1709298796.137,-35.645,-41.992,-44.922,-41.016,0.000
1709298796.141,-37.109,-51.270,-48.340,-42.480,0.000
1709298796.145,-38.574,-53.223,-46.875,-40.039,0.000
1709298796.149,-32.715,-40.039,-39.551,-29.297,0.000
1709298796.153,-33.691,-45.410,-42.480,-35.156,0.000
1709298796.157,-43.457,-53.711,-47.852,-47.852,0.000
1709298796.160,-37.598,-42.969,-37.598,-30.762,0.000
1709298796.164,-27.344,-42.969,-36.133,-19.531,0.000
1709298796.168,-26.367,-47.852,-41.504,-23.926,0.000
1709298796.172,-24.902,-41.992,-42.480,-31.738,0.000
1709298796.176,-31.738,-39.551,-42.969,-43.457,0.000
1709298796.180,-37.598,-49.805,-41.992,-36.621,0.000
1709298796.184,-26.855,-62.988,-45.410,-28.320,0.000
1709298796.188,-20.996,-52.734,-50.293,-31.250,0.000
1709298796.192,-24.902,-41.016,-50.781,-46.875,0.000
1709298796.196,-27.344,-41.992,-51.758,-51.270,0.000
1709298796.200,-35.156,-45.898,-51.270,-43.457,0.000
1709298796.203,-37.598,-36.133,-49.316,-39.062,0.000
1709298796.207,-32.715,-33.203,-56.152,-35.645,0.000
1709298796.211,-36.133,-34.180,-55.664,-36.621,0.000
1709298796.215,-40.039,-35.156,-50.781,-44.434,0.000
1709298796.219,-30.762,-53.711,-51.270,-37.109,0.000
1709298796.223,-26.855,-59.570,-55.664,-26.367,0.000
1709298796.227,-28.809,-41.016,-53.223,-44.922,0.000
1709298796.231,-25.879,-33.691,-54.199,-52.734,0.000
1709298796.235,-38.574,-46.387,-56.152,-45.898,0.000
1709298796.239,-50.293,-44.434,-45.898,-46.387,0.000
1709298796.243,-42.480,-34.668,-54.688,-46.387,0.000
1709298796.246,-37.598,-36.133,-63.965,-43.945,0.000
1709298796.250,-45.410,-36.133,-54.199,-43.457,0.000
1709298796.254,-52.246,-36.133,-43.945,-45.898,0.000
1709298796.258,-53.711,-48.340,-43.945,-53.711,0.000
1709298796.262,-50.293,-55.176,-47.852,-41.992,0.000
1709298796.266,-48.340,-47.852,-43.945,-29.297,0.000
1709298796.270,-50.781,-40.527,-37.109,-30.762,0.000
1709298796.274,-51.270,-41.016,-30.273,-33.203,0.000
1709298796.278,-47.852,-39.551,-32.227,-38.574,0.000
1709298796.282,-39.551,-35.645,-37.598,-34.180,0.000
1709298796.286,-31.738,-28.809,-26.855,-25.879,0.000
1709298796.289,-22.949,-30.762,-25.879,-14.160,0.000
1709298796.293,-14.160,-46.387,-21.973,-4.395,0.000
1709298796.297,-18.066,-63.477,-20.508,-9.277,0.000
1709298796.301,-33.691,-52.246,-29.785,-11.719,0.000
1709298796.305,-24.902,-28.809,-27.832,0.488,0.000
1709298796.309,-8.789,-26.367,-28.809,-4.395,0.000
1709298796.313,-19.531,-21.973,-40.039,-22.461,0.000
1709298796.317,-29.785,-29.785,-41.504,-26.367,0.000
1709298796.321,-24.902,-36.133,-38.574,-20.020,0.000
1709298796.325,-20.508,-39.062,-40.527,-17.578,0.000
1709298796.328,-21.973,-46.387,-43.457,-19.043,0.000
1709298796.332,-26.367,-43.945,-41.992,-20.020,0.000
1709298796.336,-23.926,-42.969,-35.645,-23.926,0.000
1709298796.340,-16.602,-46.875,-37.109,-28.809,0.000
1709298796.344,-22.461,-53.223,-44.434,-30.273,0.000
1709298796.348,-27.344,-54.688,-53.711,-35.156,0.000
1709298796.352,-25.879,-42.480,-55.176,-48.340,0.000
1709298796.356,-28.809,-29.297,-51.270,-46.875,0.000
1709298796.360,-22.949,-28.320,-49.316,-40.039,0.000
1709298796.364,-17.090,-38.574,-47.363,-49.805,0.000
1709298796.368,-24.414,-41.504,-48.340,-50.781,0.000
1709298796.371,-31.250,-37.109,-46.875,-56.152,0.000
1709298796.375,-43.457,-34.180,-36.133,-66.406,0.000
1709298796.379,-60.547,-46.387,-40.039,-77.148,0.000
1709298796.383,-55.176,-52.734,-40.527,-73.730,0.000
1709298796.387,-51.758,-50.293,-29.785,-65.918,0.000
1709298796.391,-53.223,-46.387,-31.250,-72.754,0.000
1709298796.395,-48.828,-42.969,-24.902,-69.336,0.000
1709298796.399,-46.875,-40.039,-16.113,-50.293,0.000
1709298796.403,-41.504,-37.598,-21.973,-34.180,0.000
1709298796.407,-32.227,-28.809,-25.391,-34.180,0.000
1709298796.411,-31.250,-21.973,-21.973,-36.621,0.000
1709298796.414,-29.297,-27.832,-20.996,-27.344,0.000
1709298796.418,-30.762,-20.996,-25.391,-14.160,0.000
1709298796.422,-27.832,-20.996,-28.809,-12.207,0.000
1709298796.426,-18.555,-33.691,-33.203,-20.020,0.000
1709298796.430,-22.949,-30.762,-40.039,-23.438,0.000
1709298796.434,-25.879,-21.973,-36.133,-21.973,0.000
1709298796.438,-19.531,-24.902,-34.668,-28.809,0.000
1709298796.442,-16.602,-33.203,-32.715,-22.949,0.000
1709298796.446,-24.414,-27.344,-35.156,-13.672,0.000
1709298796.450,-26.855,-24.902,-42.480,-24.902,0.000
1709298796.454,-27.344,-31.250,-40.039,-27.344,0.000
1709298796.457,-33.691,-35.645,-34.668,-22.461,0.000
1709298796.461,-39.062,-37.109,-43.457,-32.227,0.000
1709298796.465,-28.320,-34.668,-55.664,-29.785,0.000
1709298796.469,-20.996,-34.180,-47.363,-24.414,0.000
1709298796.473,-28.809,-20.020,-44.922,-39.062,0.000
1709298796.477,-23.926,-14.160,-46.387,-35.645,0.000
1709298796.481,-26.367,-24.902,-43.457,-30.762,0.000
1709298796.485,-38.574,-30.762,-52.246,-41.504,0.000
1709298796.489,-38.086,-22.461,-51.758,-38.086,0.000
1709298796.493,-40.039,-27.832,-45.410,-41.016,0.000
1709298796.497,-39.062,-32.715,-47.852,-46.387,0.000
1709298796.500,-38.574,-19.043,-46.387,-40.527,0.000
1709298796.504,-33.203,-18.555,-36.133,-33.691,0.000
1709298796.508,-37.598,-27.832,-32.227,-37.109,0.000
1709298796.512,-52.734,-30.762,-31.250,-45.898,0.000
1709298796.516,-62.500,-31.738,-26.367,-45.898,0.000
1709298796.520,-62.012,-46.387,-25.391,-37.109,0.000
1709298796.524,-58.594,-50.781,-23.926,-34.668,0.000
1709298796.528,-59.570,-45.410,-18.555,-42.480,0.000
1709298796.532,-52.246,-47.852,-13.672,-35.645,0.000
1709298796.536,-41.992,-33.203,-17.578,-31.250,0.000
1709298796.540,-45.898,-24.902,-28.809,-36.621,0.000
1709298796.543,-49.805,-38.574,-29.785,-36.621,0.000
1709298796.547,-39.062,-40.527,-26.855,-30.762,0.000
1709298796.551,-23.926,-45.410,-31.738,-20.996,0.000
1709298796.555,-27.344,-50.293,-28.809,-16.602,0.000
1709298796.559,-43.457,-39.551,-25.879,-29.785,0.000
1709298796.563,-35.645,-37.109,-33.203,-36.621,0.000
1709298796.567,-25.879,-35.645,-33.203,-28.809,0.000
1709298796.571,-28.809,-34.180,-32.715,-28.809,0.000
1709298796.575,-29.785,-32.715,-38.574,-36.133,0.000
1709298796.579,-32.227,-41.992,-42.969,-37.598,0.000
1709298796.583,-29.785,-42.480,-41.016,-23.926,0.000
1709298796.586,-27.344,-33.691,-36.133,-19.043,0.000
1709298796.590,-25.391,-52.734,-31.250,-24.414,0.000
1709298796.594,-20.020,-47.363,-32.715,-37.598,0.000
1709298796.598,-27.344,-21.484,-35.156,-48.828,0.000
1709298796.602,-28.809,-26.367,-41.504,-44.922,0.000
1709298796.606,-34.668,-35.156,-53.223,-41.992,0.000
1709298796.610,-48.828,-26.367,-54.199,-41.504,0.000
1709298796.614,-49.316,-23.926,-50.781,-50.781,0.000
1709298796.618,-43.457,-35.645,-47.852,-67.383,0.000
1709298796.622,-42.480,-31.250,-42.480,-70.312,0.000
1709298796.626,-41.504,-19.531,-40.039,-65.430,0.000
1709298796.629,-42.480,-25.879,-30.762,-58.594,0.000
1709298796.633,-47.852,-48.340,-20.020,-56.152,0.000
1709298796.637,-54.688,-43.945,-20.996,-66.406,0.000
1709298796.641,-55.176,-32.227,-22.461,-54.199,0.000
1709298796.645,-49.805,-29.297,-28.320,-33.203,0.000
1709298796.649,-35.645,-25.391,-27.344,-33.203,0.000
1709298796.653,-29.297,-32.715,-23.926,-42.480,0.000
1709298796.657,-41.016,-42.969,-22.461,-30.273,0.000
1709298796.661,-52.734,-42.969,-24.902,-13.672,0.000
1709298796.665,-46.387,-36.133,-30.762,-10.254,0.000
1709298796.669,-30.273,-55.176,-27.344,-11.230,0.000
1709298796.672,-28.320,-69.336,-26.367,-20.020,0.000
1709298796.676,-49.316,-44.922,-29.785,-25.391,0.000
1709298796.680,-54.688,-29.297,-33.691,-26.367,0.000
1709298796.684,-39.062,-37.109,-34.668,-12.207,0.000
1709298796.688,-34.180,-47.363,-32.227,1.953,0.000
1709298796.692,-36.621,-38.086,-36.133,-15.625,0.000
1709298796.696,-37.109,-34.180,-41.016,-28.320,0.000
1709298796.700,-39.551,-41.992,-44.434,-11.230,0.000
1709298796.704,-34.668,-38.574,-47.363,-6.348,0.000
1709298796.708,-23.438,-36.133,-39.062,-7.812,0.000
1709298796.712,-21.484,-42.969,-36.133,-13.184,0.000
1709298796.715,-34.668,-41.992,-48.340,-20.996,0.000
1709298796.719,-35.645,-38.086,-44.434,-21.484,0.000
1709298796.723,-29.297,-29.785,-34.180,-25.391,0.000
1709298796.727,-32.227,-34.668,-36.621,-27.832,0.000
1709298796.731,-41.504,-33.691,-42.480,-32.227,0.000
1709298796.735,-52.246,-23.926,-44.922,-42.969,0.000
1709298796.739,-51.270,-20.996,-45.410,-43.945,0.000
1709298796.743,-44.434,-29.297,-42.969,-29.297,0.000
1709298796.747,-42.480,-39.062,-38.574,-18.066,0.000
1709298796.751,-38.574,-33.691,-32.715,-37.109,0.000
1709298796.754,-37.598,-46.875,-31.738,-56.641,0.000
1709298796.758,-42.480,-42.480,-35.156,-45.898,0.000
1709298796.762,-49.805,-20.508,-34.668,-42.969,0.000
1709298796.766,-51.758,-17.090,-27.344,-41.992,0.000
1709298796.770,-42.480,-21.973,-21.973,-40.039,0.000
1709298796.774,-40.527,-33.203,-24.902,-34.180,0.000
1709298796.778,-40.039,-43.945,-24.902,-17.090,0.000
1709298796.782,-26.367,-43.457,-20.020,5.859,0.000
1709298796.786,-20.996,-33.203,-20.508,15.625,0.000
1709298796.790,-32.715,-34.668,-25.879,9.766,0.000
1709298796.794,-32.227,-41.504,-24.902,4.395,0.000
1709298796.797,-21.973,-36.621,-23.438,-0.977,0.000
1709298796.801,-29.785,-38.086,-33.691,-2.441,0.000
1709298796.805,-36.621,-49.316,-40.039,-12.695,0.000
1709298796.809,-31.738,-51.270,-33.691,-13.184,0.000
1709298796.813,-36.133,-44.922,-33.203,-16.113,0.000
1709298796.817,-35.156,-42.969,-32.715,-35.645,0.000
1709298796.821,-36.133,-43.457,-36.621,-31.250,0.000
1709298796.825,-41.016,-55.664,-43.457,-18.555,0.000
1709298796.829,-39.551,-47.363,-39.062,-21.973,0.000
1709298796.833,-37.109,-44.434,-41.992,-31.250,0.000
1709298796.837,-32.227,-47.852,-40.527,-34.180,0.000
1709298796.840,-33.691,-25.391,-36.621,-23.438,0.000
1709298796.844,-27.832,-26.855,-38.574,-23.926,0.000
1709298796.848,-18.066,-35.645,-36.621,-29.785,0.000
1709298796.852,-17.578,-38.574,-40.039,-19.531,0.000
1709298796.856,-25.879,-38.086,-47.852,-24.414,0.000
1709298796.860,-37.109,-39.551,-52.734,-32.715,0.000
1709298796.864,-35.156,-40.527,-52.734,-14.648,0.000
1709298796.868,-31.738,-41.016,-49.805,-17.578,0.000
1709298796.872,-35.156,-38.574,-50.293,-41.016,0.000
1709298796.876,-32.227,-20.996,-49.805,-40.527,0.000
1709298796.880,-33.691,-23.926,-33.203,-31.250,0.000
1709298796.883,-37.598,-32.715,-29.297,-19.531,0.000
1709298796.887,-40.039,-30.273,-35.156,-26.855,0.000
1709298796.891,-45.410,-33.203,-31.738,-41.016,0.000
1709298796.895,-39.062,-29.297,-30.273,-44.922,0.000
1709298796.899,-39.551,-25.879,-27.832,-41.504,0.000
1709298796.903,-42.480,-28.320,-30.762,-27.832,0.000
1709298796.907,-36.621,-35.156,-30.762,-24.902,0.000
1709298796.911,-40.527,-35.156,-30.273,-40.527,0.000
1709298796.915,-41.992,-41.504,-38.086,-47.852,0.000
1709298796.919,-42.969,-49.805,-43.945,-41.992,0.000
1709298796.923,-49.316,-36.133,-38.574,-37.598,0.000
1709298796.926,-40.039,-25.879,-31.250,-30.762,0.000
1709298796.930,-41.504,-36.133,-29.297,-39.551,0.000
1709298796.934,-52.246,-45.410,-33.691,-65.430,0.000
1709298796.938,-56.152,-41.016,-35.645,-64.453,0.000
1709298796.942,-56.641,-38.574,-39.062,-54.199,0.000
1709298796.946,-56.641,-45.410,-40.527,-53.711,0.000
1709298796.950,-52.734,-49.805,-38.086,-45.410,0.000
1709298796.954,-42.969,-51.270,-30.762,-31.250,0.000
1709298796.958,-42.480,-45.898,-25.879,-41.992,0.000
1709298796.962,-39.062,-37.598,-36.133,-54.199,0.000
1709298796.966,-36.133,-21.484,-37.598,-38.574,0.000
1709298796.969,-29.297,-29.785,-37.109,-32.715,0.000
1709298796.973,-25.879,-40.039,-41.504,-37.598,0.000
1709298796.977,-32.715,-26.855,-47.363,-33.691,0.000
1709298796.981,-25.879,-32.715,-51.270,-23.438,0.000
1709298796.985,-11.719,-48.340,-47.363,-9.277,0.000
1709298796.989,-18.066,-40.527,-49.316,-10.742,0.000
1709298796.993,-33.691,-23.438,-53.223,-37.598,0.000
1709298796.997,-45.898,-34.180,-44.434,-46.387,0.000
1709298797.001,-56.152,-37.598,-44.922,-41.992,0.000
1709298797.005,-45.410,-18.066,-42.480,-31.738,0.000
1709298797.009,-38.574,-25.879,-38.086,-28.320,0.000
1709298797.012,-46.875,-41.016,-41.992,-39.551,0.000
1709298797.016,-53.711,-32.227,-42.480,-35.156,0.000
1709298797.020,-46.875,-34.668,-43.457,-30.762,0.000
1709298797.024,-43.945,-29.297,-37.109,-30.762,0.000
1709298797.028,-43.457,-28.320,-40.527,-28.809,0.000
1709298797.032,-40.039,-51.758,-43.945,-41.016,0.000
1709298797.036,-52.246,-48.828,-34.180,-48.340,0.000
1709298797.040,-51.270,-39.062,-32.227,-39.062,0.000
1709298797.044,-41.504,-35.645,-35.645,-29.297,0.000
1709298797.048,-33.203,-22.949,-34.180,-21.484,0.000
1709298797.052,-33.691,-28.320,-35.156,-40.039,0.000
1709298797.055,-48.340,-42.480,-41.992,-66.895,0.000
1709298797.059,-55.664,-41.504,-42.480,-60.547,0.000
1709298797.063,-51.270,-37.109,-36.621,-49.316,0.000
1709298797.067,-40.039,-31.250,-36.133,-45.898,0.000
1709298797.071,-40.527,-33.203,-39.062,-54.688,0.000
1709298797.075,-46.387,-57.617,-35.645,-58.105,0.000
1709298797.079,-51.270,-53.223,-37.109,-44.434,0.000
1709298797.083,-58.105,-29.785,-41.992,-33.203,0.000
1709298797.087,-57.129,-31.738,-45.410,0.000,0.000
1709298797.091,-54.199,-39.062,-40.527,0.000,0.000
1709298797.095,-47.363,-24.414,-32.715,0.000,0.000
1709298797.098,-45.410,-23.438,-32.227,0.000,0.000
1709298797.102,-40.039,-34.668,-32.227,0.000,0.000
1709298797.106,-40.527,-28.809,-34.180,0.000,0.000
1709298797.110,-36.133,-26.367,-36.621,0.000,0.000
1709298797.114,-28.320,-24.414,-37.109,0.000,0.000
1709298797.118,-36.621,-27.344,-40.527,0.000,0.000
1709298797.122,-34.180,-34.180,-40.527,0.000,0.000
1709298797.126,-20.508,-37.598,-40.039,0.000,0.000
1709298797.130,-16.113,-31.738,-40.039,0.000,0.000
1709298797.134,-28.809,-30.273,-39.062,-50.781,0.000
1709298797.138,-34.180,-26.367,-37.598,-52.246,0.000
1709298797.141,-30.762,-20.508,-32.227,-40.039,0.000
1709298797.145,-23.438,-34.180,-30.762,-37.598,0.000
1709298797.149,-20.020,-42.480,-24.902,-49.316,0.000
1709298797.153,-31.250,-35.645,-19.531,-58.105,0.000
1709298797.157,-45.410,-33.691,-24.414,-55.664,0.000
1709298797.161,-48.340,-5.371,-36.621,-62.500,0.000
1709298797.165,-38.574,1.953,-40.039,-55.176,0.000
1709298797.169,-37.109,-19.043,-33.691,-42.969,0.000
1709298797.173,-27.832,-20.020,-32.227,-54.688,0.000
1709298797.177,-21.973,-19.043,-35.645,-60.547,0.000
1709298797.180,-29.785,-11.230,-36.621,-48.828,0.000
1709298797.184,-21.973,-7.812,-28.809,-35.645,0.000
1709298797.188,-21.484,-16.113,-32.227,-28.809,0.000
1709298797.192,-28.320,-26.855,-39.062,-23.926,0.000
1709298797.196,-27.344,-32.715,-37.598,-25.391,0.000
1709298797.200,-30.762,-27.344,-39.062,-28.320,0.000
1709298797.204,-31.250,-25.391,-38.574,-23.926,0.000
1709298797.208,-30.762,-23.438,-39.551,-26.855,0.000
1709298797.212,-31.250,-18.555,-42.969,-30.762,0.000
1709298797.216,-29.785,-23.438,-42.969,-32.227,0.000
1709298797.220,-26.855,-23.926,-35.156,-39.062,0.000
1709298797.223,-33.203,-17.578,-32.715,-40.527,0.000
1709298797.227,-29.785,-9.277,-38.086,-29.297,0.000
1709298797.231,-21.484,-6.836,-36.621,-22.949,0.000
1709298797.235,-31.738,-13.672,-34.668,-31.738,0.000
1709298797.239,-32.227,-21.973,-32.227,-27.832,0.000
1709298797.243,-31.250,-22.461,-34.668,-29.785,0.000
1709298797.247,-36.133,-31.738,-36.133,-41.992,0.000
1709298797.251,-35.156,-34.180,-36.133,-48.828,0.000
1709298797.255,-41.504,-27.344,-31.250,-41.992,0.000
1709298797.259,-41.016,-27.832,-29.297,-38.086,0.000
1709298797.263,-33.691,-20.996,-34.180,-37.598,0.000
1709298797.266,-28.320,-19.043,-28.320,-24.902,0.000
1709298797.270,-25.879,-31.738,-25.879,-33.203,0.000
1709298797.274,-36.621,-33.691,-29.785,-41.992,0.000
1709298797.278,-51.270,-34.180,-38.574,-51.270,0.000
1709298797.282,-50.781,-32.227,-43.945,-47.852,0.000
1709298797.286,-42.480,-27.832,-41.992,-34.668,0.000
1709298797.290,-42.969,-31.250,-37.109,-32.227,0.000
1709298797.294,-47.363,-40.527,-33.203,-34.180,0.000
1709298797.298,-47.363,-45.898,-38.574,-29.785,0.000
1709298797.302,-51.270,-45.410,-42.969,-18.066,0.000
1709298797.306,-44.434,-29.297,-38.574,-23.438,0.000
1709298797.309,-33.691,-20.508,-30.762,-27.832,0.000
1709298797.313,-38.574,-31.250,-33.203,-25.391,0.000
1709298797.317,-39.062,-41.016,-34.668,-20.996,0.000
1709298797.321,-27.344,-37.598,-28.320,-8.789,0.000
1709298797.325,-30.273,-27.344,-25.391,-6.836,0.000
1709298797.329,-31.250,-34.180,-30.273,-13.672,0.000
1709298797.333,-31.250,-35.645,-38.574,-20.020,0.000
1709298797.337,-34.180,-22.461,-34.668,-20.508,0.000
1709298797.341,-28.809,-23.926,-36.133,-20.996,0.000
1709298797.345,-20.508,-35.156,-39.062,-9.277,0.000
1709298797.348,-26.367,-33.691,-38.574,-14.160,0.000
1709298797.352,-34.668,-39.062,-39.062,-34.668,0.000
1709298797.356,-36.133,-40.527,-36.133,-33.691,0.000
1709298797.360,-32.715,-34.668,-32.715,-25.879,0.000
1709298797.364,-21.973,-35.645,-25.391,-20.508,0.000
1709298797.368,-30.762,-38.574,-25.391,-24.414,0.000
1709298797.372,-41.992,-39.062,-26.367,-27.832,0.000
1709298797.376,-40.527,-40.039,-29.785,-42.480,0.000
1709298797.380,-38.086,-39.062,-32.227,-48.828,0.000
1709298797.384,-30.762,-34.668,-23.438,-17.578,0.000
1709298797.388,-17.090,-43.457,-18.555,-3.906,0.000
1709298797.392,-22.461,-51.758,-20.508,-14.160,0.000
1709298797.395,-31.738,-50.293,-27.832,-14.648,0.000
1709298797.399,-31.738,-49.805,-27.344,-10.742,0.000
1709298797.403,-32.227,-55.176,-22.461,-6.836,0.000
1709298797.407,-32.715,-61.035,-24.414,-1.953,0.000
1709298797.411,-32.715,-44.922,-24.414,-12.695,0.000
1709298797.415,-30.762,-32.227,-20.996,-18.066,0.000
1709298797.419,-41.992,-36.621,-19.043,-17.090,0.000
1709298797.423,-48.828,-36.621,-21.484,-7.812,0.000
1709298797.427,-49.316,-40.039,-21.484,-2.930,0.000
1709298797.431,-52.734,-46.875,-20.508,-18.066,0.000
1709298797.434,-60.059,-47.852,-19.531,-27.344,0.000
1709298797.438,-64.941,-47.363,-27.344,-30.273,0.000
1709298797.442,-54.199,-43.945,-26.855,-24.414,0.000
1709298797.446,-38.086,-41.504,-24.414,-14.160,0.000
1709298797.450,-31.250,-36.621,-24.414,-10.742,0.000
1709298797.454,-40.039,-33.691,-20.508,-15.137,0.000
1709298797.458,-47.852,-37.109,-26.855,-24.414,0.000
1709298797.462,-39.551,-38.086,-30.762,-19.043,0.000
1709298797.466,-25.391,-26.855,-29.297,-5.859,0.000
1709298797.470,-24.902,-23.438,-29.785,-16.602,0.000
1709298797.474,-23.438,-31.738,-30.273,-31.250,0.000
1709298797.477,-21.973,-37.109,-28.809,-21.484,0.000
1709298797.481,-37.109,-41.016,-33.203,-22.461,0.000
1709298797.485,-42.480,-40.527,-35.156,-36.621,0.000
1709298797.489,-34.668,-35.645,-33.691,-49.805,0.000
1709298797.493,-35.645,-53.711,-27.344,-45.410,0.000
1709298797.497,-36.133,-64.453,-23.926,-36.133,0.000
1709298797.501,-38.574,-40.039,-35.156,-35.645,0.000
1709298797.505,-40.527,-30.762,-41.016,-30.273,0.000
1709298797.509,-41.016,-38.086,-37.109,-28.809,0.000
1709298797.513,-41.016,-42.969,-38.086,-23.438,0.000
1709298797.517,-38.086,-36.133,-37.109,-24.414,0.000
1709298797.520,-40.527,-34.668,-36.621,-25.879,0.000
1709298797.524,-38.086,-38.086,-36.621,-13.672,0.000
1709298797.528,-19.043,-47.363,-32.715,-3.418,0.000
1709298797.532,-17.090,-46.387,-27.344,-8.789,0.000
1709298797.536,-31.250,-35.645,-29.785,-25.391,0.000
1709298797.540,-39.551,-41.504,-34.668,-27.344,0.000
1709298797.544,-35.156,-41.992,-30.762,-12.207,0.000
1709298797.548,-26.855,-40.039,-31.250,-12.695,0.000
1709298797.552,-23.438,-39.551,-39.551,-17.090,0.000
1709298797.556,-26.855,-31.738,-41.504,-27.344,0.000
1709298797.560,-41.016,-25.391,-31.250,-37.598,0.000
1709298797.563,-41.992,-28.320,-30.273,-36.133,0.000
1709298797.567,-44.434,-29.785,-38.574,-37.109,0.000
1709298797.571,-43.457,-20.996,-40.039,-43.457,0.000
1709298797.575,-49.316,-25.391,-43.945,-53.711,0.000
1709298797.579,-60.059,-35.156,-45.410,-62.500,0.000
1709298797.583,-51.758,-40.039,-42.480,-56.152,0.000
1709298797.587,-42.480,-37.598,-40.039,-36.621,0.000
1709298797.591,-38.574,-34.180,-40.527,-42.480,0.000
1709298797.595,-45.898,-35.645,-48.828,-61.523,0.000
1709298797.599,-54.688,-34.180,-47.852,-54.688,0.000
1709298797.603,-53.711,-39.551,-41.016,-44.922,0.000
1709298797.606,-47.363,-46.387,-44.922,-39.551,0.000
1709298797.610,-45.410,-47.852,-44.922,-42.480,0.000
1709298797.614,-42.969,-37.109,-42.480,-57.129,0.000
1709298797.618,-33.203,-30.273,-38.086,-55.176,0.000
1709298797.622,-41.016,-48.340,-41.016,-45.410,0.000
1709298797.626,-41.016,-58.105,-39.551,-40.527,0.000
1709298797.630,-40.039,-44.434,-32.715,-35.645,0.000
1709298797.634,-45.410,-42.480,-32.227,-41.992,0.000
1709298797.638,-42.969,-46.387,-32.715,-49.316,0.000
1709298797.642,-45.410,-51.758,-34.668,-37.598,0.000
1709298797.646,-46.387,-56.641,-38.574,-19.531,0.000
1709298797.649,-41.504,-63.477,-46.387,-27.344,0.000
1709298797.653,-41.992,-55.176,-44.922,-57.617,0.000
1709298797.657,-43.457,-36.621,-35.156,-62.500,0.000
1709298797.661,-45.410,-40.527,-38.086,-49.316,0.000
1709298797.665,-39.551,-39.551,-42.969,-36.133,0.000
1709298797.669,-35.156,-32.227,-43.945,-33.691,0.000
1709298797.673,-37.109,-47.852,-42.969,-34.668,0.000
1709298797.677,-37.598,-52.246,-38.086,-32.715,0.000
1709298797.681,-41.992,-31.738,-42.969,-32.715,0.000
1709298797.685,-39.551,-27.344,-37.598,-40.039,0.000
1709298797.688,-38.574,-34.668,-30.273,-47.852,0.000
1709298797.692,-47.363,-38.086,-35.645,-52.734,0.000
