timestamps,TP9,AF7,AF8,TP10,Right AUX
1709297850.914,-45.410,-32.715,-39.551,-49.316,0.000
1709297850.918,-40.527,-30.762,-39.062,-40.039,0.000
1709297850.922,-31.738,-28.809,-36.133,-28.320,0.000
1709297850.926,-29.785,-24.414,-36.133,-28.809,0.000
1709297850.929,-37.109,-28.809,-39.551,-42.969,0.000
1709297850.933,-48.828,-29.785,-37.109,-45.410,0.000
1709297850.937,-46.387,-25.391,-40.527,-32.227,0.000
1709297850.941,-28.809,-26.367,-40.527,-30.273,0.000
1709297850.945,-28.809,-28.320,-36.621,-28.320,0.000
1709297850.949,-39.062,-30.762,-39.551,-36.133,0.000
1709297850.953,-45.898,-32.227,-34.668,-43.945,0.000
1709297850.957,-48.340,-33.691,-31.738,-38.086,0.000
1709297850.961,-31.738,-34.668,-36.621,-34.180,0.000
1709297850.965,-26.855,-35.156,-39.551,-35.156,0.000
1709297850.968,-43.457,-37.109,-38.574,-41.016,0.000
1709297850.972,-55.664,-39.062,-42.969,-46.875,0.000
1709297850.976,-56.152,-34.180,-48.340,-52.246,0.000
1709297850.980,-47.363,-33.691,-49.316,-52.734,0.000
1709297850.984,-37.598,-32.227,-47.852,-58.105,0.000
1709297850.988,-44.922,-32.227,-41.504,-58.105,0.000
1709297850.992,-58.594,-37.109,-37.109,-49.805,0.000
1709297850.996,-64.453,-38.086,-38.086,-60.059,0.000
1709297851.000,-55.176,-33.691,-35.156,-53.223,0.000
1709297851.004,-48.340,-36.621,-34.180,-42.480,0.000
1709297851.008,-56.152,-37.598,-39.062,-54.199,0.000
1709297851.011,-54.199,-35.156,-37.109,-57.617,0.000
1709297851.015,-61.523,-38.574,-35.645,-53.223,0.000
1709297851.019,-57.617,-35.156,-40.039,-45.410,0.000
1709297851.023,-36.133,-33.691,-39.062,-44.434,0.000
1709297851.027,-39.551,-36.621,-39.551,-50.293,0.000
1709297851.031,-50.293,-34.180,-41.016,-56.152,0.000
1709297851.035,-49.805,-34.180,-40.527,-54.199,0.000
1709297851.039,-41.992,-33.203,-43.457,-44.434,0.000
1709297851.043,-30.273,-26.367,-44.434,-41.016,0.000
1709297851.047,-35.645,-25.879,-38.574,-48.340,0.000
1709297851.051,-44.922,-28.809,-38.574,-57.617,0.000
1709297851.054,-43.945,-28.809,-39.062,-53.711,0.000
1709297851.058,-46.387,-31.250,-38.086,-52.246,0.000
1709297851.062,-41.016,-28.809,-38.574,-44.922,0.000
1709297851.066,-36.133,-26.855,-41.992,-37.109,0.000
1709297851.070,-41.504,-28.320,-45.410,-48.828,0.000
1709297851.074,-53.223,-31.738,-39.551,-45.410,0.000
1709297851.078,-46.875,-31.738,-37.109,-28.809,0.000
1709297851.082,-27.344,-25.879,-38.086,-20.020,0.000
1709297851.086,-26.855,-24.902,-36.133,-17.090,0.000
1709297851.090,-41.016,-26.855,-32.715,-25.879,0.000
1709297851.093,-53.223,-28.809,-31.250,-37.109,0.000
1709297851.097,-46.387,-32.715,-33.691,-37.598,0.000
1709297851.101,-31.250,-30.762,-37.109,-32.715,0.000
1709297851.105,-28.320,-20.508,-34.180,-28.320,0.000
1709297851.109,-42.480,-30.273,-35.645,-33.691,0.000
1709297851.113,-50.781,-39.551,-40.527,-41.016,0.000
1709297851.117,-39.062,-31.250,-33.691,-34.180,0.000
1709297851.121,-29.785,-30.273,-29.297,-24.414,0.000
1709297851.125,-31.250,-28.320,-28.320,-15.625,0.000
1709297851.129,-38.574,-24.902,-28.809,-27.344,0.000
1709297851.132,-42.969,-23.926,-31.738,-36.133,0.000
1709297851.136,-43.945,-27.832,-34.180,-20.996,0.000
1709297851.140,-39.551,-31.738,-36.621,-21.484,0.000
1709297851.144,-27.344,-31.738,-35.156,-27.344,0.000
1709297851.148,-30.762,-31.738,-33.203,-32.227,0.000
1709297851.152,-47.363,-31.250,-38.086,-48.828,0.000
1709297851.156,-53.711,-28.320,-41.016,-43.457,0.000
1709297851.160,-45.410,-26.367,-39.551,-30.273,0.000
1709297851.164,-27.344,-26.367,-37.109,-26.855,0.000
1709297851.168,-30.762,-29.297,-35.156,-24.414,0.000
1709297851.172,-43.945,-30.273,-36.621,-31.250,0.000
1709297851.175,-38.086,-28.320,-34.668,-33.691,0.000
1709297851.179,-35.645,-34.180,-35.645,-30.273,0.000
1709297851.183,-34.668,-32.227,-37.109,-26.855,0.000
1709297851.187,-30.273,-23.926,-33.691,-26.855,0.000
1709297851.191,-29.297,-21.484,-33.203,-33.203,0.000
1709297851.195,-27.832,-20.020,-34.180,-30.762,0.000
1709297851.199,-18.066,-22.461,-36.621,-21.973,0.000
1709297851.203,-17.090,-29.785,-39.551,-20.020,0.000
1709297851.207,-24.902,-32.227,-41.992,-20.020,0.000
1709297851.211,-37.598,-32.715,-46.387,-31.738,0.000
1709297851.215,-52.734,-34.668,-43.457,-37.109,0.000
1709297851.219,-43.945,-33.203,-38.574,-31.738,0.000
1709297851.222,-27.832,-30.273,-37.109,-28.809,0.000
1709297851.226,-24.414,-31.738,-36.133,-30.762,0.000
1709297851.230,-29.297,-35.156,-35.156,-30.762,0.000
1709297851.234,-41.504,-34.668,-36.621,-35.156,0.000
1709297851.238,-44.922,-32.227,-38.574,-38.574,0.000
1709297851.242,-32.227,-32.227,-37.598,-27.832,0.000
1709297851.246,-31.738,-34.668,-41.016,-33.691,0.000
1709297851.250,-40.527,-33.203,-40.039,-40.039,0.000
1709297851.254,-45.898,-31.738,-40.039,-37.109,0.000
1709297851.258,-42.969,-39.062,-45.410,-24.902,0.000
1709297851.261,-21.973,-39.551,-38.574,-19.043,0.000
1709297851.265,-3.906,-29.785,-33.203,-23.926,0.000
1709297851.269,-12.695,-27.832,-32.227,-23.926,0.000
1709297851.273,-27.344,-28.320,-32.715,-23.926,0.000
1709297851.277,-24.902,-26.367,-36.133,-18.066,0.000
1709297851.281,-19.043,-27.832,-37.109,-18.066,0.000
1709297851.285,-19.043,-31.250,-39.551,-27.832,0.000
1709297851.289,0.000,-33.203,-40.527,-28.320,0.000
1709297851.293,0.000,-32.715,-34.668,-24.414,0.000
1709297851.297,0.000,-31.738,-33.691,-24.902,0.000
1709297851.301,0.000,-32.227,-34.180,-20.020,0.000
1709297851.304,0.000,-37.109,-35.645,-13.672,0.000
1709297851.308,0.000,-37.598,-36.133,-18.066,0.000
1709297851.312,0.000,-35.156,-38.086,-32.227,0.000
1709297851.316,0.000,-34.180,-37.598,-32.715,0.000
1709297851.320,0.000,-32.715,-35.156,-15.625,0.000
1709297851.324,0.000,-31.738,-35.156,-11.719,0.000
1709297851.328,0.000,-28.809,-34.668,-23.926,0.000
1709297851.332,0.000,-26.855,-36.621,-30.273,0.000
1709297851.336,-39.062,-26.367,-36.133,-24.414,0.000
1709297851.340,-25.391,-27.832,-35.156,-18.555,0.000
1709297851.344,-17.578,-29.785,-37.598,-24.902,0.000
1709297851.347,-31.738,-31.738,-39.062,-30.273,0.000
1709297851.351,-47.363,-32.715,-40.039,-39.551,0.000
1709297851.355,-49.316,-30.273,-35.645,-37.598,0.000
1709297851.359,-44.434,-27.344,-32.715,-24.902,0.000
1709297851.363,-33.691,-30.762,-36.133,-13.184,0.000
1709297851.367,-34.668,-32.715,-32.715,-16.602,0.000
1709297851.371,-45.898,-27.344,-32.227,-35.645,0.000
1709297851.375,-44.434,-26.855,-40.527,-38.086,0.000
1709297851.379,-36.133,-30.762,-42.480,-25.391,0.000
1709297851.383,-32.715,-31.738,-40.527,-19.531,0.000
1709297851.386,-35.156,-29.297,-38.086,-35.156,0.000
1709297851.390,-42.969,-25.879,-40.039,-51.758,0.000
1709297851.394,-50.293,-28.809,-40.039,-47.363,0.000
1709297851.398,-52.734,-33.203,-36.621,-37.598,0.000
1709297851.402,-45.410,-32.227,-38.574,-34.668,0.000
1709297851.406,-40.527,-32.715,-39.062,-36.133,0.000
1709297851.410,-53.711,-36.621,-38.086,-32.715,0.000
1709297851.414,-56.641,-34.668,-37.598,-30.762,0.000
1709297851.418,-47.363,-37.598,-37.109,-30.762,0.000
1709297851.422,-35.645,-40.527,-38.574,-26.855,0.000
1709297851.426,-24.902,-38.086,-36.621,-33.203,0.000
1709297851.429,-16.602,-38.086,-35.645,-27.832,0.000
1709297851.433,-44.434,-38.086,-42.480,-6.836,0.000
1709297851.437,-69.824,-35.645,-43.945,-11.230,0.000
1709297851.441,-48.340,-30.762,-42.480,-24.414,0.000
1709297851.445,-46.387,-30.762,-40.039,-2.930,0.000
1709297851.449,-58.594,-31.250,-41.016,-12.207,0.000
1709297851.453,-52.734,-29.297,-46.387,-59.570,0.000
1709297851.457,-45.898,-28.809,-44.922,-70.801,0.000
1709297851.461,-15.137,-33.691,-44.434,-60.547,0.000
1709297851.465,18.555,-30.762,-47.852,-51.270,0.000
1709297851.468,-17.090,-23.438,-47.852,-67.871,0.000
1709297851.472,-49.805,-19.043,-54.199,-74.707,0.000
1709297851.476,-41.992,-13.672,-62.500,-54.688,0.000
1709297851.480,-40.039,-8.789,-63.965,-53.711,0.000
1709297851.484,-41.504,-1.465,-62.012,-51.758,0.000
1709297851.488,-37.598,7.812,-59.570,-38.574,0.000
1709297851.492,-45.898,17.578,-64.453,-45.898,0.000
1709297851.496,-56.152,26.855,-67.383,-53.711,0.000
1709297851.500,-41.504,36.133,-69.824,-30.762,0.000
1709297851.504,-10.254,44.922,-74.219,-28.320,0.000
1709297851.508,-10.254,54.688,-75.195,-45.410,0.000
1709297851.511,-29.785,57.617,-78.125,-42.969,0.000
1709297851.515,-22.949,60.059,-82.031,-22.949,0.000
1709297851.519,4.883,69.824,-81.055,6.348,0.000
1709297851.523,11.719,75.195,-79.102,2.930,0.000
1709297851.527,7.812,76.172,-76.172,-1.953,0.000
1709297851.531,17.578,78.613,-79.590,0.488,0.000
1709297851.535,20.020,86.426,-83.008,-7.324,0.000
1709297851.539,19.531,89.355,-82.031,-13.184,0.000
1709297851.543,30.273,88.867,-84.961,-1.953,0.000
1709297851.547,42.969,93.750,-86.426,11.719,0.000
1709297851.550,47.852,95.215,-87.402,4.883,0.000
1709297851.554,26.367,93.262,-89.355,-6.348,0.000
1709297851.558,22.949,92.285,-92.773,-3.418,0.000
1709297851.562,53.711,89.844,-91.797,17.090,0.000
1709297851.566,55.664,84.961,-92.285,19.043,0.000
1709297851.570,50.293,88.867,-94.238,3.906,0.000
1709297851.574,53.223,89.844,-94.727,8.789,0.000
1709297851.578,65.430,85.449,-91.797,35.156,0.000
1709297851.582,80.078,83.496,-89.355,45.410,0.000
1709297851.586,83.496,80.078,-93.262,40.039,0.000
1709297851.590,78.613,79.102,-94.238,33.691,0.000
1709297851.593,60.547,74.219,-91.309,18.555,0.000
1709297851.597,52.734,69.824,-94.238,25.391,0.000
1709297851.601,64.941,67.871,-95.703,38.574,0.000
1709297851.605,77.148,65.918,-93.262,38.086,0.000
1709297851.609,76.660,68.848,-87.891,35.645,0.000
1709297851.613,67.871,61.523,-84.473,29.297,0.000
1709297851.617,68.359,55.664,-82.520,39.551,0.000
1709297851.621,79.590,58.105,-78.125,50.293,0.000
1709297851.625,84.473,55.176,-76.172,40.527,0.000
1709297851.629,80.078,51.270,-75.684,25.391,0.000
1709297851.633,71.777,50.781,-73.242,35.156,0.000
1709297851.636,61.035,46.387,-70.312,46.875,0.000
1709297851.640,56.152,37.598,-67.871,40.039,0.000
1709297851.644,59.082,31.738,-74.707,30.273,0.000
1709297851.648,61.523,25.391,-76.660,23.438,0.000
1709297851.652,46.875,23.438,-71.777,25.391,0.000
1709297851.656,36.621,22.461,-65.918,18.555,0.000
1709297851.660,49.316,17.578,-64.453,12.695,0.000
1709297851.664,49.805,15.137,-65.918,17.090,0.000
1709297851.668,30.762,9.277,-69.824,0.977,0.000
1709297851.672,8.789,4.883,-74.219,-17.090,0.000
1709297851.676,4.883,2.441,-65.918,-10.742,0.000
1709297851.679,9.277,-0.488,-54.199,26.367,0.000
1709297851.683,20.996,0.488,-56.152,26.367,0.000
1709297851.687,29.297,-0.488,-60.547,-11.719,0.000
1709297851.691,13.672,-3.906,-57.617,-25.391,0.000
1709297851.695,12.207,-3.418,-53.711,-13.184,0.000
1709297851.699,16.602,-6.348,-57.129,-5.371,0.000
1709297851.703,24.902,-5.371,-57.617,-8.301,0.000
1709297851.707,19.043,-3.906,-53.711,-14.160,0.000
1709297851.711,-1.953,-7.812,-52.246,-23.926,0.000
1709297851.715,-14.648,-6.836,-52.734,-24.414,0.000
1709297851.719,-14.160,-6.836,-56.152,-17.090,0.000
1709297851.722,-10.742,-11.230,-52.246,-5.371,0.000
1709297851.726,-12.695,-11.719,-50.293,-7.812,0.000
1709297851.730,-13.672,-8.789,-53.223,-30.273,0.000
1709297851.734,-33.691,-12.207,-53.711,-45.898,0.000
1709297851.738,-40.039,-16.113,-54.688,-37.598,0.000
1709297851.742,-24.902,-16.602,-55.664,-21.484,0.000
1709297851.746,-19.043,-18.066,-57.129,-27.832,0.000
1709297851.750,-23.438,-21.484,-57.129,-43.945,0.000
1709297851.754,-37.109,-25.879,-55.176,-41.992,0.000
1709297851.758,-42.480,-29.297,-54.688,-32.715,0.000
1709297851.761,-33.203,-29.297,-57.129,-26.367,0.000
1709297851.765,-24.414,-28.809,-59.570,-28.809,0.000
1709297851.769,-27.344,-23.438,-57.617,-39.551,0.000
1709297851.773,-37.109,-23.438,-56.152,-41.504,0.000
1709297851.777,-38.574,-24.414,-52.734,-34.668,0.000
1709297851.781,-22.949,-19.043,-48.828,-28.809,0.000
1709297851.785,-16.602,-24.414,-52.246,-25.879,0.000
1709297851.789,-27.344,-28.320,-53.223,-36.621,0.000
1709297851.793,-35.156,-23.926,-49.805,-45.898,0.000
1709297851.797,-31.738,-21.484,-45.898,-41.016,0.000
1709297851.801,-13.672,-20.020,-42.969,-34.180,0.000
1709297851.804,-10.742,-18.555,-41.016,-30.273,0.000
1709297851.808,-27.832,-15.137,-38.574,-41.992,0.000
1709297851.812,-42.480,-19.531,-41.016,-50.781,0.000
1709297851.816,-46.387,-24.902,-46.387,-51.270,0.000
1709297851.820,-36.621,-23.438,-45.410,-46.387,0.000
1709297851.824,-25.879,-20.020,-40.527,-43.457,0.000
1709297851.828,-35.645,-20.020,-41.992,-42.969,0.000
1709297851.832,-58.105,-21.973,-44.434,-39.062,0.000
1709297851.836,-67.383,-23.438,-44.922,-34.180,0.000
1709297851.840,-52.246,-25.879,-46.387,-30.762,0.000
1709297851.843,-38.574,-30.762,-42.480,-23.438,0.000
1709297851.847,-37.598,-32.715,-43.945,-34.180,0.000
1709297851.851,-46.387,-31.250,-46.875,-51.758,0.000
1709297851.855,-54.199,-30.273,-40.527,-48.828,0.000
1709297851.859,-44.922,-27.344,-37.109,-41.016,0.000
1709297851.863,-29.297,-27.832,-39.062,-34.668,0.000
1709297851.867,-29.785,-30.762,-39.551,-31.738,0.000
1709297851.871,-46.875,-32.227,-37.109,-33.691,0.000
1709297851.875,-48.340,-32.227,-40.527,-29.785,0.000
1709297851.879,-40.039,-33.203,-42.480,-25.391,0.000
1709297851.882,-35.156,-34.180,-40.527,-35.156,0.000
1709297851.886,-33.203,-33.691,-45.898,-50.293,0.000
1709297851.890,-41.504,-31.738,-45.410,-57.129,0.000
1709297851.894,-48.340,-32.227,-44.434,-46.387,0.000
1709297851.898,-44.922,-33.691,-49.805,-40.039,0.000
1709297851.902,-32.227,-35.645,-51.270,-30.762,0.000
1709297851.906,-26.367,-36.133,-51.758,-40.527,0.000
1709297851.910,-29.785,-36.621,-51.270,-57.617,0.000
1709297851.914,-33.203,-37.109,-52.734,-60.547,0.000
1709297851.918,-30.762,-34.180,-49.805,-49.316,0.000
1709297851.922,-27.344,-32.715,-44.922,-29.297,0.000
1709297851.925,-30.273,-34.668,-45.898,-36.621,0.000
1709297851.929,-29.785,-30.762,-45.410,-45.410,0.000
1709297851.933,-38.086,-27.344,-45.410,-40.527,0.000
1709297851.937,-42.480,-25.391,-43.945,-35.156,0.000
1709297851.941,-24.902,-23.438,-39.062,-24.902,0.000
1709297851.945,-21.973,-26.855,-35.645,-28.809,0.000
1709297851.949,-30.273,-27.832,-37.598,-33.691,0.000
1709297851.953,-32.715,-24.902,-40.039,-38.086,0.000
1709297851.957,-37.109,-30.273,-39.062,-40.039,0.000
1709297851.961,-28.320,-31.250,-40.039,-25.391,0.000
1709297851.965,-15.137,-30.762,-41.504,-26.367,0.000
1709297851.968,-23.438,-35.645,-43.457,-41.504,0.000
1709297851.972,-46.875,-35.645,-45.898,-53.223,0.000
1709297851.976,-56.152,-34.668,-42.480,-46.387,0.000
1709297851.980,-54.688,-35.645,-40.527,-28.809,0.000
1709297851.984,-46.387,-36.621,-41.016,-36.133,0.000
1709297851.988,-54.199,-35.645,-42.969,-50.781,0.000
1709297851.992,-68.848,-35.156,-43.945,-46.387,0.000
1709297851.996,-65.430,-31.738,-37.598,-38.086,0.000
1709297852.000,-49.805,-32.715,-36.621,-35.645,0.000
1709297852.004,-32.715,-30.762,-38.574,-34.180,0.000
1709297852.008,-36.133,-28.320,-37.109,-34.180,0.000
1709297852.011,-51.270,-36.621,-41.016,-40.039,0.000
1709297852.015,-53.711,-36.621,-43.457,-42.969,0.000
1709297852.019,-45.898,-31.738,-45.410,-41.016,0.000
1709297852.023,-35.156,-36.133,-46.387,-39.062,0.000
1709297852.027,-38.574,-37.109,-41.504,-28.320,0.000
1709297852.031,-47.852,-36.621,-38.086,-33.203,0.000
1709297852.035,-45.898,-37.109,-38.574,-41.992,0.000
1709297852.039,-35.645,-35.645,-40.527,-30.762,0.000
1709297852.043,-24.902,-31.738,-41.992,-27.832,0.000
1709297852.047,-23.438,-27.832,-41.992,-31.250,0.000
1709297852.050,-35.645,-34.180,-42.969,-32.715,0.000
1709297852.054,-52.734,-40.039,-42.480,-45.410,0.000
1709297852.058,-55.664,-42.480,-41.992,-41.504,0.000
1709297852.062,-44.434,-41.504,-40.527,-31.250,0.000
1709297852.066,-46.387,-42.969,-37.109,-47.363,0.000
1709297852.070,-55.664,-47.852,-41.016,-44.434,0.000
1709297852.074,-55.664,-48.828,-41.504,-40.039,0.000
1709297852.078,-46.875,-45.898,-40.039,-35.156,0.000
1709297852.082,-35.645,-45.898,-47.852,-23.438,0.000
1709297852.086,-26.367,-44.434,-51.758,-21.973,0.000
1709297852.090,-32.227,-42.969,-45.410,-11.230,0.000
1709297852.093,-33.691,-40.039,-39.551,-9.766,0.000
1709297852.097,-27.344,-40.039,-35.645,-16.113,0.000
1709297852.101,-24.414,-50.293,-40.039,-17.578,0.000
1709297852.105,-22.949,-53.711,-46.875,-18.066,0.000
1709297852.109,-33.203,-52.734,-43.457,-23.438,0.000
1709297852.113,-31.738,-46.875,-39.551,-23.438,0.000
1709297852.117,-25.391,-41.992,-39.062,-12.207,0.000
1709297852.121,-13.672,-40.039,-35.645,-12.207,0.000
1709297852.125,-11.230,-40.527,-34.668,-14.160,0.000
1709297852.129,-21.484,-41.992,-37.109,-16.602,0.000
1709297852.133,-20.996,-41.016,-39.551,-20.508,0.000
1709297852.136,-17.090,-43.945,-42.480,-13.672,0.000
1709297852.140,-1.953,-45.410,-42.969,1.465,0.000
1709297852.144,8.301,-41.016,-39.551,8.301,0.000
1709297852.148,1.465,-35.645,-36.621,1.465,0.000
1709297852.152,-16.602,-36.133,-34.668,-8.789,0.000
1709297852.156,-34.668,-39.551,-34.180,-16.602,0.000
1709297852.160,-28.809,-37.109,-35.156,-4.395,0.000
1709297852.164,-17.090,-35.156,-37.109,-1.465,0.000
1709297852.168,-18.555,-38.086,-42.969,-20.508,0.000
1709297852.172,-32.715,-42.480,-45.410,-29.785,0.000
1709297852.175,-35.645,-40.039,-43.457,-36.621,0.000
1709297852.179,0.000,-37.598,-43.945,-31.738,0.000
1709297852.183,0.000,-35.645,-42.480,-32.227,0.000
1709297852.187,0.000,-34.180,-38.086,-36.621,0.000
1709297852.191,0.000,-35.156,-33.691,-30.762,0.000
1709297852.195,0.000,-32.715,-37.109,-34.180,0.000
1709297852.199,0.000,-31.250,-39.551,-26.855,0.000
1709297852.203,0.000,-36.133,-35.645,-19.043,0.000
1709297852.207,0.000,-31.738,-32.715,-20.508,0.000
1709297852.211,0.000,-29.785,-32.227,-32.715,0.000
1709297852.215,0.000,-31.738,-35.645,-42.480,0.000
1709297852.218,0.000,-26.367,-38.574,-41.504,0.000
1709297852.222,0.000,-27.344,-37.109,-36.133,0.000
1709297852.226,-36.133,-29.297,-37.598,-35.156,0.000
1709297852.230,-48.828,-31.738,-34.180,-41.504,0.000
1709297852.234,-57.617,-34.180,-34.180,-41.016,0.000
1709297852.238,-53.223,-32.715,-37.109,-37.109,0.000
1709297852.242,-48.828,-32.227,-36.133,-31.738,0.000
1709297852.246,-43.457,-34.668,-39.062,-32.227,0.000
1709297852.250,-42.480,-31.250,-38.086,-36.621,0.000
1709297852.254,-46.387,-28.320,-37.598,-34.180,0.000
1709297852.257,-44.434,-33.691,-42.480,-40.527,0.000
1709297852.261,-32.227,-32.227,-38.574,-30.273,0.000
1709297852.265,-26.367,-27.344,-39.062,-24.414,0.000
1709297852.269,-26.855,-31.250,-44.922,-41.504,0.000
1709297852.273,-29.785,-30.273,-42.480,-43.457,0.000
1709297852.277,-37.598,-31.738,-40.527,-32.715,0.000
1709297852.281,-37.598,-33.691,-42.969,-35.645,0.000
1709297852.285,-25.879,-29.297,-43.945,-37.109,0.000
1709297852.289,-27.832,-31.250,-45.410,-41.504,0.000
1709297852.293,-42.480,-33.691,-48.340,-57.617,0.000
1709297852.296,-50.293,-34.180,-44.922,-45.410,0.000
1709297852.300,-36.621,-34.668,-44.434,-32.715,0.000
1709297852.304,-21.484,-36.133,-43.457,-31.738,0.000
1709297852.308,-30.273,-38.086,-37.109,-20.508,0.000
1709297852.312,-45.898,-36.133,-37.109,-28.809,0.000
1709297852.316,-43.945,-36.133,-33.691,-32.227,0.000
1709297852.320,-26.855,-38.574,-33.203,-14.160,0.000
1709297852.324,-17.578,-38.086,-39.551,-19.043,0.000
1709297852.328,-20.996,-35.156,-39.551,-29.785,0.000
1709297852.332,-34.180,-37.109,-42.480,-34.668,0.000
1709297852.335,-40.039,-36.621,-47.852,-40.039,0.000
1709297852.339,-37.109,-33.203,-45.898,-32.715,0.000
1709297852.343,-35.645,-29.297,-43.945,-29.297,0.000
1709297852.347,-33.691,-27.344,-44.922,-52.246,0.000
1709297852.351,-38.574,-27.344,-42.480,-63.477,0.000
1709297852.355,-43.945,-24.414,-37.598,-42.969,0.000
1709297852.359,-34.180,-26.367,-37.598,-24.902,0.000
1709297852.363,-29.785,-32.227,-42.480,-26.855,0.000
1709297852.367,0.000,-31.738,-40.039,-32.715,0.000
1709297852.371,0.000,-30.273,-40.039,-38.574,0.000
1709297852.375,0.000,-31.250,-45.410,-32.715,0.000
1709297852.378,0.000,-34.668,-46.875,-28.809,0.000
1709297852.382,0.000,-38.086,-48.828,-33.691,0.000
1709297852.386,0.000,-36.133,-47.363,-44.434,0.000
1709297852.390,0.000,-33.691,-41.016,-53.711,0.000
1709297852.394,0.000,-32.715,-37.598,-61.523,0.000
1709297852.398,0.000,-32.227,-37.598,-48.828,0.000
1709297852.402,0.000,-31.250,-39.551,-29.785,0.000
1709297852.406,0.000,-24.902,-37.598,-44.922,0.000
1709297852.410,0.000,-25.391,-36.133,-54.199,0.000
1709297852.414,-66.406,-31.738,-38.086,-51.758,0.000
1709297852.418,-52.734,-26.367,-35.645,-46.387,0.000
1709297852.421,-36.133,-24.902,-39.551,-40.039,0.000
1709297852.425,-44.434,-33.691,-40.527,-41.504,0.000
1709297852.429,-51.758,-35.156,-38.574,-45.898,0.000
1709297852.433,-54.688,-32.227,-37.598,-53.711,0.000
1709297852.437,-51.270,-36.621,-38.086,-57.129,0.000
1709297852.441,-44.434,-40.039,-39.551,-46.387,0.000
1709297852.445,-40.039,-39.062,-41.992,-43.457,0.000
1709297852.449,-41.992,-38.086,-43.457,-51.270,0.000
1709297852.453,-46.387,-36.133,-41.992,-57.617,0.000
1709297852.457,-41.992,-30.273,-38.574,-41.016,0.000
1709297852.461,-34.180,-27.832,-36.621,-19.043,0.000
1709297852.464,-32.227,-30.273,-36.621,-35.645,0.000
1709297852.468,-44.922,-29.785,-34.668,-54.199,0.000
1709297852.472,-54.199,-29.297,-38.574,-49.316,0.000
1709297852.476,-45.898,-31.738,-38.574,-35.156,0.000
1709297852.480,-30.762,-29.785,-39.551,-29.785,0.000
1709297852.484,-20.996,-28.320,-41.016,-34.668,0.000
1709297852.488,-21.973,-29.785,-38.086,-37.109,0.000
1709297852.492,-39.062,-30.273,-36.133,-40.527,0.000
1709297852.496,-46.387,-30.762,-41.992,-52.246,0.000
1709297852.500,-36.621,-33.691,-47.363,-49.805,0.000
1709297852.503,-36.133,-35.156,-43.457,-45.410,0.000
1709297852.507,-46.875,-30.762,-39.551,-33.203,0.000
1709297852.511,-54.688,-34.180,-35.645,-22.949,0.000
1709297852.515,-51.758,-39.551,-41.016,-60.059,0.000
1709297852.519,-46.875,-36.621,-45.410,-62.988,0.000
1709297852.523,-39.062,-32.227,-45.410,-44.434,0.000
1709297852.527,-36.133,-31.250,-43.945,-56.641,0.000
1709297852.531,-47.852,-27.832,-47.363,-70.312,0.000
1709297852.535,-54.199,-24.902,-51.270,-58.594,0.000
1709297852.539,-52.734,-26.855,-46.387,-39.062,0.000
1709297852.543,-44.434,-32.227,-45.898,-39.551,0.000
1709297852.546,-37.598,-31.738,-42.480,-39.062,0.000
1709297852.550,-49.805,-27.344,-37.109,-43.457,0.000
1709297852.554,-64.941,-31.738,-41.992,-47.852,0.000
1709297852.558,-60.059,-33.203,-44.434,-41.992,0.000
1709297852.562,-51.270,-34.668,-45.410,-35.645,0.000
1709297852.566,-50.781,-38.574,-44.434,-43.457,0.000
1709297852.570,-53.223,-36.133,-37.109,-43.945,0.000
1709297852.574,-61.035,-33.691,-34.668,-40.527,0.000
1709297852.578,-53.711,-37.109,-36.621,-38.574,0.000
1709297852.582,-39.551,-39.062,-38.574,-27.344,0.000
1709297852.585,-38.086,-38.574,-42.480,-32.715,0.000
1709297852.589,-49.316,-40.527,-43.457,-46.875,0.000
1709297852.593,-48.828,-38.574,-39.062,-57.617,0.000
1709297852.597,-42.480,-36.133,-38.086,-51.270,0.000
1709297852.601,-39.062,-34.668,-43.945,-45.410,0.000
1709297852.605,-27.832,-29.297,-40.039,-50.781,0.000
1709297852.609,-33.691,-26.367,-36.621,-43.457,0.000
1709297852.613,-46.875,-28.320,-39.551,-41.016,0.000
1709297852.617,-39.551,-30.762,-41.992,-44.434,0.000
1709297852.621,-37.109,-30.273,-43.457,-44.434,0.000
1709297852.625,-39.551,-30.762,-43.457,-37.109,0.000
1709297852.628,-40.039,-32.227,-46.387,-47.363,0.000
1709297852.632,-45.898,-33.203,-42.969,-59.082,0.000
1709297852.636,-52.246,-32.227,-37.598,-6.836,0.000
1709297852.640,-42.480,-29.297,-36.133,-6.836,0.000
1709297852.644,-38.086,-28.809,-41.992,-55.664,0.000
1709297852.648,-51.758,-31.250,-45.898,-50.293,0.000
1709297852.652,-62.988,-30.273,-43.457,-62.988,0.000
1709297852.656,-53.223,-27.344,-44.434,-59.570,0.000
1709297852.660,-42.969,-34.180,-47.852,-36.621,0.000
1709297852.664,-46.875,-32.227,-49.316,-38.086,0.000
1709297852.667,-49.316,-27.344,-43.945,-52.246,0.000
1709297852.671,-55.664,-37.109,-39.062,-52.734,0.000
1709297852.675,-53.223,-32.227,-41.504,-49.316,0.000
1709297852.679,-48.340,-27.832,-36.621,-33.203,0.000
1709297852.683,-36.133,-29.297,-36.133,-24.902,0.000
1709297852.687,-18.555,-26.855,-40.039,-30.273,0.000
1709297852.691,-28.320,-22.461,-39.062,-41.016,0.000
1709297852.695,-65.918,-27.832,-37.598,-44.922,0.000
1709297852.699,-56.641,-33.691,-35.645,-36.133,0.000
1709297852.703,-36.133,-31.250,-41.016,-28.320,0.000
1709297852.706,-54.688,-31.250,-43.945,-40.527,0.000
1709297852.710,-71.289,-34.668,-39.551,-48.828,0.000
1709297852.714,-67.871,-34.180,-39.551,-38.086,0.000
1709297852.718,-51.758,-30.273,-37.109,-21.973,0.000
1709297852.722,-43.945,-30.762,-35.645,-19.531,0.000
1709297852.726,-52.246,-35.156,-42.969,-18.066,0.000
1709297852.730,-53.223,-37.598,-42.969,-19.531,0.000
1709297852.734,-47.363,-36.133,-40.039,-62.500,0.000
1709297852.738,-49.316,-38.086,-42.480,-72.754,0.000
1709297852.742,-41.504,-35.645,-42.969,-52.246,0.000
1709297852.746,-48.340,-37.109,-48.828,-59.082,0.000
1709297852.749,-58.105,-39.062,-52.734,-63.965,0.000
1709297852.753,-56.152,-36.133,-52.246,-34.668,0.000
1709297852.757,-42.480,-37.598,-48.340,-32.715,0.000
1709297852.761,-21.484,-39.551,-53.711,-53.711,0.000
1709297852.765,-44.434,-40.527,-59.082,-46.387,0.000
1709297852.769,-72.266,-40.039,-47.363,-47.852,0.000
1709297852.773,-70.801,-42.480,-43.945,-57.129,0.000
1709297852.777,-58.105,-43.945,-52.246,-57.129,0.000
1709297852.781,-38.086,-40.527,-52.246,-50.781,0.000
1709297852.785,-27.832,-38.574,-48.340,-37.109,0.000
1709297852.789,-32.227,-38.086,-41.992,-33.691,0.000
1709297852.792,-40.527,-36.621,-37.598,-25.391,0.000
1709297852.796,-42.480,-32.715,-36.621,-23.438,0.000
1709297852.800,-29.785,-35.156,-44.434,-34.668,0.000
1709297852.804,-19.531,-38.574,-49.316,-31.738,0.000
1709297852.808,-30.762,-37.598,-46.387,-40.527,0.000
1709297852.812,-43.945,-37.109,-36.133,-43.457,0.000
1709297852.816,-48.340,-39.062,-36.133,-20.996,0.000
1709297852.820,-46.387,-39.551,-44.922,-18.066,0.000
1709297852.824,-41.016,-33.203,-43.945,-34.668,0.000
1709297852.828,-41.504,-34.668,-42.480,-54.199,0.000
1709297852.831,-54.199,-38.574,-41.504,-65.430,0.000
1709297852.835,0.000,-32.715,0.000,-53.711,0.000
1709297852.839,0.000,-31.738,0.000,-32.227,0.000
1709297852.843,0.000,-34.180,0.000,-36.133,0.000
1709297852.847,0.000,-34.180,0.000,-40.527,0.000
1709297852.851,0.000,-32.715,0.000,-41.016,0.000
1709297852.855,0.000,-32.227,0.000,-50.781,0.000
1709297852.859,0.000,-30.273,0.000,-43.945,0.000
1709297852.863,0.000,-31.738,0.000,-32.227,0.000
1709297852.867,0.000,-34.668,0.000,-28.320,0.000
1709297852.871,0.000,-35.156,0.000,-37.598,0.000
1709297852.874,0.000,-38.086,0.000,-42.480,0.000
1709297852.878,0.000,-36.133,0.000,-30.273,0.000
1709297852.882,-26.855,-36.133,-43.945,-28.809,0.000
1709297852.886,-33.203,-38.574,-45.410,-36.133,0.000
1709297852.890,-41.992,-37.598,-39.551,-33.203,0.000
1709297852.894,-48.828,-35.645,-38.574,-39.551,0.000
1709297852.898,-39.062,-34.668,-41.016,-37.598,0.000
1709297852.902,-18.066,-33.203,-40.527,-22.461,0.000
1709297852.906,-20.508,-35.156,-42.480,-33.203,0.000
1709297852.910,-36.133,-36.133,-40.527,-22.461,0.000
1709297852.914,-39.551,-35.156,-46.387,-16.602,0.000
1709297852.917,-23.926,-30.762,-49.316,-51.758,0.000
1709297852.921,-6.836,-23.926,-44.922,-46.387,0.000
1709297852.925,-6.348,-26.367,-43.945,-28.320,0.000
1709297852.929,-21.484,-30.273,-42.480,-39.551,0.000
1709297852.933,-37.109,-34.180,-40.527,-45.898,0.000
1709297852.937,-45.898,-36.133,-38.086,-33.691,0.000
1709297852.941,-36.621,-37.109,-39.062,-21.484,0.000
1709297852.945,-20.020,-33.691,-43.457,-18.555,0.000
1709297852.949,-28.320,-29.297,-44.434,-30.762,0.000
1709297852.953,-35.156,-31.250,-44.922,-34.668,0.000
1709297852.957,-32.227,-28.320,-40.039,-19.043,0.000
1709297852.960,-22.461,-26.855,-37.598,-13.672,0.000
1709297852.964,-10.254,-31.738,-40.527,-17.578,0.000
1709297852.968,-12.695,-35.645,-39.551,-22.461,0.000
1709297852.972,-27.344,-36.621,-41.016,-24.414,0.000
1709297852.976,-25.879,-34.180,-43.457,-19.531,0.000
1709297852.980,-15.137,-33.203,-42.969,-8.301,0.000
1709297852.984,-15.625,-33.691,-42.480,-4.883,0.000
1709297852.988,-20.508,-31.738,-39.062,-14.160,0.000
1709297852.992,-27.344,-30.762,-38.086,-22.949,0.000
1709297852.996,-32.227,-34.180,-41.992,-34.668,0.000
1709297852.999,-30.273,-35.645,-40.039,-24.414,0.000
1709297853.003,-21.973,-34.668,-36.621,-13.184,0.000
1709297853.007,-22.949,-34.180,-40.527,-35.156,0.000
1709297853.011,-33.691,-32.715,-41.504,-44.922,0.000
1709297853.015,-37.598,-33.203,-42.480,-36.133,0.000
1709297853.019,-25.879,-32.715,-47.852,-36.621,0.000
1709297853.023,-20.996,-31.250,-50.293,-35.156,0.000
1709297853.027,-26.855,-28.320,-46.387,-37.598,0.000
1709297853.031,-40.527,-28.320,-43.457,-40.039,0.000
1709297853.035,-44.922,-34.668,-45.410,-32.715,0.000
1709297853.038,-28.809,-36.621,-45.898,-18.066,0.000
1709297853.042,-15.137,-35.156,-45.898,-15.137,0.000
1709297853.046,-16.602,-29.297,-43.457,-28.320,0.000
1709297853.050,-36.133,-28.809,-44.434,-41.016,0.000
1709297853.054,-46.875,-34.668,-51.758,-37.598,0.000
1709297853.058,-40.527,-34.668,-54.199,-45.410,0.000
1709297853.062,-31.250,-31.250,-51.758,-56.152,0.000
1709297853.066,-33.203,-32.227,-49.805,-53.223,0.000
1709297853.070,-46.875,-33.691,-46.875,-52.246,0.000
1709297853.074,-60.059,-37.109,-47.852,-50.293,0.000
1709297853.078,-59.082,-37.598,-52.246,-44.434,0.000
1709297853.081,-35.156,-37.598,-50.781,-38.086,0.000
1709297853.085,-22.461,-38.574,-44.922,-37.109,0.000
1709297853.089,-36.621,-33.691,-45.410,-41.992,0.000
1709297853.093,-46.387,-30.762,-45.410,-42.969,0.000
1709297853.097,-39.551,-31.738,-44.922,-33.203,0.000
1709297853.101,-29.785,-30.762,-44.922,-24.414,0.000
1709297853.105,-33.203,-31.250,-46.387,-20.996,0.000
1709297853.109,-46.387,-30.273,-48.828,-39.062,0.000
1709297853.113,-51.270,-29.297,-48.828,-49.316,0.000
1709297853.117,-42.480,-33.203,-51.270,-35.645,0.000
1709297853.121,-32.715,-35.156,-51.270,-31.250,0.000
1709297853.124,-25.879,-28.320,-45.898,-31.738,0.000
1709297853.128,-30.762,-32.715,-49.805,-43.457,0.000
1709297853.132,-52.246,-38.574,-49.805,-50.293,0.000
1709297853.136,-47.363,-35.645,-42.969,-42.480,0.000
1709297853.140,-25.879,-36.621,-38.574,-32.227,0.000
1709297853.144,-24.902,-38.086,-39.062,-35.156,0.000
1709297853.148,-41.016,-39.551,-46.387,-41.016,0.000
1709297853.152,-49.805,-37.109,-46.387,-37.598,0.000
1709297853.156,-45.898,-35.645,-39.062,-37.598,0.000
1709297853.160,-41.992,-41.016,-43.945,-39.551,0.000
1709297853.164,-37.109,-39.062,-50.293,-27.832,0.000
1709297853.167,-33.203,-34.180,-48.340,-21.973,0.000
1709297853.171,-36.621,-32.715,-48.828,-40.039,0.000
1709297853.175,-40.527,-34.668,-48.340,-50.293,0.000
1709297853.179,-38.086,-35.645,-47.363,-37.598,0.000
1709297853.183,-28.320,-37.598,-42.480,-31.250,0.000
1709297853.187,-25.391,-37.598,-40.527,-33.691,0.000
1709297853.191,-36.621,-34.668,-43.945,-42.969,0.000
1709297853.195,-51.270,-34.668,-46.875,-35.645,0.000
1709297853.199,-49.805,-32.715,-50.293,-30.762,0.000
1709297853.203,-32.227,-27.344,-44.922,-29.297,0.000
1709297853.207,-28.809,-25.391,-40.527,-20.508,0.000
1709297853.210,-40.527,-27.344,-39.551,-24.414,0.000
1709297853.214,-38.574,-28.320,-36.621,-20.508,0.000
1709297853.218,-31.738,-32.227,-39.551,-25.391,0.000
1709297853.222,-29.297,-33.691,-41.504,-29.785,0.000
1709297853.226,-23.438,-30.273,-35.156,-29.785,0.000
1709297853.230,-32.227,-33.691,-37.598,-45.410,0.000
1709297853.234,-42.480,-33.203,-40.039,-41.504,0.000
1709297853.238,-32.227,-28.320,-37.109,-14.160,0.000
1709297853.242,-26.855,-30.762,-42.480,-4.395,0.000
1709297853.246,-35.156,-36.621,-48.828,-22.949,0.000
1709297853.249,-41.504,-34.668,-45.410,-43.945,0.000
1709297853.253,-45.410,-32.715,-41.504,-46.875,0.000
1709297853.257,-46.387,-36.621,-41.016,-35.156,0.000
1709297853.261,-32.227,-35.156,-36.621,-23.438,0.000
1709297853.265,-21.973,-36.621,-35.156,-25.879,0.000
1709297853.269,-35.156,-37.109,-41.504,-31.738,0.000
1709297853.273,-46.875,-28.809,-48.340,-36.133,0.000
1709297853.277,-48.828,-29.785,-43.945,-39.551,0.000
1709297853.281,-31.738,-31.738,-38.086,-36.133,0.000
1709297853.285,-21.973,-30.273,-38.086,-20.996,0.000
1709297853.289,-30.273,-25.391,-38.574,-11.230,0.000
1709297853.292,-37.598,-25.879,-42.969,-26.367,0.000
1709297853.296,-43.457,-31.738,-45.410,-20.508,0.000
1709297853.300,-32.715,-32.227,-41.016,-10.742,0.000
1709297853.304,-29.785,-36.621,-40.039,-22.461,0.000
1709297853.308,-38.574,-33.691,-42.969,-26.367,0.000
1709297853.312,-49.316,-32.715,-45.898,-34.180,0.000
1709297853.316,-42.969,-34.668,-41.016,-30.273,0.000
1709297853.320,-23.926,-32.227,-38.574,-16.602,0.000
1709297853.324,-20.508,-35.156,-40.039,-28.809,0.000
1709297853.328,-31.738,-33.203,-37.598,-48.828,0.000
1709297853.331,-46.875,-30.762,-41.504,-43.457,0.000
1709297853.335,-49.805,-29.297,-44.922,-44.434,0.000
1709297853.339,-46.875,-29.785,-41.504,-40.039,0.000
1709297853.343,-36.621,-28.809,-38.086,-26.855,0.000
1709297853.347,-30.762,-27.832,-43.457,-39.551,0.000
1709297853.351,-37.598,-32.715,-50.293,-49.805,0.000
1709297853.355,-40.527,-36.621,-51.270,-44.434,0.000
1709297853.359,-41.016,-39.551,-40.527,-35.645,0.000
1709297853.363,-34.668,-38.574,-34.668,-29.785,0.000
1709297853.367,-36.621,-38.574,-40.527,-37.109,0.000
1709297853.371,-41.504,-37.598,-36.621,-41.016,0.000
1709297853.374,-42.969,-34.180,-34.668,-25.391,0.000
1709297853.378,-45.410,-31.738,-37.598,-25.391,0.000
1709297853.382,-38.574,-32.227,-43.457,-39.062,0.000
1709297853.386,-28.809,-34.668,-46.387,-34.180,0.000
1709297853.390,-41.504,-34.668,-44.922,-45.898,0.000
1709297853.394,-56.641,-34.668,-44.922,-53.223,0.000
1709297853.398,-49.805,-35.645,-44.922,-43.945,0.000
1709297853.402,-41.504,-34.668,-44.922,-41.992,0.000
1709297853.406,-48.828,-33.203,-42.969,-46.875,0.000
1709297853.410,-63.965,-33.203,-42.480,-54.688,0.000
1709297853.413,-64.453,-31.250,-48.340,-47.363,0.000
1709297853.417,-49.805,-33.203,-52.246,-34.668,0.000
1709297853.421,-40.527,-30.762,-46.387,-20.996,0.000
1709297853.425,-28.809,-28.320,-43.457,-26.367,0.000
1709297853.429,-36.621,-34.180,-41.992,-40.527,0.000
1709297853.433,-55.176,-35.645,-41.016,-41.016,0.000
1709297853.437,-54.688,-31.738,-43.945,-32.715,0.000
1709297853.441,-41.016,-32.227,-46.875,-28.809,0.000
1709297853.445,-29.785,-36.133,-50.293,-46.387,0.000
1709297853.449,-33.691,-37.109,-49.316,-63.965,0.000
1709297853.453,-42.480,-32.227,-51.758,-67.871,0.000
1709297853.456,-40.527,-29.297,-53.711,-66.406,0.000
1709297853.460,-31.738,-24.414,-47.852,-53.223,0.000
1709297853.464,-27.832,-28.320,-41.504,-34.668,0.000
1709297853.468,-29.785,-33.691,-41.504,-43.457,0.000
1709297853.472,-33.691,-29.785,-44.434,-46.875,0.000
1709297853.476,-32.227,-29.297,-44.434,-32.227,0.000
1709297853.480,-24.414,-27.344,-46.875,-25.879,0.000
1709297853.484,-19.043,-27.344,-48.828,-28.320,0.000
1709297853.488,-28.809,-30.273,-46.387,-36.133,0.000
1709297853.492,0.000,-28.809,-46.387,-38.086,0.000
1709297853.496,0.000,-28.809,-41.016,-37.109,0.000
1709297853.499,0.000,-30.762,-37.109,-31.738,0.000
1709297853.503,0.000,-34.180,-39.551,-28.320,0.000
1709297853.507,0.000,-36.621,-40.527,-31.738,0.000
1709297853.511,0.000,-35.156,-39.062,-26.855,0.000
1709297853.515,0.000,-30.762,-33.203,-26.855,0.000
1709297853.519,0.000,-30.273,-36.133,-29.785,0.000
1709297853.523,0.000,-31.738,-38.574,-24.902,0.000
1709297853.527,0.000,-31.738,-39.062,-29.297,0.000
1709297853.531,0.000,-32.715,-40.527,-46.875,0.000
1709297853.535,0.000,-34.668,-40.039,-48.340,0.000
1709297853.539,-57.617,-30.273,-42.480,-33.203,0.000
1709297853.542,-41.992,-30.273,-44.434,-25.391,0.000
1709297853.546,-30.762,-30.762,-41.992,-28.809,0.000
1709297853.550,-45.410,-32.715,-40.527,-42.480,0.000
1709297853.554,-53.711,-39.062,-42.480,-45.410,0.000
1709297853.558,-47.852,-37.598,-41.504,-31.738,0.000
1709297853.562,-42.480,-37.598,-43.457,-26.855,0.000
1709297853.566,-43.457,-41.504,-46.387,-36.133,0.000
1709297853.570,-49.316,-40.527,-45.410,-35.645,0.000
1709297853.574,-53.711,-37.598,-44.434,-27.832,0.000
1709297853.578,-51.758,-36.133,-43.457,-29.785,0.000
1709297853.582,-36.133,-39.062,-43.457,-22.949,0.000
1709297853.585,-35.156,-39.551,-44.922,-21.484,0.000
1709297853.589,-46.875,-40.039,-44.922,-28.320,0.000
1709297853.593,-52.734,-41.504,-42.969,-31.738,0.000
1709297853.597,-44.922,-37.598,-39.551,-21.484,0.000
1709297853.601,-36.621,-36.621,-39.062,-13.672,0.000
1709297853.605,-34.668,-38.086,-41.992,-25.391,0.000
1709297853.609,-41.504,-34.668,-40.527,-47.852,0.000
1709297853.613,-42.969,-31.250,-37.598,-40.527,0.000
1709297853.617,-35.645,-36.133,-41.504,-27.832,0.000
1709297853.621,-29.297,-37.598,-43.457,-35.645,0.000
1709297853.624,-31.738,-36.133,-43.457,-37.598,0.000
1709297853.628,-48.340,-35.156,-40.527,-44.434,0.000
1709297853.632,-53.223,-31.250,-39.062,-42.480,0.000
1709297853.636,-52.246,-29.297,-41.016,-35.156,0.000
1709297853.640,-43.945,-28.809,-41.016,-28.809,0.000
1709297853.644,-36.133,-28.320,-40.039,-25.879,0.000
1709297853.648,-38.086,-27.832,-36.621,-37.598,0.000
1709297853.652,-44.434,-30.273,-36.621,-48.340,0.000
1709297853.656,-43.457,-35.645,-40.039,-40.039,0.000
1709297853.660,-33.691,-39.551,-41.992,-26.855,0.000
1709297853.664,-36.621,-42.969,-46.875,-35.156,0.000
1709297853.667,-43.457,-41.992,-44.922,-39.551,0.000
1709297853.671,-47.363,-33.691,-42.969,-43.457,0.000
1709297853.675,-52.734,-32.227,-43.457,-41.992,0.000
1709297853.679,-41.992,-28.809,-38.086,-19.043,0.000
1709297853.683,-29.785,-26.855,-37.109,-27.344,0.000
1709297853.687,-35.645,-31.738,-38.574,-36.621,0.000
1709297853.691,-46.875,-35.156,-38.574,-38.574,0.000
1709297853.695,-61.035,-31.250,-41.016,-50.293,0.000
1709297853.699,-48.828,-26.367,-41.016,-38.086,0.000
1709297853.703,-29.785,-31.738,-44.922,-26.855,0.000
1709297853.706,-39.551,-38.086,-49.805,-41.016,0.000
1709297853.710,-52.734,-34.180,-42.480,-55.664,0.000
1709297853.714,-59.570,-36.133,-38.086,-55.176,0.000
1709297853.718,-53.223,-40.039,-42.969,-48.340,0.000
1709297853.722,-41.504,-40.039,-44.922,-38.086,0.000
1709297853.726,-42.480,-45.898,-44.922,-39.062,0.000
1709297853.730,-48.340,-45.410,-49.805,-43.945,0.000
1709297853.734,-54.199,-39.551,-48.340,-41.992,0.000
1709297853.738,-48.828,-37.598,-46.387,-41.016,0.000
1709297853.742,-29.297,-33.203,-41.992,-28.809,0.000
1709297853.746,-20.996,-33.203,-39.551,-25.879,0.000
1709297853.749,-36.133,-37.598,-46.875,-34.180,0.000
1709297853.753,-48.828,-36.621,-47.363,-34.668,0.000
1709297853.757,-43.457,-33.691,-47.363,-37.598,0.000
1709297853.761,-35.645,-32.227,-49.805,-35.645,0.000
1709297853.765,-25.879,-34.180,-46.875,-35.645,0.000
1709297853.769,-28.320,-33.203,-47.363,-43.945,0.000
1709297853.773,-36.133,-30.762,-45.410,-35.645,0.000
1709297853.777,-31.738,-29.785,-45.410,-25.879,0.000
1709297853.781,-20.996,-28.320,-43.457,-20.508,0.000
1709297853.785,-19.531,-32.227,-37.598,-23.438,0.000
1709297853.788,-26.367,-30.762,-36.621,-28.320,0.000
1709297853.792,-28.809,-31.738,-34.180,-24.902,0.000
1709297853.796,-36.133,-31.250,-35.645,-26.855,0.000
1709297853.800,-26.367,-26.855,-37.598,-25.391,0.000
1709297853.804,-17.090,-31.738,-40.039,-28.320,0.000
1709297853.808,-29.297,-37.598,-44.434,-43.945,0.000
1709297853.812,-35.156,-37.109,-44.922,-36.621,0.000
1709297853.816,-19.531,-34.668,-46.875,-13.672,0.000
1709297853.820,-12.695,-40.039,-42.480,-7.324,0.000
1709297853.824,-20.508,-41.016,-34.180,-17.090,0.000
1709297853.828,-28.320,-41.504,-35.156,-37.109,0.000
1709297853.831,-46.875,-41.504,-34.180,-49.805,0.000
1709297853.835,-53.711,-39.551,-35.156,-47.363,0.000
1709297853.839,-38.574,-40.527,-38.086,-33.691,0.000
1709297853.843,-19.043,-41.992,-38.574,-25.879,0.000
1709297853.847,-20.996,-36.621,-40.039,-27.832,0.000
1709297853.851,-31.738,-32.227,-39.062,-36.133,0.000
1709297853.855,-32.227,-34.180,-37.109,-32.227,0.000
1709297853.859,-25.879,-31.738,-35.156,-20.020,0.000
1709297853.863,-7.324,-29.297,-36.133,-14.160,0.000
1709297853.867,-11.230,-32.715,-40.527,-30.762,0.000
1709297853.871,-31.250,-36.133,-38.574,-47.852,0.000
1709297853.874,-34.668,-32.715,-36.133,-48.340,0.000
1709297853.878,-25.879,-29.297,-37.109,-35.645,0.000
1709297853.882,-25.391,-34.668,-37.598,-21.484,0.000
1709297853.886,-32.227,-42.969,-42.969,-31.250,0.000
1709297853.890,-43.457,-40.039,-50.293,-41.992,0.000
1709297853.894,-50.293,-34.180,-45.898,-43.945,0.000
1709297853.898,-36.133,-35.645,-37.598,-23.926,0.000
1709297853.902,-30.762,-34.180,-41.016,-14.648,0.000
1709297853.906,-26.855,-30.273,-42.969,-30.273,0.000
1709297853.910,-27.832,-29.297,-37.598,-43.457,0.000
1709297853.914,-41.504,-33.203,-39.551,-37.109,0.000
1709297853.917,-47.363,-35.156,-44.434,-32.227,0.000
1709297853.921,-43.457,-34.180,-38.574,-36.133,0.000
1709297853.925,-28.320,-30.273,-35.156,-32.227,0.000
1709297853.929,-23.438,-28.809,-35.156,-40.039,0.000
1709297853.933,-37.598,-30.762,-33.691,-38.086,0.000
1709297853.937,-41.504,-34.668,-38.086,-28.809,0.000
1709297853.941,-36.133,-37.598,-41.992,-30.762,0.000
1709297853.945,-32.227,-33.203,-38.086,-26.855,0.000
1709297853.949,-36.133,-30.273,-34.668,-37.598,0.000
1709297853.953,-53.711,-32.715,-41.992,-57.617,0.000
1709297853.956,-62.988,-34.180,-44.922,-51.270,0.000
1709297853.960,-52.734,-34.180,-42.480,-29.785,0.000
1709297853.964,-35.645,-30.762,-41.016,-28.809,0.000
1709297853.968,-29.785,-28.320,-40.527,-45.898,0.000
1709297853.972,-47.852,-33.203,-40.527,-56.152,0.000
1709297853.976,-53.711,-36.133,-43.945,-49.316,0.000
1709297853.980,-42.969,-35.645,-45.898,-31.738,0.000
1709297853.984,-37.109,-31.250,-41.504,-32.715,0.000
1709297853.988,-43.457,-26.855,-41.016,-32.715,0.000
1709297853.992,-57.617,-33.203,-41.016,-32.715,0.000
1709297853.996,-49.316,-34.668,-38.574,-43.457,0.000
1709297853.999,-29.785,-34.668,-41.504,-45.410,0.000
1709297854.003,-30.273,-34.668,-41.992,-36.621,0.000
1709297854.007,-43.945,-32.227,-40.039,-42.480,0.000
1709297854.011,-58.594,-32.227,-42.969,-59.082,0.000
1709297854.015,-61.035,-29.785,-43.457,-50.293,0.000
1709297854.019,-53.711,-29.297,-42.480,-38.086,0.000
1709297854.023,-41.016,-31.250,-40.527,-34.180,0.000
1709297854.027,-41.504,-30.762,-40.039,-34.668,0.000
1709297854.031,-50.293,-30.762,-42.480,-48.340,0.000
1709297854.035,-56.152,-37.598,-39.062,-43.945,0.000
1709297854.039,-54.688,-41.504,-41.016,-29.297,0.000
1709297854.042,-34.180,-37.109,-40.039,-21.484,0.000
1709297854.046,-30.273,-36.621,-37.109,-27.832,0.000
1709297854.050,-42.480,-35.156,-42.480,-45.410,0.000
1709297854.054,-50.293,-34.180,-48.828,-45.410,0.000
1709297854.058,-51.758,-35.645,-52.246,-37.109,0.000
1709297854.062,-38.086,-35.156,-50.293,-40.039,0.000
1709297854.066,-28.809,-37.598,-49.805,-47.363,0.000
1709297854.070,-40.039,-35.156,-45.410,-49.316,0.000
1709297854.074,-54.199,-29.785,-38.574,-53.223,0.000
1709297854.078,-63.965,-30.762,-38.086,-49.805,0.000
1709297854.081,-51.758,-26.855,-37.598,-31.250,0.000
1709297854.085,-41.504,-22.949,-36.621,-34.668,0.000
1709297854.089,-46.387,-25.391,-41.016,-53.223,0.000
1709297854.093,-56.641,-31.250,-43.945,-55.664,0.000
1709297854.097,-53.711,-35.645,-44.434,-50.781,0.000
1709297854.101,-35.645,-34.668,-45.410,-43.457,0.000
1709297854.105,-36.621,-37.598,-44.922,-40.039,0.000
1709297854.109,-47.852,-40.039,-44.434,-49.316,0.000
1709297854.113,-53.711,-38.086,-41.504,-51.758,0.000
1709297854.117,-53.711,-41.016,-39.551,-38.086,0.000
1709297854.120,-42.969,-42.480,-44.434,-35.645,0.000
1709297854.124,-35.645,-37.598,-44.434,-32.715,0.000
1709297854.128,-46.387,-36.133,-43.457,-42.480,0.000
1709297854.132,-45.410,-35.645,-44.922,-53.711,0.000
1709297854.136,-41.504,-34.668,-43.457,-43.945,0.000
1709297854.140,-35.156,-34.668,-41.016,-28.320,0.000
1709297854.144,-15.625,-34.668,-38.574,-23.438,0.000
1709297854.148,-23.438,-39.062,-38.086,-34.668,0.000
1709297854.152,-37.109,-41.992,-40.527,-33.203,0.000
1709297854.156,-40.527,-39.062,-38.574,-30.273,0.000
1709297854.159,-35.645,-34.180,-34.180,-34.180,0.000
1709297854.163,-25.391,-32.715,-38.086,-29.297,0.000
1709297854.167,-33.691,-35.156,-41.992,-41.992,0.000
1709297854.171,-40.039,-36.621,-41.016,-48.340,0.000
1709297854.175,-42.969,-32.715,-43.457,-46.387,0.000
1709297854.179,-46.875,-32.227,-42.969,-40.039,0.000
1709297854.183,-41.504,-39.062,-43.457,-32.715,0.000
1709297854.187,-39.062,-40.039,-45.898,-36.133,0.000
1709297854.191,-52.246,-38.574,-49.316,-49.805,0.000
1709297854.195,-62.012,-41.992,-53.223,-53.223,0.000
1709297854.198,-54.199,-40.039,-55.176,-47.363,0.000
1709297854.202,-47.363,-37.598,-50.781,-41.016,0.000
1709297854.206,-47.852,-35.645,-47.852,-39.062,0.000
1709297854.210,-43.945,-32.715,-48.828,-52.246,0.000
1709297854.214,-43.457,-31.738,-43.457,-49.805,0.000
1709297854.218,-47.852,-27.344,-42.969,-38.574,0.000
1709297854.222,-44.922,-27.832,-48.340,-43.945,0.000
1709297854.226,-51.758,-35.645,-53.711,-56.152,0.000
1709297854.230,-52.246,-33.203,-50.781,-56.641,0.000
1709297854.234,-58.594,-34.180,-47.363,-52.246,0.000
1709297854.238,-62.012,-41.992,-48.828,-46.875,0.000
1709297854.242,-46.387,-41.016,-51.270,-50.781,0.000
1709297854.245,-37.109,-38.574,-54.199,-62.500,0.000
1709297854.249,-40.039,-36.133,-54.199,-62.500,0.000
1709297854.253,-54.199,-37.109,-50.781,-53.223,0.000
1709297854.257,-50.781,-37.598,-43.945,-40.039,0.000
1709297854.261,-28.320,-33.203,-40.039,-36.133,0.000
1709297854.265,-18.555,-27.832,-38.086,-37.109,0.000
1709297854.269,-26.855,-24.414,-40.527,-42.969,0.000
1709297854.273,-38.086,-29.297,-41.992,-44.922,0.000
1709297854.277,-43.457,-35.156,-35.156,-27.832,0.000
1709297854.281,-34.180,-33.203,-32.227,-19.531,0.000
1709297854.284,-23.926,-35.156,-33.203,-26.367,0.000
1709297854.288,-34.668,-40.039,-35.645,-43.457,0.000
1709297854.292,-56.641,-37.598,-40.527,-49.805,0.000
1709297854.296,-48.828,-35.156,-45.898,-39.551,0.000
1709297854.300,-33.203,-34.668,-41.992,-31.250,0.000
1709297854.304,-32.715,-34.668,-41.016,-28.320,0.000
1709297854.308,-42.480,-36.133,-41.992,-25.879,0.000
1709297854.312,-55.176,-38.574,-34.668,-35.645,0.000
1709297854.316,-57.129,-37.598,-31.738,-52.734,0.000
1709297854.320,-62.988,-41.504,-33.691,-52.734,0.000
1709297854.324,-55.664,-44.434,-35.156,-48.340,0.000
1709297854.327,-53.711,-42.969,-34.180,-54.688,0.000
1709297854.331,-61.035,-42.480,-35.645,-58.594,0.000
1709297854.335,-59.082,-37.598,-38.086,-53.711,0.000
1709297854.339,-48.340,-33.691,-40.039,-38.086,0.000
1709297854.343,-31.738,-32.227,-42.480,-32.227,0.000
1709297854.347,-32.715,-32.227,-45.410,-48.340,0.000
1709297854.351,-33.691,-31.738,-42.969,-55.664,0.000
1709297854.355,-43.945,-30.762,-42.480,-49.805,0.000
1709297854.359,-50.781,-35.645,-44.922,-42.480,0.000
1709297854.363,-43.457,-34.668,-42.480,-31.738,0.000
1709297854.367,-48.828,-31.738,-43.457,-38.086,0.000
1709297854.370,-58.594,-36.133,-45.410,-52.246,0.000
1709297854.374,-61.035,-38.086,-42.480,-49.316,0.000
1709297854.378,-43.457,-31.738,-40.527,-30.762,0.000
1709297854.382,-25.879,-28.809,-40.527,-17.578,0.000
1709297854.386,-31.738,-29.297,-36.133,-25.879,0.000
1709297854.390,-43.457,-31.738,-33.203,-37.598,0.000
1709297854.394,-51.270,-34.668,-33.691,-34.668,0.000
1709297854.398,-56.641,-37.598,-36.133,-34.668,0.000
1709297854.402,-41.992,-38.086,-41.504,-27.832,0.000
1709297854.406,-35.156,-38.086,-44.434,-26.855,0.000
1709297854.409,-50.293,-40.527,-44.434,-37.109,0.000
1709297854.413,-56.641,-37.598,-40.527,-32.227,0.000
1709297854.417,-52.734,-33.691,-38.086,-31.250,0.000
1709297854.421,-36.133,-36.133,-37.109,-24.414,0.000
1709297854.425,-31.738,-35.645,-42.969,-23.926,0.000
1709297854.429,-44.922,-30.762,-45.898,-41.992,0.000
1709297854.433,-47.363,-29.785,-42.969,-42.969,0.000
1709297854.437,-40.039,-33.691,-42.969,-29.297,0.000
1709297854.441,-36.621,-33.691,-44.434,-27.344,0.000
1709297854.445,-38.574,-33.691,-44.922,-28.320,0.000
1709297854.449,-43.457,-37.109,-43.457,-34.180,0.000
1709297854.452,-49.805,-38.574,-43.945,-43.457,0.000
1709297854.456,-52.734,-35.156,-43.945,-41.016,0.000
1709297854.460,-48.340,-31.738,-45.410,-30.762,0.000
1709297854.464,-41.504,-32.715,-48.828,-36.133,0.000
1709297854.468,-41.016,-35.645,-43.457,-50.781,0.000
1709297854.472,-40.039,-33.203,-35.645,-50.781,0.000
1709297854.476,-41.504,-33.203,-38.086,-40.527,0.000
1709297854.480,-41.504,-37.109,-35.645,-26.367,0.000
1709297854.484,-34.668,-33.691,-35.156,-23.438,0.000
1709297854.488,-34.668,-30.762,-38.574,-31.738,0.000
1709297854.491,-43.457,-35.645,-37.109,-37.109,0.000
1709297854.495,-49.316,-38.574,-39.551,-45.898,0.000
1709297854.499,-40.039,-34.668,-39.062,-30.762,0.000
1709297854.503,-32.715,-34.180,-38.086,-16.602,0.000
1709297854.507,-39.551,-33.203,-44.434,-30.273,0.000
1709297854.511,-50.781,-33.691,-47.363,-40.039,0.000
1709297854.515,-55.176,-34.668,-44.922,-36.621,0.000
1709297854.519,-42.480,-34.668,-48.828,-23.926,0.000
1709297854.523,-15.137,-30.762,-50.781,-15.625,0.000
1709297854.527,-15.137,-27.344,-46.875,-21.484,0.000
1709297854.530,-35.645,-26.367,-46.875,-35.156,0.000
1709297854.534,-45.410,-28.809,-46.387,-39.551,0.000
1709297854.538,-38.086,-29.785,-46.875,-30.762,0.000
1709297854.542,-32.227,-30.762,-41.992,-28.809,0.000
1709297854.546,-33.203,-33.691,-41.504,-24.414,0.000
1709297854.550,-34.180,-28.320,-44.434,-24.902,0.000
1709297854.554,-38.574,-30.762,-36.621,-30.762,0.000
1709297854.558,-26.855,-34.668,-34.668,-20.996,0.000
1709297854.562,-5.859,-27.344,-38.086,-13.672,0.000
1709297854.566,-11.230,-28.809,-39.551,-12.695,0.000
1709297854.570,0.000,-31.250,-36.621,-25.391,0.000
1709297854.573,0.000,-31.738,-36.133,-43.457,0.000
1709297854.577,0.000,-35.645,-40.527,-36.621,0.000
1709297854.581,0.000,-31.250,-38.574,-27.832,0.000
1709297854.585,0.000,-26.855,-37.109,-29.785,0.000
1709297854.589,0.000,-30.762,-42.480,-26.367,0.000
1709297854.593,0.000,-32.715,-44.922,-29.785,0.000
1709297854.597,0.000,-33.691,-46.387,-30.762,0.000
1709297854.601,0.000,-38.086,-46.387,-19.531,0.000
1709297854.605,0.000,-39.062,-40.039,-25.879,0.000
1709297854.609,0.000,-39.551,-38.574,-40.527,0.000
1709297854.613,0.000,-39.551,-38.574,-34.180,0.000
1709297854.616,-39.551,-40.527,-43.457,-30.273,0.000
1709297854.620,-29.785,-38.574,-40.527,-30.273,0.000
1709297854.624,-27.344,-36.133,-37.109,-32.715,0.000
1709297854.628,-32.227,-34.668,-38.574,-43.457,0.000
1709297854.632,-37.109,-32.715,-41.016,-43.457,0.000
1709297854.636,-41.504,-35.645,-43.945,-35.645,0.000
1709297854.640,-19.043,-36.133,-41.504,-30.762,0.000
1709297854.644,-12.695,-33.203,-41.992,-37.109,0.000
1709297854.648,-25.391,-28.809,-38.086,-34.668,0.000
1709297854.652,-30.273,-26.855,-34.668,-28.320,0.000
1709297854.656,-35.156,-28.809,-37.109,-33.691,0.000
1709297854.659,-33.203,-27.344,-37.109,-34.180,0.000
1709297854.663,-22.949,-26.367,-37.109,-34.668,0.000
1709297854.667,-20.020,-23.926,-36.621,-41.992,0.000
1709297854.671,-35.156,-20.996,-41.016,-41.992,0.000
1709297854.675,-49.316,-24.902,-42.480,-36.133,0.000
1709297854.679,-44.922,-30.273,-41.504,-34.180,0.000
1709297854.683,-31.738,-30.762,-40.039,-26.855,0.000
1709297854.687,-34.180,-32.715,-40.527,-29.785,0.000
1709297854.691,-40.527,-29.297,-39.551,-39.062,0.000
1709297854.695,-52.734,-30.762,-38.574,-32.715,0.000
1709297854.699,-58.594,-37.598,-39.062,-30.273,0.000
1709297854.702,-40.527,-33.203,-36.621,-35.156,0.000
1709297854.706,-40.527,-29.785,-33.203,-36.621,0.000
1709297854.710,-66.406,-34.180,-31.738,-49.805,0.000
1709297854.714,-74.219,-35.156,-32.227,-50.781,0.000
1709297854.718,-62.500,-33.203,-34.180,-36.621,0.000
1709297854.722,-52.734,-35.156,-35.645,-26.855,0.000
1709297854.726,-55.176,-34.180,-36.621,-33.203,0.000
1709297854.730,-66.895,-38.574,-37.109,-46.387,0.000
1709297854.734,-71.777,-39.062,-37.598,-41.504,0.000
1709297854.738,-61.035,-33.691,-39.062,-36.621,0.000
1709297854.741,-49.316,-32.227,-39.551,-27.344,0.000
1709297854.745,-46.387,-34.180,-42.969,-33.203,0.000
1709297854.749,-51.270,-37.598,-43.457,-53.223,0.000
1709297854.753,-58.105,-33.203,-38.574,-44.922,0.000
1709297854.757,-54.199,-33.203,-39.551,-34.180,0.000
1709297854.761,-44.922,-35.645,-44.434,-35.645,0.000
1709297854.765,-37.598,-34.668,-43.457,-34.180,0.000
1709297854.769,-45.898,-39.551,-43.945,-38.574,0.000
1709297854.773,-52.246,-38.574,-42.969,-35.156,0.000
1709297854.777,-48.828,-31.738,-42.480,-32.227,0.000
1709297854.781,-55.664,-33.691,-51.758,-42.480,0.000
1709297854.784,-44.922,-32.715,-52.246,-22.461,0.000
1709297854.788,-25.879,-31.250,-44.434,-9.277,0.000
1709297854.792,-42.480,-39.551,-38.086,-27.344,0.000
1709297854.796,-62.500,-44.434,-35.645,-34.668,0.000
1709297854.800,-55.176,-44.922,-37.598,-36.621,0.000
1709297854.804,-43.457,-46.387,-33.691,-32.227,0.000
1709297854.808,-52.734,-48.828,-27.832,-39.551,0.000
1709297854.812,-72.754,-50.293,-26.367,-52.734,0.000
1709297854.816,-83.008,-45.410,-31.738,-58.594,0.000
1709297854.820,-71.777,-44.434,-34.180,-49.805,0.000
1709297854.824,-54.199,-48.340,-35.645,-50.293,0.000
1709297854.827,-52.734,-48.828,-39.062,-55.176,0.000
1709297854.831,-56.152,-46.387,-36.621,-39.062,0.000
1709297854.835,-49.805,-44.922,-37.109,-45.410,0.000
1709297854.839,-47.852,-45.410,-41.504,-44.922,0.000
1709297854.843,-45.410,-42.480,-38.574,-32.227,0.000
1709297854.847,-43.945,-39.062,-38.574,-45.410,0.000
1709297854.851,-46.387,-35.645,-40.039,-44.922,0.000
1709297854.855,-43.457,-36.133,-39.062,-23.438,0.000
1709297854.859,-33.691,-39.062,-41.992,-23.926,0.000
1709297854.863,-23.926,-39.551,-40.527,-26.855,0.000
1709297854.867,-36.621,-40.527,-40.527,-32.227,0.000
1709297854.870,-43.457,-39.062,-43.457,-45.898,0.000
1709297854.874,-38.574,-37.598,-39.062,-33.203,0.000
1709297854.878,-33.203,-35.645,-36.133,-17.578,0.000
1709297854.882,-23.438,-34.180,-34.668,-25.879,0.000
1709297854.886,-29.785,-36.621,-35.156,-34.668,0.000
1709297854.890,-44.922,-38.574,-36.133,-42.480,0.000
1709297854.894,-59.082,-41.016,-37.109,-46.387,0.000
1709297854.898,-57.617,-39.551,-33.691,-32.227,0.000
1709297854.902,-46.387,-35.156,-34.180,-21.484,0.000
1709297854.906,-45.898,-37.109,-35.156,-33.691,0.000
1709297854.909,-45.410,-34.668,-33.203,-50.293,0.000
1709297854.913,-51.758,-33.691,-31.250,-46.387,0.000
1709297854.917,-61.035,-41.016,-33.203,-35.156,0.000
1709297854.921,-49.316,-41.016,-32.227,-26.367,0.000
1709297854.925,-35.645,-35.645,-35.156,-24.414,0.000
1709297854.929,-41.992,-36.621,-40.527,-42.480,0.000
1709297854.933,-52.246,-38.574,-37.109,-45.898,0.000
1709297854.937,-51.270,-34.180,-39.551,-25.391,0.000
1709297854.941,-41.016,-32.227,-43.945,-12.695,0.000
1709297854.945,-37.109,-28.809,-43.945,-18.066,0.000
1709297854.948,-51.270,-33.691,-42.480,-31.738,0.000
1709297854.952,-54.199,-40.527,-42.969,-35.156,0.000
1709297854.956,-50.781,-45.410,-47.363,-41.992,0.000
1709297854.960,-42.969,-44.434,-45.898,-32.715,0.000
1709297854.964,-30.762,-40.039,-40.527,-22.949,0.000
1709297854.968,-41.992,-40.039,-39.062,-38.574,0.000
1709297854.972,-53.711,-37.598,-43.457,-49.805,0.000
1709297854.976,-49.316,-35.645,-46.387,-44.922,0.000
1709297854.980,-37.598,-35.156,-52.246,-31.738,0.000
1709297854.984,-27.832,-32.715,-51.270,-31.250,0.000
1709297854.988,-33.691,-33.691,-46.387,-37.598,0.000
1709297854.992,-47.363,-36.621,-47.363,-40.039,0.000
1709297854.995,-52.246,-42.969,-48.828,-41.504,0.000
1709297854.999,-43.457,-41.992,-49.805,-37.598,0.000
1709297855.003,-30.762,-35.645,-46.875,-37.598,0.000
1709297855.007,-32.227,-38.574,-46.875,-48.828,0.000
1709297855.011,-48.340,-38.086,-45.898,-46.875,0.000
1709297855.015,-50.781,-36.621,-47.852,-45.410,0.000
1709297855.019,-41.504,-40.039,-43.945,-40.527,0.000
1709297855.023,-40.039,-39.551,-41.504,-29.297,0.000
1709297855.027,-41.992,-42.969,-47.363,-32.227,0.000
1709297855.031,-48.828,-41.504,-46.387,-47.852,0.000
1709297855.034,-55.664,-39.062,-43.945,-49.316,0.000
1709297855.038,-50.293,-42.969,-43.457,-38.574,0.000
1709297855.042,-33.203,-42.480,-43.945,-39.551,0.000
1709297855.046,-29.785,-40.527,-43.945,-42.480,0.000
1709297855.050,-32.715,-41.016,-41.504,-41.504,0.000
1709297855.054,-42.969,-40.527,-39.551,-38.086,0.000
1709297855.058,-54.688,-46.387,-40.527,-33.691,0.000
1709297855.062,-37.598,-48.340,-43.457,-30.762,0.000
1709297855.066,-28.809,-45.410,-45.410,-36.133,0.000
1709297855.070,-45.410,-47.852,-42.480,-36.621,0.000
1709297855.074,-47.852,-42.969,-36.621,-20.996,0.000
1709297855.077,-39.551,-32.715,-35.645,-32.715,0.000
1709297855.081,-36.133,-35.156,-35.645,-41.504,0.000
1709297855.085,-26.855,-37.598,-33.203,-27.832,0.000
1709297855.089,-34.180,-38.086,-35.645,-30.273,0.000
1709297855.093,-45.898,-37.598,-37.598,-41.992,0.000
1709297855.097,-43.457,-34.180,-37.109,-37.598,0.000
1709297855.101,-42.480,-35.645,-36.621,-27.344,0.000
1709297855.105,-35.156,-35.156,-38.574,-34.180,0.000
1709297855.109,-31.738,-32.227,-42.480,-50.781,0.000
1709297855.113,-33.203,-33.203,-36.133,-47.852,0.000
1709297855.117,-37.598,-34.180,-37.109,-40.039,0.000
1709297855.120,-30.762,-29.785,-41.992,-40.527,0.000
1709297855.124,-27.832,-30.762,-41.992,-39.551,0.000
1709297855.128,-42.969,-36.133,-41.016,-38.086,0.000
1709297855.132,-54.199,-37.109,-41.016,-43.457,0.000
1709297855.136,-43.945,-35.645,-42.480,-46.387,0.000
1709297855.140,-18.555,-29.785,-41.504,-38.086,0.000
1709297855.144,-4.883,-25.879,-40.039,-41.504,0.000
1709297855.148,-20.508,-28.809,-41.016,-42.969,0.000
1709297855.152,-49.805,-34.668,-42.969,-42.969,0.000
1709297855.156,-51.758,-30.762,-41.992,-45.410,0.000
1709297855.160,-42.969,-28.320,-43.945,-35.645,0.000
1709297855.163,-37.109,-34.668,-47.852,-40.039,0.000
1709297855.167,-30.762,-32.715,-46.875,-54.688,0.000
1709297855.171,-41.992,-34.180,-46.875,-54.199,0.000
1709297855.175,-47.363,-35.645,-46.875,-58.594,0.000
1709297855.179,-41.504,-34.180,-45.898,-51.758,0.000
1709297855.183,-31.738,-38.574,-46.387,-40.527,0.000
1709297855.187,-33.203,-39.062,-47.363,-45.410,0.000
1709297855.191,-46.387,-36.621,-48.828,-49.805,0.000
1709297855.195,-46.387,-37.598,-49.316,-40.527,0.000
1709297855.199,-44.922,-41.016,-48.828,-38.574,0.000
1709297855.202,-33.691,-41.992,-46.875,-42.969,0.000
1709297855.206,-36.133,-39.062,-46.387,-38.574,0.000
1709297855.210,-49.316,-35.156,-43.945,-41.504,0.000
1709297855.214,-48.340,-30.762,-38.086,-41.504,0.000
1709297855.218,-34.668,-24.902,-33.203,-32.227,0.000
1709297855.222,-16.113,-21.484,-32.715,-28.320,0.000
1709297855.226,-19.531,-25.391,-34.668,-37.598,0.000
1709297855.230,-41.504,-29.297,-36.621,-46.875,0.000
1709297855.234,-37.109,-29.785,-38.086,-33.691,0.000
1709297855.238,-19.531,-33.691,-38.086,-23.926,0.000
1709297855.241,-20.020,-30.762,-37.109,-24.902,0.000
1709297855.245,-27.832,-29.297,-42.969,-35.645,0.000
1709297855.249,-36.133,-29.297,-47.363,-34.668,0.000
1709297855.253,-42.969,-28.809,-49.316,-28.809,0.000
1709297855.257,-37.109,-28.320,-53.711,-38.574,0.000
1709297855.261,-30.273,-26.367,-53.223,-37.598,0.000
1709297855.265,-31.250,-28.809,-44.922,-34.180,0.000
1709297855.269,-39.062,-30.762,-37.109,-40.527,0.000
1709297855.273,0.000,-33.691,-41.504,-41.504,0.000
1709297855.277,0.000,-34.180,-42.969,-36.621,0.000
1709297855.280,0.000,-30.762,-42.480,-30.273,0.000
1709297855.284,0.000,-29.785,-43.457,-30.273,0.000
1709297855.288,0.000,-30.762,-45.410,-34.180,0.000
1709297855.292,0.000,-30.762,-42.969,-33.203,0.000
1709297855.296,0.000,-28.809,-41.992,-21.973,0.000
1709297855.300,0.000,-29.785,-40.039,-21.973,0.000
1709297855.304,0.000,-36.133,-40.527,-29.297,0.000
1709297855.308,0.000,-41.992,-41.992,-38.086,0.000
1709297855.312,0.000,-37.598,-41.504,-45.898,0.000
1709297855.316,0.000,-35.156,-44.434,-30.762,0.000
1709297855.319,-16.113,-33.203,-46.387,-23.926,0.000
1709297855.323,-8.789,-30.273,-43.457,-23.926,0.000
1709297855.327,-21.973,-36.621,-45.898,-36.133,0.000
1709297855.331,-40.527,-37.109,-49.805,-46.875,0.000
1709297855.335,-43.945,-34.668,-47.363,-34.180,0.000
1709297855.339,-36.621,-36.133,-46.387,-28.809,0.000
1709297855.343,-16.602,-35.645,-45.898,-24.414,0.000
1709297855.347,-6.348,-36.133,-44.922,-33.691,0.000
1709297855.351,-15.137,-34.180,-40.527,-31.250,0.000
1709297855.355,-16.113,-29.785,-35.645,-20.508,0.000
1709297855.359,-10.254,-27.344,-38.086,-18.555,0.000
1709297855.362,-9.277,-29.785,-41.992,-13.184,0.000
1709297855.366,-14.648,-32.715,-46.875,-29.785,0.000
1709297855.370,-20.996,-32.227,-48.340,-40.039,0.000
1709297855.374,-28.809,-32.227,-45.410,-39.062,0.000
1709297855.378,-23.926,-32.715,-42.480,-36.621,0.000
1709297855.382,-19.043,-36.133,-42.969,-25.391,0.000
1709297855.386,-15.625,-32.227,-43.457,-34.668,0.000
1709297855.390,-21.484,-26.855,-36.621,-45.898,0.000
1709297855.394,-33.203,-31.250,-40.039,-43.945,0.000
1709297855.398,-32.227,-37.109,-45.410,-34.668,0.000
1709297855.402,-34.180,-38.086,-41.016,-27.832,0.000
1709297855.405,-43.945,-37.109,-41.992,-28.809,0.000
1709297855.409,-43.945,-34.668,-43.945,-35.156,0.000
1709297855.413,-41.504,-31.250,-42.969,-35.645,0.000
1709297855.417,-36.621,-25.879,-41.016,-27.832,0.000
1709297855.421,-20.996,-24.414,-43.457,-29.785,0.000
1709297855.425,-13.184,-31.738,-44.434,-36.133,0.000
1709297855.429,-20.996,-31.250,-40.039,-45.410,0.000
1709297855.433,-40.039,-28.809,-38.574,-43.457,0.000
1709297855.437,-46.875,-33.691,-40.527,-38.086,0.000
1709297855.441,-30.762,-39.551,-40.527,-33.203,0.000
1709297855.445,-24.902,-38.086,-41.016,-21.484,0.000
1709297855.448,-38.574,-34.180,-42.480,-26.855,0.000
1709297855.452,-45.410,-29.785,-41.016,-42.969,0.000
1709297855.456,-42.969,-29.297,-40.527,-32.227,0.000
1709297855.460,-35.156,-33.691,-40.039,-26.855,0.000
1709297855.464,-32.227,-32.227,-38.086,-28.809,0.000
1709297855.468,-48.828,-32.227,-38.574,-39.551,0.000
1709297855.472,-51.270,-35.645,-40.527,-41.992,0.000
1709297855.476,-38.574,-35.156,-37.109,-34.668,0.000
1709297855.480,-31.738,-34.668,-34.668,-40.039,0.000
1709297855.484,-19.043,-33.203,-34.668,-44.922,0.000
1709297855.488,-25.391,-33.691,-35.645,-46.387,0.000
1709297855.491,-42.480,-35.156,-35.645,-44.434,0.000
1709297855.495,-38.086,-37.598,-40.039,-46.387,0.000
1709297855.499,-32.715,-39.062,-42.969,-45.410,0.000
1709297855.503,-26.367,-36.621,-40.527,-51.270,0.000
1709297855.507,-22.461,-34.668,-39.062,-47.852,0.000
1709297855.511,-37.598,-33.203,-40.527,-48.828,0.000
1709297855.515,-51.270,-31.738,-42.969,-54.199,0.000
1709297855.519,-31.738,-31.738,-39.551,-48.340,0.000
1709297855.523,-9.277,-29.785,-40.527,-46.387,0.000
1709297855.527,-22.949,-34.180,-45.898,-45.410,0.000
1709297855.530,-42.480,-39.551,-47.363,-56.641,0.000
1709297855.534,-50.781,-40.527,-40.039,-44.434,0.000
1709297855.538,-46.387,-37.598,-37.109,-23.926,0.000
1709297855.542,-34.180,-32.715,-44.922,-36.133,0.000
1709297855.546,-31.250,-33.203,-47.852,-46.387,0.000
1709297855.550,-37.109,-33.203,-43.457,-49.316,0.000
1709297855.554,-39.551,-32.227,-41.992,-47.852,0.000
1709297855.558,-36.621,-31.250,-44.434,-44.922,0.000
1709297855.562,-32.227,-30.762,-41.016,-34.180,0.000
1709297855.566,-28.809,-31.250,-34.180,-30.762,0.000
1709297855.570,-37.598,-33.203,-36.621,-41.504,0.000
1709297855.573,-48.828,-38.086,-41.992,-48.828,0.000
1709297855.577,-45.898,-38.086,-41.016,-42.969,0.000
1709297855.581,-42.969,-36.133,-41.504,-32.227,0.000
1709297855.585,-44.922,-35.645,-45.410,-41.504,0.000
1709297855.589,-51.270,-35.645,-46.387,-51.270,0.000
1709297855.593,-58.594,-37.598,-42.480,-42.969,0.000
1709297855.597,-55.664,-38.574,-38.574,-40.039,0.000
1709297855.601,-46.875,-38.086,-41.016,-40.039,0.000
1709297855.605,-38.574,-32.715,-42.480,-42.969,0.000
1709297855.609,-37.598,-30.762,-43.945,-49.316,0.000
1709297855.612,-41.016,-29.785,-47.363,-59.570,0.000
1709297855.616,-44.922,-30.273,-44.434,-57.617,0.000
1709297855.620,-41.504,-31.250,-36.621,-40.039,0.000
1709297855.624,-33.203,-29.785,-35.156,-35.156,0.000
1709297855.628,-40.039,-30.762,-40.039,-50.781,0.000
1709297855.632,-48.828,-30.273,-43.945,-68.359,0.000
1709297855.636,-50.293,-32.227,-49.805,-69.336,0.000
1709297855.640,-54.688,-35.645,-49.805,-56.641,0.000
1709297855.644,-49.316,-36.133,-47.363,-47.852,0.000
1709297855.648,-55.176,-40.527,-44.922,-58.105,0.000
1709297855.652,-69.336,-41.992,-42.480,-62.012,0.000
1709297855.655,-59.570,-37.598,-44.922,-56.641,0.000
1709297855.659,-50.293,-41.504,-48.828,-54.199,0.000
1709297855.663,-45.898,-41.016,-44.922,-53.711,0.000
1709297855.667,-50.293,-36.621,-40.039,-50.781,0.000
1709297855.671,-63.477,-37.598,-42.480,-50.293,0.000
1709297855.675,-59.570,-35.156,-41.504,-44.434,0.000
1709297855.679,-47.363,-37.598,-41.992,-34.668,0.000
1709297855.683,-35.156,-41.504,-44.434,-36.133,0.000
1709297855.687,-30.762,-35.645,-49.805,-47.852,0.000
1709297855.691,-41.016,-32.227,-47.363,-47.852,0.000
1709297855.694,-43.945,-33.691,-41.992,-40.039,0.000
1709297855.698,-39.551,-32.227,-43.457,-32.715,0.000
1709297855.702,-29.297,-29.785,-41.504,-31.738,0.000
1709297855.706,-32.715,-33.203,-47.363,-49.316,0.000
1709297855.710,-52.246,-37.109,-53.711,-68.359,0.000
1709297855.714,-58.105,-39.551,-53.223,-59.082,0.000
1709297855.718,-41.016,-34.180,-50.293,-42.969,0.000
1709297855.722,-17.090,-27.832,-50.293,-35.645,0.000
1709297855.726,-10.742,-31.250,-50.781,-32.227,0.000
1709297855.730,-28.320,-28.320,-50.293,-42.480,0.000
1709297855.733,-40.039,-27.832,-49.316,-40.527,0.000
1709297855.737,-28.320,-31.250,-49.316,-34.180,0.000
1709297855.741,-11.719,-31.738,-46.875,-33.691,0.000
1709297855.745,-15.625,-31.738,-43.457,-34.668,0.000
1709297855.749,-25.391,-36.133,-43.945,-41.992,0.000
1709297855.753,-32.227,-41.504,-46.387,-45.898,0.000
1709297855.757,-30.273,-40.527,-46.875,-33.691,0.000
1709297855.761,-20.508,-42.480,-42.969,-20.996,0.000
1709297855.765,-18.066,-42.480,-40.527,-25.391,0.000
1709297855.769,-26.367,-41.992,-44.434,-42.480,0.000
1709297855.773,-37.109,-41.504,-42.969,-47.363,0.000
1709297855.776,-40.527,-35.156,-38.574,-37.109,0.000
1709297855.780,-41.504,-40.039,-40.527,-38.574,0.000
1709297855.784,-41.016,-48.828,-45.898,-47.363,0.000
1709297855.788,-45.410,-47.363,-49.805,-50.293,0.000
1709297855.792,-54.199,-43.457,-49.805,-52.734,0.000
1709297855.796,-47.852,-41.992,-46.387,-37.598,0.000
1709297855.800,-24.414,-38.574,-42.969,-18.066,0.000
1709297855.804,-16.602,-37.109,-43.945,-20.508,0.000
1709297855.808,-17.578,-33.203,-45.898,-37.109,0.000
1709297855.812,-25.391,-31.738,-42.969,-41.992,0.000
1709297855.816,-36.133,-37.109,-41.992,-33.691,0.000
1709297855.819,-28.809,-38.086,-42.969,-22.461,0.000
1709297855.823,-14.648,-34.180,-40.527,-14.648,0.000
1709297855.827,-24.902,-34.180,-44.922,-32.227,0.000
1709297855.831,-44.434,-32.227,-47.363,-46.387,0.000
1709297855.835,-41.016,-28.320,-45.410,-48.340,0.000
1709297855.839,-21.973,-25.391,-40.039,-38.086,0.000
1709297855.843,-10.254,-28.809,-37.109,-30.762,0.000
1709297855.847,-15.625,-34.668,-46.875,-46.875,0.000
1709297855.851,-27.832,-34.668,-44.922,-42.480,0.000
1709297855.855,-28.809,-26.367,-34.180,-32.715,0.000
1709297855.859,-18.066,-22.461,-36.133,-30.762,0.000
1709297855.862,-14.648,-27.832,-38.086,-19.531,0.000
1709297855.866,-25.879,-31.250,-39.551,-23.438,0.000
1709297855.870,-40.527,-29.785,-43.457,-41.016,0.000
1709297855.874,-43.457,-27.832,-39.551,-38.086,0.000
1709297855.878,-28.809,-25.391,-37.109,-28.809,0.000
1709297855.882,-17.578,-24.414,-35.645,-24.902,0.000
1709297855.886,-20.020,-29.297,-31.250,-26.855,0.000
1709297855.890,-22.461,-34.668,-31.250,-28.809,0.000
1709297855.894,-24.902,-29.785,-32.227,-23.926,0.000
1709297855.898,-21.973,-28.320,-32.227,-19.043,0.000
1709297855.902,-13.672,-30.273,-30.273,-11.230,0.000
1709297855.905,-24.414,-29.297,-31.738,-24.902,0.000
1709297855.909,-39.551,-31.738,-34.180,-33.691,0.000
1709297855.913,-46.387,-31.250,-38.086,-32.715,0.000
1709297855.917,-39.551,-28.320,-40.039,-33.691,0.000
1709297855.921,-25.879,-26.855,-38.574,-22.461,0.000
1709297855.925,-17.090,-25.391,-41.992,-26.855,0.000
1709297855.929,-27.344,-27.344,-42.969,-35.645,0.000
1709297855.933,-38.086,-33.203,-43.945,-34.180,0.000
1709297855.937,-34.668,-34.180,-40.527,-29.785,0.000
1709297855.941,-28.320,-31.738,-34.668,-20.508,0.000
1709297855.944,-19.531,-30.273,-35.156,-21.484,0.000
1709297855.948,-24.414,-29.785,-35.645,-34.668,0.000
1709297855.952,-37.598,-30.762,-38.574,-40.527,0.000
1709297855.956,-39.551,-27.832,-39.551,-31.738,0.000
1709297855.960,-28.320,-27.832,-40.039,-29.785,0.000
1709297855.964,-28.809,-30.762,-43.457,-38.086,0.000
1709297855.968,-39.062,-31.738,-42.480,-42.969,0.000
1709297855.972,-49.316,-29.785,-39.062,-41.504,0.000
