timestamps,TP9,AF7,AF8,TP10,Right AUX
1709291388.303,24.902,-38.086,-30.273,12.207,0.000
1709291388.307,17.090,-29.785,-32.227,23.438,0.000
1709291388.311,37.109,-32.227,-33.691,24.902,0.000
1709291388.314,42.480,-44.922,-36.133,29.785,0.000
1709291388.318,24.414,-47.363,-37.598,27.832,0.000
1709291388.322,22.461,-46.875,-36.621,7.812,0.000
1709291388.326,21.484,-49.805,-45.410,-1.953,0.000
1709291388.330,25.391,-41.504,-51.758,11.719,0.000
1709291388.334,20.508,-56.641,-48.828,26.367,0.000
1709291388.338,16.113,-39.062,-44.922,21.484,0.000
1709291388.342,20.508,-17.090,-38.574,6.836,0.000
1709291388.346,24.414,-34.180,-34.668,7.324,0.000
1709291388.350,35.645,-33.203,-29.785,31.738,0.000
1709291388.354,20.020,-37.109,-36.621,41.504,0.000
1709291388.357,5.371,-39.551,-41.504,14.648,0.000
1709291388.361,8.789,-47.363,-39.551,-2.441,0.000
1709291388.365,11.719,-56.641,-41.016,15.625,0.000
1709291388.369,26.855,-45.898,-32.227,35.645,0.000
1709291388.373,29.297,-35.645,-29.297,38.574,0.000
1709291388.377,26.855,-56.152,-31.250,28.320,0.000
1709291388.381,26.367,-58.105,-30.273,14.648,0.000
1709291388.385,18.555,-21.973,-29.785,9.277,0.000
1709291388.389,2.930,-34.180,-34.180,12.695,0.000
1709291388.393,-0.488,-44.434,-41.016,26.367,0.000
1709291388.396,0.488,-32.227,-39.551,18.066,0.000
1709291388.400,-7.812,-21.973,-40.527,-13.184,0.000
1709291388.404,-11.719,-26.367,-45.898,-19.043,0.000
1709291388.408,9.277,-20.508,-32.715,9.766,0.000
1709291388.412,11.230,-18.555,-34.668,10.254,0.000
1709291388.416,-8.301,-43.457,-49.805,-18.555,0.000
1709291388.420,-3.906,-47.852,-44.434,-15.137,0.000
1709291388.424,-10.254,-61.035,-40.039,-12.695,0.000
1709291388.428,-16.602,-48.340,-45.410,-6.348,0.000
1709291388.432,1.465,-19.043,-45.410,-10.254,0.000
1709291388.435,7.324,-36.133,-41.992,-2.930,0.000
1709291388.439,-6.836,-50.293,-43.945,-10.254,0.000
1709291388.443,-18.555,-32.715,-38.086,-26.367,0.000
1709291388.447,-12.207,-34.180,-39.062,-10.254,0.000
1709291388.451,-4.395,-47.363,-41.016,13.184,0.000
1709291388.455,-18.066,-52.734,-40.039,12.695,0.000
1709291388.459,-16.113,-56.152,-40.527,5.371,0.000
1709291388.463,-12.207,-53.711,-34.668,-12.207,0.000
1709291388.467,-9.277,-68.359,-32.227,-7.812,0.000
1709291388.470,-7.812,-60.547,-32.715,16.113,0.000
1709291388.474,0.977,-20.020,-37.109,-3.418,0.000
1709291388.478,-2.441,-29.785,-33.691,-24.414,0.000
1709291388.482,-25.391,-48.828,-30.273,-28.809,0.000
1709291388.486,-24.414,-46.387,-29.297,-23.438,0.000
1709291388.490,-10.742,-40.527,-31.738,-7.812,0.000
1709291388.494,-11.719,-54.199,-30.273,2.930,0.000
1709291388.498,-17.578,-64.941,-28.320,-8.301,0.000
1709291388.501,-22.949,-49.316,-31.250,-35.156,0.000
1709291388.505,-32.715,-50.293,-28.809,-41.016,0.000
1709291388.509,-24.414,-64.453,-28.809,-18.555,0.000
1709291388.513,-17.578,-75.684,-33.691,0.977,0.000
1709291388.517,-23.438,-50.781,-33.203,-2.930,0.000
1709291388.521,-24.902,-30.273,-35.645,-31.250,0.000
1709291388.525,-30.273,-46.387,-32.715,-39.551,0.000
1709291388.529,-37.598,-46.875,-31.250,-22.461,0.000
1709291388.533,-36.133,-52.734,-35.156,-22.949,0.000
1709291388.536,-35.156,-57.617,-35.156,-28.809,0.000
1709291388.540,-37.109,-58.594,-34.180,-40.527,0.000
1709291388.544,-30.273,-66.406,-32.227,-41.992,0.000
1709291388.548,-27.832,-56.152,-36.621,-35.156,0.000
1709291388.552,-17.090,-54.688,-38.574,-19.043,0.000
1709291388.556,-20.508,-58.105,-34.668,-24.902,0.000
1709291388.560,-27.832,-47.363,-35.645,-48.340,0.000
1709291388.564,-30.273,-39.551,-32.227,-53.223,0.000
1709291388.568,-31.250,-35.645,-34.180,-35.156,0.000
1709291388.571,-16.113,-42.480,-34.668,-7.812,0.000
1709291388.575,-14.648,-43.945,-27.832,-8.789,0.000
1709291388.579,-28.809,-30.273,-27.832,-37.109,0.000
1709291388.584,-28.809,-37.598,-31.738,-45.410,0.000
1709291388.588,-17.090,-43.457,-34.668,-31.250,0.000
1709291388.592,-15.137,-33.203,-32.227,-15.137,0.000
1709291388.595,-19.043,-32.715,-32.715,-5.371,0.000
1709291388.599,-20.508,-43.457,-33.203,-30.762,0.000
1709291388.603,-19.043,-58.105,-35.645,-35.645,0.000
1709291388.607,-19.043,-54.199,-41.504,-23.926,0.000
1709291388.611,-13.672,-38.574,-38.574,-31.738,0.000
1709291388.615,-7.812,-49.316,-34.668,-40.039,0.000
1709291388.619,-7.324,-59.570,-32.227,-40.527,0.000
1709291388.623,-16.602,-34.668,-29.785,-31.250,0.000
1709291388.627,-30.273,-20.508,-33.203,-17.090,0.000
1709291388.631,-26.855,-41.504,-35.645,-4.395,0.000
1709291388.635,-18.066,-49.316,-32.227,-5.371,0.000
1709291388.639,-34.668,-38.086,-31.738,-28.809,0.000
1709291388.643,-41.992,-39.551,-31.250,-46.387,0.000
1709291388.647,-29.297,-53.223,-27.832,-33.203,0.000
1709291388.650,-29.785,-69.336,-31.250,-18.066,0.000
1709291388.654,-19.531,-65.430,-35.645,-11.230,0.000
1709291388.658,-14.160,-41.504,-33.691,-14.160,0.000
1709291388.662,-33.203,-59.570,-30.273,-26.367,0.000
1709291388.666,-33.691,-66.895,-29.785,-24.902,0.000
1709291388.670,-17.578,-32.227,-29.785,-14.648,0.000
1709291388.674,-16.113,-33.203,-32.715,-7.812,0.000
1709291388.678,-27.832,-47.852,-34.180,-20.996,0.000
1709291388.682,-32.227,-44.922,-28.320,-27.344,0.000
1709291388.686,-39.551,-38.574,-29.297,-31.250,0.000
1709291388.690,-33.203,-53.223,-37.598,-28.320,0.000
1709291388.693,-17.578,-53.711,-35.156,0.000,0.000
1709291388.697,-8.301,-55.176,-32.227,4.395,0.000
1709291388.701,-12.207,-53.711,-35.156,-17.578,0.000
1709291388.705,-32.715,-46.875,-31.738,-39.551,0.000
1709291388.709,-22.461,-62.012,-30.273,-17.578,0.000
1709291388.713,-16.113,-40.527,-34.668,-0.488,0.000
1709291388.717,-26.855,-12.695,-39.551,-19.531,0.000
1709291388.721,-31.250,-26.367,-38.086,-37.109,0.000
1709291388.725,-36.133,-35.645,-34.668,-37.109,0.000
1709291388.729,-36.133,-31.738,-39.551,-20.020,0.000
1709291388.733,-31.738,-30.273,-44.922,-2.930,0.000
1709291388.736,-35.156,-48.340,-43.457,-16.602,0.000
1709291388.740,-51.758,-61.035,-44.434,-50.293,0.000
1709291388.744,-53.223,-51.270,-41.992,-46.387,0.000
1709291388.748,-43.457,-45.898,-36.621,-30.762,0.000
1709291388.752,-35.645,-59.082,-33.691,-14.648,0.000
1709291388.756,-33.203,-51.270,-34.668,-6.348,0.000
1709291388.760,-31.250,-22.949,-33.203,-23.438,0.000
1709291388.764,-32.227,-32.227,-29.297,-39.551,0.000
1709291388.768,-30.273,-45.898,-30.273,-25.879,0.000
1709291388.772,-27.344,-46.875,-28.809,-4.395,0.000
1709291388.775,-30.762,-34.180,-29.297,2.441,0.000
1709291388.779,-36.133,-42.969,-32.227,-20.508,0.000
1709291388.783,-41.504,-48.828,-34.180,-41.016,0.000
1709291388.787,-35.645,-40.527,-31.250,-25.879,0.000
1709291388.791,-19.531,-52.246,-29.297,2.930,0.000
1709291388.795,-14.160,-55.176,-33.203,-0.488,0.000
1709291388.799,-18.066,-58.594,-32.227,-4.883,0.000
1709291388.803,-21.484,-43.457,-31.250,-18.555,0.000
1709291388.807,-19.043,-29.785,-33.691,-29.297,0.000
1709291388.811,-11.719,-39.062,-31.738,-10.742,0.000
1709291388.815,-9.766,-40.039,-29.785,-4.883,0.000
1709291388.818,-25.391,-40.039,-26.855,-24.902,0.000
1709291388.822,-37.109,-48.828,-33.203,-37.109,0.000
1709291388.826,-44.922,-55.664,-39.062,-39.062,0.000
1709291388.830,-37.598,-46.387,-36.621,-37.109,0.000
1709291388.834,-29.297,-39.551,-37.109,-27.344,0.000
1709291388.838,-35.645,-42.480,-37.109,-22.949,0.000
1709291388.842,-32.227,-62.988,-31.250,-32.227,0.000
1709291388.846,-27.832,-61.523,-30.273,-24.414,0.000
1709291388.849,-22.949,-34.180,-33.203,-13.672,0.000
1709291388.853,-13.184,-36.133,-27.832,-3.906,0.000
1709291388.857,-19.531,-37.109,-23.438,-5.371,0.000
1709291388.861,-43.457,-49.316,-43.457,-46.387,0.000
1709291388.865,-43.457,-55.176,-51.270,-61.523,0.000
1709291388.869,-28.809,-41.992,-38.086,-27.344,0.000
1709291388.873,-20.996,-43.945,-32.715,-2.930,0.000
1709291388.877,-23.438,-45.898,-35.645,-9.766,0.000
1709291388.880,-21.973,-39.551,-34.180,-24.902,0.000
1709291388.884,-22.461,-46.387,-37.598,-38.086,0.000
1709291388.888,-17.578,-57.129,-38.086,-8.789,0.000
1709291388.892,-10.742,-30.273,-33.691,12.207,0.000
1709291388.896,-6.836,-7.812,-37.109,-2.441,0.000
1709291388.900,-12.207,-29.297,-34.668,-21.973,0.000
1709291388.904,-22.461,-37.109,-29.785,-36.621,0.000
1709291388.908,-18.066,-34.668,-35.645,-23.438,0.000
1709291388.911,0.000,-27.344,-39.551,-12.695,0.000
1709291388.915,0.000,-35.156,-32.715,-11.230,0.000
1709291388.919,0.000,-47.852,-32.715,-21.484,0.000
1709291388.923,0.000,-36.133,-34.668,-27.832,0.000
1709291388.927,0.000,-30.273,-26.855,-16.113,0.000
1709291388.931,0.000,-51.758,-26.367,-4.883,0.000
1709291388.935,0.000,-52.734,-33.691,-4.395,0.000
1709291388.939,0.000,-21.973,-29.785,-24.414,0.000
1709291388.943,0.000,-24.902,-21.484,-24.414,0.000
1709291388.947,0.000,-46.387,-22.949,-5.371,0.000
1709291388.950,0.000,-34.180,-28.320,7.812,0.000
1709291388.954,0.000,-23.926,-29.785,5.859,0.000
1709291388.959,-11.719,-35.645,-28.809,-14.160,0.000
1709291388.962,-12.695,-36.133,-29.297,-19.531,0.000
1709291388.966,-20.996,-38.086,-32.715,-11.719,0.000
1709291388.970,-23.438,-25.391,-30.762,0.000,0.000
1709291388.974,-17.090,-31.250,-26.367,-12.695,0.000
1709291388.978,-23.926,-53.223,-31.738,-32.715,0.000
1709291388.982,-28.809,-36.621,-30.762,-28.809,0.000
1709291388.986,-28.809,-20.020,-29.297,-25.879,0.000
1709291388.990,-32.715,-33.691,-30.273,-27.344,0.000
1709291388.994,-30.762,-47.852,-32.715,-25.391,0.000
1709291388.998,-48.340,-38.574,-33.203,-40.039,0.000
1709291389.002,-55.176,-31.738,-34.668,-64.453,0.000
1709291389.006,-52.246,-45.898,-34.180,-54.688,0.000
1709291389.010,-48.340,-43.945,-30.762,-30.273,0.000
1709291389.014,-33.691,-34.180,-35.156,-23.438,0.000
1709291389.017,-31.738,-40.527,-35.645,-28.809,0.000
1709291389.021,-43.945,-51.758,-35.645,-53.223,0.000
1709291389.025,-55.176,-57.617,-39.551,-66.406,0.000
1709291389.029,-50.293,-43.945,-37.598,-42.480,0.000
1709291389.033,-44.922,-37.598,-39.062,-35.645,0.000
1709291389.037,-52.246,-62.012,-37.598,-43.457,0.000
1709291389.041,-58.105,-62.988,-34.180,-43.457,0.000
1709291389.045,-41.016,-27.344,-32.715,-47.363,0.000
1709291389.049,-29.297,-33.203,-33.203,-33.691,0.000
1709291389.053,-22.461,-42.969,-30.273,-13.184,0.000
1709291389.057,-17.578,-33.691,-28.320,-16.602,0.000
1709291389.061,-29.297,-39.062,-27.832,-37.109,0.000
1709291389.064,-30.273,-46.387,-25.879,-35.645,0.000
1709291389.068,-23.926,-50.293,-30.273,-21.973,0.000
1709291389.072,-20.020,-54.199,-33.203,-10.742,0.000
1709291389.076,-15.137,-44.434,-24.902,-5.859,0.000
1709291389.080,-19.531,-48.828,-28.320,-32.715,0.000
1709291389.084,-27.344,-59.082,-37.109,-30.273,0.000
1709291389.088,-22.949,-33.203,-38.574,-10.742,0.000
1709291389.092,-19.043,-24.414,-38.086,-11.230,0.000
1709291389.096,-26.367,-42.969,-37.109,-17.090,0.000
1709291389.100,-30.273,-42.480,-38.574,-42.969,0.000
1709291389.104,-27.832,-41.992,-38.574,-52.246,0.000
1709291389.107,-29.297,-48.828,-32.227,-40.039,0.000
1709291389.111,-24.902,-51.758,-25.879,-12.695,0.000
1709291389.115,-23.926,-51.758,-25.391,-3.418,0.000
1709291389.119,-34.668,-53.223,-27.344,-20.996,0.000
1709291389.123,-41.016,-56.152,-31.250,-39.551,0.000
1709291389.127,-29.297,-54.199,-23.438,-18.555,0.000
1709291389.131,-21.973,-51.758,-15.625,4.883,0.000
1709291389.135,-26.367,-42.969,-24.902,-17.090,0.000
1709291389.139,-34.668,-52.246,-33.691,-34.180,0.000
1709291389.143,-34.668,-53.711,-35.156,-41.992,0.000
1709291389.146,-30.762,-41.992,-34.180,-52.246,0.000
1709291389.150,-29.785,-43.457,-38.086,-33.203,0.000
1709291389.154,-21.973,-43.945,-37.598,-8.301,0.000
1709291389.158,-24.414,-39.062,-33.203,-21.973,0.000
1709291389.162,-25.879,-33.691,-31.738,-41.016,0.000
1709291389.166,-26.367,-44.434,-33.203,-28.320,0.000
1709291389.170,-21.484,-46.875,-35.645,-9.277,0.000
1709291389.174,-16.113,-56.152,-32.227,-14.160,0.000
1709291389.178,-18.066,-48.340,-28.320,-24.902,0.000
1709291389.182,-32.227,-32.227,-31.250,-49.316,0.000
1709291389.185,-47.363,-52.246,-35.156,-49.805,0.000
1709291389.189,-45.410,-57.617,-32.715,-32.227,0.000
1709291389.193,-37.598,-47.363,-29.785,-28.320,0.000
1709291389.197,-41.016,-51.758,-32.227,-27.344,0.000
1709291389.201,-34.180,-48.828,-25.391,-27.344,0.000
1709291389.205,-29.785,-49.805,-20.996,-23.926,0.000
1709291389.209,-36.133,-66.406,-37.598,-27.832,0.000
1709291389.213,-24.902,-64.453,-43.457,-23.438,0.000
1709291389.217,-30.273,-69.336,-43.457,-18.066,0.000
1709291389.220,-37.109,-70.312,-39.551,-24.902,0.000
1709291389.224,-34.668,-37.598,-34.180,-48.828,0.000
1709291389.228,-34.668,-39.551,-33.203,-36.133,0.000
1709291389.232,-28.320,-55.664,-31.738,-10.254,0.000
1709291389.236,-32.227,-49.805,-34.180,-18.066,0.000
1709291389.240,-37.598,-42.480,-41.992,-41.016,0.000
1709291389.244,-44.922,-54.199,-41.504,-54.688,0.000
1709291389.248,-40.039,-67.871,-36.621,-26.367,0.000
1709291389.251,-33.203,-59.082,-38.574,-19.043,0.000
1709291389.255,-31.250,-46.875,-37.109,-27.832,0.000
1709291389.259,-33.203,-51.270,-32.715,-37.598,0.000
1709291389.263,-43.457,-73.242,-38.574,-46.387,0.000
1709291389.267,-40.039,-53.223,-34.180,-29.297,0.000
1709291389.271,-28.809,-22.949,-29.785,-18.555,0.000
1709291389.275,-27.832,-37.109,-32.227,-15.625,0.000
1709291389.279,-36.621,-41.016,-34.180,-34.180,0.000
1709291389.283,-38.086,-35.156,-30.273,-40.039,0.000
1709291389.286,-31.738,-36.133,-28.320,-28.809,0.000
1709291389.290,-24.902,-50.781,-35.645,-18.066,0.000
1709291389.294,-23.926,-56.641,-35.156,-18.555,0.000
1709291389.298,-20.508,-36.133,-30.273,-28.809,0.000
1709291389.302,-25.391,-39.062,-33.691,-41.504,0.000
1709291389.306,-36.621,-49.316,-36.621,-31.738,0.000
1709291389.310,-33.203,-53.711,-37.598,-19.531,0.000
1709291389.314,-24.902,-47.852,-36.621,-24.902,0.000
1709291389.318,-18.555,-32.227,-27.832,-27.344,0.000
1709291389.321,-24.414,-57.129,-30.273,-31.250,0.000
1709291389.325,-40.527,-62.500,-35.645,-30.762,0.000
1709291389.329,-33.203,-36.621,-33.691,-25.879,0.000
1709291389.333,-30.273,-42.969,-33.691,-15.625,0.000
1709291389.337,-32.715,-45.410,-35.645,-21.484,0.000
1709291389.341,-27.832,-44.922,-26.855,-33.691,0.000
1709291389.345,-13.672,-46.875,-23.926,-10.254,0.000
1709291389.349,-2.930,-46.875,-36.621,0.488,0.000
1709291389.353,-21.484,-44.434,-41.016,-29.785,0.000
1709291389.357,-37.109,-30.273,-41.016,-44.922,0.000
1709291389.361,-35.156,-14.648,-41.504,-44.434,0.000
1709291389.365,-46.875,-23.438,-40.039,-52.734,0.000
1709291389.369,-51.270,-34.180,-41.504,-36.621,0.000
1709291389.373,-32.715,-12.695,-42.969,-30.762,0.000
1709291389.376,-30.762,-5.859,-37.598,-58.105,0.000
1709291389.381,-27.832,-23.926,-33.691,-61.523,0.000
1709291389.384,-29.297,-19.043,-35.645,-53.711,0.000
1709291389.388,-20.996,-1.465,-30.762,-37.109,0.000
1709291389.392,-8.789,-1.953,-29.785,-27.344,0.000
1709291389.396,-11.230,-13.184,-27.832,-29.785,0.000
1709291389.400,-12.207,-10.742,-23.438,-42.969,0.000
1709291389.404,-10.254,8.789,-27.344,-62.012,0.000
1709291389.408,0.000,25.391,-35.156,-51.758,0.000
1709291389.412,2.930,3.906,-37.598,-27.832,0.000
1709291389.416,2.930,0.000,-30.762,-20.996,0.000
1709291389.420,14.648,34.668,-29.297,-36.621,0.000
1709291389.424,9.766,22.949,-32.227,-45.410,0.000
1709291389.428,11.719,25.879,-30.273,-20.508,0.000
1709291389.431,20.996,43.945,-35.645,-5.371,0.000
1709291389.435,18.066,41.016,-41.016,-19.043,0.000
1709291389.439,33.203,30.273,-36.621,-12.695,0.000
1709291389.443,30.762,21.973,-40.039,-31.738,0.000
1709291389.447,30.762,25.879,-41.016,-35.645,0.000
1709291389.451,39.551,34.668,-40.527,-4.395,0.000
1709291389.455,41.992,39.062,-43.945,3.906,0.000
1709291389.459,44.434,20.020,-39.062,3.906,0.000
1709291389.463,39.551,36.133,-41.992,-5.371,0.000
1709291389.467,42.480,52.246,-47.852,-18.066,0.000
1709291389.471,60.547,28.809,-44.922,5.371,0.000
1709291389.474,60.059,30.273,-44.922,15.137,0.000
1709291389.478,46.387,36.621,-49.316,-9.277,0.000
1709291389.482,42.480,34.668,-50.293,-19.043,0.000
1709291389.486,39.551,31.250,-47.363,-6.836,0.000
1709291389.490,36.621,20.020,-48.828,14.648,0.000
1709291389.494,42.969,23.438,-52.734,32.715,0.000
1709291389.498,40.039,29.785,-52.246,17.578,0.000
1709291389.502,26.367,11.719,-52.734,-6.836,0.000
1709291389.506,18.066,2.441,-49.316,1.465,0.000
1709291389.510,21.484,26.367,-45.410,9.766,0.000
1709291389.514,29.785,16.602,-47.852,9.766,0.000
1709291389.517,30.762,-1.465,-49.316,-1.953,0.000
1709291389.521,17.578,0.000,-51.758,-26.855,0.000
1709291389.525,10.742,0.977,-50.781,-23.926,0.000
1709291389.529,17.578,-7.812,-43.945,-4.883,0.000
1709291389.533,19.531,-11.719,-39.551,-0.488,0.000
1709291389.537,20.020,-10.254,-38.574,-0.488,0.000
1709291389.541,13.672,-15.137,-41.016,-12.207,0.000
1709291389.545,11.719,-10.742,-47.363,-18.066,0.000
1709291389.549,14.648,-26.367,-48.340,-2.441,0.000
1709291389.553,9.277,-17.578,-42.969,-4.883,0.000
1709291389.556,14.648,5.371,-35.645,-5.859,0.000
1709291389.560,7.812,-14.160,-39.551,-18.555,0.000
1709291389.564,-2.930,-22.949,-38.574,-35.156,0.000
1709291389.568,-5.371,-15.625,-36.133,1.465,0.000
1709291389.572,-10.742,-21.484,-33.691,18.555,0.000
1709291389.576,-12.207,-34.180,-36.621,-14.648,0.000
1709291389.580,-15.137,-35.156,-41.016,-19.531,0.000
1709291389.584,-17.578,-30.273,-37.598,-14.160,0.000
1709291389.588,-14.648,-33.691,-41.504,-18.555,0.000
1709291389.591,-9.766,-44.434,-39.551,-3.906,0.000
1709291389.595,-2.441,-43.457,-38.574,2.441,0.000
1709291389.599,-3.906,-6.836,-40.527,-23.926,0.000
1709291389.603,-25.879,-7.812,-42.480,-41.504,0.000
1709291389.607,-26.367,-30.762,-41.992,-34.668,0.000
1709291389.611,-8.301,-25.879,-34.180,-20.508,0.000
1709291389.615,-3.418,-22.461,-34.180,-19.531,0.000
1709291389.619,-9.277,-35.645,-43.457,-27.344,0.000
1709291389.623,-17.578,-28.320,-39.551,-38.574,0.000
1709291389.627,-19.043,-21.484,-32.715,-33.691,0.000
1709291389.631,-13.184,-28.809,-36.621,-11.230,0.000
1709291389.635,-9.766,-24.902,-34.668,-0.977,0.000
1709291389.639,-14.160,-33.691,-37.109,-13.184,0.000
1709291389.643,-22.949,-21.973,-37.598,-30.762,0.000
1709291389.647,-16.602,-6.836,-29.785,-26.367,0.000
1709291389.651,-7.324,-27.344,-30.273,-2.930,0.000
1709291389.654,-13.672,-29.785,-34.180,-0.488,0.000
1709291389.658,-8.301,-24.414,-38.086,-20.996,0.000
1709291389.662,-1.465,-26.367,-33.203,-24.902,0.000
1709291389.666,-9.766,-36.621,-29.785,-28.809,0.000
1709291389.670,-17.090,-33.691,-39.551,-17.578,0.000
1709291389.674,-19.043,-18.555,-39.062,5.859,0.000
1709291389.678,-30.762,-29.297,-37.598,-16.113,0.000
1709291389.681,-39.062,-49.805,-42.969,-32.227,0.000
1709291389.685,-34.180,-55.176,-40.039,-20.996,0.000
1709291389.689,-18.066,-39.551,-39.062,-15.137,0.000
1709291389.693,-12.695,-36.621,-46.387,-10.742,0.000
1709291389.697,-26.367,-74.219,-51.270,-18.555,0.000
1709291389.701,-33.203,-70.312,-44.434,-26.855,0.000
1709291389.705,-30.273,-34.180,-36.133,-36.133,0.000
1709291389.709,-23.438,-49.805,-38.086,-31.738,0.000
1709291389.713,-14.160,-44.922,-38.574,-10.742,0.000
1709291389.717,-13.672,-37.109,-40.527,-21.973,0.000
1709291389.721,-20.996,-41.504,-40.039,-37.598,0.000
1709291389.725,-25.879,-46.387,-31.738,-33.691,0.000
1709291389.729,-22.949,-55.176,-27.832,-23.926,0.000
1709291389.733,-21.973,-41.992,-27.832,-5.371,0.000
1709291389.736,-13.184,-31.738,-29.785,-1.465,0.000
1709291389.740,-9.766,-48.828,-34.180,-17.090,0.000
1709291389.744,-24.902,-59.570,-38.574,-30.762,0.000
1709291389.748,-22.949,-42.480,-41.504,-27.344,0.000
1709291389.752,-19.531,-32.715,-42.480,-12.207,0.000
1709291389.756,-17.090,-45.898,-41.504,-11.719,0.000
1709291389.760,-24.414,-49.316,-42.480,-26.855,0.000
1709291389.764,-36.621,-41.504,-39.062,-36.621,0.000
1709291389.768,-29.297,-50.293,-35.645,-25.879,0.000
1709291389.772,-11.719,-52.246,-37.109,-3.906,0.000
1709291389.776,-12.695,-43.945,-39.062,-7.324,0.000
1709291389.780,-19.043,-40.527,-42.969,-33.691,0.000
1709291389.784,-21.973,-33.203,-43.945,-46.387,0.000
1709291389.787,-30.273,-51.270,-46.387,-27.344,0.000
1709291389.791,-25.391,-59.570,-44.922,2.930,0.000
1709291389.795,-18.066,-24.902,-43.945,0.977,0.000
1709291389.799,-31.250,-30.273,-46.875,-26.855,0.000
1709291389.803,-39.062,-43.457,-39.551,-42.480,0.000
1709291389.807,-22.949,-35.645,-37.109,-35.645,0.000
1709291389.811,-21.973,-37.598,-38.086,-18.066,0.000
1709291389.815,-25.391,-41.016,-41.016,-8.301,0.000
1709291389.819,-21.484,-44.434,-37.109,-23.926,0.000
1709291389.823,-20.996,-52.246,-34.668,-33.203,0.000
1709291389.827,-18.555,-50.781,-39.551,-22.461,0.000
1709291389.830,-16.602,-43.457,-39.062,-8.789,0.000
1709291389.834,-6.348,-52.734,-37.109,11.719,0.000
1709291389.838,-4.395,-37.598,-30.762,0.000,0.000
1709291389.842,-18.066,-19.043,-27.344,-42.480,0.000
1709291389.846,-26.367,-42.480,-33.691,-52.734,0.000
1709291389.850,-34.668,-60.547,-33.691,-29.785,0.000
1709291389.854,-31.250,-46.875,-29.297,-11.719,0.000
1709291389.858,-29.785,-40.039,-34.668,-41.992,0.000
1709291389.862,-50.293,-53.223,-41.504,-53.711,0.000
1709291389.866,-45.410,-57.617,-43.945,-39.062,0.000
1709291389.870,-30.762,-48.828,-40.527,-25.391,0.000
1709291389.873,-26.855,-42.480,-30.273,-12.695,0.000
1709291389.877,-28.809,-57.617,-30.273,-11.719,0.000
1709291389.881,-41.016,-64.453,-38.574,-29.297,0.000
1709291389.885,-42.480,-33.691,-39.551,-42.480,0.000
1709291389.889,-41.016,-31.250,-33.691,-13.672,0.000
1709291389.893,-38.574,-46.875,-34.180,-0.488,0.000
1709291389.897,-33.203,-39.062,-36.133,-14.160,0.000
1709291389.901,-22.461,-26.855,-27.832,-21.973,0.000
1709291389.905,-35.645,-34.180,-29.297,-39.062,0.000
1709291389.908,-44.922,-39.551,-36.621,-37.109,0.000
1709291389.912,-23.438,-39.062,-35.156,-15.137,0.000
1709291389.916,-17.578,-40.527,-32.715,-29.785,0.000
1709291389.920,-16.113,-31.250,-21.484,-37.598,0.000
1709291389.924,-17.090,-50.781,-17.090,-21.484,0.000
1709291389.928,-33.203,-46.387,-31.738,-16.113,0.000
1709291389.932,-37.598,-23.926,-37.598,-28.320,0.000
1709291389.936,-27.344,-41.992,-39.551,-27.344,0.000
1709291389.940,-30.762,-49.316,-42.480,-32.227,0.000
1709291389.943,-35.156,-40.039,-39.551,-45.898,0.000
1709291389.947,-21.973,-28.320,-33.691,-24.902,0.000
1709291389.951,-9.766,-45.410,-31.250,-8.301,0.000
1709291389.955,-7.324,-49.805,-31.738,-10.254,0.000
1709291389.959,-13.672,-40.527,-28.809,-23.926,0.000
1709291389.963,-31.250,-46.875,-26.367,-42.480,0.000
1709291389.967,-36.133,-59.082,-23.438,-28.320,0.000
1709291389.971,-29.785,-59.570,-23.926,-7.812,0.000
1709291389.975,-22.461,-27.344,-33.203,-17.578,0.000
1709291389.979,-20.508,-27.832,-37.109,-33.203,0.000
1709291389.983,-12.695,-40.039,-27.344,-41.016,0.000
1709291389.986,-15.625,-34.180,-22.949,-38.574,0.000
1709291389.991,-24.414,-32.715,-31.250,-24.902,0.000
1709291389.995,-15.625,-42.969,-34.180,-16.113,0.000
1709291389.999,-14.648,-36.133,-29.297,-30.762,0.000
1709291390.002,-25.879,-28.809,-30.762,-40.527,0.000
1709291390.006,-31.250,-41.016,-32.227,-35.645,0.000
1709291390.010,-31.738,-49.316,-32.715,-25.391,0.000
1709291390.014,-23.926,-62.012,-30.762,-4.395,0.000
1709291390.018,-25.879,-43.945,-31.738,-9.766,0.000
1709291390.022,-36.133,-19.043,-35.156,-31.738,0.000
1709291390.026,-37.109,-38.574,-33.203,-42.480,0.000
1709291390.030,-20.508,-41.992,-29.785,-26.367,0.000
1709291390.034,-14.160,-33.691,-35.156,-1.953,0.000
1709291390.039,-20.996,-30.762,-34.180,-8.789,0.000
1709291390.042,-19.531,-38.574,-23.438,-18.555,0.000
1709291390.046,-28.320,-42.969,-23.438,-29.297,0.000
1709291390.050,-31.738,-31.738,-31.250,-22.461,0.000
1709291390.054,-22.949,-41.016,-30.273,2.930,0.000
1709291390.058,-19.531,-52.734,-23.926,-3.418,0.000
1709291390.062,-22.949,-49.805,-27.832,-30.762,0.000
1709291390.066,-27.832,-26.367,-32.227,-32.227,0.000
1709291390.070,-35.645,-20.508,-30.273,-21.484,0.000
1709291390.074,-35.156,-49.805,-32.227,-8.301,0.000
1709291390.078,-35.156,-53.223,-35.645,-4.883,0.000
1709291390.082,-34.180,-23.438,-34.668,-32.227,0.000
1709291390.086,-34.180,-24.902,-27.832,-40.527,0.000
1709291390.090,-43.457,-41.016,-25.391,-28.320,0.000
1709291390.094,-42.969,-44.434,-25.879,-22.949,0.000
1709291390.097,-27.344,-40.039,-26.855,-9.766,0.000
1709291390.101,-34.668,-44.434,-31.738,-31.250,0.000
1709291390.105,-40.039,-49.316,-33.203,-42.969,0.000
1709291390.109,-29.297,-51.758,-33.691,-17.090,0.000
1709291390.113,-19.043,-43.457,-32.227,-11.230,0.000
1709291390.117,-7.324,-39.551,-31.250,-13.184,0.000
1709291390.121,-21.973,-52.246,-30.762,-28.320,0.000
1709291390.125,-37.109,-39.551,-27.344,-36.621,0.000
1709291390.129,-19.043,-36.621,-23.926,-18.555,0.000
1709291390.133,-22.461,-44.434,-29.297,-17.578,0.000
1709291390.137,-43.457,-45.410,-36.133,-39.062,0.000
1709291390.140,-43.457,-33.203,-37.598,-54.199,0.000
1709291390.144,-35.645,-28.809,-40.039,-54.199,0.000
1709291390.148,-33.691,-36.133,-38.574,-36.621,0.000
1709291390.152,-41.504,-36.133,-40.039,-25.391,0.000
1709291390.156,-28.809,-25.391,-43.945,-22.461,0.000
1709291390.160,-19.043,-5.859,-43.457,-38.086,0.000
1709291390.164,-24.414,-27.832,-36.133,-44.434,0.000
1709291390.168,-14.160,-45.410,-30.273,-20.996,0.000
1709291390.172,-11.719,-3.906,-29.785,-12.695,0.000
1709291390.176,-5.371,-9.277,-28.809,-1.465,0.000
1709291390.180,-10.254,-30.273,-28.809,5.859,0.000
1709291390.183,-20.508,-31.738,-25.879,-20.508,0.000
1709291390.187,-20.020,-20.508,-29.785,-28.809,0.000
1709291390.191,-19.531,-23.438,-30.762,-12.207,0.000
1709291390.195,-9.277,-41.504,-27.344,-7.324,0.000
1709291390.199,-7.812,-43.457,-35.645,-16.602,0.000
1709291390.203,-12.207,-33.691,-36.133,-19.043,0.000
1709291390.207,-18.066,-30.273,-30.762,-23.438,0.000
1709291390.211,-12.695,-49.316,-30.273,-4.395,0.000
1709291390.215,-14.160,-34.180,-33.203,1.465,0.000
1709291390.219,-12.207,-9.766,-35.645,-13.184,0.000
1709291390.223,-16.602,-33.691,-37.598,-15.137,0.000
1709291390.226,-24.414,-49.805,-43.457,-18.555,0.000
1709291390.230,-12.695,-31.738,-40.527,-1.953,0.000
1709291390.234,-8.301,-31.250,-30.762,14.160,0.000
1709291390.238,-5.371,-47.363,-32.227,0.488,0.000
1709291390.242,-20.508,-47.852,-35.645,-16.113,0.000
1709291390.246,-28.809,-39.062,-37.598,-30.762,0.000
1709291390.250,-17.090,-30.273,-38.574,-22.461,0.000
1709291390.254,-11.230,-41.016,-39.551,-11.230,0.000
1709291390.258,-14.648,-43.457,-42.969,-8.301,0.000
1709291390.262,-20.508,-13.672,-44.434,-17.090,0.000
1709291390.265,-35.645,-18.555,-38.574,-41.504,0.000
1709291390.269,-39.551,-46.875,-30.273,-36.621,0.000
1709291390.273,-29.785,-40.039,-35.156,-14.160,0.000
1709291390.277,-27.832,-30.762,-38.574,-2.441,0.000
1709291390.281,-34.668,-40.527,-37.109,-13.672,0.000
1709291390.285,-30.762,-40.039,-36.621,-32.227,0.000
1709291390.289,-31.738,-33.691,-34.668,-19.043,0.000
1709291390.293,-34.668,-33.691,-33.691,-11.719,0.000
1709291390.297,-21.973,-39.062,-37.109,-18.555,0.000
1709291390.300,-16.602,-52.246,-36.133,-11.719,0.000
1709291390.304,-27.344,-41.504,-30.762,-12.695,0.000
1709291390.308,-33.691,-22.461,-27.344,-22.949,0.000
1709291390.312,-28.320,-37.598,-29.297,-24.414,0.000
1709291390.316,-29.785,-47.852,-35.645,-26.367,0.000
1709291390.320,-30.273,-38.574,-39.551,-44.922,0.000
1709291390.324,-35.156,-33.691,-36.621,-61.523,0.000
1709291390.327,-40.039,-44.922,-32.227,-49.805,0.000
1709291390.331,-30.762,-51.758,-32.715,-41.504,0.000
1709291390.335,-27.344,-43.457,-36.621,-32.227,0.000
1709291390.339,-24.414,-39.551,-36.621,-30.273,0.000
1709291390.343,-28.320,-53.223,-37.598,-35.645,0.000
1709291390.347,-38.086,-49.316,-35.645,-33.203,0.000
1709291390.351,-36.621,-20.508,-31.738,-30.762,0.000
1709291390.355,-36.621,-22.461,-34.668,-24.414,0.000
1709291390.359,-39.551,-31.250,-38.574,-28.320,0.000
1709291390.363,-41.016,-34.180,-42.969,-49.316,0.000
1709291390.366,-34.180,-35.645,-43.457,-51.270,0.000
1709291390.370,-38.574,-39.551,-41.016,-36.621,0.000
1709291390.374,-38.574,-49.805,-38.086,-29.785,0.000
1709291390.378,-32.715,-47.852,-36.621,-32.715,0.000
1709291390.382,-34.180,-43.457,-35.645,-43.945,0.000
1709291390.386,-35.645,-45.410,-37.598,-44.922,0.000
1709291390.390,-34.180,-57.617,-40.527,-25.391,0.000
1709291390.394,-21.973,-55.176,-37.109,-15.137,0.000
1709291390.397,-14.648,-28.320,-32.227,-22.949,0.000
1709291390.401,-14.160,-24.902,-37.109,-37.109,0.000
1709291390.405,-15.137,-34.180,-35.156,-46.875,0.000
1709291390.409,-12.695,-24.414,-28.320,-21.484,0.000
1709291390.413,-6.836,-28.320,-34.180,-1.465,0.000
1709291390.417,-13.184,-39.551,-41.992,-15.625,0.000
1709291390.421,-19.531,-34.180,-36.133,-20.508,0.000
1709291390.424,-23.438,-29.297,-31.738,-23.438,0.000
1709291390.428,-27.344,-33.691,-36.133,-26.855,0.000
1709291390.432,-22.949,-46.387,-33.203,-4.395,0.000
1709291390.436,-15.137,-54.688,-31.738,4.395,0.000
1709291390.440,-16.113,-37.109,-29.785,-20.020,0.000
1709291390.444,-41.992,-28.320,-32.715,-27.344,0.000
1709291390.448,-41.992,-45.898,-28.809,-9.277,0.000
1709291390.452,-31.250,-56.152,-22.949,-3.906,0.000
1709291390.456,-36.133,-31.250,-31.250,-19.531,0.000
1709291390.460,-36.133,-26.367,-36.133,-28.320,0.000
1709291390.464,-43.457,-38.086,-32.227,-30.762,0.000
1709291390.468,-41.016,-32.715,-29.785,-27.832,0.000
1709291390.472,-17.578,-32.227,-35.156,-30.273,0.000
1709291390.475,-9.766,-31.250,-33.691,-9.277,0.000
1709291390.479,-22.949,-52.734,-29.785,-13.672,0.000
1709291390.483,-32.227,-56.641,-31.250,-43.945,0.000
1709291390.487,-30.762,-30.273,-33.691,-39.062,0.000
1709291390.491,-30.273,-32.715,-35.645,-18.066,0.000
1709291390.495,-20.996,-43.945,-32.715,-0.977,0.000
1709291390.499,-16.113,-31.738,-28.809,-15.137,0.000
1709291390.503,-21.973,-28.809,-34.668,-30.762,0.000
1709291390.507,-19.531,-45.898,-35.156,-29.297,0.000
1709291390.511,-13.672,-43.457,-30.762,-14.160,0.000
1709291390.515,-14.648,-24.902,-33.203,2.441,0.000
1709291390.519,-23.926,-28.320,-28.809,-5.859,0.000
1709291390.523,-34.180,-51.270,-28.320,-15.625,0.000
1709291390.526,-27.832,-48.828,-28.809,-14.648,0.000
1709291390.530,-19.043,-30.273,-22.461,-4.883,0.000
1709291390.534,-23.438,-24.902,-29.785,0.488,0.000
1709291390.538,-36.133,-48.828,-31.738,-15.137,0.000
1709291390.542,-38.574,-59.082,-35.156,-31.738,0.000
1709291390.546,-39.062,-22.461,-37.109,-38.086,0.000
1709291390.550,-35.645,-32.715,-28.809,-25.391,0.000
1709291390.554,-37.598,-58.105,-31.250,-22.461,0.000
1709291390.558,-35.645,-46.387,-36.133,-21.484,0.000
1709291390.562,-30.762,-38.086,-39.551,-44.922,0.000
1709291390.566,-38.086,-38.086,-39.551,-67.871,0.000
1709291390.569,-29.785,-35.645,-31.738,-42.480,0.000
1709291390.573,-17.090,-42.480,-30.273,-24.414,0.000
1709291390.577,-18.066,-28.809,-40.527,-20.020,0.000
1709291390.581,-24.414,-21.973,-42.480,-35.156,0.000
1709291390.585,-45.410,-54.688,-32.227,-44.434,0.000
1709291390.589,-41.992,-41.016,-32.227,-35.156,0.000
1709291390.593,-25.879,-16.113,-32.715,-24.902,0.000
1709291390.597,-31.250,-37.109,-29.785,-33.691,0.000
1709291390.601,-40.039,-46.387,-30.762,-35.645,0.000
1709291390.605,-30.762,-25.879,-24.414,-20.020,0.000
1709291390.608,-39.062,-23.926,-30.273,-22.461,0.000
1709291390.612,-51.270,-47.852,-43.945,-22.949,0.000
1709291390.616,-39.551,-53.223,-43.457,-21.973,0.000
1709291390.620,-48.828,-49.805,-45.410,-47.363,0.000
1709291390.624,-56.641,-49.805,-41.016,-62.988,0.000
1709291390.628,-52.246,-58.594,-37.109,-51.270,0.000
1709291390.632,-46.875,-57.129,-45.410,-21.484,0.000
1709291390.636,-32.715,-32.715,-49.805,-21.484,0.000
1709291390.640,-33.691,-32.715,-48.340,-45.898,0.000
1709291390.644,-47.852,-37.598,-50.781,-52.246,0.000
1709291390.647,-52.246,-36.621,-44.434,-42.480,0.000
1709291390.651,-34.668,-35.156,-41.504,-31.250,0.000
1709291390.655,-19.531,-39.062,-39.551,-16.602,0.000
1709291390.659,-29.785,-41.992,-39.062,-26.367,0.000
1709291390.663,-31.250,-39.062,-40.527,-37.109,0.000
1709291390.667,-31.250,-49.316,-38.086,-40.039,0.000
1709291390.671,-23.438,-46.387,-39.062,-43.457,0.000
1709291390.675,-24.414,-57.617,-41.992,-11.230,0.000
1709291390.679,-36.133,-58.105,-35.156,0.000,0.000
1709291390.683,-41.992,-37.109,-32.227,-39.551,0.000
1709291390.686,-44.434,-41.016,-37.109,-42.480,0.000
1709291390.690,-33.203,-46.875,-33.691,-10.742,0.000
1709291390.694,-22.461,-39.551,-29.297,-4.395,0.000
1709291390.698,-25.879,-40.527,-33.203,-16.113,0.000
1709291390.702,-32.227,-47.363,-33.691,-20.996,0.000
1709291390.706,-35.645,-48.340,-31.738,-31.738,0.000
1709291390.710,-33.691,-49.316,-33.203,-26.367,0.000
1709291390.714,-18.555,-49.805,-36.621,-14.648,0.000
1709291390.717,-15.625,-61.035,-33.203,-18.066,0.000
1709291390.721,-25.391,-59.082,-37.598,-28.320,0.000
1709291390.725,-28.809,-28.809,-38.086,-38.086,0.000
1709291390.729,-27.344,-32.227,-28.809,-33.691,0.000
1709291390.733,-15.137,-38.574,-30.762,-13.184,0.000
1709291390.737,-21.973,-42.969,-28.320,-9.277,0.000
1709291390.741,-37.109,-41.504,-32.715,-37.109,0.000
1709291390.745,-27.832,-49.316,-38.086,-49.805,0.000
1709291390.748,-31.738,-62.988,-34.180,-42.480,0.000
1709291390.752,-35.645,-44.922,-35.645,-35.645,0.000
1709291390.756,-26.367,-32.715,-32.227,-28.320,0.000
1709291390.760,-21.484,-43.457,-30.273,-35.156,0.000
1709291390.764,-30.762,-62.500,-30.273,-41.504,0.000
1709291390.768,-20.996,-42.480,-33.691,-27.344,0.000
1709291390.772,-12.695,-12.207,-36.621,-8.301,0.000
1709291390.776,-26.367,-28.809,-39.062,-11.230,0.000
1709291390.780,-39.062,-41.016,-42.480,-27.832,0.000
1709291390.784,-49.316,-37.109,-43.457,-48.340,0.000
1709291390.787,-48.340,-37.598,-41.504,-53.711,0.000
1709291390.791,-49.805,-62.012,-41.504,-25.879,0.000
1709291390.795,-38.086,-71.289,-44.434,-20.020,0.000
1709291390.799,-29.297,-40.039,-36.133,-37.598,0.000
1709291390.803,-35.156,-38.086,-39.062,-37.598,0.000
1709291390.807,-40.527,-67.383,-48.828,-41.016,0.000
1709291390.811,-34.180,-57.617,-39.551,-27.832,0.000
1709291390.815,-31.738,-23.926,-44.434,-15.625,0.000
1709291390.818,-31.738,-28.809,-49.805,-30.273,0.000
1709291390.822,-30.762,-61.035,-47.363,-52.246,0.000
1709291390.826,-29.297,-52.734,-47.363,-43.457,0.000
1709291390.830,-10.254,-17.090,-45.898,-10.742,0.000
1709291390.834,1.953,-26.367,-26.855,20.020,0.000
1709291390.838,-14.648,-51.758,-16.602,-8.301,0.000
1709291390.842,-34.668,-48.340,-23.926,-58.105,0.000
1709291390.846,-29.785,-32.715,-26.367,-42.480,0.000
1709291390.850,-16.602,-30.273,-23.438,-16.113,0.000
1709291390.854,-17.578,-44.434,-25.391,-27.344,0.000
1709291390.858,-18.066,-52.246,-37.598,-33.691,0.000
1709291390.862,-17.578,-38.086,-36.133,-19.043,0.000
1709291390.866,-33.691,-44.922,-36.621,-35.645,0.000
1709291390.869,-30.273,-65.430,-36.133,-18.066,0.000
1709291390.873,-29.785,-48.828,-36.133,5.859,0.000
1709291390.877,-22.949,-34.180,-37.598,-1.465,0.000
1709291390.881,-21.973,-53.223,-35.156,-6.348,0.000
1709291390.885,-18.066,-44.434,-21.973,-2.930,0.000
1709291390.889,-8.301,-26.367,-17.090,6.836,0.000
1709291390.893,-21.973,-44.922,-35.645,2.441,0.000
1709291390.897,-39.062,-58.105,-38.574,-4.395,0.000
1709291390.901,-36.133,-56.641,-31.738,-6.348,0.000
1709291390.905,-19.043,-48.340,-24.414,-9.766,0.000
1709291390.909,-20.020,-42.480,-27.344,-11.719,0.000
1709291390.913,-26.367,-61.035,-29.785,6.348,0.000
1709291390.917,-25.879,-62.500,-28.809,8.301,0.000
1709291390.920,-39.062,-31.250,-35.645,-17.090,0.000
1709291390.924,-43.457,-34.668,-37.598,-32.715,0.000
1709291390.928,-28.809,-50.293,-34.668,-26.367,0.000
1709291390.932,-6.348,-35.156,-27.344,0.977,0.000
1709291390.936,-0.977,-22.949,-25.391,7.812,0.000
1709291390.940,-37.598,-49.805,-42.969,-28.809,0.000
1709291390.944,-46.875,-62.012,-50.781,-47.363,0.000
1709291390.948,-34.180,-54.199,-46.387,-30.762,0.000
1709291390.952,-19.531,-34.668,-43.945,-15.137,0.000
1709291390.956,-6.836,-23.926,-36.621,-17.090,0.000
1709291390.960,-7.812,-56.641,-40.039,-21.484,0.000
1709291390.963,-29.297,-45.410,-42.969,-33.691,0.000
1709291390.967,-30.762,-23.438,-31.250,-33.203,0.000
1709291390.971,-13.184,-41.504,-31.738,-6.348,0.000
1709291390.975,-18.555,-38.574,-36.621,5.859,0.000
1709291390.979,-31.250,-39.062,-38.086,-11.719,0.000
1709291390.983,-27.832,-41.992,-37.109,-23.438,0.000
1709291390.987,-25.391,-56.641,-32.715,-13.672,0.000
1709291390.991,-35.156,-68.359,-34.180,-1.465,0.000
1709291390.995,-33.203,-55.664,-33.691,4.395,0.000
1709291390.999,-35.156,-54.199,-36.133,-12.695,0.000
1709291391.003,-32.715,-60.059,-31.250,-20.508,0.000
1709291391.006,-25.391,-57.129,-28.320,-15.137,0.000
1709291391.010,-31.738,-37.109,-42.480,-16.602,0.000
1709291391.014,-22.949,-38.574,-41.992,-14.160,0.000
1709291391.018,-20.996,-44.434,-35.156,-20.508,0.000
1709291391.022,-39.062,-40.039,-36.621,-40.527,0.000
1709291391.026,-44.922,-42.480,-40.527,-41.504,0.000
1709291391.030,-33.203,-46.387,-39.062,-25.879,0.000
1709291391.034,-20.508,-47.363,-38.086,-18.555,0.000
1709291391.038,-32.227,-44.434,-40.527,-24.902,0.000
1709291391.041,-27.832,-39.551,-32.227,-41.016,0.000
1709291391.045,-26.367,-36.621,-29.297,-43.945,0.000
1709291391.049,-29.785,-57.617,-43.457,-38.574,0.000
1709291391.053,-12.207,-45.898,-39.551,-16.602,0.000
1709291391.057,-2.930,-15.137,-34.668,-16.113,0.000
1709291391.061,-9.277,-36.621,-38.086,-32.227,0.000
1709291391.065,-24.902,-58.105,-39.062,-31.738,0.000
1709291391.069,-27.832,-40.527,-39.062,-14.160,0.000
1709291391.073,-24.414,-32.227,-38.086,4.395,0.000
1709291391.076,-15.625,-46.875,-41.992,0.488,0.000
1709291391.080,-12.207,-52.734,-41.504,-22.949,0.000
1709291391.084,-34.180,-47.363,-33.203,-45.410,0.000
1709291391.088,-32.715,-38.086,-22.949,-20.996,0.000
1709291391.092,-26.367,-53.223,-28.320,-6.348,0.000
1709291391.096,-43.457,-55.176,-40.527,-31.250,0.000
1709291391.100,-41.016,-34.180,-44.922,-45.898,0.000
1709291391.104,-39.551,-35.156,-41.504,-56.641,0.000
1709291391.108,-46.387,-59.082,-34.668,-40.527,0.000
1709291391.112,-43.945,-61.523,-36.621,-16.602,0.000
1709291391.115,-44.434,-29.297,-40.039,-26.855,0.000
1709291391.119,-48.828,-41.992,-39.062,-36.133,0.000
1709291391.123,-54.688,-53.223,-38.086,-61.035,0.000
1709291391.127,-46.387,-41.504,-38.086,-66.895,0.000
1709291391.131,-45.898,-41.016,-35.156,-41.504,0.000
1709291391.135,-48.828,-51.758,-31.250,-24.902,0.000
1709291391.139,-56.152,-65.918,-32.227,-11.719,0.000
1709291391.143,-57.129,-53.711,-38.574,-30.762,0.000
1709291391.146,-38.574,-30.273,-36.621,-44.434,0.000
1709291391.150,-38.086,-49.805,-36.621,-26.367,0.000
1709291391.154,-28.809,-38.574,-25.391,-4.395,0.000
1709291391.158,-28.320,-23.438,-27.344,-8.789,0.000
1709291391.162,-38.574,-40.527,-43.945,-39.551,0.000
1709291391.166,-36.133,-55.176,-40.527,-48.340,0.000
1709291391.170,-33.691,-53.223,-38.574,-37.598,0.000
1709291391.173,-13.672,-37.109,-34.180,-27.832,0.000
1709291391.177,-3.906,-40.039,-31.738,-26.367,0.000
1709291391.181,-20.508,-51.270,-34.180,-40.039,0.000
1709291391.185,-22.949,-47.852,-36.133,-30.762,0.000
1709291391.189,-13.672,-25.391,-35.645,-11.719,0.000
1709291391.193,2.441,-16.602,-24.902,-7.812,0.000
1709291391.197,-3.906,-39.062,-21.973,-2.441,0.000
1709291391.201,-44.922,-50.293,-40.039,-38.086,0.000
1709291391.205,-46.875,-29.297,-44.922,-53.223,0.000
1709291391.209,-35.645,-40.527,-41.504,-28.809,0.000
1709291391.213,-31.250,-49.805,-40.527,-0.488,0.000
1709291391.217,-29.785,-31.738,-36.133,-11.719,0.000
1709291391.221,-34.668,-27.832,-35.156,-38.574,0.000
1709291391.225,-41.992,-41.016,-34.668,-43.457,0.000
1709291391.228,-38.574,-52.734,-38.086,-34.180,0.000
1709291391.232,-23.926,-45.898,-38.086,-22.949,0.000
1709291391.236,-21.484,-30.762,-29.297,-18.066,0.000
1709291391.240,-26.855,-40.039,-32.227,-24.414,0.000
1709291391.244,-33.203,-57.129,-36.621,-35.156,0.000
1709291391.248,-30.762,-39.551,-37.109,-28.320,0.000
1709291391.252,-17.578,-33.203,-39.062,-17.090,0.000
1709291391.256,-16.113,-52.246,-35.645,-12.207,0.000
1709291391.260,-23.438,-47.363,-33.203,-32.227,0.000
1709291391.264,-21.973,-34.180,-34.180,-43.457,0.000
1709291391.268,-18.555,-37.598,-34.180,-25.391,0.000
1709291391.272,-23.926,-57.617,-30.762,-14.160,0.000
1709291391.275,-21.484,-62.988,-32.715,-15.625,0.000
1709291391.279,-21.484,-54.688,-31.738,-26.855,0.000
1709291391.283,-14.160,-32.715,-20.020,-34.180,0.000
1709291391.287,-28.809,-52.734,-24.414,-34.180,0.000
1709291391.291,-54.199,-68.848,-34.180,-22.949,0.000
1709291391.295,-41.504,-31.250,-35.156,-24.414,0.000
1709291391.299,-33.691,-35.156,-33.203,-29.785,0.000
1709291391.303,-44.922,-55.664,-32.715,-34.668,0.000
1709291391.307,-38.574,-52.734,-35.156,-21.484,0.000
1709291391.311,-20.996,-48.828,-29.785,-7.324,0.000
1709291391.315,-19.043,-59.082,-35.645,-6.836,0.000
1709291391.319,-15.137,-51.758,-27.832,-19.531,0.000
1709291391.322,-29.785,-54.688,-30.762,-37.598,0.000
1709291391.326,-49.316,-59.082,-47.852,-40.527,0.000
1709291391.330,-36.621,-50.293,-41.992,-34.668,0.000
1709291391.334,-39.062,-77.637,-45.410,-23.438,0.000
1709291391.338,-38.086,-63.477,-43.945,-28.320,0.000
1709291391.342,-18.066,-36.621,-38.086,-36.133,0.000
1709291391.346,-22.461,-57.129,-37.109,-36.621,0.000
1709291391.350,-29.785,-58.594,-38.574,-33.691,0.000
1709291391.354,-35.156,-47.852,-41.016,-27.832,0.000
1709291391.358,-41.016,-42.480,-43.457,-25.391,0.000
1709291391.362,-37.109,-52.734,-43.945,-42.480,0.000
1709291391.365,-27.344,-63.477,-38.574,-43.945,0.000
1709291391.369,-34.180,-55.176,-36.621,-22.461,0.000
1709291391.373,-44.434,-52.734,-37.109,-12.695,0.000
1709291391.377,-43.457,-55.176,-39.551,-13.184,0.000
1709291391.381,-32.227,-40.039,-26.855,-20.996,0.000
1709291391.385,-41.992,-16.602,-29.785,-44.922,0.000
1709291391.389,-42.969,-35.645,-52.246,-41.992,0.000
1709291391.393,-27.832,-50.293,-49.316,-23.926,0.000
1709291391.397,-36.621,-39.551,-45.898,-16.602,0.000
1709291391.401,-36.621,-39.062,-39.551,-27.344,0.000
1709291391.405,-32.227,-44.922,-39.551,-47.852,0.000
1709291391.409,-36.621,-47.363,-39.551,-33.203,0.000
1709291391.413,-38.086,-47.363,-33.203,-12.207,0.000
1709291391.417,-28.320,-51.758,-34.180,-14.648,0.000
1709291391.421,-28.320,-44.922,-35.645,-24.414,0.000
1709291391.425,-28.320,-46.875,-27.344,-25.879,0.000
1709291391.429,-25.391,-35.156,-33.691,-24.902,0.000
1709291391.433,-25.879,-15.625,-43.945,-21.484,0.000
1709291391.436,-27.832,-32.715,-42.480,-13.184,0.000
1709291391.440,-25.879,-42.480,-41.992,-19.531,0.000
1709291391.444,-30.273,-35.645,-38.086,-37.109,0.000
1709291391.448,-35.645,-36.621,-38.574,-29.297,0.000
1709291391.452,-33.203,-39.551,-39.551,-17.578,0.000
1709291391.456,-33.691,-33.203,-40.527,-21.484,0.000
1709291391.460,-36.133,-30.273,-37.598,-24.902,0.000
1709291391.464,-31.250,-36.133,-42.969,-50.293,0.000
1709291391.467,-31.250,-48.340,-47.363,-45.410,0.000
1709291391.471,-37.598,-42.480,-49.805,-30.762,0.000
1709291391.475,-34.668,-30.762,-48.828,-20.020,0.000
1709291391.479,-31.250,-27.832,-44.922,-29.297,0.000
1709291391.483,-43.457,-49.805,-47.363,-57.617,0.000
1709291391.487,-48.340,-60.547,-42.969,-45.898,0.000
1709291391.491,-25.391,-25.879,-38.574,-27.344,0.000
1709291391.495,-28.320,-33.691,-37.598,-22.461,0.000
1709291391.498,-30.273,-41.016,-31.250,-11.719,0.000
1709291391.502,-28.320,-33.203,-28.809,-32.227,0.000
1709291391.506,-49.316,-50.293,-44.434,-53.223,0.000
1709291391.510,-44.922,-55.176,-42.480,-25.391,0.000
1709291391.514,-29.297,-68.848,-35.156,-7.812,0.000
1709291391.518,-22.949,-56.641,-36.133,-24.414,0.000
1709291391.522,-34.180,-14.648,-34.180,-42.480,0.000
1709291391.526,-38.574,-24.902,-33.203,-36.133,0.000
1709291391.530,-31.738,-41.992,-35.156,-40.527,0.000
1709291391.534,-25.879,-40.527,-38.574,-41.992,0.000
1709291391.537,-25.391,-42.480,-37.598,-20.996,0.000
1709291391.541,-36.133,-46.387,-34.668,-43.457,0.000
1709291391.545,-37.109,-38.574,-33.203,-48.340,0.000
1709291391.549,-32.227,-32.715,-29.785,-24.902,0.000
1709291391.553,-31.250,-48.340,-28.320,-19.043,0.000
1709291391.557,-30.273,-67.383,-30.273,-28.809,0.000
1709291391.561,-36.133,-58.594,-36.621,-40.527,0.000
1709291391.564,-34.668,-36.621,-36.133,-46.875,0.000
1709291391.568,-32.715,-32.227,-38.086,-42.480,0.000
1709291391.572,-30.762,-53.223,-33.691,-10.254,0.000
1709291391.576,-28.320,-51.270,-31.738,-14.160,0.000
1709291391.580,-37.598,-26.855,-38.574,-44.922,0.000
1709291391.584,-43.457,-36.621,-36.133,-45.898,0.000
1709291391.588,-32.227,-46.387,-32.715,-36.133,0.000
1709291391.592,-29.785,-47.363,-36.133,-23.926,0.000
1709291391.596,-19.043,-34.668,-30.273,-13.184,0.000
1709291391.600,-17.578,-34.668,-30.762,-27.344,0.000
1709291391.604,-49.805,-52.734,-41.504,-52.734,0.000
1709291391.608,-44.922,-44.922,-37.109,-39.551,0.000
1709291391.612,-30.762,-33.691,-40.527,-10.742,0.000
1709291391.615,-29.785,-38.574,-40.527,0.000,0.000
1709291391.619,-27.832,-48.340,-33.203,-10.742,0.000
1709291391.623,-22.949,-34.668,-32.227,-23.438,0.000
1709291391.627,-17.090,-25.879,-34.180,-29.297,0.000
1709291391.631,-5.859,-50.293,-36.133,-18.066,0.000
1709291391.635,12.207,-37.109,-28.809,-4.883,0.000
1709291391.639,-16.602,-18.066,-30.762,-21.484,0.000
1709291391.643,-45.898,-36.133,-43.457,-50.293,0.000
1709291391.647,-34.180,-49.316,-40.527,-35.645,0.000
1709291391.651,-23.438,-55.664,-42.969,-19.043,0.000
1709291391.655,-24.414,-41.504,-41.504,-20.020,0.000
1709291391.659,-31.250,-31.250,-33.203,-27.344,0.000
1709291391.663,-36.133,-43.945,-36.621,-41.016,0.000
1709291391.666,-33.203,-53.223,-41.016,-39.551,0.000
1709291391.670,-13.184,-18.066,-28.320,-13.672,0.000
1709291391.674,-18.555,-22.461,-34.180,-10.742,0.000
1709291391.678,-40.039,-55.176,-49.805,-41.992,0.000
1709291391.682,-47.363,-50.781,-44.434,-41.992,0.000
1709291391.686,-42.480,-37.109,-26.855,-28.809,0.000
1709291391.690,-44.434,-46.875,-30.762,-31.250,0.000
1709291391.694,-45.410,-58.594,-43.945,-22.949,0.000
1709291391.698,-30.273,-54.688,-36.621,-18.066,0.000
1709291391.702,-36.133,-42.480,-28.809,-32.715,0.000
1709291391.706,-36.133,-36.621,-28.809,-41.504,0.000
1709291391.710,-23.438,-66.406,-34.180,-13.184,0.000
1709291391.713,-29.297,-56.641,-34.668,2.441,0.000
1709291391.717,-35.156,-30.273,-33.203,-12.695,0.000
1709291391.721,-37.109,-43.945,-30.273,-21.484,0.000
1709291391.725,-37.109,-51.270,-30.762,-39.062,0.000
1709291391.729,-30.762,-48.340,-37.598,-36.621,0.000
1709291391.733,-32.227,-39.062,-43.457,-22.949,0.000
1709291391.737,-24.902,-44.434,-38.086,-19.531,0.000
1709291391.741,-16.113,-48.828,-39.062,-40.527,0.000
1709291391.745,-15.137,-35.645,-38.086,-52.734,0.000
1709291391.749,-3.906,-27.344,-24.902,-20.508,0.000
1709291391.752,-12.695,-51.758,-38.574,-17.090,0.000
1709291391.756,-27.832,-53.223,-45.898,-27.344,0.000
1709291391.760,-34.180,-14.160,-39.551,-31.250,0.000
1709291391.764,-36.133,-17.578,-37.109,-40.527,0.000
1709291391.768,-42.480,-40.527,-32.715,-40.527,0.000
1709291391.772,-39.062,-35.645,-39.062,-33.691,0.000
1709291391.776,-43.457,-26.367,-44.434,-37.109,0.000
1709291391.780,-53.223,-36.621,-38.086,-43.945,0.000
1709291391.784,-54.688,-47.852,-39.062,-53.711,0.000
1709291391.788,-39.062,-37.109,-38.574,-37.598,0.000
1709291391.791,-20.020,-36.621,-32.715,-6.836,0.000
1709291391.795,-27.832,-48.340,-46.387,-20.020,0.000
1709291391.799,-30.273,-61.523,-50.293,-27.832,0.000
1709291391.803,-46.387,-44.922,-48.828,-25.391,0.000
1709291391.807,-43.945,-20.020,-42.969,-32.227,0.000
1709291391.811,-24.414,-39.551,-36.621,-22.461,0.000
1709291391.815,-25.391,-49.805,-37.598,-12.207,0.000
1709291391.819,-29.297,-33.691,-36.133,-23.926,0.000
1709291391.823,-47.363,-32.227,-39.551,-48.828,0.000
1709291391.827,-57.129,-47.852,-41.016,-47.852,0.000
1709291391.830,-44.922,-42.480,-30.273,-24.414,0.000
1709291391.834,-28.320,-40.527,-29.785,-11.719,0.000
1709291391.838,-32.715,-46.387,-37.598,-22.461,0.000
1709291391.842,-48.340,-49.805,-38.574,-33.203,0.000
1709291391.846,-45.410,-52.734,-35.156,-32.715,0.000
1709291391.850,-33.203,-28.320,-33.203,-19.043,0.000
1709291391.854,-24.414,-37.109,-43.945,-16.602,0.000
1709291391.858,-16.602,-48.340,-34.668,-17.578,0.000
1709291391.862,-19.043,-39.551,-21.973,-23.926,0.000
1709291391.865,-45.898,-45.898,-42.969,-44.922,0.000
1709291391.869,-47.852,-43.945,-49.805,-33.203,0.000
1709291391.873,-32.715,-41.016,-45.410,-26.855,0.000
1709291391.877,-29.785,-38.574,-44.434,-41.992,0.000
1709291391.881,-34.668,-43.945,-37.109,-60.547,0.000
1709291391.885,-38.574,-48.340,-42.969,-58.105,0.000
1709291391.889,-40.039,-60.059,-51.270,-38.086,0.000
1709291391.893,-25.391,-53.223,-40.527,-23.926,0.000
1709291391.897,-15.625,-30.273,-33.203,-28.320,0.000
1709291391.900,-24.414,-37.598,-38.574,-59.570,0.000
1709291391.904,-29.785,-35.156,-43.457,-73.730,0.000
1709291391.908,-31.738,-41.016,-47.363,-50.781,0.000
1709291391.912,-9.277,-36.133,-34.180,-30.762,0.000
1709291391.916,-3.906,-33.203,-28.809,-25.879,0.000
1709291391.920,-34.180,-62.012,-42.480,-41.504,0.000
1709291391.924,-39.062,-53.711,-42.480,-48.340,0.000
1709291391.927,-34.668,-48.340,-39.062,-28.320,0.000
1709291391.931,-26.855,-59.082,-36.133,-10.742,0.000
1709291391.935,-18.555,-60.059,-29.785,1.953,0.000
1709291391.939,-15.137,-41.992,-30.762,-14.160,0.000
1709291391.943,-25.879,-34.180,-32.715,-45.410,0.000
1709291391.947,-29.785,-66.406,-29.297,-22.461,0.000
1709291391.951,-17.090,-53.711,-29.297,2.441,0.000
1709291391.955,-13.672,-24.414,-32.715,-15.625,0.000
1709291391.959,-12.207,-37.109,-27.832,-27.832,0.000
1709291391.963,-16.602,-48.828,-23.926,-26.367,0.000
1709291391.967,-29.297,-48.828,-29.297,-39.062,0.000
1709291391.971,-32.227,-40.039,-26.367,-32.227,0.000
1709291391.975,-20.996,-45.898,-28.809,-10.742,0.000
1709291391.979,-18.555,-59.570,-30.273,-17.578,0.000
1709291391.982,-19.043,-49.805,-30.273,-22.461,0.000
1709291391.986,-12.695,-35.156,-32.227,-18.555,0.000
1709291391.990,-18.555,-42.969,-34.180,-18.066,0.000
1709291391.994,-6.348,-56.152,-31.250,4.883,0.000
1709291391.998,1.953,-38.574,-30.762,-0.488,0.000
1709291392.002,-15.137,-27.344,-37.109,-23.438,0.000
1709291392.006,-13.184,-35.156,-27.344,-4.883,0.000
1709291392.010,-15.137,-35.156,-21.484,18.555,0.000
1709291392.014,-27.344,-46.875,-36.133,-0.488,0.000
1709291392.018,-25.391,-49.316,-36.621,-19.043,0.000
1709291392.022,-19.043,-58.105,-32.715,-26.855,0.000
1709291392.026,-29.297,-68.848,-41.016,-29.297,0.000
1709291392.030,-36.621,-59.570,-42.480,-20.996,0.000
1709291392.033,-10.742,-36.621,-35.645,-1.953,0.000
1709291392.037,-7.324,-49.316,-32.715,1.953,0.000
1709291392.041,-30.273,-62.988,-35.156,-34.180,0.000
1709291392.045,-41.504,-39.062,-40.039,-58.105,0.000
1709291392.049,-35.156,-46.875,-37.109,-33.691,0.000
1709291392.053,-23.438,-49.805,-30.762,-3.418,0.000
1709291392.057,-23.438,-37.598,-37.598,-23.438,0.000
1709291392.061,-24.902,-26.367,-35.645,-37.109,0.000
1709291392.065,-24.902,-28.320,-24.414,-25.879,0.000
1709291392.069,-41.504,-56.152,-40.527,-34.180,0.000
1709291392.073,-31.250,-65.918,-45.898,-24.414,0.000
1709291392.076,-17.090,-53.711,-39.551,-29.297,0.000
1709291392.080,-37.109,-53.223,-40.527,-43.457,0.000
1709291392.084,-51.270,-82.031,-37.598,-22.949,0.000
1709291392.088,-39.062,-66.895,-36.621,-16.113,0.000
1709291392.092,-29.297,-35.645,-40.527,-18.555,0.000
1709291392.096,-32.715,-48.828,-42.969,-11.230,0.000
1709291392.100,-35.156,-51.270,-41.016,-31.738,0.000
1709291392.104,-37.598,-46.387,-37.109,-52.734,0.000
1709291392.108,-38.574,-51.758,-33.203,-41.016,0.000
1709291392.112,-32.227,-64.941,-38.574,-22.461,0.000
1709291392.116,-20.996,-66.895,-44.922,-16.602,0.000
1709291392.119,-37.109,-53.223,-42.969,-21.484,0.000
1709291392.123,-50.781,-50.293,-41.992,-39.062,0.000
1709291392.127,-42.480,-59.082,-42.480,-33.691,0.000
1709291392.131,-25.391,-39.551,-26.367,3.906,0.000
1709291392.135,-26.367,-14.648,-29.785,1.953,0.000
1709291392.139,-41.992,-36.133,-52.246,-30.273,0.000
1709291392.143,-44.434,-53.223,-48.340,-55.176,0.000
1709291392.147,-46.387,-54.688,-41.504,-72.754,0.000
1709291392.151,-38.086,-42.480,-45.898,-46.387,0.000
1709291392.154,-28.320,-44.922,-47.363,-11.230,0.000
1709291392.158,-34.180,-49.805,-44.434,-20.020,0.000
1709291392.162,-38.574,-42.969,-44.434,-41.016,0.000
1709291392.166,-40.039,-46.387,-40.039,-37.109,0.000
1709291392.170,-36.621,-46.875,-38.574,-16.602,0.000
1709291392.174,-24.902,-68.848,-43.457,-0.977,0.000
1709291392.178,-21.973,-51.758,-36.621,-15.625,0.000
1709291392.182,-31.738,-24.902,-27.344,-29.785,0.000
1709291392.186,-44.434,-50.293,-32.715,-27.344,0.000
1709291392.190,-38.086,-54.688,-34.180,-5.371,0.000
1709291392.194,0.000,-43.945,-36.133,5.371,0.000
1709291392.198,0.000,-38.086,-38.086,-24.902,0.000
1709291392.202,0.000,-51.758,-39.062,-44.434,0.000
1709291392.205,0.000,-56.641,-42.969,-49.805,0.000
1709291392.209,0.000,-35.645,-28.320,-19.531,0.000
1709291392.213,0.000,-31.250,-23.926,-9.766,0.000
1709291392.217,0.000,-59.082,-44.434,-35.645,0.000
1709291392.221,0.000,-59.570,-38.086,-38.086,0.000
1709291392.225,0.000,-37.598,-28.809,-39.551,0.000
1709291392.229,0.000,-29.785,-31.738,-31.250,0.000
1709291392.233,0.000,-38.574,-32.227,-9.766,0.000
1709291392.237,0.000,-39.062,-31.250,-15.137,0.000
1709291392.240,-23.438,-37.598,-33.691,-22.949,0.000
1709291392.244,-27.832,-55.176,-33.203,-29.785,0.000
1709291392.248,-34.180,-52.246,-30.762,-27.344,0.000
1709291392.252,-25.391,-39.062,-33.203,-9.766,0.000
1709291392.256,-20.996,-32.715,-33.203,-11.719,0.000
1709291392.260,-38.574,-47.363,-36.621,-35.156,0.000
1709291392.264,-45.898,-73.730,-40.527,-30.762,0.000
1709291392.268,-30.273,-47.363,-37.598,-12.207,0.000
1709291392.272,-25.879,-20.996,-44.922,-20.020,0.000
1709291392.275,-31.738,-41.992,-49.316,-23.926,0.000
1709291392.279,-29.785,-51.758,-41.992,-29.785,0.000
1709291392.283,-33.203,-50.293,-42.969,-41.992,0.000
1709291392.287,-32.715,-20.508,-34.668,-39.062,0.000
1709291392.291,-33.203,-29.297,-34.180,-21.973,0.000
1709291392.295,-39.062,-55.176,-45.410,-12.207,0.000
1709291392.299,-42.480,-36.621,-41.504,-27.832,0.000
1709291392.302,-44.434,-41.016,-44.434,-40.039,0.000
1709291392.306,-39.551,-63.965,-45.410,-25.879,0.000
1709291392.310,-28.809,-61.035,-39.551,-15.625,0.000
1709291392.314,-18.555,-31.738,-47.363,-7.812,0.000
1709291392.318,-18.555,-24.414,-47.363,-10.254,0.000
1709291392.322,-17.578,-52.246,-29.785,-25.391,0.000
1709291392.326,-38.086,-56.641,-31.250,-23.438,0.000
1709291392.330,-38.086,-33.691,-43.457,-20.996,0.000
1709291392.334,-21.484,-35.645,-45.898,-18.066,0.000
1709291392.338,-27.832,-45.898,-41.016,-17.578,0.000
1709291392.342,-30.273,-49.805,-36.133,-38.574,0.000
1709291392.346,-27.832,-32.715,-36.133,-49.805,0.000
1709291392.350,-36.133,-36.133,-37.598,-31.738,0.000
1709291392.354,-40.527,-58.594,-35.156,-18.555,0.000
1709291392.357,-41.504,-52.246,-31.738,-27.832,0.000
1709291392.361,-40.039,-35.156,-31.738,-41.504,0.000
1709291392.365,-24.414,-39.551,-28.809,-39.062,0.000
1709291392.369,-19.043,-52.246,-32.715,-27.832,0.000
1709291392.373,-31.250,-59.570,-46.875,-10.254,0.000
1709291392.377,-30.273,-52.246,-41.504,-18.066,0.000
1709291392.381,-31.738,-54.199,-37.109,-31.250,0.000
1709291392.385,-40.039,-69.824,-41.504,-27.832,0.000
1709291392.389,-48.340,-52.734,-41.992,-24.902,0.000
1709291392.393,-34.668,-47.852,-41.992,-18.555,0.000
1709291392.397,-24.414,-71.777,-39.062,-20.996,0.000
1709291392.401,-34.668,-64.941,-36.133,-29.297,0.000
1709291392.404,-39.551,-54.199,-35.645,-38.086,0.000
1709291392.408,-30.273,-49.316,-34.180,-28.320,0.000
1709291392.412,-20.020,-56.152,-34.668,-11.719,0.000
1709291392.416,-7.324,-44.434,-20.508,15.625,0.000
1709291392.420,-16.113,-25.879,-24.414,-7.324,0.000
1709291392.424,-31.250,-54.688,-38.574,-46.387,0.000
1709291392.428,-31.250,-56.641,-34.668,-35.645,0.000
1709291392.432,-30.762,-38.086,-31.738,-20.020,0.000
1709291392.436,-32.715,-33.203,-35.156,-21.484,0.000
1709291392.440,-29.297,-41.504,-34.668,-29.785,0.000
1709291392.444,-28.320,-50.781,-26.855,-42.969,0.000
1709291392.448,-24.902,-43.457,-26.855,-39.062,0.000
1709291392.451,-20.508,-33.203,-30.273,-26.367,0.000
1709291392.455,-16.602,-33.203,-26.367,-21.484,0.000
1709291392.459,-13.672,-56.641,-25.391,-19.043,0.000
1709291392.463,-22.461,-42.480,-27.344,-21.973,0.000
1709291392.467,-24.902,-13.672,-32.227,-18.066,0.000
1709291392.471,-37.109,-28.320,-35.156,-1.465,0.000
1709291392.475,-26.855,-38.086,-32.715,0.977,0.000
1709291392.479,-5.859,-42.969,-35.156,-13.672,0.000
1709291392.483,-22.461,-42.480,-38.086,-35.156,0.000
1709291392.487,-39.551,-52.246,-37.109,-41.016,0.000
1709291392.490,-39.062,-61.035,-37.109,-32.715,0.000
1709291392.494,-43.457,-45.898,-36.133,-18.066,0.000
1709291392.498,-37.598,-40.039,-36.133,-23.438,0.000
1709291392.502,-41.016,-61.523,-36.133,-39.551,0.000
1709291392.506,-39.062,-56.641,-26.367,-30.273,0.000
1709291392.510,-20.020,-21.484,-23.438,-13.184,0.000
1709291392.514,-31.250,-36.621,-40.527,-20.508,0.000
1709291392.518,-29.785,-49.805,-43.457,-27.832,0.000
1709291392.522,-26.367,-46.387,-38.574,-23.438,0.000
1709291392.526,-36.133,-42.480,-40.527,-21.484,0.000
1709291392.529,-27.344,-41.504,-40.527,-21.973,0.000
1709291392.533,-13.672,-44.434,-37.598,-4.883,0.000
1709291392.537,-20.508,-48.828,-30.273,-1.953,0.000
1709291392.541,-31.250,-49.316,-25.879,-28.320,0.000
1709291392.545,-35.156,-37.598,-25.879,-33.203,0.000
1709291392.549,-31.738,-55.176,-26.367,-10.254,0.000
1709291392.553,-30.762,-53.711,-28.320,-17.578,0.000
1709291392.557,-35.156,-24.902,-31.250,-34.180,0.000
1709291392.561,-37.598,-38.086,-33.203,-32.715,0.000
1709291392.565,-38.574,-45.898,-27.832,-40.039,0.000
1709291392.568,-33.203,-44.434,-28.320,-24.902,0.000
1709291392.572,-25.391,-39.551,-27.832,2.930,0.000
1709291392.576,-28.809,-48.828,-22.949,4.883,0.000
1709291392.580,-34.180,-55.664,-30.273,-21.973,0.000
1709291392.584,-28.320,-43.945,-31.738,-39.062,0.000
1709291392.588,-32.715,-48.828,-29.297,-26.855,0.000
1709291392.592,-12.207,-50.781,-15.137,10.254,0.000
1709291392.596,-8.789,-41.992,-15.137,13.184,0.000
1709291392.600,-29.785,-23.438,-35.156,-34.668,0.000
1709291392.604,-26.855,-24.902,-38.086,-52.734,0.000
1709291392.607,-32.715,-45.410,-38.086,-48.340,0.000
1709291392.611,-35.645,-45.410,-37.109,-36.133,0.000
1709291392.615,-27.832,-35.156,-30.762,-30.273,0.000
1709291392.619,-34.668,-40.039,-28.320,-45.898,0.000
1709291392.623,-45.410,-58.105,-32.227,-50.781,0.000
1709291392.627,-39.551,-56.641,-36.133,-41.992,0.000
1709291392.631,-25.879,-41.992,-33.691,-24.902,0.000
1709291392.635,-28.809,-47.852,-28.809,-11.719,0.000
1709291392.638,-40.527,-63.965,-34.180,-11.719,0.000
1709291392.642,-36.133,-44.922,-39.551,-34.668,0.000
1709291392.646,-41.992,-19.043,-42.969,-60.547,0.000
1709291392.650,-47.852,-32.715,-42.969,-41.504,0.000
1709291392.654,-30.762,-42.480,-42.480,-19.043,0.000
1709291392.658,-30.762,-35.156,-38.574,-27.344,0.000
1709291392.662,-33.691,-26.855,-35.645,-36.133,0.000
1709291392.665,-34.180,-44.434,-40.039,-40.527,0.000
1709291392.669,-37.109,-52.246,-41.504,-24.414,0.000
1709291392.673,-14.160,-19.531,-24.414,0.977,0.000
1709291392.677,-12.695,-31.738,-28.809,-26.855,0.000
1709291392.681,-36.133,-65.918,-52.734,-61.035,0.000
1709291392.685,-53.223,-66.406,-45.898,-52.246,0.000
1709291392.689,-48.828,-42.969,-36.621,-35.156,0.000
1709291392.693,-33.203,-20.020,-35.156,-24.902,0.000
1709291392.697,-30.273,-43.945,-36.133,-21.973,0.000
1709291392.701,-35.645,-52.734,-32.227,-27.832,0.000
1709291392.704,-34.668,-26.855,-28.320,-36.133,0.000
1709291392.709,-24.414,-31.738,-29.785,-19.043,0.000
1709291392.713,-17.090,-39.062,-28.320,5.371,0.000
1709291392.716,-25.391,-39.551,-31.738,-9.766,0.000
1709291392.720,-33.691,-33.691,-36.621,-31.738,0.000
1709291392.724,-31.738,-31.738,-30.762,-39.062,0.000
1709291392.728,-32.715,-51.270,-32.227,-36.621,0.000
1709291392.732,-32.227,-51.758,-36.133,-21.973,0.000
1709291392.736,-24.414,-34.668,-33.691,-24.902,0.000
1709291392.740,-14.160,-53.223,-35.156,-31.738,0.000
1709291392.744,-26.855,-62.988,-32.715,-35.156,0.000
1709291392.748,-38.086,-40.527,-30.762,-28.320,0.000
1709291392.752,-15.625,-30.273,-26.367,-12.695,0.000
1709291392.756,-10.254,-49.805,-27.344,-22.461,0.000
1709291392.760,-41.992,-55.176,-34.668,-43.457,0.000
1709291392.764,-48.340,-37.598,-25.879,-46.875,0.000
1709291392.768,-39.062,-40.039,-25.391,-38.086,0.000
1709291392.771,-37.598,-53.223,-32.715,-17.578,0.000
1709291392.775,-35.156,-58.594,-36.621,-17.578,0.000
1709291392.779,-42.480,-52.734,-38.086,-37.109,0.000
1709291392.783,-41.504,-38.574,-32.227,-43.457,0.000
1709291392.787,-39.551,-46.875,-26.367,-25.879,0.000
1709291392.791,-41.504,-53.223,-27.832,-11.230,0.000
1709291392.795,-28.320,-38.574,-30.273,-6.348,0.000
1709291392.799,-18.066,-49.805,-33.203,-21.484,0.000
1709291392.803,-18.066,-62.012,-32.715,-23.926,0.000
1709291392.807,-29.297,-48.828,-33.203,-20.508,0.000
1709291392.811,-30.273,-25.879,-34.668,-20.996,0.000
1709291392.814,-23.926,-37.109,-34.180,-6.348,0.000
1709291392.818,-27.832,-57.617,-35.645,-26.367,0.000
1709291392.822,-32.227,-56.152,-35.645,-42.969,0.000
1709291392.826,-24.902,-40.039,-33.691,-35.645,0.000
1709291392.830,-18.555,-39.551,-37.109,-35.156,0.000
1709291392.834,-13.184,-69.824,-41.504,-29.297,0.000
1709291392.838,-10.254,-49.805,-29.785,-9.766,0.000
1709291392.842,-16.113,-33.203,-34.180,-41.504,0.000
1709291392.846,-30.762,-48.340,-44.922,-60.059,0.000
1709291392.850,0.000,-43.945,-42.480,-34.180,0.000
1709291392.854,0.000,-45.898,-38.574,-17.578,0.000
1709291392.857,0.000,-37.109,-35.645,-11.230,0.000
1709291392.861,0.000,-40.039,-36.621,-39.551,0.000
1709291392.865,0.000,-53.223,-35.645,-66.895,0.000
1709291392.869,0.000,-47.852,-33.691,-43.945,0.000
1709291392.873,0.000,-41.504,-32.227,-10.742,0.000
1709291392.877,0.000,-55.664,-34.180,-12.207,0.000
1709291392.881,0.000,-61.523,-37.598,-33.691,0.000
1709291392.885,0.000,-21.484,-32.715,-38.086,0.000
1709291392.889,0.000,-24.902,-29.297,-32.227,0.000
1709291392.893,0.000,-45.410,-25.879,-23.438,0.000
1709291392.896,-23.438,-33.691,-20.508,-5.859,0.000
1709291392.900,-38.574,-35.645,-33.691,-28.809,0.000
1709291392.904,-42.969,-45.410,-36.133,-55.664,0.000
1709291392.908,-27.344,-48.340,-30.273,-41.992,0.000
1709291392.912,-14.648,-48.340,-29.785,-10.254,0.000
1709291392.916,-4.883,-45.898,-30.273,-5.371,0.000
1709291392.920,-19.531,-40.527,-32.715,-40.039,0.000
1709291392.924,-31.250,-56.641,-34.180,-38.574,0.000
1709291392.928,-28.320,-53.223,-36.621,-17.090,0.000
1709291392.932,-21.973,-21.973,-39.062,-18.555,0.000
1709291392.936,-14.160,-25.391,-33.203,-18.066,0.000
1709291392.939,-18.066,-29.297,-36.621,-37.109,0.000
1709291392.943,-29.297,-27.344,-43.457,-44.922,0.000
1709291392.947,-27.344,-34.180,-38.086,-31.250,0.000
1709291392.951,-17.578,-39.551,-35.156,-17.578,0.000
1709291392.955,-17.578,-42.480,-38.574,-19.043,0.000
1709291392.959,-22.949,-44.922,-40.527,-29.785,0.000
1709291392.963,-36.621,-46.387,-37.598,-35.645,0.000
1709291392.967,-43.945,-49.805,-31.738,-23.438,0.000
1709291392.971,-40.527,-47.363,-32.227,-5.859,0.000
1709291392.974,-30.762,-20.996,-29.297,-8.301,0.000
1709291392.978,-23.926,-22.949,-20.020,-25.391,0.000
1709291392.982,-40.039,-45.898,-26.367,-43.457,0.000
1709291392.986,-47.852,-52.734,-33.203,-53.711,0.000
1709291392.990,-39.551,-40.527,-27.344,-28.809,0.000
1709291392.994,-37.109,-42.969,-28.320,-7.324,0.000
1709291392.998,-29.297,-58.594,-33.203,-31.250,0.000
1709291393.002,-26.367,-60.059,-34.668,-42.969,0.000
1709291393.005,-34.668,-53.711,-36.133,-31.738,0.000
1709291393.009,-35.645,-51.270,-33.691,-20.996,0.000
1709291393.013,-30.273,-68.848,-31.250,-6.836,0.000
1709291393.017,-37.598,-57.129,-33.203,-17.090,0.000
1709291393.021,-42.480,-24.902,-31.250,-42.480,0.000
1709291393.025,-44.922,-44.922,-32.227,-41.992,0.000
1709291393.029,-35.156,-57.129,-34.180,-25.879,0.000
1709291393.033,-19.043,-37.109,-33.203,-8.789,0.000
1709291393.036,-13.184,-28.809,-34.180,-7.324,0.000
1709291393.040,-14.160,-46.387,-38.574,-19.531,0.000
1709291393.044,-32.715,-43.945,-35.156,-32.227,0.000
1709291393.048,-28.320,-29.297,-32.715,-27.344,0.000
1709291393.052,-10.742,-42.480,-34.668,-10.742,0.000
1709291393.056,2.930,-44.922,-22.949,7.324,0.000
1709291393.060,-13.672,-41.504,-20.020,-3.906,0.000
1709291393.064,-37.598,-33.691,-38.086,-34.180,0.000
1709291393.068,-26.367,-24.902,-39.551,-26.367,0.000
1709291393.072,-24.414,-46.875,-32.715,-14.160,0.000
1709291393.075,-26.367,-53.223,-34.668,-13.672,0.000
1709291393.079,-26.855,-31.250,-36.621,-37.598,0.000
1709291393.084,-36.621,-53.711,-34.668,-46.875,0.000
1709291393.087,-40.039,-61.523,-36.621,-32.227,0.000
1709291393.091,-19.531,-36.133,-39.062,-17.578,0.000
1709291393.095,-10.254,-29.297,-36.133,-12.207,0.000
1709291393.099,-25.879,-32.715,-36.133,-18.555,0.000
1709291393.103,-30.762,-45.410,-38.086,-21.973,0.000
1709291393.107,-17.090,-36.621,-37.598,-16.113,0.000
1709291393.111,-4.395,-19.531,-39.551,0.488,0.000
1709291393.115,-11.719,-33.203,-38.574,9.766,0.000
1709291393.119,-20.996,-51.758,-40.039,-10.742,0.000
1709291393.123,-17.090,-28.320,-36.621,-23.926,0.000
1709291393.127,-17.090,-16.113,-36.621,-20.020,0.000
1709291393.131,-19.043,-42.480,-41.016,-24.414,0.000
1709291393.135,-28.809,-54.199,-43.945,-25.391,0.000
1709291393.138,-26.367,-39.062,-35.645,-20.996,0.000
1709291393.142,-43.457,-39.551,-36.133,-46.875,0.000
1709291393.146,-65.918,-64.453,-48.340,-61.523,0.000
1709291393.150,-48.828,-65.430,-44.434,-41.992,0.000
1709291393.154,-35.645,-46.387,-37.598,-30.273,0.000
1709291393.158,-39.062,-29.297,-32.227,-33.203,0.000
1709291393.162,-40.039,-50.781,-33.691,-43.945,0.000
1709291393.166,-32.715,-62.988,-33.203,-32.715,0.000
1709291393.170,-34.180,-29.785,-31.250,-20.020,0.000
1709291393.174,-32.715,-34.180,-34.668,-14.160,0.000
1709291393.178,-31.250,-43.945,-35.645,-18.555,0.000
1709291393.182,-42.480,-42.969,-37.109,-39.551,0.000
1709291393.185,-47.363,-39.551,-38.574,-52.246,0.000
1709291393.189,-35.645,-38.574,-35.156,-20.996,0.000
1709291393.193,-24.414,-39.062,-27.344,2.930,0.000
1709291393.197,-42.480,-48.828,-38.086,-23.438,0.000
1709291393.201,-51.270,-56.641,-48.828,-36.133,0.000
1709291393.205,-44.434,-52.734,-49.316,-47.363,0.000
1709291393.209,-40.039,-65.430,-48.828,-36.133,0.000
1709291393.213,-27.344,-49.805,-47.363,-13.672,0.000
1709291393.217,-22.461,-22.949,-45.898,-29.297,0.000
1709291393.221,-38.086,-34.668,-44.922,-38.086,0.000
1709291393.225,-49.316,-46.875,-45.410,-44.922,0.000
1709291393.228,-38.086,-42.480,-40.039,-32.227,0.000
1709291393.232,-32.715,-38.574,-39.551,-22.949,0.000
1709291393.236,-23.438,-49.316,-33.691,-14.648,0.000
1709291393.240,-23.926,-58.594,-18.555,-14.648,0.000
1709291393.244,-41.992,-61.523,-34.668,-50.781,0.000
1709291393.248,-47.852,-61.035,-45.898,-62.988,0.000
1709291393.252,-26.367,-63.477,-39.551,-42.969,0.000
1709291393.256,-19.531,-63.477,-37.109,-22.949,0.000
1709291393.260,-32.715,-34.668,-34.668,-31.738,0.000
1709291393.264,-35.156,-30.762,-35.156,-39.062,0.000
1709291393.268,-35.645,-51.270,-34.180,-30.273,0.000
1709291393.271,-24.902,-47.363,-27.344,-10.254,0.000
1709291393.275,-26.367,-36.133,-27.832,-10.742,0.000
1709291393.279,-45.898,-38.086,-32.227,-32.715,0.000
1709291393.283,-56.641,-38.574,-35.645,-29.297,0.000
1709291393.287,-45.410,-38.574,-39.062,-32.715,0.000
1709291393.291,-32.715,-48.828,-41.992,-31.738,0.000
1709291393.295,-24.414,-43.457,-31.738,-20.508,0.000
1709291393.299,-14.160,-51.270,-26.855,-14.160,0.000
1709291393.303,-37.109,-51.270,-42.480,-29.785,0.000
1709291393.307,-38.086,-23.438,-38.574,-38.574,0.000
1709291393.310,-28.809,-35.156,-35.645,-22.949,0.000
1709291393.314,-36.133,-45.898,-37.598,-18.066,0.000
1709291393.318,-34.668,-38.086,-37.598,-23.926,0.000
1709291393.322,-37.109,-39.551,-30.273,-25.879,0.000
1709291393.326,-35.645,-45.410,-35.645,-24.414,0.000
1709291393.330,-20.996,-50.293,-38.574,-12.695,0.000
1709291393.334,-23.438,-46.387,-31.738,-14.160,0.000
1709291393.338,-41.992,-45.898,-33.203,-31.250,0.000
1709291393.342,-41.504,-59.082,-33.203,-36.621,0.000
1709291393.345,-30.273,-62.012,-31.250,-33.203,0.000
1709291393.349,-20.020,-30.273,-33.203,-33.691,0.000
1709291393.353,-17.578,-25.391,-28.809,-23.438,0.000
1709291393.357,-22.461,-43.945,-25.391,-19.043,0.000
1709291393.361,-30.273,-43.457,-34.668,-44.922,0.000
