timestamps,TP9,AF7,AF8,TP10,Right AUX
1709196866.116,-40.527,-48.828,-28.320,-37.598,0.000
1709196866.120,-46.875,-46.875,-24.414,-21.973,0.000
1709196866.124,-44.922,-50.781,-25.879,-26.367,0.000
1709196866.128,-36.621,-49.805,-26.367,-26.855,0.000
1709196866.132,-25.879,-41.992,-26.367,-26.855,0.000
1709196866.136,-36.133,-44.922,-28.320,-28.320,0.000
1709196866.140,-43.945,-50.293,-29.297,-21.484,0.000
1709196866.144,-23.438,-48.340,-33.691,-16.602,0.000
1709196866.148,-20.996,-38.574,-38.574,-18.066,0.000
1709196866.152,-32.227,-41.016,-37.598,-23.926,0.000
1709196866.156,-28.320,-49.316,-32.715,-26.855,0.000
1709196866.159,-30.273,-46.387,-41.016,-28.809,0.000
1709196866.163,-30.273,-44.434,-41.992,-28.320,0.000
1709196866.167,-25.879,-41.504,-33.203,-31.738,0.000
1709196866.171,-18.555,-38.574,-36.621,-40.527,0.000
1709196866.175,-24.902,-35.156,-37.109,-41.016,0.000
1709196866.179,-30.762,-35.645,-33.691,-41.016,0.000
1709196866.183,-27.832,-41.016,-39.062,-32.227,0.000
1709196866.187,-25.879,-37.109,-43.457,-17.090,0.000
1709196866.191,-28.809,-29.297,-41.992,-28.809,0.000
1709196866.195,-31.738,-36.621,-41.992,-40.039,0.000
1709196866.198,-31.738,-42.969,-40.039,-36.621,0.000
1709196866.202,-21.484,-35.156,-34.668,-31.250,0.000
1709196866.206,-15.625,-32.715,-37.598,-26.855,0.000
1709196866.210,-23.438,-30.762,-39.062,-16.602,0.000
1709196866.214,-20.020,-32.227,-37.598,-20.508,0.000
1709196866.218,-29.785,-36.621,-34.668,-26.855,0.000
1709196866.222,-42.480,-46.387,-34.180,-27.344,0.000
1709196866.226,-33.203,-41.504,-37.598,-27.344,0.000
1709196866.230,-26.855,-33.203,-39.551,-27.832,0.000
1709196866.234,-39.551,-48.828,-33.691,-44.922,0.000
1709196866.238,-50.781,-53.711,-33.691,-53.223,0.000
1709196866.241,-40.039,-44.434,-37.598,-46.875,0.000
1709196866.245,-23.926,-42.969,-37.598,-25.391,0.000
1709196866.249,-29.785,-54.199,-42.969,-33.691,0.000
1709196866.253,-25.391,-53.711,-50.293,-50.781,0.000
1709196866.257,-35.645,-42.969,-45.898,-52.246,0.000
1709196866.261,-43.457,-41.016,-36.621,-40.039,0.000
1709196866.265,-30.273,-39.551,-34.668,-22.949,0.000
1709196866.269,-42.480,-41.016,-34.668,-26.367,0.000
1709196866.273,-43.457,-38.574,-26.855,-34.180,0.000
1709196866.277,-36.621,-31.250,-29.297,-31.250,0.000
1709196866.281,-37.109,-36.621,-36.621,-22.949,0.000
1709196866.284,-24.414,-43.457,-21.484,-12.695,0.000
1709196866.288,-13.672,-44.434,-17.578,-8.301,0.000
1709196866.292,-26.367,-46.387,-26.367,-22.461,0.000
1709196866.296,-37.598,-40.527,-27.832,-42.480,0.000
1709196866.300,-41.992,-39.062,-28.809,-39.062,0.000
1709196866.304,-36.621,-34.668,-30.273,-26.855,0.000
1709196866.308,-31.250,-29.297,-24.902,-23.926,0.000
1709196866.312,-26.855,-31.738,-25.391,-22.461,0.000
1709196866.316,-28.320,-34.180,-24.902,-26.367,0.000
1709196866.320,-41.016,-36.621,-22.949,-26.855,0.000
1709196866.324,-20.020,-33.203,-24.414,-20.020,0.000
1709196866.327,-13.184,-34.668,-26.855,-19.531,0.000
1709196866.331,-36.621,-32.715,-20.508,-19.531,0.000
1709196866.335,-39.551,-35.156,-20.020,-16.602,0.000
1709196866.339,-42.969,-38.086,-27.832,-26.855,0.000
1709196866.343,-39.551,-28.809,-19.043,-20.020,0.000
1709196866.347,-33.203,-31.738,-11.230,-12.207,0.000
1709196866.351,-35.645,-44.922,0.000,-15.137,0.000
1709196866.355,-34.668,-42.969,0.000,-27.344,0.000
1709196866.359,-27.344,-26.367,0.000,-35.645,0.000
1709196866.363,-23.438,-15.137,0.000,-20.996,0.000
1709196866.366,-11.719,-21.973,0.000,-14.648,0.000
1709196866.370,-2.930,-28.809,0.000,-16.602,0.000
1709196866.374,-19.531,-35.156,0.000,-26.855,0.000
1709196866.378,-27.344,-34.668,0.000,-31.738,0.000
1709196866.382,-8.789,-35.156,0.000,-16.602,0.000
1709196866.386,-22.461,-40.527,0.000,-14.160,0.000
1709196866.390,-36.621,-43.945,0.000,-26.367,0.000
1709196866.394,-32.715,-43.945,0.000,-35.645,0.000
1709196866.398,-41.016,-43.945,-27.344,-45.410,0.000
1709196866.402,-42.480,-46.387,-31.738,-43.457,0.000
1709196866.406,-37.109,-37.598,-30.762,-32.227,0.000
1709196866.409,-35.156,-38.086,-31.250,-27.832,0.000
1709196866.413,-44.434,-42.969,-36.621,-34.668,0.000
1709196866.417,-50.781,-44.434,-32.715,-39.062,0.000
1709196866.421,-40.527,-47.363,-33.203,-31.738,0.000
1709196866.425,-45.410,-40.039,-34.180,-21.484,0.000
1709196866.429,-35.156,-27.832,-25.391,-25.391,0.000
1709196866.433,-40.039,-33.691,-30.762,-41.992,0.000
1709196866.437,-64.453,-33.203,-34.180,-49.805,0.000
1709196866.441,-58.594,-33.203,-26.367,-42.969,0.000
1709196866.445,-43.945,-39.062,-27.344,-29.785,0.000
1709196866.449,-36.621,-37.109,-25.391,-19.531,0.000
1709196866.452,-25.391,-36.133,-20.508,-25.391,0.000
1709196866.456,-30.762,-32.227,-24.414,-39.062,0.000
1709196866.460,-45.410,-25.879,-24.902,-40.527,0.000
1709196866.464,-29.785,-20.020,-23.438,-30.762,0.000
1709196866.468,-24.902,-24.414,-31.250,-32.227,0.000
1709196866.472,-30.273,-32.227,-36.133,-34.180,0.000
1709196866.476,-26.367,-26.367,-31.250,-30.273,0.000
1709196866.480,-19.531,-27.344,-28.320,-31.250,0.000
1709196866.484,-25.879,-33.691,-31.250,-23.926,0.000
1709196866.488,-34.180,-28.809,-32.715,-25.391,0.000
1709196866.491,-28.809,-28.809,-36.621,-28.320,0.000
1709196866.495,-28.809,-34.668,-37.109,-28.320,0.000
1709196866.499,-34.668,-31.738,-36.621,-43.945,0.000
1709196866.503,-25.391,-28.809,-39.551,-46.387,0.000
1709196866.507,-13.672,-33.203,-36.133,-34.668,0.000
1709196866.511,-5.371,-32.715,-35.156,-36.621,0.000
1709196866.515,-18.066,-31.738,-34.180,-39.062,0.000
1709196866.519,-38.574,-36.621,-32.227,-48.340,0.000
1709196866.523,-39.062,-44.922,-32.227,-49.316,0.000
1709196866.527,-22.461,-41.016,-30.762,-38.086,0.000
1709196866.531,-27.832,-39.062,-29.785,-36.133,0.000
1709196866.534,-26.855,-50.293,-28.809,-34.180,0.000
1709196866.538,-16.113,-44.434,-21.484,-25.879,0.000
1709196866.542,-47.363,-29.785,-17.578,-13.184,0.000
1709196866.546,-49.805,-26.367,-21.973,-12.695,0.000
1709196866.550,-33.691,-32.715,-25.879,-18.066,0.000
1709196866.554,-49.316,-36.621,-23.926,-21.484,0.000
1709196866.558,-69.824,-35.645,-22.461,-24.902,0.000
1709196866.562,-68.848,-32.227,-22.949,-24.414,0.000
1709196866.566,-46.387,-29.785,-23.438,-29.785,0.000
1709196866.570,-34.668,-39.551,-24.902,-32.715,0.000
1709196866.573,-44.922,-44.434,-23.438,-36.621,0.000
1709196866.577,-52.246,-43.945,-26.367,-46.875,0.000
1709196866.581,-51.270,-42.969,-26.855,-41.504,0.000
1709196866.585,0.000,-39.551,-26.367,-25.879,0.000
1709196866.589,0.000,-39.062,-25.391,-22.949,0.000
1709196866.593,0.000,-41.016,-26.367,-35.645,0.000
1709196866.597,0.000,-31.250,-33.203,-44.922,0.000
1709196866.601,0.000,-24.902,-36.133,-38.086,0.000
1709196866.605,0.000,-25.879,-35.156,-29.297,0.000
1709196866.609,0.000,-28.320,-35.645,-29.785,0.000
1709196866.613,0.000,-35.156,-36.621,-38.086,0.000
1709196866.616,0.000,-29.785,-33.203,-37.109,0.000
1709196866.620,0.000,-17.578,-31.250,-32.227,0.000
1709196866.624,0.000,-22.949,-41.992,-27.344,0.000
1709196866.628,0.000,-25.879,-50.293,-23.438,0.000
1709196866.632,-8.789,-25.879,-41.504,-30.762,0.000
1709196866.636,-24.414,-30.762,-35.645,-35.645,0.000
1709196866.640,-48.828,-30.762,-28.809,-40.527,0.000
1709196866.644,-36.621,-39.062,-30.762,-43.945,0.000
1709196866.648,-31.738,-49.805,-38.574,-42.969,0.000
1709196866.652,-43.945,-43.457,-40.039,-50.781,0.000
1709196866.656,-46.875,-39.062,-38.086,-53.223,0.000
1709196866.659,-52.246,-42.480,-31.738,-44.434,0.000
1709196866.663,-55.664,-43.457,-35.645,-38.086,0.000
1709196866.667,-59.082,-36.621,-45.898,-43.945,0.000
1709196866.671,-52.246,-22.949,-48.340,-54.688,0.000
1709196866.675,-40.527,-12.695,-43.945,-51.270,0.000
1709196866.679,-34.180,-8.301,-47.852,-41.992,0.000
1709196866.683,-22.949,-2.930,-59.082,-39.551,0.000
1709196866.687,-6.836,3.906,-60.059,-40.527,0.000
1709196866.691,11.230,12.695,-61.035,-43.945,0.000
1709196866.695,6.348,25.391,-63.477,-31.250,0.000
1709196866.698,-2.930,34.180,-62.500,-28.809,0.000
1709196866.702,3.906,31.250,-71.289,-32.227,0.000
1709196866.706,25.879,36.621,-73.730,-18.066,0.000
1709196866.710,36.621,38.086,-74.707,-17.578,0.000
1709196866.714,30.273,36.133,-83.496,-28.320,0.000
1709196866.718,26.367,46.875,-90.820,-32.227,0.000
1709196866.722,31.250,55.664,-93.262,-34.668,0.000
1709196866.726,33.203,56.152,-100.098,-42.480,0.000
1709196866.730,41.016,55.664,-102.051,-31.738,0.000
1709196866.734,40.527,57.617,-104.980,-36.133,0.000
1709196866.738,31.250,60.059,-110.352,-48.828,0.000
1709196866.741,43.945,64.941,-106.445,-38.574,0.000
1709196866.745,56.641,67.383,-109.863,-24.414,0.000
1709196866.749,48.828,67.383,-110.352,-25.391,0.000
1709196866.753,52.734,70.312,-103.516,-19.043,0.000
1709196866.757,53.223,74.707,-104.004,-4.883,0.000
1709196866.761,63.965,83.984,-103.516,-6.348,0.000
1709196866.765,78.125,83.496,-103.516,-6.348,0.000
1709196866.769,67.383,82.520,-100.098,0.000,0.000
1709196866.773,54.688,88.379,-97.656,5.371,0.000
1709196866.777,38.086,90.820,-106.934,-15.625,0.000
1709196866.780,41.016,79.102,-112.305,-14.160,0.000
1709196866.784,54.688,66.895,-99.121,5.371,0.000
1709196866.788,43.457,83.984,-97.656,-4.883,0.000
1709196866.792,34.180,90.820,-104.004,-24.902,0.000
1709196866.796,28.320,90.820,-89.844,-16.113,0.000
1709196866.800,36.133,86.914,-85.449,9.766,0.000
1709196866.804,48.828,75.684,-84.961,-0.488,0.000
1709196866.808,38.086,63.965,-82.031,-13.672,0.000
1709196866.812,26.367,59.570,-88.867,-20.020,0.000
1709196866.816,16.113,62.500,-85.449,-25.391,0.000
1709196866.820,12.695,60.547,-78.125,-14.160,0.000
1709196866.823,22.461,48.340,-75.684,-9.766,0.000
1709196866.827,28.320,38.574,-78.125,-9.277,0.000
1709196866.831,32.715,46.875,-75.195,-7.812,0.000
1709196866.835,20.996,45.410,-68.359,-18.555,0.000
1709196866.839,15.625,34.668,-67.383,-21.484,0.000
1709196866.843,21.973,33.691,-65.430,-12.207,0.000
1709196866.847,19.043,29.785,-61.523,-1.953,0.000
1709196866.851,5.859,25.391,-62.988,-9.766,0.000
1709196866.855,1.465,23.926,-67.871,-22.461,0.000
1709196866.859,-2.441,17.578,-68.359,-8.301,0.000
1709196866.862,-9.277,7.812,-63.477,-12.695,0.000
1709196866.866,-3.418,-2.441,-62.012,-23.438,0.000
1709196866.870,0.000,-2.441,-55.664,-25.391,0.000
1709196866.874,-12.695,6.348,-48.340,-39.062,0.000
1709196866.878,-25.879,6.836,-50.293,-35.156,0.000
1709196866.882,-14.160,1.465,-52.734,-34.180,0.000
1709196866.886,-15.625,-8.789,-53.223,-30.762,0.000
1709196866.890,-33.691,-15.625,-52.246,-12.695,0.000
1709196866.894,-30.762,-8.789,-52.734,-19.531,0.000
1709196866.898,-23.926,-5.859,-44.434,-33.691,0.000
1709196866.902,-19.043,-9.277,-42.480,-35.156,0.000
1709196866.905,-19.531,-10.254,-49.805,-21.973,0.000
1709196866.909,-18.555,-20.996,-49.805,-11.719,0.000
1709196866.913,-14.648,-19.531,-45.410,-16.602,0.000
1709196866.917,-17.090,-12.695,-40.527,-24.902,0.000
1709196866.921,-36.133,-17.090,-38.574,-26.367,0.000
1709196866.925,-39.062,-22.461,-42.480,-25.391,0.000
1709196866.929,-27.832,-25.879,-41.016,-31.250,0.000
1709196866.933,-26.367,-19.531,-43.457,-41.504,0.000
1709196866.937,-29.297,-15.137,-45.898,-38.086,0.000
1709196866.941,-24.902,-15.137,-43.945,-34.180,0.000
1709196866.944,-19.043,-16.113,-45.410,-21.973,0.000
1709196866.948,-17.090,-25.879,-46.875,-15.625,0.000
1709196866.952,-22.461,-23.926,-43.457,-19.043,0.000
1709196866.956,-22.461,-17.578,-46.387,-29.785,0.000
1709196866.960,-25.879,-25.391,-44.922,-38.086,0.000
1709196866.964,-31.738,-25.879,-31.250,-23.438,0.000
1709196866.968,-26.855,-22.949,-31.738,-16.602,0.000
1709196866.972,-35.156,-27.344,-40.039,-34.668,0.000
1709196866.976,-40.039,-31.250,-35.156,-47.852,0.000
1709196866.980,-37.109,-29.297,-32.227,-41.016,0.000
1709196866.984,-26.367,-27.344,-35.156,-27.344,0.000
1709196866.987,-11.719,-27.832,-29.785,-25.391,0.000
1709196866.991,-23.438,-29.297,-27.344,-30.273,0.000
1709196866.995,-47.852,-35.645,-33.203,-24.902,0.000
1709196866.999,-36.133,-32.227,-32.715,-19.531,0.000
1709196867.003,-15.625,-31.738,-30.273,-11.230,0.000
1709196867.007,-33.203,-38.086,-32.227,-8.789,0.000
1709196867.011,-41.992,-37.109,-34.668,-25.879,0.000
1709196867.015,-38.086,-35.645,-32.715,-41.016,0.000
1709196867.019,-42.480,-35.156,-33.203,-49.805,0.000
1709196867.023,-33.691,-35.645,-35.645,-45.898,0.000
1709196867.027,-13.184,-34.668,-30.273,-33.691,0.000
1709196867.030,-22.461,-31.250,-25.879,-25.879,0.000
1709196867.034,-37.598,-39.551,-28.320,-29.297,0.000
1709196867.038,-39.062,-42.480,-31.250,-30.273,0.000
1709196867.042,-28.809,-32.715,-25.879,-15.625,0.000
1709196867.046,-11.719,-28.809,-27.344,-23.926,0.000
1709196867.050,-28.320,-29.297,-32.227,-45.410,0.000
1709196867.054,-42.969,-22.949,-30.762,-54.199,0.000
1709196867.058,-41.992,-15.625,-34.668,-46.875,0.000
1709196867.062,-42.969,-22.949,-35.156,-33.691,0.000
1709196867.066,-44.922,-29.297,-33.691,-35.645,0.000
1709196867.070,-45.898,-35.156,-35.156,-37.598,0.000
1709196867.073,-45.410,-37.598,-35.156,-41.992,0.000
1709196867.077,-59.570,-36.621,-31.250,-43.945,0.000
1709196867.081,-57.617,-40.527,-31.738,-34.668,0.000
1709196867.085,-29.785,-35.645,-34.668,-22.461,0.000
1709196867.089,-41.504,-34.668,-36.133,-25.391,0.000
1709196867.093,-54.199,-37.598,-40.039,-36.133,0.000
1709196867.097,-52.734,-37.598,-34.668,-42.969,0.000
1709196867.101,-57.617,-39.551,-25.879,-39.551,0.000
1709196867.105,-49.316,-39.551,-31.738,-37.109,0.000
1709196867.109,-39.062,-43.457,-35.645,-39.551,0.000
1709196867.112,-30.273,-40.527,-31.738,-34.180,0.000
1709196867.116,-31.738,-39.062,-29.297,-33.691,0.000
1709196867.120,-31.738,-45.898,-30.762,-34.180,0.000
1709196867.124,-36.621,-40.527,-31.250,-29.297,0.000
1709196867.128,-36.621,-35.156,-30.762,-19.043,0.000
1709196867.132,-26.367,-33.203,-30.273,-10.254,0.000
1709196867.136,-19.043,-27.832,-32.227,-29.785,0.000
1709196867.140,-33.203,-28.809,-28.320,-33.203,0.000
1709196867.144,-42.969,-42.480,-28.320,-25.391,0.000
1709196867.148,-23.926,-40.527,-28.320,-28.320,0.000
1709196867.152,-13.672,-30.273,-26.855,-36.621,0.000
1709196867.155,-29.297,-31.250,-28.809,-42.480,0.000
1709196867.159,-37.109,-36.133,-26.855,-38.086,0.000
1709196867.163,-21.973,-40.039,-28.320,-29.785,0.000
1709196867.167,-21.973,-36.621,-33.691,-28.809,0.000
1709196867.171,-29.785,-35.645,-34.668,-40.039,0.000
1709196867.175,-28.809,-35.156,-31.250,-41.504,0.000
1709196867.179,-32.227,-31.738,-23.926,-39.551,0.000
1709196867.183,-25.391,-29.297,-21.973,-39.062,0.000
1709196867.187,-10.254,-26.855,-32.715,-42.969,0.000
1709196867.191,-30.273,-34.668,-28.809,-50.781,0.000
1709196867.194,-51.758,-44.434,-29.785,-59.082,0.000
1709196867.198,-54.688,-41.016,-40.527,-60.547,0.000
1709196867.202,-47.363,-40.039,-31.250,-56.641,0.000
1709196867.206,-40.527,-38.086,-27.832,-45.410,0.000
1709196867.210,-40.527,-39.062,-30.762,-39.551,0.000
1709196867.214,-31.250,-43.457,-29.297,-50.293,0.000
1709196867.218,-40.039,-48.340,-28.809,-44.434,0.000
1709196867.222,-51.758,-50.293,-33.203,-30.762,0.000
1709196867.226,-19.531,-39.551,-30.273,-30.762,0.000
1709196867.230,-12.695,-39.062,-27.344,-39.551,0.000
1709196867.234,-43.945,-51.758,-31.738,-41.992,0.000
1709196867.237,-53.711,-52.734,-27.832,-34.668,0.000
1709196867.241,-47.852,-44.434,-29.297,-31.250,0.000
1709196867.245,-40.039,-41.016,-37.109,-35.645,0.000
1709196867.249,-33.691,-52.246,-35.156,-34.180,0.000
1709196867.253,-33.691,-61.523,-27.832,-19.043,0.000
1709196867.257,-39.062,-50.781,-22.949,-16.602,0.000
1709196867.261,-32.227,-34.180,-28.809,-31.738,0.000
1709196867.265,-31.738,-24.414,-39.062,-23.926,0.000
1709196867.269,-26.855,-9.766,-41.992,-22.461,0.000
1709196867.273,-2.930,-0.488,-47.852,-32.227,0.000
1709196867.276,-16.602,-2.930,-49.805,-41.504,0.000
1709196867.280,-24.902,-0.977,-50.781,-35.645,0.000
1709196867.284,-5.859,5.371,-59.082,-20.996,0.000
1709196867.288,1.953,6.836,-54.199,-24.902,0.000
1709196867.292,-0.977,5.371,-55.176,-37.109,0.000
1709196867.296,-8.789,5.371,-53.223,-40.527,0.000
1709196867.300,-8.301,4.883,-53.711,-41.016,0.000
1709196867.304,-5.859,3.418,-59.082,-35.645,0.000
1709196867.308,-5.859,-0.977,-53.711,-27.344,0.000
1709196867.312,-11.719,-4.883,-46.875,-31.250,0.000
1709196867.316,-21.484,-5.859,-44.434,-39.551,0.000
1709196867.319,-16.602,-7.324,-46.875,-31.738,0.000
1709196867.323,-19.043,-16.113,-42.480,-12.207,0.000
1709196867.327,-27.832,-11.719,-46.875,-10.742,0.000
1709196867.331,-27.832,-15.625,-58.105,-30.762,0.000
1709196867.335,0.000,-24.414,-48.340,-44.922,0.000
1709196867.339,0.000,-14.160,-43.457,-38.574,0.000
1709196867.343,0.000,-15.625,-42.969,-26.855,0.000
1709196867.347,0.000,-17.578,-38.574,-20.508,0.000
1709196867.351,0.000,-15.137,-35.156,-14.648,0.000
1709196867.355,0.000,-25.391,-38.086,-22.949,0.000
1709196867.359,0.000,-26.855,-39.062,-21.484,0.000
1709196867.362,0.000,-28.320,-31.250,-6.836,0.000
1709196867.366,0.000,-32.715,-34.668,-3.418,0.000
1709196867.370,0.000,-31.738,-29.785,-9.766,0.000
1709196867.374,0.000,-25.879,-25.391,-22.949,0.000
1709196867.378,0.000,-21.973,-30.762,-26.855,0.000
1709196867.382,-23.926,-25.391,-39.551,-17.578,0.000
1709196867.386,-27.832,-24.414,-47.363,-14.648,0.000
1709196867.390,-20.996,-29.785,-46.387,-34.668,0.000
1709196867.394,-26.367,-34.180,-49.316,-52.246,0.000
1709196867.398,-27.832,-28.320,-49.316,-45.410,0.000
1709196867.401,-44.434,-31.738,-43.945,-43.457,0.000
1709196867.405,-42.480,-28.320,-41.504,-36.133,0.000
1709196867.409,-19.043,-20.508,-38.086,-20.996,0.000
1709196867.413,-27.344,-38.086,-34.668,-29.297,0.000
1709196867.417,-34.668,-37.109,-43.457,-31.738,0.000
1709196867.421,-29.785,-33.691,-47.363,-29.297,0.000
1709196867.425,-26.855,-35.645,-41.016,-30.273,0.000
1709196867.429,-21.484,-29.297,-40.039,-25.391,0.000
1709196867.433,-22.461,-29.297,-39.062,-29.297,0.000
1709196867.437,-20.996,-34.180,-44.434,-32.715,0.000
1709196867.441,-17.090,-37.109,-41.016,-26.367,0.000
1709196867.444,-22.949,-31.250,-35.156,-18.066,0.000
1709196867.448,-13.672,-36.133,-31.738,-9.766,0.000
1709196867.452,-18.555,-42.969,-35.156,-14.160,0.000
1709196867.456,-27.832,-34.668,-39.551,-24.902,0.000
1709196867.460,-23.926,-29.785,-36.133,-12.695,0.000
1709196867.464,-18.555,-27.832,-30.762,-0.488,0.000
1709196867.468,-17.090,-23.926,-31.738,-19.531,0.000
1709196867.472,-20.508,-24.414,-33.203,-33.203,0.000
1709196867.476,0.000,-29.785,-32.715,-32.227,0.000
1709196867.480,0.000,-39.551,-33.203,-29.297,0.000
1709196867.484,0.000,-37.109,-33.691,-26.367,0.000
1709196867.487,0.000,-33.691,-28.320,-29.785,0.000
1709196867.491,0.000,-40.039,-22.949,-33.203,0.000
1709196867.495,0.000,-45.898,-26.367,-35.156,0.000
1709196867.499,0.000,-39.062,-32.715,-40.039,0.000
1709196867.503,0.000,-34.668,-30.273,-34.668,0.000
1709196867.507,0.000,-32.715,-31.250,-35.645,0.000
1709196867.511,0.000,-36.621,-39.062,-48.828,0.000
1709196867.515,0.000,-38.574,-39.551,-40.527,0.000
1709196867.519,0.000,-41.016,-41.992,-33.203,0.000
1709196867.523,-20.996,-43.945,-42.480,-39.062,0.000
1709196867.526,-28.809,-40.039,-35.156,-33.203,0.000
1709196867.530,-31.738,-40.527,-31.738,-30.762,0.000
1709196867.534,-28.809,-47.852,-33.691,-35.156,0.000
1709196867.538,-37.598,-49.805,-32.227,-34.668,0.000
1709196867.542,-26.855,-46.387,-32.715,-30.273,0.000
1709196867.546,-22.461,-43.457,-37.598,-29.297,0.000
1709196867.550,-21.973,-47.363,-39.062,-21.973,0.000
1709196867.554,-29.297,-47.852,-38.574,-23.438,0.000
1709196867.558,-31.250,-42.969,-40.039,-22.949,0.000
1709196867.562,-20.508,-44.434,-36.133,-18.555,0.000
1709196867.566,-13.672,-41.016,-32.227,-17.090,0.000
1709196867.569,-16.602,-36.621,-37.109,-19.531,0.000
1709196867.573,-24.414,-36.133,-31.250,-30.273,0.000
1709196867.577,-21.484,-36.621,-20.020,-21.973,0.000
1709196867.581,-36.621,-39.551,-20.508,-14.160,0.000
1709196867.585,-38.574,-45.410,-24.414,-14.160,0.000
1709196867.589,-37.109,-44.922,-25.879,-19.043,0.000
1709196867.593,-50.293,-39.551,-27.344,-21.973,0.000
1709196867.597,-62.500,-39.551,-29.297,-29.297,0.000
1709196867.601,-59.082,-40.527,-38.574,-49.316,0.000
1709196867.605,-38.086,-42.969,-38.574,-39.551,0.000
1709196867.608,-29.785,-51.758,-30.273,-23.438,0.000
1709196867.612,-47.363,-54.199,-23.438,-39.551,0.000
1709196867.616,-61.523,-57.617,-15.625,-46.387,0.000
1709196867.620,-57.617,-67.383,-3.906,-33.691,0.000
1709196867.624,-71.289,-77.148,-1.465,-28.809,0.000
1709196867.628,-67.383,-82.031,-1.465,-20.996,0.000
1709196867.632,-50.781,-82.031,0.977,-25.879,0.000
1709196867.636,-68.359,-85.449,7.324,-32.227,0.000
1709196867.640,-68.848,-84.473,8.789,-23.438,0.000
1709196867.644,-63.477,-81.543,-0.977,-31.250,0.000
1709196867.648,-52.246,-82.520,-4.395,-28.809,0.000
1709196867.651,-45.410,-78.125,-6.836,-24.902,0.000
1709196867.655,-50.781,-81.055,-10.254,-37.598,0.000
1709196867.659,-38.086,-94.727,-9.766,-30.762,0.000
1709196867.663,-35.156,-83.984,-11.719,-27.832,0.000
1709196867.667,-43.945,-73.242,-17.578,-46.875,0.000
1709196867.671,-48.340,-70.801,-23.926,-57.617,0.000
1709196867.675,-48.340,-56.641,-23.438,-53.223,0.000
1709196867.679,-51.270,-50.781,-18.555,-50.781,0.000
1709196867.683,-46.387,-61.523,-17.578,-26.367,0.000
1709196867.687,-25.879,-68.848,-26.367,-7.324,0.000
1709196867.690,-18.066,-62.012,-21.484,-17.578,0.000
1709196867.694,-34.180,-58.105,-14.160,-35.156,0.000
1709196867.698,-38.574,-57.617,-21.484,-41.016,0.000
1709196867.702,-34.180,-52.246,-21.973,-25.879,0.000
1709196867.706,-26.855,-51.758,-15.625,-8.789,0.000
1709196867.710,-22.461,-55.664,-16.113,-18.555,0.000
1709196867.714,-32.715,-58.594,-19.531,-31.250,0.000
1709196867.718,-52.734,-59.570,-23.438,-28.809,0.000
1709196867.722,-47.363,-56.152,-26.367,-20.020,0.000
1709196867.726,-31.250,-58.105,-21.973,-5.371,0.000
1709196867.730,-24.902,-58.594,-20.508,-5.371,0.000
1709196867.733,-27.344,-55.176,-24.902,-23.926,0.000
1709196867.737,-34.180,-61.035,-21.973,-19.043,0.000
1709196867.741,-20.996,-63.477,-21.484,4.883,0.000
1709196867.745,-5.859,-60.059,-21.973,7.812,0.000
1709196867.749,-20.020,-52.246,-16.602,-2.441,0.000
1709196867.753,-27.344,-40.527,-16.602,-10.742,0.000
1709196867.757,-34.668,-41.504,-20.508,-20.020,0.000
1709196867.761,-36.133,-41.992,-21.973,-25.391,0.000
1709196867.765,-27.344,-41.992,-21.484,-19.531,0.000
1709196867.769,-18.066,-43.457,-21.973,-11.230,0.000
1709196867.773,-20.020,-45.898,-16.602,-20.020,0.000
1709196867.776,-39.062,-52.246,-17.578,-36.621,0.000
1709196867.780,-37.109,-43.945,-26.367,-33.203,0.000
1709196867.784,-24.414,-42.969,-27.832,-18.555,0.000
1709196867.788,-32.715,-47.852,-28.320,-25.391,0.000
1709196867.792,-30.762,-43.457,-30.273,-41.504,0.000
1709196867.796,-31.738,-37.109,-30.273,-51.758,0.000
1709196867.800,-33.691,-35.645,-33.691,-41.016,0.000
1709196867.804,-24.414,-45.898,-33.691,-16.602,0.000
1709196867.808,-22.949,-51.270,-28.809,-17.090,0.000
1709196867.812,-26.367,-38.086,-32.715,-30.762,0.000
1709196867.816,-32.715,-29.785,-35.645,-33.691,0.000
1709196867.819,-28.809,-38.574,-26.367,-22.949,0.000
1709196867.823,-30.762,-53.711,-29.785,-23.438,0.000
1709196867.827,-36.621,-37.598,-32.227,-31.250,0.000
1709196867.831,-41.504,-23.926,-33.203,-37.109,0.000
1709196867.835,-48.828,-31.250,-35.645,-34.180,0.000
1709196867.839,-47.852,-32.227,-33.691,-33.203,0.000
1709196867.843,-41.016,-31.738,-35.645,-35.645,0.000
1709196867.847,-34.180,-40.527,-36.621,-27.344,0.000
1709196867.851,-38.574,-45.410,-37.109,-28.320,0.000
1709196867.855,-45.410,-38.086,-32.715,-39.551,0.000
1709196867.858,-52.734,-33.691,-33.203,-50.781,0.000
1709196867.862,-35.645,-26.367,-29.785,-30.273,0.000
1709196867.866,-20.508,-30.762,-24.414,-17.090,0.000
1709196867.870,-28.320,-39.062,-30.273,-27.344,0.000
1709196867.874,-31.738,-38.574,-29.785,-43.457,0.000
1709196867.878,-33.691,-43.945,-24.902,-46.875,0.000
1709196867.882,-40.039,-40.039,-22.461,-29.297,0.000
1709196867.886,-39.551,-33.691,-30.762,-18.066,0.000
1709196867.890,-20.996,-37.109,-34.180,-25.879,0.000
1709196867.894,-18.555,-34.668,-25.879,-25.879,0.000
1709196867.898,-38.574,-40.039,-26.855,-14.160,0.000
1709196867.901,-35.645,-40.039,-28.320,-16.113,0.000
1709196867.905,-36.621,-24.902,-32.715,-13.184,0.000
1709196867.909,-30.762,-36.621,-34.668,-23.438,0.000
1709196867.913,-19.531,-36.133,-32.715,-25.879,0.000
1709196867.917,-24.902,-19.531,-27.832,-25.879,0.000
1709196867.921,-23.926,-24.414,-29.297,-29.785,0.000
1709196867.925,-15.137,-27.344,-35.156,-11.230,0.000
1709196867.929,-15.137,-21.973,-29.785,-13.672,0.000
1709196867.933,-15.137,-24.902,-31.738,-34.668,0.000
1709196867.937,-4.883,-29.297,-36.621,-39.062,0.000
1709196867.940,-23.926,-39.551,-31.738,-40.039,0.000
1709196867.944,-34.668,-34.668,-32.227,-34.668,0.000
1709196867.948,-22.461,-28.809,-31.250,-27.344,0.000
1709196867.952,-20.996,-32.715,-29.297,-35.156,0.000
1709196867.956,-32.715,-42.969,-38.086,-46.875,0.000
1709196867.960,-35.645,-44.922,-40.527,-41.992,0.000
1709196867.964,-35.156,-33.691,-39.062,-25.391,0.000
1709196867.968,-31.738,-35.156,-38.574,-20.508,0.000
1709196867.972,-25.879,-34.180,-34.668,-19.043,0.000
1709196867.976,-26.367,-28.320,-42.969,-30.762,0.000
1709196867.980,-37.109,-34.180,-39.062,-41.504,0.000
1709196867.983,-46.387,-46.875,-30.273,-40.527,0.000
1709196867.987,-26.855,-49.316,-31.738,-38.086,0.000
1709196867.991,-24.414,-47.852,-24.902,-36.621,0.000
1709196867.995,-44.434,-43.945,-26.855,-44.922,0.000
1709196867.999,-49.316,-23.926,-30.273,-55.664,0.000
1709196868.003,-43.945,-11.719,-22.949,-40.527,0.000
1709196868.007,-35.156,-20.020,-21.973,-28.320,0.000
1709196868.011,-27.832,-25.879,-19.531,-32.227,0.000
1709196868.015,-36.133,-24.902,-18.555,-33.203,0.000
1709196868.019,-41.504,-29.297,-23.438,-34.668,0.000
1709196868.022,-31.250,-33.203,-22.949,-27.344,0.000
1709196868.026,-21.484,-36.133,-21.973,-14.160,0.000
1709196868.030,-23.438,-37.109,-22.461,-2.441,0.000
1709196868.034,-20.508,-38.574,-25.391,-19.531,0.000
1709196868.038,-20.508,-46.387,-26.367,-37.598,0.000
1709196868.042,-33.203,-42.969,-28.320,-28.320,0.000
1709196868.046,-29.785,-36.621,-35.156,-29.297,0.000
1709196868.050,-31.738,-35.645,-35.156,-37.109,0.000
1709196868.054,-35.645,-40.527,-32.227,-44.922,0.000
1709196868.058,-42.480,-46.875,-30.273,-50.293,0.000
1709196868.062,-39.062,-42.969,-27.344,-32.227,0.000
1709196868.065,-29.297,-46.875,-33.203,-21.973,0.000
1709196868.069,-24.902,-43.457,-35.156,-37.109,0.000
1709196868.073,-34.668,-45.898,-28.320,-37.109,0.000
1709196868.077,-31.738,-49.316,-25.879,-32.227,0.000
1709196868.081,-10.742,-36.621,-28.320,-30.762,0.000
1709196868.085,-34.180,-32.715,-33.691,-30.273,0.000
1709196868.089,-41.992,-41.016,-29.785,-34.668,0.000
1709196868.093,-32.227,-36.133,-25.879,-37.109,0.000
1709196868.097,-41.992,-33.203,-27.344,-42.969,0.000
1709196868.101,-41.504,-37.109,-29.785,-41.016,0.000
1709196868.105,-31.738,-35.156,-35.156,-32.715,0.000
1709196868.108,-33.691,-38.086,-33.203,-36.621,0.000
1709196868.112,-44.434,-50.293,-31.250,-43.457,0.000
1709196868.116,-49.316,-44.434,-29.297,-37.109,0.000
1709196868.120,-39.062,-41.504,-22.461,-20.020,0.000
1709196868.124,-30.762,-42.480,-23.926,-8.789,0.000
1709196868.128,-25.879,-35.156,-27.832,-26.367,0.000
1709196868.132,-26.367,-29.785,-30.273,-44.922,0.000
1709196868.136,-51.270,-30.273,-27.832,-42.969,0.000
1709196868.140,-52.734,-33.691,-29.785,-48.828,0.000
1709196868.144,-40.039,-26.855,-39.551,-39.551,0.000
1709196868.147,-42.969,-28.320,-34.180,-26.855,0.000
1709196868.151,-50.293,-31.250,-25.391,-42.480,0.000
1709196868.155,-51.270,-28.809,-31.738,-41.504,0.000
1709196868.159,-47.363,-37.598,-31.738,-30.273,0.000
1709196868.163,-43.457,-44.922,-22.461,-35.645,0.000
1709196868.167,-44.434,-41.992,-25.391,-31.250,0.000
1709196868.171,-42.969,-28.809,-23.926,-31.738,0.000
1709196868.175,-39.062,-36.133,-23.926,-52.734,0.000
1709196868.179,-43.945,-43.945,-30.273,-60.059,0.000
1709196868.183,-50.781,-38.086,-35.645,-51.270,0.000
1709196868.187,-45.898,-40.527,-38.086,-44.922,0.000
1709196868.190,-33.203,-35.645,-30.273,-39.551,0.000
1709196868.194,-28.809,-44.434,-23.926,-32.715,0.000
1709196868.198,-40.039,-53.711,-27.832,-26.367,0.000
1709196868.202,-33.691,-43.945,-36.133,-32.227,0.000
1709196868.206,-19.043,-36.133,-40.039,-40.527,0.000
1709196868.210,-25.879,-34.668,-38.574,-33.691,0.000
1709196868.214,-39.551,-38.086,-42.480,-49.316,0.000
1709196868.218,-27.832,-41.016,-33.691,-55.176,0.000
1709196868.222,-13.672,-31.250,-20.508,-43.457,0.000
1709196868.226,-26.367,-40.039,-21.973,-28.320,0.000
1709196868.230,-18.066,-45.410,-26.367,-26.367,0.000
1709196868.233,-14.648,-34.180,-31.738,-41.992,0.000
1709196868.237,-30.273,-33.691,-34.180,-46.875,0.000
1709196868.241,-35.645,-25.879,-34.180,-44.922,0.000
1709196868.245,-20.996,-26.855,-31.250,-35.156,0.000
1709196868.249,-5.371,-41.992,-27.832,-30.762,0.000
1709196868.253,-9.277,-42.480,-26.367,-37.598,0.000
1709196868.257,-25.879,-26.855,-37.109,-35.645,0.000
1709196868.261,-42.969,-26.367,-39.062,-41.504,0.000
1709196868.265,-34.180,-39.062,-21.973,-41.016,0.000
1709196868.269,-21.973,-38.086,-24.414,-36.133,0.000
1709196868.272,-19.043,-43.457,-35.645,-32.715,0.000
1709196868.276,-36.133,-52.734,-35.645,-45.898,0.000
1709196868.280,-45.898,-36.621,-30.762,-49.805,0.000
1709196868.284,-43.457,-31.250,-32.715,-39.551,0.000
1709196868.288,-41.016,-38.574,-33.691,-41.992,0.000
1709196868.292,-48.340,-34.668,-33.203,-40.527,0.000
1709196868.296,-46.875,-40.527,-29.785,-26.367,0.000
1709196868.300,-37.598,-50.293,-29.297,-24.414,0.000
1709196868.304,-45.898,-44.922,-32.715,-37.598,0.000
1709196868.308,-33.203,-43.457,-28.809,-34.668,0.000
1709196868.312,-27.344,-48.828,-26.367,-31.738,0.000
1709196868.315,-48.340,-44.922,-29.297,-41.992,0.000
1709196868.319,-51.758,-43.457,-25.879,-38.574,0.000
1709196868.323,-26.855,-42.480,-25.879,-32.227,0.000
1709196868.327,-27.344,-48.828,-28.809,-26.855,0.000
1709196868.331,-46.875,-58.105,-33.203,-33.203,0.000
1709196868.335,-50.293,-49.316,-28.320,-39.551,0.000
1709196868.339,-41.992,-42.480,-31.250,-35.156,0.000
1709196868.343,-41.016,-42.969,-39.062,-25.879,0.000
1709196868.347,-50.781,-43.945,-37.109,-23.926,0.000
1709196868.351,-47.363,-41.504,-28.809,-43.457,0.000
1709196868.354,-43.457,-33.203,-20.020,-42.969,0.000
1709196868.358,-43.945,-41.992,-15.625,-30.273,0.000
1709196868.362,-36.621,-43.945,-17.090,-18.555,0.000
1709196868.366,-25.879,-32.715,-26.855,-19.531,0.000
1709196868.370,-25.391,-29.297,-30.762,-37.109,0.000
1709196868.374,-23.926,-27.344,-29.297,-31.250,0.000
1709196868.378,-17.578,-16.113,-33.203,-29.297,0.000
1709196868.382,-16.113,-7.324,-41.992,-35.156,0.000
1709196868.386,-15.625,-1.465,-51.270,-28.320,0.000
1709196868.390,3.906,9.277,-51.758,-20.508,0.000
1709196868.394,-9.277,14.160,-52.734,-29.785,0.000
1709196868.397,-32.715,11.230,-54.199,-36.133,0.000
1709196868.401,-20.508,13.672,-45.898,-28.320,0.000
1709196868.405,-8.789,7.812,-42.480,-20.020,0.000
1709196868.409,-9.766,12.695,-48.340,-28.320,0.000
1709196868.413,-13.672,21.484,-42.969,-34.180,0.000
1709196868.417,-23.926,15.137,-42.969,-28.809,0.000
1709196868.421,-34.668,12.695,-51.270,-33.691,0.000
1709196868.425,-36.621,0.977,-49.316,-41.504,0.000
1709196868.429,-23.926,-17.090,-44.434,-25.391,0.000
1709196868.433,-16.602,-14.648,-39.062,-30.273,0.000
1709196868.436,-32.227,-20.020,-35.156,-41.992,0.000
1709196868.440,-45.898,-12.695,-42.480,-42.969,0.000
1709196868.444,-42.480,-3.906,-48.340,-36.621,0.000
1709196868.448,-22.949,-10.742,-49.316,-29.297,0.000
1709196868.452,-31.738,-8.789,-53.711,-39.062,0.000
1709196868.456,-50.781,-15.625,-45.410,-46.387,0.000
1709196868.460,-41.016,-21.484,-36.133,-21.484,0.000
1709196868.464,-28.809,-19.043,-36.133,-9.277,0.000
1709196868.468,-26.367,-31.738,-36.133,-30.762,0.000
1709196868.472,-22.461,-37.109,-34.180,-31.250,0.000
1709196868.476,-20.020,-29.785,-31.738,-35.645,0.000
1709196868.479,-34.668,-27.832,-29.785,-35.645,0.000
1709196868.483,-33.691,-23.926,-30.762,-19.043,0.000
1709196868.487,-20.508,-24.414,-31.250,-14.160,0.000
1709196868.491,-15.625,-32.227,-34.180,-21.973,0.000
1709196868.495,-10.742,-35.645,-26.855,-26.367,0.000
1709196868.499,-32.715,-34.180,-31.250,-31.738,0.000
1709196868.503,-36.133,-32.227,-38.086,-23.438,0.000
1709196868.507,-22.461,-28.809,-35.156,-18.066,0.000
1709196868.511,-15.625,-31.250,-37.598,-26.855,0.000
1709196868.515,-18.066,-41.016,-40.039,-33.203,0.000
1709196868.519,-20.996,-46.875,-43.457,-36.133,0.000
1709196868.522,-23.926,-45.410,-43.945,-35.156,0.000
1709196868.526,-25.391,-32.715,-41.016,-23.438,0.000
1709196868.530,-24.414,-35.645,-38.086,-18.066,0.000
1709196868.534,-29.297,-41.992,-34.180,-32.227,0.000
1709196868.538,-36.133,-34.180,-34.180,-37.109,0.000
1709196868.542,-28.320,-32.715,-30.273,-12.207,0.000
1709196868.546,-14.160,-34.668,-28.809,-14.648,0.000
1709196868.550,-18.555,-41.992,-33.203,-30.762,0.000
1709196868.554,-22.461,-44.434,-33.203,-34.668,0.000
1709196868.558,-26.367,-50.781,-31.738,-29.785,0.000
1709196868.562,-18.555,-47.363,-30.762,-15.625,0.000
1709196868.565,0.488,-40.527,-34.180,-16.113,0.000
1709196868.569,-24.902,-49.805,-30.273,-20.996,0.000
1709196868.573,-39.062,-47.363,-28.320,-30.273,0.000
1709196868.577,-37.598,-40.039,-28.320,-27.832,0.000
1709196868.581,-39.551,-42.480,-32.227,-6.348,0.000
1709196868.585,-29.785,-43.945,-34.180,12.207,0.000
1709196868.589,-19.531,-44.922,-25.879,5.859,0.000
1709196868.593,-26.367,-43.945,-21.973,-3.906,0.000
1709196868.597,-30.762,-48.340,-24.414,-6.348,0.000
1709196868.601,0.000,-47.852,-33.691,-3.906,0.000
1709196868.604,0.000,-41.504,-36.621,-10.254,0.000
1709196868.608,0.000,-38.086,-25.391,-12.695,0.000
1709196868.612,0.000,-45.410,-22.461,-18.555,0.000
1709196868.616,0.000,-50.293,-25.879,-21.973,0.000
1709196868.620,0.000,-54.688,-32.227,-21.484,0.000
1709196868.624,0.000,-50.781,-31.738,-31.738,0.000
1709196868.628,0.000,-40.527,-24.902,-25.879,0.000
1709196868.632,0.000,-53.711,-27.344,-20.508,0.000
1709196868.636,0.000,-54.688,-29.297,-35.645,0.000
1709196868.640,0.000,-43.945,-23.438,-37.109,0.000
1709196868.644,0.000,-31.738,-22.461,-27.832,0.000
1709196868.647,-42.480,-23.438,-29.297,-28.809,0.000
1709196868.651,-43.457,-28.809,-28.809,-38.574,0.000
1709196868.655,-50.293,-32.227,-27.832,-46.387,0.000
1709196868.659,-41.016,-41.016,-25.879,-40.527,0.000
1709196868.663,-24.414,-42.480,-26.855,-32.715,0.000
1709196868.667,-23.438,-37.598,-30.762,-31.250,0.000
1709196868.671,-33.691,-44.434,-30.273,-38.574,0.000
1709196868.675,-47.852,-34.180,-28.809,-40.527,0.000
1709196868.679,-43.945,-22.949,-32.715,-35.645,0.000
1709196868.683,-31.738,-33.203,-34.180,-37.109,0.000
1709196868.686,-34.180,-37.109,-30.762,-33.203,0.000
1709196868.690,-27.832,-23.438,-27.832,-38.086,0.000
1709196868.694,-44.434,-33.203,-25.879,-43.457,0.000
1709196868.698,-52.734,-46.875,-23.438,-35.645,0.000
1709196868.702,-41.016,-34.180,-24.414,-28.809,0.000
1709196868.706,-37.109,-28.809,-24.414,-27.344,0.000
1709196868.710,-37.109,-37.598,-29.785,-28.320,0.000
1709196868.714,-46.387,-31.738,-40.039,-43.457,0.000
1709196868.718,-50.781,-27.832,-33.691,-45.410,0.000
1709196868.722,-43.945,-41.016,-28.320,-28.320,0.000
1709196868.726,-30.273,-41.016,-28.809,-18.555,0.000
1709196868.729,-23.926,-36.621,-25.391,-15.625,0.000
1709196868.733,-25.391,-39.551,-23.438,-27.344,0.000
1709196868.737,-27.832,-38.086,-26.367,-31.250,0.000
1709196868.741,-38.574,-37.598,-26.367,-23.926,0.000
1709196868.745,-28.320,-39.062,-24.902,-17.578,0.000
1709196868.749,-20.996,-41.504,-31.250,-23.438,0.000
1709196868.753,-36.621,-36.621,-32.227,-37.109,0.000
1709196868.757,-42.969,-35.156,-32.227,-45.410,0.000
1709196868.761,-48.340,-30.273,-31.738,-47.363,0.000
1709196868.765,-43.945,-38.086,-33.691,-24.902,0.000
1709196868.768,-43.945,-66.895,-41.016,-20.020,0.000
1709196868.772,-44.434,-49.805,-34.180,-48.828,0.000
1709196868.776,-48.828,-24.902,-32.715,-57.617,0.000
1709196868.780,-49.805,-23.926,-39.551,-49.316,0.000
1709196868.784,-35.156,-34.180,-33.203,-36.621,0.000
1709196868.788,-34.180,-36.133,-31.738,-35.156,0.000
1709196868.792,-30.762,-28.809,-35.156,-54.199,0.000
1709196868.796,-37.109,-28.809,-27.832,-58.105,0.000
1709196868.800,-52.734,-30.762,-30.273,-48.340,0.000
1709196868.804,-45.898,-37.598,-41.504,-44.922,0.000
1709196868.808,-35.645,-35.645,-41.504,-40.527,0.000
1709196868.811,-39.062,-35.645,-41.992,-47.852,0.000
1709196868.815,-41.504,-41.504,-44.434,-53.223,0.000
1709196868.819,-44.922,-37.109,-41.016,-37.109,0.000
1709196868.823,-39.062,-22.461,-32.715,-29.297,0.000
1709196868.827,-35.156,-24.902,-30.762,-37.598,0.000
1709196868.831,-37.598,-36.621,-32.715,-47.852,0.000
1709196868.835,-37.598,-41.016,-32.715,-57.129,0.000
1709196868.839,-45.410,-47.852,-33.203,-42.969,0.000
1709196868.843,-43.457,-58.594,-32.227,-23.926,0.000
1709196868.847,-38.574,-51.758,-38.574,-25.391,0.000
1709196868.851,-24.902,-37.598,-48.340,-34.180,0.000
1709196868.854,-25.879,-38.574,-46.387,-40.527,0.000
1709196868.858,-55.664,-46.875,-39.551,-47.852,0.000
1709196868.862,-42.480,-41.504,-39.062,-36.133,0.000
1709196868.866,-29.785,-34.180,-41.504,-26.855,0.000
1709196868.870,-41.016,-40.527,-37.109,-29.785,0.000
1709196868.874,-39.062,-32.715,-34.668,-34.668,0.000
1709196868.878,-39.551,-24.902,-38.574,-42.480,0.000
1709196868.882,-33.203,-32.227,-37.598,-35.645,0.000
1709196868.886,-30.762,-34.668,-39.551,-31.250,0.000
1709196868.890,-25.391,-30.762,-34.180,-26.855,0.000
1709196868.893,-20.996,-32.227,-22.949,-17.578,0.000
1709196868.897,-30.762,-37.598,-34.668,-29.785,0.000
1709196868.901,-32.227,-30.762,-39.062,-40.527,0.000
1709196868.905,-19.043,-35.156,-20.020,-15.625,0.000
1709196868.909,-9.766,-48.828,-17.578,-14.648,0.000
1709196868.913,-11.230,-29.785,-24.902,-34.668,0.000
1709196868.917,-28.809,-19.531,-23.926,-33.203,0.000
1709196868.921,-36.621,-20.996,-17.090,-25.879,0.000
1709196868.925,-18.555,-28.809,-27.344,-10.254,0.000
1709196868.929,-7.324,-31.250,-33.691,-10.254,0.000
1709196868.933,-26.367,-24.414,-28.320,-41.016,0.000
1709196868.936,-34.180,-24.902,-28.320,-46.387,0.000
1709196868.940,-25.879,-31.738,-28.320,-27.344,0.000
1709196868.944,-20.996,-46.875,-26.855,-8.789,0.000
1709196868.948,-28.809,-50.293,-28.809,-21.484,0.000
1709196868.952,-32.227,-36.133,-27.832,-40.527,0.000
1709196868.956,-39.551,-35.156,-23.438,-42.480,0.000
1709196868.960,-45.898,-44.922,-23.926,-30.273,0.000
1709196868.964,-28.809,-45.410,-26.855,-19.043,0.000
1709196868.968,-5.371,-45.898,-22.949,-8.301,0.000
1709196868.972,-36.133,-40.039,-22.949,-16.602,0.000
1709196868.976,-53.223,-43.945,-26.855,-41.504,0.000
1709196868.979,-43.457,-50.781,-30.762,-51.270,0.000
1709196868.983,-41.504,-36.621,-25.391,-38.086,0.000
1709196868.987,-34.180,-36.621,-21.484,-20.996,0.000
1709196868.991,-23.438,-53.223,-24.902,-24.902,0.000
1709196868.995,-22.949,-46.875,-25.391,-41.992,0.000
1709196868.999,-35.156,-36.621,-29.785,-48.340,0.000
1709196869.003,-44.434,-31.250,-36.133,-41.504,0.000
1709196869.007,-41.992,-27.832,-38.086,-31.738,0.000
1709196869.011,-37.598,-38.086,-33.203,-34.180,0.000
1709196869.015,-27.344,-33.203,-31.250,-42.969,0.000
1709196869.018,-13.672,-24.902,-35.645,-42.480,0.000
1709196869.022,-31.738,-36.133,-41.504,-37.109,0.000
1709196869.026,-37.109,-40.527,-44.922,-39.551,0.000
1709196869.030,-30.762,-40.527,-44.434,-36.133,0.000
1709196869.034,-28.320,-45.410,-33.691,-38.086,0.000
1709196869.038,-39.062,-54.199,-32.227,-46.875,0.000
1709196869.042,-43.945,-51.270,-31.250,-42.480,0.000
1709196869.046,-37.598,-50.293,-28.809,-36.621,0.000
1709196869.050,-35.645,-46.875,-33.203,-31.250,0.000
1709196869.054,-33.691,-40.527,-32.715,-45.898,0.000
1709196869.058,-39.551,-42.969,-34.180,-53.223,0.000
1709196869.061,-44.434,-41.992,-38.574,-37.598,0.000
1709196869.065,-34.180,-50.781,-30.762,-27.832,0.000
1709196869.069,-20.020,-44.434,-28.320,-34.668,0.000
1709196869.073,-42.969,-32.227,-34.668,-38.086,0.000
1709196869.077,-53.223,-36.621,-28.809,-31.250,0.000
1709196869.081,-45.898,-35.156,-26.367,-38.086,0.000
1709196869.085,-44.922,-28.809,-29.785,-41.016,0.000
1709196869.089,-31.250,-33.691,-26.367,-35.156,0.000
1709196869.093,-26.367,-41.504,-20.996,-38.086,0.000
1709196869.097,-40.527,-41.016,-20.996,-37.109,0.000
1709196869.100,-45.410,-38.086,-18.555,-25.391,0.000
1709196869.104,-45.410,-42.480,-19.531,-27.832,0.000
1709196869.108,-48.828,-54.688,-26.855,-38.086,0.000
1709196869.112,-55.664,-52.246,-31.250,-46.387,0.000
1709196869.116,-52.246,-38.574,-24.414,-51.270,0.000
1709196869.120,-43.945,-34.668,-19.043,-41.504,0.000
1709196869.124,-37.598,-43.945,-19.043,-28.809,0.000
1709196869.128,-22.949,-49.316,-27.832,-31.250,0.000
1709196869.132,-28.809,-35.156,-38.574,-37.598,0.000
1709196869.136,-48.828,-36.621,-31.250,-39.062,0.000
1709196869.140,-36.621,-52.734,-19.531,-34.668,0.000
1709196869.143,-32.227,-45.410,-20.508,-41.016,0.000
1709196869.147,-27.344,-34.180,-25.879,-43.457,0.000
1709196869.151,-26.855,-32.227,-27.832,-36.621,0.000
1709196869.155,-32.227,-33.203,-28.809,-36.133,0.000
1709196869.159,-29.785,-34.180,-25.879,-35.645,0.000
1709196869.163,-27.832,-39.551,-19.531,-33.203,0.000
1709196869.167,-17.578,-45.898,-24.902,-36.133,0.000
1709196869.171,-22.949,-44.434,-30.762,-51.270,0.000
1709196869.175,-35.645,-45.410,-32.715,-50.293,0.000
1709196869.179,-36.133,-52.734,-38.086,-38.574,0.000
1709196869.182,-40.039,-51.758,-35.645,-31.738,0.000
1709196869.186,-35.156,-46.387,-33.691,-36.133,0.000
1709196869.190,-33.203,-45.410,-35.156,-48.340,0.000
1709196869.194,-39.062,-40.039,-28.320,-54.688,0.000
1709196869.198,-33.691,-43.945,-25.391,-45.410,0.000
1709196869.202,-29.785,-56.641,-31.738,-31.738,0.000
1709196869.206,-41.504,-54.199,-32.715,-28.320,0.000
1709196869.210,-39.551,-48.340,-32.227,-35.645,0.000
1709196869.214,-43.945,-52.246,-31.738,-44.434,0.000
1709196869.218,-49.316,-46.875,-33.691,-42.969,0.000
1709196869.222,-34.180,-48.828,-31.738,-26.855,0.000
1709196869.225,-27.832,-55.176,-24.902,-4.395,0.000
1709196869.229,-32.227,-48.340,-24.902,-16.113,0.000
1709196869.233,-25.879,-41.504,-26.855,-46.875,0.000
1709196869.237,-41.992,-41.504,-23.926,-42.480,0.000
1709196869.241,-50.781,-44.922,-24.902,-28.320,0.000
1709196869.245,-47.363,-46.387,-26.367,-18.066,0.000
1709196869.249,-26.855,-37.598,-23.438,-9.766,0.000
1709196869.253,-19.531,-39.551,-23.438,-21.973,0.000
1709196869.257,-41.992,-51.758,-26.367,-34.668,0.000
1709196869.261,-40.527,-43.457,-22.461,-27.344,0.000
1709196869.265,-28.809,-42.480,-24.414,-17.090,0.000
1709196869.268,-21.973,-53.223,-31.250,-16.602,0.000
1709196869.272,-29.297,-36.133,-29.785,-32.227,0.000
1709196869.276,-45.898,-33.203,-34.668,-49.316,0.000
1709196869.280,-32.227,-41.992,-41.992,-52.246,0.000
1709196869.284,-27.832,-40.039,-41.992,-52.246,0.000
1709196869.288,-45.898,-41.992,-38.086,-51.270,0.000
1709196869.292,-33.691,-37.598,-36.133,-49.316,0.000
1709196869.296,-39.551,-36.621,-31.250,-61.523,0.000
1709196869.300,-40.039,-36.133,-28.320,-55.664,0.000
1709196869.304,-17.578,-31.250,-24.414,-33.203,0.000
1709196869.308,-16.113,-33.691,-23.926,-25.879,0.000
1709196869.311,-33.691,-35.156,-25.879,-41.992,0.000
1709196869.315,-44.922,-38.574,-28.809,-53.223,0.000
1709196869.319,-24.414,-45.898,-29.297,-46.875,0.000
1709196869.323,-17.090,-44.922,-27.344,-23.926,0.000
1709196869.327,-29.785,-35.156,-27.832,-23.438,0.000
1709196869.331,-24.414,-27.344,-27.832,-38.086,0.000
1709196869.335,-35.645,-29.785,-29.297,-31.250,0.000
1709196869.339,-43.945,-28.809,-28.809,-22.461,0.000
1709196869.343,-41.992,-33.203,-30.762,-24.902,0.000
1709196869.347,-36.133,-38.574,-32.227,-28.320,0.000
1709196869.351,-26.855,-33.691,-24.414,-37.598,0.000
1709196869.354,-30.762,-41.016,-26.855,-40.039,0.000
1709196869.358,-37.109,-51.758,-38.574,-38.574,0.000
1709196869.362,-29.297,-47.363,-31.738,-44.922,0.000
1709196869.366,-17.090,-37.598,-18.555,-35.645,0.000
1709196869.370,-29.785,-41.504,-21.484,-24.414,0.000
1709196869.374,-44.434,-42.480,-26.367,-33.691,0.000
1709196869.378,-46.875,-42.480,-26.855,-40.527,0.000
1709196869.382,-38.574,-46.875,-22.949,-31.738,0.000
1709196869.386,-28.809,-44.434,-25.391,-34.668,0.000
1709196869.390,-23.438,-44.922,-21.484,-32.715,0.000
1709196869.393,-29.785,-48.340,-22.461,-35.156,0.000
1709196869.397,-47.363,-48.828,-30.762,-52.734,0.000
1709196869.401,-45.410,-56.641,-36.621,-48.340,0.000
1709196869.405,-23.438,-52.734,-34.668,-33.203,0.000
1709196869.409,-31.250,-47.363,-30.762,-34.180,0.000
1709196869.413,-26.367,-45.410,-28.809,-28.809,0.000
1709196869.417,-37.598,-44.922,-33.691,-31.250,0.000
1709196869.421,-57.617,-46.387,-37.598,-37.109,0.000
1709196869.425,-35.645,-45.898,-23.438,-19.531,0.000
1709196869.429,-25.879,-48.828,-27.344,-21.484,0.000
1709196869.433,-39.551,-42.969,-32.227,-34.668,0.000
1709196869.436,-50.293,-35.645,-28.809,-31.738,0.000
1709196869.440,-40.527,-31.738,-28.320,-29.297,0.000
1709196869.444,-21.973,-34.180,-25.391,-16.113,0.000
1709196869.448,-27.344,-42.969,-26.855,-16.602,0.000
1709196869.452,-24.902,-38.574,-28.809,-30.273,0.000
1709196869.456,-16.113,-23.926,-23.926,-36.133,0.000
1709196869.460,-38.574,-21.973,-23.926,-37.109,0.000
1709196869.464,-39.551,-29.785,-32.227,-39.551,0.000
1709196869.468,-28.809,-37.598,-35.156,-32.715,0.000
1709196869.472,-25.879,-44.922,-33.691,-27.344,0.000
1709196869.475,-27.344,-45.410,-32.227,-54.688,0.000
1709196869.479,-34.668,-44.434,-35.156,-63.477,0.000
1709196869.483,-36.621,-50.293,-35.645,-50.781,0.000
1709196869.487,-36.133,-47.363,-36.621,-58.594,0.000
1709196869.491,-28.320,-38.086,-34.668,-61.035,0.000
1709196869.495,-36.621,-41.504,-37.598,-57.129,0.000
1709196869.499,-48.340,-42.969,-39.062,-60.547,0.000
1709196869.503,-43.457,-49.805,-33.691,-48.340,0.000
1709196869.507,-27.344,-46.387,-27.832,-33.203,0.000
1709196869.511,-27.832,-33.691,-27.344,-35.645,0.000
1709196869.515,-27.832,-40.039,-23.438,-25.391,0.000
1709196869.518,-14.160,-41.992,-25.879,-26.367,0.000
1709196869.522,-33.691,-37.598,-37.598,-33.203,0.000
1709196869.526,-41.992,-38.574,-29.297,-13.672,0.000
1709196869.530,-37.598,-41.016,-23.438,-23.926,0.000
1709196869.534,-40.039,-44.434,-28.320,-47.363,0.000
1709196869.538,-40.039,-49.316,-30.273,-44.922,0.000
1709196869.542,-30.273,-46.387,-25.391,-31.250,0.000
1709196869.546,-35.156,-32.715,-22.949,-37.109,0.000
1709196869.550,-34.180,-30.762,-24.902,-40.039,0.000
1709196869.554,-20.020,-36.133,-23.438,-34.668,0.000
1709196869.557,-13.672,-34.180,-26.855,-41.992,0.000
1709196869.561,-5.859,-33.691,-27.344,-38.086,0.000
1709196869.565,-21.484,-33.691,-23.926,-33.203,0.000
1709196869.569,-20.020,-36.133,-22.461,-35.645,0.000
1709196869.573,-8.301,-33.203,-23.926,-28.809,0.000
1709196869.577,-12.695,-39.062,-25.391,-32.715,0.000
1709196869.581,-6.836,-40.039,-26.367,-34.668,0.000
1709196869.585,-3.418,-20.996,-25.879,-34.180,0.000
1709196869.589,-9.277,-31.738,-30.762,-34.668,0.000
1709196869.593,-20.996,-47.852,-37.109,-40.039,0.000
1709196869.597,-25.391,-40.039,-27.832,-44.922,0.000
1709196869.600,-19.531,-41.504,-31.250,-38.086,0.000
1709196869.604,-14.160,-49.316,-39.551,-27.832,0.000
1709196869.608,-12.207,-54.688,-26.855,-23.926,0.000
1709196869.612,-11.230,-50.293,-23.438,-31.738,0.000
1709196869.616,-26.855,-47.852,-28.320,-39.551,0.000
1709196869.620,-37.598,-52.246,-35.156,-32.715,0.000
1709196869.624,-25.391,-45.898,-34.180,-29.297,0.000
1709196869.628,-14.160,-50.293,-34.180,-31.738,0.000
1709196869.632,-32.715,-53.223,-35.156,-51.270,0.000
1709196869.636,-53.711,-49.805,-31.250,-62.012,0.000
1709196869.640,-39.062,-48.340,-31.250,-46.387,0.000
1709196869.643,-30.273,-43.945,-32.715,-38.086,0.000
1709196869.647,-29.785,-41.504,-30.762,-35.156,0.000
1709196869.651,-24.902,-41.016,-27.344,-40.039,0.000
1709196869.655,-30.762,-40.527,-28.809,-49.805,0.000
1709196869.659,-28.809,-41.016,-30.762,-45.410,0.000
1709196869.663,-31.738,-44.434,-27.832,-31.738,0.000
1709196869.667,-30.273,-43.945,-26.367,-20.996,0.000
1709196869.671,-26.855,-42.480,-24.414,-39.062,0.000
1709196869.675,-31.738,-44.434,-22.461,-56.152,0.000
1709196869.679,-27.832,-41.992,-23.926,-45.410,0.000
1709196869.682,-31.738,-41.992,-27.832,-38.574,0.000
1709196869.686,-30.273,-45.410,-26.367,-28.320,0.000
1709196869.690,-26.855,-43.457,-26.367,-25.391,0.000
1709196869.694,-32.715,-43.945,-24.902,-36.133,0.000
1709196869.698,-32.227,-48.828,-24.414,-26.855,0.000
1709196869.702,-32.227,-46.875,-24.902,-26.367,0.000
1709196869.706,-27.344,-36.621,-24.414,-36.133,0.000
1709196869.710,-33.691,-40.527,-25.879,-30.273,0.000
1709196869.714,-39.551,-41.992,-29.785,-38.574,0.000
1709196869.718,-23.926,-35.645,-31.250,-38.574,0.000
1709196869.722,-41.016,-32.715,-27.344,-29.785,0.000
1709196869.725,-41.504,-35.156,-34.180,-34.180,0.000
1709196869.729,-33.691,-43.457,-36.621,-38.574,0.000
1709196869.733,-44.922,-45.898,-27.832,-43.457,0.000
1709196869.737,-38.574,-44.434,-31.250,-49.805,0.000
1709196869.741,-29.297,-48.828,-34.668,-38.086,0.000
1709196869.745,-28.320,-49.316,-32.227,-31.250,0.000
1709196869.749,-26.367,-46.387,-33.203,-41.016,0.000
1709196869.753,-37.109,-41.016,-30.762,-41.992,0.000
1709196869.757,-46.387,-33.691,-28.320,-26.855,0.000
1709196869.761,-43.945,-39.062,-29.785,-37.598,0.000
1709196869.765,-23.926,-42.969,-33.203,-35.645,0.000
1709196869.768,-26.367,-42.969,-34.180,-24.414,0.000
1709196869.772,-49.316,-46.875,-30.762,-38.574,0.000
1709196869.776,-50.293,-47.852,-28.320,-44.434,0.000
1709196869.780,-43.457,-38.086,-28.320,-31.738,0.000
1709196869.784,-40.527,-33.203,-28.809,-23.438,0.000
1709196869.788,-36.621,-35.156,-26.855,-20.508,0.000
1709196869.792,-44.922,-52.246,-29.297,-22.949,0.000
1709196869.796,-46.875,-62.500,-31.738,-25.879,0.000
1709196869.800,-44.434,-56.152,-33.203,-26.367,0.000
1709196869.804,-48.340,-46.387,-37.598,-29.785,0.000
1709196869.807,-44.434,-39.551,-34.668,-35.645,0.000
1709196869.811,-38.086,-37.109,-31.250,-46.875,0.000
1709196869.815,-39.551,-38.574,-27.832,-56.641,0.000
1709196869.819,-37.109,-36.621,-24.414,-46.875,0.000
1709196869.823,-28.320,-32.227,-26.855,-43.945,0.000
1709196869.827,-39.551,-36.133,-29.297,-44.922,0.000
1709196869.831,-43.457,-38.574,-30.273,-40.527,0.000
1709196869.835,-40.527,-46.387,-25.879,-41.992,0.000
1709196869.839,-36.133,-56.641,-20.996,-36.621,0.000
1709196869.843,-33.691,-48.340,-27.344,-21.973,0.000
1709196869.847,-36.621,-41.016,-35.645,-37.109,0.000
1709196869.850,-41.992,-35.156,-35.645,-64.941,0.000
1709196869.854,-46.875,-37.598,-34.180,-69.336,0.000
1709196869.858,-38.574,-42.969,-33.691,-61.035,0.000
1709196869.862,-34.180,-38.086,-33.691,-55.176,0.000
1709196869.866,-33.691,-35.156,-35.645,-58.594,0.000
1709196869.870,-11.719,-34.668,-29.785,-54.199,0.000
1709196869.874,-24.902,-39.551,-28.320,-50.293,0.000
1709196869.878,-54.199,-38.574,-33.691,-39.062,0.000
1709196869.882,-40.039,-41.992,-40.039,-31.250,0.000
1709196869.886,-30.762,-51.270,-40.039,-39.062,0.000
1709196869.889,-38.574,-46.387,-31.738,-40.527,0.000
1709196869.893,-41.992,-35.645,-27.832,-50.293,0.000
1709196869.897,-38.086,-34.668,-29.785,-57.129,0.000
1709196869.901,-33.691,-41.992,-31.250,-37.109,0.000
1709196869.905,-22.461,-50.293,-20.996,-9.277,0.000
1709196869.909,-24.414,-47.363,-24.902,-23.926,0.000
1709196869.913,-44.922,-40.527,-32.715,-49.805,0.000
1709196869.917,-41.992,-32.715,-31.250,-48.828,0.000
1709196869.921,-24.902,-28.320,-37.109,-41.992,0.000
1709196869.925,-40.039,-35.645,-33.203,-36.621,0.000
1709196869.929,-46.875,-47.363,-29.297,-25.879,0.000
1709196869.932,-36.133,-44.434,-22.949,-16.602,0.000
1709196869.936,-40.527,-38.086,-24.414,-27.832,0.000
1709196869.940,-35.156,-40.039,-25.391,-27.344,0.000
1709196869.944,-22.461,-47.852,-26.367,-20.508,0.000
1709196869.948,-23.438,-46.875,-30.273,-19.531,0.000
1709196869.952,-32.227,-35.156,-29.785,-25.879,0.000
1709196869.956,-37.109,-34.180,-30.762,-32.227,0.000
1709196869.960,0.000,-39.551,-26.367,-23.438,0.000
1709196869.964,0.000,-46.387,-31.738,-11.230,0.000
1709196869.968,0.000,-51.758,-28.320,-1.953,0.000
1709196869.971,0.000,-50.781,-19.531,-16.113,0.000
1709196869.975,0.000,-33.691,-30.273,-41.016,0.000
1709196869.979,0.000,-24.902,-27.832,-36.133,0.000
1709196869.983,0.000,-30.273,-23.438,-22.949,0.000
1709196869.987,0.000,-35.156,-30.762,-23.438,0.000
1709196869.991,0.000,-40.527,-33.203,-30.273,0.000
1709196869.995,0.000,-40.527,-32.715,-26.367,0.000
1709196869.999,0.000,-46.875,-37.109,-31.738,0.000
1709196870.003,0.000,-49.316,-30.762,-30.273,0.000
1709196870.007,-37.109,-39.551,-26.367,-22.461,0.000
1709196870.011,-29.785,-39.551,-31.738,-32.227,0.000
1709196870.014,-35.645,-35.156,-29.297,-40.527,0.000
1709196870.018,-26.855,-32.227,-30.273,-41.504,0.000
1709196870.022,-14.648,-29.297,-34.668,-36.621,0.000
1709196870.026,-23.926,-28.320,-30.273,-29.785,0.000
1709196870.030,-26.367,-31.738,-29.297,-34.668,0.000
1709196870.034,-33.203,-30.273,-34.668,-51.270,0.000
1709196870.038,-50.781,-38.086,-41.016,-47.852,0.000
1709196870.042,-54.688,-45.898,-41.992,-26.855,0.000
1709196870.046,-41.504,-45.898,-38.574,-36.621,0.000
1709196870.050,-34.180,-35.645,-33.691,-40.527,0.000
1709196870.054,-33.203,-34.668,-30.273,-34.180,0.000
1709196870.057,-34.668,-42.480,-32.227,-33.203,0.000
1709196870.061,-20.020,-43.945,-34.180,-32.227,0.000
1709196870.065,-21.973,-45.898,-32.227,-35.645,0.000
1709196870.069,-40.039,-39.551,-32.227,-34.668,0.000
1709196870.073,-41.992,-44.434,-36.621,-35.156,0.000
1709196870.077,-42.969,-44.922,-31.738,-32.715,0.000
1709196870.081,-29.785,-40.039,-26.855,-14.648,0.000
1709196870.085,-20.508,-44.434,-35.645,-13.184,0.000
1709196870.089,-22.949,-46.875,-33.691,-30.762,0.000
1709196870.093,-24.414,-41.504,-30.273,-41.016,0.000
1709196870.097,-32.715,-39.551,-34.668,-50.781,0.000
1709196870.100,-37.109,-46.387,-32.715,-56.152,0.000
1709196870.104,-23.926,-52.246,-41.016,-60.059,0.000
1709196870.108,-21.484,-47.363,-38.574,-62.012,0.000
1709196870.112,-53.223,-41.992,-27.344,-65.918,0.000
1709196870.116,-61.523,-53.223,-35.156,-68.359,0.000
1709196870.120,-49.316,-48.340,-36.621,-58.105,0.000
1709196870.124,-47.852,-43.945,-35.156,-58.105,0.000
1709196870.128,-33.691,-47.852,-33.691,-47.363,0.000
1709196870.132,-33.203,-44.922,-36.621,-37.598,0.000
1709196870.136,-29.297,-44.434,-41.992,-52.246,0.000
1709196870.139,-17.578,-43.945,-41.016,-58.594,0.000
1709196870.143,-28.809,-43.457,-39.062,-36.621,0.000
1709196870.147,-31.250,-43.945,-37.598,-26.855,0.000
1709196870.151,-37.109,-38.574,-35.156,-39.551,0.000
1709196870.155,-47.852,-35.645,-30.762,-48.340,0.000
1709196870.159,-45.898,-40.039,-33.203,-40.039,0.000
1709196870.163,-30.273,-44.434,-31.250,-13.672,0.000
1709196870.167,-16.113,-40.527,-26.855,-19.043,0.000
1709196870.171,-26.855,-40.039,-34.180,-45.410,0.000
1709196870.175,-37.598,-46.387,-40.039,-50.293,0.000
1709196870.179,-31.250,-37.109,-37.598,-47.363,0.000
1709196870.182,-41.992,-25.391,-36.133,-38.086,0.000
1709196870.186,-43.457,-30.273,-41.992,-28.809,0.000
1709196870.190,-34.668,-43.945,-41.016,-30.273,0.000
1709196870.194,-33.203,-48.828,-35.156,-42.969,0.000
1709196870.198,-37.109,-48.340,-32.227,-41.992,0.000
1709196870.202,-36.621,-47.363,-33.203,-32.227,0.000
1709196870.206,-26.367,-38.574,-35.156,-25.391,0.000
1709196870.210,-20.508,-22.949,-32.227,-26.367,0.000
1709196870.214,-14.648,-28.320,-29.785,-37.109,0.000
1709196870.218,-23.438,-39.551,-26.367,-33.691,0.000
1709196870.221,-42.480,-41.504,-24.414,-19.531,0.000
1709196870.225,-29.297,-43.945,-28.809,-19.531,0.000
1709196870.229,-21.484,-48.828,-28.320,-15.137,0.000
1709196870.233,-33.691,-55.176,-28.809,-27.832,0.000
1709196870.237,-44.434,-45.898,-26.367,-38.574,0.000
1709196870.241,-33.203,-42.480,-21.973,-38.574,0.000
1709196870.245,-22.461,-50.781,-24.414,-38.574,0.000
1709196870.249,-47.363,-49.316,-21.484,-45.410,0.000
1709196870.253,-45.410,-46.875,-16.602,-46.387,0.000
1709196870.257,-43.945,-48.340,-15.625,-39.551,0.000
1709196870.261,-39.551,-50.781,-17.090,-27.832,0.000
1709196870.264,-22.949,-48.340,-22.949,-16.602,0.000
1709196870.268,-40.527,-47.852,-31.250,-38.086,0.000
1709196870.272,-41.016,-49.316,-32.715,-51.758,0.000
1709196870.276,-26.855,-46.387,-28.809,-54.199,0.000
1709196870.280,-45.410,-40.039,-33.203,-54.199,0.000
1709196870.284,-42.480,-43.457,-34.180,-42.480,0.000
1709196870.288,-30.762,-42.969,-31.738,-28.320,0.000
1709196870.292,-39.551,-41.992,-36.133,-33.203,0.000
1709196870.296,-44.434,-46.387,-30.762,-42.969,0.000
1709196870.300,-37.109,-45.898,-32.715,-39.551,0.000
1709196870.303,-34.668,-43.457,-35.156,-39.062,0.000
1709196870.307,-27.344,-44.922,-29.785,-39.062,0.000
1709196870.311,-33.691,-45.898,-35.156,-33.203,0.000
1709196870.315,-40.039,-46.875,-32.227,-35.156,0.000
1709196870.319,-18.555,-53.223,-25.391,-35.645,0.000
1709196870.323,-20.996,-54.199,-26.855,-32.227,0.000
1709196870.327,-26.855,-46.875,-32.227,-27.832,0.000
1709196870.331,-31.250,-39.062,-31.250,-33.203,0.000
1709196870.335,-38.574,-45.410,-30.762,-37.598,0.000
1709196870.339,-32.715,-42.969,-30.273,-28.320,0.000
1709196870.343,-27.344,-33.203,-27.344,-3.906,0.000
1709196870.346,-9.766,-41.504,-28.320,1.465,0.000
1709196870.350,2.930,-33.691,-31.250,-26.367,0.000
1709196870.354,-11.719,-32.227,-31.250,-31.738,0.000
1709196870.358,-35.156,-43.945,-34.668,-25.879,0.000
1709196870.362,-23.438,-43.457,-24.414,-26.855,0.000
1709196870.366,-18.066,-41.504,-22.949,-23.926,0.000
1709196870.370,-22.461,-35.645,-27.344,-19.043,0.000
1709196870.374,-31.250,-37.598,-28.320,-38.574,0.000
1709196870.378,-41.016,-48.340,-27.344,-45.898,0.000
1709196870.382,-42.480,-48.340,-23.438,-35.156,0.000
1709196870.386,-38.574,-42.969,-24.414,-26.367,0.000
1709196870.389,-35.156,-41.504,-26.855,-35.156,0.000
1709196870.393,-33.691,-37.109,-31.738,-51.758,0.000
1709196870.397,-37.109,-41.504,-34.180,-47.852,0.000
1709196870.401,-38.574,-45.410,-28.809,-35.156,0.000
1709196870.405,-27.344,-45.898,-29.785,-26.855,0.000
1709196870.409,-36.621,-46.875,-28.809,-25.391,0.000
1709196870.413,-47.852,-46.387,-25.879,-23.926,0.000
1709196870.417,-46.875,-43.945,-27.344,-12.695,0.000
1709196870.421,-47.852,-44.434,-27.832,-21.484,0.000
1709196870.425,-43.457,-42.480,-31.250,-26.855,0.000
1709196870.429,-49.316,-38.574,-32.715,-24.414,0.000
1709196870.432,-47.852,-34.180,-33.691,-44.922,0.000
1709196870.436,-42.969,-34.180,-32.227,-49.316,0.000
1709196870.440,-62.500,-47.363,-37.598,-43.945,0.000
1709196870.444,-56.152,-45.410,-34.180,-26.367,0.000
1709196870.448,-44.434,-36.133,-25.879,-15.137,0.000
1709196870.452,-49.316,-41.016,-30.273,-40.039,0.000
1709196870.456,-52.734,-41.504,-30.273,-49.805,0.000
1709196870.460,-45.410,-39.062,-26.855,-24.902,0.000
1709196870.464,-25.879,-38.574,-27.832,-10.742,0.000
1709196870.468,-25.391,-34.180,-31.738,-27.344,0.000
1709196870.471,-27.832,-32.715,-29.785,-40.527,0.000
1709196870.475,-16.113,-34.668,-30.273,-47.852,0.000
1709196870.479,-40.039,-37.598,-36.621,-53.223,0.000
1709196870.483,-41.992,-36.621,-34.668,-39.062,0.000
1709196870.487,-18.555,-37.598,-26.855,-34.180,0.000
1709196870.491,-27.832,-44.922,-26.367,-34.180,0.000
1709196870.495,-33.691,-36.621,-24.414,-31.250,0.000
1709196870.499,-27.832,-28.809,-25.391,-28.320,0.000
1709196870.503,-21.484,-40.039,-29.785,-24.902,0.000
1709196870.507,-10.254,-41.016,-32.715,-17.090,0.000
1709196870.511,-28.320,-27.832,-30.273,-21.973,0.000
1709196870.514,-41.992,-27.344,-27.832,-30.762,0.000
1709196870.518,-33.203,-33.691,-28.809,-34.180,0.000
1709196870.522,-23.926,-36.621,-34.180,-36.133,0.000
1709196870.526,-12.207,-46.875,-31.738,-27.832,0.000
1709196870.530,-22.461,-42.969,-30.273,-30.762,0.000
1709196870.534,-20.996,-36.133,-29.297,-45.898,0.000
1709196870.538,-26.367,-34.668,-30.273,-49.805,0.000
1709196870.542,-42.969,-30.273,-26.855,-31.738,0.000
1709196870.546,-25.879,-41.504,-31.250,-32.227,0.000
1709196870.550,-16.602,-63.477,-33.691,-33.203,0.000
1709196870.553,-37.109,-46.387,-27.344,-42.969,0.000
1709196870.557,-52.246,-31.250,-34.180,-50.781,0.000
1709196870.561,-43.457,-35.156,-38.086,-35.645,0.000
1709196870.565,-30.762,-35.645,-34.180,-29.297,0.000
1709196870.569,0.000,-33.691,0.000,-36.621,0.000
1709196870.573,0.000,-41.504,0.000,-44.922,0.000
1709196870.577,0.000,-40.527,0.000,-49.316,0.000
1709196870.581,0.000,-33.203,0.000,-43.945,0.000
1709196870.585,0.000,-43.457,0.000,-27.344,0.000
1709196870.589,0.000,-49.316,0.000,-33.691,0.000
1709196870.593,0.000,-51.758,0.000,-32.715,0.000
1709196870.596,0.000,-50.293,0.000,-24.414,0.000
1709196870.600,0.000,-48.340,0.000,-40.527,0.000
1709196870.604,0.000,-43.945,0.000,-37.109,0.000
1709196870.608,0.000,-41.504,0.000,-20.020,0.000
1709196870.612,0.000,-52.246,0.000,-20.020,0.000
1709196870.616,-35.645,-56.152,-33.203,-31.250,0.000
1709196870.620,-27.832,-49.805,-35.645,-24.902,0.000
1709196870.624,-22.949,-48.340,-35.156,-9.766,0.000
1709196870.628,-23.438,-58.105,-32.227,-22.949,0.000
1709196870.632,-21.973,-51.758,-28.320,-33.691,0.000
1709196870.635,-33.203,-35.645,-24.414,-37.598,0.000
1709196870.639,-32.715,-39.062,-26.855,-30.762,0.000
1709196870.643,-31.250,-50.781,-29.785,-25.391,0.000
1709196870.647,-38.574,-51.270,-32.227,-33.203,0.000
1709196870.651,-42.969,-46.387,-31.250,-40.039,0.000
1709196870.655,-47.852,-55.664,-28.320,-46.387,0.000
1709196870.659,-40.527,-56.641,-27.832,-36.133,0.000
1709196870.663,-35.156,-46.875,-31.738,-17.090,0.000
1709196870.667,-25.879,-47.363,-31.738,-18.066,0.000
1709196870.671,-7.812,-41.992,-22.461,-31.738,0.000
1709196870.675,-38.086,-37.109,-21.484,-44.434,0.000
1709196870.678,-48.828,-35.645,-20.020,-41.992,0.000
1709196870.682,-31.250,-34.180,-14.160,-25.879,0.000
1709196870.686,-21.973,-41.992,-18.555,-15.625,0.000
1709196870.690,-14.160,-41.016,-16.113,-20.020,0.000
1709196870.694,-15.625,-31.738,-10.254,-26.367,0.000
1709196870.698,-26.367,-34.668,-14.160,-17.578,0.000
1709196870.702,-32.715,-40.527,-17.578,-1.465,0.000
1709196870.706,-12.207,-34.180,-22.461,-2.930,0.000
1709196870.710,-6.836,-33.203,-26.855,-24.414,0.000
1709196870.714,-33.203,-39.551,-26.367,-44.434,0.000
1709196870.718,-50.781,-39.551,-32.715,-51.758,0.000
1709196870.721,-37.598,-39.551,-33.691,-50.781,0.000
1709196870.725,-25.391,-38.574,-32.715,-44.922,0.000
1709196870.729,-31.250,-34.668,-37.109,-45.410,0.000
1709196870.733,-42.969,-37.109,-37.598,-42.969,0.000
1709196870.737,-47.852,-37.109,-33.203,-44.434,0.000
1709196870.741,-17.578,-36.133,-29.785,-40.039,0.000
1709196870.745,-22.949,-45.410,-26.367,-19.043,0.000
1709196870.749,-42.480,-60.059,-27.832,-19.531,0.000
1709196870.753,-48.340,-47.363,-27.832,-32.715,0.000
1709196870.757,-52.734,-22.461,-28.320,-37.109,0.000
1709196870.761,-49.316,-21.973,-25.391,-35.156,0.000
1709196870.764,-46.875,-37.598,-30.273,-32.715,0.000
1709196870.768,-27.832,-43.945,-35.156,-34.668,0.000
1709196870.772,-45.410,-45.410,-31.250,-44.434,0.000
1709196870.776,-60.547,-46.387,-28.320,-44.434,0.000
1709196870.780,-42.480,-45.898,-29.785,-34.180,0.000
1709196870.784,-40.527,-43.457,-36.621,-31.738,0.000
1709196870.788,-41.992,-40.039,-36.621,-29.785,0.000
1709196870.792,-38.086,-38.574,-26.367,-24.902,0.000
1709196870.796,-40.039,-32.715,-26.855,-44.434,0.000
1709196870.800,-37.598,-31.738,-26.367,-38.574,0.000
1709196870.803,-33.203,-33.691,-23.438,-24.902,0.000
1709196870.807,-46.875,-33.691,-28.320,-46.387,0.000
1709196870.811,-44.922,-40.527,-28.809,-59.570,0.000
1709196870.815,-56.152,-48.828,-27.832,-63.965,0.000
1709196870.819,-57.129,-50.781,-28.320,-49.805,0.000
1709196870.823,-37.598,-49.805,-26.855,-31.738,0.000
1709196870.827,-31.250,-46.875,-28.809,-35.645,0.000
1709196870.831,-37.598,-55.664,-36.133,-43.457,0.000
1709196870.835,-42.480,-63.965,-31.738,-45.898,0.000
1709196870.839,-39.551,-50.781,-25.391,-48.340,0.000
1709196870.843,-53.711,-37.598,-33.203,-43.945,0.000
1709196870.846,-44.922,-39.062,-31.250,-31.250,0.000
1709196870.850,-20.020,-34.180,-30.273,-31.738,0.000
1709196870.854,-34.668,-35.156,-36.621,-47.363,0.000
1709196870.858,-51.270,-42.969,-34.668,-41.504,0.000
1709196870.862,-39.062,-39.062,-32.715,-22.461,0.000
1709196870.866,-22.461,-38.574,-33.203,-23.438,0.000
1709196870.870,-17.578,-44.434,-34.180,-41.992,0.000
1709196870.874,-30.273,-44.922,-35.156,-47.363,0.000
1709196870.878,-30.273,-42.480,-38.574,-46.387,0.000
1709196870.882,-23.926,-41.016,-33.203,-28.809,0.000
1709196870.886,-28.809,-31.250,-30.762,-22.461,0.000
1709196870.889,-28.809,-38.086,-33.691,-32.227,0.000
1709196870.893,-35.156,-48.340,-31.250,-40.039,0.000
1709196870.897,-40.039,-36.621,-35.156,-44.922,0.000
1709196870.901,-36.621,-33.203,-36.621,-43.457,0.000
1709196870.905,-45.898,-41.504,-30.762,-43.945,0.000
1709196870.909,-48.828,-48.828,-25.879,-39.551,0.000
1709196870.913,-50.781,-51.758,-34.180,-54.688,0.000
1709196870.917,-49.805,-46.387,-36.133,-59.570,0.000
1709196870.921,-45.898,-39.551,-27.832,-50.781,0.000
1709196870.925,-51.270,-39.551,-22.949,-28.320,0.000
1709196870.928,-43.457,-42.969,-27.832,-20.996,0.000
1709196870.932,-41.016,-45.898,-32.715,-44.922,0.000
1709196870.936,-40.527,-45.410,-32.715,-42.480,0.000
1709196870.940,-35.645,-39.062,-29.297,-33.203,0.000
1709196870.944,-23.926,-36.621,-23.438,-22.949,0.000
1709196870.948,-14.648,-38.574,-21.973,-24.902,0.000
1709196870.952,-14.648,-35.156,-25.879,-32.715,0.000
1709196870.956,-36.621,-39.551,-29.785,-33.203,0.000
1709196870.960,-40.527,-42.969,-28.809,-33.203,0.000
1709196870.964,-29.297,-37.109,-28.320,-35.645,0.000
1709196870.968,-41.504,-46.387,-30.273,-34.180,0.000
1709196870.971,-41.992,-48.828,-33.691,-32.227,0.000
1709196870.975,-25.879,-34.180,-32.715,-41.016,0.000
1709196870.979,-30.273,-29.297,-31.738,-37.598,0.000
1709196870.983,-24.902,-36.621,-37.598,-33.203,0.000
1709196870.987,-23.926,-36.133,-37.109,-37.109,0.000
1709196870.991,-41.504,-34.180,-38.574,-42.969,0.000
1709196870.995,-45.898,-42.480,-35.645,-37.109,0.000
1709196870.999,-37.109,-41.992,-33.203,-31.738,0.000
1709196871.003,-15.137,-38.574,-33.203,-28.320,0.000
1709196871.007,-20.996,-41.016,-33.203,-34.668,0.000
1709196871.010,-34.668,-35.156,-36.621,-45.410,0.000
1709196871.014,-33.691,-32.227,-31.738,-37.598,0.000
1709196871.018,-35.156,-41.016,-37.598,-31.250,0.000
1709196871.022,-20.508,-42.969,-38.574,-27.832,0.000
1709196871.026,-28.320,-44.922,-32.715,-29.297,0.000
1709196871.030,-39.551,-45.410,-34.668,-37.109,0.000
1709196871.034,-39.551,-42.480,-33.691,-36.133,0.000
1709196871.038,-36.133,-48.828,-32.227,-29.785,0.000
1709196871.042,-24.414,-47.852,-36.133,-19.043,0.000
1709196871.046,-20.996,-33.691,-38.086,-19.531,0.000
1709196871.049,-27.344,-32.715,-26.855,-17.090,0.000
1709196871.053,-28.320,-41.504,-22.949,-31.738,0.000
1709196871.057,-33.203,-46.387,-29.785,-40.039,0.000
1709196871.061,-33.203,-44.922,-33.203,-21.484,0.000
1709196871.065,-22.461,-46.875,-31.738,-19.043,0.000
1709196871.069,-14.160,-47.852,-30.762,-26.367,0.000
1709196871.073,-15.137,-42.480,-23.438,-23.438,0.000
1709196871.077,-24.414,-43.457,-23.438,-28.809,0.000
1709196871.081,-27.344,-46.387,-30.273,-45.410,0.000
1709196871.085,-20.996,-39.062,-28.809,-37.109,0.000
1709196871.089,-22.949,-42.969,-29.297,-36.133,0.000
1709196871.092,-36.621,-47.852,-37.109,-59.082,0.000
1709196871.096,-20.996,-36.133,-39.062,-61.523,0.000
1709196871.100,-21.484,-41.016,-34.668,-43.457,0.000
1709196871.104,-29.785,-44.922,-32.227,-33.691,0.000
1709196871.108,-24.414,-40.039,-28.809,-47.363,0.000
1709196871.112,-26.367,-35.645,-23.926,-46.387,0.000
1709196871.116,-31.738,-38.574,-23.926,-39.062,0.000
1709196871.120,-36.133,-49.805,-28.809,-37.598,0.000
1709196871.124,-24.414,-55.176,-32.227,-27.344,0.000
1709196871.128,-20.996,-56.152,-30.273,-28.320,0.000
1709196871.132,-23.438,-48.340,-26.367,-44.922,0.000
1709196871.135,-29.297,-39.062,-26.367,-48.340,0.000
1709196871.139,-48.340,-43.945,-30.762,-50.293,0.000
1709196871.143,-47.363,-41.016,-29.297,-37.109,0.000
1709196871.147,-37.109,-38.086,-30.273,-28.320,0.000
1709196871.151,-29.785,-41.504,-25.391,-32.227,0.000
1709196871.155,-26.855,-41.016,-18.555,-23.926,0.000
1709196871.159,-27.832,-41.016,-19.531,-16.602,0.000
1709196871.163,-22.949,-40.527,-26.367,-4.395,0.000
1709196871.167,-15.137,-35.645,-27.344,-8.301,0.000
1709196871.171,-12.695,-33.203,-25.391,-29.297,0.000
1709196871.175,-24.902,-32.227,-23.926,-24.414,0.000
