timestamps,TP9,AF7,AF8,TP10,Right AUX
1709215188.084,-36.133,-45.410,-31.738,-28.320,0.000
1709215188.088,-23.438,-38.086,-30.273,-25.879,0.000
1709215188.091,-24.414,-35.156,-36.621,-29.785,0.000
1709215188.095,-43.457,-41.016,-49.805,-48.340,0.000
1709215188.099,-44.434,-34.180,-48.340,-51.758,0.000
1709215188.103,-37.109,-38.086,-38.086,-44.922,0.000
1709215188.107,-38.574,-50.781,-35.645,-52.246,0.000
1709215188.111,-41.016,-48.340,-38.574,-56.152,0.000
1709215188.115,-41.016,-39.062,-45.898,-56.641,0.000
1709215188.119,-54.688,-35.645,-53.711,-50.293,0.000
1709215188.123,-61.523,-34.180,-45.898,-52.246,0.000
1709215188.127,-53.711,-43.945,-39.551,-49.316,0.000
1709215188.131,-48.340,-50.293,-40.527,-40.527,0.000
1709215188.135,-51.270,-47.852,-38.086,-39.551,0.000
1709215188.138,-60.059,-48.828,-37.598,-49.316,0.000
1709215188.142,-59.570,-45.898,-40.527,-54.688,0.000
1709215188.146,-47.363,-44.922,-37.109,-40.527,0.000
1709215188.150,-39.062,-48.340,-32.227,-38.574,0.000
1709215188.154,-51.758,-48.828,-33.691,-42.969,0.000
1709215188.158,-59.082,-38.574,-38.086,-42.969,0.000
1709215188.162,-54.199,-35.645,-40.527,-44.434,0.000
1709215188.166,-53.711,-41.016,-38.574,-34.668,0.000
1709215188.170,-43.457,-29.785,-35.645,-32.715,0.000
1709215188.174,-39.551,-38.574,-37.109,-36.621,0.000
1709215188.178,-50.293,-46.875,-37.598,-44.922,0.000
1709215188.182,-49.316,-39.062,-38.086,-40.527,0.000
1709215188.185,-29.297,-40.039,-42.480,-32.715,0.000
1709215188.189,-29.785,-40.039,-39.551,-25.391,0.000
1709215188.193,-35.645,-46.387,-35.156,-24.902,0.000
1709215188.197,-37.109,-41.504,-33.691,-40.039,0.000
1709215188.201,-34.180,-36.133,-26.855,-44.434,0.000
1709215188.205,-26.367,-43.945,-30.273,-36.621,0.000
1709215188.209,-11.230,-39.551,-34.180,-23.926,0.000
1709215188.213,-8.301,-26.367,-37.109,-33.691,0.000
1709215188.217,-28.320,-34.180,-44.922,-55.664,0.000
1709215188.221,-37.598,-43.945,-45.410,-57.617,0.000
1709215188.225,-37.598,-40.039,-42.969,-44.922,0.000
1709215188.228,-30.762,-42.969,-48.828,-49.805,0.000
1709215188.232,-29.785,-49.316,-49.805,-63.965,0.000
1709215188.236,-38.086,-42.480,-46.875,-63.965,0.000
1709215188.240,-45.410,-43.945,-45.898,-66.406,0.000
1709215188.244,-39.551,-39.551,-40.039,-52.734,0.000
1709215188.248,-28.809,-37.109,-41.504,-45.898,0.000
1709215188.252,-27.832,-48.340,-47.363,-45.898,0.000
1709215188.256,-38.086,-43.457,-47.852,-43.945,0.000
1709215188.260,-52.246,-43.945,-36.621,-53.223,0.000
1709215188.264,-45.898,-51.270,-34.180,-45.898,0.000
1709215188.267,-37.598,-45.410,-42.480,-28.809,0.000
1709215188.271,-39.551,-33.691,-44.922,-26.855,0.000
1709215188.275,-40.039,-35.645,-45.410,-32.227,0.000
1709215188.279,-39.551,-38.574,-48.340,-29.785,0.000
1709215188.283,-30.762,-39.062,-51.270,-22.461,0.000
1709215188.287,-27.832,-39.551,-60.059,-20.996,0.000
1709215188.291,-29.785,-30.762,-61.035,-23.926,0.000
1709215188.295,-29.785,-29.297,-55.664,-30.273,0.000
1709215188.299,-34.180,-29.785,-63.965,-33.203,0.000
1709215188.303,-20.020,-27.832,-70.801,-40.039,0.000
1709215188.306,-14.160,-32.715,-71.777,-46.875,0.000
1709215188.310,-18.555,-27.344,-68.848,-26.367,0.000
1709215188.314,-17.090,-17.090,-61.523,-31.250,0.000
1709215188.318,-30.762,-22.461,-66.406,-50.781,0.000
1709215188.322,-33.691,-27.832,-70.801,-46.387,0.000
1709215188.326,-23.438,-37.598,-61.523,-37.598,0.000
1709215188.330,-17.578,-51.270,-58.594,-36.133,0.000
1709215188.334,-24.414,-40.527,-63.477,-41.504,0.000
1709215188.337,-41.504,-32.227,-71.289,-46.875,0.000
1709215188.341,-40.527,-35.645,-72.754,-43.945,0.000
1709215188.345,-32.227,-34.668,-63.965,-27.832,0.000
1709215188.349,-35.645,-34.668,-64.453,-35.645,0.000
1709215188.353,-36.133,-30.273,-59.570,-39.062,0.000
1709215188.357,-35.156,-25.879,-48.828,-37.598,0.000
1709215188.361,-41.504,-28.320,-47.852,-39.062,0.000
1709215188.365,-48.828,-30.273,-51.270,-32.227,0.000
1709215188.368,-40.039,-49.316,-51.758,-29.785,0.000
1709215188.372,-37.109,-61.035,-45.410,-36.621,0.000
1709215188.376,-43.457,-46.875,-41.016,-41.016,0.000
1709215188.380,-49.316,-36.621,-36.621,-35.156,0.000
1709215188.384,-49.805,-47.363,-31.738,-34.668,0.000
1709215188.388,-43.457,-52.246,-35.645,-27.344,0.000
1709215188.392,-45.410,-47.363,-33.691,-33.203,0.000
1709215188.396,-55.176,-52.734,-28.809,-48.828,0.000
1709215188.400,-57.617,-46.875,-31.738,-43.457,0.000
1709215188.404,-43.457,-44.922,-32.715,-37.109,0.000
1709215188.407,-37.598,-54.199,-29.785,-33.203,0.000
1709215188.411,-29.785,-44.922,-29.785,-28.320,0.000
1709215188.415,-33.203,-46.875,-37.598,-40.039,0.000
1709215188.419,-58.594,-60.547,-43.457,-51.270,0.000
1709215188.423,-54.688,-48.340,-49.316,-47.852,0.000
1709215188.427,-30.273,-34.668,-48.340,-38.086,0.000
1709215188.431,-23.438,-42.969,-38.574,-30.273,0.000
1709215188.434,-31.738,-39.062,-43.457,-34.668,0.000
1709215188.438,-38.086,-34.668,-47.852,-52.246,0.000
1709215188.442,-27.832,-33.203,-41.016,-37.598,0.000
1709215188.446,-21.973,-36.621,-45.898,-29.785,0.000
1709215188.450,-27.832,-47.852,-52.246,-41.504,0.000
1709215188.454,-31.738,-42.969,-49.805,-41.992,0.000
1709215188.458,-37.109,-38.086,-54.199,-37.109,0.000
1709215188.462,-34.668,-44.922,-54.688,-32.715,0.000
1709215188.466,-17.090,-46.387,-51.758,-38.574,0.000
1709215188.470,-19.531,-46.387,-54.688,-47.363,0.000
1709215188.474,-45.898,-45.898,-52.734,-52.246,0.000
1709215188.478,-49.316,-44.434,-38.086,-41.504,0.000
1709215188.482,-41.992,-47.852,-33.691,-35.645,0.000
1709215188.486,-31.250,-43.945,-21.973,-39.551,0.000
1709215188.489,-28.320,-38.574,-15.625,-37.598,0.000
1709215188.493,-31.738,-42.480,-19.531,-40.039,0.000
1709215188.497,-49.316,-41.016,-22.461,-51.758,0.000
1709215188.501,-51.758,-37.109,-21.973,-55.176,0.000
1709215188.505,-41.016,-41.504,-21.484,-50.293,0.000
1709215188.509,-38.086,-44.922,-29.297,-44.922,0.000
1709215188.513,-46.875,-48.340,-25.391,-54.688,0.000
1709215188.517,-61.523,-50.293,-24.902,-59.570,0.000
1709215188.521,-56.641,-51.758,-30.762,-59.570,0.000
1709215188.525,-38.574,-47.363,-35.645,-49.805,0.000
1709215188.529,-41.504,-36.621,-34.180,-37.109,0.000
1709215188.533,-46.875,-29.297,-34.180,-45.410,0.000
1709215188.537,-43.457,-28.320,-38.574,-44.922,0.000
1709215188.540,-46.875,-34.668,-45.410,-37.598,0.000
1709215188.544,-38.574,-37.109,-42.480,-45.410,0.000
1709215188.548,-20.996,-26.367,-41.016,-44.922,0.000
1709215188.552,-24.414,-32.227,-46.387,-44.922,0.000
1709215188.556,-41.016,-48.340,-38.574,-52.734,0.000
1709215188.560,-39.062,-44.434,-42.969,-57.129,0.000
1709215188.564,-33.203,-41.016,-43.457,-55.176,0.000
1709215188.568,-18.555,-32.715,-38.086,-44.434,0.000
1709215188.572,-16.602,-26.855,-42.480,-45.898,0.000
1709215188.576,-32.227,-29.297,-37.598,-51.758,0.000
1709215188.580,-36.133,-33.691,-32.227,-51.270,0.000
1709215188.583,-15.625,-32.227,-32.227,-34.180,0.000
1709215188.587,-18.066,-26.367,-23.926,-14.160,0.000
1709215188.591,-38.086,-46.387,-22.949,-18.066,0.000
1709215188.595,-43.945,-55.176,-23.438,-26.855,0.000
1709215188.599,-51.758,-50.781,-23.926,-32.227,0.000
1709215188.603,-45.898,-56.641,-17.578,-22.461,0.000
1709215188.607,-23.926,-48.340,-9.766,-1.465,0.000
1709215188.611,-28.809,-43.945,-8.789,-6.348,0.000
1709215188.615,-53.711,-52.246,-18.066,-28.320,0.000
1709215188.619,-51.758,-50.293,-24.902,-32.715,0.000
1709215188.623,-39.062,-46.387,-15.137,-27.344,0.000
1709215188.626,-36.621,-45.410,-20.020,-28.809,0.000
1709215188.630,-43.945,-38.574,-25.879,-21.973,0.000
1709215188.634,-60.059,-41.016,-28.320,-33.691,0.000
1709215188.638,-60.059,-42.969,-25.391,-45.410,0.000
1709215188.642,-50.293,-45.898,-33.203,-41.016,0.000
1709215188.646,-44.922,-49.316,-40.527,-48.340,0.000
1709215188.650,-42.969,-49.805,-32.227,-47.852,0.000
1709215188.654,-58.594,-47.852,-33.691,-44.434,0.000
1709215188.658,-69.824,-47.363,-35.645,-55.176,0.000
1709215188.662,-65.430,-47.363,-33.203,-59.570,0.000
1709215188.665,-55.176,-42.480,-37.598,-55.176,0.000
1709215188.669,-49.805,-41.016,-41.504,-56.641,0.000
1709215188.673,-56.641,-47.852,-37.109,-55.176,0.000
1709215188.677,-65.918,-44.434,-35.156,-59.082,0.000
1709215188.681,-59.082,-41.504,-33.203,-60.547,0.000
1709215188.685,-45.898,-37.598,-27.832,-47.363,0.000
1709215188.689,-44.434,-33.203,-23.926,-41.992,0.000
1709215188.693,-53.711,-44.434,0.000,-46.387,0.000
1709215188.697,-63.477,-49.805,0.000,-55.176,0.000
1709215188.701,-56.641,-48.340,0.000,-47.363,0.000
1709215188.705,-29.297,-51.758,0.000,-33.203,0.000
1709215188.709,-34.180,-55.176,0.000,-26.367,0.000
1709215188.712,-47.363,-53.711,0.000,-27.344,0.000
1709215188.716,-44.922,-50.293,0.000,-28.320,0.000
1709215188.720,-47.363,-48.828,0.000,-18.555,0.000
1709215188.724,-39.062,-44.434,0.000,-13.184,0.000
1709215188.728,-28.320,-49.316,0.000,-15.625,0.000
1709215188.732,-35.645,-50.293,0.000,-28.809,0.000
1709215188.736,-44.434,-42.480,0.000,-33.203,0.000
1709215188.739,-50.293,-40.527,-25.879,-32.227,0.000
1709215188.743,-46.875,-46.387,-31.738,-37.109,0.000
1709215188.747,-31.738,-41.504,-33.691,-34.180,0.000
1709215188.751,-27.832,-42.969,-33.691,-32.227,0.000
1709215188.755,-41.016,-51.758,-41.504,-41.016,0.000
1709215188.759,-46.387,-50.781,-40.527,-54.688,0.000
1709215188.763,-38.574,-54.199,-32.227,-42.480,0.000
1709215188.767,-30.762,-54.688,-33.203,-33.691,0.000
1709215188.771,-29.297,-44.434,-38.086,-44.922,0.000
1709215188.775,-24.902,-37.598,-41.016,-50.293,0.000
1709215188.779,-36.133,-42.480,-39.551,-57.617,0.000
1709215188.782,-42.480,-41.992,-40.527,-58.594,0.000
1709215188.787,0.000,-42.969,0.000,-55.176,0.000
1709215188.791,0.000,-51.270,0.000,-58.594,0.000
1709215188.795,0.000,-41.016,0.000,-67.871,0.000
1709215188.799,0.000,-39.551,0.000,-72.754,0.000
1709215188.803,0.000,-44.434,0.000,-64.453,0.000
1709215188.806,0.000,-41.992,0.000,-48.828,0.000
1709215188.810,0.000,-41.992,0.000,-35.156,0.000
1709215188.814,0.000,-47.363,0.000,-41.504,0.000
1709215188.818,0.000,-46.387,0.000,-40.527,0.000
1709215188.822,0.000,-48.828,0.000,-20.996,0.000
1709215188.826,0.000,-43.457,0.000,-10.254,0.000
1709215188.830,0.000,-30.273,0.000,-20.508,0.000
1709215188.834,-18.555,-19.043,-37.598,-20.996,0.000
1709215188.838,-7.324,-8.301,-36.133,-12.695,0.000
1709215188.842,-20.996,-8.789,-44.922,-17.578,0.000
1709215188.846,-11.719,-0.977,-45.410,-11.719,0.000
1709215188.850,4.395,5.371,-44.922,-6.348,0.000
1709215188.854,-12.695,-1.953,-52.246,-24.414,0.000
1709215188.858,-16.113,-0.488,-60.547,-40.039,0.000
1709215188.861,-13.184,7.324,-60.547,-35.645,0.000
1709215188.865,-2.441,7.812,-59.570,-30.273,0.000
1709215188.869,9.277,12.695,-66.406,-29.297,0.000
1709215188.873,-7.812,20.508,-70.312,-33.203,0.000
1709215188.877,-14.160,21.484,-67.871,-37.598,0.000
1709215188.881,-8.301,20.996,-65.918,-36.133,0.000
1709215188.885,-4.395,19.531,-76.660,-29.785,0.000
1709215188.889,8.301,30.273,-84.473,-33.691,0.000
1709215188.893,20.996,42.480,-80.566,-40.527,0.000
1709215188.897,2.441,40.039,-81.543,-41.016,0.000
1709215188.901,-10.254,32.227,-88.867,-41.504,0.000
1709215188.905,3.906,45.898,-92.285,-30.762,0.000
1709215188.908,15.625,62.500,-89.355,-21.484,0.000
1709215188.912,17.090,60.547,-89.844,-24.902,0.000
1709215188.916,9.277,60.547,-92.773,-31.738,0.000
1709215188.920,0.977,65.430,-95.215,-40.527,0.000
1709215188.924,8.789,65.918,-93.262,-25.879,0.000
1709215188.928,15.137,61.523,-89.844,-10.742,0.000
1709215188.932,15.137,66.895,-90.332,-18.555,0.000
1709215188.936,-2.930,64.453,-91.309,-34.180,0.000
1709215188.940,-4.883,58.105,-94.727,-29.297,0.000
1709215188.944,5.371,62.988,-96.191,-14.648,0.000
1709215188.948,9.277,61.035,-99.121,-11.230,0.000
1709215188.951,20.020,50.293,-102.539,-23.926,0.000
1709215188.955,16.113,42.480,-96.680,-20.508,0.000
1709215188.959,1.953,46.875,-86.914,-9.766,0.000
1709215188.963,6.348,42.480,-84.961,-16.113,0.000
1709215188.967,13.672,24.902,-85.938,-13.672,0.000
1709215188.971,17.578,26.367,-79.590,-10.742,0.000
1709215188.975,6.836,28.320,-75.195,-20.508,0.000
1709215188.979,-10.742,26.855,-77.148,-23.926,0.000
1709215188.983,-5.859,21.484,-79.102,-19.043,0.000
1709215188.987,-3.906,12.695,-76.660,-12.695,0.000
1709215188.991,-10.742,20.020,-68.848,-10.254,0.000
1709215188.994,-15.137,14.648,-67.383,-20.508,0.000
1709215188.998,-19.043,6.348,-56.152,-32.227,0.000
1709215189.002,-13.184,9.766,-50.781,-29.297,0.000
1709215189.006,3.906,9.277,-61.523,-6.836,0.000
1709215189.010,-2.930,10.742,-62.012,-18.555,0.000
1709215189.014,-10.254,4.883,-52.246,-44.434,0.000
1709215189.018,-18.066,-5.859,-56.152,-48.828,0.000
1709215189.022,-26.855,-0.977,-60.547,-45.410,0.000
1709215189.026,-13.184,-4.883,-56.152,-34.668,0.000
1709215189.030,-5.371,-20.508,-52.734,-26.855,0.000
1709215189.034,-18.066,-16.113,-49.316,-25.391,0.000
1709215189.038,-21.973,-6.348,-45.898,-26.855,0.000
1709215189.042,-19.043,-8.789,-46.387,-30.273,0.000
1709215189.046,-20.020,-16.602,-52.246,-30.762,0.000
1709215189.050,-18.555,-23.926,-49.316,-19.531,0.000
1709215189.054,-15.625,-14.648,-48.828,-19.043,0.000
1709215189.057,-38.574,-12.207,-51.270,-30.762,0.000
1709215189.061,-36.621,-22.949,-45.898,-33.203,0.000
1709215189.065,-13.672,-20.508,-46.387,-14.648,0.000
1709215189.069,-5.371,-21.484,-49.316,-6.836,0.000
1709215189.073,-18.555,-23.438,-50.781,-18.066,0.000
1709215189.077,-35.645,-28.809,-48.340,-22.949,0.000
1709215189.081,-30.762,-35.156,-41.016,-25.879,0.000
1709215189.085,-17.578,-31.250,-34.180,-24.902,0.000
1709215189.089,-12.207,-23.926,-28.320,-15.625,0.000
1709215189.092,-26.367,-25.391,-34.180,-21.973,0.000
1709215189.096,-30.273,-30.762,-41.992,-29.785,0.000
1709215189.100,-31.738,-32.227,-39.551,-39.551,0.000
1709215189.104,-44.922,-28.320,-43.457,-42.480,0.000
1709215189.108,-28.320,-30.273,-41.992,-23.926,0.000
1709215189.112,-18.555,-34.180,-42.480,-19.043,0.000
1709215189.116,-28.809,-27.344,-47.852,-41.016,0.000
1709215189.119,-30.273,-23.438,-52.734,-46.387,0.000
1709215189.123,-24.902,-9.277,-55.664,-32.227,0.000
1709215189.127,-11.719,0.488,-60.059,-29.297,0.000
1709215189.131,-1.953,0.000,-65.918,-33.691,0.000
1709215189.135,-20.508,-3.418,-66.406,-42.969,0.000
1709215189.139,-29.297,-0.488,-67.383,-42.969,0.000
1709215189.143,-10.742,2.441,-65.430,-24.902,0.000
1709215189.147,-8.301,-2.930,-60.059,-13.672,0.000
1709215189.151,-4.395,-10.254,-64.453,-12.207,0.000
1709215189.155,-9.766,-13.184,-58.594,-18.066,0.000
1709215189.159,-19.531,-24.414,-55.176,-29.785,0.000
1709215189.162,-8.789,-25.391,-55.664,-23.926,0.000
1709215189.166,-3.418,-15.137,-50.781,0.000,0.000
1709215189.170,-18.066,-20.020,-58.594,-4.883,0.000
1709215189.174,-28.809,-13.672,-59.570,-20.996,0.000
1709215189.178,-28.320,-11.230,-54.688,-29.785,0.000
1709215189.182,-22.949,-23.438,-48.340,-23.926,0.000
1709215189.185,-19.531,-31.250,-46.875,-8.301,0.000
1709215189.189,-12.695,-31.250,-48.828,-5.859,0.000
1709215189.193,-9.277,-28.320,-42.480,-18.555,0.000
1709215189.197,-39.062,-29.297,-40.527,-29.785,0.000
1709215189.201,-45.898,-27.832,-41.016,-20.508,0.000
1709215189.205,-26.855,-31.738,-37.598,-14.160,0.000
1709215189.209,-19.043,-36.133,-37.598,-16.602,0.000
1709215189.213,-19.043,-20.996,-34.180,-16.602,0.000
1709215189.217,-25.391,-28.320,-32.227,-25.391,0.000
1709215189.221,-36.621,-37.109,-39.062,-37.598,0.000
1709215189.225,-22.461,-22.949,-49.316,-33.203,0.000
1709215189.229,-20.508,-26.855,-51.758,-34.180,0.000
1709215189.233,-48.828,-33.691,-51.758,-41.016,0.000
1709215189.237,-50.293,-29.297,-46.875,-51.270,0.000
1709215189.240,-35.156,-32.227,-47.852,-55.176,0.000
1709215189.244,-31.250,-38.574,-47.852,-32.227,0.000
1709215189.248,-32.715,-31.738,-42.480,-23.438,0.000
1709215189.252,-34.668,-32.227,-42.480,-28.809,0.000
1709215189.256,-35.645,-28.320,-32.715,-35.645,0.000
1709215189.260,-28.809,-21.973,-20.020,-34.180,0.000
1709215189.264,-26.855,-38.086,-37.109,-27.344,0.000
1709215189.268,-17.578,-33.691,-49.316,-24.902,0.000
1709215189.272,-12.695,-27.344,-45.410,-36.133,0.000
1709215189.276,-51.758,-41.992,-46.387,-53.223,0.000
1709215189.280,-66.406,-43.945,-47.852,-53.711,0.000
1709215189.284,-41.992,-41.992,-43.945,-40.039,0.000
1709215189.287,-34.180,-45.898,-39.551,-27.344,0.000
1709215189.291,-35.645,-43.945,-43.945,-22.461,0.000
1709215189.295,-50.293,-46.875,-48.340,-31.250,0.000
1709215189.299,-57.129,-47.363,-41.992,-36.621,0.000
1709215189.303,-37.598,-27.832,-30.762,-27.344,0.000
1709215189.307,-28.809,-17.090,-22.949,-21.484,0.000
1709215189.311,-33.203,-31.250,-28.320,-31.250,0.000
1709215189.315,-27.832,-34.180,-32.715,-42.480,0.000
1709215189.319,-48.340,-34.180,-34.668,-42.969,0.000
1709215189.323,-45.898,-34.180,-31.250,-29.297,0.000
1709215189.327,-27.344,-33.203,-31.250,-28.320,0.000
1709215189.330,-35.645,-41.016,-38.086,-36.621,0.000
1709215189.334,-41.992,-42.969,-35.156,-27.344,0.000
1709215189.338,-47.852,-34.668,-33.691,-45.410,0.000
1709215189.342,-43.945,-31.738,-35.156,-56.641,0.000
1709215189.346,-26.367,-23.438,-39.551,-46.387,0.000
1709215189.350,-9.277,-21.973,-48.828,-46.875,0.000
1709215189.354,-34.668,-38.574,-50.781,-58.105,0.000
1709215189.358,-49.316,-43.945,-44.434,-60.059,0.000
1709215189.362,-37.109,-43.457,-44.922,-53.711,0.000
1709215189.366,-34.180,-40.039,-45.410,-48.828,0.000
1709215189.369,-25.879,-44.922,-41.992,-37.598,0.000
1709215189.373,-23.438,-54.199,-39.551,-35.645,0.000
1709215189.377,-33.691,-46.875,-32.227,-41.504,0.000
1709215189.381,-36.133,-31.250,-22.461,-24.414,0.000
1709215189.385,-29.297,-22.949,-32.227,-21.973,0.000
1709215189.389,-9.277,-21.973,-41.504,-27.832,0.000
1709215189.393,-14.648,-18.066,-32.227,-21.973,0.000
1709215189.397,-46.875,-34.180,-32.715,-38.086,0.000
1709215189.401,-50.781,-44.922,-35.156,-49.805,0.000
1709215189.405,-37.598,-35.645,-32.715,-31.250,0.000
1709215189.408,-21.973,-34.180,-31.250,-22.461,0.000
1709215189.412,-27.344,-42.969,-30.273,-33.691,0.000
1709215189.416,-55.664,-40.527,-35.645,-46.875,0.000
1709215189.420,-50.781,-41.992,-36.621,-43.457,0.000
1709215189.424,-32.715,-46.875,-29.785,-11.230,0.000
1709215189.428,-22.461,-36.621,-31.250,-9.766,0.000
1709215189.432,-19.531,-33.691,-44.922,-39.062,0.000
1709215189.436,-37.109,-37.598,-44.922,-42.969,0.000
1709215189.440,-33.203,-34.668,-36.133,-41.992,0.000
1709215189.443,-16.602,-28.809,-35.645,0.000,0.000
1709215189.447,-4.395,-32.715,-40.039,0.000,0.000
1709215189.451,-8.789,-43.945,-38.574,0.000,0.000
1709215189.455,-31.738,-50.293,-38.086,0.000,0.000
1709215189.459,-35.645,-53.711,-37.109,0.000,0.000
1709215189.463,-22.949,-47.852,-36.621,0.000,0.000
1709215189.467,-29.785,-45.410,-36.133,0.000,0.000
1709215189.471,-37.109,-42.969,-35.156,0.000,0.000
1709215189.475,-46.387,-38.086,-42.480,0.000,0.000
1709215189.479,-43.457,-41.992,-41.992,0.000,0.000
1709215189.482,-30.273,-46.875,-40.527,0.000,0.000
1709215189.486,-30.273,-45.898,-41.016,0.000,0.000
1709215189.490,-33.203,-33.203,-36.621,-22.949,0.000
1709215189.494,-41.504,-28.809,-37.598,-31.738,0.000
1709215189.498,-44.922,-42.969,-40.527,-40.039,0.000
1709215189.502,-42.969,-45.410,-40.039,-41.992,0.000
1709215189.506,-47.363,-34.180,-38.574,-32.227,0.000
1709215189.510,-41.016,-38.574,-41.504,-36.133,0.000
1709215189.514,-41.504,-46.387,-40.039,-33.203,0.000
1709215189.518,-56.641,-44.922,-38.574,-40.039,0.000
1709215189.522,-60.059,-39.062,-42.969,-59.570,0.000
1709215189.525,-40.039,-39.062,-41.504,-44.922,0.000
1709215189.529,-35.156,-49.805,-39.551,-35.156,0.000
1709215189.533,-41.016,-48.828,-33.691,-45.898,0.000
1709215189.537,-38.086,-41.992,-28.809,-52.734,0.000
1709215189.541,-48.828,-39.551,-28.320,-49.805,0.000
1709215189.545,-42.480,-38.574,-28.320,-28.320,0.000
1709215189.548,-37.598,-40.039,-35.156,-19.531,0.000
1709215189.552,-51.758,-41.992,-40.039,-50.781,0.000
1709215189.556,-53.223,-43.457,-35.645,-56.152,0.000
1709215189.560,-53.223,-55.664,-41.992,-41.992,0.000
1709215189.564,-47.363,-48.340,-48.828,-45.410,0.000
1709215189.568,-38.574,-32.227,-42.969,-42.969,0.000
1709215189.572,-34.668,-35.156,-33.691,-46.875,0.000
1709215189.576,-54.688,-40.039,-33.203,-53.223,0.000
1709215189.580,-61.523,-43.457,-38.086,-55.176,0.000
1709215189.584,-41.504,-38.574,-35.645,-41.504,0.000
1709215189.588,-31.738,-37.109,-23.926,-18.555,0.000
1709215189.592,-33.691,-44.434,-28.320,-33.691,0.000
1709215189.596,-53.711,-48.340,-39.062,-64.941,0.000
1709215189.600,-57.617,-42.480,-47.363,-62.500,0.000
1709215189.603,-33.691,-35.645,-45.410,-35.645,0.000
1709215189.607,-17.090,-33.691,-43.945,-29.785,0.000
1709215189.611,-34.668,-40.527,-38.574,-34.180,0.000
1709215189.615,-55.176,-51.270,-44.922,-47.852,0.000
1709215189.619,-60.547,-54.688,-56.152,-53.223,0.000
1709215189.623,-48.340,-44.434,-50.293,-45.410,0.000
1709215189.627,-28.809,-48.828,-42.969,-38.086,0.000
1709215189.631,-26.855,-45.898,-41.504,-35.156,0.000
1709215189.635,-43.945,-41.016,-42.480,-49.805,0.000
1709215189.639,-56.641,-62.500,-41.016,-61.035,0.000
1709215189.643,-40.039,-54.688,-39.062,-46.387,0.000
1709215189.647,-31.250,-36.621,-32.227,-34.668,0.000
1709215189.650,-33.203,-36.621,-32.227,-44.434,0.000
1709215189.654,-40.039,-35.645,-41.992,-58.105,0.000
1709215189.658,-53.711,-38.086,-40.039,-60.059,0.000
1709215189.662,-41.992,-38.086,-36.133,-46.875,0.000
1709215189.666,-28.320,-33.691,-33.691,-24.902,0.000
1709215189.670,-28.809,-45.898,-36.133,-32.715,0.000
1709215189.674,-36.133,-52.246,-39.062,-39.062,0.000
1709215189.678,-39.062,-43.945,-33.203,-37.109,0.000
1709215189.682,-38.574,-34.668,-32.715,-34.180,0.000
1709215189.686,-24.902,-36.621,-40.039,-17.090,0.000
1709215189.690,-22.949,-38.574,-40.527,-14.160,0.000
1709215189.693,-38.574,-37.598,-40.039,-39.551,0.000
1709215189.697,-33.691,-36.621,-38.086,-48.340,0.000
1709215189.701,-26.367,-44.434,-41.504,-31.250,0.000
1709215189.705,-24.902,-49.316,-46.875,-27.344,0.000
1709215189.709,-24.414,-43.945,-41.016,-32.227,0.000
1709215189.713,-30.273,-40.039,-38.086,-38.086,0.000
1709215189.717,-33.691,-33.691,-31.738,-42.480,0.000
1709215189.721,-47.852,-36.133,-28.320,-33.203,0.000
1709215189.725,-42.969,-34.180,-32.715,-21.973,0.000
1709215189.729,-28.809,-32.227,-32.227,-26.367,0.000
1709215189.733,-22.461,-35.645,-34.180,-38.086,0.000
1709215189.736,-30.273,-41.504,-37.109,-41.992,0.000
1709215189.740,-36.133,-43.457,-33.691,-34.668,0.000
1709215189.744,-20.508,-44.434,-33.203,-20.020,0.000
1709215189.748,-14.648,-36.621,-39.062,-18.555,0.000
1709215189.752,-34.180,-39.551,-40.527,-31.738,0.000
1709215189.756,-41.992,-46.387,-41.992,-32.227,0.000
1709215189.760,-44.922,-40.039,-39.062,-32.227,0.000
1709215189.764,-30.762,-41.992,-33.691,-26.855,0.000
1709215189.768,-17.090,-47.363,-38.086,-14.160,0.000
1709215189.771,-25.391,-45.410,-42.969,-16.113,0.000
1709215189.775,-35.156,-40.527,-46.875,-26.367,0.000
1709215189.779,-29.785,-32.227,-42.480,-25.879,0.000
1709215189.783,-17.090,-34.180,-37.598,-19.043,0.000
1709215189.787,-12.695,-40.527,-42.969,-15.625,0.000
1709215189.791,-18.555,-41.504,-45.898,-21.973,0.000
1709215189.795,-20.508,-45.410,-42.969,-42.480,0.000
1709215189.799,-30.273,-40.039,-40.527,-32.227,0.000
1709215189.803,-36.621,-34.668,-36.133,-23.926,0.000
1709215189.807,-13.184,-38.574,-30.762,-28.320,0.000
1709215189.810,-12.695,-47.363,-27.344,-32.227,0.000
1709215189.814,-40.039,-49.805,-29.297,-42.969,0.000
1709215189.818,-49.316,-44.922,-29.785,-46.875,0.000
1709215189.822,-40.039,-42.969,-31.250,-39.062,0.000
1709215189.826,-31.738,-52.734,-31.738,-29.785,0.000
1709215189.830,-26.855,-54.199,-30.762,-30.273,0.000
1709215189.834,-33.203,-41.504,-33.203,-46.875,0.000
1709215189.838,-50.781,-36.621,-31.738,-44.434,0.000
1709215189.842,-50.293,-35.645,-31.738,-30.762,0.000
1709215189.845,-35.156,-33.691,-35.645,-26.855,0.000
1709215189.849,-31.738,-34.668,-38.086,-28.809,0.000
1709215189.853,-50.781,-39.062,-38.574,-48.340,0.000
1709215189.857,-46.387,-39.062,-32.227,-58.594,0.000
1709215189.861,-30.762,-34.668,-29.297,-47.852,0.000
1709215189.865,-40.039,-36.621,-35.645,-37.109,0.000
1709215189.869,-37.109,-41.016,-37.109,-36.133,0.000
1709215189.873,-37.598,-40.039,-37.598,-43.945,0.000
1709215189.876,-41.504,-43.945,-39.062,-47.363,0.000
1709215189.880,-18.555,-55.664,-34.668,-39.551,0.000
1709215189.884,-19.043,-47.363,-41.016,-20.996,0.000
1709215189.888,-29.785,-32.715,-47.363,-17.090,0.000
1709215189.892,-37.109,-34.668,-48.828,-37.598,0.000
1709215189.896,-41.016,-31.250,-43.945,-48.340,0.000
1709215189.900,-33.203,-33.203,-38.086,-52.246,0.000
1709215189.904,-39.062,-35.645,-49.316,-50.293,0.000
1709215189.908,-35.645,-35.645,-51.758,-47.852,0.000
1709215189.911,-41.504,-42.969,-45.410,-53.711,0.000
1709215189.915,-57.617,-43.457,-41.016,-57.129,0.000
1709215189.919,-56.152,-47.363,-41.992,-57.617,0.000
1709215189.923,-49.805,-46.387,-45.898,-52.734,0.000
1709215189.927,-48.340,-38.574,-43.457,-46.875,0.000
1709215189.931,-46.875,-43.945,-37.598,-45.898,0.000
1709215189.935,-53.223,-48.340,-44.922,-52.734,0.000
1709215189.939,-71.289,-52.734,-47.363,-68.359,0.000
1709215189.943,-60.547,-59.082,-41.992,-62.500,0.000
1709215189.946,-46.875,-54.199,-46.387,-40.039,0.000
1709215189.950,-47.363,-47.363,-46.387,-41.992,0.000
1709215189.954,-53.223,-49.805,-40.527,-54.688,0.000
1709215189.958,-54.199,-50.293,-38.574,-45.410,0.000
1709215189.962,-41.504,-44.922,-39.551,-29.297,0.000
1709215189.966,-32.715,-40.527,-38.574,-30.273,0.000
1709215189.970,-26.367,-39.551,-34.668,-30.762,0.000
1709215189.974,-26.367,-46.387,-31.738,-30.762,0.000
1709215189.978,-44.922,-48.340,-34.668,-37.109,0.000
1709215189.982,-53.223,-43.945,-34.180,-34.668,0.000
1709215189.986,-30.762,-41.992,-25.879,-22.949,0.000
1709215189.990,-28.320,-45.410,-30.273,-18.066,0.000
1709215189.994,-50.293,-43.945,-37.109,-26.855,0.000
1709215189.997,-60.547,-39.551,-34.180,-38.574,0.000
1709215190.001,-48.340,-41.504,-33.203,-39.551,0.000
1709215190.005,-23.926,-41.016,-29.297,-27.344,0.000
1709215190.009,-20.020,-46.875,-26.855,-27.832,0.000
1709215190.013,-39.551,-36.133,-26.855,-35.156,0.000
1709215190.017,-47.363,-28.320,-35.156,-41.992,0.000
1709215190.021,-45.410,-35.156,-40.527,-42.969,0.000
1709215190.025,-40.039,-42.480,-38.086,-38.574,0.000
1709215190.029,-36.621,-41.992,-38.086,-41.504,0.000
1709215190.033,-47.363,-45.898,-34.180,-50.293,0.000
1709215190.037,-56.152,-47.852,-36.621,-52.246,0.000
1709215190.041,-45.898,-48.828,-37.109,-47.363,0.000
1709215190.045,-49.805,-52.734,-35.156,-28.809,0.000
1709215190.048,-36.133,-50.781,-38.086,-16.602,0.000
1709215190.052,0.000,-41.992,-32.715,-43.457,0.000
1709215190.056,0.000,-41.016,-36.621,-65.918,0.000
1709215190.060,0.000,-40.527,-39.062,-56.152,0.000
1709215190.064,0.000,-35.156,-33.691,-42.480,0.000
1709215190.068,0.000,-39.062,-36.621,-34.668,0.000
1709215190.072,0.000,-43.457,-37.109,-43.945,0.000
1709215190.076,0.000,-40.527,-37.598,-56.641,0.000
1709215190.080,0.000,-35.156,-36.133,-48.340,0.000
1709215190.084,0.000,-41.992,-35.645,-36.133,0.000
1709215190.088,0.000,-43.457,-46.875,-41.504,0.000
1709215190.091,0.000,-41.504,-52.734,-47.852,0.000
1709215190.095,0.000,-45.898,-50.293,-49.805,0.000
1709215190.099,-42.480,-40.527,-52.734,-48.828,0.000
1709215190.103,-24.902,-33.691,-47.852,-32.715,0.000
1709215190.107,-33.691,-44.434,-44.434,-29.297,0.000
1709215190.111,-35.156,-50.781,-45.410,-40.527,0.000
1709215190.115,-40.039,-45.898,-44.922,-52.246,0.000
1709215190.119,-50.293,-37.598,-46.875,-51.758,0.000
1709215190.123,-40.527,-32.715,-43.945,-27.832,0.000
1709215190.127,-24.902,-35.645,-45.898,-10.254,0.000
1709215190.131,-18.066,-39.062,-45.410,-14.160,0.000
1709215190.134,-23.926,-32.715,-44.434,-35.156,0.000
1709215190.138,-39.551,-34.180,-47.852,-40.039,0.000
1709215190.142,-20.508,-41.504,-46.875,-22.461,0.000
1709215190.146,-12.207,-38.574,-42.969,-19.531,0.000
1709215190.150,-31.250,-38.574,-40.039,-30.273,0.000
1709215190.154,-35.645,-36.621,-42.480,-40.039,0.000
1709215190.158,-40.527,-27.344,-41.016,-44.434,0.000
1709215190.162,-41.504,-27.832,-38.574,-41.504,0.000
1709215190.166,-27.832,-34.668,-39.062,-33.203,0.000
1709215190.170,-26.855,-38.574,-42.480,-31.250,0.000
1709215190.173,-46.875,-49.316,-45.410,-29.785,0.000
1709215190.177,-55.664,-50.293,-47.852,-35.645,0.000
1709215190.181,-52.246,-31.738,-44.434,-40.039,0.000
1709215190.185,-45.898,-30.273,-40.039,-35.156,0.000
1709215190.189,-45.410,-41.504,-42.969,-43.945,0.000
1709215190.193,-53.223,-41.016,-41.016,-51.758,0.000
1709215190.197,-60.059,-39.551,-37.109,-58.594,0.000
1709215190.201,-58.105,-39.551,-36.621,-52.246,0.000
1709215190.204,-51.270,-38.086,-34.668,-32.227,0.000
1709215190.208,-41.016,-40.527,-34.668,-30.273,0.000
1709215190.212,-42.480,-43.945,-35.156,-51.270,0.000
1709215190.216,-51.270,-43.945,-35.645,-57.129,0.000
1709215190.220,-48.828,-46.387,-43.945,-41.016,0.000
1709215190.224,-47.852,-41.504,-42.969,-42.969,0.000
1709215190.228,-45.410,-41.992,-38.574,-47.852,0.000
1709215190.232,-48.340,-57.617,-37.109,-48.828,0.000
1709215190.236,-51.270,-56.152,-31.250,-52.246,0.000
1709215190.239,-41.504,-40.527,-29.297,-55.176,0.000
1709215190.243,-23.438,-35.645,-35.645,-39.062,0.000
1709215190.247,-26.367,-48.340,-39.062,-28.320,0.000
1709215190.251,-37.109,-50.293,-38.086,-40.527,0.000
1709215190.255,-34.668,-33.691,-33.691,-39.551,0.000
1709215190.259,-29.297,-32.227,-33.691,-36.133,0.000
1709215190.263,-15.625,-41.992,-37.598,-26.367,0.000
1709215190.267,-5.371,-44.922,-38.086,-14.160,0.000
1709215190.271,-14.160,-38.574,-41.992,-30.762,0.000
1709215190.275,-20.020,-37.109,-35.156,-38.086,0.000
1709215190.278,-13.672,-42.969,-30.273,-22.949,0.000
1709215190.282,-8.301,-41.504,-29.785,1.465,0.000
1709215190.286,-1.953,-44.434,-27.344,5.859,0.000
1709215190.290,-6.836,-50.293,-29.785,-26.855,0.000
1709215190.294,-32.227,-44.434,-26.367,-41.016,0.000
1709215190.298,-43.457,-43.945,-30.273,-40.527,0.000
1709215190.302,-32.227,-48.340,-32.227,-41.016,0.000
1709215190.305,-28.809,-50.293,-27.344,-27.832,0.000
1709215190.309,-41.504,-48.828,-35.645,-20.996,0.000
1709215190.313,-59.570,-47.852,-39.062,-46.875,0.000
1709215190.317,-51.758,-47.363,-36.133,-56.641,0.000
1709215190.321,-30.762,-49.316,-36.621,-42.969,0.000
1709215190.325,-34.668,-48.828,-36.133,-32.715,0.000
1709215190.329,-42.969,-44.922,-36.621,-41.016,0.000
1709215190.333,-53.223,-41.992,-32.715,-51.270,0.000
1709215190.337,-58.594,-44.922,-34.180,-44.434,0.000
1709215190.341,-51.270,-48.828,-41.992,-40.039,0.000
1709215190.345,-36.133,-44.434,-35.156,-33.691,0.000
1709215190.349,-34.668,-38.086,-31.738,-35.156,0.000
1709215190.353,-44.922,-47.852,-34.180,-45.410,0.000
1709215190.357,-46.875,-50.781,-30.762,-41.016,0.000
1709215190.360,-49.316,-37.109,-35.156,-37.598,0.000
1709215190.364,-36.621,-40.039,-40.527,-36.133,0.000
1709215190.368,-27.832,-50.293,-37.598,-21.973,0.000
1709215190.372,-48.340,-52.246,-33.691,-35.156,0.000
1709215190.376,-47.363,-45.898,-32.227,-53.223,0.000
1709215190.380,-29.785,-41.016,-33.691,-37.598,0.000
1709215190.384,-18.555,-38.086,-31.738,-20.508,0.000
1709215190.388,-15.137,-42.969,-29.785,-27.832,0.000
1709215190.392,-31.250,-42.969,-39.062,-43.457,0.000
1709215190.396,-40.039,-34.668,-39.062,-43.945,0.000
1709215190.400,-34.180,-39.551,-33.203,-36.133,0.000
1709215190.404,-20.508,-47.363,-41.016,-35.645,0.000
1709215190.407,-1.465,-40.039,-41.504,-33.691,0.000
1709215190.411,-25.879,-28.320,-39.551,-30.762,0.000
1709215190.415,-49.316,-32.715,-41.016,-37.109,0.000
1709215190.419,-36.621,-31.250,-34.668,-33.691,0.000
1709215190.423,-22.461,-29.785,-29.297,-13.184,0.000
1709215190.427,-10.742,-34.180,-26.367,-5.859,0.000
1709215190.431,-26.855,-42.480,-29.785,-26.855,0.000
1709215190.435,-45.898,-46.387,-37.109,-34.180,0.000
1709215190.439,-33.203,-48.340,-39.551,-38.574,0.000
1709215190.443,-31.250,-56.641,-36.621,-37.598,0.000
1709215190.447,-30.273,-48.340,-36.621,-35.156,0.000
1709215190.451,-28.809,-38.574,-33.691,-44.922,0.000
1709215190.454,-41.992,-36.133,-35.645,-48.828,0.000
1709215190.458,-39.062,-35.645,-42.969,-39.551,0.000
1709215190.462,-30.273,-34.180,-38.574,-37.109,0.000
1709215190.466,-25.391,-32.227,-35.645,-41.016,0.000
1709215190.470,-34.180,-33.691,-33.203,-32.715,0.000
1709215190.474,-41.992,-33.203,-27.832,-39.551,0.000
1709215190.478,-38.574,-37.109,-30.762,-50.293,0.000
1709215190.482,-26.367,-47.852,-35.156,-35.645,0.000
1709215190.486,-9.766,-46.387,-34.668,-17.090,0.000
1709215190.490,-8.301,-35.645,-34.668,-16.113,0.000
1709215190.493,-27.832,-42.969,-43.457,-40.039,0.000
1709215190.497,-44.434,-41.992,-41.992,-52.246,0.000
1709215190.501,-26.855,-28.809,-31.738,-33.203,0.000
1709215190.505,-8.301,-30.762,-31.250,-14.648,0.000
1709215190.509,-28.809,-43.945,-34.180,-16.113,0.000
1709215190.513,-40.527,-39.062,-35.156,-31.250,0.000
1709215190.517,-40.039,-29.785,-34.668,-42.969,0.000
1709215190.521,-31.738,-36.133,-30.762,-43.945,0.000
1709215190.525,-24.414,-39.062,-35.645,-38.574,0.000
1709215190.529,-22.949,-40.527,-37.598,-40.039,0.000
1709215190.532,-26.855,-52.734,-29.785,-40.527,0.000
1709215190.536,-35.156,-49.805,-31.738,-41.016,0.000
1709215190.540,-33.203,-44.922,-47.363,-46.875,0.000
1709215190.544,-32.227,-33.691,-44.434,-36.621,0.000
1709215190.548,-33.203,-34.180,-39.062,-29.785,0.000
1709215190.552,-37.598,-42.480,-43.457,-42.969,0.000
1709215190.556,-52.246,-42.969,-43.457,-60.547,0.000
1709215190.560,-55.664,-42.969,-37.598,-56.152,0.000
1709215190.564,-44.922,-38.574,-36.621,-42.969,0.000
1709215190.567,-35.645,-36.133,-39.551,-37.598,0.000
1709215190.571,-41.992,-42.480,-40.527,-48.828,0.000
1709215190.575,-71.777,-50.781,-43.457,-54.199,0.000
1709215190.579,-67.871,-51.270,-35.645,-56.152,0.000
1709215190.583,-53.711,-49.805,-38.574,-47.363,0.000
1709215190.587,-44.434,-35.156,-37.598,-36.621,0.000
1709215190.591,-51.270,-36.133,-32.715,-46.387,0.000
1709215190.595,-56.152,-51.270,-43.945,-52.246,0.000
1709215190.599,-58.105,-50.781,-47.363,-54.199,0.000
1709215190.603,-47.852,-52.734,-40.039,-39.062,0.000
1709215190.606,-38.086,-58.594,-35.645,-21.484,0.000
1709215190.610,-51.270,-51.758,-37.598,-35.156,0.000
1709215190.614,-58.105,-55.664,-39.551,-44.434,0.000
1709215190.618,-55.664,-52.246,-40.527,-47.852,0.000
1709215190.622,-58.105,-45.898,-41.016,-49.805,0.000
1709215190.626,-51.758,-46.875,-40.527,-43.457,0.000
1709215190.630,-46.875,-47.852,-39.062,-39.062,0.000
1709215190.634,-62.012,-44.434,-37.109,-51.758,0.000
1709215190.638,-56.152,-44.922,-39.551,-52.246,0.000
1709215190.641,-43.457,-47.363,-41.992,-44.922,0.000
1709215190.645,-46.875,-44.922,-37.598,-41.016,0.000
1709215190.649,-40.527,-41.016,-32.715,-37.598,0.000
1709215190.653,-55.176,-37.598,-36.133,-52.246,0.000
1709215190.657,-61.035,-41.504,-40.527,-59.082,0.000
1709215190.661,-57.617,-51.758,-41.504,-51.758,0.000
1709215190.665,-50.781,-49.805,-42.480,-49.316,0.000
1709215190.668,-37.109,-49.316,-41.504,-41.992,0.000
1709215190.672,-49.316,-60.059,-39.062,-45.898,0.000
1709215190.676,-58.105,-62.500,-40.527,-57.617,0.000
1709215190.680,-49.805,-56.152,-44.434,-51.270,0.000
1709215190.684,-44.922,-43.945,-43.945,-31.250,0.000
1709215190.688,-38.574,-37.109,-36.621,-30.762,0.000
1709215190.692,-47.852,-45.410,-39.551,-43.457,0.000
1709215190.696,-53.223,-46.387,-45.898,-54.688,0.000
1709215190.700,-32.715,-40.039,-44.434,-48.340,0.000
1709215190.704,-14.160,-40.039,-34.668,-30.762,0.000
1709215190.708,-11.719,-41.992,-33.203,-20.508,0.000
1709215190.712,-45.410,-41.016,-41.992,-31.250,0.000
1709215190.716,-52.734,-37.598,-32.715,-35.156,0.000
1709215190.720,-38.574,-41.016,-25.879,-29.297,0.000
1709215190.723,-27.832,-49.805,-31.738,-31.250,0.000
1709215190.727,-28.320,-49.805,-30.273,-25.879,0.000
1709215190.731,-30.762,-51.758,-27.832,-34.668,0.000
1709215190.735,-27.832,-52.734,-33.203,-46.387,0.000
1709215190.739,-39.062,-51.270,-37.598,-41.016,0.000
1709215190.743,-30.762,-54.688,-32.227,-14.160,0.000
1709215190.747,-30.273,-49.316,-26.855,-10.742,0.000
1709215190.751,-38.574,-43.457,-29.297,-29.297,0.000
1709215190.755,-47.363,-45.410,-28.809,-39.062,0.000
1709215190.759,-52.734,-51.758,-31.738,-41.992,0.000
1709215190.763,-41.504,-49.805,-36.621,-34.668,0.000
1709215190.767,-40.527,-40.039,-34.668,-33.203,0.000
1709215190.771,-44.434,-43.457,-36.621,-51.270,0.000
1709215190.774,-50.293,-42.969,-31.738,-64.453,0.000
1709215190.778,-62.012,-46.875,-28.809,-56.152,0.000
1709215190.782,-49.805,-50.781,-30.273,-46.875,0.000
1709215190.786,-34.180,-46.387,-29.297,-33.203,0.000
1709215190.790,-41.504,-46.387,-36.133,-38.574,0.000
1709215190.794,-41.504,-44.434,-36.133,-50.781,0.000
1709215190.798,-44.434,-39.551,-31.738,-48.828,0.000
1709215190.802,0.000,-42.969,-36.621,-42.969,0.000
1709215190.806,0.000,-46.875,-38.086,-32.227,0.000
1709215190.810,0.000,-47.363,-37.109,-29.785,0.000
1709215190.814,0.000,-61.035,-38.086,-35.156,0.000
1709215190.818,0.000,-58.105,-34.668,-41.504,0.000
1709215190.822,0.000,-46.875,-28.320,-33.203,0.000
1709215190.825,0.000,-43.457,-34.180,-24.902,0.000
1709215190.829,0.000,-39.551,-42.969,-34.668,0.000
1709215190.833,0.000,-41.504,-38.574,-43.945,0.000
1709215190.837,0.000,-36.621,-36.621,-47.852,0.000
1709215190.841,0.000,-31.250,-42.969,-42.969,0.000
1709215190.845,0.000,-38.574,-41.504,-26.855,0.000
1709215190.849,-22.949,-40.039,-35.645,-23.438,0.000
1709215190.853,-35.645,-29.297,-29.297,-26.855,0.000
1709215190.857,-49.805,-22.949,-28.809,-33.203,0.000
1709215190.861,-31.738,-25.879,-37.598,-38.574,0.000
1709215190.865,-5.371,-32.227,-36.133,-29.297,0.000
1709215190.868,-25.879,-37.109,-34.180,-22.949,0.000
1709215190.872,-40.039,-40.039,-39.551,-41.992,0.000
1709215190.876,-46.387,-42.969,-44.922,-54.199,0.000
1709215190.880,-47.363,-40.039,-44.922,-43.457,0.000
1709215190.884,-37.109,-35.645,-46.875,-40.039,0.000
1709215190.888,-30.762,-40.527,-49.316,-42.480,0.000
1709215190.892,-35.156,-38.574,-47.363,-46.387,0.000
1709215190.896,-50.293,-39.551,-49.316,-51.270,0.000
1709215190.900,-43.457,-36.621,-44.922,-43.457,0.000
1709215190.904,-24.902,-28.809,-41.992,-27.344,0.000
1709215190.907,-35.156,-34.668,-39.062,-24.902,0.000
1709215190.911,-39.062,-41.504,-31.738,-33.203,0.000
1709215190.915,-45.410,-44.434,-37.598,-47.363,0.000
1709215190.919,-48.828,-41.992,-42.480,-53.223,0.000
1709215190.923,-30.273,-40.527,-37.598,-29.785,0.000
1709215190.927,-19.043,-41.504,-36.621,-19.531,0.000
1709215190.931,-37.109,-47.363,-42.480,-37.598,0.000
1709215190.935,-46.387,-50.293,-41.504,-41.504,0.000
1709215190.939,-36.133,-45.410,-34.668,-34.180,0.000
1709215190.942,-28.809,-38.086,-32.715,-24.414,0.000
1709215190.946,-21.973,-28.320,-32.227,-18.066,0.000
1709215190.950,-23.438,-24.902,-28.320,-25.391,0.000
1709215190.954,-39.062,-33.203,-25.879,-35.156,0.000
1709215190.958,-48.340,-38.574,-28.320,-30.273,0.000
1709215190.962,-31.738,-37.598,-30.273,-25.391,0.000
1709215190.966,-20.996,-44.434,-27.832,-16.113,0.000
1709215190.970,-34.180,-50.293,-33.203,-13.184,0.000
1709215190.974,-39.551,-44.434,-39.551,-34.180,0.000
1709215190.978,-40.039,-33.691,-30.273,-30.762,0.000
1709215190.981,-33.203,-33.691,-31.738,-16.602,0.000
1709215190.985,-18.066,-44.434,-40.527,-14.160,0.000
1709215190.989,-14.648,-46.387,-40.527,-17.578,0.000
1709215190.993,-32.227,-41.504,-35.156,-28.809,0.000
1709215190.997,-35.156,-40.039,-38.086,-33.691,0.000
1709215191.001,-15.137,-37.598,-40.527,-23.926,0.000
1709215191.005,-15.625,-38.574,-39.062,-13.672,0.000
1709215191.009,-14.648,-38.574,-36.621,-17.090,0.000
1709215191.012,-22.949,-36.133,-33.203,-31.738,0.000
1709215191.016,-35.156,-38.574,-34.668,-48.340,0.000
1709215191.020,-19.043,-35.645,-36.621,-44.922,0.000
1709215191.024,-33.203,-42.480,-36.621,-31.738,0.000
1709215191.028,-44.922,-41.016,-35.156,-41.504,0.000
1709215191.032,-38.574,-40.039,-32.715,-56.641,0.000
1709215191.036,-40.039,-48.828,-31.738,-50.293,0.000
1709215191.039,-38.574,-46.875,-30.273,-31.250,0.000
1709215191.043,-32.715,-40.039,-25.879,-23.438,0.000
1709215191.047,-32.715,-36.621,-25.391,-21.973,0.000
1709215191.051,-46.875,-46.387,-28.809,-31.738,0.000
1709215191.055,-57.129,-56.152,-26.367,-37.598,0.000
1709215191.059,-48.828,-53.223,-27.344,-26.855,0.000
1709215191.063,-34.668,-40.527,-31.250,-24.902,0.000
1709215191.067,-33.691,-28.809,-30.273,-20.020,0.000
1709215191.071,-35.645,-37.109,-31.738,-32.715,0.000
1709215191.075,-47.852,-45.410,-38.574,-57.129,0.000
1709215191.078,-49.805,-51.758,-41.992,-55.664,0.000
1709215191.083,-34.668,-54.199,-45.410,-41.992,0.000
1709215191.087,-29.297,-44.922,-42.969,-38.574,0.000
1709215191.091,-36.621,-45.410,-38.086,-41.016,0.000
1709215191.094,-41.504,-49.316,-39.551,-51.758,0.000
1709215191.098,-35.645,-44.434,-48.828,-40.527,0.000
1709215191.102,-22.949,-42.969,-50.293,-19.531,0.000
1709215191.106,-8.789,-41.504,-41.016,-15.625,0.000
1709215191.110,-26.855,-44.434,-36.621,-24.902,0.000
1709215191.114,-42.969,-50.781,-28.320,-30.762,0.000
1709215191.118,-37.109,-50.781,-25.879,-26.367,0.000
1709215191.122,-22.461,-53.223,-36.133,-22.949,0.000
1709215191.126,-17.578,-62.500,-40.527,-24.902,0.000
1709215191.130,-32.227,-54.199,-38.574,-26.855,0.000
1709215191.134,-35.156,-37.109,-32.227,-31.250,0.000
1709215191.138,-38.086,-50.781,-38.086,-52.734,0.000
1709215191.142,-42.969,-59.570,-49.316,-42.969,0.000
1709215191.145,-28.809,-42.969,-45.898,-28.809,0.000
1709215191.149,-25.879,-38.086,-49.805,-50.781,0.000
1709215191.153,-51.758,-40.039,-47.363,-56.152,0.000
1709215191.157,-53.711,-40.527,-36.133,-48.828,0.000
1709215191.161,-39.551,-34.180,-41.992,-40.039,0.000
1709215191.165,-33.691,-30.273,-39.551,-31.250,0.000
1709215191.169,-31.738,-33.691,-34.668,-41.016,0.000
1709215191.173,-36.621,-44.922,-38.574,-50.781,0.000
1709215191.177,-39.551,-44.922,-37.109,-55.664,0.000
1709215191.181,-28.809,-42.480,-41.992,-50.293,0.000
1709215191.185,-32.715,-53.711,-44.434,-41.992,0.000
1709215191.189,-39.551,-48.340,-39.551,-42.480,0.000
1709215191.192,-36.133,-31.738,-35.645,-43.457,0.000
1709215191.196,-54.688,-32.227,-34.180,-49.805,0.000
1709215191.200,-53.223,-40.039,-40.527,-49.805,0.000
1709215191.204,-28.809,-42.969,-45.410,-43.945,0.000
1709215191.208,-24.414,-43.945,-40.039,-31.738,0.000
1709215191.212,-30.273,-38.086,-37.598,-35.156,0.000
1709215191.216,-36.621,-34.180,-38.574,-51.270,0.000
1709215191.220,-37.598,-36.133,-48.340,-45.898,0.000
1709215191.224,-22.949,-33.691,-53.223,-26.855,0.000
1709215191.228,-13.184,-39.551,-45.410,-20.508,0.000
1709215191.232,-15.625,-38.574,-43.457,-33.203,0.000
1709215191.235,-35.156,-37.109,-51.270,-55.176,0.000
1709215191.239,-47.852,-41.016,-50.293,-55.176,0.000
1709215191.243,-29.297,-38.086,-46.875,-39.062,0.000
1709215191.247,-30.762,-39.551,-49.316,-45.898,0.000
1709215191.251,-39.551,-50.781,-50.781,-49.316,0.000
1709215191.255,-47.363,-54.199,-54.199,-56.152,0.000
1709215191.259,-53.223,-41.504,-52.246,-77.637,0.000
1709215191.263,-44.922,-41.992,-49.805,-65.430,0.000
1709215191.267,-32.227,-46.387,-50.293,-50.293,0.000
1709215191.271,-37.598,-48.828,-46.875,-50.781,0.000
1709215191.274,-53.223,-52.734,-45.410,-60.059,0.000
1709215191.278,-38.574,-51.270,-41.504,-64.453,0.000
1709215191.282,-40.039,-57.617,-41.016,-50.781,0.000
1709215191.286,-43.945,-55.176,-46.387,-49.316,0.000
1709215191.290,-35.645,-45.410,-44.434,-54.199,0.000
1709215191.294,-44.434,-44.434,-40.527,-60.059,0.000
1709215191.298,-56.152,-52.734,-37.598,-61.035,0.000
1709215191.302,-47.852,-57.617,-38.086,-41.992,0.000
1709215191.306,-27.832,-46.387,-36.133,-34.180,0.000
1709215191.310,-32.227,-39.062,-32.715,-42.969,0.000
1709215191.314,-68.848,-49.805,-35.156,-41.992,0.000
1709215191.317,-61.035,-52.734,-34.668,-40.039,0.000
1709215191.321,-52.246,-40.039,-32.715,-39.062,0.000
1709215191.325,-43.945,-43.457,-36.133,-25.879,0.000
1709215191.329,-29.297,-56.152,-33.691,-19.531,0.000
1709215191.333,-32.227,-43.945,-26.367,-21.973,0.000
1709215191.337,-37.598,-31.738,-27.832,-18.066,0.000
1709215191.341,-32.715,-41.992,-35.156,-6.836,0.000
1709215191.345,-23.438,-51.270,-34.180,-1.953,0.000
1709215191.349,-19.043,-46.387,-31.250,-20.020,0.000
1709215191.352,-31.738,-43.945,-33.691,-35.645,0.000
1709215191.356,-36.133,-45.410,-32.227,-36.621,0.000
1709215191.360,-42.480,-46.875,-36.621,-31.250,0.000
1709215191.364,-39.062,-44.922,-43.945,-28.809,0.000
1709215191.368,-27.832,-47.852,-46.875,-51.758,0.000
1709215191.372,-35.156,-52.734,-45.410,-62.012,0.000
1709215191.376,-64.453,-40.527,-48.828,-70.312,0.000
1709215191.380,-61.523,-35.645,-46.875,-68.848,0.000
1709215191.383,-30.762,-37.598,-38.574,-53.711,0.000
1709215191.387,-34.180,-38.086,-36.621,-48.828,0.000
1709215191.391,-44.922,-36.621,-33.691,-47.363,0.000
1709215191.395,-63.965,-42.969,-40.039,-57.129,0.000
1709215191.399,-66.406,-44.922,-42.480,-51.270,0.000
1709215191.403,-46.875,-40.039,-40.527,-29.785,0.000
1709215191.407,-37.109,-45.410,-37.598,-26.855,0.000
1709215191.410,-39.551,-43.457,-30.762,-40.039,0.000
1709215191.414,-46.875,-38.086,-32.715,-47.363,0.000
1709215191.418,-48.828,-48.340,-40.527,-41.504,0.000
1709215191.422,-50.781,-54.688,-37.109,-25.391,0.000
1709215191.426,-43.457,-48.828,-36.621,-17.090,0.000
1709215191.430,-36.621,-43.945,-33.691,-15.625,0.000
1709215191.434,-46.875,-48.828,-30.762,-19.531,0.000
1709215191.438,-50.781,-48.828,-33.203,-29.785,0.000
1709215191.442,-40.527,-57.129,-30.762,-20.508,0.000
1709215191.446,-31.738,-61.523,-33.691,-9.766,0.000
1709215191.449,-34.668,-51.270,-35.156,-29.785,0.000
1709215191.453,-42.969,-46.387,-35.645,-46.387,0.000
1709215191.458,-52.246,-51.270,-42.480,-38.086,0.000
1709215191.462,-41.504,-44.434,-36.621,-19.043,0.000
1709215191.465,-23.438,-37.109,-29.785,-8.301,0.000
1709215191.469,-25.391,-38.574,-33.691,-16.602,0.000
1709215191.473,-46.387,-40.527,-35.156,-23.926,0.000
1709215191.477,-35.645,-43.457,-27.832,-15.625,0.000
1709215191.481,-13.672,-54.688,-28.809,-11.719,0.000
1709215191.485,-19.043,-46.875,-30.762,-15.625,0.000
1709215191.489,-25.879,-42.480,-31.250,-24.414,0.000
1709215191.493,-41.504,-46.875,-34.668,-36.133,0.000
1709215191.497,-56.641,-46.875,-29.785,-34.180,0.000
1709215191.501,-33.203,-39.062,-25.391,-27.344,0.000
1709215191.505,-18.555,-53.711,-34.180,-28.809,0.000
1709215191.509,-34.668,-64.941,-43.457,-42.480,0.000
1709215191.513,-58.105,-39.551,-48.340,-59.570,0.000
1709215191.516,-68.848,-35.156,-44.922,-57.617,0.000
1709215191.520,-51.270,-47.852,-40.527,-45.410,0.000
1709215191.524,-26.367,-41.992,-44.434,-30.762,0.000
1709215191.528,-40.527,-34.180,-45.410,-26.367,0.000
1709215191.532,-54.199,-37.598,-43.945,-40.039,0.000
1709215191.536,-52.246,-36.621,-37.598,-41.504,0.000
1709215191.540,-52.734,-39.062,-37.109,-28.809,0.000
1709215191.544,-41.992,-45.410,-47.363,-36.621,0.000
1709215191.548,-44.922,-52.734,-51.758,-44.922,0.000
1709215191.552,-62.012,-50.293,-51.758,-41.504,0.000
1709215191.556,-56.641,-47.852,-45.410,-50.781,0.000
1709215191.560,-42.969,-38.574,-45.410,-62.988,0.000
1709215191.563,-36.621,-29.785,-51.758,-54.199,0.000
1709215191.567,-28.809,-23.926,-49.316,-31.738,0.000
1709215191.571,-37.598,-31.250,-45.898,-36.621,0.000
1709215191.575,-41.504,-33.203,-43.457,-52.246,0.000
1709215191.579,-39.551,-31.738,-40.039,-50.293,0.000
1709215191.583,-35.645,-39.551,-34.668,-34.180,0.000
1709215191.587,-24.902,-40.527,-33.691,-26.367,0.000
1709215191.591,-31.738,-32.715,-35.156,-33.691,0.000
1709215191.595,-37.598,-40.527,-37.598,-41.016,0.000
1709215191.599,-31.250,-41.016,-42.969,-43.945,0.000
1709215191.603,-36.621,-35.645,-42.480,-29.297,0.000
1709215191.606,-38.086,-44.434,-40.527,-30.762,0.000
1709215191.610,-42.480,-45.410,-40.039,-46.875,0.000
1709215191.614,-56.641,-32.227,-40.527,-53.223,0.000
1709215191.618,-52.734,-37.598,-41.504,-46.875,0.000
1709215191.622,-35.645,-46.875,-33.203,-27.832,0.000
1709215191.626,-38.086,-44.922,-34.668,-27.832,0.000
1709215191.630,-45.410,-53.223,-45.410,-39.062,0.000
1709215191.634,-59.082,-52.734,-45.410,-55.176,0.000
1709215191.638,-71.777,-48.828,-48.340,-57.129,0.000
1709215191.642,-53.223,-57.129,-45.410,-37.598,0.000
1709215191.645,-28.809,-53.711,-36.133,-25.879,0.000
1709215191.649,-18.066,-44.922,-36.133,-32.227,0.000
1709215191.653,-36.621,-42.480,-38.086,-48.828,0.000
1709215191.657,-44.434,-44.434,-37.598,-51.270,0.000
1709215191.661,-24.902,-41.504,-39.551,-37.109,0.000
1709215191.665,-20.020,-36.133,-40.527,-33.203,0.000
1709215191.669,-33.203,-39.551,-31.250,-41.016,0.000
1709215191.673,-31.250,-42.969,-26.367,-41.504,0.000
1709215191.677,-27.344,-31.738,-40.039,-43.945,0.000
1709215191.681,-39.062,-31.250,-48.340,-40.527,0.000
1709215191.685,-37.598,-35.156,-41.504,-38.574,0.000
1709215191.688,-38.086,-43.457,-41.992,-52.246,0.000
1709215191.692,-50.293,-43.457,-44.922,-66.895,0.000
1709215191.696,-50.781,-39.062,-40.527,-58.105,0.000
1709215191.700,-42.480,-28.809,-33.203,-37.109,0.000
1709215191.704,-25.879,-18.066,-30.273,-20.996,0.000
1709215191.708,-13.672,-24.414,-39.062,-24.414,0.000
1709215191.712,-23.926,-34.668,-38.086,-44.922,0.000
1709215191.716,-26.367,-32.715,-36.133,-47.363,0.000
1709215191.719,-34.180,-37.109,-45.410,-34.668,0.000
1709215191.723,-36.621,-42.480,-48.340,-35.156,0.000
1709215191.727,-27.832,-35.645,-45.410,-34.668,0.000
1709215191.731,-31.250,-38.086,-39.551,-35.645,0.000
1709215191.735,-45.898,-42.480,-41.504,-48.828,0.000
1709215191.739,-42.969,-43.945,-45.410,-46.875,0.000
1709215191.743,-23.438,-42.480,-42.480,-32.715,0.000
1709215191.747,-23.926,-40.039,-39.551,-30.762,0.000
1709215191.751,-34.180,-40.039,-37.598,-41.504,0.000
1709215191.754,-45.898,-44.434,-44.434,-46.387,0.000
1709215191.758,-37.109,-39.551,-43.457,-43.457,0.000
1709215191.762,-9.766,-33.203,-33.691,-20.020,0.000
1709215191.766,-22.949,-41.504,-40.039,-8.789,0.000
1709215191.770,-48.340,-51.758,-41.992,-34.668,0.000
1709215191.774,-48.340,-55.176,-39.062,-45.410,0.000
1709215191.778,-30.762,-42.969,-38.574,-37.598,0.000
1709215191.782,-27.344,-37.109,-40.527,-31.250,0.000
1709215191.785,-21.973,-45.898,-47.852,-25.391,0.000
1709215191.789,-28.320,-41.504,-48.340,-45.410,0.000
1709215191.793,-41.016,-39.551,-42.480,-60.547,0.000
1709215191.797,-40.527,-34.668,-38.574,-55.664,0.000
1709215191.801,-33.691,-37.109,-41.016,-49.805,0.000
1709215191.805,-22.949,-48.340,-43.945,-43.457,0.000
1709215191.809,-41.016,-60.059,-44.434,-39.062,0.000
1709215191.813,-58.594,-56.641,-44.922,-39.551,0.000
1709215191.817,-50.781,-41.504,-43.457,-37.109,0.000
1709215191.820,-44.434,-43.457,-38.086,-24.902,0.000
1709215191.824,-34.180,-46.875,-33.691,-9.766,0.000
1709215191.828,-27.344,-47.363,-30.273,-13.184,0.000
1709215191.832,-53.711,-43.457,-29.785,-29.785,0.000
1709215191.836,-56.641,-43.457,-37.109,-37.109,0.000
1709215191.840,-34.668,-49.805,-36.133,-34.180,0.000
1709215191.844,-41.504,-45.410,-30.273,-32.715,0.000
1709215191.847,-48.828,-46.875,-32.227,-48.340,0.000
1709215191.851,-54.199,-55.176,-28.809,-46.875,0.000
1709215191.855,-62.012,-56.152,-35.645,-51.270,0.000
1709215191.859,-52.246,-45.410,-42.969,-60.059,0.000
1709215191.863,-37.598,-39.062,-44.434,-48.340,0.000
1709215191.867,-51.270,-40.039,-45.898,-44.434,0.000
1709215191.871,-63.965,-38.574,-44.434,-54.688,0.000
1709215191.875,-58.594,-43.945,-39.062,-57.617,0.000
1709215191.879,-60.059,-46.875,-34.668,-49.805,0.000
1709215191.883,-55.664,-46.387,-34.180,-46.387,0.000
1709215191.887,-53.223,-50.293,-41.504,-44.922,0.000
1709215191.891,-51.758,-41.992,-42.480,-44.922,0.000
1709215191.895,-53.711,-42.480,-43.457,-56.152,0.000
1709215191.898,-45.898,-48.340,-45.898,-51.758,0.000
1709215191.902,-19.531,-37.109,-37.109,-26.855,0.000
1709215191.906,-24.414,-41.016,-37.598,-27.344,0.000
1709215191.910,-45.898,-45.898,-43.945,-42.480,0.000
1709215191.914,-43.457,-43.945,-38.574,-38.086,0.000
1709215191.918,-33.691,-44.434,-33.203,-38.086,0.000
1709215191.922,-22.461,-40.527,-32.227,-26.367,0.000
1709215191.926,-25.391,-40.039,-37.109,-25.391,0.000
1709215191.930,-28.320,-46.387,-38.574,-41.016,0.000
1709215191.934,-35.156,-49.805,-37.598,-40.527,0.000
1709215191.938,-43.945,-51.758,-38.574,-41.016,0.000
1709215191.942,-24.902,-40.527,-39.551,-20.996,0.000
1709215191.945,-11.719,-34.180,-38.574,-9.277,0.000
1709215191.949,-22.461,-38.574,-39.551,-31.738,0.000
1709215191.953,-27.832,-32.227,-42.480,-34.668,0.000
1709215191.957,-14.648,-22.949,-35.645,-14.648,0.000
1709215191.961,-0.977,-24.414,-36.621,-2.930,0.000
1709215191.965,12.207,-26.367,-40.527,-1.953,0.000
1709215191.969,6.348,-20.508,-35.156,-12.207,0.000
1709215191.973,0.000,-30.762,-36.621,-22.461,0.000
1709215191.977,0.000,-38.086,-40.527,-19.043,0.000
1709215191.981,0.000,-34.180,-39.062,-14.648,0.000
1709215191.985,0.000,-37.109,-41.016,-12.207,0.000
1709215191.989,0.000,-34.180,-41.504,-16.602,0.000
1709215191.992,0.000,-38.574,-34.180,-29.297,0.000
1709215191.996,0.000,-52.734,-33.691,-33.691,0.000
1709215192.000,0.000,-55.176,-31.250,-19.531,0.000
1709215192.004,0.000,-37.598,-33.203,-0.488,0.000
1709215192.008,0.000,-30.273,-30.273,-15.625,0.000
1709215192.012,0.000,-34.668,-25.879,-28.809,0.000
1709215192.016,0.000,-30.762,-32.715,-37.109,0.000
1709215192.020,-31.738,-30.762,-34.180,-36.621,0.000
1709215192.024,-31.738,-42.480,-34.180,-21.973,0.000
1709215192.028,-31.738,-41.016,-35.645,-20.020,0.000
1709215192.032,-31.250,-39.551,-35.156,-33.691,0.000
1709215192.036,-40.039,-45.898,-34.668,-41.992,0.000
1709215192.039,-22.949,-41.992,-36.133,-30.762,0.000
1709215192.043,-15.625,-45.898,-36.621,-25.879,0.000
1709215192.047,-27.344,-50.293,-31.738,-18.066,0.000
1709215192.051,-21.973,-48.828,-30.762,-24.902,0.000
1709215192.055,-36.621,-52.246,-37.598,-47.363,0.000
1709215192.059,-43.457,-52.246,-41.504,-39.551,0.000
1709215192.063,-25.879,-51.270,-38.086,-24.414,0.000
1709215192.067,-24.414,-53.223,-36.133,-24.902,0.000
1709215192.071,-35.645,-56.641,-36.621,-39.062,0.000
1709215192.074,-57.129,-56.641,-39.062,-55.176,0.000
1709215192.078,-58.594,-57.617,-36.621,-45.898,0.000
1709215192.082,-35.156,-63.965,-32.715,-31.250,0.000
1709215192.086,-47.363,-63.965,-38.574,-35.156,0.000
1709215192.090,-53.711,-54.688,-41.504,-39.062,0.000
1709215192.094,-53.711,-56.641,-39.551,-27.832,0.000
1709215192.098,-65.430,-62.988,-41.992,-31.738,0.000
1709215192.102,-47.852,-55.176,-47.363,-45.410,0.000
1709215192.106,-41.016,-47.363,-46.875,-47.363,0.000
1709215192.110,-36.133,-44.434,-43.457,-50.781,0.000
1709215192.113,-38.574,-40.527,-38.574,-53.223,0.000
1709215192.117,-34.668,-36.621,-36.621,-42.480,0.000
1709215192.121,-21.973,-42.969,-36.621,-22.461,0.000
1709215192.125,-11.230,-53.223,-35.645,-10.254,0.000
1709215192.129,-27.344,-53.223,-37.109,-26.367,0.000
1709215192.133,-45.898,-50.293,-41.504,-43.945,0.000
1709215192.137,-34.180,-45.898,-40.039,-36.133,0.000
1709215192.141,-32.227,-33.203,-32.227,-22.461,0.000
1709215192.145,-35.156,-27.344,-31.250,-28.809,0.000
1709215192.148,-44.434,-38.574,-39.062,-42.969,0.000
1709215192.152,-63.965,-45.898,-42.969,-52.734,0.000
1709215192.156,-63.965,-42.480,-43.945,-60.059,0.000
1709215192.161,-51.270,-41.992,-42.480,-48.340,0.000
1709215192.164,-45.410,-43.457,-40.039,-34.180,0.000
1709215192.168,-46.875,-49.316,-41.016,-42.480,0.000
1709215192.172,-54.688,-55.664,-47.852,-51.758,0.000
1709215192.176,-68.848,-51.758,-42.480,-47.852,0.000
1709215192.180,-57.129,-45.898,-40.039,-40.039,0.000
1709215192.184,-44.922,-46.875,-39.062,-19.531,0.000
1709215192.188,-49.316,-51.758,-35.645,-23.926,0.000
1709215192.192,-52.246,-54.688,-30.273,-41.016,0.000
1709215192.196,-54.688,-44.434,-36.621,-41.016,0.000
1709215192.200,-46.387,-39.062,-42.969,-39.551,0.000
1709215192.204,-30.762,-51.758,-40.527,-38.574,0.000
1709215192.207,-47.852,-57.129,-47.852,-41.504,0.000
1709215192.211,-52.734,-45.410,-45.410,-49.316,0.000
1709215192.215,-51.758,-43.457,-40.039,-46.875,0.000
1709215192.219,-46.875,-43.457,-39.062,-47.852,0.000
1709215192.223,-30.762,-40.039,-37.598,-44.434,0.000
1709215192.227,-35.645,-42.480,-41.504,-42.969,0.000
1709215192.231,-33.203,-43.945,-44.922,-56.641,0.000
1709215192.234,-51.758,-41.992,-39.551,-62.012,0.000
1709215192.238,-45.410,-39.062,-39.062,-47.852,0.000
1709215192.242,-28.809,-41.504,-40.039,-36.133,0.000
1709215192.246,-25.879,-43.457,-38.574,-39.062,0.000
1709215192.250,-26.855,-44.922,-39.551,-48.828,0.000
1709215192.254,-47.852,-45.898,-39.551,-53.223,0.000
1709215192.258,-50.293,-43.945,-38.086,-44.434,0.000
1709215192.262,-27.344,-35.645,-39.062,-33.203,0.000
1709215192.266,-18.066,-37.109,-42.969,-39.062,0.000
1709215192.270,-38.574,-44.922,-42.480,-48.340,0.000
1709215192.274,-47.852,-44.922,-42.480,-50.781,0.000
1709215192.278,-44.922,-41.016,-45.410,-41.992,0.000
1709215192.282,-45.898,-42.480,-43.945,-29.297,0.000
1709215192.285,-40.039,-49.316,-40.039,-27.832,0.000
1709215192.289,-44.434,-42.969,-38.086,-31.250,0.000
1709215192.293,-54.688,-39.062,-37.109,-40.527,0.000
1709215192.297,-54.199,-44.922,-44.434,-40.527,0.000
1709215192.301,-44.434,-47.363,-50.293,-45.410,0.000
1709215192.305,-38.574,-50.781,-42.969,-44.922,0.000
1709215192.309,-28.809,-47.363,-39.551,-40.527,0.000
1709215192.313,-46.387,-36.621,-41.504,-60.059,0.000
1709215192.317,-60.059,-43.945,-43.457,-54.199,0.000
1709215192.321,-30.762,-43.945,-43.457,-26.367,0.000
1709215192.325,-14.648,-44.922,-36.621,-18.066,0.000
1709215192.329,-17.578,-42.480,-36.133,-29.785,0.000
1709215192.333,-40.527,-34.668,-41.016,-36.621,0.000
1709215192.336,-43.457,-33.203,-43.457,-34.180,0.000
1709215192.340,-31.250,-34.180,-47.363,-27.344,0.000
1709215192.344,-20.508,-41.504,-44.434,-12.207,0.000
1709215192.348,-18.555,-40.527,-38.086,-20.508,0.000
1709215192.352,-27.344,-24.902,-40.527,-35.156,0.000
1709215192.356,-22.461,-22.461,-44.434,-36.621,0.000
1709215192.360,-30.762,-29.297,-41.016,-29.297,0.000
1709215192.364,-27.344,-26.855,-33.691,-15.137,0.000
1709215192.368,-20.996,-33.203,-38.086,-9.277,0.000
1709215192.372,-31.250,-40.039,-46.387,-29.297,0.000
1709215192.376,-35.156,-33.691,-35.645,-31.250,0.000
1709215192.379,-31.250,-30.762,-32.715,-12.207,0.000
1709215192.383,-14.648,-39.551,-30.762,-7.324,0.000
1709215192.387,-4.395,-33.691,-29.297,-9.277,0.000
1709215192.391,-40.527,-37.598,-39.062,-32.715,0.000
1709215192.395,-58.105,-40.527,-41.016,-41.992,0.000
1709215192.399,-42.480,-39.062,-36.133,-26.367,0.000
1709215192.403,-31.738,-50.781,-33.691,-14.648,0.000
1709215192.407,-14.648,-41.992,-33.203,-4.395,0.000
1709215192.411,-9.277,-37.598,-35.156,3.906,0.000
1709215192.415,-30.762,-46.875,-41.016,-17.090,0.000
1709215192.418,-37.598,-45.410,-45.410,-31.250,0.000
1709215192.422,-19.531,-48.340,-42.969,-11.230,0.000
1709215192.426,-15.137,-42.969,-39.062,-8.789,0.000
1709215192.430,-19.043,-25.879,-43.457,-31.738,0.000
1709215192.434,-18.066,-26.855,-48.340,-47.363,0.000
1709215192.438,-28.809,-28.809,-43.457,-40.039,0.000
1709215192.442,-16.602,-32.227,-39.062,-22.949,0.000
1709215192.446,-7.324,-40.527,-45.410,-16.113,0.000
1709215192.450,-21.484,-49.316,-46.875,-29.785,0.000
1709215192.453,-34.180,-46.875,-41.016,-49.316,0.000
1709215192.457,-40.527,-39.551,-41.992,-46.387,0.000
1709215192.461,-42.480,-39.551,-41.504,-36.133,0.000
1709215192.465,-43.945,-39.551,-41.016,-43.945,0.000
1709215192.469,-37.109,-35.156,-36.133,-47.363,0.000
1709215192.473,-40.527,-40.527,-39.551,-53.711,0.000
1709215192.477,-61.035,-41.992,-48.828,-60.059,0.000
1709215192.481,-50.781,-40.039,-46.387,-43.457,0.000
1709215192.485,-29.297,-43.945,-37.598,-26.855,0.000
1709215192.488,-30.273,-45.410,-35.645,-28.809,0.000
1709215192.492,-41.504,-39.062,-38.574,-40.039,0.000
1709215192.496,-39.062,-29.297,-32.227,-34.668,0.000
1709215192.500,-32.715,-24.414,-30.762,-24.902,0.000
1709215192.504,-24.902,-29.297,-39.551,-25.391,0.000
1709215192.508,-17.578,-37.598,-35.645,-16.113,0.000
1709215192.512,-34.668,-47.363,-35.645,-21.484,0.000
1709215192.516,-49.805,-37.109,-39.551,-35.645,0.000
1709215192.520,-29.785,-31.250,-34.180,-30.762,0.000
1709215192.524,-17.090,-41.992,-37.109,-24.902,0.000
1709215192.527,-25.879,-35.156,-41.992,-36.133,0.000
1709215192.531,-36.621,-30.762,-42.969,-50.293,0.000
1709215192.535,-42.480,-36.133,-43.457,-52.246,0.000
1709215192.539,-33.203,-44.922,-42.480,-39.062,0.000
1709215192.543,-5.371,-50.293,-45.898,-35.156,0.000
1709215192.547,-11.719,-40.039,-44.922,-41.016,0.000
1709215192.551,-47.852,-29.785,-33.691,-43.457,0.000
1709215192.554,-52.734,-29.785,-34.668,-51.758,0.000
1709215192.558,-41.992,-39.551,-43.457,-40.527,0.000
1709215192.562,-30.762,-45.410,-41.504,-30.273,0.000
1709215192.566,-32.227,-39.551,-41.504,-35.645,0.000
1709215192.570,-48.828,-37.598,-42.969,-44.922,0.000
1709215192.574,-49.316,-34.180,-40.527,-49.316,0.000
1709215192.578,-45.410,-37.109,-42.480,-43.945,0.000
1709215192.581,-29.297,-46.875,-43.945,-20.508,0.000
1709215192.585,-22.461,-47.852,-44.922,-29.297,0.000
1709215192.589,-42.480,-41.016,-44.434,-54.688,0.000
1709215192.593,-61.523,-45.410,-45.410,-59.570,0.000
1709215192.597,-57.617,-42.969,-49.316,-57.129,0.000
1709215192.601,-38.086,-41.992,-43.457,-38.574,0.000
1709215192.605,-39.062,-43.945,-34.180,-23.926,0.000
1709215192.609,-45.410,-38.086,-34.180,-31.250,0.000
1709215192.613,-53.711,-40.039,-38.086,-43.457,0.000
1709215192.617,-45.410,-43.457,-39.062,-38.574,0.000
1709215192.621,-29.297,-35.156,-40.039,-20.996,0.000
1709215192.624,-16.602,-33.203,-33.691,-11.719,0.000
1709215192.629,-28.320,-41.504,-33.691,-29.297,0.000
1709215192.633,-42.480,-39.551,-40.039,-47.852,0.000
1709215192.636,-32.715,-36.133,-37.109,-42.969,0.000
1709215192.640,-31.250,-42.480,-34.668,-26.855,0.000
1709215192.644,-32.715,-46.387,-35.645,-19.531,0.000
1709215192.648,-35.645,-44.922,-33.691,-34.180,0.000
1709215192.652,-48.340,-38.574,-33.203,-45.898,0.000
1709215192.656,-49.805,-21.973,-33.691,-42.480,0.000
1709215192.660,-43.945,-33.691,-36.133,-37.109,0.000
1709215192.664,-38.086,-48.828,-41.016,-26.367,0.000
1709215192.668,-43.457,-41.016,-44.434,-35.645,0.000
1709215192.672,-44.434,-35.156,-38.574,-44.922,0.000
1709215192.676,-47.363,-35.645,-37.598,-46.875,0.000
1709215192.680,-58.105,-40.527,-44.434,-36.621,0.000
1709215192.683,-46.387,-42.969,-42.480,-32.715,0.000
1709215192.687,-39.551,-42.969,-38.574,-38.574,0.000
1709215192.691,-49.805,-46.875,-41.992,-51.270,0.000
1709215192.695,-56.152,-42.480,-42.480,-62.012,0.000
1709215192.699,-49.805,-43.945,-33.203,-45.410,0.000
1709215192.703,-45.898,-52.246,-32.227,-29.297,0.000
1709215192.707,-38.574,-44.434,-46.387,-21.484,0.000
1709215192.711,-38.574,-40.527,-52.246,-40.039,0.000
1709215192.715,-54.688,-42.480,-41.504,-54.199,0.000
1709215192.719,-51.270,-47.363,-42.480,-41.992,0.000
1709215192.723,-27.344,-39.551,-42.480,-22.949,0.000
1709215192.727,-20.996,-34.180,-37.598,-19.531,0.000
1709215192.730,-34.180,-36.133,-36.621,-22.461,0.000
1709215192.734,-36.133,-44.922,-37.598,-37.109,0.000
1709215192.738,-27.344,-46.875,-44.434,-41.504,0.000
1709215192.742,-24.414,-38.086,-48.828,-25.391,0.000
1709215192.746,-22.949,-38.574,-45.410,-29.297,0.000
1709215192.750,-26.367,-32.227,-45.410,-43.945,0.000
1709215192.754,-28.320,-32.715,-45.410,-40.527,0.000
1709215192.758,-19.531,-43.945,-49.805,-44.434,0.000
1709215192.762,-25.879,-47.852,-47.363,-43.457,0.000
1709215192.766,-34.180,-48.340,-43.945,-41.992,0.000
1709215192.769,-32.715,-33.203,-44.434,-54.688,0.000
1709215192.773,-41.992,-30.273,-39.551,-60.547,0.000
1709215192.777,-43.945,-42.969,-41.016,-51.758,0.000
1709215192.781,-26.855,-40.039,-46.875,-38.574,0.000
1709215192.785,-13.672,-41.504,-41.016,-32.227,0.000
1709215192.789,-19.043,-50.293,-44.922,-29.785,0.000
1709215192.793,-38.086,-42.480,-50.293,-47.363,0.000
1709215192.797,-34.180,-34.668,-41.016,-52.734,0.000
1709215192.801,-12.695,-42.969,-40.039,-29.785,0.000
1709215192.805,-28.320,-45.898,-35.645,-34.180,0.000
1709215192.809,-42.969,-30.273,-31.738,-47.363,0.000
1709215192.812,-50.293,-23.438,-34.180,-53.223,0.000
1709215192.816,-45.898,-35.156,-31.250,-49.805,0.000
1709215192.820,-26.367,-45.898,-35.156,-33.691,0.000
1709215192.824,-29.785,-44.922,-41.992,-39.062,0.000
1709215192.828,-33.203,-40.527,-36.621,-41.992,0.000
1709215192.832,-39.062,-42.480,-40.527,-47.852,0.000
1709215192.836,-31.738,-50.781,-45.410,-47.852,0.000
1709215192.840,-29.297,-49.316,-43.457,-34.180,0.000
1709215192.844,-41.992,-50.781,-40.039,-17.090,0.000
1709215192.848,-40.527,-54.688,-38.086,-30.762,0.000
1709215192.851,-52.734,-51.270,-42.969,-56.152,0.000
1709215192.855,-56.641,-52.246,-41.992,-61.035,0.000
1709215192.859,-45.898,-53.223,-46.875,-55.664,0.000
1709215192.863,-50.293,-46.387,-50.293,-43.457,0.000
1709215192.867,-50.781,-41.992,-41.016,-40.039,0.000
1709215192.871,-45.898,-49.805,-33.691,-49.805,0.000
1709215192.875,-50.781,-58.594,-35.156,-56.641,0.000
1709215192.879,-56.152,-57.617,-33.203,-44.922,0.000
1709215192.883,-40.527,-53.223,-38.086,-32.715,0.000
1709215192.886,-33.203,-48.828,-43.457,-22.461,0.000
1709215192.890,-51.270,-46.875,-41.992,-16.602,0.000
1709215192.894,-60.059,-50.293,-39.551,-38.086,0.000
1709215192.898,-47.852,-51.758,-41.016,-48.340,0.000
1709215192.902,-32.715,-47.852,-44.922,-39.062,0.000
1709215192.906,-31.250,-44.434,-43.945,-33.691,0.000
1709215192.910,-47.852,-46.387,-33.691,-36.133,0.000
1709215192.914,-54.199,-46.875,-33.691,-40.527,0.000
1709215192.917,-42.480,-43.945,-39.551,-37.598,0.000
1709215192.921,-39.551,-54.199,-39.062,-29.297,0.000
1709215192.925,-47.363,-52.246,-43.945,-24.902,0.000
1709215192.929,-43.457,-39.551,-46.387,-31.738,0.000
1709215192.933,-53.711,-36.621,-43.945,-35.645,0.000
1709215192.937,-62.988,-28.320,-35.156,-33.691,0.000
1709215192.941,-43.945,-24.902,-31.738,-21.973,0.000
1709215192.945,-27.832,-41.504,-30.762,-25.879,0.000
1709215192.949,-39.062,-58.105,-33.203,-36.621,0.000
1709215192.953,-55.176,-53.223,-33.691,-44.434,0.000
1709215192.957,-61.035,-41.504,-28.809,-42.969,0.000
1709215192.961,-59.082,-44.922,-35.156,-30.273,0.000
1709215192.965,-42.480,-45.410,-41.016,-22.949,0.000
1709215192.969,-32.715,-45.898,-35.156,-33.691,0.000
1709215192.973,-55.176,-46.875,-29.785,-39.551,0.000
1709215192.977,-62.500,-50.781,-33.691,-27.832,0.000
1709215192.981,-47.363,-43.457,-45.898,-23.926,0.000
1709215192.985,-33.691,-37.598,-36.621,-26.855,0.000
1709215192.989,-40.039,-43.457,-20.508,-30.762,0.000
1709215192.992,-68.359,-52.734,-25.879,-43.945,0.000
1709215192.996,-71.289,-53.711,-32.715,-51.758,0.000
1709215193.000,-48.828,-52.734,-30.762,-36.133,0.000
1709215193.004,-33.203,-53.711,-30.273,-15.137,0.000
1709215193.008,-24.902,-45.898,-33.203,-26.367,0.000
1709215193.012,-49.805,-41.504,-28.320,-41.992,0.000
1709215193.016,-59.570,-48.340,-26.855,-43.945,0.000
1709215193.020,-32.715,-48.828,-31.250,-34.668,0.000
1709215193.024,-18.066,-42.969,-33.203,-27.344,0.000
1709215193.028,-20.020,-42.969,-29.297,-20.996,0.000
1709215193.032,-31.250,-41.992,-25.879,-33.691,0.000
1709215193.036,-36.621,-40.527,-36.621,-52.246,0.000
1709215193.040,-36.133,-46.387,-43.457,-40.527,0.000
1709215193.044,-39.062,-40.527,-43.457,-40.527,0.000
1709215193.047,-39.551,-41.992,-42.969,-55.664,0.000
1709215193.052,-42.969,-49.316,-41.992,-65.918,0.000
1709215193.055,-57.129,-41.016,-41.504,-60.547,0.000
1709215193.059,-56.641,-45.410,-40.039,-59.570,0.000
1709215193.063,-37.598,-48.828,-36.133,-51.270,0.000
1709215193.067,-33.203,-44.434,-32.715,-41.504,0.000
1709215193.071,-57.617,-45.898,-35.645,-54.199,0.000
1709215193.075,-64.453,-47.852,-42.480,-62.500,0.000
1709215193.079,-56.641,-43.457,-43.945,-50.293,0.000
1709215193.083,-41.016,-44.434,-42.480,-34.180,0.000
1709215193.087,-21.484,-37.598,-41.016,-24.902,0.000
1709215193.091,-41.992,-49.316,-44.922,-46.875,0.000
1709215193.094,-57.617,-55.176,-49.805,-60.547,0.000
1709215193.098,-49.316,-38.086,-44.922,-50.293,0.000
1709215193.102,-42.969,-35.156,-38.574,-47.852,0.000
1709215193.106,-27.344,-42.969,-38.574,-45.898,0.000
1709215193.110,-32.227,-43.457,-38.574,-46.875,0.000
1709215193.114,-55.176,-46.387,-31.738,-51.758,0.000
1709215193.118,-50.293,-53.711,-30.762,-48.340,0.000
1709215193.122,-29.297,-43.945,-32.227,-39.062,0.000
1709215193.126,-31.250,-41.504,-32.227,-32.715,0.000
1709215193.130,-33.203,-49.805,-33.691,-34.180,0.000
1709215193.134,-42.480,-44.922,-29.297,-41.992,0.000
1709215193.137,-38.574,-39.551,-29.785,-38.086,0.000
1709215193.141,-22.461,-42.480,-39.062,-38.574,0.000
