timestamps,TP9,AF7,AF8,TP10,Right AUX
1709215299.415,-57.129,-55.664,-48.828,-54.199,0.000
1709215299.419,-33.203,-57.617,-47.363,-40.039,0.000
1709215299.423,-11.719,-22.461,-30.762,-30.762,0.000
1709215299.427,-29.297,-19.531,-32.715,-33.203,0.000
1709215299.431,-41.504,-31.738,-39.551,-34.180,0.000
1709215299.435,-47.363,-35.156,-46.875,-48.828,0.000
1709215299.439,-50.293,-44.922,-46.875,-51.270,0.000
1709215299.443,-34.668,-57.129,-38.086,-33.691,0.000
1709215299.447,-23.926,-47.363,-25.391,-23.438,0.000
1709215299.451,-35.156,-45.898,-31.250,-32.227,0.000
1709215299.454,-41.504,-45.898,-44.434,-44.434,0.000
1709215299.458,-40.039,-41.992,-41.992,-44.922,0.000
1709215299.462,-39.062,-46.387,-41.992,-42.480,0.000
1709215299.466,-25.391,-30.273,-39.062,-28.809,0.000
1709215299.470,-13.672,-20.996,-34.668,-32.715,0.000
1709215299.474,-32.715,-34.668,-37.598,-43.457,0.000
1709215299.478,-51.270,-56.641,-52.246,-38.086,0.000
1709215299.482,-36.621,-65.430,-48.340,-22.949,0.000
1709215299.486,-24.902,-42.480,-34.180,-14.648,0.000
1709215299.490,-29.785,-37.109,-38.574,-21.484,0.000
1709215299.494,-45.410,-47.363,-45.410,-17.578,0.000
1709215299.498,-43.457,-38.574,-34.180,-20.020,0.000
1709215299.502,-25.879,-36.621,-26.855,-28.809,0.000
1709215299.505,-21.973,-30.273,-38.086,-19.043,0.000
1709215299.509,-28.320,-24.902,-38.086,-19.043,0.000
1709215299.513,-42.969,-46.875,-30.762,-39.062,0.000
1709215299.517,-41.992,-50.293,-34.180,-47.852,0.000
1709215299.521,-25.391,-33.203,-30.273,-26.855,0.000
1709215299.525,-15.625,-34.180,-26.367,-6.836,0.000
1709215299.529,-8.301,-43.457,-39.551,-22.461,0.000
1709215299.533,-22.461,-54.199,-39.551,-50.781,0.000
1709215299.537,-43.457,-52.734,-23.926,-42.969,0.000
1709215299.541,-31.738,-42.480,-23.438,-24.414,0.000
1709215299.545,-17.090,-43.945,-26.367,-17.578,0.000
1709215299.548,-20.996,-38.574,-29.785,-21.973,0.000
1709215299.552,-25.879,-28.809,-31.738,-31.738,0.000
1709215299.556,-36.133,-34.180,-34.180,-35.645,0.000
1709215299.560,-41.504,-47.852,-30.762,-29.785,0.000
1709215299.564,-28.320,-49.316,-28.320,-17.090,0.000
1709215299.568,-32.227,-43.457,-32.227,-29.785,0.000
1709215299.572,-51.270,-51.758,-30.762,-46.387,0.000
1709215299.576,-59.082,-44.434,-38.086,-50.293,0.000
1709215299.580,-54.199,-37.598,-35.156,-44.434,0.000
1709215299.584,-30.273,-48.828,-22.461,-19.531,0.000
1709215299.587,-9.277,-56.152,-32.227,-17.578,0.000
1709215299.591,-26.367,-54.688,-32.715,-34.180,0.000
1709215299.595,-45.898,-44.434,-25.879,-41.016,0.000
1709215299.599,-40.527,-35.645,-28.809,-38.086,0.000
1709215299.603,-21.484,-36.621,-31.250,-13.184,0.000
1709215299.607,-9.766,-45.410,-41.504,-2.930,0.000
1709215299.611,-13.184,-40.527,-38.574,-12.207,0.000
1709215299.615,-28.809,-43.945,-42.480,-27.832,0.000
1709215299.619,-38.574,-32.227,-33.691,-32.715,0.000
1709215299.622,-27.344,-18.066,-20.996,-10.742,0.000
1709215299.626,-14.648,-33.203,-35.156,-9.277,0.000
1709215299.630,-26.855,-34.180,-36.133,-35.156,0.000
1709215299.634,-49.805,-28.809,-37.109,-64.453,0.000
1709215299.638,-48.340,-38.574,-41.504,-64.453,0.000
1709215299.642,-15.625,-50.293,-34.180,-36.621,0.000
1709215299.646,-6.836,-46.387,-36.621,-25.879,0.000
1709215299.650,-39.551,-34.180,-53.223,-33.691,0.000
1709215299.654,-45.898,-25.879,-39.062,-39.551,0.000
1709215299.657,-39.062,-33.203,-19.531,-38.574,0.000
1709215299.661,-33.203,-34.668,-22.461,-29.785,0.000
1709215299.665,-18.066,-32.227,-31.250,-10.254,0.000
1709215299.669,-12.695,-27.832,-20.508,-5.371,0.000
1709215299.673,-15.137,-28.809,-14.648,-3.418,0.000
1709215299.677,-15.625,-39.551,-37.598,-1.953,0.000
1709215299.681,-0.977,-33.691,-30.762,-9.277,0.000
1709215299.685,20.508,-34.180,-13.672,9.766,0.000
1709215299.689,23.926,-34.180,-17.090,20.020,0.000
1709215299.693,5.371,-30.273,-14.160,0.488,0.000
1709215299.696,5.371,-28.809,-10.742,-0.488,0.000
1709215299.700,11.230,-21.973,-21.484,9.766,0.000
1709215299.704,6.836,-30.273,-20.996,10.254,0.000
1709215299.708,-0.977,-40.039,-19.531,1.465,0.000
1709215299.712,-26.855,-31.738,-21.973,-21.484,0.000
1709215299.716,-38.086,-28.809,-21.484,-22.949,0.000
1709215299.720,-34.180,-33.691,-28.320,-17.090,0.000
1709215299.723,-39.551,-37.109,-26.367,-26.367,0.000
1709215299.727,-41.992,-43.945,-32.715,-34.180,0.000
1709215299.731,-50.781,-45.410,-30.273,-42.969,0.000
1709215299.735,-61.035,-48.340,-35.156,-57.617,0.000
1709215299.739,-56.152,-34.668,-46.875,-61.523,0.000
1709215299.743,-42.480,-36.133,-39.551,-41.504,0.000
1709215299.747,-37.109,-50.293,-46.387,-27.832,0.000
1709215299.751,-44.922,-40.039,-42.969,-37.109,0.000
1709215299.755,-55.176,-46.387,-29.785,-51.270,0.000
1709215299.759,-39.551,-42.480,-31.250,-48.340,0.000
1709215299.763,-36.133,-35.156,-42.480,-22.949,0.000
1709215299.767,-40.527,-46.387,-57.617,-20.508,0.000
1709215299.771,-38.086,-37.109,-52.734,-45.410,0.000
1709215299.775,-46.875,-31.738,-39.062,-49.805,0.000
1709215299.779,-41.016,-30.762,-36.133,-35.645,0.000
1709215299.782,-24.902,-26.855,-39.062,-21.973,0.000
1709215299.786,-20.508,-24.902,-35.645,-26.855,0.000
1709215299.791,-18.066,-33.691,-24.902,-32.715,0.000
1709215299.795,-35.156,-48.340,-39.551,-41.016,0.000
1709215299.798,-40.039,-36.621,-52.734,-52.246,0.000
1709215299.802,-17.578,-26.855,-30.762,-30.273,0.000
1709215299.806,-21.973,-36.621,-36.621,-14.648,0.000
1709215299.810,-19.043,-25.879,-50.781,-27.832,0.000
1709215299.814,-29.785,-26.855,-38.086,-50.781,0.000
1709215299.818,-62.988,-31.738,-38.574,-60.059,0.000
1709215299.822,-57.129,-35.156,-43.945,-51.758,0.000
1709215299.826,-48.340,-36.133,-36.621,-40.527,0.000
1709215299.830,-49.316,-33.691,-32.715,-50.293,0.000
1709215299.834,-64.941,-43.457,-42.480,-72.754,0.000
1709215299.838,-75.195,-48.828,-43.945,-79.590,0.000
1709215299.842,-65.918,-44.434,-39.551,-65.918,0.000
1709215299.846,-60.547,-46.875,-51.758,-58.105,0.000
1709215299.850,-55.664,-48.340,-49.805,-66.895,0.000
1709215299.854,-72.754,-45.898,-39.551,-83.984,0.000
1709215299.858,-86.426,-61.523,-39.062,-83.984,0.000
1709215299.862,-64.453,-62.012,-49.805,-70.312,0.000
1709215299.866,-48.340,-47.852,-52.246,-57.617,0.000
1709215299.870,-55.176,-38.574,-45.898,-44.922,0.000
1709215299.874,-50.293,-25.879,-44.922,-47.363,0.000
1709215299.878,-46.875,-31.250,-49.805,-65.918,0.000
1709215299.881,-41.016,-47.363,-58.594,-55.664,0.000
1709215299.885,-32.715,-42.969,-51.758,-26.855,0.000
1709215299.889,-28.809,-44.434,-38.086,-22.461,0.000
1709215299.893,-34.180,-51.270,-42.480,-45.410,0.000
1709215299.897,-58.594,-48.828,-53.711,-69.336,0.000
1709215299.901,-54.199,-48.828,-52.734,-56.641,0.000
1709215299.905,-34.180,-50.293,-49.316,-39.551,0.000
1709215299.909,-34.668,-52.246,-48.340,-51.270,0.000
1709215299.913,-52.734,-39.551,-51.270,-67.871,0.000
1709215299.917,-84.473,-34.180,-58.105,-76.660,0.000
1709215299.921,-71.777,-33.691,-64.453,-66.406,0.000
1709215299.924,-59.082,-35.156,-43.457,-51.758,0.000
1709215299.928,-69.336,-57.617,-33.691,-47.363,0.000
1709215299.932,-65.918,-64.453,-46.387,-56.152,0.000
1709215299.936,-73.242,-49.805,-43.945,-84.473,0.000
1709215299.940,-67.383,-32.715,-37.109,-71.777,0.000
1709215299.944,-55.176,-31.738,-40.527,-56.152,0.000
1709215299.948,-47.363,-41.992,-50.293,-56.152,0.000
1709215299.952,-55.176,-50.293,-42.480,-52.246,0.000
1709215299.956,-74.707,-36.133,-34.180,-64.941,0.000
1709215299.959,-54.199,-36.133,-41.504,-61.035,0.000
1709215299.963,-23.926,-41.016,-43.457,-50.293,0.000
1709215299.967,-26.367,-25.391,-41.016,-42.969,0.000
1709215299.971,-30.273,-28.809,-43.457,-40.527,0.000
1709215299.975,-45.410,-44.434,-69.336,-59.570,0.000
1709215299.979,-50.293,-47.852,-52.246,-61.035,0.000
1709215299.983,-38.086,-48.828,-24.902,-51.270,0.000
1709215299.987,-32.715,-46.875,-32.227,-38.574,0.000
1709215299.991,-36.133,-43.457,-31.250,-44.434,0.000
1709215299.994,-48.340,-53.223,-41.504,-64.941,0.000
1709215299.998,-41.016,-39.551,-39.551,-55.176,0.000
1709215300.002,-30.762,-33.203,-35.645,-28.809,0.000
1709215300.006,-13.184,-44.922,-39.551,-8.301,0.000
1709215300.010,-15.137,-32.227,-32.715,-17.090,0.000
1709215300.014,-38.086,-44.922,-33.691,-32.715,0.000
1709215300.018,-36.621,-65.918,-43.945,-45.898,0.000
1709215300.022,-30.762,-46.387,-36.133,-40.527,0.000
1709215300.026,-9.277,-31.738,-31.250,-25.879,0.000
1709215300.030,-7.812,-36.621,-39.551,-19.531,0.000
1709215300.034,-34.668,-54.199,-38.086,-22.461,0.000
1709215300.038,-39.062,-42.969,-29.785,-36.133,0.000
1709215300.042,-33.691,-13.672,-36.621,-24.902,0.000
1709215300.046,-24.902,-21.484,-38.086,-17.578,0.000
1709215300.050,-20.020,-38.574,-38.086,-15.625,0.000
1709215300.054,-37.109,-37.598,-44.434,-36.621,0.000
1709215300.057,-52.246,-39.551,-41.016,-61.035,0.000
1709215300.061,-41.992,-49.316,-42.480,-39.551,0.000
1709215300.065,-13.184,-50.293,-48.828,-32.715,0.000
1709215300.069,-17.090,-30.762,-43.457,-39.551,0.000
1709215300.073,-50.781,-30.762,-33.691,-46.387,0.000
1709215300.077,-67.383,-49.805,-32.227,-71.777,0.000
1709215300.080,-62.500,-64.453,-36.133,-58.594,0.000
1709215300.084,-45.898,-66.895,-37.598,-41.992,0.000
1709215300.088,-26.367,-49.316,-48.340,-49.316,0.000
1709215300.092,-30.762,-40.527,-43.457,-51.758,0.000
1709215300.096,-51.758,-41.992,-29.297,-53.223,0.000
1709215300.100,-34.180,-55.176,-38.574,-36.621,0.000
1709215300.104,-2.441,-51.758,-44.922,-18.066,0.000
1709215300.108,7.812,-26.855,-34.668,-15.137,0.000
1709215300.112,2.930,-33.203,-20.996,-20.996,0.000
1709215300.116,-7.324,-40.527,-22.461,-27.832,0.000
1709215300.119,-10.254,-28.320,-22.461,-20.020,0.000
1709215300.123,-18.066,-35.645,-24.902,-14.160,0.000
1709215300.127,-12.695,-45.898,-25.391,-12.207,0.000
1709215300.131,-27.832,-35.645,-26.855,-22.461,0.000
1709215300.135,-58.594,-23.438,-29.785,-37.598,0.000
1709215300.139,-53.223,-33.691,-16.602,-26.855,0.000
1709215300.143,-40.527,-51.758,-27.832,-14.160,0.000
1709215300.146,-45.410,-51.270,-48.828,-27.832,0.000
1709215300.150,-60.059,-25.879,-49.316,-51.758,0.000
1709215300.154,-66.895,-10.742,-44.434,-61.523,0.000
1709215300.158,-57.129,-14.648,-42.969,-56.152,0.000
1709215300.162,-53.711,-14.160,-51.270,-48.828,0.000
1709215300.166,-52.734,-10.254,-57.129,-53.223,0.000
1709215300.170,-51.270,-23.438,-60.547,-64.453,0.000
1709215300.174,-62.988,-33.691,-59.082,-69.336,0.000
1709215300.178,-70.801,-17.578,-56.641,-71.289,0.000
1709215300.182,-57.129,-0.488,-66.895,-68.359,0.000
1709215300.186,-32.715,12.207,-59.570,-39.551,0.000
1709215300.190,-26.855,22.461,-53.223,-34.668,0.000
1709215300.194,-40.527,14.648,-72.754,-63.965,0.000
1709215300.197,-45.410,1.465,-77.637,-60.547,0.000
1709215300.201,-27.832,3.906,-62.012,-43.945,0.000
1709215300.205,-19.043,8.789,-62.012,-42.969,0.000
1709215300.209,-30.273,-1.953,-78.613,-52.246,0.000
1709215300.213,-28.320,5.859,-77.148,-65.918,0.000
1709215300.217,-23.438,0.488,-62.012,-61.035,0.000
1709215300.221,-15.625,-7.324,-61.523,-53.223,0.000
1709215300.225,-0.977,16.602,-70.312,-49.805,0.000
1709215300.229,-2.930,33.203,-66.895,-53.223,0.000
1709215300.233,-18.066,38.574,-62.500,-60.547,0.000
1709215300.237,-21.484,34.180,-63.965,-53.711,0.000
1709215300.241,-12.695,19.531,-72.754,-41.504,0.000
1709215300.244,2.441,21.484,-68.848,-11.719,0.000
1709215300.248,4.883,27.832,-71.777,-2.930,0.000
1709215300.252,3.906,17.578,-87.891,-28.809,0.000
1709215300.256,0.000,28.320,-77.148,-41.992,0.000
1709215300.260,-4.395,42.969,-63.477,-24.902,0.000
1709215300.264,-2.930,29.297,-69.824,-12.695,0.000
1709215300.268,14.648,28.320,-78.125,-11.719,0.000
1709215300.272,8.789,36.621,-81.543,-21.973,0.000
1709215300.276,-10.742,37.109,-74.707,-28.809,0.000
1709215300.280,-1.953,41.992,-74.707,-18.555,0.000
1709215300.284,12.207,45.898,-78.613,-12.695,0.000
1709215300.287,20.996,37.598,-83.984,-12.695,0.000
1709215300.291,0.977,30.762,-86.426,-13.184,0.000
1709215300.295,-24.902,32.227,-90.332,-32.715,0.000
1709215300.299,-25.879,29.785,-97.168,-44.434,0.000
1709215300.303,-8.789,25.391,-95.215,-24.414,0.000
1709215300.307,-7.812,15.625,-94.727,-19.531,0.000
1709215300.311,-10.254,21.484,-86.914,-32.715,0.000
1709215300.315,-4.395,36.133,-80.078,-45.898,0.000
1709215300.319,-8.301,35.645,-78.613,-48.340,0.000
1709215300.323,-10.254,23.926,-87.891,-45.898,0.000
1709215300.326,6.836,25.391,-92.285,-38.574,0.000
1709215300.330,7.812,31.738,-87.402,-47.363,0.000
1709215300.334,-13.672,27.832,-83.496,-57.617,0.000
1709215300.338,-19.531,22.461,-85.938,-54.688,0.000
1709215300.342,-0.977,25.391,-94.238,-54.199,0.000
1709215300.346,15.137,28.809,-99.609,-43.457,0.000
1709215300.350,4.395,37.109,-91.797,-34.668,0.000
1709215300.354,-12.695,38.086,-76.172,-48.340,0.000
1709215300.358,-25.391,11.719,-78.613,-56.641,0.000
1709215300.362,-9.766,1.465,-86.426,-30.273,0.000
1709215300.366,12.695,5.859,-88.867,-11.719,0.000
1709215300.369,12.695,14.648,-73.242,-2.930,0.000
1709215300.373,-0.977,12.695,-58.594,-17.090,0.000
1709215300.377,-5.859,-1.465,-61.523,-21.484,0.000
1709215300.381,-8.789,-5.859,-56.152,14.648,0.000
1709215300.385,0.977,-9.766,-50.781,21.973,0.000
1709215300.389,2.441,-2.930,-48.340,31.250,0.000
1709215300.393,-10.742,-10.742,-43.945,34.668,0.000
1709215300.397,-11.230,-32.227,-42.969,1.953,0.000
1709215300.400,-13.672,-15.137,-42.480,-3.906,0.000
1709215300.404,-3.906,3.906,-43.945,18.555,0.000
1709215300.408,-10.254,-4.883,-42.969,21.484,0.000
1709215300.412,-29.297,-6.348,-40.039,2.441,0.000
1709215300.416,-48.828,-14.648,-53.711,-23.926,0.000
1709215300.420,-43.945,-20.508,-57.129,-24.902,0.000
1709215300.424,-20.508,-19.531,-43.457,-3.418,0.000
1709215300.428,-26.855,-20.508,-38.574,-17.578,0.000
1709215300.432,-40.039,-9.277,-50.781,-49.316,0.000
1709215300.436,-50.781,-14.160,-49.316,-57.617,0.000
1709215300.439,-61.523,-21.484,-35.156,-48.340,0.000
1709215300.443,-35.645,-39.551,-29.297,-40.039,0.000
1709215300.448,-13.672,-62.988,-35.156,-45.898,0.000
1709215300.452,-41.504,-47.852,-39.551,-56.152,0.000
1709215300.456,-73.730,-27.832,-50.781,-77.637,0.000
1709215300.459,-62.988,-31.250,-53.711,-77.148,0.000
1709215300.463,-41.504,-37.109,-46.875,-50.293,0.000
1709215300.467,-38.574,-38.086,-60.547,-36.133,0.000
1709215300.471,-30.762,-44.922,-58.594,-33.203,0.000
1709215300.475,-31.250,-49.316,-47.852,-57.617,0.000
1709215300.479,-44.434,-28.320,-46.875,-63.477,0.000
1709215300.483,-31.738,-23.438,-38.086,-33.691,0.000
1709215300.487,-17.090,-49.805,-46.387,-16.113,0.000
1709215300.491,-28.320,-41.504,-62.988,-32.227,0.000
1709215300.495,-31.738,-22.949,-47.852,-56.641,0.000
1709215300.499,-36.621,-44.434,-44.434,-62.988,0.000
1709215300.503,-45.898,-50.293,-41.992,-44.434,0.000
1709215300.507,-36.621,-30.762,-33.691,-23.438,0.000
1709215300.511,-34.668,-36.621,-37.598,-22.461,0.000
1709215300.514,-43.457,-46.387,-35.156,-33.691,0.000
1709215300.518,-36.621,-42.480,-25.391,-39.062,0.000
1709215300.522,-33.203,-29.785,-36.133,-44.434,0.000
1709215300.526,-23.926,-29.297,-36.133,-32.715,0.000
1709215300.530,-11.719,-36.621,-34.180,-17.578,0.000
1709215300.534,-25.391,-24.902,-38.086,-32.715,0.000
1709215300.538,-26.367,-31.738,-33.203,-46.387,0.000
1709215300.542,-25.879,-56.152,-33.691,-31.738,0.000
1709215300.546,-25.391,-32.227,-32.227,-11.230,0.000
1709215300.550,-16.113,-20.020,-40.039,-10.254,0.000
1709215300.554,-28.809,-58.594,-41.992,-42.480,0.000
1709215300.558,-31.738,-43.457,-28.320,-65.918,0.000
1709215300.562,-40.527,-17.090,-25.879,-56.152,0.000
1709215300.565,-45.410,-39.551,-32.715,-44.434,0.000
1709215300.569,-39.551,-54.199,-40.527,-46.875,0.000
1709215300.573,-35.156,-43.945,-35.645,-40.527,0.000
1709215300.577,-41.016,-38.574,-31.738,-39.551,0.000
1709215300.581,-47.852,-41.016,-33.691,-56.152,0.000
1709215300.585,-41.016,-44.434,-43.945,-42.969,0.000
1709215300.589,-32.227,-47.363,-33.691,-24.902,0.000
1709215300.593,-17.578,-53.223,-21.484,-21.973,0.000
1709215300.597,-41.016,-52.246,-34.180,-38.574,0.000
1709215300.601,-48.340,-44.434,-33.691,-40.527,0.000
1709215300.605,-27.344,-41.504,-27.344,-32.715,0.000
1709215300.608,-26.367,-55.176,-32.227,-43.457,0.000
1709215300.612,-44.922,-58.594,-44.434,-64.453,0.000
1709215300.616,-40.039,-33.691,-42.969,-71.777,0.000
1709215300.620,-41.992,-32.715,-28.320,-49.316,0.000
1709215300.624,-54.199,-39.551,-29.297,-23.438,0.000
1709215300.628,-36.621,-30.762,-38.574,-23.438,0.000
1709215300.632,-29.785,-29.785,-30.273,-33.203,0.000
1709215300.636,-45.898,-46.387,-35.156,-48.340,0.000
1709215300.640,-49.316,-66.406,-34.180,-42.480,0.000
1709215300.644,-34.180,-66.406,-31.738,-26.855,0.000
1709215300.647,-35.156,-56.641,-34.180,-23.926,0.000
1709215300.651,-49.316,-51.758,-33.691,-36.133,0.000
1709215300.655,-65.918,-42.969,-34.180,-52.246,0.000
1709215300.659,-69.336,-45.410,-39.062,-49.805,0.000
1709215300.663,-53.223,-48.828,-41.992,-40.039,0.000
1709215300.667,-20.996,-53.711,-27.832,-27.344,0.000
1709215300.671,-29.297,-62.012,-26.367,-43.457,0.000
1709215300.675,-62.988,-47.363,-36.621,-58.594,0.000
1709215300.679,-45.898,-40.527,-33.203,-46.387,0.000
1709215300.683,-10.742,-41.504,-27.344,-21.484,0.000
1709215300.686,-9.766,-31.250,-41.992,-12.695,0.000
1709215300.690,-21.973,-27.344,-37.109,-24.902,0.000
1709215300.694,-31.738,-42.969,-23.926,-53.223,0.000
1709215300.698,-42.969,-39.551,-20.020,-67.383,0.000
1709215300.702,-21.973,-28.320,-22.461,-39.062,0.000
1709215300.706,-0.488,-26.367,-18.555,-15.137,0.000
1709215300.710,-14.160,-26.367,-22.949,-24.414,0.000
1709215300.714,-29.297,-23.926,-42.969,-54.199,0.000
1709215300.718,-43.945,-13.184,-48.828,-76.172,0.000
1709215300.722,-40.527,-20.508,-46.875,-60.059,0.000
1709215300.726,-19.531,-24.414,-50.781,-37.109,0.000
1709215300.729,-19.043,-16.113,-53.711,-42.480,0.000
1709215300.733,-26.367,-9.277,-44.434,-40.039,0.000
1709215300.737,-48.828,-12.695,-44.434,-40.039,0.000
1709215300.741,-49.805,-17.090,-51.758,-54.199,0.000
1709215300.745,-29.785,-23.438,-50.293,-39.062,0.000
1709215300.749,-30.273,-30.762,-44.922,-29.785,0.000
1709215300.753,-33.203,-41.992,-42.480,-34.180,0.000
1709215300.757,-44.922,-59.570,-49.316,-32.715,0.000
1709215300.760,-45.898,-42.969,-53.223,-34.180,0.000
1709215300.764,-28.320,-31.738,-45.898,-28.809,0.000
1709215300.768,-28.320,-40.527,-34.180,-22.949,0.000
1709215300.772,-41.504,-27.832,-46.875,-28.809,0.000
1709215300.777,0.000,-22.461,0.000,-38.574,0.000
1709215300.781,0.000,-31.738,0.000,-45.898,0.000
1709215300.785,0.000,-41.504,0.000,-29.297,0.000
1709215300.789,0.000,-45.410,0.000,-27.832,0.000
1709215300.792,0.000,-47.363,0.000,-35.156,0.000
1709215300.796,0.000,-51.270,0.000,-33.203,0.000
1709215300.800,0.000,-47.363,0.000,-29.785,0.000
1709215300.804,0.000,-35.156,0.000,-38.086,0.000
1709215300.808,0.000,-28.809,0.000,-41.992,0.000
1709215300.812,0.000,-43.457,0.000,-34.668,0.000
1709215300.816,0.000,-47.363,0.000,-44.434,0.000
1709215300.820,0.000,-30.273,0.000,-50.781,0.000
1709215300.823,-25.879,-20.996,-45.410,-42.480,0.000
1709215300.827,-4.883,-30.273,-37.598,-27.344,0.000
1709215300.831,-5.371,-51.270,-38.086,-32.227,0.000
1709215300.835,-15.137,-50.781,-47.363,-51.270,0.000
1709215300.839,-30.273,-36.621,-51.270,-55.664,0.000
1709215300.843,-41.016,-30.273,-47.363,-45.410,0.000
1709215300.847,-22.461,-29.785,-44.434,-27.832,0.000
1709215300.851,-24.902,-34.180,-41.504,-27.832,0.000
1709215300.855,-51.270,-38.086,-49.316,-46.875,0.000
1709215300.858,-51.758,-40.527,-53.223,-54.688,0.000
1709215300.862,-34.668,-36.621,-45.898,-35.156,0.000
1709215300.866,-27.832,-35.645,-45.898,-24.414,0.000
1709215300.871,-30.762,-41.504,0.000,-33.203,0.000
1709215300.874,-37.109,-26.855,0.000,-44.922,0.000
1709215300.878,-52.246,-27.344,0.000,-60.059,0.000
1709215300.882,-57.129,-54.199,0.000,-57.617,0.000
1709215300.886,-39.062,-42.480,0.000,-38.086,0.000
1709215300.890,-23.926,-31.250,0.000,-43.945,0.000
1709215300.894,-42.969,-36.621,0.000,-60.059,0.000
1709215300.898,-58.105,-25.879,0.000,-60.059,0.000
1709215300.902,-47.363,-24.414,0.000,-52.246,0.000
1709215300.906,-46.875,-36.133,0.000,-41.504,0.000
1709215300.910,-43.945,-42.969,0.000,-50.781,0.000
1709215300.913,-44.434,-42.480,0.000,-64.941,0.000
1709215300.918,-45.410,-46.875,-34.668,-60.059,0.000
1709215300.921,-40.039,-38.574,-45.898,-47.852,0.000
1709215300.925,-21.484,-23.926,-50.293,-39.062,0.000
1709215300.929,-11.230,-39.062,-47.852,-42.480,0.000
1709215300.933,-23.926,-48.828,-35.645,-41.992,0.000
1709215300.937,-45.410,-33.203,-37.598,-32.715,0.000
1709215300.941,-48.828,-38.574,-48.340,-40.527,0.000
1709215300.945,-32.227,-61.523,-44.434,-31.250,0.000
1709215300.949,-25.391,-56.152,-42.480,-17.090,0.000
1709215300.953,-20.020,-37.598,-34.668,-29.785,0.000
1709215300.957,-28.809,-43.457,-37.598,-55.176,0.000
1709215300.961,-37.598,-43.945,-35.156,-54.688,0.000
1709215300.964,-18.066,-28.320,-27.832,-34.668,0.000
1709215300.968,-19.531,-25.879,-28.809,-27.832,0.000
1709215300.972,-39.551,-36.133,-28.809,-26.855,0.000
1709215300.976,-39.551,-42.969,-30.762,-43.457,0.000
1709215300.980,-39.551,-39.062,-36.133,-48.340,0.000
1709215300.984,-34.668,-45.898,-39.062,-27.344,0.000
1709215300.988,-23.438,-52.246,-35.645,-16.113,0.000
1709215300.992,-41.992,-40.039,-37.598,-36.621,0.000
1709215300.996,-56.152,-44.434,-43.945,-41.992,0.000
1709215301.000,-48.340,-45.410,-42.969,-31.250,0.000
1709215301.004,-44.922,-31.738,-34.668,-37.109,0.000
1709215301.007,-40.039,-35.156,-29.297,-26.855,0.000
1709215301.011,-39.062,-48.828,-34.180,-28.809,0.000
1709215301.015,-48.828,-44.922,-33.691,-62.500,0.000
1709215301.019,-39.062,-32.715,-40.527,-73.730,0.000
1709215301.023,-30.762,-28.809,-48.828,-51.758,0.000
1709215301.027,-24.902,-45.410,-36.133,-31.738,0.000
1709215301.031,-18.555,-42.969,-38.086,-24.902,0.000
1709215301.035,-32.227,-15.625,-37.598,-43.457,0.000
1709215301.039,-44.434,-24.414,-40.039,-44.434,0.000
1709215301.043,-37.598,-33.203,-49.316,-30.762,0.000
1709215301.046,-24.414,-17.090,-35.645,-33.203,0.000
1709215301.050,-18.555,-21.484,-33.203,-33.691,0.000
1709215301.054,-31.738,-37.598,-34.668,-45.898,0.000
1709215301.059,-53.223,-35.156,-30.762,-41.992,0.000
1709215301.063,-38.574,-26.367,-35.156,-37.109,0.000
1709215301.067,-28.809,-21.484,-37.109,-36.621,0.000
1709215301.071,-32.715,-29.785,-29.785,-31.250,0.000
1709215301.074,-32.227,-35.645,-33.203,-36.133,0.000
1709215301.078,-32.715,-34.180,-48.340,-53.711,0.000
1709215301.082,-46.387,-32.715,-49.316,-56.641,0.000
1709215301.086,-46.875,-33.203,-40.527,-25.879,0.000
1709215301.090,-38.086,-27.344,-43.945,-13.184,0.000
1709215301.094,-49.316,-25.879,-57.129,-41.504,0.000
1709215301.098,-64.941,-38.574,-48.340,-61.035,0.000
1709215301.102,-45.410,-41.504,-31.250,-46.875,0.000
1709215301.105,-24.414,-34.180,-31.738,-38.086,0.000
1709215301.109,-41.992,-33.691,-36.133,-34.668,0.000
1709215301.113,-56.152,-33.691,-41.504,-35.645,0.000
1709215301.117,-58.594,-43.945,-48.828,-54.199,0.000
1709215301.121,-52.246,-41.504,-44.922,-55.664,0.000
1709215301.125,-47.852,-36.133,-39.551,-47.363,0.000
1709215301.129,-43.945,-48.340,-40.039,-37.109,0.000
1709215301.133,-41.016,-42.969,-40.527,-40.039,0.000
1709215301.137,-46.387,-44.434,-34.668,-59.082,0.000
1709215301.141,-37.109,-58.594,-37.109,-50.781,0.000
1709215301.145,-32.227,-59.082,-41.992,-38.574,0.000
1709215301.148,-38.086,-54.688,-35.156,-32.715,0.000
1709215301.152,-35.156,-36.133,-38.574,-39.551,0.000
1709215301.156,-50.293,-20.996,-42.480,-54.688,0.000
1709215301.160,-65.918,-36.133,-46.387,-58.594,0.000
1709215301.164,-40.527,-38.086,-38.574,-42.480,0.000
1709215301.168,-18.555,-41.504,-36.133,-20.020,0.000
1709215301.172,-20.996,-47.363,-37.598,-24.902,0.000
1709215301.175,-34.668,-43.945,-41.992,-40.039,0.000
1709215301.179,-33.203,-34.668,-45.410,-37.598,0.000
1709215301.183,-28.809,-30.762,-37.598,-36.621,0.000
1709215301.187,-12.695,-38.574,-35.156,-29.297,0.000
1709215301.191,-16.602,-30.762,-38.574,-28.320,0.000
1709215301.195,-41.992,-25.391,-40.527,-41.504,0.000
1709215301.198,-35.645,-36.621,-46.387,-43.457,0.000
1709215301.202,-17.578,-37.109,-43.457,-9.766,0.000
1709215301.206,-20.020,-27.344,-33.203,-8.789,0.000
1709215301.210,-36.621,-28.320,-28.809,-37.109,0.000
1709215301.214,-40.039,-38.574,-25.879,-45.898,0.000
1709215301.218,-41.016,-41.016,-26.367,-39.062,0.000
1709215301.222,-52.734,-46.875,-25.879,-34.668,0.000
1709215301.226,-31.250,-47.363,-34.668,-23.438,0.000
1709215301.230,-11.719,-35.156,-40.039,-22.949,0.000
1709215301.234,-46.875,-35.645,-33.691,-45.410,0.000
1709215301.237,-46.387,-35.156,-30.762,-47.852,0.000
1709215301.241,-40.039,-39.551,-37.109,-50.293,0.000
1709215301.246,-39.551,-40.527,-34.180,-41.992,0.000
1709215301.249,-34.668,-48.340,-42.969,-38.574,0.000
1709215301.253,-50.781,-52.246,-41.504,-45.898,0.000
1709215301.257,-58.594,-45.898,-22.949,-54.688,0.000
1709215301.261,-43.945,-55.664,-27.832,-44.434,0.000
1709215301.265,-24.902,-66.895,-35.156,-23.438,0.000
1709215301.269,-17.578,-53.223,-35.156,-25.879,0.000
1709215301.273,-35.645,-43.457,-28.809,-36.133,0.000
1709215301.277,-52.734,-45.410,-35.645,-58.105,0.000
1709215301.281,-39.551,-54.688,-34.180,-52.734,0.000
1709215301.285,-32.715,-60.059,-35.645,-22.461,0.000
1709215301.289,-31.738,-33.691,-37.109,-20.508,0.000
1709215301.293,-38.086,-27.832,-34.180,-42.480,0.000
1709215301.297,-47.852,-44.434,-41.016,-47.852,0.000
1709215301.300,-43.457,-41.992,-43.457,-45.898,0.000
1709215301.304,-32.227,-46.387,-37.598,-42.480,0.000
1709215301.308,-28.809,-57.129,-31.738,-22.949,0.000
1709215301.312,-30.762,-50.781,-31.250,-20.508,0.000
1709215301.316,-46.387,-60.547,-15.625,-43.457,0.000
1709215301.320,-59.082,-73.242,-11.719,-55.176,0.000
1709215301.324,-52.246,-44.434,-20.508,-34.180,0.000
1709215301.328,-44.922,-28.320,-19.043,-23.926,0.000
1709215301.332,-44.434,-41.016,-23.438,-46.387,0.000
1709215301.336,-62.012,-38.086,-28.320,-52.734,0.000
1709215301.340,-70.801,-36.621,-34.668,-53.223,0.000
1709215301.343,-54.688,-41.016,-35.156,-42.969,0.000
1709215301.347,-27.832,-61.035,-37.109,-15.625,0.000
1709215301.351,-22.949,-62.988,-45.410,-28.809,0.000
1709215301.355,-53.223,-35.156,-35.156,-63.477,0.000
1709215301.359,-54.199,-34.180,-28.809,-65.430,0.000
1709215301.363,-43.945,-53.223,-45.410,-45.410,0.000
1709215301.367,-40.527,-59.570,-45.898,-28.320,0.000
1709215301.371,-36.133,-44.922,-28.809,-30.273,0.000
1709215301.375,-53.223,-47.363,-31.250,-57.129,0.000
1709215301.379,-65.430,-50.293,-36.133,-68.359,0.000
1709215301.382,-52.246,-49.316,-39.062,-51.758,0.000
1709215301.387,-45.898,-39.551,-31.738,-31.250,0.000
1709215301.391,-40.039,-21.484,-34.668,-33.203,0.000
1709215301.395,-36.133,-20.996,-40.039,-49.805,0.000
1709215301.399,-49.316,-35.645,-31.738,-48.828,0.000
1709215301.403,-43.945,-52.246,-31.250,-32.715,0.000
1709215301.407,-27.832,-51.758,-29.297,-27.832,0.000
1709215301.411,-27.344,-36.133,-36.621,-41.016,0.000
1709215301.414,-39.062,-36.621,-33.691,-46.875,0.000
1709215301.418,-48.340,-44.434,-20.020,-46.875,0.000
1709215301.422,-53.223,-32.715,-28.809,-52.246,0.000
1709215301.426,-34.180,-32.227,-31.738,-41.016,0.000
1709215301.430,-17.578,-32.227,-24.902,-30.762,0.000
1709215301.434,-25.391,-40.039,-42.969,-41.504,0.000
1709215301.438,-54.199,-54.688,-61.523,-73.730,0.000
1709215301.442,-62.988,-41.504,-45.410,-72.754,0.000
1709215301.446,-38.086,-44.434,-48.340,-44.434,0.000
1709215301.449,-28.320,-51.758,-38.086,-41.504,0.000
1709215301.453,-34.180,-47.852,-18.555,-62.988,0.000
1709215301.457,-56.641,-44.434,-26.855,-63.477,0.000
1709215301.461,-53.223,-47.852,-43.457,-38.574,0.000
1709215301.465,-16.113,-52.246,-47.363,-22.949,0.000
1709215301.469,-23.438,-39.551,-34.668,-26.367,0.000
1709215301.473,-38.574,-26.367,-20.508,-46.387,0.000
1709215301.477,-49.316,-28.809,-20.996,-61.523,0.000
1709215301.480,-34.668,-30.762,-25.391,-50.293,0.000
1709215301.484,-13.184,-34.668,-23.438,-35.156,0.000
1709215301.488,-29.785,-41.504,-34.180,-20.020,0.000
1709215301.492,-34.668,-38.574,-36.621,-16.113,0.000
1709215301.496,-48.340,-41.016,-36.621,-41.016,0.000
1709215301.500,-65.918,-41.992,-42.969,-45.898,0.000
1709215301.504,-48.828,-37.598,-38.086,-28.809,0.000
1709215301.508,-24.414,-45.898,-36.133,-12.695,0.000
1709215301.512,-29.785,-52.734,-40.039,-26.855,0.000
1709215301.516,-44.922,-50.781,-38.086,-49.316,0.000
1709215301.519,-47.852,-42.969,-33.691,-50.293,0.000
1709215301.523,-28.809,-41.992,-45.410,-34.180,0.000
1709215301.527,-19.531,-41.992,-45.898,-22.949,0.000
1709215301.531,-43.457,-29.297,-35.645,-39.551,0.000
1709215301.535,-62.988,-26.855,-34.668,-57.129,0.000
1709215301.539,-63.965,-32.715,-40.039,-58.594,0.000
1709215301.543,-38.574,-28.809,-42.969,-41.992,0.000
1709215301.546,-26.367,-36.621,-39.551,-34.668,0.000
1709215301.550,-33.691,-48.828,-36.621,-27.832,0.000
1709215301.554,-40.039,-44.434,-41.016,-45.410,0.000
1709215301.558,-51.758,-31.738,-43.457,-63.477,0.000
1709215301.562,-38.574,-31.738,-38.086,-52.246,0.000
1709215301.566,-20.508,-49.805,-42.480,-33.203,0.000
1709215301.570,-38.574,-62.500,-43.457,-28.809,0.000
1709215301.573,-45.410,-45.898,-29.297,-45.410,0.000
1709215301.577,-47.852,-41.016,-39.062,-54.688,0.000
1709215301.581,-46.875,-49.316,-51.270,-50.293,0.000
1709215301.585,-31.738,-33.691,-40.527,-25.391,0.000
1709215301.589,-20.996,-30.762,-46.387,-27.344,0.000
1709215301.593,-39.062,-35.156,-61.523,-45.410,0.000
1709215301.597,-58.105,-25.391,-39.551,-42.480,0.000
1709215301.601,-45.410,-28.320,-20.508,-30.762,0.000
1709215301.605,-14.648,-33.203,-32.227,-23.926,0.000
1709215301.609,-24.414,-41.504,-31.250,-26.367,0.000
1709215301.612,-52.734,-44.434,-26.367,-37.598,0.000
1709215301.616,-40.039,-40.039,-33.691,-47.363,0.000
1709215301.620,-35.645,-52.246,-30.273,-49.805,0.000
1709215301.624,-32.227,-62.988,-27.344,-40.527,0.000
1709215301.628,-29.785,-51.270,-34.668,-38.574,0.000
1709215301.632,-35.645,-36.133,-34.180,-52.734,0.000
1709215301.636,-51.758,-29.785,-34.668,-61.523,0.000
1709215301.640,-53.711,-41.504,-39.551,-54.199,0.000
1709215301.644,-15.625,-54.199,-43.945,-39.062,0.000
1709215301.648,-14.160,-37.598,-44.922,-35.156,0.000
1709215301.652,-41.992,-28.320,-43.945,-43.457,0.000
1709215301.656,-44.434,-31.250,-42.969,-43.945,0.000
1709215301.660,-41.016,-41.016,-43.457,-39.062,0.000
1709215301.663,-26.367,-47.852,-46.875,-23.438,0.000
1709215301.668,-8.301,-45.410,-33.203,-9.277,0.000
1709215301.671,-14.160,-32.227,-18.555,-20.020,0.000
1709215301.675,-32.227,-29.785,-22.461,-41.992,0.000
1709215301.679,-41.992,-25.879,-24.902,-46.387,0.000
1709215301.683,-22.461,-18.555,-33.691,-26.367,0.000
1709215301.687,-11.719,-34.180,-34.668,-17.578,0.000
1709215301.691,-39.551,-50.293,-29.297,-29.785,0.000
1709215301.695,-44.434,-50.293,-30.273,-48.340,0.000
1709215301.699,-49.316,-52.734,-31.738,-48.828,0.000
1709215301.703,-40.527,-41.504,-33.203,-30.762,0.000
1709215301.707,-19.043,-30.273,-24.414,-25.391,0.000
1709215301.710,-20.996,-29.785,-32.227,-33.203,0.000
1709215301.715,-37.109,-25.391,-48.828,-54.688,0.000
1709215301.719,-37.109,-41.504,-45.898,-64.941,0.000
1709215301.723,-25.879,-42.969,-53.223,-43.457,0.000
1709215301.727,-31.250,-36.621,-51.270,-25.391,0.000
1709215301.731,-21.484,-41.016,-37.598,-31.250,0.000
1709215301.735,-13.184,-35.645,-47.363,-43.945,0.000
1709215301.739,-38.574,-45.410,-39.062,-54.688,0.000
1709215301.743,-42.480,-43.945,-29.297,-36.621,0.000
1709215301.746,-22.461,-34.668,-38.574,0.977,0.000
1709215301.750,-17.578,-34.668,-40.527,-14.160,0.000
1709215301.754,-38.086,-25.391,-28.809,-53.223,0.000
1709215301.758,-61.035,-23.926,-29.297,-64.941,0.000
1709215301.762,-50.781,-22.949,-37.598,-46.875,0.000
1709215301.766,-37.109,-33.203,-36.621,-26.855,0.000
1709215301.770,-33.203,-53.223,-36.133,-32.715,0.000
1709215301.774,-46.875,-44.434,-39.062,-45.898,0.000
1709215301.778,-63.965,-34.668,-30.273,-41.992,0.000
1709215301.782,-45.898,-41.992,-33.691,-29.785,0.000
1709215301.785,-37.109,-48.340,-44.434,-27.344,0.000
1709215301.789,-42.969,-45.410,-45.410,-22.461,0.000
1709215301.793,-52.246,-45.898,-37.598,-31.250,0.000
1709215301.797,-64.941,-47.852,-32.715,-44.922,0.000
1709215301.801,-64.941,-43.457,-42.480,-44.434,0.000
1709215301.805,-41.016,-44.922,-47.852,-25.391,0.000
1709215301.809,-19.043,-54.199,-39.062,-11.230,0.000
1709215301.813,-30.762,-47.363,-38.574,-30.762,0.000
1709215301.817,-49.805,-38.574,-32.227,-47.363,0.000
1709215301.820,-44.922,-39.062,-30.273,-50.781,0.000
1709215301.824,-21.973,-44.434,-39.551,-40.039,0.000
1709215301.828,-23.438,-44.922,-37.109,-30.273,0.000
1709215301.832,-24.414,-44.434,-33.691,-39.062,0.000
1709215301.836,-31.250,-49.316,-36.621,-41.504,0.000
1709215301.840,-43.945,-36.133,-34.180,-49.316,0.000
1709215301.844,-30.273,-34.668,-34.668,-46.875,0.000
1709215301.848,-6.348,-57.129,-40.039,-18.555,0.000
1709215301.852,-21.973,-53.711,-48.340,-25.391,0.000
1709215301.855,-54.199,-20.996,-40.527,-53.711,0.000
1709215301.859,-52.246,-20.020,-37.109,-51.758,0.000
1709215301.863,-40.527,-37.109,-41.016,-32.715,0.000
1709215301.867,-30.762,-41.504,-42.480,-34.180,0.000
1709215301.871,-37.109,-45.410,-41.992,-40.039,0.000
1709215301.875,-48.828,-47.363,-41.992,-62.500,0.000
1709215301.879,-52.246,-43.945,-42.480,-80.078,0.000
1709215301.883,-42.480,-44.922,-45.898,-56.152,0.000
1709215301.887,-42.480,-38.574,-43.945,-39.551,0.000
1709215301.891,-48.828,-38.086,-32.715,-52.246,0.000
1709215301.895,-65.918,-53.223,-37.598,-63.965,0.000
1709215301.898,-78.613,-59.570,-51.270,-60.547,0.000
1709215301.902,-70.801,-47.852,-49.316,-52.246,0.000
1709215301.906,-58.594,-39.551,-37.598,-44.922,0.000
1709215301.910,-46.387,-57.617,-30.273,-40.527,0.000
1709215301.914,-57.617,-55.664,-31.250,-58.594,0.000
1709215301.918,-64.941,-41.504,-38.086,-64.453,0.000
1709215301.922,-43.457,-55.664,-35.156,-47.363,0.000
1709215301.925,-32.715,-81.055,-36.621,-14.160,0.000
1709215301.929,-40.039,-83.984,-42.969,-15.137,0.000
1709215301.933,-46.875,-39.062,-36.621,-55.664,0.000
1709215301.937,-47.363,-20.020,-29.297,-68.848,0.000
1709215301.941,-50.781,-33.691,-34.668,-53.223,0.000
1709215301.945,-53.223,-50.781,-35.156,-36.133,0.000
1709215301.950,-38.574,-51.758,-40.039,-27.344,0.000
1709215301.954,-45.410,-45.410,-45.898,-36.621,0.000
1709215301.958,-54.688,-47.363,-45.898,-54.688,0.000
1709215301.962,-38.574,-50.293,-36.133,-43.457,0.000
1709215301.966,-36.621,-48.828,-25.879,-28.809,0.000
1709215301.969,-45.410,-45.410,-32.715,-35.645,0.000
1709215301.973,-45.898,-46.875,-36.133,-46.875,0.000
1709215301.977,-58.105,-46.875,-44.434,-59.082,0.000
1709215301.981,-50.293,-45.898,-49.805,-50.293,0.000
1709215301.985,-29.785,-58.105,-35.645,-32.715,0.000
1709215301.989,-26.855,-49.805,-41.504,-31.250,0.000
1709215301.993,-36.621,-26.367,-53.223,-46.875,0.000
1709215301.997,-43.457,-20.996,-42.969,-63.477,0.000
1709215302.001,-36.133,-36.621,-30.273,-49.805,0.000
1709215302.005,-45.410,-50.293,-33.691,-39.062,0.000
1709215302.009,-45.898,-41.016,-37.598,-42.969,0.000
1709215302.013,-41.016,-41.016,-35.645,-45.898,0.000
1709215302.017,-51.270,-40.527,-34.668,-60.547,0.000
1709215302.020,-57.129,-34.668,-40.527,-70.801,0.000
1709215302.024,-45.410,-39.551,-40.039,-56.152,0.000
1709215302.028,-25.879,-45.410,-40.039,-34.668,0.000
1709215302.032,-34.180,-42.480,-42.480,-33.691,0.000
1709215302.036,-60.059,-48.828,-36.621,-53.711,0.000
1709215302.040,-58.594,-61.035,-41.504,-55.664,0.000
1709215302.044,-40.039,-54.199,-37.109,-33.691,0.000
1709215302.048,-20.020,-42.969,-36.133,-25.391,0.000
1709215302.052,-4.883,-41.992,-45.898,-40.527,0.000
1709215302.056,-22.461,-50.781,-61.523,-57.617,0.000
1709215302.060,-55.176,-43.457,-61.035,-64.941,0.000
1709215302.064,-39.062,-40.039,-45.898,-56.152,0.000
1709215302.067,-28.320,-40.527,-37.598,-37.598,0.000
1709215302.071,-28.809,-35.156,-33.691,-32.715,0.000
1709215302.075,-27.344,-42.480,-38.086,-36.621,0.000
1709215302.079,-33.691,-44.922,-41.016,-37.109,0.000
1709215302.083,-18.066,-43.945,-44.922,-28.809,0.000
1709215302.087,-5.371,-38.574,-48.828,-13.672,0.000
1709215302.091,-17.090,-44.434,-45.410,-18.066,0.000
1709215302.095,-21.973,-43.945,-46.387,-38.574,0.000
1709215302.099,-35.156,-36.621,-46.875,-48.828,0.000
1709215302.103,-42.480,-39.551,-52.246,-41.016,0.000
1709215302.107,-17.578,-45.898,-42.969,-22.949,0.000
1709215302.110,-20.020,-56.641,-20.508,-20.020,0.000
1709215302.114,-46.387,-49.805,-24.414,-41.016,0.000
1709215302.118,-52.734,-38.574,-34.180,-59.082,0.000
1709215302.122,-36.621,-45.898,-41.504,-41.016,0.000
1709215302.126,-27.344,-34.668,-45.410,-20.020,0.000
1709215302.130,-26.855,-30.273,-39.551,-34.668,0.000
1709215302.134,-35.645,-50.293,-43.945,-61.035,0.000
1709215302.138,-62.012,-41.504,-34.668,-71.289,0.000
1709215302.142,-64.941,-43.457,-32.227,-60.547,0.000
1709215302.145,-40.039,-55.664,-33.691,-43.457,0.000
1709215302.149,-25.391,-45.898,-22.461,-30.273,0.000
1709215302.153,-21.484,-26.855,-36.621,-36.133,0.000
1709215302.157,-40.039,-19.043,-45.410,-58.105,0.000
1709215302.161,-48.340,-37.598,-43.457,-64.941,0.000
1709215302.165,-27.344,-48.828,-47.363,-48.340,0.000
1709215302.169,-27.832,-27.832,-38.086,-28.809,0.000
1709215302.173,-34.180,-26.855,-42.480,-28.320,0.000
1709215302.177,-49.316,-42.480,-48.828,-51.270,0.000
1709215302.181,-52.734,-37.109,-34.668,-55.664,0.000
1709215302.184,-43.457,-30.762,-40.039,-44.434,0.000
1709215302.188,-29.297,-30.273,-41.504,-36.133,0.000
1709215302.192,-19.043,-23.926,-36.621,-33.691,0.000
1709215302.196,-38.574,-25.879,-43.457,-33.691,0.000
1709215302.200,-53.223,-35.156,-53.711,-40.039,0.000
1709215302.204,-44.434,-43.457,-50.781,-37.109,0.000
1709215302.208,-12.695,-58.594,-40.039,-18.555,0.000
1709215302.212,-15.625,-50.781,-33.691,-32.227,0.000
1709215302.216,-46.387,-39.062,-36.133,-59.082,0.000
1709215302.219,-52.734,-31.738,-44.922,-63.477,0.000
1709215302.223,-37.109,-29.297,-48.340,-41.992,0.000
1709215302.227,-19.043,-43.945,-44.434,-24.902,0.000
1709215302.231,-25.391,-40.039,-43.457,-31.738,0.000
1709215302.235,-31.738,-31.250,-38.086,-37.598,0.000
1709215302.239,-38.086,-41.016,-35.645,-37.109,0.000
1709215302.243,-39.551,-38.086,-35.645,-29.785,0.000
1709215302.246,-36.133,-36.133,-40.039,-18.555,0.000
1709215302.250,-31.250,-43.457,-45.898,-8.789,0.000
1709215302.254,-40.039,-44.434,-32.715,-18.066,0.000
1709215302.258,-45.898,-56.152,-29.297,-27.832,0.000
1709215302.262,-36.621,-53.711,-32.227,-13.184,0.000
1709215302.266,-33.691,-39.062,-25.391,-11.230,0.000
1709215302.270,-29.297,-46.875,-29.297,-27.832,0.000
1709215302.274,-42.969,-62.988,-33.691,-41.992,0.000
1709215302.277,-62.988,-59.570,-45.410,-63.965,0.000
1709215302.281,-59.082,-43.457,-44.922,-62.500,0.000
1709215302.285,-42.969,-32.715,-29.785,-37.109,0.000
1709215302.289,-32.227,-41.016,-30.762,-28.320,0.000
1709215302.293,-25.879,-44.922,-36.133,-41.992,0.000
1709215302.297,-48.828,-35.156,-38.086,-56.641,0.000
1709215302.301,-43.457,-40.527,-42.480,-38.574,0.000
1709215302.305,-26.855,-51.758,-47.852,-14.648,0.000
1709215302.309,-34.180,-43.945,-38.086,-22.949,0.000
1709215302.312,-36.621,-41.016,-32.715,-45.898,0.000
1709215302.316,-44.434,-49.805,-30.273,-57.129,0.000
1709215302.320,-35.156,-51.758,-37.598,-48.828,0.000
1709215302.324,-26.855,-48.340,-55.176,-43.945,0.000
1709215302.328,-26.367,-50.781,-43.457,-40.039,0.000
1709215302.332,-30.762,-45.898,-36.133,-50.293,0.000
1709215302.335,-54.199,-26.855,-44.922,-62.988,0.000
1709215302.339,-59.082,-25.879,-41.016,-59.082,0.000
1709215302.343,-26.855,-33.691,-34.180,-34.668,0.000
1709215302.347,-15.137,-41.504,-30.762,-21.484,0.000
1709215302.351,-37.598,-45.898,-26.855,-40.527,0.000
1709215302.355,-52.246,-42.969,-35.156,-55.664,0.000
1709215302.359,-50.781,-41.016,-40.527,-50.781,0.000
1709215302.363,-37.598,-37.109,-26.855,-37.109,0.000
1709215302.367,-24.902,-41.504,-32.715,-34.180,0.000
1709215302.372,-33.691,-47.852,-48.340,-43.945,0.000
1709215302.376,-56.641,-43.945,-44.922,-66.406,0.000
1709215302.379,-63.477,-40.039,-37.598,-69.336,0.000
1709215302.383,-47.852,-35.645,-35.156,-51.270,0.000
1709215302.387,-27.344,-41.992,-45.410,-33.203,0.000
1709215302.391,-30.762,-41.504,-46.387,-32.227,0.000
1709215302.395,-41.504,-35.645,-41.504,-49.805,0.000
1709215302.399,-33.691,-50.293,-42.969,-65.430,0.000
1709215302.403,-30.762,-53.223,-48.828,-44.434,0.000
1709215302.407,-26.855,-48.828,-46.875,-9.766,0.000
1709215302.411,-23.926,-39.551,-35.156,-24.902,0.000
1709215302.415,-43.457,-30.762,-41.992,-50.781,0.000
1709215302.419,-53.711,-26.855,-42.969,-58.105,0.000
1709215302.423,-32.227,-39.062,-33.203,-45.898,0.000
1709215302.426,-15.137,-55.176,-28.809,-22.949,0.000
1709215302.430,-17.578,-40.039,-35.645,-23.438,0.000
1709215302.434,-25.879,-38.574,-36.621,-31.738,0.000
1709215302.438,-28.809,-60.059,-30.273,-42.480,0.000
1709215302.442,-25.391,-37.109,-37.598,-44.434,0.000
1709215302.446,-21.973,-23.438,-47.852,-31.738,0.000
1709215302.450,-8.789,-33.691,-35.156,-22.461,0.000
1709215302.454,-19.531,-32.227,-30.273,-22.461,0.000
1709215302.458,-50.293,-40.527,-39.551,-35.645,0.000
1709215302.462,-41.504,-47.852,-31.738,-45.410,0.000
1709215302.466,-8.789,-41.504,-24.414,-16.113,0.000
1709215302.469,-1.465,-30.762,-27.832,-1.465,0.000
1709215302.473,-27.832,-41.016,-31.738,-29.785,0.000
1709215302.477,-39.062,-60.059,-32.227,-39.062,0.000
1709215302.481,-30.762,-51.758,-38.574,-38.574,0.000
1709215302.485,-28.809,-33.691,-35.645,-28.809,0.000
1709215302.489,-28.809,-24.414,-27.344,-17.090,0.000
1709215302.493,-31.250,-25.879,-33.203,-28.320,0.000
1709215302.497,-32.227,-35.156,-32.715,-41.504,0.000
1709215302.501,-30.273,-40.527,-22.461,-39.551,0.000
1709215302.505,-23.926,-50.293,-29.785,-23.438,0.000
1709215302.509,-17.090,-41.992,-41.016,-18.555,0.000
1709215302.512,-37.109,-34.668,-26.855,-36.133,0.000
1709215302.516,-60.059,-35.156,-22.461,-41.016,0.000
1709215302.520,-51.758,-44.434,-29.785,-40.527,0.000
1709215302.524,-35.645,-47.852,-25.391,-34.180,0.000
1709215302.528,-30.762,-35.645,-32.227,-19.531,0.000
1709215302.532,-33.691,-30.762,-31.738,-21.484,0.000
1709215302.536,-46.875,-31.738,-33.691,-40.039,0.000
1709215302.540,-46.387,-40.527,-46.387,-41.504,0.000
1709215302.544,-37.109,-42.480,-38.574,-12.695,0.000
1709215302.547,-24.414,-36.621,-30.273,-4.395,0.000
1709215302.551,-34.668,-40.527,-39.551,-27.344,0.000
1709215302.555,-45.898,-41.504,-43.457,-50.781,0.000
1709215302.559,-33.203,-50.781,-41.016,-58.105,0.000
1709215302.563,-43.945,-45.898,-53.223,-37.598,0.000
1709215302.567,-47.852,-17.578,-48.828,-26.367,0.000
1709215302.571,-37.109,-17.090,-30.762,-36.621,0.000
1709215302.575,-52.734,-31.738,-31.738,-46.387,0.000
1709215302.579,-53.711,-36.621,-35.645,-52.734,0.000
1709215302.582,-43.945,-37.109,-32.227,-43.945,0.000
1709215302.586,-46.875,-41.504,-36.133,-22.461,0.000
1709215302.590,-43.457,-45.898,-38.574,-22.461,0.000
1709215302.594,-34.180,-46.875,-37.598,-32.715,0.000
1709215302.598,-54.199,-40.039,-41.992,-45.410,0.000
1709215302.602,-55.176,-38.574,-42.480,-54.199,0.000
1709215302.606,-27.344,-46.387,-42.480,-38.086,0.000
1709215302.609,-40.527,-53.711,-37.598,-31.250,0.000
1709215302.613,-67.383,-55.176,-36.621,-48.828,0.000
1709215302.617,-81.543,-36.621,-44.922,-63.477,0.000
1709215302.621,-71.777,-29.785,-41.992,-48.828,0.000
1709215302.625,-45.898,-41.992,-40.527,-24.902,0.000
1709215302.629,-36.133,-46.875,-43.457,-20.508,0.000
1709215302.633,-34.180,-49.316,-39.062,-20.020,0.000
1709215302.637,-45.410,-50.781,-36.133,-35.645,0.000
1709215302.641,-47.852,-46.387,-40.039,-43.945,0.000
1709215302.645,-35.156,-44.922,-41.016,-38.086,0.000
1709215302.649,-34.668,-48.828,-42.480,-43.457,0.000
1709215302.652,-40.527,-46.387,-38.574,-41.016,0.000
1709215302.656,-41.504,-45.410,-43.457,-42.969,0.000
1709215302.660,-42.480,-50.293,-43.457,-45.898,0.000
1709215302.664,-31.738,-43.945,-31.250,-28.320,0.000
1709215302.668,-17.578,-36.621,-39.551,-26.855,0.000
1709215302.672,-28.809,-41.992,-43.945,-49.805,0.000
1709215302.675,-47.852,-57.617,-38.086,-45.410,0.000
1709215302.679,-53.223,-48.340,-44.434,-39.551,0.000
1709215302.683,-47.852,-35.645,-51.270,-51.758,0.000
1709215302.687,-38.086,-22.461,-41.504,-45.898,0.000
1709215302.691,-38.086,-12.695,-33.203,-43.945,0.000
1709215302.695,-54.688,-25.879,-37.598,-59.082,0.000
1709215302.698,-46.387,-41.992,-41.504,-58.105,0.000
1709215302.702,-22.949,-41.992,-36.133,-28.320,0.000
1709215302.706,-31.738,-37.598,-34.180,-27.344,0.000
1709215302.710,-41.504,-36.621,-40.039,-46.875,0.000
1709215302.714,-43.945,-35.156,-45.410,-60.059,0.000
1709215302.718,-48.340,-38.574,-37.109,-59.082,0.000
1709215302.722,-43.457,-38.086,-36.621,-33.691,0.000
1709215302.726,-21.484,-42.480,-52.246,-31.738,0.000
1709215302.730,-21.484,-41.016,-43.457,-42.969,0.000
1709215302.734,-60.547,-33.203,-32.227,-55.664,0.000
1709215302.738,-76.172,-41.504,-32.227,-62.500,0.000
1709215302.741,-57.129,-51.270,-33.691,-40.527,0.000
1709215302.746,-37.109,-42.969,-32.227,-28.809,0.000
1709215302.750,-32.715,-36.621,-36.133,-38.574,0.000
1709215302.753,-45.898,-37.109,-40.527,-43.945,0.000
1709215302.757,-50.293,-39.062,-37.598,-49.316,0.000
1709215302.761,-47.852,-56.152,-35.645,-51.758,0.000
1709215302.765,-31.250,-79.102,-33.203,-35.645,0.000
1709215302.769,-23.926,-61.035,-38.086,-28.809,0.000
1709215302.773,-38.574,-23.438,-40.039,-47.852,0.000
1709215302.777,-50.293,-19.531,-33.691,-56.152,0.000
1709215302.781,-49.805,-39.062,-38.086,-39.551,0.000
1709215302.785,-24.414,-53.711,-46.387,-33.203,0.000
1709215302.789,-21.973,-40.527,-32.715,-28.320,0.000
1709215302.793,-47.852,-32.227,-35.645,-25.879,0.000
1709215302.797,-59.570,-32.227,-53.711,-40.527,0.000
1709215302.800,-50.293,-33.203,-40.527,-40.039,0.000
1709215302.804,-30.273,-39.551,-32.227,-30.273,0.000
1709215302.808,-27.832,-39.062,-35.645,-30.762,0.000
1709215302.812,-33.691,-37.109,-38.574,-38.574,0.000
1709215302.816,-39.551,-34.668,-33.691,-48.828,0.000
1709215302.820,-33.203,-34.668,-29.785,-39.062,0.000
1709215302.824,-19.531,-44.922,-37.598,-14.648,0.000
1709215302.828,-21.973,-43.457,-43.945,-9.766,0.000
1709215302.832,-34.668,-29.785,-34.180,-26.855,0.000
1709215302.836,-44.922,-35.156,-31.250,-41.016,0.000
1709215302.840,-37.598,-35.645,-40.527,-40.527,0.000
1709215302.843,-16.602,-51.758,-36.133,-20.996,0.000
1709215302.847,-27.344,-62.988,-26.367,-10.254,0.000
1709215302.851,-48.340,-39.551,-26.367,-32.227,0.000
1709215302.855,-59.082,-31.738,-33.691,-59.082,0.000
1709215302.859,-60.059,-27.832,-31.738,-64.941,0.000
1709215302.863,-56.641,-36.621,-40.039,-54.199,0.000
1709215302.867,-50.293,-55.176,-55.176,-45.410,0.000
1709215302.871,-38.574,-54.688,-59.570,-28.809,0.000
1709215302.875,-53.223,-50.781,-54.688,-36.133,0.000
1709215302.879,-62.012,-52.246,-36.133,-55.664,0.000
1709215302.883,-58.105,-47.852,-22.949,-49.805,0.000
1709215302.886,-48.340,-43.945,-29.297,-35.645,0.000
1709215302.890,-40.039,-42.480,-33.203,-46.387,0.000
1709215302.894,-44.922,-34.180,-29.785,-64.453,0.000
1709215302.898,-49.805,-38.086,-33.691,-59.570,0.000
1709215302.902,-36.133,-36.621,-37.109,-46.387,0.000
1709215302.906,-19.043,-39.551,-33.691,-21.973,0.000
1709215302.910,-29.785,-58.594,-35.156,-38.086,0.000
1709215302.914,-55.176,-54.688,-32.227,-67.383,0.000
1709215302.918,-48.828,-44.434,-30.762,-59.082,0.000
1709215302.922,-35.645,-44.434,-37.598,-50.293,0.000
1709215302.925,-38.086,-52.246,-39.551,-35.156,0.000
1709215302.929,-33.691,-47.852,-34.668,-30.762,0.000
1709215302.933,-37.109,-38.086,-30.273,-36.621,0.000
1709215302.937,-45.898,-37.109,-25.391,-40.527,0.000
1709215302.941,-36.133,-33.203,-20.996,-35.156,0.000
1709215302.945,-23.438,-29.297,-33.691,-24.902,0.000
1709215302.949,-20.020,-41.016,-39.062,-25.391,0.000
1709215302.953,-28.809,-51.758,-29.785,-43.457,0.000
1709215302.957,-46.387,-36.621,-32.227,-63.477,0.000
1709215302.960,-37.598,-31.738,-34.180,-40.039,0.000
1709215302.964,-21.484,-44.434,-35.645,-12.207,0.000
1709215302.968,-27.832,-41.016,-41.016,-23.926,0.000
1709215302.972,-29.785,-35.645,-36.621,-50.781,0.000
1709215302.976,-36.133,-41.992,-31.250,-65.918,0.000
1709215302.980,-42.969,-35.156,-45.898,-60.547,0.000
1709215302.984,-27.344,-38.086,-49.316,-30.273,0.000
1709215302.988,-27.344,-49.316,-34.668,-24.902,0.000
1709215302.992,-35.156,-35.645,-27.344,-50.781,0.000
1709215302.995,-41.016,-24.414,-22.949,-61.035,0.000
1709215302.999,-42.480,-33.691,-28.809,-56.641,0.000
1709215303.003,-38.086,-48.340,-37.109,-35.645,0.000
1709215303.007,-34.180,-36.621,-40.039,-18.066,0.000
1709215303.011,-22.949,-31.738,-48.340,-35.645,0.000
1709215303.015,-35.156,-44.922,-45.898,-61.035,0.000
1709215303.019,-62.012,-40.039,-33.203,-57.617,0.000
1709215303.023,-42.480,-39.062,-33.691,-36.133,0.000
1709215303.026,-30.273,-41.016,-39.062,-23.926,0.000
1709215303.030,-36.621,-37.109,-41.016,-33.691,0.000
1709215303.034,-43.945,-39.062,-43.457,-45.410,0.000
1709215303.038,-48.340,-39.062,-43.945,-55.176,0.000
1709215303.042,-38.574,-44.922,-28.320,-45.898,0.000
1709215303.046,-34.180,-55.664,-34.668,-33.691,0.000
1709215303.050,-36.621,-49.805,-48.828,-36.621,0.000
1709215303.054,-32.715,-43.457,-37.109,-49.805,0.000
1709215303.058,-41.016,-47.852,-32.715,-61.523,0.000
1709215303.061,-34.180,-54.199,-42.969,-44.434,0.000
1709215303.065,-2.441,-53.223,-40.527,-29.297,0.000
1709215303.069,-23.438,-47.852,-33.203,-40.039,0.000
1709215303.073,-53.711,-36.621,-39.551,-65.430,0.000
1709215303.077,-51.758,-25.391,-42.969,-65.918,0.000
1709215303.081,-41.992,-28.320,-45.898,-50.781,0.000
1709215303.084,-32.227,-37.598,-63.965,-46.875,0.000
1709215303.088,-36.133,-36.621,-56.152,-43.457,0.000
1709215303.092,-47.852,-38.574,-36.133,-50.781,0.000
1709215303.096,-50.781,-38.574,-21.484,-43.457,0.000
1709215303.100,-42.480,-47.852,-22.949,-42.480,0.000
1709215303.104,-14.160,-55.176,-35.156,-39.551,0.000
1709215303.108,-17.090,-30.273,-40.039,-28.320,0.000
1709215303.112,-39.062,-25.391,-45.898,-32.227,0.000
1709215303.116,-41.992,-30.762,-41.504,-42.480,0.000
1709215303.120,0.000,-28.809,0.000,-44.434,0.000
1709215303.124,0.000,-28.809,0.000,-32.715,0.000
1709215303.128,0.000,-30.273,0.000,-21.973,0.000
1709215303.132,0.000,-28.320,0.000,-34.180,0.000
1709215303.136,0.000,-32.715,0.000,-65.430,0.000
1709215303.140,0.000,-47.363,0.000,-54.199,0.000
1709215303.144,0.000,-53.711,0.000,-30.273,0.000
1709215303.148,0.000,-41.016,0.000,-27.832,0.000
1709215303.152,0.000,-30.762,0.000,-39.551,0.000
1709215303.155,0.000,-44.922,0.000,-41.016,0.000
1709215303.159,0.000,-40.527,0.000,-36.621,0.000
1709215303.163,0.000,-32.715,0.000,-25.879,0.000
1709215303.167,-19.531,-44.434,-30.273,-14.648,0.000
1709215303.171,-28.320,-35.645,-27.832,-15.137,0.000
1709215303.175,-36.621,-35.156,-27.344,-30.273,0.000
1709215303.179,-37.109,-49.805,-33.203,-45.410,0.000
1709215303.183,-34.180,-27.832,-45.410,-25.879,0.000
1709215303.187,-30.762,-18.066,-46.387,-16.602,0.000
1709215303.191,-32.227,-23.926,-36.621,-35.156,0.000
1709215303.195,-37.109,-27.344,-40.527,-53.223,0.000
1709215303.199,-41.016,-32.715,-41.992,-40.039,0.000
1709215303.203,-15.137,-31.738,-36.621,-15.625,0.000
1709215303.206,0.977,-30.273,-31.738,-12.207,0.000
1709215303.210,-13.672,-40.527,-24.902,-24.414,0.000
1709215303.214,-21.973,-49.316,-21.973,-38.574,0.000
1709215303.218,-26.855,-41.992,-21.973,-39.062,0.000
1709215303.222,-29.297,-21.484,-32.715,-31.738,0.000
1709215303.226,-17.578,-21.973,-37.598,-25.391,0.000
1709215303.230,-25.879,-45.410,-37.598,-39.551,0.000
1709215303.234,-42.480,-49.316,-39.551,-55.664,0.000
1709215303.238,-47.852,-37.598,-33.691,-58.105,0.000
1709215303.242,-38.574,-39.551,-39.062,-50.293,0.000
1709215303.246,-33.203,-48.340,-45.898,-28.320,0.000
1709215303.249,-36.133,-44.922,-39.062,-25.879,0.000
1709215303.253,-46.875,-46.387,-40.039,-45.410,0.000
1709215303.257,-57.129,-41.992,-32.715,-45.410,0.000
1709215303.261,-38.574,-33.203,-29.785,-41.016,0.000
1709215303.265,-31.738,-47.363,-50.293,-40.527,0.000
1709215303.269,-41.504,-50.781,-41.992,-37.109,0.000
1709215303.273,-45.898,-44.434,-23.926,-36.621,0.000
1709215303.277,-54.688,-41.504,-27.344,-46.875,0.000
1709215303.281,-45.410,-43.457,-32.715,-44.922,0.000
1709215303.285,-27.832,-53.223,-36.621,-35.645,0.000
1709215303.288,-28.320,-60.547,-41.504,-33.691,0.000
1709215303.292,-48.828,-63.477,-40.039,-36.133,0.000
1709215303.296,-65.430,-52.734,-46.387,-50.293,0.000
1709215303.300,-50.781,-41.992,-41.504,-47.852,0.000
1709215303.304,-36.621,-45.898,-35.645,-33.203,0.000
1709215303.308,-30.273,-51.270,-44.434,-24.414,0.000
1709215303.312,-19.043,-50.781,-39.551,-20.996,0.000
1709215303.316,-39.551,-60.059,-37.109,-39.062,0.000
1709215303.320,-49.316,-47.363,-41.016,-47.363,0.000
1709215303.324,-36.133,-40.039,-44.434,-24.414,0.000
1709215303.327,-24.414,-40.527,-51.270,-5.859,0.000
1709215303.331,-13.672,-20.020,-39.062,-20.508,0.000
1709215303.335,-27.832,-32.227,-20.996,-36.621,0.000
1709215303.339,-40.527,-49.805,-20.996,-33.203,0.000
1709215303.343,-29.785,-39.551,-21.973,-21.484,0.000
1709215303.347,-24.414,-26.367,-27.344,-18.066,0.000
1709215303.351,-36.621,-24.902,-34.180,-32.715,0.000
1709215303.355,-48.340,-29.785,-32.715,-42.969,0.000
1709215303.358,-43.457,-24.414,-31.738,-40.039,0.000
1709215303.362,-38.086,-36.133,-31.250,-31.250,0.000
1709215303.366,-43.457,-49.805,-29.297,-20.508,0.000
1709215303.370,-47.363,-41.992,-25.879,-11.230,0.000
1709215303.374,-46.875,-39.062,-23.926,-27.832,0.000
1709215303.378,-51.758,-39.062,-23.438,-34.668,0.000
1709215303.382,-44.434,-37.598,-36.621,-3.906,0.000
1709215303.386,-29.297,-41.992,-35.156,-11.719,0.000
1709215303.390,-35.156,-38.574,-24.902,-45.410,0.000
1709215303.394,-53.711,-33.691,-29.785,-57.129,0.000
1709215303.397,-62.988,-37.109,-26.855,-57.617,0.000
1709215303.401,-41.016,-33.691,-31.738,-40.527,0.000
1709215303.405,-23.926,-36.621,-35.156,-25.879,0.000
1709215303.409,-37.109,-58.594,-28.809,-32.227,0.000
1709215303.413,-50.293,-60.547,-27.344,-46.875,0.000
1709215303.417,-53.223,-41.504,-31.250,-51.270,0.000
1709215303.421,-41.504,-31.738,-44.434,-44.922,0.000
1709215303.424,-15.137,-56.641,-49.805,-34.668,0.000
1709215303.428,-24.414,-60.547,-43.457,-33.203,0.000
1709215303.432,-66.895,-33.203,-41.016,-53.223,0.000
1709215303.436,-75.684,-31.250,-37.598,-60.059,0.000
1709215303.440,-50.781,-34.668,-32.227,-36.621,0.000
1709215303.444,-31.738,-38.086,-31.738,-26.855,0.000
1709215303.448,-33.203,-42.969,-37.598,-31.738,0.000
1709215303.451,-39.062,-59.570,-43.457,-41.504,0.000
1709215303.455,-45.410,-59.570,-45.410,-68.359,0.000
1709215303.459,-42.969,-44.434,-43.945,-63.965,0.000
1709215303.463,-26.367,-46.387,-48.340,-40.527,0.000
1709215303.467,-31.250,-42.480,-42.969,-35.645,0.000
1709215303.471,-62.012,-33.203,-34.668,-34.668,0.000
1709215303.475,-67.383,-41.504,-32.715,-41.016,0.000
1709215303.479,-56.152,-49.805,-30.273,-42.969,0.000
1709215303.483,-41.504,-45.898,-26.367,-30.762,0.000
1709215303.487,-45.898,-47.363,-32.715,-31.738,0.000
1709215303.490,-61.523,-44.922,-35.156,-44.434,0.000
1709215303.495,-65.918,-45.410,-31.738,-52.734,0.000
1709215303.499,-69.336,-44.434,-42.480,-45.898,0.000
1709215303.503,-51.758,-42.480,-46.387,-29.297,0.000
1709215303.506,-32.715,-46.875,-41.992,-27.832,0.000
1709215303.510,-35.645,-54.688,-42.969,-44.922,0.000
1709215303.514,-47.363,-45.898,-41.504,-57.617,0.000
1709215303.518,-41.504,-28.320,-46.875,-48.828,0.000
1709215303.522,-26.855,-29.297,-51.270,-34.668,0.000
1709215303.526,-22.949,-41.992,-38.086,-36.133,0.000
1709215303.530,-35.645,-45.898,-33.203,-40.527,0.000
1709215303.534,-53.223,-31.738,-38.086,-43.945,0.000
1709215303.538,-43.457,-36.621,-42.480,-50.781,0.000
1709215303.542,-29.785,-41.992,-42.969,-50.293,0.000
1709215303.546,-16.602,-29.785,-35.645,-40.527,0.000
1709215303.550,-5.859,-33.203,-25.391,-37.598,0.000
1709215303.554,-25.391,-36.133,-33.691,-41.016,0.000
1709215303.557,-35.156,-41.504,-39.062,-41.504,0.000
1709215303.561,-18.066,-56.152,-27.344,-30.762,0.000
1709215303.565,-20.508,-39.062,-24.414,-14.160,0.000
1709215303.569,-24.414,-27.344,-29.297,-29.297,0.000
1709215303.573,-36.133,-40.039,-35.645,-43.457,0.000
1709215303.577,-56.152,-39.551,-36.133,-37.598,0.000
1709215303.581,-45.410,-45.410,-28.809,-30.762,0.000
1709215303.585,-35.156,-40.039,-24.902,-22.461,0.000
1709215303.589,-38.574,-34.668,-29.297,-13.672,0.000
1709215303.593,-56.152,-41.992,-34.180,-15.625,0.000
1709215303.597,-53.223,-36.621,-34.180,-38.086,0.000
1709215303.601,-32.715,-42.969,-27.344,-36.621,0.000
1709215303.604,-35.156,-45.410,-34.180,-23.926,0.000
1709215303.608,-39.062,-33.203,-39.062,-27.832,0.000
1709215303.612,-45.410,-20.020,-32.227,-28.809,0.000
1709215303.616,-46.387,-34.180,-41.992,-39.551,0.000
1709215303.620,-34.180,-51.758,-46.387,-30.273,0.000
1709215303.624,-46.387,-34.180,-47.852,-9.277,0.000
1709215303.628,-35.645,-23.438,-53.223,-16.602,0.000
1709215303.632,-25.391,-31.738,-47.363,-36.133,0.000
1709215303.636,-39.062,-37.598,-39.551,-49.316,0.000
1709215303.640,-36.133,-32.227,-52.734,-34.668,0.000
1709215303.644,-21.484,-25.879,-62.988,-22.949,0.000
1709215303.647,-15.137,-27.344,-41.016,-27.344,0.000
1709215303.651,-35.645,-35.645,-33.203,-37.109,0.000
1709215303.655,-37.598,-36.621,-40.039,-48.828,0.000
1709215303.659,-23.438,-31.738,-42.480,-51.758,0.000
1709215303.663,-20.020,-33.691,-44.922,-35.156,0.000
1709215303.667,-3.906,-47.852,-38.574,-15.625,0.000
1709215303.671,-1.465,-48.828,-44.922,-37.598,0.000
1709215303.675,-30.273,-32.715,-46.387,-58.105,0.000
1709215303.679,-35.156,-29.297,-32.227,-63.965,0.000
1709215303.682,-28.809,-33.691,-36.133,-48.340,0.000
1709215303.686,-43.457,-40.039,-38.574,-25.879,0.000
1709215303.690,-53.711,-51.270,-37.109,-31.738,0.000
1709215303.694,-64.453,-49.316,-35.156,-38.086,0.000
1709215303.698,-58.594,-46.875,-38.086,-32.227,0.000
1709215303.702,-45.898,-43.945,-34.668,-35.156,0.000
1709215303.706,-33.691,-40.039,-37.598,-38.086,0.000
1709215303.710,-41.992,-40.039,-48.340,-30.273,0.000
1709215303.714,-57.129,-34.668,-38.086,-36.621,0.000
1709215303.718,-47.852,-36.621,-23.438,-43.457,0.000
1709215303.722,-41.016,-42.480,-21.484,-32.227,0.000
1709215303.725,-37.109,-41.504,-35.156,-37.598,0.000
1709215303.731,-30.273,-45.898,-48.340,-51.270,0.000
1709215303.735,-57.129,-47.852,-42.969,-64.941,0.000
1709215303.739,-66.406,-39.551,-44.434,-59.082,0.000
1709215303.743,-30.762,-26.367,-52.246,-42.969,0.000
1709215303.746,-18.555,-19.043,-42.969,-31.738,0.000
1709215303.750,-22.949,-20.020,-41.992,-30.273,0.000
1709215303.754,-25.391,-26.367,-47.363,-48.828,0.000
1709215303.758,-35.645,-33.203,-47.852,-49.316,0.000
1709215303.762,-15.137,-38.574,-38.574,-29.297,0.000
1709215303.766,-1.465,-32.715,-33.691,-20.996,0.000
1709215303.770,-23.926,-25.391,-43.945,-29.297,0.000
1709215303.774,-33.203,-38.086,-38.574,-37.598,0.000
1709215303.777,-33.691,-52.246,-35.156,-37.598,0.000
1709215303.781,-40.039,-53.711,-36.133,-19.531,0.000
1709215303.785,-11.230,-31.250,-43.945,-0.977,0.000
1709215303.789,2.441,-16.113,-49.805,-7.324,0.000
1709215303.793,-39.062,-29.297,-41.992,-46.875,0.000
1709215303.797,-59.082,-35.645,-32.715,-63.477,0.000
1709215303.801,-42.480,-33.203,-32.227,-57.129,0.000
1709215303.805,-22.461,-41.992,-40.039,-49.805,0.000
1709215303.809,-18.555,-45.898,-41.504,-41.504,0.000
1709215303.812,-34.180,-35.645,-34.180,-54.199,0.000
1709215303.816,-49.805,-41.504,-36.621,-69.336,0.000
1709215303.820,-44.922,-54.199,-39.062,-61.523,0.000
1709215303.825,-38.086,-49.805,-34.668,-43.457,0.000
1709215303.828,-23.438,-42.480,-38.086,-29.785,0.000
1709215303.832,-33.691,-54.688,-38.086,-25.879,0.000
1709215303.836,-60.547,-53.711,-28.320,-48.340,0.000
1709215303.840,-42.969,-32.227,-28.809,-56.641,0.000
1709215303.844,-14.160,-29.297,-41.992,-40.039,0.000
1709215303.848,-19.043,-32.715,-38.086,-24.902,0.000
1709215303.852,-33.691,-41.504,-29.785,-22.949,0.000
1709215303.856,-46.387,-57.617,-32.715,-38.574,0.000
1709215303.860,-62.012,-54.199,-34.180,-42.480,0.000
1709215303.864,-38.086,-41.016,-44.922,-35.645,0.000
1709215303.867,-13.184,-24.414,-44.434,-31.250,0.000
1709215303.872,-26.855,-26.855,-30.762,-30.273,0.000
1709215303.876,-41.992,-35.645,-26.367,-40.527,0.000
1709215303.879,-38.574,-37.598,-31.738,-38.086,0.000
1709215303.883,-15.137,-31.738,-41.992,-26.367,0.000
1709215303.887,-6.348,-39.062,-41.992,-29.785,0.000
1709215303.891,-9.277,-55.664,-32.715,-40.527,0.000
1709215303.895,-14.160,-45.898,-30.273,-47.852,0.000
1709215303.899,-38.574,-35.156,-36.133,-46.875,0.000
1709215303.903,-41.992,-37.109,-34.668,-33.691,0.000
1709215303.907,-24.902,-50.781,-30.762,-14.648,0.000
1709215303.911,-24.414,-53.223,-37.109,-19.043,0.000
1709215303.915,-34.668,-35.645,-46.387,-46.387,0.000
1709215303.919,-46.875,-33.203,-43.457,-48.340,0.000
1709215303.923,-31.738,-38.574,-36.621,-22.949,0.000
1709215303.926,-18.066,-44.922,-45.410,-19.531,0.000
1709215303.930,-17.090,-54.199,-44.434,-37.598,0.000
1709215303.934,-31.738,-46.875,-30.273,-49.805,0.000
1709215303.938,-52.734,-54.199,-39.551,-54.199,0.000
1709215303.942,-37.109,-49.316,-53.223,-45.898,0.000
1709215303.946,-21.484,-32.715,-32.227,-31.738,0.000
1709215303.950,-14.648,-35.645,-17.578,-27.344,0.000
1709215303.954,-12.695,-38.574,-20.020,-35.156,0.000
1709215303.958,-21.484,-33.203,-27.832,-42.480,0.000
1709215303.962,-20.020,-40.527,-33.203,-26.367,0.000
1709215303.966,-15.625,-45.410,-44.922,-12.207,0.000
1709215303.970,-12.207,-37.109,-49.805,-21.973,0.000
1709215303.973,-14.648,-35.156,-34.668,-35.645,0.000
1709215303.977,-35.156,-34.668,-32.715,-42.969,0.000
1709215303.981,-35.645,-37.598,-35.645,-32.227,0.000
1709215303.985,-18.066,-33.691,-33.203,-16.602,0.000
1709215303.989,-8.789,-35.645,-33.691,-12.207,0.000
1709215303.993,-9.766,-37.109,-25.879,-10.742,0.000
1709215303.997,-22.461,-29.785,-32.227,-16.602,0.000
1709215304.001,-35.645,-29.785,-43.457,-41.992,0.000
1709215304.005,-24.902,-30.762,-38.086,-42.480,0.000
1709215304.009,-12.695,-29.297,-32.715,-25.879,0.000
1709215304.012,-31.738,-41.992,-36.133,-37.109,0.000
1709215304.016,-40.039,-57.617,-36.621,-45.410,0.000
1709215304.020,-33.203,-53.711,-39.062,-38.574,0.000
1709215304.024,-30.273,-52.246,-49.316,-28.320,0.000
1709215304.028,-32.715,-51.758,-45.898,-28.320,0.000
1709215304.032,-54.199,-38.574,-32.715,-43.457,0.000
1709215304.036,-66.895,-42.969,-24.414,-64.453,0.000
1709215304.040,-53.223,-53.223,-21.484,-52.246,0.000
1709215304.044,-37.598,-51.758,-27.832,-27.344,0.000
1709215304.048,-32.715,-46.875,-39.062,-34.180,0.000
1709215304.051,-33.691,-37.598,-41.504,-43.457,0.000
1709215304.055,-44.922,-33.691,-40.039,-51.270,0.000
1709215304.059,-46.875,-42.969,-46.387,-50.781,0.000
1709215304.063,-33.203,-57.129,-37.109,-38.574,0.000
1709215304.067,-27.832,-50.781,-31.250,-38.086,0.000
1709215304.071,-34.668,-31.738,-39.551,-62.500,0.000
1709215304.075,-41.992,-18.555,-43.457,-83.984,0.000
1709215304.079,-51.270,-25.879,-39.062,-79.102,0.000
1709215304.083,-29.785,-37.598,-37.109,-59.570,0.000
1709215304.086,-3.906,-34.180,-36.133,-31.738,0.000
1709215304.090,-41.016,-44.434,-44.434,-28.809,0.000
1709215304.094,-69.824,-42.480,-59.082,-49.316,0.000
1709215304.098,-58.105,-27.344,-50.781,-52.734,0.000
1709215304.102,-39.551,-24.414,-29.785,-42.969,0.000
1709215304.106,-29.297,-31.250,-30.762,-30.762,0.000
1709215304.110,-29.785,-40.039,-28.809,-31.738,0.000
1709215304.113,-36.133,-35.156,-33.691,-43.457,0.000
1709215304.117,-46.875,-32.715,-33.691,-56.152,0.000
1709215304.121,-46.387,-34.668,-25.391,-44.434,0.000
1709215304.125,-41.992,-43.457,-22.949,-21.973,0.000
1709215304.129,-41.992,-58.105,-20.508,-35.645,0.000
1709215304.133,-44.922,-57.617,-30.273,-51.270,0.000
1709215304.137,-53.223,-52.734,-39.062,-64.941,0.000
1709215304.141,-49.316,-42.480,-42.480,-69.824,0.000
1709215304.145,-48.828,-35.156,-35.156,-51.758,0.000
1709215304.149,-48.340,-45.410,-23.926,-43.457,0.000
1709215304.152,-49.316,-55.176,-28.320,-46.875,0.000
1709215304.156,-41.992,-35.156,-33.691,-48.340,0.000
1709215304.160,-36.621,-24.902,-30.762,-49.316,0.000
1709215304.164,-33.203,-33.691,-36.133,-41.992,0.000
1709215304.168,-36.133,-42.969,-42.480,-37.109,0.000
1709215304.172,-47.363,-47.852,-52.246,-46.875,0.000
1709215304.176,-45.410,-52.734,-56.641,-57.617,0.000
1709215304.179,-45.898,-47.363,-50.293,-48.828,0.000
1709215304.183,-37.598,-41.016,-42.969,-27.832,0.000
1709215304.187,-27.344,-47.852,-39.551,-36.133,0.000
1709215304.191,-43.945,-44.434,-40.527,-54.688,0.000
1709215304.195,-52.734,-50.781,-37.598,-51.758,0.000
1709215304.199,-42.969,-58.594,-41.992,-45.410,0.000
1709215304.202,-37.598,-38.574,-39.551,-35.156,0.000
1709215304.206,-42.969,-43.945,-40.039,-24.414,0.000
1709215304.210,-47.852,-47.363,-45.410,-20.508,0.000
1709215304.214,-60.547,-34.180,-32.227,-40.039,0.000
1709215304.218,-64.941,-32.715,-22.461,-49.805,0.000
1709215304.222,-60.547,-35.645,-28.809,-17.578,0.000
1709215304.226,-50.781,-41.504,-46.387,-10.742,0.000
1709215304.230,-46.387,-47.852,-37.598,-29.785,0.000
1709215304.234,-42.969,-45.898,-27.832,-36.621,0.000
1709215304.238,-45.410,-44.434,-36.621,-37.109,0.000
1709215304.242,-30.273,-49.316,-31.738,-32.227,0.000
1709215304.246,-12.207,-71.289,-25.879,-22.949,0.000
1709215304.250,-12.207,-59.570,-44.922,-31.738,0.000
1709215304.254,-41.016,-25.879,-43.945,-54.199,0.000
1709215304.257,-67.383,-31.738,-29.297,-64.453,0.000
1709215304.261,-47.363,-29.785,-35.645,-46.387,0.000
1709215304.265,-35.645,-34.668,-39.062,-36.133,0.000
1709215304.269,-28.809,-31.250,-31.738,-38.086,0.000
1709215304.273,-27.344,-29.785,-25.879,-49.805,0.000
1709215304.277,-44.434,-32.715,-38.086,-65.918,0.000
1709215304.281,-41.504,-39.062,-37.109,-48.340,0.000
1709215304.285,-25.391,-48.828,-37.598,-26.855,0.000
1709215304.289,-28.320,-50.781,-48.828,-38.574,0.000
1709215304.293,-51.758,-46.875,-38.086,-53.223,0.000
1709215304.297,-65.430,-44.434,-27.832,-57.617,0.000
1709215304.301,-61.523,-36.133,-36.621,-58.594,0.000
1709215304.304,-56.152,-31.250,-40.039,-49.316,0.000
1709215304.308,-43.457,-39.551,-40.527,-37.109,0.000
1709215304.312,-34.668,-40.039,-38.574,-45.898,0.000
1709215304.316,-54.688,-37.109,-38.086,-57.129,0.000
1709215304.320,-43.457,-31.738,-39.062,-56.641,0.000
1709215304.324,-21.484,-42.969,-30.273,-35.156,0.000
1709215304.328,-17.578,-47.363,-33.203,-18.555,0.000
1709215304.332,-29.297,-30.273,-48.828,-38.574,0.000
1709215304.336,-33.203,-41.992,-37.598,-45.410,0.000
1709215304.340,-31.250,-50.293,-27.344,-35.156,0.000
1709215304.344,-30.762,-41.504,-28.320,-23.926,0.000
1709215304.347,-18.066,-44.922,-30.762,-20.508,0.000
1709215304.351,-22.949,-36.621,-30.273,-29.297,0.000
1709215304.355,-32.227,-24.902,-30.273,-41.992,0.000
1709215304.359,-22.949,-36.133,-30.762,-39.551,0.000
1709215304.363,-9.277,-40.527,-28.809,-25.879,0.000
1709215304.367,-6.348,-25.391,-40.039,-24.414,0.000
1709215304.371,-16.602,-20.508,-45.410,-31.250,0.000
1709215304.375,-28.320,-28.320,-32.715,-42.480,0.000
1709215304.379,-35.156,-27.832,-27.832,-44.922,0.000
1709215304.383,-37.598,-37.109,-40.527,-32.227,0.000
1709215304.386,-25.391,-42.969,-44.922,-26.367,0.000
1709215304.390,-22.949,-50.293,-32.715,-31.738,0.000
1709215304.394,-37.109,-58.105,-35.645,-50.293,0.000
1709215304.398,-36.621,-42.969,-43.457,-50.293,0.000
1709215304.402,-27.344,-38.574,-36.621,-36.133,0.000
1709215304.406,-23.438,-45.898,-39.062,-30.762,0.000
1709215304.410,-19.531,-39.551,-42.969,-32.715,0.000
1709215304.414,-39.551,-36.621,-39.551,-46.387,0.000
1709215304.418,-42.480,-55.176,-41.992,-42.969,0.000
1709215304.422,-43.945,-55.664,-46.387,-30.273,0.000
1709215304.426,-44.922,-27.344,-40.527,-25.879,0.000
1709215304.429,-33.691,-22.949,-35.645,-36.133,0.000
1709215304.433,-37.109,-28.320,-35.645,-55.176,0.000
1709215304.437,-45.410,-29.297,-39.062,-68.848,0.000
1709215304.441,-44.922,-35.156,-37.109,-53.711,0.000
1709215304.445,-25.391,-35.156,-44.434,-41.504,0.000
1709215304.449,-25.391,-40.039,-54.688,-50.781,0.000
1709215304.453,-30.762,-42.969,-51.758,-47.363,0.000
1709215304.457,-36.621,-31.738,-48.340,-47.852,0.000
1709215304.461,-40.039,-30.762,-39.062,-33.203,0.000
1709215304.464,-22.461,-48.340,-43.945,-15.625,0.000
1709215304.468,-9.766,-47.363,-41.016,-31.250,0.000
1709215304.472,-30.762,-31.250,-32.227,-40.039,0.000
1709215304.476,-48.828,-33.691,-31.738,-40.039,0.000
