timestamps,TP9,AF7,AF8,TP10,Right AUX
1709374329.502,-6.348,-45.410,-34.180,-4.395,0.000
1709374329.506,-28.809,-42.480,-41.504,-32.715,0.000
1709374329.510,-62.012,-39.062,-39.062,-64.453,0.000
1709374329.514,-68.848,-41.504,-37.109,-65.918,0.000
1709374329.518,-42.969,-41.992,-40.039,-42.480,0.000
1709374329.522,0.000,-39.062,-39.062,-8.789,0.000
1709374329.526,-18.066,-31.250,-39.062,-21.484,0.000
1709374329.529,-64.453,-33.691,-41.504,-65.430,0.000
1709374329.533,-75.195,-37.598,-37.598,-74.707,0.000
1709374329.537,-48.828,-37.598,-36.133,-52.246,0.000
1709374329.541,2.441,-37.109,-41.016,-11.719,0.000
1709374329.545,-12.207,-34.668,-39.062,-14.648,0.000
1709374329.549,-58.105,-36.133,-35.156,-50.293,0.000
1709374329.553,-65.918,-36.133,-29.785,-53.223,0.000
1709374329.557,-48.828,-32.715,-31.738,-34.668,0.000
1709374329.561,-6.836,-35.645,-37.598,-8.789,0.000
1709374329.565,-12.695,-42.480,-39.551,-15.137,0.000
1709374329.569,-61.523,-39.062,-40.527,-46.387,0.000
1709374329.573,-78.125,-34.668,-39.551,-63.477,0.000
1709374329.577,-64.941,-31.250,-40.527,-53.223,0.000
1709374329.581,-20.996,-35.645,-36.133,-8.301,0.000
1709374329.585,-11.230,-42.969,-31.738,-1.953,0.000
1709374329.588,-56.152,-39.551,-32.227,-45.410,0.000
1709374329.592,-69.336,-32.227,-31.250,-62.012,0.000
1709374329.596,-51.270,-28.320,-25.879,-48.828,0.000
1709374329.600,-1.953,-32.227,-27.832,-10.254,0.000
1709374329.604,5.371,-37.109,-30.762,-3.906,0.000
1709374329.608,-43.945,-35.156,-26.855,-46.875,0.000
1709374329.612,-67.871,-32.715,-29.297,-64.941,0.000
1709374329.616,-62.500,-34.668,-38.086,-57.129,0.000
1709374329.620,-18.066,-40.039,-41.992,-27.344,0.000
1709374329.624,3.418,-44.434,-38.574,-8.301,0.000
1709374329.628,-49.805,-40.527,-32.227,-35.156,0.000
1709374329.632,-85.449,-35.645,-30.762,-50.293,0.000
1709374329.635,-68.359,-36.621,-37.109,-54.688,0.000
1709374329.639,-25.879,-37.109,-38.086,-36.621,0.000
1709374329.643,-3.418,-41.504,-37.598,-7.812,0.000
1709374329.647,-39.062,-43.457,-39.062,-39.551,0.000
1709374329.651,-64.453,-38.086,-34.180,-68.848,0.000
1709374329.655,-53.711,-32.715,-25.879,-56.641,0.000
1709374329.659,-18.555,-33.691,-29.297,-34.180,0.000
1709374329.663,14.648,-33.691,-34.668,-4.883,0.000
1709374329.667,-22.461,-33.203,-32.227,-30.762,0.000
1709374329.671,-59.082,-33.203,-29.297,-63.965,0.000
1709374329.675,-59.082,-33.691,-29.785,-52.734,0.000
1709374329.679,-30.762,-34.668,-35.645,-30.762,0.000
1709374329.682,14.648,-35.645,-35.156,8.789,0.000
1709374329.686,-16.113,-37.109,-38.574,-8.789,0.000
1709374329.690,-66.406,-38.574,-42.969,-56.641,0.000
1709374329.694,-70.312,-43.945,-41.992,-62.988,0.000
1709374329.698,-49.805,-40.527,-42.969,-45.410,0.000
1709374329.702,-5.859,-32.715,-41.016,-6.348,0.000
1709374329.706,-17.090,-34.180,-41.016,-15.137,0.000
1709374329.710,-65.430,-37.109,-39.551,-48.340,0.000
1709374329.714,-75.195,-38.086,-46.387,-62.012,0.000
1709374329.718,-42.969,-35.645,-44.922,-44.434,0.000
1709374329.722,1.953,-35.156,-38.574,6.348,0.000
1709374329.725,-7.324,-32.715,-38.574,-0.977,0.000
1709374329.729,-54.199,-32.227,-37.109,-40.527,0.000
1709374329.733,-67.871,-35.156,-37.109,-55.664,0.000
1709374329.737,-50.293,-36.133,-38.086,-45.410,0.000
1709374329.741,-6.348,-41.504,-39.551,-4.395,0.000
1709374329.745,-4.395,-41.992,-37.598,4.395,0.000
1709374329.749,-57.617,-40.039,-41.504,-40.527,0.000
1709374329.753,-72.266,-41.504,-46.387,-61.035,0.000
1709374329.757,-49.316,-40.039,-42.969,-42.969,0.000
1709374329.760,0.488,-39.062,-38.574,-2.441,0.000
1709374329.764,10.742,-36.621,-34.180,12.207,0.000
1709374329.768,-39.551,-35.156,-38.086,-28.320,0.000
1709374329.772,-62.500,-35.645,-39.551,-54.199,0.000
1709374329.776,-55.664,-33.203,-37.109,-49.805,0.000
1709374329.780,-13.672,-30.762,-38.574,-17.578,0.000
1709374329.784,8.301,-35.156,-37.598,-5.371,0.000
1709374329.788,-36.133,-35.156,-37.598,-46.387,0.000
1709374329.792,-62.012,-30.762,-39.551,-69.824,0.000
1709374329.795,-53.223,-31.250,-38.086,-63.965,0.000
1709374329.799,-14.648,-32.227,-38.574,-31.250,0.000
1709374329.803,10.742,-31.250,-38.574,-14.648,0.000
1709374329.807,-38.086,-40.039,-34.668,-48.828,0.000
1709374329.811,-73.730,-47.852,-33.691,-72.266,0.000
1709374329.815,-68.359,-38.086,-37.109,-75.684,0.000
1709374329.819,-37.109,-32.227,-37.598,-47.852,0.000
1709374329.823,5.859,-33.691,-32.715,-11.719,0.000
1709374329.827,-20.020,-35.645,-34.668,-36.621,0.000
1709374329.830,-60.059,-36.621,-39.062,-64.941,0.000
1709374329.834,-58.105,-35.645,-39.551,-65.430,0.000
1709374329.838,-29.785,-37.598,-41.016,-38.574,0.000
1709374329.842,5.859,-34.668,-40.527,-0.977,0.000
1709374329.846,-21.484,-33.691,-36.133,-19.531,0.000
1709374329.850,-58.594,-32.227,-34.668,-49.805,0.000
1709374329.854,-58.594,-34.668,-36.133,-46.387,0.000
1709374329.858,-33.691,-36.621,-33.691,-28.320,0.000
1709374329.862,8.301,-35.645,-36.133,3.906,0.000
1709374329.866,-13.672,-38.574,-36.621,-13.672,0.000
1709374329.869,-58.105,-35.156,-32.227,-57.617,0.000
1709374329.873,-64.453,-32.715,-33.203,-63.965,0.000
1709374329.877,-41.504,-37.109,-37.109,-43.945,0.000
1709374329.881,3.418,-36.133,-34.668,-0.488,0.000
1709374329.885,-6.836,-40.527,-32.227,-8.789,0.000
1709374329.889,-52.246,-44.434,-29.297,-52.734,0.000
1709374329.893,-66.406,-36.133,-33.691,-68.359,0.000
1709374329.897,-43.945,-34.668,-33.691,-44.922,0.000
1709374329.901,2.441,-40.527,-32.715,6.348,0.000
1709374329.905,-2.441,-40.039,-30.273,-2.930,0.000
1709374329.909,-48.340,-35.645,-25.391,-46.387,0.000
1709374329.913,-60.059,-44.434,-25.879,-58.594,0.000
1709374329.916,-49.805,-45.410,-26.855,-45.410,0.000
1709374329.920,-11.719,-38.574,-27.832,-8.789,0.000
1709374329.925,0.000,-41.016,0.000,-10.254,0.000
1709374329.929,0.000,-43.457,0.000,-49.805,0.000
1709374329.932,0.000,-42.969,0.000,-66.895,0.000
1709374329.936,0.000,-41.992,0.000,-53.223,0.000
1709374329.940,0.000,-42.480,0.000,-15.137,0.000
1709374329.944,0.000,-38.574,0.000,2.930,0.000
1709374329.948,0.000,-35.645,0.000,-32.227,0.000
1709374329.952,0.000,-33.203,0.000,-58.594,0.000
1709374329.956,0.000,-33.691,0.000,-49.316,0.000
1709374329.960,0.000,-41.504,0.000,-12.207,0.000
1709374329.964,0.000,-45.410,0.000,1.953,0.000
1709374329.968,0.000,-38.086,0.000,-27.344,0.000
1709374329.972,-62.012,-31.738,-30.273,-45.410,0.000
1709374329.976,-60.059,-34.180,-26.855,-48.828,0.000
1709374329.979,-29.785,-41.016,-25.391,-20.020,0.000
1709374329.983,0.488,-41.504,-30.762,0.977,0.000
1709374329.987,-34.180,-40.527,-38.086,-31.738,0.000
1709374329.991,-72.266,-38.574,-36.133,-59.570,0.000
1709374329.995,-67.871,-37.109,-37.598,-65.430,0.000
1709374329.999,-33.203,-46.875,-41.992,-44.922,0.000
1709374330.003,4.883,-49.805,-38.574,-12.207,0.000
1709374330.007,-21.484,-42.480,-36.621,-28.809,0.000
1709374330.011,-64.941,-39.551,-39.551,-67.871,0.000
1709374330.015,-66.895,-35.156,-41.016,-71.777,0.000
1709374330.019,-28.320,-33.203,-38.574,-43.457,0.000
1709374330.023,18.066,-34.180,-36.621,-10.742,0.000
1709374330.026,-5.371,-35.156,-39.062,-25.879,0.000
1709374330.030,-57.129,-41.504,-41.992,-56.641,0.000
1709374330.034,-70.801,-42.969,-39.062,-62.012,0.000
1709374330.038,-48.340,-37.598,-33.203,-43.945,0.000
1709374330.042,2.441,-40.527,-34.180,-4.883,0.000
1709374330.046,-7.812,-44.434,-32.227,-7.324,0.000
1709374330.050,-59.082,-47.852,-31.250,-36.133,0.000
1709374330.054,-75.195,-47.852,-35.645,-53.223,0.000
1709374330.058,-58.105,-43.945,-41.016,-47.852,0.000
1709374330.062,-10.742,-39.551,-40.039,-8.789,0.000
1709374330.065,-4.883,-38.086,-38.086,-14.160,0.000
1709374330.069,-47.852,-34.180,-33.203,-52.246,0.000
1709374330.073,-62.500,-33.203,-30.273,-59.570,0.000
1709374330.077,-41.016,-28.809,-32.715,-42.480,0.000
1709374330.081,0.977,-27.344,-35.645,-11.230,0.000
1709374330.085,3.906,-38.086,-34.668,-14.160,0.000
1709374330.089,-44.922,-41.016,-33.691,-50.781,0.000
1709374330.093,-71.289,-44.434,-36.621,-71.777,0.000
1709374330.097,-54.199,-41.504,-35.156,-54.199,0.000
1709374330.101,-17.090,-40.527,-41.016,-27.344,0.000
1709374330.105,-5.859,-39.062,-40.039,-21.484,0.000
1709374330.108,-43.457,-34.180,-34.668,-49.316,0.000
1709374330.112,-71.777,-36.133,-36.621,-70.312,0.000
1709374330.116,-56.152,-32.227,-33.203,-57.617,0.000
1709374330.120,-3.906,-31.738,-31.738,-16.602,0.000
1709374330.124,7.324,-38.086,-36.621,-1.953,0.000
1709374330.128,-37.109,-36.133,-34.180,-35.645,0.000
1709374330.132,-60.059,-33.691,-36.621,-62.988,0.000
1709374330.136,-55.664,-35.645,-40.039,-66.895,0.000
1709374330.140,-19.043,-37.109,-43.457,-25.391,0.000
1709374330.143,7.324,-35.156,-44.922,7.324,0.000
1709374330.147,-37.598,-32.227,-41.504,-26.367,0.000
1709374330.151,-68.359,-31.250,-41.504,-57.617,0.000
1709374330.155,-55.664,-30.762,-38.086,-51.270,0.000
1709374330.159,-18.066,-33.691,-35.156,-16.602,0.000
1709374330.163,13.184,-34.668,-32.715,2.930,0.000
1709374330.167,-24.414,-34.668,-32.227,-29.297,0.000
1709374330.171,-66.406,-36.133,-33.691,-59.082,0.000
1709374330.175,-65.918,-42.480,-37.598,-57.129,0.000
1709374330.178,-31.250,-40.039,-36.621,-30.762,0.000
1709374330.182,11.719,-37.109,-28.809,6.348,0.000
1709374330.186,-11.230,-44.434,-25.879,-8.789,0.000
1709374330.190,-58.105,-38.574,-27.832,-59.570,0.000
1709374330.194,-69.824,-28.809,-29.297,-68.848,0.000
1709374330.198,-43.945,-31.250,-27.832,-41.016,0.000
1709374330.202,5.371,-36.133,-27.344,6.348,0.000
1709374330.206,-9.766,-35.645,-29.297,-5.859,0.000
1709374330.209,-68.359,-31.250,-30.762,-61.523,0.000
1709374330.213,-77.148,-18.066,-29.785,-78.613,0.000
1709374330.217,-47.852,-3.906,-31.250,-62.500,0.000
1709374330.221,-5.371,-8.301,-38.086,-31.250,0.000
1709374330.225,-15.137,4.883,-39.062,-50.293,0.000
1709374330.229,-82.520,22.461,-34.180,-96.680,0.000
1709374330.233,-106.445,23.926,-37.598,-120.117,0.000
1709374330.237,-81.543,38.574,-43.945,-111.816,0.000
1709374330.241,-54.199,53.223,-45.898,-82.031,0.000
1709374330.245,-54.199,62.012,-50.293,-94.727,0.000
1709374330.248,-94.238,77.637,-55.176,-140.625,0.000
1709374330.252,-118.164,88.379,-56.641,-156.250,0.000
1709374330.256,-89.844,99.609,-65.918,-141.602,0.000
1709374330.260,-36.133,106.445,-76.172,-109.863,0.000
1709374330.264,-25.391,111.816,-83.008,-91.309,0.000
1709374330.268,-54.199,122.559,-85.938,-114.258,0.000
1709374330.272,-55.664,126.465,-90.332,-120.117,0.000
1709374330.275,-29.297,129.395,-96.680,-81.055,0.000
1709374330.279,32.227,131.836,-102.051,-27.832,0.000
1709374330.283,59.082,131.836,-100.586,-4.395,0.000
1709374330.287,25.879,135.254,-95.215,-15.625,0.000
1709374330.291,6.348,133.789,-93.262,-30.762,0.000
1709374330.295,22.461,128.418,-94.238,-20.020,0.000
1709374330.300,72.266,125.488,-95.703,26.367,0.000
1709374330.304,106.445,123.535,-96.191,59.570,0.000
1709374330.308,73.730,127.441,-93.262,34.668,0.000
1709374330.311,43.945,130.371,-96.680,11.719,0.000
1709374330.315,59.082,127.930,-96.680,20.508,0.000
1709374330.319,105.957,123.047,-93.262,59.082,0.000
1709374330.323,131.348,121.094,-87.891,97.168,0.000
1709374330.327,89.355,115.234,-84.473,69.336,0.000
1709374330.331,64.941,105.957,-81.543,39.551,0.000
1709374330.335,69.336,106.445,-84.473,43.457,0.000
1709374330.339,101.074,109.375,-86.914,66.895,0.000
1709374330.343,141.113,103.027,-81.543,97.168,0.000
1709374330.347,110.840,91.797,-76.660,74.219,0.000
1709374330.351,62.988,86.426,-73.242,36.133,0.000
1709374330.355,58.594,81.055,-81.055,30.273,0.000
1709374330.359,82.031,74.707,-82.031,57.617,0.000
1709374330.362,109.863,67.871,-68.848,86.914,0.000
1709374330.366,78.613,63.477,-65.918,62.988,0.000
1709374330.370,32.715,59.082,-67.871,23.438,0.000
1709374330.374,21.973,48.340,-63.477,12.695,0.000
1709374330.378,31.738,43.457,-57.129,29.785,0.000
1709374330.382,67.383,41.016,-58.105,66.406,0.000
1709374330.386,47.852,32.715,-60.547,41.992,0.000
1709374330.390,-1.465,20.996,-57.129,-7.812,0.000
1709374330.394,-8.789,14.648,-55.664,-13.184,0.000
1709374330.398,6.836,15.137,-60.059,1.953,0.000
1709374330.402,43.457,11.230,-60.547,39.062,0.000
1709374330.406,36.621,5.859,-58.594,40.039,0.000
1709374330.409,-13.184,4.883,-57.617,-3.906,0.000
1709374330.413,-25.879,3.418,-53.711,-19.043,0.000
1709374330.417,-5.371,-3.418,-52.734,-9.766,0.000
1709374330.421,33.203,-4.883,-52.734,24.414,0.000
1709374330.425,40.527,0.488,-43.945,31.738,0.000
1709374330.429,-6.348,-1.465,-43.457,-10.742,0.000
1709374330.433,-33.691,-5.859,-50.781,-35.156,0.000
1709374330.437,-13.672,-14.160,-53.223,-26.367,0.000
1709374330.441,26.855,-22.461,-55.176,12.207,0.000
1709374330.445,31.738,-20.508,-55.176,24.902,0.000
1709374330.448,-8.789,-17.090,-47.363,-12.207,0.000
1709374330.452,-32.227,-18.066,-45.410,-35.645,0.000
1709374330.456,-35.156,-15.625,-50.781,-24.414,0.000
1709374330.460,11.230,-12.695,-48.828,22.949,0.000
1709374330.464,35.156,-16.602,-48.340,39.062,0.000
1709374330.468,-14.648,-20.508,-45.410,-4.883,0.000
1709374330.472,-43.457,-23.438,-43.945,-24.414,0.000
1709374330.476,-36.621,-24.414,-47.852,-26.367,0.000
1709374330.480,0.977,-23.926,-49.805,-1.465,0.000
1709374330.484,29.785,-22.461,-47.852,27.344,0.000
1709374330.487,-9.277,-23.438,-41.016,-10.254,0.000
1709374330.491,-39.551,-26.855,-38.086,-47.852,0.000
1709374330.495,-37.598,-24.414,-41.016,-42.480,0.000
1709374330.499,-6.836,-24.414,-44.434,-13.672,0.000
1709374330.503,25.391,-28.320,-47.363,10.254,0.000
1709374330.507,-11.719,-27.344,-43.945,-15.137,0.000
1709374330.511,-56.152,-27.832,-41.992,-50.781,0.000
1709374330.515,-58.594,-37.109,-45.410,-50.293,0.000
1709374330.519,-26.855,-39.551,-47.852,-24.902,0.000
1709374330.523,10.254,-38.086,-45.410,-5.859,0.000
1709374330.526,-15.625,-34.180,-41.504,-27.344,0.000
1709374330.530,-60.059,-32.715,-39.062,-55.176,0.000
1709374330.534,-66.895,-34.668,0.000,-59.570,0.000
1709374330.538,-32.715,-37.109,0.000,-39.062,0.000
1709374330.542,18.066,-36.133,0.000,-3.906,0.000
1709374330.546,-7.324,-33.691,0.000,-17.578,0.000
1709374330.550,-62.988,-35.645,0.000,-52.246,0.000
1709374330.554,-68.848,-35.645,0.000,-62.012,0.000
1709374330.558,-42.969,-37.598,0.000,-37.598,0.000
1709374330.561,5.371,-40.039,0.000,16.113,0.000
1709374330.565,-1.953,-34.668,0.000,-3.906,0.000
1709374330.569,-54.199,-34.668,0.000,-49.805,0.000
1709374330.573,-67.871,-36.621,0.000,-56.152,0.000
1709374330.577,-39.062,-33.691,0.000,-45.898,0.000
1709374330.581,8.301,-30.762,-39.551,-6.348,0.000
1709374330.585,2.441,-39.551,-39.062,-4.883,0.000
1709374330.589,-41.016,-38.574,-39.062,-44.922,0.000
1709374330.592,-57.617,-35.156,-40.039,-62.012,0.000
1709374330.596,-42.480,-38.086,-35.156,-50.293,0.000
1709374330.600,6.836,-36.621,-28.809,-11.719,0.000
1709374330.604,8.789,-37.598,-24.902,2.441,0.000
1709374330.608,-50.781,-36.133,-28.320,-34.668,0.000
1709374330.612,-67.871,-32.227,-26.855,-55.664,0.000
1709374330.616,-48.828,-36.621,-24.902,-46.387,0.000
1709374330.620,-11.230,-41.992,-29.785,-10.254,0.000
1709374330.624,13.184,-33.691,-31.738,8.789,0.000
1709374330.627,-25.391,-32.715,-30.762,-33.203,0.000
1709374330.631,-58.594,-35.156,-34.668,-60.059,0.000
1709374330.635,-46.387,-33.691,-38.574,-51.758,0.000
1709374330.639,-3.906,-36.133,-36.133,-17.578,0.000
1709374330.643,14.160,-35.156,-38.086,-1.465,0.000
1709374330.647,-24.902,-32.715,-36.621,-31.250,0.000
1709374330.651,-54.199,-34.668,-35.156,-48.340,0.000
1709374330.655,-60.547,-43.945,-45.898,-53.711,0.000
1709374330.658,-20.508,-44.922,-46.387,-23.438,0.000
1709374330.662,17.578,-41.992,-41.504,4.883,0.000
1709374330.666,-24.902,-42.969,-38.086,-28.320,0.000
1709374330.670,-59.570,-45.898,-32.715,-53.223,0.000
1709374330.674,-50.293,-47.852,-32.715,-44.434,0.000
1709374330.678,-10.742,-38.574,-31.250,-14.160,0.000
1709374330.682,21.484,-36.133,-31.250,15.625,0.000
1709374330.686,-20.020,-38.086,-29.297,-15.137,0.000
1709374330.690,-62.012,-39.551,-26.367,-49.316,0.000
1709374330.694,-65.430,-41.992,-26.855,-46.875,0.000
1709374330.698,-43.457,-42.480,-29.785,-27.832,0.000
1709374330.702,-0.488,-49.316,-33.691,1.465,0.000
1709374330.706,-21.484,-53.223,-30.762,-14.648,0.000
1709374330.710,-59.570,-46.875,-26.367,-43.945,0.000
1709374330.713,-62.012,-47.852,-23.926,-50.781,0.000
1709374330.717,-32.715,-42.969,-19.043,-35.156,0.000
1709374330.721,17.090,-37.598,-17.578,-2.441,0.000
1709374330.725,-4.883,-37.109,-20.020,-14.648,0.000
1709374330.729,-54.688,-28.809,-22.949,-58.594,0.000
1709374330.733,-63.965,-28.809,-27.832,-68.848,0.000
1709374330.737,-53.711,-35.156,-37.109,-52.246,0.000
1709374330.741,-16.113,-34.180,-37.598,-11.230,0.000
1709374330.745,-12.207,-33.691,-39.062,-10.742,0.000
1709374330.749,-54.199,-30.273,-37.598,-64.453,0.000
1709374330.753,-74.707,-26.367,-37.109,-85.449,0.000
1709374330.757,-51.270,-24.414,-37.109,-56.641,0.000
1709374330.761,-2.930,-26.855,-43.945,-19.531,0.000
1709374330.764,-3.418,-25.879,-45.898,-19.043,0.000
1709374330.768,-55.176,-20.508,-35.645,-55.664,0.000
1709374330.772,-76.660,-21.973,-36.621,-72.266,0.000
1709374330.776,-57.129,-27.344,-39.062,-54.688,0.000
1709374330.780,-8.301,-30.762,-40.527,-12.207,0.000
1709374330.784,10.254,-30.762,-37.598,-3.906,0.000
1709374330.788,-33.203,-30.273,-34.668,-34.668,0.000
1709374330.792,-59.082,-31.250,-38.086,-49.805,0.000
1709374330.796,-51.758,-39.062,-39.062,-49.316,0.000
1709374330.800,-15.137,-43.457,-35.645,-13.184,0.000
1709374330.804,8.301,-38.574,-36.133,14.648,0.000
1709374330.808,-34.180,-35.645,-36.133,-27.832,0.000
1709374330.811,-67.871,-31.738,-34.180,-58.594,0.000
1709374330.815,-64.453,-35.156,-39.062,-53.711,0.000
1709374330.819,-26.367,-40.039,-43.945,-26.367,0.000
1709374330.823,1.465,-33.691,-39.551,-7.812,0.000
1709374330.827,-39.062,-31.738,-37.598,-34.668,0.000
1709374330.831,-64.941,-32.227,-35.156,-59.570,0.000
1709374330.835,-51.270,-29.297,-33.691,-63.965,0.000
1709374330.839,-19.043,-30.273,-34.180,-44.434,0.000
1709374330.843,14.160,-28.320,-28.809,-16.113,0.000
1709374330.847,-17.578,-24.902,-31.250,-28.320,0.000
1709374330.850,-64.453,-30.762,-37.598,-64.453,0.000
1709374330.854,-67.383,-29.785,-35.156,-72.266,0.000
1709374330.858,-38.086,-26.367,-37.109,-50.781,0.000
1709374330.862,-5.859,-27.832,-44.434,-23.926,0.000
1709374330.866,-29.785,-22.949,-42.480,-40.527,0.000
1709374330.870,-73.730,-25.391,-39.062,-75.684,0.000
1709374330.874,-80.566,-34.180,-39.062,-77.148,0.000
1709374330.878,-56.641,-33.203,-36.621,-54.688,0.000
1709374330.882,-9.277,-28.809,-34.180,-15.625,0.000
1709374330.886,-26.855,-29.785,-32.227,-29.785,0.000
1709374330.889,-69.824,-32.715,-28.809,-54.688,0.000
1709374330.893,-70.801,-35.645,-30.762,-50.293,0.000
1709374330.897,-50.293,-36.133,-35.156,-39.062,0.000
1709374330.901,-2.441,-33.203,-38.086,-4.883,0.000
1709374330.905,-8.301,-34.180,-39.062,-20.020,0.000
1709374330.909,-51.270,-35.645,-38.086,-51.758,0.000
1709374330.913,-63.477,-34.668,-37.598,-60.547,0.000
1709374330.917,-50.293,-32.715,-36.133,-52.246,0.000
1709374330.921,-10.254,-31.250,-39.062,-11.230,0.000
1709374330.924,-20.996,-35.645,-38.086,-16.602,0.000
1709374330.928,-68.848,-34.668,-35.645,-60.547,0.000
1709374330.932,-80.078,-35.645,-41.504,-67.383,0.000
1709374330.936,-59.082,-46.875,-41.504,-38.574,0.000
1709374330.940,-10.742,-45.898,-41.992,-5.371,0.000
1709374330.944,-14.160,-33.691,-46.387,-11.230,0.000
1709374330.948,-64.941,-29.785,-41.016,-43.457,0.000
1709374330.952,-83.496,-35.156,-43.457,-56.152,0.000
1709374330.955,-71.289,-34.668,-44.434,-50.293,0.000
1709374330.959,-18.555,-30.273,-40.527,-11.230,0.000
1709374330.963,3.906,-31.738,-41.016,1.465,0.000
1709374330.967,-42.480,-36.621,-39.551,-49.805,0.000
1709374330.971,-65.918,-31.250,-40.039,-77.637,0.000
1709374330.975,-50.293,-30.273,-42.480,-69.336,0.000
1709374330.979,-11.719,-32.715,-40.039,-34.668,0.000
1709374330.983,-0.977,-30.762,-42.480,-18.066,0.000
1709374330.987,-45.898,-29.785,-45.898,-64.941,0.000
1709374330.991,-72.266,-29.785,-43.945,-85.938,0.000
1709374330.995,-66.406,-30.762,-41.504,-70.312,0.000
1709374330.998,-23.438,-35.156,-37.598,-36.133,0.000
1709374331.002,7.812,-35.645,-38.086,-3.418,0.000
1709374331.006,-30.762,-30.762,-41.992,-34.180,0.000
1709374331.010,-74.219,-31.738,-41.992,-66.406,0.000
1709374331.014,-79.102,-41.016,-44.922,-71.777,0.000
1709374331.018,-39.551,-41.504,-43.457,-48.828,0.000
1709374331.021,-1.465,-31.738,-41.504,-3.906,0.000
1709374331.025,-30.273,-30.273,-42.480,-20.996,0.000
1709374331.029,-64.453,-28.809,-45.410,-64.453,0.000
1709374331.033,-76.172,-26.855,-41.992,-64.941,0.000
1709374331.037,-44.434,-24.902,-36.621,-31.738,0.000
1709374331.041,2.930,-31.738,-41.504,-3.906,0.000
1709374331.045,-37.109,-44.434,-47.852,-36.133,0.000
1709374331.049,-88.867,-46.387,-47.852,0.000,0.000
1709374331.053,-84.961,-40.039,-40.527,0.000,0.000
1709374331.057,-55.664,-35.156,-42.480,0.000,0.000
1709374331.061,-11.719,-37.109,-46.387,0.000,0.000
1709374331.065,-21.973,-40.527,-39.062,0.000,0.000
1709374331.069,-56.152,-38.086,-38.086,0.000,0.000
1709374331.073,-65.918,-36.621,-40.527,0.000,0.000
1709374331.077,-49.805,-34.668,-41.016,0.000,0.000
1709374331.080,4.395,-34.668,-43.457,0.000,0.000
1709374331.084,-5.859,-37.598,-47.363,0.000,0.000
1709374331.088,-61.035,-38.086,-44.922,0.000,0.000
1709374331.092,-73.242,-40.527,-43.945,0.000,0.000
1709374331.096,-46.875,-41.504,-44.922,-54.688,0.000
1709374331.100,1.953,-40.039,-42.969,-5.859,0.000
1709374331.104,7.812,-35.156,-39.551,2.930,0.000
1709374331.108,-37.598,-32.715,-40.039,-42.480,0.000
1709374331.112,-56.641,-34.668,-34.668,-60.059,0.000
1709374331.116,-51.758,-41.504,-35.645,-48.340,0.000
1709374331.120,-10.742,-46.875,-41.992,-19.531,0.000
1709374331.124,-1.953,-42.480,-39.062,-10.742,0.000
1709374331.128,-46.875,-44.434,-36.133,-47.852,0.000
1709374331.131,-59.570,-44.922,-36.621,-60.059,0.000
1709374331.135,-56.641,-36.621,-42.969,-59.082,0.000
1709374331.139,-18.555,-32.227,-45.410,-30.273,0.000
1709374331.143,2.441,-31.738,-40.527,-8.301,0.000
1709374331.147,-44.922,-36.621,-37.598,-48.828,0.000
1709374331.151,-77.637,-39.551,-39.551,-78.613,0.000
1709374331.155,-66.895,-37.109,-38.086,-69.336,0.000
1709374331.159,-18.555,-38.574,-39.551,-34.180,0.000
1709374331.163,6.348,-41.992,-42.480,-18.555,0.000
1709374331.167,-36.133,-43.945,-40.039,-53.711,0.000
1709374331.171,-66.406,-45.410,-34.668,-66.406,0.000
1709374331.175,-52.246,-44.922,-31.250,-43.945,0.000
1709374331.178,-19.531,-44.434,-33.691,-20.996,0.000
1709374331.182,8.789,-45.898,-38.086,-4.395,0.000
1709374331.186,-17.578,-43.457,-40.039,-28.809,0.000
1709374331.190,-58.105,-42.480,-42.480,-61.035,0.000
1709374331.194,-64.941,-50.293,-45.410,-64.941,0.000
1709374331.198,-30.762,-48.340,-40.527,-38.086,0.000
1709374331.202,16.113,-47.852,-39.062,-2.930,0.000
1709374331.206,-19.531,-47.852,-39.551,-23.926,0.000
1709374331.210,-61.035,-38.574,-37.109,-60.547,0.000
1709374331.214,-54.199,-39.551,-41.504,-72.266,0.000
1709374331.217,-26.367,-42.969,-42.969,-47.852,0.000
1709374331.221,10.742,-44.922,-41.504,-2.930,0.000
1709374331.225,-6.348,-46.875,-42.969,-33.203,0.000
1709374331.229,-47.363,-36.621,-41.016,-69.824,0.000
1709374331.233,-60.547,-33.691,-41.016,-62.988,0.000
1709374331.237,-47.852,-36.133,-43.457,-45.898,0.000
1709374331.241,-9.277,-38.574,-41.504,-11.719,0.000
1709374331.245,-22.949,-51.270,-36.133,-21.973,0.000
1709374331.249,-66.895,-47.852,-33.691,-63.477,0.000
1709374331.253,-72.754,-34.668,-34.668,-75.684,0.000
1709374331.256,-49.316,-37.109,-32.715,-48.828,0.000
1709374331.260,-6.348,-41.992,-31.250,-4.883,0.000
1709374331.264,-18.066,-42.969,-31.738,-5.859,0.000
1709374331.268,-71.289,-39.062,-34.180,-41.016,0.000
1709374331.272,-77.637,-33.691,-37.109,-56.641,0.000
1709374331.276,-54.688,-35.156,-36.621,-42.969,0.000
1709374331.280,-9.766,-37.598,-35.156,-4.395,0.000
1709374331.284,-3.906,-37.109,-33.691,-5.371,0.000
1709374331.288,-55.176,-34.180,-25.879,-45.898,0.000
1709374331.292,-70.801,-32.227,-26.367,-56.152,0.000
1709374331.295,-56.152,-32.715,-34.668,-52.246,0.000
1709374331.299,-4.883,-32.227,-37.109,-19.531,0.000
1709374331.303,14.648,-32.715,-37.109,-4.395,0.000
1709374331.307,-40.527,-33.691,-40.527,-43.457,0.000
1709374331.311,-71.289,-32.715,-42.969,-59.082,0.000
1709374331.315,-64.453,-34.180,-43.945,-57.129,0.000
1709374331.319,-20.996,-36.133,-40.039,-26.367,0.000
1709374331.323,3.906,-39.062,-37.109,-6.836,0.000
1709374331.327,-36.621,-39.062,-36.621,-45.898,0.000
1709374331.330,-67.871,-39.551,-35.645,-69.824,0.000
1709374331.334,-62.500,-42.480,-33.203,-59.570,0.000
1709374331.338,-23.438,-38.086,-32.715,-30.273,0.000
1709374331.342,0.977,-34.180,-38.574,-8.301,0.000
1709374331.346,-41.016,-33.691,-38.574,-31.250,0.000
1709374331.350,-72.266,-36.621,-37.109,-58.594,0.000
1709374331.354,-70.312,-41.992,-39.551,-57.129,0.000
1709374331.358,-32.227,-41.992,-40.039,-29.785,0.000
1709374331.362,10.254,-40.039,-37.598,-4.883,0.000
1709374331.365,-25.879,-35.645,-33.691,-22.461,0.000
1709374331.369,-60.059,-32.715,-27.832,-42.969,0.000
1709374331.373,-57.129,-32.715,-26.367,-44.922,0.000
1709374331.377,-31.250,-33.691,-29.297,-25.879,0.000
1709374331.381,16.602,-35.156,-24.414,6.348,0.000
1709374331.385,-9.766,-33.691,-20.996,-12.207,0.000
1709374331.389,-62.012,-29.785,-27.344,-48.340,0.000
1709374331.392,-63.477,-24.902,-31.738,-61.035,0.000
1709374331.396,-39.551,-31.250,-34.180,-46.387,0.000
1709374331.400,-0.488,-36.621,-36.621,-4.883,0.000
1709374331.404,-23.926,-34.668,-37.109,-31.738,0.000
1709374331.408,-77.637,-39.551,-41.992,-79.102,0.000
1709374331.412,-85.938,-41.016,-44.922,-83.984,0.000
1709374331.416,-59.082,-35.645,-43.457,-67.871,0.000
1709374331.420,-12.695,-35.156,-43.457,-27.832,0.000
1709374331.424,-17.090,-38.574,-41.992,0.000,0.000
1709374331.428,-61.035,-40.039,-39.062,0.000,0.000
1709374331.432,-75.195,-37.109,-40.527,0.000,0.000
1709374331.436,-62.988,-35.156,-36.133,0.000,0.000
1709374331.440,-21.973,-42.480,-39.551,0.000,0.000
1709374331.444,-20.508,-46.875,-44.922,0.000,0.000
1709374331.447,-74.707,-41.016,-46.387,0.000,0.000
1709374331.451,-95.703,-39.062,-47.363,0.000,0.000
1709374331.455,-76.660,-41.504,-45.410,0.000,0.000
1709374331.459,-30.273,-39.551,-42.969,0.000,0.000
1709374331.463,-23.926,-36.621,-40.039,0.000,0.000
1709374331.467,-67.383,-33.203,-39.062,0.000,0.000
1709374331.474,0.000,-34.180,-41.992,-59.082,0.000
1709374331.478,0.000,-33.691,-37.109,-44.434,0.000
1709374331.482,0.000,-37.109,-39.062,-13.184,0.000
1709374331.485,0.000,-36.133,-41.016,-4.883,0.000
1709374331.489,0.000,-32.227,-32.227,-38.086,0.000
1709374331.493,0.000,-35.156,-29.785,-59.570,0.000
1709374331.497,0.000,-36.133,-37.109,-61.523,0.000
1709374331.501,0.000,-34.668,-35.645,-33.691,0.000
1709374331.505,0.000,-37.109,-32.715,-6.836,0.000
1709374331.509,0.000,-39.551,-32.715,-35.156,0.000
1709374331.513,0.000,-39.551,-39.062,-65.430,0.000
1709374331.517,0.000,-38.086,-39.062,-62.012,0.000
1709374331.521,-81.543,-35.645,-34.668,-33.691,0.000
1709374331.525,-65.430,-41.016,-36.621,-9.277,0.000
1709374331.529,-18.555,-48.340,-36.621,-40.527,0.000
1709374331.533,3.418,-44.922,-35.645,-73.730,0.000
1709374331.536,-37.109,-39.551,-35.645,-72.266,0.000
1709374331.540,-65.430,-40.039,-36.133,-41.992,0.000
1709374331.544,-62.500,-40.039,-41.016,-13.672,0.000
1709374331.548,-16.602,-36.133,-40.039,-40.527,0.000
1709374331.552,18.066,-38.086,-36.621,-56.152,0.000
1709374331.556,-30.273,-42.480,-40.527,-56.152,0.000
1709374331.560,-71.289,-44.434,-46.875,-53.223,0.000
1709374331.564,-62.500,-47.363,-46.875,-19.043,0.000
1709374331.568,-26.855,-44.922,-46.875,-29.785,0.000
1709374331.571,-69.336,-34.180,-50.293,-68.848,0.000
1709374331.575,-84.473,-30.273,-46.875,-74.219,0.000
1709374331.579,-56.152,-32.715,-40.527,-51.758,0.000
1709374331.583,-9.766,-36.133,-42.969,-19.531,0.000
1709374331.587,-17.090,-36.133,-33.203,-27.344,0.000
1709374331.591,-64.453,-34.180,-32.227,-59.570,0.000
1709374331.595,-75.684,-37.109,-41.016,-62.988,0.000
1709374331.599,-54.688,-38.574,-36.621,-43.457,0.000
1709374331.603,-8.789,-43.457,-40.527,-19.043,0.000
1709374331.607,-7.324,-44.922,-43.457,-20.996,0.000
1709374331.611,-52.734,-35.645,-41.016,-55.664,0.000
1709374331.614,-67.871,-36.621,-43.457,-73.242,0.000
1709374331.618,-52.246,-41.504,-46.387,-58.105,0.000
1709374331.622,-5.859,-35.645,-40.527,-13.184,0.000
1709374331.626,9.766,-34.180,-38.086,-10.254,0.000
1709374331.630,-34.668,-34.668,-38.086,-44.434,0.000
1709374331.634,-62.988,-38.086,-37.598,-51.270,0.000
1709374331.638,-43.945,-37.598,-40.527,-38.086,0.000
1709374331.642,9.277,-34.180,-38.086,5.371,0.000
1709374331.646,20.996,-36.621,-37.598,19.531,0.000
1709374331.649,-28.809,-41.992,-39.062,-27.832,0.000
1709374331.653,-58.105,-38.574,-33.203,-53.223,0.000
1709374331.657,-50.293,-36.621,-36.133,-42.969,0.000
1709374331.661,-13.184,-39.062,-35.645,-10.254,0.000
1709374331.665,6.836,-39.551,-39.551,-2.441,0.000
1709374331.669,-32.227,-41.016,-43.945,-32.227,0.000
1709374331.673,-63.965,-43.457,-40.039,-58.105,0.000
1709374331.677,-68.848,-38.086,-41.504,-66.406,0.000
1709374331.680,-27.832,-39.551,-48.340,-36.621,0.000
1709374331.684,7.324,-44.434,-47.852,-9.277,0.000
1709374331.688,-38.086,-41.504,-40.039,-35.156,0.000
1709374331.692,-75.195,-38.086,-42.480,-69.824,0.000
1709374331.696,-68.359,-32.715,-42.480,-62.012,0.000
1709374331.700,-31.738,-31.250,-35.156,-26.855,0.000
1709374331.704,7.324,-32.715,-30.273,-2.441,0.000
1709374331.707,-26.367,-36.133,-33.691,-27.344,0.000
1709374331.711,-63.477,-33.203,-35.645,-56.641,0.000
1709374331.715,-62.500,-31.250,-36.133,-62.500,0.000
1709374331.719,-37.598,-37.598,-36.621,-37.598,0.000
1709374331.723,9.766,-41.016,-37.109,-0.977,0.000
1709374331.727,-8.789,-37.598,-35.645,-23.926,0.000
1709374331.731,-61.035,-34.668,-34.668,-52.734,0.000
1709374331.735,-67.871,-35.156,-32.227,-56.641,0.000
1709374331.739,-34.668,-35.156,-33.203,-44.434,0.000
1709374331.743,10.742,-37.109,-34.180,-8.301,0.000
1709374331.746,-11.230,-42.969,-36.133,-21.484,0.000
1709374331.750,-58.105,-39.551,-31.250,-57.129,0.000
1709374331.754,-60.547,-33.203,-29.297,-60.059,0.000
1709374331.758,-31.738,-31.738,-32.227,-45.898,0.000
1709374331.762,13.672,-32.227,-34.180,-13.184,0.000
1709374331.766,2.441,-40.527,-37.109,-17.578,0.000
1709374331.769,-47.363,-38.574,-37.598,-56.152,0.000
1709374331.773,-64.941,-33.203,-39.062,-68.848,0.000
1709374331.777,-47.363,-36.133,-35.645,-43.945,0.000
1709374331.781,-1.953,-36.621,-35.645,-7.324,0.000
1709374331.785,1.465,-31.250,-39.062,-15.137,0.000
1709374331.789,-43.945,-30.273,-36.133,-49.316,0.000
1709374331.793,-61.523,-35.156,-41.016,-61.523,0.000
1709374331.797,-46.387,-32.227,-44.922,-56.641,0.000
1709374331.801,-12.207,-33.203,-41.992,-17.578,0.000
1709374331.805,-6.348,-36.621,-38.086,-8.789,0.000
1709374331.809,-44.922,-36.133,-35.645,-49.316,0.000
1709374331.813,-63.965,-38.086,-35.156,-66.406,0.000
1709374331.817,-61.523,-38.574,-38.086,-53.711,0.000
1709374331.821,-26.367,-38.086,-42.969,-12.207,0.000
1709374331.824,-2.930,-33.691,-42.480,4.883,0.000
1709374331.828,-37.109,-29.785,-38.086,-38.574,0.000
1709374331.832,-64.941,-29.785,-35.156,-59.570,0.000
1709374331.836,-58.105,-32.227,-33.691,-44.434,0.000
1709374331.840,-12.207,-34.668,-32.227,-16.602,0.000
1709374331.844,12.695,-28.809,-33.203,0.488,0.000
1709374331.848,-26.855,-32.227,-35.156,-31.738,0.000
1709374331.852,-54.199,-34.668,-34.180,-51.758,0.000
1709374331.856,-56.641,-31.738,-29.785,-50.293,0.000
1709374331.860,-24.414,-30.273,-32.227,-25.879,0.000
1709374331.864,8.789,-33.203,-33.691,-0.977,0.000
1709374331.868,-29.785,-39.551,-30.762,-33.203,0.000
1709374331.871,-70.312,-35.645,-29.785,-61.523,0.000
1709374331.875,-65.430,-32.715,-27.344,-56.641,0.000
1709374331.879,-23.438,-36.133,-27.344,-30.762,0.000
1709374331.883,17.090,-33.691,-31.250,13.184,0.000
1709374331.887,-19.531,-38.086,-29.297,-12.695,0.000
1709374331.891,-56.152,-36.133,-25.391,-50.293,0.000
1709374331.895,-59.082,-29.297,-24.414,-53.711,0.000
1709374331.899,-32.715,-34.180,-30.273,-38.574,0.000
1709374331.903,8.789,-34.180,-35.645,-4.883,0.000
1709374331.907,-9.277,-29.297,-33.203,-14.648,0.000
1709374331.911,-47.852,-24.414,-30.273,-43.457,0.000
1709374331.914,-59.082,-27.344,-28.809,-54.688,0.000
1709374331.918,-39.062,-28.809,-31.250,-43.457,0.000
1709374331.922,6.348,-27.832,-40.527,-8.301,0.000
1709374331.926,1.953,-32.227,-37.598,-9.277,0.000
1709374331.930,-43.945,-35.156,-31.250,-47.363,0.000
1709374331.934,-59.082,-35.645,-31.738,-62.012,0.000
1709374331.938,-38.086,-32.227,-37.109,-53.711,0.000
1709374331.942,5.859,-34.668,-39.551,-14.160,0.000
1709374331.946,-5.859,-40.039,-35.645,-7.812,0.000
1709374331.949,-58.105,-30.762,-35.645,-49.316,0.000
1709374331.953,-73.242,-26.367,-36.133,-65.430,0.000
1709374331.957,-55.664,-33.203,-38.086,-49.805,0.000
1709374331.961,-14.648,-34.180,-38.574,-13.672,0.000
1709374331.965,-16.602,-33.691,-34.180,-12.695,0.000
1709374331.969,-66.895,-36.133,-35.156,-47.363,0.000
1709374331.973,-80.566,-34.180,-36.133,-52.246,0.000
1709374331.977,-69.336,-33.691,-38.086,-52.246,0.000
1709374331.981,-27.832,-38.086,-41.992,-31.250,0.000
1709374331.985,-12.207,-38.574,-40.039,-15.625,0.000
1709374331.988,-54.199,-27.344,-36.133,-46.875,0.000
1709374331.992,-71.289,-25.879,-38.574,-73.242,0.000
1709374331.996,-60.547,-34.180,-41.016,-68.848,0.000
1709374332.000,-18.555,-33.691,-42.969,-29.785,0.000
1709374332.004,0.977,-29.297,-40.039,-11.230,0.000
1709374332.008,-48.340,-31.250,-39.062,-48.828,0.000
1709374332.012,-77.148,-33.203,-43.945,-70.801,0.000
1709374332.016,-65.918,-32.227,-42.480,-58.105,0.000
1709374332.020,-30.273,-40.039,-45.410,-27.344,0.000
1709374332.024,4.395,-39.062,-45.898,2.930,0.000
1709374332.028,-36.133,-37.109,-39.551,-29.785,0.000
1709374332.031,-76.172,-41.016,-38.086,-68.848,0.000
1709374332.035,-69.336,-34.180,0.000,-63.477,0.000
1709374332.039,-39.062,-34.668,0.000,-37.598,0.000
1709374332.043,-0.977,-33.691,0.000,-2.441,0.000
1709374332.047,-27.832,-32.715,0.000,-27.832,0.000
1709374332.051,-63.965,-40.527,0.000,-59.082,0.000
1709374332.055,-73.730,-38.574,0.000,-60.059,0.000
1709374332.059,-42.480,-37.109,0.000,-39.062,0.000
1709374332.063,5.859,-33.691,0.000,5.859,0.000
1709374332.066,-17.578,-37.598,0.000,-19.531,0.000
1709374332.070,-60.547,-44.434,0.000,-61.035,0.000
1709374332.074,-61.523,-34.668,0.000,-53.223,0.000
1709374332.078,-36.133,-29.297,0.000,-32.227,0.000
1709374332.082,-6.836,-35.645,-38.574,-12.207,0.000
1709374332.086,-20.508,-41.504,-43.457,-27.344,0.000
1709374332.090,-58.594,-41.016,-40.527,-61.035,0.000
1709374332.093,-66.406,-38.574,-44.434,-70.801,0.000
1709374332.097,-38.574,-32.227,-45.898,-49.805,0.000
1709374332.101,6.348,-29.785,-42.480,-4.883,0.000
1709374332.105,-0.977,-36.133,-40.527,1.465,0.000
1709374332.109,-41.504,-39.062,-38.574,-35.156,0.000
1709374332.113,-58.594,-42.480,-37.598,-59.570,0.000
1709374332.117,-40.039,-41.016,-39.551,-43.457,0.000
1709374332.121,6.348,-37.109,-44.922,-12.695,0.000
1709374332.125,3.418,-39.551,-44.922,-14.648,0.000
1709374332.128,-48.828,-45.410,-41.016,-57.129,0.000
1709374332.132,-69.336,-45.410,-36.621,-68.359,0.000
1709374332.136,-57.129,-41.016,-33.691,-52.734,0.000
1709374332.140,-14.648,-38.086,-38.086,-20.996,0.000
1709374332.144,-5.371,-39.551,-40.039,-11.230,0.000
1709374332.148,-47.363,-42.969,-34.180,-43.945,0.000
1709374332.152,-62.012,-46.387,-29.785,-59.082,0.000
1709374332.155,-53.223,-44.922,-28.809,-51.270,0.000
1709374332.159,-10.742,-40.039,-29.297,-9.277,0.000
1709374332.163,3.906,-39.062,-32.227,1.953,0.000
1709374332.167,-45.410,-43.457,-38.574,-42.969,0.000
1709374332.171,-62.988,-40.527,-31.250,-55.664,0.000
1709374332.175,-54.688,-32.715,-28.809,-43.945,0.000
1709374332.179,-19.531,-36.621,-31.738,-13.184,0.000
1709374332.183,11.230,-41.992,-29.297,12.695,0.000
1709374332.187,-32.227,-41.016,-34.668,-28.809,0.000
1709374332.191,-67.383,-37.598,-40.527,-60.547,0.000
1709374332.195,-54.199,-31.738,-33.691,-46.875,0.000
1709374332.199,-18.066,-30.273,-29.297,-18.555,0.000
1709374332.203,2.930,-33.203,-37.109,-2.930,0.000
1709374332.207,-31.738,-32.715,-36.621,-33.691,0.000
1709374332.210,-62.012,-32.715,-34.180,-58.594,0.000
1709374332.214,-64.453,-42.480,-36.621,-62.012,0.000
1709374332.218,-41.016,-45.898,-35.645,-34.668,0.000
1709374332.222,-1.465,-41.992,-35.645,0.000,0.000
1709374332.226,-33.691,-38.086,-37.109,-29.297,0.000
1709374332.230,-71.777,-32.715,-36.621,-64.941,0.000
1709374332.234,-69.824,-39.062,-37.109,-66.895,0.000
1709374332.238,-45.410,-45.410,-37.598,-42.480,0.000
1709374332.242,-3.906,-41.016,-38.086,-8.301,0.000
1709374332.246,-23.926,-42.480,-39.062,-29.785,0.000
1709374332.250,-67.871,-42.480,-40.527,-65.430,0.000
1709374332.254,-79.590,-41.504,-41.992,-66.895,0.000
1709374332.258,-52.734,-41.504,-43.457,-35.645,0.000
1709374332.261,1.465,-39.551,-38.574,9.277,0.000
1709374332.265,-6.836,-41.504,-33.691,-1.465,0.000
1709374332.269,-47.363,-39.062,-34.668,-45.410,0.000
1709374332.273,-64.941,-41.992,-40.039,-57.617,0.000
1709374332.277,-53.223,-40.039,-43.457,-43.457,0.000
1709374332.281,2.441,-34.180,-41.992,-6.836,0.000
1709374332.285,2.441,-37.598,-38.086,-5.371,0.000
1709374332.289,-47.852,-34.180,-34.180,-44.434,0.000
1709374332.293,-67.383,-35.645,-34.668,-64.453,0.000
1709374332.297,-59.570,-41.504,-36.133,-56.641,0.000
1709374332.301,-10.254,-38.574,-34.180,-12.207,0.000
1709374332.304,-8.789,-38.574,-35.156,-11.230,0.000
1709374332.308,-59.570,-41.992,-36.621,-58.105,0.000
1709374332.312,-76.172,-42.480,-39.062,-72.266,0.000
1709374332.316,-62.988,-46.875,-39.551,-62.988,0.000
1709374332.320,-19.531,-48.340,-39.551,-28.809,0.000
1709374332.324,-4.395,-39.062,-34.180,-11.719,0.000
1709374332.328,-42.969,-35.156,-27.344,-35.156,0.000
1709374332.332,-66.406,-41.504,-29.297,-53.711,0.000
1709374332.336,-59.570,-44.922,-30.273,-46.875,0.000
1709374332.340,-18.555,-41.504,-35.645,-15.137,0.000
1709374332.343,3.418,-37.598,-39.062,-2.441,0.000
1709374332.347,-41.504,-39.551,-33.691,-21.484,0.000
1709374332.351,-78.613,-40.527,-35.156,-51.758,0.000
1709374332.355,-66.895,-40.039,-36.133,-51.270,0.000
1709374332.359,-29.785,-41.016,-39.062,-12.207,0.000
1709374332.363,-4.883,-43.945,-37.109,8.301,0.000
1709374332.367,-36.621,-41.504,-34.180,-22.949,0.000
1709374332.371,-57.129,-35.645,-33.203,-47.363,0.000
1709374332.375,-45.410,-37.109,-27.832,-45.410,0.000
1709374332.378,-20.996,-39.062,-31.738,-21.973,0.000
1709374332.382,9.766,-35.156,-33.691,1.465,0.000
1709374332.386,-14.160,-33.203,-32.227,-23.438,0.000
1709374332.390,-51.270,-30.762,-31.738,-47.852,0.000
1709374332.394,-67.871,-31.738,-29.297,-49.805,0.000
1709374332.398,-39.062,-35.156,-30.762,-35.645,0.000
1709374332.402,3.906,-36.621,-35.645,-10.254,0.000
1709374332.406,-24.902,-39.551,-33.691,-25.391,0.000
1709374332.410,-61.035,-41.992,-29.297,-43.457,0.000
1709374332.413,-58.594,-36.133,-33.203,-48.340,0.000
1709374332.417,-42.969,-37.109,-39.551,-50.781,0.000
1709374332.421,-0.488,-36.621,-35.156,-16.602,0.000
1709374332.425,-11.719,-33.691,-31.250,-20.020,0.000
1709374332.429,-60.547,-42.480,-32.227,-65.918,0.000
1709374332.433,-72.266,-47.363,-32.227,-76.660,0.000
1709374332.437,-50.781,-41.504,-33.203,-44.434,0.000
1709374332.441,-7.324,-41.992,-38.086,-12.695,0.000
1709374332.445,-18.555,-42.969,-33.691,-23.438,0.000
1709374332.449,-62.500,-43.457,-31.738,-54.199,0.000
1709374332.453,-75.195,-44.922,-34.180,-57.617,0.000
1709374332.456,-56.641,-43.457,-33.691,-44.434,0.000
1709374332.460,-11.230,-45.898,-39.062,-13.184,0.000
1709374332.464,-7.812,-46.875,-37.109,-6.836,0.000
1709374332.468,-48.828,-42.480,-30.762,-48.828,0.000
1709374332.472,-66.406,-42.480,-35.156,-66.406,0.000
1709374332.476,-54.199,-41.992,-36.621,-52.734,0.000
1709374332.480,-6.836,-38.574,-33.203,-14.160,0.000
1709374332.483,0.000,-38.574,-37.598,-0.977,0.000
1709374332.487,-43.457,-36.621,-36.133,-49.316,0.000
1709374332.491,-63.965,-34.180,-31.738,-70.801,0.000
1709374332.495,-56.152,-34.668,-32.227,-53.711,0.000
1709374332.499,-8.789,-35.156,-35.156,-14.160,0.000
1709374332.503,9.766,-36.621,-35.156,-0.488,0.000
1709374332.506,-36.133,-40.039,-30.762,-34.668,0.000
1709374332.510,-64.941,-39.551,-33.691,-57.129,0.000
1709374332.514,-57.617,-37.598,-39.062,-58.105,0.000
1709374332.518,-13.184,-41.504,-36.133,-28.320,0.000
1709374332.522,6.348,-42.969,-34.180,3.906,0.000
1709374332.526,-41.016,-35.645,-40.527,-16.602,0.000
1709374332.530,-68.359,-36.621,-41.016,-56.152,0.000
1709374332.534,-62.012,-38.086,-42.480,-62.500,0.000
1709374332.538,-22.461,-32.715,-42.969,-26.855,0.000
1709374332.542,6.348,-34.180,-41.992,-3.418,0.000
1709374332.546,-36.133,-38.086,-34.180,-33.203,0.000
1709374332.550,-74.707,-40.527,-33.203,-64.941,0.000
1709374332.554,-67.871,-39.551,-39.062,-67.383,0.000
1709374332.558,-32.227,-35.156,-35.645,-36.133,0.000
1709374332.562,7.324,-37.598,-32.227,-3.418,0.000
1709374332.565,-21.484,-34.180,-31.738,-24.414,0.000
1709374332.569,-63.965,-31.738,-33.203,-47.363,0.000
1709374332.573,-61.035,-37.109,-32.715,-50.293,0.000
1709374332.577,-27.832,-43.457,-30.273,-33.203,0.000
1709374332.581,12.695,-39.551,-26.855,2.930,0.000
1709374332.585,-12.695,-33.691,-27.832,-13.184,0.000
1709374332.589,-62.988,-41.504,-34.668,-52.246,0.000
1709374332.593,-69.336,-41.016,-32.715,-70.801,0.000
1709374332.597,-45.898,-34.668,-29.297,-42.969,0.000
1709374332.601,-3.418,-37.598,-36.133,0.000,0.000
1709374332.605,-18.066,-36.621,-39.062,-18.555,0.000
1709374332.609,-64.453,-36.621,-40.039,-54.688,0.000
1709374332.613,-76.660,-39.551,-40.039,-62.500,0.000
1709374332.617,-54.199,-39.062,-38.086,-41.992,0.000
1709374332.621,-3.418,-45.410,-41.016,-4.395,0.000
1709374332.625,-7.324,-40.527,-40.527,-12.207,0.000
1709374332.629,-49.805,-34.668,-40.039,-44.922,0.000
1709374332.632,-56.641,-37.109,-43.457,-51.270,0.000
1709374332.636,-35.156,-37.598,-46.387,-46.387,0.000
1709374332.640,14.160,-35.645,-43.945,-4.395,0.000
1709374332.644,18.066,-28.320,-38.086,4.395,0.000
1709374332.648,-35.156,-28.320,-35.645,-31.738,0.000
1709374332.652,-54.199,-28.809,-34.180,-43.457,0.000
1709374332.656,-41.504,-29.297,-35.156,-40.039,0.000
1709374332.660,-3.418,-33.691,-36.133,-1.953,0.000
1709374332.664,8.789,-33.691,-34.668,13.672,0.000
1709374332.668,-41.016,-37.109,-37.109,-25.879,0.000
1709374332.672,-67.871,-38.574,-37.109,-53.711,0.000
1709374332.675,-55.176,-42.480,-36.133,-44.922,0.000
1709374332.679,-10.742,-41.016,-38.574,0.488,0.000
1709374332.683,12.207,-35.645,-38.086,14.160,0.000
1709374332.687,-27.832,-36.133,-35.156,-30.273,0.000
1709374332.692,-57.129,-37.109,-34.668,-58.594,0.000
1709374332.695,-57.617,-41.016,-39.551,-64.453,0.000
1709374332.699,-17.090,-41.504,-39.551,-31.738,0.000
1709374332.703,6.836,-41.016,-39.551,3.418,0.000
1709374332.707,-49.316,-44.434,-41.992,-35.645,0.000
1709374332.711,-79.102,-45.410,-42.480,-61.523,0.000
1709374332.715,-68.359,-43.457,-41.504,-54.688,0.000
1709374332.719,-21.973,-41.504,-41.016,-21.973,0.000
1709374332.723,19.043,-39.062,-34.180,24.414,0.000
1709374332.727,-21.973,-40.039,-34.180,-5.371,0.000
1709374332.731,-57.129,-41.504,-37.598,-48.340,0.000
1709374332.735,-53.223,-34.668,-33.691,-45.898,0.000
1709374332.738,-27.344,-35.156,-36.133,-22.461,0.000
1709374332.742,10.742,-39.062,-38.574,6.836,0.000
1709374332.746,-10.254,-30.762,-39.062,-19.043,0.000
1709374332.750,-45.898,-24.902,-40.039,-57.617,0.000
1709374332.754,-48.828,-23.438,-39.551,-57.617,0.000
1709374332.758,-25.391,-25.879,-37.109,-33.203,0.000
1709374332.762,10.742,-31.250,-39.062,3.418,0.000
1709374332.766,-15.625,-29.297,-42.969,-17.090,0.000
1709374332.770,-62.500,-35.156,-41.992,-54.688,0.000
1709374332.773,-70.801,-41.016,-41.504,-68.359,0.000
1709374332.777,-49.805,-36.133,-36.621,-49.316,0.000
1709374332.781,-5.371,-34.668,-37.109,-6.836,0.000
1709374332.785,-12.207,-33.691,-39.062,-19.043,0.000
1709374332.789,-62.500,-37.109,-36.133,-55.176,0.000
1709374332.793,-74.707,-36.133,-38.086,-61.035,0.000
1709374332.797,-49.805,-29.297,-35.645,-39.062,0.000
1709374332.801,-1.953,-29.297,-33.203,-6.836,0.000
1709374332.804,-0.488,-35.156,-40.527,-11.230,0.000
1709374332.808,-48.340,-36.133,-41.992,-40.039,0.000
1709374332.812,-67.383,-34.668,-39.062,-45.410,0.000
1709374332.816,-46.387,-31.738,-36.621,-36.621,0.000
1709374332.820,8.789,-32.715,-35.645,1.465,0.000
1709374332.824,12.207,-35.645,-36.133,13.672,0.000
1709374332.828,-27.832,-34.668,-33.203,-28.320,0.000
1709374332.832,-46.387,-34.180,-36.133,-52.246,0.000
1709374332.835,-35.645,-29.785,-38.574,-43.945,0.000
1709374332.839,5.859,-25.879,-30.762,-3.418,0.000
1709374332.843,11.719,-23.926,-31.738,12.695,0.000
1709374332.847,-35.156,-22.461,-29.297,-31.738,0.000
1709374332.851,-63.477,-22.461,-26.367,-55.176,0.000
1709374332.855,-58.594,-25.879,-28.320,-48.828,0.000
1709374332.859,-17.090,-31.250,-27.344,-21.973,0.000
1709374332.863,1.953,-31.738,-31.738,-11.719,0.000
1709374332.867,-52.246,-32.227,-31.738,-49.316,0.000
1709374332.871,-94.727,-40.039,-33.203,-70.801,0.000
1709374332.875,-84.961,-40.527,-38.086,-67.383,0.000
1709374332.878,-31.738,-39.551,-40.527,-46.875,0.000
1709374332.882,4.395,-39.062,-41.992,-24.902,0.000
1709374332.886,-41.504,-43.457,-42.480,-51.270,0.000
1709374332.890,-81.055,-39.551,-40.039,-74.707,0.000
1709374332.894,-73.730,-28.809,-37.109,-72.266,0.000
1709374332.898,-33.691,-31.250,-38.086,-47.363,0.000
1709374332.901,5.859,-36.133,-38.086,-2.930,0.000
1709374332.905,-28.809,-38.574,-38.086,-27.832,0.000
1709374332.909,-75.684,-40.039,-38.086,-69.336,0.000
1709374332.913,-81.055,-42.969,-44.434,-70.801,0.000
1709374332.917,-47.363,-41.992,-42.969,-51.270,0.000
1709374332.921,0.000,-41.016,-39.062,-16.113,0.000
1709374332.925,-25.879,-42.480,-42.969,-35.156,0.000
1709374332.929,-74.707,-44.434,-42.969,-70.801,0.000
1709374332.933,-72.754,-40.039,-39.551,-69.336,0.000
1709374332.937,-44.434,-40.039,-42.480,-44.434,0.000
1709374332.941,-3.418,-41.504,-42.969,-11.719,0.000
1709374332.945,-24.902,-38.574,-44.922,-23.438,0.000
1709374332.949,-75.684,-38.086,-44.434,-55.176,0.000
1709374332.953,-79.590,-37.598,-41.016,-67.871,0.000
1709374332.956,-51.270,-36.621,-43.945,-53.711,0.000
1709374332.960,-8.301,-40.527,-45.410,-12.695,0.000
1709374332.964,-13.184,-39.551,-45.898,-14.160,0.000
1709374332.968,-56.641,-31.738,-43.457,-51.270,0.000
1709374332.972,-70.801,-34.180,-41.504,-61.523,0.000
1709374332.976,-48.340,-39.551,-42.969,-49.805,0.000
1709374332.980,0.488,-38.574,-43.457,-14.160,0.000
1709374332.984,1.953,-31.250,-43.457,-10.742,0.000
1709374332.988,-45.898,-26.367,-40.527,-45.898,0.000
1709374332.992,-63.477,-27.344,-38.574,-60.547,0.000
1709374332.996,-45.898,-29.785,-33.691,-57.617,0.000
1709374333.000,0.000,-31.738,-33.691,-21.973,0.000
1709374333.004,10.254,-32.715,-33.203,-1.953,0.000
1709374333.007,-41.016,-32.227,-31.738,-36.621,0.000
1709374333.011,-65.918,-32.227,-29.785,-65.430,0.000
1709374333.015,-50.781,-33.691,-25.879,-59.570,0.000
1709374333.019,-5.859,-33.691,-23.926,-26.367,0.000
1709374333.023,18.555,-36.133,-28.809,-1.953,0.000
1709374333.027,-22.949,-36.621,-32.715,-33.203,0.000
1709374333.031,-55.176,-37.598,-29.297,-64.453,0.000
1709374333.035,-53.711,-36.133,-30.762,-59.082,0.000
1709374333.039,-15.625,-33.203,-32.227,-21.973,0.000
1709374333.043,10.254,-36.621,-31.738,-1.953,0.000
1709374333.047,-41.504,-38.086,-35.645,-42.480,0.000
1709374333.050,-72.266,-40.527,-33.691,-58.594,0.000
1709374333.054,-62.012,-47.363,-40.039,-56.641,0.000
1709374333.058,-28.320,-42.480,-44.922,-37.598,0.000
1709374333.062,8.301,-40.039,-36.621,-5.859,0.000
1709374333.066,-23.926,-45.898,-33.691,-33.203,0.000
1709374333.070,-63.965,-46.875,-37.109,-66.406,0.000
1709374333.074,-69.824,-43.457,-36.133,-66.895,0.000
1709374333.078,-35.645,-41.016,-35.156,-39.551,0.000
1709374333.082,4.883,-47.363,-39.062,-5.371,0.000
1709374333.086,-14.648,-43.945,-38.086,-28.320,0.000
1709374333.089,-50.293,-33.203,-37.598,-65.430,0.000
1709374333.093,-59.570,-38.574,-38.574,-64.453,0.000
1709374333.097,-33.203,-42.480,-42.480,-33.203,0.000
1709374333.101,9.766,-38.086,-44.434,-0.977,0.000
1709374333.105,-18.555,-41.992,-41.504,-23.926,0.000
1709374333.109,-65.918,-39.551,-41.016,-57.617,0.000
1709374333.113,-68.848,-32.227,-38.086,-55.664,0.000
1709374333.117,-44.922,-37.598,-35.645,-41.504,0.000
1709374333.121,2.930,-36.621,-34.180,-6.348,0.000
1709374333.124,-4.395,-34.180,-31.250,-9.277,0.000
1709374333.128,-53.711,-36.621,-28.320,-44.434,0.000
1709374333.132,-62.988,-35.156,-27.344,-47.852,0.000
1709374333.136,-41.992,-34.180,-32.715,-36.621,0.000
1709374333.140,5.859,-34.668,-35.156,1.465,0.000
1709374333.144,-7.812,-38.574,-35.645,-2.441,0.000
1709374333.148,-62.012,-43.457,-41.016,-58.105,0.000
1709374333.152,-73.730,-40.039,-40.039,-68.359,0.000
1709374333.156,-62.012,-38.086,-38.574,-52.246,0.000
1709374333.159,-14.160,-45.410,-41.016,-16.113,0.000
1709374333.163,0.000,-43.457,-36.133,-7.324,0.000
1709374333.167,-43.945,-41.016,-32.227,-46.875,0.000
1709374333.171,-72.266,-43.457,-41.504,-70.801,0.000
1709374333.175,-67.871,-47.852,-46.387,-64.941,0.000
1709374333.179,-17.578,-48.340,-37.109,-25.879,0.000
1709374333.183,0.977,-44.434,-40.039,-13.184,0.000
1709374333.187,-45.410,-34.668,-39.551,-41.504,0.000
1709374333.191,-74.219,-30.273,-31.738,-60.547,0.000
1709374333.195,-62.500,-35.156,-30.273,-60.547,0.000
1709374333.198,-21.484,-40.039,-37.109,-31.738,0.000
1709374333.202,0.488,-39.551,-40.039,-9.766,0.000
1709374333.206,-39.551,-34.180,-32.715,-44.434,0.000
1709374333.210,-62.988,-36.133,-32.227,-69.824,0.000
1709374333.214,-54.199,-37.598,-32.715,-62.012,0.000
1709374333.218,-20.996,-40.527,-30.273,-31.738,0.000
1709374333.222,6.836,-43.945,-33.203,-6.836,0.000
1709374333.225,-30.273,-38.086,-34.668,-35.156,0.000
1709374333.229,-63.965,-36.133,-28.809,-57.129,0.000
1709374333.233,-61.035,-38.086,-24.902,-46.875,0.000
1709374333.237,-30.273,-37.109,-24.414,-23.438,0.000
1709374333.241,12.695,-36.621,-22.949,6.836,0.000
1709374333.245,-13.672,-36.621,-27.832,-14.160,0.000
1709374333.249,-53.711,-35.645,-35.645,-50.781,0.000
1709374333.252,-54.199,-36.621,-35.645,-58.594,0.000
1709374333.256,-21.973,-36.621,-36.133,-36.133,0.000
1709374333.260,23.926,-40.039,-38.574,-0.488,0.000
1709374333.264,-10.254,-44.434,-39.062,-20.996,0.000
1709374333.268,-61.523,-37.598,-36.621,-56.641,0.000
1709374333.272,-67.871,-37.109,-33.203,-56.152,0.000
1709374333.276,-48.340,-37.598,-29.297,-24.414,0.000
1709374333.280,-6.836,-39.551,-34.180,-0.488,0.000
1709374333.284,-17.090,-40.527,-37.598,-21.484,0.000
1709374333.288,-58.594,-36.133,-34.668,-51.758,0.000
1709374333.291,-60.547,-31.738,-34.180,-61.035,0.000
1709374333.295,-41.504,-28.320,-35.156,-44.434,0.000
1709374333.299,0.000,-33.691,-36.621,-6.348,0.000
1709374333.303,-5.859,-37.598,-37.109,-11.719,0.000
1709374333.307,-60.059,-34.668,-34.668,-48.828,0.000
1709374333.311,-67.871,-31.738,-30.273,-59.570,0.000
1709374333.314,-50.293,-30.762,-33.203,-48.340,0.000
1709374333.318,-3.906,-35.156,-36.133,-10.254,0.000
1709374333.322,2.930,-36.133,-32.715,-10.254,0.000
1709374333.326,-53.223,-38.574,-32.227,-55.664,0.000
1709374333.330,-72.754,-41.504,-34.180,-74.707,0.000
1709374333.334,-54.688,-38.086,-30.762,-58.105,0.000
1709374333.338,-11.230,-35.156,-34.180,-22.949,0.000
1709374333.342,-4.395,-38.574,-37.598,-15.137,0.000
1709374333.346,-48.828,-37.109,-30.762,-56.641,0.000
1709374333.350,-68.848,-33.691,-30.762,-82.520,0.000
1709374333.354,-60.547,-34.668,-37.109,-73.242,0.000
1709374333.358,-9.277,-37.598,-43.457,-26.367,0.000
1709374333.362,12.695,-28.320,-44.434,-6.836,0.000
1709374333.365,-44.922,-27.344,-42.480,-59.082,0.000
1709374333.369,-76.660,-40.039,-41.992,-86.426,0.000
1709374333.373,-72.754,-39.551,-37.598,-77.637,0.000
1709374333.377,-35.645,-38.086,-35.645,-40.039,0.000
1709374333.381,-9.277,-41.016,-33.691,-7.812,0.000
1709374333.385,-53.223,-40.039,-37.109,-47.852,0.000
1709374333.389,-84.961,-42.969,-36.621,-79.590,0.000
1709374333.393,-81.543,-47.363,-32.227,-77.148,0.000
1709374333.397,-44.434,-41.992,-37.109,-51.758,0.000
1709374333.401,-11.230,-35.645,-40.527,-20.508,0.000
1709374333.405,-48.828,-37.109,-34.668,-43.945,0.000
1709374333.409,-78.125,-38.574,-31.738,-72.266,0.000
1709374333.413,-70.312,-35.645,-35.645,-71.777,0.000
1709374333.416,-40.039,-38.086,-37.598,-44.434,0.000
1709374333.420,-2.441,-41.992,-42.969,-14.160,0.000
1709374333.424,-22.949,-43.945,-39.551,-31.250,0.000
1709374333.428,-63.477,-46.875,-34.180,-59.570,0.000
1709374333.432,-65.430,-45.898,-38.574,-73.242,0.000
1709374333.436,-37.598,-47.852,-40.039,-53.711,0.000
1709374333.440,7.324,-43.945,-41.016,-14.160,0.000
1709374333.444,-5.371,-43.945,-40.039,-24.902,0.000
1709374333.448,-53.223,-44.922,-33.691,-59.570,0.000
1709374333.452,-70.312,-42.480,-36.133,-68.359,0.000
1709374333.456,-49.805,-41.504,-39.062,-43.457,0.000
1709374333.459,-4.883,-41.992,-41.504,-10.742,0.000
1709374333.463,-14.160,-47.852,-41.992,-18.555,0.000
1709374333.467,-60.547,-49.316,-37.598,-43.457,0.000
1709374333.471,-73.242,-46.387,-40.039,-49.805,0.000
1709374333.475,-55.176,-50.293,-45.410,-49.805,0.000
1709374333.479,-3.906,-47.363,-48.340,-19.531,0.000
1709374333.483,-1.465,-41.016,-45.898,-14.648,0.000
1709374333.487,-51.758,-43.945,-41.504,-48.828,0.000
1709374333.491,-71.289,-40.527,-38.574,-59.082,0.000
1709374333.494,-57.129,-35.645,-37.598,-45.898,0.000
1709374333.498,-8.789,-36.133,-38.574,-7.324,0.000
1709374333.502,-2.441,-37.598,-42.969,-0.977,0.000
1709374333.506,-52.734,-35.156,-44.922,-41.016,0.000
1709374333.510,-74.219,-36.621,-42.480,-60.059,0.000
1709374333.514,-58.105,-43.945,-37.598,-49.805,0.000
1709374333.518,-15.137,-38.086,-36.133,-15.625,0.000
1709374333.522,2.441,-30.762,-35.156,-4.883,0.000
1709374333.526,-40.039,-33.203,-29.297,-36.133,0.000
1709374333.530,-72.754,-31.738,-24.902,-50.781,0.000
1709374333.533,-68.359,-30.762,-30.273,-49.805,0.000
1709374333.537,-24.902,-33.203,-36.621,-25.879,0.000
1709374333.541,0.000,-30.273,-41.504,-12.695,0.000
1709374333.545,-39.062,-31.738,-38.574,-48.828,0.000
1709374333.549,-68.848,-36.133,-32.715,-69.824,0.000
1709374333.553,-67.383,-41.992,-34.180,-65.918,0.000
1709374333.557,-38.574,-44.434,-41.016,-37.598,0.000
1709374333.561,-8.301,-39.062,-41.504,0.488,0.000
1709374333.565,-48.340,-41.016,-41.504,-36.621,0.000
1709374333.569,-84.961,-42.480,-39.062,-83.496,0.000
1709374333.572,-76.172,-41.992,-35.645,-80.078,0.000
1709374333.576,-39.062,-37.109,-37.109,-38.086,0.000
1709374333.580,3.906,-33.203,-41.016,1.953,0.000
1709374333.584,-22.949,-39.062,-45.898,-24.902,0.000
1709374333.588,-61.523,-41.504,-41.992,-52.246,0.000
1709374333.592,-60.547,-43.945,-42.480,-48.340,0.000
1709374333.596,-24.902,-45.410,-43.457,-24.902,0.000
1709374333.600,16.602,-43.945,-40.527,5.859,0.000
1709374333.603,-4.395,-42.969,-40.039,-6.348,0.000
1709374333.607,-50.293,-46.387,-40.039,-39.551,0.000
1709374333.611,-53.711,-50.293,-41.992,-56.641,0.000
1709374333.615,-20.508,-44.434,-43.457,-34.180,0.000
1709374333.619,15.625,-38.086,-45.898,5.859,0.000
1709374333.623,-7.324,-41.992,-44.922,-16.113,0.000
1709374333.628,0.000,-51.270,0.000,0.000,0.000
1709374333.632,0.000,-45.410,0.000,0.000,0.000
1709374333.636,0.000,-41.504,0.000,0.000,0.000
1709374333.640,0.000,-44.434,0.000,0.000,0.000
1709374333.644,0.000,-39.551,0.000,0.000,0.000
1709374333.647,0.000,-38.574,0.000,0.000,0.000
1709374333.651,0.000,-37.109,0.000,0.000,0.000
1709374333.655,0.000,-40.527,0.000,0.000,0.000
1709374333.659,0.000,-40.527,0.000,0.000,0.000
1709374333.663,0.000,-34.180,0.000,0.000,0.000
1709374333.667,0.000,-33.203,0.000,0.000,0.000
1709374333.671,0.000,-37.109,0.000,0.000,0.000
1709374333.674,-71.777,-38.574,-40.039,-63.477,0.000
1709374333.678,-21.973,-39.551,-37.109,-23.438,0.000
1709374333.682,-5.859,-43.945,-41.016,-13.672,0.000
1709374333.686,-50.293,-43.457,-37.598,-48.828,0.000
1709374333.690,-67.871,-40.039,-30.273,-60.547,0.000
1709374333.694,-54.688,-39.551,-32.227,-47.852,0.000
1709374333.698,-13.184,-40.527,-35.156,-16.602,0.000
1709374333.702,10.254,-41.016,-35.156,-5.371,0.000
1709374333.706,-29.785,-41.016,-40.039,-44.922,0.000
1709374333.709,-59.082,-42.480,-36.621,-58.105,0.000
1709374333.713,-62.500,-45.898,-34.180,-53.711,0.000
1709374333.717,-25.879,-42.480,-41.016,-34.180,0.000
1709374333.721,2.930,-37.598,-40.039,-12.207,0.000
1709374333.725,-38.574,-37.598,-37.598,-49.805,0.000
1709374333.729,-74.707,-35.645,-41.016,-76.660,0.000
1709374333.733,-77.148,-39.062,-43.945,-75.684,0.000
1709374333.737,-36.621,-37.598,-44.922,-46.387,0.000
1709374333.741,5.859,-34.180,-42.969,-6.836,0.000
1709374333.745,-34.180,-33.691,-42.480,-31.250,0.000
1709374333.749,-72.266,-32.715,-44.434,-69.824,0.000
1709374333.753,-65.918,-32.227,-42.969,-67.383,0.000
1709374333.757,-37.598,-31.250,-44.434,-38.574,0.000
1709374333.760,-0.977,-33.203,-40.039,-7.324,0.000
1709374333.764,-22.461,-34.180,-35.645,-30.273,0.000
1709374333.768,-59.570,-37.109,-38.574,-65.430,0.000
1709374333.772,-67.383,-39.062,-37.598,-69.336,0.000
1709374333.776,-42.480,-42.969,-32.227,-42.480,0.000
1709374333.780,-1.953,-41.504,-33.691,-2.441,0.000
1709374333.784,-24.414,-36.133,-37.109,-25.391,0.000
1709374333.788,-75.195,-39.062,-34.180,-68.848,0.000
1709374333.792,-83.984,-43.945,-36.621,-76.660,0.000
1709374333.796,-53.223,-40.039,-41.016,-59.082,0.000
1709374333.800,3.418,-39.551,-34.668,-11.230,0.000
1709374333.804,-4.883,-44.434,-29.785,-11.230,0.000
1709374333.807,-58.105,-43.457,-30.762,-54.688,0.000
1709374333.811,-64.453,-37.598,-31.250,-62.988,0.000
1709374333.815,-41.016,-36.621,-37.109,-49.316,0.000
1709374333.819,-6.348,-40.039,-45.410,-20.508,0.000
1709374333.823,-8.789,-41.504,-43.945,-22.461,0.000
1709374333.827,-49.805,-36.621,-41.016,-56.152,0.000
1709374333.831,-64.941,-33.691,-42.969,-69.824,0.000
1709374333.835,-46.387,-33.691,-41.992,-60.547,0.000
1709374333.839,-3.418,-31.250,-45.410,-20.996,0.000
1709374333.843,7.812,-34.180,-39.551,-10.254,0.000
1709374333.846,-36.133,-36.133,-30.273,-25.879,0.000
1709374333.850,-65.918,-31.250,-30.762,-41.992,0.000
1709374333.854,-51.758,-31.250,-29.297,-45.410,0.000
1709374333.858,-7.324,-32.227,-29.785,-5.371,0.000
1709374333.862,5.371,-31.250,-33.691,7.812,0.000
1709374333.866,-47.363,-33.691,-32.715,-38.574,0.000
1709374333.870,-79.590,-31.250,-27.832,-61.035,0.000
1709374333.874,-65.430,-28.809,-28.809,-50.781,0.000
1709374333.878,-22.461,-31.250,-29.297,-22.949,0.000
1709374333.882,-1.465,-32.227,-28.320,-4.883,0.000
1709374333.885,-47.852,-31.738,-28.809,-44.434,0.000
1709374333.889,-78.125,-35.645,-31.738,-65.918,0.000
1709374333.893,-66.406,-34.180,-31.250,-51.270,0.000
1709374333.897,-24.414,-33.203,-33.691,-27.344,0.000
1709374333.901,9.766,-25.879,-34.668,-2.930,0.000
1709374333.905,-20.508,-20.020,-27.832,-25.391,0.000
1709374333.909,-59.082,-27.344,-25.879,-55.176,0.000
1709374333.913,-60.547,-30.762,-27.344,-63.477,0.000
1709374333.917,-27.832,-35.156,-27.344,-37.109,0.000
1709374333.920,4.883,-42.480,-31.738,-3.418,0.000
1709374333.924,-31.738,-41.504,-32.715,-28.809,0.000
1709374333.928,-68.848,-38.574,-32.227,-55.664,0.000
1709374333.932,-67.383,-37.109,-35.156,-55.176,0.000
1709374333.936,-37.109,-36.621,-33.203,-22.461,0.000
1709374333.940,-2.930,-40.039,-34.668,-0.977,0.000
1709374333.944,-30.762,-41.016,-37.598,-29.297,0.000
1709374333.948,-67.383,-41.504,-35.645,-54.688,0.000
1709374333.952,-68.848,-41.016,-35.156,-54.199,0.000
1709374333.955,-48.340,-35.156,-33.691,-34.668,0.000
1709374333.959,-1.953,-32.227,-32.715,-1.953,0.000
1709374333.963,-7.324,-30.273,-30.273,-7.812,0.000
1709374333.967,-53.223,-32.227,-27.344,-37.109,0.000
1709374333.971,-57.617,-35.156,-28.809,-51.758,0.000
1709374333.975,-32.715,-35.645,-31.738,-40.039,0.000
1709374333.979,3.906,-36.133,-34.668,-0.977,0.000
1709374333.983,-7.324,-34.668,-33.203,-4.395,0.000
1709374333.987,-55.664,-33.691,-33.203,-44.434,0.000
1709374333.990,-70.801,-35.156,-33.203,-59.570,0.000
1709374333.994,-47.852,-36.621,-33.203,-44.434,0.000
1709374333.998,0.977,-37.109,-35.645,-2.441,0.000
1709374334.002,3.906,-33.203,-32.227,-7.324,0.000
1709374334.006,-41.504,-30.273,-29.785,-44.434,0.000
1709374334.010,-62.988,-31.250,-32.227,-61.523,0.000
1709374334.014,-46.387,-28.809,-29.297,-57.129,0.000
1709374334.017,-2.930,-30.762,-29.297,-28.320,0.000
1709374334.021,9.277,-29.297,-32.227,-16.113,0.000
1709374334.025,-41.504,-25.391,-30.273,-48.340,0.000
1709374334.029,-68.359,-29.297,-35.645,-77.637,0.000
1709374334.033,-52.734,-29.785,-34.668,-72.266,0.000
1709374334.037,-5.859,-27.832,-31.250,-31.738,0.000
1709374334.041,14.648,-27.832,-30.273,-7.812,0.000
1709374334.045,-28.320,-30.762,-26.855,-37.109,0.000
1709374334.048,-57.617,-33.203,-25.879,-51.758,0.000
1709374334.052,-48.828,-32.227,-28.320,-39.062,0.000
1709374334.056,-6.836,-33.691,-31.738,-3.906,0.000
1709374334.060,13.672,-38.574,-36.133,16.113,0.000
1709374334.064,-34.668,-34.180,-35.156,-15.625,0.000
1709374334.068,-67.383,-27.832,-35.156,-40.527,0.000
1709374334.072,-61.035,-32.227,-39.551,-40.039,0.000
1709374334.076,-25.391,-40.527,-41.016,-15.625,0.000
1709374334.080,7.324,-41.992,-40.039,10.254,0.000
1709374334.083,-28.809,-39.062,-34.668,-23.438,0.000
1709374334.087,-57.617,-38.574,-35.156,-53.223,0.000
1709374334.091,-55.176,-37.109,-42.480,-50.781,0.000
1709374334.095,-34.180,-36.621,-41.504,-32.227,0.000
1709374334.099,-3.418,-35.645,-39.062,-9.766,0.000
1709374334.103,-29.785,-36.133,-40.039,-39.062,0.000
1709374334.107,-65.918,-35.156,-37.598,-69.824,0.000
1709374334.111,-65.430,-39.062,-37.109,-69.336,0.000
1709374334.115,-28.809,-37.109,-41.016,-45.898,0.000
1709374334.119,16.602,-34.180,-42.480,-16.113,0.000
1709374334.123,-13.672,-39.062,-43.457,-39.062,0.000
1709374334.127,-64.941,-40.039,-43.457,-75.195,0.000
1709374334.131,-63.477,-41.504,-39.062,-71.777,0.000
1709374334.135,-36.133,-45.898,-38.086,-48.340,0.000
1709374334.138,6.348,-37.598,-36.621,-0.977,0.000
1709374334.143,-4.395,-31.738,-37.598,-7.812,0.000
1709374334.146,-50.293,-33.203,-39.551,-47.363,0.000
1709374334.150,-66.406,-31.250,-40.039,-50.293,0.000
1709374334.154,-46.875,-36.621,-38.086,-39.062,0.000
1709374334.158,3.906,-46.875,-34.668,-3.906,0.000
1709374334.162,-1.953,-46.387,-33.203,-3.906,0.000
1709374334.166,-45.410,-41.992,-33.691,-36.621,0.000
1709374334.170,-55.664,-42.480,-36.621,-47.363,0.000
1709374334.174,-38.574,-41.016,-35.156,-27.832,0.000
1709374334.178,9.277,-39.062,-33.691,10.254,0.000
1709374334.182,12.695,-29.785,-33.691,5.371,0.000
1709374334.185,-39.062,-29.297,-30.762,-27.344,0.000
1709374334.189,-65.918,-43.457,-33.691,-46.875,0.000
1709374334.193,-59.082,-41.504,-39.062,-52.734,0.000
1709374334.197,-5.859,-38.574,-39.551,-25.391,0.000
1709374334.201,12.695,-44.922,-41.016,-17.090,0.000
1709374334.205,-45.410,-43.945,-38.574,-52.734,0.000
1709374334.209,-74.707,-37.598,-38.574,-74.219,0.000
1709374334.213,-66.406,-37.598,-38.574,-77.637,0.000
1709374334.217,-23.438,-38.574,-35.645,-43.945,0.000
1709374334.221,12.207,-34.668,-33.203,-9.766,0.000
1709374334.225,-30.762,-38.086,-33.691,-52.734,0.000
1709374334.228,-66.406,-39.062,-29.297,-83.008,0.000
1709374334.232,-56.152,-36.133,-29.785,-76.172,0.000
1709374334.236,-26.855,-42.969,-39.062,-51.270,0.000
1709374334.240,3.418,-45.410,-42.480,-25.879,0.000
1709374334.244,-25.879,-41.504,-38.574,-50.293,0.000
1709374334.248,-68.359,-37.598,-35.645,-72.754,0.000
1709374334.252,-67.383,-35.645,-36.133,-62.012,0.000
1709374334.256,-22.949,-36.133,-31.738,-21.484,0.000
1709374334.260,16.602,-39.062,-28.320,13.672,0.000
1709374334.264,-13.672,-38.086,-30.762,-9.277,0.000
1709374334.268,-51.270,-33.203,-34.668,-38.574,0.000
1709374334.271,-46.875,-34.668,-31.738,-45.898,0.000
1709374334.275,-19.531,-37.598,-32.227,-30.273,0.000
1709374334.279,14.648,-33.203,-38.086,0.488,0.000
1709374334.283,-22.461,-33.203,-37.109,-20.996,0.000
1709374334.287,-74.219,-39.551,-39.551,-62.012,0.000
1709374334.291,-69.336,-43.457,-42.480,-67.383,0.000
1709374334.295,-45.410,-40.527,-40.527,-48.340,0.000
1709374334.299,-14.648,-41.992,-39.551,-7.812,0.000
1709374334.303,-28.320,-41.992,-40.039,-24.414,0.000
1709374334.306,-71.777,-38.086,-41.504,-72.754,0.000
1709374334.310,-80.078,-36.621,-39.062,-68.848,0.000
1709374334.314,-62.500,-41.016,-43.457,-54.688,0.000
1709374334.318,-18.555,-40.039,-46.875,-30.762,0.000
1709374334.322,-22.949,-38.086,-50.293,-31.738,0.000
1709374334.326,-73.242,-41.504,-46.875,-67.383,0.000
1709374334.330,-84.473,-42.480,-38.086,-75.684,0.000
1709374334.334,-62.988,-44.922,-42.969,-55.176,0.000
1709374334.337,-13.184,-48.340,-46.387,-10.254,0.000
1709374334.341,-8.301,-47.852,-44.922,-10.254,0.000
1709374334.345,-58.594,-48.340,-43.457,-48.828,0.000
1709374334.349,-73.730,-47.852,-41.504,-59.082,0.000
1709374334.353,-58.594,-46.875,-43.457,-48.340,0.000
1709374334.357,-19.531,-48.828,-47.363,-10.254,0.000
1709374334.361,-10.742,-47.852,-46.875,-2.441,0.000
1709374334.365,-51.270,-44.434,-41.504,-37.598,0.000
1709374334.369,-69.336,-47.363,-45.898,-55.176,0.000
1709374334.373,-54.199,-45.410,-41.504,-46.387,0.000
1709374334.376,-15.137,-48.340,-35.645,-12.207,0.000
1709374334.380,3.418,-56.152,-42.480,4.395,0.000
1709374334.384,-38.086,-48.340,-43.457,-30.273,0.000
1709374334.388,-62.500,-41.992,-38.574,-56.641,0.000
1709374334.392,-56.641,-43.945,-39.062,-54.688,0.000
1709374334.396,-20.020,-41.016,-43.457,-21.484,0.000
1709374334.400,5.371,-37.109,-41.504,5.371,0.000
1709374334.404,-28.320,-35.156,-36.621,-40.039,0.000
1709374334.407,-58.594,-36.621,-37.109,-75.195,0.000
1709374334.411,-59.082,-37.598,-37.109,-66.406,0.000
1709374334.415,-22.949,-37.598,-35.156,-39.551,0.000
1709374334.419,15.137,-43.457,-33.203,-4.395,0.000
1709374334.423,-17.578,-42.969,-28.809,-22.461,0.000
1709374334.427,-64.453,-45.410,-29.297,-53.711,0.000
1709374334.430,-68.848,-43.945,-36.621,-50.781,0.000
1709374334.434,-35.645,-38.574,-36.621,-21.973,0.000
1709374334.438,6.836,-35.156,-31.738,2.930,0.000
1709374334.442,-28.320,-35.645,-28.320,-17.090,0.000
1709374334.446,-80.566,-41.992,-26.367,-54.199,0.000
1709374334.450,-72.754,-39.551,-27.832,-63.477,0.000
1709374334.454,-39.551,-32.715,-31.738,-37.598,0.000
1709374334.458,-1.953,-32.227,-31.250,10.742,0.000
1709374334.462,-20.996,-35.156,-31.738,-9.277,0.000
1709374334.466,-61.523,-34.180,-32.715,-59.570,0.000
1709374334.470,-66.895,-36.621,-27.344,-57.617,0.000
1709374334.474,-49.805,-42.969,-27.344,-37.109,0.000
1709374334.478,-3.418,-43.457,-28.320,-3.418,0.000
1709374334.482,-18.066,-43.457,-35.156,-19.531,0.000
1709374334.485,-71.777,-43.945,-40.039,-60.547,0.000
1709374334.489,-77.148,-37.109,-37.598,-63.477,0.000
1709374334.493,-54.688,-36.621,-40.527,-53.711,0.000
1709374334.497,-11.230,-38.086,-38.574,-19.043,0.000
1709374334.501,-10.254,-36.133,-32.715,-9.277,0.000
1709374334.505,-55.664,-32.715,-33.203,-43.457,0.000
1709374334.509,-76.660,-32.715,-34.668,-64.453,0.000
1709374334.513,-60.059,-42.480,-37.109,-52.734,0.000
1709374334.517,-6.836,-48.828,-38.574,-13.672,0.000
1709374334.521,0.488,-46.875,-37.598,-12.207,0.000
1709374334.525,-53.223,-37.598,-39.062,-50.781,0.000
1709374334.529,-71.777,-30.762,-36.621,-65.430,0.000
1709374334.532,-57.617,-31.738,-32.715,-57.129,0.000
1709374334.536,-17.578,-31.738,-37.109,-17.090,0.000
1709374334.540,1.953,-34.180,-39.551,3.906,0.000
1709374334.544,-34.668,-41.016,-31.738,-32.715,0.000
1709374334.548,-58.594,-40.039,-29.297,-52.246,0.000
1709374334.552,-52.246,-31.250,-31.250,-41.016,0.000
1709374334.556,-8.301,-32.227,-34.180,-8.301,0.000
1709374334.560,19.043,-29.785,-31.250,13.672,0.000
