timestamps,TP9,AF7,AF8,TP10,Right AUX
1709297831.884,-35.156,-30.762,-42.969,-25.391,0.000
1709297831.888,-31.738,-27.344,-39.062,-7.324,0.000
1709297831.892,-26.367,-26.855,-40.039,-34.180,0.000
1709297831.896,-34.668,-28.320,-42.969,-69.336,0.000
1709297831.900,-43.457,-27.344,-41.016,-57.617,0.000
1709297831.904,-42.480,-28.320,-41.992,-47.363,0.000
1709297831.908,-32.227,-23.926,-42.969,-35.156,0.000
1709297831.912,-23.438,-23.926,-41.504,-28.320,0.000
1709297831.915,-25.879,-22.949,-38.086,-44.434,0.000
1709297831.919,-34.180,-23.926,-38.086,-41.016,0.000
1709297831.923,-34.180,-30.762,-37.598,-23.438,0.000
1709297831.927,-29.785,-32.227,-34.668,-16.602,0.000
1709297831.931,-29.785,-33.203,-40.527,-21.973,0.000
1709297831.935,-42.480,-34.668,-41.504,-38.086,0.000
1709297831.939,-57.129,-36.133,-37.598,-48.828,0.000
1709297831.943,-49.316,-36.133,-40.039,-43.945,0.000
1709297831.947,-37.109,-37.598,-39.551,-34.180,0.000
1709297831.951,-41.992,-42.480,-41.992,-35.156,0.000
1709297831.954,-49.316,-41.016,-47.852,-52.246,0.000
1709297831.958,-55.176,-37.109,-44.434,-58.594,0.000
1709297831.962,-51.758,-33.691,-41.016,-51.758,0.000
1709297831.966,-41.504,-34.180,-41.992,-50.781,0.000
1709297831.970,-40.039,-37.598,-42.969,-40.527,0.000
1709297831.974,-43.945,-34.668,-41.504,-37.109,0.000
1709297831.978,-46.875,-33.691,-39.551,-46.387,0.000
1709297831.982,-45.898,-34.668,-41.016,-50.293,0.000
1709297831.986,-30.762,-34.180,-40.527,-43.945,0.000
1709297831.990,-18.066,-30.762,-39.062,-41.504,0.000
1709297831.994,-25.879,-30.273,-41.992,-41.016,0.000
1709297831.997,-41.016,-34.180,-41.016,-34.180,0.000
1709297832.001,-45.410,-33.203,-43.457,-28.320,0.000
1709297832.005,-29.785,-33.691,-45.410,-24.414,0.000
1709297832.009,-19.531,-33.691,-47.852,-30.762,0.000
1709297832.013,-23.438,-32.227,-49.316,-37.598,0.000
1709297832.017,-25.879,-30.762,-45.898,-35.156,0.000
1709297832.021,-32.715,-29.297,-47.852,-32.715,0.000
1709297832.025,-29.297,-35.645,-51.270,-24.902,0.000
1709297832.029,-12.207,-33.203,-49.316,-18.066,0.000
1709297832.033,-10.254,-27.344,-46.387,-18.066,0.000
1709297832.036,-21.973,-27.832,-45.898,-24.414,0.000
1709297832.040,-25.391,-25.879,-43.457,-28.809,0.000
1709297832.044,-23.926,-29.297,-42.969,-29.785,0.000
1709297832.048,-19.531,-32.715,-41.992,-25.391,0.000
1709297832.052,-21.973,-33.203,-47.363,-30.762,0.000
1709297832.056,-36.621,-35.156,-52.734,-46.875,0.000
1709297832.060,-41.504,-31.738,-47.363,-37.598,0.000
1709297832.064,-39.551,-27.832,-44.434,-25.391,0.000
1709297832.068,-35.156,-27.344,-45.410,-32.715,0.000
1709297832.072,-34.180,-27.832,-48.340,-38.574,0.000
1709297832.076,-45.898,-28.809,-46.875,-41.016,0.000
1709297832.079,-50.781,-26.367,-42.480,-41.016,0.000
1709297832.083,-43.457,-25.879,-39.062,-23.926,0.000
1709297832.087,-29.297,-27.832,-41.016,-24.902,0.000
1709297832.091,-22.461,-27.832,-45.410,-49.805,0.000
1709297832.095,-32.227,-28.320,-43.945,-62.988,0.000
1709297832.099,-44.434,-27.344,-42.480,-64.453,0.000
1709297832.103,-48.340,-27.344,-48.828,-46.875,0.000
1709297832.107,-41.992,-27.344,-48.828,-24.414,0.000
1709297832.111,-35.156,-25.879,-47.363,-27.832,0.000
1709297832.115,-45.410,-27.344,-48.340,-41.992,0.000
1709297832.119,-59.570,-31.250,-47.852,-41.016,0.000
1709297832.122,-56.152,-32.227,-47.852,-35.156,0.000
1709297832.126,-32.715,-29.297,-45.410,-32.715,0.000
1709297832.130,-37.109,-30.762,-48.340,-41.992,0.000
1709297832.134,-51.758,-31.738,-49.805,-42.480,0.000
1709297832.138,-51.270,-30.273,-44.922,-32.715,0.000
1709297832.142,-56.641,-32.227,-43.457,-32.715,0.000
1709297832.146,-52.246,-34.668,-45.410,-35.645,0.000
1709297832.150,-42.969,-32.715,-42.969,-29.785,0.000
1709297832.154,-45.898,-29.785,-41.992,-36.621,0.000
1709297832.158,-44.434,-28.320,-38.086,-45.898,0.000
1709297832.162,-37.598,-28.320,-33.203,-29.785,0.000
1709297832.165,-30.762,-28.809,-34.180,-17.090,0.000
1709297832.169,-25.391,-30.762,-40.527,-26.367,0.000
1709297832.173,-25.879,-33.203,-41.016,-31.738,0.000
1709297832.177,-39.551,-35.156,-39.062,-39.551,0.000
1709297832.181,-42.480,-35.156,-41.016,-42.969,0.000
1709297832.185,-33.691,-35.645,-41.504,-33.203,0.000
1709297832.189,-22.949,-33.691,-39.062,-28.320,0.000
1709297832.193,-23.438,-30.762,-39.551,-31.738,0.000
1709297832.197,-46.387,-31.738,-41.016,-41.992,0.000
1709297832.201,-55.176,-31.738,-39.551,-48.828,0.000
1709297832.204,-42.969,-29.297,-38.574,-34.180,0.000
1709297832.208,-42.969,-35.645,-41.016,-32.715,0.000
1709297832.212,-50.781,-38.574,-39.551,-44.434,0.000
1709297832.216,-53.711,-30.762,-34.668,-40.527,0.000
1709297832.220,-50.293,-22.949,-34.180,-20.996,0.000
1709297832.224,-41.016,-20.508,-37.598,-17.090,0.000
1709297832.228,-32.715,-20.020,-40.039,-43.945,0.000
1709297832.232,-24.414,-26.855,-39.551,-57.129,0.000
1709297832.236,-34.668,-30.273,-39.062,-63.477,0.000
1709297832.240,-51.270,-28.320,-38.086,-46.875,0.000
1709297832.244,-38.086,-24.414,-36.621,-27.344,0.000
1709297832.247,-24.414,-29.297,-37.109,-25.879,0.000
1709297832.251,-20.996,-36.133,-40.039,-28.809,0.000
1709297832.255,-32.227,-31.738,-42.969,-47.852,0.000
1709297832.259,-44.922,-34.180,-43.945,-58.594,0.000
1709297832.263,-32.715,-33.203,-41.992,-41.992,0.000
1709297832.267,-28.320,-31.738,-44.922,-30.762,0.000
1709297832.271,-29.785,-34.668,-47.363,-38.086,0.000
1709297832.275,-25.879,-28.809,-43.945,-40.039,0.000
1709297832.279,-36.621,-28.320,-43.945,-41.016,0.000
1709297832.283,-42.480,-34.668,-44.922,-38.574,0.000
1709297832.286,-29.785,-33.203,-46.875,-28.809,0.000
1709297832.290,-13.184,-29.785,-46.875,-34.180,0.000
1709297832.294,-16.113,-31.250,-43.945,-42.969,0.000
1709297832.298,-30.762,-28.809,-40.039,-29.785,0.000
1709297832.302,-41.016,-34.668,-37.109,-21.484,0.000
1709297832.306,-28.809,-36.133,-37.598,-20.996,0.000
1709297832.310,-21.973,-32.715,-33.203,-14.160,0.000
1709297832.314,-35.645,-32.227,-30.273,-17.578,0.000
1709297832.318,-42.480,-29.297,-29.297,-19.043,0.000
1709297832.322,-38.086,-29.785,-28.320,-15.625,0.000
1709297832.326,-27.832,-29.297,-28.809,-4.883,0.000
1709297832.329,-23.438,-26.855,-34.180,-0.977,0.000
1709297832.333,-25.879,-27.832,-35.645,-14.160,0.000
1709297832.337,-33.691,-34.180,-35.156,-19.531,0.000
1709297832.341,-40.527,-36.621,-42.969,-18.555,0.000
1709297832.345,-25.391,-33.691,-43.457,-12.207,0.000
1709297832.349,-17.578,-34.668,-41.016,-19.531,0.000
1709297832.353,-29.785,-39.551,-45.410,-41.016,0.000
1709297832.357,-33.203,-40.039,-44.434,-41.016,0.000
1709297832.361,-30.762,-35.645,-45.898,-28.809,0.000
1709297832.365,-23.438,-29.785,-46.875,-16.602,0.000
1709297832.368,-15.137,-29.297,-47.852,-9.277,0.000
1709297832.372,-17.578,-31.250,-47.852,-8.301,0.000
1709297832.376,-29.785,-28.320,-41.992,-18.555,0.000
1709297832.380,-39.551,-26.367,-39.551,-17.090,0.000
1709297832.384,-31.250,-27.344,-38.086,-4.883,0.000
1709297832.388,-21.484,-25.391,-39.062,-4.883,0.000
1709297832.392,-18.555,-27.344,-44.922,-17.090,0.000
1709297832.396,-23.926,-26.855,-43.945,-40.039,0.000
1709297832.400,-27.832,-28.809,-42.480,-44.922,0.000
1709297832.404,-28.809,-28.320,-44.434,-35.645,0.000
1709297832.408,-32.715,-27.344,-44.922,-25.391,0.000
1709297832.411,-33.691,-32.715,-41.504,-31.250,0.000
1709297832.415,-39.062,-34.180,-42.480,-50.781,0.000
1709297832.419,-47.852,-32.715,-45.898,-51.758,0.000
1709297832.423,-50.781,-33.203,-40.527,-37.109,0.000
1709297832.427,-33.691,-32.227,-41.016,-36.133,0.000
1709297832.431,-28.809,-28.320,-39.062,-49.316,0.000
1709297832.435,-33.203,-34.180,-34.668,-38.574,0.000
1709297832.439,-34.180,-32.227,-32.715,-20.020,0.000
1709297832.443,-42.969,-22.949,-36.133,-33.691,0.000
1709297832.447,-55.664,-19.043,-41.992,-46.387,0.000
1709297832.451,-64.941,-13.672,-40.039,-62.012,0.000
1709297832.454,-64.941,-4.395,-38.086,-90.820,0.000
1709297832.458,-75.195,3.418,-39.551,-95.215,0.000
1709297832.462,-86.914,11.230,-52.734,-85.449,0.000
1709297832.466,-71.289,23.438,-61.035,-83.496,0.000
1709297832.470,-59.082,30.762,-58.105,-92.773,0.000
1709297832.474,-60.547,35.645,-61.035,-99.121,0.000
1709297832.478,-63.477,41.016,-65.430,-98.633,0.000
1709297832.482,-54.688,52.734,-65.918,-91.309,0.000
1709297832.486,-44.434,62.012,-68.848,-78.613,0.000
1709297832.490,-44.922,65.430,-71.777,-70.312,0.000
1709297832.494,-29.297,67.383,-78.125,-67.383,0.000
1709297832.498,-17.090,72.754,-85.449,-68.359,0.000
1709297832.501,-11.719,79.102,-87.891,-50.781,0.000
1709297832.505,17.090,80.078,-87.402,-19.043,0.000
1709297832.509,43.945,82.031,-90.820,-5.371,0.000
1709297832.513,49.316,88.379,-88.867,0.488,0.000
1709297832.517,56.152,91.797,-89.844,10.742,0.000
1709297832.521,69.336,88.867,-100.586,24.902,0.000
1709297832.525,81.543,82.520,-97.168,54.688,0.000
1709297832.529,104.004,81.543,-89.844,62.500,0.000
1709297832.533,109.863,79.590,-92.285,49.316,0.000
1709297832.537,97.168,76.660,-92.773,43.945,0.000
1709297832.541,101.074,76.172,-93.262,53.223,0.000
1709297832.544,116.211,75.684,-97.168,62.500,0.000
1709297832.548,128.418,69.336,-96.191,78.125,0.000
1709297832.552,130.371,63.477,-96.191,74.219,0.000
1709297832.556,119.629,61.523,-99.609,48.340,0.000
1709297832.560,112.793,58.105,-97.168,60.547,0.000
1709297832.564,123.535,56.641,-96.191,72.754,0.000
1709297832.568,136.230,53.711,-92.285,79.102,0.000
1709297832.572,131.348,51.270,-85.938,84.961,0.000
1709297832.576,118.652,50.293,-86.914,76.172,0.000
1709297832.580,113.770,46.875,-88.867,68.359,0.000
1709297832.583,109.863,42.969,-85.938,77.148,0.000
1709297832.587,121.582,39.551,-84.961,83.496,0.000
1709297832.591,129.883,38.086,-88.379,72.754,0.000
1709297832.595,93.750,35.645,-81.055,55.176,0.000
1709297832.599,65.918,33.691,-78.613,70.312,0.000
1709297832.603,80.566,34.180,-78.613,90.820,0.000
1709297832.607,85.449,32.715,-76.172,76.660,0.000
1709297832.611,75.195,31.738,-79.102,61.523,0.000
1709297832.615,71.289,29.785,-82.031,53.711,0.000
1709297832.619,57.617,28.320,-81.543,54.688,0.000
1709297832.623,44.434,26.855,-78.613,42.969,0.000
1709297832.626,67.383,26.367,-78.125,46.875,0.000
1709297832.630,76.172,25.391,-76.660,65.918,0.000
1709297832.634,45.898,20.996,-70.801,39.551,0.000
1709297832.638,29.785,14.648,-74.707,-3.418,0.000
1709297832.642,29.297,13.672,-75.684,-0.488,0.000
1709297832.646,33.203,14.160,-70.801,16.602,0.000
1709297832.650,40.527,11.230,-68.848,18.555,0.000
1709297832.654,30.762,8.789,-61.523,13.672,0.000
1709297832.658,13.184,5.371,-59.570,11.719,0.000
1709297832.662,4.883,1.465,-62.988,16.113,0.000
1709297832.665,11.719,2.441,-62.012,18.555,0.000
1709297832.669,20.508,4.395,-56.152,13.184,0.000
1709297832.673,18.555,1.953,-56.152,1.465,0.000
1709297832.677,1.953,-4.395,-62.988,-14.648,0.000
1709297832.681,-3.906,-6.348,-64.453,-20.020,0.000
1709297832.685,4.883,-3.418,-62.500,-7.812,0.000
1709297832.689,11.230,-2.441,-60.059,-4.883,0.000
1709297832.693,7.812,-3.906,-60.547,-21.973,0.000
1709297832.697,-18.066,-6.348,-63.477,-25.879,0.000
1709297832.701,-34.668,-6.836,-61.523,-22.461,0.000
1709297832.705,-31.738,-11.230,-62.988,-20.996,0.000
1709297832.708,-19.531,-7.324,-60.547,-22.461,0.000
1709297832.712,-24.414,-7.324,-54.199,-35.645,0.000
1709297832.716,-40.039,-11.230,-52.734,-41.992,0.000
1709297832.720,-39.062,-6.348,-51.758,-40.039,0.000
1709297832.724,-36.621,-10.742,-51.758,-13.672,0.000
1709297832.728,-25.391,-16.113,-51.758,-3.418,0.000
1709297832.732,-20.508,-18.066,-53.711,-26.855,0.000
1709297832.736,-29.785,-19.043,-56.641,-32.715,0.000
1709297832.740,-34.180,-13.184,-51.270,-25.391,0.000
1709297832.744,-34.668,-12.207,-47.852,-13.184,0.000
1709297832.747,-28.809,-16.113,-48.340,5.859,0.000
1709297832.751,-21.973,-17.090,-45.410,28.809,0.000
1709297832.755,-27.344,-14.160,-44.922,10.254,0.000
1709297832.759,-43.457,-13.184,-48.828,-12.207,0.000
1709297832.763,-45.898,-16.602,-51.270,-36.621,0.000
1709297832.767,-29.297,-20.020,-51.758,-71.289,0.000
1709297832.771,-27.832,-19.043,-51.758,-62.012,0.000
1709297832.775,-39.551,-21.484,-48.828,-58.105,0.000
1709297832.779,-44.434,-20.996,-50.293,-56.641,0.000
1709297832.783,-27.344,-16.113,-52.734,-43.945,0.000
1709297832.787,-27.344,-19.043,-52.246,-29.785,0.000
1709297832.790,-41.992,-21.484,-51.758,-33.203,0.000
1709297832.794,-52.246,-23.926,-51.270,-43.457,0.000
1709297832.798,-58.594,-21.484,-49.316,-42.480,0.000
1709297832.802,-53.223,-21.484,-46.875,-30.762,0.000
1709297832.806,-40.527,-21.484,-44.922,-15.625,0.000
1709297832.810,-30.762,-19.531,-44.922,-18.066,0.000
1709297832.814,-34.668,-21.484,-51.758,-36.621,0.000
1709297832.818,-50.781,-21.973,-52.734,-42.480,0.000
1709297832.822,-61.035,-23.926,-52.246,-32.715,0.000
1709297832.826,-43.945,-26.367,-50.781,-22.461,0.000
1709297832.830,-32.715,-26.855,-46.875,-14.160,0.000
1709297832.833,-42.480,-28.320,-49.805,-20.508,0.000
1709297832.837,-43.945,-26.855,-51.270,-38.574,0.000
1709297832.841,-45.410,-25.391,-45.898,-19.043,0.000
1709297832.845,-41.992,-24.902,-46.387,2.930,0.000
1709297832.849,-26.855,-24.414,-46.875,-35.645,0.000
1709297832.853,-34.668,-25.879,-42.969,-62.988,0.000
1709297832.857,-46.875,-25.391,-40.527,-57.129,0.000
1709297832.861,-38.086,-22.461,-41.992,-51.270,0.000
1709297832.865,-30.762,-21.973,-44.434,-35.156,0.000
1709297832.869,-22.461,-22.949,-42.480,-30.762,0.000
1709297832.872,-20.508,-22.949,-37.109,-32.227,0.000
1709297832.876,-40.527,-25.391,-33.203,-31.738,0.000
1709297832.880,-53.711,-28.809,-34.668,-36.133,0.000
1709297832.884,-45.898,-27.832,-35.156,-32.715,0.000
1709297832.888,-33.691,-25.391,-32.715,-23.926,0.000
1709297832.892,-42.969,-27.832,-38.574,-27.344,0.000
1709297832.896,-55.176,-26.367,-42.480,-36.133,0.000
1709297832.900,-56.152,-24.902,-41.016,-26.855,0.000
1709297832.904,-55.176,-23.926,-41.992,-17.578,0.000
1709297832.908,-45.898,-21.973,-42.969,-19.531,0.000
1709297832.912,-46.875,-28.320,-42.969,-27.344,0.000
1709297832.915,-51.758,-35.156,-41.504,-36.133,0.000
1709297832.919,-49.805,-31.250,-37.598,-34.668,0.000
1709297832.923,-47.363,-27.344,-41.504,-39.062,0.000
1709297832.927,-42.969,-28.809,-43.457,-35.156,0.000
1709297832.931,-38.574,-29.297,-39.551,-26.367,0.000
1709297832.935,-40.527,-27.344,-39.551,-29.785,0.000
1709297832.939,-51.270,-22.461,-42.969,-35.645,0.000
1709297832.943,-51.758,-23.438,-46.387,-21.484,0.000
1709297832.947,-47.852,-29.785,-44.922,-13.672,0.000
1709297832.951,-36.621,-31.250,-45.410,-27.344,0.000
1709297832.955,-40.039,-29.297,-42.480,-30.762,0.000
1709297832.958,-55.176,-29.297,-42.480,-39.062,0.000
1709297832.962,0.000,-28.320,0.000,0.000,0.000
1709297832.966,0.000,-28.320,0.000,0.000,0.000
1709297832.970,0.000,-28.809,0.000,0.000,0.000
1709297832.974,0.000,-31.738,0.000,0.000,0.000
1709297832.978,0.000,-33.203,0.000,0.000,0.000
1709297832.982,0.000,-35.645,0.000,0.000,0.000
1709297832.986,0.000,-40.527,0.000,0.000,0.000
1709297832.990,0.000,-36.621,0.000,0.000,0.000
1709297832.994,0.000,-33.203,0.000,0.000,0.000
1709297832.997,0.000,-31.250,0.000,0.000,0.000
1709297833.001,0.000,-32.227,0.000,0.000,0.000
1709297833.005,0.000,-33.691,0.000,0.000,0.000
1709297833.009,-29.785,-35.156,-41.992,-28.320,0.000
1709297833.013,-43.457,-35.645,-43.945,-32.715,0.000
1709297833.017,-54.199,-36.133,-45.898,-43.945,0.000
1709297833.021,-58.594,-39.062,-48.828,-43.457,0.000
1709297833.025,-44.922,-41.504,-50.781,-36.133,0.000
1709297833.029,-38.574,-44.922,-50.293,-30.762,0.000
1709297833.033,-43.457,-42.480,-50.293,-29.297,0.000
1709297833.037,-53.711,-35.645,-48.828,-40.039,0.000
1709297833.040,-62.012,-30.762,-49.316,-40.527,0.000
1709297833.044,-52.734,-31.250,-51.270,-36.621,0.000
1709297833.048,-36.133,-33.203,-53.711,-38.574,0.000
1709297833.052,-34.180,-29.785,-53.711,-36.621,0.000
1709297833.056,-45.410,-29.785,-49.316,-38.574,0.000
1709297833.060,-47.852,-27.344,-46.875,-36.621,0.000
1709297833.064,-37.598,-26.367,-47.852,-34.180,0.000
1709297833.068,-22.461,-25.391,-42.480,-21.973,0.000
1709297833.072,-20.508,-25.879,-37.109,-15.625,0.000
1709297833.076,-32.227,-26.855,-38.086,-24.902,0.000
1709297833.079,-44.922,-29.297,-35.156,-16.113,0.000
1709297833.083,-42.969,-30.762,-33.691,-15.137,0.000
1709297833.087,-36.133,-29.785,-38.574,-25.879,0.000
1709297833.091,-40.527,-36.133,-43.457,-37.598,0.000
1709297833.095,-48.828,-31.250,-42.480,-47.852,0.000
1709297833.099,-58.594,-27.344,-43.457,-46.875,0.000
1709297833.103,-58.105,-30.273,-44.434,-40.039,0.000
1709297833.107,-40.527,-27.344,-41.992,-30.762,0.000
1709297833.111,-32.227,-27.344,-41.504,-37.598,0.000
1709297833.115,-44.434,-35.156,-45.410,-50.293,0.000
1709297833.119,-58.105,-40.527,-42.969,-52.734,0.000
1709297833.122,-65.430,-40.039,-42.969,-43.945,0.000
1709297833.126,-56.641,-40.039,-47.852,-41.016,0.000
1709297833.130,-43.457,-36.621,-45.410,-52.246,0.000
1709297833.134,-56.152,-34.668,-40.527,-59.570,0.000
1709297833.138,-72.266,-35.156,-41.504,-57.129,0.000
1709297833.142,-60.547,-38.086,-41.016,-49.316,0.000
1709297833.146,-35.156,-36.621,-38.574,-34.668,0.000
1709297833.150,-27.344,-29.785,-36.133,-30.762,0.000
1709297833.154,-31.738,-29.297,-36.133,-38.086,0.000
1709297833.158,-37.598,-28.320,-40.039,-42.480,0.000
1709297833.162,-34.180,-27.832,-42.480,-40.527,0.000
1709297833.165,-20.508,-30.273,-41.016,-31.250,0.000
1709297833.169,-14.648,-26.367,-34.180,-18.555,0.000
1709297833.173,-18.555,-23.438,-35.156,-25.879,0.000
1709297833.177,-30.273,-25.391,-36.621,-44.434,0.000
1709297833.181,-41.504,-28.809,-36.621,-39.062,0.000
1709297833.185,-31.250,-27.344,-36.621,-26.855,0.000
1709297833.189,-29.297,-28.809,-36.133,-27.832,0.000
1709297833.193,-37.598,-28.320,-40.527,-43.457,0.000
1709297833.197,-40.039,-25.879,-41.504,-43.945,0.000
1709297833.201,-38.574,-28.809,-42.480,-30.762,0.000
1709297833.204,-22.461,-27.832,-44.434,-21.973,0.000
1709297833.208,-13.184,-24.902,-41.016,-16.602,0.000
1709297833.212,-22.949,-23.926,-41.504,-29.297,0.000
1709297833.216,-32.227,-25.879,-42.480,-38.574,0.000
1709297833.220,-39.062,-25.391,-39.062,-28.809,0.000
1709297833.224,-37.598,-29.297,-41.016,-20.508,0.000
1709297833.228,-25.879,-31.738,-43.945,-19.043,0.000
1709297833.232,-28.809,-29.297,-46.387,-25.879,0.000
1709297833.236,-34.180,-26.367,-42.480,-39.551,0.000
1709297833.240,-33.203,-26.855,-37.109,-38.574,0.000
1709297833.244,-24.902,-29.297,-43.457,-32.227,0.000
1709297833.247,-16.602,-29.297,-45.410,-27.832,0.000
1709297833.251,-24.902,-26.855,-41.504,-29.297,0.000
1709297833.255,-28.320,-25.879,-40.039,-38.086,0.000
1709297833.259,-35.645,-27.344,-38.086,-43.457,0.000
1709297833.263,-33.691,-29.297,-33.203,-31.738,0.000
1709297833.267,-13.184,-29.785,-32.715,-24.414,0.000
1709297833.271,-9.766,-28.320,-36.133,-30.273,0.000
1709297833.275,-25.879,-28.809,-33.691,-28.809,0.000
1709297833.279,-34.180,-26.367,-32.715,-32.715,0.000
1709297833.283,-29.297,-25.391,-37.598,-36.133,0.000
1709297833.287,-28.809,-27.344,-40.527,-29.785,0.000
1709297833.290,-28.320,-28.809,-41.016,-38.574,0.000
1709297833.294,-30.762,-32.715,-38.574,-48.340,0.000
1709297833.298,-39.551,-34.668,-33.691,-44.434,0.000
1709297833.302,-38.574,-36.133,-38.086,-34.180,0.000
1709297833.306,-27.344,-37.109,-41.504,-20.508,0.000
1709297833.310,-22.461,-36.621,-38.574,-20.020,0.000
1709297833.314,-26.367,-31.250,-35.645,-35.645,0.000
1709297833.318,-42.480,-31.738,-37.598,-37.598,0.000
1709297833.322,-46.875,-37.598,-42.969,-27.344,0.000
1709297833.326,-26.367,-36.621,-43.945,-33.691,0.000
1709297833.329,-20.996,-33.203,-41.992,-35.156,0.000
1709297833.333,-30.762,-33.691,-44.922,-42.969,0.000
1709297833.337,-38.086,-37.109,-46.387,-61.523,0.000
1709297833.341,-40.527,-36.133,-42.969,-52.246,0.000
1709297833.345,-34.668,-32.715,-40.527,-35.645,0.000
1709297833.349,-32.715,-35.156,-43.457,-38.574,0.000
1709297833.353,-36.133,-36.621,-47.363,-52.246,0.000
1709297833.357,-44.922,-40.527,-44.922,-67.871,0.000
1709297833.361,-52.246,-39.551,-41.016,-58.594,0.000
1709297833.365,-48.340,-37.598,-40.039,-29.785,0.000
1709297833.369,-34.668,-35.645,-37.109,-35.645,0.000
1709297833.373,-28.320,-31.738,-33.203,-51.270,0.000
1709297833.376,-38.086,-36.133,-31.738,-55.176,0.000
1709297833.380,-35.156,-32.715,-35.645,-47.363,0.000
1709297833.384,-17.578,-29.785,-41.504,-24.414,0.000
1709297833.388,-13.672,-33.691,-34.668,-20.508,0.000
1709297833.392,-29.297,-41.992,-31.738,-39.062,0.000
1709297833.396,-48.340,-44.922,-34.668,-64.941,0.000
1709297833.400,-59.082,-45.898,-34.668,-62.988,0.000
1709297833.404,-56.152,-52.246,-28.320,-41.992,0.000
1709297833.408,-49.316,-53.223,-20.020,-41.504,0.000
1709297833.412,-52.734,-55.176,-19.531,-47.363,0.000
1709297833.415,-56.152,-56.152,-27.832,-51.270,0.000
1709297833.419,-56.152,-53.223,-32.227,-61.523,0.000
1709297833.423,-47.363,-51.270,-32.227,-48.340,0.000
1709297833.427,-29.297,-48.340,-32.227,-26.367,0.000
1709297833.431,-19.531,-41.992,-31.738,-35.645,0.000
1709297833.435,-24.902,-36.133,-34.668,-45.410,0.000
1709297833.439,-36.621,-39.062,-40.039,-41.504,0.000
1709297833.443,-35.645,-41.992,-42.480,-42.969,0.000
1709297833.447,-20.020,-38.086,-42.480,-38.574,0.000
1709297833.451,-15.137,-35.645,-37.109,-30.273,0.000
1709297833.455,-34.180,-38.086,-32.715,-30.762,0.000
1709297833.458,-56.641,-39.551,-35.156,-38.574,0.000
1709297833.462,-54.199,-39.062,-34.668,-41.016,0.000
1709297833.466,-38.574,-39.551,-33.691,-26.367,0.000
1709297833.470,-30.273,-43.457,-37.109,-20.508,0.000
1709297833.474,-36.621,-43.945,-38.086,-34.180,0.000
1709297833.478,-45.410,-43.945,-36.621,-45.898,0.000
1709297833.482,-44.922,-46.387,-35.645,-35.156,0.000
1709297833.486,-38.574,-42.480,-34.668,-29.297,0.000
1709297833.490,-28.809,-40.527,-38.086,-25.391,0.000
1709297833.494,-26.855,-43.457,-40.527,-26.367,0.000
1709297833.497,-37.109,-46.875,-37.598,-32.715,0.000
1709297833.501,-42.969,-46.875,-38.574,-23.438,0.000
1709297833.505,-33.203,-42.480,-39.062,-16.602,0.000
1709297833.509,-22.461,-41.504,-34.180,-18.555,0.000
1709297833.513,-25.879,-38.086,-34.180,-21.973,0.000
1709297833.517,-34.668,-33.691,-37.598,-27.344,0.000
1709297833.521,-35.156,-34.668,-38.574,-23.438,0.000
1709297833.525,-21.973,-38.574,-41.016,-13.672,0.000
1709297833.529,-18.555,-39.062,-41.504,-16.113,0.000
1709297833.533,-27.832,-39.062,-36.133,-33.691,0.000
1709297833.537,-37.598,-39.551,-34.668,-41.016,0.000
1709297833.540,-42.969,-40.039,-40.527,-40.039,0.000
1709297833.544,-36.133,-38.086,-42.480,-30.762,0.000
1709297833.548,-26.367,-39.551,-40.527,-20.996,0.000
1709297833.552,-31.738,-38.574,-39.551,-27.344,0.000
1709297833.556,-41.016,-32.227,-40.039,-30.762,0.000
1709297833.560,-47.852,-34.180,-38.086,-32.715,0.000
1709297833.564,-40.527,-34.180,-34.180,-25.879,0.000
1709297833.568,-28.320,-33.203,-37.109,-22.461,0.000
1709297833.572,-30.273,-35.156,-40.527,-28.809,0.000
1709297833.576,-43.945,-41.992,-41.504,-38.086,0.000
1709297833.580,-45.410,-40.527,-41.016,-38.574,0.000
1709297833.583,-37.109,-37.109,-40.527,-30.273,0.000
1709297833.587,-34.180,-42.480,-37.598,-24.902,0.000
1709297833.591,-34.668,-40.527,-31.738,-23.438,0.000
1709297833.595,-38.574,-34.180,-33.691,-31.738,0.000
1709297833.599,-39.062,-31.738,-38.574,-31.250,0.000
1709297833.603,-39.551,-31.738,-42.480,-10.742,0.000
1709297833.607,-27.832,-28.809,-41.992,0.977,0.000
1709297833.611,-20.996,-30.273,-42.480,-13.184,0.000
1709297833.615,-32.715,-34.180,-43.945,-33.691,0.000
1709297833.619,-40.039,-37.109,-46.875,-45.898,0.000
1709297833.622,-33.203,-36.133,-48.340,-35.156,0.000
1709297833.626,-20.508,-32.227,-46.875,-28.320,0.000
1709297833.630,-21.973,-29.785,-47.852,-34.668,0.000
1709297833.634,-35.645,-30.762,-51.270,-47.363,0.000
1709297833.638,-43.945,-31.738,-51.758,-49.805,0.000
1709297833.642,-41.016,-29.297,-43.945,-33.691,0.000
1709297833.646,-26.367,-28.320,-40.039,-24.414,0.000
1709297833.650,-22.461,-30.762,-35.645,-18.555,0.000
1709297833.654,-31.250,-30.273,-34.668,-31.250,0.000
1709297833.658,-38.574,-30.273,-36.621,-48.828,0.000
1709297833.662,-44.434,-33.203,-36.621,-34.180,0.000
1709297833.665,-32.227,-31.738,-39.062,-29.297,0.000
1709297833.669,-16.113,-33.691,-41.992,-38.574,0.000
1709297833.673,-19.043,-34.668,-40.527,-45.898,0.000
1709297833.677,-32.715,-38.574,-41.992,-54.688,0.000
1709297833.681,-41.016,-38.574,-43.945,-46.387,0.000
1709297833.685,-33.691,-38.086,-46.387,-39.551,0.000
1709297833.689,-24.414,-42.969,-46.875,-47.852,0.000
1709297833.693,-31.738,-41.992,-43.945,-56.641,0.000
1709297833.697,-41.504,-40.527,-43.457,-58.105,0.000
1709297833.701,-34.180,-37.109,-42.969,-63.965,0.000
1709297833.705,-24.902,-37.109,-41.016,-59.082,0.000
1709297833.708,-18.555,-35.156,-44.922,-43.457,0.000
1709297833.712,-21.484,-33.203,-48.340,-43.457,0.000
1709297833.716,-27.344,-31.738,-45.898,-56.152,0.000
1709297833.720,-29.297,-32.227,-43.457,-44.922,0.000
1709297833.724,-25.879,-30.273,-43.457,-28.809,0.000
1709297833.728,-19.043,-28.320,-47.363,-35.156,0.000
1709297833.732,-14.648,-28.320,-45.898,-38.086,0.000
1709297833.736,-26.367,-29.785,-39.551,-50.781,0.000
1709297833.740,-39.551,-35.156,-38.574,-51.270,0.000
1709297833.744,-24.902,-30.273,-37.598,-45.410,0.000
1709297833.747,-16.113,-28.809,-38.086,-48.340,0.000
1709297833.751,-33.691,-34.180,-38.086,-49.805,0.000
1709297833.755,-48.828,-31.250,-37.598,-53.223,0.000
1709297833.759,-65.430,-29.297,-41.992,-58.105,0.000
1709297833.763,-62.500,-30.762,-43.945,-66.895,0.000
1709297833.767,-48.828,-27.832,-38.086,-56.641,0.000
1709297833.771,-51.758,-29.785,-41.016,-59.570,0.000
1709297833.775,-60.059,-32.715,-47.363,-78.613,0.000
1709297833.779,-62.500,-31.738,-41.992,-77.148,0.000
1709297833.783,-53.223,-31.250,-36.133,-59.082,0.000
1709297833.787,-38.574,-31.250,-34.668,-49.805,0.000
1709297833.790,-24.902,-26.855,-34.668,-60.547,0.000
1709297833.794,-29.785,-27.832,-35.645,-67.871,0.000
1709297833.798,-41.504,-35.645,-40.039,-71.289,0.000
1709297833.802,-37.598,-36.621,-46.387,-62.500,0.000
1709297833.806,-26.855,-33.691,-49.316,-50.781,0.000
1709297833.810,-16.113,-32.227,-45.410,-45.898,0.000
1709297833.814,-24.414,-32.227,-41.016,-52.246,0.000
1709297833.818,-35.156,-33.691,-41.016,-65.430,0.000
1709297833.822,-39.551,-32.227,-42.969,-55.664,0.000
1709297833.826,-32.715,-29.785,-41.504,-32.715,0.000
1709297833.829,-20.508,-27.832,-41.504,-23.438,0.000
1709297833.833,-21.484,-28.809,-42.969,-36.621,0.000
1709297833.837,-30.762,-32.227,-41.504,-45.898,0.000
1709297833.841,-32.227,-27.832,-36.133,-37.598,0.000
1709297833.845,-13.672,-28.809,-38.086,-26.855,0.000
1709297833.849,-3.418,-29.297,-40.039,-22.949,0.000
1709297833.853,-10.254,-28.809,-38.086,-34.180,0.000
1709297833.857,-20.020,-31.738,-41.504,-37.109,0.000
1709297833.861,-23.438,-29.297,-45.410,-28.320,0.000
1709297833.865,-18.066,-23.926,-45.410,-23.438,0.000
1709297833.868,-16.113,-23.438,-42.969,-22.949,0.000
1709297833.872,-31.738,-28.320,-41.504,-22.949,0.000
1709297833.876,-47.363,-32.227,-41.016,-28.320,0.000
1709297833.880,-40.039,-32.227,-36.621,-31.738,0.000
1709297833.884,-25.879,-32.715,-38.086,-30.273,0.000
1709297833.888,-15.625,-31.738,-39.551,-25.879,0.000
1709297833.892,-13.184,-28.809,-38.086,-32.227,0.000
1709297833.896,-29.297,-30.762,-37.598,-42.480,0.000
1709297833.900,-37.109,-34.180,-36.133,-37.598,0.000
1709297833.904,-25.879,-34.180,-42.480,-28.809,0.000
1709297833.908,-22.461,-32.715,-48.340,-29.297,0.000
1709297833.911,-24.902,-34.180,-50.781,-38.574,0.000
1709297833.915,-26.367,-36.133,-53.711,-37.598,0.000
1709297833.919,-25.879,-34.668,-52.734,-23.926,0.000
1709297833.923,-19.043,-36.133,-39.062,-20.996,0.000
1709297833.927,-23.926,-38.574,-29.785,-35.156,0.000
1709297833.931,-43.945,-40.039,-26.855,-48.340,0.000
1709297833.935,-52.246,-43.457,-21.484,-42.969,0.000
1709297833.939,-54.688,-47.363,-20.508,-41.992,0.000
1709297833.943,-65.430,-54.199,-25.879,-45.410,0.000
1709297833.947,-75.195,-65.918,-24.902,-53.223,0.000
1709297833.951,-73.730,-68.848,-17.578,-66.406,0.000
1709297833.954,-85.938,-67.871,-20.508,-81.543,0.000
1709297833.958,-98.145,-69.336,-20.508,-86.426,0.000
1709297833.962,-83.984,-69.336,-20.508,-67.871,0.000
1709297833.966,-61.035,-66.895,-28.320,-48.828,0.000
1709297833.970,-45.410,-65.430,-32.227,-46.875,0.000
1709297833.974,-42.480,-63.965,-38.086,-54.199,0.000
1709297833.978,-49.805,-65.918,-37.109,-40.039,0.000
1709297833.982,-51.270,-63.477,-31.250,-29.785,0.000
1709297833.986,-34.668,-61.035,-30.762,-33.691,0.000
1709297833.990,-31.250,-62.988,-35.156,-28.320,0.000
1709297833.994,-41.992,-57.617,-37.109,-34.180,0.000
1709297833.997,-45.410,-53.711,-36.621,-40.039,0.000
1709297834.001,-44.922,-57.617,-40.039,-35.156,0.000
1709297834.005,-44.434,-62.988,-41.016,-24.414,0.000
1709297834.009,-36.621,-56.641,-37.109,-24.902,0.000
1709297834.013,-36.133,-52.734,-33.691,-29.297,0.000
1709297834.017,-43.945,-54.199,-33.691,-28.320,0.000
1709297834.021,-40.039,-49.316,-31.738,-31.250,0.000
1709297834.025,-38.086,-48.340,-32.715,-19.043,0.000
1709297834.029,-34.180,-44.922,-31.250,-9.277,0.000
1709297834.033,-35.156,-41.504,-33.691,-17.578,0.000
1709297834.036,-46.875,-44.434,-38.574,-26.855,0.000
1709297834.040,-51.270,-44.922,-35.645,-34.668,0.000
1709297834.044,-35.156,-40.527,-36.621,-33.691,0.000
1709297834.048,-20.996,-35.645,-32.227,-24.414,0.000
1709297834.052,-35.156,-35.645,-29.297,-22.949,0.000
1709297834.056,-48.828,-36.133,-33.203,-35.645,0.000
1709297834.060,-48.828,-36.133,-31.738,-29.297,0.000
1709297834.064,-34.180,-33.691,-32.715,-18.555,0.000
1709297834.068,-18.066,-35.156,-37.109,-23.926,0.000
1709297834.072,-23.438,-38.086,-38.574,-20.996,0.000
1709297834.076,-32.227,-37.598,-37.598,-26.855,0.000
1709297834.079,-28.809,-35.645,-34.180,-25.879,0.000
1709297834.083,-32.715,-29.785,-37.109,-22.461,0.000
1709297834.087,-33.691,-30.762,-41.504,-21.484,0.000
1709297834.091,-31.738,-33.203,-39.062,-26.367,0.000
1709297834.095,-48.828,-35.645,-36.621,-32.227,0.000
1709297834.099,-47.852,-34.180,-34.668,-26.855,0.000
1709297834.103,-32.715,-31.738,-35.156,-22.949,0.000
1709297834.107,-27.832,-33.203,-36.133,-21.484,0.000
1709297834.111,-26.367,-34.180,-36.133,-32.227,0.000
1709297834.115,-27.832,-33.691,-36.621,-39.062,0.000
1709297834.119,-31.738,-34.668,-39.551,-39.062,0.000
1709297834.122,-26.367,-34.668,-41.504,-27.832,0.000
1709297834.126,-7.324,-29.297,-36.621,-16.602,0.000
1709297834.130,-6.836,-27.344,-36.133,-23.438,0.000
1709297834.134,-21.973,-29.297,-34.668,-29.297,0.000
1709297834.138,-20.508,-28.809,-31.738,-24.414,0.000
1709297834.142,-18.555,-31.738,-32.715,-11.230,0.000
1709297834.146,-16.602,-30.762,-33.203,-13.672,0.000
1709297834.150,-9.766,-28.320,-39.062,-27.832,0.000
1709297834.154,-15.625,-27.832,-38.574,-30.762,0.000
1709297834.158,-30.762,-30.273,-33.691,-31.250,0.000
1709297834.161,-34.180,-30.273,-31.250,-22.949,0.000
1709297834.165,-14.648,-25.879,-33.691,-16.113,0.000
1709297834.169,-10.254,-29.785,-35.645,-20.508,0.000
1709297834.173,-29.785,-37.109,-38.086,-30.273,0.000
1709297834.177,-35.156,-36.133,-41.016,-33.203,0.000
1709297834.181,-33.203,-32.715,-36.621,-34.180,0.000
1709297834.185,-29.785,-35.156,-37.109,-31.250,0.000
1709297834.189,-32.715,-36.621,-38.574,-33.203,0.000
1709297834.193,-40.039,-36.133,-41.504,-39.551,0.000
1709297834.197,-41.992,-35.156,-43.457,-46.387,0.000
1709297834.201,-41.504,-38.574,-44.434,-46.875,0.000
1709297834.204,-41.504,-41.016,-47.363,-19.531,0.000
1709297834.208,-36.133,-37.109,-48.340,-26.855,0.000
1709297834.212,-30.762,-33.691,-46.875,-53.223,0.000
1709297834.216,-42.480,-37.598,-42.480,-47.363,0.000
1709297834.220,-54.688,-42.480,-44.922,-44.922,0.000
1709297834.224,-37.598,-35.645,-45.898,-38.574,0.000
1709297834.228,-27.832,-31.738,-42.969,-34.668,0.000
1709297834.232,-31.250,-33.691,-38.574,-40.039,0.000
1709297834.236,-35.156,-29.785,-34.180,-41.504,0.000
1709297834.240,-30.762,-25.391,-32.227,-36.621,0.000
1709297834.243,-24.902,-27.344,-32.715,-25.879,0.000
1709297834.247,-30.762,-30.273,-34.180,-16.113,0.000
1709297834.251,-29.297,-32.227,-38.086,-18.066,0.000
1709297834.255,-36.133,-28.320,-41.504,-26.855,0.000
1709297834.259,-52.246,-30.273,-43.457,-37.598,0.000
1709297834.263,-51.758,-34.668,-43.457,-35.645,0.000
1709297834.267,-35.645,-33.691,-41.504,-25.879,0.000
1709297834.271,-22.949,-31.738,-40.527,-32.715,0.000
1709297834.275,-25.879,-29.297,-37.598,-42.480,0.000
1709297834.279,-43.457,-32.227,-36.621,-44.434,0.000
1709297834.283,-45.898,-30.762,-34.180,-31.250,0.000
1709297834.286,-27.344,-29.785,-31.738,-18.066,0.000
1709297834.290,-27.344,-31.250,-34.668,-20.996,0.000
1709297834.294,-40.039,-29.297,-34.668,-29.785,0.000
1709297834.298,-47.852,-27.344,-33.691,-35.645,0.000
1709297834.302,-53.223,-30.273,-39.551,-37.109,0.000
1709297834.306,-38.086,-36.133,-43.945,-37.598,0.000
1709297834.310,-32.715,-32.227,-43.945,-30.273,0.000
1709297834.314,-46.875,-31.738,-45.410,-42.480,0.000
1709297834.318,-54.199,-36.133,-46.875,-56.641,0.000
1709297834.322,-45.898,-33.203,-48.340,-41.016,0.000
1709297834.326,-27.344,-31.250,-46.387,-32.227,0.000
1709297834.329,-19.043,-29.297,-41.504,-31.738,0.000
1709297834.333,-39.062,-30.273,-37.598,-43.457,0.000
1709297834.337,-62.988,-34.180,-40.039,-58.105,0.000
1709297834.341,-52.734,-35.156,-40.039,-41.504,0.000
1709297834.345,-28.320,-36.133,-41.504,-19.531,0.000
1709297834.349,-23.438,-28.320,-37.598,-17.578,0.000
1709297834.353,-35.156,-23.438,-34.668,-27.344,0.000
1709297834.357,-46.387,-22.949,-42.480,-26.855,0.000
1709297834.361,-20.508,-18.066,-45.898,-11.230,0.000
1709297834.365,1.953,-10.742,-46.875,-3.418,0.000
1709297834.369,2.441,1.953,-45.898,-16.602,0.000
1709297834.372,-3.418,9.766,-43.457,-23.438,0.000
1709297834.376,-23.438,8.789,-48.828,-29.785,0.000
1709297834.380,-14.160,10.742,-57.129,-28.320,0.000
1709297834.384,1.953,14.648,-57.129,-15.137,0.000
1709297834.388,7.812,6.348,-62.988,-13.672,0.000
1709297834.392,14.160,7.812,-64.941,-14.160,0.000
1709297834.396,-16.113,6.836,-54.199,-41.992,0.000
1709297834.400,-38.574,-6.348,-52.246,-54.199,0.000
1709297834.404,-15.137,-2.930,-52.246,-33.203,0.000
1709297834.408,-0.488,4.883,-47.852,-23.438,0.000
1709297834.411,-6.348,0.977,-47.852,-23.438,0.000
1709297834.415,-22.949,-3.418,-50.781,-29.297,0.000
1709297834.419,-23.438,-1.953,-51.758,-26.367,0.000
1709297834.423,-8.301,-1.465,-51.270,-18.555,0.000
1709297834.427,-1.465,-2.930,-50.293,-10.742,0.000
1709297834.431,-1.465,-5.859,-46.875,-20.508,0.000
1709297834.435,-19.531,-12.207,-49.316,-38.574,0.000
1709297834.439,-29.785,-14.648,-49.805,-41.992,0.000
1709297834.443,-22.461,-17.578,-45.410,-32.715,0.000
1709297834.447,-22.949,-22.461,-49.316,-24.902,0.000
1709297834.451,-21.973,-23.438,-49.316,-36.133,0.000
1709297834.454,-30.762,-23.926,-48.828,-39.062,0.000
1709297834.458,-33.691,-21.484,-47.852,-26.367,0.000
1709297834.462,-22.949,-17.578,-43.945,-16.113,0.000
1709297834.466,-12.207,-20.996,-47.363,-20.508,0.000
1709297834.470,-15.137,-25.879,-46.875,-24.414,0.000
1709297834.474,-34.180,-24.902,-41.992,-28.809,0.000
1709297834.478,-43.457,-23.438,-40.039,-29.297,0.000
1709297834.482,-40.527,-23.438,-44.434,-24.414,0.000
1709297834.486,-27.344,-27.344,-47.852,-28.320,0.000
1709297834.490,-20.508,-25.879,-40.527,-28.320,0.000
1709297834.494,-33.203,-23.926,-41.992,-34.668,0.000
1709297834.497,-45.898,-24.902,-47.363,-48.340,0.000
1709297834.501,-44.434,-25.391,-43.945,-41.504,0.000
1709297834.505,-40.039,-29.785,-49.805,-41.504,0.000
1709297834.509,-36.621,-29.785,-48.828,-41.992,0.000
1709297834.513,-34.668,-28.809,-44.434,-44.922,0.000
1709297834.517,-44.434,-33.203,-47.852,-51.270,0.000
1709297834.521,-49.805,-37.598,-51.758,-41.016,0.000
1709297834.525,-32.227,-33.691,-54.199,-37.598,0.000
1709297834.529,-21.484,-30.762,-51.758,-40.039,0.000
1709297834.533,-32.715,-33.203,-49.805,-41.992,0.000
1709297834.536,-47.363,-37.109,-50.781,-46.875,0.000
1709297834.540,-42.969,-27.344,-50.293,-42.480,0.000
1709297834.544,-28.809,-25.391,-46.387,-28.809,0.000
1709297834.548,-30.762,-31.738,-47.363,-24.902,0.000
1709297834.552,-36.133,-31.250,-50.781,-39.062,0.000
1709297834.556,-42.969,-31.738,-46.387,-54.688,0.000
1709297834.560,-45.410,-33.203,-45.898,-50.293,0.000
1709297834.564,-37.109,-32.715,-48.828,-37.598,0.000
1709297834.568,-32.227,-29.297,-46.387,-39.062,0.000
1709297834.572,-29.297,-28.320,-41.992,-44.434,0.000
1709297834.575,-38.086,-29.297,-39.062,-51.270,0.000
1709297834.579,-47.852,-31.738,-41.016,-47.363,0.000
1709297834.583,-39.551,-31.738,-41.016,-35.645,0.000
1709297834.587,-29.297,-33.691,-39.551,-37.598,0.000
1709297834.591,-35.156,-33.691,-40.039,-38.086,0.000
1709297834.595,-51.270,-35.156,-47.363,-42.969,0.000
1709297834.599,-46.387,-34.668,-49.316,-46.387,0.000
1709297834.603,-36.621,-32.715,-48.340,-40.039,0.000
1709297834.607,-37.109,-36.621,-45.410,-29.785,0.000
1709297834.611,-41.992,-38.086,-42.969,-38.574,0.000
1709297834.615,-54.199,-36.133,-45.898,-54.199,0.000
1709297834.618,-64.453,-39.551,-45.410,-51.270,0.000
1709297834.622,-58.594,-40.039,-40.039,-40.527,0.000
1709297834.626,-43.457,-37.598,-34.668,-27.344,0.000
1709297834.630,-32.227,-32.227,-39.551,-33.691,0.000
1709297834.634,-36.133,-26.367,-41.016,-46.875,0.000
1709297834.638,-47.852,-29.297,-36.621,-37.109,0.000
1709297834.642,-40.527,-29.297,-36.621,-21.484,0.000
1709297834.646,-31.738,-31.738,-42.480,-18.066,0.000
1709297834.650,-28.320,-33.203,-44.434,-20.996,0.000
1709297834.654,-32.227,-30.273,-43.457,-33.691,0.000
1709297834.658,-42.480,-34.180,-41.992,-43.457,0.000
1709297834.661,-42.480,-29.785,-43.945,-41.016,0.000
1709297834.665,-31.738,-22.461,-44.922,-35.156,0.000
1709297834.669,-26.367,-22.949,-41.992,-34.668,0.000
1709297834.673,-34.180,-22.949,-41.992,-42.480,0.000
1709297834.677,-45.898,-20.996,-43.945,-48.340,0.000
1709297834.681,-53.711,-22.949,-44.434,-50.293,0.000
1709297834.685,-41.992,-23.926,-43.457,-42.480,0.000
1709297834.689,-32.227,-22.461,-40.527,-45.898,0.000
1709297834.693,-41.504,-24.902,-40.527,-49.316,0.000
1709297834.697,-52.734,-26.855,-38.574,-47.363,0.000
1709297834.701,-54.199,-25.879,-36.621,-48.340,0.000
1709297834.704,-49.316,-28.809,-38.574,-41.016,0.000
1709297834.708,-44.922,-33.691,-42.480,-39.551,0.000
1709297834.712,-38.086,-32.715,-44.434,-43.457,0.000
1709297834.716,-37.598,-28.809,-39.062,-44.922,0.000
1709297834.720,-39.551,-26.855,-38.574,-35.645,0.000
1709297834.724,-24.902,-27.832,-38.574,-25.879,0.000
1709297834.728,-8.301,-27.832,-40.039,-20.996,0.000
1709297834.732,-18.555,-30.273,-37.109,-16.113,0.000
1709297834.736,-27.344,-29.785,-30.762,-21.484,0.000
1709297834.740,-25.391,-28.809,-31.250,-19.531,0.000
1709297834.743,-17.090,-31.250,-32.715,-13.672,0.000
1709297834.747,-17.578,-34.180,-34.668,-8.301,0.000
1709297834.751,-28.320,-37.109,-37.598,-20.508,0.000
1709297834.755,-34.180,-33.203,-38.086,-32.715,0.000
1709297834.759,-42.480,-30.273,-40.039,-29.785,0.000
1709297834.763,-42.969,-31.250,-43.945,-25.391,0.000
1709297834.767,-35.156,-31.738,-42.969,-23.926,0.000
1709297834.771,-36.133,-35.645,-40.039,-34.180,0.000
1709297834.775,-47.363,-40.039,-39.062,-38.574,0.000
1709297834.779,-52.246,-36.133,-36.621,-40.527,0.000
1709297834.783,-37.598,-30.273,-35.645,-30.273,0.000
1709297834.786,-33.203,-33.691,-39.551,-16.113,0.000
1709297834.790,-37.598,-36.133,-42.480,-26.855,0.000
1709297834.794,-45.898,-34.668,-40.039,-29.297,0.000
1709297834.798,-54.199,-34.180,-38.574,-25.391,0.000
1709297834.802,-50.293,-38.086,-41.504,-24.902,0.000
1709297834.806,-44.434,-37.598,-45.410,-25.879,0.000
1709297834.810,-41.992,-35.645,-47.852,-33.691,0.000
1709297834.814,-47.852,-35.645,-49.805,-42.969,0.000
1709297834.818,-58.105,-35.645,-48.340,-48.828,0.000
1709297834.822,-55.664,-39.062,-50.781,-37.109,0.000
1709297834.826,-36.133,-38.574,-53.711,-27.832,0.000
1709297834.829,-28.320,-39.062,-49.805,-30.762,0.000
1709297834.833,-31.738,-40.039,-47.363,-38.574,0.000
1709297834.837,-43.457,-37.598,-42.969,-36.621,0.000
1709297834.841,-37.598,-33.203,-37.109,-21.484,0.000
1709297834.845,-30.273,-38.574,-38.086,-18.066,0.000
1709297834.849,-29.297,-37.598,-40.039,-19.531,0.000
1709297834.853,-35.156,-34.180,-38.086,-22.949,0.000
1709297834.857,-48.828,-38.574,-40.527,-31.738,0.000
1709297834.861,-50.293,-36.621,-41.992,-32.715,0.000
1709297834.865,-34.180,-38.574,-45.898,-11.719,0.000
1709297834.868,-10.742,-35.645,-48.340,5.371,0.000
1709297834.872,-6.836,-28.809,-36.133,-8.789,0.000
1709297834.876,-18.555,-34.668,-26.367,-9.277,0.000
1709297834.880,-38.086,-42.969,-29.297,-18.066,0.000
1709297834.884,-21.484,-45.898,-34.180,-10.254,0.000
1709297834.888,-7.812,-46.387,-33.691,-0.977,0.000
1709297834.892,-34.180,-55.664,-31.738,-27.344,0.000
1709297834.896,-44.434,-58.594,-32.715,-25.879,0.000
1709297834.900,-30.762,-55.664,-29.297,-3.906,0.000
1709297834.904,-21.973,-55.664,-28.320,3.906,0.000
1709297834.908,-21.973,-47.852,-34.180,0.977,0.000
1709297834.911,-17.578,-43.457,-36.133,1.465,0.000
1709297834.915,-23.926,-45.898,-38.086,-17.090,0.000
1709297834.919,-29.785,-45.898,-38.086,-26.855,0.000
1709297834.923,-31.250,-47.852,-38.574,-17.578,0.000
1709297834.927,-25.391,-46.387,-39.062,-4.395,0.000
1709297834.931,-22.461,-44.922,-44.434,-21.973,0.000
1709297834.935,-32.227,-46.875,-49.316,-49.805,0.000
1709297834.939,-42.480,-43.945,-48.340,-49.805,0.000
1709297834.943,-51.758,-44.922,-50.781,-43.457,0.000
1709297834.947,-42.969,-47.852,-50.781,-37.598,0.000
1709297834.951,-33.691,-45.410,-48.828,-37.598,0.000
1709297834.954,-36.621,-44.434,-47.363,-39.551,0.000
1709297834.958,-40.039,-40.039,-45.898,-37.598,0.000
1709297834.962,-39.551,-38.574,-39.551,-28.809,0.000
1709297834.966,-26.855,-39.551,-39.551,-26.367,0.000
1709297834.970,-24.902,-41.992,-40.039,-24.902,0.000
1709297834.974,-35.645,-43.457,-39.062,-31.738,0.000
1709297834.978,-36.621,-40.527,-40.039,-41.504,0.000
1709297834.982,-34.180,-40.527,-38.086,-35.645,0.000
1709297834.986,-25.391,-38.086,-35.645,-25.391,0.000
1709297834.990,-20.996,-39.062,-37.598,-25.879,0.000
1709297834.993,-31.738,-40.527,-39.551,-38.086,0.000
1709297834.997,-44.434,-38.086,-38.574,-41.016,0.000
1709297835.001,-44.434,-34.180,-38.574,-29.297,0.000
1709297835.005,-28.320,-29.297,-40.039,-26.855,0.000
1709297835.009,-21.973,-34.668,-41.504,-34.180,0.000
1709297835.013,-40.527,-39.551,-42.480,-47.363,0.000
1709297835.017,-65.430,-42.969,-42.480,-53.711,0.000
1709297835.021,-65.430,-44.434,-41.992,-40.527,0.000
1709297835.025,-44.922,-40.039,-43.945,-37.109,0.000
1709297835.029,-34.180,-39.062,-43.945,-38.086,0.000
1709297835.033,-40.039,-35.645,-39.551,-37.109,0.000
1709297835.036,-53.711,-33.203,-36.621,-43.457,0.000
1709297835.040,-53.223,-31.738,-31.738,-41.992,0.000
1709297835.044,-37.598,-35.645,-31.738,-27.832,0.000
1709297835.048,-26.855,-38.574,-33.203,-25.391,0.000
1709297835.052,-34.180,-40.527,-30.762,-33.691,0.000
1709297835.056,-52.246,-40.527,-37.109,-44.922,0.000
1709297835.060,-52.734,-38.086,-38.086,-45.410,0.000
1709297835.064,-35.645,-36.621,-33.691,-30.762,0.000
1709297835.068,-23.438,-32.715,-31.250,-25.879,0.000
1709297835.072,-31.250,-36.621,-35.156,-33.203,0.000
1709297835.076,-47.363,-34.180,-36.621,-36.133,0.000
1709297835.079,-49.316,-33.203,-37.109,-39.551,0.000
1709297835.083,-35.156,-34.180,-43.945,-41.992,0.000
1709297835.087,-21.973,-31.250,-43.945,-34.668,0.000
1709297835.091,-25.879,-29.297,-41.016,-31.738,0.000
1709297835.095,-36.133,-23.926,-35.156,-40.527,0.000
1709297835.099,-49.316,-27.344,-38.086,-50.293,0.000
1709297835.103,-53.223,-29.785,-45.410,-41.504,0.000
1709297835.107,-33.691,-22.949,-42.969,-34.668,0.000
1709297835.111,-20.020,-19.043,-41.504,-44.434,0.000
1709297835.115,-38.086,-22.949,-42.969,-55.176,0.000
1709297835.119,-54.199,-24.414,-41.992,-51.758,0.000
1709297835.122,-47.363,-27.344,-43.945,-43.457,0.000
1709297835.126,-32.227,-29.785,-41.992,-32.715,0.000
1709297835.130,-21.973,-28.809,-37.109,-23.926,0.000
1709297835.134,-22.461,-30.762,-37.598,-33.203,0.000
1709297835.138,-37.109,-32.227,-41.504,-39.551,0.000
1709297835.142,-44.922,-35.156,-41.504,-31.738,0.000
1709297835.146,-44.434,-37.598,-38.574,-23.438,0.000
1709297835.150,-45.898,-39.551,-40.039,-20.020,0.000
1709297835.154,-42.480,-37.598,-45.410,-39.062,0.000
1709297835.158,-45.898,-33.691,-46.875,-51.758,0.000
1709297835.161,-42.969,-35.645,-48.828,-36.621,0.000
1709297835.165,-34.180,-38.086,-53.223,-35.645,0.000
1709297835.169,-35.156,-36.621,-55.176,-44.922,0.000
1709297835.173,-36.621,-32.715,-53.223,-55.176,0.000
1709297835.177,-41.504,-32.227,-54.199,-62.988,0.000
1709297835.181,-43.945,-32.227,-51.758,-46.875,0.000
1709297835.185,-34.180,-30.273,-45.410,-37.598,0.000
1709297835.189,-28.809,-27.344,-46.387,-47.852,0.000
1709297835.193,-35.156,-30.762,-45.898,-50.293,0.000
1709297835.197,-47.852,-32.715,-40.527,-38.086,0.000
1709297835.201,-49.805,-33.691,-41.504,-33.203,0.000
1709297835.204,-37.109,-36.133,-42.969,-33.203,0.000
1709297835.208,-28.320,-31.738,-39.062,-39.062,0.000
1709297835.212,-33.691,-32.715,-40.039,-43.945,0.000
1709297835.216,-51.270,-34.180,-42.969,-40.527,0.000
1709297835.220,-57.129,-33.203,-44.434,-45.898,0.000
1709297835.224,-43.945,-32.227,-43.945,-41.504,0.000
1709297835.228,-37.598,-32.715,-42.969,-37.109,0.000
1709297835.232,-38.574,-35.645,-43.945,-40.039,0.000
1709297835.236,-45.898,-41.016,-46.387,-41.992,0.000
1709297835.240,-50.781,-38.574,-46.387,-38.574,0.000
1709297835.244,-38.574,-30.273,-42.480,-24.414,0.000
1709297835.247,-19.531,-27.344,-45.410,-17.090,0.000
1709297835.251,-16.113,-24.902,-46.387,-22.949,0.000
1709297835.255,-34.668,-21.973,-47.363,-44.434,0.000
1709297835.259,-43.945,-23.438,-49.805,-61.523,0.000
1709297835.263,-44.922,-24.902,-49.316,-55.176,0.000
1709297835.267,-39.062,-23.438,-51.270,-49.316,0.000
1709297835.271,-38.086,-21.484,-51.758,-55.176,0.000
1709297835.275,-46.875,-22.949,-49.316,-56.641,0.000
1709297835.279,-57.129,-28.809,-48.340,-63.477,0.000
1709297835.283,-57.129,-23.926,-46.387,-54.688,0.000
1709297835.286,-39.551,-24.902,-46.875,-31.738,0.000
1709297835.290,-34.180,-33.691,-50.293,-44.922,0.000
1709297835.294,-43.945,-28.809,-49.316,-55.176,0.000
1709297835.298,-53.223,-28.809,-49.805,-50.293,0.000
1709297835.302,-50.293,-27.344,-46.875,-41.504,0.000
1709297835.306,-38.086,-24.414,-41.504,-28.809,0.000
1709297835.310,-38.086,-26.855,-42.480,-25.879,0.000
1709297835.314,-46.387,-31.738,-45.410,-38.574,0.000
1709297835.318,-58.594,-32.715,-46.875,-46.875,0.000
1709297835.322,-54.199,-33.203,-45.898,-39.062,0.000
1709297835.326,-38.086,-32.715,-50.293,-34.668,0.000
1709297835.329,-32.227,-24.902,-51.758,-33.203,0.000
1709297835.333,-36.621,-19.531,-44.922,-39.551,0.000
1709297835.337,-38.086,-21.484,-41.016,-45.898,0.000
1709297835.341,-35.156,-27.344,-44.922,-39.551,0.000
1709297835.345,-32.715,-33.203,-47.363,-33.691,0.000
1709297835.349,-26.855,-30.273,-44.922,-37.109,0.000
1709297835.353,-39.062,-27.344,-47.852,-50.293,0.000
1709297835.357,-57.617,-30.762,-49.316,-57.617,0.000
1709297835.361,-60.547,-30.762,-44.434,-47.363,0.000
1709297835.365,-41.016,-22.949,-37.109,-25.391,0.000
1709297835.368,-20.996,-18.555,-34.180,-22.949,0.000
1709297835.372,-24.902,-20.508,-33.691,-31.250,0.000
1709297835.376,-44.922,-23.926,-32.715,-35.645,0.000
1709297835.380,-42.480,-20.020,-32.715,-37.109,0.000
1709297835.384,-25.391,-22.949,-39.062,-32.715,0.000
1709297835.388,-21.973,-29.785,-43.945,-32.715,0.000
1709297835.392,-29.297,-24.902,-42.480,-40.039,0.000
1709297835.396,-40.039,-22.949,-42.480,-48.340,0.000
1709297835.400,-46.875,-27.832,-42.480,-39.062,0.000
1709297835.404,-43.945,-30.273,-42.480,-23.926,0.000
1709297835.408,-33.203,-28.320,-43.945,-32.227,0.000
1709297835.411,-31.738,-26.855,-41.992,-39.062,0.000
1709297835.415,-36.133,-28.809,-40.039,-39.551,0.000
1709297835.419,-44.434,-33.691,-48.828,-45.410,0.000
1709297835.423,-43.457,-30.273,-48.340,-35.645,0.000
1709297835.427,-34.180,-26.855,-41.016,-29.297,0.000
1709297835.431,-30.762,-27.832,-40.039,-44.434,0.000
1709297835.435,-43.457,-28.320,-37.598,-51.758,0.000
1709297835.439,-53.223,-26.855,-40.527,-44.434,0.000
1709297835.443,-45.898,-26.367,-45.898,-39.551,0.000
1709297835.447,-32.227,-28.809,-48.828,-39.062,0.000
1709297835.451,-34.668,-26.855,-50.293,-42.969,0.000
1709297835.454,-48.828,-28.809,-50.293,-55.176,0.000
1709297835.458,-56.152,-33.203,-52.246,-55.664,0.000
1709297835.462,-46.875,-35.156,-55.664,-43.457,0.000
1709297835.466,-26.367,-32.715,-53.223,-35.645,0.000
1709297835.470,-25.391,-25.879,-51.270,-40.039,0.000
1709297835.474,-41.504,-24.902,-54.688,-51.758,0.000
1709297835.478,-55.664,-27.344,-53.711,-50.781,0.000
1709297835.482,-48.340,-27.344,-52.734,-36.133,0.000
1709297835.486,-33.203,-30.762,-55.664,-34.180,0.000
1709297835.490,-30.762,-29.785,-53.223,-40.527,0.000
1709297835.493,-35.645,-31.250,-46.875,-49.805,0.000
1709297835.497,-47.363,-35.645,-41.504,-54.199,0.000
1709297835.501,-47.852,-35.156,-40.527,-54.199,0.000
1709297835.505,-32.227,-31.738,-41.992,-45.410,0.000
1709297835.509,-18.555,-29.297,-41.504,-40.527,0.000
1709297835.513,-20.996,-35.156,-43.457,-54.199,0.000
1709297835.517,-39.062,-36.621,-44.434,-56.152,0.000
1709297835.521,-47.363,-29.297,-36.621,-38.574,0.000
1709297835.525,-42.480,-30.273,-33.203,-26.855,0.000
1709297835.529,-30.273,-38.086,-39.062,-34.668,0.000
1709297835.533,-30.273,-35.156,-38.574,-49.805,0.000
1709297835.536,-52.734,-32.227,-38.574,-58.594,0.000
1709297835.540,-64.941,-35.645,-41.504,-53.223,0.000
1709297835.544,-56.152,-35.156,-40.527,-38.574,0.000
1709297835.548,-51.270,-36.621,-39.551,-34.668,0.000
1709297835.552,-50.781,-38.574,-40.527,-39.062,0.000
1709297835.556,-52.246,-36.133,-39.062,-48.828,0.000
1709297835.560,-56.641,-35.156,-40.039,-50.293,0.000
1709297835.564,-47.363,-37.109,-48.828,-39.551,0.000
1709297835.568,-42.480,-34.668,-51.270,-29.297,0.000
1709297835.572,-52.734,-32.227,-49.805,-28.809,0.000
1709297835.575,-55.176,-27.832,-45.898,-49.316,0.000
1709297835.579,-61.523,-28.809,-40.039,-62.500,0.000
1709297835.583,-59.570,-33.691,-42.969,-48.828,0.000
1709297835.587,-40.039,-28.809,-39.551,-45.898,0.000
1709297835.591,-48.340,-27.832,-39.551,-50.781,0.000
1709297835.595,-62.500,-32.715,-43.457,-55.176,0.000
1709297835.599,-58.105,-32.227,-39.062,-50.293,0.000
1709297835.603,-56.152,-31.738,-39.551,-32.715,0.000
1709297835.607,-44.434,-33.203,-42.969,-27.832,0.000
1709297835.611,-35.156,-34.180,-43.457,-35.645,0.000
1709297835.615,-44.434,-34.668,-44.922,-29.297,0.000
1709297835.619,-48.828,-34.180,-45.898,-34.668,0.000
1709297835.622,-44.434,-33.691,-45.898,-41.992,0.000
1709297835.626,-35.156,-30.273,-47.363,-33.691,0.000
1709297835.630,-28.320,-28.809,-47.363,-38.574,0.000
1709297835.634,-32.227,-30.762,-50.781,-44.922,0.000
1709297835.638,-37.109,-28.809,-56.152,-41.992,0.000
1709297835.642,-35.645,-28.320,-52.246,-27.344,0.000
1709297835.646,-27.832,-28.320,-51.270,-14.160,0.000
1709297835.650,-25.391,-28.809,-52.734,-20.508,0.000
1709297835.654,-30.273,-29.785,-48.340,-29.785,0.000
1709297835.658,-39.551,-29.785,-46.875,-25.391,0.000
1709297835.661,-31.738,-27.832,-43.457,-12.207,0.000
1709297835.665,-16.602,-23.438,-41.992,-2.441,0.000
1709297835.669,-10.742,-24.902,-44.922,-7.812,0.000
1709297835.673,-15.137,-30.273,-41.016,-15.137,0.000
1709297835.677,-32.227,-30.762,-39.551,-15.625,0.000
1709297835.681,-33.691,-27.344,-41.016,-19.043,0.000
1709297835.685,-24.414,-31.738,-45.410,-15.137,0.000
1709297835.689,-20.996,-29.785,-43.457,-15.625,0.000
1709297835.693,-22.461,-28.809,-37.598,-27.344,0.000
1709297835.697,-22.461,-31.250,-38.086,-29.785,0.000
1709297835.701,-25.391,-31.250,-42.480,-27.832,0.000
1709297835.704,-27.832,-32.715,-44.434,-13.672,0.000
1709297835.708,-15.625,-28.809,-40.527,-5.859,0.000
1709297835.712,-13.672,-22.949,-37.598,-22.949,0.000
1709297835.716,-27.832,-27.832,-38.086,-39.062,0.000
1709297835.720,-36.133,-29.297,-42.480,-34.668,0.000
1709297835.724,-28.320,-29.785,-45.898,-24.902,0.000
1709297835.728,-28.809,-37.109,-43.945,-30.762,0.000
1709297835.732,-35.156,-34.668,-44.434,-33.691,0.000
1709297835.736,-38.086,-29.785,-45.410,-34.668,0.000
1709297835.740,-45.410,-33.203,-41.992,-35.645,0.000
1709297835.743,-41.992,-38.086,-42.969,-38.574,0.000
1709297835.747,-40.039,-38.086,-43.457,-35.645,0.000
1709297835.751,-34.180,-35.156,-41.992,-31.738,0.000
1709297835.755,-33.203,-32.715,-41.992,-40.527,0.000
1709297835.759,-39.062,-33.203,-42.480,-37.598,0.000
1709297835.763,-34.668,-36.133,-41.992,-26.367,0.000
1709297835.767,-29.785,-35.156,-38.086,-19.043,0.000
1709297835.771,-29.297,-31.738,-36.133,-30.273,0.000
1709297835.775,-41.992,-29.785,-37.109,-41.504,0.000
1709297835.779,-48.340,-28.320,-36.621,-36.621,0.000
1709297835.783,-37.598,-25.391,-35.645,-25.391,0.000
1709297835.786,-25.879,-23.926,-36.133,-28.809,0.000
1709297835.790,-22.949,-25.879,-35.156,-33.691,0.000
1709297835.794,-41.016,-26.855,-37.598,-32.715,0.000
1709297835.798,-50.293,-25.879,-41.504,-34.668,0.000
1709297835.802,-41.504,-24.902,-42.480,-33.203,0.000
1709297835.806,-28.320,-25.879,-40.039,-24.902,0.000
1709297835.810,-25.879,-26.367,-35.156,-23.438,0.000
1709297835.814,-41.016,-24.902,-33.691,-36.621,0.000
1709297835.818,-51.758,-26.855,-33.203,-45.410,0.000
1709297835.822,-47.363,-31.250,-33.691,-38.086,0.000
1709297835.826,-36.621,-31.738,-32.227,-40.039,0.000
1709297835.829,-14.648,-29.297,-37.109,-39.551,0.000
1709297835.833,-8.789,-22.461,-42.969,-40.527,0.000
1709297835.837,-46.875,-24.414,-39.062,-60.059,0.000
1709297835.841,-60.059,-33.691,-37.109,-62.012,0.000
1709297835.845,-38.086,-31.738,-39.551,-51.270,0.000
1709297835.849,-39.062,-27.832,-39.551,-56.641,0.000
1709297835.853,-48.828,-26.855,-36.133,-56.641,0.000
1709297835.857,-48.340,-26.367,-34.180,-49.316,0.000
1709297835.861,-44.922,-28.320,-36.621,-51.758,0.000
1709297835.865,-41.016,-31.250,-40.527,-46.387,0.000
1709297835.869,-35.645,-28.320,-39.551,-40.039,0.000
1709297835.872,-39.062,-26.855,-39.062,-43.945,0.000
1709297835.876,-47.852,-27.832,-36.621,-47.852,0.000
1709297835.880,-50.293,-27.832,-36.621,-45.898,0.000
1709297835.884,-42.969,-28.320,-41.992,-36.133,0.000
1709297835.888,-34.180,-30.762,-41.504,-28.809,0.000
1709297835.892,-38.574,-29.297,-39.551,-35.156,0.000
1709297835.896,-47.852,-31.250,-40.527,-50.293,0.000
1709297835.900,-52.734,-39.551,-41.016,-41.016,0.000
1709297835.904,-43.945,-42.969,-37.598,-29.297,0.000
1709297835.908,-31.738,-39.551,-36.133,-40.527,0.000
1709297835.911,-32.227,-38.574,-45.410,-43.945,0.000
1709297835.915,-47.363,-43.457,-45.410,-52.734,0.000
1709297835.919,-43.945,-37.109,-38.574,-46.387,0.000
1709297835.923,-26.855,-33.203,-40.039,-26.367,0.000
1709297835.927,-24.902,-37.109,-45.898,-31.738,0.000
1709297835.931,-28.320,-37.109,-49.316,-43.457,0.000
1709297835.935,-42.480,-38.574,-48.828,-49.316,0.000
1709297835.939,-55.664,-41.016,-53.223,-50.293,0.000
1709297835.943,-50.293,-39.551,-52.734,-33.203,0.000
1709297835.947,-36.133,-37.109,-46.875,-21.484,0.000
1709297835.951,-32.227,-36.621,-44.922,-31.250,0.000
1709297835.954,-34.180,-38.086,-45.410,-44.922,0.000
1709297835.958,-32.227,-35.645,-45.410,-46.387,0.000
1709297835.962,-26.367,-36.133,-42.480,-35.645,0.000
1709297835.966,-13.184,-37.598,-41.016,-20.508,0.000
1709297835.970,-12.207,-32.715,-39.062,-20.996,0.000
1709297835.974,-24.414,-27.832,-36.621,-28.809,0.000
1709297835.978,-36.133,-29.297,-41.016,-28.809,0.000
1709297835.982,-35.156,-31.250,-41.504,-26.855,0.000
1709297835.986,-22.461,-34.180,-40.527,-25.879,0.000
1709297835.990,-28.809,-36.621,-41.992,-20.996,0.000
1709297835.994,-45.898,-33.691,-43.945,-31.738,0.000
1709297835.997,-53.223,-34.668,-45.410,-43.945,0.000
1709297836.001,-45.898,-30.273,-43.945,-32.715,0.000
1709297836.005,-30.273,-24.902,-41.992,-26.855,0.000
1709297836.009,-22.949,-28.320,-41.992,-27.832,0.000
1709297836.013,-26.855,-29.297,-39.551,-26.855,0.000
1709297836.017,-41.504,-30.762,-32.715,-29.297,0.000
1709297836.021,-40.527,-31.250,-29.297,-32.227,0.000
1709297836.025,-28.320,-32.715,-28.809,-27.832,0.000
1709297836.029,-27.832,-32.227,-32.227,-27.832,0.000
1709297836.033,-26.855,-30.273,-32.715,-32.715,0.000
1709297836.036,-41.016,-34.668,-31.250,-34.180,0.000
1709297836.040,-50.781,-38.086,-36.133,-37.598,0.000
1709297836.044,-31.738,-33.691,-35.156,-27.344,0.000
1709297836.048,-20.996,-30.762,-32.227,-16.602,0.000
1709297836.052,-29.785,-32.227,-37.109,-30.762,0.000
1709297836.056,-39.551,-35.645,-42.480,-41.016,0.000
1709297836.060,-50.781,-35.156,-44.434,-32.715,0.000
1709297836.064,-44.922,-36.621,-45.898,-29.785,0.000
1709297836.068,-28.809,-38.086,-48.340,-35.645,0.000
1709297836.072,-32.227,-34.180,-51.270,-47.363,0.000
1709297836.075,-40.039,-33.691,-51.758,-55.176,0.000
1709297836.079,-49.316,-37.598,-50.293,-41.992,0.000
1709297836.083,-48.828,-43.457,-50.781,-33.691,0.000
1709297836.087,-33.691,-39.551,-47.363,-37.598,0.000
1709297836.091,-41.992,-36.133,-46.387,-48.828,0.000
1709297836.095,-51.270,-36.133,-47.363,-59.082,0.000
1709297836.099,-56.641,-34.668,-51.270,-55.176,0.000
1709297836.103,-48.828,-35.645,-50.293,-43.945,0.000
1709297836.107,-30.273,-39.551,-43.457,-38.574,0.000
1709297836.111,-38.574,-37.598,-39.551,-46.387,0.000
1709297836.115,-52.246,-34.668,-41.504,-55.176,0.000
1709297836.118,-58.105,-35.645,-43.945,-55.176,0.000
1709297836.122,-52.246,-37.598,-39.062,-40.527,0.000
1709297836.126,-44.922,-40.527,-35.645,-23.438,0.000
1709297836.130,-46.387,-40.039,-41.992,-38.086,0.000
1709297836.134,-45.410,-40.039,-43.457,-50.781,0.000
1709297836.138,-50.781,-43.457,-40.527,-51.758,0.000
1709297836.142,-49.316,-45.410,-42.969,-43.945,0.000
1709297836.146,-33.691,-41.992,-42.480,-28.809,0.000
1709297836.150,-19.043,-34.668,-39.551,-29.297,0.000
1709297836.154,-22.461,-36.621,-43.945,-49.805,0.000
1709297836.158,-40.527,-36.621,-46.875,-62.012,0.000
1709297836.161,-43.457,-34.668,-44.922,-51.270,0.000
1709297836.165,-35.156,-36.133,-44.434,-42.969,0.000
1709297836.169,-38.574,-40.527,-43.457,-41.992,0.000
1709297836.173,-51.270,-41.016,-40.527,-45.410,0.000
1709297836.177,-55.664,-41.992,-43.945,-47.363,0.000
1709297836.181,-46.875,-43.945,-45.898,-41.016,0.000
1709297836.185,-32.227,-34.668,-42.480,-25.391,0.000
1709297836.189,-21.484,-25.391,-36.133,-32.227,0.000
1709297836.193,-25.879,-26.855,-35.156,-56.641,0.000
1709297836.197,-45.898,-29.297,-40.527,-55.664,0.000
1709297836.201,-50.781,-29.297,-43.457,-43.945,0.000
1709297836.204,-35.645,-27.344,-42.480,-32.227,0.000
1709297836.208,-27.344,-29.785,-44.922,-32.715,0.000
1709297836.212,-35.156,-38.086,-50.781,-39.551,0.000
1709297836.216,-45.898,-40.527,-50.781,-39.551,0.000
1709297836.220,-43.945,-35.645,-48.340,-43.945,0.000
1709297836.224,-20.996,-28.320,-46.387,-33.691,0.000
1709297836.228,-10.254,-21.973,-46.875,-24.902,0.000
1709297836.232,-25.391,-18.066,-44.434,-39.551,0.000
1709297836.236,-38.574,-18.555,-49.316,-46.387,0.000
1709297836.240,-43.457,-19.531,-49.316,-42.969,0.000
1709297836.243,-42.969,-17.090,-51.270,-39.062,0.000
1709297836.247,-37.109,-15.137,-54.199,-39.551,0.000
1709297836.251,-31.250,-16.113,-52.246,-53.223,0.000
1709297836.255,-39.551,-14.648,-55.664,-54.199,0.000
1709297836.259,-58.105,-14.648,-52.734,-56.641,0.000
1709297836.263,-43.945,-14.648,-47.363,-45.898,0.000
1709297836.267,-14.160,-9.277,-48.340,-34.180,0.000
1709297836.271,-17.090,-8.301,-44.922,-43.457,0.000
1709297836.275,-38.086,-13.672,-41.504,-43.457,0.000
1709297836.279,-47.852,-11.719,-42.480,-47.363,0.000
1709297836.283,-43.457,-12.695,-38.086,-57.129,0.000
1709297836.286,-30.273,-15.137,-34.180,-43.457,0.000
1709297836.290,-32.227,-14.648,-36.621,-41.504,0.000
1709297836.294,-47.852,-17.578,-38.574,-55.664,0.000
1709297836.298,-49.805,-18.555,-35.645,-44.434,0.000
1709297836.302,-39.551,-19.531,-36.621,-29.297,0.000
1709297836.306,-31.250,-18.555,-40.527,-22.461,0.000
1709297836.310,-27.832,-18.555,-40.527,-20.996,0.000
1709297836.314,-35.645,-19.043,-39.062,-32.715,0.000
1709297836.318,-44.922,-22.461,-39.551,-32.227,0.000
1709297836.322,-44.922,-23.926,-42.969,-21.973,0.000
1709297836.326,-41.016,-24.414,-46.875,-23.438,0.000
1709297836.329,-28.809,-26.367,-43.945,-20.508,0.000
1709297836.333,-22.461,-22.461,-40.527,-16.113,0.000
1709297836.337,-22.461,-19.531,-42.969,-26.367,0.000
1709297836.341,-18.555,-22.949,-43.945,-28.320,0.000
1709297836.345,-17.090,-26.855,-40.527,-16.113,0.000
1709297836.349,-17.578,-29.297,-41.504,-25.391,0.000
1709297836.353,-26.855,-35.156,-43.457,-35.156,0.000
1709297836.357,-39.551,-35.156,-41.504,-30.762,0.000
1709297836.361,-46.387,-32.715,-48.828,-29.297,0.000
1709297836.365,-42.969,-33.203,-50.781,-19.043,0.000
1709297836.368,-42.480,-38.086,-46.387,-15.625,0.000
1709297836.372,-49.316,-42.480,-48.340,-40.527,0.000
1709297836.376,-60.059,-37.109,-54.688,-55.664,0.000
1709297836.380,-63.477,-26.367,-52.246,-45.410,0.000
1709297836.384,-49.805,-24.902,-43.945,-28.320,0.000
1709297836.388,-30.273,-25.391,-41.504,-23.926,0.000
1709297836.392,-30.273,-25.391,-42.480,-34.668,0.000
1709297836.396,-44.434,-22.949,-43.945,-36.133,0.000
1709297836.400,-45.410,-23.926,-43.457,-22.949,0.000
1709297836.404,-32.227,-27.344,-41.016,-26.855,0.000
1709297836.408,-26.367,-27.344,-41.016,-31.738,0.000
1709297836.411,-33.203,-26.855,-42.480,-30.762,0.000
1709297836.415,-37.109,-21.973,-45.410,-35.645,0.000
1709297836.419,-37.598,-26.855,-51.270,-33.691,0.000
1709297836.423,-37.598,-29.785,-48.340,-26.367,0.000
1709297836.427,-26.855,-26.367,-43.457,-18.066,0.000
1709297836.431,-19.531,-26.367,-45.898,-19.531,0.000
1709297836.435,-39.062,-26.367,-48.340,-32.227,0.000
1709297836.439,-57.129,-29.785,-49.805,-33.691,0.000
1709297836.443,-45.898,-31.738,-50.293,-24.414,0.000
1709297836.447,-29.785,-29.785,-50.293,-21.973,0.000
1709297836.450,-32.227,-30.762,-53.223,-26.855,0.000
1709297836.454,-40.527,-25.879,-49.316,-36.133,0.000
1709297836.458,-41.992,-21.484,-47.363,-39.551,0.000
1709297836.462,-46.875,-28.809,-52.246,-32.715,0.000
1709297836.466,-39.062,-36.133,-50.781,-27.344,0.000
1709297836.470,-33.691,-36.133,-43.945,-24.414,0.000
1709297836.474,-49.805,-39.062,-44.434,-29.785,0.000
1709297836.478,-61.523,-37.109,-49.805,-38.086,0.000
1709297836.482,-59.082,-35.645,-48.828,-30.273,0.000
1709297836.486,-41.504,-34.668,-42.969,-23.926,0.000
1709297836.489,-29.297,-34.180,-46.387,-37.109,0.000
1709297836.493,-32.715,-35.645,-49.805,-43.457,0.000
1709297836.497,-28.809,-36.133,-39.551,-28.320,0.000
1709297836.501,-25.879,-38.574,-38.574,-17.578,0.000
1709297836.505,-12.695,-34.668,-40.527,-10.254,0.000
1709297836.509,0.488,-33.691,-39.062,-7.324,0.000
1709297836.513,-15.625,-35.156,-37.109,-14.648,0.000
1709297836.517,-34.180,-38.086,-40.039,-33.203,0.000
1709297836.521,-33.691,-38.086,-47.363,-28.320,0.000
1709297836.525,-19.043,-32.227,-47.363,-15.625,0.000
1709297836.529,-1.465,-33.203,-37.598,-12.695,0.000
1709297836.532,-4.395,-29.785,-29.785,-10.742,0.000
1709297836.536,-22.461,-23.438,-30.762,-13.672,0.000
1709297836.540,-27.832,-25.391,-36.621,-11.230,0.000
1709297836.544,-17.090,-28.320,-40.527,-9.277,0.000
1709297836.548,-12.207,-31.250,-46.387,-16.113,0.000
1709297836.552,-20.996,-29.785,-50.293,-30.273,0.000
1709297836.556,-36.133,-22.461,-47.363,-38.574,0.000
1709297836.560,-34.668,-23.438,-41.504,-22.461,0.000
1709297836.564,-20.508,-23.438,-37.598,-11.230,0.000
1709297836.568,-4.883,-23.926,-37.109,-19.043,0.000
1709297836.572,-2.441,-22.461,-36.133,-23.438,0.000
1709297836.575,-29.785,-23.926,-34.668,-28.809,0.000
1709297836.579,-39.062,-26.855,-37.598,-34.180,0.000
1709297836.583,-28.320,-25.391,-39.062,-32.715,0.000
1709297836.587,-21.973,-27.832,-40.527,-26.367,0.000
1709297836.591,-19.043,-30.273,-41.992,-38.574,0.000
1709297836.595,-24.414,-26.855,-38.574,-47.363,0.000
1709297836.599,-29.785,-28.809,-36.621,-39.062,0.000
1709297836.603,-20.508,-29.297,-37.109,-28.809,0.000
1709297836.607,-16.113,-23.438,-34.180,-13.184,0.000
1709297836.611,-19.043,-24.414,-37.109,-20.996,0.000
1709297836.615,-34.180,-29.297,-43.457,-38.574,0.000
1709297836.618,-42.969,-27.832,-41.016,-34.668,0.000
1709297836.622,-33.203,-26.367,-41.992,-29.785,0.000
1709297836.626,-31.738,-26.855,-45.410,-36.133,0.000
1709297836.630,-24.414,-26.367,-42.969,-38.086,0.000
1709297836.634,-25.879,-26.855,-37.598,-44.922,0.000
1709297836.638,-37.109,-28.320,-40.527,-46.875,0.000
1709297836.642,-39.062,-25.391,-41.992,-35.156,0.000
1709297836.646,-30.762,-28.809,-41.504,-29.785,0.000
1709297836.650,-30.762,-33.691,-47.852,-29.785,0.000
1709297836.654,-43.945,-30.273,-48.828,-33.203,0.000
1709297836.657,-46.387,-26.855,-44.922,-33.203,0.000
1709297836.661,-42.969,-28.320,-47.363,-30.273,0.000
1709297836.665,-40.527,-30.273,-52.246,-27.832,0.000
1709297836.669,-35.645,-30.762,-53.711,-25.879,0.000
1709297836.673,-29.785,-32.715,-49.805,-39.551,0.000
1709297836.677,-39.551,-30.762,-44.922,-43.945,0.000
1709297836.681,-49.316,-28.809,-40.039,-26.855,0.000
1709297836.685,-34.668,-30.762,-38.574,-24.414,0.000
1709297836.689,-21.484,-28.320,-41.016,-28.809,0.000
1709297836.693,-20.020,-29.785,-42.480,-31.738,0.000
1709297836.697,-33.691,-30.273,-42.480,-37.598,0.000
1709297836.701,-34.668,-23.438,-39.551,-33.691,0.000
1709297836.704,-15.137,-26.367,-38.086,-26.367,0.000
1709297836.708,-10.254,-30.273,-39.551,-29.297,0.000
1709297836.712,-12.207,-27.344,0.000,-30.762,0.000
1709297836.716,-21.484,-30.273,0.000,-36.621,0.000
1709297836.720,-32.715,-35.156,0.000,-37.598,0.000
1709297836.724,-32.227,-32.715,0.000,-34.180,0.000
1709297836.728,-25.879,-30.273,0.000,-38.086,0.000
1709297836.732,-30.273,-32.227,0.000,-44.922,0.000
1709297836.736,-45.410,-34.668,0.000,-53.711,0.000
1709297836.740,-49.316,-36.621,0.000,-52.246,0.000
1709297836.743,-32.227,-31.738,0.000,-42.969,0.000
1709297836.747,-18.555,-29.785,0.000,-28.320,0.000
1709297836.751,-18.555,-27.832,0.000,-27.832,0.000
1709297836.755,-28.320,-22.461,0.000,-31.738,0.000
1709297836.759,-34.180,-21.484,-44.434,-28.809,0.000
1709297836.763,-32.227,-20.996,-41.992,-39.062,0.000
1709297836.767,-31.250,-24.902,-40.039,-41.992,0.000
1709297836.771,-43.945,-29.785,-42.969,-46.387,0.000
1709297836.775,-47.363,-28.809,-47.363,-46.387,0.000
1709297836.779,-42.969,-30.762,-48.340,-38.086,0.000
1709297836.783,-39.062,-34.668,-47.363,-33.203,0.000
1709297836.786,-36.133,-32.715,-45.898,-24.414,0.000
1709297836.790,-25.879,-32.227,-46.387,-28.809,0.000
1709297836.794,-33.691,-35.156,-47.363,-42.480,0.000
1709297836.798,-45.410,-32.715,-43.945,-38.086,0.000
1709297836.802,-41.504,-31.250,-45.410,-22.949,0.000
1709297836.806,-34.180,-33.203,-47.852,-27.344,0.000
1709297836.810,-31.250,-29.785,-48.828,-37.109,0.000
1709297836.814,-43.457,-24.902,-45.410,-43.457,0.000
1709297836.818,-55.176,-21.484,-46.387,-52.246,0.000
1709297836.822,-43.457,-15.625,-39.062,-41.992,0.000
1709297836.825,-31.738,-21.484,-35.645,-25.879,0.000
1709297836.829,-35.645,-32.227,-35.645,-20.508,0.000
1709297836.833,-39.551,-32.227,-37.109,-25.391,0.000
1709297836.837,-44.922,-30.762,-41.992,-37.109,0.000
1709297836.841,-37.598,-30.762,-38.574,-31.738,0.000
1709297836.845,-22.949,-28.809,-40.039,-22.461,0.000
1709297836.849,-28.320,-27.832,-38.574,-27.344,0.000
1709297836.853,-48.340,-27.832,-36.621,-43.457,0.000
1709297836.857,-60.547,-28.809,-40.039,-48.340,0.000
1709297836.861,-52.734,-26.367,-38.574,-45.898,0.000
1709297836.864,-32.715,-29.297,-36.621,-42.969,0.000
1709297836.868,-25.391,-30.762,-37.109,-43.457,0.000
1709297836.872,-41.504,-27.344,-38.574,-56.152,0.000
1709297836.876,-46.387,-24.902,-41.992,-52.734,0.000
1709297836.880,-45.410,-22.461,-43.945,-44.922,0.000
1709297836.884,-43.945,-25.879,-47.363,-39.551,0.000
1709297836.888,-38.574,-29.297,-46.387,-41.992,0.000
1709297836.892,-37.109,-26.855,-42.480,-51.758,0.000
1709297836.896,-44.434,-22.949,-37.598,-53.711,0.000
1709297836.900,-41.016,-26.367,-36.621,-46.875,0.000
1709297836.904,-33.691,-31.250,-42.969,-46.387,0.000
1709297836.907,-36.133,-34.180,-44.922,-45.410,0.000
1709297836.911,-33.203,-36.133,-41.504,-46.875,0.000
1709297836.915,-47.852,-35.156,-41.992,-52.734,0.000
1709297836.919,-56.641,-36.621,-41.016,-47.852,0.000
1709297836.923,-50.781,-39.551,-37.598,-43.457,0.000
1709297836.927,-46.875,-41.016,-40.039,-50.293,0.000
1709297836.931,-45.410,-44.434,-43.457,-59.570,0.000
1709297836.935,-45.410,-45.410,-39.551,-53.223,0.000
1709297836.939,-41.504,-36.133,-40.039,-50.781,0.000
1709297836.943,-29.785,-32.715,-41.504,-40.527,0.000
