timestamps,TP9,AF7,AF8,TP10,Right AUX
1709291906.176,-30.762,-36.621,-32.227,-25.879,0.000
1709291906.180,-20.020,-39.062,-25.879,-23.438,0.000
1709291906.184,-20.020,-33.691,-24.414,-23.438,0.000
1709291906.188,-36.133,-30.273,-25.879,-24.902,0.000
1709291906.192,-37.598,-36.133,-26.855,-30.273,0.000
1709291906.196,-25.879,-37.598,-29.297,-20.020,0.000
1709291906.200,-21.973,-31.738,-31.738,-13.184,0.000
1709291906.204,-31.250,-33.691,-33.203,-22.949,0.000
1709291906.207,-40.527,-35.156,-33.691,-32.715,0.000
1709291906.211,-38.574,-28.809,-33.203,-34.668,0.000
1709291906.215,-37.598,-30.762,-32.715,-35.645,0.000
1709291906.219,-41.016,-31.250,-37.598,-43.945,0.000
1709291906.224,-43.945,-29.297,-35.156,-40.039,0.000
1709291906.228,-40.039,-32.715,-33.203,-37.598,0.000
1709291906.232,-39.062,-31.250,-33.691,-51.758,0.000
1709291906.236,-40.527,-32.715,-30.762,-53.223,0.000
1709291906.239,-26.855,-30.762,-27.832,-33.203,0.000
1709291906.243,-30.273,-29.785,-32.227,-34.180,0.000
1709291906.247,-48.828,-33.203,-35.156,-40.039,0.000
1709291906.251,-53.223,-29.297,-33.203,-32.715,0.000
1709291906.255,-51.758,-33.203,-29.297,-38.086,0.000
1709291906.259,-45.898,-32.715,-26.367,-48.340,0.000
1709291906.263,-45.898,-29.785,-21.484,-50.781,0.000
1709291906.267,-52.734,-33.691,-13.184,-51.270,0.000
1709291906.271,-49.316,-25.879,-16.602,-50.293,0.000
1709291906.275,-52.246,-29.785,-27.832,-53.223,0.000
1709291906.279,-74.707,-39.062,-28.809,-72.266,0.000
1709291906.283,-93.750,-40.039,-31.738,-95.215,0.000
1709291906.287,-108.887,-37.598,-33.203,-104.492,0.000
1709291906.291,-140.625,-45.410,-29.785,-134.277,0.000
1709291906.295,-174.316,-55.176,-36.133,-167.480,0.000
1709291906.299,-175.293,-56.641,-37.109,-172.852,0.000
1709291906.302,-187.988,-51.758,-36.621,-185.547,0.000
1709291906.306,-223.145,-52.734,-34.180,-207.031,0.000
1709291906.310,-232.422,-70.801,-21.973,-213.379,0.000
1709291906.314,-214.355,-74.707,-18.555,-206.543,0.000
1709291906.318,0.000,-64.453,-26.855,-209.961,0.000
1709291906.322,0.000,-59.082,-24.414,-208.984,0.000
1709291906.326,0.000,-58.105,-22.461,-190.918,0.000
1709291906.330,0.000,-52.246,-29.785,-193.359,0.000
1709291906.334,0.000,-45.410,-31.250,-184.082,0.000
1709291906.338,0.000,-45.898,-38.086,-157.715,0.000
1709291906.342,0.000,-43.457,-46.387,-141.602,0.000
1709291906.346,0.000,-39.551,-58.105,-135.254,0.000
1709291906.350,0.000,-35.156,-61.523,-101.562,0.000
1709291906.354,0.000,-24.414,-58.594,-69.336,0.000
1709291906.357,0.000,-20.996,-64.941,-69.824,0.000
1709291906.361,0.000,-22.949,-69.336,-49.316,0.000
1709291906.365,-17.578,-28.320,-64.453,-32.715,0.000
1709291906.369,-17.090,-30.762,-62.012,-26.855,0.000
1709291906.373,-0.977,-28.809,-71.289,-11.719,0.000
1709291906.377,16.602,-24.414,-73.730,0.000,0.000
1709291906.381,23.438,-21.973,-63.965,8.301,0.000
1709291906.385,23.438,-24.414,-60.059,14.160,0.000
1709291906.389,25.391,-19.043,-61.035,17.578,0.000
1709291906.393,27.832,-18.066,-54.688,29.785,0.000
1709291906.397,38.574,-20.020,-50.293,40.039,0.000
1709291906.401,52.246,-7.812,-58.105,35.156,0.000
1709291906.404,54.688,-11.719,-60.059,31.738,0.000
1709291906.408,52.246,-20.020,-57.129,43.945,0.000
1709291906.412,52.734,-14.160,-54.688,62.988,0.000
1709291906.416,56.641,-9.766,-54.199,54.199,0.000
1709291906.420,67.383,-10.254,-49.316,54.199,0.000
1709291906.424,75.684,-8.301,-44.434,68.359,0.000
1709291906.428,62.012,-13.672,-43.945,64.453,0.000
1709291906.432,56.152,-12.695,-44.922,59.082,0.000
1709291906.436,65.430,-6.348,-44.434,62.988,0.000
1709291906.439,71.777,-7.324,-43.945,69.824,0.000
1709291906.443,67.871,-13.184,-46.875,64.453,0.000
1709291906.447,52.246,-20.020,-43.457,49.805,0.000
1709291906.451,48.340,-14.648,-44.922,45.898,0.000
1709291906.455,52.246,-16.113,-45.410,49.316,0.000
1709291906.459,52.734,-19.531,-48.828,41.504,0.000
1709291906.463,52.734,-16.602,-47.852,38.086,0.000
1709291906.466,38.574,-16.602,-43.945,43.457,0.000
1709291906.470,28.809,-19.043,-47.363,36.621,0.000
1709291906.474,34.180,-21.484,-46.387,36.621,0.000
1709291906.478,33.203,-25.391,-44.922,44.434,0.000
1709291906.482,32.715,-23.926,-41.992,43.945,0.000
1709291906.486,27.344,-19.531,-36.133,43.457,0.000
1709291906.490,20.996,-17.578,-39.551,37.598,0.000
1709291906.494,16.602,-19.531,-37.598,28.809,0.000
1709291906.498,18.066,-18.066,-36.133,32.227,0.000
1709291906.502,23.438,-18.555,-37.109,35.645,0.000
1709291906.505,16.113,-13.184,-37.598,30.762,0.000
1709291906.509,9.766,-11.719,-37.598,30.762,0.000
1709291906.513,10.742,-22.949,-34.180,25.391,0.000
1709291906.517,13.672,-23.438,-36.133,18.555,0.000
1709291906.521,16.113,-19.531,-35.156,18.066,0.000
1709291906.525,1.953,-25.879,-36.621,6.836,0.000
1709291906.528,-12.695,-25.391,-36.621,14.648,0.000
1709291906.532,-13.672,-21.973,-35.645,11.719,0.000
1709291906.536,-8.301,-22.461,-42.480,0.977,0.000
1709291906.540,0.977,-23.438,-44.434,13.184,0.000
1709291906.544,-3.906,-27.344,-37.109,3.906,0.000
1709291906.548,-9.766,-28.809,-41.016,-3.418,0.000
1709291906.551,-10.742,-29.785,-42.480,-4.883,0.000
1709291906.555,-15.625,-36.133,-44.434,-9.766,0.000
1709291906.559,-11.230,-35.645,-42.480,-13.184,0.000
1709291906.563,-12.695,-34.180,-42.969,-16.602,0.000
1709291906.567,-22.461,-32.227,-48.340,-16.113,0.000
1709291906.571,-22.461,-35.645,-41.992,-6.836,0.000
1709291906.575,-18.555,-41.992,-40.039,0.977,0.000
1709291906.579,-16.602,-36.621,-41.504,-6.836,0.000
1709291906.583,-6.348,-32.227,-38.086,-7.324,0.000
1709291906.586,-0.977,-30.762,-32.715,-4.883,0.000
1709291906.590,-14.648,-30.273,-32.715,-6.348,0.000
1709291906.594,-22.461,-38.086,-35.156,-5.371,0.000
1709291906.599,-20.020,-39.062,-36.133,-12.207,0.000
1709291906.603,-20.508,-39.551,-40.527,-16.602,0.000
1709291906.607,-25.391,-41.504,-41.016,-14.648,0.000
1709291906.611,-28.809,-36.621,-42.969,-13.184,0.000
1709291906.615,-23.438,-38.574,-40.527,-10.742,0.000
1709291906.619,-18.066,-43.945,-39.062,-13.184,0.000
1709291906.622,-18.555,-43.945,-34.180,-18.555,0.000
1709291906.626,-18.066,-35.156,-30.273,-19.043,0.000
1709291906.630,-23.438,-28.809,-32.227,-17.578,0.000
1709291906.634,-20.508,-34.668,-26.855,-11.719,0.000
1709291906.638,-10.254,-30.273,-28.320,-9.277,0.000
1709291906.642,-10.742,-25.879,-33.691,-14.160,0.000
1709291906.646,-14.648,-27.344,-31.250,-16.113,0.000
1709291906.650,-22.949,-30.273,-25.391,-21.973,0.000
1709291906.654,-20.020,-29.297,-25.879,-16.113,0.000
1709291906.658,-8.789,-29.785,-30.273,-15.625,0.000
1709291906.662,-14.160,-35.645,-29.785,-15.625,0.000
1709291906.666,-21.484,-38.574,-28.320,-10.254,0.000
1709291906.670,-21.973,-39.062,-32.715,-20.996,0.000
1709291906.674,-24.902,-34.180,-29.785,-27.344,0.000
1709291906.678,-26.367,-33.691,-33.691,-16.602,0.000
1709291906.682,-20.508,-33.203,-43.457,-13.184,0.000
1709291906.685,-18.066,-28.320,-35.645,-19.043,0.000
1709291906.689,-20.996,-28.320,-27.832,-17.578,0.000
1709291906.694,-22.461,-29.297,-28.320,-18.555,0.000
1709291906.697,-15.625,-30.273,-31.738,-17.578,0.000
1709291906.701,-6.348,-29.297,-28.809,-20.508,0.000
1709291906.705,-11.230,-28.320,-24.902,-25.391,0.000
1709291906.709,-19.531,-33.203,-31.250,-32.227,0.000
1709291906.713,-30.762,-36.133,-34.668,-29.297,0.000
1709291906.717,-32.715,-37.598,-36.133,-26.367,0.000
1709291906.721,-21.973,-36.621,-40.039,-25.391,0.000
1709291906.725,-34.180,-35.645,-37.598,-18.555,0.000
1709291906.729,-40.039,-31.250,-33.203,-25.391,0.000
1709291906.733,-34.668,-28.809,-33.691,-32.715,0.000
1709291906.736,-29.297,-33.691,-33.203,-27.832,0.000
1709291906.740,-18.066,-36.621,-34.668,-23.926,0.000
1709291906.744,-19.531,-35.645,-34.180,-16.602,0.000
1709291906.748,-23.926,-26.367,-35.645,-16.113,0.000
1709291906.752,-19.043,-20.020,-35.156,-21.484,0.000
1709291906.756,-22.461,-27.344,-34.180,-22.949,0.000
1709291906.760,-18.066,-27.832,-33.691,-23.926,0.000
1709291906.764,-15.625,-28.809,-36.621,-29.297,0.000
1709291906.768,-26.855,-36.621,-41.016,-27.832,0.000
1709291906.772,-38.574,-36.133,-43.457,-25.391,0.000
1709291906.776,-38.574,-32.715,-43.945,-25.391,0.000
1709291906.780,-20.020,-36.621,-41.992,-19.531,0.000
1709291906.783,-14.648,-36.621,-41.992,-24.414,0.000
1709291906.787,-25.391,-33.691,-38.574,-35.645,0.000
1709291906.791,-20.020,-40.039,-36.133,-32.715,0.000
1709291906.795,-22.461,-43.945,-35.645,-28.320,0.000
1709291906.799,-27.344,-41.504,-37.598,-27.344,0.000
1709291906.803,-18.555,-38.574,-38.574,-24.902,0.000
1709291906.807,-26.855,-30.762,-35.156,-21.484,0.000
1709291906.811,-34.668,-28.809,-36.621,-20.508,0.000
1709291906.814,-28.809,-34.668,-42.480,-17.090,0.000
1709291906.818,-24.414,-32.227,-42.480,-16.602,0.000
1709291906.822,-25.879,-30.273,-38.574,-24.902,0.000
1709291906.826,-28.809,-34.180,-39.551,-34.668,0.000
1709291906.830,-33.691,-32.715,-39.062,-40.039,0.000
1709291906.834,-40.039,-41.504,-37.598,-44.434,0.000
1709291906.838,-43.457,-49.316,-40.527,-51.270,0.000
1709291906.841,-40.527,-47.852,-41.504,-48.828,0.000
1709291906.845,-37.109,-49.316,-39.551,-50.293,0.000
1709291906.849,-43.945,-47.852,-40.527,-47.852,0.000
1709291906.853,-44.922,-41.016,-37.598,-42.969,0.000
1709291906.857,-32.715,-40.527,-36.621,-45.410,0.000
1709291906.861,-26.855,-37.598,-43.945,-50.781,0.000
1709291906.865,-21.973,-29.785,-50.781,-46.387,0.000
1709291906.869,-17.090,-34.180,-41.016,-24.902,0.000
1709291906.873,-47.363,-44.922,-29.297,-39.062,0.000
1709291906.877,-71.777,-52.734,-26.367,-65.430,0.000
1709291906.880,-49.805,-52.246,-24.414,-54.688,0.000
1709291906.884,-63.477,-57.129,-17.090,-58.594,0.000
1709291906.888,-96.191,-65.918,-9.277,-70.801,0.000
1709291906.892,-88.379,-64.941,-12.207,-56.641,0.000
1709291906.896,-80.566,-63.477,-14.648,-59.570,0.000
1709291906.900,-86.426,-71.289,-16.113,-70.312,0.000
1709291906.903,-89.355,-75.684,-19.043,-61.035,0.000
1709291906.907,-85.449,-70.801,-16.113,-50.293,0.000
1709291906.911,-99.609,-84.961,-26.855,-70.801,0.000
1709291906.915,-95.703,-93.750,-31.250,-72.754,0.000
1709291906.919,-63.477,-73.730,-14.648,-47.852,0.000
1709291906.923,-57.129,-60.547,-15.137,-41.992,0.000
1709291906.926,-63.965,-61.523,-20.020,-34.668,0.000
1709291906.930,-60.059,-63.477,-23.926,-30.273,0.000
1709291906.934,-48.340,-62.012,-27.344,-32.715,0.000
1709291906.938,-46.875,-58.105,-29.297,-36.621,0.000
1709291906.942,-44.922,-54.688,-35.645,-32.715,0.000
1709291906.946,-42.969,-56.152,-32.715,-23.926,0.000
1709291906.950,-50.293,-51.758,-27.832,-24.902,0.000
1709291906.954,-51.270,-51.270,-31.738,-31.250,0.000
1709291906.957,-42.480,-55.664,-32.227,-23.926,0.000
1709291906.961,-35.156,-51.758,-27.344,-20.020,0.000
1709291906.965,-37.109,-46.875,-27.832,-20.996,0.000
1709291906.969,-46.875,-46.875,-36.133,-31.738,0.000
1709291906.974,-35.645,-44.922,-33.691,-25.879,0.000
1709291906.978,-28.809,-39.551,-32.715,-19.043,0.000
1709291906.982,-33.691,-39.551,-37.598,-29.297,0.000
1709291906.986,-30.273,-37.109,-33.203,-30.762,0.000
1709291906.990,-34.180,-38.086,-28.809,-27.344,0.000
1709291906.993,-38.086,-40.039,-26.367,-25.879,0.000
1709291906.997,-29.297,-36.621,-30.273,-22.949,0.000
1709291907.001,-20.508,-35.645,-33.203,-13.184,0.000
1709291907.005,-19.531,-31.738,-29.785,-10.254,0.000
1709291907.009,-25.391,-29.297,-31.250,-11.230,0.000
1709291907.013,-32.227,-28.809,-38.574,-13.184,0.000
1709291907.017,-27.344,-33.203,-40.039,-17.578,0.000
1709291907.021,-24.414,-35.156,-37.109,-14.648,0.000
1709291907.025,-22.949,-29.297,-33.691,-16.113,0.000
1709291907.029,-33.203,-24.902,-32.715,-21.484,0.000
1709291907.033,-35.156,-25.391,-39.062,-22.949,0.000
1709291907.037,-16.602,-27.344,-34.668,-15.625,0.000
1709291907.041,-10.254,-22.461,-28.320,-14.160,0.000
1709291907.045,-17.578,-18.555,-31.738,-22.461,0.000
1709291907.049,-19.531,-16.602,-31.250,-24.414,0.000
1709291907.053,-23.926,-25.391,-29.297,-15.625,0.000
1709291907.056,-28.320,-34.668,-31.250,-5.371,0.000
1709291907.060,-27.832,-35.645,-36.133,-16.602,0.000
1709291907.064,-22.949,-30.273,-33.203,-26.367,0.000
1709291907.068,-30.273,-22.949,-29.297,-17.578,0.000
1709291907.072,-41.992,-22.461,-32.227,-18.066,0.000
1709291907.076,-35.156,-21.484,-31.738,-27.344,0.000
1709291907.080,-26.367,-28.320,-28.320,-29.297,0.000
1709291907.084,-28.809,-31.738,-32.227,-21.973,0.000
1709291907.088,-35.156,-27.344,-36.621,-27.832,0.000
1709291907.092,-38.086,-25.879,-34.668,-34.180,0.000
1709291907.096,-28.809,-29.297,-31.250,-27.832,0.000
1709291907.100,-22.949,-32.227,-36.133,-20.020,0.000
1709291907.104,-31.738,-30.762,-43.945,-27.344,0.000
1709291907.107,-36.621,-31.738,-45.410,-37.598,0.000
1709291907.111,-33.691,-28.809,-41.992,-33.203,0.000
1709291907.115,-31.250,-29.297,-35.645,-28.809,0.000
1709291907.119,-26.855,-29.785,-32.715,-23.438,0.000
1709291907.123,-19.531,-28.320,-40.039,-31.738,0.000
1709291907.127,-21.973,-28.320,-39.062,-34.668,0.000
1709291907.131,-31.250,-30.762,-38.086,-31.738,0.000
1709291907.135,-27.832,-33.691,-39.551,-32.227,0.000
1709291907.139,-22.461,-32.715,-40.527,-30.762,0.000
1709291907.143,-12.207,-28.809,-37.109,-23.926,0.000
1709291907.147,-15.625,-29.785,-36.621,-18.066,0.000
1709291907.150,-37.109,-26.367,-40.527,-22.949,0.000
1709291907.154,-23.438,-22.949,-34.180,-16.113,0.000
1709291907.158,-18.066,-26.367,-31.738,-18.066,0.000
1709291907.164,-24.414,-31.250,-28.809,-27.344,0.000
1709291907.167,-23.438,-28.809,-23.438,-24.902,0.000
1709291907.171,-30.273,-26.367,-20.996,-19.531,0.000
1709291907.175,-32.715,-31.250,-25.391,-14.648,0.000
1709291907.179,-26.855,-35.156,-31.738,-16.602,0.000
1709291907.183,-24.902,-31.250,-27.832,-19.531,0.000
1709291907.187,-28.809,-25.391,-26.367,-19.531,0.000
1709291907.191,-33.203,-27.832,-31.250,-13.184,0.000
1709291907.195,-30.273,-31.738,-29.297,-13.184,0.000
1709291907.199,-23.926,-27.832,-28.320,-22.949,0.000
1709291907.203,-15.625,-22.949,-28.320,-20.996,0.000
1709291907.206,-12.207,-26.855,-26.367,-12.695,0.000
1709291907.210,-25.391,-30.762,-26.367,0.000,0.000
1709291907.214,-28.809,-30.762,-28.320,0.000,0.000
1709291907.218,-25.879,-29.297,-31.250,0.000,0.000
1709291907.222,-18.555,-33.203,-35.156,0.000,0.000
1709291907.226,-13.672,-38.086,-38.574,0.000,0.000
1709291907.230,-23.926,-37.598,-37.109,0.000,0.000
1709291907.233,-26.367,-39.062,-38.574,0.000,0.000
1709291907.237,-21.484,-38.086,-41.992,0.000,0.000
1709291907.241,-22.949,-37.109,-39.551,0.000,0.000
1709291907.245,-23.438,-32.715,-39.062,0.000,0.000
1709291907.249,-30.273,-32.715,-42.969,0.000,0.000
1709291907.253,-40.039,-37.598,-40.527,0.000,0.000
1709291907.256,-30.273,-29.297,-32.715,-19.531,0.000
1709291907.260,-11.230,-23.926,-31.250,-21.484,0.000
1709291907.264,-13.184,-25.879,-34.180,-25.391,0.000
1709291907.268,-27.344,-25.391,-38.574,-24.902,0.000
1709291907.272,-34.180,-29.297,-37.109,-28.809,0.000
1709291907.276,-30.273,-29.297,-35.645,-28.320,0.000
1709291907.280,-22.949,-27.832,-33.203,-21.484,0.000
1709291907.284,-23.438,-31.250,-29.297,-18.066,0.000
1709291907.288,-30.273,-28.809,-24.902,-20.996,0.000
1709291907.291,-23.438,-38.574,-24.902,-11.230,0.000
1709291907.295,-1.465,-34.668,-36.133,5.371,0.000
1709291907.299,-1.953,-19.043,-44.434,-3.418,0.000
1709291907.302,-24.414,-17.090,-42.480,-34.668,0.000
1709291907.306,-41.504,-14.160,-45.898,-44.434,0.000
1709291907.310,-41.016,-6.348,-47.852,-33.691,0.000
1709291907.314,-36.133,-8.789,-47.363,-29.297,0.000
1709291907.318,-27.832,-7.812,-51.270,-37.109,0.000
1709291907.322,-21.973,-2.930,-49.316,-39.062,0.000
1709291907.326,-15.625,-2.930,-50.781,-35.156,0.000
1709291907.330,-15.625,0.977,-50.293,-36.133,0.000
1709291907.334,-25.879,6.836,-51.758,-42.969,0.000
1709291907.338,-22.461,4.883,-56.152,-45.898,0.000
1709291907.341,-10.254,3.418,-57.617,-34.180,0.000
1709291907.345,-5.859,12.207,-55.664,-34.668,0.000
1709291907.350,0.000,18.066,-55.176,0.000,0.000
1709291907.354,0.000,19.043,-59.082,0.000,0.000
1709291907.358,0.000,21.973,-62.988,0.000,0.000
1709291907.362,0.000,23.926,-65.918,0.000,0.000
1709291907.366,0.000,13.672,-77.148,0.000,0.000
1709291907.370,0.000,18.555,-78.613,0.000,0.000
1709291907.373,0.000,39.062,-63.965,0.000,0.000
1709291907.377,0.000,33.691,-62.988,0.000,0.000
1709291907.381,0.000,31.738,-68.359,0.000,0.000
1709291907.385,0.000,35.645,-71.777,0.000,0.000
1709291907.389,0.000,35.156,-71.289,0.000,0.000
1709291907.393,0.000,29.785,-69.336,0.000,0.000
1709291907.393,-10.742,31.250,-61.523,-24.414,0.000
1709291907.397,-11.719,32.227,-56.641,-18.066,0.000
1709291907.401,-4.395,32.227,-60.059,-19.531,0.000
1709291907.405,1.953,29.297,-56.641,-22.461,0.000
1709291907.409,-13.184,24.902,-59.570,-14.648,0.000
1709291907.412,-24.902,20.996,-60.547,-16.113,0.000
1709291907.416,-6.348,21.973,-57.129,-16.602,0.000
1709291907.420,12.207,20.508,-57.129,-12.695,0.000
1709291907.424,19.043,14.160,-59.082,-6.836,0.000
1709291907.428,18.555,11.230,-59.570,-4.883,0.000
1709291907.432,19.043,18.555,-58.594,-7.812,0.000
1709291907.436,18.555,19.531,-53.711,-4.883,0.000
1709291907.441,9.277,15.137,-50.293,-11.230,0.000
1709291907.445,5.371,14.648,-53.711,-22.461,0.000
1709291907.448,0.977,16.602,-60.059,-17.090,0.000
1709291907.452,4.883,8.789,-57.129,-11.719,0.000
1709291907.456,7.324,3.418,-53.711,-13.184,0.000
1709291907.460,4.883,1.953,-56.641,-14.160,0.000
1709291907.464,0.977,-5.859,-56.152,-15.137,0.000
1709291907.468,-4.883,-6.836,-48.340,-20.508,0.000
1709291907.472,0.488,-6.348,-39.062,-7.324,0.000
1709291907.476,2.930,-10.254,-37.598,5.371,0.000
1709291907.480,0.000,-11.230,-39.062,-8.789,0.000
1709291907.484,-1.465,-10.254,-38.574,-8.789,0.000
1709291907.488,-10.254,-12.207,-37.109,-7.324,0.000
1709291907.492,-12.207,-17.090,-40.527,-11.719,0.000
1709291907.496,-11.719,-20.020,-38.086,-15.625,0.000
1709291907.500,-10.254,-21.973,-40.527,-15.137,0.000
1709291907.503,-10.742,-18.555,-39.551,-14.160,0.000
1709291907.507,-20.020,-17.578,-35.156,-15.625,0.000
1709291907.511,-16.602,-16.113,-34.668,-14.648,0.000
1709291907.515,-7.812,-17.578,-35.645,-9.766,0.000
1709291907.519,-11.230,-20.508,-37.598,-8.789,0.000
1709291907.523,-15.137,-16.602,-35.645,-15.137,0.000
1709291907.527,-20.508,-19.043,-37.109,-18.066,0.000
1709291907.531,-27.344,-23.438,-38.086,-16.602,0.000
1709291907.535,-26.367,-20.996,-37.598,-17.090,0.000
1709291907.539,-25.391,-20.020,-41.504,-24.414,0.000
1709291907.543,-25.391,-28.809,-48.340,-31.738,0.000
1709291907.547,-22.949,-28.809,-50.781,-22.461,0.000
1709291907.550,-26.367,-25.391,-49.316,-19.043,0.000
1709291907.554,-28.320,-25.879,-41.016,-20.996,0.000
1709291907.558,-17.090,-19.043,-31.250,-17.090,0.000
1709291907.562,-13.672,-17.578,-29.297,-10.742,0.000
1709291907.566,-24.414,-25.879,-34.180,-12.695,0.000
1709291907.570,-31.738,-35.156,-36.133,-19.531,0.000
1709291907.574,-36.133,-38.574,-37.109,-25.879,0.000
1709291907.578,-34.180,-36.621,-37.109,-29.785,0.000
1709291907.582,-30.762,-31.250,-36.133,-28.809,0.000
1709291907.585,-40.527,-36.133,-39.062,-29.297,0.000
1709291907.589,-37.109,-33.203,-33.691,-22.949,0.000
1709291907.593,-34.180,-26.855,-31.250,-25.391,0.000
1709291907.597,-30.273,-30.273,-32.715,-31.250,0.000
1709291907.601,-23.438,-34.668,-33.203,-25.391,0.000
1709291907.605,-44.922,-47.363,-47.363,-37.598,0.000
1709291907.609,-47.852,-40.039,-45.410,-33.691,0.000
1709291907.613,-26.367,-27.344,-31.250,-23.438,0.000
1709291907.617,-20.508,-25.879,-31.738,-22.461,0.000
1709291907.621,-29.297,-27.344,-37.598,-24.902,0.000
1709291907.625,-38.574,-28.809,-39.551,-33.691,0.000
1709291907.628,-37.598,-26.367,-38.086,-36.133,0.000
1709291907.632,-33.203,-33.691,-39.062,-34.668,0.000
1709291907.636,-29.297,-33.691,-40.527,-29.785,0.000
1709291907.640,-32.715,-32.227,-41.992,-29.785,0.000
1709291907.644,-39.551,-30.273,-37.109,-33.203,0.000
1709291907.648,-40.527,-27.832,-33.203,-30.273,0.000
1709291907.652,-39.551,-34.668,-37.598,-22.461,0.000
1709291907.655,-41.016,-35.156,-38.086,-20.020,0.000
1709291907.659,-34.668,-32.227,-35.645,-26.367,0.000
1709291907.663,-32.715,-36.133,-38.086,-26.855,0.000
1709291907.667,-41.504,-34.668,-40.527,-22.461,0.000
1709291907.671,-46.387,-32.227,-37.598,-26.855,0.000
1709291907.674,-39.551,-35.645,-35.156,-29.297,0.000
1709291907.678,-29.785,-32.227,-32.227,-24.414,0.000
1709291907.682,-28.320,-27.832,-40.527,-30.273,0.000
1709291907.686,-32.227,-30.273,-42.969,-31.250,0.000
1709291907.690,-30.762,-25.391,-32.227,-20.508,0.000
1709291907.694,-17.090,-24.414,-35.156,-18.066,0.000
1709291907.698,-26.367,-36.621,-49.316,-31.250,0.000
1709291907.702,-32.715,-31.738,-43.457,-31.738,0.000
1709291907.706,-21.973,-23.926,-32.227,-24.414,0.000
1709291907.710,-27.832,-30.273,-31.738,-17.578,0.000
1709291907.714,-23.926,-27.344,-34.180,-15.137,0.000
1709291907.717,-19.043,-25.879,-35.156,-20.020,0.000
1709291907.722,-13.672,-27.832,-28.809,-13.672,0.000
1709291907.726,-19.043,-29.297,-30.762,-14.160,0.000
1709291907.730,-36.621,-27.832,-38.574,-21.484,0.000
1709291907.734,-39.551,-34.668,-40.039,-30.273,0.000
1709291907.738,-35.156,-49.316,-43.457,-36.133,0.000
1709291907.742,-17.090,-37.598,-38.574,-20.996,0.000
1709291907.746,-17.578,-25.879,-28.320,-16.602,0.000
1709291907.750,-32.715,-31.250,-30.762,-30.762,0.000
1709291907.754,-25.391,-34.180,-30.762,-31.250,0.000
1709291907.757,-26.855,-34.668,-29.297,-28.320,0.000
1709291907.761,-26.855,-35.645,-34.180,-29.297,0.000
1709291907.765,-26.367,-36.133,-38.574,-37.109,0.000
1709291907.770,-36.133,-34.180,-32.715,-29.297,0.000
1709291907.774,-37.109,-31.738,-30.273,-25.391,0.000
1709291907.778,-32.715,-30.762,-35.156,-31.250,0.000
1709291907.782,-33.691,-30.762,-35.645,-25.879,0.000
1709291907.785,-38.574,-31.250,-34.668,-20.996,0.000
1709291907.789,-37.598,-33.203,-32.715,-34.180,0.000
1709291907.793,-34.668,-36.621,-40.039,-43.457,0.000
1709291907.797,-37.109,-34.668,-41.504,-40.527,0.000
1709291907.801,-24.902,-34.668,-32.715,-35.645,0.000
1709291907.805,-29.785,-34.668,-34.668,-29.297,0.000
1709291907.809,-46.875,-35.156,-37.109,-33.203,0.000
1709291907.813,-39.062,-38.574,-35.156,-32.715,0.000
1709291907.817,-32.715,-41.992,-37.598,-29.785,0.000
1709291907.821,-20.020,-44.434,-37.109,-27.832,0.000
1709291907.825,-27.832,-41.016,-34.180,-23.438,0.000
1709291907.829,-42.480,-41.504,-37.598,-23.926,0.000
1709291907.833,-39.551,-42.480,-41.504,-31.250,0.000
1709291907.837,-38.574,-48.340,-43.945,-32.715,0.000
1709291907.841,-32.227,-49.805,-40.527,-27.832,0.000
1709291907.844,-32.715,-42.969,-34.668,-28.320,0.000
1709291907.848,-34.668,-41.504,-34.180,-21.973,0.000
1709291907.852,-34.668,-39.062,-34.180,-18.555,0.000
1709291907.856,-25.391,-40.039,-40.527,-26.367,0.000
1709291907.860,-18.555,-39.062,-44.922,-31.250,0.000
1709291907.864,-20.996,-39.551,-45.410,-33.203,0.000
1709291907.868,-30.273,-38.086,-38.086,-20.020,0.000
1709291907.872,-36.621,-32.227,-33.691,-19.531,0.000
1709291907.876,-35.645,-41.016,-37.109,-30.273,0.000
1709291907.880,-27.832,-44.434,-39.062,-24.414,0.000
1709291907.884,-20.508,-37.109,-38.574,-16.602,0.000
1709291907.888,-22.461,-33.691,-34.668,-20.996,0.000
1709291907.892,-27.344,-30.273,-31.250,-20.020,0.000
1709291907.895,-25.391,-32.227,-33.691,-19.043,0.000
1709291907.899,-14.648,-35.156,-36.133,-28.809,0.000
1709291907.903,-13.184,-30.762,-36.133,-24.902,0.000
1709291907.907,-25.879,-27.344,-37.598,-25.879,0.000
1709291907.911,-29.297,-34.668,-36.133,-27.344,0.000
1709291907.915,-28.809,-36.621,-37.109,-27.832,0.000
1709291907.919,-27.832,-40.039,-39.551,-29.297,0.000
1709291907.923,-26.855,-40.039,-31.250,-25.391,0.000
1709291907.927,-33.203,-39.551,-32.715,-25.879,0.000
1709291907.931,-35.156,-42.969,-34.180,-25.391,0.000
1709291907.934,-35.645,-39.062,-29.785,-25.879,0.000
1709291907.938,-27.344,-34.668,-30.762,-26.367,0.000
1709291907.942,-25.391,-35.156,-37.109,-36.621,0.000
1709291907.946,-39.062,-42.969,-42.480,-48.340,0.000
1709291907.950,-42.480,-45.898,-43.945,-46.387,0.000
1709291907.954,-35.645,-39.551,-39.551,-43.457,0.000
1709291907.958,-33.691,-41.016,-41.504,-44.922,0.000
1709291907.962,-39.551,-41.992,-41.016,-46.387,0.000
1709291907.965,-45.410,-39.551,-35.156,-37.109,0.000
1709291907.969,-45.898,-35.645,-32.715,-33.203,0.000
1709291907.973,-41.992,-36.133,-37.109,-31.250,0.000
1709291907.977,-39.551,-40.527,-38.086,-32.227,0.000
1709291907.981,-26.855,-37.598,-33.691,-28.809,0.000
1709291907.985,-25.879,-31.738,-36.621,-21.973,0.000
1709291907.989,-34.180,-30.273,-38.086,-26.367,0.000
1709291907.993,-36.621,-28.809,-42.969,-31.738,0.000
1709291907.997,-31.738,-29.297,-45.898,-29.297,0.000
1709291908.001,-35.156,-36.621,-46.875,-36.621,0.000
1709291908.004,-42.969,-37.109,-43.457,-39.062,0.000
1709291908.008,-34.668,-28.809,-40.527,-36.621,0.000
1709291908.012,-31.738,-28.809,-39.551,-36.621,0.000
1709291908.016,-30.273,-34.180,-39.062,-33.203,0.000
1709291908.020,-28.809,-34.180,-35.645,-34.668,0.000
1709291908.024,-31.738,-33.691,-29.785,-32.227,0.000
1709291908.028,-38.574,-38.574,-34.180,-29.297,0.000
1709291908.031,-37.109,-39.062,-42.969,-32.715,0.000
1709291908.035,-31.250,-35.156,-41.016,-42.480,0.000
1709291908.039,-28.320,-35.645,-35.645,-41.504,0.000
1709291908.043,-25.391,-35.645,-35.645,-36.133,0.000
1709291908.047,-29.785,-33.203,-39.551,-36.621,0.000
1709291908.050,-36.133,-34.180,-41.504,-37.598,0.000
1709291908.054,-33.691,-32.715,-37.598,-32.715,0.000
1709291908.058,-32.227,-30.762,-38.086,-27.344,0.000
1709291908.062,-29.785,-31.738,-37.109,-26.367,0.000
1709291908.066,-35.645,-34.668,-35.645,-26.855,0.000
1709291908.070,-43.945,-28.320,-36.133,-22.949,0.000
1709291908.074,-38.574,-22.949,-39.551,-20.996,0.000
1709291908.078,-33.203,-31.250,-43.945,-25.879,0.000
1709291908.082,-26.855,-30.273,-44.434,-23.438,0.000
1709291908.086,-27.344,-24.414,-41.992,-22.461,0.000
1709291908.090,-33.203,-23.438,-39.062,-27.344,0.000
1709291908.093,-27.832,-25.391,-40.527,-28.320,0.000
1709291908.098,-22.949,-31.738,-39.062,-27.344,0.000
1709291908.102,-25.391,-34.180,-39.551,-29.297,0.000
1709291908.106,-30.762,-32.227,-38.086,-33.203,0.000
1709291908.110,-36.133,-34.180,-33.203,-31.738,0.000
1709291908.114,-37.109,-36.133,-34.668,-30.762,0.000
1709291908.118,-34.180,-35.156,-33.691,-22.949,0.000
1709291908.122,-31.250,-33.691,-33.203,-25.391,0.000
1709291908.126,-41.504,-36.621,-40.039,-36.133,0.000
1709291908.129,-44.434,-36.621,-42.480,-35.156,0.000
1709291908.133,-29.785,-31.250,-38.086,-20.508,0.000
1709291908.137,-19.043,-27.832,-35.156,-15.137,0.000
1709291908.141,-12.207,-24.902,-33.203,-20.508,0.000
1709291908.146,-21.973,-27.832,-32.227,-21.973,0.000
1709291908.150,-28.320,-31.738,-34.180,-25.879,0.000
1709291908.153,-32.715,-25.391,-35.156,-21.973,0.000
1709291908.157,-31.738,-24.902,-36.133,-19.531,0.000
1709291908.161,-22.949,-28.320,-38.574,-27.832,0.000
1709291908.165,-29.785,-30.762,-35.156,-33.691,0.000
1709291908.169,-37.598,-33.203,-30.273,-30.762,0.000
1709291908.173,-40.039,-33.691,-33.203,-34.668,0.000
1709291908.177,-38.086,-32.715,-35.645,-32.715,0.000
1709291908.181,-33.691,-30.273,-26.367,-20.996,0.000
1709291908.185,-36.133,-28.320,-30.762,-29.297,0.000
1709291908.189,-47.363,-28.809,-37.109,-35.156,0.000
1709291908.193,-43.945,-30.273,-34.180,-24.902,0.000
1709291908.197,-32.715,-30.762,-35.645,-34.180,0.000
1709291908.201,-23.926,-29.785,-34.668,-37.598,0.000
1709291908.205,-19.043,-29.297,-36.133,-30.273,0.000
1709291908.208,-31.738,-34.180,-41.504,-36.621,0.000
1709291908.212,-31.738,-37.598,-40.039,-33.203,0.000
1709291908.216,-28.320,-35.645,-36.133,-28.320,0.000
1709291908.220,-29.785,-34.180,-38.574,-26.855,0.000
1709291908.224,-24.902,-34.668,-34.180,-21.973,0.000
1709291908.228,-34.668,-33.203,-30.762,-20.996,0.000
1709291908.232,-45.410,-38.086,-38.574,-21.484,0.000
1709291908.236,-42.969,-41.992,-41.992,-29.297,0.000
1709291908.240,-34.668,-36.133,-36.621,-37.109,0.000
1709291908.244,-33.203,-27.344,-33.203,-35.645,0.000
1709291908.248,-29.785,-30.273,-29.297,-25.391,0.000
1709291908.252,-33.203,-35.645,-23.438,-18.555,0.000
1709291908.255,-34.180,-31.250,-26.855,-21.484,0.000
1709291908.259,-20.996,-31.250,-25.391,-20.020,0.000
1709291908.263,-22.949,-35.645,-25.879,-26.367,0.000
1709291908.267,-30.273,-38.574,-29.785,-32.715,0.000
1709291908.271,-32.715,-39.551,-31.738,-30.762,0.000
1709291908.275,-40.527,-38.574,-35.645,-31.738,0.000
1709291908.279,-38.574,-36.621,-33.691,-30.762,0.000
1709291908.283,-32.227,-34.668,-31.738,-30.762,0.000
1709291908.287,-40.039,-37.109,-32.715,-37.598,0.000
1709291908.290,-53.223,-36.133,-36.621,-38.574,0.000
1709291908.294,-47.852,-35.645,-35.645,-36.621,0.000
1709291908.298,-34.180,-38.086,-28.320,-35.156,0.000
1709291908.302,-31.250,-39.551,-27.832,-27.832,0.000
1709291908.306,-34.180,-35.156,-26.855,-21.973,0.000
1709291908.310,-35.156,-32.715,-26.855,-24.902,0.000
1709291908.314,-36.133,-32.227,-28.320,-21.973,0.000
1709291908.318,-30.762,-27.832,-32.715,-22.949,0.000
1709291908.322,-30.273,-28.809,-39.551,-26.855,0.000
1709291908.326,-32.227,-35.645,-38.086,-24.414,0.000
1709291908.330,-38.086,-36.621,-38.574,-28.320,0.000
1709291908.333,-45.410,-30.762,-35.156,-36.133,0.000
1709291908.337,-34.180,-27.344,-26.367,-32.715,0.000
1709291908.341,-30.762,-31.250,-27.832,-28.809,0.000
1709291908.345,-39.551,-34.668,-33.691,-30.762,0.000
1709291908.349,-40.527,-30.762,-36.133,-37.598,0.000
1709291908.353,-36.133,-27.344,-32.227,-38.574,0.000
1709291908.357,-29.785,-30.762,-29.785,-30.273,0.000
1709291908.360,-22.461,-27.344,-29.785,-28.320,0.000
1709291908.364,-25.879,-24.902,-33.691,-38.086,0.000
1709291908.368,-31.250,-30.762,-37.109,-37.109,0.000
1709291908.372,-39.062,-33.203,-36.621,-30.762,0.000
1709291908.376,-41.504,-33.203,-36.133,-38.086,0.000
1709291908.380,-30.273,-30.273,-36.133,-38.086,0.000
1709291908.383,-36.133,-26.367,-33.691,-33.203,0.000
1709291908.387,-42.480,-24.902,-33.691,-38.086,0.000
1709291908.391,-39.062,-29.297,-37.109,-35.645,0.000
1709291908.395,-33.203,-31.738,-32.715,-27.344,0.000
1709291908.399,-26.855,-29.297,-34.668,-21.484,0.000
1709291908.403,-27.832,-28.320,-46.875,-25.879,0.000
1709291908.407,-29.297,-30.273,-48.340,-27.344,0.000
1709291908.411,-37.598,-24.902,-42.969,-25.391,0.000
1709291908.415,-34.668,-23.926,-45.898,-30.273,0.000
1709291908.419,-26.855,-33.203,-45.410,-32.715,0.000
1709291908.423,-25.391,-32.227,-44.434,-29.297,0.000
1709291908.426,-29.297,-30.273,-46.387,-32.715,0.000
1709291908.430,-28.809,-31.738,-46.387,-29.785,0.000
1709291908.434,-27.344,-29.785,-44.434,-23.926,0.000
1709291908.437,-27.344,-30.762,-39.551,-24.414,0.000
1709291908.441,-19.531,-33.203,-39.062,-26.855,0.000
1709291908.445,-24.902,-32.715,-38.574,-31.738,0.000
1709291908.449,-34.668,-31.738,-38.574,-31.738,0.000
1709291908.453,-28.320,-29.785,-40.527,-28.809,0.000
1709291908.457,-20.508,-28.809,-34.180,-26.367,0.000
1709291908.461,-16.113,-26.855,-33.203,-22.949,0.000
1709291908.465,-22.461,-32.227,-43.945,-36.133,0.000
1709291908.469,-36.133,-32.715,-51.270,-44.434,0.000
1709291908.474,-37.598,-29.297,-41.504,-30.273,0.000
1709291908.478,-34.668,-31.250,-41.992,-33.691,0.000
1709291908.481,-26.367,-32.715,-53.223,-41.016,0.000
1709291908.485,-28.320,-34.668,-48.828,-43.945,0.000
1709291908.489,-38.086,-32.715,-42.969,-44.922,0.000
1709291908.493,-38.574,-32.715,-38.086,-36.133,0.000
1709291908.497,-29.297,-29.785,-32.715,-28.320,0.000
1709291908.501,-20.020,-21.973,-31.250,-23.926,0.000
1709291908.505,-20.020,-24.414,-28.809,-18.066,0.000
1709291908.509,-32.715,-32.227,-35.156,-26.367,0.000
1709291908.513,-40.039,-37.109,-39.062,-33.203,0.000
1709291908.517,-34.180,-36.133,-34.668,-27.832,0.000
1709291908.521,-34.668,-32.227,-34.668,-30.273,0.000
1709291908.525,-33.691,-31.250,-37.598,-30.762,0.000
1709291908.529,-31.738,-26.855,-40.039,-24.902,0.000
1709291908.533,-35.156,-20.508,-36.621,-22.461,0.000
1709291908.537,-28.809,-17.090,-33.691,-26.855,0.000
1709291908.541,-25.391,-18.555,-32.715,-22.461,0.000
1709291908.545,-37.109,-21.484,-33.691,-28.809,0.000
1709291908.548,-39.551,-17.578,-30.762,-32.227,0.000
1709291908.552,-34.668,-11.719,-27.832,-14.160,0.000
1709291908.556,-26.367,-15.625,-31.738,-6.836,0.000
1709291908.560,-25.879,-20.020,-36.621,-23.926,0.000
1709291908.564,-30.273,-21.484,-39.551,-35.156,0.000
1709291908.568,0.000,-18.555,-39.062,-34.668,0.000
1709291908.572,0.000,-13.672,-36.133,-40.039,0.000
1709291908.576,0.000,-20.508,-33.203,-38.086,0.000
1709291908.580,0.000,-24.902,-38.086,-35.645,0.000
1709291908.584,0.000,-23.926,-39.551,-36.133,0.000
1709291908.588,0.000,-23.926,-36.621,-43.457,0.000
1709291908.592,0.000,-22.461,-39.062,-41.992,0.000
1709291908.596,0.000,-26.855,-39.062,-40.527,0.000
1709291908.599,0.000,-33.203,-38.574,-36.133,0.000
1709291908.603,0.000,-30.762,-37.109,-31.250,0.000
1709291908.607,0.000,-27.344,-36.621,-36.133,0.000
1709291908.611,0.000,-26.367,-33.691,-30.762,0.000
1709291908.615,-41.992,-27.344,-28.809,-29.785,0.000
1709291908.619,-34.668,-26.855,-27.832,-32.227,0.000
1709291908.623,-32.715,-19.531,-30.273,-29.785,0.000
1709291908.627,-36.133,-22.461,-37.109,-31.738,0.000
1709291908.631,-40.039,-31.250,-39.062,-36.621,0.000
1709291908.635,-37.109,-31.738,-34.180,-29.785,0.000
1709291908.639,-35.156,-30.273,-33.203,-22.461,0.000
1709291908.642,-30.273,-31.250,-33.203,-19.043,0.000
1709291908.646,-22.949,-27.344,-36.621,-18.555,0.000
1709291908.650,-26.367,-19.043,-39.062,-30.273,0.000
1709291908.654,-38.574,-21.973,-37.109,-40.039,0.000
1709291908.658,-30.273,-27.344,-38.574,-34.180,0.000
1709291908.662,-19.531,-20.996,-35.156,-26.367,0.000
1709291908.666,-24.902,-19.531,-32.227,-30.273,0.000
1709291908.670,-29.785,-26.855,-31.250,-30.762,0.000
1709291908.674,-28.320,-29.297,-28.809,-17.090,0.000
1709291908.677,-23.438,-28.809,-31.250,-17.578,0.000
1709291908.681,-26.367,-29.785,-37.109,-26.855,0.000
1709291908.685,-31.250,-29.297,-36.133,-32.227,0.000
1709291908.689,-38.086,-26.367,-32.227,-13.184,0.000
1709291908.693,-37.598,-21.973,-33.691,-5.859,0.000
1709291908.697,-27.344,-26.855,-32.227,-18.555,0.000
1709291908.701,-21.484,-29.785,-35.645,-20.996,0.000
1709291908.705,-31.250,-33.203,-43.457,-31.250,0.000
1709291908.708,-41.992,-41.504,-42.969,-37.598,0.000
1709291908.712,-41.992,-42.969,-43.457,-32.715,0.000
1709291908.716,-35.156,-38.086,-43.457,-28.809,0.000
1709291908.720,-32.715,-38.574,-40.039,-30.273,0.000
1709291908.724,-38.574,-41.992,-41.016,-32.715,0.000
1709291908.728,-37.598,-38.574,-37.109,-30.762,0.000
1709291908.732,-37.598,-32.715,-35.156,-23.438,0.000
1709291908.736,-39.551,-32.227,-32.227,-19.043,0.000
1709291908.740,-36.133,-31.738,-34.180,-28.320,0.000
1709291908.743,-24.414,-27.832,-38.574,-25.391,0.000
1709291908.747,-29.297,-31.738,-38.086,-26.367,0.000
1709291908.751,-47.852,-36.621,-39.551,-36.621,0.000
1709291908.755,-41.992,-33.691,-35.645,-33.691,0.000
1709291908.759,-34.668,-31.250,-31.250,-29.297,0.000
1709291908.763,-36.133,-30.762,-32.715,-31.738,0.000
1709291908.766,-32.715,-28.809,-37.109,-26.367,0.000
1709291908.770,-35.156,-32.227,-41.992,-27.344,0.000
1709291908.774,-26.367,-31.250,-39.062,-33.203,0.000
1709291908.778,-21.973,-29.297,-32.227,-27.832,0.000
1709291908.782,-21.484,-26.367,-33.203,-24.414,0.000
1709291908.786,-18.066,-22.949,-35.156,-28.320,0.000
1709291908.790,-29.297,-27.344,-36.133,-26.855,0.000
1709291908.794,-27.832,-27.344,-32.715,-21.973,0.000
1709291908.798,-24.414,-25.391,-33.691,-16.602,0.000
1709291908.801,-30.762,-23.926,-32.227,-20.996,0.000
1709291908.805,-24.414,-22.461,-28.320,-26.367,0.000
1709291908.809,-25.879,-28.809,-33.203,-24.902,0.000
1709291908.813,-26.855,-26.367,-31.250,-17.578,0.000
1709291908.817,-17.090,-22.949,-33.203,-14.160,0.000
1709291908.821,-7.324,-29.297,-37.109,-17.578,0.000
1709291908.824,-13.184,-24.414,-28.320,-15.625,0.000
1709291908.828,-30.762,-13.184,-25.879,-15.137,0.000
1709291908.832,-27.344,-14.648,-25.879,-15.137,0.000
1709291908.836,-21.973,-21.484,-27.344,-14.160,0.000
1709291908.840,-20.508,-20.508,-29.785,-20.020,0.000
1709291908.844,-14.160,-20.020,-32.227,-32.715,0.000
1709291908.849,-23.438,-24.414,-32.227,-33.203,0.000
1709291908.853,-29.785,-26.855,-30.273,-27.344,0.000
1709291908.856,-29.785,-26.367,-34.668,-34.668,0.000
1709291908.860,-32.227,-21.484,-37.109,-39.551,0.000
1709291908.864,-33.691,-28.320,-35.645,-34.668,0.000
1709291908.868,-36.133,-29.785,-35.645,-29.297,0.000
1709291908.872,-30.762,-23.438,-33.691,-16.602,0.000
1709291908.876,-24.414,-22.949,-30.273,-12.695,0.000
1709291908.880,-23.926,-24.902,-31.738,-20.996,0.000
1709291908.884,-30.762,-26.855,-33.203,-23.926,0.000
1709291908.888,-39.551,-30.273,-33.203,-32.227,0.000
1709291908.892,-47.363,-27.344,-35.156,-35.156,0.000
1709291908.896,-40.039,-31.738,-32.227,-30.273,0.000
1709291908.900,-37.109,-35.156,-31.738,-34.668,0.000
1709291908.904,-37.598,-34.180,-33.203,-33.691,0.000
1709291908.908,-40.039,-34.180,-31.738,-31.250,0.000
1709291908.912,-44.922,-34.668,-39.062,-28.809,0.000
1709291908.916,-40.527,-40.039,-40.527,-31.738,0.000
1709291908.919,-38.086,-41.016,-35.156,-40.039,0.000
1709291908.923,-37.109,-41.016,-38.086,-37.598,0.000
1709291908.927,-40.039,-37.598,-36.621,-30.273,0.000
1709291908.931,-44.922,-31.738,-33.203,-30.273,0.000
1709291908.935,-38.574,-34.180,-38.086,-42.969,0.000
1709291908.939,-33.691,-38.574,-40.527,-43.945,0.000
1709291908.943,-37.109,-39.062,-39.062,-35.645,0.000
1709291908.947,-32.715,-38.086,-41.016,-38.086,0.000
1709291908.951,-35.645,-37.598,-43.457,-39.551,0.000
1709291908.955,-34.180,-38.086,-41.016,-30.762,0.000
1709291908.959,-20.996,-37.598,-39.062,-32.227,0.000
1709291908.963,-19.531,-39.062,-40.039,-32.227,0.000
1709291908.967,-26.855,-35.645,-38.574,-29.785,0.000
1709291908.970,-36.133,-35.156,-37.109,-37.598,0.000
1709291908.974,-35.645,-33.203,-37.109,-29.297,0.000
1709291908.978,-34.180,-31.738,-48.340,-25.879,0.000
1709291908.982,-29.297,-37.109,-50.781,-43.457,0.000
1709291908.986,-28.809,-37.109,-40.527,-42.480,0.000
1709291908.990,-26.367,-33.203,-38.086,-32.227,0.000
1709291908.994,-27.832,-33.691,-35.156,-32.715,0.000
1709291908.998,-28.320,-32.715,-36.621,-31.738,0.000
1709291909.002,-17.578,-30.762,-34.668,-28.809,0.000
1709291909.006,-11.230,-28.809,-37.109,-20.508,0.000
1709291909.010,-16.113,-27.344,-41.016,-20.508,0.000
1709291909.014,-25.391,-33.691,-36.621,-30.273,0.000
1709291909.017,-17.578,-32.227,-33.203,-22.461,0.000
1709291909.021,-12.695,-27.832,-32.715,-6.836,0.000
1709291909.025,-22.949,-28.320,-36.621,-15.625,0.000
1709291909.029,-31.738,-27.344,-36.621,-21.973,0.000
1709291909.033,-42.480,-28.809,-35.645,-28.809,0.000
1709291909.037,-33.691,-28.809,-34.180,-26.855,0.000
1709291909.041,-20.996,-25.879,-28.809,-23.438,0.000
1709291909.045,-25.879,-27.344,-32.227,-26.367,0.000
1709291909.049,-31.250,-30.273,-34.180,-25.391,0.000
1709291909.053,-34.180,-28.320,-34.180,-24.902,0.000
1709291909.057,-30.273,-31.250,-31.738,-27.344,0.000
1709291909.061,-29.297,-31.250,-30.762,-26.367,0.000
1709291909.065,-29.785,-30.273,-34.668,-17.090,0.000
1709291909.068,-36.133,-26.855,-37.109,-23.926,0.000
1709291909.072,-39.062,-22.461,-33.203,-36.133,0.000
1709291909.076,-25.391,-29.297,-32.715,-30.762,0.000
1709291909.080,-16.113,-29.297,-33.203,-20.996,0.000
1709291909.084,-15.137,-26.855,-31.250,-20.996,0.000
1709291909.088,-18.066,-23.926,-33.691,-29.785,0.000
1709291909.091,-23.926,-20.996,-36.621,-35.645,0.000
1709291909.095,-30.762,-20.996,-37.598,-31.738,0.000
1709291909.099,-31.250,-23.926,-41.016,-20.020,0.000
1709291909.103,-33.203,-33.691,-40.527,-32.715,0.000
1709291909.107,-38.574,-37.109,-36.621,-40.527,0.000
1709291909.111,-40.527,-33.203,-38.086,-31.250,0.000
1709291909.115,-43.945,-34.668,-41.992,-38.574,0.000
1709291909.119,-35.156,-35.645,-37.109,-36.133,0.000
1709291909.123,-26.855,-34.668,-34.180,-27.832,0.000
1709291909.127,-30.273,-33.203,-37.598,-27.832,0.000
1709291909.130,-32.715,-31.250,-39.551,-30.762,0.000
1709291909.134,-30.273,-25.391,-38.574,-25.879,0.000
1709291909.138,-24.902,-21.973,-34.180,-18.555,0.000
1709291909.142,-21.973,-26.855,-34.668,-15.625,0.000
1709291909.146,-17.578,-30.762,-33.691,-18.066,0.000
1709291909.150,-25.879,-35.156,-33.203,-30.273,0.000
1709291909.154,-35.156,-37.109,-37.598,-23.926,0.000
1709291909.157,-23.438,-33.691,-40.039,-9.277,0.000
1709291909.161,-19.531,-28.809,-44.434,-24.902,0.000
1709291909.165,-28.809,-32.227,-45.410,-31.738,0.000
1709291909.169,-37.109,-35.156,-47.363,-23.438,0.000
1709291909.173,-33.691,-32.715,-45.898,-22.461,0.000
1709291909.176,-26.367,-32.227,-40.527,-20.996,0.000
1709291909.180,-18.555,-35.645,-36.133,-11.719,0.000
1709291909.184,-20.020,-34.180,-33.203,-20.020,0.000
1709291909.188,-26.855,-25.879,-37.598,-37.598,0.000
1709291909.192,-31.250,-27.344,-41.504,-37.109,0.000
1709291909.196,-29.785,-33.691,-38.574,-25.879,0.000
1709291909.200,-15.625,-32.715,-33.691,-20.020,0.000
1709291909.204,-12.695,-31.250,-34.180,-23.438,0.000
1709291909.208,-22.949,-33.203,-33.203,-26.367,0.000
1709291909.211,-31.250,-32.715,-30.273,-23.926,0.000
1709291909.215,-28.320,-29.785,-31.738,-20.020,0.000
1709291909.219,-14.648,-28.320,-37.109,-13.672,0.000
1709291909.224,-9.277,-33.203,-41.504,-11.230,0.000
1709291909.228,-22.949,-35.156,-39.551,-20.996,0.000
1709291909.232,-34.180,-34.180,-41.016,-29.785,0.000
1709291909.236,-28.809,-36.133,-43.457,-30.273,0.000
1709291909.240,-25.879,-40.039,-41.016,-29.297,0.000
1709291909.243,-30.273,-43.457,-40.039,-31.738,0.000
1709291909.247,-28.809,-33.203,-39.551,-32.715,0.000
1709291909.251,-29.297,-26.367,-35.156,-32.227,0.000
1709291909.255,-33.691,-31.250,-30.762,-35.645,0.000
1709291909.259,-25.391,-34.180,-30.762,-27.832,0.000
1709291909.263,-22.949,-31.250,-37.598,-24.414,0.000
1709291909.267,-31.250,-33.203,-40.039,-34.180,0.000
1709291909.271,-36.621,-35.645,-39.551,-45.898,0.000
1709291909.275,-43.457,-41.016,-44.434,-46.875,0.000
1709291909.279,-37.109,-38.574,-39.551,-33.203,0.000
1709291909.283,-27.832,-30.762,-32.715,-28.809,0.000
1709291909.287,-36.621,-35.156,-34.668,-33.691,0.000
1709291909.291,-41.016,-33.203,-29.785,-30.762,0.000
1709291909.295,-42.480,-25.879,-30.762,-31.738,0.000
1709291909.299,-38.574,-24.902,-36.621,-36.133,0.000
1709291909.303,-34.180,-28.809,-33.203,-31.250,0.000
1709291909.306,-36.621,-33.691,-32.227,-22.949,0.000
1709291909.310,-37.598,-31.250,-35.156,-28.809,0.000
1709291909.314,-38.086,-28.809,-39.062,-27.344,0.000
1709291909.318,-28.320,-28.320,-37.598,-20.508,0.000
1709291909.322,-26.855,-29.297,-32.715,-22.461,0.000
1709291909.326,-36.133,-29.785,-32.227,-33.203,0.000
1709291909.330,-34.180,-27.832,-31.738,-39.551,0.000
1709291909.334,-28.809,-30.273,-32.227,-31.738,0.000
1709291909.338,-29.785,-31.738,-34.668,-27.832,0.000
1709291909.342,-25.879,-29.785,-35.156,-23.438,0.000
1709291909.346,-20.508,-31.250,-32.227,-26.367,0.000
1709291909.350,-31.250,-32.227,-30.273,-15.625,0.000
1709291909.354,-38.086,-29.297,-35.645,-19.043,0.000
1709291909.358,-27.832,-22.461,-33.203,-24.902,0.000
1709291909.361,-23.438,-24.902,-30.762,-11.719,0.000
1709291909.365,-28.320,-31.250,-32.715,-19.043,0.000
1709291909.369,-33.203,-27.344,-32.227,-16.113,0.000
1709291909.373,-38.574,-28.809,-33.203,-19.043,0.000
1709291909.377,-33.203,-29.297,-32.227,-24.414,0.000
1709291909.381,-27.832,-25.391,-34.668,-19.531,0.000
1709291909.385,-26.367,-25.879,-40.527,-27.832,0.000
1709291909.389,-20.996,-24.902,-39.551,-31.738,0.000
1709291909.393,-29.785,-27.832,-37.598,-27.344,0.000
1709291909.397,-37.598,-30.273,-40.039,-16.602,0.000
1709291909.401,-29.297,-25.879,-45.410,-20.996,0.000
1709291909.404,-33.203,-25.879,-42.969,-36.133,0.000
1709291909.408,-40.039,-24.902,-41.504,-34.668,0.000
1709291909.412,-36.133,-28.809,-42.969,-33.691,0.000
1709291909.416,-35.645,-37.109,-38.086,-30.762,0.000
1709291909.420,-34.668,-34.180,-37.109,-26.855,0.000
1709291909.424,-28.320,-29.785,-36.621,-35.156,0.000
1709291909.428,-33.203,-25.391,-42.480,-40.039,0.000
1709291909.432,-39.551,-25.879,-46.875,-41.992,0.000
1709291909.435,-29.785,-26.855,-42.480,-39.062,0.000
1709291909.439,-25.391,-26.367,-41.992,-25.391,0.000
1709291909.443,-26.855,-28.320,-39.062,-19.531,0.000
1709291909.447,-34.668,-29.297,-42.480,-30.762,0.000
1709291909.451,-40.527,-33.691,-46.387,-33.203,0.000
1709291909.455,-42.969,-36.133,-39.551,-29.785,0.000
1709291909.459,-40.039,-36.621,-40.039,-26.855,0.000
1709291909.462,-32.227,-35.645,-46.387,-25.879,0.000
1709291909.466,-38.574,-38.086,-50.293,-31.738,0.000
1709291909.470,-40.527,-35.156,-48.340,-35.156,0.000
1709291909.474,-37.109,-35.156,-50.293,-36.621,0.000
1709291909.478,-27.832,-37.109,-47.363,-33.691,0.000
1709291909.482,-25.391,-36.133,-46.875,-31.250,0.000
1709291909.486,-35.156,-37.598,-45.898,-27.344,0.000
1709291909.490,-37.109,-36.133,-40.039,-28.809,0.000
1709291909.494,-30.273,-31.738,-38.086,-29.785,0.000
1709291909.498,-21.973,-31.738,-39.551,-24.902,0.000
1709291909.502,-23.926,-35.156,-43.457,-28.809,0.000
1709291909.505,-30.762,-37.598,-50.293,-40.527,0.000
1709291909.509,-28.320,-33.691,-50.781,-35.156,0.000
1709291909.513,-31.250,-29.785,-45.410,-27.344,0.000
1709291909.517,-32.715,-31.738,-43.945,-27.344,0.000
1709291909.521,-25.391,-32.715,-40.527,-22.949,0.000
1709291909.525,-27.832,-33.691,-39.551,-27.832,0.000
1709291909.529,-39.062,-37.109,-43.457,-22.461,0.000
1709291909.532,-44.922,-38.086,-41.992,-22.461,0.000
1709291909.536,-33.203,-34.668,-38.086,-22.949,0.000
1709291909.540,-20.020,-33.203,-36.133,-15.137,0.000
1709291909.544,-23.926,-35.645,-38.086,-20.020,0.000
1709291909.548,-36.133,-31.250,-41.992,-29.297,0.000
1709291909.551,-36.133,-29.297,-38.086,-27.344,0.000
1709291909.555,-31.738,-37.598,-39.062,-25.391,0.000
1709291909.559,-32.715,-37.598,-45.410,-26.367,0.000
1709291909.563,-35.645,-35.156,-46.875,-28.809,0.000
1709291909.567,-37.598,-38.574,-43.945,-37.109,0.000
1709291909.571,-38.086,-38.574,-38.086,-29.785,0.000
1709291909.575,-31.738,-38.574,-35.156,-18.555,0.000
1709291909.579,-21.484,-32.227,-36.621,-17.090,0.000
1709291909.583,-14.648,-26.855,-39.062,-22.949,0.000
1709291909.587,-18.066,-30.762,-35.645,-25.391,0.000
1709291909.590,-27.344,-28.809,-32.715,-24.902,0.000
1709291909.594,-28.809,-27.832,-36.133,-26.855,0.000
1709291909.599,-24.414,-31.250,-38.574,-16.602,0.000
1709291909.603,-21.973,-36.621,-38.086,-16.113,0.000
1709291909.607,-28.809,-37.598,-39.062,-30.273,0.000
1709291909.611,-31.738,-35.156,-39.062,-30.273,0.000
1709291909.615,-26.367,-31.250,-36.133,-25.879,0.000
1709291909.619,-31.738,-38.086,-37.598,-27.344,0.000
1709291909.623,-37.109,-42.480,-41.016,-34.668,0.000
1709291909.626,-35.156,-35.645,-39.551,-38.086,0.000
1709291909.630,-31.250,-31.250,-37.109,-29.297,0.000
1709291909.634,-35.156,-31.738,-34.668,-27.832,0.000
1709291909.638,-35.645,-34.180,-41.016,-33.203,0.000
1709291909.642,-30.762,-34.668,-48.340,-41.016,0.000
1709291909.646,-22.949,-27.832,-41.992,-30.273,0.000
1709291909.650,-20.996,-30.273,-42.969,-25.391,0.000
1709291909.654,-30.273,-40.039,-47.363,-27.832,0.000
1709291909.658,-37.598,-38.086,-45.898,-28.320,0.000
1709291909.662,-34.180,-33.203,-47.363,-26.855,0.000
1709291909.666,-31.250,-34.668,-48.828,-27.344,0.000
1709291909.670,-35.645,-31.738,-43.945,-27.832,0.000
1709291909.674,-39.551,-25.391,-41.992,-30.273,0.000
1709291909.678,-37.109,-27.832,-49.316,-34.180,0.000
1709291909.682,-30.273,-30.273,-52.246,-26.367,0.000
1709291909.686,-37.598,-29.785,-46.875,-31.738,0.000
1709291909.689,-45.898,-30.762,-41.016,-34.668,0.000
1709291909.694,-44.434,-30.273,-37.598,-34.668,0.000
1709291909.698,-35.156,-29.785,-38.086,-37.598,0.000
1709291909.701,-31.738,-31.738,-41.016,-41.504,0.000
1709291909.705,-39.551,-35.156,-39.551,-43.945,0.000
1709291909.709,-36.621,-33.203,-35.645,-34.668,0.000
1709291909.713,-34.180,-34.668,-38.086,-37.598,0.000
1709291909.717,-27.832,-30.762,-36.621,-36.621,0.000
1709291909.721,-19.531,-32.227,-40.039,-32.227,0.000
1709291909.725,-15.625,-35.645,-37.598,-32.227,0.000
1709291909.729,-23.926,-24.902,-34.668,-33.203,0.000
1709291909.733,-35.645,-23.926,-38.574,-35.645,0.000
1709291909.737,-33.203,-28.809,-38.086,-35.156,0.000
1709291909.740,-32.227,-27.344,-38.086,-42.480,0.000
1709291909.744,-31.738,-28.320,-35.156,-39.551,0.000
1709291909.748,-32.715,-26.855,-31.250,-30.762,0.000
1709291909.752,-41.016,-28.809,-31.250,-30.762,0.000
1709291909.756,-42.480,-23.926,-31.250,-35.156,0.000
1709291909.760,-35.645,-23.438,-29.297,-36.621,0.000
1709291909.764,-32.227,-33.203,-32.715,-40.527,0.000
1709291909.768,-37.598,-31.250,-34.668,-39.062,0.000
1709291909.772,-42.480,-29.785,-34.668,-27.832,0.000
1709291909.776,-42.480,-27.344,-33.203,-25.879,0.000
1709291909.780,-33.203,-22.461,-30.762,-25.391,0.000
1709291909.783,-26.367,-22.461,-31.250,-25.879,0.000
1709291909.787,-27.344,-27.344,-34.180,-29.785,0.000
1709291909.791,-37.598,-27.344,-35.156,-27.344,0.000
1709291909.795,-51.270,-25.879,-33.203,-26.367,0.000
1709291909.799,-40.527,-26.367,-34.668,-21.973,0.000
1709291909.803,-34.180,-25.391,-34.180,-24.902,0.000
1709291909.807,-36.133,-27.344,-33.691,-32.227,0.000
1709291909.811,-36.133,-32.227,-38.086,-34.668,0.000
1709291909.815,-39.551,-34.180,-36.133,-24.902,0.000
1709291909.818,-29.785,-31.250,-34.180,-19.043,0.000
1709291909.822,-20.020,-25.879,-34.180,-23.438,0.000
1709291909.826,-20.020,-22.461,-32.715,-23.438,0.000
1709291909.830,-21.484,-23.438,-27.344,-23.438,0.000
1709291909.834,-26.855,-20.020,-26.367,-20.996,0.000
1709291909.838,-20.020,-17.578,-31.738,-17.578,0.000
1709291909.841,-8.301,-24.414,-30.273,-11.719,0.000
1709291909.845,-14.648,-25.391,-30.273,-11.719,0.000
1709291909.849,-29.297,-27.832,-35.645,-27.344,0.000
1709291909.853,-31.738,-27.344,-33.691,-34.180,0.000
1709291909.857,-20.020,-23.926,-30.273,-27.344,0.000
1709291909.861,-17.578,-21.484,-32.715,-18.066,0.000
1709291909.865,-23.926,-18.066,-32.715,-19.043,0.000
1709291909.869,-22.949,-20.508,-36.621,-25.391,0.000
1709291909.873,-25.879,-24.902,-40.527,-26.367,0.000
1709291909.877,-26.367,-26.855,-37.109,-22.461,0.000
1709291909.880,-21.973,-24.414,-35.156,-25.391,0.000
1709291909.884,-24.414,-24.902,-37.109,-30.273,0.000
1709291909.888,-27.832,-26.855,-35.645,-29.297,0.000
1709291909.892,-35.645,-24.414,-34.668,-24.414,0.000
1709291909.896,-35.156,-20.508,-36.621,-22.461,0.000
1709291909.900,-18.066,-14.648,-35.156,-24.902,0.000
1709291909.903,-11.230,-10.254,-34.180,-15.137,0.000
1709291909.907,-31.738,-14.648,-36.621,-17.090,0.000
1709291909.911,-45.898,-12.695,-31.738,-24.414,0.000
1709291909.915,-40.527,-14.648,-35.156,-25.879,0.000
1709291909.919,-33.691,-24.414,-43.457,-33.203,0.000
1709291909.923,-30.273,-24.902,-41.504,-35.645,0.000
1709291909.926,-38.574,-24.902,-46.875,-37.598,0.000
1709291909.930,-44.434,-28.320,-46.875,-42.480,0.000
1709291909.934,-41.016,-25.879,-35.156,-36.133,0.000
1709291909.938,-30.273,-27.344,-33.203,-26.855,0.000
1709291909.942,-21.484,-28.320,-36.133,-27.344,0.000
1709291909.946,-20.020,-25.879,-34.668,-20.996,0.000
1709291909.950,-27.344,-24.902,-32.715,-14.648,0.000
1709291909.954,-36.621,-26.367,-35.645,-16.602,0.000
1709291909.958,-28.809,-26.367,-37.109,-17.578,0.000
1709291909.961,-22.949,-27.832,-32.715,-19.531,0.000
1709291909.965,-28.809,-19.531,-32.715,-28.320,0.000
1709291909.969,-32.227,-17.578,-32.227,-31.250,0.000
1709291909.974,-37.598,-30.762,-34.668,-31.738,0.000
1709291909.978,-26.855,-26.367,-41.504,-34.668,0.000
1709291909.982,-16.602,-25.879,-41.016,-34.668,0.000
1709291909.986,-31.738,-32.227,-43.945,-36.621,0.000
1709291909.990,-38.574,-34.668,-45.898,-35.645,0.000
1709291909.993,-35.156,-30.762,-40.527,-37.598,0.000
1709291909.997,-33.691,-26.367,-41.992,-38.086,0.000
1709291910.001,-23.926,-17.578,-38.574,-28.809,0.000
1709291910.005,-18.555,-12.695,-34.180,-32.715,0.000
1709291910.009,-31.250,-17.578,-37.598,-35.645,0.000
1709291910.013,-35.156,-20.020,-40.527,-33.203,0.000
1709291910.017,-33.691,-22.461,-39.062,-31.738,0.000
1709291910.021,-30.762,-23.438,-35.645,-30.273,0.000
1709291910.025,-27.832,-25.879,-35.645,-35.156,0.000
1709291910.029,-38.086,-24.414,-33.691,-33.203,0.000
1709291910.033,-38.574,-27.832,-33.691,-30.273,0.000
1709291910.037,-29.785,-31.738,-36.621,-30.273,0.000
1709291910.041,-25.879,-36.133,-39.551,-26.367,0.000
1709291910.045,-24.414,-40.039,-39.062,-25.879,0.000
1709291910.049,-27.832,-33.691,-32.715,-33.691,0.000
1709291910.053,-38.574,-36.621,-37.598,-35.645,0.000
1709291910.057,-34.180,-32.715,-39.551,-24.414,0.000
1709291910.061,-35.645,-27.344,-35.645,-30.762,0.000
1709291910.064,-30.273,-33.203,-38.574,-42.480,0.000
1709291910.069,-28.809,-35.156,-38.574,-41.016,0.000
1709291910.073,-38.574,-35.156,-42.480,-31.250,0.000
1709291910.076,-27.344,-38.574,-43.945,-31.250,0.000
1709291910.080,-18.555,-36.621,-40.039,-32.715,0.000
1709291910.084,-20.508,-36.133,-38.574,-27.832,0.000
1709291910.088,-35.156,-43.457,-39.062,-29.785,0.000
1709291910.092,-43.457,-44.434,-42.969,-38.574,0.000
1709291910.096,-42.480,-39.551,-46.387,-35.156,0.000
1709291910.100,-30.762,-39.062,-40.527,-18.066,0.000
1709291910.104,-18.555,-35.156,-37.598,-19.531,0.000
1709291910.108,-22.461,-34.668,-37.598,-23.438,0.000
1709291910.112,-28.320,-37.109,-34.180,-24.414,0.000
1709291910.116,-27.344,-29.297,-38.574,-26.367,0.000
1709291910.119,-33.691,-30.762,-47.363,-28.809,0.000
1709291910.123,-33.203,-32.715,-47.852,-30.273,0.000
1709291910.127,-27.832,-31.250,-41.992,-28.809,0.000
1709291910.131,-31.250,-27.832,-39.551,-33.203,0.000
1709291910.135,-38.574,-25.879,-41.504,-36.621,0.000
1709291910.139,-36.621,-31.738,-44.922,-40.527,0.000
1709291910.143,-29.785,-31.250,-43.945,-37.598,0.000
1709291910.147,-25.879,-29.785,-38.574,-34.180,0.000
1709291910.151,-36.621,-27.344,-37.598,-37.598,0.000
1709291910.155,-48.828,-27.832,-42.480,-41.016,0.000
1709291910.158,-36.621,-30.273,-44.434,-43.457,0.000
1709291910.162,-30.762,-31.250,-43.945,-49.316,0.000
1709291910.166,-34.180,-32.227,-40.039,-48.828,0.000
1709291910.170,-38.574,-27.832,-39.551,-40.527,0.000
1709291910.174,-44.434,-28.320,-42.969,-39.551,0.000
1709291910.178,-36.133,-30.762,-36.621,-31.250,0.000
1709291910.182,-21.973,-23.926,-38.086,-31.738,0.000
1709291910.186,-18.066,-21.973,-41.016,-33.691,0.000
1709291910.190,-18.066,-26.367,-37.109,-16.602,0.000
1709291910.193,-25.391,-22.461,-37.598,-20.020,0.000
1709291910.197,-32.715,-22.461,-41.504,-34.668,0.000
1709291910.201,-25.879,-29.297,-45.410,-26.367,0.000
1709291910.205,-24.414,-30.273,-43.945,-28.809,0.000
1709291910.209,-35.156,-25.879,-41.016,-39.551,0.000
1709291910.213,-36.133,-24.902,-37.598,-30.273,0.000
1709291910.217,-33.203,-22.461,-38.574,-24.902,0.000
1709291910.220,-30.762,-22.461,-39.551,-24.902,0.000
1709291910.224,-25.391,-23.438,-39.062,-21.484,0.000
1709291910.228,-28.809,-27.832,-41.504,-33.203,0.000
1709291910.232,-37.109,-35.156,-43.457,-27.344,0.000
1709291910.236,-23.438,-29.785,-43.457,-5.371,0.000
1709291910.240,-20.508,-24.414,-42.480,-16.602,0.000
1709291910.244,-19.531,-22.949,-42.480,-25.879,0.000
1709291910.248,-19.531,-21.973,-37.109,-18.555,0.000
1709291910.252,-28.809,-17.578,-33.203,-13.184,0.000
1709291910.255,-32.715,-15.625,-37.109,-24.902,0.000
1709291910.259,-28.809,-22.461,-41.504,-29.785,0.000
1709291910.263,-27.832,-22.949,-47.363,-29.297,0.000
1709291910.267,-34.668,-21.973,-51.758,-31.250,0.000
1709291910.271,-32.715,-26.367,-49.805,-24.414,0.000
1709291910.275,-26.367,-31.250,-48.340,-18.555,0.000
1709291910.279,-23.926,-27.344,-48.340,-14.160,0.000
1709291910.282,-20.996,-22.461,-45.898,-14.160,0.000
1709291910.286,-26.367,-24.902,-46.875,-25.391,0.000
1709291910.290,-38.086,-32.227,-51.758,-31.738,0.000
1709291910.294,-39.551,-35.645,-50.781,-34.180,0.000
1709291910.298,-35.156,-32.715,-47.852,-36.621,0.000
1709291910.301,-26.855,-32.227,-45.410,-29.297,0.000
1709291910.305,-27.344,-30.273,-42.480,-23.438,0.000
1709291910.309,-38.574,-28.320,-39.551,-26.367,0.000
1709291910.313,-36.621,-27.832,-40.527,-23.438,0.000
1709291910.317,-25.879,-28.809,-40.527,-19.531,0.000
1709291910.321,-27.344,-30.762,-40.527,-20.508,0.000
1709291910.325,-25.391,-27.832,-41.992,-18.066,0.000
1709291910.329,-35.156,-30.273,-42.969,-36.133,0.000
1709291910.333,-47.852,-37.598,-41.992,-42.969,0.000
1709291910.336,-42.969,-31.738,-38.086,-31.738,0.000
1709291910.340,-41.504,-26.367,-34.668,-37.109,0.000
1709291910.344,-34.180,-30.273,-32.227,-40.039,0.000
1709291910.349,-32.227,-30.273,-31.250,-35.645,0.000
1709291910.353,-41.504,-32.227,-36.133,-29.785,0.000
1709291910.357,-34.668,-27.344,-33.691,-16.602,0.000
1709291910.361,-22.949,-23.926,-32.715,-11.719,0.000
1709291910.365,-19.043,-22.949,-35.156,-21.973,0.000
1709291910.369,-26.367,-20.996,-33.691,-25.879,0.000
1709291910.372,-35.156,-26.855,-35.645,-21.484,0.000
1709291910.376,-32.227,-26.855,-39.062,-24.902,0.000
1709291910.380,-20.020,-22.949,-40.527,-26.367,0.000
1709291910.384,-16.113,-21.484,-36.621,-19.531,0.000
1709291910.388,-33.691,-26.367,-40.039,-27.832,0.000
1709291910.392,-40.039,-29.297,-45.410,-39.551,0.000
1709291910.396,-28.809,-25.879,-39.062,-40.527,0.000
1709291910.400,-26.855,-29.297,-39.062,-39.551,0.000
1709291910.404,-31.250,-33.203,-42.969,-34.180,0.000
1709291910.408,-30.273,-35.156,-42.480,-35.156,0.000
1709291910.412,-36.621,-38.574,-41.504,-44.922,0.000
1709291910.416,-44.922,-41.992,-42.969,-47.363,0.000
1709291910.420,-40.039,-42.480,-44.434,-45.898,0.000
1709291910.424,-36.621,-41.016,-44.922,-51.270,0.000
1709291910.428,-34.180,-37.109,-44.434,-34.668,0.000
1709291910.432,-38.086,-31.250,-38.086,-16.113,0.000
1709291910.435,-43.945,-26.367,-33.203,-21.484,0.000
1709291910.439,-34.180,-23.438,-37.109,-29.297,0.000
1709291910.444,-29.785,-30.762,-36.133,-34.668,0.000
1709291910.447,-34.180,-28.320,-35.156,-37.598,0.000
1709291910.451,-32.227,-20.508,-36.621,-36.133,0.000
1709291910.455,-27.344,-23.926,-30.762,-21.973,0.000
1709291910.459,-23.926,-21.484,-31.738,-14.648,0.000
1709291910.463,-18.066,-21.484,-35.645,-20.508,0.000
1709291910.467,-18.066,-23.926,-39.062,-17.578,0.000
1709291910.471,-20.508,-17.578,-39.551,-18.066,0.000
1709291910.475,-26.855,-17.578,-35.156,-14.648,0.000
1709291910.479,-27.344,-18.555,-32.227,-11.230,0.000
1709291910.483,-23.926,-21.484,-35.645,-20.020,0.000
1709291910.487,-27.344,-25.879,-37.109,-23.926,0.000
1709291910.490,-30.273,-28.320,-34.180,-21.484,0.000
1709291910.494,-33.203,-26.367,-34.668,-19.043,0.000
1709291910.498,-24.902,-24.902,-33.203,-13.184,0.000
1709291910.502,-20.020,-28.320,-36.133,-15.137,0.000
1709291910.506,-28.320,-28.320,-36.133,-20.020,0.000
1709291910.510,-35.156,-30.762,-31.738,-21.973,0.000
1709291910.514,-41.504,-29.785,-35.156,-24.414,0.000
1709291910.518,-45.410,-30.273,-34.180,-24.902,0.000
1709291910.522,-38.574,-33.691,-34.668,-9.277,0.000
1709291910.526,-34.668,-27.832,-39.062,-14.160,0.000
1709291910.529,-37.109,-28.809,-38.574,-22.461,0.000
1709291910.533,-41.016,-35.156,-37.109,-16.602,0.000
1709291910.537,-40.527,-29.297,-35.645,-21.484,0.000
1709291910.541,-31.250,-26.367,-33.691,-25.879,0.000
1709291910.545,-29.785,-28.809,-31.250,-22.949,0.000
1709291910.549,-37.109,-29.297,-34.180,-24.902,0.000
1709291910.553,-34.668,-27.832,-33.691,-29.785,0.000
1709291910.557,-31.250,-25.879,-30.762,-24.902,0.000
1709291910.561,-28.809,-23.438,-31.738,-22.949,0.000
1709291910.564,-20.020,-23.926,-34.180,-15.625,0.000
1709291910.568,-24.902,-21.973,-36.133,-19.531,0.000
1709291910.572,-30.273,-21.484,-34.180,-20.508,0.000
1709291910.576,-19.043,-21.484,-38.574,-10.254,0.000
1709291910.580,-9.766,-20.020,-38.086,-5.859,0.000
1709291910.584,0.000,-24.902,-35.645,0.000,0.000
1709291910.588,0.000,-28.320,-33.203,0.000,0.000
1709291910.592,0.000,-22.949,-29.297,0.000,0.000
1709291910.596,0.000,-20.508,-34.668,0.000,0.000
1709291910.599,0.000,-18.555,-40.527,0.000,0.000
1709291910.603,0.000,-23.438,-37.598,0.000,0.000
1709291910.607,0.000,-34.180,-35.645,0.000,0.000
1709291910.611,0.000,-29.785,-32.715,0.000,0.000
1709291910.615,0.000,-23.438,-25.879,0.000,0.000
1709291910.619,0.000,-19.531,-23.926,0.000,0.000
1709291910.623,0.000,-21.484,-28.320,0.000,0.000
1709291910.627,0.000,-25.391,-29.785,0.000,0.000
1709291910.631,-17.090,-25.391,-29.297,-17.090,0.000
1709291910.635,-32.715,-30.762,-32.227,-23.438,0.000
1709291910.639,-32.715,-35.156,-35.156,-25.391,0.000
1709291910.643,-22.949,-33.691,-34.180,-20.020,0.000
1709291910.647,-24.902,-34.180,-33.203,-18.066,0.000
1709291910.651,-35.645,-37.598,-37.598,-30.273,0.000
1709291910.654,-39.062,-41.504,-38.086,-32.227,0.000
1709291910.658,-35.156,-37.598,-34.668,-25.879,0.000
1709291910.662,-31.250,-36.621,-32.715,-33.691,0.000
1709291910.666,-28.809,-39.062,-33.203,-46.387,0.000
1709291910.670,-40.039,-34.668,-33.691,-43.945,0.000
1709291910.674,-40.527,-29.297,-33.203,-32.715,0.000
1709291910.677,-35.156,-23.926,-34.668,-37.109,0.000
1709291910.681,-30.273,-23.926,-36.621,-33.203,0.000
1709291910.685,-26.855,-25.879,-35.645,-24.902,0.000
1709291910.689,-33.691,-30.273,-36.621,-32.227,0.000
1709291910.693,-42.480,-31.738,-37.109,-41.504,0.000
1709291910.697,-45.410,-30.762,-39.062,-39.551,0.000
1709291910.701,-37.598,-30.762,-38.086,-34.668,0.000
1709291910.704,-35.645,-29.785,-37.109,-29.785,0.000
1709291910.708,-43.457,-31.738,-42.480,-28.320,0.000
1709291910.712,-48.828,-32.227,-42.969,-32.227,0.000
1709291910.716,-44.922,-29.785,-38.086,-33.203,0.000
1709291910.720,-36.621,-26.855,-37.598,-32.227,0.000
1709291910.725,-27.344,-23.438,-38.574,-33.691,0.000
1709291910.729,-30.273,-21.973,-38.086,-29.785,0.000
1709291910.732,-41.016,-25.879,-36.133,-29.785,0.000
1709291910.736,-36.133,-24.902,-35.156,-31.738,0.000
1709291910.740,-25.879,-24.414,-34.180,-32.227,0.000
1709291910.744,-26.367,-29.297,-34.180,-31.738,0.000
1709291910.748,-36.133,-31.738,-35.645,-35.645,0.000
1709291910.752,-34.180,-29.297,-36.133,-37.109,0.000
1709291910.756,-32.715,-29.785,-34.180,-31.738,0.000
1709291910.760,-37.598,-32.715,-40.039,-33.691,0.000
1709291910.764,-26.367,-31.738,-39.062,-33.203,0.000
1709291910.768,-24.902,-28.320,-30.762,-29.297,0.000
1709291910.772,-42.480,-33.691,-31.250,-38.086,0.000
1709291910.776,-45.898,-33.203,-35.156,-37.109,0.000
1709291910.780,-41.016,-31.738,-35.645,-24.414,0.000
1709291910.784,-40.527,-36.133,-41.016,-32.715,0.000
1709291910.788,-33.203,-31.738,-44.922,-38.086,0.000
1709291910.792,-41.016,-29.297,-45.898,-36.133,0.000
1709291910.795,-50.293,-34.668,-48.340,-34.668,0.000
1709291910.799,-47.363,-34.180,-48.340,-38.574,0.000
1709291910.803,-45.898,-36.133,-45.898,-33.691,0.000
1709291910.807,-43.945,-40.039,-43.457,-27.344,0.000
1709291910.811,-44.434,-33.691,-38.574,-37.598,0.000
1709291910.815,-41.016,-29.297,-33.203,-32.715,0.000
1709291910.819,-36.133,-30.273,-29.785,-24.902,0.000
1709291910.823,-30.273,-34.668,-34.180,-32.227,0.000
1709291910.827,-31.250,-36.133,-35.645,-35.645,0.000
1709291910.831,-41.504,-32.227,-34.180,-32.715,0.000
1709291910.835,-46.387,-34.668,-33.203,-27.344,0.000
1709291910.839,-38.086,-37.598,-32.227,-26.855,0.000
1709291910.842,-26.855,-31.738,-32.227,-29.297,0.000
1709291910.846,-23.438,-28.809,-32.227,-29.785,0.000
1709291910.850,-26.855,-32.227,-33.203,-29.297,0.000
1709291910.854,-31.250,-36.621,-40.527,-31.738,0.000
1709291910.858,-29.785,-35.645,-39.551,-37.598,0.000
1709291910.862,-25.879,-35.645,-34.180,-35.645,0.000
1709291910.866,-26.367,-34.668,-38.086,-28.809,0.000
1709291910.870,-34.668,-33.203,-39.551,-34.180,0.000
1709291910.874,-38.574,-30.273,-37.109,-33.203,0.000
1709291910.878,-32.227,-28.809,-38.574,-31.250,0.000
1709291910.882,-31.250,-31.250,-39.551,-41.016,0.000
1709291910.886,-35.156,-33.203,-39.551,-41.016,0.000
1709291910.890,-35.645,-34.668,-42.480,-38.574,0.000
1709291910.894,-45.898,-30.762,-42.480,-32.227,0.000
1709291910.897,-50.293,-28.320,-41.504,-26.367,0.000
1709291910.901,-27.832,-24.414,-42.480,-26.855,0.000
1709291910.905,-25.391,-33.203,-42.480,-32.715,0.000
1709291910.909,-41.992,-40.039,-42.480,-41.016,0.000
1709291910.913,-44.922,-29.297,-47.852,-38.086,0.000
1709291910.917,-40.039,-29.785,-49.805,-38.574,0.000
1709291910.921,-29.297,-33.691,-46.387,-37.109,0.000
1709291910.924,-37.109,-31.250,-42.480,-27.832,0.000
1709291910.928,-42.969,-29.785,-39.062,-24.902,0.000
1709291910.932,-44.434,-28.320,-33.691,-33.203,0.000
1709291910.936,-40.039,-24.414,-34.668,-38.574,0.000
1709291910.940,-30.273,-25.391,-33.203,-25.391,0.000
1709291910.944,-27.832,-27.344,-31.250,-14.160,0.000
1709291910.948,-37.598,-30.273,-40.039,-31.738,0.000
1709291910.952,-42.480,-32.715,-40.039,-37.598,0.000
1709291910.956,-30.762,-29.785,-37.109,-27.344,0.000
1709291910.959,-28.320,-30.273,-39.062,-33.691,0.000
1709291910.963,-23.438,-28.320,-40.039,-33.203,0.000
1709291910.967,-21.484,-27.832,-38.086,-30.273,0.000
1709291910.971,-34.668,-27.832,-34.668,-37.109,0.000
1709291910.975,-39.551,-26.367,-35.156,-41.016,0.000
1709291910.979,-34.180,-26.855,-38.574,-38.086,0.000
1709291910.983,-30.273,-22.949,-42.480,-30.273,0.000
1709291910.987,-27.344,-23.438,-43.945,-20.020,0.000
1709291910.990,-34.180,-19.531,-45.410,-29.297,0.000
1709291910.994,-35.645,-20.508,-41.992,-33.203,0.000
1709291910.998,-30.762,-32.227,-45.898,-27.832,0.000
1709291911.002,-24.414,-34.668,-49.316,-29.785,0.000
1709291911.005,-24.902,-32.715,-47.363,-33.203,0.000
1709291911.009,-36.621,-30.273,-49.316,-33.691,0.000
1709291911.013,-40.039,-28.320,-45.898,-27.344,0.000
1709291911.017,-34.180,-22.949,-39.551,-23.438,0.000
1709291911.021,-23.438,-16.602,-35.156,-22.949,0.000
1709291911.025,-21.973,-17.578,-37.109,-23.926,0.000
1709291911.029,-28.320,-24.414,-40.039,-23.926,0.000
1709291911.033,-37.109,-24.414,-40.039,-28.809,0.000
1709291911.037,-43.457,-24.902,-44.922,-41.992,0.000
1709291911.041,-32.715,-27.344,-45.898,-36.133,0.000
1709291911.044,-31.250,-26.367,-42.969,-34.668,0.000
1709291911.048,-46.875,-28.809,-45.898,-45.410,0.000
1709291911.052,-52.734,-32.715,-44.922,-42.480,0.000
1709291911.055,-50.781,-37.109,-42.969,-45.410,0.000
1709291911.059,-43.457,-34.180,-40.527,-48.340,0.000
1709291911.063,-39.551,-33.203,-38.086,-45.410,0.000
1709291911.067,-42.480,-32.227,-38.086,-39.062,0.000
1709291911.071,-40.527,-24.902,-37.598,-32.715,0.000
1709291911.075,-32.715,-28.320,-36.621,-29.297,0.000
1709291911.079,-23.438,-29.785,-38.086,-27.832,0.000
1709291911.083,-25.391,-27.344,-38.086,-27.832,0.000
1709291911.087,-36.621,-29.785,-35.645,-27.832,0.000
1709291911.091,-39.062,-33.203,-37.598,-28.809,0.000
1709291911.095,-34.668,-32.227,-43.457,-31.738,0.000
1709291911.099,-21.973,-31.738,-41.992,-33.203,0.000
1709291911.103,-19.531,-33.203,-39.551,-34.180,0.000
1709291911.107,-22.949,-28.809,-40.039,-23.926,0.000
1709291911.111,-20.996,-23.926,-37.109,-26.855,0.000
1709291911.115,-27.832,-27.832,-38.086,-31.250,0.000
1709291911.119,-32.715,-29.785,-42.969,-27.344,0.000
1709291911.123,-19.043,-25.391,-38.574,-24.902,0.000
1709291911.126,-30.273,-26.367,-31.738,-25.879,0.000
1709291911.130,-43.457,-24.414,-35.156,-28.809,0.000
1709291911.134,-30.762,-23.926,-35.156,-18.555,0.000
1709291911.138,-26.367,-25.391,-34.180,-18.066,0.000
1709291911.142,-26.367,-22.949,-37.109,-30.762,0.000
1709291911.146,-27.344,-27.832,-38.086,-30.273,0.000
1709291911.150,-33.691,-25.879,-35.156,-23.926,0.000
1709291911.154,-37.109,-25.391,-31.738,-27.832,0.000
1709291911.158,-24.414,-35.156,-33.203,-24.414,0.000
1709291911.162,-14.160,-31.250,-29.297,-15.625,0.000
1709291911.166,-17.090,-24.414,-26.367,-20.508,0.000
1709291911.170,-23.438,-24.902,-32.715,-25.879,0.000
1709291911.174,-30.762,-27.832,-35.645,-26.367,0.000
1709291911.178,-31.738,-30.273,-35.156,-22.949,0.000
1709291911.182,-23.926,-28.809,-37.598,-16.113,0.000
1709291911.186,-29.297,-28.809,-41.992,-33.203,0.000
1709291911.189,-41.992,-30.273,-45.898,-44.434,0.000
1709291911.194,-45.898,-31.250,-42.480,-40.039,0.000
1709291911.198,-50.293,-34.180,-43.945,-48.828,0.000
1709291911.202,-41.504,-35.645,-46.387,-44.922,0.000
1709291911.205,-26.855,-26.367,-40.527,-34.180,0.000
1709291911.209,-27.344,-21.484,-40.039,-32.227,0.000
1709291911.213,-37.598,-25.879,-39.551,-32.227,0.000
1709291911.217,-36.621,-21.973,-39.062,-28.809,0.000
1709291911.221,-30.762,-22.461,-42.969,-33.691,0.000
1709291911.225,-26.855,-31.738,-40.039,-26.367,0.000
1709291911.229,-34.180,-25.879,-39.551,-17.090,0.000
1709291911.233,-46.387,-21.973,-39.062,-26.367,0.000
1709291911.237,-43.945,-28.320,-39.551,-26.367,0.000
