timestamps,TP9,AF7,AF8,TP10,Right AUX
1709140399.321,-48.340,-40.527,-27.344,-42.480,0.000
1709140399.325,-44.922,-42.969,-33.203,-40.527,0.000
1709140399.329,-40.527,-51.758,-33.203,-23.926,0.000
1709140399.333,-27.344,-46.387,-30.273,-21.973,0.000
1709140399.337,-27.344,-47.852,-38.574,-39.062,0.000
1709140399.340,-42.969,-41.016,-41.504,-46.387,0.000
1709140399.344,-38.574,-46.387,-26.855,-34.180,0.000
1709140399.348,-21.484,-58.105,-20.996,-11.719,0.000
1709140399.352,-29.297,-29.297,-38.574,-29.297,0.000
1709140399.356,-46.875,-11.719,-45.898,-52.734,0.000
1709140399.360,-41.992,-20.508,-42.480,-60.059,0.000
1709140399.364,-43.457,-15.137,-45.898,-62.500,0.000
1709140399.364,-43.457,-15.137,-45.898,-62.500,0.000
1709140399.368,-37.598,-6.348,-48.340,-48.340,0.000
1709140399.372,-37.109,-8.301,-58.105,-54.199,0.000
1709140399.375,-38.086,-7.324,-62.012,-55.176,0.000
1709140399.379,-27.344,1.465,-59.570,-54.199,0.000
1709140399.383,-28.809,0.000,-61.523,-72.266,0.000
1709140399.387,-29.785,-8.789,-59.570,-56.641,0.000
1709140399.391,-28.320,-14.160,-59.082,-36.133,0.000
1709140399.395,-23.438,-7.324,-63.477,-38.574,0.000
1709140399.399,-22.461,-11.230,-65.430,-43.945,0.000
1709140399.403,-24.414,-19.531,-55.176,-51.758,0.000
1709140399.407,-16.113,-22.949,-45.410,-44.922,0.000
1709140399.411,-26.367,-38.086,-48.828,-38.574,0.000
1709140399.414,-43.945,-23.438,-56.641,-47.852,0.000
1709140399.418,-42.969,1.953,-56.152,-52.734,0.000
1709140399.422,-42.480,-3.906,-48.828,-44.922,0.000
1709140399.426,-46.875,-13.672,-52.734,-38.574,0.000
1709140399.430,-42.480,-10.254,-54.688,-41.504,0.000
1709140399.434,-38.086,-10.254,-47.852,-45.898,0.000
1709140399.438,-29.297,-15.137,-47.852,-41.016,0.000
1709140399.442,-28.809,-23.438,-49.316,-42.480,0.000
1709140399.446,-34.668,-31.250,-40.039,-42.969,0.000
1709140399.449,-32.227,-51.758,-35.645,-38.086,0.000
1709140399.453,-32.715,-36.133,-43.457,-37.598,0.000
1709140399.457,-27.832,-1.953,-46.387,-47.852,0.000
1709140399.461,-15.137,-19.531,-38.086,-47.852,0.000
1709140399.465,-18.066,-23.438,-34.668,-37.109,0.000
1709140399.469,-26.855,-14.648,-39.062,-28.809,0.000
1709140399.473,-14.160,-22.949,-44.922,-27.344,0.000
1709140399.477,-15.625,-19.531,-46.387,-35.645,0.000
1709140399.481,-25.879,-26.855,-42.480,-37.598,0.000
1709140399.485,-23.438,-42.969,-34.180,-31.250,0.000
1709140399.489,-22.949,-49.805,-31.250,-26.367,0.000
1709140399.493,-23.438,-45.410,-37.598,-28.809,0.000
1709140399.497,-28.809,-33.691,-42.480,-35.156,0.000
1709140399.501,-33.691,-32.715,-44.922,-44.434,0.000
1709140399.504,-39.551,-35.156,-40.527,-48.340,0.000
1709140399.508,-45.410,-35.645,-39.551,-41.504,0.000
1709140399.512,-39.551,-41.992,-42.969,-35.645,0.000
1709140399.516,-32.227,-47.363,-39.062,-46.387,0.000
1709140399.520,-28.320,-37.598,-36.133,-60.059,0.000
1709140399.524,-35.156,-30.762,-36.133,-55.664,0.000
1709140399.528,-47.363,-26.855,-41.016,-43.457,0.000
1709140399.532,-43.945,-24.414,-32.715,-35.645,0.000
1709140399.536,-38.086,-29.297,-20.996,-40.039,0.000
1709140399.540,-41.504,-25.391,-31.738,-47.852,0.000
1709140399.544,-46.387,-23.438,-31.250,-49.805,0.000
1709140399.547,-54.688,-27.344,-28.809,-59.082,0.000
1709140399.551,-54.688,-27.832,-35.645,-56.152,0.000
1709140399.555,-43.945,-26.367,-26.855,-47.363,0.000
1709140399.559,-41.992,-33.691,-23.438,-50.781,0.000
1709140399.563,-47.363,-45.410,-30.762,-47.363,0.000
1709140399.567,-45.898,-41.016,-36.621,-35.645,0.000
1709140399.571,-40.039,-30.762,-39.062,-39.551,0.000
1709140399.575,-35.645,-42.480,-34.668,-37.109,0.000
1709140399.579,-28.320,-36.133,-33.203,-39.551,0.000
1709140399.583,-39.062,-18.066,-42.969,-41.992,0.000
1709140399.587,-44.922,-23.926,-45.898,-29.297,0.000
1709140399.590,-35.645,-21.973,-34.668,-26.367,0.000
1709140399.594,-31.250,-33.203,-24.902,-25.391,0.000
1709140399.598,-24.902,-30.273,-26.855,-32.715,0.000
1709140399.602,-27.832,-18.555,-26.855,-41.016,0.000
1709140399.606,-30.762,-26.367,-22.461,-33.203,0.000
1709140399.610,-30.273,-37.598,-36.133,-25.879,0.000
1709140399.614,-31.738,-33.691,-40.527,-22.461,0.000
1709140399.618,-28.320,-22.949,-28.320,-26.367,0.000
1709140399.622,-34.180,-39.551,-20.508,-34.668,0.000
1709140399.626,-49.316,-52.734,-24.414,-49.316,0.000
1709140399.630,-46.387,-61.035,-26.367,-43.457,0.000
1709140399.633,-39.551,-49.316,-29.297,-38.086,0.000
1709140399.637,-45.898,-20.020,-39.551,-53.711,0.000
1709140399.641,-50.293,-25.391,-40.039,-54.688,0.000
1709140399.645,-41.504,-35.156,-36.621,-51.270,0.000
1709140399.649,-45.898,-25.391,-41.016,-44.922,0.000
1709140399.653,-37.598,-35.645,-40.527,-29.785,0.000
1709140399.657,-32.715,-44.922,-38.574,-33.203,0.000
1709140399.661,-50.781,-21.973,-41.016,-56.152,0.000
1709140399.665,-47.852,-32.715,-45.410,-59.082,0.000
1709140399.669,-46.387,-42.480,-42.480,-51.758,0.000
1709140399.672,-47.852,-31.250,-40.527,-50.781,0.000
1709140399.676,-48.828,-43.457,-43.945,-46.387,0.000
1709140399.680,-55.664,-53.711,-52.734,-55.664,0.000
1709140399.684,-60.547,-45.898,-55.664,-62.988,0.000
1709140399.688,-60.059,-40.527,-50.781,-46.387,0.000
1709140399.692,-56.641,-61.523,-38.574,-37.109,0.000
1709140399.696,-50.293,-55.176,-31.738,-48.340,0.000
1709140399.700,-46.875,-42.480,-38.574,-59.570,0.000
1709140399.704,-52.246,-41.992,-44.922,-58.594,0.000
1709140399.708,-57.617,-46.387,-43.457,-48.828,0.000
1709140399.711,-41.992,-54.199,-41.016,-34.180,0.000
1709140399.715,-34.668,-44.434,-37.109,-35.156,0.000
1709140399.719,-44.434,-45.410,-33.691,-40.527,0.000
1709140399.723,-33.203,-48.828,-29.297,-35.645,0.000
1709140399.727,-33.691,-52.246,-30.762,-34.668,0.000
1709140399.731,-41.504,-64.941,-33.691,-23.438,0.000
1709140399.735,-38.574,-49.316,-34.668,-26.367,0.000
1709140399.739,-36.621,-26.367,-40.039,-45.410,0.000
1709140399.743,-30.762,-33.203,-40.039,-56.152,0.000
1709140399.747,-30.762,-36.133,-41.016,-49.316,0.000
1709140399.751,-37.109,-36.133,-37.598,-34.668,0.000
1709140399.755,-31.738,-36.621,-27.344,-44.434,0.000
1709140399.759,-31.738,-47.363,-25.391,-53.223,0.000
1709140399.762,-44.922,-64.941,-36.133,-59.570,0.000
1709140399.766,-43.945,-50.781,-40.527,-52.734,0.000
1709140399.770,-48.340,-38.574,-43.457,-47.363,0.000
1709140399.774,-54.199,-41.504,-48.828,-61.035,0.000
1709140399.778,-41.992,-43.945,-45.410,-62.988,0.000
1709140399.782,-52.246,-60.547,-50.293,-67.383,0.000
1709140399.786,-61.523,-53.223,-49.316,-62.012,0.000
1709140399.790,-53.223,-38.574,-41.992,-52.734,0.000
1709140399.793,-51.270,-42.480,-44.434,-53.711,0.000
1709140399.797,-41.016,-48.828,-41.992,-50.781,0.000
1709140399.801,-41.992,-28.320,-36.621,-56.641,0.000
1709140399.805,-46.875,-22.949,-39.062,-60.059,0.000
1709140399.809,-44.434,-33.691,-40.039,-45.898,0.000
1709140399.813,-48.828,-41.016,-37.109,-41.016,0.000
1709140399.817,-51.270,-45.410,-37.598,-51.270,0.000
1709140399.821,-41.992,-44.434,-40.039,-43.945,0.000
1709140399.825,-35.156,-66.406,-41.992,-30.273,0.000
1709140399.829,-37.598,-53.711,-37.598,-18.555,0.000
1709140399.833,-37.598,-10.742,-27.344,-31.250,0.000
1709140399.837,-32.715,-22.949,-21.973,-43.457,0.000
1709140399.841,-38.574,-36.133,-29.785,-41.992,0.000
1709140399.845,-42.480,-20.996,-40.039,-49.805,0.000
1709140399.849,-42.969,-23.926,-44.434,-47.852,0.000
1709140399.853,-49.805,-44.434,-37.598,-41.504,0.000
1709140399.856,-47.363,-59.082,-27.344,-39.062,0.000
1709140399.860,-56.152,-60.547,-28.320,-51.270,0.000
1709140399.864,-60.059,-54.688,-32.715,-58.105,0.000
1709140399.868,-49.805,-42.480,-33.691,-43.945,0.000
1709140399.872,-41.504,-49.316,-41.504,-27.832,0.000
1709140399.876,-46.387,-45.898,-41.504,-29.785,0.000
1709140399.880,-49.316,-23.926,-31.738,-44.434,0.000
1709140399.884,-43.945,-25.879,-29.785,-35.645,0.000
1709140399.888,-43.457,-32.715,-37.109,-24.414,0.000
1709140399.892,-43.945,-33.691,-43.457,-32.715,0.000
1709140399.896,-37.598,-40.039,-38.086,-30.762,0.000
1709140399.899,-36.621,-43.945,-34.668,-38.086,0.000
1709140399.903,-33.691,-45.898,-32.715,-41.504,0.000
1709140399.907,-31.250,-59.082,-31.738,-38.574,0.000
1709140399.911,-35.156,-45.898,-36.133,-31.250,0.000
1709140399.915,-35.645,-59.082,-49.805,-22.949,0.000
1709140399.919,-34.668,-69.336,-48.340,-33.691,0.000
1709140399.923,-40.527,-25.391,-33.203,-42.969,0.000
1709140399.927,-47.363,-11.719,-31.250,-41.992,0.000
1709140399.931,-44.434,-28.320,-34.668,-34.180,0.000
1709140399.935,-41.992,-44.434,-35.645,-25.879,0.000
1709140399.939,-47.852,-46.387,-44.434,-38.086,0.000
1709140399.942,-54.199,-48.828,-40.039,-39.062,0.000
1709140399.946,-55.664,-46.387,-27.344,-33.691,0.000
1709140399.950,-48.828,-55.176,-27.832,-32.227,0.000
1709140399.954,-48.828,-65.430,-27.832,-39.062,0.000
1709140399.958,-48.340,-62.500,-26.855,-45.410,0.000
1709140399.962,-45.898,-63.965,-29.785,-33.691,0.000
1709140399.966,-52.734,-41.504,-34.180,-40.039,0.000
1709140399.970,-37.598,-24.902,-35.156,-50.293,0.000
1709140399.974,-40.527,-37.598,-41.992,-48.340,0.000
1709140399.978,-49.316,-42.480,-43.457,-45.898,0.000
1709140399.982,-40.039,-45.410,-41.016,-44.434,0.000
1709140399.985,-38.086,-43.457,-39.551,-36.133,0.000
1709140399.989,-33.691,-39.551,-34.180,-26.367,0.000
1709140399.993,-22.461,-47.363,-29.785,-21.973,0.000
1709140399.997,-20.508,-50.293,-38.086,-28.320,0.000
1709140400.001,-44.922,-36.133,-42.969,-50.293,0.000
1709140400.005,-46.875,-32.227,-33.203,-48.828,0.000
1709140400.009,-38.574,-37.109,-36.133,-34.180,0.000
1709140400.013,-42.969,-29.297,-53.223,-43.945,0.000
1709140400.017,-39.062,-32.715,-51.758,-59.082,0.000
1709140400.021,-43.457,-34.180,-45.410,-64.941,0.000
1709140400.024,-53.223,-32.227,-42.969,-62.012,0.000
1709140400.028,-42.480,-41.016,-36.621,-59.570,0.000
1709140400.032,-46.387,-43.457,-38.086,-48.828,0.000
1709140400.036,-62.500,-38.574,-36.621,-47.852,0.000
1709140400.040,-55.664,-48.828,-28.809,-54.199,0.000
1709140400.044,-54.199,-50.293,-28.320,-45.898,0.000
1709140400.048,-57.617,-40.039,-28.809,-49.805,0.000
1709140400.052,-53.711,-49.316,-31.250,-43.945,0.000
1709140400.056,-57.617,-57.129,-34.668,-38.574,0.000
1709140400.060,-64.453,-58.594,-29.785,-48.828,0.000
1709140400.063,-59.082,-60.059,-32.715,-50.781,0.000
1709140400.067,-54.688,-50.781,-38.574,-49.805,0.000
1709140400.071,0.000,-34.180,-34.180,-45.898,0.000
1709140400.075,0.000,-35.645,-25.391,-43.457,0.000
1709140400.079,0.000,-41.504,-25.879,-48.828,0.000
1709140400.083,0.000,-37.598,-25.879,-42.969,0.000
1709140400.087,0.000,-41.016,-23.438,-22.949,0.000
1709140400.091,0.000,-41.992,-31.250,-19.043,0.000
1709140400.095,0.000,-48.340,-38.574,-16.113,0.000
1709140400.099,0.000,-49.316,-32.715,-12.207,0.000
1709140400.102,0.000,-45.898,-30.273,-22.461,0.000
1709140400.106,0.000,-41.016,-39.551,-43.945,0.000
1709140400.110,0.000,-22.461,-41.992,-44.434,0.000
1709140400.114,0.000,-20.508,-44.434,-31.250,0.000
1709140400.118,-16.113,-24.902,-49.316,-31.738,0.000
1709140400.122,-9.766,-10.742,-52.734,-38.574,0.000
1709140400.126,-10.254,-2.441,-54.688,-46.387,0.000
1709140400.130,-7.324,-5.371,-53.711,-39.062,0.000
1709140400.134,-9.277,6.836,-60.059,-31.738,0.000
1709140400.138,-6.348,7.812,-68.359,-48.340,0.000
1709140400.141,-6.348,0.488,-71.289,-57.617,0.000
1709140400.145,-11.719,6.348,-74.219,-60.059,0.000
1709140400.149,-18.066,16.602,-74.219,-65.430,0.000
1709140400.153,-17.090,21.484,-74.707,-62.988,0.000
1709140400.157,-6.836,19.531,-76.172,-62.500,0.000
1709140400.161,-14.160,18.066,-76.172,-72.266,0.000
1709140400.165,-28.809,24.414,-69.824,-67.383,0.000
1709140400.169,-31.738,27.832,-75.684,-58.105,0.000
1709140400.172,-34.180,24.902,-87.402,-59.082,0.000
1709140400.176,-33.203,29.785,-87.891,-62.988,0.000
1709140400.180,-31.738,27.832,-83.984,-65.430,0.000
1709140400.184,-31.250,16.113,-81.543,-50.293,0.000
1709140400.188,-25.879,14.648,-79.102,-33.691,0.000
1709140400.192,-16.602,27.832,-80.078,-36.621,0.000
1709140400.196,-11.230,32.227,-86.426,-41.992,0.000
1709140400.200,-13.184,23.438,-85.938,-44.434,0.000
1709140400.204,-17.090,20.996,-77.637,-39.551,0.000
1709140400.208,-20.020,29.297,-74.219,-32.715,0.000
1709140400.212,-5.859,20.996,-77.148,-31.738,0.000
1709140400.216,4.883,8.789,-71.777,-28.809,0.000
1709140400.219,-11.719,5.371,-60.059,-33.203,0.000
1709140400.223,-19.531,16.113,-62.012,-46.875,0.000
1709140400.227,-16.602,15.625,-65.430,-46.875,0.000
1709140400.231,-7.812,-2.930,-65.430,-38.086,0.000
1709140400.235,-2.441,-3.418,-65.430,-42.969,0.000
1709140400.239,-9.277,-12.695,-57.129,-53.223,0.000
1709140400.243,-10.742,-20.996,-54.199,-56.152,0.000
1709140400.247,-7.324,0.000,-56.641,-39.551,0.000
1709140400.251,-15.625,0.488,-54.688,-37.109,0.000
1709140400.255,-24.414,-18.066,-52.734,-44.434,0.000
1709140400.259,-27.344,-15.137,-55.176,-40.039,0.000
1709140400.263,-34.180,-22.949,-58.594,-46.387,0.000
1709140400.266,-41.016,-41.016,-55.664,-40.527,0.000
1709140400.270,-44.922,-39.551,-51.270,-33.203,0.000
1709140400.274,-49.316,-36.133,-47.852,-33.203,0.000
1709140400.278,-50.293,-20.508,-44.922,-37.109,0.000
1709140400.282,-48.340,-21.484,-52.246,-47.852,0.000
1709140400.286,-43.945,-26.367,-53.223,-44.434,0.000
1709140400.290,-41.504,-30.273,-43.457,-25.391,0.000
1709140400.294,-44.922,-43.457,-42.969,-23.438,0.000
1709140400.298,-47.852,-28.809,-45.410,-41.992,0.000
1709140400.302,-44.922,-16.602,-45.410,-55.176,0.000
1709140400.306,-40.527,-27.344,-39.551,-47.852,0.000
1709140400.309,-43.457,-39.551,-39.062,-36.133,0.000
1709140400.313,-40.527,-39.062,-34.180,-38.086,0.000
1709140400.317,-44.434,-44.922,-37.109,-46.875,0.000
1709140400.321,-44.922,-51.270,-47.852,-44.922,0.000
1709140400.325,-40.039,-48.340,-50.781,-47.363,0.000
1709140400.329,-35.645,-31.250,-47.363,-42.480,0.000
1709140400.333,-31.250,-46.875,-43.945,-28.809,0.000
1709140400.337,-28.320,-54.199,-52.246,-27.344,0.000
1709140400.341,-14.160,-20.508,-50.293,-38.086,0.000
1709140400.345,-30.762,-17.090,-40.039,-50.293,0.000
1709140400.348,-46.387,-33.691,-41.992,-43.945,0.000
1709140400.352,-40.527,-27.832,-52.246,-34.668,0.000
1709140400.356,-35.156,-34.180,-47.852,-40.527,0.000
1709140400.360,-26.367,-50.781,-39.062,-48.340,0.000
1709140400.364,-30.762,-42.969,-41.992,-54.688,0.000
1709140400.368,-39.062,-28.320,-41.504,-46.387,0.000
1709140400.372,-38.574,-38.574,-41.992,-31.738,0.000
1709140400.376,-32.227,-39.551,-45.898,-30.762,0.000
1709140400.380,-32.715,-46.875,-48.340,-38.574,0.000
1709140400.384,-42.480,-61.035,-51.270,-39.551,0.000
1709140400.388,-41.992,-55.664,-43.457,-26.855,0.000
1709140400.391,-36.133,-49.316,-41.504,-27.344,0.000
1709140400.395,-39.062,-26.855,-42.480,-44.434,0.000
1709140400.399,-39.062,-18.555,-39.062,-45.410,0.000
1709140400.403,-32.715,-39.062,-38.086,-44.922,0.000
1709140400.407,-33.203,-47.852,-37.109,-39.551,0.000
1709140400.411,-37.598,-41.016,-35.156,-25.879,0.000
1709140400.415,-28.809,-50.781,-31.250,-18.555,0.000
1709140400.419,-38.086,-51.758,-31.250,-21.484,0.000
1709140400.423,-46.875,-43.945,-35.156,-35.156,0.000
1709140400.427,-41.992,-51.270,-35.645,-26.367,0.000
1709140400.430,-33.691,-62.500,-31.250,-12.695,0.000
1709140400.434,-24.902,-58.594,-32.715,-14.160,0.000
1709140400.438,-34.668,-52.246,-34.668,-28.320,0.000
1709140400.442,-42.480,-45.410,-26.367,-39.551,0.000
1709140400.446,-37.109,-55.664,-27.344,-35.645,0.000
1709140400.450,-35.645,-61.035,-32.715,-31.738,0.000
1709140400.454,-36.621,-39.551,-36.621,-26.367,0.000
1709140400.458,-33.203,-28.809,-42.480,-36.133,0.000
1709140400.462,-21.973,-39.062,-39.551,-47.363,0.000
1709140400.465,-34.180,-44.922,-34.180,-54.688,0.000
1709140400.469,-41.016,-41.992,-41.504,-43.945,0.000
1709140400.473,-31.250,-41.016,-50.293,-27.344,0.000
1709140400.477,-34.180,-45.410,-41.992,-42.480,0.000
1709140400.481,-36.621,-50.781,-30.762,-59.082,0.000
1709140400.485,-45.898,-39.551,-37.598,-56.641,0.000
1709140400.489,-41.504,-43.945,-40.527,-51.270,0.000
1709140400.493,-35.645,-56.152,-36.621,-45.410,0.000
1709140400.497,-39.551,-48.340,-34.668,-46.875,0.000
1709140400.500,-41.504,-44.922,-33.203,-57.617,0.000
1709140400.504,-50.293,-46.387,-40.527,-59.570,0.000
1709140400.508,-45.410,-52.734,-41.992,-49.805,0.000
1709140400.512,-49.316,-50.781,-47.363,-42.969,0.000
1709140400.516,-61.523,-42.969,-45.898,-35.156,0.000
1709140400.520,-57.129,-48.340,-37.598,-35.156,0.000
1709140400.524,-66.895,-48.828,-38.086,-48.828,0.000
1709140400.528,-66.895,-43.457,-27.832,-48.828,0.000
1709140400.532,-57.129,-39.062,-33.691,-38.574,0.000
1709140400.536,-54.199,-36.133,-41.016,-37.109,0.000
1709140400.539,-55.176,-33.203,-32.715,-47.363,0.000
1709140400.543,-55.664,-37.598,-33.691,-45.898,0.000
1709140400.547,-46.875,-50.293,-29.297,-32.715,0.000
1709140400.551,-41.992,-48.828,-28.809,-28.320,0.000
1709140400.555,-41.016,-50.781,-36.621,-30.273,0.000
1709140400.559,-41.016,-66.895,-36.133,-36.621,0.000
1709140400.563,-43.457,-69.824,-37.109,-27.832,0.000
1709140400.567,-38.086,-48.340,-46.387,-23.926,0.000
1709140400.571,-44.922,-35.156,-37.109,-27.344,0.000
1709140400.575,-55.664,-34.668,-25.879,-27.344,0.000
1709140400.578,-54.199,-37.598,-32.715,-39.062,0.000
1709140400.582,-47.363,-42.480,-35.645,-46.387,0.000
1709140400.586,-40.039,-41.504,-29.297,-34.668,0.000
1709140400.590,-46.875,-36.621,-31.738,-38.086,0.000
1709140400.594,-51.758,-57.617,-41.016,-46.387,0.000
1709140400.598,-48.340,-77.148,-38.574,-50.293,0.000
1709140400.602,-50.781,-54.688,-42.969,-62.012,0.000
1709140400.606,-49.316,-50.781,-49.316,-59.082,0.000
1709140400.610,-48.340,-48.340,-38.086,-56.641,0.000
1709140400.614,-43.945,-34.180,-39.551,-55.664,0.000
1709140400.618,-32.227,-42.969,-43.945,-51.270,0.000
1709140400.622,-33.203,-67.383,-35.156,-51.758,0.000
1709140400.625,-38.574,-57.129,-37.109,-47.852,0.000
1709140400.629,-43.457,-43.457,-38.086,-44.434,0.000
1709140400.633,-41.992,-41.504,-41.504,-46.387,0.000
1709140400.637,-34.668,-28.320,-41.504,-49.316,0.000
1709140400.641,-51.758,-32.715,-38.086,-48.828,0.000
1709140400.645,-58.105,-37.598,-43.457,-52.246,0.000
1709140400.649,-61.035,-35.156,-44.922,-61.035,0.000
1709140400.653,-55.664,-33.203,-35.645,-51.270,0.000
1709140400.657,-45.410,-36.133,-31.738,-44.434,0.000
1709140400.661,-56.152,-35.645,-39.062,-48.828,0.000
1709140400.665,-50.293,-39.551,-39.551,-46.875,0.000
1709140400.668,-43.945,-55.664,-39.062,-41.016,0.000
1709140400.672,-51.758,-48.340,-41.504,-41.992,0.000
1709140400.676,-45.410,-45.410,-41.504,-48.828,0.000
1709140400.680,-39.062,-50.293,-48.828,-59.082,0.000
1709140400.684,-47.852,-45.410,-45.410,-62.988,0.000
1709140400.688,-49.316,-28.809,-33.691,-56.641,0.000
1709140400.692,-34.180,-33.691,-38.086,-37.109,0.000
1709140400.696,-40.527,-45.898,-50.293,-28.320,0.000
1709140400.700,-49.805,-52.734,-41.992,-41.504,0.000
1709140400.704,-36.621,-52.246,-29.297,-45.898,0.000
1709140400.708,-27.344,-44.434,-30.762,-41.992,0.000
1709140400.711,-27.344,-49.316,-36.621,-28.320,0.000
1709140400.715,-26.855,-40.527,-39.551,-23.926,0.000
1709140400.719,-21.484,-40.527,-39.062,-42.480,0.000
1709140400.723,-27.344,-46.875,-41.504,-45.410,0.000
1709140400.727,-37.598,-46.387,-41.504,-42.969,0.000
1709140400.731,-38.086,-31.738,-35.156,-38.574,0.000
1709140400.735,-38.574,-16.113,-34.668,-39.062,0.000
1709140400.739,-33.203,-28.320,-43.945,-48.340,0.000
1709140400.743,-34.180,-39.062,-48.340,-44.922,0.000
1709140400.747,-50.781,-39.551,-45.410,-37.109,0.000
1709140400.751,-48.828,-46.875,-41.016,-27.832,0.000
1709140400.754,-41.016,-46.875,-38.574,-28.320,0.000
1709140400.758,-45.410,-49.805,-37.109,-36.133,0.000
1709140400.762,-41.504,-52.734,-41.016,-46.875,0.000
1709140400.766,-40.039,-49.316,-36.133,-47.852,0.000
1709140400.770,-36.621,-33.203,-32.715,-35.156,0.000
1709140400.774,-36.621,-27.344,-31.738,-32.715,0.000
1709140400.778,-38.574,-40.527,-35.645,-37.109,0.000
1709140400.782,-39.551,-48.340,-41.016,-39.551,0.000
1709140400.786,-34.668,-39.062,-36.133,-37.109,0.000
1709140400.790,-37.598,-27.832,-39.551,-37.109,0.000
1709140400.793,-37.598,-30.273,-36.133,-39.551,0.000
1709140400.797,-22.949,-45.898,-36.133,-42.969,0.000
1709140400.801,-29.785,-51.758,-33.203,-36.621,0.000
1709140400.805,-37.598,-47.363,-25.391,-33.203,0.000
1709140400.809,-41.016,-59.082,-34.180,-36.621,0.000
1709140400.813,-37.109,-40.039,-40.527,-36.621,0.000
1709140400.817,-27.344,-29.297,-37.598,-35.645,0.000
1709140400.821,-29.785,-41.992,-35.156,-38.086,0.000
1709140400.825,-35.156,-25.879,-37.598,-40.039,0.000
1709140400.828,-38.574,-26.367,-40.527,-29.785,0.000
1709140400.832,-36.133,-42.480,-38.086,-20.020,0.000
1709140400.836,-26.855,-31.250,-40.039,-22.949,0.000
1709140400.840,-26.367,-48.340,-41.504,-39.551,0.000
1709140400.844,-21.484,-79.102,-35.156,-32.227,0.000
1709140400.848,-25.391,-56.152,-38.086,-18.555,0.000
1709140400.852,-37.598,-27.344,-44.434,-35.645,0.000
1709140400.856,-25.879,-36.133,-42.969,-47.363,0.000
1709140400.860,-36.133,-41.992,-43.457,-65.430,0.000
1709140400.864,-56.152,-39.062,-40.039,-73.242,0.000
1709140400.867,-37.598,-48.340,-37.109,-56.641,0.000
1709140400.871,-39.551,-51.758,-41.016,-52.734,0.000
1709140400.875,-53.223,-56.641,-40.039,-57.129,0.000
1709140400.879,-53.711,-64.941,-39.551,-58.105,0.000
1709140400.883,-54.688,-39.551,-39.062,-60.059,0.000
1709140400.887,-41.504,-35.645,-36.621,-50.781,0.000
1709140400.891,-43.457,-58.105,-39.551,-37.598,0.000
1709140400.895,-49.805,-50.293,-34.668,-41.016,0.000
1709140400.899,-45.410,-44.434,-34.668,-55.664,0.000
1709140400.903,-52.734,-46.387,-33.691,-52.734,0.000
1709140400.906,-49.805,-36.133,-29.785,-39.551,0.000
1709140400.910,-42.969,-25.879,-36.133,-33.203,0.000
1709140400.914,0.000,-39.551,-39.551,-28.809,0.000
1709140400.918,0.000,-46.875,-40.527,-31.738,0.000
1709140400.922,0.000,-47.363,-41.504,-41.504,0.000
1709140400.926,0.000,-51.758,-36.133,-43.457,0.000
1709140400.930,0.000,-57.129,-28.809,-25.391,0.000
1709140400.934,0.000,-52.734,-29.297,-20.508,0.000
1709140400.938,0.000,-39.551,-41.504,-34.180,0.000
1709140400.941,0.000,-31.250,-41.016,-39.062,0.000
1709140400.945,0.000,-20.508,-39.551,-39.551,0.000
1709140400.949,0.000,-29.785,-36.621,-38.086,0.000
1709140400.953,0.000,-54.199,-26.855,-30.273,0.000
1709140400.957,0.000,-47.852,-24.414,-31.738,0.000
1709140400.961,-43.945,-30.762,-27.344,-44.922,0.000
1709140400.965,-46.875,-40.039,-31.738,-56.152,0.000
1709140400.969,-48.340,-61.523,-36.621,-44.434,0.000
1709140400.973,-40.039,-44.922,-35.645,-32.715,0.000
1709140400.977,-39.551,-33.691,-34.668,-51.758,0.000
1709140400.981,-48.828,-48.828,-35.156,-64.941,0.000
1709140400.985,-49.805,-37.598,-30.762,-59.570,0.000
1709140400.988,-47.363,-31.738,-38.086,-54.199,0.000
1709140400.992,-44.434,-44.434,-43.945,-48.340,0.000
1709140400.996,-43.945,-54.199,-37.109,-43.945,0.000
1709140401.000,-36.621,-48.340,-37.598,-53.223,0.000
1709140401.004,-37.598,-40.527,-39.551,-52.246,0.000
1709140401.008,-47.363,-50.293,-37.598,-42.480,0.000
1709140401.012,-37.109,-63.477,-33.203,-34.180,0.000
1709140401.016,-27.832,-49.316,-35.156,-32.227,0.000
1709140401.020,-30.273,-30.273,-33.691,-34.180,0.000
1709140401.024,-31.738,-42.969,-35.156,-24.902,0.000
1709140401.028,-32.227,-52.246,-35.156,-20.508,0.000
1709140401.032,-24.414,-35.645,-26.855,-15.625,0.000
1709140401.035,-18.555,-24.414,-22.949,-11.719,0.000
1709140401.039,-26.855,-40.039,-27.832,-26.367,0.000
1709140401.043,-45.410,-56.641,-34.180,-34.668,0.000
1709140401.047,-47.363,-38.086,-42.969,-34.668,0.000
1709140401.051,-36.133,-28.809,-44.434,-40.039,0.000
1709140401.055,-39.551,-45.410,-36.621,-50.781,0.000
1709140401.059,-40.039,-41.504,-32.227,-57.617,0.000
1709140401.063,-39.551,-34.180,-34.668,-53.223,0.000
1709140401.067,-48.828,-34.668,-38.086,-41.992,0.000
1709140401.071,-43.457,-38.086,-41.992,-32.715,0.000
1709140401.075,-37.598,-52.246,-44.434,-30.762,0.000
1709140401.078,-35.156,-63.477,-43.945,-33.691,0.000
1709140401.082,-28.809,-49.805,-45.898,-41.016,0.000
1709140401.086,-35.645,-36.133,-45.898,-36.133,0.000
1709140401.090,-48.340,-42.969,-50.781,-33.691,0.000
1709140401.094,-55.664,-41.504,-46.387,-43.945,0.000
1709140401.098,-53.223,-45.410,-35.645,-42.480,0.000
1709140401.102,-62.500,-47.852,-32.715,-54.199,0.000
1709140401.106,-66.895,-44.922,-37.109,-61.523,0.000
1709140401.110,-55.664,-52.246,-38.086,-52.246,0.000
1709140401.114,-58.105,-55.664,-40.527,-45.898,0.000
1709140401.117,-57.617,-37.109,-48.828,-45.898,0.000
1709140401.121,-49.805,-31.738,-49.805,-62.012,0.000
1709140401.125,-47.363,-50.293,-46.387,-64.941,0.000
1709140401.129,-51.270,-56.152,-37.598,-47.363,0.000
1709140401.133,-66.406,-48.828,-27.832,-26.855,0.000
1709140401.137,-68.359,-35.156,-33.691,-42.480,0.000
1709140401.141,-52.734,-33.691,-34.180,-49.316,0.000
1709140401.145,-48.828,-57.617,-31.738,-37.598,0.000
1709140401.149,-51.270,-63.965,-32.715,-32.715,0.000
1709140401.153,-44.434,-44.922,-33.203,-34.668,0.000
1709140401.157,-41.992,-41.504,-37.598,-44.922,0.000
1709140401.160,-42.480,-35.156,-37.598,-48.828,0.000
1709140401.164,-44.434,-22.949,-32.715,-45.410,0.000
1709140401.168,-53.223,-34.180,-36.621,-43.945,0.000
1709140401.172,-41.504,-42.969,-46.387,-43.945,0.000
1709140401.176,-41.992,-55.664,-43.945,-35.645,0.000
1709140401.180,-57.617,-52.246,-31.738,-42.480,0.000
1709140401.184,-47.852,-56.152,-27.832,-39.551,0.000
1709140401.188,-35.156,-39.062,-33.203,-21.484,0.000
1709140401.192,-30.273,-19.043,-28.809,-21.973,0.000
1709140401.196,-24.414,-33.691,-32.715,-32.715,0.000
1709140401.199,-21.973,-29.297,-36.133,-39.551,0.000
1709140401.203,-29.297,-20.020,-28.809,-36.621,0.000
1709140401.207,-37.598,-30.762,-28.320,-34.668,0.000
1709140401.211,-34.668,-30.273,-26.367,-27.344,0.000
1709140401.215,-29.785,-31.738,-25.879,-36.133,0.000
1709140401.219,-29.785,-48.828,-26.367,-35.156,0.000
1709140401.223,-39.551,-40.039,-30.273,-38.086,0.000
1709140401.227,-35.156,-28.809,-32.715,-49.316,0.000
1709140401.231,-31.250,-37.598,-32.715,-33.203,0.000
1709140401.235,-31.250,-45.410,-41.992,-25.879,0.000
1709140401.239,-24.902,-48.828,-53.711,-37.598,0.000
1709140401.242,-30.273,-41.504,-45.410,-45.410,0.000
1709140401.246,-32.715,-38.574,-31.250,-36.133,0.000
1709140401.250,-29.785,-61.035,-26.855,-27.832,0.000
1709140401.254,-23.438,-67.383,-27.832,-26.367,0.000
1709140401.258,-19.043,-42.480,-29.785,-32.227,0.000
1709140401.262,-22.949,-24.902,-34.180,-41.016,0.000
1709140401.266,-35.645,-25.391,-40.527,-38.086,0.000
1709140401.270,-43.945,-26.855,-46.387,-25.391,0.000
1709140401.274,-29.297,-24.414,-49.805,-28.320,0.000
1709140401.277,-21.484,-22.949,-50.293,-38.086,0.000
1709140401.281,-27.832,-34.180,-54.688,-41.504,0.000
1709140401.285,-28.809,-47.852,-54.199,-40.039,0.000
1709140401.289,-32.227,-61.523,-45.898,-30.273,0.000
1709140401.293,-21.973,-64.941,-46.875,-18.555,0.000
1709140401.297,-19.531,-44.922,-45.410,-21.973,0.000
1709140401.301,-30.273,-41.016,-48.828,-30.762,0.000
1709140401.305,-27.832,-36.133,-44.922,-34.180,0.000
1709140401.309,-8.301,-31.250,-26.855,-20.996,0.000
1709140401.312,-8.301,-42.969,-26.367,-10.742,0.000
1709140401.316,-14.160,-44.922,-40.039,-26.855,0.000
1709140401.320,-8.789,-42.480,-42.969,-30.762,0.000
1709140401.324,-1.465,-41.016,-36.621,-24.414,0.000
1709140401.328,-3.418,-30.273,-41.016,-17.578,0.000
1709140401.332,-12.695,-25.879,-44.434,-12.695,0.000
1709140401.336,-13.184,-42.480,-39.062,-25.879,0.000
1709140401.340,-18.066,-39.062,-42.480,-42.969,0.000
1709140401.344,-21.484,-32.227,-42.480,-44.434,0.000
1709140401.348,-21.484,-36.133,-36.133,-32.227,0.000
1709140401.352,-18.066,-29.297,-37.598,-20.996,0.000
1709140401.356,-10.742,-49.805,-39.551,-20.996,0.000
1709140401.359,-21.484,-54.199,-38.086,-33.203,0.000
1709140401.363,-38.574,-28.320,-39.551,-39.551,0.000
1709140401.367,-41.992,-34.180,-36.621,-33.691,0.000
1709140401.371,-48.828,-36.621,-36.621,-24.414,0.000
1709140401.375,-41.016,-28.320,-43.945,-32.715,0.000
1709140401.379,-45.410,-38.086,-44.434,-55.664,0.000
1709140401.383,-67.383,-34.668,-27.832,-56.152,0.000
1709140401.387,-50.293,-37.109,-20.996,-46.875,0.000
1709140401.391,-45.410,-40.039,-32.227,-37.598,0.000
1709140401.395,-50.781,-24.902,-41.992,-30.273,0.000
1709140401.399,-47.852,-36.621,-36.621,-39.062,0.000
1709140401.403,-50.293,-44.922,-25.879,-42.969,0.000
1709140401.406,-52.734,-52.734,-31.738,-38.086,0.000
1709140401.410,-44.434,-59.570,-36.621,-36.133,0.000
1709140401.414,-30.762,-54.199,-33.203,-30.762,0.000
1709140401.418,-34.180,-41.016,-36.133,-34.180,0.000
1709140401.422,-47.363,-35.156,-37.109,-43.945,0.000
1709140401.426,-42.480,-42.480,-40.039,-43.457,0.000
1709140401.430,-40.039,-40.527,-41.992,-33.691,0.000
1709140401.434,-43.945,-41.504,-44.922,-22.461,0.000
1709140401.438,-39.551,-38.086,-33.691,-25.391,0.000
1709140401.442,-45.410,-43.945,-18.555,-35.156,0.000
1709140401.446,-43.945,-51.270,-26.855,-33.691,0.000
1709140401.449,-38.086,-41.992,-31.250,-20.996,0.000
1709140401.453,-33.691,-41.992,-27.344,-28.320,0.000
1709140401.457,-21.484,-56.641,-24.902,-30.273,0.000
1709140401.461,-18.555,-59.570,-24.902,-18.066,0.000
1709140401.465,-39.062,-41.504,-31.738,-26.855,0.000
1709140401.469,-36.621,-19.531,-45.410,-34.180,0.000
1709140401.473,-25.391,-20.996,-44.922,-30.762,0.000
1709140401.477,-32.227,-35.156,-44.922,-30.273,0.000
1709140401.481,-24.414,-40.039,-41.504,-34.180,0.000
1709140401.485,-34.668,-49.805,-27.832,-38.086,0.000
1709140401.488,-48.340,-47.363,-29.785,-27.832,0.000
1709140401.492,-38.574,-37.109,-40.527,-27.832,0.000
1709140401.496,-24.902,-47.852,-41.016,-28.809,0.000
1709140401.500,-26.367,-53.711,-33.691,-34.180,0.000
1709140401.504,-36.133,-41.504,-28.320,-38.574,0.000
1709140401.508,-55.176,-25.879,-29.785,-38.086,0.000
1709140401.512,-61.523,-15.625,-34.668,-34.668,0.000
1709140401.516,-41.016,-38.086,-30.762,-21.973,0.000
1709140401.520,-29.785,-57.617,-25.391,-34.668,0.000
1709140401.524,-38.574,-33.203,-27.344,-46.875,0.000
1709140401.527,-51.270,-34.180,-30.273,-42.969,0.000
1709140401.531,-44.434,-38.086,-36.621,-48.340,0.000
1709140401.535,-46.875,-20.996,-41.504,-41.504,0.000
1709140401.539,-46.387,-21.973,-35.645,-36.621,0.000
1709140401.543,-44.434,-37.598,-39.551,-42.480,0.000
1709140401.547,-47.852,-43.945,-41.504,-31.738,0.000
1709140401.551,-34.180,-43.457,-26.855,-14.648,0.000
1709140401.555,-41.504,-48.828,-18.555,-14.160,0.000
1709140401.559,-56.641,-49.805,-23.926,-31.250,0.000
1709140401.563,-44.434,-35.645,-32.227,-43.945,0.000
1709140401.567,-34.668,-34.668,-31.250,-43.457,0.000
1709140401.571,-30.273,-33.203,0.000,-25.879,0.000
1709140401.575,-32.715,-26.855,0.000,-26.367,0.000
1709140401.579,-36.133,-33.691,0.000,-44.434,0.000
1709140401.582,-30.273,-27.832,0.000,-52.246,0.000
1709140401.586,-33.691,-29.785,0.000,-55.664,0.000
1709140401.590,-45.410,-38.574,0.000,-49.316,0.000
1709140401.594,-34.668,-39.551,0.000,-41.016,0.000
1709140401.598,-29.785,-44.922,0.000,-39.551,0.000
1709140401.602,-40.527,-35.645,0.000,-50.293,0.000
1709140401.606,-34.668,-28.809,0.000,-51.270,0.000
1709140401.610,-21.973,-28.320,0.000,-36.621,0.000
1709140401.614,-23.438,-34.180,0.000,-30.762,0.000
1709140401.617,-20.996,-35.645,-36.621,-37.109,0.000
1709140401.621,-26.367,-27.832,-46.387,-57.617,0.000
1709140401.625,-38.086,-28.320,-45.898,-60.547,0.000
1709140401.629,-38.574,-41.016,-39.062,-45.410,0.000
1709140401.633,-35.645,-47.852,-39.551,-33.691,0.000
1709140401.637,-37.598,-39.551,-29.297,-34.668,0.000
1709140401.641,-41.992,-49.316,-27.832,-43.457,0.000
1709140401.645,-38.086,-57.617,-33.691,-48.828,0.000
1709140401.649,-37.109,-39.551,-31.738,-45.410,0.000
1709140401.653,-41.992,-30.762,-31.250,-33.691,0.000
1709140401.656,-38.086,-39.062,-44.922,-49.805,0.000
1709140401.660,-41.504,-36.133,-40.527,-54.199,0.000
1709140401.664,-47.363,-32.715,-35.156,-35.645,0.000
1709140401.668,-60.059,-44.434,-43.457,-33.691,0.000
1709140401.672,-57.129,-35.645,-35.156,-43.457,0.000
1709140401.676,-51.758,-36.621,-30.762,-58.105,0.000
1709140401.680,-55.176,-44.434,-36.621,-67.383,0.000
1709140401.684,-50.293,-43.945,-42.969,-63.965,0.000
1709140401.688,-46.875,-37.109,-41.504,-39.062,0.000
1709140401.691,-41.016,-34.668,-33.203,-21.484,0.000
1709140401.695,-42.480,-43.457,-33.203,-31.250,0.000
1709140401.699,-38.574,-45.410,-33.691,-44.434,0.000
1709140401.703,-41.504,-53.711,-38.574,-59.570,0.000
1709140401.707,-43.945,-36.621,-39.062,-51.270,0.000
1709140401.711,-27.344,-25.879,-39.062,-28.809,0.000
1709140401.715,-29.785,-45.410,-40.527,-34.180,0.000
1709140401.719,-37.598,-53.223,-36.133,-52.246,0.000
1709140401.723,-47.363,-44.922,-34.180,-54.199,0.000
1709140401.727,-60.059,-33.203,-41.504,-58.594,0.000
1709140401.731,-53.711,-38.086,-46.387,-55.664,0.000
1709140401.735,-39.062,-38.086,-45.898,-47.852,0.000
1709140401.738,-50.293,-30.762,-39.551,-47.852,0.000
1709140401.742,-57.129,-33.203,-37.109,-54.688,0.000
1709140401.746,-51.758,-34.180,-39.551,-58.105,0.000
1709140401.750,-57.129,-42.480,-41.016,-52.246,0.000
1709140401.754,-55.664,-44.434,-42.480,-47.363,0.000
1709140401.758,-22.461,-44.434,-38.086,-39.551,0.000
1709140401.762,-28.809,-63.477,-32.715,-59.082,0.000
1709140401.766,-60.547,-49.805,-38.574,-55.176,0.000
1709140401.770,-48.828,-38.086,-63.477,-23.926,0.000
1709140401.774,-41.504,-32.227,-49.316,-21.484,0.000
1709140401.778,-43.945,-26.855,-23.926,-37.109,0.000
1709140401.782,-44.922,-28.809,-25.879,-52.734,0.000
1709140401.785,-49.316,-35.156,-29.297,-59.082,0.000
1709140401.789,-55.176,-49.316,-31.738,-43.457,0.000
1709140401.793,-59.570,-39.551,-28.809,-30.762,0.000
1709140401.797,-47.363,-18.555,-26.855,-39.062,0.000
1709140401.801,-38.574,-44.922,-20.996,-49.316,0.000
1709140401.805,-36.133,-59.570,-29.297,-47.852,0.000
1709140401.809,-39.551,-52.734,-42.480,-37.598,0.000
1709140401.813,-43.945,-47.363,-37.109,-33.691,0.000
1709140401.817,-42.480,-29.297,-31.738,-47.363,0.000
1709140401.821,-54.688,-24.902,-30.273,-56.152,0.000
1709140401.825,-64.941,-32.715,-34.668,-50.293,0.000
1709140401.828,-51.758,-47.363,-38.574,-43.945,0.000
1709140401.832,-44.922,-49.805,-40.527,-49.805,0.000
1709140401.836,-45.898,-41.992,-41.992,-49.805,0.000
1709140401.840,-60.059,-44.434,-43.945,-59.082,0.000
1709140401.844,-55.664,-38.574,-44.434,-59.082,0.000
1709140401.848,-44.922,-27.344,-44.922,-46.875,0.000
1709140401.852,-39.551,-41.992,-50.781,-43.457,0.000
1709140401.856,-34.668,-52.246,-53.223,-44.922,0.000
1709140401.860,-43.457,-30.273,-49.805,-59.570,0.000
1709140401.864,-56.152,-41.016,-52.246,-74.707,0.000
1709140401.868,-54.199,-50.293,-46.387,-67.871,0.000
1709140401.871,-38.574,-25.391,-43.457,-48.828,0.000
1709140401.875,-28.320,-36.133,-54.199,-51.758,0.000
1709140401.879,-54.688,-53.711,-50.293,-58.594,0.000
1709140401.883,-61.523,-39.062,-54.199,-54.199,0.000
1709140401.887,-59.570,-25.879,-62.012,-52.734,0.000
1709140401.891,-55.176,-26.855,-44.434,-34.180,0.000
1709140401.895,-37.598,-43.945,-32.715,-25.879,0.000
1709140401.899,-39.062,-47.363,-41.504,-48.340,0.000
1709140401.903,-36.621,-44.922,-45.898,-43.457,0.000
1709140401.907,-41.504,-66.406,-34.180,-41.016,0.000
1709140401.910,-60.059,-50.781,-31.738,-44.434,0.000
1709140401.914,-59.570,-36.133,-34.668,-45.410,0.000
1709140401.918,-61.035,-65.430,-38.574,-54.688,0.000
1709140401.922,-64.453,-64.941,-36.621,-56.641,0.000
1709140401.926,-75.195,-47.852,-38.086,-51.758,0.000
1709140401.930,-77.148,-39.551,-41.504,-50.293,0.000
1709140401.934,-61.035,-40.039,-38.086,-50.781,0.000
1709140401.938,-54.688,-42.969,-36.133,-55.664,0.000
1709140401.942,-66.406,-35.645,-35.156,-62.012,0.000
1709140401.945,-84.473,-49.316,-38.574,-55.664,0.000
1709140401.949,-63.965,-57.617,-42.480,-44.434,0.000
1709140401.953,-43.945,-43.945,-46.387,-37.598,0.000
1709140401.957,-43.945,-59.082,-44.922,-42.480,0.000
1709140401.961,-46.387,-57.617,-50.293,-58.105,0.000
1709140401.965,-56.641,-30.273,-45.898,-63.477,0.000
1709140401.969,-58.105,-53.223,-39.062,-53.223,0.000
1709140401.973,-59.082,-69.824,-37.598,-50.781,0.000
1709140401.977,-54.199,-20.996,-42.480,-69.336,0.000
1709140401.981,-50.293,-9.766,-47.363,-82.520,0.000
1709140401.985,-57.617,-41.992,-41.992,-65.918,0.000
1709140401.988,-59.570,-40.039,-50.781,-44.434,0.000
1709140401.993,-52.734,-20.996,-56.152,-48.340,0.000
1709140401.996,-58.594,-32.715,-37.109,-63.477,0.000
1709140402.000,-45.898,-42.969,-32.227,-77.637,0.000
1709140402.004,-56.152,-31.250,-33.691,-85.449,0.000
1709140402.008,-64.941,-37.598,-41.992,-51.270,0.000
1709140402.012,-51.758,-50.781,-43.457,-41.992,0.000
1709140402.016,-57.129,-47.852,-34.668,-38.086,0.000
1709140402.020,-47.852,-50.293,-35.156,-58.105,0.000
1709140402.024,-55.664,-60.059,-33.691,-86.426,0.000
1709140402.028,-49.805,-52.246,-38.086,-55.664,0.000
1709140402.032,-35.645,-28.320,-44.434,-51.758,0.000
1709140402.036,-48.340,-27.344,-41.016,-62.500,0.000
1709140402.039,-56.152,-36.133,-36.621,-55.176,0.000
1709140402.043,-36.621,-33.691,-35.645,-53.711,0.000
1709140402.047,-34.668,-31.250,-35.645,-54.199,0.000
1709140402.051,-45.898,-25.879,-40.039,-64.453,0.000
1709140402.055,-24.414,-27.832,-46.875,-56.152,0.000
1709140402.059,-22.461,-46.875,-41.992,-31.738,0.000
1709140402.063,-28.809,-42.480,-32.227,-36.133,0.000
1709140402.067,-17.090,-28.809,-26.855,-34.180,0.000
1709140402.071,-14.160,-18.555,-36.621,-34.668,0.000
1709140402.074,-18.066,-35.645,-42.480,-24.414,0.000
1709140402.078,-4.883,-58.594,-43.945,-7.324,0.000
1709140402.082,-2.930,-29.297,-40.039,-25.391,0.000
1709140402.086,-20.996,-30.762,-38.086,-38.086,0.000
1709140402.090,-8.789,-37.109,-41.016,-11.230,0.000
1709140402.094,3.418,-23.438,-31.738,-9.766,0.000
1709140402.098,-6.348,-20.996,-37.598,-38.574,0.000
1709140402.102,-10.742,-29.785,-41.016,-38.086,0.000
1709140402.106,-13.184,-42.969,-36.133,-20.996,0.000
1709140402.110,-12.695,-26.855,-48.340,-33.691,0.000
1709140402.114,-6.836,-38.574,-52.246,-32.227,0.000
1709140402.118,-15.625,-57.617,-52.246,-29.297,0.000
1709140402.121,-33.203,-49.805,-56.641,-49.805,0.000
1709140402.125,-31.250,-41.016,-51.270,-48.340,0.000
1709140402.129,-31.738,-24.902,-45.898,-41.504,0.000
1709140402.133,-33.691,-20.996,-42.480,-41.992,0.000
1709140402.137,-28.809,-18.555,-34.180,-47.363,0.000
1709140402.141,-20.020,-12.695,-36.133,-40.039,0.000
1709140402.145,-22.949,-38.574,-34.180,-34.180,0.000
1709140402.149,-39.062,-48.828,-34.668,-42.480,0.000
1709140402.153,-39.062,-41.992,-39.062,-45.410,0.000
1709140402.157,-43.945,-40.039,-31.738,-40.039,0.000
1709140402.161,-50.293,-24.902,-35.645,-51.758,0.000
1709140402.164,-46.875,-33.203,-41.016,-54.688,0.000
1709140402.168,-53.711,-38.086,-37.109,-44.922,0.000
1709140402.172,-49.316,-28.809,-41.016,-43.945,0.000
1709140402.176,-47.363,-39.062,-40.527,-34.668,0.000
1709140402.180,-48.340,-42.969,-36.621,-34.668,0.000
1709140402.184,-30.273,-39.062,-41.016,-35.156,0.000
1709140402.188,-21.973,-39.551,-40.039,-20.996,0.000
1709140402.192,-34.668,-24.414,-39.551,-15.625,0.000
1709140402.196,-40.039,-28.809,-39.062,-20.508,0.000
1709140402.200,-37.598,-42.969,-39.551,-24.414,0.000
1709140402.204,-30.762,-35.645,-37.598,-24.902,0.000
1709140402.207,-35.645,-33.203,-37.598,-29.297,0.000
1709140402.211,-49.805,-30.762,-43.945,-13.672,0.000
1709140402.215,-35.156,-19.043,-47.852,-26.855,0.000
1709140402.219,-18.066,-9.766,-41.992,-38.574,0.000
1709140402.223,-25.391,-15.137,-38.086,-33.691,0.000
1709140402.227,0.000,-30.762,0.000,-30.273,0.000
1709140402.231,0.000,-35.156,0.000,-35.645,0.000
1709140402.235,0.000,-23.926,0.000,-32.715,0.000
1709140402.239,0.000,-33.203,0.000,-34.180,0.000
1709140402.243,0.000,-45.898,0.000,-43.457,0.000
1709140402.247,0.000,-24.414,0.000,-33.203,0.000
1709140402.251,0.000,-11.230,0.000,-33.203,0.000
1709140402.254,0.000,-29.297,0.000,-33.203,0.000
1709140402.258,0.000,-35.156,0.000,-30.762,0.000
1709140402.262,0.000,-32.715,0.000,-40.527,0.000
1709140402.266,0.000,-35.645,0.000,-42.969,0.000
1709140402.270,0.000,-43.457,0.000,-33.691,0.000
1709140402.273,-36.621,-48.340,-41.992,-27.832,0.000
1709140402.277,-38.086,-51.758,-39.551,-24.414,0.000
1709140402.281,-36.133,-40.039,-38.086,-36.133,0.000
1709140402.285,-37.109,-28.320,-37.598,-52.734,0.000
1709140402.288,-39.062,-48.340,-34.668,-42.480,0.000
1709140402.292,-40.527,-51.758,-37.109,-31.738,0.000
1709140402.296,-29.785,-41.992,-43.457,-33.203,0.000
1709140402.300,-34.668,-43.945,-46.387,-38.574,0.000
1709140402.304,-42.969,-34.668,-41.504,-42.480,0.000
1709140402.308,-38.574,-26.367,-42.480,-33.691,0.000
1709140402.312,-47.363,-28.320,-46.875,-16.113,0.000
1709140402.316,-41.504,-32.715,-46.387,-23.926,0.000
1709140402.320,-33.203,-27.832,-35.156,-37.598,0.000
1709140402.324,-26.855,-42.969,-28.809,-46.875,0.000
1709140402.327,-40.527,-47.363,-29.297,-49.316,0.000
1709140402.331,-48.340,-31.250,-34.180,-45.410,0.000
1709140402.335,-26.367,-27.344,-36.133,-32.227,0.000
1709140402.339,-29.785,-36.133,-42.480,-39.551,0.000
1709140402.343,-42.969,-48.340,-41.992,-57.129,0.000
1709140402.347,-48.828,-44.922,-39.062,-50.293,0.000
1709140402.351,-48.828,-51.270,-41.992,-50.293,0.000
1709140402.355,-24.902,-52.734,-39.551,-39.062,0.000
1709140402.359,-25.879,-45.410,-42.480,-40.527,0.000
1709140402.363,-41.992,-49.316,-41.992,-61.035,0.000
1709140402.366,-41.504,-53.711,-42.969,-55.664,0.000
1709140402.370,-29.785,-37.109,-41.992,-22.461,0.000
1709140402.374,-32.227,-19.043,-37.598,-34.180,0.000
1709140402.378,-40.039,-40.527,-40.527,-42.969,0.000
1709140402.382,-36.133,-55.664,-40.039,-31.250,0.000
1709140402.386,-33.691,-44.434,-35.156,-33.691,0.000
1709140402.390,-37.109,-36.133,-36.133,-30.762,0.000
1709140402.394,-44.434,-46.387,-41.016,-37.109,0.000
1709140402.398,-49.316,-45.898,-41.504,-49.316,0.000
1709140402.402,-47.363,-42.480,-36.133,-51.758,0.000
1709140402.405,-51.758,-44.434,-34.668,-58.594,0.000
1709140402.409,-59.082,-40.527,-37.109,-64.941,0.000
1709140402.413,-49.316,-39.551,-36.133,-59.082,0.000
1709140402.417,-40.527,-53.223,-33.691,-51.758,0.000
1709140402.421,-63.477,-57.617,-34.180,-65.430,0.000
1709140402.425,-89.844,-47.363,-41.992,-87.402,0.000
1709140402.429,-60.059,-54.688,-35.645,-55.176,0.000
1709140402.433,-37.598,-70.801,-36.133,-36.621,0.000
1709140402.437,-52.246,-59.082,-46.387,-37.109,0.000
1709140402.440,-61.035,-38.086,-37.598,-44.434,0.000
1709140402.444,-67.383,-38.086,-28.809,-59.082,0.000
1709140402.448,-47.363,-46.387,-29.297,-42.969,0.000
1709140402.452,-34.668,-44.922,-34.668,-42.480,0.000
1709140402.456,-31.250,-41.992,-34.668,-45.410,0.000
1709140402.460,-32.715,-65.918,-30.762,-36.621,0.000
1709140402.464,-41.016,-60.547,-34.668,-35.156,0.000
1709140402.468,-32.227,-35.645,-36.621,-26.855,0.000
1709140402.472,-36.133,-32.227,-45.410,-30.762,0.000
1709140402.476,-24.414,-51.758,-48.340,-28.320,0.000
1709140402.480,-25.879,-65.430,-36.133,-25.879,0.000
1709140402.484,-33.203,-58.105,-24.414,-38.086,0.000
1709140402.487,-12.207,-48.828,-19.531,-25.391,0.000
1709140402.491,-15.137,-41.992,-22.949,-8.789,0.000
1709140402.495,-24.414,-28.320,-35.156,-18.555,0.000
1709140402.499,-33.691,-14.648,-40.527,-38.086,0.000
1709140402.503,-53.223,-28.809,-35.156,-49.805,0.000
1709140402.507,-55.176,-43.945,-38.086,-45.410,0.000
1709140402.511,-47.363,-46.875,-32.715,-39.551,0.000
1709140402.515,-53.711,-43.457,-31.250,-41.504,0.000
1709140402.519,-53.711,-47.852,-34.668,-52.246,0.000
1709140402.523,-43.457,-55.664,-35.645,-66.406,0.000
1709140402.527,-50.781,-40.527,-35.156,-60.059,0.000
1709140402.531,-55.664,-40.527,-32.715,-40.527,0.000
1709140402.534,-42.480,-57.617,-34.180,-31.250,0.000
1709140402.538,-38.086,-41.016,-31.250,-38.086,0.000
1709140402.542,-41.016,-22.461,-30.273,-43.945,0.000
1709140402.546,-43.945,-29.297,-35.156,-47.852,0.000
1709140402.550,-41.016,-33.691,-34.668,-48.340,0.000
1709140402.554,-35.156,-30.273,-38.086,-40.527,0.000
1709140402.558,-47.363,-43.457,-46.387,-50.781,0.000
1709140402.562,-56.152,-43.945,-46.875,-63.965,0.000
1709140402.566,-31.738,-29.297,-41.016,-38.574,0.000
1709140402.570,-45.898,-28.320,-41.992,-24.414,0.000
1709140402.574,-38.574,-40.039,-42.969,-26.367,0.000
1709140402.578,-8.301,-36.133,-35.156,-35.645,0.000
1709140402.582,-12.695,-36.133,-39.062,-45.410,0.000
1709140402.586,-38.574,-43.457,-41.016,-49.316,0.000
1709140402.590,-43.945,-44.434,-32.715,-38.574,0.000
1709140402.594,-14.160,-57.617,-33.691,-15.137,0.000
1709140402.597,-25.391,-61.523,-41.992,-33.203,0.000
1709140402.602,-28.809,-35.156,-57.129,-43.457,0.000
1709140402.606,-32.715,-34.668,-45.898,-47.852,0.000
1709140402.610,-32.715,-46.875,-23.926,-58.105,0.000
1709140402.613,-24.414,-46.875,-22.949,-43.945,0.000
1709140402.617,-25.391,-43.457,-28.320,-41.992,0.000
1709140402.621,-40.527,-28.320,-33.203,-64.941,0.000
1709140402.625,-35.156,-27.344,-35.156,-48.828,0.000
1709140402.629,-41.992,-46.387,-37.598,-24.902,0.000
1709140402.633,-54.199,-41.504,-40.039,-41.992,0.000
1709140402.637,-61.035,-20.996,-45.898,-52.246,0.000
1709140402.641,-76.172,-24.414,-48.340,-78.613,0.000
1709140402.645,-75.684,-41.992,-41.016,-83.984,0.000
1709140402.649,-68.848,-48.828,-39.551,-41.992,0.000
1709140402.652,-52.734,-45.410,-36.133,-54.199,0.000
1709140402.656,-59.570,-36.133,-37.598,-49.316,0.000
1709140402.660,-50.293,-37.109,-45.898,-48.828,0.000
1709140402.664,-29.297,-28.809,-46.875,-59.570,0.000
1709140402.668,-48.828,-29.785,-45.898,-59.082,0.000
1709140402.672,-67.383,-37.109,-54.688,-42.969,0.000
1709140402.676,-73.242,-55.664,-46.387,-9.277,0.000
1709140402.680,-58.105,-60.059,-31.738,-36.621,0.000
1709140402.684,-23.926,-59.570,-36.621,-55.176,0.000
1709140402.688,-11.230,-51.758,-33.691,-30.762,0.000
1709140402.692,-22.461,-37.598,-28.809,-14.160,0.000
1709140402.695,-62.988,-40.039,-41.992,-41.504,0.000
1709140402.699,-43.457,-40.039,-50.781,-50.781,0.000
1709140402.703,-21.973,-42.969,-38.574,-34.668,0.000
1709140402.707,-40.527,-41.016,-32.227,-60.547,0.000
1709140402.711,-51.270,-45.410,-31.738,-68.848,0.000
1709140402.715,-49.316,-46.875,-35.156,-25.879,0.000
1709140402.719,-39.062,-54.199,-37.109,-18.066,0.000
1709140402.723,-52.246,-53.223,-32.227,-43.945,0.000
1709140402.727,-47.363,-34.668,-36.621,-55.176,0.000
1709140402.730,-41.992,-32.715,-44.922,-46.875,0.000
1709140402.734,-22.949,-43.945,-42.969,-45.410,0.000
1709140402.738,-17.578,-32.227,-37.109,-58.105,0.000
1709140402.742,-40.527,-39.551,0.000,-64.941,0.000
1709140402.746,-61.523,-59.082,0.000,-55.664,0.000
1709140402.750,-24.902,-29.297,0.000,-37.598,0.000
1709140402.754,-7.812,-28.809,0.000,-39.062,0.000
1709140402.758,-24.902,-56.641,0.000,-46.875,0.000
1709140402.762,-46.387,-41.504,0.000,-55.664,0.000
1709140402.766,-44.922,-25.391,0.000,-52.246,0.000
1709140402.770,-15.625,-14.648,0.000,-31.250,0.000
1709140402.773,-20.508,-14.648,0.000,-20.508,0.000
1709140402.777,-30.762,-28.809,0.000,-43.945,0.000
1709140402.781,-29.297,-32.227,0.000,-56.641,0.000
1709140402.785,-36.621,-38.574,0.000,-65.918,0.000
1709140402.789,-44.922,-32.227,-35.156,-66.406,0.000
1709140402.793,-41.504,-32.715,-31.738,-21.973,0.000
1709140402.797,-18.555,-62.012,-30.273,-30.762,0.000
1709140402.801,-16.602,-46.875,-37.598,-55.664,0.000
1709140402.804,-18.066,-20.020,-41.016,-62.012,0.000
1709140402.808,-20.508,-26.855,-45.410,-48.828,0.000
1709140402.812,-45.898,-34.180,-45.410,-31.738,0.000
1709140402.816,-49.805,-30.273,-40.039,-56.641,0.000
1709140402.820,-33.691,-38.574,-35.645,-62.988,0.000
1709140402.824,-45.410,-34.668,-35.156,-59.082,0.000
1709140402.828,-40.527,-31.250,-40.527,-41.504,0.000
1709140402.832,-9.766,-37.109,-46.387,-43.457,0.000
1709140402.836,-22.949,-36.133,-43.457,-48.828,0.000
1709140402.840,-40.039,-41.016,-37.109,-24.414,0.000
1709140402.844,-52.734,-30.762,-32.715,-30.762,0.000
1709140402.848,-60.059,-35.156,-30.762,-68.359,0.000
1709140402.852,-39.062,-56.641,-30.273,-46.387,0.000
1709140402.855,-40.527,-42.480,-35.645,-28.320,0.000
1709140402.859,-26.367,-21.973,-41.016,-50.781,0.000
1709140402.863,-19.531,-34.668,-44.434,-67.383,0.000
1709140402.867,-33.691,-51.270,-44.434,-51.270,0.000
1709140402.871,-47.363,-39.551,-45.898,-57.129,0.000
1709140402.875,-66.406,-24.902,-46.387,-66.406,0.000
1709140402.879,-27.344,-25.391,-47.363,-42.969,0.000
1709140402.883,-17.578,-25.391,-49.316,-55.176,0.000
1709140402.887,-57.617,-27.344,-48.340,-75.684,0.000
1709140402.891,-61.035,-42.969,-48.828,-68.359,0.000
1709140402.895,-36.621,-42.969,-39.062,-43.457,0.000
1709140402.898,-25.879,-35.645,-42.969,-34.180,0.000
1709140402.902,-33.691,-41.016,-49.805,-59.570,0.000
1709140402.906,-64.941,-40.039,-40.527,-77.148,0.000
1709140402.910,-77.148,-41.016,-39.062,-40.527,0.000
1709140402.914,-46.875,-33.203,-40.039,-24.902,0.000
1709140402.918,-40.039,-23.438,-41.016,-42.480,0.000
1709140402.922,-50.781,-35.156,-41.504,-62.500,0.000
1709140402.926,-41.504,-46.875,-34.668,-45.898,0.000
1709140402.930,-23.926,-39.062,-41.992,-49.316,0.000
1709140402.934,-29.297,-42.969,-44.434,-53.711,0.000
1709140402.938,-49.316,-58.594,-42.969,-26.367,0.000
1709140402.941,-45.898,-43.457,-44.922,-28.320,0.000
1709140402.945,-44.922,-37.598,-37.598,-26.855,0.000
1709140402.949,-47.852,-46.875,-28.320,-17.090,0.000
1709140402.953,-27.832,-39.551,-25.391,-15.625,0.000
1709140402.957,-34.180,-25.879,-32.715,-30.273,0.000
1709140402.961,-32.715,-29.297,-32.715,-14.648,0.000
1709140402.965,-53.711,-23.438,-35.156,-34.180,0.000
1709140402.969,-46.875,-15.137,-38.086,-46.875,0.000
1709140402.973,-12.207,-35.645,-31.250,-7.324,0.000
1709140402.977,-28.320,-46.875,-37.598,-34.668,0.000
1709140402.981,-53.711,-38.086,-47.363,-76.660,0.000
1709140402.984,-49.805,-37.109,-42.969,-55.176,0.000
1709140402.988,-28.320,-40.039,-40.039,-17.090,0.000
1709140402.992,-34.668,-43.945,-40.527,-32.227,0.000
1709140402.996,-34.180,-34.180,-45.410,-45.898,0.000
1709140403.000,-29.297,-26.367,-43.945,-34.180,0.000
1709140403.004,-49.805,-50.781,-30.273,-13.672,0.000
1709140403.008,-53.223,-61.523,-29.297,-16.602,0.000
1709140403.012,-38.574,-39.551,-43.945,-45.898,0.000
1709140403.016,-32.227,-45.410,-43.945,-54.199,0.000
1709140403.020,-33.691,-53.223,-36.133,-69.336,0.000
1709140403.023,-58.105,-32.227,-35.645,-57.129,0.000
1709140403.027,-63.477,-20.996,-36.133,-44.434,0.000
1709140403.031,-28.320,-27.344,-35.645,-31.738,0.000
1709140403.035,-25.391,-40.039,-35.645,-10.254,0.000
1709140403.039,-38.574,-42.969,-35.156,-19.043,0.000
1709140403.043,-22.461,-20.996,-45.410,-48.828,0.000
1709140403.047,-34.180,-24.414,-43.457,-51.758,0.000
1709140403.051,-46.387,-57.129,-27.832,-4.395,0.000
1709140403.055,-11.230,-52.734,-30.273,20.996,0.000
1709140403.059,-14.648,-37.598,-33.691,0.488,0.000
1709140403.063,-32.715,-34.180,-35.156,-44.922,0.000
1709140403.066,-46.875,-36.621,-40.527,-38.574,0.000
1709140403.070,-71.289,-36.621,-42.969,-7.812,0.000
1709140403.074,-49.316,-30.273,-38.086,-23.926,0.000
1709140403.078,-28.320,-25.391,-33.691,-22.949,0.000
1709140403.082,-33.203,-50.293,-33.691,-21.973,0.000
1709140403.086,-34.668,-61.035,-43.457,-40.039,0.000
1709140403.090,-54.199,-29.785,-49.316,-38.574,0.000
1709140403.094,-50.781,-17.578,-41.504,-8.301,0.000
1709140403.098,-37.109,-36.621,-38.574,2.930,0.000
1709140403.101,-38.574,-47.363,-30.273,-18.555,0.000
1709140403.105,-21.484,-48.340,-23.926,-18.066,0.000
1709140403.109,-27.344,-41.016,-31.738,-15.137,0.000
1709140403.113,-33.691,-40.039,-33.203,-20.508,0.000
1709140403.117,-33.691,-34.668,-30.762,-32.715,0.000
1709140403.121,-30.273,-14.648,-25.391,-32.227,0.000
1709140403.125,-45.410,-26.855,-21.973,-16.602,0.000
1709140403.129,-59.570,-43.457,-29.785,-28.320,0.000
1709140403.133,-44.922,-37.598,-40.039,-43.457,0.000
1709140403.137,-45.410,-50.781,-41.992,-35.156,0.000
1709140403.140,-48.340,-55.176,-36.621,-38.574,0.000
1709140403.144,-56.152,-45.898,-35.645,-49.805,0.000
1709140403.148,-47.852,-45.410,-36.133,-28.320,0.000
1709140403.152,-23.926,-37.598,-37.109,-16.602,0.000
1709140403.156,-29.297,-41.504,-47.852,-30.273,0.000
1709140403.160,-29.297,-45.410,-43.457,-42.969,0.000
1709140403.164,-39.551,-40.039,-35.156,-59.570,0.000
1709140403.168,-38.086,-41.016,-38.086,-47.363,0.000
1709140403.172,-44.434,-46.387,-38.574,-39.551,0.000
1709140403.175,-57.129,-42.480,-38.574,-41.016,0.000
1709140403.179,-44.434,-41.016,-43.945,-23.438,0.000
1709140403.183,-21.484,-46.875,-50.781,-21.484,0.000
1709140403.187,-18.066,-54.688,-34.668,-16.113,0.000
1709140403.191,-25.391,-47.363,-27.832,-20.020,0.000
1709140403.195,-28.809,-38.086,-38.574,-36.133,0.000
1709140403.199,-38.574,-37.109,-37.598,-43.457,0.000
1709140403.203,-41.016,-33.203,-38.574,-36.621,0.000
1709140403.207,-34.180,-34.180,-44.434,-26.855,0.000
1709140403.211,-23.926,-34.668,-42.480,-21.484,0.000
1709140403.215,-37.109,-23.926,-41.504,-24.902,0.000
1709140403.219,-56.152,-27.344,-42.969,-31.738,0.000
1709140403.222,-43.945,-33.691,-44.434,-51.270,0.000
1709140403.226,-26.367,-49.805,-46.875,-60.547,0.000
1709140403.230,-37.598,-54.199,-48.828,-49.805,0.000
1709140403.234,-34.668,-23.438,-48.340,-39.551,0.000
1709140403.238,-35.156,-31.738,-45.898,-27.344,0.000
1709140403.242,-55.176,-57.617,-46.387,-32.715,0.000
1709140403.246,-32.227,-45.898,-45.898,-47.852,0.000
1709140403.250,-26.855,-31.250,-39.551,-48.340,0.000
1709140403.254,-33.203,-33.203,-36.133,-45.410,0.000
1709140403.258,-36.621,-27.344,-38.086,-49.805,0.000
1709140403.262,-36.621,-42.969,-35.645,-43.945,0.000
1709140403.266,-43.457,-46.875,-37.598,-37.598,0.000
1709140403.269,-42.480,-36.621,-39.062,-38.086,0.000
1709140403.273,-51.270,-31.738,-35.156,-40.527,0.000
1709140403.277,-61.035,-26.367,-29.785,-46.875,0.000
1709140403.281,-43.457,-27.344,-29.297,-47.852,0.000
1709140403.285,-51.758,-27.832,-35.156,-50.293,0.000
1709140403.289,-47.852,-36.133,-39.062,-44.922,0.000
1709140403.293,-48.340,-47.852,-36.133,-35.156,0.000
1709140403.297,-46.387,-44.434,-39.551,-40.039,0.000
1709140403.301,-27.832,-34.180,-37.109,-41.992,0.000
1709140403.305,-52.734,-44.922,-31.738,-36.133,0.000
1709140403.309,-62.500,-60.547,-35.645,-27.344,0.000
1709140403.312,-37.109,-41.504,-36.621,-39.062,0.000
1709140403.316,-37.109,-34.180,-40.527,-62.012,0.000
1709140403.320,-28.809,-29.297,-40.527,-54.688,0.000
1709140403.324,-13.184,-8.301,-41.504,-48.340,0.000
1709140403.328,-27.832,-23.926,-44.434,-46.875,0.000
1709140403.332,-30.762,-34.668,-42.969,-44.434,0.000
1709140403.336,-28.320,-24.414,-39.551,-31.738,0.000
1709140403.340,-35.156,-25.879,-36.621,-33.203,0.000
1709140403.344,-37.109,-24.902,-38.086,-41.504,0.000
1709140403.348,-46.875,-32.227,-36.133,-28.809,0.000
1709140403.352,-37.598,-44.434,-36.621,-26.855,0.000
1709140403.355,-27.832,-50.293,-38.086,-32.715,0.000
1709140403.359,-27.832,-44.434,-37.109,-38.574,0.000
1709140403.363,-20.508,-46.875,-40.039,-37.598,0.000
1709140403.367,-38.086,-44.922,-44.434,-34.668,0.000
1709140403.371,-51.270,-44.434,-39.062,-36.133,0.000
1709140403.375,-38.086,-41.016,-37.109,-41.992,0.000
1709140403.379,-34.668,-36.133,-33.203,-34.180,0.000
1709140403.383,-50.781,-47.363,-30.762,-31.250,0.000
1709140403.387,-53.223,-36.621,-37.598,-45.898,0.000
1709140403.391,-47.363,-21.973,-38.574,-33.691,0.000
1709140403.394,-44.434,-51.270,-36.133,-34.668,0.000
1709140403.398,-38.574,-50.781,-37.598,-52.734,0.000
1709140403.402,-40.039,-18.066,-42.480,-53.223,0.000
1709140403.406,-47.852,-36.133,-38.086,-48.340,0.000
1709140403.410,-43.457,-45.410,-30.273,-40.527,0.000
1709140403.414,-47.363,-44.922,-31.250,-41.992,0.000
1709140403.418,-43.945,-60.547,-33.691,-44.922,0.000
1709140403.422,-40.039,-67.383,-40.527,-44.434,0.000
1709140403.426,-56.641,-47.852,-45.410,-48.828,0.000
1709140403.430,-56.641,-23.438,-41.992,-41.992,0.000
1709140403.434,-55.176,-32.715,-36.133,-34.668,0.000
1709140403.437,-44.434,-41.504,-33.691,-41.504,0.000
1709140403.441,-33.691,-30.762,-36.133,-54.199,0.000
1709140403.445,-47.363,-36.621,-38.086,-53.223,0.000
1709140403.449,-48.828,-34.668,-43.457,-36.621,0.000
1709140403.453,-34.668,-25.879,-45.410,-27.344,0.000
1709140403.457,-39.551,-37.598,-43.457,-43.945,0.000
1709140403.461,-42.969,-51.270,-43.945,-63.965,0.000
1709140403.465,-41.504,-59.570,-33.691,-52.246,0.000
1709140403.469,-50.293,-41.504,-30.273,-39.062,0.000
1709140403.472,-40.039,-20.996,-39.551,-39.062,0.000
1709140403.476,-42.969,-21.484,-44.922,-40.527,0.000
1709140403.480,-52.734,-29.297,-50.781,-48.340,0.000
1709140403.484,-48.828,-43.457,-47.852,-54.688,0.000
1709140403.488,-49.316,-47.363,-41.016,-46.387,0.000
1709140403.492,-50.293,-37.598,-32.715,-44.922,0.000
1709140403.496,-56.152,-40.527,-27.344,-48.828,0.000
1709140403.500,-44.434,-44.434,-31.738,-49.805,0.000
1709140403.504,-40.527,-43.457,-32.715,-48.828,0.000
1709140403.507,-44.434,-41.992,-34.668,-38.574,0.000
1709140403.511,-31.738,-43.945,-32.715,-23.438,0.000
1709140403.515,-36.621,-55.176,-37.109,-20.020,0.000
1709140403.519,-50.293,-39.551,-43.945,-37.109,0.000
1709140403.523,-57.129,-40.039,-43.457,-56.152,0.000
1709140403.527,-42.480,-47.852,-39.551,-46.875,0.000
1709140403.531,-44.434,-32.227,-37.598,-39.551,0.000
1709140403.535,-45.898,-39.062,-34.668,-47.363,0.000
1709140403.539,-27.344,-45.898,-29.297,-39.062,0.000
1709140403.542,-24.414,-37.598,-30.273,-29.785,0.000
1709140403.546,-30.762,-34.668,-34.180,-33.691,0.000
1709140403.550,-38.086,-33.691,-34.668,-37.598,0.000
1709140403.554,-33.203,-33.691,-42.969,-46.387,0.000
1709140403.558,-36.621,-26.855,-41.016,-44.922,0.000
1709140403.562,-40.039,-36.133,-33.203,-32.715,0.000
1709140403.566,-36.621,-44.922,-38.574,-31.250,0.000
1709140403.570,-32.715,-40.527,-37.109,-20.996,0.000
1709140403.574,-35.156,-28.809,-32.227,-21.484,0.000
1709140403.578,-35.156,-29.785,-31.250,-27.344,0.000
1709140403.582,-20.020,-33.691,-30.762,-34.180,0.000
1709140403.586,-16.113,-29.297,-30.273,-29.297,0.000
1709140403.589,-27.344,-20.996,-32.715,-22.461,0.000
1709140403.593,-25.879,-28.320,-35.645,-23.438,0.000
1709140403.597,-16.602,-55.176,-32.715,-16.113,0.000
1709140403.601,-35.156,-51.758,-38.086,-25.879,0.000
1709140403.605,-48.340,-39.551,-43.457,-38.086,0.000
1709140403.609,-43.457,-31.738,-45.410,-34.668,0.000
1709140403.613,-46.387,-40.039,-39.062,-25.391,0.000
1709140403.617,-54.688,-49.316,-29.297,-26.855,0.000
1709140403.621,-57.617,-47.852,-31.250,-37.598,0.000
1709140403.625,-52.734,-41.992,-27.832,-41.992,0.000
1709140403.629,-50.293,-35.645,-29.785,-39.551,0.000
1709140403.633,-43.945,-32.227,-35.645,-35.645,0.000
1709140403.636,-34.668,-39.062,-34.180,-36.133,0.000
1709140403.640,-45.898,-38.574,-33.203,-49.316,0.000
1709140403.644,-55.664,-34.180,-38.574,-44.922,0.000
1709140403.648,-54.199,-33.203,-42.480,-35.645,0.000
1709140403.652,-50.293,-38.574,-45.898,-38.574,0.000
1709140403.656,-43.457,-43.457,-38.574,-32.715,0.000
1709140403.660,-28.809,-30.273,-30.273,-44.434,0.000
1709140403.664,-32.227,-34.180,-29.785,-49.316,0.000
1709140403.668,-54.199,-43.457,-34.180,-44.434,0.000
1709140403.672,-55.176,-49.805,-40.039,-49.316,0.000
1709140403.676,-47.852,-52.734,-38.574,-46.387,0.000
1709140403.680,-51.270,-38.574,-34.180,-40.527,0.000
1709140403.683,-56.641,-37.598,-35.645,-37.109,0.000
1709140403.687,-63.477,-38.574,-42.969,-48.340,0.000
1709140403.691,-45.410,-33.203,-41.016,-44.434,0.000
1709140403.695,-37.598,-38.574,-38.086,-37.109,0.000
1709140403.699,-52.246,-41.992,-40.527,-42.969,0.000
1709140403.703,-46.387,-37.109,-36.621,-46.875,0.000
1709140403.707,-57.617,-36.621,-41.016,-56.641,0.000
1709140403.711,-72.266,-41.992,-46.387,-42.480,0.000
1709140403.715,-61.523,-42.480,-43.945,-40.039,0.000
1709140403.719,-46.387,-39.551,-41.992,-49.805,0.000
1709140403.722,-41.504,-48.828,-31.738,-39.551,0.000
1709140403.726,-41.992,-44.922,-25.391,-28.809,0.000
1709140403.730,-44.922,-39.062,-30.762,-29.297,0.000
1709140403.734,-38.086,-42.969,-35.645,-27.832,0.000
1709140403.738,-31.738,-44.434,-37.598,-24.902,0.000
1709140403.742,-37.109,-53.223,-41.992,-30.273,0.000
1709140403.746,-36.621,-50.293,-37.598,-23.438,0.000
1709140403.750,-31.250,-49.805,-29.785,-22.461,0.000
1709140403.754,-28.320,-46.387,-26.855,-20.020,0.000
1709140403.758,-25.391,-32.715,-29.785,-11.230,0.000
1709140403.762,-30.762,-22.461,-29.297,-21.973,0.000
1709140403.765,-43.457,-27.344,-23.438,-19.531,0.000
1709140403.769,-31.738,-36.621,-22.949,-18.066,0.000
1709140403.773,-12.695,-30.273,-27.832,-26.367,0.000
1709140403.777,-27.832,-22.949,-32.227,-24.902,0.000
1709140403.781,-36.133,-35.645,-38.574,-29.297,0.000
1709140403.785,-34.668,-53.223,-37.109,-44.922,0.000
1709140403.789,-36.133,-43.457,-34.180,-47.852,0.000
1709140403.793,-26.367,-18.066,-36.621,-38.086,0.000
1709140403.797,-27.832,-21.973,-35.645,-41.504,0.000
1709140403.801,-32.227,-33.203,-37.109,-36.621,0.000
1709140403.804,-20.020,-49.316,-40.527,-28.320,0.000
1709140403.808,-20.508,-59.570,-37.598,-27.344,0.000
1709140403.812,-34.668,-43.945,-41.016,-26.855,0.000
1709140403.816,-53.223,-26.855,-46.387,-38.086,0.000
1709140403.820,-57.617,-25.879,-39.551,-51.270,0.000
1709140403.824,-40.527,-24.414,-38.574,-49.316,0.000
1709140403.828,-39.551,-34.668,-38.574,-49.316,0.000
1709140403.832,-54.688,-50.781,-32.715,-41.504,0.000
1709140403.836,-55.176,-39.551,-33.691,-31.250,0.000
1709140403.840,-50.781,-35.156,-37.598,-46.387,0.000
1709140403.843,-54.199,-54.688,-39.551,-61.523,0.000
1709140403.847,-54.688,-55.664,-38.086,-44.922,0.000
1709140403.851,-49.316,-43.457,-40.527,-43.945,0.000
1709140403.855,-51.270,-46.875,-42.969,-59.082,0.000
1709140403.859,-45.898,-46.387,-44.434,-59.082,0.000
1709140403.863,-40.039,-41.504,-45.410,-56.641,0.000
1709140403.867,-38.574,-32.715,-48.828,-43.945,0.000
1709140403.871,-40.039,-41.504,-51.758,-30.273,0.000
1709140403.875,-36.133,-41.016,-38.086,-29.297,0.000
1709140403.878,-32.715,-22.461,-27.344,-35.156,0.000
1709140403.882,-39.551,-36.621,-36.621,-50.293,0.000
1709140403.886,-33.203,-60.059,-40.527,-47.852,0.000
1709140403.890,-31.738,-54.688,-33.203,-30.273,0.000
1709140403.894,-37.598,-38.086,-33.691,-27.832,0.000
1709140403.898,-38.086,-35.645,-36.621,-28.809,0.000
1709140403.902,-36.621,-42.969,-29.785,-28.320,0.000
1709140403.906,-32.715,-45.898,-23.438,-29.297,0.000
1709140403.910,-33.203,-41.504,-27.832,-32.227,0.000
1709140403.913,-39.551,-45.410,-35.645,-40.527,0.000
1709140403.917,-34.668,-38.574,-34.668,-40.039,0.000
1709140403.921,-38.086,-10.254,-32.715,-47.852,0.000
1709140403.925,-45.410,-12.207,-33.203,-55.664,0.000
1709140403.929,-40.039,-39.062,-27.832,-51.270,0.000
1709140403.933,-32.227,-42.480,-29.297,-42.969,0.000
1709140403.937,-51.758,-38.574,-38.086,-42.480,0.000
1709140403.941,-59.570,-43.457,-39.551,-50.293,0.000
1709140403.945,-56.641,-34.668,-38.574,-52.734,0.000
1709140403.949,-54.199,-31.250,-43.457,-42.480,0.000
1709140403.953,-42.969,-30.273,-46.387,-34.180,0.000
1709140403.956,-30.273,-45.410,-37.598,-37.598,0.000
1709140403.960,-32.227,-56.152,-36.133,-37.598,0.000
1709140403.964,-43.945,-48.828,-46.387,-41.016,0.000
1709140403.968,-43.457,-49.805,-46.875,-46.875,0.000
1709140403.972,-43.945,-47.363,-37.109,-39.062,0.000
1709140403.976,-25.391,-45.410,-30.273,-34.668,0.000
1709140403.980,-25.391,-49.316,-28.809,-43.945,0.000
1709140403.984,-59.082,-54.688,-30.762,-45.898,0.000
1709140403.988,-51.758,-36.133,-32.227,-48.340,0.000
1709140403.992,-43.945,-26.367,-30.762,-53.223,0.000
1709140403.996,-38.574,-34.668,-33.691,-35.645,0.000
1709140404.000,-29.785,-53.711,-41.992,-29.785,0.000
1709140404.003,-30.762,-62.012,-42.969,-38.574,0.000
1709140404.007,-40.527,-44.434,-45.410,-38.086,0.000
1709140404.011,-47.363,-38.574,-41.992,-32.715,0.000
1709140404.015,-43.945,-39.062,-36.133,-34.180,0.000
1709140404.019,-41.016,-41.504,-41.992,-38.574,0.000
1709140404.023,-34.180,-40.527,-39.551,-32.227,0.000
1709140404.027,-35.156,-31.738,-27.832,-32.227,0.000
1709140404.031,-27.344,-35.645,-25.879,-35.645,0.000
1709140404.035,-18.066,-36.621,-32.227,-45.898,0.000
1709140404.039,-32.227,-39.062,-33.691,-42.969,0.000
1709140404.043,-38.574,-29.297,-37.109,-41.992,0.000
1709140404.047,-34.668,-21.973,-43.457,-53.711,0.000
1709140404.050,-40.527,-39.062,-41.016,-42.480,0.000
1709140404.054,-34.668,-33.203,-34.668,-28.809,0.000
1709140404.058,-27.344,-22.949,-27.344,-26.855,0.000
1709140404.062,-27.832,-20.508,-28.320,-35.645,0.000
1709140404.066,-31.250,-19.531,-34.668,-39.551,0.000
1709140404.070,-38.574,-35.645,-35.645,-41.016,0.000
1709140404.074,-39.551,-39.062,-29.785,-34.668,0.000
1709140404.078,-39.062,-34.180,-34.668,-37.598,0.000
1709140404.082,-21.484,-37.598,-35.156,-36.133,0.000
1709140404.086,-30.273,-37.109,-36.621,-30.762,0.000
1709140404.090,-48.828,-45.898,-36.133,-26.855,0.000
1709140404.093,-44.434,-46.875,-35.156,-41.504,0.000
1709140404.097,-51.758,-29.785,-40.039,-63.965,0.000
1709140404.101,-47.852,-32.715,-33.691,-60.059,0.000
1709140404.105,-48.340,-40.039,-33.203,-56.641,0.000
1709140404.109,-54.688,-31.738,-41.016,-50.781,0.000
1709140404.113,-49.316,-34.668,-35.645,-49.316,0.000
1709140404.117,-48.340,-36.133,-24.902,-46.875,0.000
1709140404.121,-47.852,-41.016,-28.320,-34.180,0.000
1709140404.125,-38.574,-37.598,-31.738,-37.109,0.000
1709140404.129,-36.621,-29.785,-30.273,-39.551,0.000
1709140404.133,-25.879,-55.176,-28.320,-19.531,0.000
1709140404.136,-28.320,-66.895,-31.738,-24.414,0.000
1709140404.140,-31.250,-50.781,-35.645,-40.527,0.000
1709140404.144,-34.180,-25.879,-35.645,-42.969,0.000
1709140404.148,-46.875,-16.113,-36.621,-46.387,0.000
1709140404.152,-47.363,-20.996,-36.621,-46.387,0.000
1709140404.156,-53.711,-28.320,-41.992,-47.852,0.000
1709140404.160,-42.969,-46.387,-41.016,-50.781,0.000
1709140404.164,-36.133,-55.176,-35.156,-46.875,0.000
1709140404.168,-39.551,-36.621,-33.691,-37.598,0.000
1709140404.172,-35.645,-32.715,-31.738,-29.785,0.000
1709140404.175,-28.809,-41.016,-31.738,-18.066,0.000
1709140404.179,-25.879,-42.480,-37.109,-19.043,0.000
1709140404.183,-31.738,-38.574,-40.039,-40.527,0.000
1709140404.187,-31.250,-25.391,-37.109,-47.852,0.000
1709140404.191,-30.273,-22.949,-40.039,-38.574,0.000
1709140404.195,-29.785,-36.621,-42.480,-34.180,0.000
1709140404.199,-29.297,-51.270,-42.969,-39.062,0.000
1709140404.203,-21.973,-41.016,-41.016,-50.781,0.000
1709140404.207,-39.062,-23.438,-36.621,-49.805,0.000
1709140404.211,-46.875,-39.551,-36.621,-41.992,0.000
1709140404.214,-34.180,-49.805,-38.086,-46.387,0.000
1709140404.218,-29.785,-48.340,-35.156,-41.992,0.000
1709140404.222,-32.715,-39.062,-31.738,-40.039,0.000
1709140404.226,-44.922,-22.949,-36.133,-47.363,0.000
1709140404.230,-48.828,-19.043,-32.715,-40.527,0.000
1709140404.234,-45.898,-28.320,-36.621,-35.156,0.000
1709140404.238,-43.457,-53.711,-41.992,-32.227,0.000
1709140404.242,-45.410,-56.641,-41.992,-28.320,0.000
1709140404.246,-49.316,-46.875,-41.504,-32.715,0.000
1709140404.249,-43.945,-45.410,-38.086,-34.668,0.000
1709140404.253,-27.344,-48.340,-41.504,-24.414,0.000
1709140404.257,-33.691,-58.105,-41.016,-23.438,0.000
1709140404.261,-45.898,-45.898,-31.250,-36.621,0.000
1709140404.265,-44.922,-23.438,-29.297,-34.180,0.000
1709140404.269,-42.480,-37.109,-30.762,-30.762,0.000
1709140404.273,-42.969,-49.316,-33.691,-37.598,0.000
1709140404.277,-40.039,-48.340,-36.133,-39.062,0.000
1709140404.281,-32.715,-49.805,-39.551,-40.039,0.000
1709140404.285,-33.691,-46.387,-41.992,-36.621,0.000
1709140404.288,-33.691,-35.156,-39.551,-32.715,0.000
1709140404.292,-45.410,-29.297,-39.551,-36.621,0.000
1709140404.296,-47.852,-35.156,-42.480,-37.598,0.000
1709140404.300,-38.086,-39.062,-41.992,-40.527,0.000
1709140404.304,-32.715,-37.109,-37.598,-43.457,0.000
1709140404.308,-40.039,-47.363,-37.598,-38.574,0.000
1709140404.312,-35.645,-53.711,-38.574,-34.180,0.000
1709140404.316,-42.969,-37.598,-34.668,-46.387,0.000
1709140404.320,-47.852,-34.180,-30.762,-53.711,0.000
1709140404.323,-39.551,-52.734,-33.691,-42.969,0.000
1709140404.327,-38.574,-43.945,-32.227,-35.645,0.000
1709140404.331,-30.273,-37.109,-33.203,-27.832,0.000
1709140404.335,-23.438,-51.270,-41.504,-32.227,0.000
1709140404.339,-30.273,-40.039,-38.086,-41.504,0.000
1709140404.343,-35.156,-41.992,-29.297,-30.762,0.000
1709140404.347,-28.320,-38.086,-23.438,-18.066,0.000
1709140404.351,-31.738,-23.926,-27.344,-26.855,0.000
1709140404.355,-37.598,-35.645,-35.645,-37.598,0.000
1709140404.359,-39.551,-38.574,-38.574,-43.945,0.000
1709140404.363,-38.574,-36.621,-39.062,-38.086,0.000
1709140404.367,-37.598,-41.992,-34.668,-32.227,0.000
1709140404.371,-33.203,-41.992,-37.109,-30.762,0.000
1709140404.374,-40.039,-43.945,-41.504,-30.762,0.000
1709140404.378,-45.410,-39.551,-40.527,-39.551,0.000
1709140404.378,-45.410,-39.551,-40.527,-39.551,0.000
1709140404.382,-39.551,-31.250,0.000,-46.387,0.000
1709140404.386,-37.109,-27.344,0.000,-45.410,0.000
1709140404.390,-32.227,-41.992,0.000,-32.227,0.000
1709140404.394,-31.250,-43.945,0.000,-26.855,0.000
1709140404.398,-19.043,-34.668,0.000,-26.855,0.000
1709140404.402,-18.066,-54.688,0.000,-30.273,0.000
1709140404.406,-41.992,-62.500,0.000,-38.086,0.000
1709140404.410,-44.922,-42.969,0.000,-41.016,0.000
1709140404.414,-40.039,-39.062,0.000,-41.016,0.000
1709140404.418,-32.715,-41.016,0.000,-38.086,0.000
1709140404.421,-27.344,-37.598,0.000,-36.621,0.000
1709140404.425,-43.945,-44.922,0.000,-37.598,0.000
1709140404.429,-57.129,-43.945,-40.039,-33.691,0.000
1709140404.433,-48.828,-39.551,-39.062,-35.156,0.000
1709140404.437,-45.410,-36.621,-41.016,-43.945,0.000
1709140404.441,-41.504,-35.645,-43.457,-50.781,0.000
1709140404.445,-43.945,-27.344,-41.504,-53.711,0.000
1709140404.449,-44.922,-25.879,-36.133,-52.246,0.000
1709140404.453,-48.828,-44.922,-40.039,-53.711,0.000
1709140404.457,-37.598,-44.922,-39.551,-45.410,0.000
1709140404.461,-27.832,-37.598,-32.715,-32.715,0.000
1709140404.465,-44.434,-41.504,-27.832,-34.180,0.000
1709140404.468,-41.504,-36.133,-31.250,-39.062,0.000
1709140404.472,-27.344,-39.062,-34.668,-35.156,0.000
1709140404.476,-33.203,-43.945,-30.273,-30.762,0.000
1709140404.480,-41.992,-35.645,-32.715,-41.016,0.000
1709140404.484,-42.480,-44.922,-36.133,-51.270,0.000
1709140404.488,-45.410,-49.316,-36.621,-53.223,0.000
1709140404.492,-49.805,-40.039,-40.527,-51.758,0.000
1709140404.496,-47.852,-46.387,-39.551,-50.293,0.000
1709140404.500,-41.504,-52.246,-41.504,-48.828,0.000
1709140404.504,-31.250,-36.133,-40.527,-52.246,0.000
1709140404.507,-34.668,-29.785,-37.598,-41.504,0.000
1709140404.511,-43.457,-31.738,-38.574,-36.621,0.000
1709140404.515,-46.387,-26.367,-36.621,-35.645,0.000
1709140404.519,-46.387,-31.738,-34.180,-30.273,0.000
1709140404.523,-28.320,-35.645,-34.180,-36.133,0.000
1709140404.527,-32.715,-29.785,-32.227,-41.016,0.000
1709140404.531,-54.199,-37.109,-34.180,-40.039,0.000
1709140404.535,-46.387,-55.664,-38.574,-42.969,0.000
1709140404.539,-33.203,-58.105,-34.180,-44.922,0.000
1709140404.543,-36.621,-35.645,-26.855,-48.828,0.000
1709140404.547,-37.109,-30.762,-32.227,-52.246,0.000
1709140404.550,-39.062,-36.621,-44.434,-37.598,0.000
1709140404.554,-32.715,-26.855,-43.945,-29.785,0.000
1709140404.558,-27.344,-22.949,-44.922,-39.062,0.000
1709140404.562,-30.762,-32.715,-44.434,-42.969,0.000
1709140404.566,-23.926,-36.621,-35.156,-29.785,0.000
1709140404.570,-12.207,-29.297,-31.738,-16.113,0.000
1709140404.574,-21.484,-27.832,-31.250,-22.461,0.000
1709140404.578,-38.086,-36.133,-32.715,-31.250,0.000
1709140404.582,-32.715,-39.062,-36.133,-39.062,0.000
1709140404.586,-27.832,-26.855,-35.156,-38.574,0.000
1709140404.589,-32.715,-37.109,-36.621,-34.180,0.000
1709140404.593,-33.203,-42.969,-37.598,-22.461,0.000
1709140404.597,-28.809,-35.645,-36.621,-14.648,0.000
1709140404.601,-38.574,-28.320,-34.668,-35.645,0.000
1709140404.605,-54.688,-15.625,-26.367,-46.387,0.000
1709140404.609,-52.246,-33.691,-24.414,-35.156,0.000
1709140404.613,-44.434,-34.668,-25.879,-24.902,0.000
1709140404.617,-44.434,-35.156,-24.902,-26.367,0.000
1709140404.621,-32.715,-36.621,-25.391,-40.527,0.000
1709140404.624,-26.855,-21.973,-28.320,-43.945,0.000
1709140404.628,-47.852,-23.926,-29.297,-29.297,0.000
1709140404.632,-51.270,-44.434,-34.180,-29.785,0.000
1709140404.636,-38.086,-56.152,-30.273,-40.527,0.000
1709140404.640,-33.691,-48.340,-21.973,-39.551,0.000
1709140404.644,-33.203,-39.062,-23.926,-42.969,0.000
1709140404.648,-32.715,-34.668,-39.062,-44.922,0.000
1709140404.652,-42.969,-30.273,-45.898,-38.086,0.000
1709140404.656,-35.156,-20.508,-33.203,-34.180,0.000
1709140404.660,-26.855,-16.113,-27.344,-36.621,0.000
1709140404.663,-43.945,-24.414,-30.273,-40.039,0.000
1709140404.667,-44.922,-36.621,-35.645,-42.969,0.000
1709140404.671,-33.691,-49.316,-35.156,-38.574,0.000
1709140404.675,-31.250,-52.246,-32.715,-35.156,0.000
1709140404.679,-40.527,-38.574,-32.227,-44.434,0.000
1709140404.683,-45.410,-32.227,-34.180,-47.363,0.000
1709140404.687,-34.668,-39.551,-34.668,-41.016,0.000
1709140404.691,-36.133,-35.156,-28.320,-41.504,0.000
1709140404.695,-38.574,-29.785,-31.738,-52.246,0.000
1709140404.698,-37.109,-31.250,-36.133,-62.988,0.000
1709140404.702,-43.457,-38.574,-35.645,-61.035,0.000
1709140404.706,-45.898,-53.223,-36.133,-49.805,0.000
1709140404.710,-44.434,-49.805,-39.062,-48.828,0.000
1709140404.714,-46.875,-32.715,-38.574,-44.434,0.000
1709140404.718,-44.434,-34.180,-36.621,-45.898,0.000
1709140404.722,-44.922,-29.785,-36.621,-56.641,0.000
1709140404.726,-40.039,-23.438,-37.598,-44.922,0.000
1709140404.730,-25.879,-43.945,-36.133,-35.645,0.000
1709140404.734,-22.949,-48.340,-30.762,-27.344,0.000
1709140404.738,-22.949,-28.809,-26.855,-33.691,0.000
1709140404.742,-41.992,-38.086,-28.320,-44.922,0.000
1709140404.746,-48.828,-44.922,-25.391,-25.879,0.000
1709140404.749,-34.180,-36.621,-22.949,-20.020,0.000
1709140404.753,-36.621,-44.922,-27.832,-29.297,0.000
1709140404.757,-31.738,-53.711,-24.902,-27.832,0.000
1709140404.761,-35.156,-40.039,-24.902,-30.762,0.000
1709140404.765,-40.527,-27.344,-34.668,-31.250,0.000
1709140404.769,-43.457,-25.879,-42.969,-36.621,0.000
1709140404.773,-46.875,-35.156,-40.527,-42.969,0.000
1709140404.777,-45.410,-42.480,-40.039,-49.805,0.000
1709140404.781,-44.922,-36.621,-39.062,-51.270,0.000
1709140404.785,-42.969,-35.645,-35.645,-50.293,0.000
1709140404.789,-42.969,-57.129,-38.086,-45.410,0.000
1709140404.793,-56.641,-58.105,-42.480,-32.715,0.000
1709140404.796,-49.316,-35.156,-41.992,-38.086,0.000
1709140404.800,-41.504,-37.109,-46.387,-52.734,0.000
1709140404.804,-50.781,-41.992,-50.293,-54.688,0.000
1709140404.808,-48.340,-40.039,-49.805,-50.293,0.000
1709140404.812,-37.598,-40.527,-45.410,-39.062,0.000
1709140404.816,-32.715,-42.969,-38.086,-29.297,0.000
1709140404.820,-27.344,-37.109,-33.691,-50.293,0.000
1709140404.824,-27.344,-43.457,-28.809,-63.477,0.000
1709140404.828,-41.504,-43.457,-32.227,-60.059,0.000
1709140404.832,-29.297,-31.250,-33.691,-50.781,0.000
1709140404.836,-19.043,-28.320,-35.156,-36.621,0.000
1709140404.839,-37.109,-29.785,-35.645,-41.504,0.000
1709140404.843,-37.598,-36.621,-35.645,-43.945,0.000
1709140404.847,-28.320,-37.598,-38.086,-39.062,0.000
1709140404.852,-18.066,-41.992,-34.180,-36.133,0.000
1709140404.855,-23.438,-43.457,-29.297,-34.180,0.000
1709140404.859,-42.969,-33.203,-36.621,-46.387,0.000
1709140404.863,-43.945,-39.062,-44.922,-49.805,0.000
1709140404.867,-33.203,-38.086,-37.598,-49.805,0.000
1709140404.871,-28.809,-22.949,-38.574,-43.457,0.000
1709140404.875,-23.438,-20.996,-39.551,-29.785,0.000
1709140404.879,-32.715,-41.504,-34.180,-36.133,0.000
1709140404.883,-31.738,-56.641,-31.738,-40.039,0.000
1709140404.887,-21.484,-37.109,-30.762,-42.480,0.000
1709140404.891,-19.043,-16.602,-35.645,-38.574,0.000
1709140404.895,-20.020,-14.160,-36.621,-33.203,0.000
1709140404.898,-23.438,-27.832,-34.668,-29.785,0.000
1709140404.902,-18.066,-25.391,-33.691,-23.926,0.000
1709140404.906,-23.438,-38.086,-35.156,-21.484,0.000
1709140404.910,-35.645,-57.617,-37.109,-25.391,0.000
1709140404.914,-34.180,-37.598,-34.668,-29.297,0.000
1709140404.918,-26.855,-26.855,-32.227,-28.809,0.000
1709140404.922,-28.809,-35.156,-32.715,-33.203,0.000
1709140404.926,-34.180,-38.086,-38.086,-38.574,0.000
1709140404.930,-24.902,-39.551,-36.133,-33.203,0.000
1709140404.934,-28.809,-43.945,-34.668,-30.762,0.000
1709140404.937,-34.668,-27.344,-40.039,-38.086,0.000
1709140404.941,-25.879,-18.555,-43.945,-41.992,0.000
1709140404.945,-30.273,-24.902,-45.898,-50.293,0.000
1709140404.949,-30.273,-42.480,-42.480,-53.711,0.000
1709140404.953,-26.367,-48.828,-41.504,-48.340,0.000
1709140404.957,-39.551,-39.551,-47.363,-42.480,0.000
1709140404.961,-49.316,-35.645,-44.434,-46.875,0.000
1709140404.965,-39.551,-38.574,-39.062,-49.805,0.000
1709140404.969,-37.109,-42.969,-41.992,-52.246,0.000
1709140404.973,-49.316,-53.711,-40.527,-42.969,0.000
1709140404.976,-37.109,-39.551,-38.086,-40.039,0.000
1709140404.980,-33.203,-33.691,-39.062,-51.758,0.000
1709140404.984,-41.504,-45.410,-36.133,-52.734,0.000
1709140404.988,-38.086,-50.293,-35.156,-47.852,0.000
1709140404.992,-40.527,-58.105,-37.598,-41.992,0.000
1709140404.996,-47.363,-59.082,-38.086,-40.039,0.000
1709140405.000,-41.504,-44.922,-39.062,-42.480,0.000
1709140405.004,-37.109,-34.668,-36.621,-50.781,0.000
1709140405.008,-42.480,-43.457,-36.621,-48.340,0.000
1709140405.011,-47.363,-36.133,-42.969,-47.363,0.000
1709140405.015,-41.504,-31.250,-43.945,-33.691,0.000
1709140405.019,-30.273,-25.879,-31.738,-27.832,0.000
1709140405.023,-29.785,-27.832,-29.297,-44.922,0.000
1709140405.027,-44.922,-37.598,-32.227,-44.434,0.000
1709140405.031,-51.270,-39.062,-32.227,-45.898,0.000
1709140405.035,-38.086,-37.598,-30.762,-41.504,0.000
1709140405.039,-28.809,-43.457,-29.297,-37.109,0.000
1709140405.042,-38.574,-47.852,-34.668,-43.945,0.000
1709140405.046,-51.270,-38.086,-40.527,-41.504,0.000
1709140405.050,-45.898,-35.645,-37.109,-36.621,0.000
1709140405.054,-48.340,-40.039,-41.016,-43.945,0.000
1709140405.058,-45.410,-51.758,-40.039,-41.504,0.000
1709140405.062,-35.156,-57.129,-30.762,-31.250,0.000
1709140405.066,-40.527,-41.016,-34.180,-32.227,0.000
1709140405.070,-37.598,-38.574,-38.086,-38.574,0.000
1709140405.074,-33.691,-38.574,-39.551,-38.086,0.000
1709140405.078,-46.387,-41.016,-40.039,-37.598,0.000
1709140405.082,-43.457,-50.781,-30.762,-33.203,0.000
1709140405.086,-41.016,-51.758,-24.902,-30.762,0.000
1709140405.090,-45.410,-53.711,-31.250,-38.086,0.000
1709140405.093,-46.387,-49.316,-40.039,-40.527,0.000
1709140405.097,-43.945,-34.180,-38.574,-41.992,0.000
1709140405.101,-39.062,-30.762,-35.645,-45.898,0.000
1709140405.105,-35.156,-54.688,-34.180,-40.527,0.000
1709140405.109,-40.039,-63.477,-30.762,-32.227,0.000
1709140405.113,-43.945,-41.992,-34.668,-32.227,0.000
1709140405.117,-37.598,-36.621,-37.109,-40.527,0.000
1709140405.121,-33.203,-39.551,-35.645,-41.992,0.000
1709140405.125,-30.762,-38.574,-38.086,-38.574,0.000
1709140405.129,-28.320,-45.898,-44.434,-32.227,0.000
1709140405.133,-36.133,-65.430,-41.016,-28.320,0.000
1709140405.137,-40.527,-48.340,-35.156,-33.203,0.000
1709140405.140,-41.504,-38.574,-30.273,-31.738,0.000
1709140405.144,-36.621,-41.504,-31.738,-37.109,0.000
1709140405.148,-39.062,-27.832,-37.598,-47.852,0.000
1709140405.152,-40.527,-27.344,-39.062,-37.109,0.000
1709140405.156,-41.992,-39.062,-41.016,-32.715,0.000
1709140405.160,-41.016,-41.504,-39.551,-38.574,0.000
1709140405.164,-45.410,-44.922,-42.969,-45.410,0.000
1709140405.168,-49.316,-50.781,-49.316,-47.363,0.000
1709140405.172,-41.504,-42.969,-41.016,-45.410,0.000
1709140405.176,-37.109,-41.992,-35.156,-42.969,0.000
1709140405.180,-27.832,-54.199,-37.109,-39.062,0.000
1709140405.183,-35.645,-39.551,-41.504,-45.898,0.000
1709140405.187,-41.016,-33.203,-42.480,-44.434,0.000
1709140405.191,-36.133,-63.965,-42.480,-31.738,0.000
1709140405.195,-38.086,-52.246,-35.645,-26.855,0.000
1709140405.199,-34.180,-40.039,-31.250,-35.645,0.000
1709140405.203,-30.762,-49.316,-28.809,-43.457,0.000
1709140405.207,-38.086,-48.828,-31.738,-46.387,0.000
1709140405.211,-52.734,-37.598,-37.598,-39.551,0.000
1709140405.215,-53.711,-26.367,-35.156,-32.227,0.000
1709140405.219,-48.828,-29.785,-36.133,-44.922,0.000
1709140405.223,-45.410,-43.945,-36.133,-46.875,0.000
1709140405.226,-31.250,-47.852,-33.691,-39.551,0.000
1709140405.230,-40.527,-42.480,-39.551,-41.992,0.000
1709140405.234,-54.688,-36.621,-42.480,-41.992,0.000
1709140405.238,-34.180,-51.270,-36.621,-32.227,0.000
1709140405.242,-36.621,-57.617,-35.645,-38.086,0.000
1709140405.246,-43.945,-33.203,-39.551,-47.363,0.000
1709140405.250,-43.457,-27.344,-41.016,-45.410,0.000
1709140405.254,-39.551,-38.086,-41.992,-29.297,0.000
1709140405.258,-28.320,-36.621,-44.434,-21.484,0.000
1709140405.262,-41.016,-35.156,-41.504,-36.133,0.000
1709140405.265,-53.711,-41.992,-35.156,-41.992,0.000
1709140405.269,-43.945,-32.715,-36.621,-33.691,0.000
1709140405.273,-28.809,-36.133,-35.156,-27.832,0.000
1709140405.277,-30.762,-44.922,-33.203,-37.109,0.000
1709140405.281,-43.945,-55.176,-30.762,-44.434,0.000
1709140405.285,-35.156,-53.223,-26.855,-39.062,0.000
1709140405.289,-34.668,-33.691,-34.668,-35.156,0.000
1709140405.293,-29.297,-30.273,-33.691,-41.992,0.000
1709140405.297,-19.531,-37.598,-32.715,-43.457,0.000
1709140405.301,-21.973,-32.227,-34.180,-33.203,0.000
1709140405.305,-36.133,-26.855,-32.227,-32.227,0.000
1709140405.308,-44.434,-33.691,-35.645,-48.340,0.000
1709140405.312,-46.875,-32.715,-41.504,-48.340,0.000
1709140405.316,-49.316,-27.344,-42.969,-43.945,0.000
1709140405.320,-41.016,-35.645,-44.922,-53.223,0.000
1709140405.324,-49.805,-35.645,-41.504,-54.199,0.000
1709140405.328,-62.012,-36.621,-35.156,-44.434,0.000
1709140405.332,-46.387,-48.828,-38.574,-37.598,0.000
1709140405.336,-33.203,-42.480,-37.109,-40.527,0.000
1709140405.340,-31.250,-33.691,-31.738,-45.410,0.000
1709140405.344,-36.133,-42.969,-30.762,-41.504,0.000
1709140405.347,-35.645,-41.504,-32.715,-29.297,0.000
1709140405.351,-33.203,-24.902,-43.945,-30.273,0.000
1709140405.355,-43.945,-10.742,-49.805,-34.668,0.000
1709140405.359,-39.062,-20.508,-38.574,-25.879,0.000
1709140405.363,-40.527,-36.621,-31.738,-15.625,0.000
1709140405.367,-57.129,-42.969,-38.086,-28.809,0.000
1709140405.371,-45.410,-34.180,-40.527,-57.617,0.000
1709140405.375,-40.527,-40.039,-31.250,-56.641,0.000
1709140405.379,-48.340,-49.805,-28.320,-45.898,0.000
1709140405.382,-51.270,-35.645,-35.645,-58.105,0.000
1709140405.386,-59.082,-34.180,-42.969,-61.523,0.000
1709140405.390,-44.922,-40.527,-42.969,-41.016,0.000
1709140405.394,-48.340,-34.180,-36.621,-25.879,0.000
1709140405.398,-55.176,-28.320,-37.109,-40.527,0.000
1709140405.402,-43.945,-41.992,-39.062,-48.340,0.000
1709140405.406,-47.852,-50.293,-36.133,-40.039,0.000
1709140405.410,-50.781,-44.922,-46.875,-35.645,0.000
1709140405.414,-48.828,-34.668,-50.781,-33.691,0.000
1709140405.417,-41.504,-26.367,-45.410,-32.715,0.000
1709140405.421,-37.109,-34.668,-42.480,-36.621,0.000
1709140405.425,-41.992,-50.293,-37.109,-30.762,0.000
1709140405.429,-41.016,-61.035,-36.621,-32.227,0.000
1709140405.433,-30.273,-67.383,-39.062,-32.715,0.000
1709140405.437,-35.645,-59.082,-39.551,-21.484,0.000
1709140405.441,-40.039,-33.691,-40.039,-25.879,0.000
1709140405.445,-42.480,-20.020,-38.574,-30.273,0.000
1709140405.449,-50.293,-24.414,-37.598,-30.273,0.000
1709140405.453,-50.293,-31.250,-38.574,-40.527,0.000
1709140405.457,-39.062,-35.156,-38.574,-42.480,0.000
1709140405.460,-41.504,-57.617,-34.668,-35.645,0.000
1709140405.464,-45.410,-51.758,-35.156,-37.598,0.000
1709140405.468,-43.457,-28.809,-43.945,-34.180,0.000
1709140405.472,-46.875,-45.410,-45.898,-33.691,0.000
1709140405.476,-43.457,-43.945,-38.086,-33.691,0.000
1709140405.480,-35.156,-38.574,-31.250,-29.785,0.000
1709140405.484,-33.691,-43.945,-36.621,-35.156,0.000
1709140405.488,-38.574,-49.805,-37.109,-40.039,0.000
1709140405.491,-42.969,-49.316,-27.832,-36.133,0.000
1709140405.495,-45.898,-40.527,-25.391,-30.762,0.000
1709140405.499,-45.410,-35.156,-35.156,-39.062,0.000
1709140405.503,-38.086,-57.617,-39.551,-53.711,0.000
1709140405.507,-48.340,-62.012,-37.109,-56.152,0.000
1709140405.511,-61.035,-40.527,-39.062,-54.199,0.000
1709140405.515,-57.617,-28.320,-28.320,-51.758,0.000
1709140405.519,-48.828,-37.598,-21.484,-50.293,0.000
1709140405.523,-41.992,-41.504,-31.738,-44.922,0.000
1709140405.527,-46.387,-36.133,-35.156,-41.016,0.000
1709140405.531,-44.434,-44.434,-27.344,-42.480,0.000
1709140405.535,-43.457,-41.016,-31.250,-49.805,0.000
1709140405.538,-34.668,-41.016,-29.297,-45.898,0.000
1709140405.542,-27.344,-47.852,-21.484,-40.039,0.000
1709140405.546,-27.832,-30.762,-24.414,-49.316,0.000
1709140405.550,-24.414,-23.926,-21.973,-39.062,0.000
1709140405.554,-30.273,-38.086,-22.949,-39.551,0.000
1709140405.558,-42.969,-41.992,-38.574,-48.828,0.000
1709140405.562,-41.504,-34.180,-37.598,-44.922,0.000
1709140405.566,-28.320,-32.227,-32.227,-50.781,0.000
1709140405.570,-33.691,-41.992,-34.668,-44.922,0.000
1709140405.574,-46.875,-42.480,-28.809,-32.227,0.000
1709140405.578,-48.828,-39.551,-28.809,-35.645,0.000
1709140405.582,-42.969,-27.344,-35.645,-45.410,0.000
1709140405.585,-40.039,-26.367,-35.645,-32.227,0.000
1709140405.589,-46.387,-29.297,-33.691,-34.180,0.000
1709140405.593,-40.039,-25.879,-33.691,-33.203,0.000
1709140405.597,-37.598,-42.480,-33.203,-18.555,0.000
1709140405.601,-38.574,-52.734,-36.133,-28.809,0.000
1709140405.605,-39.062,-36.621,-43.945,-39.062,0.000
1709140405.609,-40.039,-38.574,-39.062,-40.039,0.000
1709140405.613,-40.039,-38.574,-34.180,-29.785,0.000
1709140405.617,-30.273,-47.363,-29.785,-24.414,0.000
1709140405.621,-37.109,-49.805,-31.250,-34.180,0.000
1709140405.625,-52.246,-32.715,-44.922,-54.688,0.000
1709140405.628,-51.758,-31.738,-40.039,-61.035,0.000
1709140405.632,-44.922,-29.785,-32.227,-44.922,0.000
1709140405.636,-35.156,-28.320,-36.133,-38.574,0.000
1709140405.640,-29.785,-39.551,-42.480,-53.711,0.000
1709140405.644,-37.598,-45.898,-45.410,-57.617,0.000
1709140405.648,-45.898,-48.828,-39.551,-46.387,0.000
1709140405.652,-43.945,-47.852,-43.945,-40.039,0.000
1709140405.656,-35.645,-45.410,-42.969,-47.363,0.000
1709140405.660,-34.180,-40.527,-31.250,-46.387,0.000
1709140405.664,-47.852,-34.668,-39.551,-36.133,0.000
1709140405.667,-38.086,-37.109,-41.992,-23.438,0.000
1709140405.671,-28.320,-31.250,-41.504,-24.902,0.000
1709140405.675,-34.668,-31.250,-41.504,-28.320,0.000
1709140405.679,-37.598,-32.715,-45.898,-37.109,0.000
1709140405.683,-42.480,-31.250,-44.922,-45.410,0.000
1709140405.687,-42.480,-47.363,-33.691,-37.598,0.000
1709140405.691,-37.598,-51.758,-32.227,-37.109,0.000
1709140405.695,-28.320,-27.832,-36.621,-25.391,0.000
1709140405.699,-28.320,-13.672,-42.969,-33.203,0.000
1709140405.703,-19.043,-40.039,-41.992,-44.922,0.000
1709140405.706,-12.695,-45.898,-38.086,-40.039,0.000
1709140405.710,-33.691,-23.926,-39.062,-30.273,0.000
1709140405.714,-36.133,-27.832,-34.668,-29.297,0.000
1709140405.718,-24.902,-30.762,-29.297,-28.809,0.000
1709140405.722,-28.320,-38.574,-32.227,-21.973,0.000
1709140405.726,-26.855,-56.641,-35.645,-22.949,0.000
1709140405.730,-27.344,-65.430,-34.668,-32.227,0.000
1709140405.734,-39.062,-49.316,-36.133,-38.574,0.000
1709140405.738,-45.410,-29.785,-34.180,-35.156,0.000
1709140405.741,-51.270,-24.902,-43.457,-43.457,0.000
1709140405.745,-45.898,-30.273,-44.922,-43.457,0.000
1709140405.749,-42.480,-34.180,-29.785,-30.273,0.000
1709140405.753,-42.480,-31.738,-28.809,-32.227,0.000
1709140405.757,-41.504,-37.598,-34.180,-41.504,0.000
1709140405.761,-39.551,-44.922,-36.621,-49.805,0.000
1709140405.765,-43.945,-45.898,-36.621,-51.270,0.000
1709140405.769,-37.598,-41.504,-36.133,-47.363,0.000
1709140405.773,-30.273,-43.457,-35.156,-47.852,0.000
1709140405.777,-33.691,-49.805,-34.668,-43.945,0.000
1709140405.781,-33.203,-43.945,-37.598,-50.781,0.000
1709140405.784,-47.852,-31.738,-37.109,-51.270,0.000
1709140405.788,-49.316,-27.832,-46.875,-33.691,0.000
1709140405.792,-35.645,-39.551,-49.316,-23.926,0.000
1709140405.796,-39.551,-38.574,-30.273,-30.273,0.000
1709140405.800,-51.270,-36.133,-26.855,-34.668,0.000
1709140405.804,-51.758,-38.574,-32.227,-33.691,0.000
1709140405.808,-38.574,-32.715,-36.621,-27.832,0.000
1709140405.812,-39.551,-37.598,-40.039,-30.273,0.000
1709140405.815,-44.922,-47.363,-38.574,-41.016,0.000
1709140405.819,-43.457,-45.898,-36.621,-46.387,0.000
1709140405.823,-45.898,-49.316,-41.016,-49.316,0.000
1709140405.827,-49.316,-42.480,-42.480,-42.480,0.000
1709140405.831,-42.480,-44.434,-40.039,-33.691,0.000
1709140405.835,-28.320,-42.969,-45.410,-33.691,0.000
1709140405.839,-31.250,-35.156,-46.387,-30.762,0.000
1709140405.843,-51.270,-34.180,-49.805,-38.086,0.000
1709140405.846,-42.480,-34.180,-49.805,-41.504,0.000
1709140405.850,-31.738,-37.598,-37.598,-27.832,0.000
1709140405.854,-52.734,-38.086,-35.156,-27.344,0.000
1709140405.858,-56.152,-57.129,-31.250,-31.250,0.000
1709140405.862,-45.898,-64.941,-31.738,-39.551,0.000
1709140405.866,-46.875,-43.457,-34.180,-45.898,0.000
1709140405.870,-40.527,-26.367,-34.668,-36.133,0.000
1709140405.874,-30.273,-33.203,-37.598,-28.809,0.000
1709140405.878,-27.832,-44.434,-35.645,-36.133,0.000
1709140405.882,-30.762,-35.156,-40.527,-51.270,0.000
1709140405.886,-32.227,-27.832,-47.852,-57.617,0.000
1709140405.890,-36.621,-36.621,-43.945,-45.898,0.000
1709140405.893,-37.598,-35.156,-37.598,-29.785,0.000
1709140405.897,-29.297,-36.621,-32.715,-37.598,0.000
1709140405.901,-40.527,-47.363,-25.879,-52.246,0.000
1709140405.905,-52.734,-47.852,-28.320,-57.129,0.000
1709140405.909,-43.945,-42.480,-35.645,-49.805,0.000
1709140405.913,-37.598,-31.250,-41.016,-44.922,0.000
1709140405.917,-39.551,-35.156,-43.457,-45.410,0.000
1709140405.921,-31.250,-51.270,-33.203,-50.781,0.000
1709140405.925,-31.250,-59.082,-29.297,-52.246,0.000
1709140405.929,-32.227,-48.340,-41.016,-40.039,0.000
1709140405.933,-32.715,-29.785,-38.086,-37.109,0.000
1709140405.937,-33.691,-30.762,-34.668,-42.480,0.000
1709140405.940,-29.297,-35.645,-36.621,-42.969,0.000
1709140405.944,-32.227,-36.621,-31.738,-39.062,0.000
1709140405.948,-34.180,-42.480,-38.086,-35.645,0.000
1709140405.952,-38.086,-36.621,-44.434,-33.691,0.000
1709140405.956,-53.711,-28.320,-43.945,-43.945,0.000
1709140405.960,-44.922,-38.574,-34.180,-30.762,0.000
1709140405.964,-33.203,-41.016,-33.203,-11.230,0.000
1709140405.968,-32.715,-33.691,-31.250,-20.508,0.000
1709140405.972,-32.715,-53.711,-30.762,-28.320,0.000
1709140405.976,-34.180,-50.781,-34.668,-21.973,0.000
1709140405.980,-26.855,-13.672,-32.715,-17.090,0.000
1709140405.983,-25.391,-20.020,-36.621,-28.809,0.000
1709140405.987,-38.574,-43.457,-41.992,-36.133,0.000
1709140405.991,-31.738,-43.457,-44.922,-35.645,0.000
1709140405.995,-27.344,-31.250,-37.598,-35.645,0.000
1709140405.999,-30.273,-36.133,-26.367,-43.945,0.000
1709140406.003,-27.344,-35.156,-33.691,-48.828,0.000
1709140406.007,-42.480,-32.227,-36.621,-45.410,0.000
1709140406.011,-42.480,-37.598,-30.762,-41.016,0.000
1709140406.015,-39.062,-34.668,-30.273,-42.969,0.000
1709140406.019,-41.504,-35.156,-36.133,-47.363,0.000
1709140406.022,-42.969,-37.598,-44.922,-59.082,0.000
1709140406.026,-48.340,-32.227,-46.875,-66.895,0.000
1709140406.030,-49.316,-42.969,-43.945,-50.781,0.000
1709140406.034,-46.875,-41.504,-42.480,-59.082,0.000
1709140406.038,-44.922,-32.227,-43.945,-69.824,0.000
1709140406.042,-50.293,-33.691,-41.504,-63.965,0.000
1709140406.046,-46.875,-17.578,-40.039,-59.082,0.000
1709140406.050,-41.016,-30.762,-32.227,-42.969,0.000
1709140406.054,-37.598,-31.738,-27.344,-42.480,0.000
1709140406.058,-30.273,-21.973,-30.762,-50.781,0.000
1709140406.062,-27.344,-25.879,-36.133,-43.945,0.000
1709140406.065,-26.367,-32.227,-34.180,-32.227,0.000
1709140406.069,-35.645,-42.969,-38.574,-24.414,0.000
1709140406.073,-38.574,-39.062,-48.340,-24.414,0.000
1709140406.077,-36.133,-31.738,-42.480,-32.715,0.000
1709140406.081,-26.367,-39.062,-37.109,-34.180,0.000
1709140406.085,-29.785,-42.480,-36.621,-34.180,0.000
1709140406.089,-40.039,-34.180,-33.203,-40.039,0.000
1709140406.093,-34.180,-34.668,-30.762,-37.109,0.000
1709140406.097,-34.180,-49.316,-35.156,-30.762,0.000
1709140406.101,-35.156,-49.805,-40.527,-37.598,0.000
1709140406.104,-27.832,-25.879,-40.527,-35.156,0.000
1709140406.108,-31.738,-22.949,-38.574,-33.203,0.000
1709140406.112,-30.273,-31.250,-36.133,-35.645,0.000
1709140406.116,-26.367,-26.855,-32.227,-32.227,0.000
1709140406.120,-27.832,-35.156,-34.668,-33.691,0.000
1709140406.124,-23.926,-40.039,-40.527,-38.574,0.000
1709140406.128,-25.879,-32.715,-37.598,-34.668,0.000
1709140406.132,-27.344,-17.578,-34.668,-35.156,0.000
1709140406.136,-35.156,-23.438,-33.691,-44.434,0.000
1709140406.139,-43.945,-35.156,-39.551,-49.805,0.000
1709140406.143,-44.922,-46.387,-38.086,-52.734,0.000
1709140406.147,-50.293,-63.965,-26.855,-51.270,0.000
1709140406.151,-50.781,-55.664,-27.832,-42.480,0.000
1709140406.155,-56.641,-42.480,-33.203,-53.223,0.000
1709140406.159,-66.895,-48.340,-34.180,-68.359,0.000
1709140406.163,-69.336,-43.945,-33.203,-63.965,0.000
1709140406.167,-59.570,-37.598,-34.668,-50.293,0.000
1709140406.171,-53.223,-41.992,-41.504,-48.340,0.000
1709140406.174,-50.293,-54.199,-39.551,-45.410,0.000
1709140406.178,-47.363,-46.387,-42.969,-46.875,0.000
1709140406.182,-57.617,-36.133,-45.410,-58.105,0.000
1709140406.186,-69.824,-45.898,-39.062,-53.711,0.000
1709140406.190,-56.152,-35.156,-37.109,-57.129,0.000
1709140406.194,-42.480,-27.344,-34.180,-45.410,0.000
1709140406.198,-43.945,-41.992,-37.598,-34.180,0.000
1709140406.202,-35.645,-40.527,-48.340,-48.828,0.000
1709140406.206,-39.551,-31.738,-40.527,-47.363,0.000
1709140406.210,-45.898,-36.133,-27.344,-38.574,0.000
1709140406.214,-40.039,-32.715,-25.391,-38.574,0.000
1709140406.218,-39.551,-32.227,-32.227,-41.504,0.000
1709140406.222,-43.457,-36.133,-40.039,-46.387,0.000
1709140406.225,-38.574,-35.156,-36.621,-36.133,0.000
1709140406.229,-36.133,-48.828,-31.250,-17.578,0.000
1709140406.233,-42.480,-62.988,-33.691,-31.738,0.000
1709140406.237,-57.617,-42.969,-41.992,-68.359,0.000
1709140406.241,-59.082,-25.879,-47.363,-83.496,0.000
1709140406.245,-51.270,-24.414,-48.340,-63.477,0.000
1709140406.249,-54.199,-28.809,-44.434,-52.246,0.000
1709140406.253,-62.012,-40.527,-40.527,-66.895,0.000
1709140406.257,-57.129,-39.551,-35.645,-68.359,0.000
1709140406.261,-46.387,-45.410,-33.691,-60.547,0.000
1709140406.265,-40.527,-65.918,-36.133,-66.406,0.000
1709140406.269,-50.293,-49.805,-41.992,-56.152,0.000
1709140406.272,-60.547,-33.203,-42.480,-68.848,0.000
1709140406.276,-62.012,-36.133,-38.574,-83.496,0.000
1709140406.280,-63.477,-25.879,-40.527,-68.359,0.000
1709140406.284,-69.336,-27.344,-40.039,-77.637,0.000
1709140406.288,-74.707,-38.574,-33.691,-67.383,0.000
1709140406.292,-62.500,-40.039,-35.645,-41.992,0.000
1709140406.296,-53.711,-44.434,-41.016,-48.340,0.000
1709140406.300,-56.641,-56.152,-38.574,-65.918,0.000
1709140406.304,-70.312,-41.992,-39.551,-74.707,0.000
1709140406.308,-77.148,-38.086,-45.410,-62.500,0.000
1709140406.312,-74.707,-43.945,-47.852,-51.270,0.000
1709140406.315,-66.895,-38.574,-45.410,-55.176,0.000
1709140406.319,-66.895,-38.086,-44.434,-63.477,0.000
1709140406.323,-62.500,-34.180,-44.434,-71.777,0.000
1709140406.327,-50.781,-25.391,-45.410,-64.941,0.000
1709140406.331,-62.988,-28.320,-44.922,-41.016,0.000
1709140406.335,-55.664,-44.922,-40.527,-31.738,0.000
1709140406.339,-36.621,-52.734,-40.527,-25.391,0.000
1709140406.343,-30.273,-44.922,-41.016,-32.227,0.000
1709140406.347,-42.969,-40.039,-31.250,-43.945,0.000
1709140406.351,-47.363,-48.340,-27.832,-38.086,0.000
1709140406.355,-32.715,-31.738,-37.598,-41.504,0.000
1709140406.358,-23.926,-20.020,-32.227,-56.152,0.000
1709140406.362,-12.207,-41.016,-32.715,-41.016,0.000
1709140406.366,-27.832,-46.387,-42.969,-35.156,0.000
1709140406.370,-38.574,-33.203,-39.062,-33.691,0.000
1709140406.374,-36.133,-34.668,-27.344,-38.086,0.000
1709140406.378,-36.621,-42.480,-29.785,-42.480,0.000
1709140406.382,-54.688,-43.457,-34.180,-44.922,0.000
1709140406.386,-62.988,-37.109,-36.621,-66.406,0.000
1709140406.390,-47.852,-41.504,-43.945,-57.129,0.000
1709140406.394,-38.086,-38.574,-41.016,-45.898,0.000
1709140406.398,-42.969,-35.645,-40.039,-39.551,0.000
1709140406.401,-44.434,-33.203,-39.551,-29.297,0.000
1709140406.405,-28.320,-30.762,-36.621,-43.457,0.000
1709140406.409,-16.113,-41.504,-41.016,-55.664,0.000
1709140406.413,-16.113,-43.457,-36.621,-46.387,0.000
1709140406.417,-22.949,-44.922,-35.156,-41.504,0.000
1709140406.421,-36.133,-42.480,-45.410,-59.570,0.000
1709140406.425,-39.551,-39.062,-51.270,-49.805,0.000
1709140406.429,-24.414,-30.273,-47.363,-40.039,0.000
1709140406.433,-29.297,-25.879,-46.387,-42.969,0.000
1709140406.437,-21.973,-25.879,-44.922,-39.062,0.000
1709140406.441,-9.766,-20.020,-39.062,-45.410,0.000
1709140406.444,-26.367,-25.391,-32.715,-43.457,0.000
1709140406.448,-31.738,-32.715,-34.180,-41.016,0.000
1709140406.452,-29.785,-46.875,-35.156,-43.945,0.000
1709140406.456,-26.367,-38.574,-38.086,-47.363,0.000
1709140406.460,-24.902,-12.695,-46.387,-57.617,0.000
1709140406.464,-39.062,-31.250,-41.992,-47.852,0.000
1709140406.468,-42.969,-38.086,-37.109,-41.016,0.000
1709140406.472,-49.805,-33.203,-34.668,-53.711,0.000
1709140406.476,-38.574,-38.086,-38.574,-54.199,0.000
1709140406.480,-31.250,-36.133,-41.016,-57.617,0.000
1709140406.483,-37.598,-43.457,-36.133,-56.152,0.000
1709140406.487,-33.203,-38.086,-36.621,-57.617,0.000
1709140406.491,-37.109,-37.598,-41.504,-46.875,0.000
1709140406.495,-47.363,-34.668,-48.828,-43.945,0.000
1709140406.499,-43.945,-22.949,-47.852,-43.945,0.000
1709140406.503,-42.480,-35.645,-40.039,-40.039,0.000
1709140406.507,-41.504,-49.805,-45.898,-45.410,0.000
1709140406.511,-40.527,-44.922,-50.293,-31.738,0.000
1709140406.515,-37.598,-53.223,-41.992,-26.367,0.000
1709140406.518,-26.367,-53.711,-33.203,-32.715,0.000
1709140406.522,-28.320,-33.203,-30.273,-39.062,0.000
1709140406.526,-30.762,-33.203,-27.832,-29.785,0.000
1709140406.530,-15.137,-38.574,-26.367,-18.555,0.000
1709140406.534,-21.973,-36.621,-30.762,-34.668,0.000
1709140406.538,-35.156,-45.410,-32.227,-37.598,0.000
1709140406.542,-35.645,-45.410,-32.227,-34.180,0.000
1709140406.546,-41.992,-24.414,-38.574,-46.387,0.000
1709140406.550,-47.852,-13.184,-46.875,-54.199,0.000
1709140406.553,-49.316,-25.391,-43.457,-48.828,0.000
1709140406.557,-46.875,-50.293,-37.598,-41.504,0.000
1709140406.561,-45.898,-46.387,-41.016,-40.527,0.000
1709140406.565,-52.246,-41.992,-50.293,-45.898,0.000
1709140406.569,-56.152,-37.598,-51.758,-62.500,0.000
1709140406.573,-53.223,-31.250,-45.410,-56.152,0.000
1709140406.577,-48.828,-46.387,-44.922,-49.805,0.000
1709140406.581,-58.105,-43.945,-44.922,-60.547,0.000
1709140406.584,-66.406,-44.434,-40.039,-63.965,0.000
1709140406.588,-45.898,-63.965,-40.039,-53.711,0.000
1709140406.592,-45.410,-49.805,-45.410,-53.711,0.000
1709140406.596,-64.453,-33.203,-47.363,-65.430,0.000
1709140406.600,-64.941,-30.762,-46.387,-62.012,0.000
1709140406.604,-49.316,-44.434,-46.387,-43.457,0.000
1709140406.608,-38.574,-44.922,-41.992,-48.340,0.000
1709140406.612,-39.551,-39.551,-33.691,-58.105,0.000
1709140406.616,-36.621,-55.176,-28.809,-35.645,0.000
1709140406.620,-27.344,-47.852,-35.156,-32.227,0.000
1709140406.624,-32.715,-26.367,-44.434,-56.152,0.000
1709140406.627,-43.945,-22.461,-44.434,-49.805,0.000
1709140406.631,-43.457,-41.504,-41.504,-28.809,0.000
1709140406.635,-43.945,-44.434,-33.691,-38.574,0.000
1709140406.639,-34.668,-23.926,-27.832,-44.922,0.000
1709140406.643,-32.227,-25.391,-34.668,-38.574,0.000
1709140406.647,-30.273,-41.504,-45.898,-44.922,0.000
1709140406.651,-30.762,-44.434,-37.598,-49.805,0.000
1709140406.655,-38.574,-50.293,-28.809,-53.711,0.000
1709140406.659,-39.551,-40.039,-35.645,-49.805,0.000
1709140406.663,-38.574,-25.879,-41.504,-43.457,0.000
1709140406.667,-38.086,-38.574,-42.480,-54.199,0.000
1709140406.671,-38.574,-49.805,-44.434,-55.664,0.000
1709140406.674,-31.250,-45.410,-47.852,-36.621,0.000
1709140406.678,-32.715,-40.039,-45.410,-37.109,0.000
1709140406.682,-25.391,-42.480,-37.598,-45.898,0.000
1709140406.686,-14.160,-34.180,-33.203,-39.062,0.000
1709140406.690,-13.184,-36.621,-38.086,-27.344,0.000
1709140406.694,-12.207,-42.480,-44.922,-19.043,0.000
1709140406.698,-9.277,-22.949,-46.875,-31.250,0.000
1709140406.702,-15.625,-15.625,-48.340,-51.758,0.000
1709140406.706,-21.484,-28.809,-39.551,-45.410,0.000
1709140406.710,-12.207,-44.922,-39.551,-20.508,0.000
1709140406.714,-9.766,-38.574,-45.410,-5.859,0.000
1709140406.718,-13.184,-22.949,-36.133,-17.578,0.000
1709140406.721,-7.812,-31.250,-34.668,-24.902,0.000
1709140406.725,-8.789,-49.805,-38.574,-30.273,0.000
1709140406.729,-18.066,-45.898,-37.598,-37.109,0.000
1709140406.733,-24.414,-31.250,-41.016,-20.996,0.000
1709140406.737,-23.926,-35.645,-43.457,-29.297,0.000
1709140406.741,-27.832,-42.969,-40.527,-52.734,0.000
1709140406.745,-23.926,-33.203,-36.621,-42.969,0.000
1709140406.749,-20.020,-27.832,-36.621,-35.645,0.000
1709140406.753,-26.367,-33.691,-41.992,-40.527,0.000
1709140406.757,-20.508,-42.480,-48.828,-18.066,0.000
1709140406.761,-16.113,-31.738,-46.387,-7.812,0.000
1709140406.764,-3.906,-28.320,-38.086,-27.344,0.000
1709140406.768,-3.906,-35.645,-39.551,-31.250,0.000
1709140406.772,-7.324,-31.738,-44.434,-31.250,0.000
1709140406.776,-10.254,-26.855,-44.922,-32.715,0.000
1709140406.780,-12.695,-25.879,-36.621,-32.715,0.000
1709140406.784,-13.184,-21.973,-35.156,-36.133,0.000
1709140406.788,-20.020,-21.484,-39.551,-29.785,0.000
1709140406.792,-20.508,-32.715,-41.016,-22.461,0.000
1709140406.796,0.488,-28.320,-38.086,-11.230,0.000
1709140406.800,0.488,-30.762,-40.527,-15.137,0.000
1709140406.804,-27.344,-42.969,-42.480,-24.902,0.000
1709140406.807,-28.320,-38.086,-34.180,-28.320,0.000
1709140406.811,-20.020,-43.945,-31.738,-29.785,0.000
1709140406.815,-24.414,-43.457,-39.062,-43.945,0.000
1709140406.819,-24.902,-27.832,-33.691,-36.133,0.000
1709140406.823,-34.668,-23.926,-31.250,-38.086,0.000
1709140406.827,-38.574,-25.391,-47.363,-50.293,0.000
1709140406.831,-39.551,-32.227,-45.898,-44.434,0.000
1709140406.835,-35.156,-38.574,-31.250,-33.691,0.000
1709140406.839,-24.902,-37.109,-30.273,-42.480,0.000
1709140406.843,-27.832,-36.621,-32.715,-53.223,0.000
1709140406.846,-29.785,-22.461,-36.621,-36.621,0.000
1709140406.850,-26.855,-27.832,-39.062,-30.273,0.000
1709140406.854,-27.832,-47.852,-32.715,-31.738,0.000
1709140406.858,-30.273,-35.156,-33.691,-36.133,0.000
1709140406.862,-28.809,-17.090,-38.086,-48.828,0.000
1709140406.866,-31.738,-23.438,-37.598,-61.035,0.000
1709140406.870,-30.273,-31.250,-39.551,-57.129,0.000
1709140406.874,-19.043,-25.391,-34.668,-47.852,0.000
1709140406.878,-24.902,-24.414,-34.180,-50.781,0.000
1709140406.881,-43.457,-23.438,-35.645,-57.129,0.000
1709140406.885,-48.828,-25.391,-38.086,-59.570,0.000
1709140406.889,-36.621,-40.039,-31.738,-45.898,0.000
1709140406.893,-40.527,-50.293,-29.785,-30.762,0.000
1709140406.897,-43.945,-50.781,-37.598,-35.156,0.000
1709140406.901,-34.668,-47.363,-35.156,-48.828,0.000
1709140406.905,-46.387,-41.504,-40.039,-51.270,0.000
1709140406.909,-49.805,-44.434,-41.504,-43.457,0.000
1709140406.913,-46.875,-45.898,-35.645,-35.645,0.000
1709140406.916,-46.875,-39.062,-40.039,-36.133,0.000
1709140406.920,-40.527,-44.434,-51.270,-34.180,0.000
1709140406.924,-44.922,-43.457,-46.387,-39.062,0.000
1709140406.928,-49.805,-25.391,-37.109,-43.945,0.000
1709140406.932,-54.688,-27.832,-41.016,-38.574,0.000
1709140406.936,-53.711,-32.227,-40.527,-33.203,0.000
1709140406.940,-44.434,-27.344,-39.062,-32.227,0.000
1709140406.944,-48.340,-25.391,-34.180,-38.086,0.000
1709140406.948,-52.734,-29.297,-30.273,-40.527,0.000
1709140406.952,-50.781,-38.086,-35.156,-41.016,0.000
1709140406.956,-36.621,-41.016,-34.668,-45.410,0.000
1709140406.959,-25.391,-34.180,-25.391,-44.922,0.000
1709140406.963,-36.621,-32.715,-30.273,-35.645,0.000
1709140406.967,-41.016,-27.344,-37.109,-28.320,0.000
1709140406.971,-38.086,-34.668,-36.621,-28.809,0.000
1709140406.975,-42.480,-51.758,-37.109,-34.180,0.000
1709140406.979,-43.457,-42.969,-37.109,-51.270,0.000
1709140406.983,-32.227,-32.715,-35.645,-56.641,0.000
1709140406.987,-25.391,-41.992,-39.551,-54.688,0.000
1709140406.990,-39.551,-43.457,-45.410,-75.195,0.000
1709140406.994,-43.457,-26.367,-40.039,-66.895,0.000
1709140406.998,-38.086,-19.043,-39.062,-58.105,0.000
1709140407.002,-53.223,-33.203,-40.527,-76.660,0.000
1709140407.006,-56.152,-35.645,-39.062,-69.824,0.000
1709140407.010,-48.340,-46.387,-38.086,-45.410,0.000
1709140407.014,-41.504,-50.293,-42.480,-48.828,0.000
1709140407.018,-33.691,-32.227,-38.086,-49.805,0.000
1709140407.022,-28.320,-31.250,-40.527,-70.312,0.000
1709140407.026,-23.438,-25.391,-41.016,-49.316,0.000
1709140407.030,-19.531,-19.531,-34.668,-26.367,0.000
1709140407.034,-30.273,-35.156,-42.969,-40.039,0.000
1709140407.038,-35.645,-31.738,-42.969,-31.250,0.000
1709140407.041,-34.180,-21.484,-33.691,-36.621,0.000
1709140407.045,-40.527,-26.855,-39.062,-64.941,0.000
1709140407.049,-43.945,-30.273,-36.133,-54.199,0.000
1709140407.053,-30.273,-32.227,-17.578,-25.879,0.000
1709140407.057,-25.391,-40.039,-11.230,-36.621,0.000
1709140407.061,-34.180,-37.598,-19.531,-39.551,0.000
1709140407.065,-32.715,-32.227,-24.414,-47.852,0.000
1709140407.069,-25.391,-44.922,-22.949,-44.434,0.000
1709140407.073,-43.457,-50.781,-24.414,-31.250,0.000
1709140407.077,-54.688,-37.598,-29.785,-43.457,0.000
1709140407.081,-50.293,-37.598,-34.180,-44.922,0.000
1709140407.084,-41.016,-43.945,-29.297,-44.434,0.000
1709140407.088,-33.203,-41.016,-26.367,-36.621,0.000
1709140407.092,-36.621,-40.039,-30.762,-22.461,0.000
1709140407.096,-35.645,-42.480,-27.344,-17.090,0.000
1709140407.100,-38.086,-54.688,-27.344,-25.879,0.000
1709140407.104,-45.410,-41.016,-30.273,-40.527,0.000
1709140407.108,-41.992,-28.809,-26.855,-41.504,0.000
1709140407.112,-37.109,-31.738,-26.855,-36.133,0.000
1709140407.116,-27.832,-40.527,-30.762,-32.227,0.000
1709140407.120,-24.902,-45.410,-33.691,-38.086,0.000
1709140407.124,-33.691,-34.668,-32.227,-46.875,0.000
1709140407.127,-20.020,-32.715,-42.969,-45.898,0.000
1709140407.131,-20.996,-26.855,-44.434,-47.363,0.000
1709140407.135,-45.410,-35.645,-36.621,-61.523,0.000
1709140407.139,-52.246,-46.387,-32.715,-56.641,0.000
1709140407.143,-42.480,-36.621,-38.574,-37.109,0.000
1709140407.147,-42.969,-31.738,-42.969,-32.715,0.000
1709140407.151,-35.156,-29.297,-36.621,-37.598,0.000
1709140407.155,-33.203,-41.992,-34.668,-32.227,0.000
1709140407.159,-47.852,-48.828,-38.574,-37.109,0.000
1709140407.163,-46.387,-34.668,-43.945,-41.016,0.000
1709140407.167,-39.062,-31.738,-35.645,-39.551,0.000
1709140407.170,-50.781,-31.250,-30.762,-63.965,0.000
1709140407.174,-54.688,-28.320,-30.762,-51.270,0.000
1709140407.178,-48.340,-46.875,-32.715,-18.555,0.000
1709140407.182,-50.293,-62.988,-33.691,-20.996,0.000
1709140407.186,-51.758,-43.457,-35.645,-21.484,0.000
1709140407.190,-61.523,-21.973,-35.645,-20.996,0.000
1709140407.194,-46.875,-22.949,-28.809,-22.461,0.000
1709140407.198,-56.641,-25.879,-30.762,-35.645,0.000
1709140407.202,-61.035,-44.434,-30.273,-35.156,0.000
1709140407.206,-35.645,-55.664,-25.879,-25.391,0.000
1709140407.210,-37.109,-40.527,-30.762,-18.066,0.000
1709140407.213,-40.527,-34.668,-31.250,-21.484,0.000
1709140407.217,-44.922,-28.809,-38.574,-53.223,0.000
1709140407.221,-53.711,-32.227,-39.062,-52.246,0.000
1709140407.225,-48.340,-49.316,-33.203,-37.109,0.000
1709140407.229,-45.410,-39.551,-40.527,-49.805,0.000
1709140407.233,-57.129,-25.391,-43.457,-50.781,0.000
1709140407.237,-64.453,-29.297,-41.016,-58.105,0.000
1709140407.241,-62.012,-40.527,-40.039,-77.637,0.000
1709140407.245,-62.500,-48.828,-42.969,-60.547,0.000
1709140407.248,-60.547,-41.504,-43.945,-41.016,0.000
1709140407.252,-52.734,-40.527,-39.062,-43.945,0.000
1709140407.256,-35.156,-48.340,-31.738,-37.109,0.000
1709140407.260,-31.250,-47.852,-33.691,-49.316,0.000
1709140407.264,-43.457,-41.504,-32.715,-50.781,0.000
1709140407.268,-43.945,-35.156,-36.133,-45.898,0.000
1709140407.272,-54.688,-40.039,-49.316,-66.406,0.000
1709140407.276,-60.059,-44.922,-48.340,-57.129,0.000
1709140407.280,-44.434,-44.434,-35.156,-49.805,0.000
1709140407.284,-50.293,-49.805,-36.133,-56.152,0.000
1709140407.287,0.000,-47.363,-39.551,-53.223,0.000
1709140407.291,0.000,-46.875,-36.621,-52.734,0.000
1709140407.295,0.000,-48.340,-32.715,-31.250,0.000
1709140407.299,0.000,-47.363,-28.320,-29.297,0.000
1709140407.303,0.000,-58.594,-27.832,-43.945,0.000
1709140407.307,0.000,-54.688,-29.785,-35.156,0.000
1709140407.311,0.000,-50.293,-31.738,-29.785,0.000
1709140407.315,0.000,-45.410,-35.156,-32.227,0.000
1709140407.319,0.000,-51.270,-38.574,-39.551,0.000
1709140407.323,0.000,-43.457,-41.016,-44.922,0.000
1709140407.326,0.000,-30.273,-41.992,-36.621,0.000
1709140407.330,0.000,-39.551,-38.086,-23.926,0.000
1709140407.334,-22.949,-38.574,-31.250,-26.367,0.000
1709140407.338,-0.977,-38.574,-31.738,-37.109,0.000
1709140407.342,-14.160,-40.527,-37.598,-47.852,0.000
1709140407.346,-40.039,-31.250,-36.621,-48.340,0.000
1709140407.350,-54.688,-30.273,-38.086,-47.852,0.000
1709140407.354,-62.500,-48.340,-36.133,-46.875,0.000
1709140407.358,-48.340,-64.941,-31.738,-37.109,0.000
1709140407.362,-47.852,-62.500,-40.527,-43.945,0.000
1709140407.366,-55.664,-44.922,-48.340,-64.941,0.000
1709140407.370,-56.152,-24.414,-48.340,-63.965,0.000
1709140407.374,-49.805,-22.461,-49.805,-55.176,0.000
1709140407.377,-46.387,-37.598,-43.945,-64.453,0.000
1709140407.381,-50.293,-48.340,-35.156,-81.543,0.000
1709140407.385,-53.711,-44.922,-37.598,-62.988,0.000
1709140407.389,-45.410,-36.133,-34.668,-55.176,0.000
1709140407.393,-54.199,-34.180,-30.273,-57.617,0.000
1709140407.397,-64.453,-39.551,-31.738,-40.039,0.000
1709140407.401,-63.965,-46.387,-34.668,-40.039,0.000
1709140407.405,-51.758,-54.688,-37.109,-56.152,0.000
1709140407.409,-53.223,-47.363,-38.086,-44.922,0.000
1709140407.413,-64.941,-32.715,-41.992,-35.156,0.000
1709140407.417,-56.641,-34.668,-44.434,-42.969,0.000
1709140407.421,-49.805,-32.227,-38.086,-42.969,0.000
1709140407.424,-50.781,-31.250,-41.504,-52.734,0.000
1709140407.428,-44.434,-42.969,-44.434,-35.645,0.000
1709140407.432,-36.133,-35.156,-39.062,-32.227,0.000
1709140407.436,-34.668,-38.086,-41.992,-44.434,0.000
1709140407.440,-39.551,-45.410,-42.480,-51.758,0.000
1709140407.444,-38.086,-36.621,-36.133,-56.152,0.000
1709140407.448,-29.297,-37.109,-40.039,-38.574,0.000
1709140407.452,-39.062,-45.410,-46.875,-41.992,0.000
1709140407.456,-42.969,-51.758,-46.875,-53.223,0.000
1709140407.460,-37.598,-49.805,-46.875,-47.363,0.000
1709140407.464,-34.668,-44.922,-47.363,-51.758,0.000
1709140407.467,-30.762,-51.270,-42.480,-60.059,0.000
1709140407.471,-36.133,-41.992,-41.016,-53.223,0.000
1709140407.475,-42.480,-33.203,-44.434,-52.246,0.000
1709140407.479,-37.109,-42.969,-41.992,-62.988,0.000
1709140407.483,-40.527,-42.480,-41.016,-51.758,0.000
1709140407.487,-45.410,-36.133,-44.922,-39.062,0.000
1709140407.491,-39.551,-41.016,-38.086,-47.852,0.000
1709140407.495,-32.227,-49.316,-25.879,-38.086,0.000
1709140407.499,-32.227,-64.941,-28.320,-36.133,0.000
1709140407.503,-27.832,-55.176,-32.227,-44.434,0.000
1709140407.507,-22.461,-31.738,-29.785,-39.062,0.000
1709140407.510,-34.180,-30.273,-32.227,-30.762,0.000
1709140407.514,-40.527,-33.203,-33.203,-27.832,0.000
1709140407.518,-36.133,-47.852,-31.250,-24.902,0.000
1709140407.522,-27.832,-59.082,-32.715,-16.113,0.000
1709140407.526,-23.438,-52.246,-36.621,-15.625,0.000
1709140407.530,-37.598,-33.203,-40.527,-34.668,0.000
1709140407.534,-39.062,-22.949,-37.109,-27.344,0.000
1709140407.538,-30.762,-52.734,-39.551,-35.645,0.000
1709140407.542,-41.016,-59.570,-42.969,-62.500,0.000
1709140407.546,-46.387,-33.203,-34.180,-61.035,0.000
1709140407.550,-45.410,-33.203,-33.691,-35.156,0.000
1709140407.553,-41.504,-31.250,-41.504,-28.320,0.000
1709140407.557,-35.156,-41.992,-34.668,-30.273,0.000
1709140407.561,-47.363,-51.758,-34.180,-27.344,0.000
1709140407.565,-50.781,-40.527,-41.992,-43.457,0.000
1709140407.569,-32.715,-32.227,-36.621,-47.363,0.000
1709140407.573,-30.762,-38.086,-31.738,-28.320,0.000
1709140407.577,-42.969,-49.316,-33.691,-33.203,0.000
1709140407.581,-52.246,-37.598,-35.156,-54.199,0.000
1709140407.585,-53.711,-25.391,-35.156,-63.477,0.000
1709140407.589,-50.781,-38.086,-39.062,-50.293,0.000
1709140407.592,-54.688,-47.852,-41.504,-43.457,0.000
1709140407.596,-52.734,-41.504,-32.227,-34.668,0.000
1709140407.600,-37.109,-44.922,-31.250,-38.086,0.000
1709140407.604,-32.227,-44.434,-38.086,-54.199,0.000
1709140407.608,-48.828,-41.504,-39.551,-53.711,0.000
1709140407.612,-48.828,-38.574,-43.457,-43.945,0.000
1709140407.616,-32.715,-28.320,-46.387,-33.691,0.000
1709140407.620,-36.621,-30.762,-43.945,-52.734,0.000
1709140407.624,-41.016,-41.016,-36.133,-53.223,0.000
1709140407.628,-28.320,-39.551,-32.227,-49.805,0.000
1709140407.631,-31.250,-31.738,-33.691,-55.176,0.000
1709140407.635,-42.969,-29.297,-36.133,-51.270,0.000
1709140407.639,-33.691,-27.832,-37.598,-44.434,0.000
1709140407.643,-36.133,-32.715,-44.922,-41.992,0.000
1709140407.647,-53.711,-32.227,-46.875,-52.246,0.000
1709140407.651,-49.805,-18.555,-35.156,-57.129,0.000
1709140407.655,-46.387,-13.672,-30.762,-56.152,0.000
1709140407.659,-44.434,-22.949,-32.715,-37.109,0.000
1709140407.663,-37.598,-35.156,-35.156,-41.992,0.000
1709140407.666,-17.578,-33.203,-38.086,-62.012,0.000
1709140407.670,-22.949,-28.320,-38.574,-45.898,0.000
1709140407.674,-32.227,-40.527,-39.062,-20.996,0.000
1709140407.678,-32.715,-34.180,-34.668,-32.715,0.000
1709140407.682,-44.434,-27.344,-34.180,-41.016,0.000
1709140407.686,-49.316,-24.902,-32.227,-43.945,0.000
1709140407.690,-37.598,-20.996,-26.367,-58.105,0.000
1709140407.694,-37.109,-20.020,-29.785,-61.523,0.000
1709140407.698,-43.457,-22.949,-28.809,-51.758,0.000
1709140407.702,-35.156,-16.113,-26.855,-48.340,0.000
1709140407.706,-39.062,-28.809,-35.645,-45.898,0.000
1709140407.709,-41.016,-45.410,-39.062,-50.781,0.000
1709140407.713,-39.062,-36.133,-38.574,-43.945,0.000
1709140407.717,-33.691,-26.367,-38.086,-32.715,0.000
1709140407.721,-41.504,-27.832,-31.250,-30.273,0.000
1709140407.725,-48.828,-25.391,-33.691,-38.574,0.000
1709140407.729,-42.480,-42.969,-30.762,-38.574,0.000
1709140407.733,-32.715,-57.617,-27.832,-28.809,0.000
1709140407.737,-32.227,-26.855,-35.645,-44.922,0.000
1709140407.740,-33.203,-20.020,-38.574,-27.832,0.000
1709140407.744,-37.109,-30.762,-36.621,-20.508,0.000
1709140407.748,-43.457,-26.855,-34.668,-44.434,0.000
1709140407.752,-45.410,-36.133,-37.109,-60.547,0.000
1709140407.756,-48.828,-51.758,-35.156,-53.223,0.000
1709140407.760,-55.176,-49.805,-27.832,-62.500,0.000
1709140407.764,-72.266,-48.828,-30.273,-80.566,0.000
1709140407.768,-68.848,-40.039,-38.086,-40.039,0.000
1709140407.772,-48.340,-32.715,-45.410,-23.926,0.000
1709140407.776,-48.340,-39.062,-38.086,-43.457,0.000
1709140407.780,-47.363,-41.016,-27.832,-67.871,0.000
1709140407.784,-44.922,-28.809,-33.203,-79.590,0.000
1709140407.788,-34.180,-35.645,-31.250,-51.270,0.000
1709140407.791,-46.387,-52.246,-30.762,-27.344,0.000
1709140407.795,-57.129,-43.457,-33.691,-30.762,0.000
1709140407.799,-51.270,-24.902,-35.645,-58.105,0.000
1709140407.803,-62.500,-20.508,-41.016,-87.402,0.000
1709140407.807,-48.340,-34.668,-34.668,-60.547,0.000
1709140407.811,-44.922,-33.203,-33.203,-25.879,0.000
1709140407.815,-42.969,-33.691,-41.992,-55.664,0.000
1709140407.819,-39.551,-41.504,-44.922,-56.641,0.000
1709140407.823,-69.824,-34.180,-40.039,-56.152,0.000
1709140407.827,-48.340,-27.344,-39.062,-72.266,0.000
1709140407.831,-45.410,-15.625,-41.504,-59.570,0.000
1709140407.835,-74.707,-30.273,-40.527,-92.285,0.000
1709140407.838,-56.641,-32.715,-47.363,-87.891,0.000
1709140407.842,-42.480,-22.949,-43.457,-16.602,0.000
1709140407.846,-58.594,-31.738,-43.945,-1.465,0.000
1709140407.850,-82.031,-28.320,-54.199,-63.477,0.000
1709140407.854,-46.875,-49.316,-43.945,-87.402,0.000
1709140407.858,-53.711,-66.406,-31.250,-53.223,0.000
1709140407.862,-61.035,-46.387,-28.320,-20.508,0.000
1709140407.866,-45.898,-32.227,-34.180,-36.621,0.000
1709140407.870,-38.574,-36.621,-28.809,-62.500,0.000
1709140407.874,-33.203,-40.527,-38.086,-76.660,0.000
1709140407.878,-39.551,-46.387,-53.223,-56.152,0.000
1709140407.881,-48.828,-48.340,-48.340,-33.203,0.000
1709140407.885,-61.523,-34.668,-41.504,-45.410,0.000
1709140407.889,-62.012,-26.367,-42.480,-48.340,0.000
1709140407.893,-45.410,-35.156,-43.457,-62.500,0.000
1709140407.897,-40.527,-31.250,-45.410,-66.406,0.000
1709140407.901,-37.598,-29.785,-45.410,-50.781,0.000
1709140407.905,-38.574,-35.156,-46.387,-59.082,0.000
1709140407.909,-48.340,-49.316,-38.086,-77.637,0.000
1709140407.913,-56.152,-52.246,-34.668,-85.449,0.000
1709140407.917,-44.434,-48.828,-32.227,-55.664,0.000
1709140407.921,-36.621,-49.316,-25.391,-35.156,0.000
1709140407.924,-49.805,-45.898,-40.039,-35.156,0.000
1709140407.928,-33.203,-36.133,-36.133,-27.344,0.000
1709140407.932,-29.297,-25.391,-30.273,-41.016,0.000
1709140407.936,-66.895,-37.598,-44.434,-56.152,0.000
1709140407.940,-65.430,-50.293,-33.203,-63.477,0.000
1709140407.944,-41.992,-37.109,-25.879,-57.129,0.000
1709140407.948,-29.785,-20.996,-33.691,-20.996,0.000
1709140407.952,0.000,-18.066,-32.227,-22.949,0.000
1709140407.956,16.113,-17.090,-33.691,-53.711,0.000
1709140407.960,-2.930,-24.414,-30.273,-35.645,0.000
1709140407.963,-42.969,-20.508,-37.109,-49.316,0.000
1709140407.967,-101.562,-35.645,-45.898,-65.918,0.000
1709140407.971,-67.871,-42.480,-46.875,-31.738,0.000
1709140407.975,13.184,-31.250,-50.781,-45.898,0.000
1709140407.979,5.859,-52.734,-45.898,-37.598,0.000
1709140407.983,-14.648,-41.504,-35.645,-20.508,0.000
1709140407.987,-37.598,-22.949,-34.180,-57.617,0.000
1709140407.991,-63.965,-24.902,-41.016,-64.453,0.000
1709140407.995,-62.988,-24.902,-54.199,-53.223,0.000
1709140407.998,-40.527,-29.297,-44.922,-69.824,0.000
1709140408.002,-33.691,-32.715,-35.156,-57.129,0.000
1709140408.006,-57.617,-20.020,-42.969,-37.598,0.000
1709140408.010,-41.016,-24.902,-42.480,-40.039,0.000
1709140408.014,-19.043,-27.832,-40.527,-64.941,0.000
1709140408.018,-26.855,-37.598,-36.621,-21.484,0.000
1709140408.022,-48.340,-46.387,-25.879,-5.371,0.000
1709140408.026,-44.922,-42.480,-30.273,-46.387,0.000
1709140408.030,-32.227,-48.828,-39.551,-62.012,0.000
1709140408.034,-53.711,-45.898,-40.527,-87.891,0.000
1709140408.037,-57.617,-31.738,-39.551,-54.199,0.000
1709140408.041,-28.809,-32.715,-39.062,-52.734,0.000
1709140408.045,-22.949,-38.086,-38.086,-79.102,0.000
1709140408.049,-38.574,-32.227,-38.574,-46.387,0.000
1709140408.053,-51.758,-30.273,-39.062,-25.879,0.000
1709140408.057,-23.438,-48.828,-40.527,-52.734,0.000
1709140408.061,23.926,-41.992,-33.203,-50.293,0.000
1709140408.065,11.230,-20.996,-32.227,-34.668,0.000
1709140408.069,-30.273,-31.250,-40.527,-41.504,0.000
1709140408.073,-59.082,-33.691,-38.574,-52.734,0.000
1709140408.076,-57.129,-33.203,-31.738,-40.527,0.000
1709140408.080,-41.504,-40.039,-26.367,-42.969,0.000
1709140408.084,-16.602,-34.180,-34.180,-37.109,0.000
1709140408.088,-17.578,-28.320,-38.086,-21.484,0.000
1709140408.092,-53.223,-35.645,-39.551,-52.246,0.000
1709140408.096,-59.570,-38.574,-34.668,-47.852,0.000
1709140408.100,-7.324,-31.250,-27.832,-20.996,0.000
1709140408.104,-3.906,-26.855,-27.344,-14.160,0.000
1709140408.108,-47.363,-20.996,-29.785,-24.414,0.000
1709140408.111,-57.129,-24.902,-29.785,-58.594,0.000
1709140408.115,-45.898,-37.109,-31.738,-47.363,0.000
1709140408.119,-47.363,-33.203,-35.645,-21.973,0.000
1709140408.123,-55.664,-34.668,-41.992,-50.781,0.000
1709140408.127,-33.203,-37.598,-45.410,-77.637,0.000
1709140408.131,-33.691,-37.109,-40.039,-58.594,0.000
1709140408.135,-32.227,-42.969,-37.109,-28.320,0.000
1709140408.139,-36.133,-44.922,-39.551,-24.902,0.000
1709140408.143,-28.809,-43.457,-40.527,-43.457,0.000
1709140408.147,-37.109,-37.598,-37.109,-40.527,0.000
1709140408.151,-78.125,-38.086,-38.574,-53.223,0.000
1709140408.155,-72.754,-63.477,-44.922,-54.688,0.000
1709140408.158,-25.391,-56.641,-49.805,-42.480,0.000
1709140408.162,-35.645,-30.273,-47.852,-67.871,0.000
1709140408.166,-51.758,-43.945,-43.457,-46.387,0.000
1709140408.170,-37.109,-40.527,-44.922,-51.758,0.000
