timestamps,TP9,AF7,AF8,TP10,Right AUX
1709374382.606,-0.488,-42.480,0.000,-19.043,0.000
1709374382.610,-11.719,-35.645,0.000,-23.926,0.000
1709374382.614,-44.922,-38.086,0.000,-48.340,0.000
1709374382.617,-53.711,-36.621,0.000,-48.828,0.000
1709374382.621,-28.320,-36.133,0.000,-25.391,0.000
1709374382.625,7.324,-40.039,0.000,0.000,0.000
1709374382.629,-7.324,-42.480,0.000,-11.230,0.000
1709374382.633,-43.457,-41.016,0.000,-44.922,0.000
1709374382.637,-58.105,-41.992,0.000,-58.594,0.000
1709374382.641,-42.969,-44.922,0.000,-37.109,0.000
1709374382.645,-5.859,-38.086,0.000,-6.836,0.000
1709374382.649,-9.766,-38.574,0.000,-8.789,0.000
1709374382.653,-58.105,-44.434,-37.598,-46.387,0.000
1709374382.657,-76.172,-47.852,-41.504,-62.012,0.000
1709374382.661,-58.105,-39.551,-31.738,-40.527,0.000
1709374382.664,-17.578,-35.156,-25.879,-9.277,0.000
1709374382.668,-6.836,-44.922,-33.203,-8.789,0.000
1709374382.672,-47.852,-41.016,-35.645,-37.109,0.000
1709374382.676,-70.801,-32.227,-30.273,-52.246,0.000
1709374382.680,-53.223,-35.645,-30.762,-40.527,0.000
1709374382.684,-1.953,-36.621,-31.738,-1.953,0.000
1709374382.688,4.395,-39.062,-30.762,8.301,0.000
1709374382.692,-44.434,-34.180,-29.297,-36.621,0.000
1709374382.696,-61.523,-24.902,-28.320,-53.223,0.000
1709374382.700,0.000,-25.879,-31.250,0.000,0.000
1709374382.704,0.000,-27.832,-31.738,0.000,0.000
1709374382.708,0.000,-31.738,-31.738,0.000,0.000
1709374382.712,0.000,-26.855,-28.320,0.000,0.000
1709374382.715,0.000,-23.438,-28.320,0.000,0.000
1709374382.719,0.000,-28.809,-31.250,0.000,0.000
1709374382.723,0.000,-32.715,-33.691,0.000,0.000
1709374382.727,0.000,-31.738,-34.180,0.000,0.000
1709374382.731,0.000,-31.250,-31.250,0.000,0.000
1709374382.735,0.000,-34.180,-31.250,0.000,0.000
1709374382.739,0.000,-34.668,-34.180,0.000,0.000
1709374382.743,0.000,-32.715,-38.574,0.000,0.000
1709374382.747,2.930,-33.691,-38.086,-12.695,0.000
1709374382.751,-32.715,-33.203,-37.109,-28.809,0.000
1709374382.754,-63.965,-32.227,-39.062,-55.176,0.000
1709374382.758,-57.617,-32.227,-32.227,-47.852,0.000
1709374382.762,-30.762,-31.738,-33.691,-26.855,0.000
1709374382.766,8.301,-32.227,-37.109,-3.906,0.000
1709374382.770,-19.043,-27.832,-31.250,-20.508,0.000
1709374382.774,-56.641,-25.391,-33.691,-43.457,0.000
1709374382.778,-61.523,-34.180,-42.480,-45.410,0.000
1709374382.782,-38.086,-38.086,-43.457,-40.527,0.000
1709374382.786,6.836,-31.250,-40.039,-9.277,0.000
1709374382.790,-6.836,-29.297,-31.738,-15.625,0.000
1709374382.793,-51.270,-30.762,-30.762,-47.363,0.000
1709374382.797,-60.547,-33.691,-39.062,-52.246,0.000
1709374382.801,-45.410,-38.086,-38.574,-40.527,0.000
1709374382.805,-7.812,-40.039,-40.527,-10.742,0.000
1709374382.809,-7.812,-32.715,-41.016,-16.602,0.000
1709374382.813,-49.805,-27.344,-35.645,-48.828,0.000
1709374382.817,-64.941,-40.527,-37.109,-62.012,0.000
1709374382.821,-49.316,-39.551,-40.039,-40.527,0.000
1709374382.825,-9.766,-37.109,-43.945,-15.137,0.000
1709374382.829,-15.137,-39.062,-46.875,-23.438,0.000
1709374382.832,-56.641,-35.645,-41.504,-52.246,0.000
1709374382.836,-73.242,-38.574,-38.086,-61.523,0.000
1709374382.840,-61.035,-40.527,-38.574,-48.828,0.000
1709374382.844,-20.508,-36.621,-39.062,-20.996,0.000
1709374382.848,-16.113,-38.086,-39.062,-17.090,0.000
1709374382.852,-61.035,-44.434,-33.203,-46.875,0.000
1709374382.856,-76.660,-43.945,-32.227,-61.523,0.000
1709374382.860,-61.523,-35.645,-33.203,-52.246,0.000
1709374382.863,-19.531,-38.086,-32.227,-14.160,0.000
1709374382.867,-2.441,-42.969,-33.691,3.906,0.000
1709374382.871,-46.875,-41.504,-38.086,-39.062,0.000
1709374382.875,-65.430,-37.598,-36.133,-59.570,0.000
1709374382.879,-50.781,-34.180,-32.715,-43.457,0.000
1709374382.883,-14.648,-31.738,-36.133,-15.137,0.000
1709374382.887,6.348,-30.273,-32.715,-3.418,0.000
1709374382.891,-38.574,-33.691,-32.227,-36.621,0.000
1709374382.894,-65.430,-35.156,-38.086,-54.199,0.000
1709374382.898,-63.965,-36.621,-41.016,-51.270,0.000
1709374382.902,-27.344,-36.133,-40.039,-23.926,0.000
1709374382.906,5.859,-36.133,-35.645,0.977,0.000
1709374382.910,-35.156,-36.133,-37.598,-24.414,0.000
1709374382.914,-77.637,-34.668,-39.551,-50.293,0.000
1709374382.918,-67.383,-29.297,-36.621,-44.434,0.000
1709374382.922,-36.133,-30.762,-39.551,-21.484,0.000
1709374382.926,-11.719,-38.086,-46.387,-7.812,0.000
1709374382.930,-41.016,-36.621,-44.434,-33.691,0.000
1709374382.933,-73.242,-32.227,-39.062,-59.570,0.000
1709374382.937,-72.754,-37.109,-41.504,-57.617,0.000
1709374382.941,-39.062,-42.969,-41.504,-41.504,0.000
1709374382.945,-4.395,-42.969,-40.527,-23.926,0.000
1709374382.949,-39.551,-42.969,-44.434,-39.551,0.000
1709374382.953,-73.730,-40.527,-45.898,-59.570,0.000
1709374382.957,-74.219,-40.527,-48.340,-63.477,0.000
1709374382.960,-46.387,-40.039,-49.316,-48.340,0.000
1709374382.964,2.930,-35.645,-45.898,-6.348,0.000
1709374382.968,-20.020,-36.621,-45.410,-7.324,0.000
1709374382.972,-71.289,-39.062,-42.480,-45.898,0.000
1709374382.976,-75.195,-41.016,-41.504,-58.594,0.000
1709374382.980,-46.387,-37.598,-44.434,-47.852,0.000
1709374382.984,-6.348,-31.738,-42.969,-22.461,0.000
1709374382.988,-19.043,-32.227,-41.504,-26.855,0.000
1709374382.992,-62.012,-37.598,-42.969,-60.547,0.000
1709374382.996,-74.707,-37.598,-41.504,-69.336,0.000
1709374383.000,-54.199,-30.762,-44.434,-59.570,0.000
1709374383.004,-7.812,-29.297,-50.293,-31.738,0.000
1709374383.008,-7.812,-30.762,-47.363,-22.461,0.000
1709374383.012,-52.246,-31.250,-38.574,-47.363,0.000
1709374383.015,-66.406,-28.320,-38.086,-53.711,0.000
1709374383.019,-55.664,-27.832,-43.457,-50.781,0.000
1709374383.023,-12.207,-31.250,-44.922,-25.391,0.000
1709374383.027,6.836,-28.320,-41.016,-20.508,0.000
1709374383.031,-38.086,-29.785,-38.086,-52.734,0.000
1709374383.035,-62.988,-33.691,-33.203,-69.824,0.000
1709374383.039,-51.270,-35.156,-36.621,-64.941,0.000
1709374383.043,-9.766,-38.086,-40.527,-28.809,0.000
1709374383.047,7.324,-40.527,-40.039,-11.230,0.000
1709374383.051,-41.016,-38.086,-41.016,-44.434,0.000
1709374383.055,-69.336,-36.133,-39.062,-64.453,0.000
1709374383.059,-60.547,-37.598,-37.598,-54.199,0.000
1709374383.062,-24.902,-41.992,-41.992,-28.320,0.000
1709374383.066,-1.465,-41.016,-39.551,-11.230,0.000
1709374383.070,-39.551,-36.133,-33.203,-30.762,0.000
1709374383.074,-65.918,-37.598,-35.645,-51.270,0.000
1709374383.078,-59.082,-40.039,-33.691,-51.758,0.000
1709374383.082,-27.832,-40.039,-35.156,-28.809,0.000
1709374383.086,9.277,-34.668,-38.574,0.977,0.000
1709374383.090,-26.855,-31.738,-36.621,-25.391,0.000
1709374383.094,-63.965,-34.668,-35.645,-53.223,0.000
1709374383.098,-57.617,-35.645,-33.203,-51.758,0.000
1709374383.102,-26.855,-36.621,-30.273,-27.344,0.000
1709374383.106,2.441,-42.480,-36.621,3.906,0.000
1709374383.109,-30.273,-42.480,-39.551,-22.949,0.000
1709374383.113,-65.430,-40.039,-32.715,-56.641,0.000
1709374383.117,-63.965,-35.645,-33.203,-58.105,0.000
1709374383.121,-35.645,-30.273,-34.180,-38.086,0.000
1709374383.125,0.000,-30.762,-35.645,-4.395,0.000
1709374383.129,-13.672,-29.785,-35.156,-8.789,0.000
1709374383.133,-52.246,-29.297,-33.691,-45.410,0.000
1709374383.137,-73.242,-35.156,-35.156,-63.477,0.000
1709374383.141,-50.293,-35.156,-37.598,-47.852,0.000
1709374383.145,-6.836,-34.180,-41.504,-19.043,0.000
1709374383.149,-18.066,-31.250,-38.574,-20.020,0.000
1709374383.152,-64.941,-28.320,-38.086,-45.898,0.000
1709374383.156,-80.078,-29.297,-42.480,-56.152,0.000
1709374383.160,-49.316,-28.809,-34.668,-43.945,0.000
1709374383.164,-5.859,-34.668,-36.621,-19.043,0.000
1709374383.168,-1.465,-32.227,-37.598,-17.578,0.000
1709374383.172,-43.457,-29.297,-33.203,-45.410,0.000
1709374383.176,-64.453,-30.273,-38.574,-58.105,0.000
1709374383.180,-49.805,-30.273,-39.062,-49.805,0.000
1709374383.184,-14.160,-32.715,-37.598,-24.902,0.000
1709374383.187,-2.930,-29.297,-36.133,-25.879,0.000
1709374383.191,-43.457,-31.738,-35.645,-58.105,0.000
1709374383.195,-64.941,-39.062,-36.133,-57.617,0.000
1709374383.199,-54.688,-37.109,-35.645,-54.199,0.000
1709374383.203,-12.695,-34.668,-37.109,-29.785,0.000
1709374383.207,-1.953,-36.621,-37.598,-11.719,0.000
1709374383.211,-46.875,-38.086,-34.180,-37.598,0.000
1709374383.215,-65.918,-32.227,-36.621,-52.246,0.000
1709374383.219,-56.641,-30.762,-41.016,-54.199,0.000
1709374383.222,-11.230,-31.250,-40.039,-21.484,0.000
1709374383.226,14.648,-31.250,-34.668,5.371,0.000
1709374383.230,-28.809,-36.133,-34.180,-21.973,0.000
1709374383.234,-60.059,-35.156,-35.645,-53.223,0.000
1709374383.238,-49.316,-33.203,-34.668,-51.758,0.000
1709374383.242,-17.578,-34.180,-35.645,-20.508,0.000
1709374383.246,-0.977,-32.715,-37.598,-2.441,0.000
1709374383.250,-31.738,-33.203,-35.156,-29.297,0.000
1709374383.254,-59.082,-33.203,-26.855,-42.480,0.000
1709374383.258,-59.570,-26.855,-30.273,-41.016,0.000
1709374383.261,-25.391,-25.879,-37.109,-23.438,0.000
1709374383.265,8.789,-30.273,-40.039,-3.906,0.000
1709374383.269,-24.414,-29.785,-39.551,-29.785,0.000
1709374383.273,-55.664,-25.879,-35.156,-57.617,0.000
1709374383.277,-46.875,-24.414,-32.227,-63.477,0.000
1709374383.281,-14.160,-24.414,-33.203,-39.551,0.000
1709374383.285,28.320,-25.879,-38.574,-0.488,0.000
1709374383.289,-2.441,-28.320,-38.086,-24.414,0.000
1709374383.292,-46.387,-28.809,-35.156,-52.246,0.000
1709374383.296,-50.293,-28.320,-33.203,-44.434,0.000
1709374383.300,-41.016,-31.250,-35.156,-29.785,0.000
1709374383.304,-7.812,-36.621,-34.668,-4.395,0.000
1709374383.308,-26.367,-40.527,-33.691,-15.625,0.000
1709374383.312,-71.289,-38.574,-42.480,-51.270,0.000
1709374383.316,-74.219,-33.691,-42.480,-59.570,0.000
1709374383.319,-53.223,-36.621,-34.668,-47.363,0.000
1709374383.323,-11.230,-43.457,-35.156,-18.555,0.000
1709374383.327,-13.672,-43.945,-36.621,-13.184,0.000
1709374383.331,-53.711,-41.992,-35.645,-38.086,0.000
1709374383.335,-72.266,-39.062,-34.180,-48.828,0.000
1709374383.339,-51.270,-41.016,-29.785,-37.109,0.000
1709374383.343,-1.465,-38.574,-31.250,-5.859,0.000
1709374383.347,-6.348,-37.109,-34.668,-9.277,0.000
1709374383.351,-52.246,-38.574,-34.180,-48.828,0.000
1709374383.355,-59.082,-34.180,-35.645,-59.570,0.000
1709374383.359,-41.016,-32.227,-35.156,-39.062,0.000
1709374383.363,-8.301,-33.691,-35.156,-6.836,0.000
1709374383.367,3.906,-37.598,-33.691,-9.766,0.000
1709374383.371,-41.504,-39.062,-32.715,-43.945,0.000
1709374383.374,-64.453,-38.086,-37.109,-52.246,0.000
1709374383.378,-51.270,-40.039,-37.598,-43.945,0.000
1709374383.382,-11.719,-36.133,-40.527,-14.648,0.000
1709374383.386,9.277,-30.273,-40.527,-0.488,0.000
1709374383.390,-31.250,-31.738,-31.250,-26.367,0.000
1709374383.394,-60.059,-32.227,-29.297,-45.410,0.000
1709374383.398,-63.477,-31.738,-29.785,-47.363,0.000
1709374383.402,-29.297,-36.621,-32.227,-23.926,0.000
1709374383.406,-4.883,-42.480,-37.109,-5.371,0.000
1709374383.410,-46.387,-41.992,-37.109,-36.621,0.000
1709374383.414,-79.590,-41.016,-36.621,-54.688,0.000
1709374383.418,-69.336,-38.574,-33.691,-40.527,0.000
1709374383.422,-28.320,-38.574,-34.180,-14.648,0.000
1709374383.425,-0.488,-39.551,-34.668,4.883,0.000
1709374383.429,-31.738,-36.133,-29.297,-16.602,0.000
1709374383.433,-63.477,-38.574,-36.621,-41.992,0.000
1709374383.437,-55.176,-36.621,-31.738,-41.992,0.000
1709374383.441,-21.973,-36.621,-25.391,-22.949,0.000
1709374383.445,15.625,-38.086,-29.297,5.371,0.000
1709374383.449,-10.742,-37.109,-26.367,-10.254,0.000
1709374383.453,-57.617,-41.016,-25.879,-42.969,0.000
1709374383.457,-62.500,-42.480,-28.320,-49.805,0.000
1709374383.461,-36.621,-37.598,-30.273,-28.809,0.000
1709374383.465,4.395,-38.086,-38.086,1.465,0.000
1709374383.468,-17.578,-47.852,-41.504,-19.531,0.000
1709374383.472,-60.547,-47.363,-37.109,-51.758,0.000
1709374383.476,-64.941,-39.062,-37.598,-51.270,0.000
1709374383.480,-40.039,-40.527,-39.062,-28.809,0.000
1709374383.484,0.000,-43.945,-40.039,-9.766,0.000
1709374383.488,-5.859,-44.434,-42.480,-22.949,0.000
1709374383.492,-47.852,-42.480,-41.504,-48.828,0.000
1709374383.496,-66.895,-37.109,-40.039,-58.105,0.000
1709374383.500,-44.922,-34.180,-41.992,-42.480,0.000
1709374383.504,0.488,-33.203,-39.551,-15.137,0.000
1709374383.508,-4.883,-32.715,-35.645,-14.160,0.000
1709374383.511,-48.828,-33.691,-32.715,-42.969,0.000
1709374383.515,-56.641,-33.691,-30.273,-57.129,0.000
1709374383.519,-37.109,-36.133,-35.645,-50.781,0.000
1709374383.523,7.324,-37.109,-35.645,-12.695,0.000
1709374383.527,5.859,-36.621,-35.156,-6.348,0.000
1709374383.531,-41.992,-40.527,-38.086,-49.316,0.000
1709374383.535,-62.012,-40.527,-41.504,-65.430,0.000
1709374383.539,-48.340,-37.109,-36.621,-51.758,0.000
1709374383.543,-0.977,-33.203,-30.273,-14.160,0.000
1709374383.547,10.254,-34.180,-34.180,-4.395,0.000
1709374383.550,-41.504,-35.645,-33.691,-41.016,0.000
1709374383.554,-67.871,-36.621,-36.133,-55.664,0.000
1709374383.558,-52.734,-44.434,-39.551,-46.875,0.000
1709374383.562,-10.254,-43.945,-39.062,-20.996,0.000
1709374383.566,10.254,-37.109,-37.109,-3.418,0.000
1709374383.570,-35.645,-37.598,-37.109,-25.879,0.000
1709374383.574,-72.266,-41.016,-37.598,-47.852,0.000
1709374383.578,-65.918,-42.969,-36.621,-44.922,0.000
1709374383.582,-32.715,-43.945,-38.574,-24.414,0.000
1709374383.586,-8.301,-38.574,-33.203,-8.789,0.000
1709374383.589,-37.598,-31.250,-27.344,-26.855,0.000
1709374383.593,-61.523,-29.785,-28.809,-47.852,0.000
1709374383.597,-62.500,-33.691,-31.738,-52.734,0.000
1709374383.601,-30.762,-37.598,-41.992,-34.180,0.000
1709374383.605,3.418,-34.668,-42.480,-11.230,0.000
1709374383.609,-35.645,-32.715,-37.109,-32.227,0.000
1709374383.613,-67.871,-30.273,-33.691,-44.434,0.000
1709374383.617,-65.430,-32.227,-31.738,-38.574,0.000
1709374383.621,-40.527,-38.086,-39.551,-28.320,0.000
1709374383.624,-4.883,-41.992,-42.480,-1.953,0.000
1709374383.628,-27.344,-38.574,-33.203,-16.602,0.000
1709374383.632,-61.035,-37.598,-29.297,-50.781,0.000
1709374383.636,-60.547,-40.039,-32.715,-54.199,0.000
1709374383.640,-34.180,-37.109,-34.668,-38.574,0.000
1709374383.644,4.395,-38.086,-35.645,-11.719,0.000
1709374383.648,-16.113,-38.574,-33.691,-27.832,0.000
1709374383.652,-63.477,-37.109,-35.156,-63.477,0.000
1709374383.655,-73.242,-38.086,-38.574,-66.895,0.000
1709374383.659,-49.316,-41.992,-39.062,-49.316,0.000
1709374383.663,-4.883,-40.039,-40.039,-23.438,0.000
1709374383.667,-21.484,-39.551,-41.992,-40.039,0.000
1709374383.671,-68.848,-41.992,-45.898,-65.918,0.000
1709374383.675,-75.195,-39.062,-46.875,-62.500,0.000
1709374383.679,-60.059,-39.062,-45.898,-58.105,0.000
1709374383.682,-6.348,-41.504,-40.527,-19.043,0.000
1709374383.686,1.465,-41.016,-41.504,-11.719,0.000
1709374383.690,-44.922,-37.109,-39.062,-45.898,0.000
1709374383.694,-64.453,-37.109,-34.668,-53.223,0.000
1709374383.698,-62.012,-38.574,-35.645,-40.527,0.000
1709374383.702,-19.043,-41.016,-40.527,-21.973,0.000
1709374383.706,-4.883,-39.062,-43.457,-19.043,0.000
1709374383.710,-54.199,-36.133,-39.062,-48.340,0.000
1709374383.714,-76.660,-36.621,-37.598,-65.918,0.000
1709374383.718,-54.688,-33.203,-39.062,-48.340,0.000
1709374383.721,-15.625,-36.133,-41.504,-15.137,0.000
1709374383.725,2.930,-34.668,-37.598,-10.742,0.000
1709374383.730,-41.016,-32.715,-29.297,-37.598,0.000
1709374383.734,-78.613,-34.668,-32.227,-56.152,0.000
1709374383.737,-64.453,-34.668,-40.527,-58.105,0.000
1709374383.741,-12.207,-33.691,-37.598,-27.832,0.000
1709374383.745,4.883,-35.645,-34.180,-9.766,0.000
1709374383.749,-37.598,-32.715,-39.551,-40.039,0.000
1709374383.753,-65.430,-30.762,-38.086,-62.500,0.000
1709374383.757,-70.801,-33.203,-36.621,-62.988,0.000
1709374383.761,-31.738,-33.203,-37.109,-34.180,0.000
1709374383.765,1.953,-37.109,-31.738,-9.277,0.000
1709374383.769,-39.062,-40.039,-32.227,-43.457,0.000
1709374383.773,-71.289,-42.480,-34.180,-69.824,0.000
1709374383.777,-64.453,-46.387,-27.832,-68.359,0.000
1709374383.781,-34.180,-38.086,-27.344,-40.527,0.000
1709374383.785,1.953,-32.715,-31.738,-9.277,0.000
1709374383.788,-24.902,-36.621,-35.156,-32.227,0.000
1709374383.792,-64.941,-39.062,-35.645,-60.059,0.000
1709374383.796,-69.336,-36.621,-35.645,-57.129,0.000
1709374383.800,-40.039,-41.016,-40.039,-34.668,0.000
1709374383.804,-0.488,-49.805,-39.551,-2.930,0.000
1709374383.808,-24.414,-39.062,-38.086,-16.113,0.000
1709374383.812,-67.383,-32.227,-41.504,-50.293,0.000
1709374383.816,-64.941,-39.551,-40.527,-57.129,0.000
1709374383.820,-37.109,-40.527,-40.527,-36.133,0.000
1709374383.824,0.000,-38.086,-34.668,-11.230,0.000
1709374383.828,0.000,-40.039,-33.691,-28.809,0.000
1709374383.832,0.000,-37.598,-35.645,-55.664,0.000
1709374383.835,0.000,-35.156,-32.227,-66.406,0.000
1709374383.839,0.000,-38.574,-35.156,-52.246,0.000
1709374383.843,0.000,-36.133,-39.062,-18.066,0.000
1709374383.847,0.000,-32.227,-33.203,-22.461,0.000
1709374383.851,0.000,-32.227,-29.297,-52.734,0.000
1709374383.855,0.000,-29.785,-33.691,-60.547,0.000
1709374383.859,0.000,-34.668,-38.086,-55.664,0.000
1709374383.863,0.000,-42.480,-40.527,-23.926,0.000
1709374383.867,0.000,-40.527,-42.480,-16.113,0.000
1709374383.871,-51.758,-35.645,-41.016,-46.387,0.000
1709374383.875,-64.941,-33.691,-37.109,-58.594,0.000
1709374383.878,-47.852,-36.133,-37.598,-48.828,0.000
1709374383.882,-7.324,-38.574,-38.086,-19.531,0.000
1709374383.886,2.441,-35.156,-37.598,-14.648,0.000
1709374383.890,-46.387,-33.691,-37.109,-44.434,0.000
1709374383.894,-72.754,-36.133,-39.062,-61.035,0.000
1709374383.898,-55.176,-42.969,-38.574,-52.246,0.000
1709374383.902,-9.766,-45.410,-42.480,-17.090,0.000
1709374383.906,4.883,-38.086,-41.016,-4.395,0.000
1709374383.910,-28.809,-36.621,-33.691,-33.203,0.000
1709374383.914,-52.734,-41.016,-37.109,-56.641,0.000
1709374383.917,-57.129,-46.387,-39.551,-57.129,0.000
1709374383.921,-20.020,-46.387,-41.016,-32.227,0.000
1709374383.925,8.789,-41.992,-35.645,-4.395,0.000
1709374383.929,-41.016,-41.504,-32.715,-28.809,0.000
1709374383.933,-74.219,-41.992,-34.668,-47.852,0.000
1709374383.937,-55.664,-37.109,-32.715,-30.273,0.000
1709374383.941,-26.367,-28.809,-37.109,-18.066,0.000
1709374383.945,-10.254,-24.414,-44.434,-14.160,0.000
1709374383.949,-43.945,-16.602,-45.898,-46.875,0.000
1709374383.953,-71.777,-1.953,-43.457,-70.801,0.000
1709374383.956,-64.453,7.812,-45.898,-69.336,0.000
1709374383.960,-36.621,18.066,-47.363,-53.223,0.000
1709374383.964,-3.418,25.391,-47.363,-26.855,0.000
1709374383.968,-21.973,33.203,-40.039,-45.898,0.000
1709374383.972,-49.805,43.945,-41.016,-66.895,0.000
1709374383.976,-47.363,50.293,-54.688,-68.359,0.000
1709374383.980,-13.672,56.152,-51.758,-49.316,0.000
1709374383.984,48.340,69.824,-51.758,-8.301,0.000
1709374383.988,27.344,84.473,-56.152,-10.742,0.000
1709374383.991,-17.090,90.820,-56.641,-34.668,0.000
1709374383.995,-14.160,89.844,-59.570,-46.387,0.000
1709374383.999,1.465,98.145,-67.383,-34.668,0.000
1709374384.003,47.363,106.934,-71.289,6.348,0.000
1709374384.007,55.176,110.352,-74.707,6.836,0.000
1709374384.011,19.531,112.793,-79.102,-20.996,0.000
1709374384.015,15.137,115.234,-76.660,-16.602,0.000
1709374384.019,45.898,121.094,-78.613,-4.883,0.000
1709374384.022,89.844,119.629,-89.355,25.879,0.000
1709374384.026,87.891,116.211,-87.891,31.738,0.000
1709374384.030,47.852,125.000,-86.426,2.441,0.000
1709374384.034,33.203,128.418,-91.797,2.930,0.000
1709374384.038,44.922,122.070,-93.750,14.648,0.000
1709374384.042,93.262,125.977,-92.285,44.922,0.000
1709374384.046,104.004,125.488,-89.844,45.410,0.000
1709374384.050,62.012,124.023,-88.867,17.578,0.000
1709374384.054,45.410,122.559,-84.473,9.277,0.000
1709374384.057,57.617,110.352,-83.008,17.090,0.000
1709374384.061,101.074,108.398,-83.984,54.199,0.000
1709374384.065,113.281,110.352,-79.590,61.523,0.000
1709374384.069,61.035,102.051,-80.078,14.160,0.000
1709374384.073,34.180,87.891,-79.590,-5.371,0.000
1709374384.077,46.875,85.938,-74.707,12.695,0.000
1709374384.081,78.613,82.031,-74.219,36.133,0.000
1709374384.085,91.797,71.289,-72.754,40.039,0.000
1709374384.089,57.617,69.336,-69.824,11.719,0.000
1709374384.092,28.320,65.918,-63.477,-0.488,0.000
1709374384.096,27.344,56.641,-65.430,-2.930,0.000
1709374384.100,52.246,49.805,-64.941,16.602,0.000
1709374384.104,65.430,47.363,-61.035,43.457,0.000
1709374384.108,20.020,40.527,-68.848,14.160,0.000
1709374384.112,-15.625,32.227,-67.383,-19.531,0.000
1709374384.116,-12.207,27.344,-56.152,-15.137,0.000
1709374384.120,27.832,28.809,-52.734,20.996,0.000
1709374384.124,54.688,26.367,-57.129,41.016,0.000
1709374384.128,17.578,22.461,-58.105,16.113,0.000
1709374384.132,-21.484,18.066,-53.711,-10.254,0.000
1709374384.136,-26.855,12.207,-51.270,-18.555,0.000
1709374384.140,1.465,13.184,-53.711,-0.488,0.000
1709374384.144,31.738,11.719,-56.641,14.160,0.000
1709374384.147,5.859,9.277,-55.176,-8.789,0.000
1709374384.152,-30.273,5.371,-56.152,-41.016,0.000
1709374384.155,-36.133,0.977,-53.711,-47.852,0.000
1709374384.159,-19.531,0.000,-55.176,-27.344,0.000
1709374384.163,29.785,1.465,-56.152,3.418,0.000
1709374384.167,9.766,-1.953,-52.734,-13.184,0.000
1709374384.171,-35.645,-0.977,-48.828,-44.922,0.000
1709374384.175,-29.297,2.441,-49.316,-49.805,0.000
1709374384.179,-15.137,3.906,-52.734,-36.621,0.000
1709374384.183,24.902,1.953,-50.781,3.418,0.000
1709374384.187,18.555,-3.906,-49.805,1.465,0.000
1709374384.191,-36.621,-8.301,-58.105,-47.363,0.000
1709374384.195,-48.340,-11.719,-62.500,-63.965,0.000
1709374384.199,-21.484,-15.137,-59.082,-49.805,0.000
1709374384.202,25.391,-11.719,-60.059,-19.043,0.000
1709374384.206,12.695,-15.137,-61.523,-21.484,0.000
1709374384.210,-46.387,-19.531,-60.059,-56.641,0.000
1709374384.214,-57.617,-16.602,-53.223,-57.129,0.000
1709374384.218,-41.016,-20.508,-49.316,-49.805,0.000
1709374384.222,0.977,-22.949,-49.316,-29.785,0.000
1709374384.226,19.043,-19.531,-47.852,-15.137,0.000
1709374384.230,-30.762,-21.973,-46.387,-37.109,0.000
1709374384.234,-63.477,-23.438,-43.945,-59.570,0.000
1709374384.238,-50.293,-27.344,-47.852,-54.688,0.000
1709374384.242,-14.160,-30.762,-48.828,-21.973,0.000
1709374384.245,-6.348,-27.344,-47.363,-15.137,0.000
1709374384.249,-43.945,-27.344,-43.457,-48.340,0.000
1709374384.253,-66.406,-29.297,-37.109,-60.059,0.000
1709374384.257,-58.105,-32.715,-44.434,-55.664,0.000
1709374384.261,-15.625,-35.156,-51.758,-29.297,0.000
1709374384.265,21.484,-37.598,-47.852,-4.395,0.000
1709374384.269,-15.625,-37.109,-44.434,-36.133,0.000
1709374384.273,-60.059,-30.273,-45.410,-57.129,0.000
1709374384.277,-47.852,-27.832,-45.410,-43.945,0.000
1709374384.281,-5.371,-27.832,-46.875,-23.438,0.000
1709374384.285,15.137,-26.855,-41.992,-1.465,0.000
1709374384.288,-26.855,-26.855,-41.504,-25.879,0.000
1709374384.292,-62.012,-22.461,-41.992,-55.664,0.000
1709374384.296,-58.594,-21.973,-38.574,-43.945,0.000
1709374384.300,-22.949,-26.367,-37.109,-12.695,0.000
1709374384.304,5.371,-25.391,-35.645,4.395,0.000
1709374384.308,-33.691,-25.879,-37.109,-21.484,0.000
1709374384.312,-69.336,-28.320,-33.203,-42.969,0.000
1709374384.316,-64.941,-27.344,-29.297,-46.875,0.000
1709374384.320,-31.738,-30.762,-31.250,-19.531,0.000
1709374384.324,11.230,-36.133,-33.691,7.324,0.000
1709374384.327,-11.230,-32.715,-28.809,-18.555,0.000
1709374384.331,-62.988,-30.273,-30.762,-49.805,0.000
1709374384.335,-74.219,-30.762,-32.227,-55.664,0.000
1709374384.339,-47.363,-32.227,-34.180,-50.293,0.000
1709374384.343,1.465,-24.414,-36.133,-10.742,0.000
1709374384.347,-18.066,-22.461,-34.180,-12.207,0.000
1709374384.351,-65.430,-24.414,-38.086,-50.781,0.000
1709374384.355,-64.453,-23.438,-42.480,-55.176,0.000
1709374384.359,-38.086,-24.414,-41.504,-35.645,0.000
1709374384.362,-0.488,-23.926,-41.504,-3.418,0.000
1709374384.366,-12.695,-29.785,-42.969,-3.418,0.000
1709374384.370,-57.617,-27.832,-37.598,-33.691,0.000
1709374384.374,-62.988,-25.879,-37.598,-45.410,0.000
1709374384.378,-41.992,-33.691,-40.527,-41.992,0.000
1709374384.382,-1.465,-35.645,-42.969,-13.184,0.000
1709374384.386,4.395,-32.227,-44.922,-1.953,0.000
1709374384.390,-41.504,-31.250,-41.016,-36.621,0.000
1709374384.393,-61.523,-33.203,-36.621,-57.129,0.000
1709374384.397,-49.316,-30.273,-35.156,-49.805,0.000
1709374384.401,-8.789,-30.762,-42.969,-24.414,0.000
1709374384.405,2.441,-36.133,-42.969,-17.578,0.000
1709374384.409,-40.039,-38.086,-37.109,-43.945,0.000
1709374384.413,-65.430,-34.180,-35.156,-63.477,0.000
1709374384.417,-56.641,-31.738,-38.086,-59.082,0.000
1709374384.421,-20.996,-41.992,-39.551,-21.973,0.000
1709374384.425,-2.441,-40.527,-34.668,-5.371,0.000
1709374384.429,-36.133,-29.785,-33.203,-40.527,0.000
1709374384.432,-67.871,-32.227,-33.691,-58.105,0.000
1709374384.436,-67.383,-34.668,-31.250,-47.363,0.000
1709374384.440,-32.227,-36.621,-34.668,-20.996,0.000
1709374384.444,-5.859,-37.598,-37.109,-7.324,0.000
1709374384.448,-40.039,-41.016,-35.645,-39.551,0.000
1709374384.452,-64.453,-37.598,-31.738,-47.363,0.000
1709374384.456,-52.734,-32.715,-31.738,-38.086,0.000
1709374384.460,-19.531,-34.668,-34.180,-17.090,0.000
1709374384.463,8.789,-33.691,-30.273,1.465,0.000
1709374384.467,-25.879,-31.738,-31.250,-30.762,0.000
1709374384.471,-60.059,-36.621,-35.645,-54.199,0.000
1709374384.475,-53.223,-36.133,-34.180,-57.129,0.000
1709374384.479,-26.855,-31.250,-32.227,-43.457,0.000
1709374384.483,2.441,-27.832,-38.086,-16.113,0.000
1709374384.487,-20.508,-25.391,-40.527,-30.273,0.000
1709374384.491,-58.594,-29.785,-39.551,-56.641,0.000
1709374384.495,-56.152,-33.203,-37.109,-58.594,0.000
1709374384.499,-25.879,-31.250,-34.180,-41.992,0.000
1709374384.503,6.836,-35.156,-40.527,-11.719,0.000
1709374384.507,-18.555,-37.598,-35.645,-24.902,0.000
1709374384.511,-53.711,-38.086,-30.762,-53.223,0.000
1709374384.515,-49.316,-34.668,-36.621,-49.805,0.000
1709374384.518,-25.879,-32.227,-37.598,-37.109,0.000
1709374384.522,12.695,-33.203,-40.039,-5.859,0.000
1709374384.526,-4.883,-38.574,-44.434,-14.160,0.000
1709374384.530,-50.781,-36.133,-38.574,-48.340,0.000
1709374384.534,-61.523,-29.297,-35.156,-51.758,0.000
1709374384.538,-44.922,-36.133,-40.039,-41.992,0.000
1709374384.542,-3.906,-42.969,-39.551,-10.254,0.000
1709374384.546,-11.230,-39.062,-37.109,-8.789,0.000
1709374384.550,-54.199,-38.086,-36.621,-44.922,0.000
1709374384.554,-60.547,-35.156,-40.039,-62.012,0.000
1709374384.558,-52.734,-31.738,-38.574,-40.527,0.000
1709374384.562,-17.578,-33.203,-41.504,1.465,0.000
1709374384.566,-9.766,-32.227,-42.969,0.000,0.000
1709374384.569,-59.082,-33.691,-41.992,-33.203,0.000
1709374384.573,-75.684,-35.645,-40.527,-51.270,0.000
1709374384.577,-58.594,-30.762,-38.574,-53.711,0.000
1709374384.581,-20.996,-36.133,-40.039,-23.926,0.000
1709374384.585,-11.230,-44.922,-37.109,-8.301,0.000
1709374384.589,-57.617,-47.363,-34.180,-43.945,0.000
1709374384.593,-78.125,-43.945,-36.621,-63.965,0.000
1709374384.597,-64.453,-40.039,-36.133,-55.176,0.000
1709374384.601,-26.855,-36.621,-36.621,-20.996,0.000
1709374384.605,-6.348,-33.203,-38.574,-0.977,0.000
1709374384.609,-47.852,-30.273,-39.551,-38.086,0.000
1709374384.613,-68.359,-27.344,-36.133,-56.641,0.000
1709374384.616,-50.293,-31.738,-33.203,-53.711,0.000
1709374384.620,-15.137,-35.156,-40.527,-30.273,0.000
1709374384.624,3.418,-39.551,-40.039,-6.836,0.000
1709374384.628,-37.598,-41.992,-37.598,-39.062,0.000
1709374384.632,-66.895,-39.062,-33.691,-63.965,0.000
1709374384.636,-60.547,-41.016,-30.762,-59.082,0.000
1709374384.640,-28.320,-37.109,-37.109,-33.203,0.000
1709374384.644,-0.977,-27.832,-37.598,-8.301,0.000
1709374384.648,-30.273,-33.691,-38.574,-26.367,0.000
1709374384.652,-68.359,-46.875,-42.969,-51.270,0.000
1709374384.656,-71.777,-40.039,-36.621,-52.734,0.000
1709374384.659,-38.574,-33.691,-33.203,-27.832,0.000
1709374384.663,4.883,-37.598,-37.598,1.465,0.000
1709374384.667,-16.602,-37.598,-35.645,-17.090,0.000
1709374384.671,-67.383,-38.574,-33.691,-56.152,0.000
1709374384.675,-67.871,-39.551,-34.180,-66.895,0.000
1709374384.679,-34.668,-38.574,-35.156,-48.340,0.000
1709374384.683,-0.488,-42.480,-37.109,-20.996,0.000
1709374384.687,-15.137,-41.992,-34.180,-33.203,0.000
1709374384.691,-56.641,-39.062,-37.598,-66.406,0.000
1709374384.695,-66.406,-37.109,-33.203,-63.965,0.000
1709374384.698,-46.875,-39.551,-32.227,-49.316,0.000
1709374384.702,-0.488,-41.992,-37.598,-32.715,0.000
1709374384.706,-8.301,-41.016,-34.668,-36.621,0.000
1709374384.710,-60.059,-37.598,-33.691,-59.570,0.000
1709374384.714,-75.684,-34.668,-37.598,-64.941,0.000
1709374384.718,-53.711,-37.598,-38.086,-52.246,0.000
1709374384.722,-8.789,-37.109,-39.551,-21.484,0.000
1709374384.726,-10.742,-35.156,-37.109,-20.020,0.000
1709374384.730,-53.223,-38.574,-34.668,-47.363,0.000
1709374384.733,-67.383,-37.598,-33.203,-59.082,0.000
1709374384.737,-48.340,-43.945,-31.738,-51.758,0.000
1709374384.741,-8.789,-51.270,-37.598,-18.066,0.000
1709374384.745,-7.812,-46.387,-39.551,-16.113,0.000
1709374384.749,-51.270,-41.992,-42.480,-51.270,0.000
1709374384.753,-73.730,-38.574,-42.480,-70.801,0.000
1709374384.757,-63.965,-34.180,-41.504,-68.359,0.000
1709374384.761,-16.113,-35.645,-44.434,-40.527,0.000
1709374384.764,-0.488,-40.527,-43.457,-25.879,0.000
1709374384.768,-49.805,-37.109,-37.109,-53.223,0.000
1709374384.772,-76.660,-33.203,-37.109,-72.754,0.000
1709374384.776,-65.430,-35.645,-40.039,-67.871,0.000
1709374384.780,-21.973,-35.156,-36.133,-40.039,0.000
1709374384.784,-3.906,-39.062,-34.180,-11.719,0.000
1709374384.788,-51.270,-46.387,-33.691,-52.734,0.000
1709374384.792,-77.637,-36.133,-34.180,-81.055,0.000
1709374384.796,-75.684,-31.250,-41.016,-65.430,0.000
1709374384.800,-41.992,-36.133,-42.969,-39.062,0.000
1709374384.803,-10.742,-40.527,-41.504,-18.555,0.000
1709374384.807,-40.527,-36.621,-35.645,-38.574,0.000
1709374384.811,-67.383,-30.762,-31.738,-60.547,0.000
1709374384.815,-60.059,-33.691,-35.645,-59.570,0.000
1709374384.819,-27.832,-36.621,-36.133,-39.062,0.000
1709374384.823,-0.977,-39.062,-37.598,-14.160,0.000
1709374384.827,-28.809,-36.621,-35.645,-31.250,0.000
1709374384.830,-71.777,-35.645,-32.715,-51.758,0.000
1709374384.834,-74.707,-41.016,-26.367,-47.852,0.000
1709374384.838,-39.062,-44.434,-30.273,-30.762,0.000
1709374384.842,1.465,-45.410,-38.086,-3.418,0.000
1709374384.846,-23.438,-39.551,-32.227,-22.461,0.000
1709374384.850,-65.918,-37.598,-32.715,-55.664,0.000
1709374384.854,-68.848,-44.434,-34.668,-59.082,0.000
1709374384.858,-48.340,-46.387,-34.668,-50.781,0.000
1709374384.862,-8.301,-42.480,-34.668,-19.531,0.000
1709374384.866,-14.160,-39.062,-32.715,-18.555,0.000
1709374384.870,-56.152,-38.086,-32.227,-49.316,0.000
1709374384.874,-62.500,-35.645,-28.809,-53.223,0.000
1709374384.878,-35.645,-37.598,-33.203,-46.387,0.000
1709374384.882,2.930,-40.527,-41.992,-19.531,0.000
1709374384.885,-1.465,-36.621,-35.645,-16.113,0.000
1709374384.889,-48.340,-35.156,-31.738,-48.828,0.000
1709374384.893,-71.289,-35.645,-42.969,-68.848,0.000
1709374384.897,-50.781,-37.109,-45.410,-60.547,0.000
1709374384.901,-0.488,-37.598,-40.527,-25.391,0.000
1709374384.905,1.465,-39.551,-36.621,-11.230,0.000
1709374384.909,-47.363,-39.062,-31.738,-41.504,0.000
1709374384.913,-65.430,-40.527,-33.203,-58.594,0.000
1709374384.917,-52.246,-42.480,-34.180,-42.480,0.000
1709374384.921,-9.277,-42.480,-31.738,-12.207,0.000
1709374384.925,-1.465,-44.922,-34.668,-11.230,0.000
1709374384.929,-47.363,-46.387,-33.691,-43.945,0.000
1709374384.933,-70.312,-40.039,-31.738,-52.734,0.000
1709374384.936,-63.965,-34.180,-34.180,-41.992,0.000
1709374384.940,-31.738,-37.598,-42.969,-18.066,0.000
1709374384.944,-8.301,-39.062,-39.551,-0.977,0.000
1709374384.948,-44.922,-38.086,-35.645,-26.855,0.000
1709374384.952,-76.172,-38.086,-40.527,-48.828,0.000
1709374384.956,-73.730,-38.574,-43.457,-58.105,0.000
1709374384.960,-31.250,-42.480,-43.457,-37.109,0.000
1709374384.964,2.930,-39.062,-36.621,-16.113,0.000
1709374384.968,-35.645,-32.715,-31.250,-45.898,0.000
1709374384.972,-67.383,-32.227,-31.250,-68.848,0.000
1709374384.976,-63.965,-35.156,-32.715,-74.219,0.000
1709374384.980,-31.738,-38.574,-35.156,-41.504,0.000
1709374384.983,-4.883,-37.109,-40.527,-16.113,0.000
1709374384.987,-33.203,-35.156,-36.621,-51.758,0.000
1709374384.991,-61.523,-34.180,-31.738,-69.336,0.000
1709374384.996,-59.570,-38.086,0.000,-64.941,0.000
1709374385.000,-33.691,-39.551,0.000,-48.340,0.000
1709374385.004,-6.836,-42.480,0.000,-16.602,0.000
1709374385.007,-31.738,-42.969,0.000,-27.832,0.000
1709374385.011,-63.477,-39.062,0.000,-58.105,0.000
1709374385.015,-66.406,-33.203,0.000,-61.035,0.000
1709374385.019,-38.574,-38.086,0.000,-37.598,0.000
1709374385.023,2.930,-40.527,0.000,5.859,0.000
1709374385.027,-20.508,-34.180,0.000,-4.883,0.000
1709374385.031,-66.895,-37.109,0.000,-50.293,0.000
1709374385.035,-70.312,-35.156,0.000,-57.129,0.000
1709374385.039,-43.457,-32.715,0.000,-38.574,0.000
1709374385.043,3.418,-32.227,-36.133,-3.906,0.000
1709374385.046,-8.789,-38.574,-40.527,-17.578,0.000
1709374385.050,-50.781,-35.645,-36.621,-56.152,0.000
1709374385.054,-60.059,-33.203,-31.738,-58.594,0.000
1709374385.058,-46.875,-41.992,-33.203,-47.852,0.000
1709374385.062,-0.977,-39.062,-33.691,-18.555,0.000
1709374385.066,-0.977,-28.809,-35.156,-21.484,0.000
1709374385.070,-46.875,-28.320,-32.715,-47.852,0.000
1709374385.074,-59.570,-30.762,-33.203,-61.523,0.000
1709374385.078,-43.945,-28.320,-35.645,-61.523,0.000
1709374385.082,-7.324,-28.809,-36.133,-27.832,0.000
1709374385.086,-4.883,-37.109,-38.086,-25.391,0.000
1709374385.089,-53.711,-44.922,-40.527,-56.152,0.000
1709374385.093,-73.730,-38.086,-35.645,-69.336,0.000
1709374385.097,-51.758,-34.180,-33.203,-65.918,0.000
1709374385.101,-8.789,-36.621,-33.203,-32.227,0.000
1709374385.105,-2.930,-36.133,-31.250,-20.996,0.000
1709374385.109,-45.898,-36.621,-31.250,-50.293,0.000
1709374385.113,-68.848,-34.180,-26.367,-49.316,0.000
1709374385.117,-53.711,-29.297,-23.926,-31.738,0.000
1709374385.120,-15.137,-33.203,-30.762,-11.719,0.000
1709374385.124,5.371,-39.551,-32.715,6.348,0.000
1709374385.128,-28.809,-38.086,-30.762,-24.414,0.000
1709374385.132,-53.223,-37.598,-29.785,-55.176,0.000
1709374385.136,-45.898,-36.621,-28.320,-55.664,0.000
1709374385.140,-15.625,-29.785,-24.414,-19.043,0.000
1709374385.144,6.836,-32.227,-27.832,6.348,0.000
1709374385.148,-27.832,-40.039,-31.250,-32.227,0.000
1709374385.151,-61.035,-42.969,-29.297,-58.105,0.000
1709374385.155,-55.664,-44.434,-25.879,-46.875,0.000
1709374385.159,-18.066,-44.434,-25.879,-23.926,0.000
1709374385.163,14.648,-39.062,-30.762,-14.160,0.000
1709374385.167,-17.578,-37.598,-29.785,-40.039,0.000
1709374385.171,-62.500,-40.039,-29.785,-65.918,0.000
1709374385.175,-56.641,-40.039,-31.250,-63.965,0.000
1709374385.179,-19.531,-39.062,-32.227,-39.551,0.000
1709374385.182,13.672,-39.062,-31.250,-8.789,0.000
1709374385.186,-15.625,-45.410,-35.645,-26.855,0.000
1709374385.190,-59.082,-39.551,-31.250,-43.945,0.000
1709374385.194,-57.129,-29.785,-27.344,-35.156,0.000
1709374385.198,-30.273,-32.715,-31.738,-24.414,0.000
1709374385.202,3.906,-39.062,-32.227,-0.488,0.000
1709374385.206,-14.648,-37.109,-28.809,-15.137,0.000
1709374385.210,-50.781,-36.133,-29.297,-51.270,0.000
1709374385.214,-48.828,-37.598,-26.855,-57.129,0.000
1709374385.218,-21.484,-38.086,-23.438,-34.180,0.000
1709374385.221,14.648,-41.016,-26.855,-2.930,0.000
1709374385.225,-1.465,-35.156,-29.785,-16.602,0.000
1709374385.230,-52.246,-33.203,-34.668,-46.387,0.000
1709374385.234,-66.895,-37.109,-38.086,-53.711,0.000
1709374385.237,-54.688,-39.062,-34.180,-45.410,0.000
1709374385.241,-17.090,-44.434,-37.109,-15.625,0.000
1709374385.245,-19.043,-45.898,-37.598,-11.719,0.000
1709374385.249,-70.801,-42.480,-29.297,-41.992,0.000
1709374385.253,-91.309,-44.434,-28.320,-52.734,0.000
1709374385.257,-72.754,-45.898,-28.809,-42.969,0.000
1709374385.261,-23.438,-42.480,-30.273,-14.160,0.000
1709374385.265,-7.324,-36.621,-27.832,3.906,0.000
1709374385.269,-50.781,-34.668,-26.367,-31.738,0.000
1709374385.273,-68.848,-36.133,-28.809,-50.293,0.000
1709374385.277,-56.152,-33.203,-26.367,-43.945,0.000
1709374385.281,-13.184,-32.227,-26.855,-23.926,0.000
1709374385.285,8.789,-33.691,-33.203,-10.742,0.000
1709374385.288,-31.250,-33.691,-28.320,-37.598,0.000
1709374385.292,-54.199,-35.156,-25.879,-48.340,0.000
1709374385.296,-40.039,-38.086,-24.414,-36.621,0.000
1709374385.300,-5.859,-35.645,-29.297,-12.207,0.000
1709374385.304,2.441,-37.109,-38.086,-0.488,0.000
1709374385.308,-42.969,-40.039,-34.180,-23.926,0.000
1709374385.312,-67.871,-41.016,-33.203,-44.434,0.000
1709374385.316,-59.082,-45.898,-35.156,-57.129,0.000
1709374385.320,-20.996,-52.246,-33.203,-26.367,0.000
1709374385.324,3.418,-49.316,-32.227,4.395,0.000
1709374385.328,-35.645,-38.086,-26.367,-20.508,0.000
1709374385.332,-69.824,-35.156,-25.879,-48.828,0.000
1709374385.335,-71.777,-37.109,-33.691,-51.270,0.000
1709374385.339,-37.109,-37.598,-35.645,-29.297,0.000
1709374385.343,-2.441,-36.621,-32.715,-3.418,0.000
1709374385.347,-33.691,-40.039,-33.203,-27.832,0.000
1709374385.351,-63.477,-36.621,-32.227,-49.316,0.000
1709374385.355,-62.012,-36.133,-24.414,-32.227,0.000
1709374385.359,-42.480,-43.457,-33.203,-32.227,0.000
1709374385.363,-9.766,-38.086,-47.852,-20.020,0.000
1709374385.367,-30.273,-35.645,-44.922,-30.762,0.000
1709374385.371,-68.359,-38.086,-40.527,-62.500,0.000
1709374385.375,-72.754,-30.273,-39.551,-70.312,0.000
1709374385.378,-48.828,-22.949,-38.574,-57.129,0.000
1709374385.382,-11.719,-28.809,-41.992,-17.090,0.000
1709374385.386,-19.043,-28.320,-39.062,-24.414,0.000
1709374385.390,-52.734,-23.926,-33.691,-51.270,0.000
1709374385.394,-56.641,-29.297,-35.156,-50.781,0.000
1709374385.398,-28.809,-31.738,-34.668,-32.715,0.000
1709374385.402,8.789,-35.645,-34.668,2.441,0.000
1709374385.406,-5.371,-40.039,-31.250,-1.953,0.000
1709374385.410,-43.457,-34.668,-32.227,-28.320,0.000
1709374385.414,-53.223,-39.551,-35.156,-42.480,0.000
1709374385.417,-40.527,-42.480,-33.691,-38.574,0.000
1709374385.421,2.930,-39.551,-36.133,-5.371,0.000
1709374385.425,-0.488,-42.969,-33.203,0.977,0.000
1709374385.429,-48.828,-41.992,-29.297,-32.715,0.000
1709374385.433,-60.547,-41.016,-34.180,-51.758,0.000
1709374385.437,-32.227,-41.504,-31.250,-42.480,0.000
1709374385.441,9.277,-43.457,-33.691,-11.230,0.000
1709374385.445,6.348,-47.852,-38.574,-1.465,0.000
1709374385.449,-41.504,-43.457,-38.574,-38.574,0.000
1709374385.453,-69.336,-44.434,-38.574,-60.059,0.000
1709374385.456,-57.617,-45.410,-31.738,-47.852,0.000
1709374385.460,-9.277,-37.109,-28.809,-14.648,0.000
1709374385.464,7.324,-40.039,-35.645,-3.906,0.000
1709374385.468,-44.434,-43.945,-36.621,-42.969,0.000
1709374385.472,-62.500,-41.016,-35.645,-59.570,0.000
1709374385.476,-52.246,-41.016,-33.691,-57.129,0.000
1709374385.480,-22.461,-41.016,-36.133,-32.227,0.000
1709374385.484,0.977,-36.133,-39.062,-10.742,0.000
1709374385.488,-46.387,-31.250,-40.527,-43.945,0.000
1709374385.491,-82.031,-32.715,-40.527,-62.988,0.000
1709374385.495,-71.777,-35.156,-41.504,-62.988,0.000
1709374385.499,-37.598,-40.039,-42.969,-42.480,0.000
1709374385.503,-7.812,-36.621,-41.504,-12.695,0.000
1709374385.507,-37.598,-35.645,-42.969,-35.645,0.000
1709374385.511,-65.918,-41.992,-40.039,-61.035,0.000
1709374385.515,-65.430,-43.945,-40.527,-58.105,0.000
1709374385.519,-32.715,-46.875,-40.527,-32.227,0.000
1709374385.522,9.766,-47.852,-36.621,-2.441,0.000
1709374385.526,-20.508,-43.945,-34.668,-21.484,0.000
1709374385.530,-55.176,-35.156,-28.320,-47.363,0.000
1709374385.534,-58.105,-31.250,-29.297,-46.875,0.000
1709374385.538,-34.180,-40.039,-35.156,-32.227,0.000
1709374385.542,-0.977,-44.922,-35.156,-6.348,0.000
1709374385.546,-23.926,-40.039,-34.668,-20.020,0.000
1709374385.550,-66.406,-41.504,-38.574,-55.664,0.000
1709374385.554,-70.312,-41.504,-35.156,-56.641,0.000
1709374385.557,-37.598,-38.086,-31.250,-31.738,0.000
1709374385.561,6.348,-37.598,-34.668,-3.418,0.000
1709374385.565,-2.930,-39.551,-35.645,-11.719,0.000
1709374385.569,-49.805,-39.551,-32.227,-46.875,0.000
1709374385.573,-59.082,-31.250,-32.715,-58.594,0.000
1709374385.577,-41.016,-30.273,-31.738,-38.086,0.000
1709374385.581,-2.930,-37.598,-32.715,-11.719,0.000
1709374385.585,-5.371,-37.109,-32.227,-22.949,0.000
1709374385.589,-48.828,-34.180,-31.250,-56.152,0.000
1709374385.592,-62.012,-31.250,-34.668,-64.941,0.000
1709374385.596,-43.945,-34.180,-41.016,-52.246,0.000
1709374385.600,-0.977,-40.039,-45.898,-24.414,0.000
1709374385.604,3.906,-37.598,-41.504,-26.367,0.000
1709374385.608,-44.434,-34.180,-44.434,-61.523,0.000
1709374385.612,-72.754,-34.668,-50.781,-71.777,0.000
1709374385.616,-61.523,-32.227,-53.711,-64.453,0.000
1709374385.620,-21.484,-26.855,-52.246,-35.645,0.000
1709374385.624,-10.742,-27.832,-50.781,-24.414,0.000
1709374385.628,-47.363,-28.809,-49.316,-58.105,0.000
1709374385.632,-65.918,-29.297,-47.852,-71.289,0.000
1709374385.636,-62.012,-34.180,-48.828,-60.059,0.000
1709374385.640,-27.344,-31.738,-44.434,-24.902,0.000
1709374385.644,0.488,-30.762,-43.457,-16.602,0.000
1709374385.647,-41.016,-35.645,-48.340,-52.734,0.000
1709374385.652,-73.242,-34.180,-50.293,-73.242,0.000
1709374385.655,-62.500,-26.855,-51.270,-68.848,0.000
1709374385.659,-29.297,-23.926,-49.316,-34.668,0.000
1709374385.663,-8.789,-27.344,-51.270,-16.602,0.000
1709374385.667,-45.898,-27.344,-53.223,-42.480,0.000
1709374385.671,-79.102,-27.344,-50.293,-59.082,0.000
1709374385.675,-72.754,-27.344,-50.293,-52.734,0.000
1709374385.679,-32.227,-27.344,-49.316,-30.273,0.000
1709374385.683,0.977,-28.320,-44.434,1.465,0.000
1709374385.687,-30.762,-24.902,-43.457,-15.137,0.000
1709374385.691,-62.012,-23.926,-40.527,-51.758,0.000
1709374385.695,-58.594,-26.855,-36.133,-51.758,0.000
1709374385.699,-32.227,-34.180,-36.133,-37.598,0.000
1709374385.702,1.465,-31.250,-40.527,-17.090,0.000
1709374385.706,-21.484,-27.832,-38.574,-35.156,0.000
1709374385.710,-63.477,-36.621,-36.133,-63.965,0.000
1709374385.714,-66.406,-34.668,-34.668,-66.406,0.000
1709374385.718,-47.852,-37.109,-38.574,-49.805,0.000
1709374385.722,-18.555,-39.062,-38.086,-20.020,0.000
1709374385.726,-30.762,-32.715,-34.180,-30.762,0.000
1709374385.730,-73.242,-38.574,-36.133,-51.758,0.000
1709374385.734,-78.613,-34.668,-34.180,-58.594,0.000
1709374385.738,-48.828,-31.738,-31.738,-42.969,0.000
1709374385.741,-14.648,-38.574,-36.133,-11.230,0.000
1709374385.745,-23.438,-40.527,-40.039,-23.438,0.000
1709374385.749,-61.035,-39.551,-41.992,-54.199,0.000
1709374385.753,-74.707,-39.062,-40.527,-62.500,0.000
1709374385.757,-54.688,-38.086,-41.016,-55.176,0.000
1709374385.761,-7.324,-39.062,-42.969,-23.438,0.000
1709374385.765,-7.324,-39.062,-44.434,-23.926,0.000
1709374385.769,-55.176,-40.039,-41.016,-63.965,0.000
1709374385.773,-69.824,-34.180,-40.039,-62.988,0.000
1709374385.777,-51.270,-29.297,-44.922,-55.664,0.000
1709374385.781,-13.184,-36.133,-48.828,-40.527,0.000
1709374385.784,-8.301,-36.621,-41.992,-24.902,0.000
1709374385.788,-44.434,-31.250,-36.133,-46.387,0.000
1709374385.792,-61.523,-31.250,-39.062,-62.500,0.000
1709374385.796,-52.246,-29.785,-40.039,-57.129,0.000
1709374385.800,-9.277,-35.645,-40.039,-28.320,0.000
1709374385.804,4.395,-36.133,-43.457,-18.555,0.000
1709374385.808,-38.574,-28.320,-40.039,-43.457,0.000
1709374385.812,-69.336,-31.738,-37.598,-61.035,0.000
1709374385.816,-62.012,-35.645,-34.180,-60.059,0.000
1709374385.820,-19.043,-36.133,-32.227,-20.020,0.000
1709374385.824,-0.488,-36.133,-34.668,5.859,0.000
1709374385.827,-42.969,-42.480,-31.738,-37.109,0.000
1709374385.831,-71.289,-42.480,-32.227,-69.336,0.000
1709374385.835,-62.500,-41.016,-35.156,-56.641,0.000
1709374385.839,0.000,-42.969,-34.668,-20.996,0.000
1709374385.843,0.000,-41.504,-41.016,-2.930,0.000
1709374385.847,0.000,-41.016,-37.109,-32.715,0.000
1709374385.851,0.000,-38.574,-35.156,-63.965,0.000
1709374385.855,0.000,-43.457,-38.574,-69.824,0.000
1709374385.859,0.000,-47.363,-40.039,-56.152,0.000
1709374385.862,0.000,-45.898,-42.969,-23.926,0.000
1709374385.866,0.000,-41.016,-38.086,-35.645,0.000
1709374385.870,0.000,-37.598,-32.227,-68.359,0.000
1709374385.874,0.000,-44.434,-32.715,-69.824,0.000
1709374385.878,0.000,-46.875,-36.621,-49.805,0.000
1709374385.882,0.000,-44.434,-38.086,-16.113,0.000
1709374385.886,-16.602,-41.992,-37.598,-24.414,0.000
1709374385.890,-63.965,-36.621,-41.016,-57.617,0.000
1709374385.893,-67.383,-34.668,-41.504,-64.941,0.000
1709374385.897,-44.434,-30.762,-37.109,-50.293,0.000
1709374385.901,-7.812,-31.738,-41.504,-29.297,0.000
1709374385.905,-15.137,-33.203,-43.945,-35.156,0.000
1709374385.909,-53.223,-31.250,-37.109,-47.852,0.000
1709374385.913,-69.336,-31.738,-36.621,-68.848,0.000
1709374385.917,-45.898,-33.691,-39.062,-60.059,0.000
1709374385.921,-0.977,-34.668,-43.457,-20.508,0.000
1709374385.925,-6.348,-29.785,-39.551,-28.320,0.000
1709374385.929,-53.711,-26.855,-38.086,-64.941,0.000
1709374385.932,-73.730,-35.156,-43.457,-71.289,0.000
1709374385.936,-49.316,-37.109,-37.109,-50.781,0.000
1709374385.940,-5.859,-37.109,-37.598,-23.438,0.000
1709374385.944,-12.207,-39.551,-40.039,-22.461,0.000
1709374385.948,-51.270,-37.598,-35.645,-55.176,0.000
1709374385.952,-68.359,-38.574,-36.621,-70.312,0.000
1709374385.956,-61.035,-39.062,-39.062,-51.270,0.000
1709374385.959,-21.484,-37.598,-43.945,-15.137,0.000
1709374385.963,-15.625,-39.551,-39.062,-15.625,0.000
1709374385.967,-58.105,-39.062,-35.156,-56.641,0.000
1709374385.971,-78.613,-36.621,-42.480,-76.660,0.000
1709374385.975,-63.477,-34.180,-44.922,-65.918,0.000
1709374385.979,-21.973,-34.668,-38.574,-26.855,0.000
1709374385.983,-11.719,-35.156,-38.086,-8.301,0.000
1709374385.987,-54.688,-32.227,-39.551,-44.434,0.000
1709374385.991,-71.289,-29.297,-36.621,-64.453,0.000
1709374385.995,-58.105,-33.691,-33.691,-47.852,0.000
1709374385.999,-23.438,-37.598,-34.180,-25.391,0.000
1709374386.003,-1.465,-38.086,-39.062,-19.043,0.000
1709374386.007,-38.574,-33.691,-36.133,-45.410,0.000
1709374386.011,-69.336,-30.273,-36.133,-60.547,0.000
1709374386.015,-64.453,-33.203,-41.504,-53.711,0.000
1709374386.018,-30.273,-36.621,-39.551,-30.273,0.000
1709374386.022,-5.859,-38.574,-35.645,-8.301,0.000
1709374386.027,-36.621,-42.969,-36.133,-33.691,0.000
1709374386.030,-70.312,-39.062,-40.039,-62.988,0.000
1709374386.034,-72.754,-35.645,-40.527,-60.059,0.000
1709374386.038,-26.367,-37.109,-42.969,-23.926,0.000
1709374386.042,16.602,-39.062,-45.898,4.395,0.000
1709374386.046,-20.996,-40.527,-44.434,-34.668,0.000
1709374386.050,-57.617,-33.203,-44.922,-72.266,0.000
1709374386.054,-52.734,-32.715,-50.293,-73.730,0.000
1709374386.058,-23.438,-31.738,-45.898,-48.340,0.000
1709374386.062,6.836,-32.715,-44.434,-12.695,0.000
1709374386.066,-21.973,-38.574,-44.922,-25.879,0.000
1709374386.069,-63.965,-38.574,-37.598,-54.199,0.000
1709374386.074,-60.547,-43.457,-34.668,-59.570,0.000
1709374386.077,-39.062,-53.223,-35.156,-44.434,0.000
1709374386.081,-7.324,-45.898,-33.203,-7.324,0.000
1709374386.085,-17.090,-37.598,-33.691,-11.230,0.000
1709374386.089,-59.082,-37.109,-33.691,-48.340,0.000
1709374386.093,-74.219,-39.551,-35.156,-63.477,0.000
1709374386.097,-59.570,-47.363,-38.574,-50.781,0.000
1709374386.101,-13.184,-47.363,-36.133,-14.160,0.000
1709374386.105,-12.207,-41.504,-30.762,-2.930,0.000
1709374386.109,-65.918,-46.387,-35.645,-46.875,0.000
1709374386.113,-82.031,-45.898,-38.574,-70.312,0.000
1709374386.116,-59.082,-43.945,-35.156,-54.688,0.000
1709374386.120,-14.648,-37.109,-37.109,-25.391,0.000
1709374386.124,-4.883,-35.645,-37.109,-21.973,0.000
1709374386.128,-51.758,-42.480,-37.598,-56.152,0.000
1709374386.132,-73.242,-49.805,-37.109,-72.754,0.000
1709374386.136,-52.734,-44.434,-33.691,-62.012,0.000
1709374386.140,-12.207,-39.551,-31.738,-26.367,0.000
1709374386.144,0.977,-38.086,-28.320,-18.066,0.000
1709374386.148,-41.992,-37.598,-28.809,-47.363,0.000
1709374386.152,-67.871,-37.109,-34.668,-61.523,0.000
1709374386.156,-54.688,-40.039,-35.156,-54.199,0.000
1709374386.160,-14.160,-45.898,-33.203,-21.484,0.000
1709374386.163,11.719,-37.598,-35.645,-5.371,0.000
1709374386.167,-30.273,-27.344,-33.691,-34.668,0.000
1709374386.171,-68.848,-30.273,-30.273,-55.176,0.000
1709374386.175,-61.523,-33.691,-34.668,-49.316,0.000
1709374386.179,-17.090,-31.250,-33.203,-23.926,0.000
1709374386.183,5.371,-32.715,-37.109,-6.836,0.000
1709374386.187,-44.434,-35.156,-41.016,-30.273,0.000
1709374386.191,-70.801,-30.762,-36.133,-51.270,0.000
1709374386.195,-59.570,-30.762,-35.156,-46.875,0.000
1709374386.199,-25.879,-31.250,-31.738,-21.973,0.000
1709374386.202,4.883,-30.762,-29.785,-5.371,0.000
1709374386.206,-24.902,-32.715,-37.109,-28.809,0.000
1709374386.210,-58.105,-35.156,-37.598,-50.293,0.000
1709374386.214,-55.176,-33.203,-30.762,-44.922,0.000
1709374386.218,-17.090,-31.738,-29.785,-15.137,0.000
1709374386.222,18.066,-40.527,-34.180,2.930,0.000
1709374386.226,-17.578,-39.551,-37.598,-32.715,0.000
1709374386.230,-63.965,-35.156,-35.156,-58.594,0.000
1709374386.233,-67.383,-37.598,-34.180,-61.523,0.000
1709374386.237,-34.180,-35.156,-32.715,-42.969,0.000
1709374386.241,3.906,-35.645,-31.738,-5.859,0.000
1709374386.245,-26.855,-40.527,-36.133,-24.414,0.000
1709374386.249,-67.871,-43.945,-34.668,-55.664,0.000
1709374386.253,-66.406,-42.480,-28.320,-61.035,0.000
1709374386.257,-41.504,-41.504,-31.250,-46.387,0.000
1709374386.261,0.000,-39.062,-33.691,-11.230,0.000
1709374386.264,-4.395,-35.156,-27.344,-17.090,0.000
1709374386.268,-44.434,-37.598,-28.320,-47.852,0.000
1709374386.272,-62.500,-44.434,-31.250,-52.734,0.000
1709374386.276,-41.992,-40.039,-32.715,-41.016,0.000
1709374386.280,5.371,-37.109,-35.645,-7.324,0.000
1709374386.284,0.977,-37.598,-32.715,9.277,0.000
1709374386.288,-48.828,-34.668,-35.156,-32.715,0.000
1709374386.292,-61.035,-36.133,-39.062,-62.988,0.000
1709374386.296,-47.363,-35.156,-36.133,-50.293,0.000
1709374386.300,-3.906,-39.062,-39.551,-22.461,0.000
1709374386.304,10.742,-41.504,-39.062,-15.625,0.000
1709374386.307,-43.457,-41.016,-34.668,-50.293,0.000
1709374386.311,-68.359,-40.527,-34.668,-67.871,0.000
1709374386.315,-54.199,-35.156,-38.574,-54.688,0.000
1709374386.319,-15.625,-36.133,-45.410,-33.203,0.000
1709374386.323,0.977,-35.156,-47.363,-24.414,0.000
1709374386.327,-36.133,-34.180,-37.598,-39.551,0.000
1709374386.331,-65.918,-37.598,-36.621,-58.105,0.000
1709374386.334,-61.035,-35.645,-41.504,-61.035,0.000
1709374386.338,-18.555,-32.715,-39.062,-24.414,0.000
1709374386.342,-3.906,-34.668,-35.156,0.000,0.000
1709374386.346,-44.434,-36.133,-31.250,-36.621,0.000
1709374386.350,-67.871,-36.133,-28.320,-63.965,0.000
1709374386.354,-65.430,-37.598,-28.320,-61.035,0.000
1709374386.358,-20.020,-41.016,-32.227,-37.598,0.000
1709374386.362,6.348,-38.086,-35.156,-14.160,0.000
1709374386.366,-35.156,-33.203,-34.180,-30.762,0.000
1709374386.370,-65.918,-34.668,-34.180,-57.129,0.000
1709374386.374,-66.895,-32.715,-36.621,-62.988,0.000
1709374386.378,-36.133,-30.762,-38.086,-38.086,0.000
1709374386.382,2.441,-30.762,-36.621,-9.766,0.000
1709374386.386,-23.438,-29.785,-32.227,-20.020,0.000
1709374386.390,-56.641,-32.227,-34.668,-42.480,0.000
1709374386.393,-61.523,-39.062,-38.574,-54.688,0.000
1709374386.397,-38.574,-40.039,-37.109,-35.645,0.000
1709374386.401,5.859,-34.668,-35.645,1.953,0.000
1709374386.405,-14.160,-32.715,-36.621,-20.996,0.000
1709374386.409,-56.641,-34.668,-33.691,-62.012,0.000
1709374386.413,-64.941,-34.180,-33.691,-65.430,0.000
1709374386.417,-40.527,-30.762,-34.668,-45.410,0.000
1709374386.421,-1.953,-32.227,-36.133,-9.766,0.000
1709374386.425,-18.066,-31.250,-40.039,-18.555,0.000
1709374386.429,-62.988,-31.738,-34.668,-53.223,0.000
1709374386.433,-70.801,-29.785,-33.203,-52.734,0.000
1709374386.437,-43.457,-27.832,-40.527,-31.250,0.000
1709374386.441,2.441,-34.668,-42.480,-12.695,0.000
1709374386.444,-5.859,-38.574,-40.039,-20.020,0.000
1709374386.448,-54.688,-37.598,-36.621,-50.293,0.000
1709374386.452,-69.336,-41.016,-37.598,-63.965,0.000
1709374386.456,-50.293,-39.062,-42.480,-60.059,0.000
1709374386.460,-11.230,-36.133,-44.922,-27.832,0.000
1709374386.464,-20.996,-40.039,-49.316,-23.926,0.000
1709374386.468,-65.918,-42.480,-51.270,-57.129,0.000
1709374386.472,-79.102,-39.062,-46.875,-70.312,0.000
1709374386.476,-60.547,-37.598,-46.387,-56.641,0.000
1709374386.480,-14.648,-40.527,-46.875,-12.207,0.000
1709374386.484,-10.254,-42.480,-42.480,-9.766,0.000
1709374386.488,-46.387,-41.992,-36.621,-45.898,0.000
1709374386.491,-55.664,-38.086,-31.250,-47.363,0.000
1709374386.495,0.000,-40.527,-29.785,-50.781,0.000
1709374386.499,0.000,-44.922,-34.180,-27.344,0.000
1709374386.503,0.000,-38.086,-39.551,-2.441,0.000
1709374386.507,0.000,-41.504,-42.480,-43.457,0.000
1709374386.511,0.000,-44.434,-45.410,-62.500,0.000
1709374386.515,0.000,-47.363,-42.969,-49.316,0.000
1709374386.519,0.000,-47.363,-39.551,-19.531,0.000
1709374386.523,0.000,-37.109,-39.551,8.301,0.000
1709374386.527,0.000,-41.992,-39.551,-31.738,0.000
1709374386.531,0.000,-46.387,-36.621,-65.430,0.000
1709374386.534,0.000,-39.062,-34.180,-55.176,0.000
1709374386.538,0.000,-26.855,-40.039,-20.020,0.000
1709374386.542,5.371,-23.438,-39.551,7.324,0.000
1709374386.546,-24.414,-30.273,-38.574,-26.367,0.000
1709374386.550,-59.082,-29.785,-38.086,-54.199,0.000
1709374386.554,-58.594,-31.738,-36.133,-48.828,0.000
1709374386.558,-26.367,-35.645,-33.691,-25.391,0.000
1709374386.562,3.418,-35.156,-36.133,-1.465,0.000
1709374386.566,-15.625,-36.133,-37.598,-20.996,0.000
1709374386.570,-49.316,-38.574,-30.273,-33.691,0.000
1709374386.573,-59.570,-39.551,-32.715,-36.133,0.000
1709374386.577,-31.250,-41.504,-36.621,-31.250,0.000
1709374386.581,8.301,-43.457,-36.621,-0.488,0.000
1709374386.585,-19.531,-45.898,-40.039,-15.137,0.000
1709374386.589,-55.176,-40.039,-36.621,0.000,0.000
1709374386.593,-60.059,-36.621,-40.039,0.000,0.000
1709374386.597,-46.875,-43.945,-42.969,0.000,0.000
1709374386.601,-4.883,-42.480,-36.621,0.000,0.000
1709374386.605,-21.484,-38.574,-34.668,0.000,0.000
1709374386.609,-69.824,-35.645,-34.180,0.000,0.000
1709374386.613,-67.871,-30.273,-31.250,0.000,0.000
1709374386.617,-44.922,-27.832,-31.738,0.000,0.000
1709374386.621,-5.859,-31.250,-30.273,0.000,0.000
1709374386.625,-16.113,-35.156,-33.203,0.000,0.000
1709374386.628,-63.965,-33.203,-40.039,0.000,0.000
1709374386.632,-71.289,-38.086,-38.574,0.000,0.000
1709374386.636,-52.734,-45.898,-33.203,-54.199,0.000
1709374386.640,-15.137,-42.480,-36.621,-25.879,0.000
1709374386.644,-18.555,-36.621,-44.922,-22.949,0.000
1709374386.648,-65.430,-34.180,-47.363,-55.664,0.000
1709374386.652,-81.543,-36.621,-50.293,-72.754,0.000
1709374386.656,-61.035,-31.738,-46.875,-60.059,0.000
1709374386.659,-12.207,-27.344,-45.410,-21.973,0.000
1709374386.663,-10.254,-32.715,-47.363,-24.902,0.000
1709374386.667,-52.734,-42.969,-47.363,-63.477,0.000
1709374386.671,-62.012,-40.527,-42.480,-68.848,0.000
1709374386.675,-61.035,-36.621,-41.992,-65.430,0.000
1709374386.679,-28.320,-36.621,-39.551,-38.574,0.000
1709374386.683,-2.441,-35.156,-32.715,-14.160,0.000
1709374386.686,-42.480,-33.203,-36.621,-41.016,0.000
1709374386.690,-78.125,-36.133,-41.504,-66.406,0.000
1709374386.694,-75.195,-44.922,-40.527,-62.500,0.000
1709374386.698,-32.715,-43.945,-36.621,-29.297,0.000
1709374386.702,-8.301,-41.504,-32.715,-5.371,0.000
1709374386.706,-48.828,-37.109,-31.250,-27.832,0.000
1709374386.710,-73.730,-37.109,-34.180,-54.199,0.000
1709374386.714,-64.453,-41.992,-37.598,-59.570,0.000
1709374386.718,-32.227,-40.527,-37.109,-34.668,0.000
1709374386.722,-9.277,-41.992,-43.457,-13.184,0.000
1709374386.725,-38.086,-43.457,-41.992,-44.434,0.000
1709374386.730,-74.219,-43.945,-36.621,-64.941,0.000
1709374386.734,-68.848,-38.086,-36.621,-61.035,0.000
1709374386.738,-36.621,-39.062,-38.086,-45.898,0.000
1709374386.741,-2.441,-41.992,-39.551,-17.090,0.000
1709374386.745,-23.438,-38.086,-36.621,-30.762,0.000
1709374386.749,-59.570,-34.668,-40.527,-56.641,0.000
1709374386.753,-61.035,-35.645,-41.504,-61.523,0.000
1709374386.757,-36.133,-43.945,-34.180,-49.316,0.000
1709374386.761,3.906,-43.457,-37.598,-15.625,0.000
1709374386.765,-11.230,-42.480,-38.574,-20.508,0.000
1709374386.769,-62.500,-40.527,-38.086,-62.500,0.000
1709374386.773,-67.383,-33.691,-39.551,-67.383,0.000
1709374386.777,-42.480,-37.598,-39.062,-44.922,0.000
1709374386.781,-9.277,-37.109,-38.574,-15.137,0.000
1709374386.785,-21.484,-28.320,-40.039,-20.020,0.000
1709374386.789,-71.289,-35.645,-38.086,-50.293,0.000
1709374386.792,-79.102,-43.457,-34.668,-49.316,0.000
1709374386.796,-54.688,-41.992,-34.180,-40.039,0.000
1709374386.800,-22.949,-46.875,-40.527,-17.578,0.000
1709374386.804,-27.832,-47.363,-45.898,-22.461,0.000
1709374386.808,-67.871,-39.062,-42.480,-48.828,0.000
1709374386.812,-86.914,-39.062,-40.039,-52.734,0.000
1709374386.816,-68.848,-42.969,-41.504,-48.340,0.000
1709374386.820,-21.484,-42.969,-45.898,-20.996,0.000
1709374386.824,-11.230,-35.156,-42.969,-12.695,0.000
1709374386.828,-57.617,-32.227,-38.574,-45.898,0.000
1709374386.832,-79.590,-32.715,-39.062,-61.523,0.000
1709374386.836,-65.430,-33.203,-37.109,-54.688,0.000
1709374386.840,-15.137,-34.180,-37.598,-20.996,0.000
1709374386.843,15.137,-24.902,-41.016,6.836,0.000
1709374386.847,-37.109,-25.879,-42.480,-34.180,0.000
1709374386.851,-74.707,-27.832,-33.203,-67.871,0.000
1709374386.855,-61.523,-30.273,-32.715,-54.199,0.000
1709374386.859,-14.648,-32.227,-42.480,-29.785,0.000
1709374386.863,8.789,-28.320,-37.598,-20.996,0.000
1709374386.867,-30.762,-27.344,-27.832,-46.387,0.000
1709374386.871,-59.570,-28.320,-28.809,-63.477,0.000
1709374386.875,-51.270,-39.062,-35.156,-57.129,0.000
1709374386.879,-13.672,-43.457,-35.645,-30.273,0.000
1709374386.882,9.277,-32.715,-35.156,-7.812,0.000
1709374386.886,-34.180,-25.391,-37.109,-29.785,0.000
1709374386.890,-62.988,-27.344,-31.250,-54.688,0.000
1709374386.894,-56.152,-35.156,-32.715,-60.547,0.000
1709374386.898,-31.738,-36.621,-36.621,-42.480,0.000
1709374386.902,0.488,-33.691,-33.691,-9.766,0.000
1709374386.906,-28.809,-34.180,-29.785,-32.227,0.000
1709374386.910,-66.406,-28.809,-31.250,-59.570,0.000
1709374386.914,-64.941,-28.320,-28.320,-59.570,0.000
1709374386.918,-35.156,-31.738,-29.297,-40.039,0.000
1709374386.922,5.371,-30.762,-37.598,-8.301,0.000
1709374386.925,-9.277,-29.785,-33.691,-22.949,0.000
1709374386.929,-42.480,-31.250,-32.227,-56.152,0.000
1709374386.933,-46.875,-29.297,-34.180,-53.223,0.000
1709374386.937,-26.367,-29.785,-35.156,-35.645,0.000
1709374386.941,9.766,-32.227,-36.133,-8.789,0.000
1709374386.945,-14.160,-31.738,-34.668,-7.812,0.000
1709374386.949,-58.594,-33.691,-37.598,-36.133,0.000
1709374386.953,-60.547,-31.250,-39.062,-46.875,0.000
1709374386.957,-38.086,-32.715,-35.156,-36.621,0.000
1709374386.961,-2.441,-33.203,-36.133,-6.348,0.000
1709374386.964,-8.301,-27.832,-35.645,-4.395,0.000
1709374386.968,-46.875,-30.762,-28.809,-34.668,0.000
1709374386.972,-58.594,-34.180,-28.320,-48.828,0.000
1709374386.976,-38.574,-37.598,-34.668,-34.668,0.000
1709374386.980,2.441,-41.016,-39.062,-4.883,0.000
1709374386.984,9.277,-30.762,-33.203,-2.930,0.000
1709374386.988,-35.645,-28.320,-31.738,-29.297,0.000
1709374386.992,-58.105,-32.715,-35.645,-41.992,0.000
1709374386.996,-48.340,-28.320,-39.062,-41.992,0.000
1709374386.999,-0.977,-32.227,-41.016,-15.137,0.000
1709374387.003,11.230,-34.180,-39.551,-16.602,0.000
1709374387.007,-38.086,-36.133,-37.109,-53.711,0.000
1709374387.011,-61.035,-40.039,-38.574,-68.848,0.000
1709374387.015,-56.152,-41.992,-37.598,-56.152,0.000
1709374387.019,-20.508,-43.457,-37.109,-25.879,0.000
1709374387.023,-0.977,-39.551,-39.062,-20.020,0.000
1709374387.027,-42.480,-34.668,-34.668,-49.805,0.000
1709374387.030,-67.383,-36.133,-36.621,-68.359,0.000
1709374387.034,-55.176,-32.227,-42.969,-62.500,0.000
1709374387.038,-19.043,-31.738,-40.527,-42.969,0.000
1709374387.042,-0.977,-38.574,-37.109,-30.762,0.000
1709374387.046,-39.062,-38.086,-35.156,-46.875,0.000
1709374387.050,-72.754,-31.250,-36.133,-54.688,0.000
1709374387.054,-69.824,-33.203,-34.668,-51.270,0.000
1709374387.057,-29.297,-44.434,-35.156,-30.762,0.000
1709374387.061,-2.930,-34.180,-35.645,-3.418,0.000
1709374387.065,-33.203,-28.809,-31.738,-26.367,0.000
1709374387.069,-56.641,-39.062,-33.691,-47.363,0.000
1709374387.073,-48.828,-33.691,-41.504,-44.434,0.000
1709374387.077,-17.578,-29.297,-41.016,-21.973,0.000
1709374387.081,13.184,-31.738,-40.039,8.301,0.000
1709374387.085,-18.555,-33.203,-39.551,-20.996,0.000
1709374387.089,-49.316,-32.227,-31.738,-50.781,0.000
1709374387.093,-47.363,-33.691,-36.133,-57.129,0.000
1709374387.096,-24.414,-41.016,-41.992,-39.551,0.000
1709374387.100,14.160,-37.598,-36.621,-6.348,0.000
1709374387.105,-7.812,-32.227,-34.668,-22.461,0.000
1709374387.109,-46.875,-33.691,-34.668,-58.105,0.000
1709374387.112,-56.152,-32.715,-34.180,-61.035,0.000
1709374387.116,-35.645,-35.156,-38.574,-46.875,0.000
1709374387.120,5.859,-36.621,-43.945,-15.137,0.000
1709374387.124,-9.277,-39.062,-47.363,-29.297,0.000
1709374387.128,-59.570,-39.062,-37.598,-63.965,0.000
1709374387.132,-69.824,-33.691,-37.109,-64.453,0.000
1709374387.136,-49.316,-41.992,-45.898,-54.688,0.000
1709374387.140,-12.695,-49.316,-41.016,-24.414,0.000
1709374387.144,-16.602,-37.598,-40.039,-26.855,0.000
1709374387.148,-56.641,-35.156,-37.598,-55.176,0.000
1709374387.152,-71.777,-34.180,-31.250,-57.617,0.000
1709374387.156,-54.199,-32.227,-32.227,-46.875,0.000
1709374387.160,-10.254,-39.551,-37.109,-15.137,0.000
1709374387.163,-7.324,-34.668,-36.621,-2.930,0.000
1709374387.167,-52.734,-30.762,-32.715,-34.668,0.000
1709374387.171,-66.895,-37.109,-34.180,-54.688,0.000
1709374387.175,-47.363,-33.203,-32.227,-42.480,0.000
1709374387.179,-4.395,-37.109,-34.180,-14.648,0.000
1709374387.183,9.766,-37.598,-33.203,-2.441,0.000
1709374387.187,-39.551,-29.785,-30.762,-24.902,0.000
1709374387.191,-66.406,-33.691,-38.086,-50.293,0.000
1709374387.195,-48.828,-39.062,-38.574,-57.129,0.000
1709374387.199,0.000,-35.156,-36.133,-28.320,0.000
1709374387.203,0.000,-35.156,-37.109,-17.090,0.000
1709374387.207,0.000,-36.621,-33.203,-45.898,0.000
1709374387.210,0.000,-37.598,-33.203,-62.500,0.000
1709374387.214,0.000,-35.645,-34.668,-53.711,0.000
1709374387.218,0.000,-34.180,-34.180,-29.297,0.000
1709374387.222,0.000,-37.598,-39.551,-15.625,0.000
1709374387.226,0.000,-42.480,-41.992,-36.621,0.000
1709374387.230,0.000,-41.992,-37.598,-48.340,0.000
1709374387.234,0.000,-34.668,-38.086,-57.617,0.000
1709374387.238,0.000,-32.715,-41.016,-45.410,0.000
1709374387.242,0.000,-33.691,-36.133,-9.277,0.000
1709374387.246,-39.062,-34.668,-32.715,-26.367,0.000
1709374387.250,-75.684,-33.691,-35.645,-53.711,0.000
1709374387.253,-68.848,-29.785,-35.645,-46.387,0.000
1709374387.257,-40.527,-32.715,-36.133,-20.508,0.000
1709374387.261,-9.766,-37.598,-35.156,0.977,0.000
1709374387.265,-29.785,-40.039,-31.738,-11.230,0.000
1709374387.269,-62.012,-41.016,-36.621,-35.156,0.000
1709374387.273,-57.129,-46.387,-36.133,-44.434,0.000
1709374387.277,-30.273,-45.898,-36.133,-27.344,0.000
1709374387.281,1.953,-44.922,-39.551,-1.953,0.000
1709374387.285,-20.996,-47.852,-33.203,-18.066,0.000
1709374387.289,-64.453,-35.645,-30.762,-51.758,0.000
1709374387.293,-69.336,-27.832,-37.598,-57.617,0.000
1709374387.297,-47.363,-29.785,-39.062,-42.480,0.000
1709374387.300,-9.277,-31.738,-40.039,-16.602,0.000
1709374387.304,-14.648,-35.645,-40.527,-23.438,0.000
1709374387.308,-57.129,-43.457,-41.016,-57.129,0.000
1709374387.312,-74.219,-44.922,-41.016,-68.359,0.000
1709374387.316,-57.129,-41.504,-38.086,-52.734,0.000
1709374387.320,-16.602,-41.504,-38.574,-13.184,0.000
1709374387.324,-18.555,-40.039,-44.922,-25.879,0.000
1709374387.328,-60.059,-39.062,-42.969,-64.941,0.000
1709374387.332,-74.707,-48.340,-44.922,-67.383,0.000
1709374387.336,-59.082,-43.945,-41.016,-54.199,0.000
1709374387.339,-11.719,-31.250,-32.715,-16.113,0.000
1709374387.343,-1.465,-35.645,-38.574,-15.137,0.000
1709374387.347,-49.316,-35.645,-41.016,-51.758,0.000
1709374387.351,-75.684,-36.133,-41.992,-67.383,0.000
1709374387.355,-63.477,-35.156,-40.039,-58.594,0.000
1709374387.359,-16.602,-36.621,-41.504,-22.949,0.000
1709374387.363,-2.930,-39.062,-37.598,-6.836,0.000
1709374387.367,-48.340,-35.156,-31.738,-32.227,0.000
1709374387.371,-70.312,-38.086,-36.133,-58.594,0.000
1709374387.374,-58.594,-35.645,-33.691,-59.570,0.000
1709374387.378,-18.555,-26.855,-32.715,-24.902,0.000
1709374387.382,-2.441,-28.320,-31.738,-3.906,0.000
1709374387.386,-47.852,-36.133,-30.273,-28.809,0.000
1709374387.390,-72.754,-40.527,-32.227,-51.270,0.000
1709374387.394,-65.918,-38.574,-31.738,-56.641,0.000
1709374387.398,-31.250,-34.668,-34.668,-31.738,0.000
1709374387.402,1.953,-31.250,-37.598,-10.254,0.000
1709374387.405,-31.738,-29.297,-36.133,-39.062,0.000
1709374387.409,-70.801,-30.273,-30.273,-51.270,0.000
1709374387.413,-74.219,-37.598,-37.109,-53.711,0.000
1709374387.417,-36.621,-34.668,-38.086,-41.504,0.000
1709374387.421,-3.906,-36.133,-31.738,-20.020,0.000
1709374387.425,-42.969,-41.992,-33.203,-41.504,0.000
1709374387.429,-78.613,-32.227,-33.203,-64.941,0.000
1709374387.432,-74.707,-25.391,-37.598,-67.383,0.000
1709374387.436,-37.598,-25.391,-37.109,-45.898,0.000
1709374387.440,0.000,-23.438,-30.762,-19.043,0.000
1709374387.444,-27.344,-23.438,-31.250,-35.156,0.000
1709374387.448,-59.082,-22.949,-34.668,-67.871,0.000
1709374387.452,-54.688,-28.809,-36.133,-67.871,0.000
1709374387.456,-30.762,-39.551,-37.598,-40.039,0.000
1709374387.460,3.418,-41.504,-38.574,-13.184,0.000
1709374387.464,-18.066,-27.832,-35.645,-22.949,0.000
1709374387.468,-57.617,-20.508,-31.250,-44.434,0.000
1709374387.471,-59.570,-27.344,-33.203,-49.805,0.000
1709374387.475,-36.133,-34.668,-36.621,-35.156,0.000
1709374387.480,6.836,-32.227,-37.598,0.000,0.000
1709374387.484,2.441,-23.438,-35.645,0.000,0.000
1709374387.487,-39.062,-27.832,-34.668,-40.039,0.000
1709374387.491,-55.176,-33.691,-36.133,-55.664,0.000
1709374387.495,-43.457,-32.715,-37.109,-43.457,0.000
1709374387.499,0.977,-33.203,-41.992,-13.672,0.000
1709374387.503,-1.465,-32.715,-45.410,-20.508,0.000
1709374387.507,-55.664,-35.156,-43.457,-54.688,0.000
1709374387.511,-71.289,-36.621,-44.434,-62.988,0.000
1709374387.515,-54.199,-31.250,-41.016,-46.875,0.000
1709374387.519,-14.160,-31.250,-42.969,-13.184,0.000
1709374387.523,-4.395,-41.992,-45.898,-14.648,0.000
1709374387.527,-43.457,-41.016,-40.039,-45.410,0.000
1709374387.531,-62.988,-37.109,-36.621,-52.246,0.000
1709374387.535,-49.316,-35.645,-35.645,-46.387,0.000
1709374387.538,-3.418,-38.574,-38.574,-13.184,0.000
1709374387.542,8.789,-41.992,-46.387,1.953,0.000
1709374387.546,-33.203,-38.086,-40.039,-27.832,0.000
1709374387.550,-57.129,-39.062,-35.645,-44.434,0.000
1709374387.554,-38.086,-35.645,-34.668,-37.109,0.000
1709374387.558,7.812,-42.969,-28.809,0.000,0.000
1709374387.562,26.367,-40.039,-27.832,20.996,0.000
1709374387.566,-22.461,-23.926,-32.227,-23.438,0.000
1709374387.570,-60.059,-26.855,-36.133,-47.852,0.000
1709374387.574,-53.711,-36.133,-35.645,-41.992,0.000
1709374387.578,-11.230,-33.691,-34.668,-17.090,0.000
1709374387.581,22.461,-33.691,-39.062,1.953,0.000
1709374387.585,-14.648,-36.621,-39.551,-24.902,0.000
1709374387.589,-46.875,-36.621,-35.645,-41.992,0.000
1709374387.593,-42.480,-37.598,-30.273,-38.574,0.000
1709374387.597,-10.742,-32.715,-29.297,-30.762,0.000
1709374387.601,25.879,-28.320,-32.227,-5.371,0.000
1709374387.605,-9.277,-33.203,-31.250,-9.277,0.000
1709374387.609,-54.688,-35.156,-28.809,-40.039,0.000
1709374387.613,-61.035,-31.250,-33.203,-48.828,0.000
1709374387.617,-33.203,-34.668,-37.598,-27.344,0.000
1709374387.621,8.789,-46.875,-37.109,-1.953,0.000
1709374387.625,-9.277,-41.504,-33.691,-14.648,0.000
1709374387.628,-51.270,-30.762,-29.297,-42.969,0.000
1709374387.632,-59.570,-35.645,-27.344,-48.340,0.000
1709374387.636,-35.156,-38.086,-33.203,-37.598,0.000
1709374387.640,3.418,-36.621,-34.668,-16.602,0.000
1709374387.644,-20.508,-37.109,-33.203,-20.996,0.000
1709374387.648,-67.871,-30.273,-32.715,-40.527,0.000
1709374387.652,-67.383,-25.391,-29.297,-49.805,0.000
1709374387.656,-35.645,-30.273,-33.691,-44.922,0.000
1709374387.660,3.418,-32.227,-37.598,-13.672,0.000
1709374387.664,-16.602,-30.762,-33.691,-19.531,0.000
