timestamps,TP9,AF7,AF8,TP10,Right AUX
1709196732.752,-40.527,-34.180,-57.129,-41.016,0.000
1709196732.756,-69.336,-28.320,-50.781,-56.152,0.000
1709196732.760,-61.523,-26.855,-47.363,-51.758,0.000
1709196732.764,-38.086,-28.809,-46.875,-28.320,0.000
1709196732.768,-39.551,-26.855,-41.504,-18.555,0.000
1709196732.771,-53.711,-29.297,-45.898,-38.086,0.000
1709196732.775,-62.012,-34.180,-48.828,-49.805,0.000
1709196732.779,-55.664,-37.598,-46.875,-39.551,0.000
1709196732.783,-49.805,-38.086,-53.711,-12.207,0.000
1709196732.787,-34.180,-34.668,-52.246,-9.277,0.000
1709196732.791,-41.504,-31.738,-45.898,-25.879,0.000
1709196732.795,-61.035,-32.715,-41.016,-39.062,0.000
1709196732.799,-68.359,-35.156,-38.086,-41.016,0.000
1709196732.803,-55.176,-31.738,-41.016,-26.367,0.000
1709196732.807,-33.203,-27.344,-45.898,-15.625,0.000
1709196732.811,-41.504,-29.785,-44.434,-20.020,0.000
1709196732.814,-52.246,-29.297,-41.016,-31.738,0.000
1709196732.818,-49.805,-19.531,-35.156,-25.391,0.000
1709196732.822,-32.715,-20.020,-32.715,-17.090,0.000
1709196732.826,-36.133,-31.738,-38.574,-4.395,0.000
1709196732.830,-46.387,-37.109,-41.504,-7.324,0.000
1709196732.834,-55.664,-38.086,-46.387,-41.504,0.000
1709196732.838,-77.637,-34.668,-48.340,-58.594,0.000
1709196732.842,-62.012,-35.645,-48.828,-41.992,0.000
1709196732.846,-23.438,-32.715,-47.852,-20.508,0.000
1709196732.850,-20.508,-23.438,-44.434,-14.648,0.000
1709196732.853,-39.062,-20.508,-46.875,-23.926,0.000
1709196732.857,-50.781,-24.902,-48.828,-37.598,0.000
1709196732.861,-47.363,-24.902,-44.922,-29.785,0.000
1709196732.865,-28.809,-19.043,-41.992,-6.836,0.000
1709196732.869,0.000,-15.625,-39.551,-7.812,0.000
1709196732.873,4.395,-17.578,-41.016,-22.949,0.000
1709196732.877,-31.250,-26.855,-43.945,-31.250,0.000
1709196732.881,-35.156,-32.715,-43.457,-21.484,0.000
1709196732.885,-16.602,-28.320,-43.945,-2.930,0.000
1709196732.889,-8.301,-24.902,-48.828,-6.836,0.000
1709196732.893,-18.555,-20.508,-46.875,-21.973,0.000
1709196732.896,-42.480,-21.973,-41.992,-19.531,0.000
1709196732.900,-36.133,-29.297,-45.410,-26.367,0.000
1709196732.904,-11.719,-26.855,-45.898,-18.555,0.000
1709196732.908,4.395,-22.461,-43.457,-8.301,0.000
1709196732.912,5.859,-20.508,-40.527,-21.973,0.000
1709196732.916,-20.508,-28.809,-37.598,-18.555,0.000
1709196732.920,-26.367,-36.133,-35.645,-6.348,0.000
1709196732.924,-18.555,-29.785,-41.992,-9.277,0.000
1709196732.928,-4.395,-24.902,-49.805,-4.395,0.000
1709196732.932,-1.953,-28.809,-49.805,-18.066,0.000
1709196732.936,-34.668,-31.250,-45.898,-29.297,0.000
1709196732.939,-53.223,-30.273,-38.086,-27.344,0.000
1709196732.943,-45.410,-32.227,-40.527,-16.602,0.000
1709196732.947,-15.137,-31.738,-41.992,-2.930,0.000
1709196732.951,-11.230,-31.738,-40.039,-15.625,0.000
1709196732.955,-38.086,-30.273,-43.457,-39.551,0.000
1709196732.959,-37.109,-29.785,-41.504,-31.250,0.000
1709196732.963,-19.043,-28.809,-39.551,-11.230,0.000
1709196732.967,-6.348,-23.926,-43.945,0.488,0.000
1709196732.971,-15.137,-24.902,-44.434,-14.160,0.000
1709196732.975,-30.273,-32.227,-44.922,-36.621,0.000
1709196732.978,-43.945,-34.180,-45.898,-34.668,0.000
1709196732.982,-29.785,-30.762,-44.434,-20.996,0.000
1709196732.986,-12.207,-31.738,-45.898,-15.625,0.000
1709196732.990,-22.949,-33.203,-42.480,-23.926,0.000
1709196732.994,-35.645,-34.668,-42.969,-32.227,0.000
1709196732.998,-55.664,-28.320,-44.434,-34.180,0.000
1709196733.002,-39.551,-20.508,-43.457,-20.996,0.000
1709196733.006,-32.227,-19.531,-42.969,-8.301,0.000
1709196733.010,-39.551,-19.531,-40.039,-5.371,0.000
1709196733.014,-37.109,-18.066,-34.668,-14.160,0.000
1709196733.018,-50.781,-15.137,-34.180,-23.438,0.000
1709196733.021,-58.105,-20.508,-41.016,-13.672,0.000
1709196733.025,-41.016,-23.438,-42.969,-6.348,0.000
1709196733.029,-30.762,-23.926,-38.574,-13.672,0.000
1709196733.033,-47.363,-29.785,-40.039,-26.367,0.000
1709196733.037,-63.965,-30.273,-45.410,-29.785,0.000
1709196733.041,-57.129,-33.203,-42.969,-22.949,0.000
1709196733.045,-46.387,-35.645,-41.016,-9.277,0.000
1709196733.049,-40.039,-31.250,-42.969,-10.254,0.000
1709196733.053,-38.086,-31.738,-42.969,-29.297,0.000
1709196733.057,-72.266,-38.574,-39.062,-42.480,0.000
1709196733.060,-79.102,-31.738,-36.133,-33.691,0.000
1709196733.064,-62.988,-31.738,-40.039,-22.949,0.000
1709196733.068,-58.594,-45.898,-43.945,-14.648,0.000
1709196733.072,-50.781,-40.527,-46.387,-35.156,0.000
1709196733.076,-63.477,-35.645,-44.922,-53.223,0.000
1709196733.080,-74.707,-34.668,-42.480,-50.293,0.000
1709196733.084,-57.129,-28.320,-45.898,-24.414,0.000
1709196733.088,-37.109,-27.832,-45.898,-19.531,0.000
1709196733.092,-44.922,-28.809,-47.363,-42.969,0.000
1709196733.096,-49.316,-34.180,-48.340,-47.363,0.000
1709196733.100,-39.062,-38.086,-50.293,-37.598,0.000
1709196733.103,-56.152,-31.738,-48.828,-14.648,0.000
1709196733.107,-41.016,-28.320,-49.316,-7.324,0.000
1709196733.111,-29.297,-28.809,-48.340,-22.461,0.000
1709196733.115,-62.500,-30.273,-40.527,-41.016,0.000
1709196733.119,-72.266,-34.668,-37.598,-54.199,0.000
1709196733.123,-51.758,-36.133,-40.039,-32.227,0.000
1709196733.127,-36.621,-47.363,-41.016,-16.113,0.000
1709196733.131,-45.898,-57.129,-33.691,-33.691,0.000
1709196733.135,-65.918,-55.664,-34.668,-52.246,0.000
1709196733.139,-68.359,-57.129,-41.504,-51.270,0.000
1709196733.143,-67.871,-49.316,-47.852,-32.227,0.000
1709196733.146,-68.359,-43.457,-42.969,-20.020,0.000
1709196733.150,-58.594,-41.016,-40.527,-32.715,0.000
1709196733.154,-58.594,-39.062,-44.434,-60.059,0.000
1709196733.158,-72.266,-47.852,-41.992,-53.223,0.000
1709196733.162,-60.059,-44.922,-42.969,-35.156,0.000
1709196733.166,-33.203,-41.992,-46.875,-26.855,0.000
1709196733.170,-44.434,-41.504,-41.992,-25.391,0.000
1709196733.174,-65.918,-41.016,-40.527,-49.316,0.000
1709196733.178,-70.801,-41.992,-42.480,-49.805,0.000
1709196733.182,-67.871,-34.668,-40.527,-36.621,0.000
1709196733.185,-54.688,-39.062,-40.527,-19.531,0.000
1709196733.189,-46.875,-47.363,-40.527,-25.391,0.000
1709196733.193,-56.641,-46.387,-41.016,-48.340,0.000
1709196733.197,-70.312,-41.992,-42.969,-60.059,0.000
1709196733.201,-64.453,-41.016,-42.480,-32.715,0.000
1709196733.205,-34.668,-40.527,-41.016,0.488,0.000
1709196733.209,-17.090,-34.668,-42.480,-10.742,0.000
1709196733.213,-34.180,-30.762,-44.922,-27.344,0.000
1709196733.217,-42.480,-36.621,-46.875,-30.762,0.000
1709196733.221,-36.621,-37.109,-45.410,-21.973,0.000
1709196733.225,-19.531,-30.273,-41.992,-9.277,0.000
1709196733.228,-19.531,-29.297,-44.434,-1.953,0.000
1709196733.232,-31.250,-41.504,-42.969,-8.301,0.000
1709196733.236,-42.480,-41.016,-43.457,-22.461,0.000
1709196733.240,-51.270,-33.203,-43.945,-25.391,0.000
1709196733.244,-37.109,-26.855,-40.039,-16.113,0.000
1709196733.248,-19.043,-31.250,-41.992,-16.602,0.000
1709196733.252,-32.227,-38.086,-46.387,-32.715,0.000
1709196733.256,-52.246,-32.715,-43.945,-40.527,0.000
1709196733.260,-48.828,-26.855,-39.551,-37.598,0.000
1709196733.264,-31.738,-28.809,-42.969,-18.066,0.000
1709196733.268,-19.531,-22.461,-44.434,-5.859,0.000
1709196733.271,-17.578,-25.391,-44.434,-20.996,0.000
1709196733.275,-37.109,-41.504,-48.828,-35.156,0.000
1709196733.279,-60.059,-39.062,-50.781,-38.574,0.000
1709196733.283,-47.852,-29.785,-44.922,-23.438,0.000
1709196733.287,-35.156,-29.297,-42.480,-7.324,0.000
1709196733.291,-37.598,-32.227,-44.434,-19.531,0.000
1709196733.295,-44.922,-27.832,-38.574,-23.926,0.000
1709196733.299,-50.781,-29.297,-41.992,-24.414,0.000
1709196733.303,-52.246,-31.250,-48.340,-17.090,0.000
1709196733.307,-44.434,-27.832,-43.945,-9.766,0.000
1709196733.310,-37.598,-28.809,-39.062,-21.973,0.000
1709196733.314,-43.457,-35.156,-36.133,-33.203,0.000
1709196733.318,-58.594,-45.410,-36.621,-22.949,0.000
1709196733.322,-62.988,-44.922,-40.039,-20.508,0.000
1709196733.326,-46.387,-35.645,-42.969,-21.973,0.000
1709196733.330,-24.902,-27.832,-42.480,-19.531,0.000
1709196733.334,-18.555,-23.926,-40.039,-26.855,0.000
1709196733.338,-50.781,-23.926,-41.504,-22.461,0.000
1709196733.342,-43.945,-21.973,-42.480,-8.301,0.000
1709196733.346,-25.391,-26.855,-38.574,-2.930,0.000
1709196733.350,-17.578,-25.391,-35.645,0.000,0.000
1709196733.353,-19.043,-22.461,-35.645,-4.395,0.000
1709196733.357,-39.551,-27.832,-35.156,-22.461,0.000
1709196733.361,-39.551,-29.297,-34.668,-28.320,0.000
1709196733.365,-26.855,-21.484,-37.598,-20.020,0.000
1709196733.369,-24.414,-21.484,-34.668,-19.531,0.000
1709196733.373,-32.227,-32.227,-36.133,-39.062,0.000
1709196733.377,-53.223,-35.156,-40.039,-47.363,0.000
1709196733.381,-59.082,-31.250,-40.527,-29.785,0.000
1709196733.385,-29.785,-22.461,-38.086,-4.395,0.000
1709196733.389,-12.207,-22.949,-39.062,-11.230,0.000
1709196733.393,-6.836,-29.297,-39.062,-27.832,0.000
1709196733.396,-13.672,-29.785,-39.551,-30.273,0.000
1709196733.400,-35.645,-29.785,-39.551,-19.531,0.000
1709196733.404,-28.809,-28.809,-37.109,-13.672,0.000
1709196733.408,-19.043,-25.879,-39.062,-15.137,0.000
1709196733.412,-28.809,-26.367,-46.875,-20.996,0.000
1709196733.416,-41.504,-22.949,-47.852,-36.621,0.000
1709196733.420,-48.828,-22.461,-49.316,-35.156,0.000
1709196733.424,-38.086,-27.344,-50.293,-12.207,0.000
1709196733.428,-22.949,-25.879,-47.363,-3.418,0.000
1709196733.432,-31.738,-23.926,-42.969,-15.625,0.000
1709196733.435,-33.203,-20.996,-42.480,-23.926,0.000
1709196733.439,-20.996,-19.531,-47.363,-27.832,0.000
1709196733.443,-42.969,-29.785,-48.340,-5.371,0.000
1709196733.447,-44.922,-32.227,-47.852,7.812,0.000
1709196733.451,-30.762,-20.996,-46.387,-13.672,0.000
1709196733.455,-39.062,-22.461,-41.016,-30.273,0.000
1709196733.459,-55.664,-25.879,-42.969,-27.344,0.000
1709196733.463,-47.852,-23.926,-40.527,-9.277,0.000
1709196733.467,-29.297,-26.855,-39.062,-2.930,0.000
1709196733.471,-20.508,-30.762,-38.086,-14.160,0.000
1709196733.475,-24.902,-31.738,-32.715,-16.602,0.000
1709196733.478,-31.250,-27.344,-38.574,-23.438,0.000
1709196733.482,-33.203,-13.184,-47.363,-20.508,0.000
1709196733.486,-36.133,-8.301,-59.570,-7.812,0.000
1709196733.490,-2.930,-6.836,-67.383,-17.090,0.000
1709196733.494,-8.789,3.906,-69.336,-31.738,0.000
1709196733.498,-41.504,13.672,-73.242,-32.715,0.000
1709196733.502,-27.832,20.996,-78.613,-20.508,0.000
1709196733.506,-14.160,26.367,-84.961,-6.348,0.000
1709196733.510,1.465,38.574,-82.031,-14.160,0.000
1709196733.514,-1.465,49.805,-82.031,-32.715,0.000
1709196733.518,-5.859,50.781,-87.402,-28.809,0.000
1709196733.521,-0.977,60.547,-85.449,0.000,0.000
1709196733.525,2.441,68.848,-87.891,10.254,0.000
1709196733.529,17.090,67.383,-92.773,9.277,0.000
1709196733.533,16.602,68.359,-93.262,-10.254,0.000
1709196733.537,20.996,77.148,-99.121,-32.227,0.000
1709196733.541,11.719,86.426,-104.004,-28.809,0.000
1709196733.545,3.906,83.984,-106.445,-18.066,0.000
1709196733.549,8.301,83.984,-111.816,-18.066,0.000
1709196733.553,12.695,86.914,-111.328,-28.809,0.000
1709196733.557,8.301,86.914,-110.352,-36.133,0.000
1709196733.560,8.301,90.820,-113.770,-21.484,0.000
1709196733.564,29.785,98.633,-106.934,0.000,0.000
1709196733.568,34.668,89.844,-107.910,-5.371,0.000
1709196733.572,14.160,81.543,-117.676,-28.809,0.000
1709196733.576,-0.488,84.473,-112.793,-37.109,0.000
1709196733.580,8.789,83.984,-104.492,-10.254,0.000
1709196733.584,26.367,86.426,-104.492,0.488,0.000
1709196733.588,42.480,84.961,-103.027,7.812,0.000
1709196733.592,35.156,74.219,-102.051,2.930,0.000
1709196733.596,-6.348,67.871,-104.004,-26.855,0.000
1709196733.600,-16.113,58.594,-107.910,-15.137,0.000
1709196733.603,-0.977,45.410,-104.980,12.695,0.000
1709196733.607,15.625,46.387,-94.238,1.953,0.000
1709196733.611,19.531,48.828,-87.891,-16.113,0.000
1709196733.615,-1.953,42.480,-89.844,-27.344,0.000
1709196733.619,-13.184,28.320,-90.820,-22.949,0.000
1709196733.623,-4.395,21.484,-92.285,-1.953,0.000
1709196733.627,14.648,29.297,-91.309,0.488,0.000
1709196733.631,6.836,28.809,-87.402,-19.043,0.000
1709196733.635,-16.602,24.902,-85.449,-26.367,0.000
1709196733.639,-17.090,29.297,-80.566,-14.160,0.000
1709196733.643,-12.695,29.785,-75.684,-3.418,0.000
1709196733.646,16.602,28.320,-73.730,-3.906,0.000
1709196733.650,26.855,26.367,-71.289,-3.906,0.000
1709196733.654,-16.113,20.996,-70.312,-18.555,0.000
1709196733.658,-32.715,19.043,-70.312,-29.297,0.000
1709196733.662,-21.484,17.578,-69.336,-21.484,0.000
1709196733.666,-14.648,11.230,-70.801,-11.230,0.000
1709196733.670,-15.137,11.719,-71.777,-8.301,0.000
1709196733.674,-20.996,10.254,-70.801,-31.738,0.000
1709196733.678,-27.832,7.812,-64.941,-58.105,0.000
1709196733.682,-21.484,3.906,-59.082,-40.039,0.000
1709196733.685,-18.555,-2.441,-68.848,-24.902,0.000
1709196733.689,-16.602,-6.348,-73.242,-36.133,0.000
1709196733.693,-23.438,-9.766,-66.406,-36.621,0.000
1709196733.697,-34.668,-8.301,-67.871,-39.551,0.000
1709196733.701,-15.625,-13.672,-70.801,-29.785,0.000
1709196733.705,-6.836,-20.996,-69.824,-12.207,0.000
1709196733.709,-10.742,-18.066,-65.918,-0.977,0.000
1709196733.713,-26.855,-16.602,-63.477,6.348,0.000
1709196733.717,-55.176,-17.090,-62.988,-15.137,0.000
1709196733.721,-54.199,-20.020,-62.012,-33.691,0.000
1709196733.725,-21.484,-22.461,-60.059,-27.344,0.000
1709196733.728,-13.672,-19.531,-56.641,-21.973,0.000
1709196733.732,-33.691,-18.555,-51.758,-18.555,0.000
1709196733.736,-43.457,-15.625,-50.293,-32.227,0.000
1709196733.740,-54.688,-20.020,-55.664,-27.344,0.000
1709196733.744,-41.016,-18.066,-50.781,-2.930,0.000
1709196733.748,-16.602,-16.113,-46.387,-0.488,0.000
1709196733.752,-21.973,-20.020,-44.922,-21.484,0.000
1709196733.756,-44.434,-23.438,-42.969,-32.715,0.000
1709196733.760,-44.434,-22.461,-45.898,-10.254,0.000
1709196733.764,-15.625,-21.973,-50.293,0.000,0.000
1709196733.767,-16.602,-23.438,-47.852,-16.113,0.000
1709196733.771,-33.203,-23.926,-41.016,-27.344,0.000
1709196733.775,-41.504,-30.273,-43.945,-27.832,0.000
1709196733.779,-45.410,-24.902,-48.340,-27.832,0.000
1709196733.783,-29.297,-16.602,-42.969,-8.789,0.000
1709196733.787,-18.555,-20.508,-41.504,12.207,0.000
1709196733.791,-12.207,-16.113,-41.016,5.859,0.000
1709196733.795,-23.438,-15.625,-42.480,-5.859,0.000
1709196733.799,-37.109,-20.996,-44.922,-11.719,0.000
1709196733.803,-31.250,-18.555,-44.922,-2.441,0.000
1709196733.807,-19.043,-24.414,-45.410,21.973,0.000
1709196733.810,-5.371,-28.809,-43.945,2.930,0.000
1709196733.814,-16.602,-24.902,-46.387,-38.086,0.000
1709196733.818,-48.828,-30.762,-46.875,-32.227,0.000
1709196733.822,-51.758,-27.832,-46.387,-20.996,0.000
1709196733.826,-25.879,-17.578,-40.527,-13.672,0.000
1709196733.830,-16.602,-19.531,-36.133,-7.324,0.000
1709196733.834,-31.250,-26.855,-43.457,-24.414,0.000
1709196733.838,-64.453,-25.879,-45.410,-35.645,0.000
1709196733.842,-66.895,-26.367,-41.992,-13.672,0.000
1709196733.846,-39.062,-26.855,-38.086,-2.441,0.000
1709196733.850,-29.785,-24.902,-32.227,-10.254,0.000
1709196733.853,-30.273,-23.926,-28.809,-15.625,0.000
1709196733.857,-51.758,-19.043,-34.668,-14.648,0.000
1709196733.861,-35.645,-12.207,-38.574,3.418,0.000
1709196733.865,-5.371,-13.672,-45.898,31.250,0.000
1709196733.869,-3.906,-8.301,-52.246,17.578,0.000
1709196733.873,-9.277,0.977,-53.711,-4.395,0.000
1709196733.877,-32.227,1.953,-59.570,-14.648,0.000
1709196733.881,-31.738,3.906,-63.965,-7.812,0.000
1709196733.885,-12.695,4.883,-65.430,19.531,0.000
1709196733.889,12.695,-0.977,-63.965,10.742,0.000
1709196733.892,1.953,-9.277,-60.059,-10.742,0.000
1709196733.896,-21.484,-8.789,-59.570,-15.625,0.000
1709196733.900,0.000,-4.883,-57.129,-9.277,0.000
1709196733.904,-0.977,-4.883,-52.734,15.137,0.000
1709196733.908,-10.254,-9.277,-54.199,24.414,0.000
1709196733.912,4.395,-4.883,-50.781,-5.371,0.000
1709196733.916,-9.766,-11.719,-51.758,-17.090,0.000
1709196733.920,-35.645,-19.043,-60.059,-11.230,0.000
1709196733.924,-23.438,-8.789,-57.129,0.488,0.000
1709196733.928,1.953,-3.906,-55.664,7.324,0.000
1709196733.932,-7.324,-4.395,-54.199,-12.207,0.000
1709196733.935,-26.855,-4.883,-48.828,-19.531,0.000
1709196733.939,-36.621,-12.207,-49.316,-14.648,0.000
1709196733.943,-36.133,-20.020,-51.758,0.488,0.000
1709196733.947,-11.719,-22.949,-51.270,6.836,0.000
1709196733.951,-12.207,-25.879,-49.805,-8.789,0.000
1709196733.955,-41.504,-21.973,-47.852,-18.555,0.000
1709196733.959,-35.645,-17.090,-49.805,-21.484,0.000
1709196733.963,-13.184,-17.090,-51.270,-4.395,0.000
1709196733.967,-20.508,-21.973,-49.805,2.441,0.000
1709196733.971,-20.996,-20.020,-45.898,-2.441,0.000
1709196733.975,-21.973,-16.602,-47.852,-15.625,0.000
1709196733.978,-35.645,-17.090,-46.387,-27.344,0.000
1709196733.982,-25.879,-20.996,-40.039,-9.277,0.000
1709196733.986,-3.906,-28.809,-46.875,-0.977,0.000
1709196733.990,0.488,-23.926,-51.758,-13.184,0.000
1709196733.994,-3.906,-16.113,-47.852,-28.320,0.000
1709196733.998,-42.480,-16.602,-42.480,-6.836,0.000
1709196734.002,-39.551,-23.926,-42.480,0.488,0.000
1709196734.006,-15.137,-28.320,-47.363,-5.371,0.000
1709196734.010,-14.648,-25.391,-45.410,-1.953,0.000
1709196734.014,-20.020,-20.508,-43.945,-19.043,0.000
1709196734.017,-41.992,-19.043,-43.945,-19.531,0.000
1709196734.021,-39.551,-20.020,-42.480,-13.184,0.000
1709196734.025,-21.973,-22.461,-43.457,-7.812,0.000
1709196734.029,-27.344,-23.438,-44.922,2.441,0.000
1709196734.033,-35.156,-23.926,-43.945,-10.742,0.000
1709196734.037,-45.898,-27.832,-44.434,-28.809,0.000
1709196734.041,-45.898,-24.414,-49.316,-23.438,0.000
1709196734.045,-18.555,-21.973,-49.805,-8.789,0.000
1709196734.049,-22.949,-24.414,-48.828,-18.066,0.000
1709196734.053,-49.805,-28.320,-48.828,-37.598,0.000
1709196734.057,-58.594,-29.785,-46.387,-33.203,0.000
1709196734.060,-57.617,-25.391,-41.992,-14.648,0.000
1709196734.064,-43.945,-25.391,-35.645,-2.441,0.000
1709196734.068,-27.832,-31.250,-27.832,4.395,0.000
1709196734.072,-38.574,-27.344,-30.273,-14.648,0.000
1709196734.076,-49.805,-24.414,-36.133,-28.809,0.000
1709196734.080,-50.293,-23.926,-36.133,-20.996,0.000
1709196734.084,-42.969,-28.320,-35.645,-12.695,0.000
1709196734.088,-27.832,-31.250,-33.691,5.371,0.000
1709196734.092,-49.316,-28.320,-33.691,-7.812,0.000
1709196734.096,-65.918,-31.250,-38.086,-27.832,0.000
1709196734.099,-50.293,-29.785,-38.086,-18.555,0.000
1709196734.103,-37.109,-30.273,-41.504,-8.301,0.000
1709196734.107,-31.250,-26.367,-40.039,-0.977,0.000
1709196734.111,-28.809,-20.996,-34.180,-7.324,0.000
1709196734.115,-41.016,-25.391,-40.527,-29.297,0.000
1709196734.119,-49.805,-25.391,-45.410,-34.180,0.000
1709196734.123,-32.715,-22.949,-41.016,-5.859,0.000
1709196734.127,-11.719,-21.484,-41.992,-2.930,0.000
1709196734.131,-16.602,-21.973,-41.992,-9.766,0.000
1709196734.135,-32.227,-26.855,-42.969,-14.648,0.000
1709196734.139,-26.367,-29.297,-49.316,-41.016,0.000
1709196734.142,-29.297,-27.344,-48.340,-30.762,0.000
1709196734.146,-28.320,-28.809,-44.922,-9.277,0.000
1709196734.150,-19.531,-34.180,-43.945,-10.254,0.000
1709196734.154,-24.902,-33.203,-41.504,-23.438,0.000
1709196734.158,-47.852,-30.273,-40.527,-30.273,0.000
1709196734.162,-52.734,-31.250,-44.922,-25.391,0.000
1709196734.166,-35.645,-36.133,-43.945,-17.090,0.000
1709196734.170,-40.039,-35.156,-41.016,-24.902,0.000
1709196734.174,-41.016,-32.715,-42.480,-42.969,0.000
1709196734.178,-47.363,-30.762,-48.340,-39.551,0.000
1709196734.182,-51.758,-31.250,-51.758,-18.066,0.000
1709196734.185,-25.879,-33.203,-53.223,-12.207,0.000
1709196734.189,-26.367,-28.809,-49.316,-17.090,0.000
1709196734.193,-44.922,-26.367,-42.480,-29.785,0.000
1709196734.197,-50.781,-23.438,-42.480,-42.969,0.000
1709196734.201,-53.223,-24.414,-41.504,-21.484,0.000
1709196734.205,-37.109,-24.414,-38.574,-3.418,0.000
1709196734.209,-21.484,-21.973,-38.086,-1.953,0.000
1709196734.213,-28.809,-30.273,-41.016,-17.090,0.000
1709196734.217,-54.688,-36.133,-44.922,-36.621,0.000
1709196734.221,-66.406,-35.645,-44.434,-32.715,0.000
1709196734.225,-46.875,-38.574,-43.457,-5.371,0.000
1709196734.228,-29.785,-39.551,-45.898,-5.371,0.000
1709196734.232,-39.062,-31.250,-45.410,-31.738,0.000
1709196734.236,-33.203,-27.344,-42.480,-28.320,0.000
1709196734.240,-57.617,-29.297,-41.016,-12.695,0.000
1709196734.244,-53.223,-26.367,-36.621,-14.160,0.000
1709196734.248,-26.855,-25.391,-40.039,-11.230,0.000
1709196734.252,-31.738,-26.367,-41.992,-20.020,0.000
1709196734.256,-50.781,-28.320,-38.574,-50.781,0.000
1709196734.260,-53.711,-30.762,-43.945,-50.781,0.000
1709196734.264,-29.785,-27.832,-47.363,-25.391,0.000
1709196734.267,-14.160,-23.926,-49.805,-10.742,0.000
1709196734.271,-12.207,-17.090,-51.270,-23.926,0.000
1709196734.275,-17.578,-21.484,-49.316,-38.574,0.000
1709196734.279,-22.949,-30.273,-50.781,-43.457,0.000
1709196734.283,-29.785,-22.461,-50.781,-20.020,0.000
1709196734.287,-28.320,-20.020,-51.270,-9.277,0.000
1709196734.291,-35.156,-24.902,-50.293,-22.949,0.000
1709196734.295,-43.457,-25.879,-48.340,-27.344,0.000
1709196734.299,0.000,-22.461,-44.922,-34.180,0.000
1709196734.303,0.000,-19.043,-41.992,-30.762,0.000
1709196734.307,0.000,-19.531,-43.945,-23.438,0.000
1709196734.310,0.000,-20.020,-43.457,-38.086,0.000
1709196734.314,0.000,-21.973,-41.992,-45.898,0.000
1709196734.318,0.000,-25.391,-42.480,-38.086,0.000
1709196734.322,0.000,-23.926,-42.969,-26.367,0.000
1709196734.326,0.000,-27.832,-41.992,-10.254,0.000
1709196734.330,0.000,-35.645,-45.410,-8.301,0.000
1709196734.334,0.000,-31.738,-50.293,-27.832,0.000
1709196734.338,0.000,-31.250,-48.828,-26.855,0.000
1709196734.342,0.000,-32.715,-48.828,-18.066,0.000
1709196734.346,-45.898,-31.250,-50.293,-20.996,0.000
1709196734.350,-46.387,-34.180,-49.316,-24.902,0.000
1709196734.353,-44.434,-34.180,-47.852,-42.480,0.000
1709196734.357,-62.500,-20.996,-40.527,-46.387,0.000
1709196734.361,-72.754,-21.484,-43.945,-35.156,0.000
1709196734.365,-62.988,-28.809,-42.480,-4.883,0.000
1709196734.369,-49.316,-30.273,-37.598,-6.348,0.000
1709196734.373,-62.988,-30.273,-44.434,-41.504,0.000
1709196734.377,-80.078,-30.273,-41.992,-51.758,0.000
1709196734.381,-77.637,-37.598,-41.504,-39.551,0.000
1709196734.385,-57.129,-30.762,-39.062,-18.555,0.000
1709196734.389,-41.504,-23.926,-35.645,-11.230,0.000
1709196734.392,-36.133,-30.762,-43.457,-20.020,0.000
1709196734.396,-47.363,-30.762,-46.875,-37.109,0.000
1709196734.400,-53.711,-27.832,-49.316,-33.203,0.000
1709196734.404,-21.973,-32.715,-54.199,-14.160,0.000
1709196734.408,-22.461,-32.715,-52.734,-11.230,0.000
1709196734.412,-38.574,-25.879,-49.805,-22.461,0.000
1709196734.416,-45.410,-24.414,-48.828,-36.133,0.000
1709196734.420,-43.457,-28.809,-51.758,-31.738,0.000
1709196734.424,-23.438,-19.531,-49.805,-19.043,0.000
1709196734.428,-6.348,-15.625,-42.969,-4.883,0.000
1709196734.432,-9.277,-22.461,-49.316,-11.719,0.000
1709196734.435,-30.762,-22.461,-55.664,-33.691,0.000
1709196734.439,-34.668,-21.973,-51.758,-31.250,0.000
1709196734.443,-6.836,-13.184,-48.828,-17.090,0.000
1709196734.447,2.930,-11.719,-55.176,-24.902,0.000
1709196734.451,-13.672,-19.043,-54.688,-29.785,0.000
1709196734.455,-33.691,-23.926,-45.410,-40.527,0.000
1709196734.459,-31.250,-24.902,-47.852,-52.246,0.000
1709196734.463,-29.297,-24.902,-44.922,-13.184,0.000
1709196734.467,-34.668,-21.973,-42.480,-1.465,0.000
1709196734.471,-19.043,-23.438,-52.246,-31.250,0.000
1709196734.474,-36.133,-31.250,-48.828,-37.598,0.000
1709196734.478,-54.199,-34.668,-42.969,-20.020,0.000
1709196734.482,-42.480,-28.809,-47.363,-0.488,0.000
1709196734.486,-21.484,-26.855,-48.828,8.789,0.000
1709196734.490,-21.484,-28.809,-48.340,2.441,0.000
1709196734.494,-31.250,-27.344,-46.387,-15.137,0.000
1709196734.498,-36.621,-24.414,-43.457,-25.391,0.000
1709196734.502,-38.086,-29.297,-44.922,-19.043,0.000
1709196734.506,-31.250,-34.180,-41.016,-0.977,0.000
1709196734.510,-27.832,-37.598,-38.574,5.859,0.000
1709196734.514,-24.414,-34.180,-45.410,-13.672,0.000
1709196734.517,-26.367,-26.367,-47.363,-34.180,0.000
1709196734.521,-49.805,-22.949,-41.992,-27.832,0.000
1709196734.525,-48.340,-24.902,-39.551,-11.230,0.000
1709196734.529,-39.551,-31.250,-42.969,-20.508,0.000
1709196734.533,-46.875,-26.855,-40.527,-37.598,0.000
1709196734.537,-42.969,-20.020,-43.945,-38.086,0.000
1709196734.541,-36.621,-26.367,-45.898,-21.973,0.000
1709196734.545,-17.090,-26.367,-39.551,-2.930,0.000
1709196734.549,0.000,-22.461,-43.945,-7.324,0.000
1709196734.553,-17.578,-23.926,-47.363,-15.137,0.000
1709196734.557,-40.039,-22.461,-45.898,-47.852,0.000
1709196734.560,-41.992,-25.879,-47.363,-50.293,0.000
1709196734.564,-17.578,-22.949,-44.922,-21.484,0.000
1709196734.568,-26.367,-19.531,-43.945,-20.996,0.000
1709196734.572,-38.574,-18.555,-44.434,-37.598,0.000
1709196734.576,-51.270,-20.996,-44.922,-52.734,0.000
1709196734.580,-54.199,-19.531,-43.945,-37.109,0.000
1709196734.584,-37.598,-20.996,-39.551,-14.160,0.000
1709196734.588,-31.250,-28.809,-41.016,-15.625,0.000
1709196734.592,-35.645,-24.902,-40.527,-16.113,0.000
1709196734.596,-54.688,-17.578,-35.645,-14.648,0.000
1709196734.599,-57.617,-20.996,-37.598,-8.301,0.000
1709196734.603,-45.410,-28.320,-42.480,2.441,0.000
1709196734.607,-30.762,-29.785,-43.457,-2.441,0.000
1709196734.611,-53.711,-27.832,-41.016,-17.090,0.000
1709196734.615,-88.379,-33.691,-43.457,-26.855,0.000
1709196734.619,-86.426,-32.227,-43.457,-23.926,0.000
1709196734.623,-70.312,-29.297,-39.062,-7.812,0.000
1709196734.627,-50.293,-33.691,-37.109,10.742,0.000
1709196734.631,-33.691,-34.668,-36.133,0.488,0.000
1709196734.635,-60.059,-31.738,-37.109,-24.414,0.000
1709196734.639,-80.566,-36.133,-36.133,-24.414,0.000
1709196734.642,-37.598,-32.227,-30.762,-0.488,0.000
1709196734.646,-29.297,-31.738,-34.180,-2.441,0.000
1709196734.650,-43.945,-34.668,-39.062,-23.438,0.000
1709196734.654,-39.062,-30.273,-37.598,-38.086,0.000
1709196734.658,-51.758,-31.250,-38.086,-28.320,0.000
1709196734.662,-41.992,-31.738,-42.969,-19.531,0.000
1709196734.666,-29.297,-31.738,-41.016,-17.578,0.000
1709196734.670,-24.902,-25.391,-40.039,-18.555,0.000
1709196734.674,-26.367,-21.973,-42.969,-28.809,0.000
1709196734.678,-38.086,-20.508,-40.527,-29.785,0.000
1709196734.682,-35.645,-16.113,-39.551,-21.973,0.000
1709196734.685,-35.156,-20.996,-43.457,-10.254,0.000
1709196734.689,-38.086,-22.461,-43.457,-22.949,0.000
1709196734.693,-37.598,-23.438,-44.922,-42.969,0.000
1709196734.697,-57.129,-28.809,-43.945,-46.387,0.000
1709196734.701,-61.523,-32.227,-41.016,-24.414,0.000
1709196734.705,-40.527,-28.320,-37.598,5.859,0.000
1709196734.709,-32.715,-26.367,-42.480,-1.953,0.000
1709196734.713,-40.527,-24.902,-48.340,-24.414,0.000
1709196734.717,-49.805,-21.973,-46.875,-38.574,0.000
1709196734.721,-51.758,-25.391,-42.969,-24.414,0.000
1709196734.724,-46.875,-29.785,-42.480,-0.977,0.000
1709196734.728,-26.855,-32.227,-42.969,-4.883,0.000
1709196734.732,-29.297,-28.320,-41.992,-23.926,0.000
1709196734.736,-48.340,-28.809,-46.875,-37.598,0.000
1709196734.740,-51.270,-35.645,-53.223,-30.273,0.000
1709196734.744,-35.156,-31.250,-50.293,-19.531,0.000
1709196734.748,-15.625,-31.738,-46.387,-3.418,0.000
1709196734.752,0.488,-35.156,-44.434,-9.766,0.000
1709196734.756,-28.809,-33.691,-41.016,-25.879,0.000
1709196734.760,-54.688,-30.762,-38.086,-12.207,0.000
1709196734.764,-41.504,-33.203,-40.039,-4.395,0.000
1709196734.767,-13.184,-37.598,-40.039,-12.695,0.000
1709196734.771,-14.648,-26.367,-36.621,-15.625,0.000
1709196734.775,-62.012,-28.320,-40.527,-32.715,0.000
1709196734.779,-57.129,-31.738,-41.992,-37.109,0.000
1709196734.783,-36.133,-27.832,-41.992,0.977,0.000
1709196734.787,-26.855,-29.297,-46.387,-0.488,0.000
1709196734.791,-22.949,-26.367,-46.875,-23.926,0.000
1709196734.795,-42.480,-31.250,-44.922,-17.090,0.000
1709196734.799,-49.316,-27.832,-45.410,-18.555,0.000
1709196734.803,-31.738,-21.484,-50.293,-16.113,0.000
1709196734.807,-22.949,-25.879,-54.199,-2.441,0.000
1709196734.810,-22.461,-25.879,-51.758,-0.977,0.000
1709196734.814,0.000,-19.043,-44.922,-12.695,0.000
1709196734.818,0.000,-20.996,-43.457,-25.391,0.000
1709196734.822,0.000,-30.762,-48.828,-15.137,0.000
1709196734.826,0.000,-34.668,-50.781,-6.348,0.000
1709196734.830,0.000,-31.250,-46.387,-7.812,0.000
1709196734.834,0.000,-28.809,-46.875,-21.484,0.000
1709196734.838,0.000,-28.320,-46.875,-21.973,0.000
1709196734.842,0.000,-29.297,-49.805,-10.254,0.000
1709196734.846,0.000,-27.832,-54.688,-6.348,0.000
1709196734.849,0.000,-28.320,-54.199,-15.137,0.000
1709196734.853,0.000,-30.273,-51.270,-35.156,0.000
1709196734.857,0.000,-30.273,-49.805,-45.898,0.000
1709196734.861,-66.406,-30.273,-50.781,-24.902,0.000
1709196734.865,-40.039,-27.832,-49.316,-17.090,0.000
1709196734.869,-28.809,-22.949,-45.410,-21.973,0.000
1709196734.873,-25.879,-23.926,-44.922,-19.043,0.000
1709196734.877,-62.988,-32.227,-41.992,-21.484,0.000
1709196734.881,-69.824,-34.668,-40.527,-21.484,0.000
1709196734.885,-32.227,-35.645,-37.109,-1.465,0.000
1709196734.889,-21.484,-39.062,-41.504,-4.395,0.000
1709196734.892,-31.738,-33.691,-47.852,-27.832,0.000
1709196734.896,-56.152,-28.320,-49.805,-39.062,0.000
1709196734.900,-60.059,-33.691,-47.852,-28.809,0.000
1709196734.904,-36.621,-28.809,-41.992,-9.766,0.000
1709196734.908,-27.344,-20.508,-46.387,-6.348,0.000
1709196734.912,-30.762,-19.531,-50.293,-16.602,0.000
1709196734.916,-45.410,-26.855,-46.875,-37.598,0.000
1709196734.920,-53.711,-32.715,-44.922,-33.691,0.000
1709196734.924,-36.133,-31.250,-44.922,-2.930,0.000
1709196734.928,-25.391,-35.645,-43.945,-3.418,0.000
1709196734.932,-25.391,-31.738,-47.363,-29.297,0.000
1709196734.935,-50.781,-30.762,-48.828,-31.738,0.000
1709196734.939,-52.246,-31.250,-44.434,-19.531,0.000
1709196734.943,-27.344,-27.832,-40.527,6.348,0.000
1709196734.947,-23.438,-24.414,-41.504,7.324,0.000
1709196734.951,-29.785,-30.762,-47.363,-19.531,0.000
1709196734.955,-31.738,-34.668,-37.598,-35.156,0.000
1709196734.959,-37.109,-27.344,-30.273,-23.438,0.000
1709196734.963,-31.250,-22.461,-36.621,1.465,0.000
1709196734.967,-24.902,-23.926,-41.992,7.324,0.000
1709196734.971,-33.691,-30.762,-43.945,-8.789,0.000
1709196734.974,-41.504,-32.715,-47.852,-32.715,0.000
1709196734.978,-30.762,-30.762,-50.293,-31.738,0.000
1709196734.982,-41.992,-31.738,-49.805,-27.344,0.000
1709196734.986,-45.410,-31.250,-50.293,-23.926,0.000
1709196734.990,-39.062,-39.062,-52.734,-21.973,0.000
1709196734.994,-56.641,-39.551,-51.270,-33.203,0.000
1709196734.998,-67.871,-34.180,-45.898,-37.598,0.000
1709196735.002,-58.594,-35.156,-43.945,-20.996,0.000
1709196735.006,-42.480,-34.180,-45.410,-8.301,0.000
1709196735.010,-41.992,-33.691,-48.340,-34.668,0.000
1709196735.014,-53.223,-36.621,-47.852,-44.922,0.000
1709196735.017,-65.918,-36.133,-44.434,-40.039,0.000
1709196735.021,-57.129,-40.527,-44.922,-20.020,0.000
1709196735.025,-42.480,-46.387,-48.828,-7.812,0.000
1709196735.029,-30.273,-39.062,-44.434,-11.719,0.000
1709196735.033,-32.227,-31.738,-39.551,-20.996,0.000
1709196735.037,-33.203,-30.762,-41.992,-26.367,0.000
1709196735.041,-29.297,-32.715,-41.992,-10.254,0.000
1709196735.045,-41.504,-31.738,-42.480,9.277,0.000
1709196735.049,-24.414,-32.715,-42.480,19.043,0.000
1709196735.053,-15.137,-31.250,-41.504,2.441,0.000
1709196735.057,-36.133,-23.438,-43.457,-19.043,0.000
1709196735.060,-41.016,-25.879,-50.781,-20.508,0.000
1709196735.064,-21.973,-27.832,-46.875,2.441,0.000
1709196735.068,-5.859,-22.949,-42.969,0.000,0.000
1709196735.072,-30.762,-24.414,-48.340,-24.414,0.000
1709196735.076,-58.594,-32.715,-47.852,-34.180,0.000
1709196735.080,-51.758,-35.645,-44.922,-9.277,0.000
1709196735.084,-40.527,-33.691,-42.480,-2.441,0.000
1709196735.088,-36.133,-28.320,-40.039,-20.020,0.000
1709196735.092,-43.945,-36.621,-43.945,-24.902,0.000
1709196735.096,-61.035,-41.992,-45.410,-47.363,0.000
1709196735.099,-68.848,-26.855,-46.875,-57.129,0.000
1709196735.103,-56.641,-24.902,-49.805,-33.691,0.000
1709196735.107,-39.062,-27.344,-48.340,-13.672,0.000
1709196735.111,-47.363,-17.090,-43.945,-24.414,0.000
1709196735.115,-73.242,-23.438,-41.992,-37.109,0.000
1709196735.119,-76.172,-29.785,-37.598,-34.180,0.000
1709196735.123,-45.898,-27.344,-32.715,-11.719,0.000
1709196735.127,-32.227,-31.738,-35.156,-7.812,0.000
1709196735.131,-56.641,-37.109,-39.551,-32.227,0.000
1709196735.135,-67.871,-38.086,-41.504,-40.039,0.000
1709196735.139,-57.617,-35.156,-41.016,-33.691,0.000
1709196735.142,-49.316,-30.273,-41.504,-9.766,0.000
1709196735.146,-37.598,-26.855,-49.805,-4.395,0.000
1709196735.150,-31.738,-26.855,-50.293,0.488,0.000
1709196735.154,-33.691,-32.715,-42.969,-17.578,0.000
1709196735.158,-42.480,-34.668,-45.410,-41.504,0.000
1709196735.162,-37.598,-25.879,-42.969,-18.066,0.000
1709196735.166,-24.902,-24.414,-44.434,0.000,0.000
1709196735.170,-14.648,-30.762,-45.898,3.418,0.000
1709196735.174,-29.297,-26.855,-45.410,-14.160,0.000
1709196735.178,-37.109,-19.043,-41.992,-20.996,0.000
1709196735.181,-5.859,-18.066,-41.504,-6.348,0.000
1709196735.185,7.324,-20.508,-42.480,28.320,0.000
1709196735.189,-2.441,-22.949,-41.016,24.414,0.000
1709196735.193,-33.203,-27.344,-46.875,-14.648,0.000
1709196735.197,-45.410,-26.367,-49.805,-28.809,0.000
1709196735.201,-39.551,-22.949,-46.875,-18.555,0.000
1709196735.205,-33.203,-24.902,-47.363,-3.906,0.000
1709196735.209,-20.508,-27.344,-47.363,10.742,0.000
1709196735.213,-14.160,-30.273,-42.480,2.441,0.000
1709196735.217,-32.715,-32.715,-46.387,-25.879,0.000
1709196735.221,-48.828,-33.691,-44.434,-21.484,0.000
1709196735.224,-30.762,-35.156,-38.086,0.488,0.000
1709196735.228,-19.043,-34.180,-42.480,-2.930,0.000
1709196735.232,-26.855,-32.715,-51.270,-28.809,0.000
1709196735.236,-40.527,-31.250,-53.223,-42.969,0.000
1709196735.240,-57.129,-34.668,-55.176,-32.227,0.000
1709196735.244,-39.062,-35.156,-54.199,-2.441,0.000
1709196735.248,-20.996,-38.086,-52.734,6.836,0.000
1709196735.252,-25.391,-42.969,-50.781,-4.395,0.000
1709196735.256,-45.898,-39.551,-50.293,-11.230,0.000
1709196735.260,-41.016,-41.992,-54.199,-15.137,0.000
1709196735.264,-24.902,-34.180,-56.641,-11.230,0.000
1709196735.267,-19.043,-18.555,-49.316,6.348,0.000
1709196735.271,-20.508,-20.508,-43.945,-3.418,0.000
1709196735.275,-28.809,-30.273,-47.852,-34.180,0.000
1709196735.279,-29.785,-35.156,-46.387,-33.203,0.000
1709196735.283,-30.762,-32.227,-41.016,-8.789,0.000
1709196735.287,-21.484,-30.762,-41.992,1.953,0.000
1709196735.291,-3.418,-28.809,-41.016,-11.719,0.000
1709196735.295,-35.645,-24.902,-38.086,-26.367,0.000
1709196735.299,-48.340,-29.785,-39.062,-21.484,0.000
1709196735.303,-35.156,-36.621,-39.062,-8.789,0.000
1709196735.306,-22.949,-33.203,-36.133,6.836,0.000
1709196735.310,-23.926,-36.133,-39.551,-4.883,0.000
1709196735.314,-36.133,-35.156,-41.016,-20.020,0.000
1709196735.318,-38.574,-35.156,-40.527,-22.949,0.000
1709196735.322,-32.227,-31.250,-47.363,-17.090,0.000
1709196735.326,-12.207,-20.996,-45.410,-0.977,0.000
1709196735.330,-11.230,-22.949,-41.504,7.324,0.000
1709196735.334,-15.625,-25.391,-40.527,-10.742,0.000
1709196735.338,-36.621,-25.879,-39.062,-22.949,0.000
1709196735.342,-37.109,-21.973,-40.527,-9.766,0.000
1709196735.346,-7.324,-24.414,-46.387,-1.465,0.000
1709196735.349,-23.926,-29.785,-47.852,-1.465,0.000
1709196735.353,-33.691,-33.203,-49.805,-11.230,0.000
1709196735.357,-26.855,-38.086,-52.246,-39.062,0.000
1709196735.361,-35.156,-39.551,-45.898,-32.715,0.000
1709196735.365,-32.715,-34.180,-42.969,-1.465,0.000
1709196735.369,-9.277,-30.273,-45.898,4.395,0.000
1709196735.373,-11.719,-33.691,-48.828,-10.254,0.000
1709196735.377,-39.551,-29.297,-43.945,-25.391,0.000
1709196735.381,-57.129,-33.203,-45.898,-22.949,0.000
1709196735.385,-47.852,-37.598,-50.781,-2.930,0.000
1709196735.389,-38.086,-35.156,-53.223,-12.695,0.000
1709196735.392,-42.969,-39.551,-52.734,-34.668,0.000
1709196735.396,-24.902,-35.645,-48.340,-32.227,0.000
1709196735.400,-35.156,-26.367,-49.805,-23.926,0.000
1709196735.404,-53.711,-24.414,-47.363,5.371,0.000
1709196735.408,-41.504,-28.809,-45.410,9.766,0.000
1709196735.412,-37.598,-25.391,-44.922,-19.043,0.000
1709196735.416,-51.758,-22.461,-44.922,-30.762,0.000
1709196735.420,-39.551,-24.902,-43.457,-31.250,0.000
1709196735.424,-18.066,-30.273,-37.598,-9.277,0.000
1709196735.428,-35.156,-30.273,-35.645,3.418,0.000
1709196735.431,-54.688,-26.367,-46.875,-37.598,0.000
1709196735.435,-57.617,-31.738,-47.852,-53.223,0.000
1709196735.439,-43.945,-40.527,-41.992,-28.320,0.000
1709196735.443,-32.715,-34.180,-39.062,-9.277,0.000
1709196735.447,-41.992,-30.273,-41.016,-3.906,0.000
1709196735.451,-44.922,-36.621,-41.992,-14.160,0.000
1709196735.455,-44.922,-33.691,-41.016,-28.320,0.000
1709196735.459,-45.898,-35.156,-43.945,-37.109,0.000
1709196735.463,-46.387,-35.156,-45.898,-24.902,0.000
1709196735.467,-41.016,-32.715,-41.504,-22.461,0.000
1709196735.471,-36.621,-36.621,-42.969,-24.414,0.000
1709196735.474,-50.293,-36.133,-47.852,-39.062,0.000
1709196735.478,-53.223,-39.551,-44.922,-45.898,0.000
1709196735.482,-42.969,-35.156,-42.969,-16.602,0.000
1709196735.486,-34.180,-31.738,-40.039,3.418,0.000
1709196735.490,-27.832,-33.691,-37.598,-8.301,0.000
1709196735.494,-14.160,-36.133,-41.992,-0.488,0.000
1709196735.498,-14.160,-34.180,-41.016,9.766,0.000
1709196735.502,-41.016,-23.438,-38.086,4.883,0.000
1709196735.506,-42.969,-20.020,-40.527,12.207,0.000
1709196735.510,-26.367,-26.855,-42.969,3.418,0.000
1709196735.514,-34.668,-28.320,-43.945,-13.672,0.000
1709196735.517,-55.176,-27.344,-46.875,-24.902,0.000
1709196735.521,-48.340,-24.902,-43.457,-3.418,0.000
1709196735.525,-38.086,-23.438,-41.504,17.578,0.000
1709196735.529,-31.738,-24.902,-47.363,2.441,0.000
1709196735.533,-30.273,-22.949,-48.340,-19.531,0.000
1709196735.537,-45.898,-23.926,-49.316,-25.879,0.000
1709196735.541,-51.758,-24.414,-47.363,-9.766,0.000
1709196735.545,-29.785,-26.367,-45.410,4.883,0.000
1709196735.549,-9.277,-28.320,-49.316,-8.789,0.000
1709196735.553,-34.180,-32.227,-45.898,-31.738,0.000
1709196735.556,-54.199,-31.250,-42.480,-31.250,0.000
1709196735.560,-54.199,-31.250,-47.363,-34.180,0.000
1709196735.564,-42.969,-32.715,-44.922,-23.438,0.000
1709196735.568,-32.715,-29.297,-37.109,-7.812,0.000
1709196735.572,-33.691,-27.832,-40.527,-25.879,0.000
1709196735.576,-41.016,-26.367,-42.969,-31.738,0.000
1709196735.580,-37.598,-23.438,-40.039,-11.719,0.000
1709196735.584,-33.203,-23.926,-40.039,3.418,0.000
1709196735.588,-24.902,-30.273,-42.480,13.672,0.000
1709196735.592,-25.391,-38.574,-43.457,-10.742,0.000
1709196735.596,-41.504,-35.645,-43.945,-24.902,0.000
1709196735.599,-53.223,-29.297,-46.875,-18.555,0.000
1709196735.603,-35.156,-26.367,-48.828,-26.367,0.000
1709196735.607,-29.297,-23.438,-49.316,-14.648,0.000
1709196735.611,-42.969,-20.020,-45.410,-20.996,0.000
1709196735.615,-43.457,-23.926,-41.504,-35.156,0.000
1709196735.619,-44.922,-26.367,-40.527,-11.230,0.000
1709196735.623,-27.344,-20.020,-38.574,5.859,0.000
1709196735.627,-9.277,-14.648,-42.480,-3.906,0.000
1709196735.631,-14.160,-20.508,-42.480,-20.020,0.000
1709196735.635,-25.879,-27.832,-39.551,-17.578,0.000
1709196735.638,-41.016,-28.809,-41.504,-27.832,0.000
1709196735.642,-39.551,-27.344,-41.504,-32.715,0.000
1709196735.646,-19.043,-25.391,-39.551,-8.789,0.000
1709196735.650,-7.324,-21.973,-41.992,-8.301,0.000
1709196735.654,-29.297,-23.926,-43.945,-27.344,0.000
1709196735.658,-51.758,-31.738,-47.852,-44.434,0.000
1709196735.662,-38.574,-32.715,-49.316,-29.785,0.000
1709196735.666,-31.738,-25.879,-46.875,-15.137,0.000
1709196735.670,-33.691,-26.855,-46.387,-27.832,0.000
1709196735.674,-27.344,-27.832,-43.457,-44.434,0.000
1709196735.678,-42.969,-27.832,-47.363,-42.480,0.000
1709196735.681,-42.969,-26.367,-49.316,-16.113,0.000
1709196735.685,-25.879,-25.879,-43.457,-1.465,0.000
1709196735.689,-22.949,-30.273,-41.992,-2.930,0.000
1709196735.693,-37.109,-31.738,-39.551,-13.672,0.000
1709196735.697,-47.852,-29.785,-44.434,-37.109,0.000
1709196735.701,-36.133,-29.785,-48.828,-40.039,0.000
1709196735.705,-40.527,-30.762,-41.504,-17.578,0.000
1709196735.709,-41.992,-28.809,-35.645,-2.930,0.000
1709196735.713,-44.434,-28.320,-37.109,-20.020,0.000
1709196735.717,-53.711,-26.855,-37.598,-34.180,0.000
1709196735.721,-49.316,-20.020,-36.133,-17.578,0.000
1709196735.724,-49.805,-23.926,-44.922,-10.742,0.000
1709196735.728,-30.762,-31.738,-49.316,-9.766,0.000
1709196735.732,-27.832,-34.180,-39.551,-7.324,0.000
1709196735.736,-51.270,-31.738,-41.504,-23.438,0.000
1709196735.740,-54.688,-30.273,-47.852,-20.020,0.000
1709196735.744,-45.410,-31.250,-46.875,0.000,0.000
1709196735.748,-26.855,-27.832,-42.480,4.395,0.000
1709196735.752,0.000,-32.715,0.000,-6.836,0.000
1709196735.756,0.000,-36.133,0.000,-12.207,0.000
1709196735.760,0.000,-29.785,0.000,-1.953,0.000
1709196735.764,0.000,-26.855,0.000,-7.812,0.000
1709196735.767,0.000,-33.691,0.000,-5.371,0.000
1709196735.771,0.000,-32.715,0.000,-4.395,0.000
1709196735.775,0.000,-23.926,0.000,-28.809,0.000
1709196735.779,0.000,-26.367,0.000,-26.855,0.000
1709196735.783,0.000,-29.297,0.000,-3.906,0.000
1709196735.787,0.000,-24.902,0.000,3.906,0.000
1709196735.791,0.000,-19.531,0.000,-7.812,0.000
1709196735.795,0.000,-24.902,0.000,-20.508,0.000
1709196735.799,-36.133,-27.344,-45.898,-17.090,0.000
1709196735.803,-40.527,-27.832,-37.598,-13.672,0.000
1709196735.806,-38.574,-29.297,-41.992,-11.230,0.000
1709196735.810,-29.297,-26.855,-43.457,-4.883,0.000
1709196735.814,-37.109,-25.391,-38.086,-12.207,0.000
1709196735.818,-43.457,-25.879,-41.504,-27.344,0.000
1709196735.822,-24.902,-17.090,-41.504,-23.438,0.000
1709196735.826,-8.789,-17.578,-40.039,-2.930,0.000
1709196735.830,-19.043,-26.367,-41.504,0.488,0.000
1709196735.834,-41.992,-27.344,-38.574,-23.438,0.000
1709196735.838,-55.176,-32.227,-36.133,-20.508,0.000
1709196735.842,-45.898,-39.551,-39.062,-6.836,0.000
1709196735.846,-40.527,-36.621,-36.133,-9.766,0.000
1709196735.849,-45.410,-32.227,-30.762,-13.184,0.000
1709196735.853,-41.504,-30.273,-37.109,-29.297,0.000
1709196735.857,-55.176,-31.738,-43.945,-39.551,0.000
1709196735.861,-54.688,-32.227,-42.969,-21.484,0.000
1709196735.865,-30.762,-33.691,-38.086,8.301,0.000
1709196735.869,-23.438,-34.668,-33.203,2.930,0.000
1709196735.873,-37.598,-26.855,-36.621,-9.766,0.000
1709196735.877,-57.617,-21.973,-44.434,-17.578,0.000
1709196735.881,-50.293,-28.809,-46.387,-24.902,0.000
1709196735.885,-17.090,-31.738,-46.387,-16.602,0.000
1709196735.889,-25.879,-31.250,-47.852,-14.160,0.000
1709196735.892,-51.758,-33.203,-50.781,-23.926,0.000
1709196735.896,-52.246,-30.762,-49.805,-34.668,0.000
1709196735.900,-51.758,-28.809,-47.852,-20.996,0.000
1709196735.904,-46.387,-30.762,-49.805,-1.953,0.000
1709196735.908,-25.879,-28.320,-47.852,18.555,0.000
1709196735.912,-27.832,-25.879,-50.781,0.000,0.000
1709196735.916,-35.156,-22.461,-59.082,-37.598,0.000
1709196735.920,-39.551,-21.484,-56.641,-21.484,0.000
1709196735.924,-36.621,-25.879,-54.199,-11.230,0.000
1709196735.928,-14.160,-26.367,-54.688,-14.160,0.000
1709196735.931,-40.039,-17.578,-49.805,-22.949,0.000
1709196735.935,-50.293,-14.648,-47.363,-18.555,0.000
1709196735.939,-42.969,-19.043,-45.898,-8.301,0.000
1709196735.943,-41.992,-25.879,-48.340,-14.160,0.000
1709196735.947,-35.156,-30.762,-50.293,-17.578,0.000
1709196735.951,-41.992,-26.855,-43.457,-13.184,0.000
1709196735.955,-57.129,-22.461,-40.527,-22.949,0.000
1709196735.959,-47.852,-23.926,-44.922,-22.949,0.000
1709196735.963,-27.832,-25.879,-42.480,2.930,0.000
1709196735.967,-11.719,-30.273,-39.062,18.555,0.000
1709196735.971,-19.531,-27.832,-41.016,6.348,0.000
1709196735.974,-22.949,-21.484,-38.086,-12.695,0.000
1709196735.978,-29.297,-20.020,-44.922,-14.648,0.000
1709196735.982,-27.344,-24.902,-54.199,-2.441,0.000
1709196735.986,-6.348,-25.391,-48.340,3.906,0.000
1709196735.990,-11.230,-31.250,-47.363,0.000,0.000
1709196735.994,-18.555,-35.645,-46.875,-10.742,0.000
1709196735.998,-25.391,-36.133,-40.527,-15.137,0.000
1709196736.002,-22.949,-35.645,-43.945,-8.789,0.000
1709196736.006,-1.953,-32.227,-45.898,7.812,0.000
1709196736.010,-14.648,-41.992,-43.945,6.348,0.000
1709196736.013,-39.551,-41.992,-41.992,-18.066,0.000
1709196736.017,-46.875,-36.133,-42.480,-22.949,0.000
1709196736.021,-32.227,-36.133,-45.410,-10.254,0.000
1709196736.025,-16.602,-33.203,-39.551,15.625,0.000
1709196736.029,-3.906,-27.344,-35.156,2.441,0.000
1709196736.033,-14.648,-31.250,-36.133,-15.625,0.000
1709196736.037,-26.367,-33.203,-37.109,-11.719,0.000
1709196736.041,-19.043,-25.391,-39.551,-10.742,0.000
1709196736.045,8.789,-21.484,-41.016,2.930,0.000
1709196736.049,0.977,-25.391,-44.434,-6.836,0.000
1709196736.053,-29.785,-31.250,-46.875,-24.414,0.000
1709196736.056,-41.504,-31.738,-47.363,-18.066,0.000
1709196736.060,-47.363,-34.180,-45.410,-10.742,0.000
1709196736.064,-32.227,-31.250,-44.434,-9.277,0.000
1709196736.068,-14.648,-30.273,-45.410,-7.812,0.000
1709196736.072,-25.879,-32.715,-47.363,-11.719,0.000
1709196736.076,-37.598,-30.273,-50.781,-28.809,0.000
1709196736.080,-35.156,-27.344,-52.734,-25.879,0.000
1709196736.084,-22.461,-24.902,-45.898,-0.977,0.000
1709196736.088,-21.484,-28.320,-49.316,-1.953,0.000
1709196736.092,-43.457,-31.250,-51.758,-20.508,0.000
1709196736.096,-45.410,-29.785,-44.922,-35.645,0.000
1709196736.099,-48.828,-32.715,-44.434,-38.086,0.000
1709196736.103,-41.504,-31.738,-43.945,-16.113,0.000
1709196736.107,-24.414,-31.250,-42.480,-5.859,0.000
1709196736.111,-27.344,-33.203,-41.992,-9.766,0.000
1709196736.115,-35.156,-31.250,-40.527,-18.555,0.000
1709196736.119,-40.527,-24.414,-41.016,-22.949,0.000
1709196736.123,-35.645,-26.855,-45.410,-12.695,0.000
1709196736.127,-21.484,-31.738,-44.434,-11.719,0.000
1709196736.131,-23.926,-28.320,-41.504,-10.254,0.000
1709196736.135,-46.387,-30.273,-44.922,-24.902,0.000
1709196736.139,-62.988,-35.645,-43.945,-31.250,0.000
1709196736.142,-65.918,-41.504,-40.039,-5.371,0.000
1709196736.146,-42.969,-41.016,-37.109,0.000,0.000
1709196736.150,-34.668,-36.621,-39.551,-26.367,0.000
1709196736.154,-37.598,-34.180,-41.992,-42.480,0.000
1709196736.158,-49.805,-34.180,-44.922,-25.879,0.000
1709196736.162,-55.176,-35.156,-44.922,-9.766,0.000
1709196736.166,-38.086,-29.785,-43.457,-5.371,0.000
1709196736.170,-35.156,-28.320,-43.945,-7.324,0.000
1709196736.174,-49.316,-26.367,-41.504,-14.648,0.000
1709196736.178,-64.941,-23.926,-41.504,-7.324,0.000
1709196736.181,-43.945,-25.391,-41.992,-1.465,0.000
1709196736.185,-24.414,-28.320,-36.621,-10.742,0.000
1709196736.189,-42.969,-25.391,-34.180,-9.277,0.000
1709196736.193,-49.316,-28.809,-36.621,-24.414,0.000
1709196736.197,-49.316,-28.320,-37.109,-34.668,0.000
1709196736.201,-46.875,-20.996,-36.621,-21.484,0.000
1709196736.205,-41.992,-25.391,-38.086,-5.859,0.000
1709196736.209,-42.969,-28.809,-40.039,-15.625,0.000
1709196736.213,-32.227,-29.297,-44.434,-19.531,0.000
1709196736.217,-41.992,-29.297,-44.434,-19.043,0.000
1709196736.221,-57.617,-27.344,-40.527,-11.230,0.000
1709196736.224,-41.992,-32.227,-39.551,-1.953,0.000
1709196736.228,-28.320,-34.180,-41.016,-6.348,0.000
1709196736.232,-37.109,-33.691,-43.457,-7.324,0.000
1709196736.236,-52.246,-34.180,-44.922,-26.855,0.000
1709196736.240,-51.758,-32.227,-46.875,-31.250,0.000
1709196736.244,-28.320,-31.738,-44.922,-8.789,0.000
1709196736.248,-20.996,-27.344,-36.621,10.254,0.000
1709196736.252,-45.410,-22.949,-37.109,5.371,0.000
1709196736.256,-51.758,-16.113,-38.086,-23.438,0.000
1709196736.260,-53.223,-17.578,-40.527,-26.367,0.000
1709196736.263,-47.852,-30.273,-47.852,-4.883,0.000
1709196736.267,-34.180,-29.297,-49.316,-5.371,0.000
1709196736.271,-45.898,-28.320,-44.434,-25.391,0.000
1709196736.275,-50.781,-28.809,-43.457,-41.504,0.000
1709196736.279,-28.320,-23.926,-41.504,-37.109,0.000
1709196736.283,-37.598,-21.973,-40.527,-13.672,0.000
1709196736.287,-37.598,-24.902,-38.574,0.000,0.000
1709196736.291,-25.391,-22.461,-39.062,-8.301,0.000
1709196736.295,-46.875,-26.367,-39.551,-10.254,0.000
1709196736.299,-60.547,-32.227,-41.504,-14.648,0.000
1709196736.303,-34.180,-30.762,-46.387,-9.766,0.000
1709196736.306,-16.113,-38.086,-49.805,-7.812,0.000
1709196736.310,-31.250,-34.180,-46.387,-14.160,0.000
1709196736.314,-45.410,-30.273,-42.480,-27.344,0.000
1709196736.318,-54.199,-32.227,-44.434,-23.926,0.000
1709196736.322,-41.016,-30.273,-41.504,0.000,0.000
1709196736.326,-36.133,-31.738,-37.109,17.090,0.000
1709196736.330,-26.367,-30.762,-30.762,28.809,0.000
1709196736.334,-26.367,-26.855,-30.273,-3.418,0.000
1709196736.338,-54.199,-22.949,-38.086,-13.672,0.000
1709196736.342,-46.387,-22.949,-37.109,4.883,0.000
1709196736.346,-17.578,-28.320,-38.086,0.000,0.000
1709196736.349,-16.602,-27.344,-41.992,-1.953,0.000
1709196736.353,-28.320,-22.949,-41.504,-26.367,0.000
1709196736.357,-41.016,-31.738,-41.504,-40.527,0.000
1709196736.361,0.000,-31.738,-43.457,-20.508,0.000
1709196736.365,0.000,-25.879,-43.457,-6.348,0.000
1709196736.369,0.000,-21.973,-41.504,0.977,0.000
1709196736.373,0.000,-15.625,-42.480,-12.207,0.000
1709196736.377,0.000,-16.113,-40.039,-22.461,0.000
1709196736.381,0.000,-19.531,-43.457,-15.625,0.000
1709196736.385,0.000,-20.996,-46.875,3.418,0.000
1709196736.388,0.000,-17.090,-44.434,1.465,0.000
1709196736.392,0.000,-16.602,-41.504,-17.578,0.000
1709196736.396,0.000,-20.020,-40.039,-25.391,0.000
1709196736.400,0.000,-20.996,-40.527,-20.020,0.000
1709196736.404,0.000,-22.461,-43.457,-6.348,0.000
1709196736.408,-41.016,-23.438,-47.852,-1.953,0.000
1709196736.412,-32.715,-23.926,-42.480,-9.766,0.000
1709196736.416,-64.453,-28.809,-41.504,-28.320,0.000
1709196736.420,-75.195,-36.133,-43.945,-21.973,0.000
1709196736.424,-47.363,-34.668,-42.969,-12.695,0.000
1709196736.428,-33.691,-33.203,-44.434,-7.324,0.000
1709196736.431,-30.273,-36.621,-41.992,-14.160,0.000
1709196736.435,-43.457,-28.809,-45.410,-31.738,0.000
1709196736.439,-59.570,-21.484,-46.875,-37.598,0.000
1709196736.443,-51.758,-26.367,-43.945,-18.066,0.000
1709196736.447,-27.344,-23.926,-44.922,-2.930,0.000
1709196736.451,-13.184,-19.531,-45.898,-16.113,0.000
1709196736.455,-50.293,-28.320,-52.246,-34.180,0.000
1709196736.459,-62.500,-31.250,-53.223,-31.250,0.000
1709196736.463,-35.156,-25.391,-48.828,-21.484,0.000
1709196736.467,-30.273,-27.344,-52.246,-19.531,0.000
1709196736.471,-37.109,-34.180,-48.340,-17.090,0.000
1709196736.474,-50.293,-33.203,-43.945,-21.484,0.000
1709196736.478,-55.176,-29.785,-41.504,-32.715,0.000
1709196736.482,-45.410,-30.762,-44.922,-31.738,0.000
1709196736.486,-27.344,-35.156,-44.922,-13.672,0.000
1709196736.490,-28.809,-33.691,-38.086,-3.418,0.000
1709196736.494,-46.875,-30.273,-40.039,-18.555,0.000
1709196736.498,-46.875,-32.227,-40.527,-22.461,0.000
1709196736.502,-28.809,-30.762,-36.133,-0.488,0.000
1709196736.506,-16.602,-35.156,-39.551,5.859,0.000
1709196736.510,-9.766,-41.016,-38.574,-10.254,0.000
1709196736.513,-30.762,-41.504,-40.527,-25.391,0.000
1709196736.517,-39.551,-32.227,-43.945,-36.133,0.000
1709196736.521,-40.527,-29.785,-41.504,-29.297,0.000
1709196736.525,-18.555,-29.297,-41.504,-6.836,0.000
1709196736.529,-10.742,-32.715,-38.574,-10.742,0.000
1709196736.533,-48.340,-32.227,-36.133,-14.648,0.000
1709196736.537,-51.270,-21.973,-37.598,-15.625,0.000
1709196736.541,-41.504,-21.484,-38.086,-23.926,0.000
1709196736.545,-22.949,-26.367,-38.574,-12.207,0.000
1709196736.549,-25.391,-23.438,-36.621,-7.324,0.000
1709196736.553,-43.945,-17.578,-37.109,-20.508,0.000
1709196736.556,-37.598,-23.926,-44.434,-37.598,0.000
1709196736.560,-44.434,-28.809,-49.316,-35.156,0.000
1709196736.564,-47.852,-26.367,-46.387,-9.766,0.000
1709196736.568,-47.363,-24.902,-45.898,-8.789,0.000
1709196736.572,-47.852,-19.043,-41.016,-29.785,0.000
1709196736.576,-51.758,-17.578,-38.086,-33.691,0.000
1709196736.580,-57.617,-21.484,-37.598,-10.254,0.000
1709196736.584,-49.316,-23.438,-37.109,4.395,0.000
1709196736.588,-32.715,-27.344,-40.039,-1.953,0.000
1709196736.592,-23.926,-26.367,-43.457,-16.602,0.000
1709196736.596,-39.062,-25.391,-45.410,-28.809,0.000
1709196736.599,-50.781,-28.320,-47.852,-26.855,0.000
1709196736.603,-40.039,-29.297,-44.434,-22.461,0.000
1709196736.607,-38.574,-25.879,-37.598,-11.230,0.000
1709196736.611,-35.645,-20.020,-38.086,-11.719,0.000
1709196736.615,-38.574,-20.996,-37.109,-11.719,0.000
1709196736.619,-36.133,-22.949,-34.180,-29.297,0.000
1709196736.623,-39.551,-29.297,-41.504,-22.461,0.000
1709196736.627,-26.855,-33.691,-44.922,0.000,0.000
1709196736.631,-13.672,-26.855,-43.457,-20.020,0.000
1709196736.635,-31.250,-24.902,-42.969,-34.668,0.000
1709196736.638,-44.922,-26.855,-42.480,-32.715,0.000
1709196736.642,-37.109,-24.902,-44.434,-20.508,0.000
1709196736.646,-32.227,-25.879,-46.875,-13.184,0.000
1709196736.650,-34.180,-29.785,-51.270,-19.531,0.000
1709196736.654,-29.297,-25.391,-51.270,-34.180,0.000
1709196736.658,-53.223,-25.879,-51.758,-38.574,0.000
1709196736.662,-57.617,-25.879,-51.758,-22.949,0.000
1709196736.666,-39.551,-23.926,-54.199,-7.324,0.000
1709196736.670,-38.086,-30.762,-54.199,-8.789,0.000
1709196736.674,-39.551,-27.832,-49.316,-29.297,0.000
1709196736.678,-40.039,-23.438,-48.828,-40.039,0.000
1709196736.681,-28.320,-20.020,-48.828,-22.461,0.000
1709196736.685,-20.508,-18.066,-48.828,-9.277,0.000
1709196736.689,-19.043,-38.086,-44.922,-12.207,0.000
1709196736.693,-18.066,-37.109,-45.898,-21.973,0.000
1709196736.697,-37.598,-26.367,-49.805,-27.832,0.000
1709196736.701,-34.180,-31.738,-46.875,-21.484,0.000
1709196736.705,-0.977,-39.551,-42.969,5.859,0.000
1709196736.709,-14.160,-39.062,-41.992,12.207,0.000
1709196736.713,-35.645,-32.227,-49.805,-8.789,0.000
1709196736.717,-44.434,-30.273,-52.246,-25.879,0.000
1709196736.721,-41.504,-35.156,-46.387,-25.879,0.000
1709196736.724,-27.832,-36.133,-44.434,-15.137,0.000
1709196736.728,-40.039,-32.227,-44.922,-16.602,0.000
1709196736.732,-39.062,-38.086,-46.875,-32.715,0.000
1709196736.736,-41.504,-41.992,-50.781,-40.527,0.000
1709196736.740,-54.688,-31.250,-48.828,-27.344,0.000
1709196736.744,-34.668,-35.156,-51.270,-23.926,0.000
1709196736.748,-12.695,-37.598,-48.828,-17.090,0.000
1709196736.752,-30.273,-30.273,-46.387,-18.555,0.000
1709196736.756,-44.922,-31.738,-52.246,-40.039,0.000
1709196736.760,-23.926,-27.344,-55.176,-20.996,0.000
1709196736.763,-24.414,-27.344,-58.594,-5.859,0.000
1709196736.767,-17.090,-34.668,-51.758,-8.301,0.000
1709196736.771,-11.719,-40.039,-44.922,-16.113,0.000
1709196736.775,-32.715,-33.691,-49.316,-34.180,0.000
1709196736.779,-43.457,-25.391,-47.363,-24.902,0.000
1709196736.783,-29.297,-30.273,-44.922,-6.836,0.000
1709196736.787,-18.555,-34.180,-45.410,-5.859,0.000
1709196736.791,-26.367,-26.367,-44.922,-13.184,0.000
1709196736.795,-43.457,-22.949,-37.598,-35.645,0.000
1709196736.799,-59.082,-36.621,-35.156,-37.598,0.000
1709196736.803,-49.805,-44.922,-41.016,-5.859,0.000
1709196736.806,-37.598,-41.504,-41.504,-1.465,0.000
1709196736.810,-22.949,-36.621,-44.434,-16.113,0.000
1709196736.814,-46.387,-29.785,-41.016,-29.785,0.000
1709196736.818,-78.125,-36.133,-46.387,-28.809,0.000
1709196736.822,-62.500,-38.086,-48.828,-16.602,0.000
1709196736.826,-39.062,-30.762,-49.805,-16.113,0.000
1709196736.830,-36.621,-27.832,-47.363,-10.742,0.000
1709196736.834,-49.805,-27.832,-41.992,-16.113,0.000
1709196736.838,-58.105,-28.809,-47.852,-32.715,0.000
1709196736.842,-54.199,-27.832,-49.805,-29.297,0.000
1709196736.846,-34.668,-21.973,-43.457,-2.930,0.000
1709196736.849,-32.715,-24.414,-38.574,-0.488,0.000
1709196736.853,-44.922,-26.367,-38.086,-17.090,0.000
1709196736.857,-56.641,-30.273,-36.621,-26.855,0.000
1709196736.861,-42.969,-33.203,-36.133,-25.391,0.000
1709196736.865,-28.320,-27.344,-41.992,-9.277,0.000
1709196736.869,-35.156,-36.621,-44.922,-9.766,0.000
1709196736.873,-45.898,-35.156,-45.410,-30.273,0.000
1709196736.877,-59.082,-22.949,-43.945,-41.016,0.000
1709196736.881,-57.129,-22.949,-45.410,-21.484,0.000
1709196736.885,-40.527,-20.996,-46.875,-15.625,0.000
1709196736.889,-32.715,-19.531,-43.457,-20.996,0.000
1709196736.892,-37.598,-26.367,-41.504,-16.113,0.000
1709196736.896,-30.273,-30.762,-39.551,-16.113,0.000
1709196736.900,-22.461,-28.320,-41.016,-22.461,0.000
1709196736.904,-37.598,-27.344,-38.574,-15.137,0.000
1709196736.908,-29.785,-29.785,-37.109,-0.488,0.000
1709196736.912,-23.926,-29.297,-34.180,-6.836,0.000
1709196736.916,-34.180,-25.391,-31.250,-28.320,0.000
1709196736.920,-48.828,-29.297,-37.109,-21.973,0.000
1709196736.924,-55.176,-34.668,-41.992,-9.766,0.000
1709196736.928,-38.086,-36.133,-42.480,-8.301,0.000
1709196736.931,-28.809,-32.227,-42.969,-15.137,0.000
1709196736.935,-58.105,-30.273,-44.922,-31.250,0.000
1709196736.939,-70.801,-31.738,-43.457,-35.645,0.000
1709196736.943,-46.875,-35.156,-44.434,-25.879,0.000
1709196736.947,-43.457,-30.762,-43.945,-18.066,0.000
1709196736.951,-49.316,-23.926,-40.039,-19.531,0.000
1709196736.955,-52.734,-28.320,-42.969,-31.738,0.000
1709196736.959,-61.035,-24.414,-44.922,-41.992,0.000
1709196736.963,-64.941,-20.996,-44.922,-29.297,0.000
1709196736.967,-52.734,-25.879,-46.875,-14.648,0.000
1709196736.971,-29.297,-24.414,-45.898,-26.855,0.000
1709196736.974,-44.922,-21.484,-42.480,-38.574,0.000
1709196736.978,-80.078,-24.902,-43.945,-44.434,0.000
1709196736.982,-55.664,-26.367,-44.922,-35.645,0.000
1709196736.986,-38.574,-24.902,-42.480,-13.184,0.000
1709196736.990,-50.781,-25.879,-45.410,-17.090,0.000
1709196736.994,-41.992,-26.367,-47.363,-33.691,0.000
1709196736.998,-53.223,-25.879,-52.734,-22.949,0.000
1709196737.002,-63.477,-20.508,-57.617,-0.488,0.000
1709196737.006,-36.621,-17.578,-50.293,2.930,0.000
1709196737.010,-25.391,-17.578,-38.574,-1.953,0.000
1709196737.013,-32.227,-21.484,-34.180,-4.395,0.000
1709196737.017,-51.758,-22.461,-40.527,-13.184,0.000
1709196737.021,-54.688,-22.949,-42.480,-7.812,0.000
1709196737.025,-23.438,-28.320,-43.945,-2.930,0.000
1709196737.029,-16.602,-33.203,-48.340,-19.531,0.000
1709196737.033,-41.504,-29.297,-45.410,-23.438,0.000
1709196737.037,-39.062,-28.320,-40.039,-16.602,0.000
1709196737.041,-42.480,-29.785,-37.109,-6.836,0.000
1709196737.045,-37.109,-32.715,-36.621,11.719,0.000
1709196737.049,-23.926,-29.297,-38.574,8.789,0.000
1709196737.053,-20.020,-25.879,-42.480,3.906,0.000
1709196737.056,-6.348,-27.832,-42.969,-11.230,0.000
1709196737.060,-41.016,-32.715,-43.457,-26.855,0.000
1709196737.064,-48.340,-33.691,-41.016,2.441,0.000
1709196737.068,-19.043,-30.762,-37.109,7.812,0.000
1709196737.072,-24.902,-33.691,-36.133,-18.555,0.000
1709196737.076,-36.621,-32.227,-36.621,-18.066,0.000
1709196737.080,-41.016,-25.391,-37.109,-11.719,0.000
1709196737.084,-36.621,-29.297,-34.668,-9.277,0.000
1709196737.088,-40.039,-37.109,-36.621,-12.207,0.000
1709196737.092,-49.316,-39.551,-43.457,-23.926,0.000
1709196737.096,-41.504,-33.691,-40.039,-33.691,0.000
1709196737.099,-27.832,-29.785,-39.062,-48.340,0.000
1709196737.103,-31.738,-37.598,-44.434,-28.809,0.000
1709196737.107,-28.320,-35.156,-44.922,-2.441,0.000
1709196737.111,-28.809,-28.320,-41.016,-2.930,0.000
1709196737.115,-36.133,-32.715,-38.086,-21.973,0.000
1709196737.119,-46.387,-34.180,-36.133,-33.691,0.000
1709196737.123,-50.293,-31.738,-37.598,-10.742,0.000
1709196737.127,-31.250,-31.250,-38.086,-7.324,0.000
1709196737.131,-23.926,-28.809,-38.574,-20.508,0.000
1709196737.135,-24.414,-25.391,-39.062,-19.531,0.000
1709196737.138,-43.457,-30.762,-44.922,-26.855,0.000
1709196737.142,-49.805,-30.273,-46.875,-23.438,0.000
1709196737.146,-28.809,-27.344,-41.016,-10.742,0.000
1709196737.150,-31.250,-28.809,-40.039,-14.160,0.000
1709196737.154,-40.527,-25.391,-38.574,-20.508,0.000
1709196737.158,-37.109,-28.320,-41.992,-20.508,0.000
1709196737.162,-39.062,-28.320,-47.852,-6.836,0.000
1709196737.166,-32.715,-26.367,-44.922,-3.418,0.000
1709196737.170,-25.391,-34.180,-43.457,-8.301,0.000
1709196737.174,-34.668,-38.086,-47.852,-23.438,0.000
1709196737.178,-52.734,-34.668,-49.805,-35.156,0.000
1709196737.181,-45.898,-27.344,-48.828,-24.902,0.000
1709196737.185,-20.508,-20.508,-48.340,-16.113,0.000
1709196737.189,-32.715,-23.926,-46.387,-22.461,0.000
1709196737.193,-38.574,-20.020,-39.551,-14.648,0.000
1709196737.197,-54.199,-19.043,-40.039,-16.113,0.000
1709196737.201,-71.289,-28.320,-43.457,-23.438,0.000
1709196737.205,-51.270,-36.133,-46.875,-15.137,0.000
1709196737.209,-41.504,-36.621,-47.363,-14.160,0.000
1709196737.213,-46.875,-30.273,-40.039,-17.090,0.000
1709196737.217,-50.293,-30.273,-37.109,-29.297,0.000
1709196737.221,-47.852,-33.691,-39.551,-25.879,0.000
1709196737.224,-42.480,-33.203,-38.574,-9.766,0.000
1709196737.228,-16.602,-28.809,-41.992,-7.812,0.000
1709196737.232,-38.574,-23.926,-43.945,-27.832,0.000
1709196737.236,-70.801,-24.414,-41.504,-48.340,0.000
1709196737.240,-64.941,-25.879,-46.387,-35.156,0.000
1709196737.244,-47.852,-24.902,-51.758,-30.273,0.000
1709196737.248,-28.809,-23.438,-51.270,-17.578,0.000
1709196737.252,-24.414,-27.344,-48.340,-15.625,0.000
1709196737.256,-45.898,-27.832,-48.828,-32.227,0.000
1709196737.260,-34.180,-27.832,-53.711,-37.598,0.000
1709196737.263,-11.719,-27.832,-54.199,-16.602,0.000
1709196737.267,-22.461,-29.297,-45.410,6.836,0.000
1709196737.271,-19.043,-30.762,-41.992,-8.301,0.000
1709196737.275,-30.273,-28.320,-43.457,-17.578,0.000
1709196737.279,-56.641,-29.297,-45.410,-11.719,0.000
1709196737.283,-58.105,-31.738,-49.805,-8.789,0.000
1709196737.287,-37.598,-29.297,-46.875,-11.719,0.000
1709196737.291,-31.250,-23.926,-43.945,-20.996,0.000
1709196737.295,-49.805,-29.297,-48.828,-38.574,0.000
1709196737.299,-42.480,-34.180,-50.781,-31.738,0.000
1709196737.303,-31.250,-37.109,-50.781,-12.207,0.000
1709196737.306,-29.297,-38.574,-51.758,-8.789,0.000
1709196737.310,-22.949,-32.227,-49.316,-1.953,0.000
1709196737.314,-29.785,-34.180,-48.828,-11.230,0.000
1709196737.318,-41.504,-39.062,-49.316,-24.902,0.000
1709196737.322,-41.504,-32.715,-46.387,-11.230,0.000
1709196737.326,-30.273,-31.250,-48.340,8.301,0.000
1709196737.330,-20.996,-33.691,-48.340,15.137,0.000
1709196737.334,-15.137,-28.320,-46.875,-2.930,0.000
1709196737.338,-38.086,-24.902,-47.363,-21.484,0.000
1709196737.342,-60.059,-31.250,-47.852,-13.184,0.000
1709196737.346,-49.805,-28.809,-50.781,2.930,0.000
1709196737.349,-39.062,-24.414,-51.270,7.324,0.000
1709196737.353,-45.898,-31.250,-46.387,-13.184,0.000
1709196737.357,-57.129,-36.621,-52.246,-38.574,0.000
1709196737.361,-51.270,-36.133,-59.570,-40.527,0.000
1709196737.365,-36.621,-29.297,-57.129,-24.902,0.000
1709196737.369,-31.250,-27.344,-51.758,-14.160,0.000
1709196737.373,-26.855,-29.785,-43.457,-10.254,0.000
1709196737.377,-41.016,-22.949,-50.293,-8.789,0.000
1709196737.381,-45.898,-21.484,-50.293,1.465,0.000
1709196737.385,-20.996,-24.902,-44.922,-5.371,0.000
1709196737.388,-9.277,-22.461,-44.922,0.488,0.000
1709196737.392,-19.531,-23.926,-42.480,-2.441,0.000
1709196737.396,-40.039,-28.320,-40.527,-26.367,0.000
1709196737.400,-45.898,-31.738,-45.898,-35.156,0.000
1709196737.404,-34.180,-30.762,-49.805,-19.043,0.000
1709196737.408,-12.207,-27.832,-50.293,0.000,0.000
1709196737.412,-25.879,-27.344,-49.316,-14.648,0.000
1709196737.416,-42.969,-33.691,-49.805,-30.762,0.000
1709196737.420,-49.805,-36.133,-46.875,-10.742,0.000
1709196737.424,-47.363,-30.273,-44.434,-9.766,0.000
1709196737.428,-18.066,-25.391,-43.945,-3.906,0.000
1709196737.431,-24.414,-27.832,-34.180,2.441,0.000
1709196737.435,-42.480,-30.762,-31.738,-21.484,0.000
1709196737.439,-44.434,-33.203,-41.016,-29.785,0.000
1709196737.443,-39.062,-28.809,-40.527,-11.230,0.000
1709196737.447,-33.691,-25.879,-34.668,5.371,0.000
1709196737.451,-34.668,-30.762,-38.574,-3.418,0.000
1709196737.455,-29.297,-29.785,-41.016,-29.297,0.000
1709196737.459,-23.438,-20.020,-35.645,-30.762,0.000
1709196737.463,-25.391,-26.855,-35.156,8.301,0.000
1709196737.467,-5.371,-32.715,-36.621,29.297,0.000
1709196737.471,-9.277,-27.832,-39.551,-0.977,0.000
1709196737.474,-29.785,-27.344,-40.039,-27.344,0.000
1709196737.478,-37.109,-25.879,-37.109,-17.578,0.000
1709196737.482,-13.184,-28.809,-33.691,6.348,0.000
1709196737.486,-1.953,-31.250,-35.156,18.555,0.000
1709196737.490,-11.719,-28.320,-42.969,4.883,0.000
1709196737.494,-23.438,-23.926,-43.945,-23.438,0.000
1709196737.498,-36.133,-21.484,-39.062,-32.715,0.000
1709196737.502,-31.250,-27.832,-37.109,-16.113,0.000
1709196737.506,-20.996,-31.738,-39.551,-2.930,0.000
1709196737.510,-12.695,-28.320,-41.504,0.000,0.000
1709196737.513,-9.277,-25.879,-46.387,-20.996,0.000
1709196737.517,-26.855,-27.344,-47.852,-32.227,0.000
1709196737.521,-27.344,-23.438,-46.387,-14.648,0.000
1709196737.525,10.254,-21.973,-45.410,10.742,0.000
1709196737.529,-1.953,-20.020,-44.922,8.789,0.000
1709196737.533,-26.855,-19.043,-45.898,-11.230,0.000
1709196737.537,-36.133,-30.273,-46.387,-24.414,0.000
1709196737.541,-37.109,-31.250,-48.828,-19.531,0.000
1709196737.545,-21.973,-25.879,-46.387,-11.230,0.000
1709196737.549,0.000,-26.367,-46.387,-10.254,0.000
1709196737.553,-13.672,-26.367,-51.758,-20.996,0.000
1709196737.556,-39.551,-23.926,-51.758,-24.902,0.000
1709196737.560,-40.527,-24.902,-52.246,-12.207,0.000
1709196737.564,-32.227,-34.180,-53.711,-10.254,0.000
1709196737.568,-25.391,-32.227,-47.852,9.766,0.000
1709196737.572,-34.180,-27.832,-48.828,-10.742,0.000
1709196737.576,-35.645,-30.762,-45.410,-35.156,0.000
1709196737.580,-41.992,-27.344,-34.668,-17.090,0.000
1709196737.584,-55.664,-29.297,-35.645,-6.348,0.000
1709196737.588,-52.734,-33.691,-37.598,-8.789,0.000
1709196737.592,-47.852,-31.738,-36.133,-21.484,0.000
1709196737.596,-56.152,-29.297,-40.527,-35.645,0.000
1709196737.599,-65.918,-29.785,-46.875,-37.109,0.000
1709196737.603,-56.152,-24.414,-45.898,-14.648,0.000
1709196737.607,-46.875,-20.020,-45.410,3.906,0.000
1709196737.611,-47.852,-25.879,-47.852,-23.438,0.000
1709196737.615,-49.805,-27.832,-45.898,-34.180,0.000
1709196737.619,-43.945,-25.391,-42.480,-16.602,0.000
1709196737.623,-30.273,-28.320,-41.016,-8.301,0.000
1709196737.627,-22.949,-28.809,-43.945,-9.766,0.000
1709196737.631,-29.297,-24.414,-42.480,-9.766,0.000
1709196737.635,-36.621,-25.391,-40.039,-27.344,0.000
1709196737.638,-31.738,-32.227,-38.086,-29.297,0.000
1709196737.642,-22.461,-31.738,-38.574,-11.719,0.000
1709196737.646,-25.879,-30.273,-44.434,-5.859,0.000
1709196737.650,-29.785,-31.738,-42.480,-5.859,0.000
1709196737.654,-34.668,-29.297,-39.551,-3.906,0.000
1709196737.658,-52.246,-31.250,-42.969,-15.137,0.000
1709196737.662,-56.152,-29.785,-44.434,-22.949,0.000
1709196737.666,-38.086,-30.273,-46.387,-8.789,0.000
1709196737.670,-23.438,-38.086,-43.457,-10.254,0.000
1709196737.674,-25.879,-39.551,0.000,0.000,0.000
1709196737.678,-38.574,-36.133,0.000,0.000,0.000
1709196737.681,-46.387,-33.203,0.000,0.000,0.000
1709196737.685,-44.922,-32.227,0.000,0.000,0.000
1709196737.689,-28.320,-32.227,0.000,0.000,0.000
1709196737.693,-29.297,-33.203,0.000,0.000,0.000
1709196737.697,-53.223,-26.855,0.000,0.000,0.000
1709196737.701,-52.246,-18.066,0.000,0.000,0.000
1709196737.705,-40.039,-22.461,0.000,0.000,0.000
1709196737.709,-20.996,-23.438,0.000,0.000,0.000
1709196737.713,-16.602,-21.973,0.000,0.000,0.000
1709196737.717,-34.668,-26.367,0.000,0.000,0.000
1709196737.721,-50.293,-31.738,-45.410,-7.812,0.000
1709196737.724,-38.086,-32.227,-45.898,-5.859,0.000
1709196737.728,-13.672,-28.320,-40.039,-6.348,0.000
1709196737.732,-26.367,-26.855,-43.945,-25.879,0.000
1709196737.736,-44.434,-21.973,-47.852,-43.457,0.000
1709196737.740,-42.969,-23.926,-48.340,-31.738,0.000
1709196737.744,-30.762,-19.531,-45.410,-11.719,0.000
1709196737.748,-26.367,-22.949,-41.504,-5.371,0.000
1709196737.752,-28.809,-31.250,-39.551,-22.461,0.000
1709196737.756,-36.133,-39.062,-44.922,-47.852,0.000
1709196737.760,-63.965,-33.691,-48.340,-52.734,0.000
1709196737.763,-55.176,-24.902,-47.852,-35.156,0.000
1709196737.767,-40.039,-27.344,-47.852,-28.320,0.000
1709196737.771,-46.875,-27.832,-44.922,-38.086,0.000
1709196737.775,-57.129,-28.809,-40.527,-47.363,0.000
1709196737.779,-53.711,-28.809,-40.039,-37.109,0.000
1709196737.783,-49.316,-26.367,-44.922,-8.301,0.000
1709196737.787,-44.922,-36.621,-44.434,2.441,0.000
1709196737.791,-44.434,-39.551,-41.992,-19.043,0.000
1709196737.795,-48.828,-29.297,-41.504,-26.367,0.000
1709196737.799,-46.875,-27.832,-43.457,-24.902,0.000
1709196737.803,-48.340,-31.250,-47.363,-15.137,0.000
1709196737.806,-26.855,-27.344,-46.387,-5.371,0.000
1709196737.810,-9.277,-24.902,-47.852,-19.043,0.000
