timestamps,TP9,AF7,AF8,TP10,Right AUX
1709215317.559,-30.762,-50.781,-18.066,-24.414,0.000
1709215317.563,-49.316,-54.199,-36.621,-40.527,0.000
1709215317.567,-48.340,-50.781,-35.156,-53.711,0.000
1709215317.571,-38.086,-40.039,-27.832,-50.781,0.000
1709215317.574,-34.668,-30.762,-36.621,-37.109,0.000
1709215317.578,-26.367,-28.320,-35.645,-23.926,0.000
1709215317.582,-21.973,-35.645,-30.762,-37.598,0.000
1709215317.586,-41.016,-38.086,-41.504,-48.828,0.000
1709215317.590,-41.992,-42.480,-43.945,-35.645,0.000
1709215317.594,-22.949,-38.086,-36.133,-23.438,0.000
1709215317.598,-19.531,-44.434,-35.645,-22.949,0.000
1709215317.602,-19.043,-50.781,-34.668,-20.508,0.000
1709215317.605,-36.621,-40.039,-35.645,-33.691,0.000
1709215317.609,-44.922,-44.434,-37.109,-41.016,0.000
1709215317.613,-31.738,-39.551,-37.109,-23.926,0.000
1709215317.617,-23.438,-27.344,-41.016,-20.996,0.000
1709215317.621,-20.020,-32.715,-40.527,-33.691,0.000
1709215317.625,-28.320,-41.504,-44.922,-39.551,0.000
1709215317.629,-38.086,-45.898,-41.992,-33.691,0.000
1709215317.633,-30.273,-41.504,-22.949,-17.090,0.000
1709215317.637,-24.414,-34.180,-23.926,-10.742,0.000
1709215317.641,-23.926,-34.668,-36.621,-25.391,0.000
1709215317.645,-38.574,-41.016,-40.039,-41.504,0.000
1709215317.648,-58.105,-47.363,-49.805,-45.410,0.000
1709215317.652,-44.434,-42.480,-57.617,-45.410,0.000
1709215317.656,-31.250,-33.203,-58.105,-46.387,0.000
1709215317.660,-41.016,-35.645,-54.199,-48.828,0.000
1709215317.664,-46.387,-39.551,-41.992,-62.500,0.000
1709215317.668,-49.316,-29.785,-29.297,-65.430,0.000
1709215317.671,-37.109,-22.461,-31.250,-46.875,0.000
1709215317.675,-31.250,-30.273,-44.922,-30.273,0.000
1709215317.679,-31.250,-46.387,-44.434,-33.691,0.000
1709215317.683,-38.086,-52.734,-44.434,-44.922,0.000
1709215317.687,-51.758,-62.012,-49.316,-52.734,0.000
1709215317.691,-33.691,-40.527,-35.156,-36.621,0.000
1709215317.695,-20.508,-30.273,-27.832,-18.066,0.000
1709215317.698,-27.832,-44.922,-52.246,-20.020,0.000
1709215317.702,-36.133,-37.598,-50.293,-37.598,0.000
1709215317.706,-49.805,-33.203,-29.297,-45.898,0.000
1709215317.710,-54.199,-39.062,-27.344,-34.180,0.000
1709215317.714,-43.457,-49.316,-41.992,-26.855,0.000
1709215317.718,-35.156,-51.758,-46.387,-37.109,0.000
1709215317.722,-52.246,-60.547,-41.992,-48.340,0.000
1709215317.726,-51.270,-50.293,-35.156,-51.270,0.000
1709215317.729,-46.875,-39.551,-39.062,-50.781,0.000
1709215317.733,-52.734,-44.434,-41.016,-34.180,0.000
1709215317.737,-34.180,-41.504,-28.320,-12.695,0.000
1709215317.741,-36.621,-43.457,-22.949,-3.418,0.000
1709215317.744,-41.504,-44.922,-20.996,-29.785,0.000
1709215317.748,-32.227,-37.598,-27.344,-43.457,0.000
1709215317.752,-19.043,-34.668,-33.203,-16.602,0.000
1709215317.756,-20.508,-48.340,-38.086,-8.301,0.000
1709215317.760,-20.508,-42.969,-44.434,-35.645,0.000
1709215317.764,-26.367,-28.809,-50.293,-60.059,0.000
1709215317.768,-37.109,-36.133,-56.641,-53.223,0.000
1709215317.772,-24.902,-52.246,-60.547,-40.527,0.000
1709215317.776,-10.254,-43.945,-57.129,-42.969,0.000
1709215317.780,-11.230,-34.668,-39.551,-51.758,0.000
1709215317.784,-37.598,-46.387,-35.156,-66.406,0.000
1709215317.787,-52.246,-48.828,-48.828,-73.730,0.000
1709215317.792,0.000,-58.105,-47.363,-48.340,0.000
1709215317.796,0.000,-50.293,-49.316,-31.738,0.000
1709215317.800,0.000,-28.320,-41.504,-34.668,0.000
1709215317.803,0.000,-19.043,-31.250,-38.574,0.000
1709215317.807,0.000,-28.809,-34.668,-40.039,0.000
1709215317.811,0.000,-50.781,-25.879,-30.762,0.000
1709215317.815,0.000,-44.922,-35.645,-18.555,0.000
1709215317.819,0.000,-28.320,-48.340,-26.855,0.000
1709215317.823,0.000,-29.785,-49.316,-48.828,0.000
1709215317.827,0.000,-38.574,-53.711,-45.410,0.000
1709215317.831,0.000,-44.922,-45.898,-31.738,0.000
1709215317.835,0.000,-38.086,-39.551,-20.996,0.000
1709215317.839,-32.715,-48.340,-33.203,-19.043,0.000
1709215317.843,-43.945,-49.316,-38.574,-33.691,0.000
1709215317.847,-58.594,-42.480,-44.922,-55.664,0.000
1709215317.851,-55.176,-41.992,-39.551,-56.152,0.000
1709215317.854,-44.434,-24.414,-39.062,-43.457,0.000
1709215317.858,-40.039,-8.789,-36.621,-45.898,0.000
1709215317.862,-52.734,-19.043,-36.133,-54.199,0.000
1709215317.866,-45.898,-29.785,-28.320,-57.617,0.000
1709215317.870,-37.598,-30.762,-28.809,-50.781,0.000
1709215317.874,-48.340,-39.062,-28.809,-36.133,0.000
1709215317.878,-41.992,-44.922,-35.645,-42.969,0.000
1709215317.882,-51.758,-45.898,-49.316,-60.059,0.000
1709215317.886,-58.594,-48.828,-53.223,-65.430,0.000
1709215317.890,-47.363,-46.875,-46.875,-58.594,0.000
1709215317.893,-26.855,-31.738,-36.133,-55.664,0.000
1709215317.897,-14.648,-26.367,-38.574,-52.246,0.000
1709215317.901,-31.738,-33.691,-42.480,-61.035,0.000
1709215317.905,-55.176,-41.992,-40.039,-75.684,0.000
1709215317.909,-47.363,-32.715,-41.504,-67.383,0.000
1709215317.913,-37.598,-33.691,-52.734,-54.199,0.000
1709215317.917,-42.480,-51.270,-56.152,-35.645,0.000
1709215317.921,-50.781,-56.641,-49.316,-42.480,0.000
1709215317.925,-69.336,-51.270,-45.410,-59.570,0.000
1709215317.929,-60.059,-49.805,-28.320,-36.133,0.000
1709215317.932,-33.691,-45.410,-21.484,-22.461,0.000
1709215317.936,-47.363,-41.016,-30.762,-29.297,0.000
1709215317.940,-61.523,-36.133,-38.574,-46.387,0.000
1709215317.944,-70.801,-37.109,-36.133,-60.547,0.000
1709215317.948,-80.078,-44.434,-40.039,-58.594,0.000
1709215317.952,-59.082,-53.223,-46.387,-40.039,0.000
1709215317.956,-43.457,-54.688,-23.438,-26.855,0.000
1709215317.960,-54.199,-57.617,-20.020,-36.133,0.000
1709215317.964,-69.824,-65.918,-29.785,-52.246,0.000
1709215317.968,-69.336,-46.875,-19.531,-55.664,0.000
1709215317.971,-36.133,-30.762,-20.020,-32.715,0.000
1709215317.975,-27.832,-41.992,-28.320,-32.227,0.000
1709215317.979,-40.039,-44.922,-38.574,-44.434,0.000
1709215317.983,-38.574,-41.992,-44.922,-50.781,0.000
1709215317.987,-38.086,-36.133,-35.645,-48.828,0.000
1709215317.991,-29.785,-32.227,-31.738,-35.645,0.000
1709215317.995,0.488,-42.969,-39.551,-17.090,0.000
1709215317.999,-6.836,-43.945,-38.086,-18.555,0.000
1709215318.002,-28.809,-28.809,-35.645,-41.504,0.000
1709215318.006,-24.902,-36.133,-34.180,-39.062,0.000
1709215318.010,-28.320,-50.293,-43.457,-33.203,0.000
1709215318.014,-14.648,-41.504,-51.758,-27.344,0.000
1709215318.018,-10.742,-32.715,-37.598,-31.738,0.000
1709215318.022,-30.762,-47.852,-40.039,-45.410,0.000
1709215318.026,-44.922,-44.922,-45.410,-45.898,0.000
1709215318.029,-39.062,-44.434,-38.574,-43.457,0.000
1709215318.033,-23.438,-51.270,-27.832,-29.297,0.000
1709215318.037,-22.461,-41.504,-22.949,-18.555,0.000
1709215318.041,-23.438,-45.410,-29.785,-31.250,0.000
1709215318.045,-34.180,-45.410,-33.691,-38.574,0.000
1709215318.049,-46.387,-48.340,-38.086,-24.414,0.000
1709215318.053,-21.973,-41.992,-33.203,-0.977,0.000
1709215318.057,-10.742,-35.156,-33.203,-8.789,0.000
1709215318.061,-29.785,-35.645,-40.039,-22.461,0.000
1709215318.065,-43.945,-42.969,-41.016,-27.344,0.000
1709215318.069,-36.621,-54.688,-30.273,-24.902,0.000
1709215318.073,-15.625,-47.852,-18.066,-10.742,0.000
1709215318.077,-17.090,-39.062,-21.484,-13.672,0.000
1709215318.081,-23.438,-37.109,-37.598,-21.484,0.000
1709215318.085,-38.086,-39.062,-35.156,-29.297,0.000
1709215318.088,-42.480,-44.434,-30.273,-19.043,0.000
1709215318.092,-15.137,-29.785,-24.902,6.836,0.000
1709215318.096,-3.906,-26.855,-19.043,12.695,0.000
1709215318.100,-15.137,-35.645,-42.480,-3.418,0.000
1709215318.104,-26.367,-41.016,-51.758,-28.809,0.000
1709215318.108,-24.902,-33.691,-25.391,-25.879,0.000
1709215318.112,-14.160,-23.926,-29.297,-4.883,0.000
1709215318.116,-5.371,-45.410,-39.551,-1.953,0.000
1709215318.119,-10.742,-46.875,-32.227,-15.625,0.000
1709215318.123,-23.438,-35.645,-33.203,-32.715,0.000
1709215318.127,-34.668,-35.645,-42.969,-38.086,0.000
1709215318.131,-31.738,-34.668,-41.504,-22.949,0.000
1709215318.135,-14.648,-40.039,-33.203,-13.672,0.000
1709215318.139,-18.066,-36.621,-42.969,-20.020,0.000
1709215318.143,-29.785,-34.180,-47.363,-24.414,0.000
1709215318.147,-37.109,-34.180,-20.508,-33.691,0.000
1709215318.151,-30.273,-44.434,-17.578,-27.344,0.000
1709215318.155,-22.949,-59.570,-27.344,-3.418,0.000
1709215318.158,-36.621,-62.012,-25.391,-11.719,0.000
1709215318.162,-51.270,-47.363,-24.414,-44.434,0.000
1709215318.167,-57.129,-35.156,-30.273,-53.711,0.000
1709215318.170,-44.922,-38.086,-31.250,-37.109,0.000
1709215318.174,-24.902,-34.668,-21.973,-21.973,0.000
1709215318.178,-22.949,-37.598,-32.715,-37.598,0.000
1709215318.182,-48.340,-41.016,-54.199,-52.734,0.000
1709215318.186,-68.848,-41.504,-49.316,-59.570,0.000
1709215318.190,-43.945,-33.203,-35.645,-60.059,0.000
1709215318.194,-26.367,-34.668,-34.180,-48.828,0.000
1709215318.198,-24.414,-42.969,-29.785,-49.316,0.000
1709215318.202,-22.949,-33.203,-30.762,-57.129,0.000
1709215318.206,-42.969,-23.926,-38.086,-60.547,0.000
1709215318.210,-38.086,-20.020,-48.340,-47.852,0.000
1709215318.214,0.000,-30.762,-38.574,-22.461,0.000
1709215318.218,0.000,-43.457,-31.738,-33.691,0.000
1709215318.221,0.000,-41.992,-41.504,-52.734,0.000
1709215318.225,0.000,-36.133,-42.480,-50.781,0.000
1709215318.229,0.000,-37.598,-32.715,-40.039,0.000
1709215318.233,0.000,-33.691,-19.043,-11.230,0.000
1709215318.237,0.000,-25.391,-20.508,-6.836,0.000
1709215318.241,0.000,-27.344,-34.180,-30.273,0.000
1709215318.245,0.000,-29.297,-30.762,-30.273,0.000
1709215318.249,0.000,-37.109,-27.344,-18.066,0.000
1709215318.253,0.000,-54.199,-29.297,-0.977,0.000
1709215318.257,0.000,-50.781,-37.598,-1.465,0.000
1709215318.261,-36.133,-41.992,-29.785,-26.855,0.000
1709215318.264,-52.734,-48.828,-21.484,-39.062,0.000
1709215318.268,-50.781,-45.898,-31.738,-39.551,0.000
1709215318.272,-44.434,-35.645,-38.574,-36.133,0.000
1709215318.276,-41.992,-37.598,-28.320,-27.344,0.000
1709215318.280,-42.480,-43.457,-10.254,-26.855,0.000
1709215318.284,-55.176,-53.223,-25.391,-50.781,0.000
1709215318.288,-54.688,-47.363,-38.086,-60.059,0.000
1709215318.292,-40.039,-36.621,-34.668,-33.203,0.000
1709215318.296,-29.297,-33.203,-39.551,-29.297,0.000
1709215318.300,-37.598,-29.785,-44.434,-48.340,0.000
1709215318.304,-48.340,-43.945,-42.969,-53.711,0.000
1709215318.307,-39.062,-62.012,-33.691,-46.387,0.000
1709215318.311,-33.691,-45.898,-30.762,-41.016,0.000
1709215318.315,-27.344,-23.438,-40.039,-35.645,0.000
1709215318.319,-12.207,-27.344,-36.133,-28.320,0.000
1709215318.323,-12.695,-36.621,-36.133,-30.762,0.000
1709215318.327,-8.301,-36.133,-42.969,-38.086,0.000
1709215318.331,7.324,-35.156,-50.293,-30.762,0.000
1709215318.335,22.461,-32.715,-50.293,-0.488,0.000
1709215318.339,27.344,-30.273,-46.875,25.879,0.000
1709215318.342,10.254,-32.715,-49.316,11.230,0.000
1709215318.346,13.184,-36.133,-60.059,-10.742,0.000
1709215318.350,25.879,-30.273,-51.270,0.000,0.000
1709215318.354,20.508,-25.391,-45.898,22.949,0.000
1709215318.358,29.297,-21.973,-42.480,31.738,0.000
1709215318.362,15.137,-33.203,-44.434,25.391,0.000
1709215318.366,8.301,-40.527,-47.852,26.855,0.000
1709215318.370,23.926,-29.297,-29.785,32.715,0.000
1709215318.373,24.414,-40.527,-28.320,34.180,0.000
1709215318.377,24.414,-28.809,-42.480,20.996,0.000
1709215318.381,3.418,-9.277,-44.434,1.465,0.000
1709215318.385,-29.785,-9.766,-42.480,-11.230,0.000
1709215318.389,-24.902,-1.465,-41.016,-14.648,0.000
1709215318.393,-10.742,-5.371,-39.551,-4.883,0.000
1709215318.397,-7.324,-26.367,-34.180,-0.977,0.000
1709215318.400,-5.859,-25.879,-29.297,-10.742,0.000
1709215318.404,-22.461,-15.137,-40.039,-35.156,0.000
1709215318.408,-31.250,-29.785,-41.016,-47.363,0.000
1709215318.412,-11.719,-44.434,-27.832,-27.832,0.000
1709215318.416,0.000,-41.992,-33.691,-22.949,0.000
1709215318.420,-20.020,-35.156,-41.016,-34.668,0.000
1709215318.424,-32.227,-37.598,-48.828,-31.250,0.000
1709215318.428,-13.184,-41.992,-55.664,-25.391,0.000
1709215318.432,5.371,-32.227,-47.852,-16.113,0.000
1709215318.436,6.348,-19.531,-41.504,-16.113,0.000
1709215318.439,4.883,-23.438,-44.922,-27.344,0.000
1709215318.443,-4.883,-22.461,-39.551,-30.273,0.000
1709215318.447,-23.926,-14.648,-46.387,-31.738,0.000
1709215318.451,-20.020,-21.484,-55.176,-15.625,0.000
1709215318.455,-3.418,-22.461,-39.551,10.254,0.000
1709215318.459,-6.836,-20.020,-27.344,6.348,0.000
1709215318.463,-31.738,-26.367,-25.391,-23.438,0.000
1709215318.466,-31.738,-27.832,-23.926,-26.367,0.000
1709215318.470,-20.020,-33.203,-28.809,-5.371,0.000
1709215318.474,-9.277,-39.062,-39.062,-0.977,0.000
1709215318.478,-17.090,-34.668,-34.180,-7.812,0.000
1709215318.482,-41.016,-34.668,-35.645,-17.578,0.000
1709215318.486,-38.086,-30.273,-48.340,-22.461,0.000
1709215318.490,-44.434,-33.203,-48.340,-19.043,0.000
1709215318.493,-36.621,-33.203,-37.109,-11.719,0.000
1709215318.497,-28.809,-28.809,-41.992,-18.555,0.000
1709215318.501,-44.922,-38.574,-40.039,-29.297,0.000
1709215318.505,-51.270,-50.781,-30.762,-33.691,0.000
1709215318.509,-32.227,-39.551,-35.645,-32.227,0.000
1709215318.513,-25.879,-34.668,-31.738,-29.785,0.000
1709215318.517,-36.621,-39.551,-33.203,-29.297,0.000
1709215318.521,-30.273,-47.852,-46.387,-36.133,0.000
1709215318.525,-43.945,-58.105,-42.969,-47.363,0.000
1709215318.528,-49.316,-41.992,-31.250,-43.945,0.000
1709215318.532,-26.367,-32.227,-32.715,-31.738,0.000
1709215318.536,-24.414,-38.574,-41.992,-32.227,0.000
1709215318.540,-32.715,-32.715,-40.039,-47.363,0.000
1709215318.544,-36.133,-30.273,-48.340,-46.387,0.000
1709215318.548,-35.156,-45.898,-52.734,-45.410,0.000
1709215318.552,-25.391,-52.734,-38.574,-47.363,0.000
1709215318.556,-37.109,-50.293,-44.434,-53.223,0.000
1709215318.560,-47.852,-38.574,-40.039,-68.359,0.000
1709215318.564,-51.270,-31.738,-34.668,-74.707,0.000
1709215318.568,-41.504,-25.879,-42.480,-72.266,0.000
1709215318.572,-31.250,-20.508,-41.992,-56.641,0.000
1709215318.576,-33.691,-32.227,-41.992,-43.457,0.000
1709215318.580,-27.344,-42.480,-41.504,-42.969,0.000
1709215318.583,-48.340,-23.926,-45.898,-57.129,0.000
1709215318.588,-71.289,-8.301,-55.664,-69.336,0.000
1709215318.591,-51.758,-13.184,-56.152,-55.176,0.000
1709215318.595,-41.992,-12.207,-62.012,-51.270,0.000
1709215318.599,-45.410,2.930,-59.570,-59.082,0.000
1709215318.603,-47.363,8.789,-57.617,-66.895,0.000
1709215318.607,-36.133,12.207,-65.918,-71.777,0.000
1709215318.611,-23.438,21.484,-64.453,-65.918,0.000
1709215318.615,-36.133,29.297,-66.895,-72.754,0.000
1709215318.619,-53.711,34.668,-69.336,-72.754,0.000
1709215318.623,-55.176,44.434,-64.453,-74.707,0.000
1709215318.627,-51.270,53.223,-67.383,-84.473,0.000
1709215318.631,-49.316,49.316,-79.102,-72.754,0.000
1709215318.635,-31.250,54.688,-82.520,-59.082,0.000
1709215318.639,-23.438,55.664,-80.078,-58.594,0.000
1709215318.642,-41.016,61.035,-86.426,-74.219,0.000
1709215318.646,-61.523,65.430,-92.285,-91.797,0.000
1709215318.650,-38.086,66.406,-89.355,-74.707,0.000
1709215318.654,-20.020,72.754,-95.703,-61.035,0.000
1709215318.658,-36.621,74.219,-106.934,-76.172,0.000
1709215318.662,-41.504,77.148,-102.539,-89.844,0.000
1709215318.666,-39.062,73.730,-99.121,-83.984,0.000
1709215318.670,-33.203,70.312,-104.492,-73.242,0.000
1709215318.674,-11.719,75.195,-109.863,-67.871,0.000
1709215318.678,-2.930,80.078,-113.281,-62.012,0.000
1709215318.681,-7.324,79.590,-113.281,-75.684,0.000
1709215318.685,-12.207,75.195,-115.234,-92.285,0.000
1709215318.689,-7.812,67.383,-113.281,-76.660,0.000
1709215318.693,-6.836,73.730,-105.469,-55.664,0.000
1709215318.697,-17.578,68.359,-99.609,-54.199,0.000
1709215318.701,-19.043,48.340,-95.703,-60.059,0.000
1709215318.705,-17.090,51.758,-94.727,-73.730,0.000
1709215318.709,-22.949,60.547,-89.844,-66.895,0.000
1709215318.713,-19.043,48.340,-92.285,-41.504,0.000
1709215318.717,-24.414,41.016,-95.215,-46.387,0.000
1709215318.720,-34.180,46.875,-87.891,-61.035,0.000
1709215318.724,-38.086,41.016,-82.031,-53.711,0.000
1709215318.728,-31.250,30.273,-77.637,-35.156,0.000
1709215318.732,-19.043,27.344,-70.801,-25.879,0.000
1709215318.736,-8.789,16.113,-79.102,-19.043,0.000
1709215318.740,-15.625,14.648,-77.637,-27.344,0.000
1709215318.744,-39.062,24.902,-66.406,-52.246,0.000
1709215318.748,-26.855,14.160,-59.570,-49.805,0.000
1709215318.752,-8.789,7.812,-53.223,-25.879,0.000
1709215318.756,-15.137,13.672,-58.594,-10.742,0.000
1709215318.759,-22.461,9.766,-51.270,-20.996,0.000
1709215318.763,-30.273,3.418,-37.598,-42.480,0.000
1709215318.767,-21.973,-16.602,-38.086,-34.668,0.000
1709215318.771,-10.254,-20.508,-47.852,-26.367,0.000
1709215318.775,-28.809,-24.414,-48.340,-18.066,0.000
1709215318.779,-44.434,-26.855,-41.992,-23.438,0.000
1709215318.783,-53.711,-1.465,-42.969,-57.129,0.000
1709215318.786,-65.430,0.000,-49.316,-61.523,0.000
1709215318.790,-49.316,-12.207,-44.922,-39.062,0.000
1709215318.794,-35.156,-1.465,-46.875,-45.898,0.000
1709215318.798,-50.781,2.930,-58.105,-68.359,0.000
1709215318.802,-63.477,-3.906,-52.246,-69.824,0.000
1709215318.806,-62.988,-15.625,-56.641,-76.660,0.000
1709215318.810,-41.016,-24.414,-62.012,-64.941,0.000
1709215318.814,-37.109,-25.879,-71.777,-48.828,0.000
1709215318.818,-47.852,-27.832,-72.266,-58.105,0.000
1709215318.821,-38.086,-39.551,-63.965,-68.359,0.000
1709215318.825,-37.109,-39.062,-66.406,-66.406,0.000
1709215318.829,-55.176,-29.297,-66.406,-51.270,0.000
1709215318.833,-42.480,-34.668,-63.477,-36.621,0.000
1709215318.837,-29.297,-27.832,-51.270,-36.133,0.000
1709215318.841,-46.387,-29.297,-54.688,-58.594,0.000
1709215318.845,-50.293,-36.133,-54.199,-51.758,0.000
1709215318.849,-41.992,-23.438,-48.828,-33.691,0.000
1709215318.853,-25.391,-20.020,-55.176,-37.598,0.000
1709215318.857,-22.461,-25.879,-52.734,-44.434,0.000
1709215318.860,-35.645,-25.391,-52.734,-49.805,0.000
1709215318.864,-38.086,-25.879,-55.664,-60.547,0.000
1709215318.868,-35.156,-23.438,-52.246,-55.664,0.000
1709215318.872,-20.020,-33.691,-44.922,-38.086,0.000
1709215318.876,-13.184,-41.992,-47.852,-34.180,0.000
1709215318.879,-18.066,-24.414,-55.176,-40.039,0.000
1709215318.883,-36.621,-20.996,-40.039,-45.898,0.000
1709215318.887,-40.527,-39.062,-39.062,-44.434,0.000
1709215318.891,-23.926,-35.156,-45.410,-36.621,0.000
1709215318.895,-30.762,-17.090,-50.781,-39.551,0.000
1709215318.899,-50.781,-26.855,-51.270,-46.875,0.000
1709215318.903,-64.453,-44.434,-37.598,-52.246,0.000
1709215318.907,-53.223,-44.434,-39.062,-48.340,0.000
1709215318.911,-30.762,-50.293,-39.062,-34.668,0.000
1709215318.915,-29.297,-41.504,-33.203,-31.738,0.000
1709215318.919,-45.410,-31.738,-39.551,-40.039,0.000
1709215318.923,-60.059,-28.809,-43.945,-56.152,0.000
1709215318.927,-43.457,-30.273,-36.621,-50.781,0.000
1709215318.931,-25.879,-33.691,-33.203,-36.133,0.000
1709215318.935,-27.832,-29.297,-30.762,-41.504,0.000
1709215318.938,-45.898,-32.715,-25.391,-54.688,0.000
1709215318.942,-56.641,-24.902,-26.367,-47.852,0.000
1709215318.946,-57.617,-29.785,-25.879,-40.527,0.000
1709215318.950,-45.898,-49.805,-28.809,-41.504,0.000
1709215318.954,-39.062,-41.504,-43.457,-26.855,0.000
1709215318.958,-53.711,-31.250,-48.828,-29.297,0.000
1709215318.962,-54.688,-37.598,-45.410,-39.062,0.000
1709215318.966,-48.340,-44.434,-42.969,-54.688,0.000
1709215318.970,-36.133,-43.457,-41.016,-62.012,0.000
1709215318.974,-30.762,-45.898,-42.480,-59.570,0.000
1709215318.978,-45.410,-51.270,-38.086,-56.152,0.000
1709215318.982,-60.547,-36.621,-43.457,-70.312,0.000
1709215318.986,-69.824,-20.996,-47.852,-84.473,0.000
1709215318.989,-43.457,-36.621,-39.551,-65.430,0.000
1709215318.993,-19.531,-42.969,-41.992,-53.711,0.000
1709215318.997,-38.574,-39.062,-51.758,-54.199,0.000
1709215319.001,-50.781,-45.410,-47.363,-57.617,0.000
1709215319.005,-53.711,-38.086,-55.176,-67.871,0.000
1709215319.009,-56.152,-31.738,-55.664,-62.012,0.000
1709215319.013,-41.504,-25.879,-40.039,-35.645,0.000
1709215319.017,-27.832,-26.855,-40.527,-35.645,0.000
1709215319.021,-33.691,-36.621,-37.109,-48.340,0.000
1709215319.025,-39.062,-40.527,-32.227,-26.855,0.000
1709215319.029,-24.414,-51.758,-32.715,-4.395,0.000
1709215319.033,-16.113,-36.621,-41.016,-19.043,0.000
1709215319.036,-22.461,-10.254,-44.434,-36.621,0.000
1709215319.040,-31.250,-21.973,-32.715,-40.527,0.000
1709215319.044,-29.297,-36.133,-34.668,-36.133,0.000
1709215319.048,-26.367,-32.715,-41.504,-36.621,0.000
1709215319.052,-29.297,-33.203,-44.434,-19.043,0.000
1709215319.056,-24.902,-34.668,-44.434,-21.484,0.000
1709215319.060,-31.738,-41.016,-52.734,-38.086,0.000
1709215319.064,-49.805,-45.410,-47.363,-41.016,0.000
1709215319.068,-47.363,-38.574,-26.855,-27.832,0.000
1709215319.072,-33.203,-28.320,-24.414,-4.395,0.000
1709215319.075,-35.156,-31.738,-32.227,1.465,0.000
1709215319.079,-22.949,-40.039,-37.598,-7.324,0.000
1709215319.083,-23.438,-38.086,-37.109,-24.414,0.000
1709215319.087,-44.922,-37.109,-39.551,-25.879,0.000
1709215319.091,-28.320,-41.016,-31.738,-20.996,0.000
1709215319.095,-20.020,-29.785,-31.250,-29.297,0.000
1709215319.099,-32.227,-21.973,-39.062,-42.969,0.000
1709215319.103,-42.969,-30.762,-41.992,-54.688,0.000
1709215319.107,-37.109,-40.527,-47.852,-47.852,0.000
1709215319.111,-30.273,-29.785,-39.062,-32.227,0.000
1709215319.114,-36.133,-21.484,-23.438,-30.273,0.000
1709215319.118,-50.781,-32.227,-33.691,-51.758,0.000
1709215319.122,-55.176,-32.227,-39.062,-64.453,0.000
1709215319.126,-40.527,-27.344,-31.250,-62.500,0.000
1709215319.130,-36.133,-51.758,-30.273,-36.621,0.000
1709215319.134,-38.086,-55.176,-44.922,-21.973,0.000
1709215319.138,-50.781,-35.645,-48.340,-59.082,0.000
1709215319.142,-58.594,-33.203,-38.574,-70.801,0.000
1709215319.146,-50.293,-25.879,-35.645,-49.805,0.000
1709215319.149,-42.480,-25.391,-37.598,-27.832,0.000
1709215319.153,-35.156,-37.109,-49.316,-23.926,0.000
1709215319.157,-32.227,-53.711,-61.523,-34.668,0.000
1709215319.161,-40.527,-47.363,-45.898,-41.504,0.000
1709215319.165,-49.316,-37.109,-33.691,-43.945,0.000
1709215319.169,-44.922,-55.176,-40.039,-38.574,0.000
1709215319.173,-27.344,-53.711,-35.156,-13.672,0.000
1709215319.177,-20.508,-43.945,-43.945,-10.742,0.000
1709215319.181,-38.086,-36.133,-60.059,-44.434,0.000
1709215319.185,-51.758,-33.203,-49.316,-61.523,0.000
1709215319.188,-30.762,-37.598,-35.645,-50.781,0.000
1709215319.192,-21.484,-34.668,-37.598,-34.668,0.000
1709215319.196,-45.410,-55.664,-38.574,-31.738,0.000
1709215319.200,-51.758,-66.406,-37.109,-46.875,0.000
1709215319.204,-52.246,-45.898,-43.457,-64.453,0.000
1709215319.208,-42.969,-35.156,-34.668,-51.758,0.000
1709215319.212,-29.297,-44.434,-36.133,-25.879,0.000
1709215319.215,-21.973,-45.898,-40.039,-32.227,0.000
1709215319.219,-33.691,-40.527,-37.598,-50.781,0.000
1709215319.223,-43.945,-46.387,-45.898,-58.594,0.000
1709215319.227,-40.039,-44.922,-41.504,-57.617,0.000
1709215319.231,-25.879,-51.758,-23.926,-33.691,0.000
1709215319.235,-19.531,-47.852,-28.320,-26.855,0.000
1709215319.239,-43.457,-29.785,-44.434,-54.688,0.000
1709215319.242,-41.504,-23.438,-36.621,-65.918,0.000
1709215319.246,-35.156,-31.250,-37.109,-44.922,0.000
1709215319.250,-32.227,-42.480,-50.293,-28.320,0.000
1709215319.254,-11.719,-45.898,-40.039,-22.461,0.000
1709215319.258,-36.133,-35.645,-33.203,-46.387,0.000
1709215319.262,-69.336,-34.180,-35.645,-72.754,0.000
1709215319.266,-61.523,-38.086,-34.668,-64.453,0.000
1709215319.270,-32.715,-27.832,-35.156,-40.527,0.000
1709215319.274,-27.344,-23.438,-32.227,-29.297,0.000
1709215319.277,-41.504,-25.391,-36.133,-52.734,0.000
1709215319.281,-53.223,-37.109,-40.039,-71.777,0.000
1709215319.285,-53.711,-41.504,-45.410,-62.500,0.000
1709215319.290,-39.551,-48.340,-47.852,-44.922,0.000
1709215319.294,-31.738,-56.641,-42.969,-40.527,0.000
1709215319.297,-55.664,-46.387,-39.062,-60.059,0.000
1709215319.301,-64.453,-37.109,-42.969,-77.148,0.000
1709215319.305,-51.758,-51.270,-45.410,-66.406,0.000
1709215319.309,-54.199,-68.848,-44.922,-29.785,0.000
1709215319.313,-47.852,-47.852,-52.246,-22.949,0.000
1709215319.317,-54.199,-28.809,-57.129,-57.617,0.000
1709215319.321,-65.430,-27.832,-40.039,-79.590,0.000
1709215319.325,-59.082,-31.738,-28.809,-71.777,0.000
1709215319.329,-45.410,-40.527,-34.668,-46.387,0.000
1709215319.333,-41.992,-29.297,-30.273,-36.621,0.000
1709215319.337,-55.664,-21.973,-24.902,-45.898,0.000
1709215319.341,-71.289,-40.527,-38.574,-57.129,0.000
1709215319.345,-76.660,-48.828,-39.062,-59.082,0.000
1709215319.349,-51.270,-39.551,-24.902,-39.551,0.000
1709215319.352,-29.785,-41.016,-20.508,-33.691,0.000
1709215319.356,-26.367,-37.598,-23.926,-39.551,0.000
1709215319.360,-31.738,-33.203,-36.621,-44.434,0.000
1709215319.364,-47.852,-51.270,-45.410,-42.969,0.000
1709215319.368,-34.180,-59.082,-37.598,-25.391,0.000
1709215319.372,-15.625,-29.785,-28.809,0.977,0.000
1709215319.376,-25.879,-20.020,-38.574,-12.207,0.000
1709215319.380,-41.016,-31.250,-41.016,-40.039,0.000
1709215319.384,-43.457,-36.621,-36.133,-38.574,0.000
1709215319.388,-29.785,-54.199,-42.969,-30.273,0.000
1709215319.392,-26.855,-42.480,-51.270,-26.855,0.000
1709215319.396,-32.715,-33.203,-51.270,-31.738,0.000
1709215319.399,-31.738,-47.363,-40.039,-42.480,0.000
1709215319.403,-47.363,-41.016,-40.527,-57.129,0.000
1709215319.407,-57.129,-31.738,-44.434,-55.664,0.000
1709215319.411,-29.785,-32.227,-42.969,-43.457,0.000
1709215319.415,-19.043,-32.227,-34.180,-26.367,0.000
1709215319.419,-48.828,-25.879,-32.715,-24.902,0.000
1709215319.423,-48.828,-36.133,-39.062,-40.527,0.000
1709215319.427,-33.203,-55.664,-47.852,-39.551,0.000
1709215319.431,-40.527,-42.480,-47.363,-38.574,0.000
1709215319.435,-52.734,-26.367,-34.668,-38.086,0.000
1709215319.439,-46.387,-28.809,-32.227,-39.551,0.000
1709215319.442,-44.434,-41.504,-37.109,-36.133,0.000
1709215319.446,-51.270,-51.758,-41.504,-29.297,0.000
1709215319.450,-43.945,-38.574,-40.039,-27.832,0.000
1709215319.454,-31.738,-36.133,-36.621,-42.969,0.000
1709215319.458,-35.156,-49.805,-49.805,-53.223,0.000
1709215319.462,-57.129,-62.500,-57.129,-56.641,0.000
1709215319.466,-59.570,-60.059,-40.527,-61.523,0.000
1709215319.470,-40.527,-53.711,-33.203,-43.457,0.000
1709215319.474,-32.715,-52.246,-30.762,-17.090,0.000
1709215319.478,-46.387,-53.711,-41.504,-29.297,0.000
1709215319.482,-57.129,-32.227,-40.039,-48.340,0.000
1709215319.486,-48.340,-21.973,-29.785,-33.203,0.000
1709215319.490,-23.438,-35.156,-30.273,-19.043,0.000
1709215319.494,-17.578,-34.668,-32.227,-18.066,0.000
1709215319.498,-37.109,-35.156,-45.898,-40.527,0.000
1709215319.502,-49.316,-40.039,-49.805,-64.941,0.000
1709215319.506,-44.922,-45.410,-45.410,-53.223,0.000
1709215319.510,-35.645,-41.016,-49.805,-36.133,0.000
1709215319.514,-28.809,-40.527,-49.805,-38.574,0.000
1709215319.517,-24.414,-53.223,-45.898,-40.527,0.000
1709215319.521,-50.781,-45.410,-44.434,-61.035,0.000
1709215319.525,-62.988,-35.645,-41.504,-74.219,0.000
1709215319.529,-51.758,-57.617,-42.480,-55.664,0.000
1709215319.533,-44.922,-43.457,-41.504,-40.527,0.000
1709215319.537,-41.504,-26.855,-43.945,-41.504,0.000
1709215319.541,-49.805,-44.922,-44.434,-47.363,0.000
1709215319.545,-58.105,-53.223,-32.227,-49.316,0.000
1709215319.548,-29.785,-47.852,-31.250,-45.898,0.000
1709215319.552,-13.184,-35.645,-31.738,-44.922,0.000
1709215319.556,-33.691,-39.062,-29.785,-39.062,0.000
1709215319.560,-48.828,-48.340,-35.645,-47.363,0.000
1709215319.564,-54.688,-47.852,-37.598,-49.805,0.000
1709215319.568,-39.551,-50.781,-36.621,-33.203,0.000
1709215319.571,-22.461,-52.734,-37.598,-36.621,0.000
1709215319.575,-25.391,-38.086,-42.480,-42.969,0.000
1709215319.579,-36.133,-52.246,-50.293,-43.945,0.000
1709215319.583,-48.828,-51.270,-53.711,-56.152,0.000
1709215319.587,-47.852,-36.133,-55.664,-64.941,0.000
1709215319.591,-30.273,-42.480,-43.457,-61.035,0.000
1709215319.595,-25.879,-32.227,-36.133,-37.598,0.000
1709215319.599,-23.926,-36.133,-46.875,-33.203,0.000
1709215319.603,-30.273,-45.410,-57.129,-53.711,0.000
1709215319.607,-40.039,-41.016,-43.945,-45.898,0.000
1709215319.611,-26.367,-17.090,-41.016,-31.250,0.000
1709215319.614,-11.230,-21.973,-38.574,-26.855,0.000
1709215319.618,-29.785,-40.039,-36.621,-36.133,0.000
1709215319.622,-36.133,-36.621,-41.504,-45.898,0.000
1709215319.626,-33.203,-46.875,-43.945,-44.434,0.000
1709215319.630,-26.367,-47.852,-45.898,-34.668,0.000
1709215319.634,-5.859,-41.016,-41.992,-26.855,0.000
1709215319.637,-22.461,-40.527,-39.551,-28.320,0.000
1709215319.641,-45.898,-47.363,-43.945,-41.992,0.000
1709215319.645,-33.203,-40.039,-42.969,-44.434,0.000
1709215319.649,-20.508,-34.180,-36.133,-20.996,0.000
1709215319.653,-30.762,-48.340,-26.855,4.395,0.000
1709215319.657,-35.645,-49.316,-33.691,-11.230,0.000
1709215319.661,-50.293,-51.270,-50.781,-46.875,0.000
1709215319.665,-44.922,-61.523,-40.527,-43.457,0.000
1709215319.669,-30.273,-61.035,-35.156,-37.598,0.000
1709215319.673,-46.875,-48.828,-40.039,-43.945,0.000
1709215319.677,-51.270,-33.203,-24.902,-42.969,0.000
1709215319.681,-49.316,-35.645,-22.949,-53.223,0.000
1709215319.685,-56.641,-42.969,-35.156,-50.293,0.000
1709215319.689,-45.898,-42.969,-33.691,-34.180,0.000
1709215319.692,-34.180,-53.223,-33.691,-24.902,0.000
1709215319.696,-29.785,-57.129,-38.574,-21.973,0.000
1709215319.700,-40.527,-50.293,-49.316,-29.785,0.000
1709215319.704,-50.781,-39.062,-34.668,-31.250,0.000
1709215319.708,-35.156,-43.945,-23.438,-26.855,0.000
1709215319.712,-28.320,-51.758,-32.715,-21.973,0.000
1709215319.716,-29.785,-48.828,-28.320,-19.043,0.000
1709215319.720,-30.762,-52.246,-23.438,-36.133,0.000
1709215319.724,-41.992,-41.504,-32.227,-55.664,0.000
1709215319.728,-43.945,-35.156,-45.898,-41.992,0.000
1709215319.732,-35.645,-40.527,-39.551,-17.578,0.000
1709215319.736,-35.156,-47.363,-31.250,-22.461,0.000
1709215319.740,-48.828,-47.363,-29.785,-37.598,0.000
1709215319.744,-46.875,-44.922,-38.574,-34.668,0.000
1709215319.747,-39.062,-52.246,-48.828,-27.344,0.000
1709215319.751,-26.367,-63.477,-41.504,-29.297,0.000
1709215319.755,-19.043,-53.223,-33.691,-32.227,0.000
1709215319.759,-22.949,-39.551,-36.621,-38.086,0.000
1709215319.763,-35.645,-44.434,-41.504,-47.852,0.000
1709215319.767,-36.133,-39.551,-33.691,-38.574,0.000
1709215319.771,-21.973,-45.898,-34.180,-24.414,0.000
1709215319.775,-37.598,-45.410,-45.898,-31.250,0.000
1709215319.779,-57.617,-47.852,-49.316,-47.363,0.000
1709215319.783,-57.129,-55.176,-32.715,-49.316,0.000
1709215319.787,-54.199,-43.945,-21.484,-44.434,0.000
1709215319.791,-55.664,-46.387,-30.273,-40.527,0.000
1709215319.794,-47.363,-50.293,-34.668,-30.273,0.000
1709215319.798,-43.945,-40.527,-40.039,-37.109,0.000
1709215319.802,-48.340,-48.340,-45.410,-58.105,0.000
1709215319.806,-43.457,-61.035,-44.922,-62.012,0.000
1709215319.810,-31.738,-46.387,-45.898,-47.852,0.000
1709215319.814,-36.621,-32.715,-51.758,-50.293,0.000
1709215319.818,-35.156,-40.527,-52.734,-56.152,0.000
1709215319.822,-29.297,-48.828,-50.781,-57.129,0.000
1709215319.826,-45.410,-35.156,-60.547,-63.477,0.000
1709215319.830,-45.410,-22.461,-52.734,-55.176,0.000
1709215319.833,-33.203,-28.320,-41.504,-37.109,0.000
1709215319.837,-40.039,-49.316,-47.363,-43.457,0.000
1709215319.841,-49.316,-46.875,-46.875,-59.082,0.000
1709215319.845,-38.574,-43.457,-49.316,-62.988,0.000
1709215319.849,-35.156,-60.547,-51.270,-52.246,0.000
1709215319.853,0.000,-55.664,-50.781,-41.992,0.000
1709215319.857,0.000,-37.598,-69.824,-53.711,0.000
1709215319.861,0.000,-39.062,-70.312,-54.199,0.000
1709215319.865,0.000,-36.133,-40.527,-45.410,0.000
1709215319.869,0.000,-42.969,-38.086,-36.133,0.000
1709215319.872,0.000,-52.734,-48.828,-20.508,0.000
1709215319.876,0.000,-40.039,-39.062,-25.879,0.000
1709215319.880,0.000,-36.133,-30.273,-35.156,0.000
1709215319.884,0.000,-37.109,-36.621,-47.852,0.000
1709215319.888,0.000,-43.457,-32.715,-53.223,0.000
1709215319.892,0.000,-42.969,-34.180,-34.668,0.000
1709215319.896,0.000,-38.574,-35.156,-34.668,0.000
1709215319.900,-42.969,-44.434,-31.250,-42.480,0.000
1709215319.904,-59.570,-48.340,-37.109,-43.457,0.000
1709215319.908,-48.340,-38.086,-37.598,-45.898,0.000
1709215319.912,-31.738,-35.156,-39.062,-44.922,0.000
1709215319.915,-34.180,-45.898,-43.945,-40.527,0.000
1709215319.919,-44.922,-50.293,-33.203,-43.457,0.000
1709215319.923,-48.340,-43.945,-31.738,-46.875,0.000
1709215319.927,-35.645,-38.086,-39.062,-41.504,0.000
1709215319.931,-13.672,-27.344,-37.598,-31.738,0.000
1709215319.935,-28.809,-26.855,-52.246,-28.809,0.000
1709215319.939,-42.969,-34.180,-56.641,-39.551,0.000
1709215319.943,-52.246,-40.039,-42.480,-56.152,0.000
1709215319.946,-50.293,-44.434,-35.156,-55.664,0.000
1709215319.950,-31.738,-35.645,-36.133,-44.434,0.000
1709215319.954,-30.273,-31.250,-44.434,-42.480,0.000
1709215319.958,-43.945,-36.621,-42.969,-49.316,0.000
1709215319.962,-60.547,-45.898,-37.598,-68.359,0.000
1709215319.966,-66.406,-50.781,-41.992,-69.336,0.000
1709215319.970,-44.922,-45.898,-41.504,-38.574,0.000
1709215319.974,-35.156,-45.410,-40.527,-27.832,0.000
1709215319.978,-38.086,-51.270,-39.551,-33.203,0.000
1709215319.981,-41.016,-55.176,-33.203,-36.133,0.000
1709215319.985,-39.062,-43.457,-33.203,-45.410,0.000
1709215319.989,-27.832,-46.387,-34.668,-42.969,0.000
1709215319.993,-16.602,-64.941,-31.738,-22.949,0.000
1709215319.997,-19.043,-61.035,-32.227,-21.973,0.000
1709215320.000,-39.062,-35.156,-37.109,-36.133,0.000
1709215320.004,-33.203,-23.926,-33.691,-35.645,0.000
1709215320.008,-2.930,-45.410,-27.832,-27.344,0.000
1709215320.012,1.465,-62.500,-43.945,-29.297,0.000
1709215320.016,-32.227,-46.387,-41.504,-45.410,0.000
1709215320.020,-52.734,-31.738,-35.156,-61.035,0.000
1709215320.024,-46.387,-29.297,-32.227,-55.664,0.000
1709215320.028,-28.320,-36.621,-28.320,-33.203,0.000
1709215320.032,-9.277,-52.246,-39.062,-24.414,0.000
1709215320.036,-22.461,-41.016,-34.668,-28.809,0.000
1709215320.040,-44.922,-38.574,-39.551,-49.805,0.000
1709215320.044,-48.340,-48.340,-48.340,-63.477,0.000
1709215320.048,-40.527,-42.480,-43.457,-41.992,0.000
1709215320.052,-17.578,-37.109,-33.203,-18.555,0.000
1709215320.056,-18.555,-40.527,-36.621,-23.926,0.000
1709215320.059,-41.504,-31.250,-42.480,-31.250,0.000
1709215320.063,-58.105,-20.508,-32.715,-38.086,0.000
1709215320.067,-58.105,-32.715,-40.039,-48.340,0.000
1709215320.071,-35.645,-52.734,-44.922,-37.598,0.000
1709215320.075,-27.832,-52.734,-42.969,-29.297,0.000
1709215320.079,-43.457,-41.504,-42.480,-35.645,0.000
1709215320.083,-52.246,-40.527,-53.223,-62.988,0.000
1709215320.087,-54.199,-38.086,-53.711,-68.359,0.000
1709215320.091,-68.359,-41.992,-37.598,-44.434,0.000
1709215320.095,-50.293,-44.922,-43.457,-33.691,0.000
1709215320.099,-42.480,-55.176,-40.039,-33.691,0.000
1709215320.103,-46.387,-55.176,-34.180,-33.203,0.000
1709215320.107,-40.527,-44.434,-33.691,-31.738,0.000
1709215320.110,-44.434,-48.340,-25.879,-31.250,0.000
1709215320.114,-34.668,-40.527,-27.832,-26.855,0.000
1709215320.118,-36.621,-37.598,-31.250,-36.133,0.000
1709215320.122,-47.363,-41.504,-30.762,-42.480,0.000
1709215320.126,-32.715,-42.969,-31.250,-32.715,0.000
1709215320.130,-30.273,-47.852,-33.691,-24.414,0.000
1709215320.136,-15.625,-51.270,-37.109,-18.555,0.000
1709215320.140,-15.137,-47.852,-29.785,-29.785,0.000
1709215320.144,-54.199,-40.039,-20.996,-50.293,0.000
1709215320.148,-52.734,-22.949,-21.973,-48.340,0.000
1709215320.152,-34.668,-33.203,-31.738,-29.785,0.000
1709215320.156,-18.555,-41.992,-33.691,-20.020,0.000
1709215320.159,-21.484,-29.785,-25.879,-23.926,0.000
1709215320.163,-41.016,-45.410,-26.855,-47.852,0.000
1709215320.167,-51.758,-55.664,-38.086,-44.922,0.000
1709215320.171,-48.340,-51.758,-37.109,-26.855,0.000
1709215320.175,-39.062,-55.176,-33.691,-29.785,0.000
1709215320.179,-44.922,-47.852,-32.715,-34.668,0.000
1709215320.185,-44.922,-39.551,-27.832,-44.434,0.000
1709215320.189,-26.855,-25.879,-39.062,-42.480,0.000
1709215320.193,-27.344,-31.250,-38.086,-24.414,0.000
1709215320.196,-40.527,-57.129,-34.668,-19.531,0.000
1709215320.200,-42.480,-47.852,-30.762,-25.879,0.000
1709215320.204,-49.316,-48.340,-25.879,-36.621,0.000
1709215320.208,-57.129,-51.270,-29.785,-51.270,0.000
1709215320.212,-45.898,-32.715,-33.691,-38.574,0.000
1709215320.216,-30.762,-37.109,-29.297,-26.855,0.000
1709215320.220,-40.527,-36.133,-26.367,-44.434,0.000
1709215320.224,-47.363,-37.109,-30.273,-50.293,0.000
1709215320.228,-47.363,-51.758,-27.832,-42.969,0.000
1709215320.231,-61.523,-55.176,-34.180,-27.832,0.000
1709215320.235,-45.898,-48.828,-39.551,-17.578,0.000
1709215320.239,-44.434,-52.734,-38.086,-33.203,0.000
1709215320.243,-59.082,-49.316,-40.527,-53.711,0.000
1709215320.247,-55.176,-40.039,-36.621,-51.758,0.000
1709215320.251,-39.551,-52.734,-32.715,-41.992,0.000
1709215320.255,-28.320,-55.176,-31.738,-26.855,0.000
1709215320.259,-28.320,-40.527,-31.250,-34.668,0.000
1709215320.262,-39.551,-37.598,-34.668,-50.293,0.000
1709215320.266,-43.457,-38.574,-33.691,-49.805,0.000
1709215320.270,-35.156,-31.738,-35.156,-50.781,0.000
1709215320.274,-22.461,-37.109,-34.180,-43.945,0.000
1709215320.278,-10.742,-38.086,-40.527,-34.668,0.000
1709215320.282,-36.133,-40.527,-45.898,-40.527,0.000
1709215320.285,-55.664,-44.922,-35.645,-55.176,0.000
1709215320.289,-52.734,-43.457,-29.297,-45.898,0.000
1709215320.293,-40.527,-38.574,-28.809,-20.508,0.000
1709215320.297,-35.645,-45.410,-37.598,-23.926,0.000
1709215320.301,-46.387,-49.316,-43.457,-45.898,0.000
1709215320.305,-49.805,-27.832,-32.715,-63.965,0.000
1709215320.309,-63.477,-20.996,-30.762,-65.918,0.000
1709215320.313,-54.688,-31.250,-39.551,-44.434,0.000
1709215320.317,-29.785,-45.410,-38.574,-24.902,0.000
1709215320.321,-35.156,-40.039,-37.109,-28.809,0.000
1709215320.324,-59.082,-35.645,-38.574,-41.992,0.000
1709215320.328,-48.340,-45.898,-41.016,-51.758,0.000
1709215320.332,-35.645,-54.688,-41.992,-43.945,0.000
1709215320.336,-29.785,-50.781,-38.086,-37.598,0.000
1709215320.340,-35.645,-37.598,-33.203,-42.480,0.000
1709215320.343,-56.641,-43.457,-36.621,-45.410,0.000
1709215320.347,-42.480,-51.758,-37.598,-24.414,0.000
1709215320.351,-29.785,-48.340,-35.645,-17.578,0.000
1709215320.355,-29.785,-45.410,-26.855,-27.832,0.000
1709215320.359,-37.109,-41.016,-23.438,-29.297,0.000
1709215320.363,-53.711,-27.832,-28.809,-31.738,0.000
1709215320.367,-42.969,-28.320,-29.785,-35.156,0.000
1709215320.370,-42.969,-46.387,-22.461,-34.668,0.000
1709215320.374,-40.527,-43.945,-19.043,-21.973,0.000
1709215320.378,-29.297,-41.016,-24.902,-20.020,0.000
1709215320.382,-34.668,-45.410,-28.809,-40.527,0.000
1709215320.386,-39.062,-35.156,-29.297,-57.129,0.000
1709215320.390,-36.133,-33.203,-26.855,-40.527,0.000
1709215320.394,-33.203,-51.270,-29.785,-24.902,0.000
1709215320.398,-33.691,-56.641,-37.109,-29.297,0.000
1709215320.401,-40.527,-37.598,-30.273,-36.621,0.000
1709215320.405,-44.434,-37.109,-32.227,-45.410,0.000
1709215320.409,-27.344,-45.410,-39.551,-32.715,0.000
1709215320.413,-26.367,-41.016,-42.480,-23.926,0.000
1709215320.417,-33.203,-43.945,-51.270,-27.344,0.000
1709215320.421,-33.691,-40.527,-51.758,-31.738,0.000
1709215320.425,-48.828,-36.133,-33.203,-42.480,0.000
1709215320.429,-47.363,-32.227,-29.297,-39.062,0.000
1709215320.433,-30.762,-27.832,-41.016,-41.504,0.000
1709215320.437,-29.785,-39.062,-36.621,-35.645,0.000
1709215320.441,-42.969,-41.992,-28.320,-37.598,0.000
1709215320.445,-49.805,-38.574,-32.227,-55.176,0.000
1709215320.448,-43.457,-34.668,-41.016,-52.246,0.000
1709215320.452,-40.527,-41.504,-40.039,-33.691,0.000
1709215320.456,-35.156,-62.500,-37.109,-35.645,0.000
1709215320.460,-54.199,-47.852,-36.621,-58.105,0.000
1709215320.464,-70.312,-20.508,-35.156,-65.430,0.000
1709215320.468,-60.547,-27.344,-43.457,-60.547,0.000
1709215320.472,-43.457,-39.551,-41.992,-47.363,0.000
1709215320.476,-50.781,-39.551,-41.992,-45.410,0.000
1709215320.480,-63.477,-47.363,-45.410,-58.594,0.000
1709215320.484,-61.035,-49.316,-46.875,-62.500,0.000
1709215320.488,-50.781,-47.852,-50.781,-45.410,0.000
1709215320.492,-43.457,-56.641,-54.688,-42.480,0.000
1709215320.495,-44.434,-47.363,-45.898,-46.387,0.000
1709215320.499,-45.898,-25.879,-52.246,-36.133,0.000
1709215320.503,-48.340,-31.738,-48.828,-38.574,0.000
1709215320.507,-52.734,-58.594,-49.805,-49.805,0.000
1709215320.511,-25.391,-52.734,-60.547,-48.340,0.000
1709215320.515,-12.207,-28.809,-42.480,-36.621,0.000
1709215320.519,-35.645,-32.715,-35.645,-55.176,0.000
1709215320.523,-52.246,-40.039,-41.992,-68.359,0.000
1709215320.527,-53.223,-44.922,-40.039,-56.641,0.000
1709215320.531,-34.180,-53.711,-39.062,-48.340,0.000
1709215320.534,-33.691,-50.781,-47.852,-42.969,0.000
1709215320.538,-42.969,-41.016,-52.734,-46.875,0.000
1709215320.542,-39.062,-35.156,-47.852,-49.805,0.000
1709215320.546,-42.969,-38.086,-38.574,-42.480,0.000
1709215320.550,-29.297,-44.922,-39.551,-36.621,0.000
1709215320.554,-7.812,-44.922,-42.480,-25.391,0.000
1709215320.558,-24.414,-42.480,-48.340,-41.016,0.000
1709215320.562,-40.039,-42.969,-48.340,-66.895,0.000
1709215320.566,-44.434,-52.246,-41.016,-62.012,0.000
1709215320.570,-41.992,-56.152,-34.668,-47.363,0.000
1709215320.573,-30.762,-48.828,-31.250,-32.227,0.000
1709215320.577,-23.926,-45.898,-40.039,-38.086,0.000
1709215320.581,-36.621,-36.133,-34.180,-56.641,0.000
1709215320.585,-50.781,-29.297,-40.039,-64.453,0.000
1709215320.589,-32.227,-27.832,-58.594,-41.992,0.000
1709215320.593,-23.926,-27.832,-51.270,-24.902,0.000
1709215320.597,-33.691,-41.016,-51.270,-25.879,0.000
1709215320.601,-38.086,-34.180,-42.480,-40.527,0.000
1709215320.604,-44.922,-34.180,-29.297,-55.664,0.000
1709215320.608,-27.344,-49.805,-29.785,-45.410,0.000
1709215320.612,-21.484,-54.688,-39.551,-38.574,0.000
1709215320.616,-32.227,-39.062,-48.340,-41.992,0.000
1709215320.620,-48.340,-27.344,-39.062,-43.945,0.000
1709215320.624,-60.547,-38.574,-41.992,-53.223,0.000
1709215320.628,-43.945,-43.457,-53.711,-63.965,0.000
1709215320.632,-27.832,-41.016,-53.223,-40.039,0.000
1709215320.636,-34.668,-46.875,-45.898,-36.133,0.000
1709215320.640,-49.805,-58.105,-47.363,-63.965,0.000
1709215320.643,-55.664,-51.270,-52.246,-66.406,0.000
1709215320.647,-47.363,-47.363,-52.734,-65.430,0.000
1709215320.651,-31.738,-38.574,-47.852,-48.828,0.000
1709215320.655,-26.855,-37.598,-38.574,-34.180,0.000
1709215320.659,-42.480,-50.293,-41.992,-51.758,0.000
1709215320.663,-53.711,-41.504,-51.758,-61.523,0.000
1709215320.667,-50.781,-32.227,-49.805,-54.688,0.000
1709215320.670,-43.457,-41.016,-45.898,-43.457,0.000
1709215320.674,-26.855,-58.594,-39.551,-24.414,0.000
1709215320.678,-32.715,-57.129,-35.156,-12.695,0.000
1709215320.682,-50.293,-49.316,-40.527,-33.203,0.000
1709215320.686,-44.434,-52.734,-40.527,-41.992,0.000
1709215320.690,-26.367,-43.945,-39.062,-31.738,0.000
1709215320.694,-21.973,-26.367,-35.645,-26.855,0.000
1709215320.697,-30.273,-29.297,-38.086,-30.273,0.000
1709215320.701,-46.875,-49.316,-42.969,-44.922,0.000
1709215320.705,-49.805,-57.129,-43.945,-52.246,0.000
1709215320.709,-19.531,-51.758,-44.434,-45.410,0.000
1709215320.713,-10.742,-43.457,-38.086,-30.273,0.000
1709215320.717,-26.367,-36.621,-38.086,-32.715,0.000
1709215320.721,-37.109,-31.738,-49.316,-31.738,0.000
1709215320.725,-39.551,-29.785,-43.945,-28.809,0.000
1709215320.729,-20.996,-45.898,-43.945,-28.320,0.000
1709215320.733,-10.254,-49.316,-42.480,-19.043,0.000
1709215320.736,-23.438,-32.227,-24.902,-26.367,0.000
1709215320.740,-39.551,-27.344,-31.250,-49.316,0.000
1709215320.744,-53.223,-27.832,-38.086,-58.105,0.000
1709215320.748,-46.875,-34.668,-33.203,-49.316,0.000
1709215320.752,-25.391,-43.457,-29.297,-39.551,0.000
1709215320.755,-30.273,-50.781,-38.574,-45.898,0.000
1709215320.759,-41.504,-45.898,-44.434,-53.711,0.000
1709215320.763,-47.363,-41.504,-41.504,-62.012,0.000
1709215320.767,-36.621,-45.410,-42.969,-61.523,0.000
1709215320.771,-26.367,-39.062,-49.805,-41.992,0.000
1709215320.775,-33.203,-37.109,-48.340,-44.922,0.000
1709215320.779,-48.340,-40.527,-45.410,-60.547,0.000
1709215320.783,-54.199,-48.340,-41.504,-67.383,0.000
1709215320.787,-45.898,-44.922,-35.645,-62.012,0.000
1709215320.791,-36.133,-47.363,-43.457,-46.387,0.000
1709215320.795,-27.344,-54.199,-39.062,-31.738,0.000
1709215320.799,-31.738,-61.523,-35.156,-36.133,0.000
1709215320.803,-49.316,-58.594,-46.387,-46.875,0.000
1709215320.807,-43.457,-36.133,-33.691,-38.574,0.000
1709215320.810,-25.391,-29.785,-19.531,-18.555,0.000
1709215320.814,-17.578,-33.203,-26.855,-8.789,0.000
1709215320.818,-23.438,-41.016,-32.227,-25.879,0.000
1709215320.822,-47.363,-41.016,-31.250,-47.363,0.000
1709215320.826,-58.594,-43.457,-32.715,-49.805,0.000
1709215320.830,-52.734,-49.805,-42.480,-37.109,0.000
1709215320.834,-34.180,-40.039,-44.434,-27.832,0.000
1709215320.838,-24.414,-48.828,-33.203,-23.926,0.000
1709215320.842,-43.945,-48.340,-44.922,-32.715,0.000
1709215320.846,-55.664,-37.598,-59.082,-42.480,0.000
1709215320.850,-24.414,-46.875,-38.086,-25.879,0.000
1709215320.854,-19.043,-41.992,-31.738,-25.391,0.000
1709215320.858,-52.246,-35.156,-42.480,-43.945,0.000
1709215320.861,-74.219,-48.828,-40.527,-54.199,0.000
1709215320.865,-65.430,-42.969,-44.434,-55.664,0.000
1709215320.869,-49.316,-34.180,-47.852,-38.574,0.000
1709215320.873,-42.480,-42.480,-51.270,-17.090,0.000
1709215320.877,-49.316,-44.922,-45.410,-32.715,0.000
1709215320.881,-67.871,-55.664,-32.715,-66.895,0.000
1709215320.885,-66.895,-55.176,-32.227,-64.453,0.000
1709215320.889,-47.852,-63.965,-47.363,-30.762,0.000
1709215320.893,-33.203,-70.801,-55.176,-13.672,0.000
1709215320.897,-31.738,-38.086,-40.527,-34.180,0.000
1709215320.901,-53.711,-21.484,-34.180,-61.035,0.000
1709215320.904,-79.102,-36.133,-36.133,-58.594,0.000
1709215320.908,-58.594,-46.387,-34.668,-41.016,0.000
1709215320.912,-50.293,-55.664,-33.691,-34.180,0.000
1709215320.916,-45.410,-54.688,-35.156,-24.902,0.000
1709215320.920,-47.852,-42.969,-43.945,-39.551,0.000
1709215320.924,-73.730,-51.270,-50.293,-61.523,0.000
1709215320.928,-62.500,-47.363,-46.387,-50.293,0.000
1709215320.932,-35.645,-46.387,-50.293,-37.598,0.000
1709215320.936,-43.457,-60.059,-41.504,-35.645,0.000
1709215320.940,-48.828,-54.688,-38.574,-44.922,0.000
1709215320.943,-54.199,-44.922,-48.828,-59.082,0.000
1709215320.947,-57.617,-38.574,-47.363,-50.293,0.000
1709215320.951,-32.715,-37.598,-38.086,-32.715,0.000
1709215320.955,-40.039,-41.992,-30.762,-43.457,0.000
1709215320.959,-59.570,-50.781,-35.156,-61.035,0.000
1709215320.963,-62.012,-54.199,-43.457,-58.594,0.000
1709215320.967,-53.711,-39.062,-47.363,-49.316,0.000
1709215320.971,-35.645,-32.715,-41.992,-41.504,0.000
1709215320.975,-17.578,-45.410,-33.203,-25.391,0.000
1709215320.979,0.000,-58.594,-30.762,-35.645,0.000
1709215320.983,0.000,-44.922,-40.527,-56.641,0.000
1709215320.986,0.000,-31.250,-47.852,-46.387,0.000
1709215320.990,0.000,-39.551,-38.086,-27.832,0.000
1709215320.994,0.000,-41.992,-22.949,-21.973,0.000
1709215320.998,0.000,-42.480,-28.320,-29.785,0.000
1709215321.002,0.000,-36.621,-38.086,-45.898,0.000
1709215321.006,0.000,-30.762,-29.297,-43.945,0.000
1709215321.010,0.000,-26.367,-31.738,-35.645,0.000
1709215321.014,0.000,-31.250,-48.828,-41.016,0.000
1709215321.018,0.000,-47.363,-48.340,-38.086,0.000
1709215321.022,0.000,-44.922,-43.457,-48.828,0.000
1709215321.025,-76.660,-38.086,-36.621,-68.359,0.000
1709215321.029,-57.129,-36.621,-32.715,-64.941,0.000
1709215321.033,-37.598,-46.387,-32.227,-53.711,0.000
1709215321.037,-40.527,-49.805,-30.273,-51.270,0.000
1709215321.041,-54.199,-38.086,-35.645,-55.176,0.000
1709215321.045,-51.758,-35.156,-35.156,-58.105,0.000
1709215321.049,-31.738,-47.852,-35.645,-42.480,0.000
1709215321.053,-14.160,-55.176,-40.039,-23.438,0.000
1709215321.056,-18.555,-45.410,-39.551,-29.297,0.000
1709215321.060,-21.484,-34.180,-37.109,-52.246,0.000
1709215321.064,-29.297,-30.762,-38.574,-51.758,0.000
1709215321.068,-28.320,-32.715,-37.109,-30.762,0.000
1709215321.072,-20.996,-37.598,-36.621,-21.484,0.000
1709215321.076,-26.855,-40.527,-39.062,-33.691,0.000
1709215321.079,-36.133,-42.969,-38.574,-52.734,0.000
1709215321.083,-48.828,-42.969,-43.945,-66.895,0.000
1709215321.087,-40.527,-44.922,-40.039,-52.246,0.000
1709215321.091,-15.137,-41.992,-33.203,-36.133,0.000
1709215321.095,-7.324,-41.016,-48.828,-39.551,0.000
1709215321.099,-39.551,-61.035,-53.223,-47.363,0.000
1709215321.103,-64.941,-53.223,-32.715,-53.223,0.000
1709215321.107,-38.574,-31.738,-26.367,-37.109,0.000
1709215321.111,-33.203,-39.551,-31.250,-16.113,0.000
1709215321.115,-52.246,-41.016,-34.668,-28.320,0.000
1709215321.118,-50.781,-33.203,-36.621,-53.711,0.000
1709215321.122,-53.223,-45.410,-37.598,-55.176,0.000
1709215321.126,-41.016,-66.406,-37.598,-31.250,0.000
1709215321.130,-23.926,-66.406,-41.016,-22.949,0.000
1709215321.134,-19.043,-35.156,-41.504,-46.387,0.000
1709215321.138,-37.598,-29.785,-37.109,-56.641,0.000
1709215321.141,-69.336,-41.504,-39.062,-49.805,0.000
1709215321.145,-50.781,-41.504,-48.340,-46.875,0.000
1709215321.149,-26.855,-44.434,-49.316,-37.598,0.000
1709215321.153,-20.508,-42.480,-42.480,-31.738,0.000
1709215321.157,-37.109,-44.922,-38.574,-24.902,0.000
1709215321.161,-59.082,-42.969,-36.621,-37.598,0.000
1709215321.164,-48.828,-41.016,-45.410,-39.551,0.000
1709215321.168,-25.391,-53.711,-55.176,-20.020,0.000
1709215321.172,-13.672,-51.270,-49.805,-25.391,0.000
1709215321.176,-33.203,-48.828,-44.434,-44.434,0.000
1709215321.180,-44.922,-48.340,-41.016,-53.711,0.000
1709215321.184,-41.016,-36.621,-41.992,-39.062,0.000
1709215321.188,-29.785,-34.180,-49.805,-27.832,0.000
1709215321.192,-24.902,-37.109,-44.922,-19.531,0.000
1709215321.196,-37.109,-40.527,-49.805,-26.367,0.000
1709215321.200,-52.246,-41.016,-51.270,-47.363,0.000
1709215321.203,-60.547,-45.898,-42.480,-49.805,0.000
1709215321.207,-38.086,-61.035,-30.273,-41.016,0.000
1709215321.212,-34.668,-64.941,-32.715,-36.621,0.000
1709215321.216,-56.641,-47.852,-41.992,-42.480,0.000
1709215321.220,-60.059,-40.039,-41.992,-59.570,0.000
1709215321.224,-71.289,-45.410,-41.992,-66.406,0.000
1709215321.228,-54.688,-41.992,-45.410,-54.199,0.000
1709215321.232,-28.809,-34.180,-41.992,-43.457,0.000
1709215321.236,-36.621,-47.363,-43.457,-53.711,0.000
1709215321.240,-39.551,-55.176,-41.504,-62.500,0.000
1709215321.244,-38.086,-48.828,-41.016,-48.340,0.000
1709215321.248,-25.879,-39.551,-41.504,-28.320,0.000
1709215321.252,-21.484,-37.598,-41.504,-25.391,0.000
1709215321.255,-30.762,-50.293,-54.199,-35.645,0.000
1709215321.260,0.000,-66.895,-55.176,-40.527,0.000
1709215321.263,0.000,-66.895,-45.898,-47.363,0.000
1709215321.267,0.000,-39.062,-47.363,-41.016,0.000
1709215321.271,0.000,-28.809,-43.457,-34.180,0.000
1709215321.275,0.000,-32.227,-40.527,-32.227,0.000
1709215321.279,0.000,-31.250,-43.945,-33.691,0.000
1709215321.283,0.000,-42.969,-39.062,-39.062,0.000
1709215321.287,0.000,-40.527,-36.621,-37.598,0.000
1709215321.291,0.000,-34.180,-37.598,-21.973,0.000
1709215321.295,0.000,-37.598,-49.316,-21.484,0.000
1709215321.299,0.000,-35.645,-47.852,-41.504,0.000
1709215321.302,0.000,-33.203,-38.574,-58.105,0.000
1709215321.304,-29.297,-41.504,-43.457,-44.434,0.000
1709215321.308,-41.504,-52.734,-44.434,-26.855,0.000
1709215321.311,-52.246,-43.457,-39.062,-36.621,0.000
1709215321.315,-18.555,-44.922,-37.598,-48.340,0.000
1709215321.319,-9.766,-44.434,-38.086,-60.059,0.000
1709215321.323,-42.480,-48.340,-42.969,-52.734,0.000
1709215321.327,-44.434,-52.734,-47.363,-36.621,0.000
1709215321.331,-34.180,-31.738,-42.969,-21.973,0.000
1709215321.335,-29.297,-33.691,-45.898,-28.320,0.000
1709215321.339,-40.039,-39.551,-54.199,-52.246,0.000
1709215321.343,-44.434,-38.574,-41.504,-52.734,0.000
1709215321.347,-46.387,-48.340,-27.832,-40.527,0.000
1709215321.351,-29.785,-47.363,-36.133,-37.109,0.000
1709215321.354,-47.852,-39.551,-36.621,-53.223,0.000
1709215321.358,-56.641,-53.223,-30.762,-66.895,0.000
1709215321.362,-57.129,-53.711,-44.922,-59.570,0.000
1709215321.366,-44.922,-36.621,-44.922,-38.086,0.000
1709215321.370,-29.785,-42.480,-43.945,-34.668,0.000
1709215321.374,-42.969,-39.551,-39.062,-37.109,0.000
1709215321.378,-46.387,-27.344,-37.109,-42.969,0.000
1709215321.382,-45.410,-37.598,-46.387,-59.570,0.000
1709215321.386,-25.879,-53.711,-41.992,-55.664,0.000
1709215321.390,-5.859,-59.082,-35.645,-32.227,0.000
1709215321.394,-28.320,-47.363,-34.668,-25.879,0.000
1709215321.397,-48.340,-27.832,-34.180,-44.922,0.000
1709215321.401,-55.176,-21.973,-36.621,-53.711,0.000
1709215321.405,-40.527,-30.762,-40.527,-39.062,0.000
1709215321.409,-18.066,-37.109,-40.039,-23.438,0.000
1709215321.413,-19.531,-41.016,-38.086,-29.297,0.000
1709215321.417,-30.273,-27.832,-30.762,-48.828,0.000
1709215321.421,-52.246,-34.180,-35.645,-62.012,0.000
1709215321.425,-49.805,-53.711,-50.781,-47.363,0.000
1709215321.429,-29.785,-50.293,-49.316,-25.391,0.000
1709215321.432,-33.691,-55.176,-32.715,-23.438,0.000
1709215321.436,-39.062,-45.410,-25.391,-54.199,0.000
1709215321.440,-54.199,-40.527,-26.367,-68.359,0.000
1709215321.444,-55.176,-46.875,-23.926,-42.480,0.000
1709215321.448,-26.855,-42.969,-33.691,-24.414,0.000
1709215321.452,-20.996,-44.434,-40.039,-30.273,0.000
1709215321.456,-43.457,-31.250,-26.855,-42.969,0.000
1709215321.460,-56.641,-28.320,-28.320,-47.363,0.000
1709215321.464,-44.922,-35.156,-34.668,-45.898,0.000
1709215321.467,-27.344,-42.480,-27.832,-23.926,0.000
1709215321.471,-25.391,-47.852,-32.227,-14.648,0.000
1709215321.475,-26.855,-43.945,-39.062,-36.133,0.000
1709215321.479,-38.574,-39.062,-38.086,-54.199,0.000
1709215321.483,-43.945,-35.156,-40.527,-59.570,0.000
1709215321.487,-34.668,-34.668,-37.598,-41.504,0.000
1709215321.491,-30.273,-30.762,-34.668,-28.320,0.000
1709215321.494,-32.715,-25.879,-42.969,-35.156,0.000
1709215321.498,-40.527,-33.691,-47.852,-44.434,0.000
1709215321.502,-31.250,-64.453,-36.621,-44.922,0.000
1709215321.506,-27.344,-54.688,-37.109,-31.738,0.000
1709215321.510,-26.855,-35.645,-45.898,-31.250,0.000
1709215321.514,-35.645,-50.781,-42.480,-28.809,0.000
1709215321.518,-45.410,-47.363,-36.133,-28.320,0.000
1709215321.522,-31.738,-39.062,-39.551,-44.922,0.000
1709215321.526,-42.480,-49.805,-41.016,-35.645,0.000
1709215321.530,-46.387,-42.969,-40.039,-23.926,0.000
1709215321.534,-42.969,-25.391,-41.992,-44.434,0.000
1709215321.537,-62.012,-33.691,-44.434,-67.383,0.000
1709215321.541,-61.035,-44.434,-53.223,-58.594,0.000
1709215321.545,-43.457,-52.246,-52.246,-30.762,0.000
1709215321.549,-35.645,-60.547,-37.598,-26.367,0.000
1709215321.553,-45.898,-45.410,-39.062,-36.621,0.000
1709215321.557,-62.988,-32.227,-36.133,-44.922,0.000
1709215321.560,-57.617,-45.410,-34.180,-52.246,0.000
1709215321.564,-56.152,-41.504,-36.621,-32.227,0.000
1709215321.568,-59.570,-32.227,-44.922,-22.461,0.000
1709215321.572,-54.199,-40.039,-50.781,-35.156,0.000
1709215321.576,-52.246,-34.668,-43.457,-44.922,0.000
1709215321.580,-58.105,-36.621,-41.016,-46.875,0.000
1709215321.584,-41.504,-40.039,-39.062,-29.785,0.000
1709215321.588,-31.250,-38.086,-41.016,-28.809,0.000
1709215321.592,-39.062,-37.598,-46.387,-39.062,0.000
1709215321.596,-31.250,-26.855,-45.410,-49.316,0.000
1709215321.600,-34.180,-36.133,-44.922,-53.711,0.000
1709215321.604,-36.133,-35.645,-43.945,-27.344,0.000
1709215321.608,-17.090,-37.109,-43.945,-17.578,0.000
1709215321.612,-8.301,-52.246,-44.434,-34.180,0.000
1709215321.616,-34.668,-37.109,-45.410,-49.316,0.000
1709215321.619,-54.688,-26.367,-52.734,-55.176,0.000
1709215321.623,-42.969,-37.109,-54.199,-47.363,0.000
1709215321.627,-24.414,-32.227,-45.898,-36.133,0.000
1709215321.631,0.000,-32.227,-40.039,-35.156,0.000
1709215321.635,-15.625,-37.598,-42.969,-48.828,0.000
1709215321.639,-50.781,-27.344,-37.598,-58.594,0.000
1709215321.643,-41.504,-27.832,-42.480,-41.016,0.000
1709215321.647,-33.203,-42.480,-55.176,-24.902,0.000
1709215321.651,-39.551,-52.734,-45.410,-28.809,0.000
1709215321.655,-49.316,-51.758,-38.574,-36.621,0.000
1709215321.659,-57.129,-45.898,-33.203,-46.387,0.000
1709215321.663,-59.082,-43.457,-36.621,-42.480,0.000
1709215321.667,-38.574,-40.039,-45.410,-25.879,0.000
1709215321.671,-32.715,-40.039,-41.504,-26.367,0.000
1709215321.674,-62.988,-43.945,-46.875,-49.805,0.000
1709215321.679,-64.453,-48.340,-46.387,-60.059,0.000
1709215321.682,-57.617,-68.848,-34.180,-44.434,0.000
1709215321.686,-58.105,-65.918,-37.109,-28.320,0.000
1709215321.690,-53.223,-39.551,-39.551,-27.832,0.000
1709215321.694,-45.410,-32.715,-41.504,-41.992,0.000
1709215321.698,-50.293,-37.598,-44.922,-62.012,0.000
1709215321.702,-52.734,-45.898,-38.086,-68.359,0.000
1709215321.706,-25.391,-48.828,-33.691,-35.645,0.000
1709215321.710,-24.414,-43.457,-32.227,-7.324,0.000
1709215321.714,-40.039,-41.992,-36.133,-30.762,0.000
1709215321.718,-41.016,-46.875,-38.574,-50.781,0.000
1709215321.721,-36.133,-36.621,-46.387,-45.410,0.000
1709215321.725,-36.133,-41.504,-47.363,-32.715,0.000
1709215321.729,-30.762,-57.129,-34.180,-23.438,0.000
1709215321.733,-24.902,-53.223,-40.039,-31.738,0.000
1709215321.737,-48.828,-39.551,-51.758,-36.133,0.000
1709215321.741,-54.199,-40.527,-40.527,-41.992,0.000
1709215321.745,-28.809,-42.480,-27.344,-40.527,0.000
1709215321.749,-42.480,-35.645,-37.598,-35.156,0.000
1709215321.753,-50.293,-44.922,-43.945,-40.527,0.000
1709215321.757,-39.062,-43.945,-34.668,-45.410,0.000
1709215321.761,-49.316,-37.109,-27.344,-56.641,0.000
1709215321.765,-37.109,-47.852,-32.227,-41.504,0.000
1709215321.768,-27.344,-58.105,-46.387,-14.648,0.000
1709215321.772,-25.391,-41.016,-43.457,-16.602,0.000
1709215321.776,-29.297,-35.645,-38.086,-41.504,0.000
1709215321.780,-50.293,-48.340,-44.922,-56.641,0.000
1709215321.784,-52.734,-41.504,-34.180,-47.852,0.000
1709215321.788,-35.156,-39.551,-30.273,-37.598,0.000
1709215321.792,-25.391,-50.781,-37.109,-45.898,0.000
1709215321.796,-41.992,-50.293,-28.809,-46.875,0.000
1709215321.800,-68.359,-48.828,-29.297,-38.574,0.000
1709215321.803,-52.246,-48.828,-40.527,-44.434,0.000
1709215321.807,-36.133,-41.504,-42.969,-41.504,0.000
1709215321.811,-34.668,-39.062,-38.086,-25.879,0.000
1709215321.815,-45.410,-42.480,-32.715,-33.203,0.000
1709215321.819,-48.828,-49.316,-38.086,-47.363,0.000
1709215321.823,-23.926,-57.617,-42.969,-38.086,0.000
1709215321.827,-18.555,-59.570,-45.898,-28.809,0.000
1709215321.831,-30.762,-40.527,-43.457,-43.457,0.000
1709215321.834,-52.734,-33.691,-36.133,-62.988,0.000
1709215321.838,-62.012,-46.387,-35.645,-75.684,0.000
1709215321.842,-52.246,-56.641,-32.227,-48.340,0.000
1709215321.846,-43.945,-49.316,-43.457,-25.391,0.000
1709215321.850,-46.875,-37.598,-47.852,-34.180,0.000
1709215321.854,-46.387,-32.715,-30.762,-34.180,0.000
1709215321.858,-48.340,-38.086,-31.738,-44.922,0.000
1709215321.862,-52.734,-49.805,-37.598,-53.223,0.000
1709215321.865,-42.969,-47.852,-41.504,-52.734,0.000
1709215321.869,-26.367,-44.434,-40.039,-50.293,0.000
1709215321.873,-24.902,-46.387,-38.574,-46.875,0.000
1709215321.877,-58.594,-41.504,-38.086,-59.082,0.000
1709215321.881,-70.312,-41.016,-41.504,-59.570,0.000
1709215321.885,-55.664,-46.387,-48.340,-42.480,0.000
1709215321.889,-40.527,-45.898,-47.363,-23.438,0.000
1709215321.893,-26.855,-45.898,-43.945,-29.785,0.000
1709215321.897,-42.969,-48.828,-46.387,-53.223,0.000
1709215321.901,-52.246,-59.082,-41.992,-48.340,0.000
1709215321.904,-34.668,-50.293,-37.109,-32.715,0.000
1709215321.908,-23.438,-45.898,-44.922,-38.574,0.000
1709215321.912,-21.484,-43.945,-49.316,-49.805,0.000
1709215321.916,-28.809,-35.156,-48.340,-58.105,0.000
1709215321.920,-39.062,-45.410,-45.898,-58.105,0.000
1709215321.924,-24.414,-40.527,-48.340,-42.480,0.000
1709215321.927,-22.461,-38.574,-48.340,-30.762,0.000
1709215321.931,-18.066,-46.387,-34.668,-29.297,0.000
1709215321.935,-28.320,-35.156,-34.668,-41.992,0.000
1709215321.939,-36.621,-26.367,-38.574,-41.504,0.000
1709215321.943,-24.902,-30.762,-42.480,-27.344,0.000
1709215321.947,-12.695,-36.133,-44.922,-26.855,0.000
1709215321.951,-17.090,-35.645,-38.574,-32.227,0.000
1709215321.955,-55.664,-25.879,-40.527,-48.340,0.000
1709215321.959,-45.410,-36.133,-33.691,-40.527,0.000
1709215321.963,-28.809,-56.152,-33.691,-23.438,0.000
1709215321.967,-31.738,-49.805,-31.250,-27.344,0.000
1709215321.971,-37.109,-41.504,-26.367,-48.340,0.000
1709215321.975,-53.223,-50.293,-28.809,-60.547,0.000
1709215321.979,-45.898,-48.340,-36.621,-61.523,0.000
1709215321.983,-46.387,-44.922,-43.457,-61.035,0.000
1709215321.986,-32.227,-57.129,-33.691,-37.598,0.000
1709215321.990,-15.625,-47.852,-26.855,-23.926,0.000
1709215321.994,-36.133,-24.414,-34.668,-36.621,0.000
1709215321.998,-51.270,-25.391,-43.945,-58.105,0.000
1709215322.002,-46.387,-40.039,-44.922,-58.594,0.000
1709215322.006,0.000,-41.992,-45.410,-46.875,0.000
1709215322.010,0.000,-45.410,-45.410,-41.504,0.000
1709215322.014,0.000,-49.316,-42.480,-45.898,0.000
1709215322.018,0.000,-49.805,-46.387,-52.734,0.000
1709215322.022,0.000,-56.152,-48.828,-39.551,0.000
1709215322.026,0.000,-52.734,-57.129,-35.645,0.000
1709215322.030,0.000,-40.039,-44.922,-34.668,0.000
1709215322.034,0.000,-40.039,-34.668,-37.109,0.000
1709215322.038,0.000,-50.293,-39.551,-47.363,0.000
1709215322.042,0.000,-52.734,-38.086,-48.340,0.000
1709215322.045,0.000,-39.551,-34.668,-29.297,0.000
1709215322.049,0.000,-37.598,-32.715,-20.996,0.000
1709215322.053,-24.414,-47.852,-28.320,-38.574,0.000
1709215322.057,-42.480,-47.852,-38.086,-49.805,0.000
1709215322.061,-22.949,-50.293,-43.945,-54.199,0.000
1709215322.065,-9.766,-58.105,-37.109,-31.738,0.000
1709215322.069,-22.949,-57.617,-33.691,-17.578,0.000
1709215322.073,-31.738,-49.316,-33.691,-26.367,0.000
1709215322.077,-40.039,-34.180,-38.086,-37.109,0.000
1709215322.081,-37.598,-41.016,-38.574,-37.598,0.000
1709215322.085,-25.879,-44.922,-31.738,-21.484,0.000
1709215322.089,-17.090,-39.551,-28.809,-23.438,0.000
1709215322.093,-18.066,-45.898,-35.645,-32.227,0.000
1709215322.096,-28.320,-40.039,-37.109,-47.363,0.000
1709215322.100,-56.152,-32.715,-39.551,-57.617,0.000
1709215322.104,-53.223,-32.715,-46.875,-41.992,0.000
1709215322.108,-23.926,-43.945,-47.363,-29.297,0.000
1709215322.112,-25.391,-41.016,-43.945,-35.156,0.000
1709215322.116,-39.062,-35.645,-40.527,-45.410,0.000
1709215322.120,-41.504,-42.480,-43.945,-46.387,0.000
1709215322.124,-33.691,-45.898,-45.898,-50.781,0.000
1709215322.128,-27.344,-38.086,-35.156,-39.062,0.000
1709215322.132,-27.344,-41.504,-32.715,-23.926,0.000
1709215322.136,-43.457,-37.109,-44.922,-41.992,0.000
1709215322.139,-48.340,-29.785,-42.969,-51.270,0.000
1709215322.143,-22.949,-40.039,-37.598,-39.062,0.000
1709215322.147,-22.949,-41.016,-33.691,-32.715,0.000
1709215322.151,-29.785,-37.109,-30.762,-31.250,0.000
1709215322.155,-30.762,-42.480,-39.551,-43.945,0.000
1709215322.159,-32.715,-41.504,-41.016,-52.246,0.000
1709215322.163,-37.598,-48.828,-48.828,-41.504,0.000
1709215322.167,-47.363,-55.664,-51.758,-44.434,0.000
1709215322.171,-40.527,-53.223,-41.504,-43.457,0.000
1709215322.175,-46.387,-52.734,-36.133,-34.180,0.000
1709215322.178,-66.406,-47.363,-39.551,-47.363,0.000
1709215322.182,-63.477,-40.527,-47.363,-47.363,0.000
1709215322.186,-31.738,-39.551,-45.898,-36.621,0.000
1709215322.190,-36.133,-48.828,-38.086,-37.598,0.000
1709215322.194,-57.129,-45.898,-35.645,-27.832,0.000
1709215322.198,-55.176,-38.574,-40.039,-31.250,0.000
1709215322.202,-49.805,-40.527,-49.805,-45.410,0.000
1709215322.206,-48.828,-41.992,-47.363,-47.363,0.000
1709215322.209,-50.293,-41.016,-42.969,-49.805,0.000
1709215322.213,-42.480,-54.688,-42.969,-51.270,0.000
1709215322.217,-49.316,-51.270,-41.016,-59.570,0.000
1709215322.221,-52.246,-49.316,-37.598,-51.758,0.000
1709215322.225,-40.039,-48.828,-39.062,-40.527,0.000
1709215322.229,-40.039,-24.414,-45.410,-31.738,0.000
1709215322.233,-42.969,-22.461,-35.645,-28.809,0.000
1709215322.237,-57.129,-34.668,-36.133,-51.270,0.000
1709215322.240,-52.246,-41.992,-33.203,-57.617,0.000
1709215322.244,-29.297,-36.621,-23.438,-44.922,0.000
1709215322.248,-28.809,-27.832,-29.785,-39.551,0.000
1709215322.252,-44.922,-38.574,-34.668,-49.805,0.000
1709215322.256,-70.801,-41.504,-28.320,-63.477,0.000
1709215322.260,-80.078,-33.691,-25.879,-66.895,0.000
1709215322.264,-67.383,-31.250,-36.133,-48.828,0.000
1709215322.268,-52.734,-40.039,-45.898,-25.391,0.000
1709215322.272,-44.434,-47.852,-37.598,-31.250,0.000
1709215322.276,-43.945,-46.387,-34.668,-55.664,0.000
1709215322.279,-59.570,-37.109,-37.109,-59.082,0.000
1709215322.283,-57.129,-31.250,-37.598,-45.410,0.000
1709215322.287,-29.297,-33.691,-40.527,-27.344,0.000
1709215322.291,-28.809,-41.504,-36.621,-20.020,0.000
1709215322.295,-33.691,-47.363,-34.668,-35.645,0.000
1709215322.299,-42.969,-34.668,-35.645,-40.039,0.000
1709215322.303,-47.852,-33.691,-41.016,-39.551,0.000
1709215322.306,-31.738,-42.480,-42.969,-35.645,0.000
1709215322.310,-22.461,-35.645,-35.156,-31.738,0.000
1709215322.314,-38.086,-27.832,-36.621,-39.062,0.000
1709215322.318,-37.109,-34.668,-34.668,-53.223,0.000
1709215322.322,-29.785,-40.039,-36.621,-51.270,0.000
1709215322.326,-3.906,-34.668,-36.621,-32.715,0.000
1709215322.330,-4.395,-36.621,-38.574,-27.832,0.000
1709215322.334,-45.898,-34.668,-49.316,-33.203,0.000
1709215322.338,-44.922,-30.762,-44.922,-33.691,0.000
1709215322.342,-37.109,-29.297,-35.645,-46.387,0.000
1709215322.346,-28.809,-23.438,-36.621,-56.641,0.000
1709215322.350,-19.043,-37.109,-44.922,-42.480,0.000
1709215322.354,-27.832,-40.039,-48.828,-53.711,0.000
1709215322.358,-40.527,-38.574,-45.898,-77.637,0.000
1709215322.362,-37.109,-60.547,-40.039,-58.594,0.000
1709215322.365,-30.762,-49.805,-41.992,-31.738,0.000
1709215322.369,-23.438,-28.320,-46.387,-31.250,0.000
1709215322.373,-33.203,-31.250,-38.574,-42.969,0.000
1709215322.377,-53.223,-40.039,-22.461,-50.293,0.000
1709215322.381,-57.129,-53.223,-24.902,-42.480,0.000
1709215322.385,-50.293,-51.270,-35.645,-27.832,0.000
1709215322.389,-40.039,-36.621,-44.922,-32.227,0.000
1709215322.393,-44.434,-37.109,-38.574,-43.945,0.000
1709215322.397,-56.152,-48.828,-27.832,-49.805,0.000
1709215322.401,-54.688,-47.852,-32.715,-47.852,0.000
1709215322.405,-42.969,-44.922,-37.598,-34.668,0.000
1709215322.409,-33.203,-47.363,-37.109,-20.996,0.000
1709215322.413,-27.832,-41.504,-35.645,-24.414,0.000
1709215322.417,-53.223,-36.621,-38.086,-35.645,0.000
1709215322.420,-54.199,-43.457,-37.109,-26.855,0.000
1709215322.424,-26.367,-45.410,-38.574,-13.672,0.000
1709215322.428,-13.184,-39.551,-39.062,-18.066,0.000
1709215322.432,-20.020,-35.156,-44.922,-35.156,0.000
1709215322.436,-28.809,-39.062,-36.133,-58.105,0.000
1709215322.440,-36.621,-38.086,-29.785,-70.801,0.000
1709215322.444,-36.133,-38.086,-37.109,-50.293,0.000
1709215322.448,-20.996,-47.363,-37.598,-26.855,0.000
1709215322.452,-17.578,-48.828,-39.551,-34.180,0.000
1709215322.456,-25.391,-31.250,-35.645,-42.969,0.000
1709215322.460,-44.922,-31.250,-37.109,-43.945,0.000
1709215322.464,-44.434,-33.691,-44.434,-41.504,0.000
1709215322.468,-24.902,-34.180,-45.410,-23.926,0.000
1709215322.471,-18.066,-31.250,-37.598,-11.719,0.000
1709215322.475,-38.574,-41.016,-31.738,-25.391,0.000
1709215322.479,-60.059,-54.199,-41.992,-51.758,0.000
1709215322.483,-48.340,-41.992,-41.992,-53.223,0.000
1709215322.487,-33.203,-35.156,-46.875,-38.086,0.000
1709215322.491,-49.805,-38.574,-50.781,-37.109,0.000
1709215322.495,-65.430,-54.688,-39.062,-43.945,0.000
1709215322.499,-62.500,-45.898,-35.645,-51.758,0.000
1709215322.503,-42.969,-30.762,-28.809,-36.133,0.000
1709215322.507,-36.621,-41.016,-34.668,-20.996,0.000
1709215322.510,-43.945,-55.176,-47.852,-38.086,0.000
1709215322.514,-45.410,-52.734,-39.551,-48.828,0.000
1709215322.518,-64.941,-46.875,-32.715,-51.758,0.000
1709215322.522,-65.430,-47.852,-35.645,-46.387,0.000
1709215322.526,-36.133,-32.227,-36.621,-33.203,0.000
1709215322.530,-20.020,-23.438,-35.156,-22.949,0.000
1709215322.534,-34.180,-27.344,-37.598,-33.203,0.000
1709215322.538,-46.875,-37.598,-34.668,-44.434,0.000
1709215322.542,-41.504,-40.039,-33.203,-44.922,0.000
1709215322.546,-11.230,-35.156,-43.945,-42.969,0.000
1709215322.550,-11.719,-34.180,-50.781,-25.391,0.000
1709215322.553,-34.668,-45.898,-46.875,-32.227,0.000
1709215322.557,-48.828,-48.340,-39.551,-46.387,0.000
1709215322.561,-45.898,-40.527,-39.551,-38.574,0.000
1709215322.565,-39.551,-40.527,-45.410,-32.227,0.000
1709215322.569,-32.715,-35.156,-38.086,-37.598,0.000
1709215322.573,-19.043,-36.621,-32.227,-41.504,0.000
1709215322.577,-33.203,-40.039,-38.574,-55.176,0.000
1709215322.581,-42.480,-41.504,-29.785,-50.781,0.000
1709215322.584,-26.367,-40.527,-33.203,-30.762,0.000
1709215322.588,-30.273,-38.574,-53.711,-37.109,0.000
1709215322.592,-29.785,-43.945,-44.922,-31.250,0.000
1709215322.596,-22.461,-47.363,-40.039,-34.180,0.000
1709215322.600,-41.016,-46.387,-36.133,-38.574,0.000
1709215322.604,-29.785,-40.039,-31.738,-28.320,0.000
1709215322.608,-14.648,-43.457,-42.969,-30.762,0.000
1709215322.612,-20.020,-44.922,-38.574,-34.180,0.000
