timestamps,TP9,AF7,AF8,TP10,Right AUX
1709215166.335,0.000,-48.828,-35.156,-34.180,0.000
1709215166.339,0.000,-31.738,-39.062,-33.691,0.000
1709215166.342,0.000,-24.414,-36.621,-43.457,0.000
1709215166.346,0.000,-45.898,-39.062,-46.387,0.000
1709215166.350,0.000,-42.480,-47.363,-46.387,0.000
1709215166.354,0.000,-37.109,-44.434,-38.086,0.000
1709215166.358,0.000,-48.340,-41.504,-38.574,0.000
1709215166.362,0.000,-51.270,-47.363,-47.363,0.000
1709215166.366,0.000,-53.711,-42.969,-37.598,0.000
1709215166.370,0.000,-58.594,-39.551,-31.250,0.000
1709215166.374,0.000,-41.504,-36.621,-33.203,0.000
1709215166.378,0.000,-26.367,-44.434,-35.645,0.000
1709215166.382,-51.758,-34.668,-45.898,-38.574,0.000
1709215166.386,-66.406,-42.969,-41.016,-51.758,0.000
1709215166.389,-76.172,-53.223,-44.922,-66.895,0.000
1709215166.393,-62.500,-52.246,-39.062,-57.617,0.000
1709215166.397,-44.434,-45.898,-42.480,-49.316,0.000
1709215166.401,-56.641,-51.758,-47.852,-62.012,0.000
1709215166.405,-73.242,-58.105,-38.086,-69.336,0.000
1709215166.409,-67.871,-51.270,-34.180,-60.547,0.000
1709215166.413,-45.410,-40.039,-33.691,-32.227,0.000
1709215166.417,-40.039,-28.809,-36.133,-28.809,0.000
1709215166.421,-58.594,-33.691,-37.109,-47.363,0.000
1709215166.425,-71.777,-45.410,-34.180,-52.734,0.000
1709215166.429,-71.777,-44.922,-38.086,-57.129,0.000
1709215166.432,-49.316,-37.598,-40.039,-50.293,0.000
1709215166.436,-35.645,-41.992,-36.621,-35.156,0.000
1709215166.440,-38.574,-43.945,-37.109,-32.227,0.000
1709215166.444,-47.363,-43.457,-36.133,-37.598,0.000
1709215166.448,-58.105,-45.898,-41.504,-43.945,0.000
1709215166.452,-53.223,-51.758,-42.480,-41.992,0.000
1709215166.456,-44.434,-48.828,-40.527,-35.645,0.000
1709215166.460,-44.922,-36.133,-48.340,-34.668,0.000
1709215166.464,-46.387,-33.691,-46.875,-48.828,0.000
1709215166.468,-53.223,-40.039,-41.504,-46.875,0.000
1709215166.471,-43.457,-48.340,-35.645,-33.691,0.000
1709215166.475,-26.367,-51.270,-35.645,-29.785,0.000
1709215166.479,-21.973,-36.621,-34.668,-27.344,0.000
1709215166.483,-39.062,-37.598,-35.156,-40.039,0.000
1709215166.487,-46.387,-47.363,-39.551,-48.828,0.000
1709215166.491,-31.738,-44.922,-35.156,-31.250,0.000
1709215166.495,-11.230,-44.922,-29.785,-8.789,0.000
1709215166.499,-0.977,-34.180,-27.344,-6.836,0.000
1709215166.503,-15.625,-30.273,-26.855,-15.137,0.000
1709215166.507,-27.832,-32.715,-30.273,-25.391,0.000
1709215166.510,-24.902,-38.086,-26.367,-22.461,0.000
1709215166.514,-25.391,-45.410,-29.297,-17.090,0.000
1709215166.518,-29.297,-43.945,-39.062,-26.855,0.000
1709215166.522,-41.992,-42.480,-37.598,-29.785,0.000
1709215166.526,-52.246,-42.480,-32.227,-33.691,0.000
1709215166.530,-57.129,-44.922,-37.598,-39.551,0.000
1709215166.534,-48.340,-44.922,-44.434,-36.133,0.000
1709215166.538,-39.062,-42.480,-44.434,-36.621,0.000
1709215166.542,-53.223,-40.527,-42.480,-45.898,0.000
1709215166.546,-68.359,-42.969,-47.852,-50.293,0.000
1709215166.549,-72.266,-49.316,-45.410,-49.805,0.000
1709215166.553,-59.082,-46.875,-38.086,-40.039,0.000
1709215166.557,-51.270,-51.758,-47.363,-41.016,0.000
1709215166.561,-54.199,-51.270,-41.992,-39.551,0.000
1709215166.565,-60.059,-46.387,-35.645,-42.969,0.000
1709215166.569,-58.105,-48.828,-43.457,-46.875,0.000
1709215166.573,-43.945,-38.574,-41.992,-31.738,0.000
1709215166.577,-36.133,-36.133,-44.434,-25.391,0.000
1709215166.580,-36.621,-42.480,-42.969,-35.156,0.000
1709215166.584,-45.898,-41.504,-39.062,-43.945,0.000
1709215166.588,-51.270,-42.480,-46.875,-44.922,0.000
1709215166.592,-43.457,-51.270,-44.922,-27.344,0.000
1709215166.596,-28.320,-43.457,-39.551,-21.973,0.000
1709215166.600,-26.855,-42.480,-43.457,-35.645,0.000
1709215166.604,-38.574,-60.547,-40.527,-45.410,0.000
1709215166.608,-49.805,-60.059,-40.039,-52.734,0.000
1709215166.612,-42.480,-44.922,-39.551,-41.504,0.000
1709215166.615,-23.438,-38.574,-35.645,-31.250,0.000
1709215166.619,-26.367,-42.480,-40.039,-42.969,0.000
1709215166.623,-43.945,-53.711,-40.527,-49.805,0.000
1709215166.627,-56.152,-56.641,-44.434,-52.246,0.000
1709215166.631,-42.480,-54.688,-41.504,-39.062,0.000
1709215166.635,-26.367,-52.734,-34.668,-24.414,0.000
1709215166.639,-34.668,-50.781,-42.969,-32.715,0.000
1709215166.643,-39.551,-49.805,-49.805,-44.922,0.000
1709215166.647,-39.062,-53.223,-47.363,-44.434,0.000
1709215166.650,-31.738,-51.270,-35.156,-31.250,0.000
1709215166.654,-28.809,-39.551,-32.715,-25.391,0.000
1709215166.658,-29.785,-33.203,-43.945,-32.715,0.000
1709215166.663,0.000,-27.832,-37.109,-43.457,0.000
1709215166.666,0.000,-37.109,-33.203,-48.828,0.000
1709215166.670,0.000,-42.480,-41.504,-41.992,0.000
1709215166.674,0.000,-43.457,-39.551,-34.180,0.000
1709215166.678,0.000,-49.316,-34.668,-31.738,0.000
1709215166.682,0.000,-41.504,-38.574,-44.434,0.000
1709215166.686,0.000,-41.016,-41.504,-55.664,0.000
1709215166.690,0.000,-50.781,-35.645,-52.246,0.000
1709215166.694,0.000,-47.852,-40.039,-41.992,0.000
1709215166.698,0.000,-42.480,-41.016,-29.785,0.000
1709215166.702,0.000,-35.645,-36.133,-40.039,0.000
1709215166.705,0.000,-39.551,-37.598,-56.152,0.000
1709215166.710,-50.293,-52.246,-39.551,-53.711,0.000
1709215166.714,-29.297,-51.270,-41.504,-40.527,0.000
1709215166.717,-29.785,-52.246,-45.898,-42.969,0.000
1709215166.721,-31.738,-49.316,-44.434,-45.898,0.000
1709215166.725,-41.016,-47.363,-41.504,-50.293,0.000
1709215166.729,-55.176,-62.500,-53.711,-57.129,0.000
1709215166.733,-46.387,-58.594,-54.199,-46.875,0.000
1709215166.737,-32.227,-39.062,-41.504,-40.527,0.000
1709215166.741,-39.062,-36.621,-47.852,-48.340,0.000
1709215166.745,-55.176,-39.551,-54.688,-52.734,0.000
1709215166.749,-45.898,-39.062,-46.387,-53.223,0.000
1709215166.753,-30.762,-38.086,-45.410,-38.574,0.000
1709215166.757,-28.809,-34.180,-60.547,-31.250,0.000
1709215166.761,-29.785,-41.016,-55.664,-35.645,0.000
1709215166.764,-36.621,-43.945,-37.598,-36.133,0.000
1709215166.768,-38.086,-35.156,-35.156,-38.086,0.000
1709215166.772,-23.438,-34.668,-28.809,-20.996,0.000
1709215166.776,-10.742,-44.922,-29.785,-9.277,0.000
1709215166.780,-12.695,-38.086,-36.621,-22.461,0.000
1709215166.784,-31.738,-29.785,-37.109,-34.668,0.000
1709215166.788,-37.598,-32.715,-34.180,-22.461,0.000
1709215166.792,-32.715,-29.297,-36.621,-22.461,0.000
1709215166.796,-32.715,-36.621,-46.875,-31.250,0.000
1709215166.800,-40.039,-44.922,-48.828,-32.227,0.000
1709215166.804,-45.898,-41.504,-40.039,-41.016,0.000
1709215166.807,-49.805,-40.527,-37.109,-50.781,0.000
1709215166.811,-56.152,-44.922,-43.457,-49.316,0.000
1709215166.815,-37.598,-36.621,-44.434,-32.227,0.000
1709215166.819,-34.180,-40.039,-39.062,-37.598,0.000
1709215166.823,-56.641,-48.340,-41.504,-55.176,0.000
1709215166.827,-60.547,-39.551,-47.363,-56.641,0.000
1709215166.831,-55.176,-39.062,-47.852,-48.340,0.000
1709215166.835,-46.387,-38.574,-44.434,-30.273,0.000
1709215166.839,-40.527,-35.645,-42.480,-33.203,0.000
1709215166.843,-44.434,-39.062,-38.086,-48.340,0.000
1709215166.846,-48.828,-45.898,-39.551,-44.434,0.000
1709215166.850,-45.898,-46.875,-43.457,-35.645,0.000
1709215166.854,-32.715,-44.434,-36.621,-36.133,0.000
1709215166.858,-20.020,-37.109,-29.297,-33.691,0.000
1709215166.862,-32.227,-44.434,-42.480,-39.551,0.000
1709215166.866,-49.805,-54.688,-47.363,-50.293,0.000
1709215166.870,-50.781,-45.898,-40.527,-52.246,0.000
1709215166.874,-40.039,-46.875,-35.156,-44.922,0.000
1709215166.878,-37.109,-49.316,-37.109,-38.086,0.000
1709215166.882,-46.875,-40.527,-44.922,-52.734,0.000
1709215166.885,-60.059,-40.039,-43.457,-69.824,0.000
1709215166.889,-61.523,-38.574,-44.922,-67.383,0.000
1709215166.893,-40.039,-36.621,-46.387,-50.781,0.000
1709215166.897,-32.227,-44.922,-43.457,-46.875,0.000
1709215166.901,-38.086,-44.434,-42.480,-54.199,0.000
1709215166.905,-48.340,-48.340,-42.969,-61.035,0.000
1709215166.909,-55.664,-54.199,-44.434,-61.523,0.000
1709215166.913,-43.457,-44.434,-42.480,-48.828,0.000
1709215166.917,-35.645,-57.129,-38.574,-37.109,0.000
1709215166.920,-41.504,-64.941,-39.551,-38.086,0.000
1709215166.924,-52.246,-41.504,-41.992,-41.992,0.000
1709215166.928,-47.852,-25.391,-39.551,-43.457,0.000
1709215166.932,-23.926,-21.973,-32.715,-29.785,0.000
1709215166.936,-20.020,-24.414,-38.086,-31.738,0.000
1709215166.940,-34.180,-28.809,-42.969,-44.434,0.000
1709215166.945,-36.621,-28.809,0.000,-46.875,0.000
1709215166.949,-44.434,-35.156,0.000,-54.199,0.000
1709215166.952,-44.922,-36.621,0.000,-48.340,0.000
1709215166.956,-31.250,-35.645,0.000,-36.133,0.000
1709215166.960,-26.855,-34.180,0.000,-37.109,0.000
1709215166.964,-40.039,-36.133,0.000,-47.363,0.000
1709215166.968,-49.316,-43.457,0.000,-35.645,0.000
1709215166.972,-30.762,-36.621,0.000,-19.531,0.000
1709215166.976,-27.344,-24.414,0.000,-33.691,0.000
1709215166.980,-34.180,-24.902,0.000,-48.340,0.000
1709215166.984,-25.391,-34.180,0.000,-42.480,0.000
1709215166.988,-29.297,-31.250,0.000,-51.758,0.000
1709215166.992,-24.902,-18.066,-53.223,-51.270,0.000
1709215166.996,-7.324,-6.348,-54.199,-34.180,0.000
1709215167.000,-9.277,-0.488,-55.176,-40.527,0.000
1709215167.004,-14.160,4.883,-53.711,-52.246,0.000
1709215167.007,-21.973,10.742,-55.176,-57.617,0.000
1709215167.011,-18.066,4.883,-60.547,-56.641,0.000
1709215167.015,-10.254,12.207,-66.895,-53.223,0.000
1709215167.019,-14.648,17.578,-70.312,-56.152,0.000
1709215167.023,-27.832,12.695,-71.289,-62.500,0.000
1709215167.027,-31.250,13.672,-71.289,-64.453,0.000
1709215167.031,-25.391,25.391,-72.754,-58.594,0.000
1709215167.035,-10.254,42.480,-71.777,-48.828,0.000
1709215167.039,3.418,46.875,-74.707,-43.457,0.000
1709215167.043,-12.695,44.922,-81.543,-54.199,0.000
1709215167.047,-22.949,43.945,-83.984,-57.129,0.000
1709215167.051,-9.277,46.875,-83.984,-45.898,0.000
1709215167.055,3.906,58.105,-87.402,-30.762,0.000
1709215167.059,12.695,62.988,-86.914,-21.484,0.000
1709215167.062,9.277,68.359,-84.961,-27.832,0.000
1709215167.066,-2.930,70.801,-86.914,-44.922,0.000
1709215167.070,1.953,78.613,-86.426,-38.574,0.000
1709215167.074,23.926,83.496,-84.961,-2.441,0.000
1709215167.078,21.973,78.125,-94.238,-11.719,0.000
1709215167.082,16.602,79.102,-103.516,-32.715,0.000
1709215167.086,10.254,75.684,-102.539,-34.668,0.000
1709215167.090,9.766,67.871,-98.633,-30.273,0.000
1709215167.094,20.508,65.430,-100.098,-18.555,0.000
1709215167.098,22.949,66.406,-99.609,-17.090,0.000
1709215167.102,26.855,63.965,-95.703,-18.555,0.000
1709215167.106,17.578,60.059,-95.215,-26.367,0.000
1709215167.110,11.230,55.176,-98.145,-28.320,0.000
1709215167.113,13.672,44.922,-99.121,-21.484,0.000
1709215167.117,25.879,46.387,-92.773,-3.418,0.000
1709215167.121,28.809,41.992,-84.961,3.906,0.000
1709215167.125,13.184,23.926,-86.426,-11.230,0.000
1709215167.129,1.953,27.344,-83.984,-16.602,0.000
1709215167.133,3.418,29.297,-76.172,-11.230,0.000
1709215167.137,-1.953,15.625,-79.590,-11.719,0.000
1709215167.141,0.488,18.555,-73.730,-6.348,0.000
1709215167.145,-3.906,17.578,-67.383,-20.996,0.000
1709215167.149,-19.531,11.230,-66.895,-36.621,0.000
1709215167.153,-12.207,7.812,-56.641,-24.414,0.000
1709215167.156,-1.465,-1.465,-57.129,-12.695,0.000
1709215167.160,-3.418,-5.371,-62.988,-14.160,0.000
1709215167.164,-20.996,-3.906,-63.965,-20.996,0.000
1709215167.168,-37.109,-9.277,-64.941,-31.738,0.000
1709215167.172,-18.066,-8.301,-61.035,-28.320,0.000
1709215167.176,2.441,0.977,-62.988,-18.066,0.000
1709215167.180,-9.277,-0.488,-64.941,-26.367,0.000
1709215167.184,-14.160,-8.301,-55.664,-34.668,0.000
1709215167.188,-16.113,-17.090,-56.152,-39.062,0.000
1709215167.192,-25.391,-14.160,-58.105,-41.016,0.000
1709215167.195,-12.695,-10.254,-52.734,-30.762,0.000
1709215167.199,-7.812,-13.184,-54.199,-25.391,0.000
1709215167.203,-16.602,-10.742,-54.199,-37.109,0.000
1709215167.207,-25.879,-22.949,-55.176,-46.875,0.000
1709215167.211,-29.785,-32.227,-54.199,-38.086,0.000
1709215167.215,-18.066,-16.113,-55.176,-29.297,0.000
1709215167.219,-10.254,-10.254,-58.594,-28.320,0.000
1709215167.223,-16.113,-14.160,-54.688,-36.621,0.000
1709215167.227,-34.180,-14.648,-53.223,-46.387,0.000
1709215167.230,-46.875,-20.996,-56.152,-48.828,0.000
1709215167.234,-32.715,-27.832,-47.852,-36.621,0.000
1709215167.238,-19.043,-23.926,-44.922,-30.273,0.000
1709215167.242,-33.203,-29.297,-48.828,-37.598,0.000
1709215167.246,-55.664,-35.645,-50.293,-47.852,0.000
1709215167.250,-49.805,-29.297,-47.852,-41.504,0.000
1709215167.254,-36.133,-34.668,-45.898,-23.926,0.000
1709215167.258,-37.109,-38.574,-52.734,-31.250,0.000
1709215167.262,-36.621,-34.668,-52.246,-41.992,0.000
1709215167.266,-44.434,-38.574,-50.781,-51.758,0.000
1709215167.270,-52.734,-36.621,-48.340,-59.082,0.000
1709215167.273,-47.363,-37.109,-46.387,-46.875,0.000
1709215167.277,-34.180,-39.062,-49.805,-38.574,0.000
1709215167.281,-32.227,-36.133,-43.945,-42.969,0.000
1709215167.285,-36.621,-35.156,-41.016,-49.805,0.000
1709215167.289,-31.738,-44.434,-44.922,-49.316,0.000
1709215167.293,-25.879,-42.969,-44.434,-44.434,0.000
1709215167.297,-20.020,-36.133,-49.805,-34.180,0.000
1709215167.300,-20.996,-36.621,-56.641,-25.391,0.000
1709215167.304,-30.273,-30.273,-51.758,-42.969,0.000
1709215167.308,-36.133,-34.180,-50.781,-57.617,0.000
1709215167.312,-22.461,-34.180,-47.852,-38.086,0.000
1709215167.316,-3.418,-42.969,-50.293,-24.414,0.000
1709215167.320,-13.672,-51.270,-47.852,-29.785,0.000
1709215167.324,-40.039,-48.828,-39.062,-38.086,0.000
1709215167.328,-39.551,-46.875,-39.062,-37.109,0.000
1709215167.332,-27.344,-43.457,-39.551,-30.762,0.000
1709215167.335,-25.391,-41.016,-34.180,-27.832,0.000
1709215167.339,-22.949,-42.969,-30.273,-31.250,0.000
1709215167.343,-27.832,-52.734,-30.762,-31.738,0.000
1709215167.347,-41.504,-54.199,-27.832,-35.156,0.000
1709215167.351,-52.734,-45.898,-38.574,-39.062,0.000
1709215167.355,-38.086,-32.227,-45.410,-35.156,0.000
1709215167.359,-35.645,-25.391,-41.016,-47.852,0.000
1709215167.363,-47.852,-28.320,-42.480,-56.641,0.000
1709215167.366,-49.805,-30.762,-39.062,-59.082,0.000
1709215167.370,-51.270,-34.668,-38.086,-60.059,0.000
1709215167.374,-39.062,-33.691,-40.039,-41.992,0.000
1709215167.378,-40.039,-38.086,-43.457,-31.250,0.000
1709215167.382,-53.711,-43.945,-45.410,-44.434,0.000
1709215167.386,-58.105,-48.340,-40.039,-55.664,0.000
1709215167.390,-58.105,-49.316,-42.480,-54.688,0.000
1709215167.394,-45.410,-46.387,-50.293,-51.270,0.000
1709215167.398,-40.039,-43.457,-50.781,-47.363,0.000
1709215167.402,-46.875,-32.715,-45.898,-49.316,0.000
1709215167.405,-64.453,-29.785,-46.387,-66.406,0.000
1709215167.409,-62.988,-36.133,-42.480,-52.734,0.000
1709215167.414,-35.645,-41.992,-37.598,-32.715,0.000
1709215167.417,-28.320,-41.016,-45.898,-40.039,0.000
1709215167.421,-28.809,-33.203,-48.340,-45.898,0.000
1709215167.425,-30.762,-27.344,-45.410,-43.457,0.000
1709215167.429,-35.645,-21.973,-53.223,-46.387,0.000
1709215167.433,-26.855,-17.090,-52.246,-28.809,0.000
1709215167.437,-14.648,-18.066,-49.316,-17.090,0.000
1709215167.441,-20.508,-20.020,-56.152,-34.668,0.000
1709215167.445,-23.926,-17.578,-53.223,-39.062,0.000
1709215167.449,-19.043,-20.020,-54.199,-20.996,0.000
1709215167.453,-12.207,-22.949,-53.223,-15.625,0.000
1709215167.457,-0.488,-28.809,-47.852,-14.648,0.000
1709215167.461,-3.906,-35.156,-56.641,-16.602,0.000
1709215167.465,-27.832,-32.227,-57.129,-36.133,0.000
1709215167.468,-40.039,-33.691,-55.664,-42.480,0.000
1709215167.472,-27.344,-36.621,-50.293,-17.578,0.000
1709215167.476,-9.766,-44.922,-43.945,-4.883,0.000
1709215167.480,-7.324,-43.945,-41.992,-15.625,0.000
1709215167.484,-29.297,-31.738,-44.434,-38.574,0.000
1709215167.488,-37.109,-29.785,-45.410,-42.969,0.000
1709215167.492,-29.785,-31.738,-41.504,-21.973,0.000
1709215167.496,-22.461,-32.715,-42.969,-11.230,0.000
1709215167.500,-20.508,-34.668,-40.039,-27.832,0.000
1709215167.504,-27.344,-41.504,-43.945,-41.016,0.000
1709215167.508,-37.109,-40.039,-51.270,-48.340,0.000
1709215167.511,-37.109,-37.109,-53.711,-43.945,0.000
1709215167.515,-27.832,-49.316,-55.664,-30.762,0.000
1709215167.519,-22.461,-51.758,-50.293,-27.344,0.000
1709215167.523,-27.344,-38.086,-44.922,-40.039,0.000
1709215167.527,-33.203,-36.133,-43.457,-46.875,0.000
1709215167.531,-23.438,-33.691,-40.527,-41.016,0.000
1709215167.535,-2.441,-30.273,-35.156,-23.926,0.000
1709215167.539,-9.277,-34.180,-39.062,-6.348,0.000
1709215167.543,-22.461,-36.133,-39.062,-19.531,0.000
1709215167.547,-32.715,-41.992,-39.062,-40.039,0.000
1709215167.551,-35.156,-44.434,-40.527,-37.109,0.000
1709215167.554,-30.762,-41.992,-41.016,-29.785,0.000
1709215167.558,-25.879,-38.574,-37.109,-22.949,0.000
1709215167.562,-30.273,-37.598,-35.645,-26.855,0.000
1709215167.566,-48.340,-43.945,-39.062,-41.504,0.000
1709215167.570,-36.133,-51.758,-35.645,-35.156,0.000
1709215167.574,-28.809,-46.387,-39.062,-20.020,0.000
1709215167.578,-31.738,-40.039,-44.922,-20.508,0.000
1709215167.582,-31.250,-48.340,-47.852,-35.645,0.000
1709215167.586,-46.387,-43.457,-42.969,-39.062,0.000
1709215167.590,-57.129,-34.180,-43.457,-43.457,0.000
1709215167.593,-47.363,-36.621,-44.922,-39.551,0.000
1709215167.597,-33.691,-38.574,-41.016,-25.391,0.000
1709215167.601,-43.945,-41.504,-43.457,-32.227,0.000
1709215167.605,-61.035,-48.340,-46.387,-47.852,0.000
1709215167.609,-68.848,-52.734,-47.852,-50.781,0.000
1709215167.613,-65.918,-55.176,-51.270,-41.504,0.000
1709215167.617,-50.293,-50.293,-50.781,-31.250,0.000
1709215167.621,-41.992,-43.945,-40.527,-30.273,0.000
1709215167.625,-52.246,-45.898,-34.668,-37.109,0.000
1709215167.629,-57.129,-45.898,-41.992,-36.621,0.000
1709215167.632,-51.270,-42.480,-46.875,-35.156,0.000
1709215167.636,-43.457,-38.086,-44.434,-30.273,0.000
1709215167.640,-50.293,-34.180,-42.969,-33.691,0.000
1709215167.644,-64.941,-38.086,-45.410,-50.293,0.000
1709215167.648,-67.383,-42.480,-47.852,-68.359,0.000
1709215167.652,-60.547,-48.828,-41.016,-61.523,0.000
1709215167.656,-43.945,-48.340,-39.062,-37.109,0.000
1709215167.660,-36.621,-41.016,-40.039,-29.785,0.000
1709215167.663,-44.434,-41.016,-37.109,-33.691,0.000
1709215167.667,-51.270,-44.434,-35.645,-43.457,0.000
1709215167.671,-50.781,-48.828,-36.133,-43.945,0.000
1709215167.675,-39.062,-42.969,-37.109,-19.531,0.000
1709215167.679,-38.574,-46.387,-42.480,-27.832,0.000
1709215167.683,-48.828,-47.363,-40.527,-49.805,0.000
1709215167.687,-54.688,-38.574,-38.574,-57.129,0.000
1709215167.691,-50.293,-39.062,-40.527,-57.129,0.000
1709215167.694,0.000,-31.738,-37.109,-40.527,0.000
1709215167.698,0.000,-27.832,-38.574,-31.250,0.000
1709215167.702,0.000,-35.156,-40.039,-36.621,0.000
1709215167.706,0.000,-35.645,-33.203,-40.039,0.000
1709215167.710,0.000,-40.527,-31.250,-40.039,0.000
1709215167.714,0.000,-53.711,-33.203,-34.180,0.000
1709215167.718,0.000,-46.387,-34.180,-17.578,0.000
1709215167.722,0.000,-34.180,-37.109,-22.949,0.000
1709215167.726,0.000,-47.852,-41.016,-42.480,0.000
1709215167.730,0.000,-57.617,-40.039,-39.062,0.000
1709215167.734,0.000,-40.527,-32.227,-23.926,0.000
1709215167.737,0.000,-38.086,-31.250,-14.160,0.000
1709215167.741,-24.902,-47.363,-30.273,-22.461,0.000
1709215167.745,-40.039,-45.898,-37.598,-42.480,0.000
1709215167.749,-45.898,-40.527,-37.598,-33.203,0.000
1709215167.753,-33.691,-39.062,-36.621,-33.691,0.000
1709215167.757,-25.391,-38.574,-38.574,-39.551,0.000
1709215167.760,-36.621,-39.551,-36.621,-33.203,0.000
1709215167.764,-59.082,-41.504,-37.109,-48.340,0.000
1709215167.768,-62.012,-41.504,-38.086,-51.758,0.000
1709215167.772,-46.387,-40.039,-39.062,-35.156,0.000
1709215167.776,-36.133,-43.945,-37.109,-28.320,0.000
1709215167.780,-48.828,-50.781,-42.969,-33.691,0.000
1709215167.784,-56.152,-42.480,-44.434,-43.457,0.000
1709215167.788,-41.016,-45.410,-35.645,-39.062,0.000
1709215167.792,-43.457,-57.129,-37.109,-33.691,0.000
1709215167.796,-43.457,-49.316,-41.504,-30.273,0.000
1709215167.800,-39.551,-45.898,-39.551,-36.621,0.000
1709215167.804,-51.270,-51.758,-37.598,-42.969,0.000
1709215167.808,-52.246,-51.270,-41.016,-37.598,0.000
1709215167.812,-37.109,-45.410,-36.621,-27.344,0.000
1709215167.815,-24.902,-42.969,-31.250,-18.066,0.000
1709215167.819,-24.414,-40.527,-32.715,-21.484,0.000
1709215167.823,-36.621,-49.316,-34.668,-31.738,0.000
1709215167.827,-46.875,-44.922,-37.109,-45.410,0.000
1709215167.831,-38.086,-31.250,-36.133,-43.457,0.000
1709215167.835,-22.949,-34.180,-32.227,-32.227,0.000
1709215167.839,-37.109,-39.551,-40.039,-40.039,0.000
1709215167.843,-57.129,-49.316,-46.387,-60.547,0.000
1709215167.847,-58.105,-52.734,-44.922,-67.383,0.000
1709215167.851,-61.035,-46.387,-45.898,-63.477,0.000
1709215167.855,-51.270,-46.387,-52.246,-56.641,0.000
1709215167.859,-41.016,-48.828,-46.875,-55.176,0.000
1709215167.863,-52.246,-44.922,-42.480,-62.500,0.000
1709215167.866,-63.477,-44.434,-42.969,-60.059,0.000
1709215167.870,-56.641,-40.527,-36.621,-41.504,0.000
1709215167.874,-41.504,-43.457,-41.504,-38.086,0.000
1709215167.878,-24.902,-51.758,-45.410,-40.527,0.000
1709215167.882,-31.738,-48.340,-38.574,-39.062,0.000
1709215167.886,-50.293,-41.992,-41.504,-53.223,0.000
1709215167.890,-47.363,-33.203,-41.992,-60.059,0.000
1709215167.894,-45.898,-38.574,-40.039,-50.781,0.000
1709215167.898,-45.898,-43.945,-43.945,-49.805,0.000
1709215167.902,-47.852,-44.434,-47.363,-58.105,0.000
1709215167.906,-53.223,-44.434,-51.758,-63.965,0.000
1709215167.910,-50.781,-36.621,-47.852,-57.617,0.000
1709215167.913,-37.598,-40.039,-40.527,-30.762,0.000
1709215167.917,-25.391,-48.340,-41.504,-21.484,0.000
1709215167.921,-26.855,-43.457,-39.062,-35.645,0.000
1709215167.925,-47.852,-38.086,-41.016,-51.758,0.000
1709215167.929,-62.500,-36.621,-42.969,-52.246,0.000
1709215167.933,-47.852,-38.574,-36.133,-38.086,0.000
1709215167.937,-27.832,-42.480,-34.668,-27.832,0.000
1709215167.941,-31.250,-45.898,-34.668,-33.203,0.000
1709215167.945,-47.363,-45.410,-33.203,-38.086,0.000
1709215167.949,-43.945,-46.387,-39.062,-39.551,0.000
1709215167.952,-32.227,-52.246,-37.598,-36.133,0.000
1709215167.956,-31.250,-49.316,-35.645,-24.414,0.000
1709215167.960,-30.273,-46.387,-37.598,-29.297,0.000
1709215167.964,-37.109,-41.992,-39.062,-41.992,0.000
1709215167.968,-32.715,-41.504,-36.133,-35.645,0.000
1709215167.972,-22.949,-48.828,-35.156,-21.484,0.000
1709215167.976,-27.344,-62.988,-38.574,-20.996,0.000
1709215167.980,-40.527,-56.152,-41.016,-36.133,0.000
1709215167.984,-47.852,-39.551,-41.992,-47.852,0.000
1709215167.988,-48.828,-43.945,-30.762,-46.875,0.000
1709215167.991,-47.363,-46.875,-32.715,-47.363,0.000
1709215167.995,-32.715,-41.504,-42.480,-35.645,0.000
1709215167.999,-28.320,-42.480,-44.922,-36.621,0.000
1709215168.003,-41.016,-44.922,-41.016,-33.691,0.000
1709215168.007,-51.758,-46.875,-38.574,-36.621,0.000
1709215168.011,-38.574,-50.293,-36.621,-33.203,0.000
1709215168.015,-22.461,-48.340,-36.133,-21.484,0.000
1709215168.019,-25.879,-39.551,-39.062,-20.508,0.000
1709215168.023,-32.715,-34.180,-35.645,-28.320,0.000
1709215168.026,-37.598,-34.180,-31.250,-41.016,0.000
1709215168.030,-39.062,-35.645,-34.180,-41.992,0.000
1709215168.034,-32.227,-37.598,-30.762,-26.855,0.000
1709215168.038,-28.809,-38.086,-32.227,-28.320,0.000
1709215168.042,-33.691,-54.199,-41.992,-47.852,0.000
1709215168.046,-41.016,-56.152,-40.527,-48.340,0.000
1709215168.050,-40.527,-34.668,-38.574,-42.969,0.000
1709215168.054,-23.438,-27.832,-37.598,-32.227,0.000
1709215168.058,-20.996,-30.762,-41.504,-26.855,0.000
1709215168.062,-37.109,-41.504,-45.410,-43.945,0.000
1709215168.065,-48.340,-45.898,-42.969,-42.480,0.000
1709215168.069,-45.410,-44.922,-42.969,-38.086,0.000
1709215168.073,-30.273,-37.109,-41.016,-35.645,0.000
1709215168.077,-14.648,-28.320,-34.668,-30.273,0.000
1709215168.081,-18.555,-39.551,-28.809,-29.785,0.000
1709215168.085,-37.109,-42.480,-34.180,-38.086,0.000
1709215168.089,-38.574,-34.180,-41.992,-38.086,0.000
1709215168.093,-32.715,-26.855,-38.574,-23.438,0.000
1709215168.097,-26.855,-31.250,-42.969,-36.133,0.000
1709215168.100,-29.297,-40.039,-41.504,-50.781,0.000
1709215168.104,-55.664,-46.875,-40.039,-57.617,0.000
1709215168.108,-63.477,-46.875,-46.387,-64.941,0.000
1709215168.112,-49.316,-41.992,-46.387,-57.129,0.000
1709215168.116,-39.551,-37.598,-42.969,-45.410,0.000
1709215168.120,-46.875,-41.016,-41.016,-49.805,0.000
1709215168.124,-53.223,-42.480,-37.598,-53.711,0.000
1709215168.127,-58.105,-44.922,-39.062,-56.641,0.000
1709215168.131,-52.734,-46.387,-39.062,-53.711,0.000
1709215168.135,-39.551,-39.062,-38.574,-34.668,0.000
1709215168.139,-38.574,-37.109,-41.504,-27.344,0.000
1709215168.143,-46.875,-43.457,-40.039,-45.410,0.000
1709215168.147,-47.852,-45.410,-38.086,-54.688,0.000
1709215168.151,-41.504,-44.434,-35.156,-39.062,0.000
1709215168.155,-32.227,-47.852,-33.691,-30.762,0.000
1709215168.159,-34.668,-51.758,-39.062,-37.598,0.000
1709215168.163,-46.875,-44.922,-41.504,-56.641,0.000
1709215168.167,-55.176,-37.598,-41.016,-60.547,0.000
1709215168.171,-53.223,-41.504,-41.016,-56.152,0.000
1709215168.175,-44.922,-46.387,-44.922,-52.734,0.000
1709215168.178,-36.133,-41.016,-41.504,-40.039,0.000
1709215168.182,-45.898,-42.969,-38.086,-42.480,0.000
1709215168.186,-60.547,-50.293,-41.992,-60.059,0.000
1709215168.190,-62.988,-46.387,-41.016,-51.758,0.000
1709215168.194,-56.152,-45.898,-39.551,-37.598,0.000
1709215168.198,-42.969,-48.340,-33.691,-27.832,0.000
1709215168.202,-46.875,-42.969,-30.273,-34.668,0.000
1709215168.206,-58.594,-49.805,-35.645,-54.688,0.000
1709215168.210,-49.805,-54.688,-33.691,-51.758,0.000
1709215168.214,-38.086,-46.875,-28.320,-28.809,0.000
1709215168.218,-28.320,-50.293,-32.227,-16.113,0.000
1709215168.222,-32.715,-45.898,-35.645,-31.738,0.000
1709215168.226,-53.223,-43.945,-38.574,-47.852,0.000
1709215168.229,-56.152,-52.734,-41.992,-37.109,0.000
1709215168.233,-48.340,-57.129,-44.922,-28.809,0.000
1709215168.237,-39.551,-56.152,-40.039,-32.227,0.000
1709215168.241,-42.969,-63.477,-37.109,-32.227,0.000
1709215168.245,-50.781,-59.570,-41.504,-40.039,0.000
1709215168.249,-48.828,-43.457,-38.574,-42.480,0.000
1709215168.253,-36.621,-45.898,-38.574,-34.180,0.000
1709215168.257,-20.996,-51.270,-41.016,-21.484,0.000
1709215168.261,-20.996,-55.176,-39.062,-24.414,0.000
1709215168.265,-29.297,-53.711,-42.969,-43.945,0.000
1709215168.269,-32.227,-45.410,-44.434,-50.781,0.000
1709215168.273,-18.555,-46.387,-43.457,-36.621,0.000
1709215168.277,-7.812,-44.922,-46.875,-23.438,0.000
1709215168.280,-18.555,-49.316,-51.758,-36.621,0.000
1709215168.284,-27.832,-56.641,-42.969,-45.898,0.000
1709215168.288,-26.367,-51.758,-38.574,-34.668,0.000
1709215168.292,-23.926,-46.875,-44.434,-33.203,0.000
1709215168.296,-17.090,-42.969,-41.504,-31.738,0.000
1709215168.300,-25.879,-41.504,-38.086,-40.039,0.000
1709215168.304,-40.527,-45.898,-43.945,-62.988,0.000
1709215168.308,-47.852,-54.199,-42.480,-59.082,0.000
1709215168.312,-39.062,-55.176,-40.527,-47.363,0.000
1709215168.316,-24.902,-50.781,-42.480,-41.016,0.000
1709215168.319,-35.156,-50.293,-43.457,-38.574,0.000
1709215168.323,-45.898,-42.969,-34.180,-37.598,0.000
1709215168.327,-50.781,-39.551,-35.645,-39.551,0.000
1709215168.331,-52.246,-47.852,-36.133,-41.016,0.000
1709215168.335,-43.457,-50.781,-32.715,-34.180,0.000
1709215168.339,-39.062,-41.016,-39.062,-32.715,0.000
1709215168.343,-49.316,-39.551,-38.574,-48.340,0.000
1709215168.347,-59.570,-42.480,-34.668,-57.129,0.000
1709215168.351,0.000,-47.852,-37.598,-42.969,0.000
1709215168.355,0.000,-52.246,-43.945,-37.109,0.000
1709215168.358,0.000,-52.734,-45.410,-38.086,0.000
1709215168.362,0.000,-47.363,-41.992,-40.527,0.000
1709215168.366,0.000,-40.527,-39.062,-41.992,0.000
1709215168.370,0.000,-38.574,-41.504,-42.480,0.000
1709215168.374,0.000,-37.109,-45.410,-37.598,0.000
1709215168.378,0.000,-34.668,-40.527,-22.949,0.000
1709215168.382,0.000,-31.250,-37.109,-30.762,0.000
1709215168.386,0.000,-29.297,-34.180,-48.828,0.000
1709215168.390,0.000,-29.785,-27.832,-42.480,0.000
1709215168.394,0.000,-37.109,-27.832,-28.809,0.000
1709215168.397,-21.484,-39.551,-33.691,-20.020,0.000
1709215168.401,-34.668,-35.156,-36.621,-34.180,0.000
1709215168.405,-41.992,-37.109,-34.180,-49.805,0.000
1709215168.409,-36.621,-37.109,-32.715,-43.945,0.000
1709215168.413,-33.203,-32.227,-30.762,-33.203,0.000
1709215168.417,-20.508,-31.250,-33.203,-32.227,0.000
1709215168.421,-13.672,-31.250,-30.762,-26.367,0.000
1709215168.425,-43.945,-34.180,-25.879,-37.598,0.000
1709215168.429,-55.664,-35.156,-24.414,-47.363,0.000
1709215168.432,-37.598,-32.715,-23.926,-31.250,0.000
1709215168.436,-30.273,-36.621,-24.902,-23.438,0.000
1709215168.440,-31.250,-38.574,-25.391,-29.785,0.000
1709215168.444,-39.551,-40.527,-27.344,-36.621,0.000
1709215168.448,-38.574,-41.504,-24.902,-30.273,0.000
1709215168.452,-37.109,-41.992,-30.273,-22.949,0.000
1709215168.456,-29.785,-44.922,-31.738,-14.160,0.000
1709215168.460,-33.203,-44.922,-30.273,-27.344,0.000
1709215168.464,-45.898,-53.223,-38.574,-45.898,0.000
1709215168.467,-45.898,-53.223,-40.039,-39.551,0.000
1709215168.471,-48.828,-41.504,-39.551,-35.156,0.000
1709215168.475,-56.641,-44.922,-41.504,-38.574,0.000
1709215168.479,-54.199,-56.152,-36.621,-42.969,0.000
1709215168.483,-57.129,-46.875,-32.715,-52.734,0.000
1709215168.487,-59.570,-43.945,-33.691,-53.711,0.000
1709215168.491,-50.293,-47.852,-38.086,-41.992,0.000
1709215168.494,-43.457,-43.945,-40.039,-39.062,0.000
1709215168.498,-41.016,-43.457,-39.062,-51.270,0.000
1709215168.502,-44.922,-49.316,-40.527,-59.570,0.000
1709215168.506,-48.340,-53.711,-39.551,-54.199,0.000
1709215168.510,-41.016,-53.711,-41.016,-40.039,0.000
1709215168.514,-33.203,-47.363,-44.434,-27.832,0.000
1709215168.518,-30.273,-51.758,-42.480,-37.598,0.000
1709215168.522,-41.504,-49.316,-41.504,-51.758,0.000
1709215168.526,-51.758,-44.922,-44.434,-51.758,0.000
1709215168.530,-50.781,-50.293,-43.457,-44.922,0.000
1709215168.534,-40.527,-41.016,-39.062,-31.738,0.000
1709215168.538,-31.250,-37.109,-32.227,-21.484,0.000
1709215168.542,-41.504,-52.246,-43.457,-42.969,0.000
1709215168.546,-50.781,-47.852,-51.270,-60.547,0.000
1709215168.549,-43.457,-36.133,-45.410,-54.199,0.000
1709215168.553,-35.645,-39.551,-43.945,-44.434,0.000
1709215168.557,-39.062,-42.480,-43.945,-40.039,0.000
1709215168.561,-50.293,-39.062,-45.410,-47.852,0.000
1709215168.565,-63.477,-38.086,-50.781,-63.477,0.000
1709215168.569,-57.617,-41.016,-48.828,-59.570,0.000
1709215168.573,-37.598,-40.527,-43.945,-31.250,0.000
1709215168.577,-29.297,-39.062,-46.875,-28.320,0.000
1709215168.581,-39.551,-48.828,-47.852,-42.969,0.000
1709215168.585,-51.270,-48.340,-46.387,-58.594,0.000
1709215168.589,-50.781,-39.551,-43.457,-55.664,0.000
1709215168.593,-41.504,-43.457,-40.527,-38.574,0.000
1709215168.597,-25.391,-41.992,-39.551,-28.320,0.000
1709215168.600,-29.785,-46.875,-41.016,-37.109,0.000
1709215168.604,-43.945,-48.828,-40.039,-58.105,0.000
1709215168.608,-46.387,-39.062,-35.156,-56.641,0.000
1709215168.612,-43.945,-39.551,-41.016,-44.434,0.000
1709215168.616,-33.691,-49.316,-47.363,-30.273,0.000
1709215168.620,-31.738,-52.734,-44.434,-28.809,0.000
1709215168.624,-37.598,-52.246,-43.457,-48.340,0.000
1709215168.628,-42.969,-55.176,-44.922,-56.641,0.000
1709215168.632,-40.039,-41.992,-41.016,-44.434,0.000
1709215168.636,-29.785,-33.203,-39.551,-30.273,0.000
1709215168.640,-32.227,-42.969,-44.922,-33.203,0.000
1709215168.644,-47.852,-48.828,-41.504,-49.805,0.000
1709215168.647,-61.035,-57.129,-42.480,-62.012,0.000
1709215168.651,-44.434,-61.035,-43.457,-45.410,0.000
1709215168.655,-23.438,-54.199,-36.621,-24.902,0.000
1709215168.659,-26.855,-48.828,-36.133,-36.621,0.000
1709215168.663,-42.480,-46.875,-38.086,-45.410,0.000
1709215168.667,-51.758,-42.480,-40.527,-50.293,0.000
1709215168.671,-39.551,-38.574,-34.668,-43.457,0.000
1709215168.675,-29.297,-46.875,-35.156,-29.785,0.000
1709215168.679,-29.785,-57.617,-45.410,-22.461,0.000
1709215168.683,-39.062,-54.199,-43.457,-24.414,0.000
1709215168.687,-49.805,-39.551,-40.527,-41.016,0.000
1709215168.690,-44.922,-41.016,-39.551,-36.133,0.000
1709215168.694,-32.715,-52.246,-38.086,-23.926,0.000
1709215168.698,-24.902,-48.340,-40.527,-32.715,0.000
1709215168.702,-29.785,-35.645,-35.156,-44.922,0.000
1709215168.706,-41.016,-30.762,-27.832,-51.270,0.000
1709215168.710,-42.480,-31.250,-27.344,-37.109,0.000
1709215168.714,-42.969,-36.133,-35.645,-30.273,0.000
1709215168.718,-30.762,-36.621,-32.715,-21.973,0.000
1709215168.722,-27.344,-38.574,-29.297,-23.438,0.000
1709215168.726,-45.898,-38.574,-38.574,-43.457,0.000
1709215168.729,-62.012,-46.875,-40.039,-51.758,0.000
1709215168.733,-51.270,-45.898,-37.109,-33.691,0.000
1709215168.737,-36.621,-38.574,-33.691,-33.691,0.000
1709215168.741,-43.945,-42.480,-35.156,-49.316,0.000
1709215168.745,-57.129,-39.062,-43.457,-60.547,0.000
1709215168.749,-56.641,-31.738,-39.551,-62.500,0.000
1709215168.753,-44.922,-43.457,-36.621,-39.062,0.000
1709215168.757,-33.691,-50.293,-41.016,-28.809,0.000
1709215168.761,-37.598,-48.340,-38.086,-36.133,0.000
1709215168.765,-48.828,-44.922,-32.715,-42.480,0.000
1709215168.768,-57.129,-43.457,-36.133,-49.805,0.000
1709215168.772,-51.270,-44.434,-36.133,-39.551,0.000
1709215168.776,-36.133,-45.410,-34.668,-30.273,0.000
1709215168.780,-35.645,-49.805,-36.621,-39.551,0.000
1709215168.784,-49.805,-46.387,-39.062,-54.199,0.000
1709215168.788,-50.293,-54.199,-42.480,-59.082,0.000
1709215168.792,-40.039,-56.641,-40.039,-45.410,0.000
1709215168.796,-37.598,-40.527,-41.016,-31.250,0.000
1709215168.800,-40.527,-38.086,-44.434,-33.203,0.000
1709215168.803,-52.734,-38.574,-46.387,-45.410,0.000
1709215168.807,-46.875,-36.133,-37.598,-43.457,0.000
1709215168.811,-29.785,-45.898,-27.832,-36.133,0.000
1709215168.815,-28.320,-51.270,-41.016,-30.762,0.000
1709215168.819,0.000,-48.340,-43.945,-35.645,0.000
1709215168.823,0.000,-44.434,-35.156,-48.340,0.000
1709215168.827,0.000,-51.270,-33.203,-51.758,0.000
1709215168.831,0.000,-43.945,-37.109,-43.945,0.000
1709215168.834,0.000,-31.738,-41.016,-34.668,0.000
1709215168.838,0.000,-26.367,-42.480,-40.039,0.000
1709215168.842,0.000,-29.297,-41.504,-44.922,0.000
1709215168.846,0.000,-42.480,-46.387,-51.270,0.000
1709215168.850,0.000,-39.551,-43.457,-43.945,0.000
1709215168.854,0.000,-38.086,-41.504,-37.109,0.000
1709215168.858,0.000,-41.016,-41.992,-33.691,0.000
1709215168.862,0.000,-42.480,-35.645,-35.156,0.000
1709215168.866,-25.391,-49.805,-42.480,-51.758,0.000
1709215168.870,-32.715,-51.270,-48.340,-51.270,0.000
1709215168.874,-17.578,-46.387,-40.527,-29.785,0.000
1709215168.878,-13.184,-44.922,-36.133,-16.113,0.000
1709215168.882,-25.879,-44.434,-33.203,-13.672,0.000
1709215168.886,-43.457,-47.852,-38.086,-25.879,0.000
1709215168.890,-51.270,-44.922,-39.551,-31.250,0.000
1709215168.893,-40.527,-41.504,-36.133,-22.949,0.000
1709215168.897,-31.250,-44.434,-33.203,-14.160,0.000
1709215168.901,-39.551,-58.594,-32.227,-20.996,0.000
1709215168.905,-56.152,-58.594,-36.621,-41.504,0.000
1709215168.909,-55.664,-42.969,-35.156,-41.504,0.000
1709215168.913,-37.598,-37.598,-33.203,-22.461,0.000
1709215168.917,-32.227,-35.645,-37.109,-23.926,0.000
1709215168.921,-37.598,-33.203,-39.062,-41.992,0.000
1709215168.925,-49.805,-34.180,-38.574,-50.781,0.000
1709215168.929,-54.199,-42.969,-37.598,-47.363,0.000
1709215168.933,-35.645,-42.969,-35.645,-36.621,0.000
1709215168.937,-26.367,-39.551,-37.109,-34.668,0.000
1709215168.941,-25.391,-41.992,-38.086,-30.273,0.000
1709215168.945,-25.391,-38.574,-35.156,-26.855,0.000
1709215168.948,-40.527,-40.039,-37.109,-32.227,0.000
1709215168.952,-41.992,-40.527,-36.621,-33.203,0.000
1709215168.956,-20.996,-43.945,-32.715,-23.438,0.000
1709215168.960,-17.578,-41.992,-35.645,-20.508,0.000
1709215168.964,-35.645,-45.410,-35.156,-25.879,0.000
1709215168.968,-39.551,-49.316,-34.180,-36.621,0.000
1709215168.972,-27.832,-39.062,-38.574,-37.109,0.000
1709215168.976,-20.996,-35.645,-34.668,-21.484,0.000
1709215168.980,-32.227,-45.410,-33.203,-27.832,0.000
1709215168.984,-47.363,-46.387,-39.551,-48.828,0.000
1709215168.988,-47.363,-37.109,-37.109,-50.293,0.000
1709215168.992,-43.457,-40.527,-34.180,-37.598,0.000
1709215168.996,-39.062,-44.922,-35.645,-29.785,0.000
1709215168.999,-37.598,-52.734,-33.691,-33.691,0.000
1709215169.003,-48.828,-61.523,-39.062,-41.504,0.000
1709215169.007,-53.711,-46.387,-39.062,-38.574,0.000
1709215169.011,-48.340,-40.039,-37.598,-31.738,0.000
1709215169.015,-39.062,-47.852,-40.527,-32.227,0.000
1709215169.019,-41.016,-53.711,-40.527,-35.156,0.000
1709215169.023,-35.156,-45.898,-36.621,-39.062,0.000
1709215169.027,-37.598,-38.574,-36.133,-38.086,0.000
1709215169.031,-41.016,-39.551,-40.039,-32.227,0.000
1709215169.035,-27.344,-40.039,-38.086,-21.484,0.000
1709215169.039,-24.902,-44.922,-34.668,-14.648,0.000
1709215169.043,-37.109,-44.434,-34.668,-34.180,0.000
1709215169.046,-46.387,-51.758,-34.668,-41.992,0.000
1709215169.050,-38.086,-51.270,-31.738,-27.832,0.000
1709215169.054,-21.484,-41.504,-36.621,-32.715,0.000
1709215169.058,-17.090,-35.645,-40.039,-42.969,0.000
1709215169.062,-31.250,-36.133,-35.156,-49.805,0.000
1709215169.066,-58.105,-35.645,-39.062,-58.105,0.000
1709215169.070,-59.082,-37.598,-43.945,-50.781,0.000
1709215169.074,-39.551,-33.203,-35.645,-33.203,0.000
1709215169.078,-33.203,-31.738,-41.016,-39.551,0.000
1709215169.082,-44.922,-43.945,-46.875,-46.875,0.000
1709215169.085,-55.176,-43.457,-44.434,-48.828,0.000
1709215169.089,-56.641,-37.109,-42.969,-55.664,0.000
1709215169.093,-51.758,-45.898,-42.969,-49.805,0.000
1709215169.097,-40.527,-53.223,-43.945,-37.109,0.000
1709215169.101,-41.016,-51.270,-40.527,-38.086,0.000
1709215169.105,-48.340,-43.945,-35.645,-47.363,0.000
1709215169.109,-47.852,-45.898,-29.785,-40.039,0.000
1709215169.113,-47.852,-64.941,-30.273,-37.109,0.000
1709215169.117,-42.480,-54.199,-31.250,-36.621,0.000
1709215169.121,-40.039,-34.668,-29.785,-37.109,0.000
1709215169.124,-52.734,-36.133,-32.227,-56.152,0.000
1709215169.128,-55.664,-40.039,-38.574,-53.223,0.000
1709215169.132,-43.945,-42.969,-37.109,-32.227,0.000
1709215169.136,-33.691,-49.316,-37.598,-29.297,0.000
1709215169.140,-37.109,-49.316,-35.156,-36.133,0.000
1709215169.144,-48.340,-41.016,-33.691,-43.457,0.000
1709215169.148,-49.805,-39.062,-38.574,-37.598,0.000
1709215169.152,-36.133,-33.691,-45.898,-27.832,0.000
1709215169.155,-30.762,-34.180,-48.340,-23.438,0.000
1709215169.159,-38.086,-40.039,-41.504,-27.344,0.000
1709215169.163,-50.781,-42.969,-39.551,-41.504,0.000
1709215169.167,-52.246,-43.457,-42.480,-41.504,0.000
1709215169.171,-37.109,-46.387,-40.527,-20.996,0.000
1709215169.175,-26.855,-45.410,-34.668,-2.930,0.000
1709215169.179,-23.926,-38.086,-31.250,-11.230,0.000
1709215169.183,-33.203,-38.086,-33.203,-25.391,0.000
1709215169.187,-40.039,-40.039,-37.598,-30.762,0.000
1709215169.191,-39.551,-45.898,-41.504,-25.391,0.000
1709215169.194,-27.832,-42.969,-40.039,-11.719,0.000
1709215169.198,-27.344,-37.598,-38.086,-15.625,0.000
1709215169.202,-45.898,-36.621,-39.551,-24.414,0.000
1709215169.206,-62.988,-37.109,-39.551,-33.203,0.000
1709215169.210,-62.012,-38.574,-31.738,-36.621,0.000
1709215169.214,-44.434,-43.457,-31.250,-27.344,0.000
1709215169.218,-33.691,-48.828,-37.598,-17.578,0.000
1709215169.222,-45.898,-53.223,-39.062,-28.809,0.000
1709215169.226,-51.270,-51.758,-32.715,-44.922,0.000
1709215169.229,-49.316,-48.828,-32.227,-44.922,0.000
1709215169.233,-42.969,-47.852,-39.062,-36.133,0.000
1709215169.237,-28.809,-41.992,-38.086,-25.391,0.000
1709215169.241,-32.227,-35.645,-32.715,-26.855,0.000
1709215169.245,-45.410,-44.434,-37.109,-39.551,0.000
1709215169.249,-41.992,-42.480,-41.016,-41.992,0.000
1709215169.253,-28.320,-38.574,-36.133,-26.367,0.000
1709215169.256,-20.020,-47.363,-41.016,-13.672,0.000
1709215169.260,-25.391,-49.316,-39.062,-21.484,0.000
1709215169.264,-39.062,-41.504,-34.180,-34.668,0.000
1709215169.268,-48.828,-48.828,-37.109,-45.898,0.000
1709215169.272,-28.320,-52.246,-32.227,-32.227,0.000
1709215169.276,-12.695,-42.480,-37.109,-28.320,0.000
1709215169.280,-28.809,-37.109,-47.363,-44.434,0.000
1709215169.284,-47.852,-34.180,-47.852,-62.012,0.000
1709215169.288,-46.875,-35.156,-43.945,-50.781,0.000
1709215169.292,-33.691,-40.527,-44.434,-32.227,0.000
1709215169.296,-28.809,-41.992,-43.457,-26.855,0.000
1709215169.300,-28.809,-37.109,-39.062,-34.668,0.000
1709215169.304,-42.480,-43.945,-40.527,-49.805,0.000
1709215169.308,-52.734,-53.223,-40.527,-43.945,0.000
1709215169.311,-40.527,-44.922,-36.621,-39.062,0.000
1709215169.315,-25.879,-37.598,-37.598,-38.086,0.000
1709215169.319,-25.879,-39.551,-38.574,-35.156,0.000
1709215169.323,-34.668,-44.922,-38.574,-42.480,0.000
1709215169.327,-48.828,-48.828,-38.574,-57.129,0.000
1709215169.331,-38.086,-44.434,-33.203,-41.016,0.000
1709215169.335,-28.809,-37.109,-33.203,-27.832,0.000
1709215169.339,-36.621,-39.551,-38.574,-33.691,0.000
1709215169.343,-42.480,-43.457,-39.551,-45.410,0.000
1709215169.347,-44.922,-47.363,-29.785,-51.758,0.000
1709215169.351,-38.086,-49.316,-29.785,-43.945,0.000
1709215169.355,-29.297,-42.480,-34.668,-34.180,0.000
1709215169.359,-23.926,-44.434,-31.738,-33.691,0.000
1709215169.362,-40.039,-48.828,-36.133,-47.852,0.000
1709215169.366,-47.363,-43.945,-37.109,-49.805,0.000
1709215169.370,-43.945,-40.527,-36.133,-40.039,0.000
1709215169.374,-39.062,-39.551,-33.203,-33.691,0.000
1709215169.378,-35.156,-37.598,-36.621,-37.598,0.000
1709215169.382,-43.457,-40.039,-39.551,-42.969,0.000
1709215169.386,-49.805,-40.039,-41.016,-49.316,0.000
1709215169.390,-40.039,-43.945,-46.387,-54.199,0.000
1709215169.394,-27.344,-47.363,-43.945,-31.250,0.000
1709215169.398,-29.297,-48.340,-36.621,-20.508,0.000
1709215169.402,-35.645,-58.594,-36.133,-43.945,0.000
1709215169.406,-45.410,-53.711,-34.180,-57.129,0.000
1709215169.409,-47.363,-41.504,-36.133,-50.781,0.000
1709215169.413,-32.715,-43.945,-41.992,-27.344,0.000
1709215169.417,-25.391,-48.828,-41.016,-28.320,0.000
1709215169.421,-37.598,-42.480,-38.086,-49.805,0.000
1709215169.425,-47.363,-37.598,-40.039,-50.293,0.000
1709215169.429,-44.434,-38.574,-43.457,-41.016,0.000
1709215169.433,-34.668,-46.875,-45.898,-32.227,0.000
1709215169.437,-23.926,-40.527,-40.039,-25.391,0.000
1709215169.441,-24.414,-29.297,-34.180,-36.133,0.000
1709215169.445,-43.945,-39.062,-36.621,-50.293,0.000
1709215169.448,-50.293,-44.922,-41.016,-45.410,0.000
1709215169.452,-40.039,-37.598,-41.992,-33.691,0.000
1709215169.456,-37.109,-40.039,-42.480,-26.855,0.000
1709215169.460,-43.945,-47.363,-44.922,-25.391,0.000
1709215169.464,-41.504,-52.734,-47.363,-29.297,0.000
1709215169.468,-40.527,-52.246,-41.504,-41.016,0.000
1709215169.472,-38.086,-44.922,-39.062,-53.223,0.000
1709215169.477,-25.391,-40.039,-38.086,-36.133,0.000
1709215169.480,-33.203,-36.133,-37.109,-35.645,0.000
1709215169.484,-52.734,-43.457,-32.715,-52.246,0.000
1709215169.488,-50.293,-45.410,-31.738,-49.316,0.000
1709215169.492,-41.504,-36.621,-35.156,-39.551,0.000
1709215169.496,-41.016,-41.016,-39.062,-30.762,0.000
1709215169.500,-39.062,-38.086,-41.016,-24.414,0.000
1709215169.504,-41.992,-40.039,-41.504,-28.320,0.000
1709215169.508,-50.781,-38.574,-45.410,-41.992,0.000
1709215169.512,-48.828,-36.621,-45.410,-47.852,0.000
1709215169.516,-30.273,-46.875,-36.133,-33.691,0.000
1709215169.520,-24.414,-42.969,-31.250,-20.508,0.000
1709215169.524,-45.410,-40.527,-41.016,-38.086,0.000
1709215169.528,-52.734,-57.617,-38.574,-60.059,0.000
1709215169.532,-42.480,-53.223,-38.574,-50.293,0.000
1709215169.536,-34.180,-36.133,-47.363,-32.227,0.000
1709215169.540,-35.156,-29.785,-40.039,-33.203,0.000
1709215169.544,-41.992,-36.133,-33.691,-42.480,0.000
1709215169.547,-41.992,-41.504,-34.668,-47.852,0.000
1709215169.551,-45.410,-42.969,-34.668,-46.387,0.000
1709215169.555,-38.086,-47.363,-37.109,-41.504,0.000
1709215169.559,-28.809,-49.316,-37.109,-44.922,0.000
1709215169.563,-37.109,-45.898,-33.203,-38.574,0.000
1709215169.567,-52.734,-51.270,-40.039,-40.527,0.000
1709215169.571,-47.852,-49.805,-43.945,-51.270,0.000
1709215169.574,-27.344,-39.062,-34.668,-37.598,0.000
1709215169.578,-33.203,-36.621,-40.527,-37.109,0.000
1709215169.582,-40.039,-38.086,-45.898,-53.711,0.000
1709215169.586,-46.387,-38.086,-37.598,-55.176,0.000
1709215169.590,-46.387,-47.852,-33.691,-38.574,0.000
1709215169.594,-32.715,-47.363,-36.621,-25.391,0.000
1709215169.598,-25.879,-39.551,-44.434,-25.879,0.000
1709215169.602,-32.227,-32.715,-44.434,-32.227,0.000
1709215169.606,-56.641,-39.062,-41.504,-39.062,0.000
1709215169.610,-62.500,-55.176,-41.504,-37.109,0.000
1709215169.613,-46.387,-55.176,-39.062,-30.273,0.000
1709215169.617,-32.227,-43.457,-39.551,-31.738,0.000
1709215169.621,-32.715,-41.504,-34.668,-35.645,0.000
1709215169.625,-39.551,-47.363,-26.855,-41.504,0.000
1709215169.629,-42.480,-42.480,-29.785,-44.922,0.000
1709215169.633,-39.062,-36.621,-35.645,-40.039,0.000
1709215169.636,-24.414,-28.809,-27.344,-25.391,0.000
1709215169.640,-30.273,-35.156,-28.809,-33.203,0.000
1709215169.644,-40.039,-47.363,-37.598,-48.828,0.000
1709215169.648,-43.457,-41.992,-28.320,-49.805,0.000
1709215169.652,-46.875,-51.270,-27.344,-48.828,0.000
1709215169.656,-34.180,-55.664,-29.297,-38.086,0.000
1709215169.660,-29.297,-48.340,-26.367,-35.156,0.000
1709215169.664,-41.992,-50.781,-30.762,-41.504,0.000
1709215169.668,-54.688,-58.594,-33.203,-43.945,0.000
1709215169.672,-48.340,-46.875,-33.691,-32.715,0.000
1709215169.676,-34.668,-32.715,-33.691,-20.508,0.000
1709215169.680,-38.086,-38.574,-36.133,-29.785,0.000
1709215169.684,-53.711,-47.363,-42.969,-43.945,0.000
1709215169.688,-61.035,-49.316,-40.527,-40.527,0.000
1709215169.691,-53.223,-46.387,-32.227,-27.832,0.000
1709215169.695,-40.527,-44.434,-29.785,-11.719,0.000
1709215169.699,-40.039,-41.504,-34.668,-8.789,0.000
1709215169.703,-46.387,-33.203,-37.109,-26.367,0.000
1709215169.707,-49.805,-50.781,-38.574,-41.504,0.000
1709215169.711,-46.875,-62.012,-40.039,-36.621,0.000
1709215169.715,-44.434,-52.734,-40.039,-28.320,0.000
1709215169.719,-44.434,-41.504,-42.480,-38.086,0.000
1709215169.723,-52.246,-30.762,-41.016,-49.805,0.000
1709215169.727,-60.059,-39.062,-37.598,-52.734,0.000
1709215169.731,-56.152,-42.480,-37.598,-46.387,0.000
1709215169.735,-44.434,-41.016,-31.738,-33.203,0.000
1709215169.739,-44.434,-51.758,-30.762,-33.691,0.000
1709215169.742,-48.828,-56.641,-34.668,-36.133,0.000
1709215169.746,-48.828,-49.316,-37.109,-29.785,0.000
1709215169.750,-49.316,-48.340,-37.598,-32.715,0.000
1709215169.754,-36.621,-60.059,-32.227,-22.461,0.000
1709215169.758,-26.855,-53.223,-30.273,-15.137,0.000
1709215169.762,-35.645,-41.016,-37.598,-37.109,0.000
1709215169.766,-43.945,-42.969,-41.992,-49.316,0.000
1709215169.770,-39.551,-44.434,-39.062,-43.457,0.000
1709215169.774,-22.949,-52.734,-34.180,-35.645,0.000
1709215169.778,-23.438,-61.035,-31.738,-22.949,0.000
1709215169.782,-35.645,-57.617,-38.086,-39.062,0.000
1709215169.785,-50.781,-43.945,-44.922,-63.965,0.000
1709215169.789,-50.293,-39.062,-40.039,-45.898,0.000
1709215169.793,-32.227,-45.898,-38.086,-28.320,0.000
1709215169.797,-16.113,-47.852,-43.945,-30.762,0.000
1709215169.801,-19.531,-45.410,-37.598,-27.344,0.000
1709215169.805,-35.645,-41.992,-31.250,-43.945,0.000
1709215169.809,-37.598,-32.227,-31.738,-57.129,0.000
1709215169.813,-32.227,-34.668,-36.133,-42.969,0.000
1709215169.817,-34.668,-41.016,-42.969,-34.668,0.000
1709215169.821,-36.133,-39.551,-40.527,-41.016,0.000
1709215169.824,-45.410,-40.527,-41.016,-48.340,0.000
1709215169.828,-43.945,-35.156,-37.598,-47.363,0.000
1709215169.832,-32.227,-35.156,-37.109,-39.062,0.000
1709215169.836,-22.461,-43.945,-33.691,-26.855,0.000
1709215169.840,-30.762,-38.574,-37.109,-39.551,0.000
1709215169.844,-43.457,-36.133,-43.945,-48.828,0.000
1709215169.848,-45.410,-45.898,-45.898,-48.340,0.000
1709215169.852,-42.969,-42.480,-46.875,-42.480,0.000
1709215169.856,-32.715,-33.691,-45.898,-25.879,0.000
1709215169.859,-25.879,-36.621,-46.875,-25.391,0.000
1709215169.863,-36.133,-35.645,-45.898,-40.039,0.000
1709215169.867,-49.805,-34.180,-43.945,-48.340,0.000
1709215169.871,-52.734,-37.109,-46.875,-51.270,0.000
1709215169.875,-42.969,-41.016,-46.875,-36.621,0.000
1709215169.879,-27.344,-49.316,-39.062,-16.602,0.000
1709215169.883,-35.156,-54.199,-35.645,-32.715,0.000
1709215169.887,-56.641,-50.293,-39.551,-52.734,0.000
1709215169.891,-55.176,-44.434,-40.527,-38.086,0.000
1709215169.895,-36.133,-40.039,-38.086,-24.902,0.000
1709215169.898,-23.926,-40.527,-37.109,-27.832,0.000
1709215169.902,-33.203,-41.992,-39.062,-34.668,0.000
1709215169.906,-60.547,-44.922,-38.574,-49.316,0.000
1709215169.910,-59.082,-47.363,-37.109,-51.270,0.000
1709215169.914,-39.062,-41.992,-34.180,-32.715,0.000
1709215169.918,-38.086,-40.527,-36.133,-33.691,0.000
1709215169.922,-53.711,-47.363,-47.363,-51.270,0.000
1709215169.926,-65.430,-44.434,-41.992,-51.758,0.000
1709215169.930,-55.176,-34.668,-32.715,-44.434,0.000
1709215169.933,-44.922,-39.062,-36.133,-37.598,0.000
1709215169.937,-34.668,-49.316,-39.551,-37.598,0.000
1709215169.941,-27.832,-44.922,-41.016,-46.387,0.000
1709215169.945,-45.898,-35.156,-43.457,-54.688,0.000
1709215169.949,-46.387,-34.668,-42.969,-46.875,0.000
1709215169.953,-30.273,-38.574,-44.922,-36.133,0.000
1709215169.957,-22.461,-39.062,-42.480,-29.297,0.000
1709215169.960,-23.438,-33.691,-34.180,-29.297,0.000
1709215169.964,-33.691,-37.109,-38.086,-34.180,0.000
1709215169.968,-39.551,-40.039,-39.062,-29.785,0.000
1709215169.972,-27.344,-38.574,-36.133,-29.297,0.000
1709215169.976,-19.043,-39.062,-35.156,-28.809,0.000
1709215169.980,-25.391,-39.551,-31.250,-33.203,0.000
1709215169.984,-31.250,-45.410,-28.320,-42.969,0.000
1709215169.988,-33.691,-46.387,-28.320,-40.527,0.000
1709215169.991,-41.992,-38.086,-37.598,-45.898,0.000
1709215169.995,-37.598,-42.480,-38.086,-39.551,0.000
1709215169.999,-38.574,-50.293,-35.156,-35.156,0.000
1709215170.003,-45.410,-50.293,-38.574,-56.641,0.000
1709215170.007,-48.340,-55.664,-37.109,-53.711,0.000
1709215170.011,-52.734,-54.688,-37.598,-37.598,0.000
1709215170.015,-38.086,-45.898,-38.574,-32.227,0.000
1709215170.019,-32.227,-42.480,-34.180,-31.250,0.000
1709215170.023,-47.852,-46.387,-33.691,-40.527,0.000
1709215170.026,-53.223,-52.246,-37.109,-45.898,0.000
1709215170.030,-43.945,-53.223,-33.691,-32.227,0.000
1709215170.034,-31.250,-47.852,-41.504,-27.344,0.000
1709215170.038,-24.414,-46.875,-46.875,-30.273,0.000
1709215170.042,-31.738,-41.504,-44.922,-35.156,0.000
1709215170.046,-43.457,-37.598,-45.898,-42.969,0.000
1709215170.050,-29.785,-46.387,-37.109,-31.250,0.000
1709215170.054,-16.113,-52.246,-34.668,-11.230,0.000
1709215170.058,-22.949,-51.758,-40.527,-15.625,0.000
1709215170.062,-30.273,-40.039,-40.527,-35.645,0.000
1709215170.066,-39.551,-45.410,-45.898,-46.387,0.000
1709215170.070,-39.062,-44.434,-45.410,-38.574,0.000
1709215170.074,-28.320,-39.062,-40.039,-11.719,0.000
1709215170.078,-28.809,-39.551,-42.969,-15.137,0.000
1709215170.081,-39.062,-37.598,-44.434,-42.969,0.000
1709215170.086,0.000,-45.898,0.000,-55.176,0.000
1709215170.089,0.000,-42.480,0.000,-51.758,0.000
1709215170.093,0.000,-36.133,0.000,-34.180,0.000
1709215170.097,0.000,-39.062,0.000,-25.879,0.000
1709215170.101,0.000,-36.133,0.000,-27.832,0.000
1709215170.105,0.000,-34.180,0.000,-31.738,0.000
1709215170.109,0.000,-34.180,0.000,-30.273,0.000
1709215170.113,0.000,-36.621,0.000,-30.273,0.000
1709215170.117,0.000,-53.711,0.000,-21.973,0.000
1709215170.121,0.000,-56.152,0.000,-10.742,0.000
1709215170.125,0.000,-37.598,0.000,-36.621,0.000
1709215170.129,0.000,-34.668,0.000,-53.223,0.000
1709215170.133,-52.246,-41.992,-42.969,-41.992,0.000
1709215170.136,-44.434,-41.504,-44.922,-28.809,0.000
1709215170.140,-42.969,-40.527,-42.480,-26.855,0.000
1709215170.144,-45.898,-42.480,-38.086,-36.133,0.000
1709215170.148,-49.805,-45.898,-39.062,-41.504,0.000
1709215170.152,-38.086,-54.199,-42.969,-29.785,0.000
1709215170.156,-28.809,-62.500,-44.434,-27.344,0.000
1709215170.160,-29.785,-51.758,-37.109,-34.668,0.000
1709215170.164,-36.621,-43.945,-32.715,-37.598,0.000
1709215170.168,-48.828,-47.852,-37.109,-48.340,0.000
1709215170.172,-42.969,-36.621,-42.480,-42.480,0.000
1709215170.175,-30.762,-33.691,-42.480,-35.645,0.000
1709215170.180,-24.414,-47.363,-40.527,-35.645,0.000
1709215170.184,-32.227,-52.734,-44.434,-35.156,0.000
1709215170.188,-47.852,-43.457,-46.875,-48.340,0.000
1709215170.192,-46.875,-35.645,-45.410,-49.316,0.000
1709215170.196,-39.062,-37.109,-43.457,-37.109,0.000
1709215170.200,-40.039,-41.992,-45.410,-34.180,0.000
1709215170.204,-40.527,-42.969,-42.969,-36.621,0.000
1709215170.207,-41.016,-37.598,-39.062,-41.504,0.000
1709215170.211,-42.969,-34.668,-41.992,-39.062,0.000
1709215170.215,-31.738,-32.227,-35.645,-26.367,0.000
1709215170.219,-21.484,-38.086,-33.203,-27.344,0.000
1709215170.223,-38.086,-54.199,-41.504,-41.016,0.000
1709215170.227,-55.176,-51.758,-47.852,-49.316,0.000
1709215170.231,-61.035,-46.387,-42.480,-47.363,0.000
1709215170.235,-42.969,-43.945,-36.621,-33.691,0.000
1709215170.239,-38.574,-54.199,-45.898,-34.180,0.000
1709215170.242,-57.129,-79.102,-46.875,-50.781,0.000
1709215170.246,-64.941,-68.359,-44.434,-60.059,0.000
1709215170.250,-71.289,-44.434,-47.852,-52.734,0.000
1709215170.254,-66.895,-46.387,-42.480,-39.551,0.000
1709215170.258,-44.922,-44.922,-35.156,-21.973,0.000
1709215170.262,-39.551,-41.016,-35.645,-39.551,0.000
1709215170.266,-53.223,-50.781,-41.992,-60.547,0.000
1709215170.270,-43.457,-56.641,-40.527,-28.809,0.000
1709215170.273,-27.832,-46.387,-41.992,-25.879,0.000
1709215170.277,-23.438,-36.621,-41.016,-34.180,0.000
1709215170.281,-30.762,-41.992,-35.156,-33.691,0.000
1709215170.285,-38.086,-47.852,-33.691,-45.898,0.000
1709215170.289,-39.062,-42.480,-33.203,-35.645,0.000
1709215170.293,-37.109,-35.156,-30.762,-28.809,0.000
1709215170.297,-36.621,-44.922,-36.133,-25.879,0.000
1709215170.301,-38.574,-45.410,-35.156,-24.414,0.000
1709215170.305,-43.457,-32.715,-25.879,-49.805,0.000
1709215170.309,-48.340,-34.668,-36.621,-65.918,0.000
1709215170.313,-41.504,-39.062,-43.457,-56.641,0.000
1709215170.316,-31.738,-35.645,-45.898,-44.922,0.000
1709215170.320,-29.297,-34.668,-46.387,-46.875,0.000
1709215170.324,-30.762,-37.109,-41.504,-56.152,0.000
1709215170.328,-35.645,-46.387,-42.969,-62.500,0.000
1709215170.332,-35.156,-48.340,-41.504,-45.898,0.000
1709215170.336,-22.949,-41.992,-38.086,-32.715,0.000
1709215170.340,-20.508,-42.480,-40.527,-40.039,0.000
1709215170.344,-32.715,-45.410,-39.062,-43.457,0.000
1709215170.347,-41.016,-47.852,-34.668,-42.480,0.000
1709215170.351,-40.527,-46.875,-38.086,-47.363,0.000
1709215170.355,-38.574,-49.805,-39.062,-41.016,0.000
1709215170.359,-39.551,-45.410,-34.180,-28.809,0.000
1709215170.363,-43.457,-35.156,-30.273,-41.992,0.000
1709215170.367,-46.875,-35.645,-30.273,-60.059,0.000
1709215170.371,-41.504,-50.781,-33.203,-52.246,0.000
1709215170.375,-34.180,-59.570,-40.039,-36.133,0.000
1709215170.379,-30.273,-49.805,-40.039,-33.203,0.000
1709215170.383,-44.434,-46.387,-36.621,-53.223,0.000
1709215170.387,-57.129,-49.805,-34.668,-61.523,0.000
1709215170.391,-45.898,-47.852,-33.203,-41.504,0.000
1709215170.395,-36.133,-45.898,-39.062,-35.645,0.000
1709215170.399,-37.109,-46.387,-43.457,-37.598,0.000
1709215170.402,-40.527,-41.992,-44.434,-40.527,0.000
1709215170.406,-49.805,-41.016,-41.504,-52.734,0.000
1709215170.410,-44.434,-49.316,-41.016,-56.152,0.000
1709215170.414,-27.832,-46.875,-41.016,-42.969,0.000
1709215170.418,-19.043,-43.945,-35.156,-26.367,0.000
1709215170.422,-25.391,-50.781,-34.180,-33.691,0.000
1709215170.426,-35.156,-40.039,-34.180,-53.223,0.000
1709215170.430,-35.645,-33.691,-36.621,-56.641,0.000
1709215170.434,-27.832,-44.434,-37.598,-43.457,0.000
1709215170.438,-19.531,-46.875,-37.109,-34.180,0.000
1709215170.442,-21.973,-48.340,-41.504,-34.668,0.000
1709215170.446,-32.227,-44.434,-43.945,-51.758,0.000
1709215170.450,-31.738,-36.133,-43.457,-49.805,0.000
1709215170.453,-23.438,-38.574,-41.016,-39.062,0.000
1709215170.457,-21.484,-42.480,-41.992,-39.062,0.000
1709215170.461,-33.203,-54.199,-42.969,-39.062,0.000
1709215170.465,-42.969,-50.293,-38.086,-54.199,0.000
1709215170.469,-37.598,-41.016,-35.156,-56.641,0.000
1709215170.473,-23.926,-47.363,-34.180,-31.250,0.000
1709215170.477,-26.855,-45.410,-27.832,-28.320,0.000
1709215170.481,-37.598,-36.621,-36.621,-46.387,0.000
1709215170.485,-43.945,-34.180,-47.852,-53.711,0.000
1709215170.489,-48.340,-30.762,-40.039,-51.270,0.000
1709215170.493,-35.156,-38.574,-34.668,-36.621,0.000
1709215170.497,-16.602,-45.898,-39.551,-19.531,0.000
1709215170.500,-16.602,-42.480,-39.062,-30.273,0.000
1709215170.504,-26.855,-43.457,-31.738,-46.387,0.000
1709215170.508,-28.809,-41.016,-34.668,-49.316,0.000
1709215170.512,-23.926,-35.645,-34.668,-37.598,0.000
1709215170.516,-18.555,-51.758,-34.180,-31.250,0.000
1709215170.520,-21.484,-59.082,-34.180,-41.016,0.000
1709215170.524,-37.598,-40.039,-33.203,-47.852,0.000
1709215170.528,-37.109,-33.691,-36.621,-52.246,0.000
1709215170.532,-33.203,-30.273,-41.504,-52.246,0.000
1709215170.536,-25.391,-26.855,-44.922,-41.504,0.000
1709215170.540,-21.973,-33.203,-38.574,-29.785,0.000
1709215170.544,-32.715,-31.738,-29.297,-38.086,0.000
1709215170.547,-39.062,-37.109,-34.668,-48.340,0.000
1709215170.551,-39.551,-53.711,-37.598,-43.457,0.000
1709215170.555,-24.902,-54.688,-38.086,-30.762,0.000
1709215170.559,-18.555,-44.434,-44.434,-34.668,0.000
1709215170.563,-40.039,-50.293,-38.574,-50.781,0.000
1709215170.567,-55.664,-53.711,-34.180,-56.641,0.000
1709215170.571,-56.641,-52.734,-41.504,-57.129,0.000
1709215170.575,-38.086,-52.734,-44.434,-38.574,0.000
1709215170.579,-20.508,-41.992,-43.457,-28.320,0.000
1709215170.583,-30.762,-46.875,-47.363,-48.340,0.000
1709215170.586,-46.875,-45.410,-46.875,-49.316,0.000
1709215170.590,-41.016,-35.156,-44.922,-46.875,0.000
1709215170.594,-35.645,-38.574,-50.293,-48.828,0.000
1709215170.598,-37.109,-40.527,-48.828,-34.668,0.000
1709215170.602,-47.852,-41.992,-50.293,-39.062,0.000
1709215170.606,-54.688,-42.480,-48.828,-52.734,0.000
1709215170.610,-50.293,-41.504,-42.969,-51.758,0.000
1709215170.614,-34.668,-45.410,-40.039,-38.086,0.000
1709215170.618,-24.902,-49.316,-36.621,-33.691,0.000
1709215170.621,-36.621,-56.641,-37.109,-45.410,0.000
1709215170.625,-50.781,-60.547,-36.133,-47.852,0.000
1709215170.629,-56.152,-55.176,-36.621,-44.922,0.000
1709215170.633,-46.387,-37.109,-37.109,-39.551,0.000
1709215170.637,-37.109,-28.809,-35.156,-26.367,0.000
1709215170.641,-49.316,-35.645,-35.156,-27.344,0.000
1709215170.645,-61.035,-45.410,-32.227,-39.062,0.000
1709215170.649,-61.035,-48.828,-26.367,-36.621,0.000
1709215170.652,-49.805,-42.969,-30.762,-32.715,0.000
1709215170.656,-26.367,-36.133,-31.738,-26.855,0.000
1709215170.660,-33.203,-49.316,-35.645,-30.762,0.000
1709215170.664,-62.988,-61.523,-37.598,-56.641,0.000
1709215170.668,-68.359,-50.293,-35.156,-61.035,0.000
1709215170.672,-54.199,-45.898,-30.273,-41.992,0.000
1709215170.676,-36.133,-49.805,-26.855,-23.926,0.000
1709215170.680,-38.086,-52.734,-31.250,-32.715,0.000
1709215170.684,-61.035,-58.105,-28.320,-50.293,0.000
1709215170.688,-62.500,-55.176,-31.250,-58.105,0.000
1709215170.691,-49.805,-49.805,-36.133,-47.852,0.000
1709215170.695,-38.574,-39.062,-33.203,-32.715,0.000
1709215170.699,-27.344,-40.039,-31.250,-30.762,0.000
1709215170.703,-31.738,-45.898,-28.809,-37.598,0.000
1709215170.707,-41.504,-42.969,-32.227,-39.551,0.000
1709215170.711,-36.621,-44.922,-33.691,-28.320,0.000
1709215170.715,-17.578,-46.875,-32.227,-17.090,0.000
1709215170.718,-11.719,-50.293,-40.039,-17.090,0.000
1709215170.722,-37.109,-50.781,-43.457,-37.598,0.000
1709215170.726,-48.340,-47.363,-41.992,-52.734,0.000
1709215170.730,-41.504,-38.086,-37.598,-45.410,0.000
1709215170.734,-37.109,-33.203,-32.715,-31.250,0.000
1709215170.738,-35.156,-39.551,-34.180,-31.738,0.000
1709215170.742,-41.016,-37.598,-31.738,-43.945,0.000
1709215170.745,-41.992,-35.645,-29.785,-46.387,0.000
1709215170.749,-33.203,-43.457,-33.691,-45.410,0.000
1709215170.753,-30.273,-47.852,-38.574,-38.086,0.000
1709215170.757,-41.016,-44.434,-44.922,-41.016,0.000
1709215170.761,-51.758,-50.293,-41.504,-47.852,0.000
1709215170.765,-54.688,-51.758,-35.156,-39.062,0.000
1709215170.769,-51.758,-39.551,-35.645,-32.715,0.000
1709215170.773,-22.461,-39.551,-36.133,-18.066,0.000
1709215170.777,-12.695,-48.340,-41.992,-12.695,0.000
1709215170.781,-32.227,-43.945,-39.551,-24.902,0.000
1709215170.784,-48.340,-34.180,-37.109,-38.086,0.000
1709215170.789,-46.387,-44.922,-41.504,-35.645,0.000
1709215170.793,-31.738,-51.758,-43.457,-27.344,0.000
1709215170.796,-29.297,-41.016,-41.016,-11.230,0.000
1709215170.800,-25.879,-32.227,-39.551,-7.812,0.000
1709215170.804,-31.738,-38.086,-39.062,-27.832,0.000
1709215170.808,-35.645,-47.363,-41.992,-31.250,0.000
1709215170.812,-24.414,-38.574,-38.086,-18.555,0.000
1709215170.816,-19.531,-41.992,-34.180,-18.555,0.000
1709215170.820,-30.762,-49.805,-34.668,-23.438,0.000
1709215170.824,-26.855,-48.340,-26.367,-13.184,0.000
1709215170.828,-34.180,-48.340,-30.762,-23.926,0.000
1709215170.832,-46.875,-45.410,-36.133,-39.551,0.000
1709215170.836,-29.785,-46.875,-31.250,-29.297,0.000
1709215170.840,-25.879,-48.340,-36.133,-27.344,0.000
1709215170.843,-35.645,-46.387,-42.480,-45.410,0.000
1709215170.847,-49.316,-47.852,-40.527,-59.082,0.000
1709215170.851,-45.898,-45.898,-38.574,-57.617,0.000
1709215170.855,-32.715,-49.805,-38.086,-45.410,0.000
1709215170.859,-35.156,-50.293,-39.551,-49.316,0.000
1709215170.863,-47.852,-47.363,-41.504,-63.477,0.000
1709215170.867,-56.641,-46.387,-38.086,-58.594,0.000
1709215170.871,-50.781,-47.852,-38.574,-41.992,0.000
1709215170.875,-38.574,-51.758,-47.852,-42.969,0.000
1709215170.879,-39.551,-54.688,-50.781,-49.805,0.000
1709215170.883,-34.668,-46.875,-45.898,-52.734,0.000
1709215170.887,-40.527,-46.875,-39.551,-59.570,0.000
1709215170.890,-53.223,-45.410,-39.062,-56.641,0.000
1709215170.894,-37.109,-44.922,-49.316,-48.340,0.000
1709215170.898,-34.180,-46.875,-43.945,-38.574,0.000
1709215170.902,-39.062,-46.387,-36.621,-38.574,0.000
1709215170.906,-46.387,-48.828,-39.551,-48.340,0.000
1709215170.910,-42.480,-50.293,-36.621,-41.992,0.000
1709215170.914,-25.391,-50.781,-30.273,-17.090,0.000
1709215170.918,-19.043,-41.016,-34.668,-9.277,0.000
1709215170.922,-28.809,-35.156,-37.598,-20.508,0.000
1709215170.926,-41.992,-42.480,-39.062,-29.297,0.000
1709215170.929,-48.340,-48.340,-39.551,-29.785,0.000
1709215170.933,-40.527,-46.387,-37.109,-22.461,0.000
1709215170.937,-21.973,-39.551,-29.785,-13.184,0.000
1709215170.941,-26.855,-36.133,-28.809,-13.184,0.000
1709215170.945,-44.922,-38.574,-35.156,-31.738,0.000
1709215170.949,-40.039,-40.527,-35.645,-37.598,0.000
1709215170.953,-39.062,-40.527,-34.668,-31.738,0.000
1709215170.957,-36.621,-41.504,-36.621,-24.414,0.000
1709215170.961,-36.133,-39.062,-38.086,-13.672,0.000
1709215170.965,-41.504,-36.621,-39.062,-29.297,0.000
1709215170.969,-47.852,-38.086,-41.992,-47.363,0.000
1709215170.972,-48.340,-35.156,-41.992,-41.016,0.000
1709215170.976,-33.691,-33.203,-41.016,-26.367,0.000
1709215170.980,-28.809,-33.691,-40.039,-26.855,0.000
1709215170.984,-49.316,-39.062,-42.480,-46.875,0.000
1709215170.988,-51.270,-40.527,-41.016,-48.828,0.000
1709215170.992,-39.062,-36.621,-34.668,-36.621,0.000
1709215170.996,-30.273,-32.715,-31.738,-29.297,0.000
1709215171.000,-20.996,-34.668,-37.598,-41.992,0.000
1709215171.004,-26.367,-41.504,-42.480,-55.176,0.000
1709215171.007,-46.387,-42.480,-40.039,-51.270,0.000
1709215171.011,-41.504,-39.062,-36.621,-45.898,0.000
1709215171.015,-22.461,-41.992,-39.062,-30.762,0.000
1709215171.019,-13.672,-43.945,-39.062,-15.625,0.000
1709215171.023,-18.555,-39.551,-32.715,-25.879,0.000
1709215171.027,-26.855,-38.574,-35.645,-43.945,0.000
1709215171.031,-30.273,-38.574,-39.551,-40.039,0.000
1709215171.035,-36.133,-42.480,-41.016,-34.668,0.000
1709215171.039,-42.480,-38.574,-38.574,-34.668,0.000
1709215171.042,-48.340,-37.598,-38.574,-46.875,0.000
1709215171.046,-50.781,-39.062,-42.480,-53.223,0.000
1709215171.050,-54.688,-42.969,-43.457,-39.062,0.000
1709215171.054,-45.410,-40.039,-43.457,-36.133,0.000
1709215171.058,-34.668,-34.180,-43.457,-47.363,0.000
1709215171.062,-41.992,-41.992,-47.852,-62.012,0.000
1709215171.066,-52.246,-46.875,-49.805,-73.242,0.000
1709215171.069,-55.664,-36.621,-47.363,-61.523,0.000
1709215171.073,-48.340,-30.762,-49.805,-42.480,0.000
1709215171.077,-30.273,-36.133,-50.781,-39.062,0.000
1709215171.081,-27.832,-32.227,-40.039,-38.574,0.000
1709215171.085,-33.691,-26.367,-32.227,-33.691,0.000
1709215171.089,-29.297,-37.598,-41.504,-41.992,0.000
1709215171.093,-29.785,-47.363,-42.969,-23.438,0.000
1709215171.097,-23.926,-45.898,-38.574,0.977,0.000
1709215171.101,-26.367,-38.574,-43.457,-17.578,0.000
1709215171.105,-32.715,-36.621,-42.480,-32.227,0.000
1709215171.109,-30.762,-32.227,-39.062,-30.273,0.000
1709215171.112,-16.602,-33.203,-39.551,-16.602,0.000
1709215171.116,-12.695,-41.992,-42.969,-15.137,0.000
1709215171.120,-21.484,-37.598,-43.457,-25.391,0.000
1709215171.124,-33.203,-37.109,-39.551,-39.062,0.000
1709215171.128,-42.480,-46.875,-38.086,-44.922,0.000
1709215171.132,-45.898,-44.922,-38.086,-46.387,0.000
1709215171.136,-43.457,-39.062,-32.227,-42.969,0.000
1709215171.139,-41.504,-38.086,-31.250,-38.086,0.000
1709215171.143,-54.199,-44.922,-41.504,-48.828,0.000
1709215171.147,-56.152,-47.363,-38.574,-42.480,0.000
1709215171.151,-39.062,-43.457,-24.902,-20.020,0.000
1709215171.155,-21.973,-46.875,-29.785,-14.160,0.000
1709215171.159,-27.344,-46.387,-36.133,-26.367,0.000
1709215171.164,-46.387,-43.945,-35.645,-42.480,0.000
1709215171.168,-55.664,-44.922,-41.016,-47.363,0.000
1709215171.172,-42.480,-39.551,-42.480,-37.109,0.000
1709215171.176,-25.391,-42.969,-40.039,-26.367,0.000
1709215171.180,-25.391,-49.316,-43.945,-22.949,0.000
1709215171.184,-30.762,-45.898,-44.434,-23.926,0.000
1709215171.187,-33.691,-40.039,-38.086,-41.992,0.000
1709215171.191,-32.227,-38.086,-34.180,-46.387,0.000
1709215171.195,-16.602,-34.668,-35.156,-32.227,0.000
1709215171.199,-10.254,-30.762,-32.715,-17.090,0.000
1709215171.203,-26.367,-33.203,-33.203,-28.320,0.000
1709215171.207,-35.645,-46.387,-39.062,-42.480,0.000
1709215171.211,-19.531,-37.109,-34.668,-32.715,0.000
1709215171.215,-10.742,-27.832,-30.273,-21.484,0.000
1709215171.219,-15.137,-34.180,-34.668,-17.090,0.000
1709215171.223,-28.809,-40.527,-40.039,-28.809,0.000
1709215171.227,-34.180,-49.805,-42.969,-41.504,0.000
1709215171.231,-36.133,-54.688,-41.992,-41.016,0.000
1709215171.234,-36.621,-44.922,-36.621,-34.668,0.000
1709215171.238,-31.250,-42.480,-36.133,-42.480,0.000
1709215171.242,-37.598,-53.223,-43.945,-50.781,0.000
1709215171.246,-53.711,-58.105,-50.293,-44.922,0.000
1709215171.250,-57.617,-46.387,-48.828,-51.758,0.000
1709215171.254,-45.898,-33.691,-41.016,-49.805,0.000
1709215171.259,-34.180,-38.574,-37.598,-33.203,0.000
1709215171.263,-33.203,-40.527,-38.574,-27.832,0.000
1709215171.266,-41.016,-38.574,-41.504,-40.039,0.000
1709215171.270,-43.457,-41.504,-37.109,-44.922,0.000
1709215171.274,-33.203,-49.316,-33.203,-36.621,0.000
1709215171.278,-25.391,-48.340,-34.180,-30.762,0.000
1709215171.282,-28.320,-32.715,-34.668,-26.855,0.000
1709215171.286,-30.273,-29.297,-31.738,-31.250,0.000
1709215171.290,-34.668,-35.645,-31.738,-33.203,0.000
1709215171.294,-29.785,-38.574,-33.691,-22.949,0.000
1709215171.298,-21.973,-40.527,-32.227,-13.672,0.000
1709215171.302,-13.672,-47.363,-28.809,-11.230,0.000
1709215171.305,-17.090,-45.410,-26.855,-15.625,0.000
1709215171.309,-38.086,-36.621,-26.855,-20.508,0.000
1709215171.313,-35.645,-41.504,-31.738,-16.113,0.000
1709215171.317,-27.344,-41.992,-33.691,-16.602,0.000
1709215171.321,-34.180,-39.551,-29.785,-23.438,0.000
1709215171.325,-40.039,-45.410,-32.227,-29.297,0.000
1709215171.329,-47.363,-38.086,-41.504,-32.715,0.000
1709215171.333,-49.316,-34.668,-42.969,-39.062,0.000
1709215171.337,-37.598,-41.504,-38.574,-39.062,0.000
1709215171.341,-38.086,-35.156,-39.062,-32.227,0.000
1709215171.344,-44.922,-29.297,-37.109,-35.645,0.000
1709215171.348,-51.758,-37.109,-35.156,-40.527,0.000
1709215171.352,-56.152,-41.016,-40.039,-32.227,0.000
1709215171.356,-49.805,-40.527,-40.527,-38.574,0.000
1709215171.360,-48.828,-40.039,-38.086,-49.316,0.000
1709215171.364,-50.293,-38.086,-34.180,-46.875,0.000
1709215171.368,-50.781,-40.039,-32.715,-47.852,0.000
1709215171.372,-46.387,-45.898,-39.062,-45.898,0.000
1709215171.376,-35.645,-46.875,-45.898,-39.062,0.000
1709215171.379,-27.832,-40.039,-43.945,-30.762,0.000
1709215171.383,-39.062,-33.691,-49.316,-40.527,0.000
1709215171.387,-55.664,-39.551,-49.805,-50.293,0.000
1709215171.391,-55.176,-44.434,-42.480,-46.387,0.000
1709215171.395,-41.504,-42.480,-47.852,-39.062,0.000
