timestamps,TP9,AF7,AF8,TP10,Right AUX
1709196848.447,-29.785,-41.016,-31.250,-29.785,0.000
1709196848.451,-29.297,-47.363,-36.133,-29.785,0.000
1709196848.455,-16.602,-34.180,-29.297,-24.902,0.000
1709196848.459,-12.207,-24.902,-24.414,-26.367,0.000
1709196848.463,-14.648,-30.762,-24.414,-26.855,0.000
1709196848.467,-20.020,-31.250,-25.879,-22.949,0.000
1709196848.471,-18.066,-32.227,-24.414,-9.766,0.000
1709196848.474,-8.789,-37.598,-30.762,-7.812,0.000
1709196848.478,-10.254,-40.039,-39.551,-25.391,0.000
1709196848.482,-15.625,-35.645,-40.039,-33.203,0.000
1709196848.486,-21.484,-33.691,-34.668,-29.297,0.000
1709196848.490,-16.113,-25.391,-25.391,-18.555,0.000
1709196848.494,0.000,-23.926,-20.996,-7.812,0.000
1709196848.498,0.000,-33.203,-34.180,-22.461,0.000
1709196848.502,0.000,-39.062,-34.668,-31.738,0.000
1709196848.506,0.000,-42.480,-31.738,-30.762,0.000
1709196848.510,0.000,-39.551,-35.156,-32.227,0.000
1709196848.513,0.000,-41.992,-33.691,-26.855,0.000
1709196848.517,0.000,-41.992,-29.785,-23.438,0.000
1709196848.521,0.000,-36.133,-29.785,-31.250,0.000
1709196848.525,0.000,-34.180,-31.250,-40.527,0.000
1709196848.529,0.000,-33.691,-23.438,-24.414,0.000
1709196848.533,0.000,-43.945,-27.344,-15.625,0.000
1709196848.537,0.000,-38.574,-29.297,-28.809,0.000
1709196848.541,-36.621,-35.645,-26.367,-34.180,0.000
1709196848.545,-50.293,-43.945,-35.156,-34.668,0.000
1709196848.549,-35.156,-41.992,-41.992,-35.645,0.000
1709196848.553,-22.461,-38.086,-37.109,-30.273,0.000
1709196848.556,-34.668,-47.363,-30.273,-19.531,0.000
1709196848.560,-49.316,-51.758,-30.762,-25.879,0.000
1709196848.564,-53.711,-44.434,-31.250,-35.156,0.000
1709196848.568,-45.898,-41.504,-36.133,-35.156,0.000
1709196848.572,-33.203,-42.480,-38.086,-31.738,0.000
1709196848.576,-16.113,-40.527,-41.992,-20.020,0.000
1709196848.580,-9.277,-43.457,-43.945,-29.297,0.000
1709196848.584,-13.672,-40.527,-34.668,-31.738,0.000
1709196848.588,-11.230,-25.391,-34.180,-19.043,0.000
1709196848.592,-14.160,-25.879,-38.574,-25.879,0.000
1709196848.596,-9.766,-32.227,-35.645,-22.461,0.000
1709196848.599,5.371,-41.016,-29.297,-12.207,0.000
1709196848.603,-17.090,-44.434,-32.227,-27.832,0.000
1709196848.607,-33.203,-36.133,-33.691,-28.809,0.000
1709196848.611,-22.949,-34.668,-29.785,-23.926,0.000
1709196848.615,-30.273,-36.133,-28.320,-22.461,0.000
1709196848.619,-30.273,-40.527,-23.438,-16.113,0.000
1709196848.623,-31.250,-47.363,-10.742,-17.578,0.000
1709196848.627,-41.504,-44.434,-19.531,-19.531,0.000
1709196848.631,-41.504,-41.504,-32.715,-21.973,0.000
1709196848.635,0.000,-49.316,-27.832,-25.879,0.000
1709196848.638,0.000,-50.293,-33.691,-27.832,0.000
1709196848.642,0.000,-41.992,-36.133,-34.668,0.000
1709196848.646,0.000,-40.527,-26.855,-31.250,0.000
1709196848.650,0.000,-42.969,-23.438,-19.531,0.000
1709196848.654,0.000,-41.992,-31.738,-17.578,0.000
1709196848.658,0.000,-38.574,-43.457,-22.461,0.000
1709196848.662,0.000,-33.203,-32.227,-20.020,0.000
1709196848.666,0.000,-42.480,-27.832,-16.113,0.000
1709196848.670,0.000,-46.387,-35.645,-20.508,0.000
1709196848.674,0.000,-38.574,-37.598,-11.230,0.000
1709196848.678,0.000,-37.598,-36.621,-3.418,0.000
1709196848.681,14.648,-27.344,-31.250,-7.324,0.000
1709196848.685,-9.766,-23.926,-31.250,-10.254,0.000
1709196848.689,-17.578,-31.738,-31.250,-11.719,0.000
1709196848.693,-11.230,-35.645,-30.762,-14.160,0.000
1709196848.697,-8.301,-30.762,-38.086,-22.949,0.000
1709196848.701,-8.301,-30.762,-32.715,-19.531,0.000
1709196848.705,-11.719,-39.551,-23.926,-23.926,0.000
1709196848.709,-14.160,-43.945,-26.855,-24.902,0.000
1709196848.713,-11.719,-34.668,-23.926,-13.672,0.000
1709196848.717,-8.789,-29.785,-25.879,-24.902,0.000
1709196848.720,-10.742,-34.668,-26.855,-31.738,0.000
1709196848.724,-19.043,-34.180,-25.391,-32.227,0.000
1709196848.728,-17.090,-24.902,-27.832,-24.902,0.000
1709196848.732,-9.277,-28.320,-25.879,-16.602,0.000
1709196848.736,-15.625,-33.691,-22.949,-19.043,0.000
1709196848.740,-17.578,-33.203,-24.902,-20.508,0.000
1709196848.744,-24.902,-40.527,-25.879,-23.438,0.000
1709196848.748,-38.574,-44.922,-27.832,-20.996,0.000
1709196848.752,-30.762,-48.828,-28.320,-16.113,0.000
1709196848.756,-20.508,-44.922,-24.414,0.000,0.000
1709196848.760,-23.926,-38.574,-21.484,-5.859,0.000
1709196848.763,-31.250,-44.922,-20.996,-24.414,0.000
1709196848.767,-33.691,-46.387,-21.973,-25.391,0.000
1709196848.771,-36.133,-41.504,-20.020,-14.648,0.000
1709196848.775,-36.621,-45.410,-19.043,-14.160,0.000
1709196848.779,-34.180,-46.387,-15.625,-17.578,0.000
1709196848.783,-41.992,-45.898,-16.602,-22.949,0.000
1709196848.787,-44.922,-45.898,-21.973,-20.020,0.000
1709196848.791,-40.039,-39.551,-22.461,-7.324,0.000
1709196848.795,-37.598,-46.875,-25.391,-11.719,0.000
1709196848.799,-32.227,-58.105,-20.996,-19.043,0.000
1709196848.802,-35.645,-66.895,-20.508,-11.719,0.000
1709196848.806,-41.016,-55.176,-23.438,-21.484,0.000
1709196848.810,-49.805,-43.457,-20.508,-29.785,0.000
1709196848.814,-46.387,-49.316,-22.461,-26.367,0.000
1709196848.818,-35.156,-40.527,-24.414,-33.691,0.000
1709196848.822,-38.086,-41.016,-17.090,-37.109,0.000
1709196848.826,-42.480,-44.922,-20.996,-38.574,0.000
1709196848.830,-40.039,-40.527,-28.809,-41.504,0.000
1709196848.834,-34.180,-35.156,-28.320,-27.344,0.000
1709196848.838,-28.809,-33.203,-26.367,-22.949,0.000
1709196848.842,-26.367,-36.621,-24.902,-30.762,0.000
1709196848.845,-32.227,-40.039,-31.250,-25.391,0.000
1709196848.849,-39.062,-43.457,-40.039,-23.926,0.000
1709196848.853,-24.902,-42.969,-32.227,-17.090,0.000
1709196848.857,-25.879,-45.410,-21.973,-13.672,0.000
1709196848.861,-26.367,-48.340,-20.508,-26.855,0.000
1709196848.865,-11.230,-50.781,-21.484,-40.039,0.000
1709196848.869,-22.461,-53.711,-19.043,-28.320,0.000
1709196848.873,-31.738,-52.734,-14.648,-11.719,0.000
1709196848.877,-25.879,-52.734,-12.695,-10.254,0.000
1709196848.881,-31.738,-50.781,-15.625,-20.020,0.000
1709196848.884,-29.785,-43.457,-14.160,-26.367,0.000
1709196848.888,-23.926,-41.992,-6.348,-3.418,0.000
1709196848.892,-11.230,-47.363,-8.789,19.531,0.000
1709196848.896,-8.301,-47.852,-21.484,5.859,0.000
1709196848.900,-17.578,-39.551,-12.207,-8.301,0.000
1709196848.904,-24.414,-41.504,-6.348,-11.230,0.000
1709196848.908,-27.832,-39.551,-15.137,-12.695,0.000
1709196848.912,-21.973,-34.668,-16.113,-16.113,0.000
1709196848.916,-10.254,-40.039,0.000,-15.625,0.000
1709196848.920,-12.207,-40.527,0.000,-10.742,0.000
1709196848.924,-26.367,-32.715,0.000,-12.695,0.000
1709196848.927,-31.250,-27.344,0.000,-20.020,0.000
1709196848.931,-20.996,-26.855,0.000,-20.508,0.000
1709196848.935,-31.738,-34.668,0.000,-24.414,0.000
1709196848.939,-38.086,-37.109,0.000,-30.273,0.000
1709196848.943,-39.062,-32.715,0.000,-37.109,0.000
1709196848.947,-45.898,-31.738,0.000,-41.016,0.000
1709196848.951,-42.480,-34.668,0.000,-34.668,0.000
1709196848.955,-43.457,-37.598,0.000,-37.109,0.000
1709196848.959,-38.086,-32.715,0.000,-41.504,0.000
1709196848.963,-38.574,-25.879,-27.344,-55.176,0.000
1709196848.967,-40.527,-17.090,-36.621,-61.523,0.000
1709196848.970,-14.648,-4.883,-42.969,-49.805,0.000
1709196848.974,1.465,7.812,-50.781,-45.898,0.000
1709196848.978,-10.254,12.695,-52.734,-48.340,0.000
1709196848.982,-11.719,10.742,-56.152,-44.434,0.000
1709196848.986,8.789,23.926,-61.523,-52.734,0.000
1709196848.990,-1.465,35.156,-62.500,-45.410,0.000
1709196848.994,-8.301,36.133,-60.547,-10.254,0.000
1709196848.998,-7.324,34.668,-61.035,-16.602,0.000
1709196849.002,-8.789,36.133,-59.082,-36.621,0.000
1709196849.006,-7.324,34.180,-62.988,-41.016,0.000
1709196849.010,-3.906,31.738,-71.777,-37.598,0.000
1709196849.013,2.930,31.738,-69.824,-23.926,0.000
1709196849.017,1.465,35.156,-70.312,-29.297,0.000
1709196849.021,-5.371,38.086,-77.637,-40.039,0.000
1709196849.025,-7.324,35.645,-79.590,-42.969,0.000
1709196849.029,-7.812,43.945,-80.566,-40.527,0.000
1709196849.033,-6.348,47.852,-83.008,-27.344,0.000
1709196849.037,7.812,49.316,-82.031,-19.531,0.000
1709196849.041,12.207,62.988,-86.426,-24.414,0.000
1709196849.045,11.719,71.289,-95.703,-37.598,0.000
1709196849.049,9.277,76.172,-91.797,-32.715,0.000
1709196849.052,5.371,83.008,-94.727,-30.762,0.000
1709196849.056,16.113,79.590,-104.004,-30.273,0.000
1709196849.060,14.648,79.590,-98.145,-38.086,0.000
1709196849.064,6.836,79.102,-90.332,-43.457,0.000
1709196849.068,11.719,69.824,-91.309,-30.273,0.000
1709196849.072,17.578,69.336,-95.215,-24.414,0.000
1709196849.076,18.555,74.219,-99.121,-32.715,0.000
1709196849.080,17.578,71.289,-102.051,-37.109,0.000
1709196849.084,9.277,65.430,-106.445,-33.691,0.000
1709196849.088,3.418,61.035,-111.816,-44.434,0.000
1709196849.092,13.672,56.152,-107.422,-36.621,0.000
1709196849.095,26.855,43.457,-100.586,-30.273,0.000
1709196849.099,18.555,42.969,-104.004,-45.898,0.000
1709196849.103,-18.066,58.105,-109.863,-56.641,0.000
1709196849.107,-21.973,59.570,-110.352,-49.805,0.000
1709196849.111,-10.254,57.617,-99.121,-32.227,0.000
1709196849.115,0.977,58.594,-93.262,-33.203,0.000
1709196849.119,8.789,54.199,-93.262,-32.715,0.000
1709196849.123,5.371,44.434,-102.539,-20.020,0.000
1709196849.127,10.742,45.410,-98.633,-12.695,0.000
1709196849.131,18.066,41.992,-85.449,-5.859,0.000
1709196849.134,22.461,41.992,-85.938,-4.395,0.000
1709196849.138,28.320,38.574,-81.055,-7.324,0.000
1709196849.142,24.902,36.133,-79.590,-7.324,0.000
1709196849.146,27.832,36.621,-76.172,-4.395,0.000
1709196849.150,31.250,32.715,-67.871,0.000,0.000
1709196849.154,41.992,33.691,-63.965,1.465,0.000
1709196849.158,30.762,28.320,-56.641,6.836,0.000
1709196849.162,9.766,19.531,-56.152,-1.465,0.000
1709196849.166,0.977,26.855,-60.059,-15.137,0.000
1709196849.170,1.465,24.414,-56.152,-13.184,0.000
1709196849.174,17.578,11.230,-58.105,-3.906,0.000
1709196849.177,16.602,1.953,-59.082,-0.488,0.000
1709196849.181,-6.348,6.348,-60.059,-23.438,0.000
1709196849.185,-11.230,10.742,-62.500,-38.086,0.000
1709196849.189,-25.391,5.371,-66.406,-43.457,0.000
1709196849.193,-36.133,5.371,-68.848,-45.898,0.000
1709196849.197,-27.832,7.324,-62.988,-38.086,0.000
1709196849.201,-16.602,-11.230,-60.059,-40.039,0.000
1709196849.205,0.000,-13.672,-62.012,-30.273,0.000
1709196849.209,-28.809,-4.883,-53.711,-17.090,0.000
1709196849.213,-45.898,-10.742,-47.852,-29.785,0.000
1709196849.216,-29.785,-10.742,-48.340,-34.668,0.000
1709196849.220,-39.062,-12.695,-52.246,-26.855,0.000
1709196849.224,-40.039,-20.508,-50.293,-27.832,0.000
1709196849.228,-31.738,-21.484,-44.922,-30.273,0.000
1709196849.232,-30.273,-14.160,-40.039,-23.438,0.000
1709196849.236,-16.602,-12.207,-39.551,-17.578,0.000
1709196849.240,-16.113,-20.508,-45.898,-32.715,0.000
1709196849.244,-26.367,-21.484,-47.363,-45.410,0.000
1709196849.248,-24.902,-14.160,-45.410,-35.645,0.000
1709196849.252,-20.996,-20.996,-47.852,-33.203,0.000
1709196849.256,-18.555,-30.762,-51.758,-41.504,0.000
1709196849.259,-22.949,-28.809,-50.781,-44.922,0.000
1709196849.263,-16.113,-23.438,-44.434,-55.176,0.000
1709196849.267,-23.926,-26.855,-41.504,-54.199,0.000
1709196849.271,-38.574,-26.855,-41.504,-44.922,0.000
1709196849.275,-33.203,-22.461,-40.039,-36.133,0.000
1709196849.279,-27.344,-27.344,-39.551,-38.086,0.000
1709196849.283,-33.691,-30.762,-39.551,-39.062,0.000
1709196849.287,-38.574,-25.879,-35.156,-25.391,0.000
1709196849.291,-15.625,-20.996,-27.344,-9.277,0.000
1709196849.295,0.488,-22.949,-23.438,-11.230,0.000
1709196849.298,-20.020,-28.809,-27.344,-26.855,0.000
1709196849.302,-32.227,-25.879,-35.156,-26.367,0.000
1709196849.306,-44.434,-19.043,-28.320,-24.414,0.000
1709196849.310,-47.363,-16.113,-24.902,-28.809,0.000
1709196849.314,-36.133,-23.438,-27.832,-29.785,0.000
1709196849.318,-27.832,-32.227,-25.879,-25.391,0.000
1709196849.322,-33.691,-24.414,-28.320,-25.391,0.000
1709196849.326,-40.527,-15.137,-30.273,-23.438,0.000
1709196849.330,-27.832,-13.184,-29.785,-28.320,0.000
1709196849.334,-32.227,-25.879,-29.785,-29.297,0.000
1709196849.338,-40.039,-31.738,-31.250,-23.438,0.000
1709196849.341,-41.016,-25.391,-38.574,-33.203,0.000
1709196849.345,-41.016,-22.949,-37.109,-33.691,0.000
1709196849.349,-32.715,-29.785,-39.551,-35.645,0.000
1709196849.353,-31.738,-41.504,-40.039,-34.668,0.000
1709196849.357,-25.879,-41.016,-35.156,-31.250,0.000
1709196849.361,-32.715,-41.992,-40.527,-46.875,0.000
1709196849.365,-41.992,-40.527,-41.992,-49.805,0.000
1709196849.369,-33.691,-37.598,-37.109,-24.902,0.000
1709196849.373,-24.902,-35.645,-41.016,-15.625,0.000
1709196849.377,-24.414,-26.855,-41.016,-24.414,0.000
1709196849.381,-20.508,-30.762,-38.574,-31.250,0.000
1709196849.384,-12.207,-36.133,-38.086,-32.227,0.000
1709196849.388,-28.320,-33.691,-31.738,-17.090,0.000
1709196849.392,-27.344,-26.855,-29.297,-17.578,0.000
1709196849.396,-19.531,-34.180,-29.297,-28.320,0.000
1709196849.400,-25.391,-31.738,-26.855,-28.320,0.000
1709196849.404,-30.273,-25.391,-30.762,-20.508,0.000
1709196849.408,-23.438,-28.809,-35.156,-12.695,0.000
1709196849.412,-15.137,-31.738,-30.273,-13.184,0.000
1709196849.416,-10.254,-22.461,-30.762,-5.859,0.000
1709196849.420,-19.043,-29.297,-33.691,-22.461,0.000
1709196849.423,-30.273,-38.574,-31.738,-33.691,0.000
1709196849.427,-28.809,-36.621,-32.227,-20.508,0.000
1709196849.431,-22.461,-34.180,-33.203,-19.043,0.000
1709196849.435,-21.973,-34.668,-37.598,-26.855,0.000
1709196849.439,-28.809,-33.203,-36.621,-29.785,0.000
1709196849.443,-25.879,-34.668,-31.738,-29.785,0.000
1709196849.447,-16.602,-35.645,-32.227,-32.715,0.000
1709196849.451,-27.832,-35.645,-29.785,-21.484,0.000
1709196849.455,-19.043,-37.598,-28.809,-6.348,0.000
1709196849.459,-7.812,-37.598,-25.879,-8.301,0.000
1709196849.463,-16.602,-31.250,-24.902,-10.254,0.000
1709196849.466,-18.066,-34.668,-23.438,-10.742,0.000
1709196849.470,-19.043,-37.598,-27.344,-22.949,0.000
1709196849.474,-20.020,-34.668,-27.344,-19.043,0.000
1709196849.478,-21.973,-40.527,-26.367,-16.113,0.000
1709196849.482,-31.738,-45.898,-29.785,-27.344,0.000
1709196849.486,-37.598,-42.480,-34.668,-29.785,0.000
1709196849.490,-34.180,-43.457,-31.738,-29.297,0.000
1709196849.494,-25.391,-50.293,-27.344,-29.785,0.000
1709196849.498,-25.391,-51.270,-30.273,-33.203,0.000
1709196849.502,-22.949,-45.898,-34.668,-31.738,0.000
1709196849.506,-22.949,-39.062,-40.527,-30.273,0.000
1709196849.509,-35.156,-31.250,-34.180,-36.133,0.000
1709196849.513,-32.715,-30.762,-30.762,-21.973,0.000
1709196849.517,-24.902,-36.621,-37.109,-19.043,0.000
1709196849.521,-27.832,-41.992,-30.273,-39.062,0.000
1709196849.525,-40.039,-36.133,-26.367,-44.434,0.000
1709196849.529,-45.410,-39.062,-35.156,-44.922,0.000
1709196849.533,-39.062,-48.340,-33.203,-41.016,0.000
1709196849.537,-29.297,-46.387,-30.762,-35.645,0.000
1709196849.541,-27.832,-49.316,-30.762,-35.645,0.000
1709196849.545,-31.250,-43.457,-26.855,-38.086,0.000
1709196849.548,-38.086,-39.062,-24.414,-26.855,0.000
1709196849.552,-42.480,-45.898,-30.273,-8.789,0.000
1709196849.556,-43.457,-42.969,-35.156,-29.785,0.000
1709196849.560,-41.992,-41.016,-34.180,-45.410,0.000
1709196849.564,-44.922,-42.480,-37.109,-41.992,0.000
1709196849.568,-35.645,-38.086,-35.156,-40.039,0.000
1709196849.572,-37.109,-40.527,-31.250,-21.973,0.000
1709196849.576,-32.715,-46.875,-28.320,-8.301,0.000
1709196849.580,-30.762,-39.062,-30.273,-27.832,0.000
1709196849.584,-43.457,-35.645,-35.156,-41.016,0.000
1709196849.587,-44.922,-40.039,-39.062,-36.621,0.000
1709196849.591,-27.832,-43.457,-37.109,-25.879,0.000
1709196849.595,-14.648,-45.410,-30.762,-10.254,0.000
1709196849.599,-21.484,-46.387,-27.832,-20.020,0.000
1709196849.603,-36.133,-46.387,-27.344,-41.016,0.000
1709196849.607,-37.109,-41.992,-28.320,-46.387,0.000
1709196849.611,-31.738,-28.809,-32.227,-44.434,0.000
1709196849.615,-17.578,-28.320,-24.902,-38.086,0.000
1709196849.619,-5.859,-35.645,-18.066,-30.762,0.000
1709196849.623,-22.461,-26.367,-27.344,-45.410,0.000
1709196849.627,-17.090,-20.508,-30.762,-50.781,0.000
1709196849.630,-17.090,-22.949,-26.367,-36.133,0.000
1709196849.634,-18.066,-31.738,-27.832,-23.926,0.000
1709196849.638,-13.184,-39.062,-28.320,-29.785,0.000
1709196849.642,-23.926,-38.086,-22.949,-39.062,0.000
1709196849.646,-17.578,-42.969,-23.438,-32.715,0.000
1709196849.650,-15.625,-37.598,-21.973,-28.809,0.000
1709196849.654,-25.391,-29.297,-24.902,-30.762,0.000
1709196849.658,-25.391,-32.715,-28.809,-35.156,0.000
1709196849.662,-28.320,-35.645,-27.344,-41.992,0.000
1709196849.666,-37.598,-43.945,-29.785,-37.598,0.000
1709196849.670,-34.668,-41.504,-25.879,-29.785,0.000
1709196849.673,-26.855,-33.203,-24.414,-28.809,0.000
1709196849.677,-25.879,-38.574,-28.809,-31.738,0.000
1709196849.681,-29.297,-42.480,-32.227,-35.156,0.000
1709196849.685,-36.133,-28.320,-30.273,-29.785,0.000
1709196849.689,-33.691,-22.461,-30.273,-26.855,0.000
1709196849.693,-14.648,-31.738,-31.738,-25.391,0.000
1709196849.697,-13.672,-41.504,-29.297,-16.113,0.000
1709196849.701,-35.156,-46.875,-27.832,-22.461,0.000
1709196849.705,-48.828,-41.992,-37.598,-34.180,0.000
1709196849.709,-38.086,-40.527,-40.527,-20.508,0.000
1709196849.712,-31.738,-47.852,-34.668,-23.926,0.000
1709196849.716,-29.785,-43.457,-29.785,-32.715,0.000
1709196849.720,-31.738,-39.551,-29.297,-30.273,0.000
1709196849.724,-35.645,-41.504,-30.762,-34.668,0.000
1709196849.728,-30.273,-33.691,-32.227,-30.273,0.000
1709196849.732,-30.762,-31.250,-35.156,-22.461,0.000
1709196849.736,-20.996,-36.621,-35.156,-13.672,0.000
1709196849.740,-11.719,-35.156,-29.297,-16.602,0.000
1709196849.744,-35.156,-33.203,-23.438,-28.320,0.000
1709196849.748,-41.504,-32.227,-25.391,-27.832,0.000
1709196849.752,-21.973,-20.508,-24.414,-20.020,0.000
1709196849.755,-35.645,-20.996,-30.762,-28.809,0.000
1709196849.759,-39.551,-33.691,-31.738,-32.227,0.000
1709196849.763,-32.715,-33.203,-27.832,-33.203,0.000
1709196849.767,-32.715,-31.250,-27.832,-36.621,0.000
1709196849.771,-31.738,-39.062,-29.297,-20.508,0.000
1709196849.775,-28.809,-37.109,-35.156,-22.461,0.000
1709196849.779,-32.227,-29.785,-36.133,-33.691,0.000
1709196849.783,-42.969,-32.715,-33.691,-34.180,0.000
1709196849.787,-42.480,-40.039,-31.738,-32.227,0.000
1709196849.791,-36.621,-44.922,-31.250,-12.695,0.000
1709196849.795,-31.738,-38.086,-34.668,-17.578,0.000
1709196849.798,-31.250,-25.879,-31.738,-28.320,0.000
1709196849.802,-39.062,-31.738,-30.762,-34.180,0.000
1709196849.806,-45.410,-33.691,-33.203,-45.410,0.000
1709196849.810,-47.852,-26.855,-34.668,-37.109,0.000
1709196849.814,-42.969,-37.109,-35.645,-35.645,0.000
1709196849.818,-27.344,-45.410,-35.156,-38.574,0.000
1709196849.822,-44.922,-47.363,-38.574,-40.039,0.000
1709196849.826,-62.988,-49.805,-34.668,-41.504,0.000
1709196849.830,-47.363,-49.805,-30.762,-34.668,0.000
1709196849.834,-44.922,-46.387,-34.668,-32.227,0.000
1709196849.837,-51.758,-48.340,-44.922,-40.527,0.000
1709196849.841,-47.363,-36.133,-42.480,-53.223,0.000
1709196849.845,-43.457,-34.668,-36.133,-48.828,0.000
1709196849.849,-45.410,-43.457,-39.551,-38.574,0.000
1709196849.853,-35.645,-40.039,-40.527,-34.180,0.000
1709196849.857,-25.879,-44.922,-36.621,-29.785,0.000
1709196849.861,-21.484,-39.551,-33.203,-31.738,0.000
1709196849.865,-38.574,-31.738,-31.738,-38.086,0.000
1709196849.869,-41.992,-32.227,-26.855,-27.344,0.000
1709196849.873,-21.973,-36.621,-26.855,-16.602,0.000
1709196849.877,-23.926,-41.016,-32.227,-23.926,0.000
1709196849.880,-48.340,-41.016,-32.715,-27.832,0.000
1709196849.884,-50.781,-35.645,-28.320,-35.645,0.000
1709196849.888,-40.039,-37.109,-27.344,-40.527,0.000
1709196849.892,-27.344,-41.992,-32.715,-35.156,0.000
1709196849.896,-13.672,-31.250,-30.762,-22.461,0.000
1709196849.900,-21.484,-38.086,-30.762,-20.020,0.000
1709196849.904,-33.203,-50.781,-34.668,-25.391,0.000
1709196849.908,-36.133,-34.668,-27.832,-20.020,0.000
1709196849.912,-29.785,-28.320,-22.949,-21.973,0.000
1709196849.916,-23.926,-37.598,-21.973,-17.090,0.000
1709196849.919,-24.902,-46.875,-24.414,-22.461,0.000
1709196849.923,-39.062,-52.246,-24.902,-28.809,0.000
1709196849.927,-49.316,-38.574,-24.902,-17.578,0.000
1709196849.931,-34.180,-25.879,-35.156,-14.160,0.000
1709196849.935,-14.648,-19.531,-29.297,-22.461,0.000
1709196849.939,-27.832,-29.785,-28.320,-31.738,0.000
1709196849.943,-38.086,-37.598,-28.809,-29.297,0.000
1709196849.947,-39.062,-31.250,-20.020,-20.996,0.000
1709196849.951,-38.086,-34.668,-24.902,-21.973,0.000
1709196849.955,-20.020,-38.086,-32.227,-22.949,0.000
1709196849.959,-13.184,-29.785,-27.832,-29.785,0.000
1709196849.962,-33.691,-27.344,-25.879,-35.156,0.000
1709196849.966,-44.434,-36.133,-31.250,-24.414,0.000
1709196849.970,-33.691,-49.805,-32.715,2.441,0.000
1709196849.974,-27.344,-55.176,-30.762,5.371,0.000
1709196849.978,-34.668,-41.016,-27.344,-18.066,0.000
1709196849.982,-39.062,-29.297,-23.438,-34.180,0.000
1709196849.986,-38.086,-32.715,-27.344,-33.203,0.000
1709196849.990,-14.160,-39.551,-30.273,-24.902,0.000
1709196849.994,-13.184,-31.250,-29.297,-25.879,0.000
1709196849.998,-31.250,-21.484,-28.320,-40.039,0.000
1709196850.001,-35.156,-24.902,-27.344,-41.504,0.000
1709196850.005,-44.922,-32.715,-24.902,-38.086,0.000
1709196850.009,-35.156,-35.156,-15.625,-36.621,0.000
1709196850.013,-27.344,-38.574,-16.602,-26.367,0.000
1709196850.017,-35.156,-40.527,-27.344,-30.762,0.000
1709196850.021,-41.016,-44.434,-29.297,-48.828,0.000
1709196850.025,-43.945,-52.246,-26.367,-49.316,0.000
1709196850.029,-36.621,-51.758,-23.438,-34.180,0.000
1709196850.033,-27.344,-44.922,-24.902,-25.391,0.000
1709196850.037,-21.973,-44.434,-33.691,-29.785,0.000
1709196850.041,-10.254,-35.156,-32.715,-38.086,0.000
1709196850.044,-31.250,-27.832,-23.926,-44.922,0.000
1709196850.048,-54.199,-29.785,-25.391,-39.062,0.000
1709196850.052,-37.109,-34.180,-29.297,-27.832,0.000
1709196850.056,-28.320,-38.086,-27.344,-24.414,0.000
1709196850.060,-40.527,-32.227,-27.832,-19.043,0.000
1709196850.064,-50.781,-31.738,-30.273,-23.926,0.000
1709196850.068,-45.898,-36.621,-29.785,-40.527,0.000
1709196850.072,-29.785,-41.504,-26.855,-34.668,0.000
1709196850.076,-27.832,-43.457,-26.367,-20.020,0.000
1709196850.080,-41.992,-37.109,-33.691,-35.645,0.000
1709196850.083,-45.410,-27.832,-34.668,-46.875,0.000
1709196850.087,-39.551,-25.879,-30.273,-29.297,0.000
1709196850.091,-26.367,-35.156,-34.180,-25.879,0.000
1709196850.095,-23.438,-38.086,-34.668,-35.645,0.000
1709196850.099,-16.602,-35.645,-29.785,-31.738,0.000
1709196850.103,-11.230,-43.457,-33.203,-25.391,0.000
1709196850.107,-23.926,-44.922,-30.762,-22.949,0.000
1709196850.111,-20.508,-33.203,-32.715,-23.438,0.000
1709196850.115,-13.672,-35.645,-44.922,-28.809,0.000
1709196850.119,-12.695,-42.480,-37.598,-17.090,0.000
1709196850.123,-14.160,-46.387,-26.367,-13.184,0.000
1709196850.126,-20.508,-40.527,-35.156,-33.691,0.000
1709196850.130,-21.484,-27.344,-36.621,-40.527,0.000
1709196850.134,-18.066,-35.645,-30.762,-36.621,0.000
1709196850.138,-20.020,-41.016,-29.785,-40.527,0.000
1709196850.142,-24.902,-34.180,-28.809,-42.480,0.000
1709196850.146,-23.438,-40.039,-34.180,-36.133,0.000
1709196850.150,-40.039,-43.945,-40.527,-23.438,0.000
1709196850.154,-35.156,-38.574,-31.250,-22.949,0.000
1709196850.158,-22.461,-48.828,-23.926,-36.133,0.000
1709196850.162,-35.156,-48.828,-25.879,-39.062,0.000
1709196850.166,-41.992,-29.785,-22.949,-29.785,0.000
1709196850.169,-42.480,-31.250,-22.949,-30.762,0.000
1709196850.173,-35.645,-35.156,-30.762,-32.227,0.000
1709196850.177,-25.879,-34.180,-35.156,-34.668,0.000
1709196850.181,-26.855,-36.621,-27.832,-33.203,0.000
1709196850.185,-31.250,-32.227,-25.879,-29.785,0.000
1709196850.189,-31.738,-28.809,-27.832,-26.367,0.000
1709196850.193,-38.574,-32.227,-30.762,-29.297,0.000
1709196850.197,-32.227,-29.297,-32.715,-22.461,0.000
1709196850.201,-24.902,-34.668,-27.344,-24.902,0.000
1709196850.205,-27.344,-39.551,-27.832,-43.457,0.000
1709196850.209,-22.949,-36.621,-29.297,-36.133,0.000
1709196850.212,-30.762,-30.273,-29.297,-25.391,0.000
1709196850.216,-14.648,-23.926,-22.461,-26.855,0.000
1709196850.220,-16.602,-35.645,-24.902,-37.109,0.000
1709196850.224,-39.062,-44.434,-34.668,-48.828,0.000
1709196850.228,-29.297,-37.598,-28.320,-33.203,0.000
1709196850.232,-19.531,-25.879,-26.855,-18.066,0.000
1709196850.236,-28.320,-28.320,-32.227,-23.438,0.000
1709196850.240,-42.480,-39.551,-28.809,-39.062,0.000
1709196850.244,-45.410,-38.086,-25.879,-40.527,0.000
1709196850.248,-40.527,-37.109,-25.391,-34.668,0.000
1709196850.251,-29.785,-39.551,-23.926,-23.926,0.000
1709196850.255,-18.066,-40.039,-27.344,-13.184,0.000
1709196850.259,-9.277,-34.180,-39.551,-26.855,0.000
1709196850.263,-24.902,-35.645,-34.180,-34.180,0.000
1709196850.267,-32.715,-41.016,-19.531,-26.367,0.000
1709196850.271,-23.926,-48.828,-24.902,-20.020,0.000
1709196850.275,-23.438,-47.852,-28.809,-15.625,0.000
1709196850.279,-24.902,-37.109,-21.484,-15.625,0.000
1709196850.283,-43.457,-40.039,-29.785,-23.438,0.000
1709196850.287,-45.898,-41.016,-33.691,-21.484,0.000
1709196850.291,-36.621,-38.086,-33.203,-17.090,0.000
1709196850.294,-36.133,-33.691,-32.715,-13.184,0.000
1709196850.298,-31.738,-35.645,-28.809,-17.578,0.000
1709196850.302,-34.180,-37.109,-33.691,-22.949,0.000
1709196850.306,-36.133,-33.691,-30.762,-21.484,0.000
1709196850.310,-38.574,-36.621,-30.762,-17.578,0.000
1709196850.314,-34.180,-37.598,-35.645,-17.578,0.000
1709196850.318,-32.227,-35.645,-32.227,-11.230,0.000
1709196850.322,-49.805,-42.969,-34.180,-17.578,0.000
1709196850.326,-51.270,-41.992,-36.133,-40.039,0.000
1709196850.330,-40.527,-32.715,-27.832,-34.180,0.000
1709196850.333,-36.621,-27.344,-29.785,-26.855,0.000
1709196850.337,-32.227,-30.273,-29.785,-32.227,0.000
1709196850.341,-34.668,-41.016,-26.855,-33.691,0.000
1709196850.345,-38.574,-44.922,-30.762,-20.020,0.000
1709196850.349,-43.945,-41.992,-29.297,-19.043,0.000
1709196850.353,-39.062,-33.691,-27.832,-27.344,0.000
1709196850.357,-37.109,-38.086,-32.227,-29.785,0.000
1709196850.361,-42.480,-50.293,-30.762,-37.598,0.000
1709196850.365,-38.574,-43.457,-24.902,-44.434,0.000
1709196850.369,-32.715,-34.180,-23.926,-27.344,0.000
1709196850.372,-22.949,-38.086,-29.785,-25.391,0.000
1709196850.376,-14.160,-41.992,-31.250,-43.457,0.000
1709196850.380,-32.227,-38.574,-27.832,-44.922,0.000
1709196850.384,-36.133,-39.551,-25.879,-40.039,0.000
1709196850.388,-26.367,-45.898,-26.367,-24.414,0.000
1709196850.392,-21.484,-48.340,-37.109,-16.602,0.000
1709196850.396,-12.207,-47.852,-32.227,-27.344,0.000
1709196850.400,-12.695,-39.551,-26.855,-38.574,0.000
1709196850.404,-32.715,-40.527,-33.203,-46.875,0.000
1709196850.408,-40.527,-41.992,-32.227,-41.504,0.000
1709196850.412,-29.785,-37.598,-29.785,-23.926,0.000
1709196850.415,-18.066,-36.133,-30.762,-20.508,0.000
1709196850.419,-19.043,-41.992,-27.344,-28.320,0.000
1709196850.423,-23.438,-40.039,-31.738,-32.715,0.000
1709196850.427,-22.461,-31.250,-34.180,-32.715,0.000
1709196850.431,-14.160,-39.551,-32.227,-19.531,0.000
1709196850.435,-11.230,-40.039,-29.785,-12.207,0.000
1709196850.439,-27.344,-33.691,-32.715,-18.555,0.000
1709196850.443,-33.691,-34.180,-33.203,-26.855,0.000
1709196850.447,-38.574,-40.039,-31.738,-34.180,0.000
1709196850.451,-30.762,-34.668,-31.250,-20.996,0.000
1709196850.455,-24.902,-31.738,-30.273,-12.695,0.000
1709196850.458,-21.973,-40.527,-32.227,-19.531,0.000
1709196850.462,-25.879,-38.574,-35.645,-30.762,0.000
1709196850.466,-30.762,-30.762,-38.574,-31.250,0.000
1709196850.470,-22.461,-41.016,-33.691,-16.602,0.000
1709196850.474,-20.996,-43.945,-28.809,-15.137,0.000
1709196850.478,-19.043,-29.785,-25.391,-22.461,0.000
1709196850.482,-18.066,-21.973,-26.367,-27.344,0.000
1709196850.486,-33.691,-28.809,-28.809,-28.320,0.000
1709196850.490,-33.691,-32.715,-27.344,-19.043,0.000
1709196850.494,-23.438,-36.133,-22.949,-13.672,0.000
1709196850.498,-24.414,-42.969,-24.902,-36.133,0.000
1709196850.501,-43.945,-41.992,-27.344,-54.199,0.000
1709196850.505,-55.176,-48.340,-25.879,-47.363,0.000
1709196850.509,-56.641,-40.039,-25.879,-37.109,0.000
1709196850.513,-43.457,-36.133,-27.344,-27.344,0.000
1709196850.517,-25.879,-40.039,-28.809,-23.926,0.000
1709196850.521,-35.645,-32.227,-25.879,-33.691,0.000
1709196850.525,-47.852,-29.297,-31.738,-40.527,0.000
1709196850.529,-36.133,-30.273,-34.668,-34.180,0.000
1709196850.533,-25.391,-28.320,-28.320,-28.809,0.000
1709196850.537,-27.344,-32.227,-30.762,-34.180,0.000
1709196850.540,-40.039,-35.645,-35.156,-33.203,0.000
1709196850.544,-50.781,-30.762,-39.551,-44.434,0.000
1709196850.548,-48.340,-29.297,-40.039,-55.664,0.000
1709196850.552,-37.109,-25.879,-34.180,-46.875,0.000
1709196850.556,-31.250,-22.949,-25.391,-38.086,0.000
1709196850.560,-31.738,-33.203,-28.809,-36.133,0.000
1709196850.564,-39.062,-33.203,-37.598,-47.363,0.000
1709196850.568,-58.594,-22.949,-33.203,-47.852,0.000
1709196850.572,-58.105,-24.902,-27.344,-35.156,0.000
1709196850.576,-41.504,-32.715,-27.344,-24.414,0.000
1709196850.580,-41.016,-28.809,-28.809,-26.855,0.000
1709196850.583,-45.898,-34.180,-31.250,-20.508,0.000
1709196850.587,-33.691,-50.293,-28.320,-11.230,0.000
1709196850.591,-30.273,-37.598,-29.785,-24.414,0.000
1709196850.595,-34.668,-25.879,-29.297,-20.508,0.000
1709196850.599,-39.551,-30.273,-33.203,-29.297,0.000
1709196850.603,-41.504,-34.668,-34.180,-44.434,0.000
1709196850.607,-45.410,-39.551,-35.156,-49.316,0.000
1709196850.611,-48.340,-37.109,-42.480,-43.457,0.000
1709196850.615,-41.016,-33.203,-40.039,-41.016,0.000
1709196850.619,-41.504,-30.273,-34.180,-49.805,0.000
1709196850.622,-52.246,-27.832,-32.227,-47.363,0.000
1709196850.626,-42.480,-33.203,-27.832,-30.762,0.000
1709196850.630,-38.574,-43.457,-29.785,-14.160,0.000
1709196850.634,-36.621,-45.410,-30.762,-28.809,0.000
1709196850.638,-26.855,-51.758,-27.344,-43.457,0.000
1709196850.642,-32.715,-56.152,-24.902,-46.387,0.000
1709196850.646,-44.922,-49.805,-22.461,-41.504,0.000
1709196850.650,-50.293,-44.922,-20.996,-41.016,0.000
1709196850.654,-44.434,-51.270,-22.461,-37.109,0.000
1709196850.658,-37.109,-48.340,-21.484,-32.715,0.000
1709196850.662,-37.598,-47.852,-20.020,-31.738,0.000
1709196850.665,-40.039,-51.270,-21.484,-24.902,0.000
1709196850.669,-28.809,-49.316,-27.344,-25.391,0.000
1709196850.673,-10.742,-46.387,-30.273,-20.020,0.000
1709196850.677,-16.113,-41.016,-23.926,-15.625,0.000
1709196850.681,-30.762,-42.969,-22.461,-18.066,0.000
1709196850.685,-34.668,-52.246,-27.832,-23.438,0.000
1709196850.689,-39.551,-48.828,-26.855,-26.855,0.000
1709196850.693,-27.344,-45.410,-19.531,-21.484,0.000
1709196850.697,-12.207,-45.898,-20.508,-27.832,0.000
1709196850.701,-20.996,-39.551,-26.367,-39.551,0.000
1709196850.704,-32.227,-40.527,-31.250,-36.621,0.000
1709196850.708,-36.621,-52.734,-35.645,-24.902,0.000
1709196850.712,-29.297,-46.875,-35.645,-23.926,0.000
1709196850.716,-18.555,-29.785,-26.855,-24.414,0.000
1709196850.720,-18.555,-35.645,-26.367,-17.578,0.000
1709196850.724,-28.320,-43.945,-36.621,-32.715,0.000
1709196850.728,-23.926,-44.434,-35.156,-35.645,0.000
1709196850.732,-26.855,-50.781,-25.879,-22.949,0.000
1709196850.736,-27.344,-37.109,-27.832,-22.461,0.000
1709196850.740,-21.484,-34.668,-27.832,-30.273,0.000
1709196850.744,-30.273,-50.293,-19.043,-49.316,0.000
1709196850.747,-38.086,-39.062,-23.438,-45.898,0.000
1709196850.751,-41.016,-28.809,-26.367,-37.109,0.000
1709196850.755,-35.645,-29.785,-21.973,-34.180,0.000
1709196850.759,-29.297,-40.527,-22.461,-24.902,0.000
1709196850.763,-28.809,-39.551,-30.273,-25.879,0.000
1709196850.767,-23.926,-36.133,-29.785,-34.180,0.000
1709196850.771,-17.090,-39.062,-26.367,-30.273,0.000
1709196850.775,-17.090,-35.645,-23.926,-23.438,0.000
1709196850.779,-22.461,-42.969,-22.461,-25.391,0.000
1709196850.783,-27.832,-42.969,-23.926,-32.715,0.000
1709196850.786,-36.133,-37.109,-24.902,-30.762,0.000
1709196850.790,-23.438,-40.527,-27.832,-16.113,0.000
1709196850.794,-2.930,-34.180,-31.738,-18.066,0.000
1709196850.798,-12.207,-25.879,-30.762,-22.461,0.000
1709196850.802,-19.531,-31.738,-22.461,-19.043,0.000
1709196850.806,-19.043,-40.527,-21.973,-19.043,0.000
1709196850.810,-14.648,-33.203,-24.902,-12.695,0.000
1709196850.814,-3.906,-33.203,-24.902,-6.836,0.000
1709196850.818,-2.930,-41.504,-25.879,-24.902,0.000
1709196850.822,-10.742,-38.574,-24.902,-36.133,0.000
1709196850.826,-17.578,-29.297,-24.902,-24.414,0.000
1709196850.829,-16.113,-27.832,-26.367,-21.973,0.000
1709196850.833,-22.461,-32.227,-28.320,-22.949,0.000
1709196850.837,-35.156,-35.156,-32.715,-29.785,0.000
1709196850.841,-44.922,-38.086,-29.297,-39.551,0.000
1709196850.845,-50.293,-32.227,-30.273,-38.574,0.000
1709196850.849,-41.992,-35.645,-47.852,-28.320,0.000
1709196850.853,-40.527,-48.340,-45.898,-28.320,0.000
1709196850.857,-28.320,-46.387,-36.621,-41.504,0.000
1709196850.861,-18.066,-34.180,-32.715,-43.945,0.000
1709196850.865,-45.410,-34.180,-33.691,-40.039,0.000
1709196850.869,-59.082,-40.527,-38.574,-28.809,0.000
1709196850.872,-40.527,-39.551,-39.062,-21.484,0.000
1709196850.876,-30.273,-40.527,-38.086,-29.297,0.000
1709196850.880,-41.016,-38.574,-34.180,-45.898,0.000
1709196850.884,-45.410,-37.598,-29.785,0.000,0.000
1709196850.888,-39.551,-39.062,-28.320,0.000,0.000
1709196850.892,-32.227,-44.434,-33.203,0.000,0.000
1709196850.896,-31.738,-40.039,-36.133,0.000,0.000
1709196850.900,-29.297,-33.203,-37.109,0.000,0.000
1709196850.904,-26.855,-31.250,-37.598,0.000,0.000
1709196850.908,-20.020,-32.227,-38.574,0.000,0.000
1709196850.912,-19.531,-28.809,-38.086,0.000,0.000
1709196850.915,-20.996,-25.879,-33.691,0.000,0.000
1709196850.919,-22.949,-31.738,-35.645,0.000,0.000
1709196850.923,-13.184,-32.715,-33.203,0.000,0.000
1709196850.927,-6.836,-30.273,-27.344,0.000,0.000
1709196850.931,-32.715,-30.762,-34.668,-30.762,0.000
1709196850.935,-31.738,-31.250,-37.109,-29.297,0.000
1709196850.939,-32.227,-29.297,-31.250,-31.738,0.000
1709196850.943,-42.969,-28.809,-31.250,-35.156,0.000
1709196850.947,-34.668,-21.973,-26.855,-20.020,0.000
1709196850.951,-18.555,-18.066,-28.809,-9.766,0.000
1709196850.955,-11.230,-28.320,-30.273,-18.555,0.000
1709196850.958,-21.973,-30.273,-27.344,-28.320,0.000
1709196850.962,-32.715,-25.391,-30.273,-25.879,0.000
1709196850.966,-36.621,-35.645,-24.414,-29.785,0.000
1709196850.970,-35.156,-36.621,-24.414,-29.297,0.000
1709196850.974,-38.086,-29.785,-27.344,-20.020,0.000
1709196850.978,-28.809,-27.344,-28.320,-20.508,0.000
1709196850.982,-26.855,-32.227,-27.832,-29.297,0.000
1709196850.986,-44.434,-32.227,-25.879,-28.320,0.000
1709196850.990,-36.133,-36.621,-26.855,-21.973,0.000
1709196850.994,-24.902,-41.504,-26.855,-16.113,0.000
1709196850.997,-21.484,-35.645,-26.855,-20.996,0.000
1709196851.001,-26.855,-40.039,-29.785,-25.391,0.000
1709196851.005,-39.551,-47.852,-31.738,-17.090,0.000
1709196851.009,-36.133,-46.387,-31.738,-6.348,0.000
1709196851.013,-37.109,-40.039,-36.621,-10.254,0.000
1709196851.017,-39.062,-41.504,-41.504,-28.809,0.000
1709196851.021,-41.016,-36.621,-36.621,-41.504,0.000
1709196851.025,-40.039,-31.738,-31.738,-37.109,0.000
1709196851.029,-31.250,-37.598,-33.691,-29.785,0.000
1709196851.033,-15.625,-47.363,-32.227,-23.926,0.000
1709196851.037,-8.301,-52.734,-29.297,-24.902,0.000
1709196851.040,-35.645,-45.410,-28.320,-40.039,0.000
1709196851.044,-53.711,-41.504,-30.273,-48.340,0.000
1709196851.048,-50.293,-38.086,-29.297,-31.738,0.000
1709196851.052,-45.898,-37.598,-31.738,-13.184,0.000
1709196851.056,-40.527,-44.434,-34.180,-32.715,0.000
1709196851.060,-38.086,-48.340,-36.133,-41.504,0.000
1709196851.064,-51.270,-42.480,-37.598,-26.367,0.000
1709196851.068,-58.105,-34.180,-29.785,-41.992,0.000
1709196851.072,-33.203,-34.180,-23.438,-39.062,0.000
1709196851.076,-27.832,-36.133,-24.414,-28.320,0.000
1709196851.079,-41.016,-31.738,-27.344,-38.086,0.000
1709196851.083,-45.898,-30.273,-27.832,-39.551,0.000
1709196851.087,-51.270,-35.645,-32.227,-43.945,0.000
1709196851.091,-45.410,-40.039,-30.762,-40.039,0.000
1709196851.095,-33.691,-45.898,-31.250,-30.273,0.000
1709196851.099,-25.391,-45.898,-35.156,-28.809,0.000
1709196851.103,-40.527,-33.203,-33.691,-37.109,0.000
1709196851.107,-43.945,-30.273,-37.109,-49.805,0.000
1709196851.111,-30.273,-33.203,-35.645,-52.246,0.000
1709196851.115,-22.461,-34.668,-31.738,-51.270,0.000
1709196851.119,-21.484,-39.062,-32.227,-48.828,0.000
1709196851.122,-34.180,-52.246,-28.320,-45.410,0.000
1709196851.126,-38.086,-50.781,-27.832,-39.551,0.000
1709196851.130,-30.762,-36.133,-29.297,-31.738,0.000
1709196851.134,-21.973,-30.762,-21.484,-30.273,0.000
1709196851.138,-20.996,-39.062,-20.996,-25.879,0.000
1709196851.142,-32.715,-44.434,-26.855,-29.785,0.000
1709196851.146,-27.344,-32.715,-25.879,-50.293,0.000
1709196851.150,-4.395,-27.832,-25.391,-49.316,0.000
1709196851.154,-16.113,-32.715,-28.320,-35.645,0.000
1709196851.158,-31.738,-28.809,-27.344,-35.645,0.000
1709196851.161,-33.203,-29.785,-27.832,-44.434,0.000
1709196851.165,-36.133,-36.621,-29.785,-42.480,0.000
1709196851.169,-30.762,-39.551,-26.855,-22.461,0.000
1709196851.173,-17.578,-37.109,-26.855,-12.695,0.000
1709196851.177,-14.648,-38.086,-24.414,-13.184,0.000
1709196851.181,-15.137,-35.645,-29.785,-20.996,0.000
1709196851.185,-26.367,-29.785,-37.109,-21.973,0.000
1709196851.189,-36.133,-32.715,-28.320,-24.414,0.000
1709196851.193,-35.645,-37.109,-30.273,-27.832,0.000
1709196851.197,-34.180,-39.551,-31.250,-16.113,0.000
1709196851.201,-29.297,-37.109,-26.367,-4.883,0.000
1709196851.204,-25.879,-36.133,-27.344,-20.020,0.000
1709196851.208,-28.809,-40.039,-28.809,-31.738,0.000
1709196851.212,-29.785,-45.898,-33.203,-24.414,0.000
1709196851.216,-29.785,-45.410,-35.645,-26.855,0.000
1709196851.220,-41.016,-33.203,-33.691,-33.691,0.000
1709196851.224,-50.293,-29.785,-35.156,-38.086,0.000
1709196851.228,-43.945,-30.273,-37.109,-39.551,0.000
1709196851.232,-37.109,-31.738,-34.180,-35.156,0.000
1709196851.236,-33.203,-44.922,-26.855,-36.133,0.000
1709196851.240,-31.738,-38.086,-25.879,-43.457,0.000
1709196851.244,-43.457,-29.785,-29.785,-45.898,0.000
1709196851.247,-50.293,-27.344,-27.344,-40.039,0.000
1709196851.251,-47.363,-27.832,-25.391,-37.109,0.000
1709196851.255,-39.062,-32.715,-28.809,-37.109,0.000
1709196851.259,-30.762,-35.645,-28.320,-40.527,0.000
1709196851.263,-50.293,-41.992,-28.320,-41.016,0.000
1709196851.267,-46.875,-40.527,-26.855,-25.391,0.000
1709196851.271,-28.320,-36.133,-26.367,-14.648,0.000
1709196851.275,-22.949,-34.668,-31.738,-23.438,0.000
1709196851.279,-21.484,-38.086,-29.297,-37.598,0.000
1709196851.283,-33.691,-39.551,-25.879,-43.457,0.000
1709196851.286,-47.363,-43.457,-27.344,-36.621,0.000
1709196851.290,-40.527,-47.363,-27.832,-21.973,0.000
1709196851.294,-27.832,-38.086,-27.344,-22.949,0.000
1709196851.298,-27.832,-33.691,-29.297,-30.273,0.000
1709196851.302,-33.203,-39.551,-32.227,-31.250,0.000
1709196851.306,-23.926,-35.156,-29.785,-30.762,0.000
1709196851.310,-17.578,-33.691,-28.320,-19.531,0.000
1709196851.314,-28.809,-39.062,-31.738,-14.160,0.000
1709196851.318,-26.367,-31.738,-26.367,-24.902,0.000
1709196851.322,-28.809,-34.180,-23.926,-29.297,0.000
1709196851.326,-35.645,-42.969,-25.391,-25.391,0.000
1709196851.329,-28.809,-43.457,-25.391,-4.395,0.000
1709196851.333,-28.320,-41.992,-31.738,-5.859,0.000
1709196851.337,-26.367,-40.039,-30.762,-20.020,0.000
1709196851.341,-35.156,-42.480,-27.344,-34.180,0.000
1709196851.345,-36.621,-47.363,-23.438,-41.504,0.000
1709196851.349,-23.926,-48.828,-26.855,-35.156,0.000
1709196851.353,-27.344,-42.969,-28.320,-23.438,0.000
1709196851.357,-17.578,-43.945,-24.902,-25.879,0.000
1709196851.361,-21.484,-51.270,-27.344,-42.480,0.000
1709196851.365,-40.039,-34.180,-26.855,-41.504,0.000
1709196851.369,-37.109,-25.391,-32.227,-32.227,0.000
1709196851.372,-32.715,-37.598,-34.180,-32.227,0.000
1709196851.376,-29.785,-34.668,-34.180,-33.691,0.000
1709196851.380,-23.438,-41.016,-34.180,-27.344,0.000
1709196851.384,-38.574,-36.133,-33.691,-44.922,0.000
1709196851.388,-46.387,-27.344,-31.738,-42.969,0.000
1709196851.392,-29.785,-39.062,-29.297,-24.414,0.000
1709196851.396,-24.414,-38.574,-34.180,-38.086,0.000
1709196851.400,-40.527,-36.133,-36.133,-52.734,0.000
1709196851.404,-59.570,-34.668,-31.738,-49.805,0.000
1709196851.408,-46.875,-39.551,-28.809,-38.086,0.000
1709196851.411,-17.578,-36.621,-25.879,-25.879,0.000
1709196851.415,-27.344,-29.785,-22.949,-17.578,0.000
1709196851.419,-38.086,-37.109,-25.879,-23.438,0.000
1709196851.423,-45.410,-41.992,-32.715,-27.832,0.000
1709196851.427,-46.875,-47.852,-34.668,-16.113,0.000
1709196851.431,-36.133,-42.969,-31.250,-19.043,0.000
1709196851.435,-24.902,-32.715,-32.227,-18.066,0.000
1709196851.439,-15.625,-33.691,-36.621,-13.184,0.000
1709196851.443,-12.695,-32.715,-36.133,-23.438,0.000
1709196851.447,-15.625,-31.250,-34.180,-28.320,0.000
1709196851.451,-13.672,-36.133,-38.574,-23.438,0.000
1709196851.454,-1.465,-33.203,-36.621,-19.043,0.000
1709196851.458,-3.906,-35.156,-34.668,-22.949,0.000
1709196851.462,-12.695,-40.527,-33.691,-29.785,0.000
1709196851.466,-7.324,-40.527,-31.738,-23.438,0.000
1709196851.470,1.465,-37.598,-28.320,-7.812,0.000
1709196851.474,-17.578,-28.320,-30.273,-20.020,0.000
1709196851.478,-22.949,-35.645,-27.832,-32.227,0.000
1709196851.482,-21.484,-41.992,-28.320,-27.344,0.000
1709196851.486,-25.879,-34.180,-31.738,-27.832,0.000
1709196851.490,-25.391,-41.504,-29.785,-25.879,0.000
1709196851.493,-26.367,-43.457,-30.762,-20.020,0.000
1709196851.497,-29.785,-30.273,-31.738,-18.555,0.000
1709196851.501,-43.945,-35.645,-34.180,-22.949,0.000
1709196851.505,-52.246,-43.457,-34.668,-29.297,0.000
1709196851.509,-43.945,-41.016,-32.227,-22.461,0.000
1709196851.513,-37.598,-44.434,-33.691,-14.648,0.000
1709196851.517,-28.320,-45.898,-31.738,-16.113,0.000
1709196851.521,-25.391,-35.156,-29.297,-25.391,0.000
1709196851.525,-46.875,-38.086,-22.461,-36.133,0.000
1709196851.529,-45.410,-42.480,-22.461,-28.320,0.000
1709196851.533,-31.250,-23.926,-24.414,-14.648,0.000
1709196851.536,-40.039,-14.648,-23.926,-20.020,0.000
1709196851.540,-44.434,-23.926,-27.344,-20.996,0.000
1709196851.544,-41.504,-21.484,-26.367,-14.160,0.000
1709196851.548,-43.945,-25.879,-29.785,-22.949,0.000
1709196851.552,-37.598,-30.762,-30.273,-27.344,0.000
1709196851.556,-34.668,-25.879,-26.367,-30.762,0.000
1709196851.560,-36.621,-27.344,-27.344,-40.527,0.000
1709196851.564,-39.062,-26.855,-36.621,-46.875,0.000
1709196851.568,-41.016,-26.855,-37.109,-42.480,0.000
1709196851.572,-43.945,-35.156,-33.691,-30.762,0.000
1709196851.575,-26.367,-33.691,-34.668,-24.414,0.000
1709196851.579,-21.484,-30.762,-34.180,-35.156,0.000
1709196851.583,-45.410,-30.273,-34.668,-41.016,0.000
1709196851.587,-35.156,-36.621,-32.715,-30.273,0.000
1709196851.591,-20.020,-47.363,-36.133,-25.879,0.000
1709196851.595,-25.391,-31.250,-43.457,-28.809,0.000
1709196851.599,-29.297,-17.578,-38.574,-29.297,0.000
1709196851.603,-26.855,-23.438,-32.227,-32.715,0.000
1709196851.607,-22.461,-23.438,-33.691,-38.574,0.000
1709196851.611,-20.020,-22.461,-35.156,-23.926,0.000
1709196851.615,-13.184,-31.738,-34.180,-27.344,0.000
1709196851.618,-17.578,-43.457,-32.227,-41.016,0.000
1709196851.622,-33.691,-41.504,-35.645,-37.109,0.000
1709196851.626,-37.109,-32.227,-40.039,-45.410,0.000
1709196851.630,-32.227,-27.344,-34.180,-37.109,0.000
1709196851.634,-23.438,-30.762,-27.832,-28.320,0.000
1709196851.638,-12.207,-39.062,-32.227,-39.551,0.000
1709196851.642,-27.344,-39.551,-37.598,-43.457,0.000
1709196851.646,-45.898,-36.621,-35.645,-39.551,0.000
1709196851.650,-43.945,-40.527,-31.738,-31.738,0.000
1709196851.654,-36.621,-38.086,-29.785,-22.949,0.000
1709196851.658,-40.039,-37.598,-30.273,-26.367,0.000
1709196851.661,-36.133,-37.109,-31.250,-41.016,0.000
1709196851.665,-45.410,-38.574,-28.809,-35.156,0.000
1709196851.669,-49.316,-34.668,-32.715,-22.949,0.000
1709196851.673,-31.250,-38.574,-34.668,-25.879,0.000
1709196851.677,-32.715,-41.016,-32.715,-34.668,0.000
1709196851.681,-43.457,-38.574,-31.250,-41.992,0.000
1709196851.685,-32.715,-37.598,-32.227,-49.805,0.000
1709196851.689,-30.273,-37.109,-29.297,-45.898,0.000
1709196851.693,-40.039,-36.133,-26.855,-38.086,0.000
1709196851.697,-29.785,-37.598,-24.414,-34.180,0.000
1709196851.700,-32.715,-45.410,-30.762,-41.992,0.000
1709196851.704,-40.527,-43.945,-32.715,-36.621,0.000
1709196851.708,-32.227,-43.945,-25.391,-25.879,0.000
1709196851.712,-13.672,-41.992,-31.738,-23.438,0.000
1709196851.716,-12.207,-37.109,-31.250,-27.344,0.000
1709196851.720,-27.832,-44.434,-24.902,-31.250,0.000
1709196851.724,-27.832,-46.387,-20.020,-30.273,0.000
1709196851.728,-28.320,-32.715,-22.949,-27.344,0.000
1709196851.732,-22.949,-30.762,-28.809,-16.602,0.000
1709196851.736,-17.578,-40.527,-29.785,-8.301,0.000
1709196851.740,-15.625,-41.992,-29.297,-16.602,0.000
1709196851.743,-24.414,-41.992,-28.809,-37.598,0.000
1709196851.747,-26.855,-39.551,-35.645,-41.504,0.000
1709196851.751,-25.391,-33.691,-36.621,-35.645,0.000
1709196851.755,-30.762,-32.227,-27.344,-20.996,0.000
1709196851.759,-33.203,-25.879,-24.414,-39.062,0.000
1709196851.763,-41.504,-28.809,-25.879,-58.594,0.000
1709196851.767,-34.668,-37.598,-25.879,-41.992,0.000
1709196851.771,-35.645,-32.227,-27.832,-35.156,0.000
1709196851.775,-30.762,-30.762,-36.621,-32.227,0.000
1709196851.779,-26.855,-29.297,-28.809,-24.414,0.000
1709196851.783,-29.785,-31.250,-22.949,-26.367,0.000
1709196851.786,-38.574,-32.715,-34.668,-24.902,0.000
1709196851.790,-33.203,-38.086,-28.809,-16.602,0.000
1709196851.794,-15.625,-41.992,-19.531,-9.277,0.000
1709196851.798,-9.766,-32.715,-24.902,-15.137,0.000
1709196851.802,-8.301,-25.391,-27.344,-22.949,0.000
1709196851.806,-27.344,-33.691,-32.227,-30.273,0.000
1709196851.810,-29.297,-37.109,-36.133,-31.250,0.000
1709196851.814,-19.043,-34.180,-37.109,-24.902,0.000
1709196851.818,-17.578,-31.250,-34.668,-29.785,0.000
1709196851.822,-22.949,-29.297,-28.809,-48.828,0.000
1709196851.825,-19.043,-30.273,-29.785,-49.316,0.000
1709196851.829,-8.789,-25.391,-31.738,-33.203,0.000
1709196851.833,-9.277,-28.320,-28.809,-35.645,0.000
1709196851.837,-8.301,-29.785,-30.273,-38.574,0.000
1709196851.841,-12.207,-35.645,-29.297,-43.457,0.000
1709196851.845,-20.508,-36.133,-31.250,-52.246,0.000
1709196851.849,-19.043,-32.227,-30.273,-43.945,0.000
1709196851.853,-15.137,-39.551,-28.320,-35.645,0.000
1709196851.857,-19.531,-42.480,-27.344,-32.227,0.000
1709196851.861,-30.273,-35.645,-25.879,-42.480,0.000
1709196851.865,-40.039,-26.855,-34.668,-58.105,0.000
1709196851.868,-41.016,-31.250,-37.109,-47.852,0.000
1709196851.872,-36.133,-34.668,-36.133,-34.668,0.000
1709196851.876,-21.973,-21.484,-32.715,-27.344,0.000
1709196851.880,-29.297,-18.555,-31.250,-31.738,0.000
1709196851.884,-58.105,-32.227,-41.016,-45.410,0.000
1709196851.888,-52.734,-44.434,-43.457,-38.574,0.000
1709196851.892,-41.016,-45.898,-42.969,-33.691,0.000
1709196851.896,-45.898,-40.039,-40.039,-49.316,0.000
1709196851.900,-45.898,-37.598,-34.180,-52.246,0.000
1709196851.904,-55.176,-38.574,-34.180,-43.945,0.000
1709196851.907,-58.594,-47.852,-31.738,-37.598,0.000
1709196851.911,-50.781,-53.711,-31.250,-26.367,0.000
1709196851.915,-47.363,-41.504,-36.133,-30.273,0.000
1709196851.919,-52.246,-38.086,-35.645,-40.039,0.000
1709196851.923,-54.688,-41.016,-24.414,-36.621,0.000
1709196851.927,-42.969,-40.039,-22.949,-21.484,0.000
1709196851.931,-42.969,-41.504,-28.320,-13.184,0.000
1709196851.935,-37.598,-35.156,-23.438,-22.461,0.000
1709196851.939,-28.320,-36.621,-24.902,-35.645,0.000
1709196851.943,-46.875,-36.133,-29.297,-43.945,0.000
1709196851.947,-44.434,-35.645,-28.809,-35.156,0.000
1709196851.950,-22.949,-34.668,-30.762,-11.230,0.000
1709196851.954,-28.809,-32.227,-33.203,-14.648,0.000
1709196851.958,-28.320,-29.297,-26.367,-27.832,0.000
1709196851.962,-25.879,-31.738,-29.297,-28.320,0.000
1709196851.966,-12.695,-43.457,-28.320,-22.461,0.000
1709196851.970,-15.137,-48.828,-19.043,-14.160,0.000
1709196851.974,-25.391,-42.969,-19.043,-12.207,0.000
1709196851.978,-15.625,-41.992,-19.531,-17.090,0.000
1709196851.982,-19.531,-44.434,-21.484,-21.484,0.000
1709196851.986,-30.762,-42.969,-24.902,-33.203,0.000
1709196851.990,-24.414,-35.645,-25.391,-28.320,0.000
1709196851.993,-17.578,-23.926,-26.367,-16.113,0.000
1709196851.997,-16.113,-18.555,-28.809,-20.996,0.000
1709196852.001,-22.949,-23.926,-31.738,-29.297,0.000
1709196852.005,-34.668,-33.203,-36.133,-35.156,0.000
1709196852.009,-29.297,-39.551,-32.227,-28.320,0.000
1709196852.013,-7.812,-36.621,-27.832,-18.555,0.000
1709196852.017,-21.973,-38.086,-26.855,-23.926,0.000
1709196852.021,-40.039,-44.922,-24.414,-34.180,0.000
1709196852.025,-42.480,-43.457,-35.156,-43.457,0.000
1709196852.029,-44.434,-38.574,-33.203,-41.504,0.000
1709196852.032,-46.875,-45.410,-28.809,-35.645,0.000
1709196852.036,-49.316,-45.410,-34.180,-35.645,0.000
1709196852.040,-43.457,-37.598,-29.785,-31.250,0.000
1709196852.044,-53.223,-35.645,-32.715,-33.691,0.000
1709196852.048,-51.270,-35.156,-36.621,-44.434,0.000
1709196852.052,-35.645,-38.574,-29.297,-43.945,0.000
1709196852.056,-44.434,-48.340,-28.809,-44.922,0.000
1709196852.060,-49.805,-47.363,-32.227,-55.664,0.000
1709196852.064,-44.434,-40.527,-31.738,-58.105,0.000
1709196852.068,-42.969,-33.691,-31.738,-43.457,0.000
1709196852.072,-25.391,-36.621,-30.762,-28.320,0.000
1709196852.075,-23.926,-44.434,-27.344,-40.039,0.000
1709196852.079,-45.410,-41.016,-27.832,-51.758,0.000
1709196852.083,-45.898,-37.109,-24.902,-43.945,0.000
1709196852.087,-38.086,-41.992,-26.855,-35.156,0.000
1709196852.091,-31.250,-39.062,-29.297,-30.762,0.000
1709196852.095,-26.367,-39.551,-22.461,-19.531,0.000
1709196852.099,-24.414,-36.133,-30.762,-16.602,0.000
1709196852.103,-38.086,-28.320,-32.715,-41.016,0.000
1709196852.107,-31.738,-25.879,-24.414,-43.945,0.000
1709196852.111,-13.184,-24.414,-25.879,-25.391,0.000
1709196852.114,-16.602,-21.973,-27.344,-23.926,0.000
1709196852.118,-16.602,-23.438,-25.391,-34.180,0.000
1709196852.122,-22.949,-37.598,-22.461,-39.062,0.000
1709196852.126,-31.738,-43.945,-20.508,-36.133,0.000
1709196852.130,-23.438,-35.645,-29.297,-23.926,0.000
1709196852.134,-15.137,-34.180,-34.180,-27.344,0.000
1709196852.138,-34.180,-39.062,-31.250,-38.574,0.000
1709196852.142,-47.852,-35.156,-38.574,-45.898,0.000
1709196852.146,-34.180,-29.297,-38.086,-42.969,0.000
1709196852.150,-41.016,-35.645,-36.133,-40.039,0.000
1709196852.154,-40.039,-42.480,-44.434,-38.086,0.000
1709196852.157,-30.762,-35.156,-42.969,-33.203,0.000
1709196852.161,-39.062,-31.250,-36.621,-43.457,0.000
1709196852.165,-34.668,-44.434,-38.086,-47.363,0.000
1709196852.169,-25.879,-40.039,-36.133,-33.203,0.000
1709196852.173,-24.902,-28.809,-29.785,-25.391,0.000
1709196852.177,-20.020,-35.645,-29.785,-31.738,0.000
1709196852.181,-40.527,-38.086,-34.668,-43.457,0.000
1709196852.185,-53.711,-40.039,-34.180,-34.180,0.000
1709196852.189,-34.668,-45.410,-31.250,-28.320,0.000
1709196852.193,-30.762,-41.016,-36.133,-35.156,0.000
1709196852.196,-39.062,-40.527,-40.527,-37.598,0.000
1709196852.200,-33.691,-33.203,-39.062,-34.668,0.000
1709196852.204,-31.738,-24.902,-34.668,-24.414,0.000
1709196852.208,-33.203,-29.297,-34.180,-21.973,0.000
1709196852.212,-9.277,-29.297,-33.203,-14.160,0.000
1709196852.216,-16.602,-42.480,-34.180,-20.996,0.000
1709196852.220,-44.922,-47.363,-37.109,-31.738,0.000
1709196852.224,-42.480,-24.414,-39.062,-39.551,0.000
1709196852.228,-36.133,-16.113,-38.574,-40.039,0.000
1709196852.232,-31.738,-17.090,-36.133,-24.902,0.000
1709196852.236,-30.762,-21.973,-29.785,-18.066,0.000
1709196852.239,-34.180,-27.344,-27.344,-24.414,0.000
1709196852.243,-36.133,-28.320,0.000,-26.855,0.000
1709196852.247,-35.645,-39.062,0.000,-26.855,0.000
1709196852.251,-36.133,-41.504,0.000,-27.344,0.000
1709196852.255,-28.809,-30.762,0.000,-27.832,0.000
1709196852.259,-30.762,-27.832,0.000,-38.574,0.000
1709196852.263,-27.344,-29.785,0.000,-41.016,0.000
1709196852.267,-24.902,-26.367,0.000,-38.086,0.000
1709196852.271,-39.551,-26.367,0.000,-34.668,0.000
1709196852.275,-40.039,-39.551,0.000,-36.133,0.000
1709196852.278,-38.574,-44.922,0.000,-31.250,0.000
1709196852.282,-48.828,-35.645,0.000,-35.156,0.000
1709196852.286,-49.316,-37.109,0.000,-36.133,0.000
1709196852.290,-37.598,-35.645,-25.391,-20.508,0.000
1709196852.294,-25.391,-34.180,-23.926,-17.578,0.000
1709196852.298,-20.996,-33.691,-22.461,-30.273,0.000
1709196852.302,-36.621,-36.133,-24.414,-39.551,0.000
1709196852.306,-35.156,-37.598,-23.438,-36.133,0.000
1709196852.310,-8.301,-30.273,-18.066,-25.391,0.000
1709196852.314,-20.020,-33.203,-20.996,-13.672,0.000
1709196852.318,-38.086,-39.062,-26.855,-20.508,0.000
1709196852.321,-32.715,-38.574,-26.855,-36.133,0.000
1709196852.325,-24.414,-39.062,-22.461,-19.531,0.000
1709196852.329,-8.789,-31.738,-15.137,-6.836,0.000
1709196852.333,1.465,-34.668,-21.973,-18.555,0.000
1709196852.337,3.418,-39.062,-29.785,-22.949,0.000
1709196852.341,-8.301,-30.273,-29.297,-23.438,0.000
1709196852.345,-17.090,-25.391,-32.227,-27.832,0.000
1709196852.349,-14.160,-31.738,-33.691,-16.113,0.000
1709196852.353,-7.812,-40.039,-29.785,-7.812,0.000
1709196852.357,-8.789,-35.156,-30.273,-16.113,0.000
1709196852.361,-19.043,-33.691,-25.879,-14.648,0.000
1709196852.364,-17.090,-35.645,-22.461,-20.996,0.000
1709196852.368,-25.879,-41.504,-29.297,-24.414,0.000
1709196852.372,-33.691,-39.551,-32.227,-16.602,0.000
1709196852.376,-23.438,-37.598,-32.227,-21.973,0.000
1709196852.380,-19.043,-38.574,-30.762,-24.902,0.000
1709196852.384,-23.438,-34.668,-26.367,-19.531,0.000
1709196852.388,-23.926,-28.320,-24.414,-12.207,0.000
1709196852.392,-17.090,-26.367,-25.391,-10.742,0.000
1709196852.396,-12.695,-30.762,-24.414,-13.672,0.000
1709196852.400,-25.879,-36.621,-20.508,-18.066,0.000
1709196852.404,-25.391,-30.273,-21.484,-31.250,0.000
1709196852.407,-26.367,-28.320,-25.391,-34.180,0.000
1709196852.411,-39.062,-35.156,-27.832,-22.949,0.000
1709196852.415,-33.691,-40.039,-25.879,-16.113,0.000
1709196852.419,-36.133,-34.180,-27.832,-33.691,0.000
1709196852.423,-38.086,-32.715,-30.762,-46.387,0.000
1709196852.427,-39.062,-38.086,-29.297,-24.414,0.000
1709196852.431,-41.016,-41.016,-27.832,-20.508,0.000
1709196852.435,-35.156,-42.969,-29.785,-36.621,0.000
1709196852.439,-37.109,-41.016,-29.785,-40.039,0.000
1709196852.443,-42.480,-38.086,-29.297,-45.410,0.000
1709196852.446,-41.992,-38.086,-28.809,-32.227,0.000
1709196852.450,-37.598,-41.016,-28.809,-23.438,0.000
1709196852.454,-36.133,-44.434,-28.809,-39.062,0.000
1709196852.458,-21.973,-39.062,-25.391,-37.109,0.000
1709196852.462,-27.832,-34.668,-27.344,-35.156,0.000
1709196852.466,-39.062,-33.691,-31.738,-38.574,0.000
1709196852.470,-32.227,-37.109,-36.133,-32.227,0.000
1709196852.474,-30.273,-36.621,-32.227,-24.414,0.000
1709196852.478,-19.043,-40.039,-30.273,-28.320,0.000
1709196852.482,-16.602,-47.852,-31.738,-33.691,0.000
1709196852.486,-27.832,-37.109,-32.715,-32.227,0.000
1709196852.489,-23.438,-27.832,-37.598,-27.832,0.000
1709196852.493,-16.113,-37.598,-33.203,-30.273,0.000
1709196852.497,-17.090,-43.945,-25.879,-36.621,0.000
1709196852.501,-18.555,-38.086,-25.391,-38.086,0.000
1709196852.505,-14.160,-42.969,-33.203,-38.574,0.000
1709196852.509,-28.320,-49.316,-34.668,-32.227,0.000
1709196852.513,-36.621,-41.992,-31.738,-26.855,0.000
1709196852.517,-34.180,-41.016,-36.133,-33.691,0.000
1709196852.521,-43.457,-42.480,-38.574,-43.945,0.000
1709196852.525,-42.969,-38.574,-35.156,-45.898,0.000
1709196852.528,-33.691,-35.645,-33.203,-37.109,0.000
1709196852.532,-32.227,-39.551,-32.227,-34.180,0.000
1709196852.536,-42.480,-40.039,-37.598,-35.645,0.000
1709196852.540,-36.621,-35.645,-39.062,-41.992,0.000
1709196852.544,-33.203,-35.645,-30.762,-40.039,0.000
1709196852.548,-36.621,-31.250,-28.809,-27.344,0.000
1709196852.552,-27.832,-33.203,-32.227,-23.438,0.000
1709196852.556,-22.949,-32.227,-27.832,-23.438,0.000
1709196852.560,-24.414,-34.668,-33.203,-30.762,0.000
1709196852.564,-33.691,-41.992,-38.574,-44.434,0.000
1709196852.568,-40.039,-32.227,-34.180,-41.992,0.000
1709196852.571,-28.320,-27.832,-36.133,-34.180,0.000
1709196852.575,-22.461,-33.203,-37.109,-35.645,0.000
1709196852.579,-23.438,-41.016,-36.621,-33.691,0.000
1709196852.583,-29.297,-52.246,-35.156,-36.621,0.000
1709196852.587,-27.832,-45.898,-31.250,-47.852,0.000
1709196852.591,-26.367,-29.785,-34.180,-46.387,0.000
1709196852.595,-24.902,-30.273,-35.645,-37.598,0.000
1709196852.599,-22.949,-29.297,-37.109,-41.016,0.000
1709196852.603,-34.180,-20.508,-37.109,-39.062,0.000
1709196852.607,-38.086,-26.855,-37.109,-39.551,0.000
1709196852.610,-30.273,-31.738,-41.504,-36.133,0.000
1709196852.614,-31.738,-30.273,-39.062,-35.645,0.000
1709196852.618,-34.180,-31.250,-34.668,-47.363,0.000
1709196852.622,-39.062,-32.715,-34.180,-39.551,0.000
1709196852.626,-42.480,-34.180,-37.598,-32.715,0.000
1709196852.630,-34.180,-32.715,-39.062,-35.156,0.000
1709196852.634,-27.832,-33.203,-28.809,-29.785,0.000
1709196852.638,-23.438,-33.203,-25.391,-29.785,0.000
1709196852.642,-37.598,-40.527,-26.855,-38.574,0.000
1709196852.646,-45.898,-44.434,-22.949,-43.457,0.000
1709196852.650,-36.133,-38.086,-22.949,-35.156,0.000
1709196852.653,-19.531,-40.527,-21.484,-19.043,0.000
1709196852.657,-27.832,-41.016,-23.926,-20.020,0.000
1709196852.661,-44.434,-35.156,-30.273,-28.809,0.000
1709196852.665,-42.480,-31.738,-25.879,-34.668,0.000
1709196852.669,-35.156,-32.227,-26.855,-33.691,0.000
1709196852.673,-26.367,-28.809,-27.832,-24.902,0.000
1709196852.677,-19.531,-29.785,-25.879,-25.391,0.000
1709196852.681,-20.996,-38.574,-26.367,-38.086,0.000
1709196852.685,-28.320,-43.945,-28.320,-39.062,0.000
1709196852.689,-22.949,-35.156,-32.715,-34.668,0.000
1709196852.693,-4.395,-28.320,-35.156,-30.762,0.000
1709196852.696,-20.996,-38.574,-35.645,-32.715,0.000
1709196852.700,-29.785,-48.828,-35.156,-33.691,0.000
1709196852.704,-23.438,-40.527,-30.762,-22.949,0.000
1709196852.708,-25.391,-41.992,-30.273,-14.648,0.000
1709196852.712,-20.508,-47.363,-35.645,-25.879,0.000
1709196852.716,-20.508,-28.809,-29.297,-28.809,0.000
1709196852.720,-28.320,-19.043,-25.391,-35.156,0.000
1709196852.724,-38.574,-33.203,-36.621,-41.016,0.000
1709196852.728,-25.391,-40.527,-39.551,-29.297,0.000
1709196852.732,-15.137,-37.598,-30.273,-27.344,0.000
1709196852.735,-27.344,-30.273,-27.344,-34.668,0.000
1709196852.739,-30.762,-35.156,-31.738,-41.504,0.000
1709196852.743,-40.527,-38.574,-35.156,-42.480,0.000
1709196852.747,-36.621,-39.062,-36.621,-31.250,0.000
1709196852.751,-21.484,-40.039,-31.250,-20.020,0.000
1709196852.755,-32.227,-39.062,-29.297,-21.484,0.000
1709196852.759,-39.551,-41.992,-32.715,-41.992,0.000
1709196852.763,-38.574,-40.039,-30.273,-43.457,0.000
1709196852.767,-41.504,-31.738,-29.785,-32.715,0.000
1709196852.771,-38.086,-35.645,-33.203,-25.391,0.000
1709196852.775,-25.879,-27.832,-32.715,-23.438,0.000
1709196852.778,-15.625,-19.043,-22.461,-22.949,0.000
1709196852.782,-24.902,-24.414,-21.484,-26.367,0.000
1709196852.786,-34.180,-21.973,-25.391,-25.879,0.000
1709196852.790,-30.273,-23.438,-30.273,-12.695,0.000
1709196852.794,-20.020,-34.180,-29.297,-17.090,0.000
1709196852.798,-16.602,-35.156,-30.762,-18.066,0.000
1709196852.802,-23.438,-32.227,-32.227,-27.832,0.000
1709196852.806,-30.762,-43.457,-31.250,-33.203,0.000
1709196852.810,-28.320,-48.340,-29.785,-13.184,0.000
1709196852.814,-6.348,-37.109,-28.320,-9.277,0.000
1709196852.818,-3.906,-35.156,-27.344,-16.602,0.000
1709196852.821,-31.250,-35.645,-25.879,-18.555,0.000
1709196852.825,-31.738,-34.668,-29.785,-27.344,0.000
1709196852.829,-24.902,-40.527,-30.273,-20.508,0.000
1709196852.833,-31.738,-39.062,-32.227,-5.859,0.000
1709196852.837,-29.785,-37.109,-39.551,-13.672,0.000
1709196852.841,-26.855,-36.133,-36.621,-26.855,0.000
1709196852.845,-27.832,-38.574,-36.621,-32.715,0.000
1709196852.849,-20.508,-34.668,-35.645,-25.391,0.000
1709196852.853,-14.160,-27.344,-28.320,-16.602,0.000
1709196852.857,-20.508,-29.785,-28.809,-30.762,0.000
1709196852.860,-34.668,-42.969,-36.133,-47.852,0.000
1709196852.864,-47.852,-42.969,-39.062,-36.621,0.000
1709196852.868,-38.574,-36.133,-32.715,-26.855,0.000
1709196852.872,-20.508,-37.109,-28.809,-26.367,0.000
1709196852.876,-21.973,-32.227,-27.344,-30.273,0.000
1709196852.880,-16.113,-31.738,-26.855,-34.668,0.000
1709196852.884,-24.414,-40.039,-31.250,-36.621,0.000
1709196852.888,-42.969,-37.109,-30.762,-29.785,0.000
1709196852.892,-34.668,-36.133,-31.250,-23.926,0.000
1709196852.896,-21.484,-29.297,-28.320,-18.066,0.000
1709196852.900,-25.391,-30.273,-21.973,-29.297,0.000
1709196852.903,-33.691,-38.574,-24.414,-34.668,0.000
1709196852.907,-33.691,-50.781,-26.367,-18.555,0.000
1709196852.911,-25.391,-48.828,-20.996,-10.254,0.000
1709196852.915,-20.020,-30.273,-20.508,-14.648,0.000
1709196852.919,-23.926,-32.227,-26.367,-22.461,0.000
1709196852.923,-34.668,-41.504,-29.785,-19.531,0.000
1709196852.927,-28.809,-34.668,-25.391,-10.742,0.000
1709196852.931,-24.414,-34.668,-28.809,-17.090,0.000
1709196852.935,-27.832,-43.457,-30.273,-21.973,0.000
1709196852.939,-24.902,-40.527,-26.367,-34.180,0.000
1709196852.942,-20.996,-37.598,-29.785,-38.574,0.000
1709196852.946,-29.785,-38.574,-32.227,-25.879,0.000
1709196852.950,-34.180,-41.016,-31.738,-20.020,0.000
1709196852.954,-30.762,-35.156,-32.227,-25.879,0.000
1709196852.958,-31.738,-29.297,-39.551,-41.504,0.000
1709196852.962,-34.180,-32.227,-33.691,-44.434,0.000
1709196852.966,-29.785,-34.180,-20.020,-35.645,0.000
1709196852.970,-10.254,-36.133,-21.973,-20.508,0.000
1709196852.974,-7.812,-35.156,-32.715,-29.297,0.000
1709196852.978,-19.531,-27.344,-33.203,-43.945,0.000
1709196852.982,-33.203,-29.785,-32.715,-46.387,0.000
1709196852.985,-35.645,-29.297,-29.785,-36.621,0.000
1709196852.989,-29.785,-25.879,-29.785,-30.273,0.000
1709196852.993,-26.367,-34.668,-31.738,-37.109,0.000
1709196852.997,-22.949,-34.180,-28.320,-40.039,0.000
1709196853.001,-29.785,-30.273,-26.855,-45.410,0.000
1709196853.005,-27.344,-38.574,-32.715,-53.711,0.000
1709196853.009,-31.738,-49.316,-31.250,-52.734,0.000
1709196853.013,-41.016,-54.199,-29.297,-45.410,0.000
1709196853.017,-32.227,-35.645,-30.273,-31.738,0.000
1709196853.021,-37.109,-25.391,-27.344,-30.762,0.000
1709196853.024,-41.504,-29.785,-26.367,-39.062,0.000
1709196853.028,-38.574,-31.250,-29.297,-32.227,0.000
1709196853.032,-27.344,-37.598,-29.297,-25.879,0.000
1709196853.036,-16.602,-42.480,-27.832,-24.902,0.000
1709196853.040,-31.250,-31.250,-26.367,-31.250,0.000
1709196853.044,-41.016,-24.414,-21.973,-38.086,0.000
1709196853.048,-33.691,-36.621,-29.297,-40.039,0.000
1709196853.052,-20.020,-37.109,-33.691,-36.621,0.000
1709196853.056,-21.973,-33.203,-30.273,-40.039,0.000
1709196853.060,-28.320,-41.016,-27.832,-40.527,0.000
1709196853.064,-23.438,-39.551,-24.414,-41.992,0.000
1709196853.067,-27.832,-40.527,-27.344,-46.387,0.000
1709196853.071,-43.457,-40.039,-30.273,-37.598,0.000
1709196853.075,-29.297,-33.691,-26.367,-28.809,0.000
1709196853.079,-20.508,-34.180,-28.320,-40.039,0.000
1709196853.083,-36.621,-35.645,-33.203,-38.574,0.000
1709196853.087,-33.691,-35.645,-29.297,-23.438,0.000
1709196853.091,-20.996,-34.668,-30.762,-30.273,0.000
1709196853.095,-23.438,-38.574,-28.809,-22.461,0.000
1709196853.099,-30.762,-38.086,-23.926,-26.855,0.000
1709196853.103,-44.922,-33.203,-32.715,-43.945,0.000
1709196853.107,-45.898,-32.227,-41.992,-39.062,0.000
1709196853.110,-38.574,-30.273,-38.574,-34.180,0.000
1709196853.114,-37.598,-29.297,-36.133,-43.945,0.000
1709196853.118,-32.227,-32.715,-37.598,-44.434,0.000
1709196853.122,-38.086,-33.203,-36.621,-38.574,0.000
1709196853.126,-41.992,-30.273,-34.668,-40.527,0.000
1709196853.130,-28.809,-30.273,-27.832,-37.109,0.000
1709196853.134,-22.949,-37.598,-30.273,-38.086,0.000
1709196853.138,-30.762,-37.109,-33.203,-42.480,0.000
1709196853.142,-29.297,-30.273,-29.785,-44.922,0.000
1709196853.146,-11.230,-30.273,-26.855,-46.875,0.000
1709196853.149,-15.137,-27.832,-21.973,-31.250,0.000
1709196853.153,-30.762,-34.180,-25.391,-28.809,0.000
1709196853.157,-36.133,-43.945,-30.273,-41.504,0.000
1709196853.161,-37.109,-44.434,-27.832,-44.922,0.000
1709196853.165,-37.109,-44.434,-27.832,-30.273,0.000
1709196853.169,-29.785,-38.086,-29.785,-18.066,0.000
1709196853.173,-12.695,-35.645,-27.344,-18.555,0.000
1709196853.177,-20.996,-34.180,-23.926,-26.855,0.000
1709196853.181,-32.227,-32.715,-30.762,-27.344,0.000
1709196853.185,-33.203,-41.992,-29.297,-20.020,0.000
1709196853.189,-31.250,-41.504,-24.414,-22.461,0.000
1709196853.192,-38.574,-38.086,-26.855,-24.902,0.000
1709196853.196,-52.246,-41.992,-28.320,-30.273,0.000
1709196853.200,-54.199,-48.340,-27.832,-31.250,0.000
1709196853.204,-49.805,-49.805,-28.320,-27.832,0.000
1709196853.208,-54.199,-48.340,-33.203,-31.738,0.000
1709196853.212,-47.852,-46.875,-31.738,-25.879,0.000
1709196853.216,-41.504,-49.805,-29.297,-33.203,0.000
1709196853.220,-33.691,-52.246,-28.809,-45.410,0.000
1709196853.224,-29.785,-47.363,-30.762,-50.781,0.000
1709196853.228,-49.805,-50.781,-32.227,-45.898,0.000
1709196853.232,-45.898,-45.898,-30.762,-34.180,0.000
1709196853.235,-37.109,-38.086,-31.738,-31.738,0.000
1709196853.239,-41.016,-38.574,-29.297,-35.156,0.000
1709196853.243,-46.875,-38.086,-30.762,-46.875,0.000
1709196853.247,-38.086,-41.504,-29.297,-43.945,0.000
1709196853.251,-30.273,-41.992,-20.996,-33.203,0.000
1709196853.255,-24.414,-40.527,-21.484,-32.715,0.000
1709196853.259,-30.273,-42.969,-29.297,-41.504,0.000
1709196853.263,-37.598,-52.246,-30.762,-48.340,0.000
1709196853.267,-31.738,-52.734,-28.320,-41.504,0.000
1709196853.271,-16.113,-46.875,-27.344,-24.414,0.000
1709196853.274,-23.438,-44.922,-23.438,-12.207,0.000
1709196853.278,-44.922,-43.945,-27.832,-30.273,0.000
1709196853.282,-42.480,-38.574,-33.203,-44.922,0.000
1709196853.286,-33.691,-39.062,-34.180,-36.621,0.000
1709196853.290,-28.320,-43.945,-32.227,-21.484,0.000
1709196853.294,-29.297,-48.340,-32.227,-16.113,0.000
1709196853.298,-25.391,-53.223,-32.227,-19.531,0.000
1709196853.302,-31.250,-45.898,-27.344,-12.207,0.000
1709196853.306,-26.855,-37.598,-19.043,-11.719,0.000
1709196853.310,-15.137,-41.504,-17.578,-5.859,0.000
1709196853.314,-25.391,-36.621,-20.508,-4.395,0.000
1709196853.317,-22.949,-34.180,-24.902,-13.672,0.000
1709196853.321,-18.066,-27.344,-28.320,-12.695,0.000
1709196853.325,-13.672,-19.531,-29.785,-6.836,0.000
1709196853.329,-32.715,-31.738,-30.273,-10.742,0.000
1709196853.333,-38.086,-44.922,-30.273,-20.508,0.000
1709196853.337,-25.391,-38.574,-24.902,-22.461,0.000
1709196853.341,-40.039,-28.320,-20.020,-19.043,0.000
1709196853.345,-51.758,-35.156,-23.926,-22.461,0.000
1709196853.349,-41.504,-32.227,-27.344,-27.344,0.000
1709196853.353,-27.832,-26.855,-27.344,-27.344,0.000
1709196853.356,-25.391,-30.762,-25.879,-33.691,0.000
1709196853.360,-27.344,-34.668,-31.250,-37.598,0.000
1709196853.364,-33.691,-43.457,-34.180,-34.668,0.000
1709196853.368,0.000,-37.598,-31.250,-31.738,0.000
1709196853.372,0.000,-32.227,-22.461,-30.762,0.000
1709196853.376,0.000,-43.457,-20.996,-38.574,0.000
1709196853.380,0.000,-41.016,-31.250,-45.898,0.000
1709196853.384,0.000,-29.297,-32.715,-34.180,0.000
1709196853.388,0.000,-34.180,-31.738,-27.832,0.000
1709196853.392,0.000,-36.621,-32.715,-28.809,0.000
1709196853.396,0.000,-27.832,-32.715,-33.203,0.000
1709196853.399,0.000,-35.156,-36.133,-42.969,0.000
1709196853.403,0.000,-37.598,-35.156,-43.457,0.000
1709196853.407,0.000,-24.414,-33.203,-37.109,0.000
1709196853.411,0.000,-22.461,-34.180,-30.273,0.000
1709196853.415,-41.992,-34.668,-30.762,-30.762,0.000
1709196853.419,-32.715,-34.668,-28.320,-42.969,0.000
1709196853.423,-28.809,-38.086,-35.156,-50.781,0.000
1709196853.427,-34.668,-39.551,-39.551,-43.945,0.000
1709196853.431,-33.203,-32.227,-36.133,-27.344,0.000
1709196853.435,-31.250,-35.645,-35.156,-21.484,0.000
1709196853.438,-39.062,-40.527,-37.598,-24.902,0.000
1709196853.442,-46.387,-40.039,-35.645,-27.832,0.000
1709196853.446,-34.180,-35.645,-33.691,-35.645,0.000
1709196853.450,-40.527,-40.039,-32.715,-26.855,0.000
1709196853.454,-53.711,-40.039,-34.180,-28.809,0.000
1709196853.458,-44.434,-35.156,-35.645,-38.086,0.000
1709196853.462,-41.992,-37.598,-33.691,-39.062,0.000
1709196853.466,-52.246,-41.992,-29.297,-36.133,0.000
1709196853.470,-52.246,-42.480,-27.344,-27.832,0.000
1709196853.474,-35.156,-37.109,-26.367,-12.695,0.000
1709196853.478,-32.715,-32.715,-25.879,-17.578,0.000
1709196853.481,-32.227,-32.715,-27.344,-38.086,0.000
1709196853.485,-19.043,-36.133,-25.391,-30.273,0.000
1709196853.489,-34.180,-41.992,-30.273,-28.809,0.000
1709196853.493,-38.574,-39.551,-31.250,-29.297,0.000
1709196853.497,-31.738,-37.598,-28.809,-30.273,0.000
1709196853.501,-34.180,-41.504,-30.273,-43.457,0.000
1709196853.505,-34.180,-40.527,-36.133,-43.457,0.000
