timestamps,TP9,AF7,AF8,TP10,Right AUX
1709299454.591,-46.387,-55.176,-29.297,-24.414,0.000
1709299454.595,-51.758,-58.594,-27.344,-34.180,0.000
1709299454.599,-63.965,-40.527,-27.832,-50.781,0.000
1709299454.603,-59.082,-35.645,-31.738,-50.293,0.000
1709299454.607,-42.480,-42.969,-37.109,-36.133,0.000
1709299454.611,-34.180,-29.297,-42.969,-35.645,0.000
1709299454.614,-36.133,-24.902,-26.855,-37.598,0.000
1709299454.618,-52.246,-30.273,-31.250,-41.992,0.000
1709299454.622,-49.805,-39.062,-40.039,-41.016,0.000
1709299454.626,-32.715,-41.016,-26.367,-35.156,0.000
1709299454.630,-35.156,-40.527,-27.344,-39.062,0.000
1709299454.634,-44.922,-43.457,-31.738,-54.688,0.000
1709299454.638,-46.387,-36.621,-33.691,-63.965,0.000
1709299454.642,-35.156,-46.387,-27.832,-54.199,0.000
1709299454.646,-37.109,-43.945,-35.645,-43.457,0.000
1709299454.649,-43.945,-37.109,-30.273,-44.434,0.000
1709299454.653,-41.016,-33.691,-19.043,-56.152,0.000
1709299454.657,-53.711,-32.227,-32.227,-75.195,0.000
1709299454.661,-65.918,-37.109,-38.086,-66.895,0.000
1709299454.665,-59.570,-43.457,-41.504,-47.363,0.000
1709299454.669,-38.574,-50.293,-38.574,-46.875,0.000
1709299454.673,-25.391,-38.086,-32.227,-42.969,0.000
1709299454.677,-37.598,-31.250,-37.598,-46.875,0.000
1709299454.681,-44.922,-37.109,-42.969,-53.223,0.000
1709299454.684,-36.133,-43.457,-46.387,-43.457,0.000
1709299454.688,-27.832,-54.688,-42.480,-27.344,0.000
1709299454.692,-36.621,-46.387,-37.109,-42.969,0.000
1709299454.696,-47.363,-32.227,-34.180,-59.570,0.000
1709299454.700,-45.410,-43.945,-31.738,-52.734,0.000
1709299454.704,-37.109,-42.480,-31.738,-44.434,0.000
1709299454.708,-32.227,-27.832,-39.551,-31.250,0.000
1709299454.712,-38.574,-34.180,-52.246,-38.574,0.000
1709299454.716,-46.875,-41.016,-38.086,-54.688,0.000
1709299454.719,-42.480,-40.039,-38.574,-48.828,0.000
1709299454.723,-33.691,-44.922,-54.199,-32.227,0.000
1709299454.727,-21.973,-41.992,-37.598,-22.461,0.000
1709299454.731,-16.602,-32.227,-18.066,-28.320,0.000
1709299454.735,-26.367,-33.203,-21.973,-41.992,0.000
1709299454.739,-38.574,-47.363,-34.180,-40.527,0.000
1709299454.743,-38.574,-45.410,-40.039,-32.715,0.000
1709299454.747,-25.391,-45.410,-41.016,-31.250,0.000
1709299454.751,-27.344,-45.410,-39.551,-28.320,0.000
1709299454.755,-43.457,-47.852,-48.340,-43.945,0.000
1709299454.759,-53.711,-54.688,-46.875,-51.758,0.000
1709299454.763,-56.152,-41.504,-25.879,-48.828,0.000
1709299454.767,-50.781,-44.922,-29.785,-40.527,0.000
1709299454.770,-46.875,-55.176,-35.645,-31.250,0.000
1709299454.774,-51.270,-50.781,-36.133,-41.992,0.000
1709299454.778,-61.523,-40.527,-39.062,-54.199,0.000
1709299454.782,-60.547,-46.387,-38.086,-48.828,0.000
1709299454.786,-49.805,-56.641,-35.156,-33.691,0.000
1709299454.790,-41.992,-52.734,-29.785,-24.414,0.000
1709299454.794,-42.969,-50.293,-34.668,-28.809,0.000
1709299454.798,-45.898,-56.641,-42.969,-41.016,0.000
1709299454.802,-41.504,-53.223,-44.922,-41.504,0.000
1709299454.806,-31.738,-50.293,-41.504,-29.297,0.000
1709299454.810,-18.555,-49.316,-36.621,-13.184,0.000
1709299454.813,-15.625,-36.621,-34.180,-13.184,0.000
1709299454.817,-31.250,-41.992,-41.504,-31.738,0.000
1709299454.821,-35.156,-44.434,-32.227,-33.203,0.000
1709299454.825,-18.066,-36.621,-26.855,-18.066,0.000
1709299454.829,-8.789,-38.574,-35.645,-13.184,0.000
1709299454.833,-20.508,-46.387,-51.758,-32.227,0.000
1709299454.837,-28.320,-46.875,-52.246,-46.387,0.000
1709299454.841,-31.250,-41.016,-32.715,-46.875,0.000
1709299454.845,-22.461,-43.457,-27.832,-41.504,0.000
1709299454.849,-20.996,-32.715,-36.133,-39.062,0.000
1709299454.853,-39.551,-34.180,-43.945,-51.270,0.000
1709299454.856,-53.223,-31.738,-33.691,-55.176,0.000
1709299454.860,-53.711,-18.555,-30.762,-50.293,0.000
1709299454.864,-52.734,-37.109,-37.598,-52.734,0.000
1709299454.868,-45.410,-44.434,-37.109,-46.875,0.000
1709299454.872,-36.133,-43.457,-39.062,-48.340,0.000
1709299454.876,-46.387,-51.270,-44.434,-59.570,0.000
1709299454.880,-57.129,-67.383,-38.086,-62.500,0.000
1709299454.884,-52.246,-62.988,-31.250,-55.664,0.000
1709299454.888,-45.410,-52.246,-35.156,-39.551,0.000
1709299454.892,-45.410,-51.758,-30.762,-41.992,0.000
1709299454.895,-47.363,-37.109,-28.809,-51.758,0.000
1709299454.899,-47.852,-35.156,-35.645,-54.688,0.000
1709299454.903,-40.039,-47.363,-34.668,-41.992,0.000
1709299454.907,-25.879,-48.340,-29.785,-32.715,0.000
1709299454.911,-20.508,-44.434,-34.180,-32.227,0.000
1709299454.915,-19.043,-50.781,-44.434,-30.273,0.000
1709299454.919,-18.066,-45.898,-42.969,-24.902,0.000
1709299454.923,-14.160,-35.645,-35.156,-19.043,0.000
1709299454.927,-6.836,-40.039,-36.621,-8.789,0.000
1709299454.931,-7.812,-35.156,-27.832,-2.930,0.000
1709299454.934,-20.508,-23.926,-34.180,-25.391,0.000
1709299454.938,-23.438,-25.879,-37.598,-38.086,0.000
1709299454.942,-20.508,-32.715,-34.668,-35.156,0.000
1709299454.946,-16.602,-30.273,-37.109,-24.902,0.000
1709299454.950,-17.090,-36.133,-30.273,-25.879,0.000
1709299454.954,-30.762,-47.852,-38.574,-44.434,0.000
1709299454.958,-43.945,-49.316,-41.016,-52.246,0.000
1709299454.962,-43.945,-58.105,-36.621,-48.340,0.000
1709299454.966,-37.598,-41.504,-30.273,-34.668,0.000
1709299454.970,-31.738,-39.551,-26.855,-33.203,0.000
1709299454.973,-40.039,-54.688,-32.715,-48.340,0.000
1709299454.977,-42.480,-28.320,-31.738,-47.363,0.000
1709299454.981,-36.133,-24.414,-24.414,-39.551,0.000
1709299454.985,-35.645,-43.457,-27.344,-31.738,0.000
1709299454.989,-27.344,-44.922,-32.227,-18.066,0.000
1709299454.993,-25.879,-52.734,-29.297,-18.555,0.000
1709299454.997,-33.691,-57.617,-19.043,-29.785,0.000
1709299455.001,-33.203,-58.594,-15.137,-31.738,0.000
1709299455.005,-30.762,-48.340,-25.391,-26.855,0.000
1709299455.009,-34.180,-36.133,-36.133,-24.414,0.000
1709299455.012,-36.621,-39.551,-39.551,-38.574,0.000
1709299455.016,-42.480,-38.574,-34.668,-51.270,0.000
1709299455.020,-50.781,-41.504,-39.551,-50.781,0.000
1709299455.024,-39.551,-47.852,-41.992,-39.062,0.000
1709299455.028,-26.855,-38.086,-37.598,-22.949,0.000
1709299455.032,-23.926,-50.781,-38.574,-29.785,0.000
1709299455.036,-31.250,-58.594,-37.109,-37.598,0.000
1709299455.040,-29.297,-36.621,-31.738,-25.879,0.000
1709299455.044,-14.648,-23.926,-37.109,-18.066,0.000
1709299455.047,-7.812,-25.879,-39.062,-18.555,0.000
1709299455.051,-3.906,-20.996,-35.645,-29.785,0.000
1709299455.055,-7.324,-18.555,-37.109,-45.410,0.000
1709299455.059,-16.602,-27.344,-45.410,-52.734,0.000
1709299455.063,-9.766,-30.762,-41.016,-44.922,0.000
1709299455.067,-0.977,-28.320,-30.273,-29.785,0.000
1709299455.071,-3.418,-32.227,-39.551,-26.367,0.000
1709299455.075,-3.906,-41.504,-43.457,-31.250,0.000
1709299455.078,-19.531,-41.504,-43.945,-32.227,0.000
1709299455.082,-28.320,-35.645,-44.434,-30.762,0.000
1709299455.086,-23.926,-30.273,-32.227,-28.809,0.000
1709299455.090,-32.227,-30.762,-23.926,-35.156,0.000
1709299455.094,-42.969,-37.598,-30.273,-38.086,0.000
1709299455.098,-52.734,-41.016,-37.598,-39.062,0.000
1709299455.102,-56.152,-38.086,-34.668,-48.340,0.000
1709299455.106,-53.223,-41.504,-29.297,0.000,0.000
1709299455.110,-46.875,-48.340,-31.738,0.000,0.000
1709299455.114,-43.457,-42.969,-28.320,0.000,0.000
1709299455.118,-45.898,-40.527,-24.414,0.000,0.000
1709299455.122,-44.922,-42.480,-29.297,0.000,0.000
1709299455.126,-41.016,-44.922,-34.668,0.000,0.000
1709299455.129,-31.738,-39.551,-38.086,0.000,0.000
1709299455.133,-31.738,-29.785,-38.086,0.000,0.000
1709299455.137,-40.527,-25.391,-39.062,0.000,0.000
1709299455.141,-40.527,-34.180,-37.109,0.000,0.000
1709299455.145,-26.367,-44.434,-33.691,0.000,0.000
1709299455.149,-19.043,-32.715,-40.039,0.000,0.000
1709299455.153,0.000,-32.715,-41.992,-36.621,0.000
1709299455.157,0.000,-44.434,-42.969,-41.504,0.000
1709299455.161,0.000,-27.832,-51.270,-43.457,0.000
1709299455.165,0.000,-32.227,-47.852,-29.785,0.000
1709299455.169,0.000,-42.969,-40.527,-12.207,0.000
1709299455.172,0.000,-17.578,-43.945,-19.043,0.000
1709299455.176,0.000,-19.043,-40.527,-31.250,0.000
1709299455.180,0.000,-40.039,-40.039,-35.645,0.000
1709299455.184,0.000,-45.410,-42.480,-24.414,0.000
1709299455.188,0.000,-42.480,-41.504,-11.719,0.000
1709299455.192,0.000,-31.738,-45.410,-23.926,0.000
1709299455.196,0.000,-21.484,-32.715,-38.086,0.000
1709299455.200,-34.180,-24.414,-38.574,-42.480,0.000
1709299455.204,-31.738,-37.109,-30.762,-35.156,0.000
1709299455.208,-22.461,-58.594,-17.090,-26.367,0.000
1709299455.212,-31.738,-55.176,-32.715,-28.809,0.000
1709299455.216,-55.664,-37.598,-39.551,-47.852,0.000
1709299455.219,-63.965,-32.715,-46.387,-69.336,0.000
1709299455.223,-53.711,-36.621,-32.715,-55.664,0.000
1709299455.227,-43.457,-50.293,-24.414,-41.016,0.000
1709299455.231,-41.016,-53.711,-41.504,-37.109,0.000
1709299455.235,-46.875,-46.875,-35.645,-33.203,0.000
1709299455.239,-46.875,-38.574,-23.926,-41.016,0.000
1709299455.243,-45.410,-32.715,-26.367,-34.668,0.000
1709299455.247,-37.109,-41.504,-22.949,-24.902,0.000
1709299455.251,-34.180,-51.270,-25.391,-33.203,0.000
1709299455.255,-49.316,-47.363,-29.297,-45.898,0.000
1709299455.258,-49.805,-47.852,-26.367,-43.945,0.000
1709299455.262,-36.133,-41.992,-33.203,-39.062,0.000
1709299455.266,-28.809,-43.457,-36.621,-29.297,0.000
1709299455.270,-29.785,-33.691,-37.598,-23.926,0.000
1709299455.274,-33.691,-32.227,-44.922,-25.879,0.000
1709299455.278,-41.504,-38.086,-32.227,-26.855,0.000
1709299455.282,-48.340,-21.484,-25.391,-42.480,0.000
1709299455.286,-38.086,-21.484,-23.438,-42.969,0.000
1709299455.290,-32.227,-43.945,-26.855,-35.645,0.000
1709299455.294,-37.598,-50.293,-41.016,-45.898,0.000
1709299455.297,-32.227,-41.504,-38.574,-47.852,0.000
1709299455.301,-34.180,-35.156,-34.668,-39.062,0.000
1709299455.305,-35.156,-43.457,-39.062,-32.715,0.000
1709299455.309,-29.785,-55.176,-33.203,-31.250,0.000
1709299455.313,-27.832,-44.434,-28.320,-33.691,0.000
1709299455.317,-40.527,-45.898,-33.203,-41.992,0.000
1709299455.321,-50.781,-48.828,-29.785,-31.250,0.000
1709299455.325,-41.016,-47.363,-25.391,-23.438,0.000
1709299455.329,-30.762,-48.828,-32.227,-27.344,0.000
1709299455.333,-33.691,-45.898,-41.504,-24.902,0.000
1709299455.337,-41.992,-34.668,-38.086,-40.527,0.000
1709299455.340,-48.340,-29.297,-30.762,-43.457,0.000
1709299455.344,-40.527,-30.273,-23.438,-23.926,0.000
1709299455.348,-31.250,-37.598,-29.297,-16.602,0.000
1709299455.352,-37.109,-63.965,-32.715,-20.996,0.000
1709299455.356,-42.480,-62.988,-18.555,-31.738,0.000
1709299455.360,-43.945,-46.387,-29.785,-42.480,0.000
1709299455.364,-48.828,-43.945,-28.320,-34.180,0.000
1709299455.368,-47.852,-45.410,-13.672,-19.043,0.000
1709299455.372,-49.805,-52.734,-18.555,-27.344,0.000
1709299455.375,-57.129,-58.105,-23.926,-38.086,0.000
1709299455.379,-62.988,-56.641,-20.996,-46.387,0.000
1709299455.383,-57.129,-38.086,-21.973,-39.551,0.000
1709299455.387,-44.922,-27.344,-24.902,-23.926,0.000
1709299455.391,-49.316,-41.504,-32.715,-28.320,0.000
1709299455.395,-60.059,-46.875,-35.156,-47.363,0.000
1709299455.399,-58.594,-40.527,-34.180,-51.270,0.000
1709299455.403,-47.363,-33.691,-34.668,-38.574,0.000
1709299455.407,-39.062,-44.922,-37.109,-34.668,0.000
1709299455.410,-38.574,-42.969,-37.109,-31.738,0.000
1709299455.414,-49.316,-32.227,-34.180,-39.551,0.000
1709299455.418,-58.594,-34.180,-42.480,-47.363,0.000
1709299455.422,-45.898,-35.156,-48.340,-40.527,0.000
1709299455.426,-31.250,-36.133,-28.809,-39.062,0.000
1709299455.430,-26.855,-33.203,-29.785,-40.039,0.000
1709299455.434,-28.809,-41.504,-38.574,-36.621,0.000
1709299455.438,-38.574,-49.805,-34.180,-43.457,0.000
1709299455.442,-41.504,-39.551,-37.109,-45.898,0.000
1709299455.446,-31.250,-41.016,-35.645,-25.879,0.000
1709299455.450,-25.391,-56.641,-41.504,-18.066,0.000
1709299455.454,-34.180,-46.387,-45.898,-26.367,0.000
1709299455.458,-37.109,-31.738,-35.645,-33.203,0.000
1709299455.461,-37.109,-42.480,-30.273,-37.598,0.000
1709299455.465,-33.691,-46.387,-29.297,-25.391,0.000
1709299455.469,-34.668,-40.527,-28.320,-26.855,0.000
1709299455.473,-42.480,-35.645,-33.691,-40.039,0.000
1709299455.477,-41.016,-38.086,-39.062,-36.133,0.000
1709299455.481,-43.457,-43.457,-35.156,-31.738,0.000
1709299455.485,-39.551,-43.945,-26.855,-26.367,0.000
1709299455.489,-34.180,-55.664,-35.156,-20.996,0.000
1709299455.493,-41.016,-67.871,-41.504,-23.438,0.000
1709299455.497,-48.828,-50.781,-26.855,-31.250,0.000
1709299455.501,-52.734,-30.273,-9.766,-29.297,0.000
1709299455.505,-51.270,-35.645,-18.066,-25.391,0.000
1709299455.508,-41.016,-36.621,-31.250,-21.973,0.000
1709299455.512,-36.621,-36.133,-25.879,-25.391,0.000
1709299455.516,-46.387,-39.062,-23.926,-22.461,0.000
1709299455.520,-56.641,-42.480,-26.367,-23.926,0.000
1709299455.524,-50.781,-41.016,-29.297,-29.297,0.000
1709299455.528,-42.480,-38.574,-29.297,-20.996,0.000
1709299455.532,-38.086,-48.340,-19.531,-20.996,0.000
1709299455.536,-49.316,-39.062,-32.715,-42.480,0.000
1709299455.540,-60.547,-18.066,-42.480,-66.406,0.000
1709299455.544,-50.293,-15.137,-41.992,-65.918,0.000
1709299455.548,-26.855,-16.113,-39.551,-43.457,0.000
1709299455.552,-20.020,-7.812,-41.992,-45.898,0.000
1709299455.555,-33.203,-6.348,-51.270,-65.430,0.000
1709299455.559,-31.250,-13.672,-53.711,-63.965,0.000
1709299455.563,-20.996,-8.301,-52.734,-47.852,0.000
1709299455.567,-12.207,6.348,-56.152,-41.504,0.000
1709299455.571,-9.277,-2.441,-61.035,-53.711,0.000
1709299455.575,-13.672,-8.301,-57.129,-61.035,0.000
1709299455.579,-16.113,7.812,-57.129,-60.547,0.000
1709299455.583,-19.043,12.695,-57.129,-58.594,0.000
1709299455.587,-7.324,-5.371,-56.641,-39.062,0.000
1709299455.591,0.488,2.930,-63.477,-30.762,0.000
1709299455.595,-11.719,20.508,-75.684,-47.852,0.000
1709299455.598,-22.461,24.414,-79.102,-54.199,0.000
1709299455.602,-29.297,30.273,-74.219,-56.641,0.000
1709299455.606,-17.090,22.461,-76.660,-37.109,0.000
1709299455.610,-0.977,16.113,-79.590,-27.832,0.000
1709299455.614,-3.906,23.438,-81.055,-51.758,0.000
1709299455.618,-9.277,28.809,-80.566,-51.758,0.000
1709299455.622,-4.883,24.902,-77.148,-40.039,0.000
1709299455.626,3.906,28.809,-78.125,-26.367,0.000
1709299455.630,15.137,33.691,-77.148,-11.719,0.000
1709299455.634,14.160,24.902,-77.148,-20.508,0.000
1709299455.638,13.184,26.855,-77.637,-29.297,0.000
1709299455.641,6.836,34.668,-74.219,-32.227,0.000
1709299455.645,7.324,34.668,-76.172,-25.879,0.000
1709299455.649,20.508,43.945,-74.707,-14.648,0.000
1709299455.653,18.066,40.039,-75.195,-12.695,0.000
1709299455.657,-0.977,27.344,-83.008,-35.645,0.000
1709299455.661,-9.766,32.227,-79.590,-44.434,0.000
1709299455.665,4.395,33.691,-71.289,-23.438,0.000
1709299455.669,10.742,32.715,-75.684,-19.531,0.000
1709299455.673,0.488,28.809,-80.566,-32.227,0.000
1709299455.677,-4.395,24.902,-70.801,-46.387,0.000
1709299455.680,-2.441,14.160,-70.312,-52.734,0.000
1709299455.684,3.418,12.695,-80.078,-35.156,0.000
1709299455.688,10.742,15.137,-79.590,-19.043,0.000
1709299455.692,9.277,16.602,-69.336,-28.809,0.000
1709299455.696,-3.906,21.484,-68.359,-38.086,0.000
1709299455.700,-16.113,11.230,-77.148,-41.992,0.000
1709299455.704,-10.742,15.137,-75.195,-32.227,0.000
1709299455.708,3.906,17.090,-67.383,-18.066,0.000
1709299455.712,9.277,11.230,-56.152,-16.602,0.000
1709299455.715,2.441,4.395,-62.500,-16.113,0.000
1709299455.719,-11.719,-3.418,-68.359,-20.996,0.000
1709299455.723,-11.230,1.465,-58.105,-17.578,0.000
1709299455.727,2.930,7.812,-55.664,-4.395,0.000
1709299455.731,6.836,1.953,-54.199,1.465,0.000
1709299455.735,-1.465,-10.254,-57.129,-18.555,0.000
1709299455.739,-11.719,-5.859,-59.082,-26.855,0.000
1709299455.743,-17.578,3.418,-62.500,-16.113,0.000
1709299455.747,-9.277,-9.766,-62.012,-13.672,0.000
1709299455.751,-7.812,-21.484,-60.059,-24.414,0.000
1709299455.755,-19.531,-8.301,-61.523,-38.574,0.000
1709299455.758,-19.531,0.000,-62.500,-37.598,0.000
1709299455.762,-23.438,0.977,-59.570,-40.039,0.000
1709299455.766,-9.277,-3.906,-55.176,-39.062,0.000
1709299455.770,8.301,-19.043,-59.082,-32.227,0.000
1709299455.774,-8.789,-20.020,-54.688,-31.250,0.000
1709299455.778,-27.344,-6.836,-51.758,-38.086,0.000
1709299455.782,-32.227,-9.766,-53.711,-41.016,0.000
1709299455.786,-25.391,-9.766,-47.852,-28.809,0.000
1709299455.789,-19.531,-9.277,-45.898,-15.625,0.000
1709299455.793,-20.996,-26.367,-48.828,-18.555,0.000
1709299455.797,-27.832,-40.527,-49.316,-37.598,0.000
1709299455.801,-36.133,-25.879,-55.664,-51.758,0.000
1709299455.805,-26.855,-20.020,-62.012,-37.598,0.000
1709299455.809,-12.695,-29.297,-49.805,-33.691,0.000
1709299455.813,-14.160,-33.691,-39.551,-48.340,0.000
1709299455.817,-31.250,-22.949,-42.480,-43.945,0.000
1709299455.821,-38.574,-13.672,-40.527,-34.180,0.000
1709299455.824,-31.250,-22.461,-42.480,-36.621,0.000
1709299455.828,-22.461,-29.785,-47.363,-42.480,0.000
1709299455.832,-33.203,-38.574,-47.363,-33.691,0.000
1709299455.836,-45.410,-35.156,-49.805,-42.480,0.000
1709299455.840,-43.457,-27.832,-47.852,-52.734,0.000
1709299455.844,-31.250,-44.922,-48.340,-35.156,0.000
1709299455.848,-26.367,-48.340,-45.410,-25.391,0.000
1709299455.852,-35.645,-27.344,-41.992,-28.320,0.000
1709299455.856,-44.434,-32.715,-49.805,-46.875,0.000
1709299455.860,-39.551,-36.133,-45.898,-54.199,0.000
1709299455.864,-29.297,-32.227,-41.016,-37.598,0.000
1709299455.868,-12.695,-36.133,-44.922,-27.832,0.000
1709299455.871,-8.789,-31.738,-44.434,-21.973,0.000
1709299455.875,-28.320,-30.273,-48.828,-36.621,0.000
1709299455.879,-32.227,-30.273,-48.828,-51.758,0.000
1709299455.883,-29.785,-30.762,-43.457,-45.410,0.000
1709299455.887,-25.391,-30.762,-42.969,-29.297,0.000
1709299455.891,-25.391,-31.738,-41.504,-17.578,0.000
1709299455.895,-33.691,-34.180,-41.504,-29.785,0.000
1709299455.899,-42.480,-27.344,-47.852,-50.781,0.000
1709299455.903,-52.246,-36.621,-46.875,-51.758,0.000
1709299455.907,-43.945,-59.082,-36.133,-39.062,0.000
1709299455.911,-41.992,-38.086,-37.598,-37.598,0.000
1709299455.915,-50.293,-13.184,-39.062,-41.016,0.000
1709299455.918,-52.246,-20.996,-36.621,-48.828,0.000
1709299455.922,-57.129,-18.555,-41.504,-55.664,0.000
1709299455.926,-38.574,-17.578,-41.016,-41.504,0.000
1709299455.930,-28.809,-29.297,-37.598,-30.273,0.000
1709299455.934,-36.621,-39.551,-40.527,-39.551,0.000
1709299455.938,-40.039,-28.320,-44.434,-44.922,0.000
1709299455.942,-41.016,-29.785,-40.039,-46.875,0.000
1709299455.946,-36.133,-51.270,-36.621,-41.504,0.000
1709299455.950,-29.297,-42.480,-44.922,-27.832,0.000
1709299455.954,-40.527,-29.785,-44.922,-38.086,0.000
1709299455.958,-52.734,-31.250,-37.598,-45.410,0.000
1709299455.961,-51.758,-28.809,-36.133,-47.363,0.000
1709299455.965,-46.875,-25.879,-30.762,-38.086,0.000
1709299455.969,-35.645,-29.785,-28.320,-20.996,0.000
1709299455.973,-31.250,-35.645,-40.039,-32.227,0.000
1709299455.977,-30.762,-31.738,-45.898,-49.805,0.000
1709299455.981,-40.039,-34.668,-42.480,-42.969,0.000
1709299455.985,-47.852,-55.664,-42.969,-31.738,0.000
1709299455.989,-38.574,-56.152,-45.410,-35.156,0.000
1709299455.993,-35.645,-47.363,-53.223,-31.738,0.000
1709299455.997,-48.340,-43.457,-57.129,-47.852,0.000
1709299456.001,-51.758,-34.180,-44.922,-57.129,0.000
1709299456.004,-33.203,-32.227,-29.785,-39.062,0.000
1709299456.008,-22.461,-33.691,-29.297,-25.879,0.000
1709299456.012,-23.926,-38.574,-52.246,-26.855,0.000
1709299456.016,-37.109,-43.457,-43.945,-37.598,0.000
1709299456.020,-50.293,-34.180,-28.320,-48.340,0.000
1709299456.024,-40.527,-27.832,-34.668,-38.086,0.000
1709299456.028,-19.531,-43.945,-44.434,-14.648,0.000
1709299456.032,-27.832,-48.828,-44.434,-26.367,0.000
1709299456.036,-42.969,-40.039,-25.391,-46.875,0.000
1709299456.040,-51.758,-37.109,-27.344,-56.641,0.000
1709299456.043,-53.223,-26.855,-41.504,-56.152,0.000
1709299456.047,-40.039,-25.391,-54.688,-49.316,0.000
1709299456.051,-31.738,-25.391,-54.199,-51.270,0.000
1709299456.055,-44.922,-20.996,-28.809,-58.105,0.000
1709299456.059,-51.270,-32.715,-20.020,-63.477,0.000
1709299456.063,-44.922,-40.527,-22.461,-51.758,0.000
1709299456.067,-44.922,-39.062,-26.855,-46.387,0.000
1709299456.071,-42.969,-46.387,-31.250,-43.945,0.000
1709299456.075,-41.992,-36.621,-30.762,-45.410,0.000
1709299456.079,-42.480,-9.766,-28.809,-53.223,0.000
1709299456.082,-41.992,-10.742,-34.180,-44.922,0.000
1709299456.086,-29.297,-32.715,-41.992,-32.715,0.000
1709299456.090,-23.926,-37.598,-31.738,-29.785,0.000
1709299456.094,-30.273,-28.809,-21.973,-38.086,0.000
1709299456.098,-40.039,-28.809,-30.273,-50.293,0.000
1709299456.102,-44.434,-38.086,-35.156,-61.523,0.000
1709299456.106,-37.109,-35.645,-37.109,-48.340,0.000
1709299456.110,-31.738,-23.926,-38.574,-34.668,0.000
1709299456.114,-40.039,-28.809,-38.574,-39.062,0.000
1709299456.118,-46.387,-44.922,-42.969,-36.621,0.000
1709299456.121,-37.598,-40.527,-43.457,-40.527,0.000
1709299456.125,-29.297,-35.645,-42.480,-40.039,0.000
1709299456.129,-35.156,-34.668,-39.062,-28.809,0.000
1709299456.133,-39.062,-20.020,-30.273,-28.320,0.000
1709299456.137,-46.387,-29.297,-21.973,-42.969,0.000
1709299456.141,-61.035,-43.945,-27.344,-48.340,0.000
1709299456.145,-54.688,-33.203,-40.527,-39.551,0.000
1709299456.149,-40.527,-26.855,-39.551,-34.180,0.000
1709299456.152,-39.551,-34.180,-38.086,-38.086,0.000
1709299456.156,-54.688,-31.738,-39.551,-52.734,0.000
1709299456.160,-61.523,-26.855,-32.715,-46.387,0.000
1709299456.164,-54.199,-27.832,-31.738,-37.109,0.000
1709299456.168,-44.434,-30.273,-42.480,-35.156,0.000
1709299456.172,-46.387,-39.062,-37.109,-27.832,0.000
1709299456.176,-44.922,-51.758,-21.973,-29.297,0.000
1709299456.180,-49.805,-63.477,-27.832,-36.621,0.000
1709299456.184,-57.129,-47.852,-34.668,-35.156,0.000
1709299456.188,-41.992,-22.949,-29.297,-27.344,0.000
1709299456.192,-36.621,-18.066,-30.273,-28.320,0.000
1709299456.196,-46.875,-29.785,-35.645,-35.645,0.000
1709299456.200,-55.176,-33.203,-37.598,-41.504,0.000
1709299456.203,-54.688,-33.691,-39.551,-37.598,0.000
1709299456.207,-43.945,-43.945,-42.969,-26.855,0.000
1709299456.211,-35.156,-36.133,-42.480,-31.738,0.000
1709299456.215,-40.039,-32.715,-37.598,-45.898,0.000
1709299456.219,-39.062,-48.340,-41.504,-33.203,0.000
1709299456.223,-43.945,-56.641,-40.527,-27.344,0.000
1709299456.227,-40.039,-38.086,-27.832,-35.156,0.000
1709299456.231,-36.133,-23.926,-25.391,-33.691,0.000
1709299456.235,-45.410,-17.090,-26.855,-29.785,0.000
1709299456.239,-45.898,-18.555,-28.320,-36.133,0.000
1709299456.243,-41.504,-29.785,-33.203,-41.504,0.000
1709299456.247,-34.668,-45.410,-41.504,-26.367,0.000
1709299456.251,-26.855,-43.457,-43.945,-14.648,0.000
1709299456.255,-36.133,-37.109,-33.691,-22.949,0.000
1709299456.258,-44.922,-41.016,-28.809,-32.227,0.000
1709299456.262,-39.551,-64.941,-30.762,-22.949,0.000
1709299456.266,-31.738,-65.430,-31.250,-7.812,0.000
1709299456.270,-30.762,-38.086,-34.180,-7.812,0.000
1709299456.274,-35.645,-21.484,-34.180,-21.973,0.000
1709299456.278,-42.480,-31.250,-37.109,-25.879,0.000
1709299456.282,-48.340,-32.227,-36.621,-32.227,0.000
1709299456.286,-44.922,-20.996,-36.133,-33.203,0.000
1709299456.290,-34.180,-32.227,-32.715,-27.832,0.000
1709299456.294,-31.250,-43.945,-28.809,-33.203,0.000
1709299456.298,-37.598,-60.059,-36.133,-35.156,0.000
1709299456.301,-38.086,-67.871,-38.574,-38.086,0.000
1709299456.305,-37.598,-64.941,-41.016,-37.109,0.000
1709299456.309,-35.645,-41.992,-45.410,-25.391,0.000
1709299456.313,-45.410,-12.695,-33.203,-30.762,0.000
1709299456.317,-59.082,-10.742,-27.832,-55.176,0.000
1709299456.321,-63.965,-28.809,-32.227,-56.641,0.000
1709299456.325,-57.129,-50.781,-30.762,-39.551,0.000
1709299456.329,-51.758,-49.805,-41.016,-37.598,0.000
1709299456.333,-56.152,-30.762,-49.316,-47.363,0.000
1709299456.337,-60.547,-28.809,-48.828,-56.152,0.000
1709299456.341,-61.035,-39.551,-50.293,-69.824,0.000
1709299456.344,-51.270,-55.664,-43.457,-56.152,0.000
1709299456.348,-41.016,-51.758,-52.246,-39.551,0.000
1709299456.352,-41.016,-27.832,-60.547,-51.758,0.000
1709299456.356,-47.363,-15.137,-40.039,-45.898,0.000
1709299456.360,-47.852,-8.789,-31.250,-39.062,0.000
1709299456.364,-46.387,-24.902,-41.504,-44.922,0.000
1709299456.368,-37.598,-30.273,-45.410,-37.109,0.000
1709299456.372,-30.273,-28.809,-39.551,-40.527,0.000
1709299456.376,-28.809,-43.457,-34.668,-51.758,0.000
1709299456.380,-35.156,-36.133,-38.574,-50.293,0.000
1709299456.384,-37.109,-37.109,-40.527,-40.039,0.000
1709299456.387,-26.367,-36.133,-48.828,-27.832,0.000
1709299456.391,-30.762,-17.578,-45.410,-30.762,0.000
1709299456.395,-40.039,-19.043,-41.992,-49.805,0.000
1709299456.399,-34.668,-30.273,-53.223,-46.387,0.000
1709299456.403,-28.809,-51.270,-35.645,-39.062,0.000
1709299456.407,-30.273,-40.527,-33.203,-47.363,0.000
1709299456.411,-29.785,-17.090,-49.805,-48.828,0.000
1709299456.415,-34.668,-29.785,-46.387,-44.434,0.000
1709299456.419,-41.992,-29.297,-43.945,-49.805,0.000
1709299456.423,-51.758,-22.949,-42.969,-54.688,0.000
1709299456.426,-48.340,-36.133,-30.762,-44.434,0.000
1709299456.430,-32.715,-48.828,-13.184,-33.691,0.000
1709299456.434,-35.645,-40.039,-19.531,-43.945,0.000
1709299456.438,-41.504,-17.578,-27.832,-57.129,0.000
1709299456.442,-45.898,-20.508,-25.391,-47.363,0.000
1709299456.446,-36.133,-25.391,-35.645,-22.949,0.000
1709299456.450,-27.832,-28.809,-42.480,-23.438,0.000
1709299456.454,-33.691,-44.434,-36.621,-33.691,0.000
1709299456.458,-47.363,-38.086,-33.691,-41.504,0.000
1709299456.462,-56.152,-28.320,-39.062,-49.805,0.000
1709299456.465,-40.039,-40.039,-50.293,-40.039,0.000
1709299456.469,-26.855,-51.270,-43.945,-26.367,0.000
1709299456.473,-31.250,-55.176,-31.250,-26.855,0.000
1709299456.477,-39.551,-36.133,-35.645,-35.156,0.000
1709299456.481,-43.457,-20.508,-47.852,-36.133,0.000
1709299456.485,-41.504,-25.879,-39.062,-33.203,0.000
1709299456.489,-36.621,-32.227,-21.973,-28.809,0.000
1709299456.493,-39.551,-37.598,-22.461,-29.785,0.000
1709299456.497,-43.945,-40.039,-26.367,-32.715,0.000
1709299456.501,-42.969,-41.992,-30.273,-36.133,0.000
1709299456.504,-42.480,-40.527,-33.691,-37.598,0.000
1709299456.508,-40.527,-52.734,-34.180,-34.180,0.000
1709299456.512,-26.367,-58.105,-44.922,-32.227,0.000
1709299456.516,-26.367,-48.828,-49.316,-35.156,0.000
1709299456.520,-41.504,-41.504,-35.156,-43.457,0.000
1709299456.524,-44.922,-31.250,-32.715,-47.363,0.000
1709299456.528,-46.387,-23.438,-33.203,-29.297,0.000
1709299456.532,-40.039,-38.574,-32.715,-29.297,0.000
1709299456.535,-41.992,-46.875,-30.762,-43.457,0.000
1709299456.539,-53.711,-36.133,-25.879,-43.945,0.000
1709299456.543,-37.598,-37.598,-27.832,-28.809,0.000
1709299456.547,-11.719,-40.039,-35.645,-21.973,0.000
1709299456.551,-22.461,-44.922,-36.621,-39.551,0.000
1709299456.555,-53.711,-35.645,-38.574,-56.152,0.000
1709299456.559,-75.684,-14.160,-37.109,-67.871,0.000
1709299456.563,-74.219,-27.832,-40.527,-56.641,0.000
1709299456.566,-61.523,-43.457,-41.016,-41.016,0.000
1709299456.570,-48.828,-34.180,-34.668,-26.367,0.000
1709299456.574,-46.875,-34.668,-27.832,-24.902,0.000
1709299456.578,-55.664,-48.828,-26.367,-38.574,0.000
1709299456.582,-54.688,-54.199,-25.391,-29.785,0.000
1709299456.586,-43.945,-53.711,-28.809,-25.391,0.000
1709299456.590,-19.531,-41.016,-34.180,-22.949,0.000
1709299456.594,-19.043,-31.738,-29.297,-20.508,0.000
1709299456.598,-41.504,-31.738,-26.367,-36.133,0.000
1709299456.602,-41.992,-31.250,-31.250,-39.062,0.000
1709299456.606,-33.691,-25.879,-31.250,-20.020,0.000
1709299456.610,-27.344,-16.602,-32.715,-15.137,0.000
1709299456.614,-33.691,-19.043,-34.180,-32.227,0.000
1709299456.617,-43.457,-35.645,-30.273,-40.527,0.000
1709299456.621,-39.551,-43.457,-29.297,-32.715,0.000
1709299456.625,-19.531,-38.574,-27.344,-12.695,0.000
1709299456.629,-9.277,-42.480,-33.691,-11.230,0.000
1709299456.633,-18.066,-41.992,-38.086,-27.344,0.000
1709299456.637,-32.715,-27.832,-33.691,-43.945,0.000
1709299456.641,-49.805,-30.762,-34.180,-44.922,0.000
1709299456.645,-49.316,-20.996,-32.227,-30.762,0.000
1709299456.649,-40.039,-10.742,-33.203,-35.645,0.000
1709299456.653,-51.758,-29.785,-33.203,-48.828,0.000
1709299456.657,-67.871,-41.016,-38.086,-62.500,0.000
1709299456.661,-74.707,-36.133,-51.270,-72.266,0.000
1709299456.665,-68.359,-41.016,-40.039,-67.871,0.000
1709299456.668,-60.059,-52.246,-27.832,-54.199,0.000
1709299456.672,-60.059,-44.922,-37.109,-54.199,0.000
1709299456.676,-67.383,-36.133,-41.016,-54.199,0.000
1709299456.680,-77.148,-37.598,-33.203,-53.711,0.000
1709299456.684,-64.941,-47.363,-31.738,-56.641,0.000
1709299456.688,-53.711,-54.688,-37.598,-36.621,0.000
1709299456.692,-47.852,-52.246,-33.203,-28.320,0.000
1709299456.696,-43.457,-41.504,-32.227,-39.062,0.000
1709299456.700,-45.898,-38.086,-36.133,-44.434,0.000
1709299456.704,-49.316,-52.246,-37.109,-47.363,0.000
1709299456.708,-48.340,-45.410,-30.762,-27.344,0.000
1709299456.711,-38.574,-42.969,-30.273,-16.113,0.000
1709299456.715,-33.691,-62.500,-35.645,-39.062,0.000
1709299456.719,-36.133,-44.922,-25.879,-47.363,0.000
1709299456.723,-35.156,-20.020,-18.066,-38.086,0.000
1709299456.727,-28.320,-19.043,-20.020,-23.926,0.000
1709299456.731,-21.973,-28.320,-21.973,-12.207,0.000
1709299456.735,-16.113,-31.738,-22.461,-12.695,0.000
1709299456.739,-18.555,-34.668,-29.297,-21.973,0.000
1709299456.743,-22.949,-30.273,-34.180,-20.996,0.000
1709299456.747,-12.207,-30.762,-33.691,-20.996,0.000
1709299456.750,-0.977,-51.270,-33.203,-18.066,0.000
1709299456.754,-16.602,-55.176,-41.016,-21.484,0.000
1709299456.758,-36.621,-30.273,-43.945,-30.273,0.000
1709299456.762,-41.992,-22.461,-35.645,-40.039,0.000
1709299456.766,-31.738,-24.902,-35.156,-33.203,0.000
1709299456.770,-23.926,-27.344,-35.645,-26.855,0.000
1709299456.774,-25.879,-33.203,-38.086,-31.250,0.000
1709299456.778,-30.273,-44.434,-38.086,-36.621,0.000
1709299456.782,-36.133,-42.480,-25.879,-41.992,0.000
1709299456.786,-32.227,-47.852,-18.555,-36.621,0.000
1709299456.790,-23.926,-61.523,-22.949,-44.434,0.000
1709299456.793,0.000,-33.691,-22.949,-55.176,0.000
1709299456.797,0.000,-29.297,-25.879,-57.129,0.000
1709299456.801,0.000,-39.062,-34.180,-57.617,0.000
1709299456.805,0.000,-38.574,-37.109,-51.270,0.000
1709299456.809,0.000,-42.480,-40.039,-45.898,0.000
1709299456.813,0.000,-50.781,-36.621,-44.922,0.000
1709299456.817,0.000,-56.641,-41.992,-53.223,0.000
1709299456.821,0.000,-53.711,-42.969,-51.270,0.000
1709299456.825,0.000,-42.480,-30.273,-34.180,0.000
1709299456.829,0.000,-33.203,-28.809,-34.668,0.000
1709299456.832,0.000,-36.621,-24.902,-28.320,0.000
1709299456.836,0.000,-53.223,-31.250,-22.949,0.000
1709299456.840,-21.484,-54.688,-34.180,-26.855,0.000
1709299456.844,-23.438,-58.105,-27.344,-29.297,0.000
1709299456.848,-19.043,-51.758,-34.180,-19.043,0.000
1709299456.852,-7.324,-32.227,-41.016,-11.230,0.000
1709299456.856,-20.020,-35.645,-41.992,-31.738,0.000
1709299456.860,-38.086,-31.250,-36.133,-50.293,0.000
1709299456.864,-33.691,-42.969,-29.785,-40.039,0.000
1709299456.867,-21.484,-44.434,-34.180,-21.484,0.000
1709299456.871,-16.113,-30.273,-35.645,-20.020,0.000
1709299456.875,-27.344,-39.062,-35.156,-26.855,0.000
1709299456.879,-42.969,-46.875,-38.086,-40.039,0.000
1709299456.883,-41.992,-38.574,-38.086,-50.781,0.000
1709299456.887,-31.250,-42.969,-39.551,-40.527,0.000
1709299456.891,-32.227,-45.410,-46.387,-38.086,0.000
1709299456.895,-42.969,-45.410,-37.109,-44.434,0.000
1709299456.899,-56.152,-54.199,-29.297,-52.734,0.000
1709299456.903,-72.266,-39.062,-31.738,-59.082,0.000
1709299456.907,-67.871,-35.156,-37.109,-52.734,0.000
1709299456.911,-53.223,-33.691,-41.504,-41.504,0.000
1709299456.915,-47.852,-29.297,-30.273,-32.715,0.000
1709299456.919,-53.223,-43.457,-29.297,-45.898,0.000
1709299456.922,-60.547,-45.410,-31.250,-60.059,0.000
1709299456.926,-55.664,-47.363,-39.062,-47.363,0.000
1709299456.930,-41.992,-49.805,-41.504,-26.367,0.000
1709299456.934,-33.691,-44.434,-31.738,-31.738,0.000
1709299456.938,-50.293,-45.410,-28.320,-54.688,0.000
1709299456.942,-64.453,-38.574,-30.273,-63.477,0.000
1709299456.946,-50.293,-34.668,-35.156,-51.270,0.000
1709299456.950,-38.086,-36.621,-35.645,-40.039,0.000
1709299456.954,-44.922,-37.109,-36.133,-44.922,0.000
1709299456.958,-58.594,-35.645,-35.645,-56.641,0.000
1709299456.962,-53.223,-61.523,-32.227,-41.504,0.000
1709299456.966,-41.992,-61.035,-33.203,-24.902,0.000
1709299456.970,-34.180,-43.945,-31.250,-32.715,0.000
1709299456.973,-39.062,-46.875,-29.297,-36.621,0.000
1709299456.977,-52.246,-26.367,-28.320,-47.852,0.000
1709299456.981,-45.410,-39.062,-30.762,-53.711,0.000
1709299456.985,-40.039,-65.430,-34.668,-45.410,0.000
1709299456.989,-39.551,-44.922,-46.875,-29.785,0.000
1709299456.993,-37.109,-39.551,-47.852,-32.715,0.000
1709299456.997,-49.805,-57.129,-34.668,-51.270,0.000
1709299457.001,-52.734,-52.246,-27.344,-54.199,0.000
1709299457.005,-37.598,-40.527,-27.832,-39.062,0.000
1709299457.009,-28.320,-42.480,-30.762,-21.973,0.000
1709299457.013,-28.320,-37.598,-35.156,-33.691,0.000
1709299457.017,-48.340,-35.156,-31.738,-45.898,0.000
1709299457.020,-63.965,-35.645,-22.949,-48.340,0.000
1709299457.024,-55.176,-41.504,-28.320,-52.734,0.000
1709299457.028,-46.875,-49.316,-36.621,-41.504,0.000
1709299457.032,-47.852,-37.598,-38.574,-34.668,0.000
1709299457.036,-50.293,-50.781,-34.668,-43.457,0.000
1709299457.040,-63.477,-60.059,-39.062,-59.570,0.000
1709299457.044,-62.500,-48.828,-42.969,-62.500,0.000
1709299457.048,-47.363,-37.598,-42.969,-41.504,0.000
1709299457.052,-47.363,-24.902,-40.527,-31.250,0.000
1709299457.056,-49.805,-27.832,-44.922,-47.363,0.000
1709299457.060,-49.805,-50.293,-46.875,-51.758,0.000
1709299457.064,-57.617,-52.246,-50.293,-43.457,0.000
1709299457.067,-39.551,-26.855,-51.758,-30.273,0.000
1709299457.071,-25.391,-33.691,-36.621,-22.461,0.000
1709299457.075,-38.086,-36.621,-32.715,-33.203,0.000
1709299457.079,-42.969,-41.016,-33.691,-47.852,0.000
1709299457.083,-39.551,-61.035,-45.410,-44.434,0.000
1709299457.087,-40.039,-50.293,-49.805,-33.691,0.000
1709299457.091,-43.457,-29.297,-37.109,-38.574,0.000
1709299457.095,-42.969,-27.344,-28.809,-46.875,0.000
1709299457.099,-46.875,-33.203,-39.551,-54.688,0.000
1709299457.103,-43.945,-36.621,-45.410,-53.711,0.000
1709299457.107,-35.645,-33.691,-25.879,-23.438,0.000
1709299457.110,-29.297,-37.598,-25.391,-17.090,0.000
1709299457.114,-33.203,-54.688,-33.691,-40.039,0.000
1709299457.118,-41.992,-57.129,-32.227,-43.945,0.000
1709299457.122,-37.109,-63.965,-38.086,-41.992,0.000
1709299457.126,-35.156,-75.195,-40.039,-30.273,0.000
1709299457.130,-44.434,-43.945,-38.574,-29.785,0.000
1709299457.134,-48.828,-13.184,-53.711,-41.016,0.000
1709299457.138,-50.781,-31.250,-51.758,-46.387,0.000
1709299457.142,-50.781,-44.434,-34.668,-55.176,0.000
1709299457.146,-51.758,-26.367,-36.133,-54.199,0.000
1709299457.149,-54.688,-31.738,-41.504,-47.363,0.000
1709299457.153,-42.480,-57.617,-34.180,-40.527,0.000
1709299457.157,-45.898,-53.223,-31.250,-38.574,0.000
1709299457.161,-55.664,-48.828,-39.551,-48.828,0.000
1709299457.165,-49.805,-66.895,-42.969,-44.434,0.000
1709299457.169,-43.457,-46.875,-44.434,-34.180,0.000
1709299457.173,-42.480,-22.461,-46.387,-38.086,0.000
1709299457.177,-44.922,-43.457,-35.645,-40.527,0.000
1709299457.181,-41.016,-42.969,-30.273,-32.715,0.000
1709299457.185,-32.715,-22.461,-32.715,-23.926,0.000
1709299457.188,-26.367,-39.551,-29.297,-21.973,0.000
1709299457.192,-20.020,-44.922,-27.832,-20.508,0.000
1709299457.196,-32.715,-40.039,-38.574,-26.855,0.000
1709299457.200,-40.039,-34.180,-41.992,-32.227,0.000
1709299457.204,-27.344,-55.176,-38.086,-31.250,0.000
1709299457.208,-15.625,-64.453,-48.828,-24.414,0.000
1709299457.212,-14.648,-40.527,-47.363,-32.715,0.000
1709299457.216,-20.508,-41.992,-30.273,-42.969,0.000
1709299457.220,-30.762,-31.738,-26.367,-45.898,0.000
1709299457.223,-44.434,-33.691,-28.809,-50.293,0.000
1709299457.227,-49.316,-38.086,-27.832,-44.434,0.000
1709299457.231,-36.621,-35.645,-30.273,-32.227,0.000
1709299457.235,-32.715,-50.781,-31.250,-32.227,0.000
1709299457.239,-49.805,-45.898,-31.738,-41.504,0.000
1709299457.243,-48.340,-25.879,-29.297,-28.320,0.000
1709299457.247,-39.551,-23.926,-30.273,-27.832,0.000
1709299457.251,-35.645,-30.762,-35.156,-37.598,0.000
1709299457.255,-36.621,-27.832,-29.297,-43.945,0.000
1709299457.259,-39.551,-34.180,-32.227,-57.129,0.000
1709299457.262,-37.109,-47.852,-38.574,-56.641,0.000
1709299457.266,-43.945,-46.875,-41.992,-45.410,0.000
1709299457.270,-43.457,-30.762,-39.551,-39.551,0.000
1709299457.274,-40.527,-25.879,-34.180,-47.363,0.000
1709299457.278,-47.852,-33.691,-45.898,-47.363,0.000
1709299457.282,-40.039,-50.293,-46.875,-39.062,0.000
1709299457.286,-29.297,-60.547,-34.668,-29.297,0.000
1709299457.290,-31.250,-43.945,-42.969,-22.461,0.000
1709299457.294,-39.062,-29.785,-42.480,-37.109,0.000
1709299457.298,-47.363,-44.434,-40.039,-44.922,0.000
1709299457.301,-47.852,-39.551,-38.574,-33.691,0.000
1709299457.305,-43.945,-39.062,-34.668,-31.250,0.000
1709299457.309,-34.180,-43.457,-35.156,-32.715,0.000
1709299457.313,-31.250,-33.203,-24.902,-31.738,0.000
1709299457.317,-41.016,-30.273,-27.344,-40.527,0.000
1709299457.321,-48.340,-30.762,-34.668,-47.852,0.000
1709299457.325,-43.457,-30.273,-32.227,-41.504,0.000
1709299457.329,-26.367,-28.320,-34.180,-26.367,0.000
1709299457.333,-23.926,-43.945,-40.039,-22.461,0.000
1709299457.337,-32.715,-55.176,-43.457,-41.504,0.000
1709299457.341,-35.645,-35.645,-40.039,-50.293,0.000
1709299457.344,-23.438,-34.668,-37.598,-39.551,0.000
1709299457.348,-16.602,-41.504,-45.410,-34.668,0.000
1709299457.352,-25.391,-39.551,-50.781,-36.621,0.000
1709299457.356,-29.297,-41.016,-45.898,-44.434,0.000
1709299457.360,-33.691,-31.250,-44.922,-54.688,0.000
1709299457.364,-37.598,-28.809,-44.434,-54.199,0.000
1709299457.368,-28.320,-30.762,-41.504,-41.992,0.000
1709299457.371,-22.949,-30.762,-32.715,-35.645,0.000
1709299457.375,-31.250,-38.574,-35.645,-39.551,0.000
1709299457.379,-46.875,-34.180,-40.527,-45.898,0.000
1709299457.383,-52.734,-37.109,-40.527,-38.574,0.000
1709299457.387,-41.992,-44.922,-35.645,-32.715,0.000
1709299457.391,-32.715,-31.250,-27.344,-29.297,0.000
1709299457.395,-37.109,-35.156,-24.902,-35.156,0.000
1709299457.399,-55.664,-51.758,-26.855,-51.758,0.000
1709299457.403,-47.852,-40.527,-22.461,-42.480,0.000
1709299457.407,-32.227,-37.109,-23.438,-27.344,0.000
1709299457.411,-35.645,-49.805,-30.273,-27.832,0.000
1709299457.415,-32.227,-49.805,-30.273,-30.273,0.000
1709299457.418,-33.691,-37.598,-34.668,-40.527,0.000
1709299457.422,-39.062,-31.250,-43.945,-41.992,0.000
1709299457.426,-34.180,-25.391,-46.875,-34.180,0.000
1709299457.430,-21.973,-21.973,-41.504,-29.785,0.000
1709299457.434,-21.484,-28.809,-40.527,-26.855,0.000
1709299457.438,-23.926,-37.109,-39.062,-30.762,0.000
1709299457.442,-34.180,-40.527,-41.992,-50.781,0.000
1709299457.446,-31.250,-31.738,-43.945,-50.293,0.000
1709299457.451,0.000,-36.621,0.000,0.000,0.000
1709299457.455,0.000,-46.387,0.000,0.000,0.000
1709299457.459,0.000,-44.434,0.000,0.000,0.000
1709299457.463,0.000,-44.922,0.000,0.000,0.000
1709299457.467,0.000,-48.828,0.000,0.000,0.000
1709299457.471,0.000,-54.199,0.000,0.000,0.000
1709299457.475,0.000,-49.316,0.000,0.000,0.000
1709299457.478,0.000,-54.199,0.000,0.000,0.000
1709299457.482,0.000,-62.500,0.000,0.000,0.000
1709299457.486,0.000,-32.715,0.000,0.000,0.000
1709299457.490,0.000,-9.766,0.000,0.000,0.000
1709299457.494,0.000,-21.484,0.000,0.000,0.000
1709299457.498,-36.621,-34.668,-33.691,-46.387,0.000
1709299457.502,-45.898,-31.250,-35.156,-57.129,0.000
1709299457.506,-47.852,-34.668,-35.645,-55.176,0.000
1709299457.510,-38.086,-40.039,-37.109,-45.410,0.000
1709299457.514,-33.691,-35.156,-41.016,-43.945,0.000
1709299457.518,-41.992,-32.715,-36.133,-46.387,0.000
1709299457.522,-50.293,-33.203,-39.062,-49.805,0.000
1709299457.525,-44.434,-49.805,-42.480,-47.363,0.000
1709299457.529,-20.996,-51.270,-35.645,-31.738,0.000
1709299457.533,-16.602,-34.668,-38.086,-28.809,0.000
1709299457.537,-32.227,-32.227,-42.969,-38.086,0.000
1709299457.541,-34.668,-52.246,-38.086,-33.691,0.000
1709299457.545,-34.668,-64.453,-36.621,-29.297,0.000
1709299457.549,-24.414,-51.270,-43.457,-24.902,0.000
1709299457.553,-15.137,-49.316,-41.992,-26.367,0.000
1709299457.557,-20.996,-36.133,-29.297,-38.086,0.000
1709299457.560,-27.344,-28.320,-33.691,-50.293,0.000
1709299457.564,-35.156,-34.180,-41.992,-56.152,0.000
1709299457.568,-24.414,-38.574,-37.598,-43.945,0.000
1709299457.572,-14.160,-50.293,-38.086,-24.414,0.000
1709299457.576,-26.855,-47.852,-33.691,-34.180,0.000
1709299457.580,-42.969,-27.832,-35.156,-55.664,0.000
1709299457.584,-45.410,-32.715,-41.992,-47.852,0.000
1709299457.588,-34.668,-46.387,-38.574,-32.715,0.000
1709299457.592,-22.461,-43.945,-38.574,0.000,0.000
1709299457.596,-20.508,-53.223,-46.387,0.000,0.000
1709299457.599,-32.715,-56.641,-47.363,0.000,0.000
1709299457.603,-34.668,-33.203,-40.039,0.000,0.000
1709299457.607,-28.809,-33.691,-37.109,0.000,0.000
1709299457.611,-20.996,-42.480,-34.180,0.000,0.000
1709299457.615,-17.090,-32.715,-38.086,0.000,0.000
1709299457.619,-33.203,-26.367,-34.180,0.000,0.000
1709299457.623,-40.527,-25.391,-25.879,0.000,0.000
1709299457.627,-36.621,-32.227,-31.738,0.000,0.000
1709299457.631,-41.504,-47.852,-35.645,0.000,0.000
1709299457.635,-34.668,-38.086,-33.691,0.000,0.000
1709299457.638,-31.250,-24.902,-32.715,-40.039,0.000
1709299457.642,-41.504,-30.762,-20.020,-45.410,0.000
1709299457.646,-37.109,-44.922,-23.926,-40.039,0.000
1709299457.650,-30.273,-45.898,-38.574,-19.043,0.000
1709299457.654,-29.785,-51.758,-31.250,-12.695,0.000
1709299457.658,-43.457,-41.016,-23.438,-32.715,0.000
1709299457.662,-51.758,-25.879,-26.367,-33.203,0.000
1709299457.666,-43.945,-28.320,-32.227,-15.137,0.000
1709299457.670,-42.480,-30.762,-35.156,-14.160,0.000
1709299457.673,-42.480,-40.039,-37.598,-20.508,0.000
1709299457.677,-51.758,-36.621,-36.133,-33.203,0.000
1709299457.681,-56.641,-26.855,-36.133,-31.738,0.000
1709299457.685,-44.922,-17.578,-37.598,-21.484,0.000
1709299457.689,-41.016,-24.414,-33.203,-20.508,0.000
1709299457.693,-42.969,-41.992,-43.457,-15.625,0.000
1709299457.697,-35.645,-56.641,-46.387,-20.020,0.000
1709299457.700,-43.457,-61.035,-34.668,-35.156,0.000
1709299457.704,-55.664,-39.062,-34.668,-37.598,0.000
1709299457.708,-44.434,-20.020,-31.250,-19.043,0.000
1709299457.712,-30.273,-16.113,-27.832,-15.625,0.000
1709299457.716,-35.156,-28.809,-27.344,-36.621,0.000
1709299457.720,-43.457,-36.133,-30.273,-46.387,0.000
1709299457.724,-33.691,-36.621,-33.691,-33.203,0.000
1709299457.728,-18.066,-41.504,-38.086,-22.949,0.000
1709299457.731,-18.066,-34.668,-36.621,-24.902,0.000
1709299457.735,-24.902,-25.879,-37.109,-39.551,0.000
1709299457.739,-33.691,-34.668,-38.574,-60.547,0.000
1709299457.743,-50.781,-31.250,-32.227,-61.523,0.000
1709299457.747,-42.480,-33.691,-30.762,-37.109,0.000
1709299457.751,-32.715,-36.133,-33.203,-22.461,0.000
1709299457.755,-40.039,-20.020,-28.320,-33.691,0.000
1709299457.759,-50.781,-22.949,-28.320,-52.734,0.000
1709299457.763,-51.758,-47.363,-37.109,-48.828,0.000
1709299457.767,-38.086,-63.477,-35.156,-28.320,0.000
1709299457.770,-34.668,-36.133,-33.691,-23.438,0.000
1709299457.774,-44.922,-20.020,-40.039,-32.715,0.000
1709299457.778,-48.828,-27.832,-32.227,-44.434,0.000
1709299457.782,-51.270,-33.691,-27.832,-51.758,0.000
1709299457.786,-53.223,-40.527,-37.598,-51.270,0.000
1709299457.790,-45.898,-47.363,-42.480,-52.734,0.000
1709299457.794,-43.945,-37.109,-30.762,-43.457,0.000
1709299457.798,-47.852,-39.062,-26.855,-38.574,0.000
1709299457.802,-58.105,-52.734,-41.016,-51.758,0.000
1709299457.806,-46.387,-56.641,-42.480,-50.293,0.000
1709299457.810,-29.785,-42.969,-34.180,-36.621,0.000
1709299457.814,-38.086,-24.414,-30.762,-29.297,0.000
1709299457.817,-41.504,-31.250,-26.367,-29.297,0.000
1709299457.821,-39.551,-49.316,-34.180,-40.527,0.000
1709299457.825,-34.668,-53.711,-39.551,-36.621,0.000
1709299457.829,-31.738,-45.898,-41.504,-25.879,0.000
1709299457.833,-35.645,-36.133,-40.527,-32.715,0.000
1709299457.837,-47.852,-27.344,-33.691,-42.969,0.000
1709299457.841,-58.105,-25.879,-34.180,-52.246,0.000
1709299457.845,-48.340,-40.039,-34.180,-47.363,0.000
1709299457.849,-32.227,-61.035,-36.621,-32.715,0.000
1709299457.853,-20.996,-48.340,-39.062,-30.273,0.000
1709299457.857,-24.414,-39.062,-37.598,-31.738,0.000
1709299457.860,-45.410,-48.340,-42.969,-41.016,0.000
1709299457.864,-56.152,-37.109,-39.062,-50.293,0.000
1709299457.868,-44.434,-24.902,-28.320,-44.922,0.000
1709299457.872,-33.691,-32.715,-29.785,-30.273,0.000
1709299457.876,-41.992,-45.898,-33.203,-31.250,0.000
1709299457.880,-50.293,-61.523,-30.762,-46.875,0.000
1709299457.884,-49.805,-58.594,-42.480,-43.945,0.000
1709299457.888,-42.969,-38.086,-48.828,-34.180,0.000
1709299457.892,-32.715,-28.320,-27.832,-35.156,0.000
1709299457.896,-42.480,-43.945,-19.531,-41.504,0.000
1709299457.899,-56.641,-50.781,-25.391,-48.340,0.000
1709299457.903,-53.711,-48.340,-33.203,-46.387,0.000
1709299457.907,-47.852,-61.035,-46.387,-41.016,0.000
1709299457.911,-41.504,-62.500,-36.621,-32.227,0.000
1709299457.915,-38.574,-47.363,-28.809,-25.879,0.000
1709299457.919,-43.457,-49.805,-34.180,-28.320,0.000
1709299457.923,-42.969,-54.199,-34.668,-25.391,0.000
1709299457.927,-35.645,-47.852,-33.203,-25.879,0.000
1709299457.931,-23.926,-55.664,-38.086,-37.109,0.000
1709299457.935,-29.297,-54.688,-35.156,-30.762,0.000
1709299457.938,-52.246,-41.992,-37.598,-29.297,0.000
1709299457.942,-53.711,-35.645,-44.922,-52.246,0.000
1709299457.946,-34.180,-34.668,-36.133,-44.434,0.000
1709299457.950,-12.695,-29.297,-35.156,-15.137,0.000
1709299457.954,-20.996,-26.855,-39.551,-27.344,0.000
1709299457.958,-32.227,-36.621,-42.480,-45.898,0.000
1709299457.962,-39.062,-48.340,-45.898,-45.898,0.000
1709299457.966,-38.086,-48.340,-41.992,-36.621,0.000
1709299457.970,-23.926,-35.156,-40.039,-26.367,0.000
1709299457.973,-35.645,-33.203,-39.062,-34.668,0.000
1709299457.977,-43.945,-60.547,-31.250,-49.316,0.000
1709299457.981,-40.527,-68.848,-30.762,-45.898,0.000
1709299457.985,-50.293,-43.945,-34.180,-36.621,0.000
1709299457.989,-49.316,-32.715,-30.273,-33.691,0.000
1709299457.993,-43.945,-37.109,-35.645,-28.809,0.000
1709299457.997,-53.711,-38.574,-41.504,-39.551,0.000
1709299458.001,-64.941,-54.688,-36.133,-52.246,0.000
1709299458.005,-62.500,-69.336,-33.691,-51.758,0.000
1709299458.009,-44.434,-57.617,-30.762,-37.109,0.000
1709299458.012,-29.297,-42.480,-27.344,-23.438,0.000
1709299458.016,-41.016,-37.109,-31.738,-37.598,0.000
1709299458.020,-48.340,-52.246,-32.715,-46.387,0.000
1709299458.024,-38.574,-64.941,-33.203,-32.227,0.000
1709299458.028,-39.062,-48.340,-40.527,-26.855,0.000
1709299458.032,-39.551,-40.039,-41.504,-18.555,0.000
1709299458.036,-41.992,-59.082,-40.527,-8.301,0.000
1709299458.040,-46.387,-51.758,-49.316,-26.367,0.000
1709299458.044,-40.527,-37.109,-53.711,-31.738,0.000
1709299458.047,-30.273,-36.133,-36.133,-23.438,0.000
1709299458.051,-26.855,-25.879,-31.738,-34.180,0.000
1709299458.055,-37.598,-24.902,-40.039,-41.504,0.000
1709299458.059,-36.133,-20.508,-39.551,-46.387,0.000
1709299458.063,-32.227,-37.598,-40.039,-38.086,0.000
1709299458.067,-35.645,-49.316,-37.109,-33.691,0.000
1709299458.071,-32.227,-31.738,-31.250,-35.645,0.000
1709299458.075,-28.320,-52.734,-26.367,-37.598,0.000
1709299458.078,-38.574,-59.570,-31.738,-48.828,0.000
1709299458.082,-43.457,-30.273,-36.621,-45.898,0.000
1709299458.086,-38.086,-29.297,-35.645,-35.645,0.000
1709299458.090,-31.250,-38.086,-33.203,-34.668,0.000
1709299458.094,-26.855,-44.922,-33.691,-41.504,0.000
1709299458.098,-39.062,-30.273,-36.133,-49.316,0.000
1709299458.102,-42.969,-17.090,-28.809,-53.711,0.000
1709299458.106,-39.062,-28.320,-29.297,-44.434,0.000
1709299458.109,-30.762,-27.344,-27.832,-36.133,0.000
1709299458.113,-32.715,-22.461,-31.250,-43.457,0.000
1709299458.117,-42.480,-28.320,-37.598,-47.852,0.000
1709299458.121,-34.180,-40.527,-31.738,-47.852,0.000
1709299458.125,-11.719,-58.105,-29.297,-29.297,0.000
1709299458.129,-4.883,-44.922,-31.738,2.441,0.000
1709299458.133,-18.066,-32.227,-28.320,-12.695,0.000
1709299458.137,-35.645,-27.832,-21.973,-38.574,0.000
1709299458.141,-38.574,-18.555,-21.973,-30.762,0.000
1709299458.145,-37.598,-23.438,-23.926,-22.461,0.000
1709299458.149,-33.203,-18.066,-31.250,-26.855,0.000
1709299458.153,-26.855,-16.113,-27.832,-31.250,0.000
1709299458.156,-33.203,-31.250,-28.320,-38.086,0.000
1709299458.160,-30.762,-44.434,-27.832,-36.133,0.000
1709299458.164,-22.461,-44.922,-31.250,-29.785,0.000
1709299458.168,-27.832,-45.898,-37.109,-27.344,0.000
1709299458.172,-39.062,-42.480,-35.156,-25.391,0.000
1709299458.176,-49.316,-48.340,-39.062,-38.574,0.000
1709299458.180,-49.316,-56.152,-42.480,-52.246,0.000
1709299458.184,-32.715,-46.387,-37.598,-42.969,0.000
1709299458.188,-26.855,-37.109,-31.738,-37.598,0.000
1709299458.192,-24.902,-38.574,-35.645,-42.969,0.000
1709299458.196,-25.879,-32.715,-33.203,-48.828,0.000
1709299458.199,-38.574,-30.762,-32.227,-53.711,0.000
1709299458.203,-36.621,-28.320,-41.016,-53.711,0.000
1709299458.207,-24.414,-36.133,-41.992,-45.410,0.000
1709299458.211,-26.855,-49.805,-31.738,-35.645,0.000
1709299458.215,-32.227,-34.668,-39.062,-43.945,0.000
1709299458.219,-37.598,-27.344,-41.992,-54.199,0.000
1709299458.223,-49.316,-30.273,-32.715,-62.500,0.000
1709299458.227,-49.805,-35.156,-36.133,-58.105,0.000
1709299458.231,-37.598,-48.828,-37.109,-33.203,0.000
1709299458.235,-40.039,-47.363,-40.039,-35.156,0.000
1709299458.239,-47.363,-47.363,-40.527,-54.688,0.000
1709299458.242,-49.805,-48.828,-27.832,-50.781,0.000
1709299458.246,-47.852,-32.715,-27.832,-43.945,0.000
1709299458.250,-32.227,-22.461,-27.832,-27.344,0.000
1709299458.254,-24.902,-35.156,-24.414,-23.438,0.000
1709299458.258,-41.016,-57.617,-32.227,-33.203,0.000
1709299458.262,-44.434,-40.039,-28.809,-27.832,0.000
1709299458.266,-32.227,-27.344,-31.250,-24.414,0.000
1709299458.270,-20.020,-33.691,-41.504,-27.344,0.000
1709299458.274,-21.484,-33.203,-42.480,-21.484,0.000
1709299458.278,-16.602,-36.621,-37.598,-13.672,0.000
1709299458.281,-15.137,-38.574,-32.227,-23.438,0.000
1709299458.285,-24.902,-59.082,-28.320,-27.832,0.000
1709299458.289,-16.602,-52.246,-35.645,-20.508,0.000
1709299458.293,-8.789,-20.508,-42.480,-20.996,0.000
1709299458.297,-15.625,-20.020,-38.574,-31.250,0.000
1709299458.301,-27.832,-48.828,-43.457,-29.785,0.000
1709299458.305,-28.809,-46.875,-41.992,-22.949,0.000
1709299458.309,-18.066,-22.461,-30.273,-20.996,0.000
1709299458.313,-16.602,-30.273,-32.227,-25.391,0.000
1709299458.317,-29.297,-44.434,-45.898,-45.410,0.000
1709299458.320,-48.340,-40.039,-50.293,-55.176,0.000
1709299458.324,-52.246,-39.062,-43.457,-51.270,0.000
1709299458.328,-40.527,-45.898,-41.016,-51.758,0.000
1709299458.332,-46.387,-46.387,-36.621,-46.387,0.000
1709299458.336,-57.129,-40.527,-38.574,-49.316,0.000
1709299458.340,-48.340,-59.570,-36.621,0.000,0.000
1709299458.344,-43.457,-66.406,-36.133,0.000,0.000
1709299458.348,-29.297,-39.551,-39.551,0.000,0.000
1709299458.352,-19.043,-48.828,-40.527,0.000,0.000
1709299458.356,-28.809,-61.035,-45.898,0.000,0.000
1709299458.360,-33.203,-48.340,-44.434,0.000,0.000
1709299458.364,-29.785,-39.551,-31.738,0.000,0.000
1709299458.368,-24.902,-39.551,-37.109,0.000,0.000
1709299458.372,-20.020,-51.758,-45.898,0.000,0.000
1709299458.376,-28.809,-48.340,-41.504,0.000,0.000
1709299458.379,-41.992,-37.598,-39.062,0.000,0.000
1709299458.383,-46.875,-55.176,-42.480,0.000,0.000
1709299458.388,-44.922,-58.594,-40.039,-43.457,0.000
1709299458.391,-34.180,-39.551,-34.180,-28.809,0.000
1709299458.395,-30.273,-43.457,-38.574,-36.621,0.000
1709299458.399,-39.062,-57.129,-44.434,-56.641,0.000
1709299458.403,-41.992,-43.945,-42.480,-50.781,0.000
1709299458.407,-33.203,-42.480,-40.039,-35.645,0.000
1709299458.411,-27.344,-48.340,-47.363,-25.391,0.000
1709299458.415,-23.926,-50.293,-46.875,-27.344,0.000
1709299458.419,-29.297,-67.871,-39.062,-33.203,0.000
1709299458.423,-47.852,-67.871,-37.109,-42.969,0.000
1709299458.427,-46.387,-52.246,-33.691,-32.227,0.000
1709299458.431,-39.551,-52.246,-33.691,-13.672,0.000
1709299458.434,-42.480,-38.086,-41.016,-25.879,0.000
1709299458.438,-42.969,-28.809,-33.691,-30.273,0.000
1709299458.442,-43.457,-37.598,-26.367,-23.438,0.000
1709299458.446,-30.273,-58.594,-28.320,-10.254,0.000
1709299458.450,-18.555,-67.383,-28.809,-7.812,0.000
1709299458.454,-33.203,-37.598,-28.809,-20.020,0.000
1709299458.458,-53.223,-21.973,-28.809,-34.668,0.000
1709299458.462,-61.035,-22.949,-25.879,-42.969,0.000
1709299458.465,-47.363,-25.879,-22.461,-28.809,0.000
1709299458.469,-32.715,-35.156,-24.902,-14.648,0.000
1709299458.473,-35.645,-44.922,-27.832,-15.137,0.000
1709299458.477,-40.527,-48.828,-26.855,-28.809,0.000
1709299458.481,-49.316,-46.875,-26.367,-41.016,0.000
1709299458.485,-49.316,-35.156,-29.297,-38.086,0.000
1709299458.489,-33.691,-31.250,-30.762,-26.367,0.000
1709299458.492,-26.855,-46.875,-35.156,-29.785,0.000
1709299458.496,-23.438,-60.547,-31.738,-29.785,0.000
1709299458.500,-30.273,-54.688,-39.551,-24.902,0.000
1709299458.504,-38.574,-45.410,-42.480,-33.691,0.000
1709299458.508,-30.273,-27.832,-30.762,-38.086,0.000
1709299458.512,-28.809,-34.668,-33.203,-33.691,0.000
1709299458.516,-34.668,-60.059,-32.227,-34.180,0.000
1709299458.520,-37.109,-51.758,-34.180,-39.062,0.000
1709299458.524,-37.109,-36.621,-35.156,-40.039,0.000
1709299458.528,-35.645,-43.457,-36.133,-35.156,0.000
1709299458.532,-28.809,-42.480,-49.316,-23.438,0.000
1709299458.536,-33.691,-54.688,-45.410,-32.715,0.000
1709299458.539,-51.758,-68.359,-23.438,-56.152,0.000
1709299458.543,-57.617,-54.688,-27.344,-58.105,0.000
1709299458.547,-53.223,-52.734,-38.086,-41.504,0.000
1709299458.551,-44.434,-65.430,-34.668,-32.227,0.000
1709299458.555,-44.922,-66.406,-34.180,-32.227,0.000
1709299458.559,-52.246,-63.477,-28.320,-33.691,0.000
1709299458.563,-57.129,-60.547,-26.367,-32.227,0.000
1709299458.567,-56.641,-46.875,-31.738,-28.320,0.000
1709299458.571,-42.969,-55.176,-35.156,-11.230,0.000
1709299458.575,-35.645,-58.594,-35.645,-10.742,0.000
1709299458.579,-38.574,-32.715,-35.156,-23.926,0.000
1709299458.582,-43.945,-33.203,-28.809,-25.879,0.000
1709299458.586,-34.180,-58.594,-25.391,-19.043,0.000
1709299458.590,-22.461,-43.945,-36.133,-15.137,0.000
1709299458.594,-25.879,-20.020,-40.039,-22.461,0.000
1709299458.598,-40.527,-14.648,-40.039,-42.480,0.000
1709299458.602,-41.504,-22.949,-42.969,-53.223,0.000
1709299458.606,-28.320,-38.574,-39.062,-37.598,0.000
1709299458.610,-20.020,-48.340,-44.922,-17.090,0.000
1709299458.614,-14.160,-51.270,-43.457,-19.531,0.000
1709299458.618,-22.949,-41.992,-35.156,-41.016,0.000
1709299458.622,-43.945,-32.715,-41.504,-69.336,0.000
1709299458.625,-43.945,-42.969,-45.898,-63.965,0.000
1709299458.629,-35.645,-50.781,-43.457,-39.551,0.000
1709299458.633,-39.551,-39.062,-44.922,-43.457,0.000
1709299458.637,-43.457,-38.086,-46.875,-53.711,0.000
1709299458.641,-45.898,-40.527,-43.945,-59.082,0.000
1709299458.645,-52.246,-40.039,-32.715,-60.059,0.000
1709299458.649,-52.734,-34.180,-30.762,-50.781,0.000
1709299458.653,-46.387,-62.012,-39.062,-31.250,0.000
1709299458.657,-44.922,-85.449,-37.109,-39.062,0.000
1709299458.661,-59.082,-49.316,-35.156,-59.570,0.000
1709299458.664,-68.848,-38.086,-40.039,-60.547,0.000
1709299458.668,-57.129,-36.621,-42.969,-54.199,0.000
1709299458.672,-47.363,-21.973,-38.574,-47.852,0.000
1709299458.676,-41.992,-38.086,-35.645,-41.504,0.000
1709299458.680,-40.527,-48.340,-35.156,-46.387,0.000
1709299458.684,-43.945,-25.879,-33.691,-51.758,0.000
1709299458.688,-36.133,-23.438,-40.527,-39.551,0.000
1709299458.692,-27.832,-34.180,-40.527,-20.020,0.000
1709299458.696,-31.250,-33.691,-31.738,-10.742,0.000
1709299458.700,-41.992,-30.273,-33.691,-27.344,0.000
1709299458.703,-41.504,-35.156,-36.621,-41.016,0.000
1709299458.707,-30.762,-46.387,-34.668,-35.156,0.000
1709299458.711,-26.855,-34.180,-34.668,-31.250,0.000
1709299458.715,-20.020,-18.555,-38.574,-30.273,0.000
1709299458.719,-33.203,-38.574,-38.086,-41.992,0.000
1709299458.723,-43.945,-55.176,-37.598,-40.039,0.000
1709299458.727,-41.992,-41.992,-42.480,-35.156,0.000
1709299458.731,-36.621,-38.574,-43.945,-37.598,0.000
1709299458.735,-36.133,-49.316,-46.875,-38.574,0.000
1709299458.739,-45.898,-41.992,-50.781,-52.734,0.000
1709299458.742,-47.852,-32.715,-42.480,-54.688,0.000
1709299458.746,-41.992,-40.527,-44.922,-44.922,0.000
1709299458.750,-35.156,-59.082,-40.527,-34.180,0.000
1709299458.754,-41.504,-59.570,-39.062,-30.762,0.000
1709299458.758,-56.641,-43.945,-42.969,-49.316,0.000
1709299458.762,-64.453,-30.273,-41.504,-64.941,0.000
1709299458.766,-53.711,-37.109,-41.016,-55.664,0.000
1709299458.770,-35.645,-52.246,-32.227,-45.410,0.000
1709299458.773,-35.156,-52.734,-25.391,-43.457,0.000
1709299458.777,-52.246,-44.922,-47.852,-49.805,0.000
1709299458.781,-55.664,-27.344,-51.758,-63.477,0.000
1709299458.785,-45.410,-22.949,-22.949,-50.781,0.000
1709299458.789,-34.668,-28.320,-24.414,-31.250,0.000
1709299458.793,-28.809,-44.922,-35.156,-30.273,0.000
1709299458.797,-37.598,-47.363,-36.133,-34.180,0.000
1709299458.801,-43.945,-32.227,-40.527,-38.086,0.000
1709299458.805,-33.691,-29.785,-34.668,-30.762,0.000
1709299458.809,-25.879,-37.109,-34.180,-26.367,0.000
1709299458.813,-20.996,-49.316,-34.180,-28.809,0.000
1709299458.817,-20.996,-44.434,-29.785,-30.273,0.000
1709299458.821,-21.973,-32.715,-29.785,-25.391,0.000
1709299458.825,-20.020,-35.156,-36.133,-29.785,0.000
1709299458.828,-21.484,-36.133,-35.156,-27.832,0.000
1709299458.832,-28.809,-33.691,-33.691,-21.484,0.000
1709299458.836,-37.109,-33.691,-37.109,-36.621,0.000
1709299458.840,-45.410,-29.297,-37.598,-55.176,0.000
1709299458.844,-46.387,-36.133,-30.273,-47.363,0.000
1709299458.848,-42.480,-49.316,-27.832,-30.273,0.000
1709299458.852,-33.691,-43.945,-32.715,-20.020,0.000
1709299458.855,-27.832,-37.109,-30.273,-29.297,0.000
1709299458.859,-45.410,-56.641,-23.926,-45.898,0.000
1709299458.863,-52.734,-53.711,-21.484,-46.875,0.000
1709299458.867,-42.480,-40.039,-25.879,-36.133,0.000
1709299458.871,-37.598,-49.316,-28.809,-27.344,0.000
1709299458.875,-43.945,-51.758,-30.273,-34.668,0.000
1709299458.879,-53.223,-48.340,-28.809,-46.875,0.000
1709299458.883,-57.617,-55.176,-40.039,-38.574,0.000
1709299458.887,-42.480,-46.387,-42.969,-28.320,0.000
1709299458.891,-27.832,-35.156,-25.879,-29.785,0.000
1709299458.895,-30.762,-42.480,-26.367,-40.039,0.000
1709299458.898,-29.297,-53.223,-26.367,-45.410,0.000
1709299458.902,-39.551,-51.270,-25.879,-45.898,0.000
1709299458.906,-48.340,-38.086,-33.203,-49.316,0.000
1709299458.910,-34.668,-35.156,-40.527,-40.527,0.000
1709299458.914,-23.926,-47.852,-34.668,-29.785,0.000
1709299458.918,-17.090,-59.082,-27.344,-25.391,0.000
1709299458.922,-42.969,-40.527,-35.156,-39.062,0.000
1709299458.926,-59.082,-32.715,-39.062,-46.875,0.000
1709299458.930,-39.062,-39.551,-38.086,-38.574,0.000
1709299458.934,-31.250,-45.410,-38.574,-26.367,0.000
1709299458.938,-35.645,-48.340,-43.945,-20.508,0.000
1709299458.941,-35.645,-47.852,-37.598,-32.227,0.000
1709299458.945,-21.484,-52.734,-28.320,-26.367,0.000
1709299458.949,-4.883,-43.945,-31.250,-20.508,0.000
1709299458.953,-15.137,-39.551,-26.855,-27.832,0.000
1709299458.957,-37.109,-50.293,-29.297,-42.480,0.000
1709299458.961,-40.039,-46.875,-34.180,-46.875,0.000
1709299458.965,-34.668,-28.320,-36.621,-39.062,0.000
1709299458.969,-29.785,-30.762,-47.363,-37.598,0.000
1709299458.973,-22.949,-60.547,-43.945,-35.645,0.000
1709299458.977,-21.484,-59.570,-42.480,-36.133,0.000
1709299458.981,-34.180,-42.480,-39.062,-45.898,0.000
1709299458.985,-40.039,-34.180,-29.785,-47.363,0.000
1709299458.988,-36.133,-40.039,-34.180,-41.504,0.000
1709299458.992,-33.203,-55.176,-36.621,-42.969,0.000
1709299458.996,-30.762,-56.641,-34.180,-45.410,0.000
1709299459.000,-35.156,-60.059,-37.598,-53.223,0.000
1709299459.004,-43.457,-61.523,-45.410,-43.945,0.000
1709299459.008,-35.156,-47.852,-43.945,-18.555,0.000
1709299459.012,-21.973,-37.109,-38.574,-27.832,0.000
1709299459.016,-32.227,-36.133,-39.062,-43.457,0.000
1709299459.020,-31.738,-39.062,-34.668,-32.715,0.000
1709299459.024,-25.879,-42.969,-34.668,-35.156,0.000
1709299459.027,-14.160,-49.805,-35.645,-31.738,0.000
1709299459.031,-4.883,-46.875,-32.227,-22.461,0.000
1709299459.035,-20.996,-50.293,-31.738,-25.879,0.000
1709299459.039,-35.156,-45.898,-37.598,-36.621,0.000
1709299459.043,-38.574,-20.508,-42.480,-40.527,0.000
1709299459.047,-33.691,-16.602,-38.086,-22.461,0.000
1709299459.051,-15.625,-20.020,-34.668,-22.461,0.000
1709299459.055,-11.719,-36.621,-39.062,-38.086,0.000
1709299459.059,-31.738,-49.316,-45.410,-46.387,0.000
1709299459.063,-37.109,-36.133,-41.992,-43.457,0.000
1709299459.066,-32.227,-32.715,-41.992,-28.320,0.000
1709299459.070,-24.414,-41.992,-36.621,-8.789,0.000
1709299459.074,-27.832,-50.293,-31.738,-15.137,0.000
1709299459.078,-34.668,-46.875,-28.320,-34.180,0.000
1709299459.082,-31.738,-43.457,-19.531,-24.902,0.000
1709299459.086,-26.367,-43.945,-23.926,-12.207,0.000
1709299459.090,-16.113,-44.922,-23.926,-8.789,0.000
1709299459.094,-19.043,-48.340,-27.344,-19.043,0.000
1709299459.098,-32.227,-41.016,-32.227,-28.809,0.000
1709299459.102,-44.434,-43.457,-33.691,-41.504,0.000
1709299459.106,-44.922,-57.617,-33.203,-37.109,0.000
1709299459.110,-27.832,-52.246,-25.391,-15.137,0.000
1709299459.114,-22.949,-39.062,-23.926,-15.137,0.000
1709299459.118,-47.852,-44.434,-33.691,-28.809,0.000
1709299459.122,-56.152,-49.316,-36.133,-39.551,0.000
1709299459.125,-40.527,-46.387,-39.551,-33.203,0.000
1709299459.129,-33.203,-38.086,-47.363,-21.484,0.000
1709299459.133,-35.156,-35.645,-39.062,-17.578,0.000
1709299459.137,-40.527,-40.039,-33.203,-39.551,0.000
1709299459.141,-52.734,-53.711,-40.527,-49.316,0.000
1709299459.145,-51.270,-61.035,-43.457,-41.992,0.000
1709299459.149,-47.852,-50.293,-56.641,-56.641,0.000
1709299459.153,-47.852,-35.645,-55.664,-55.664,0.000
1709299459.156,-40.527,-39.551,-48.828,-41.016,0.000
1709299459.160,-35.156,-60.059,-50.781,-45.898,0.000
1709299459.164,-37.109,-56.641,-41.992,-45.410,0.000
1709299459.168,-38.574,-37.109,-40.527,-29.297,0.000
1709299459.172,-34.180,-24.414,-47.852,-21.484,0.000
1709299459.176,-41.016,-32.715,-51.270,-26.855,0.000
1709299459.180,-50.781,-39.062,-42.480,-35.156,0.000
1709299459.184,-47.363,-35.156,-39.062,-31.738,0.000
1709299459.187,-32.227,-38.574,-37.109,-22.949,0.000
1709299459.191,-32.227,-36.621,-33.203,-21.484,0.000
1709299459.195,-41.992,-49.805,-39.062,-27.832,0.000
1709299459.199,-46.387,-60.059,-42.969,-33.691,0.000
1709299459.203,-42.969,-58.594,-36.621,-18.066,0.000
1709299459.207,-30.273,-54.199,-30.273,0.977,0.000
1709299459.211,-30.762,-38.574,-35.645,-16.602,0.000
1709299459.215,-42.969,-34.668,-33.203,-34.180,0.000
1709299459.219,-55.664,-26.855,-29.785,-41.992,0.000
1709299459.223,-53.711,-22.949,-30.273,-47.363,0.000
1709299459.227,-50.293,-38.574,-39.551,-40.039,0.000
1709299459.230,-43.945,-49.316,-44.922,-26.855,0.000
1709299459.234,-35.645,-40.039,-42.480,-22.949,0.000
1709299459.238,-40.527,-38.574,-43.945,-35.156,0.000
1709299459.242,-37.109,-40.527,-42.969,-42.969,0.000
1709299459.246,-33.691,-28.809,-50.293,-45.898,0.000
1709299459.250,-32.715,-22.461,-54.199,-36.621,0.000
1709299459.254,-36.133,-27.832,-53.711,-36.621,0.000
1709299459.258,-40.039,-34.668,-55.664,-48.828,0.000
1709299459.261,-42.969,-37.109,-49.316,-42.480,0.000
1709299459.265,-31.738,-40.527,-49.316,-38.574,0.000
1709299459.269,-13.184,-32.715,-51.758,-28.809,0.000
1709299459.273,-17.578,-27.344,-56.152,-25.879,0.000
1709299459.277,-26.855,-41.016,-50.781,-45.410,0.000
1709299459.281,-32.715,-38.086,-44.922,-54.688,0.000
1709299459.285,-33.203,-26.367,-51.270,-53.711,0.000
1709299459.289,-21.973,-34.180,-53.711,-46.387,0.000
1709299459.293,-24.414,-43.945,-56.152,-45.898,0.000
1709299459.297,-42.480,-42.480,-54.199,-52.246,0.000
1709299459.301,-44.922,-33.691,-55.176,-60.059,0.000
1709299459.305,-33.691,-33.691,-64.453,-56.152,0.000
1709299459.308,-24.902,-34.668,-56.152,-38.574,0.000
1709299459.312,-29.297,-26.367,-42.969,-31.250,0.000
1709299459.316,-36.133,-39.062,-48.340,-46.875,0.000
1709299459.320,-33.691,-61.035,-52.734,-57.129,0.000
1709299459.325,-39.062,-46.387,-52.246,-46.875,0.000
1709299459.329,-34.668,-25.879,-44.922,-36.133,0.000
1709299459.332,-36.621,-25.879,-36.133,-48.340,0.000
1709299459.336,-49.805,-33.691,-37.598,-55.176,0.000
1709299459.340,-54.199,-44.434,-37.598,-50.293,0.000
1709299459.344,-54.199,-45.898,-36.133,-49.316,0.000
1709299459.348,-45.410,-44.434,-30.273,-42.969,0.000
1709299459.352,-45.410,-39.551,-31.250,-42.969,0.000
1709299459.356,-55.176,-23.438,-31.738,-44.922,0.000
1709299459.360,-66.895,-28.809,-31.738,-60.547,0.000
1709299459.364,-74.219,-42.969,-39.551,-72.754,0.000
1709299459.368,-56.152,-40.039,-36.621,-42.969,0.000
1709299459.371,-39.551,-25.879,-40.527,-37.598,0.000
1709299459.375,-40.527,-37.598,-55.176,-58.594,0.000
1709299459.379,-45.410,-44.922,-49.316,-65.430,0.000
1709299459.383,-51.270,-27.344,-41.504,-63.477,0.000
1709299459.387,-46.387,-29.785,-46.875,-49.805,0.000
1709299459.391,-32.227,-29.297,-44.922,-33.203,0.000
1709299459.395,-24.902,-41.992,-41.504,-31.738,0.000
1709299459.399,-25.391,-53.223,-42.480,-34.180,0.000
1709299459.403,-35.156,-35.156,-59.082,-32.227,0.000
1709299459.407,-41.504,-23.438,-63.477,-32.227,0.000
1709299459.411,-25.879,-47.363,-49.316,-31.250,0.000
1709299459.414,-25.391,-60.547,-45.410,-31.250,0.000
1709299459.419,-40.039,-38.574,-43.457,-29.297,0.000
1709299459.423,-46.875,-26.367,-52.734,-43.457,0.000
1709299459.426,-53.223,-15.625,-48.828,-49.805,0.000
1709299459.430,-47.363,-20.020,-43.457,-36.133,0.000
1709299459.434,-40.039,-33.691,-44.434,-37.109,0.000
1709299459.438,-46.387,-37.109,-41.504,-49.805,0.000
1709299459.442,-56.152,-38.574,-46.875,-57.129,0.000
1709299459.446,-51.270,-44.434,-43.945,-48.340,0.000
1709299459.450,-30.273,-44.434,-29.297,-24.902,0.000
1709299459.454,-18.555,-39.062,-25.391,-21.484,0.000
1709299459.458,-32.227,-36.621,-28.809,-49.316,0.000
1709299459.462,-51.270,-29.785,-31.738,-69.824,0.000
1709299459.466,-50.293,-26.855,-21.973,-55.176,0.000
1709299459.470,-38.086,-32.227,-26.367,-42.969,0.000
1709299459.474,-42.480,-33.203,-37.109,-49.316,0.000
1709299459.478,-44.434,-36.133,-34.180,-50.781,0.000
1709299459.481,-57.617,-41.016,-31.738,-49.805,0.000
1709299459.485,-57.617,-47.852,-37.598,-49.805,0.000
1709299459.489,-38.086,-51.270,-32.715,-43.945,0.000
1709299459.493,-34.180,-49.316,-25.391,-26.367,0.000
1709299459.497,-30.273,-44.434,-33.203,-32.227,0.000
1709299459.501,-37.109,-41.016,-30.273,-47.852,0.000
1709299459.505,-50.781,-41.992,-31.250,-43.945,0.000
1709299459.509,-32.715,-35.645,-41.016,-30.762,0.000
1709299459.513,-12.695,-41.016,-32.227,-23.438,0.000
1709299459.516,-20.996,-42.480,-27.832,-34.180,0.000
1709299459.520,-42.969,-34.180,-29.297,-42.969,0.000
1709299459.524,-45.410,-34.668,-24.414,-40.039,0.000
1709299459.528,-31.738,-41.016,-31.738,-32.227,0.000
1709299459.532,-27.832,-45.898,-36.621,-25.391,0.000
1709299459.536,-35.645,-49.316,-26.367,-35.645,0.000
1709299459.540,-51.270,-49.316,-24.902,-44.434,0.000
1709299459.544,-46.387,-52.246,-27.344,-33.691,0.000
1709299459.548,-33.691,-73.730,-23.438,-25.879,0.000
1709299459.552,-33.203,-65.918,-27.832,-9.766,0.000
1709299459.555,-41.992,-35.156,-31.738,-20.020,0.000
1709299459.559,-49.805,-35.156,-42.969,-57.617,0.000
1709299459.563,-47.363,-39.551,-39.551,-66.406,0.000
1709299459.567,-45.898,-28.320,-20.508,-53.223,0.000
1709299459.571,-37.598,-40.039,-19.043,-39.062,0.000
1709299459.575,-34.668,-48.828,-26.855,-37.598,0.000
1709299459.579,-43.945,-46.387,-26.367,-44.922,0.000
1709299459.583,-53.711,-59.082,-20.996,-42.480,0.000
1709299459.586,-50.781,-43.457,-22.949,-37.109,0.000
1709299459.590,-50.781,-22.461,-18.555,-47.852,0.000
1709299459.594,-52.734,-25.879,-23.438,-51.270,0.000
1709299459.598,-49.805,-33.691,-25.391,-50.781,0.000
1709299459.602,-54.199,-31.250,-20.020,-53.223,0.000
1709299459.606,-47.852,-39.551,-19.043,-41.016,0.000
1709299459.610,-40.527,-48.828,-35.156,-39.062,0.000
1709299459.614,-46.875,-51.270,-39.062,-43.945,0.000
1709299459.617,-43.457,-55.176,-23.926,-43.945,0.000
1709299459.621,-38.574,-51.270,-22.949,-41.504,0.000
1709299459.625,-42.969,-37.109,-22.949,-38.574,0.000
1709299459.629,-35.645,-21.484,-22.949,-22.949,0.000
1709299459.633,-23.438,-20.996,-26.855,-7.324,0.000
1709299459.637,-16.113,-27.344,-28.809,-13.672,0.000
1709299459.641,-19.531,-31.250,-28.809,-20.020,0.000
1709299459.645,-28.320,-44.434,-30.762,-15.137,0.000
1709299459.649,-15.137,-48.828,-38.086,-8.301,0.000
