timestamps,TP9,AF7,AF8,TP10,Right AUX
1709215231.877,-33.691,-42.969,-32.715,-25.391,0.000
1709215231.881,-46.875,-42.480,-28.320,-38.086,0.000
1709215231.885,-35.156,-39.551,-40.039,-34.668,0.000
1709215231.889,-18.555,-36.621,-43.945,-22.949,0.000
1709215231.893,-20.996,-29.785,-30.762,-21.484,0.000
1709215231.896,-35.156,-37.598,-23.438,-36.621,0.000
1709215231.900,-31.250,-45.410,-27.832,-47.852,0.000
1709215231.904,-40.527,-36.621,-35.645,-34.668,0.000
1709215231.908,-35.156,-30.273,-33.691,-26.367,0.000
1709215231.912,-20.020,-31.738,-34.180,-31.250,0.000
1709215231.916,-30.273,-49.316,-31.250,-41.504,0.000
1709215231.920,-41.992,-51.270,-26.367,-50.293,0.000
1709215231.924,-44.434,-34.668,-32.227,-44.434,0.000
1709215231.928,-30.273,-28.809,-36.621,-28.320,0.000
1709215231.931,-12.695,-36.621,-37.598,-17.090,0.000
1709215231.935,-27.832,-36.621,-36.133,-26.367,0.000
1709215231.939,-47.852,-28.320,-55.664,-41.016,0.000
1709215231.943,-46.875,-34.180,-60.547,-45.410,0.000
1709215231.947,-32.227,-37.598,-43.457,-30.273,0.000
1709215231.951,-7.812,-39.551,-41.504,-14.160,0.000
1709215231.955,-9.766,-39.062,-39.062,-33.203,0.000
1709215231.959,-46.387,-36.133,-39.062,-46.875,0.000
1709215231.963,-54.688,-44.922,-39.551,-41.504,0.000
1709215231.967,-29.297,-44.434,-38.086,-28.320,0.000
1709215231.970,-21.484,-35.156,-44.434,-18.066,0.000
1709215231.974,-33.691,-30.273,-38.574,-18.555,0.000
1709215231.978,-42.969,-39.551,-45.898,-35.156,0.000
1709215231.982,-40.039,-45.898,-45.898,-40.039,0.000
1709215231.986,-36.621,-46.387,-32.227,-28.809,0.000
1709215231.990,-31.738,-43.945,-41.016,-22.949,0.000
1709215231.994,-32.715,-39.551,-42.480,-23.438,0.000
1709215231.997,-45.410,-37.109,-32.227,-40.039,0.000
1709215232.001,-54.199,-42.969,-29.297,-49.316,0.000
1709215232.005,-46.387,-57.617,-35.645,-35.156,0.000
1709215232.009,-17.578,-54.688,-42.480,-28.809,0.000
1709215232.013,-15.625,-34.180,-41.016,-25.879,0.000
1709215232.017,-43.945,-33.203,-37.109,-37.598,0.000
1709215232.021,-52.246,-37.109,-36.621,-48.340,0.000
1709215232.024,-47.363,-37.598,-37.598,-31.738,0.000
1709215232.028,-31.250,-41.504,-39.551,-25.391,0.000
1709215232.032,-25.879,-40.039,-33.691,-28.809,0.000
1709215232.036,-44.434,-36.133,-29.785,-47.363,0.000
1709215232.040,-47.852,-46.875,-28.320,-52.734,0.000
1709215232.044,-36.133,-45.410,-24.414,-34.180,0.000
1709215232.048,-27.344,-36.133,-27.832,-22.461,0.000
1709215232.052,-27.344,-39.062,-27.344,-14.648,0.000
1709215232.056,-47.852,-40.527,-31.738,-28.320,0.000
1709215232.060,-69.824,-44.434,-41.992,-60.059,0.000
1709215232.064,-64.453,-43.945,-42.969,-54.688,0.000
1709215232.068,-44.922,-41.504,-41.992,-35.156,0.000
1709215232.072,-41.016,-33.203,-41.992,-38.086,0.000
1709215232.076,-53.223,-33.691,-42.969,-49.316,0.000
1709215232.079,-51.270,-54.199,-38.574,-51.758,0.000
1709215232.083,-46.875,-60.547,-32.715,-42.969,0.000
1709215232.087,-49.316,-46.387,-43.457,-37.598,0.000
1709215232.091,-44.922,-42.480,-40.527,-37.109,0.000
1709215232.095,-47.852,-39.551,-37.598,-38.574,0.000
1709215232.099,-56.641,-38.086,-41.504,-46.387,0.000
1709215232.103,-54.688,-40.039,-34.668,-45.410,0.000
1709215232.107,-33.203,-36.621,-25.391,-35.156,0.000
1709215232.111,-26.367,-33.203,-24.902,-28.809,0.000
1709215232.115,-50.781,-38.574,-32.227,-50.293,0.000
1709215232.119,-59.570,-40.039,-34.180,-65.918,0.000
1709215232.123,-49.805,-45.898,-32.715,-58.105,0.000
1709215232.127,-42.480,-54.688,-42.480,-50.293,0.000
1709215232.130,-38.086,-51.270,-49.316,-39.062,0.000
1709215232.134,-48.828,-43.457,-49.805,-47.363,0.000
1709215232.138,-60.547,-33.203,-50.781,-74.219,0.000
1709215232.142,-43.457,-21.973,-43.457,-61.523,0.000
1709215232.146,-40.527,-22.461,-38.086,-37.109,0.000
1709215232.150,-37.598,-30.762,-35.645,-34.180,0.000
1709215232.154,-44.434,-43.945,-45.898,-47.363,0.000
1709215232.158,0.000,-44.922,-47.363,-62.012,0.000
1709215232.162,0.000,-36.133,-37.109,-60.547,0.000
1709215232.166,0.000,-39.062,-45.410,-51.758,0.000
1709215232.170,0.000,-42.969,-49.805,-35.156,0.000
1709215232.174,0.000,-42.969,-37.598,-35.645,0.000
1709215232.178,0.000,-36.133,-31.250,-48.340,0.000
1709215232.181,0.000,-34.180,-45.410,-58.105,0.000
1709215232.185,0.000,-47.363,-41.016,-53.223,0.000
1709215232.189,0.000,-48.828,-30.273,-29.297,0.000
1709215232.193,0.000,-37.598,-34.180,-30.273,0.000
1709215232.197,0.000,-49.805,-37.598,-48.828,0.000
1709215232.201,0.000,-56.152,-41.992,-55.664,0.000
1709215232.205,-51.270,-38.574,-40.527,-50.781,0.000
1709215232.209,-32.715,-38.086,-31.738,-37.109,0.000
1709215232.213,-28.809,-36.621,-27.344,-36.133,0.000
1709215232.217,-35.156,-44.922,-20.020,-46.387,0.000
1709215232.220,-42.969,-54.688,-27.344,-50.781,0.000
1709215232.224,-34.668,-44.434,-38.086,-41.016,0.000
1709215232.228,-17.578,-43.457,-33.691,-27.344,0.000
1709215232.232,-13.184,-43.457,-34.180,-13.184,0.000
1709215232.236,-27.832,-46.875,-34.180,-20.020,0.000
1709215232.240,-36.621,-46.387,-28.809,-36.133,0.000
1709215232.244,-31.250,-44.434,-30.273,-27.344,0.000
1709215232.248,-15.625,-41.504,-33.203,-9.277,0.000
1709215232.252,-6.836,-39.062,-41.016,-15.137,0.000
1709215232.255,-19.531,-43.457,-38.574,-30.762,0.000
1709215232.259,-44.922,-46.875,-37.109,-40.527,0.000
1709215232.263,-44.434,-45.898,-38.086,-39.551,0.000
1709215232.267,-21.973,-36.133,-30.273,-22.461,0.000
1709215232.271,-14.648,-32.715,-40.039,-18.066,0.000
1709215232.275,-27.344,-35.156,-46.875,-36.621,0.000
1709215232.279,-45.410,-36.133,-38.086,-48.828,0.000
1709215232.283,-26.855,-42.480,-34.180,-44.434,0.000
1709215232.287,-5.859,-37.598,-33.203,-33.691,0.000
1709215232.291,-24.414,-32.715,-36.621,-33.203,0.000
1709215232.295,-39.062,-33.691,-41.504,-53.223,0.000
1709215232.298,-52.246,-38.086,-41.992,-71.777,0.000
1709215232.302,-40.039,-33.203,-30.273,-53.711,0.000
1709215232.306,-28.809,-26.855,-29.785,-34.180,0.000
1709215232.310,-16.602,-31.738,-36.621,-36.621,0.000
1709215232.314,-12.207,-37.598,-38.574,-42.969,0.000
1709215232.318,-45.410,-34.668,-46.875,-52.246,0.000
1709215232.322,-45.898,-32.715,-45.410,-43.457,0.000
1709215232.326,-33.203,-44.434,-43.457,-25.879,0.000
1709215232.329,-23.438,-44.922,-39.062,-20.996,0.000
1709215232.333,-28.809,-38.086,-34.668,-24.414,0.000
1709215232.337,-54.688,-47.852,-36.621,-40.527,0.000
1709215232.341,-60.547,-53.711,-34.180,-45.410,0.000
1709215232.346,-46.875,-33.203,-26.855,-31.250,0.000
1709215232.349,-25.879,-24.902,-25.391,-21.973,0.000
1709215232.353,-26.367,-40.527,-39.062,-29.785,0.000
1709215232.357,-42.969,-55.664,-38.086,-51.270,0.000
1709215232.361,-44.922,-48.828,-30.762,-55.176,0.000
1709215232.365,-43.457,-38.574,-33.203,-36.621,0.000
1709215232.369,-26.367,-48.828,-37.109,-15.137,0.000
1709215232.373,-2.441,-42.480,-38.086,-16.602,0.000
1709215232.377,-26.367,-29.785,-40.039,-38.574,0.000
1709215232.381,-50.781,-31.250,-38.086,-45.410,0.000
1709215232.385,-36.133,-37.598,-41.016,-40.039,0.000
1709215232.389,-24.414,-45.410,-42.480,-25.879,0.000
1709215232.393,-19.531,-41.992,-34.668,-20.508,0.000
1709215232.397,-27.832,-34.180,-41.992,-25.879,0.000
1709215232.401,-42.969,-35.645,-49.316,-40.527,0.000
1709215232.405,-34.668,-42.480,-42.969,-32.227,0.000
1709215232.409,-14.648,-44.434,-38.086,-9.766,0.000
1709215232.412,-12.207,-40.527,-39.551,-10.742,0.000
1709215232.416,-18.555,-42.969,-40.527,-26.367,0.000
1709215232.420,-40.039,-42.969,-42.969,-39.551,0.000
1709215232.424,-29.785,-31.738,-40.527,-33.691,0.000
1709215232.428,8.789,-19.531,-40.527,-10.254,0.000
1709215232.432,-6.836,-17.578,-33.203,-6.836,0.000
1709215232.436,-28.320,-20.508,-27.344,-23.926,0.000
1709215232.440,-36.133,-28.320,-31.250,-43.945,0.000
1709215232.444,-38.086,-39.062,-31.250,-46.387,0.000
1709215232.448,-26.855,-43.457,-30.762,-30.273,0.000
1709215232.452,-20.508,-42.969,-34.180,-28.320,0.000
1709215232.456,-28.320,-36.621,-38.574,-35.645,0.000
1709215232.460,-47.363,-33.203,-38.574,-50.293,0.000
1709215232.464,-53.223,-46.875,-36.621,-56.152,0.000
1709215232.467,-36.133,-43.945,-39.551,-40.527,0.000
1709215232.471,-24.902,-28.320,-44.922,-30.762,0.000
1709215232.475,-29.785,-34.668,-38.574,-25.391,0.000
1709215232.479,-47.363,-39.551,-35.156,-40.039,0.000
1709215232.483,-41.992,-41.016,-45.898,-51.758,0.000
1709215232.487,-26.855,-45.410,-41.992,-32.227,0.000
1709215232.491,-32.715,-46.387,-30.762,-20.996,0.000
1709215232.495,-35.645,-49.316,-30.273,-31.738,0.000
1709215232.499,-49.316,-53.711,-31.738,-50.293,0.000
1709215232.503,-60.547,-47.852,-35.645,-54.199,0.000
1709215232.507,-47.363,-40.039,-34.180,-35.156,0.000
1709215232.511,-31.250,-38.574,-24.414,-17.578,0.000
1709215232.514,-32.715,-38.086,-22.949,-22.949,0.000
1709215232.518,-41.504,-40.527,-24.902,-36.133,0.000
1709215232.522,-45.898,-43.945,-33.691,-38.086,0.000
1709215232.526,-37.109,-37.109,-40.527,-23.926,0.000
1709215232.530,-14.160,-32.227,-31.738,-15.625,0.000
1709215232.534,-28.320,-38.086,-38.574,-24.902,0.000
1709215232.538,-58.594,-41.016,-48.340,-34.668,0.000
1709215232.542,-50.293,-49.805,-39.551,-39.062,0.000
1709215232.546,-40.527,-53.223,-33.203,-27.832,0.000
1709215232.550,-35.156,-50.293,-34.668,-23.438,0.000
1709215232.554,-29.785,-47.363,-41.992,-20.508,0.000
1709215232.557,-43.945,-46.875,-43.945,-34.668,0.000
1709215232.561,-58.594,-54.688,-35.645,-44.922,0.000
1709215232.565,-41.016,-57.617,-24.414,-14.160,0.000
1709215232.569,-21.973,-54.688,-25.879,-3.418,0.000
1709215232.573,-31.250,-62.500,-38.086,-21.484,0.000
1709215232.577,-53.223,-54.688,-37.598,-40.527,0.000
1709215232.581,-52.246,-42.969,-30.273,-49.316,0.000
1709215232.585,-45.410,-50.293,-33.691,-41.504,0.000
1709215232.589,-41.016,-50.293,-29.785,-25.391,0.000
1709215232.593,-27.832,-54.199,-28.809,-16.113,0.000
1709215232.596,-41.504,-61.035,-31.738,-27.344,0.000
1709215232.600,-56.152,-54.688,-25.879,-34.668,0.000
1709215232.604,-39.551,-48.340,-23.438,-20.508,0.000
1709215232.608,-30.762,-44.922,-30.273,-6.348,0.000
1709215232.612,-38.086,-32.227,-32.227,-12.695,0.000
1709215232.616,-34.180,-20.508,-38.574,-35.156,0.000
1709215232.620,-34.668,-17.578,-43.457,-43.945,0.000
1709215232.624,-37.598,-13.184,-44.922,-39.551,0.000
1709215232.628,-16.602,-3.418,-46.875,-27.832,0.000
1709215232.631,-8.301,-9.766,-55.664,-24.902,0.000
1709215232.635,-0.488,-1.465,-54.199,-30.762,0.000
1709215232.639,-10.742,20.508,-48.828,-47.852,0.000
1709215232.643,-38.574,16.113,-62.012,-62.988,0.000
1709215232.647,-22.461,3.906,-71.289,-54.688,0.000
1709215232.651,-6.836,8.301,-66.406,-41.992,0.000
1709215232.655,-3.906,19.531,-63.965,-38.086,0.000
1709215232.659,-23.926,21.484,-73.242,-67.871,0.000
1709215232.663,-34.180,24.414,-77.148,-84.961,0.000
1709215232.667,-21.484,26.367,-71.777,-71.289,0.000
1709215232.671,-19.531,33.203,-73.242,-71.289,0.000
1709215232.674,-34.668,41.992,-80.078,-85.449,0.000
1709215232.678,-47.363,37.109,-80.566,-99.121,0.000
1709215232.682,-53.711,43.457,-78.125,-101.074,0.000
1709215232.686,-62.012,49.805,-84.473,-100.098,0.000
1709215232.690,-57.617,43.945,-81.055,-86.914,0.000
1709215232.694,-45.898,53.223,-72.266,-86.426,0.000
1709215232.698,-57.129,61.035,-69.824,-88.379,0.000
1709215232.702,-85.938,62.012,-69.824,-93.262,0.000
1709215232.705,-82.031,60.547,-76.172,-96.680,0.000
1709215232.709,-67.383,69.824,-73.730,-77.637,0.000
1709215232.713,-63.477,68.848,-69.824,-80.566,0.000
1709215232.717,-68.359,73.730,-71.777,-94.238,0.000
1709215232.721,-74.707,92.285,-73.242,-104.492,0.000
1709215232.725,-66.406,92.285,-71.289,-104.492,0.000
1709215232.728,-58.594,87.891,-71.289,-93.750,0.000
1709215232.732,-58.594,89.355,-80.078,-90.820,0.000
1709215232.736,-67.383,91.797,-85.449,-107.910,0.000
1709215232.740,-81.543,89.355,-84.473,-124.023,0.000
1709215232.744,-83.008,80.078,-89.844,-116.211,0.000
1709215232.748,-65.430,78.613,-96.191,-88.867,0.000
1709215232.752,-52.734,83.984,-95.215,-86.426,0.000
1709215232.756,-68.359,87.891,-90.332,-113.770,0.000
1709215232.760,-66.406,93.750,-83.984,-124.512,0.000
1709215232.764,-65.430,102.051,-80.566,-114.746,0.000
1709215232.767,-48.340,102.539,-81.055,-95.215,0.000
1709215232.771,-23.926,97.656,-83.008,-88.379,0.000
1709215232.775,-31.250,90.820,-84.473,-89.355,0.000
1709215232.779,-35.645,83.008,-87.891,-90.332,0.000
1709215232.783,-29.297,81.055,-85.449,-85.449,0.000
1709215232.787,-17.578,73.730,-79.102,-62.500,0.000
1709215232.791,-17.578,69.824,-85.938,-61.035,0.000
1709215232.794,-39.062,78.613,-88.867,-84.473,0.000
1709215232.798,-57.617,69.824,-79.590,-83.984,0.000
1709215232.802,-53.711,60.059,-83.008,-76.660,0.000
1709215232.806,-45.898,58.105,-83.984,-64.453,0.000
1709215232.810,-36.621,51.270,-72.266,-46.875,0.000
1709215232.814,-51.270,41.016,-72.266,-58.105,0.000
1709215232.818,-59.570,29.785,-77.148,-71.777,0.000
1709215232.822,-59.570,21.973,-72.754,-65.430,0.000
1709215232.826,-53.711,23.926,-72.266,-42.480,0.000
1709215232.830,-30.762,20.020,-69.336,-25.879,0.000
1709215232.834,-33.691,-8.789,-67.383,-25.879,0.000
1709215232.838,-44.922,-18.555,-65.430,-35.156,0.000
1709215232.842,-43.457,1.465,-61.523,-32.227,0.000
1709215232.846,-15.137,9.766,-62.500,-6.836,0.000
1709215232.849,10.742,9.766,-70.312,3.906,0.000
1709215232.853,9.766,3.906,-76.172,-0.977,0.000
1709215232.857,20.020,-2.441,-74.707,1.465,0.000
1709215232.861,10.254,-13.672,0.000,2.441,0.000
1709215232.865,-0.977,-25.391,0.000,15.137,0.000
1709215232.869,22.461,-22.461,0.000,32.227,0.000
1709215232.873,26.367,-37.109,0.000,30.273,0.000
1709215232.877,23.438,-53.711,0.000,26.855,0.000
1709215232.881,28.320,-45.898,0.000,24.902,0.000
1709215232.885,37.109,-38.086,0.000,31.738,0.000
1709215232.889,40.039,-60.059,0.000,28.320,0.000
1709215232.893,33.203,-60.059,0.000,28.809,0.000
1709215232.897,19.531,-38.086,0.000,24.414,0.000
1709215232.900,11.719,-41.504,0.000,-8.789,0.000
1709215232.904,12.695,-46.875,0.000,-5.371,0.000
1709215232.908,23.926,-44.434,-55.176,26.855,0.000
1709215232.912,24.414,-39.551,-49.805,27.832,0.000
1709215232.916,16.602,-41.016,-54.688,-2.441,0.000
1709215232.920,5.371,-50.293,-51.758,-9.277,0.000
1709215232.924,-6.348,-58.105,-47.852,0.488,0.000
1709215232.928,8.789,-56.152,-48.828,14.648,0.000
1709215232.932,21.484,-44.922,-53.223,23.438,0.000
1709215232.936,20.020,-46.387,-48.828,13.184,0.000
1709215232.940,4.395,-55.176,-41.992,7.812,0.000
1709215232.943,1.953,-58.594,-49.805,14.648,0.000
1709215232.947,27.832,-53.223,-46.387,29.785,0.000
1709215232.951,38.574,-53.223,-35.645,25.391,0.000
1709215232.955,22.949,-61.523,-40.039,9.766,0.000
1709215232.959,-4.395,-52.734,-47.852,-3.906,0.000
1709215232.963,-8.789,-52.734,-45.410,-1.953,0.000
1709215232.967,15.625,-60.547,-30.273,11.719,0.000
1709215232.971,18.066,-65.430,-29.785,11.230,0.000
1709215232.975,-1.953,-60.547,-35.156,2.441,0.000
1709215232.979,-16.602,-58.594,-38.086,-18.555,0.000
1709215232.982,-13.672,-56.152,-30.762,-11.230,0.000
1709215232.986,-7.324,-57.129,-26.855,5.859,0.000
1709215232.990,-4.883,-55.176,-36.133,-0.977,0.000
1709215232.994,0.488,-47.852,-39.551,-10.254,0.000
1709215232.998,-19.043,-43.457,-43.945,-18.555,0.000
1709215233.002,-28.320,-38.574,-52.246,-23.438,0.000
1709215233.006,-15.137,-42.480,-41.016,-19.043,0.000
1709215233.010,-10.742,-60.547,-31.250,-14.160,0.000
1709215233.014,-12.207,-69.824,-37.598,-22.949,0.000
1709215233.018,-35.156,-55.664,-47.852,-47.852,0.000
1709215233.021,-51.270,-44.922,-45.898,-53.223,0.000
1709215233.025,-37.109,-37.109,-41.016,-41.016,0.000
1709215233.029,-26.367,-40.527,-40.527,-23.926,0.000
1709215233.033,-23.438,-47.363,-31.738,-20.996,0.000
1709215233.037,-36.621,-42.969,-33.691,-46.387,0.000
1709215233.041,-47.852,-53.711,-31.250,-53.223,0.000
1709215233.045,-39.551,-59.570,-37.598,-42.969,0.000
1709215233.049,-28.809,-38.086,-47.363,-33.691,0.000
1709215233.052,-16.113,-25.879,-39.062,-32.715,0.000
1709215233.056,-11.719,-30.762,-45.898,-40.527,0.000
1709215233.060,-35.156,-38.086,-48.828,-42.969,0.000
1709215233.064,-39.551,-40.527,-32.715,-39.551,0.000
1709215233.068,-12.695,-58.105,-18.555,-26.855,0.000
1709215233.072,0.488,-62.988,-20.996,-14.160,0.000
1709215233.076,-27.344,-43.457,-33.691,-27.832,0.000
1709215233.080,-34.668,-34.180,-34.668,-40.527,0.000
1709215233.084,-15.137,-44.434,-31.738,-18.555,0.000
1709215233.088,-4.395,-37.598,-32.715,-5.371,0.000
1709215233.092,-7.812,-27.344,-34.180,-11.719,0.000
1709215233.095,-20.508,-32.227,-34.180,-25.879,0.000
1709215233.099,-24.902,-29.785,-25.879,-24.902,0.000
1709215233.103,-24.414,-31.738,-23.926,-16.602,0.000
1709215233.107,-10.742,-44.434,-30.273,-13.672,0.000
1709215233.111,-21.973,-48.828,-33.691,-9.277,0.000
1709215233.115,-34.180,-53.223,-25.879,-21.973,0.000
1709215233.119,-31.738,-61.035,-38.574,-32.227,0.000
1709215233.122,-38.086,-56.641,-46.875,-30.762,0.000
1709215233.126,-31.738,-53.223,-24.902,-17.090,0.000
1709215233.130,-25.879,-54.199,-18.555,-2.441,0.000
1709215233.134,-39.062,-59.570,-32.715,-17.578,0.000
1709215233.138,-50.781,-55.176,-37.598,-37.109,0.000
1709215233.142,-42.969,-46.387,-29.785,-41.016,0.000
1709215233.145,-20.020,-41.504,-28.809,-28.320,0.000
1709215233.149,-6.348,-48.340,-32.715,-24.902,0.000
1709215233.153,-29.297,-58.594,-34.668,-32.715,0.000
1709215233.157,-59.082,-50.781,-42.969,-42.969,0.000
1709215233.161,-51.758,-45.898,-49.316,-40.527,0.000
1709215233.165,-31.250,-52.246,-44.434,-24.414,0.000
1709215233.169,-20.996,-53.223,-43.945,-19.043,0.000
1709215233.173,-27.832,-52.246,-37.109,-31.738,0.000
1709215233.177,-43.945,-38.574,-35.645,-54.199,0.000
1709215233.181,-44.922,-29.785,-42.480,-56.152,0.000
1709215233.185,-30.762,-36.621,-37.109,-39.062,0.000
1709215233.189,-21.973,-41.016,-32.715,-25.879,0.000
1709215233.193,-28.809,-44.434,-32.227,-37.598,0.000
1709215233.197,-44.922,-45.898,-35.645,-57.617,0.000
1709215233.201,-36.621,-40.039,-33.691,-62.988,0.000
1709215233.204,-31.250,-34.668,-29.785,-44.434,0.000
1709215233.208,-41.992,-36.621,-31.250,-17.578,0.000
1709215233.212,-27.832,-39.062,-34.180,-20.508,0.000
1709215233.216,-35.156,-44.922,-38.086,-46.387,0.000
1709215233.220,-53.223,-49.316,-43.945,-59.570,0.000
1709215233.224,-52.734,-45.410,-46.387,-41.992,0.000
1709215233.228,-46.387,-47.852,-49.805,-33.691,0.000
1709215233.232,-29.785,-52.734,-43.945,-37.109,0.000
1709215233.236,-31.738,-50.781,-38.086,-39.551,0.000
1709215233.240,-44.922,-39.551,-38.086,-44.922,0.000
1709215233.244,-40.039,-38.574,-41.016,-42.969,0.000
1709215233.248,-24.902,-33.691,-43.945,-29.297,0.000
1709215233.252,-10.742,-36.621,-44.434,-22.949,0.000
1709215233.255,-18.555,-46.875,-37.598,-39.062,0.000
1709215233.259,-55.664,-44.434,-35.156,-60.547,0.000
1709215233.263,-53.223,-36.133,-38.574,-52.246,0.000
1709215233.267,-33.203,-38.574,-42.969,-27.832,0.000
1709215233.271,-35.156,-51.270,-41.504,-18.555,0.000
1709215233.275,-41.016,-49.805,-41.992,-42.969,0.000
1709215233.279,-48.828,-49.316,-45.898,-68.359,0.000
1709215233.283,-48.340,-49.805,-45.410,-64.941,0.000
1709215233.287,-30.762,-45.898,-42.480,-45.410,0.000
1709215233.291,-10.742,-49.805,-40.039,-36.621,0.000
1709215233.295,-8.301,-44.922,-38.574,-51.270,0.000
1709215233.299,-21.973,-42.480,-36.133,-59.570,0.000
1709215233.302,-15.625,-53.223,-48.340,-49.316,0.000
1709215233.306,-7.324,-32.227,-52.734,-36.621,0.000
1709215233.310,-15.625,-19.531,-43.457,-32.227,0.000
1709215233.314,-16.113,-35.645,-39.062,-32.227,0.000
1709215233.318,-24.902,-43.457,-36.133,-33.691,0.000
1709215233.322,-27.344,-48.828,-38.086,-41.016,0.000
1709215233.326,-12.207,-43.945,-47.363,-37.109,0.000
1709215233.330,-3.906,-31.738,-52.246,-21.484,0.000
1709215233.334,-15.137,-30.762,-39.551,-40.527,0.000
1709215233.338,-37.109,-36.133,-36.133,-61.523,0.000
1709215233.342,-42.969,-37.109,-33.203,-46.387,0.000
1709215233.345,-29.297,-39.062,-30.762,-23.438,0.000
1709215233.349,-19.043,-36.133,-37.598,-11.230,0.000
1709215233.353,-20.508,-33.691,-37.109,-32.227,0.000
1709215233.357,-29.785,-41.992,-30.762,-39.062,0.000
1709215233.361,-45.410,-44.434,-31.250,-25.879,0.000
1709215233.365,-50.781,-42.969,-31.738,-20.508,0.000
1709215233.369,-25.879,-41.504,-29.785,-7.324,0.000
1709215233.373,-18.066,-42.969,-39.062,-9.277,0.000
1709215233.377,-20.996,-41.504,-37.598,-20.020,0.000
1709215233.380,-32.227,-47.363,-29.785,-23.438,0.000
1709215233.384,-25.879,-45.410,-33.203,-16.113,0.000
1709215233.388,-13.184,-37.109,-31.738,-5.371,0.000
1709215233.392,-9.277,-42.480,-33.203,-1.953,0.000
1709215233.396,-6.836,-54.199,-36.621,-16.113,0.000
1709215233.400,-19.531,-57.617,-39.551,-28.809,0.000
1709215233.404,-27.344,-54.199,-42.480,-15.137,0.000
1709215233.408,-4.395,-39.062,-43.457,-8.301,0.000
1709215233.412,0.488,-29.785,-46.875,-11.719,0.000
1709215233.416,-25.879,-40.039,-43.457,-19.531,0.000
1709215233.420,-23.438,-37.109,-38.574,-26.855,0.000
1709215233.423,-7.324,-31.738,-39.062,-10.254,0.000
1709215233.427,1.953,-49.316,-40.039,0.488,0.000
1709215233.431,-0.977,-50.781,-42.969,-16.113,0.000
1709215233.435,-18.555,-25.391,-40.527,-25.391,0.000
1709215233.439,-33.691,-29.785,-38.574,-38.574,0.000
1709215233.443,-37.109,-39.551,-47.363,-40.039,0.000
1709215233.447,-30.273,-42.480,-55.664,-9.766,0.000
1709215233.451,-21.484,-48.828,-46.875,4.883,0.000
1709215233.454,-28.809,-47.363,-32.227,-15.625,0.000
1709215233.458,-46.387,-55.176,-33.203,-24.902,0.000
1709215233.462,-31.738,-48.340,-41.504,-15.137,0.000
1709215233.466,-23.438,-32.715,-38.086,4.395,0.000
1709215233.470,-29.785,-38.086,-32.227,7.812,0.000
1709215233.474,-28.809,-40.527,-37.109,-10.742,0.000
1709215233.478,-38.574,-39.062,-33.691,-20.020,0.000
1709215233.482,-36.133,-36.133,-28.809,-20.996,0.000
1709215233.485,-20.996,-30.273,-36.621,-10.254,0.000
1709215233.489,-24.902,-41.016,-43.457,-5.371,0.000
1709215233.493,-34.180,-49.805,-45.410,-17.090,0.000
1709215233.497,-55.176,-40.039,-41.992,-40.039,0.000
1709215233.501,-65.430,-41.504,-37.598,-47.852,0.000
1709215233.505,-31.250,-49.805,-34.180,-23.926,0.000
1709215233.509,-15.625,-70.801,-33.203,-4.883,0.000
1709215233.513,-36.133,-64.941,-45.410,-26.855,0.000
1709215233.516,-41.992,-21.484,-41.504,-54.199,0.000
1709215233.520,-53.711,-20.508,-28.809,-50.293,0.000
1709215233.524,-46.875,-37.109,-36.621,-30.762,0.000
1709215233.528,-21.973,-31.738,-37.109,-11.719,0.000
1709215233.532,-30.762,-32.715,-32.715,-20.508,0.000
1709215233.536,-35.645,-39.551,-35.645,-26.855,0.000
1709215233.540,-42.969,-34.180,-36.133,-37.109,0.000
1709215233.544,-42.480,-33.691,-31.738,-39.062,0.000
1709215233.548,-17.090,-38.086,-30.762,-22.949,0.000
1709215233.551,-23.438,-43.945,-41.992,-21.973,0.000
1709215233.555,-51.758,-41.992,-44.434,-41.016,0.000
1709215233.559,-46.387,-35.645,-45.898,-53.223,0.000
1709215233.564,-30.762,-36.133,-47.852,-34.180,0.000
1709215233.567,-35.156,-37.598,-44.922,-22.949,0.000
1709215233.571,-40.527,-43.457,-45.410,-28.809,0.000
1709215233.575,-51.270,-38.574,-43.945,-37.598,0.000
1709215233.579,-50.781,-36.621,-34.668,-40.527,0.000
1709215233.583,-40.527,-42.480,-33.691,-31.738,0.000
1709215233.587,-29.785,-43.945,-42.480,-18.555,0.000
1709215233.591,-27.832,-56.641,-33.691,-10.742,0.000
1709215233.595,-44.922,-61.523,-31.250,-33.203,0.000
1709215233.599,-61.523,-40.527,-41.992,-63.965,0.000
1709215233.603,-60.059,-32.715,-38.086,-65.430,0.000
1709215233.606,-42.969,-39.062,-35.156,-44.922,0.000
1709215233.611,-36.133,-41.504,-38.086,-31.738,0.000
1709215233.615,-41.992,-34.180,-36.621,-44.434,0.000
1709215233.618,-59.570,-48.340,-47.852,-60.059,0.000
1709215233.622,-71.289,-51.270,-45.898,-56.641,0.000
1709215233.626,-60.547,-36.133,-37.109,-47.363,0.000
1709215233.630,-49.316,-32.227,-40.527,-42.480,0.000
1709215233.634,-41.992,-40.039,-37.598,-45.410,0.000
1709215233.638,-49.805,-56.641,-36.133,-49.805,0.000
1709215233.642,-57.129,-55.176,-40.039,-42.969,0.000
1709215233.646,-38.574,-40.527,-37.598,-27.344,0.000
1709215233.650,-26.367,-38.574,-34.668,-20.996,0.000
1709215233.654,-11.230,-48.340,-31.250,-14.160,0.000
1709215233.658,-18.066,-53.711,-31.738,-24.902,0.000
1709215233.662,-48.340,-40.039,-37.109,-38.574,0.000
1709215233.665,-31.738,-35.645,-37.109,-25.391,0.000
1709215233.669,-13.184,-41.504,-35.156,-10.742,0.000
1709215233.673,-17.578,-40.039,-39.551,-16.113,0.000
1709215233.677,-36.133,-45.410,-39.551,-35.156,0.000
1709215233.681,-44.434,-41.992,-42.480,-48.340,0.000
1709215233.685,-31.738,-42.969,-40.039,-36.621,0.000
1709215233.689,-23.926,-48.828,-36.133,-22.461,0.000
1709215233.693,-32.227,-46.387,-42.969,-34.180,0.000
1709215233.697,-34.180,-48.340,-40.039,-48.828,0.000
1709215233.701,-38.574,-49.316,-37.598,-44.434,0.000
1709215233.704,-49.316,-45.898,-39.062,-40.039,0.000
1709215233.708,-38.086,-46.387,-38.086,-31.738,0.000
1709215233.712,-32.715,-43.457,-28.809,-29.297,0.000
1709215233.716,-47.363,-38.574,-27.832,-49.805,0.000
1709215233.720,-49.805,-41.016,-44.434,-50.781,0.000
1709215233.724,-37.598,-57.129,-40.527,-33.691,0.000
1709215233.728,-30.273,-57.617,-33.691,-33.203,0.000
1709215233.732,-19.531,-44.434,-33.691,-35.156,0.000
1709215233.736,-34.668,-50.781,-34.668,-41.992,0.000
1709215233.740,-63.477,-47.363,-32.227,-54.688,0.000
1709215233.744,-58.594,-32.227,-38.086,-51.270,0.000
1709215233.747,-38.574,-31.250,-45.898,-26.855,0.000
1709215233.751,-25.879,-36.621,-41.016,-24.902,0.000
1709215233.755,-47.363,-40.527,-41.504,-61.523,0.000
1709215233.759,-61.035,-42.480,-45.410,-80.566,0.000
1709215233.763,-49.805,-44.922,-45.410,-61.035,0.000
1709215233.767,-37.598,-43.457,-40.527,-37.109,0.000
1709215233.771,-41.016,-41.504,-35.645,-41.992,0.000
1709215233.775,-39.551,-43.945,-34.668,-50.293,0.000
1709215233.779,-56.641,-52.246,-37.598,-49.805,0.000
1709215233.782,-78.125,-49.316,-40.527,-59.570,0.000
1709215233.786,-48.828,-34.668,-35.156,-50.781,0.000
1709215233.790,-32.715,-43.945,-36.621,-44.922,0.000
1709215233.794,-48.828,-57.129,-44.922,-56.152,0.000
1709215233.798,-58.594,-51.758,-38.574,-62.988,0.000
1709215233.802,-58.105,-57.617,-45.898,-65.918,0.000
1709215233.806,-47.363,-50.293,-49.805,-47.852,0.000
1709215233.810,-35.645,-35.156,-47.363,-33.691,0.000
1709215233.814,-38.086,-35.156,-46.875,-39.062,0.000
1709215233.817,-49.316,-33.691,-35.645,-54.199,0.000
1709215233.821,-41.992,-32.715,-37.109,-57.617,0.000
1709215233.825,-44.922,-41.992,-37.598,-40.527,0.000
1709215233.829,-52.734,-62.500,-38.574,-31.250,0.000
1709215233.833,-48.828,-59.570,-45.410,-52.734,0.000
1709215233.837,-59.082,-39.062,-36.133,-65.430,0.000
1709215233.841,-62.500,-31.250,-29.785,-59.570,0.000
1709215233.844,-42.969,-40.039,-32.227,-40.527,0.000
1709215233.848,-28.809,-47.852,-35.156,-19.531,0.000
1709215233.852,-43.945,-43.457,-39.062,-29.297,0.000
1709215233.856,-51.270,-34.180,-40.527,-45.898,0.000
1709215233.860,-55.664,-37.598,-41.016,-48.340,0.000
1709215233.864,-57.129,-41.016,-37.598,-36.621,0.000
1709215233.868,-36.621,-44.434,-37.598,-16.113,0.000
1709215233.872,-44.434,-50.781,-40.527,-24.902,0.000
1709215233.876,-60.059,-57.129,-41.504,-43.945,0.000
1709215233.880,-53.711,-55.176,-41.992,-55.176,0.000
1709215233.884,-39.551,-39.551,-39.551,-44.922,0.000
1709215233.887,-24.902,-46.875,-40.039,-23.926,0.000
1709215233.891,-25.879,-52.734,-50.293,-30.762,0.000
1709215233.895,-36.621,-44.922,-52.246,-55.176,0.000
1709215233.899,-28.809,-44.434,-39.062,-60.547,0.000
1709215233.903,-21.484,-39.062,-34.668,-41.992,0.000
1709215233.907,-28.809,-36.621,-41.016,-30.273,0.000
1709215233.911,-32.227,-42.480,-45.410,-20.508,0.000
1709215233.914,-33.203,-38.574,-41.992,-30.762,0.000
1709215233.918,-41.992,-42.480,-46.387,-57.617,0.000
1709215233.922,-41.504,-42.480,-52.734,-55.664,0.000
1709215233.926,-34.668,-36.133,-55.664,-40.527,0.000
1709215233.930,-35.645,-32.715,-48.340,-38.574,0.000
1709215233.934,-37.598,-25.879,-35.645,-46.875,0.000
1709215233.938,-39.551,-26.855,-39.062,-54.199,0.000
1709215233.942,-43.457,-32.715,-43.457,-45.898,0.000
1709215233.946,-37.109,-32.715,-39.551,-23.926,0.000
1709215233.950,-16.602,-36.621,-32.715,-22.461,0.000
1709215233.954,-33.203,-45.410,-32.715,-41.016,0.000
1709215233.958,-63.477,-39.551,-32.715,-51.758,0.000
1709215233.962,-62.500,-32.715,-32.715,-50.781,0.000
1709215233.966,-55.176,-35.645,-29.785,-43.457,0.000
1709215233.970,-41.504,-42.969,-25.879,-34.668,0.000
1709215233.973,-49.805,-38.574,-38.086,-49.805,0.000
1709215233.977,-67.871,-28.320,-39.062,-76.172,0.000
1709215233.981,-81.543,-35.156,-38.086,-81.543,0.000
1709215233.985,-69.336,-41.016,-39.551,-56.641,0.000
1709215233.989,-46.875,-38.574,-32.715,-37.598,0.000
1709215233.993,-50.293,-35.156,-30.273,-75.195,0.000
1709215233.997,-77.148,-39.551,-35.156,-104.980,0.000
1709215234.001,-91.309,-36.621,-35.156,-101.074,0.000
1709215234.005,-78.613,-23.926,-31.250,-95.703,0.000
1709215234.009,-83.008,-20.508,-37.598,-94.727,0.000
1709215234.013,-96.680,-17.090,-31.250,-108.398,0.000
1709215234.017,-104.980,-7.812,-24.414,-125.000,0.000
1709215234.021,-115.234,-15.137,-30.762,-139.648,0.000
1709215234.024,-112.793,-10.742,-20.996,-144.043,0.000
1709215234.028,-117.188,10.254,-14.160,-138.184,0.000
1709215234.032,-140.137,5.371,-23.438,-165.527,0.000
1709215234.036,-176.758,10.254,-21.973,-194.824,0.000
1709215234.040,-194.336,34.180,-22.949,-199.219,0.000
1709215234.044,-181.641,36.621,-34.180,-197.754,0.000
1709215234.048,-175.293,27.344,-26.367,-190.430,0.000
1709215234.052,-174.805,20.996,-19.531,-188.477,0.000
1709215234.056,-197.266,20.996,-21.973,-219.238,0.000
1709215234.060,-216.309,24.414,-21.484,-240.234,0.000
1709215234.064,-197.754,26.367,-27.344,-211.914,0.000
1709215234.068,-187.988,27.344,-24.414,-192.871,0.000
1709215234.071,-179.199,29.785,-23.926,-193.359,0.000
1709215234.075,-191.406,34.668,-31.250,-206.543,0.000
1709215234.079,-200.684,30.762,-33.203,-226.074,0.000
1709215234.083,-196.777,28.809,-27.344,-216.309,0.000
1709215234.087,-192.871,22.461,-17.090,-191.895,0.000
1709215234.091,-172.363,12.695,-19.531,-180.664,0.000
1709215234.095,-194.824,22.461,-30.762,-193.848,0.000
1709215234.099,-199.219,27.832,-35.156,-191.406,0.000
1709215234.103,-165.039,16.602,-32.227,-174.316,0.000
1709215234.107,-150.879,19.043,-32.715,-150.879,0.000
1709215234.111,-151.367,27.344,-34.180,-134.766,0.000
1709215234.114,-164.551,20.020,-34.668,-161.133,0.000
1709215234.118,-168.457,5.371,-34.668,-169.922,0.000
1709215234.122,-156.250,-2.930,-45.898,-158.203,0.000
1709215234.126,-122.070,9.766,-51.270,-147.461,0.000
1709215234.130,-108.398,4.883,-43.457,-131.348,0.000
1709215234.134,-120.605,-27.344,-50.781,-130.371,0.000
1709215234.138,-121.582,-20.020,-50.781,-131.348,0.000
1709215234.142,-115.234,-14.648,-45.898,-113.281,0.000
1709215234.146,-73.242,-26.367,-54.688,-77.148,0.000
1709215234.150,-55.664,-31.738,-53.223,-58.105,0.000
1709215234.153,-67.383,-40.039,-37.109,-39.062,0.000
1709215234.157,-57.617,-39.551,-39.062,-35.156,0.000
1709215234.161,-40.039,-50.293,-46.875,-14.648,0.000
1709215234.165,-17.090,-62.988,-49.805,2.441,0.000
1709215234.169,-2.441,-54.199,-55.664,2.441,0.000
1709215234.173,-2.441,-46.875,-57.129,11.719,0.000
1709215234.177,-10.742,-52.246,-56.641,-4.883,0.000
1709215234.181,-0.488,-57.129,-53.223,8.301,0.000
1709215234.184,30.762,-69.336,-49.805,37.598,0.000
1709215234.188,53.223,-74.219,-41.992,57.617,0.000
1709215234.192,42.480,-70.312,-37.598,61.523,0.000
1709215234.196,25.391,-76.172,-35.156,52.246,0.000
1709215234.200,39.551,-78.125,-32.715,53.711,0.000
1709215234.204,45.898,-75.684,-59.082,43.457,0.000
1709215234.208,52.734,-79.590,-65.918,54.688,0.000
1709215234.212,54.688,-84.473,-47.852,66.406,0.000
1709215234.216,29.785,-75.195,-48.340,43.457,0.000
1709215234.219,22.949,-67.871,-55.664,36.133,0.000
1709215234.223,47.852,-70.801,-58.105,48.828,0.000
1709215234.227,53.223,-71.777,-51.758,48.340,0.000
1709215234.231,37.109,-69.824,-52.246,40.039,0.000
1709215234.235,28.320,-64.453,-49.805,26.367,0.000
1709215234.239,42.969,-75.684,-43.457,23.926,0.000
1709215234.243,44.434,-86.914,-51.758,44.434,0.000
1709215234.247,45.898,-80.078,-52.734,59.082,0.000
1709215234.251,56.641,-78.613,-44.922,52.246,0.000
1709215234.255,37.109,-75.684,-50.293,27.832,0.000
1709215234.259,34.180,-80.566,-49.316,24.414,0.000
1709215234.262,62.500,-91.797,-43.945,60.547,0.000
1709215234.266,70.312,-79.590,-45.898,76.660,0.000
1709215234.270,62.012,-69.824,-40.527,70.801,0.000
1709215234.274,52.734,-73.730,-40.527,59.570,0.000
1709215234.278,52.246,-70.801,-27.832,48.828,0.000
1709215234.282,60.059,-66.895,-15.625,58.594,0.000
1709215234.286,65.430,-78.125,-27.344,81.543,0.000
1709215234.289,54.199,-80.566,-35.645,77.148,0.000
1709215234.293,60.547,-67.871,-34.180,45.410,0.000
1709215234.297,52.246,-63.965,-33.203,28.320,0.000
1709215234.301,13.672,-57.129,-33.203,35.156,0.000
1709215234.305,32.227,-54.688,-33.203,52.734,0.000
1709215234.309,44.434,-66.406,-35.645,47.852,0.000
1709215234.313,31.250,-68.359,-36.133,35.156,0.000
1709215234.317,24.414,-67.383,-33.691,29.297,0.000
1709215234.321,18.555,-68.359,-32.715,21.484,0.000
1709215234.325,18.555,-63.965,-38.574,20.508,0.000
1709215234.329,19.043,-62.500,-42.480,29.297,0.000
1709215234.333,13.672,-68.848,-39.551,16.602,0.000
1709215234.337,0.488,-72.266,-44.434,-8.301,0.000
1709215234.341,-3.906,-51.758,-44.434,-14.160,0.000
1709215234.344,10.254,-40.039,-44.922,0.977,0.000
1709215234.348,16.602,-39.551,-45.898,10.742,0.000
1709215234.352,4.883,-49.316,-36.621,0.000,0.000
1709215234.356,-20.020,-58.105,-42.480,-16.602,0.000
1709215234.360,-14.160,-55.176,-44.434,-17.090,0.000
1709215234.364,-1.465,-56.641,-43.457,3.418,0.000
1709215234.368,15.137,-69.824,-40.039,23.926,0.000
1709215234.372,17.578,-68.848,-32.227,14.160,0.000
1709215234.376,-12.695,-55.176,-38.574,-12.207,0.000
1709215234.380,-21.484,-64.941,-41.504,-18.555,0.000
1709215234.384,-9.277,-65.918,-33.203,-4.395,0.000
1709215234.388,3.906,-51.758,-36.133,6.836,0.000
1709215234.392,-8.789,-55.176,-45.898,-3.418,0.000
1709215234.396,-32.715,-45.898,-41.992,-20.508,0.000
1709215234.399,-37.109,-44.434,-38.086,-26.367,0.000
1709215234.403,-22.949,-47.852,-39.062,-15.625,0.000
1709215234.407,-10.254,-50.293,-48.828,6.836,0.000
1709215234.411,-6.836,-54.199,-45.410,-1.465,0.000
1709215234.415,-18.555,-49.316,-33.203,-32.715,0.000
1709215234.419,-42.969,-58.594,-35.645,-36.133,0.000
1709215234.423,-30.762,-56.152,-39.551,-17.578,0.000
1709215234.427,-7.324,-57.617,-39.551,-0.488,0.000
1709215234.431,-2.441,-51.270,-35.156,-0.977,0.000
1709215234.435,-18.066,-25.879,-41.016,-17.578,0.000
1709215234.439,-29.785,-38.086,-42.480,-32.227,0.000
1709215234.443,-16.113,-53.711,-28.320,-15.137,0.000
1709215234.446,-3.418,-67.871,-24.902,11.719,0.000
1709215234.450,-6.836,-48.828,-35.156,8.789,0.000
1709215234.454,-19.531,-25.391,-37.109,-14.648,0.000
1709215234.458,-23.926,-30.762,-25.391,-27.344,0.000
1709215234.462,-29.297,-41.016,-27.344,-21.484,0.000
1709215234.466,-23.438,-42.480,-36.621,-5.371,0.000
1709215234.470,-8.301,-41.016,-34.180,2.930,0.000
1709215234.474,-10.742,-45.410,-29.297,-11.230,0.000
1709215234.478,-22.949,-43.457,-37.109,-26.367,0.000
1709215234.482,-34.180,-48.828,-33.203,-15.625,0.000
1709215234.486,-25.879,-53.711,-11.230,8.301,0.000
1709215234.489,-26.367,-45.898,-11.719,2.930,0.000
1709215234.493,-32.715,-57.617,-20.020,-13.184,0.000
1709215234.497,-48.828,-57.617,-29.785,-32.227,0.000
1709215234.501,-55.176,-44.922,-40.039,-44.922,0.000
1709215234.505,-46.387,-51.270,-43.945,-33.691,0.000
1709215234.509,-41.016,-43.457,-43.457,-15.625,0.000
1709215234.513,-31.250,-49.316,-36.133,-10.254,0.000
1709215234.517,-32.715,-59.082,-31.738,-35.645,0.000
1709215234.521,-28.320,-48.340,-31.738,-47.363,0.000
1709215234.525,-27.344,-42.480,-36.621,-35.645,0.000
1709215234.528,-33.203,-43.457,-43.945,-17.090,0.000
1709215234.532,-22.461,-39.551,-37.598,-18.555,0.000
1709215234.536,-26.367,-34.668,-42.480,-46.387,0.000
1709215234.540,-40.039,-46.875,-50.293,-57.617,0.000
1709215234.544,-32.227,-63.477,-38.574,-46.387,0.000
1709215234.548,-21.484,-46.387,-33.691,-36.133,0.000
1709215234.552,-23.926,-38.574,-38.086,-35.156,0.000
1709215234.556,-34.180,-39.062,-49.805,-43.457,0.000
1709215234.560,-42.480,-36.621,-48.340,-50.781,0.000
1709215234.563,-41.016,-41.504,-35.156,-40.039,0.000
1709215234.567,-13.184,-43.945,-33.203,-18.066,0.000
1709215234.571,-3.418,-56.152,-32.715,-11.230,0.000
1709215234.575,-35.156,-50.293,-37.598,-37.109,0.000
1709215234.579,-54.199,-32.227,-43.457,-61.035,0.000
1709215234.583,-47.363,-33.691,-37.109,-48.340,0.000
1709215234.587,-37.109,-40.527,-35.156,-27.832,0.000
1709215234.591,-36.133,-48.340,-37.598,-18.555,0.000
1709215234.594,-44.434,-49.316,-38.086,-39.062,0.000
1709215234.598,-59.082,-57.129,-36.621,-60.059,0.000
1709215234.602,-56.641,-64.941,-31.738,-42.969,0.000
1709215234.606,-34.180,-48.828,-34.668,-20.020,0.000
1709215234.610,-24.414,-39.551,-34.180,-18.555,0.000
1709215234.614,-32.715,-38.086,-32.715,-26.367,0.000
1709215234.618,-32.227,-39.551,-38.086,-32.715,0.000
1709215234.622,-35.645,-46.875,-47.852,-37.109,0.000
1709215234.626,-33.691,-39.062,-47.363,-29.297,0.000
1709215234.630,-20.020,-37.598,-41.504,-17.090,0.000
1709215234.633,-38.086,-47.363,-30.762,-33.203,0.000
1709215234.637,-55.176,-40.527,-25.879,-52.246,0.000
1709215234.641,-38.574,-46.387,-28.320,-42.480,0.000
1709215234.645,-5.859,-50.293,-29.297,-23.438,0.000
1709215234.649,-3.906,-32.227,-26.367,-14.648,0.000
1709215234.653,-30.273,-38.574,-29.297,-27.344,0.000
1709215234.657,-50.293,-43.945,-38.574,-43.457,0.000
1709215234.660,-50.781,-43.457,-36.621,-39.551,0.000
1709215234.664,-37.598,-61.523,-29.297,-12.695,0.000
1709215234.668,-29.785,-62.988,-33.203,-12.695,0.000
1709215234.672,-41.016,-45.898,-32.715,-41.016,0.000
1709215234.676,-51.270,-39.062,-26.367,-51.758,0.000
1709215234.680,-48.828,-36.133,-27.832,-45.410,0.000
1709215234.684,-47.852,-20.020,-25.391,-33.203,0.000
1709215234.688,-39.551,-34.668,-33.691,-25.879,0.000
1709215234.692,-36.133,-42.480,-32.715,-24.902,0.000
1709215234.696,-48.828,-28.809,-28.809,-32.715,0.000
1709215234.700,-45.410,-43.945,-37.109,-48.340,0.000
1709215234.704,-35.645,-47.363,-40.527,-45.410,0.000
1709215234.708,-29.785,-44.434,-40.039,-33.203,0.000
1709215234.712,-27.344,-47.852,-35.156,-44.922,0.000
1709215234.716,-49.316,-46.387,-31.250,-67.871,0.000
1709215234.719,-58.105,-47.363,-22.461,-66.895,0.000
1709215234.723,-45.898,-40.527,-25.879,-50.781,0.000
1709215234.727,-36.133,-33.691,-41.016,-41.992,0.000
1709215234.731,-51.270,-26.367,-43.457,-40.527,0.000
1709215234.735,-57.617,-32.715,-42.969,-45.410,0.000
1709215234.739,-59.082,-45.898,-38.086,-52.246,0.000
1709215234.743,-53.711,-39.551,-36.133,-47.363,0.000
1709215234.747,-41.016,-34.180,-45.410,-26.367,0.000
1709215234.751,-49.316,-32.227,-41.016,-31.250,0.000
1709215234.755,-59.082,-46.387,-35.645,-58.594,0.000
1709215234.759,-68.848,-50.781,-42.969,-70.312,0.000
1709215234.763,-54.688,-43.945,-42.969,-59.570,0.000
1709215234.767,-35.645,-47.363,-42.969,-30.762,0.000
1709215234.770,-41.504,-43.945,-48.828,-22.949,0.000
1709215234.774,-47.363,-55.176,-48.828,-51.758,0.000
1709215234.778,-46.875,-57.129,-50.781,-62.012,0.000
1709215234.782,-53.711,-57.129,-37.598,-42.969,0.000
1709215234.786,-53.223,-50.293,-32.227,-30.762,0.000
1709215234.790,-42.969,-45.898,-38.574,-30.273,0.000
1709215234.794,-46.387,-55.176,-35.645,-41.016,0.000
1709215234.798,-54.688,-56.641,-36.133,-60.547,0.000
1709215234.802,-49.316,-51.758,-41.504,-55.664,0.000
1709215234.806,-28.809,-41.504,-40.527,-34.180,0.000
1709215234.810,-15.137,-44.434,-41.504,-20.508,0.000
1709215234.814,-23.926,-57.617,-41.992,-23.438,0.000
1709215234.818,-38.086,-46.875,-41.016,-44.434,0.000
1709215234.821,-43.457,-29.785,-53.223,-59.082,0.000
1709215234.825,-19.043,-32.227,-46.387,-39.062,0.000
1709215234.829,-6.836,-41.016,-29.297,-12.207,0.000
1709215234.833,-30.762,-44.922,-44.434,-29.297,0.000
1709215234.837,-39.551,-24.414,-48.828,-62.500,0.000
1709215234.841,-34.180,-14.160,-38.086,-68.848,0.000
1709215234.845,-29.785,-24.902,-40.527,-51.758,0.000
1709215234.849,-11.719,-26.367,-35.645,-39.551,0.000
1709215234.853,-19.043,-25.879,-34.668,-51.270,0.000
1709215234.857,-49.316,-47.852,-46.875,-49.805,0.000
1709215234.861,-44.922,-47.363,-50.293,-45.410,0.000
1709215234.864,-24.902,-26.367,-42.480,-46.387,0.000
1709215234.868,-13.672,-25.879,-35.156,-30.762,0.000
1709215234.872,-6.836,-41.016,-48.828,-40.039,0.000
1709215234.876,-25.391,-43.945,-55.664,-67.871,0.000
1709215234.880,-48.340,-38.086,-41.016,-63.477,0.000
1709215234.884,-40.039,-41.016,-37.109,-51.758,0.000
1709215234.888,-22.949,-42.480,-39.062,-38.086,0.000
1709215234.892,-24.414,-46.387,-38.086,-33.691,0.000
1709215234.896,-40.527,-53.711,-37.109,-50.781,0.000
1709215234.900,-47.363,-41.992,-40.527,-48.340,0.000
1709215234.903,-44.922,-37.109,-42.969,-27.344,0.000
1709215234.907,-41.016,-43.945,-41.504,-20.508,0.000
1709215234.911,-35.156,-38.086,-39.062,-25.391,0.000
1709215234.915,-42.969,-43.457,-38.086,-31.738,0.000
1709215234.919,-65.918,-44.922,-37.598,-46.387,0.000
1709215234.923,-60.547,-40.527,-42.480,-44.434,0.000
1709215234.927,-51.270,-44.434,-46.875,-31.250,0.000
1709215234.931,-29.297,-51.758,-43.457,-28.809,0.000
1709215234.935,-40.039,-50.781,-36.621,-36.621,0.000
1709215234.938,-69.824,-41.016,-31.738,-44.922,0.000
1709215234.942,-51.270,-37.598,-40.527,-36.621,0.000
1709215234.946,-37.598,-50.781,-50.293,-17.578,0.000
1709215234.950,-33.203,-56.641,-54.688,0.488,0.000
1709215234.954,-38.086,-47.363,-41.504,-12.695,0.000
1709215234.958,-55.176,-50.293,-35.645,-40.527,0.000
1709215234.962,-52.246,-43.945,-36.621,-41.504,0.000
1709215234.966,-32.227,-29.785,-29.785,-18.555,0.000
1709215234.969,-32.715,-36.133,-35.645,-24.414,0.000
1709215234.973,-41.016,-41.992,-32.227,-32.227,0.000
1709215234.977,-46.875,-49.805,-31.250,-34.668,0.000
1709215234.981,-53.711,-55.664,-40.527,-44.434,0.000
1709215234.985,-37.598,-55.664,-37.598,-41.016,0.000
1709215234.989,-8.301,-54.199,-32.715,-31.250,0.000
1709215234.993,-27.344,-39.551,-38.086,-28.809,0.000
1709215234.997,-61.523,-38.086,-42.480,-50.293,0.000
1709215235.001,-58.105,-42.480,-39.551,-58.594,0.000
1709215235.005,-36.133,-43.457,-32.227,-32.227,0.000
1709215235.008,-22.461,-39.062,-31.738,-33.203,0.000
1709215235.012,-39.062,-34.668,-37.109,-49.805,0.000
1709215235.016,-53.223,-44.922,-43.457,-63.477,0.000
1709215235.020,-51.758,-48.828,-47.852,-67.871,0.000
1709215235.024,-44.434,-47.363,-46.387,-50.781,0.000
1709215235.028,-30.273,-52.734,-48.828,-29.785,0.000
1709215235.032,-25.879,-62.500,-44.922,-27.344,0.000
1709215235.035,-44.922,-57.617,-38.574,-50.781,0.000
1709215235.039,-66.406,-41.504,-50.781,-66.895,0.000
1709215235.043,-49.316,-37.109,-52.734,-56.152,0.000
1709215235.047,-19.043,-33.203,-40.039,-39.551,0.000
1709215235.051,-40.039,-31.250,-36.621,-41.992,0.000
1709215235.055,-46.387,-49.805,-41.504,-50.293,0.000
1709215235.059,-40.527,-61.035,-41.504,-56.152,0.000
1709215235.063,-50.293,-46.875,-39.551,-41.504,0.000
1709215235.067,-44.922,-33.203,-36.621,-26.367,0.000
1709215235.071,-36.133,-32.715,-35.156,-35.156,0.000
1709215235.075,-47.363,-41.504,-37.109,-50.293,0.000
1709215235.079,-56.641,-45.898,-37.109,-54.199,0.000
1709215235.083,-39.551,-52.734,-36.621,-24.902,0.000
1709215235.087,-21.484,-52.734,-37.109,-9.766,0.000
1709215235.091,-29.785,-37.109,-39.551,-27.344,0.000
1709215235.094,-36.621,-39.551,-42.969,-39.062,0.000
1709215235.098,-38.086,-41.016,-34.668,-31.250,0.000
1709215235.102,-38.086,-32.715,-32.227,-33.691,0.000
1709215235.106,-15.137,-42.969,-42.480,-26.367,0.000
1709215235.110,-23.438,-74.219,-37.109,-9.277,0.000
1709215235.114,-42.969,-63.965,-35.645,-23.926,0.000
1709215235.118,-47.852,-32.227,-41.016,-55.176,0.000
1709215235.122,-41.016,-44.434,-39.551,-51.758,0.000
1709215235.126,-21.973,-49.805,-34.180,-17.090,0.000
1709215235.130,-20.020,-28.809,-32.227,-16.602,0.000
1709215235.134,-37.109,-26.855,-40.527,-31.250,0.000
1709215235.138,-48.340,-33.691,-41.504,-41.016,0.000
1709215235.142,-36.621,-37.109,-27.832,-36.621,0.000
1709215235.146,-17.090,-31.738,-30.273,-16.602,0.000
1709215235.149,-14.160,-25.391,-34.668,-25.391,0.000
1709215235.153,-20.996,-28.320,-28.809,-32.227,0.000
1709215235.157,-51.758,-43.457,-34.668,-43.945,0.000
1709215235.161,-70.312,-47.363,-43.457,-55.176,0.000
1709215235.165,-49.805,-47.852,-39.551,-38.086,0.000
1709215235.169,-32.715,-55.176,-33.691,-21.973,0.000
1709215235.173,-38.574,-69.824,-34.668,-28.320,0.000
1709215235.177,-59.082,-53.223,-35.156,-54.199,0.000
1709215235.181,-66.895,-21.484,-38.086,-50.293,0.000
1709215235.185,-33.691,-26.367,-38.574,-18.066,0.000
1709215235.189,-5.859,-19.531,-31.738,-3.418,0.000
1709215235.193,-20.020,-18.066,-30.273,-18.555,0.000
1709215235.196,-51.270,-31.738,-29.785,-33.691,0.000
1709215235.200,-53.223,-44.922,-30.762,-42.480,0.000
1709215235.205,-39.062,-44.922,-39.551,-31.738,0.000
1709215235.209,-44.434,-45.410,-29.785,-16.602,0.000
1709215235.213,-41.016,-48.828,-21.484,-21.484,0.000
1709215235.217,-50.781,-45.410,-36.621,-44.922,0.000
1709215235.221,-60.059,-50.781,-39.551,-48.828,0.000
1709215235.225,-39.062,-47.363,-35.645,-27.344,0.000
1709215235.229,-24.414,-43.945,-35.645,-17.578,0.000
1709215235.232,-30.273,-44.434,-36.621,-18.066,0.000
1709215235.236,-46.387,-31.738,-36.133,-33.691,0.000
1709215235.240,-59.082,-30.762,-29.785,-42.969,0.000
1709215235.244,-36.133,-37.109,-25.879,-21.484,0.000
1709215235.248,-0.977,-39.062,-32.227,-10.254,0.000
1709215235.252,-16.602,-45.410,-45.410,-22.949,0.000
1709215235.256,-39.062,-48.340,-36.621,-41.504,0.000
1709215235.260,-48.340,-37.598,-31.250,-46.875,0.000
1709215235.264,-40.039,-42.480,-40.527,-34.180,0.000
1709215235.268,-13.672,-45.898,-41.504,-17.090,0.000
1709215235.271,-13.184,-33.691,-39.551,-21.973,0.000
1709215235.275,-28.809,-38.086,-36.133,-42.480,0.000
1709215235.279,-42.480,-44.434,-28.809,-51.270,0.000
1709215235.283,-41.504,-29.297,-25.391,-42.480,0.000
1709215235.287,-28.809,-41.504,-31.738,-17.578,0.000
1709215235.291,-0.488,-56.641,-32.715,-9.766,0.000
1709215235.295,-16.113,-24.414,-27.832,-28.809,0.000
1709215235.299,-65.918,-20.996,-33.203,-55.664,0.000
1709215235.302,-56.641,-32.715,-35.156,-57.617,0.000
1709215235.306,-27.832,-32.715,-36.621,-35.645,0.000
1709215235.310,-27.832,-41.504,-31.250,-27.344,0.000
1709215235.314,-41.016,-35.645,-37.109,-43.457,0.000
1709215235.318,-55.664,-36.133,-46.875,-54.688,0.000
1709215235.322,-49.805,-47.363,-44.434,-48.828,0.000
1709215235.326,-35.156,-43.945,-38.574,-39.551,0.000
1709215235.330,-30.762,-39.551,-24.902,-38.086,0.000
1709215235.334,-31.738,-29.297,-23.438,-43.945,0.000
1709215235.338,-43.457,-31.738,-35.156,-64.453,0.000
1709215235.341,-59.082,-39.551,-40.527,-64.453,0.000
1709215235.345,-45.898,-38.574,-37.598,-45.410,0.000
1709215235.349,-25.391,-44.434,-32.227,-32.715,0.000
1709215235.353,-24.902,-41.992,-31.738,-35.156,0.000
1709215235.357,-28.809,-34.180,-26.855,-42.969,0.000
1709215235.361,-33.203,-41.992,-22.949,-46.875,0.000
1709215235.365,-30.273,-50.293,-22.949,-38.574,0.000
1709215235.369,-22.461,-39.062,-29.785,-20.996,0.000
1709215235.372,-30.762,-38.086,-41.016,-18.066,0.000
1709215235.376,-49.805,-51.758,-37.598,-41.992,0.000
1709215235.380,-56.152,-41.504,-35.156,-62.988,0.000
1709215235.384,-42.480,-32.227,-33.203,-48.828,0.000
1709215235.388,-20.996,-43.945,-34.668,-27.832,0.000
1709215235.392,-13.184,-43.457,-45.898,-30.273,0.000
1709215235.395,-34.668,-38.086,-41.992,-55.664,0.000
1709215235.399,-45.898,-47.852,-34.180,-65.918,0.000
1709215235.403,-37.598,-46.875,-37.598,-45.410,0.000
1709215235.407,-22.949,-45.410,-37.598,-27.832,0.000
1709215235.411,-20.508,-55.664,-33.203,-20.508,0.000
1709215235.415,-41.992,-46.387,-31.250,-30.273,0.000
1709215235.419,-46.875,-46.387,-27.832,-45.410,0.000
1709215235.423,-31.250,-52.246,-27.832,-26.367,0.000
1709215235.427,-23.926,-45.410,-34.180,-5.859,0.000
1709215235.431,-24.902,-41.504,-41.016,-20.996,0.000
1709215235.435,-23.438,-32.715,-41.504,-45.898,0.000
1709215235.439,-45.898,-44.434,-39.551,-54.688,0.000
1709215235.443,-57.617,-70.312,-44.434,-44.922,0.000
1709215235.447,-41.016,-51.270,-39.062,-36.133,0.000
1709215235.451,-42.969,-30.273,-44.922,-39.551,0.000
1709215235.454,-42.480,-34.668,-42.969,-41.504,0.000
1709215235.458,-61.035,-34.180,-25.391,-56.152,0.000
1709215235.462,-51.758,-32.715,-26.367,-54.199,0.000
1709215235.466,-27.832,-33.691,-28.809,-36.621,0.000
1709215235.470,-34.180,-46.387,-30.273,-23.926,0.000
1709215235.474,-48.828,-50.781,-38.574,-38.086,0.000
1709215235.478,-63.965,-41.504,-43.945,-52.246,0.000
1709215235.482,-59.570,-38.574,-38.574,-40.039,0.000
1709215235.486,-41.992,-39.062,-36.621,-29.297,0.000
1709215235.490,-22.461,-46.875,-41.016,-26.367,0.000
1709215235.494,-36.621,-43.945,-38.574,-37.109,0.000
1709215235.498,-55.664,-30.762,-36.621,-53.223,0.000
1709215235.502,-48.828,-29.297,-39.551,-54.199,0.000
1709215235.505,-33.203,-38.086,-36.621,-41.504,0.000
1709215235.509,-26.367,-45.410,-34.668,-30.762,0.000
1709215235.513,-42.480,-42.480,-42.969,-46.875,0.000
1709215235.517,-43.945,-42.969,-38.574,-53.711,0.000
1709215235.521,-34.180,-41.992,-36.621,-44.922,0.000
1709215235.525,-32.715,-37.598,-48.340,-33.691,0.000
1709215235.529,-26.367,-47.363,-36.133,-24.414,0.000
1709215235.533,-29.297,-44.434,-30.273,-34.180,0.000
1709215235.537,-27.832,-42.969,-40.039,-48.828,0.000
1709215235.541,-27.832,-51.758,-44.922,-44.434,0.000
1709215235.545,-36.621,-43.945,-41.992,-24.902,0.000
1709215235.549,-33.691,-42.480,-33.203,-15.137,0.000
1709215235.552,-29.297,-35.156,-33.203,-17.578,0.000
1709215235.556,-34.668,-34.180,-37.109,-29.297,0.000
1709215235.560,-33.691,-59.082,-43.457,-29.785,0.000
1709215235.564,-25.391,-50.293,-37.598,-26.855,0.000
1709215235.568,-26.367,-26.367,-34.668,-36.133,0.000
1709215235.572,-28.809,-25.391,-29.785,-35.645,0.000
1709215235.576,-42.969,-40.527,-31.250,-44.434,0.000
1709215235.580,-54.688,-49.805,-42.480,-56.152,0.000
1709215235.584,-30.273,-46.875,-38.574,-44.922,0.000
1709215235.588,-20.508,-47.852,-34.180,-36.133,0.000
1709215235.592,-44.922,-52.246,-40.039,-35.156,0.000
1709215235.595,-53.711,-60.059,-44.434,-45.410,0.000
1709215235.599,-47.852,-69.336,-44.922,-54.688,0.000
1709215235.603,-42.480,-56.641,-37.109,-49.316,0.000
1709215235.607,-34.180,-39.062,-26.855,-30.762,0.000
1709215235.611,-21.484,-26.855,-22.949,-15.625,0.000
1709215235.615,-26.855,-22.949,-31.250,-35.156,0.000
1709215235.619,-40.527,-28.320,-33.203,-51.270,0.000
1709215235.623,-26.367,-31.738,-28.809,-37.598,0.000
1709215235.627,-6.348,-29.297,-32.227,-17.090,0.000
1709215235.631,-22.949,-26.855,-41.016,-22.949,0.000
1709215235.635,-38.086,-35.645,-45.410,-41.992,0.000
1709215235.639,-37.598,-41.504,-38.574,-48.340,0.000
1709215235.643,-50.293,-40.527,-39.551,-40.039,0.000
1709215235.647,-32.715,-45.898,-42.969,-24.414,0.000
1709215235.651,-14.648,-51.270,-41.504,-22.461,0.000
1709215235.655,-22.461,-49.805,-43.945,-26.855,0.000
1709215235.659,-29.785,-40.527,-45.898,-36.621,0.000
1709215235.663,-30.273,-34.668,-34.180,-36.133,0.000
1709215235.666,-19.043,-42.480,-37.109,-11.230,0.000
1709215235.670,-18.555,-41.016,-41.016,-6.836,0.000
1709215235.674,-37.598,-28.809,-38.574,-31.738,0.000
1709215235.678,-42.969,-28.809,-33.691,-47.363,0.000
1709215235.682,-41.504,-35.156,-27.832,-43.457,0.000
1709215235.686,-22.949,-37.598,-34.180,-26.855,0.000
1709215235.690,-18.066,-41.992,-30.762,-21.484,0.000
1709215235.694,-36.133,-40.039,-26.855,-39.062,0.000
1709215235.697,-54.688,-36.133,-32.715,-55.664,0.000
1709215235.701,-58.594,-42.969,-34.180,-47.852,0.000
1709215235.705,-36.621,-46.875,-32.227,-27.832,0.000
1709215235.709,-26.855,-48.828,-31.250,-18.555,0.000
1709215235.713,-22.949,-41.504,-31.250,-13.672,0.000
1709215235.717,-31.250,-34.668,-32.715,-21.484,0.000
1709215235.721,-39.062,-41.992,-39.551,-44.434,0.000
1709215235.724,-25.879,-28.809,-40.039,-29.785,0.000
1709215235.728,-19.531,-35.156,-47.363,-11.719,0.000
1709215235.732,-28.809,-47.852,-47.363,-31.250,0.000
1709215235.736,-45.898,-36.621,-33.203,-52.246,0.000
1709215235.740,-52.246,-35.645,-29.785,-50.781,0.000
1709215235.744,-39.062,-42.480,-30.273,-32.227,0.000
1709215235.748,-22.949,-33.691,-31.738,-17.090,0.000
1709215235.752,-22.461,-35.156,-34.668,-26.855,0.000
1709215235.756,-35.156,-50.293,-30.762,-44.434,0.000
1709215235.760,-41.504,-51.270,-26.855,-45.410,0.000
1709215235.764,-49.316,-39.551,-34.180,-35.156,0.000
1709215235.767,-35.156,-34.668,-35.156,-24.414,0.000
1709215235.771,-19.043,-43.945,-28.320,-20.996,0.000
1709215235.775,-32.715,-39.062,-27.832,-29.785,0.000
1709215235.779,-52.246,-32.715,-27.832,-38.086,0.000
1709215235.783,-46.875,-39.551,-32.715,-35.156,0.000
1709215235.787,-30.762,-43.945,-32.227,-19.043,0.000
1709215235.790,-24.902,-48.828,-28.320,-9.277,0.000
1709215235.794,-36.621,-52.246,-36.133,-36.621,0.000
1709215235.798,-43.457,-49.805,-42.480,-58.105,0.000
1709215235.802,-42.969,-42.969,-39.062,-49.805,0.000
1709215235.806,-45.410,-41.016,-40.527,-28.809,0.000
1709215235.810,-34.668,-55.664,-39.551,-15.625,0.000
1709215235.814,-32.227,-50.781,-38.086,-24.414,0.000
1709215235.818,-45.410,-41.016,-40.527,-49.805,0.000
1709215235.822,-54.688,-36.133,-40.039,-59.082,0.000
1709215235.826,-37.598,-29.297,-37.598,-40.039,0.000
1709215235.830,-19.043,-30.762,-37.598,-18.555,0.000
1709215235.834,-29.785,-39.062,-39.062,-31.250,0.000
1709215235.838,-55.176,-37.109,-37.598,-59.570,0.000
1709215235.842,-49.316,-30.273,-36.133,-62.012,0.000
1709215235.845,-26.855,-41.992,-42.969,-39.551,0.000
1709215235.849,-28.809,-42.480,-42.969,-15.137,0.000
1709215235.853,-43.457,-36.621,-38.086,-31.738,0.000
1709215235.857,-59.570,-61.035,-34.180,-54.199,0.000
1709215235.861,-52.734,-64.453,-30.273,-47.363,0.000
1709215235.865,-39.551,-40.039,-32.715,-37.109,0.000
1709215235.869,-24.902,-33.203,-35.156,-31.738,0.000
1709215235.873,-32.227,-32.227,-35.156,-42.480,0.000
1709215235.877,-50.781,-31.250,-34.180,-61.035,0.000
1709215235.881,-49.316,-40.039,-40.527,-61.523,0.000
1709215235.885,-56.641,-43.457,-46.875,-48.828,0.000
1709215235.889,-40.527,-42.969,-41.992,-34.668,0.000
1709215235.893,-25.391,-46.387,-39.062,-26.367,0.000
1709215235.896,-60.547,-41.016,-47.852,-46.387,0.000
1709215235.900,-70.801,-46.387,-45.898,-59.082,0.000
1709215235.904,-48.828,-51.270,-39.551,-42.480,0.000
1709215235.908,-33.203,-53.223,-45.410,-34.180,0.000
1709215235.912,-25.391,-55.176,-49.805,-31.738,0.000
1709215235.916,-36.133,-37.598,-42.480,-47.852,0.000
1709215235.920,-33.691,-28.320,-35.645,-56.152,0.000
1709215235.924,-24.902,-31.738,-36.621,-37.598,0.000
1709215235.928,-23.926,-25.879,-33.691,-17.578,0.000
1709215235.932,-11.719,-32.227,-36.133,-20.996,0.000
1709215235.936,-21.973,-39.062,-39.551,-45.410,0.000
1709215235.939,-37.109,-26.855,-30.762,-42.480,0.000
1709215235.943,-35.156,-20.508,-29.785,-26.367,0.000
1709215235.947,-20.996,-34.668,-32.227,-17.090,0.000
1709215235.951,-15.625,-41.992,-31.738,-9.766,0.000
1709215235.955,-20.508,-38.086,-31.250,-30.273,0.000
1709215235.959,-41.016,-41.016,-38.574,-53.223,0.000
1709215235.963,-33.203,-31.250,-45.898,-39.062,0.000
1709215235.967,-14.648,-20.020,-33.691,-21.484,0.000
1709215235.971,-30.762,-28.320,-32.715,-22.461,0.000
1709215235.975,-41.992,-38.574,-35.156,-30.273,0.000
1709215235.979,-37.109,-37.109,-34.668,-43.945,0.000
1709215235.982,-39.062,-35.645,-36.133,-43.457,0.000
1709215235.986,-35.645,-21.484,-31.738,-27.832,0.000
1709215235.990,-28.320,-20.996,-31.250,-31.250,0.000
1709215235.994,-44.434,-41.992,-36.133,-44.922,0.000
1709215235.998,-45.898,-51.758,-30.273,-43.945,0.000
1709215236.002,-41.992,-37.598,-30.273,-26.367,0.000
1709215236.006,-28.809,-23.926,-37.598,-25.391,0.000
1709215236.010,-18.066,-25.391,-34.180,-28.320,0.000
1709215236.014,-41.992,-33.203,-32.715,-32.715,0.000
1709215236.017,-61.523,-30.762,-40.039,-48.828,0.000
1709215236.021,-67.383,-30.762,-43.945,-51.270,0.000
1709215236.025,-49.316,-31.250,-38.086,-37.109,0.000
1709215236.029,-40.527,-29.785,-28.320,-29.785,0.000
1709215236.033,-45.410,-29.785,-32.227,-49.316,0.000
1709215236.037,-50.781,-34.668,-37.598,-61.523,0.000
1709215236.041,-45.410,-37.598,-36.621,-45.898,0.000
1709215236.045,-36.133,-49.805,-30.762,-34.668,0.000
1709215236.049,0.000,-47.363,-32.715,-34.180,0.000
1709215236.053,0.000,-42.969,-39.551,-40.527,0.000
1709215236.056,0.000,-54.688,-41.504,-41.016,0.000
1709215236.060,0.000,-42.969,-44.434,-47.363,0.000
1709215236.064,0.000,-27.344,-41.504,-36.133,0.000
1709215236.068,0.000,-27.344,-41.016,-20.508,0.000
1709215236.072,0.000,-42.969,-44.922,-23.926,0.000
1709215236.076,0.000,-48.340,-49.316,-34.180,0.000
1709215236.080,0.000,-33.203,-55.176,-41.016,0.000
1709215236.084,0.000,-34.668,-51.270,-37.598,0.000
1709215236.088,0.000,-48.340,-39.551,-21.484,0.000
1709215236.092,0.000,-42.969,-34.668,-19.531,0.000
1709215236.095,-49.316,-31.250,-43.945,-53.711,0.000
1709215236.099,-60.547,-30.762,-51.270,-74.219,0.000
1709215236.103,-55.664,-46.387,-51.758,-44.922,0.000
1709215236.107,-34.180,-52.246,-48.828,-25.879,0.000
1709215236.111,-25.879,-38.574,-46.875,-34.180,0.000
1709215236.115,-35.156,-38.574,-45.898,-52.246,0.000
1709215236.119,-52.246,-44.922,-42.969,-53.711,0.000
1709215236.122,-45.898,-59.570,-37.109,-33.203,0.000
1709215236.126,-20.020,-49.805,-35.645,-13.184,0.000
1709215236.130,-22.949,-33.203,-38.574,-6.348,0.000
1709215236.134,-27.344,-36.133,-40.039,-18.555,0.000
1709215236.138,-30.273,-34.668,-39.551,-20.020,0.000
1709215236.142,-32.227,-25.391,-36.133,-20.996,0.000
1709215236.146,-16.602,-27.832,-32.227,-5.859,0.000
1709215236.149,-13.672,-44.434,-43.457,1.465,0.000
1709215236.153,-11.719,-43.457,-42.480,-29.785,0.000
1709215236.157,-37.109,-35.645,-25.391,-54.199,0.000
1709215236.161,-67.383,-34.668,-27.832,-55.664,0.000
1709215236.165,-49.805,-42.480,-24.414,-35.645,0.000
1709215236.169,-36.621,-42.480,-24.902,-13.184,0.000
1709215236.173,-31.738,-44.922,-33.203,-28.320,0.000
1709215236.177,-35.156,-39.062,-31.738,-60.059,0.000
1709215236.181,-50.293,-34.180,-31.738,-57.129,0.000
1709215236.185,-38.086,-41.992,-34.668,-40.039,0.000
1709215236.189,-12.207,-38.086,-37.598,-40.527,0.000
1709215236.193,-5.371,-31.250,-37.109,-44.922,0.000
1709215236.197,-24.902,-37.109,-35.156,-46.387,0.000
1709215236.201,-31.738,-44.922,-33.203,-46.875,0.000
1709215236.204,-16.113,-43.457,-31.738,-27.344,0.000
1709215236.208,-4.395,-30.273,-33.691,-14.648,0.000
1709215236.212,-14.648,-26.855,-33.203,-20.020,0.000
1709215236.216,-39.062,-41.016,-30.762,-32.227,0.000
1709215236.220,-49.805,-39.062,-34.180,-43.457,0.000
1709215236.224,-39.551,-23.926,-35.645,-30.762,0.000
1709215236.228,-22.461,-35.156,-33.203,-17.578,0.000
1709215236.232,-16.602,-40.527,-37.598,-28.809,0.000
1709215236.236,-60.059,-33.691,-41.504,-50.293,0.000
1709215236.240,-86.426,-42.480,-41.992,-61.035,0.000
1709215236.244,-61.035,-48.340,-45.898,-41.504,0.000
1709215236.248,-46.875,-40.527,-34.180,-25.391,0.000
1709215236.252,-49.805,-42.480,-25.391,-39.551,0.000
1709215236.255,-56.641,-51.270,-26.855,-40.527,0.000
1709215236.259,-59.570,-45.898,-26.855,-39.551,0.000
1709215236.263,-53.711,-41.992,-24.902,-46.875,0.000
1709215236.267,-26.855,-48.340,-27.832,-21.484,0.000
1709215236.271,-40.527,-56.152,-28.809,-3.418,0.000
1709215236.275,-60.547,-43.945,-23.926,-27.344,0.000
1709215236.279,-47.363,-43.945,-20.996,-48.828,0.000
1709215236.283,-42.969,-51.270,-35.645,-42.969,0.000
1709215236.287,-33.691,-51.270,-39.551,-26.367,0.000
1709215236.291,-35.156,-47.852,-33.203,-30.273,0.000
1709215236.295,-36.133,-35.645,-43.457,-48.828,0.000
1709215236.299,-34.668,-33.203,-45.898,-62.012,0.000
1709215236.302,-47.363,-36.621,-39.551,-50.781,0.000
1709215236.306,-39.551,-37.598,-37.598,-30.762,0.000
1709215236.310,-34.180,-41.992,-39.551,-34.180,0.000
1709215236.314,-40.039,-42.480,-41.504,-38.086,0.000
1709215236.318,-35.645,-35.156,-38.086,-42.480,0.000
1709215236.322,-30.762,-31.250,-34.668,-49.805,0.000
1709215236.326,-29.297,-41.504,-43.457,-42.480,0.000
1709215236.330,-31.738,-40.527,-41.992,-32.715,0.000
1709215236.334,-34.180,-34.668,-38.086,-36.133,0.000
1709215236.338,-42.480,-40.039,-42.969,-55.176,0.000
1709215236.342,-40.527,-46.387,-42.969,-59.082,0.000
1709215236.345,-29.297,-39.551,-42.480,-36.133,0.000
1709215236.349,-13.672,-37.598,-37.109,-28.320,0.000
1709215236.353,-19.531,-43.945,-29.785,-35.645,0.000
1709215236.357,-46.875,-55.176,-32.227,-41.504,0.000
1709215236.361,-46.387,-47.363,-41.504,-41.016,0.000
1709215236.365,-26.367,-30.762,-34.668,-30.273,0.000
1709215236.369,-25.879,-35.645,-21.973,-20.508,0.000
1709215236.373,-38.574,-52.246,-24.902,-17.578,0.000
1709215236.377,-53.711,-55.176,-25.879,-21.973,0.000
1709215236.380,-55.664,-38.086,-23.926,-45.898,0.000
1709215236.384,-47.852,-39.062,-28.809,-40.527,0.000
1709215236.388,-35.156,-52.246,-33.691,-26.855,0.000
1709215236.392,-36.621,-53.223,-40.039,-41.016,0.000
1709215236.396,-48.828,-43.945,-47.852,-55.176,0.000
1709215236.400,-47.852,-42.969,-53.223,-66.406,0.000
1709215236.404,-50.781,-49.805,-48.828,-46.875,0.000
1709215236.408,-47.852,-55.664,-42.969,-36.133,0.000
1709215236.412,-42.969,-47.852,-42.969,-49.316,0.000
1709215236.416,-59.082,-42.969,-53.223,-62.012,0.000
1709215236.420,-60.059,-51.270,-53.711,-70.801,0.000
1709215236.423,-43.945,-46.387,-34.180,-62.500,0.000
1709215236.427,-13.184,-28.809,-23.926,-36.621,0.000
1709215236.431,-11.719,-37.109,-29.785,-30.762,0.000
1709215236.435,-39.062,-43.457,-34.180,-38.574,0.000
1709215236.439,-42.480,-34.668,-41.504,-41.016,0.000
1709215236.443,-31.250,-40.527,-39.551,-23.438,0.000
1709215236.447,-6.836,-41.992,-30.273,6.348,0.000
1709215236.451,0.000,-31.738,-38.574,3.906,0.000
1709215236.455,-24.414,-35.156,-41.992,-30.273,0.000
1709215236.458,-34.180,-39.062,-38.086,-42.969,0.000
1709215236.462,-20.508,-37.598,-36.621,-22.461,0.000
1709215236.466,-1.465,-37.109,-33.203,-8.301,0.000
1709215236.470,0.977,-36.133,-35.645,-15.137,0.000
1709215236.474,-29.297,-30.273,-32.715,-26.367,0.000
1709215236.478,-47.852,-26.855,-23.926,-27.832,0.000
1709215236.482,-37.598,-32.715,-31.738,-22.461,0.000
1709215236.485,-21.484,-40.527,-37.109,-18.066,0.000
1709215236.489,-28.809,-49.316,-35.156,-21.973,0.000
1709215236.493,-42.969,-48.340,-38.086,-28.809,0.000
1709215236.497,-44.434,-30.762,-33.203,-40.527,0.000
1709215236.501,-56.641,-32.715,-28.809,-46.387,0.000
1709215236.505,-48.340,-42.480,-39.062,-31.738,0.000
1709215236.509,-28.320,-37.598,-41.504,-26.855,0.000
1709215236.513,-41.016,-33.203,-40.527,-38.086,0.000
1709215236.516,-58.594,-37.109,-37.598,-50.293,0.000
1709215236.520,-48.828,-41.504,-31.250,-43.945,0.000
1709215236.524,-39.551,-40.527,-37.109,-22.949,0.000
1709215236.528,-30.762,-42.969,-45.410,-25.391,0.000
1709215236.532,-32.227,-39.551,-41.992,-41.992,0.000
1709215236.536,-39.551,-37.598,-35.156,-46.387,0.000
1709215236.540,-50.293,-47.363,-38.086,-47.363,0.000
1709215236.544,-45.410,-50.293,-36.621,-35.645,0.000
1709215236.548,-23.926,-47.363,-35.645,-20.996,0.000
1709215236.552,-24.414,-46.875,-30.762,-17.090,0.000
1709215236.555,-25.391,-47.363,-24.414,-30.273,0.000
1709215236.559,-28.809,-46.387,-26.367,-39.062,0.000
1709215236.564,-25.391,-47.363,-27.344,-19.043,0.000
1709215236.568,-18.555,-48.340,-28.809,-9.766,0.000
1709215236.571,-28.320,-35.156,-43.945,-17.578,0.000
1709215236.575,-31.250,-31.250,-42.480,-37.598,0.000
1709215236.579,-45.898,-26.855,-27.832,-51.758,0.000
1709215236.583,-58.105,-26.367,-27.832,-40.527,0.000
1709215236.587,-33.203,-24.414,-23.926,-20.020,0.000
1709215236.591,-31.738,-27.344,-22.461,-15.625,0.000
1709215236.595,-44.922,-42.969,-21.973,-27.832,0.000
1709215236.599,-49.805,-42.969,-19.043,-30.273,0.000
1709215236.603,-49.316,-44.922,-21.973,-27.344,0.000
1709215236.607,-52.734,-46.875,-33.203,-20.996,0.000
1709215236.611,-42.480,-41.504,-40.039,-22.461,0.000
1709215236.615,-45.898,-37.109,-35.156,-34.668,0.000
1709215236.619,-61.523,-47.363,-28.809,-38.574,0.000
1709215236.622,-47.852,-48.828,-26.855,-36.621,0.000
1709215236.626,-44.434,-43.945,-29.785,-17.090,0.000
1709215236.630,-50.293,-52.734,-30.273,-20.508,0.000
1709215236.634,-67.871,-37.598,-34.668,-62.500,0.000
1709215236.638,-77.637,-25.391,-43.945,-76.660,0.000
1709215236.642,-69.824,-31.738,-44.434,-60.059,0.000
1709215236.646,-43.457,-33.691,-37.598,-41.992,0.000
1709215236.650,-20.508,-34.668,-30.273,-29.785,0.000
1709215236.654,-49.805,-56.152,-30.762,-41.992,0.000
1709215236.658,-57.617,-52.246,-37.109,-64.453,0.000
1709215236.662,-48.340,-29.785,-39.062,-60.059,0.000
1709215236.666,-44.434,-36.133,-35.645,-51.270,0.000
1709215236.669,-23.926,-38.086,-31.250,-38.574,0.000
1709215236.673,-28.809,-37.109,-44.922,-47.363,0.000
1709215236.677,-39.062,-45.410,-44.434,-52.734,0.000
1709215236.681,-26.855,-51.758,-39.062,-43.945,0.000
1709215236.685,-10.742,-52.734,-41.992,-30.762,0.000
1709215236.689,-18.555,-54.688,-39.551,-18.066,0.000
1709215236.693,-40.527,-42.480,-40.527,-34.668,0.000
1709215236.697,-53.223,-38.574,-49.805,-53.711,0.000
1709215236.701,-48.828,-48.340,-53.223,-42.480,0.000
1709215236.705,-31.250,-43.457,-46.875,-28.320,0.000
1709215236.709,-21.484,-27.832,-39.062,-15.625,0.000
1709215236.712,-20.020,-35.156,-39.062,-12.695,0.000
1709215236.716,-39.062,-53.711,-52.246,-38.086,0.000
1709215236.720,-57.617,-48.828,-46.875,-41.016,0.000
1709215236.724,-53.711,-44.922,-33.203,-23.438,0.000
1709215236.728,-35.645,-48.340,-32.715,-20.996,0.000
1709215236.732,-36.621,-57.129,-41.504,-30.762,0.000
1709215236.736,-50.293,-53.711,-48.828,-51.270,0.000
1709215236.740,-67.383,-44.434,-49.805,-70.801,0.000
1709215236.744,-69.336,-39.551,-43.457,-52.734,0.000
1709215236.748,-43.457,-29.785,-36.621,-32.715,0.000
1709215236.752,-47.363,-36.621,-38.574,-38.574,0.000
1709215236.756,-63.477,-40.039,-42.969,-54.199,0.000
1709215236.760,-63.965,-36.621,-45.410,-55.664,0.000
1709215236.764,-57.617,-43.457,-53.223,-61.035,0.000
1709215236.768,-43.945,-46.875,-54.688,-58.594,0.000
1709215236.772,-40.527,-42.480,-53.223,-52.734,0.000
1709215236.776,-37.109,-43.945,-50.781,-65.918,0.000
1709215236.780,-38.086,-42.480,-43.457,-54.688,0.000
1709215236.783,-45.410,-36.133,-48.828,-35.645,0.000
1709215236.787,-35.645,-41.504,-49.316,-26.855,0.000
1709215236.791,-19.043,-45.410,-40.039,-32.227,0.000
1709215236.795,-4.395,-38.574,-38.086,-44.922,0.000
1709215236.799,-30.762,-38.574,-39.551,-44.922,0.000
1709215236.803,-40.039,-46.875,-36.621,-31.738,0.000
1709215236.807,-9.766,-44.434,-31.250,-9.766,0.000
1709215236.811,-7.812,-40.039,-32.227,-7.324,0.000
1709215236.814,-17.090,-38.574,-33.691,-16.113,0.000
1709215236.818,-35.156,-29.785,-32.227,-25.391,0.000
1709215236.822,-37.598,-26.367,-34.180,-29.785,0.000
1709215236.826,-11.230,-29.785,-31.738,-19.531,0.000
1709215236.830,-16.113,-32.715,-33.691,-7.324,0.000
1709215236.834,-20.020,-37.598,-41.992,-16.113,0.000
1709215236.838,-38.574,-44.922,-41.992,-34.180,0.000
1709215236.842,-64.453,-48.340,-36.621,-34.180,0.000
1709215236.845,-49.316,-37.109,-30.762,-27.344,0.000
1709215236.849,-34.180,-35.645,-30.273,-22.949,0.000
1709215236.853,-24.902,-48.340,-33.691,-28.320,0.000
1709215236.857,-42.480,-42.480,-43.945,-35.645,0.000
1709215236.861,-50.781,-41.016,-39.062,-43.945,0.000
1709215236.865,-27.832,-43.457,-22.949,-38.574,0.000
1709215236.869,-34.180,-53.711,-24.902,-20.508,0.000
1709215236.873,-47.852,-52.246,-32.227,-35.156,0.000
1709215236.877,-60.059,-41.992,-34.668,-62.012,0.000
1709215236.881,-65.430,-41.504,-41.016,-57.617,0.000
1709215236.884,-32.715,-38.086,-43.457,-55.176,0.000
1709215236.888,-19.531,-33.691,-36.133,-40.527,0.000
1709215236.892,-41.992,-40.039,-36.133,-27.832,0.000
1709215236.896,-45.410,-52.246,-43.945,-48.340,0.000
1709215236.900,-53.711,-44.922,-44.434,-59.082,0.000
1709215236.904,-44.922,-32.715,-41.992,-41.992,0.000
1709215236.908,-33.691,-29.297,-40.039,-35.156,0.000
1709215236.911,-31.738,-40.039,-58.594,-39.062,0.000
1709215236.915,-28.809,-47.852,-55.176,-42.480,0.000
1709215236.919,-54.688,-34.668,-28.320,-64.941,0.000
1709215236.923,-50.781,-36.133,-27.832,-57.129,0.000
1709215236.927,-16.602,-42.969,-29.297,-16.602,0.000
1709215236.931,-22.461,-36.133,-33.691,-8.301,0.000
1709215236.935,-43.945,-31.738,-37.598,-38.574,0.000
