timestamps,TP9,AF7,AF8,TP10,Right AUX
1709215267.172,-27.344,-45.898,-35.156,-36.133,0.000
1709215267.176,-24.414,-41.992,-33.691,-25.879,0.000
1709215267.179,-44.434,-36.621,-30.762,-24.902,0.000
1709215267.183,-46.387,-57.129,-36.133,-41.016,0.000
1709215267.187,-42.969,-55.664,-35.645,-44.922,0.000
1709215267.191,-43.457,-36.621,-38.574,-44.434,0.000
1709215267.195,-34.668,-36.621,-40.039,-31.738,0.000
1709215267.199,-27.344,-41.016,-29.297,-14.160,0.000
1709215267.203,-38.574,-46.875,-34.668,-29.785,0.000
1709215267.207,-53.711,-40.527,-37.109,-50.781,0.000
1709215267.211,-41.016,-49.805,-24.902,-40.527,0.000
1709215267.215,-24.414,-43.945,-33.691,-25.391,0.000
1709215267.218,-23.438,-33.203,-44.434,-19.531,0.000
1709215267.222,-15.137,-38.574,-33.691,-30.273,0.000
1709215267.226,-26.367,-35.156,-34.668,-48.340,0.000
1709215267.230,-49.805,-39.062,-48.340,-48.828,0.000
1709215267.234,-32.227,-43.945,-46.387,-25.391,0.000
1709215267.238,-14.648,-47.852,-32.227,-13.184,0.000
1709215267.242,-22.949,-48.340,-30.273,-18.555,0.000
1709215267.246,-27.832,-42.480,-36.133,-18.555,0.000
1709215267.250,-25.879,-34.668,-36.621,-18.555,0.000
1709215267.253,-18.066,-38.574,-34.668,-20.508,0.000
1709215267.257,-21.484,-45.898,-33.203,-18.555,0.000
1709215267.261,-21.973,-38.574,-29.297,-20.508,0.000
1709215267.265,-24.414,-34.180,-28.809,-34.668,0.000
1709215267.269,-33.203,-35.156,-30.273,-33.691,0.000
1709215267.273,-16.113,-33.203,-26.855,-13.672,0.000
1709215267.277,-8.789,-42.480,-32.715,-16.113,0.000
1709215267.280,-20.508,-47.363,-37.598,-28.320,0.000
1709215267.284,-30.762,-33.203,-35.645,-46.387,0.000
1709215267.288,-25.391,-33.203,-29.297,-51.758,0.000
1709215267.292,-35.156,-44.434,-35.156,-34.180,0.000
1709215267.296,-40.527,-48.340,-41.504,-34.668,0.000
1709215267.300,-35.645,-39.551,-40.039,-47.852,0.000
1709215267.304,-41.992,-28.320,-35.645,-55.176,0.000
1709215267.308,-41.504,-33.691,-37.598,-56.641,0.000
1709215267.311,-27.344,-41.992,-43.945,-39.062,0.000
1709215267.315,-19.531,-50.293,-41.016,-23.438,0.000
1709215267.319,-22.949,-43.457,-34.180,-23.926,0.000
1709215267.323,-38.086,-30.273,-39.551,-33.691,0.000
1709215267.327,-47.852,-34.180,-42.480,-42.969,0.000
1709215267.331,-34.180,-45.410,-37.109,-23.438,0.000
1709215267.335,-19.043,-52.734,-28.320,12.695,0.000
1709215267.339,-13.184,-41.992,-24.902,-1.465,0.000
1709215267.343,-30.273,-38.574,-34.180,-45.898,0.000
1709215267.347,-54.199,-37.109,-36.621,-53.223,0.000
1709215267.350,-51.270,-34.668,-32.715,-38.086,0.000
1709215267.354,-36.133,-24.414,-28.320,-26.367,0.000
1709215267.358,-19.531,-29.785,-23.926,-23.438,0.000
1709215267.362,-32.227,-55.664,-33.691,-41.504,0.000
1709215267.366,-49.316,-43.457,-36.621,-58.105,0.000
1709215267.370,-35.156,-27.344,-27.344,-46.387,0.000
1709215267.374,-22.949,-36.621,-26.367,-38.574,0.000
1709215267.378,-17.090,-41.504,-32.227,-41.992,0.000
1709215267.381,-31.738,-47.363,-34.668,-46.875,0.000
1709215267.385,-52.246,-43.457,-39.062,-57.129,0.000
1709215267.389,-57.129,-37.598,-41.504,-58.105,0.000
1709215267.393,-51.270,-40.039,-38.574,-47.852,0.000
1709215267.397,-37.598,-50.293,-38.086,-32.715,0.000
1709215267.401,-20.996,-48.828,-40.527,-33.691,0.000
1709215267.405,-35.156,-42.969,-37.109,-46.875,0.000
1709215267.409,-57.129,-42.480,-38.086,-45.898,0.000
1709215267.413,-51.758,-39.062,-42.969,-34.180,0.000
1709215267.417,-41.016,-39.551,-36.133,-26.855,0.000
1709215267.421,-45.898,-52.246,-35.156,-38.574,0.000
1709215267.425,-71.289,-67.383,-47.852,-57.129,0.000
1709215267.429,-71.777,-51.758,-59.082,-61.523,0.000
1709215267.432,-54.688,-38.086,-52.734,-54.688,0.000
1709215267.436,-41.016,-37.598,-29.297,-51.758,0.000
1709215267.440,-34.668,-42.480,-25.879,-50.293,0.000
1709215267.444,-47.363,-38.574,-36.133,-61.523,0.000
1709215267.448,-48.828,-35.645,-46.875,-74.219,0.000
1709215267.452,-44.434,-41.504,-44.922,-50.781,0.000
1709215267.456,-36.133,-38.574,-39.551,-24.414,0.000
1709215267.460,-30.762,-44.922,-43.945,-38.086,0.000
1709215267.464,-45.898,-58.105,-46.387,-56.641,0.000
1709215267.468,-48.340,-42.480,-41.504,-54.199,0.000
1709215267.472,-31.738,-25.879,-37.598,-41.504,0.000
1709215267.476,-21.973,-26.855,-48.340,-25.879,0.000
1709215267.480,-21.973,-32.227,-41.992,-31.738,0.000
1709215267.483,-36.133,-40.527,-41.992,-43.945,0.000
1709215267.487,-44.922,-43.457,-42.969,-37.598,0.000
1709215267.491,-38.574,-46.387,-42.969,-37.109,0.000
1709215267.495,-26.367,-53.711,-50.293,-33.691,0.000
1709215267.499,-26.855,-43.457,-40.527,-30.762,0.000
1709215267.503,-45.898,-36.133,-39.062,-38.574,0.000
1709215267.507,-42.969,-37.598,-36.621,-38.574,0.000
1709215267.511,-49.316,-51.270,-38.574,-33.691,0.000
1709215267.515,-50.293,-53.711,-54.688,-28.809,0.000
1709215267.519,-33.691,-45.410,-45.898,-31.738,0.000
1709215267.523,-52.246,-38.574,-31.738,-44.434,0.000
1709215267.526,-64.453,-37.109,-48.828,-53.711,0.000
1709215267.530,-52.246,-49.316,-34.668,-37.109,0.000
1709215267.534,-43.457,-49.805,-21.973,-21.973,0.000
1709215267.538,-35.645,-45.410,-33.203,-26.855,0.000
1709215267.542,-41.504,-50.781,-29.297,-36.621,0.000
1709215267.546,-44.922,-47.363,-26.855,-48.340,0.000
1709215267.550,-37.598,-41.992,-27.344,-42.480,0.000
1709215267.554,-30.762,-44.434,-28.809,-30.273,0.000
1709215267.558,-32.227,-46.875,-43.945,-26.855,0.000
1709215267.562,-43.945,-36.621,-43.945,-41.992,0.000
1709215267.566,-46.875,-31.738,-31.738,-56.641,0.000
1709215267.569,-50.293,-33.691,-34.668,-51.270,0.000
1709215267.573,-44.434,-41.504,-39.062,-26.855,0.000
1709215267.577,-34.668,-46.875,-36.621,-15.137,0.000
1709215267.581,-41.016,-45.898,-35.156,-33.203,0.000
1709215267.585,-41.504,-51.758,-32.715,-43.457,0.000
1709215267.589,-47.363,-40.527,-26.367,-37.109,0.000
1709215267.593,-35.645,-30.762,-21.973,-19.043,0.000
1709215267.597,-19.043,-44.434,-25.879,-11.230,0.000
1709215267.600,-23.926,-42.480,-28.809,-18.066,0.000
1709215267.604,-41.992,-34.668,-33.691,-27.344,0.000
1709215267.608,-45.898,-38.574,-43.945,-37.598,0.000
1709215267.612,-35.156,-44.922,-41.992,-28.809,0.000
1709215267.616,-36.621,-60.059,-39.062,-13.184,0.000
1709215267.620,-38.086,-62.500,-36.621,-16.602,0.000
1709215267.624,-54.688,-40.039,-34.180,-41.504,0.000
1709215267.628,-63.477,-37.598,-37.598,-60.059,0.000
1709215267.632,-47.363,-53.223,-28.809,-42.969,0.000
1709215267.636,-37.109,-35.645,-31.250,-30.273,0.000
1709215267.639,-29.785,-20.996,-39.062,-34.668,0.000
1709215267.643,-41.992,-32.715,-45.410,-44.922,0.000
1709215267.647,-62.988,-44.434,-41.016,-52.246,0.000
1709215267.651,-40.527,-37.598,-24.414,-45.898,0.000
1709215267.655,-32.715,-29.297,-30.762,-34.668,0.000
1709215267.659,-40.527,-35.645,-44.434,-37.598,0.000
1709215267.663,-41.504,-45.898,-36.133,-52.246,0.000
1709215267.667,-54.199,-50.781,-27.344,-54.199,0.000
1709215267.671,-42.480,-48.828,-29.785,-32.227,0.000
1709215267.674,-17.578,-54.688,-30.762,-8.789,0.000
1709215267.678,-15.625,-48.340,-32.715,-10.254,0.000
1709215267.682,-34.668,-39.062,-45.410,-30.762,0.000
1709215267.686,-48.340,-48.828,-45.410,-44.922,0.000
1709215267.690,-37.598,-53.223,-35.156,-34.668,0.000
1709215267.694,-13.184,-43.457,-33.691,-24.902,0.000
1709215267.698,-16.113,-44.922,-49.316,-28.320,0.000
1709215267.701,-29.297,-45.898,-47.363,-34.668,0.000
1709215267.705,-37.598,-32.227,-29.785,-51.270,0.000
1709215267.709,-27.344,-28.320,-38.086,-50.293,0.000
1709215267.713,-23.926,-34.180,-38.086,-32.227,0.000
1709215267.717,-34.668,-45.410,-32.227,-29.297,0.000
1709215267.721,-48.340,-61.035,-38.574,-38.574,0.000
1709215267.725,-62.500,-58.594,-45.410,-49.316,0.000
1709215267.729,-43.457,-36.133,-51.270,-45.898,0.000
1709215267.732,-31.250,-28.320,-36.133,-40.039,0.000
1709215267.736,-31.250,-35.645,-22.949,-34.180,0.000
1709215267.740,-38.086,-42.480,-26.855,-33.203,0.000
1709215267.744,-46.875,-38.086,-32.227,-46.875,0.000
1709215267.748,-43.945,-34.180,-35.156,-59.570,0.000
1709215267.752,-33.691,-46.875,-37.598,-51.270,0.000
1709215267.756,-24.902,-55.664,-50.781,-35.645,0.000
1709215267.760,-28.809,-64.941,-50.293,-38.086,0.000
1709215267.764,-45.410,-54.199,-44.434,-66.406,0.000
1709215267.767,-56.641,-25.391,-43.457,-65.430,0.000
1709215267.771,-48.340,-23.926,-36.621,-43.945,0.000
1709215267.775,-36.133,-33.203,-39.062,-39.551,0.000
1709215267.780,-32.715,-36.621,-42.969,-37.598,0.000
1709215267.783,-39.551,-41.504,-36.133,-43.945,0.000
1709215267.787,-37.598,-51.270,-33.203,-39.551,0.000
1709215267.791,-16.602,-48.340,-38.574,-26.367,0.000
1709215267.795,-16.113,-54.199,-39.062,-28.809,0.000
1709215267.799,-26.367,-57.129,-32.715,-33.691,0.000
1709215267.803,-31.250,-51.270,-30.762,-41.504,0.000
1709215267.807,-35.156,-44.434,-38.574,-46.387,0.000
1709215267.811,-24.902,-17.578,-41.504,-30.762,0.000
1709215267.815,-25.391,-20.996,-38.574,-17.090,0.000
1709215267.819,-34.180,-34.668,-41.992,-26.855,0.000
1709215267.823,-36.133,-42.480,-45.898,-52.734,0.000
1709215267.827,-63.477,-48.340,-46.387,-61.523,0.000
1709215267.831,-70.801,-45.410,-46.875,-39.551,0.000
1709215267.834,-46.387,-53.711,-42.480,-22.949,0.000
1709215267.838,-34.180,-60.547,-35.156,-29.297,0.000
1709215267.842,-52.734,-53.223,-24.414,-42.480,0.000
1709215267.846,-65.918,-47.852,-24.414,-41.504,0.000
1709215267.850,-44.434,-56.152,-41.016,-28.809,0.000
1709215267.854,-20.020,-48.828,-30.762,-19.531,0.000
1709215267.858,-15.137,-18.555,-27.344,-23.926,0.000
1709215267.862,-37.598,-25.391,-43.457,-41.504,0.000
1709215267.866,-49.805,-32.715,-54.199,-59.570,0.000
1709215267.870,-31.738,-9.766,-52.734,-52.734,0.000
1709215267.874,0.000,-2.441,-46.875,-39.551,0.000
1709215267.878,0.000,0.488,-55.176,-43.945,0.000
1709215267.881,0.000,13.184,-57.617,-54.688,0.000
1709215267.885,0.000,19.043,-57.617,-59.570,0.000
1709215267.889,0.000,11.719,-62.012,-45.898,0.000
1709215267.893,0.000,20.508,-63.965,-28.809,0.000
1709215267.897,0.000,24.414,-67.383,-31.250,0.000
1709215267.901,0.000,14.648,-68.359,-44.922,0.000
1709215267.905,0.000,21.484,-68.848,-52.246,0.000
1709215267.909,0.000,33.203,-79.590,-57.617,0.000
1709215267.913,0.000,33.203,-84.961,-55.664,0.000
1709215267.917,0.000,27.344,-86.426,-53.223,0.000
1709215267.921,-11.719,20.996,-84.961,-61.035,0.000
1709215267.925,-21.484,33.203,-79.590,-75.195,0.000
1709215267.929,-29.297,55.664,-80.078,-78.125,0.000
1709215267.933,-13.672,69.824,-79.590,-62.500,0.000
1709215267.937,-3.418,71.289,-81.055,-62.988,0.000
1709215267.941,-36.133,62.500,-91.797,-80.566,0.000
1709215267.945,-46.387,60.059,-93.750,-95.215,0.000
1709215267.949,-31.738,57.617,-84.961,-85.449,0.000
1709215267.953,-27.344,67.871,-90.820,-71.777,0.000
1709215267.957,-27.832,90.820,-94.727,-66.895,0.000
1709215267.961,-24.414,104.004,-92.773,-71.777,0.000
1709215267.964,-23.438,92.773,-87.891,-79.102,0.000
1709215267.969,-18.066,79.590,-92.773,-76.660,0.000
1709215267.973,-20.020,89.355,-101.074,-81.543,0.000
1709215267.977,-12.695,101.562,-94.238,-76.660,0.000
1709215267.981,8.301,95.703,-95.215,-68.848,0.000
1709215267.985,-9.277,89.355,-95.215,-64.453,0.000
1709215267.989,-25.391,82.031,-94.727,-62.500,0.000
1709215267.992,3.418,70.312,-89.844,-33.691,0.000
1709215267.996,20.996,64.941,-86.426,-0.977,0.000
1709215268.000,20.996,61.035,-83.496,-10.742,0.000
1709215268.004,21.973,52.246,-77.637,-29.785,0.000
1709215268.008,12.207,35.645,-84.961,-17.090,0.000
1709215268.012,16.602,27.832,-87.891,7.324,0.000
1709215268.016,29.785,32.227,-92.285,7.324,0.000
1709215268.019,25.879,36.133,-93.262,-3.906,0.000
1709215268.023,19.531,35.645,-85.938,-5.859,0.000
1709215268.027,21.484,40.039,-86.426,-16.602,0.000
1709215268.031,14.160,37.598,-83.496,-10.742,0.000
1709215268.035,17.090,32.227,-79.590,10.254,0.000
1709215268.039,27.344,29.785,-86.914,6.836,0.000
1709215268.043,21.484,10.254,-81.543,-6.836,0.000
1709215268.047,20.020,7.324,-63.477,-20.020,0.000
1709215268.051,5.371,26.367,-62.500,-19.531,0.000
1709215268.055,19.531,18.066,-63.477,11.719,0.000
1709215268.059,26.855,11.230,-63.965,23.926,0.000
1709215268.062,4.883,22.461,-66.406,-3.906,0.000
1709215268.066,-8.789,17.578,-55.176,-18.555,0.000
1709215268.070,-17.090,-4.883,-48.828,-13.672,0.000
1709215268.074,0.488,-9.277,-48.828,10.254,0.000
1709215268.078,11.230,3.418,-48.340,17.090,0.000
1709215268.082,8.301,-23.438,-49.805,-4.883,0.000
1709215268.085,-21.484,-29.297,-46.387,-10.742,0.000
1709215268.089,-36.133,-0.488,-42.969,-5.371,0.000
1709215268.093,-7.812,-1.465,-51.270,0.488,0.000
1709215268.097,3.418,-19.043,-50.293,4.395,0.000
1709215268.101,-4.883,-28.320,-47.852,3.418,0.000
1709215268.105,-17.578,-18.066,-49.805,-16.602,0.000
1709215268.108,-12.695,-18.555,-47.852,-21.973,0.000
1709215268.112,-3.906,-32.715,-45.410,-1.465,0.000
1709215268.116,-8.301,-34.180,-43.457,4.395,0.000
1709215268.120,-18.066,-29.785,-34.180,-0.977,0.000
1709215268.124,-25.391,-41.992,-22.461,-17.578,0.000
1709215268.128,-20.508,-48.340,-39.551,-30.273,0.000
1709215268.132,-23.926,-28.320,-49.805,-9.277,0.000
1709215268.136,-26.855,-22.461,-44.922,-5.371,0.000
1709215268.140,-19.531,-22.461,-51.758,-21.484,0.000
1709215268.144,-41.016,-26.855,-49.805,-25.879,0.000
1709215268.148,-48.340,-44.922,-43.945,-25.391,0.000
1709215268.151,-21.484,-39.062,-40.527,-19.531,0.000
1709215268.156,-5.859,-24.414,-31.250,-18.555,0.000
1709215268.159,-15.625,-28.320,-31.250,-26.855,0.000
1709215268.163,-38.574,-33.203,-40.527,-44.434,0.000
1709215268.167,-54.688,-47.852,-35.156,-57.129,0.000
1709215268.171,-41.992,-58.105,-34.668,-40.527,0.000
1709215268.175,-29.297,-52.246,-40.039,-23.438,0.000
1709215268.179,-22.949,-34.668,-44.434,-39.551,0.000
1709215268.183,-29.785,-25.391,-51.270,-57.129,0.000
1709215268.187,-53.223,-27.344,-39.062,-49.805,0.000
1709215268.191,-43.945,-33.691,-32.227,-41.504,0.000
1709215268.195,-31.250,-40.527,-42.969,-35.645,0.000
1709215268.199,-31.738,-48.828,-41.992,-33.691,0.000
1709215268.203,-39.062,-47.852,-33.691,-43.457,0.000
1709215268.206,-47.363,-50.781,-35.645,-51.758,0.000
1709215268.210,-42.480,-53.711,-34.668,-48.340,0.000
1709215268.214,-31.738,-41.504,-34.180,-36.133,0.000
1709215268.218,-22.461,-45.410,-37.109,-24.902,0.000
1709215268.222,-29.297,-41.992,-44.434,-36.133,0.000
1709215268.226,-34.180,-49.805,-39.551,-45.898,0.000
1709215268.230,-5.859,-61.035,-31.738,-24.414,0.000
1709215268.234,-7.812,-32.227,-44.922,-5.371,0.000
1709215268.238,-27.344,-14.648,-54.199,-4.395,0.000
1709215268.242,-30.762,-20.996,-46.875,-25.879,0.000
1709215268.246,-30.273,-20.508,-43.457,-41.016,0.000
1709215268.249,-28.320,-14.160,-46.875,-30.762,0.000
1709215268.253,-6.348,-13.672,-44.922,-13.672,0.000
1709215268.257,6.836,-19.531,-42.480,9.766,0.000
1709215268.261,-0.488,-26.367,-49.805,-2.441,0.000
1709215268.265,-0.488,-33.203,-53.711,-25.879,0.000
1709215268.269,-16.113,-42.480,-47.852,-20.020,0.000
1709215268.273,-16.602,-39.551,-40.039,-11.719,0.000
1709215268.277,0.977,-46.875,-40.527,-6.836,0.000
1709215268.281,2.930,-53.711,-54.688,2.441,0.000
1709215268.285,-15.137,-32.715,-56.641,-19.043,0.000
1709215268.289,-28.320,-14.160,-44.434,-41.504,0.000
1709215268.292,-19.043,-17.578,-41.992,-25.879,0.000
1709215268.296,-13.672,-28.320,-47.363,-20.996,0.000
1709215268.300,-24.414,-42.480,-49.316,-25.879,0.000
1709215268.304,-36.621,-33.203,-49.805,-38.086,0.000
1709215268.308,-42.969,-27.344,-56.152,-52.734,0.000
1709215268.312,-42.480,-43.945,-49.316,-40.039,0.000
1709215268.316,-23.926,-41.504,-41.992,-27.832,0.000
1709215268.320,-14.160,-36.133,-49.805,-46.875,0.000
1709215268.324,-42.480,-43.457,-54.199,-56.152,0.000
1709215268.328,-48.340,-46.875,-42.969,-39.551,0.000
1709215268.331,-30.273,-35.645,-39.062,-41.016,0.000
1709215268.335,-26.855,-31.738,-46.875,-37.598,0.000
1709215268.339,-21.973,-32.227,-45.898,-31.250,0.000
1709215268.343,-31.738,-35.645,-47.363,-43.945,0.000
1709215268.347,-41.992,-37.598,-46.387,-47.852,0.000
1709215268.351,-28.809,-42.969,-39.551,-28.809,0.000
1709215268.355,-11.230,-57.617,-31.738,-9.766,0.000
1709215268.359,-7.324,-52.246,-33.691,-13.672,0.000
1709215268.363,-7.812,-40.527,-39.062,-29.785,0.000
1709215268.366,-32.715,-28.809,-39.062,-35.645,0.000
1709215268.370,-43.945,-18.555,-39.062,-28.809,0.000
1709215268.374,-28.809,-22.949,-40.527,-17.578,0.000
1709215268.378,-25.391,-34.180,-43.945,-17.090,0.000
1709215268.382,-42.969,-38.086,-39.062,-34.668,0.000
1709215268.386,-63.965,-36.621,-37.109,-59.570,0.000
1709215268.390,-42.480,-42.480,-34.668,-52.734,0.000
1709215268.394,-23.438,-42.969,-32.715,-32.227,0.000
1709215268.397,-32.227,-42.480,-41.016,-29.785,0.000
1709215268.401,-41.992,-41.504,-40.039,-36.621,0.000
1709215268.405,-60.547,-35.645,-39.062,-48.828,0.000
1709215268.409,-56.152,-42.480,-44.434,-57.617,0.000
1709215268.413,-35.645,-56.152,-49.805,-40.039,0.000
1709215268.417,-45.410,-51.270,-50.781,-24.902,0.000
1709215268.421,-56.641,-43.457,-46.875,-37.109,0.000
1709215268.425,-66.406,-51.270,-52.734,-58.105,0.000
1709215268.429,-63.965,-49.316,-49.805,-65.918,0.000
1709215268.433,-43.945,-45.898,-37.598,-47.363,0.000
1709215268.436,-44.922,-41.504,-32.715,-33.691,0.000
1709215268.440,-49.805,-37.109,-30.273,-41.016,0.000
1709215268.444,-62.012,-47.363,-35.645,-48.340,0.000
1709215268.448,-53.223,-45.898,-34.668,-39.062,0.000
1709215268.452,-40.039,-40.039,-28.809,-34.180,0.000
1709215268.456,-29.785,-40.527,-31.250,-37.598,0.000
1709215268.460,-27.832,-50.293,-27.344,-29.785,0.000
1709215268.463,-61.035,-58.105,-40.527,-48.340,0.000
1709215268.467,-67.871,-49.805,-46.875,-70.801,0.000
1709215268.471,-51.758,-37.598,-36.133,-47.852,0.000
1709215268.475,-35.645,-43.945,-33.203,-27.832,0.000
1709215268.479,-35.156,-44.922,-31.250,-34.668,0.000
1709215268.483,-46.875,-34.180,-34.180,-53.711,0.000
1709215268.486,-52.734,-39.062,-34.180,-52.246,0.000
1709215268.490,-43.945,-49.316,-34.180,-44.922,0.000
1709215268.494,-34.668,-62.012,-29.297,-27.344,0.000
1709215268.498,-33.203,-67.383,-26.855,-26.855,0.000
1709215268.502,-49.316,-56.152,-38.574,-60.059,0.000
1709215268.506,-62.012,-34.180,-42.480,-67.383,0.000
1709215268.510,-45.898,-20.508,-41.016,-59.570,0.000
1709215268.514,-32.227,-37.598,-38.574,-37.598,0.000
1709215268.518,-39.551,-48.340,-39.062,-31.738,0.000
1709215268.522,-52.246,-42.480,-41.992,-52.246,0.000
1709215268.526,-62.988,-49.805,-49.316,-66.406,0.000
1709215268.530,-48.828,-40.527,-40.527,-53.711,0.000
1709215268.534,-37.109,-36.621,-29.297,-47.363,0.000
1709215268.538,-34.180,-39.551,-36.133,-42.969,0.000
1709215268.541,-39.551,-47.363,-35.156,-42.969,0.000
1709215268.545,-55.664,-53.223,-33.203,-54.688,0.000
1709215268.549,-57.617,-47.852,-38.574,-46.875,0.000
1709215268.553,-44.922,-52.734,-34.180,-35.156,0.000
1709215268.557,-32.715,-45.898,-39.062,-26.855,0.000
1709215268.561,-26.855,-45.410,-42.480,-29.785,0.000
1709215268.565,-44.922,-60.547,-33.203,-47.363,0.000
1709215268.569,-56.641,-41.992,-28.809,-51.270,0.000
1709215268.573,-26.855,-39.062,-20.996,-30.762,0.000
1709215268.578,0.000,-50.293,-29.785,-19.043,0.000
1709215268.582,0.000,-36.621,-40.039,-44.434,0.000
1709215268.585,0.000,-31.250,-38.574,-65.430,0.000
1709215268.589,0.000,-41.016,-36.133,-63.477,0.000
1709215268.593,0.000,-49.316,-38.086,-42.969,0.000
1709215268.597,0.000,-39.062,-36.133,-35.156,0.000
1709215268.601,0.000,-35.156,-40.039,-42.969,0.000
1709215268.605,0.000,-45.410,-42.480,-45.898,0.000
1709215268.609,0.000,-50.293,-40.039,-40.039,0.000
1709215268.613,0.000,-52.734,-40.527,-21.973,0.000
1709215268.617,0.000,-50.781,-38.086,-21.973,0.000
1709215268.621,0.000,-42.480,-39.551,-30.273,0.000
1709215268.625,-50.293,-38.574,-39.551,-41.504,0.000
1709215268.629,-57.129,-43.457,-30.273,-52.734,0.000
1709215268.633,-41.992,-52.734,-28.809,-42.969,0.000
1709215268.637,-34.180,-62.500,-25.391,-28.320,0.000
1709215268.641,-52.734,-50.293,-32.227,-40.527,0.000
1709215268.645,-60.547,-32.715,-37.109,-50.293,0.000
1709215268.649,-51.758,-38.574,-31.250,-47.852,0.000
1709215268.653,-41.504,-46.875,-31.738,-43.945,0.000
1709215268.657,-45.898,-39.062,-34.668,-31.250,0.000
1709215268.661,-47.852,-26.855,-29.785,-33.691,0.000
1709215268.664,-52.734,-26.855,-31.250,-53.223,0.000
1709215268.668,-62.500,-38.086,-37.109,-65.430,0.000
1709215268.672,-49.316,-36.621,-38.086,-49.316,0.000
1709215268.676,-30.273,-51.758,-42.480,-24.902,0.000
1709215268.680,-17.090,-66.895,-45.898,-30.762,0.000
1709215268.684,-41.016,-58.105,-49.316,-60.547,0.000
1709215268.688,-56.641,-52.734,-43.945,-63.965,0.000
1709215268.692,-18.066,-43.945,-38.574,-40.527,0.000
1709215268.696,-13.184,-29.785,-37.109,-18.066,0.000
1709215268.699,-33.203,-25.879,-36.133,-11.230,0.000
1709215268.703,-43.457,-24.414,-36.621,-29.785,0.000
1709215268.707,-48.828,-26.367,-41.016,-47.852,0.000
1709215268.711,-39.551,-32.715,-29.297,-42.480,0.000
1709215268.715,-20.996,-30.762,-25.879,-21.973,0.000
1709215268.719,-14.160,-34.668,-33.691,-19.043,0.000
1709215268.723,-22.461,-31.738,-43.457,-36.621,0.000
1709215268.727,-36.621,-27.344,-42.480,-44.434,0.000
1709215268.730,-34.180,-32.227,-40.527,-42.480,0.000
1709215268.734,-24.414,-48.340,-41.016,-24.902,0.000
1709215268.738,-28.809,-47.363,-42.969,-17.578,0.000
1709215268.742,-45.898,-41.504,-40.527,-43.945,0.000
1709215268.746,-62.012,-57.129,-35.645,-48.828,0.000
1709215268.750,-50.781,-43.945,-36.621,-44.434,0.000
1709215268.754,-39.551,-30.762,-32.227,-41.992,0.000
1709215268.758,-34.668,-40.527,-35.156,-34.180,0.000
1709215268.762,-42.969,-40.527,-43.457,-48.828,0.000
1709215268.765,-40.527,-31.738,-44.922,-72.754,0.000
1709215268.769,-43.945,-32.227,-40.527,-63.965,0.000
1709215268.773,-46.387,-45.898,-41.504,-37.109,0.000
1709215268.777,-23.438,-36.621,-41.016,-23.926,0.000
1709215268.781,-30.762,-22.461,-33.691,-31.738,0.000
1709215268.785,-45.410,-42.480,-41.016,-53.711,0.000
1709215268.789,-48.828,-52.734,-39.551,-48.828,0.000
1709215268.793,-41.016,-39.551,-39.062,-20.508,0.000
1709215268.797,-32.715,-46.387,-36.621,-17.090,0.000
1709215268.801,-33.691,-53.223,-37.598,-28.320,0.000
1709215268.804,-50.781,-48.828,-49.805,-37.109,0.000
1709215268.808,-51.758,-45.898,-45.410,-45.410,0.000
1709215268.812,-27.344,-47.852,-45.898,-40.039,0.000
1709215268.816,-12.207,-48.828,-47.363,-27.832,0.000
1709215268.820,-12.695,-49.805,-49.316,-20.508,0.000
1709215268.824,-27.344,-49.805,-58.105,-32.715,0.000
1709215268.827,-40.527,-43.945,-39.551,-55.176,0.000
1709215268.831,-47.852,-45.898,-27.832,-45.410,0.000
1709215268.835,-38.086,-35.645,-26.855,-17.578,0.000
1709215268.839,-31.738,-32.715,-29.785,-30.762,0.000
1709215268.843,-50.781,-40.527,-48.828,-57.617,0.000
1709215268.847,-60.547,-45.898,-54.688,-54.199,0.000
1709215268.851,-52.246,-58.105,-40.039,-40.039,0.000
1709215268.855,-11.719,-65.918,-26.367,-9.766,0.000
1709215268.858,-7.812,-43.457,-30.762,-18.555,0.000
1709215268.862,-47.363,-31.738,-39.062,-52.246,0.000
1709215268.866,-72.266,-33.691,-40.039,-65.430,0.000
1709215268.870,-66.895,-40.039,-40.039,-54.199,0.000
1709215268.874,-47.852,-48.340,-39.062,-32.227,0.000
1709215268.878,-46.875,-45.410,-37.109,-20.020,0.000
1709215268.882,-48.340,-48.340,-29.297,-23.926,0.000
1709215268.886,-51.270,-48.340,-29.297,-45.898,0.000
1709215268.890,-58.105,-42.969,-34.668,-48.340,0.000
1709215268.893,-51.758,-42.480,-36.133,-29.785,0.000
1709215268.897,-39.551,-37.598,-36.621,-25.391,0.000
1709215268.901,-38.574,-38.086,-44.922,-31.250,0.000
1709215268.905,-39.551,-35.645,-53.711,-39.551,0.000
1709215268.909,-42.480,-39.551,-39.062,-53.223,0.000
1709215268.913,-37.598,-45.898,-38.086,-47.852,0.000
1709215268.917,-23.438,-44.922,-46.387,-32.715,0.000
1709215268.921,-32.227,-39.551,-38.574,-36.621,0.000
1709215268.925,-41.504,-34.668,-35.156,-43.945,0.000
1709215268.929,-45.410,-30.273,-31.738,-36.133,0.000
1709215268.933,-22.461,-43.457,-37.109,-22.461,0.000
1709215268.937,-11.719,-46.875,-45.898,-19.531,0.000
1709215268.941,-21.484,-25.879,-35.645,-20.508,0.000
1709215268.944,-34.180,-36.621,-34.668,-40.527,0.000
1709215268.948,-45.410,-39.062,-39.551,-53.711,0.000
1709215268.952,-38.574,-32.715,-29.785,-20.508,0.000
1709215268.956,-25.879,-43.945,-27.832,-9.766,0.000
1709215268.960,-40.039,-41.992,-41.992,-32.227,0.000
1709215268.964,-56.152,-37.598,-45.898,-54.199,0.000
1709215268.968,-61.035,-34.668,-34.180,-60.547,0.000
1709215268.972,-47.852,-40.527,-34.180,-43.457,0.000
1709215268.976,-34.180,-49.805,-41.504,-29.297,0.000
1709215268.980,-31.738,-54.688,-39.551,-28.320,0.000
1709215268.984,-33.203,-52.246,-38.086,-31.738,0.000
1709215268.988,-48.340,-36.133,-36.133,-28.809,0.000
1709215268.992,-36.621,-38.574,-36.621,-20.020,0.000
1709215268.995,-20.996,-55.664,-28.809,-10.742,0.000
1709215268.999,-34.180,-48.828,-31.738,-25.391,0.000
1709215269.003,-45.410,-32.715,-39.062,-34.180,0.000
1709215269.007,-54.688,-36.621,-42.480,-41.992,0.000
1709215269.011,-52.246,-42.480,-39.062,-37.109,0.000
1709215269.015,-34.180,-39.551,-32.227,-13.672,0.000
1709215269.019,-25.879,-45.898,-42.480,-12.695,0.000
1709215269.023,-32.227,-57.617,-48.340,-34.668,0.000
1709215269.027,-40.527,-65.430,-42.480,-45.410,0.000
1709215269.031,-31.250,-62.500,-31.250,-33.691,0.000
1709215269.035,-3.418,-48.340,-35.645,-23.438,0.000
1709215269.038,-17.578,-32.227,-45.410,-28.320,0.000
1709215269.042,-47.852,-16.602,-41.504,-32.715,0.000
1709215269.046,-38.086,-32.227,-48.340,-28.809,0.000
1709215269.050,-37.109,-41.992,-52.734,-40.527,0.000
1709215269.054,-32.227,-38.086,-39.062,-43.945,0.000
1709215269.058,-31.250,-39.062,-31.250,-37.598,0.000
1709215269.062,-48.340,-28.320,-33.203,-51.758,0.000
1709215269.066,-51.270,-40.527,-41.992,-59.570,0.000
1709215269.070,-52.246,-47.852,-44.434,-47.363,0.000
1709215269.074,-29.785,-41.504,-34.180,-29.785,0.000
1709215269.077,-20.508,-52.246,-39.551,-21.484,0.000
1709215269.081,-44.922,-42.969,-47.852,-34.180,0.000
1709215269.085,-53.223,-29.785,-31.250,-63.477,0.000
1709215269.089,-57.617,-26.367,-29.297,-71.777,0.000
1709215269.093,-41.016,-25.391,-32.715,-41.504,0.000
1709215269.097,-36.621,-36.621,-28.320,-28.809,0.000
1709215269.101,-50.293,-41.504,-31.250,-38.086,0.000
1709215269.105,-57.129,-47.852,-28.320,-46.387,0.000
1709215269.109,-60.059,-52.734,-31.738,-47.852,0.000
1709215269.113,-37.598,-47.363,-30.762,-27.344,0.000
1709215269.116,-12.695,-36.133,-36.133,-22.949,0.000
1709215269.120,-38.574,-32.227,-47.363,-41.504,0.000
1709215269.124,-59.082,-44.434,-41.504,-41.992,0.000
1709215269.128,-49.316,-50.781,-44.434,-38.574,0.000
1709215269.132,-36.621,-58.594,-48.828,-29.785,0.000
1709215269.136,-15.137,-53.223,-52.734,-12.207,0.000
1709215269.140,-24.414,-32.227,-41.504,-19.043,0.000
1709215269.144,-56.152,-20.508,-28.320,-43.457,0.000
1709215269.148,-64.453,-30.273,-31.738,-54.199,0.000
1709215269.152,-47.852,-41.504,-31.738,-39.551,0.000
1709215269.156,-19.043,-57.617,-35.645,-19.531,0.000
1709215269.160,-18.555,-63.477,-42.480,-34.180,0.000
1709215269.164,-45.410,-51.758,-34.668,-45.410,0.000
1709215269.168,-56.641,-53.711,-34.180,-36.621,0.000
1709215269.172,-49.316,-46.875,-38.086,-45.410,0.000
1709215269.176,-33.691,-42.480,-33.203,-40.039,0.000
1709215269.179,-23.926,-47.852,-34.180,-29.297,0.000
1709215269.183,-30.273,-38.086,-34.180,-50.293,0.000
1709215269.187,-47.852,-43.945,-42.480,-73.730,0.000
1709215269.191,-45.410,-60.547,-52.734,-63.965,0.000
1709215269.195,-20.508,-51.758,-32.227,-32.715,0.000
1709215269.199,-22.949,-28.320,-27.344,-26.855,0.000
1709215269.203,-32.227,-36.621,-37.598,-45.898,0.000
1709215269.206,-32.715,-44.434,-31.250,-45.410,0.000
1709215269.210,-41.016,-28.320,-33.203,-33.203,0.000
1709215269.214,-41.016,-22.461,-38.086,-22.461,0.000
1709215269.218,-32.227,-30.762,-33.203,-17.090,0.000
1709215269.222,-24.902,-40.039,-38.574,-41.504,0.000
1709215269.226,-60.059,-47.363,-48.828,-58.105,0.000
1709215269.230,-71.777,-48.340,-43.457,-47.363,0.000
1709215269.234,-33.203,-41.504,-34.180,-26.855,0.000
1709215269.238,-33.691,-38.574,-36.621,-21.484,0.000
1709215269.242,-46.387,-37.598,-35.156,-40.527,0.000
1709215269.246,-52.734,-37.598,-28.809,-56.641,0.000
1709215269.250,-55.176,-38.086,-32.715,-59.570,0.000
1709215269.254,-36.133,-46.875,-40.527,-42.480,0.000
1709215269.258,-20.508,-56.641,-38.086,-24.902,0.000
1709215269.261,-34.668,-44.922,-36.133,-36.621,0.000
1709215269.265,-58.594,-30.762,-48.828,-63.965,0.000
1709215269.269,-48.340,-20.996,-54.688,-68.848,0.000
1709215269.273,-35.156,-32.715,-46.387,-50.293,0.000
1709215269.277,-33.203,-45.898,-32.227,-37.598,0.000
1709215269.281,-48.828,-39.062,-29.297,-48.340,0.000
1709215269.285,-52.246,-24.414,-26.855,-58.594,0.000
1709215269.289,-34.668,-31.738,-27.832,-59.570,0.000
1709215269.293,-18.555,-67.383,-36.133,-33.203,0.000
1709215269.297,-36.133,-72.754,-42.480,-15.625,0.000
1709215269.301,-58.594,-48.828,-41.016,-38.086,0.000
1709215269.305,-60.059,-35.645,-41.992,-58.594,0.000
1709215269.309,-57.129,-27.832,-40.039,-59.570,0.000
1709215269.312,-49.805,-24.414,-39.551,-41.504,0.000
1709215269.316,-42.480,-23.926,-35.645,-15.625,0.000
1709215269.320,-37.109,-34.668,-26.855,-19.043,0.000
1709215269.324,-35.645,-44.434,-29.785,-44.922,0.000
1709215269.328,-50.781,-50.781,-38.574,-48.828,0.000
1709215269.332,-52.246,-52.734,-34.180,-31.250,0.000
1709215269.336,-30.273,-44.922,-30.273,-14.160,0.000
1709215269.340,-16.602,-48.828,-33.203,-18.066,0.000
1709215269.344,-41.992,-58.594,-37.109,-39.551,0.000
1709215269.348,-68.359,-58.105,-30.273,-41.992,0.000
1709215269.352,-44.434,-61.523,-32.227,-33.691,0.000
1709215269.356,-34.180,-42.480,-47.363,-38.086,0.000
1709215269.359,-28.320,-20.020,-43.945,-37.598,0.000
1709215269.363,-42.480,-25.879,-41.504,-50.781,0.000
1709215269.367,-50.781,-28.320,-38.574,-71.777,0.000
1709215269.371,-34.180,-45.898,-37.109,-56.641,0.000
1709215269.375,-23.438,-63.477,-40.039,-27.344,0.000
1709215269.379,-36.133,-50.781,-41.016,-29.785,0.000
1709215269.383,-62.012,-34.180,-39.551,-47.363,0.000
1709215269.387,-75.195,-35.645,-40.039,-53.223,0.000
1709215269.391,-62.988,-40.039,-36.133,-44.434,0.000
1709215269.395,-30.273,-36.621,-29.297,-34.668,0.000
1709215269.398,-20.020,-42.969,-31.250,-23.438,0.000
1709215269.402,-36.133,-49.805,-41.504,-31.738,0.000
1709215269.406,-39.551,-49.316,-40.039,-48.828,0.000
1709215269.410,-37.598,-41.016,-36.133,-41.992,0.000
1709215269.414,-44.434,-40.527,-41.016,-26.367,0.000
1709215269.418,-21.973,-50.293,-35.645,-15.625,0.000
1709215269.422,-24.902,-50.781,-25.391,-16.113,0.000
1709215269.426,-48.340,-32.715,-30.762,-35.645,0.000
1709215269.430,-57.617,-26.855,-47.852,-42.969,0.000
1709215269.434,-32.227,-32.227,-50.293,-14.160,0.000
1709215269.437,-16.602,-50.293,-43.945,-7.812,0.000
1709215269.441,-39.062,-60.547,-44.922,-27.832,0.000
1709215269.445,-46.387,-32.715,-38.086,-36.133,0.000
1709215269.449,-41.504,-18.555,-34.668,-31.250,0.000
1709215269.453,-40.039,-29.785,-31.738,-26.855,0.000
1709215269.457,-36.133,-37.109,-32.227,-27.832,0.000
1709215269.461,-29.297,-39.062,-36.133,-22.949,0.000
1709215269.465,-20.996,-40.039,-25.391,-26.855,0.000
1709215269.469,-35.645,-40.527,-36.621,-41.504,0.000
1709215269.472,-48.340,-29.785,-45.898,-30.762,0.000
1709215269.476,-32.715,-37.109,-31.738,-20.996,0.000
1709215269.480,-32.227,-59.570,-34.668,-27.832,0.000
1709215269.484,-53.711,-57.129,-35.156,-45.898,0.000
1709215269.488,-47.363,-40.527,-28.809,-38.574,0.000
1709215269.492,-39.551,-27.832,-33.203,-29.297,0.000
1709215269.496,-31.250,-24.902,-42.969,-28.809,0.000
1709215269.500,-28.320,-31.250,-41.016,-24.414,0.000
1709215269.504,-39.062,-33.691,-43.945,-35.645,0.000
1709215269.508,-44.434,-24.902,-48.340,-49.316,0.000
1709215269.511,-34.668,-27.832,-40.039,-52.246,0.000
1709215269.515,-34.668,-36.621,-34.668,-37.109,0.000
1709215269.519,-42.969,-43.945,-35.645,-31.738,0.000
1709215269.523,-41.504,-45.898,-36.621,-49.805,0.000
1709215269.527,-33.203,-41.504,-32.715,-62.012,0.000
1709215269.531,-40.527,-56.152,-30.273,-50.781,0.000
1709215269.535,-37.598,-57.129,-40.527,-33.203,0.000
1709215269.539,-24.902,-28.320,-39.062,-29.785,0.000
1709215269.542,-34.668,-16.602,-25.391,-35.645,0.000
1709215269.546,-43.945,-24.902,-30.762,-57.129,0.000
1709215269.550,-39.551,-36.621,-41.992,-51.758,0.000
1709215269.554,-28.809,-41.016,-37.598,-26.367,0.000
1709215269.558,-17.578,-36.133,-27.832,-20.996,0.000
1709215269.562,-18.555,-42.480,-31.738,-37.109,0.000
1709215269.565,-22.461,-43.945,-40.527,-45.410,0.000
1709215269.569,-21.484,-42.480,-49.805,-29.297,0.000
1709215269.573,-27.832,-46.875,-41.992,-31.250,0.000
1709215269.577,-30.273,-41.504,-31.738,-41.504,0.000
1709215269.581,-36.133,-52.246,-46.875,-55.176,0.000
1709215269.585,-47.363,-53.711,-53.223,-67.383,0.000
1709215269.589,-52.734,-36.621,-50.293,-56.152,0.000
1709215269.593,-42.969,-31.250,-52.734,-35.156,0.000
1709215269.597,-30.273,-24.902,-36.133,-28.320,0.000
1709215269.601,-26.367,-27.832,-25.879,-29.297,0.000
1709215269.605,-40.527,-38.086,-34.180,-46.387,0.000
1709215269.608,-29.297,-40.527,-31.738,-55.176,0.000
1709215269.612,-11.719,-37.598,-28.320,-29.297,0.000
1709215269.616,-23.438,-27.832,-38.086,-27.344,0.000
1709215269.620,-35.156,-27.832,-39.551,-47.363,0.000
1709215269.624,-42.480,-41.504,-30.273,-61.523,0.000
1709215269.628,-46.875,-36.133,-32.715,-58.105,0.000
1709215269.631,-45.410,-38.574,-39.062,-32.227,0.000
1709215269.635,-32.227,-41.992,-33.691,-22.461,0.000
1709215269.639,-32.227,-33.203,-37.598,-39.551,0.000
1709215269.643,-42.969,-40.527,-42.480,-56.152,0.000
1709215269.647,-41.016,-59.570,-45.898,-56.641,0.000
1709215269.651,-23.438,-55.664,-38.086,-38.086,0.000
1709215269.655,-16.602,-26.367,-39.062,-19.531,0.000
1709215269.659,-24.902,-31.250,-52.734,-25.391,0.000
1709215269.663,-38.574,-34.668,-44.434,-41.992,0.000
1709215269.667,-44.434,-31.738,-39.062,-37.598,0.000
1709215269.671,-43.945,-41.016,-35.645,-20.020,0.000
1709215269.675,-40.039,-30.273,-31.738,-9.766,0.000
1709215269.679,-39.062,-22.949,-25.879,-21.484,0.000
1709215269.682,-40.039,-31.250,-22.949,-40.527,0.000
1709215269.686,-46.875,-36.133,-30.273,-49.805,0.000
1709215269.690,-41.504,-28.320,-33.203,-40.039,0.000
1709215269.694,-36.621,-27.344,-35.645,-33.691,0.000
1709215269.698,-46.387,-39.551,-45.898,-37.598,0.000
1709215269.702,-57.617,-48.340,-47.852,-44.434,0.000
1709215269.706,-52.246,-31.738,-37.598,-49.316,0.000
1709215269.710,-49.805,-34.180,-32.227,-33.691,0.000
1709215269.714,-54.199,-57.129,-36.621,-11.719,0.000
1709215269.718,-32.227,-48.828,-38.574,-14.648,0.000
1709215269.722,-30.273,-33.203,-33.691,-36.133,0.000
1709215269.726,-43.945,-37.109,-35.156,-47.852,0.000
1709215269.730,-36.621,-32.715,-32.715,-42.969,0.000
1709215269.733,-24.414,-40.527,-32.227,-18.066,0.000
1709215269.737,-25.391,-41.504,-47.852,-10.742,0.000
1709215269.741,-43.945,-29.785,-53.223,-39.551,0.000
1709215269.745,-46.875,-21.973,-30.273,-40.527,0.000
1709215269.750,-40.527,-26.367,-20.020,-23.438,0.000
1709215269.754,-37.109,-41.992,-28.809,-36.133,0.000
1709215269.758,-26.367,-41.504,-41.992,-44.434,0.000
1709215269.762,-34.668,-47.852,-41.504,-44.434,0.000
1709215269.766,-60.547,-43.945,-36.133,-53.711,0.000
1709215269.769,-54.199,-27.344,-28.809,-46.875,0.000
1709215269.773,-34.668,-32.227,-25.879,-23.926,0.000
1709215269.777,-33.691,-41.992,-40.527,-10.254,0.000
1709215269.781,-33.203,-44.434,-40.527,-16.602,0.000
1709215269.785,-42.480,-50.781,-31.738,-40.527,0.000
1709215269.789,-44.922,-44.922,-36.133,-53.223,0.000
1709215269.793,-38.086,-38.574,-38.086,-48.340,0.000
1709215269.797,-39.062,-39.551,-37.598,-44.922,0.000
1709215269.801,-31.738,-38.574,-33.691,-45.410,0.000
1709215269.805,-46.875,-36.133,-26.855,-47.363,0.000
1709215269.808,-55.664,-38.086,-28.809,-54.688,0.000
1709215269.812,-48.340,-39.062,-43.945,-52.246,0.000
1709215269.816,-36.621,-43.457,-44.434,-36.133,0.000
1709215269.820,-30.273,-37.109,-33.203,-35.645,0.000
1709215269.824,-41.992,-34.668,-30.762,-44.434,0.000
1709215269.828,-47.852,-39.062,-33.203,-52.734,0.000
1709215269.832,-31.250,-33.691,-32.715,-39.062,0.000
1709215269.836,-24.414,-41.992,-24.902,-9.766,0.000
1709215269.840,-40.039,-48.340,-32.227,-21.484,0.000
1709215269.843,-42.480,-46.875,-36.133,-49.316,0.000
1709215269.847,-45.410,-46.387,-29.785,-58.594,0.000
1709215269.851,-44.922,-41.992,-31.738,-45.410,0.000
1709215269.855,-17.578,-49.805,-39.062,-28.320,0.000
1709215269.859,-19.531,-57.617,-41.016,-30.273,0.000
1709215269.863,-34.180,-37.109,-37.598,-41.016,0.000
1709215269.867,-41.992,-29.785,-38.574,-49.316,0.000
1709215269.871,-37.598,-37.598,-39.551,-38.086,0.000
1709215269.875,-20.508,-43.945,-37.109,-19.531,0.000
1709215269.879,-6.348,-47.852,-34.668,-7.324,0.000
1709215269.883,-22.461,-36.621,-43.457,-23.438,0.000
1709215269.886,-46.387,-31.738,-41.992,-53.711,0.000
1709215269.891,-40.039,-39.062,-42.480,-42.969,0.000
1709215269.895,-15.625,-34.180,-60.547,-23.926,0.000
1709215269.899,-19.531,-19.531,-47.363,-28.809,0.000
1709215269.903,-50.781,-31.738,-24.414,-46.875,0.000
1709215269.906,-53.711,-39.551,-27.832,-49.805,0.000
1709215269.910,-48.828,-34.180,-30.762,-33.691,0.000
1709215269.914,-36.621,-41.016,-36.621,-20.996,0.000
1709215269.918,-31.738,-41.016,-41.016,-17.578,0.000
1709215269.922,-46.387,-37.109,-44.922,-38.086,0.000
1709215269.926,-35.156,-39.062,-43.457,-43.457,0.000
1709215269.930,-35.156,-43.945,-34.180,-41.992,0.000
1709215269.934,-37.598,-33.691,-28.809,-36.621,0.000
1709215269.938,-27.344,-26.855,-27.832,-25.391,0.000
1709215269.942,-44.434,-51.758,-33.691,-39.551,0.000
1709215269.946,-58.105,-54.199,-41.016,-52.734,0.000
1709215269.950,-45.898,-34.668,-33.691,-42.480,0.000
1709215269.954,-16.113,-38.574,-35.156,-21.973,0.000
1709215269.958,-16.113,-38.086,-42.480,-21.484,0.000
1709215269.962,-43.457,-35.645,-39.062,-25.879,0.000
1709215269.965,-42.480,-27.832,-36.621,-32.715,0.000
1709215269.969,-33.203,-30.762,-30.273,-23.926,0.000
1709215269.973,-18.555,-52.246,-27.344,-11.230,0.000
1709215269.977,-14.648,-57.617,-27.344,-14.648,0.000
1709215269.981,-35.645,-35.156,-38.574,-18.555,0.000
1709215269.985,-40.039,-32.227,-47.363,-29.297,0.000
1709215269.989,-27.344,-37.109,-31.250,-43.945,0.000
1709215269.993,-39.062,-37.109,-36.133,-30.273,0.000
1709215269.997,-35.645,-37.598,-44.922,-18.066,0.000
1709215270.001,-22.949,-41.504,-34.668,-33.203,0.000
1709215270.005,-27.832,-46.387,-29.297,-40.039,0.000
1709215270.009,-41.504,-36.621,-28.809,-38.086,0.000
1709215270.013,-17.090,-39.551,-27.344,-30.762,0.000
1709215270.016,-6.348,-53.711,-29.785,-24.902,0.000
1709215270.020,-36.621,-51.270,-28.809,-27.832,0.000
1709215270.024,-48.828,-48.828,-29.785,-29.785,0.000
1709215270.028,-48.828,-41.992,-27.832,-31.738,0.000
1709215270.033,-34.668,-44.434,-28.320,-25.879,0.000
1709215270.037,-28.320,-46.875,-41.016,-16.113,0.000
1709215270.041,-36.621,-29.785,-42.969,-20.996,0.000
1709215270.045,-40.039,-30.762,-32.227,-44.434,0.000
1709215270.049,-59.570,-41.016,-36.133,-59.570,0.000
1709215270.053,-62.500,-46.875,-43.945,-38.574,0.000
1709215270.057,-36.621,-58.105,-36.133,-13.184,0.000
1709215270.061,-33.691,-54.688,-33.691,-19.043,0.000
1709215270.065,-57.129,-25.879,-40.527,-45.410,0.000
1709215270.069,-73.730,-17.090,-38.086,-54.688,0.000
1709215270.072,-53.711,-20.020,-35.645,-39.551,0.000
1709215270.076,-28.809,-41.504,-39.551,-29.297,0.000
1709215270.080,-39.551,-54.688,-41.992,-28.320,0.000
1709215270.084,-46.875,-38.086,-35.645,-39.062,0.000
1709215270.088,-46.387,-26.855,-29.785,-51.758,0.000
1709215270.092,-40.527,-29.297,-37.598,-46.387,0.000
1709215270.096,-22.461,-23.926,-41.992,-26.367,0.000
1709215270.100,-4.883,-46.875,-40.039,-15.625,0.000
1709215270.104,-8.789,-77.148,-40.039,-31.738,0.000
1709215270.108,-41.992,-42.969,-37.598,-59.082,0.000
1709215270.112,-56.641,-16.602,-37.109,-58.105,0.000
1709215270.115,-44.434,-30.762,-41.016,-33.203,0.000
1709215270.119,-35.645,-44.434,-41.504,-33.691,0.000
1709215270.123,-37.598,-37.598,-37.598,-46.875,0.000
1709215270.127,-50.781,-32.715,-30.273,-45.410,0.000
1709215270.131,-53.711,-54.688,-48.340,-36.621,0.000
1709215270.135,-37.109,-52.734,-53.223,-31.250,0.000
1709215270.139,-18.066,-31.738,-39.551,-36.133,0.000
1709215270.143,-39.062,-35.156,-41.016,-53.711,0.000
1709215270.147,-60.547,-58.105,-38.086,-58.105,0.000
1709215270.150,-54.199,-61.035,-32.715,-52.246,0.000
1709215270.154,-49.316,-34.668,-33.203,-41.992,0.000
1709215270.158,-41.504,-24.902,-32.227,-25.879,0.000
1709215270.162,-27.344,-33.203,-28.809,-38.086,0.000
1709215270.166,-43.457,-36.621,-28.320,-55.664,0.000
1709215270.170,-60.059,-37.109,-28.809,-59.570,0.000
1709215270.174,-46.875,-36.621,-37.109,-49.805,0.000
1709215270.178,-35.156,-34.668,-44.434,-31.250,0.000
1709215270.182,-33.203,-39.551,-36.133,-23.438,0.000
1709215270.186,-35.645,-53.711,-42.480,-37.598,0.000
1709215270.190,-36.133,-61.035,-38.574,-45.898,0.000
1709215270.194,-36.133,-51.270,-27.344,-36.133,0.000
1709215270.198,-20.508,-38.086,-34.668,-34.668,0.000
1709215270.202,-12.207,-41.504,-35.645,-24.414,0.000
1709215270.206,-46.387,-38.086,-36.621,-27.832,0.000
1709215270.210,-51.758,-29.785,-50.293,-44.922,0.000
1709215270.214,-23.926,-27.832,-47.852,-30.762,0.000
1709215270.217,-14.648,-34.180,-32.227,-2.441,0.000
1709215270.221,-22.461,-52.246,-36.133,-11.719,0.000
1709215270.225,-27.344,-47.852,-39.551,-36.133,0.000
1709215270.229,-38.574,-53.223,-36.133,-36.621,0.000
1709215270.233,-34.180,-62.500,-39.551,-26.855,0.000
1709215270.237,-4.395,-55.176,-36.133,-16.113,0.000
1709215270.241,-13.672,-55.664,-28.809,-20.020,0.000
1709215270.244,-41.992,-37.598,-44.922,-40.039,0.000
1709215270.248,-39.551,-20.508,-41.016,-52.734,0.000
1709215270.252,-44.434,-29.785,-24.902,-47.363,0.000
1709215270.256,-39.551,-42.480,-29.785,-34.668,0.000
1709215270.260,-31.250,-38.086,-34.668,-21.484,0.000
1709215270.264,-37.598,-27.832,-32.227,-25.391,0.000
1709215270.268,-44.922,-31.738,-31.738,-39.551,0.000
1709215270.271,-38.574,-35.156,-35.645,-41.504,0.000
1709215270.275,-24.414,-43.945,-36.621,-33.203,0.000
1709215270.279,-34.180,-56.641,-38.086,-26.855,0.000
1709215270.283,-52.734,-51.270,-38.574,-29.297,0.000
1709215270.287,-55.176,-29.785,-48.828,-38.086,0.000
1709215270.291,-56.641,-27.344,-48.828,-42.969,0.000
1709215270.295,-46.875,-36.621,-32.227,-34.668,0.000
1709215270.299,-24.902,-44.434,-28.809,-30.273,0.000
1709215270.303,-23.926,-60.059,-30.762,-36.621,0.000
1709215270.307,-35.645,-50.293,-37.109,-45.410,0.000
1709215270.310,-44.434,-38.574,-36.133,-38.574,0.000
1709215270.314,-38.086,-38.086,-32.715,-18.555,0.000
1709215270.318,-26.855,-33.203,-41.504,-12.695,0.000
1709215270.322,-10.254,-41.504,-42.969,-24.414,0.000
1709215270.326,-20.508,-44.922,-39.551,-51.758,0.000
1709215270.330,-44.922,-36.133,-33.203,-58.594,0.000
1709215270.333,-36.133,-34.180,-21.484,-39.062,0.000
1709215270.337,-10.742,-36.133,-24.414,-23.438,0.000
1709215270.341,-16.602,-39.551,-35.156,-31.250,0.000
1709215270.345,-49.805,-49.805,-31.738,-55.176,0.000
1709215270.349,-58.105,-58.105,-30.762,-50.293,0.000
1709215270.353,-49.316,-53.223,-41.992,-32.227,0.000
1709215270.357,-35.156,-48.828,-36.621,-34.180,0.000
1709215270.362,-31.738,-42.969,-35.156,-42.969,0.000
1709215270.366,-39.551,-42.480,-50.293,-44.434,0.000
1709215270.370,-53.223,-41.992,-42.969,-55.664,0.000
1709215270.374,-47.852,-37.109,-33.203,-51.270,0.000
1709215270.377,-29.297,-39.551,-41.992,-37.109,0.000
1709215270.381,-43.457,-38.086,-38.086,-28.809,0.000
1709215270.385,-61.523,-41.504,-31.738,-33.691,0.000
1709215270.389,-62.012,-48.340,-27.344,-43.457,0.000
1709215270.393,-44.434,-61.523,-30.762,-37.598,0.000
1709215270.397,-41.016,-52.734,-41.504,-34.668,0.000
1709215270.401,-58.594,-34.668,-40.527,-43.457,0.000
1709215270.405,-68.848,-31.738,-40.527,-56.641,0.000
1709215270.410,-72.266,-37.598,-41.992,-54.199,0.000
1709215270.413,-72.266,-47.852,-43.945,-49.316,0.000
1709215270.417,-51.270,-47.363,-39.062,-38.574,0.000
1709215270.421,-40.527,-45.898,-46.387,-33.691,0.000
1709215270.425,-49.805,-54.199,-47.852,-54.199,0.000
1709215270.429,-59.082,-55.176,-34.180,-58.594,0.000
1709215270.433,-43.945,-44.922,-35.156,-48.828,0.000
1709215270.437,-24.902,-39.062,-35.645,-34.668,0.000
1709215270.441,-33.203,-37.598,-31.250,-22.461,0.000
1709215270.445,-50.293,-36.133,-32.715,-32.715,0.000
1709215270.449,-55.176,-42.480,-37.109,-42.480,0.000
1709215270.453,-48.828,-43.945,-41.504,-40.527,0.000
1709215270.456,-38.574,-41.504,-37.109,-23.438,0.000
1709215270.460,-32.227,-38.086,-38.086,-4.883,0.000
1709215270.464,-33.691,-34.180,-43.457,-25.391,0.000
1709215270.468,-49.805,-33.203,-37.598,-46.387,0.000
1709215270.472,-53.223,-35.156,-32.227,-49.316,0.000
1709215270.476,-38.574,-34.180,-39.551,-33.691,0.000
1709215270.480,-23.926,-33.691,-46.875,-13.184,0.000
1709215270.484,-30.762,-50.293,-36.621,-30.273,0.000
1709215270.488,-45.898,-51.758,-41.016,-51.758,0.000
1709215270.492,-42.969,-28.809,-48.340,-44.434,0.000
1709215270.495,-22.461,-30.762,-43.457,-38.086,0.000
1709215270.499,-7.324,-55.176,-42.969,-31.250,0.000
1709215270.503,-21.484,-48.828,-46.875,-24.902,0.000
1709215270.507,-41.504,-23.926,-39.062,-40.527,0.000
1709215270.511,-45.410,-19.531,-29.785,-55.176,0.000
1709215270.515,-35.156,-27.832,-30.762,-31.738,0.000
1709215270.519,-19.531,-24.902,-36.133,-9.766,0.000
1709215270.523,-16.602,-32.227,-26.855,-24.902,0.000
1709215270.527,-35.645,-42.969,-30.762,-40.527,0.000
1709215270.530,-52.246,-33.691,-43.457,-49.805,0.000
1709215270.534,-32.227,-35.645,-37.109,-32.715,0.000
1709215270.538,-4.883,-37.598,-38.086,-19.043,0.000
1709215270.542,-16.602,-28.809,-36.621,-37.598,0.000
1709215270.546,-36.621,-30.762,-32.715,-54.199,0.000
1709215270.550,-51.270,-36.621,-32.715,-50.293,0.000
1709215270.554,-40.527,-28.809,-33.691,-28.320,0.000
1709215270.558,-22.461,-22.461,-38.574,-25.391,0.000
1709215270.561,-12.207,-46.875,-35.645,-18.555,0.000
1709215270.565,-22.461,-46.875,-26.367,-30.273,0.000
1709215270.569,-40.527,-17.578,-40.039,-56.152,0.000
1709215270.573,-39.551,-23.926,-53.223,-53.223,0.000
1709215270.577,-40.039,-38.086,-45.898,-39.062,0.000
1709215270.581,-41.016,-40.527,-41.016,-36.133,0.000
1709215270.585,-52.246,-38.086,-42.480,-53.711,0.000
1709215270.589,-57.129,-45.410,-41.992,-63.965,0.000
1709215270.593,-42.480,-52.734,-45.410,-53.711,0.000
1709215270.597,-29.785,-48.340,-42.969,-32.715,0.000
1709215270.601,-34.668,-32.227,-39.062,-23.926,0.000
1709215270.605,-30.273,-23.926,-44.922,-37.109,0.000
1709215270.609,-34.668,-34.668,-34.180,-50.781,0.000
1709215270.613,-45.410,-40.039,-31.738,-40.039,0.000
1709215270.617,-34.668,-37.109,-41.504,-18.066,0.000
1709215270.621,-28.809,-38.574,-37.109,-21.484,0.000
1709215270.624,-40.527,-42.969,-33.203,-32.227,0.000
1709215270.628,-54.199,-29.785,-37.598,-41.016,0.000
1709215270.632,-43.945,-34.180,-41.992,-44.922,0.000
1709215270.636,-18.555,-59.082,-34.180,-36.621,0.000
1709215270.640,-1.953,-48.828,-28.320,-27.344,0.000
1709215270.644,-22.949,-28.809,-32.715,-37.109,0.000
1709215270.647,-48.828,-30.273,-36.133,-52.734,0.000
1709215270.651,-44.922,-48.828,-33.691,-40.527,0.000
1709215270.655,-23.438,-64.453,-41.016,-20.020,0.000
1709215270.659,-18.066,-33.203,-44.922,-21.973,0.000
1709215270.663,-49.316,-24.414,-48.340,-40.039,0.000
1709215270.667,-55.664,-35.645,-45.410,-44.922,0.000
1709215270.671,-39.551,-40.039,-35.645,-47.363,0.000
1709215270.675,-33.691,-48.340,-36.621,-36.133,0.000
1709215270.679,-23.926,-39.062,-37.598,-18.066,0.000
1709215270.683,-30.273,-39.551,-38.574,-18.066,0.000
1709215270.687,-44.922,-55.176,-35.645,-24.414,0.000
1709215270.690,-30.762,-43.945,-30.762,-37.109,0.000
1709215270.694,-27.832,-40.527,-32.227,-30.273,0.000
1709215270.698,-38.574,-50.781,-43.457,-15.137,0.000
1709215270.702,-34.668,-37.598,-34.668,-8.789,0.000
1709215270.706,-40.527,-25.879,-26.367,-32.227,0.000
1709215270.709,-47.363,-41.504,-36.133,-65.918,0.000
1709215270.713,-38.086,-42.480,-29.785,-40.527,0.000
1709215270.717,-30.762,-31.738,-32.227,-14.648,0.000
1709215270.721,-36.133,-36.133,-34.180,-24.902,0.000
1709215270.725,-48.340,-33.691,-42.969,-29.785,0.000
1709215270.729,-39.062,-41.992,-45.898,-31.250,0.000
1709215270.733,-37.598,-59.570,-28.809,-29.297,0.000
1709215270.738,-42.969,-56.641,-26.367,-25.879,0.000
1709215270.742,-30.273,-42.480,-33.203,-29.785,0.000
1709215270.746,-34.180,-28.809,-40.527,-51.270,0.000
1709215270.749,-48.340,-23.438,-43.457,-56.641,0.000
1709215270.753,-45.410,-34.668,-36.133,-42.969,0.000
1709215270.757,-33.691,-50.293,-39.551,-27.832,0.000
1709215270.761,-35.645,-43.945,-48.828,-19.531,0.000
1709215270.765,-53.711,-37.598,-52.246,-53.223,0.000
1709215270.769,-52.734,-32.227,-43.457,-73.242,0.000
1709215270.773,-46.875,-28.320,-33.691,-43.945,0.000
1709215270.777,-42.969,-33.203,-39.062,-27.832,0.000
1709215270.781,-33.203,-54.199,-35.156,-17.090,0.000
1709215270.785,-26.367,-77.148,-31.738,-8.789,0.000
1709215270.789,-44.434,-49.316,-39.062,-32.227,0.000
1709215270.792,-58.105,-16.602,-36.133,-47.363,0.000
1709215270.796,-38.086,-13.184,-33.203,-35.156,0.000
1709215270.800,-18.555,-22.949,-35.645,-23.926,0.000
1709215270.804,-38.086,-50.781,-33.203,-29.785,0.000
1709215270.808,-62.500,-61.035,-33.203,-53.223,0.000
1709215270.812,-45.410,-36.133,-40.039,-49.316,0.000
1709215270.816,-22.461,-46.387,-41.016,-19.043,0.000
1709215270.820,-15.137,-53.711,-38.086,-24.414,0.000
1709215270.824,-16.113,-40.527,-34.668,-49.316,0.000
1709215270.828,-31.738,-41.992,-29.297,-66.406,0.000
1709215270.831,-58.105,-49.805,-30.762,-64.453,0.000
1709215270.835,-35.156,-45.898,-32.227,-34.180,0.000
1709215270.839,-13.184,-25.391,-35.156,-21.484,0.000
1709215270.843,-33.203,-18.555,-40.039,-38.086,0.000
1709215270.847,-44.434,-30.273,-41.016,-47.363,0.000
1709215270.851,-41.016,-36.621,-36.621,-41.992,0.000
1709215270.855,-35.156,-38.574,-29.785,-36.621,0.000
1709215270.859,-33.203,-50.293,-32.227,-21.973,0.000
1709215270.863,-29.785,-42.969,-37.598,-11.719,0.000
1709215270.867,-46.387,-40.039,-36.133,-18.555,0.000
1709215270.870,-34.180,-44.922,-35.156,-40.039,0.000
1709215270.874,-21.973,-29.297,-27.832,-39.551,0.000
1709215270.878,-42.969,-25.879,-26.367,-30.762,0.000
1709215270.882,-39.062,-36.621,-35.156,-39.062,0.000
1709215270.886,-27.832,-40.039,-35.645,-38.086,0.000
1709215270.890,-36.133,-32.715,-32.227,-41.992,0.000
1709215270.894,-30.762,-40.039,-32.227,-41.504,0.000
1709215270.898,-24.414,-57.129,-44.922,-27.832,0.000
1709215270.902,-39.551,-41.016,-49.316,-34.180,0.000
1709215270.906,-47.363,-26.367,-38.574,-57.617,0.000
1709215270.909,-50.293,-26.855,-36.133,-59.570,0.000
1709215270.913,-37.598,-32.227,-41.992,-44.922,0.000
1709215270.917,-11.719,-35.645,-43.457,-28.320,0.000
1709215270.921,-17.578,-35.645,-39.551,-11.719,0.000
1709215270.926,-27.832,-45.410,-38.574,-28.809,0.000
1709215270.930,-51.270,-42.969,-41.016,-53.223,0.000
1709215270.933,-66.406,-38.574,-47.852,-53.223,0.000
1709215270.937,-37.109,-41.016,-42.969,-36.133,0.000
1709215270.941,-12.695,-32.715,-37.598,-11.719,0.000
1709215270.945,-20.508,-26.367,-48.340,-21.973,0.000
1709215270.949,-55.176,-45.410,-49.805,-52.246,0.000
1709215270.953,-61.523,-45.410,-42.969,-46.875,0.000
1709215270.957,-38.574,-29.297,-42.969,-26.855,0.000
1709215270.961,-31.738,-31.738,-47.852,-30.762,0.000
1709215270.965,-45.410,-52.734,-40.039,-42.969,0.000
1709215270.969,-55.176,-50.293,-29.297,-39.551,0.000
1709215270.972,0.000,-30.762,-24.902,-34.668,0.000
1709215270.976,0.000,-45.898,-27.832,-39.551,0.000
1709215270.980,0.000,-44.922,-36.133,-36.621,0.000
1709215270.984,0.000,-41.016,-33.203,-39.551,0.000
1709215270.988,0.000,-43.457,-41.992,-56.152,0.000
1709215270.992,0.000,-38.086,-49.805,-61.035,0.000
1709215270.996,0.000,-46.875,-37.109,-36.133,0.000
1709215271.000,0.000,-41.504,-30.762,-18.555,0.000
1709215271.004,0.000,-30.762,-34.668,-37.109,0.000
1709215271.007,0.000,-35.645,-36.133,-52.734,0.000
1709215271.011,0.000,-44.434,-35.645,-53.223,0.000
1709215271.015,0.000,-54.688,-32.715,-42.480,0.000
1709215271.019,-30.762,-50.781,-36.133,-40.039,0.000
1709215271.023,-46.875,-43.945,-34.668,-41.992,0.000
1709215271.027,-45.898,-40.527,-32.227,-38.086,0.000
1709215271.030,-40.527,-43.457,-37.598,-44.434,0.000
1709215271.034,-37.598,-40.527,-40.039,-49.316,0.000
1709215271.038,-36.133,-23.438,-36.133,-41.992,0.000
1709215271.042,-27.832,-28.809,-33.203,-42.969,0.000
1709215271.046,-42.969,-51.270,-33.203,-40.039,0.000
1709215271.050,-47.363,-45.410,-33.203,-49.805,0.000
1709215271.054,-36.133,-35.645,-41.016,-55.176,0.000
1709215271.058,-41.992,-59.570,-45.898,-43.945,0.000
1709215271.062,-43.945,-53.223,-48.828,-39.062,0.000
1709215271.065,-41.504,-25.879,-46.875,-42.480,0.000
1709215271.069,-57.129,-40.039,-44.434,-53.711,0.000
1709215271.073,-55.664,-56.152,-38.086,-44.922,0.000
1709215271.077,-28.809,-53.711,-31.250,-32.227,0.000
1709215271.081,-30.273,-40.039,-39.062,-35.156,0.000
1709215271.085,-40.039,-44.434,-38.086,-49.316,0.000
1709215271.089,-50.293,-62.012,-32.715,-58.594,0.000
1709215271.093,-66.406,-47.363,-37.109,-45.898,0.000
1709215271.097,-46.875,-23.438,-38.574,-31.250,0.000
1709215271.100,-36.133,-26.367,-40.527,-24.414,0.000
1709215271.104,-44.922,-42.480,-46.875,-34.668,0.000
1709215271.108,-64.453,-44.434,-41.992,-57.617,0.000
1709215271.112,-57.617,-48.828,-39.062,-54.199,0.000
1709215271.115,-35.645,-49.805,-33.691,-22.949,0.000
1709215271.119,-29.785,-34.668,-28.320,-6.836,0.000
1709215271.123,-35.156,-39.062,-33.691,-35.156,0.000
1709215271.127,-56.641,-41.992,-39.062,-57.129,0.000
1709215271.131,-72.754,-42.480,-42.969,-53.711,0.000
1709215271.135,-59.570,-52.246,-39.551,-36.133,0.000
1709215271.139,-38.574,-52.734,-40.527,-22.461,0.000
1709215271.143,-33.691,-37.109,-39.062,-30.273,0.000
1709215271.147,-43.945,-36.621,-39.551,-45.898,0.000
1709215271.151,-28.809,-42.480,-44.922,-41.504,0.000
1709215271.155,-35.156,-37.109,-47.363,-33.691,0.000
1709215271.159,-40.039,-37.598,-45.898,-24.414,0.000
1709215271.162,-36.621,-48.828,-42.480,-25.391,0.000
1709215271.166,-46.875,-49.805,-37.598,-47.852,0.000
1709215271.170,-42.969,-49.805,-34.668,-53.711,0.000
1709215271.174,-38.574,-44.922,-35.156,-36.621,0.000
1709215271.178,-31.250,-27.832,-38.086,-24.414,0.000
1709215271.182,-37.598,-34.180,-50.781,-38.086,0.000
1709215271.186,-29.785,-46.875,-42.480,-62.500,0.000
1709215271.190,-28.809,-40.527,-23.438,-58.594,0.000
1709215271.194,-52.246,-48.828,-34.668,-34.668,0.000
1709215271.198,-57.617,-45.410,-46.387,-34.668,0.000
1709215271.202,-47.852,-31.738,-32.715,-44.434,0.000
1709215271.205,-49.805,-37.598,-26.367,-57.617,0.000
1709215271.209,-59.082,-33.203,-32.715,-61.035,0.000
1709215271.213,-47.852,-34.180,-41.504,-49.805,0.000
1709215271.217,-35.156,-45.898,-41.016,-40.527,0.000
1709215271.221,-29.785,-40.039,-40.527,-36.621,0.000
1709215271.225,-34.668,-37.598,-40.527,-43.457,0.000
1709215271.229,-40.039,-42.969,-39.062,-53.223,0.000
1709215271.233,-41.504,-50.781,-31.738,-43.457,0.000
1709215271.237,-37.598,-43.457,-33.691,-19.531,0.000
1709215271.241,-41.016,-36.133,-41.992,-15.137,0.000
1709215271.244,-45.410,-34.668,-32.715,-33.203,0.000
1709215271.248,-54.688,-38.086,-34.668,-47.852,0.000
1709215271.252,-35.156,-37.109,-40.039,-39.551,0.000
1709215271.256,-22.461,-45.410,-38.574,-22.461,0.000
1709215271.260,-29.297,-53.711,-33.691,-22.949,0.000
1709215271.264,-27.344,-41.992,-33.691,-29.297,0.000
1709215271.268,-43.457,-45.898,-38.574,-34.668,0.000
1709215271.272,-42.480,-65.430,-37.109,-33.203,0.000
1709215271.276,-41.016,-55.664,-42.480,-32.227,0.000
1709215271.279,-38.086,-41.992,-47.852,-51.270,0.000
1709215271.283,-29.785,-34.180,-40.527,-54.688,0.000
1709215271.287,-42.969,-31.250,-41.016,-53.223,0.000
1709215271.291,-38.086,-38.574,-39.551,-50.293,0.000
1709215271.295,-20.996,-33.691,-37.109,-34.180,0.000
1709215271.299,-25.879,-34.180,-38.574,-32.227,0.000
1709215271.303,-31.250,-41.504,-37.109,-38.574,0.000
1709215271.307,-38.574,-51.270,-38.574,-47.363,0.000
1709215271.311,-41.016,-44.922,-39.551,-34.668,0.000
1709215271.314,-27.344,-35.156,-44.434,-23.438,0.000
1709215271.318,-16.602,-40.039,-44.434,-30.273,0.000
1709215271.322,-33.691,-42.969,-44.922,-36.621,0.000
1709215271.326,-54.199,-41.992,-52.246,-44.434,0.000
1709215271.330,-56.152,-41.504,-46.387,-46.387,0.000
1709215271.334,-44.434,-38.086,-40.527,-39.062,0.000
1709215271.338,-31.738,-33.203,-37.109,-24.414,0.000
1709215271.342,-40.039,-42.969,-27.832,-13.184,0.000
1709215271.345,-37.598,-41.016,-31.738,-26.855,0.000
1709215271.349,-26.855,-32.715,-46.387,-46.387,0.000
1709215271.353,-30.762,-42.480,-45.410,-38.086,0.000
1709215271.357,-28.320,-48.828,-37.598,-20.996,0.000
1709215271.361,-32.227,-50.293,-34.180,-29.785,0.000
1709215271.365,-39.062,-50.293,-26.855,-50.293,0.000
1709215271.369,-49.316,-42.480,-24.902,-53.223,0.000
1709215271.373,-48.340,-37.598,-33.203,-36.133,0.000
1709215271.377,-50.293,-31.250,-40.527,-37.109,0.000
1709215271.381,-43.945,-26.367,-41.992,-58.594,0.000
1709215271.385,-32.227,-24.902,-39.062,-62.500,0.000
1709215271.388,-55.176,-30.273,-37.109,-60.059,0.000
1709215271.392,-55.176,-39.062,-35.645,-41.504,0.000
1709215271.396,-38.574,-48.340,-38.086,-22.461,0.000
1709215271.400,-25.879,-44.922,-40.039,-20.508,0.000
1709215271.404,-33.691,-54.199,-37.109,-37.109,0.000
1709215271.408,-41.016,-62.988,-35.645,-49.316,0.000
1709215271.411,-37.109,-44.922,-39.062,-43.945,0.000
1709215271.415,-33.691,-32.227,-41.016,-20.020,0.000
1709215271.419,-28.320,-38.086,-34.180,2.441,0.000
1709215271.423,-38.086,-50.781,-33.691,-20.508,0.000
1709215271.427,-36.621,-43.945,-38.086,-45.410,0.000
1709215271.431,-20.996,-34.668,-32.715,-28.809,0.000
1709215271.435,-30.273,-36.133,-46.387,-5.859,0.000
1709215271.438,-37.109,-38.574,-48.828,-13.184,0.000
1709215271.442,-41.016,-59.082,-32.715,-38.574,0.000
1709215271.446,-46.387,-57.617,-32.715,-54.199,0.000
1709215271.450,-33.203,-35.156,-24.902,-54.688,0.000
1709215271.454,-30.273,-44.434,-21.973,-51.270,0.000
1709215271.458,-30.762,-51.270,-30.273,-43.945,0.000
1709215271.462,-33.203,-45.898,-39.551,-42.480,0.000
1709215271.466,-43.945,-40.527,-45.898,-54.688,0.000
1709215271.470,-44.434,-25.879,-44.434,-62.988,0.000
1709215271.474,-18.555,-33.691,-39.551,-55.176,0.000
1709215271.477,-6.836,-57.129,-33.203,-37.109,0.000
1709215271.481,-39.551,-44.434,-30.762,-30.273,0.000
1709215271.485,-55.176,-38.086,-42.480,-59.082,0.000
1709215271.489,-39.551,-33.203,-36.621,-61.523,0.000
1709215271.493,-29.297,-29.297,-23.438,-34.668,0.000
1709215271.496,-27.344,-29.785,-25.391,-20.996,0.000
1709215271.500,-20.996,-31.250,-27.832,-26.855,0.000
1709215271.504,-23.926,-33.691,-29.297,-32.715,0.000
1709215271.508,-47.363,-44.922,-32.227,-15.137,0.000
1709215271.512,-41.016,-64.941,-32.715,-6.836,0.000
1709215271.516,-20.996,-56.152,-25.391,-3.418,0.000
1709215271.520,-25.879,-41.016,-30.273,-6.348,0.000
1709215271.524,-42.969,-29.785,-36.133,-26.855,0.000
1709215271.528,-43.457,-33.203,-39.062,-34.668,0.000
1709215271.532,-27.344,-43.457,-30.273,-29.297,0.000
1709215271.536,-16.113,-38.086,-20.996,-14.160,0.000
1709215271.540,-17.578,-29.785,-31.738,-14.160,0.000
1709215271.543,-24.902,-45.410,-34.180,-44.922,0.000
1709215271.547,-33.691,-47.363,-30.762,-46.875,0.000
1709215271.551,-38.086,-26.855,-26.855,-29.785,0.000
1709215271.555,-38.086,-27.832,-26.855,-34.180,0.000
1709215271.559,-40.527,-33.203,-41.504,-50.293,0.000
1709215271.563,-49.316,-42.969,-48.828,-70.312,0.000
1709215271.567,-65.918,-52.734,-45.410,-66.895,0.000
1709215271.571,-57.129,-47.852,-43.457,-46.387,0.000
1709215271.575,-27.344,-43.457,-41.992,-39.062,0.000
1709215271.579,-28.320,-41.016,-46.387,-41.504,0.000
1709215271.583,-42.480,-39.062,-49.805,-61.035,0.000
1709215271.587,-41.016,-36.621,-46.387,-76.660,0.000
1709215271.590,-40.039,-27.344,-38.086,-57.617,0.000
1709215271.594,-29.297,-26.855,-32.227,-27.344,0.000
1709215271.598,-17.578,-35.645,-31.738,-15.625,0.000
1709215271.602,-7.324,-47.363,-36.133,-25.391,0.000
1709215271.606,-35.645,-58.594,-37.109,-42.480,0.000
1709215271.610,-55.664,-46.387,-31.738,-31.250,0.000
1709215271.614,-33.691,-31.738,-30.273,-7.812,0.000
1709215271.618,-23.438,-47.852,-32.227,-9.277,0.000
1709215271.622,-35.645,-49.805,-42.480,-24.902,0.000
1709215271.626,-66.895,-44.922,-47.852,-37.598,0.000
1709215271.629,-55.664,-50.781,-43.945,-42.480,0.000
1709215271.633,-33.691,-40.527,-42.969,-37.598,0.000
1709215271.637,-47.363,-38.574,-49.316,-28.809,0.000
1709215271.641,-61.035,-54.688,-45.898,-29.785,0.000
1709215271.645,-65.918,-62.012,-31.250,-36.621,0.000
1709215271.649,-59.082,-44.434,-34.668,-42.969,0.000
1709215271.653,-46.875,-31.738,-33.203,-34.668,0.000
1709215271.657,-28.809,-40.039,-31.738,-22.949,0.000
1709215271.661,-27.344,-51.758,-32.227,-33.203,0.000
1709215271.665,-41.992,-45.410,-33.691,-56.152,0.000
1709215271.669,-53.711,-45.410,-46.875,-63.965,0.000
1709215271.672,-41.504,-48.340,-49.316,-53.223,0.000
1709215271.676,-36.621,-45.898,-41.016,-39.062,0.000
1709215271.680,-53.711,-41.992,-38.086,-44.922,0.000
1709215271.684,-58.594,-40.527,-48.828,-63.965,0.000
1709215271.688,-59.570,-40.039,-47.363,-69.336,0.000
1709215271.692,-44.434,-49.316,-43.945,-52.246,0.000
1709215271.696,-20.508,-59.082,-43.457,-36.621,0.000
1709215271.700,-19.531,-51.270,-41.016,-36.133,0.000
1709215271.704,-42.480,-44.922,-46.875,-40.039,0.000
1709215271.707,-61.523,-42.969,-58.105,-66.406,0.000
1709215271.711,-54.199,-36.133,-50.781,-66.895,0.000
1709215271.715,-35.156,-32.715,-42.480,-46.387,0.000
1709215271.719,-40.527,-31.738,-44.922,-43.457,0.000
1709215271.723,-55.176,-34.180,-39.062,-43.945,0.000
1709215271.727,-42.480,-44.922,-35.156,-47.852,0.000
1709215271.731,-29.297,-50.293,-37.598,-49.805,0.000
1709215271.735,-33.203,-48.340,-38.574,-44.434,0.000
1709215271.739,-28.320,-48.828,-37.598,-38.574,0.000
1709215271.742,-33.691,-41.016,-35.645,-50.293,0.000
1709215271.746,-41.504,-28.809,-38.086,-48.828,0.000
1709215271.750,-28.320,-23.926,-39.062,-36.133,0.000
1709215271.754,-26.367,-35.156,-40.039,-42.969,0.000
1709215271.758,-39.062,-41.992,-35.645,-33.203,0.000
1709215271.762,-41.016,-49.805,-34.180,-24.902,0.000
1709215271.766,-56.641,-56.641,-40.527,-49.316,0.000
1709215271.770,-59.082,-44.434,-33.203,-59.082,0.000
1709215271.773,-51.270,-53.223,-31.250,-48.828,0.000
1709215271.777,-37.598,-50.293,-38.574,-37.109,0.000
1709215271.781,-38.086,-31.250,-38.086,-46.387,0.000
1709215271.785,-55.664,-40.039,-37.109,-69.824,0.000
1709215271.789,-52.734,-40.039,-36.621,-53.223,0.000
1709215271.793,-25.391,-20.508,-40.527,-23.438,0.000
1709215271.797,-19.531,-23.926,-47.363,-43.457,0.000
1709215271.801,-30.273,-40.039,-45.410,-57.129,0.000
1709215271.805,-40.527,-47.363,-44.922,-54.688,0.000
1709215271.809,-45.410,-45.898,-40.039,-53.223,0.000
1709215271.812,-30.762,-44.922,-31.738,-45.410,0.000
1709215271.816,-26.855,-40.527,-38.574,-35.645,0.000
1709215271.820,-24.902,-40.039,-37.109,-35.156,0.000
1709215271.824,-24.414,-30.273,-37.109,-46.875,0.000
1709215271.828,-22.949,-15.137,-48.340,-50.293,0.000
1709215271.832,-20.508,-31.738,-40.039,-41.504,0.000
1709215271.836,-9.277,-30.762,-26.855,-20.508,0.000
1709215271.839,-3.418,-26.367,-35.645,-20.020,0.000
1709215271.843,-42.969,-62.012,-41.016,-40.039,0.000
1709215271.847,-60.547,-54.688,-34.668,-41.504,0.000
1709215271.851,-41.504,-23.926,-39.062,-30.273,0.000
1709215271.855,-19.531,-31.738,-31.738,-18.066,0.000
1709215271.859,-27.344,-40.039,-40.527,-24.902,0.000
1709215271.863,-45.410,-32.227,-50.293,-42.969,0.000
1709215271.867,-41.504,-31.738,-40.527,-57.129,0.000
1709215271.871,-39.551,-29.785,-43.457,-53.711,0.000
1709215271.875,-30.273,-21.973,-41.016,-25.879,0.000
1709215271.879,-22.461,-30.273,-39.062,-18.555,0.000
1709215271.883,-38.574,-44.434,-44.434,-44.922,0.000
1709215271.886,-54.688,-42.480,-45.898,-54.688,0.000
1709215271.890,-43.945,-44.922,-41.992,-44.434,0.000
1709215271.894,-32.227,-57.617,-40.527,-29.785,0.000
1709215271.898,-38.086,-46.875,-45.410,-19.531,0.000
1709215271.902,-50.293,-41.992,-43.457,-37.598,0.000
1709215271.906,-59.082,-55.664,-52.246,-54.688,0.000
1709215271.910,-54.199,-59.082,-53.711,-38.086,0.000
1709215271.914,-35.645,-57.617,-40.527,-28.809,0.000
1709215271.918,-23.926,-35.156,-35.645,-26.367,0.000
1709215271.922,-29.785,-38.086,-33.203,-30.762,0.000
1709215271.926,-57.617,-52.246,-31.738,-43.457,0.000
1709215271.930,-56.641,-36.621,-33.691,-35.156,0.000
1709215271.933,-32.227,-40.527,-37.598,-26.855,0.000
1709215271.937,-20.996,-54.688,-29.785,-22.461,0.000
1709215271.941,-42.969,-38.086,-32.715,-22.461,0.000
1709215271.945,-54.199,-38.086,-40.039,-38.086,0.000
1709215271.949,-26.855,-40.039,-36.621,-47.363,0.000
1709215271.953,-31.738,-31.738,-37.109,-33.203,0.000
1709215271.957,-33.203,-47.363,-35.156,-20.020,0.000
1709215271.961,-33.203,-51.758,-39.062,-31.738,0.000
1709215271.965,-44.434,-41.504,-44.922,-42.969,0.000
1709215271.969,-48.828,-39.551,-48.828,-35.645,0.000
1709215271.973,-44.922,-47.363,-45.410,-25.879,0.000
1709215271.977,-32.715,-56.152,-32.227,-30.762,0.000
1709215271.981,-41.992,-46.387,-36.133,-37.109,0.000
1709215271.984,-51.758,-34.180,-47.852,-45.410,0.000
1709215271.988,-58.105,-49.316,-46.875,-52.734,0.000
1709215271.992,-45.898,-36.133,-34.668,-49.316,0.000
1709215271.996,-35.645,-29.785,-33.203,-27.832,0.000
1709215272.001,0.000,-52.734,-43.457,-40.527,0.000
1709215272.004,0.000,-48.828,-47.852,-70.801,0.000
1709215272.008,0.000,-44.922,-44.434,-62.988,0.000
1709215272.012,0.000,-51.270,-38.086,-45.898,0.000
1709215272.016,0.000,-43.457,-39.062,-41.016,0.000
1709215272.020,0.000,-39.062,-48.828,-51.758,0.000
1709215272.024,0.000,-40.039,-49.316,-62.012,0.000
1709215272.028,0.000,-39.062,-41.016,-64.453,0.000
1709215272.032,0.000,-46.387,-46.387,-51.758,0.000
1709215272.036,0.000,-36.133,-46.387,-29.785,0.000
1709215272.040,0.000,-38.086,-44.922,-33.203,0.000
1709215272.044,0.000,-53.223,-48.828,-55.176,0.000
1709215272.047,-53.223,-41.016,-45.898,-67.871,0.000
1709215272.051,-42.969,-40.527,-44.922,-54.199,0.000
1709215272.055,-26.855,-33.691,-41.504,-36.621,0.000
1709215272.059,-21.484,-35.645,-46.387,-33.203,0.000
1709215272.063,-34.180,-46.387,-44.922,-37.598,0.000
1709215272.067,-26.855,-33.691,-29.785,-43.457,0.000
1709215272.071,-24.414,-25.391,-31.738,-31.738,0.000
1709215272.075,-28.320,-31.250,-36.621,-8.301,0.000
1709215272.079,-21.484,-38.086,-36.133,-12.207,0.000
1709215272.083,-28.320,-35.645,-32.227,-34.668,0.000
1709215272.086,-36.133,-41.016,-34.180,-47.852,0.000
1709215272.090,-29.785,-51.270,-39.062,-40.527,0.000
1709215272.094,-31.250,-44.434,-35.645,-28.320,0.000
1709215272.098,-31.738,-44.922,-37.598,-26.367,0.000
1709215272.102,-50.781,-44.922,-44.922,-44.922,0.000
1709215272.106,-54.199,-33.203,-45.410,-62.988,0.000
1709215272.110,-37.109,-56.152,-31.738,-39.062,0.000
1709215272.114,-41.504,-59.570,-31.738,-20.508,0.000
1709215272.117,-35.645,-35.645,-35.156,-25.391,0.000
1709215272.121,-35.156,-30.273,-34.668,-28.809,0.000
1709215272.125,-46.387,-24.414,-36.133,-34.668,0.000
1709215272.129,-43.457,-26.855,-39.062,-42.969,0.000
1709215272.133,-23.926,-41.016,-40.039,-20.996,0.000
1709215272.137,-16.602,-46.875,-41.504,-14.160,0.000
1709215272.141,-35.645,-50.781,-44.922,-44.922,0.000
1709215272.145,-61.523,-49.316,-41.992,-54.199,0.000
1709215272.148,-53.711,-33.691,-36.133,-41.504,0.000
1709215272.152,-26.855,-35.156,-36.621,-26.367,0.000
1709215272.156,-15.137,-42.480,-36.621,-23.438,0.000
1709215272.160,-19.043,-40.527,-31.738,-44.922,0.000
1709215272.164,-44.434,-42.480,-32.227,-56.641,0.000
1709215272.168,-58.105,-44.922,-37.109,-45.898,0.000
1709215272.172,-40.039,-34.668,-36.621,-34.180,0.000
1709215272.176,-19.043,-53.223,-37.598,-19.043,0.000
1709215272.180,-14.160,-65.918,-42.969,-16.602,0.000
1709215272.184,-34.668,-37.109,-44.434,-39.551,0.000
1709215272.187,-42.480,-29.297,-38.086,-47.363,0.000
1709215272.191,-33.691,-24.902,-37.109,-41.992,0.000
1709215272.195,-32.227,-29.297,-40.039,-30.762,0.000
1709215272.199,-39.551,-61.523,-41.016,-37.109,0.000
1709215272.203,-42.969,-61.523,-54.199,-52.246,0.000
1709215272.207,-49.316,-33.691,-47.852,-55.176,0.000
1709215272.211,-59.082,-36.133,-29.297,-46.387,0.000
1709215272.215,-52.246,-41.016,-41.504,-38.574,0.000
1709215272.218,-37.598,-38.574,-37.109,-44.922,0.000
1709215272.222,-45.898,-37.598,-32.227,-59.570,0.000
1709215272.226,-51.270,-40.527,-49.316,-68.359,0.000
1709215272.230,-41.992,-45.410,-46.387,-62.012,0.000
