timestamps,TP9,AF7,AF8,TP10,Right AUX
1709298808.529,-56.152,-36.133,-37.598,-42.480,0.000
1709298808.533,-51.270,-26.855,-33.691,-36.133,0.000
1709298808.537,-44.922,-37.109,-26.367,-26.367,0.000
1709298808.541,-41.016,-41.992,-25.391,-28.809,0.000
1709298808.544,-47.363,-41.992,-29.785,-38.574,0.000
1709298808.548,-58.594,-43.945,-31.250,-35.645,0.000
1709298808.552,-54.199,-42.480,-30.273,-32.227,0.000
1709298808.556,-39.551,-36.621,-33.691,-18.555,0.000
1709298808.560,-44.434,-37.598,-36.621,-17.090,0.000
1709298808.564,-49.316,-42.969,-37.109,-36.133,0.000
1709298808.568,-43.945,-44.434,-31.738,-32.715,0.000
1709298808.572,-41.992,-40.039,-35.156,-22.461,0.000
1709298808.576,-42.480,-40.039,-39.551,-25.391,0.000
1709298808.580,-37.598,-45.410,-37.598,-21.973,0.000
1709298808.584,-37.109,-50.781,-38.086,-24.414,0.000
1709298808.587,-41.992,-39.551,-41.504,-31.250,0.000
1709298808.591,-35.156,-40.527,-34.668,-26.855,0.000
1709298808.595,-34.180,-53.711,-30.273,-25.391,0.000
1709298808.599,-34.180,-44.434,-38.574,-36.621,0.000
1709298808.603,-40.039,-30.762,-43.457,-44.434,0.000
1709298808.607,-40.527,-39.551,-40.527,-44.922,0.000
1709298808.611,-40.039,-50.781,-43.945,-50.781,0.000
1709298808.615,-43.945,-44.922,-43.945,-47.363,0.000
1709298808.619,-37.598,-31.250,-42.480,-45.410,0.000
1709298808.623,-30.762,-32.715,-46.875,-49.805,0.000
1709298808.626,-32.715,-42.969,-37.109,-56.152,0.000
1709298808.630,-43.457,-30.762,-33.203,-53.223,0.000
1709298808.634,-41.504,-31.738,-41.016,-40.527,0.000
1709298808.638,-38.086,-41.992,-48.828,-38.574,0.000
1709298808.642,-38.574,-31.250,-43.945,-49.805,0.000
1709298808.646,-41.992,-28.809,-32.715,-53.223,0.000
1709298808.650,-47.852,-31.250,-37.598,-37.598,0.000
1709298808.654,-38.086,-33.203,-49.805,-31.250,0.000
1709298808.658,-37.109,-36.133,-41.504,-30.762,0.000
1709298808.662,-47.852,-34.668,-32.227,-37.109,0.000
1709298808.666,-56.641,-36.133,-40.039,-44.922,0.000
1709298808.669,-64.941,-37.109,-42.480,-43.945,0.000
1709298808.673,-53.711,-39.062,-37.109,-34.668,0.000
1709298808.677,-39.551,-36.621,-38.574,-31.250,0.000
1709298808.681,-47.363,-45.410,-34.668,-39.062,0.000
1709298808.685,-50.781,-43.945,-38.086,-39.551,0.000
1709298808.689,-47.363,-42.969,-41.504,-30.762,0.000
1709298808.693,-43.457,-39.062,-26.855,-9.277,0.000
1709298808.697,-32.715,-35.645,-27.832,-8.301,0.000
1709298808.701,-25.879,-42.480,-39.551,-23.926,0.000
1709298808.705,-30.273,-36.621,-38.574,-18.066,0.000
1709298808.709,-42.480,-32.715,-37.598,-20.996,0.000
1709298808.712,-47.852,-35.645,-41.504,-37.109,0.000
1709298808.716,-43.945,-37.598,-43.945,-35.156,0.000
1709298808.720,-36.621,-38.574,-39.551,-36.133,0.000
1709298808.724,-33.203,-40.527,-38.574,-46.875,0.000
1709298808.728,-34.180,-57.129,-38.086,-38.086,0.000
1709298808.732,-34.668,-46.875,-34.668,-23.438,0.000
1709298808.736,-32.227,-34.180,-35.156,-15.625,0.000
1709298808.740,-29.785,-41.016,-36.133,-18.555,0.000
1709298808.744,-31.250,-36.133,-41.016,-36.621,0.000
1709298808.748,-41.016,-31.250,-38.086,-39.551,0.000
1709298808.751,-46.875,-31.250,-34.180,-30.762,0.000
1709298808.755,-42.969,-36.621,-32.227,-30.273,0.000
1709298808.759,-43.945,-39.062,-33.691,-40.039,0.000
1709298808.763,-52.246,-47.363,-34.180,-55.176,0.000
1709298808.767,-55.176,-58.105,-27.344,-56.641,0.000
1709298808.771,-57.617,-46.387,-32.715,-48.828,0.000
1709298808.775,-63.477,-37.598,-37.109,-42.480,0.000
1709298808.779,-57.617,-39.062,-36.133,-44.922,0.000
1709298808.783,-52.246,-41.992,-35.645,-49.316,0.000
1709298808.787,-54.199,-39.551,-33.203,-51.270,0.000
1709298808.791,-53.711,-32.715,-34.668,-54.688,0.000
1709298808.794,-42.480,-34.668,-40.039,-48.340,0.000
1709298808.798,-36.133,-40.039,-38.574,-26.855,0.000
1709298808.802,-46.875,-50.781,-36.621,-30.273,0.000
1709298808.806,-54.688,-49.316,-38.574,-52.246,0.000
1709298808.810,-50.293,-38.574,-32.715,-45.410,0.000
1709298808.814,-39.551,-41.016,-32.715,-33.203,0.000
1709298808.818,-28.320,-43.945,-29.785,-28.809,0.000
1709298808.822,-30.273,-44.434,-31.250,-31.738,0.000
1709298808.826,-40.039,-45.410,-38.574,-38.086,0.000
1709298808.830,-40.527,-40.039,-39.551,-30.762,0.000
1709298808.834,-33.203,-40.039,-37.109,-23.438,0.000
1709298808.837,-20.508,-31.250,-33.203,-18.555,0.000
1709298808.841,-15.137,-34.668,-39.551,-12.695,0.000
1709298808.845,-10.254,-49.316,-39.551,-16.602,0.000
1709298808.849,-16.113,-44.922,-34.180,-33.691,0.000
1709298808.853,-27.344,-38.574,-42.480,-30.273,0.000
1709298808.857,-22.461,-30.762,-43.945,-17.090,0.000
1709298808.861,-20.508,-35.156,-43.945,-27.344,0.000
1709298808.865,-32.715,-41.504,-46.387,-46.875,0.000
1709298808.869,-28.809,-27.344,-37.598,-36.133,0.000
1709298808.873,-23.438,-46.387,-32.715,-27.344,0.000
1709298808.877,-33.691,-51.758,-35.645,-40.527,0.000
1709298808.880,-33.691,-26.855,-38.574,-49.316,0.000
1709298808.884,-29.297,-28.320,-36.133,-56.641,0.000
1709298808.888,-27.832,-34.180,-37.109,-49.805,0.000
1709298808.892,-29.297,-33.691,-45.410,-39.062,0.000
1709298808.896,-31.250,-33.691,-47.363,-40.527,0.000
1709298808.900,-31.250,-38.086,-42.480,-37.109,0.000
1709298808.904,-30.762,-42.480,-38.574,-34.180,0.000
1709298808.908,-29.297,-36.621,-36.621,-39.062,0.000
1709298808.912,-41.504,-43.945,-33.691,-38.574,0.000
1709298808.916,-46.387,-51.758,-24.902,-21.484,0.000
1709298808.920,-22.461,-44.434,-21.484,-14.648,0.000
1709298808.923,-21.973,-33.691,-23.926,-33.203,0.000
1709298808.927,-41.016,-34.668,-31.250,-46.875,0.000
1709298808.931,-37.598,-41.992,-31.738,-29.785,0.000
1709298808.935,-32.715,-42.480,-35.645,-16.602,0.000
1709298808.939,-34.668,-31.250,-42.969,-26.855,0.000
1709298808.943,-37.109,-27.344,-42.969,-31.250,0.000
1709298808.947,-41.016,-38.574,-43.945,-37.598,0.000
1709298808.951,-44.434,-36.621,-42.969,-43.945,0.000
1709298808.955,-45.410,-36.133,-42.969,-33.203,0.000
1709298808.959,-37.598,-44.922,-45.410,-31.738,0.000
1709298808.963,-44.434,-57.617,-49.805,-45.898,0.000
1709298808.966,-48.340,-49.805,-50.293,-47.852,0.000
1709298808.970,-35.156,-41.016,-49.316,-39.062,0.000
1709298808.974,-27.832,-37.598,-46.875,-29.785,0.000
1709298808.978,-38.086,-35.156,-52.246,-24.902,0.000
1709298808.982,-39.062,-29.785,-50.293,-34.180,0.000
1709298808.986,-30.762,-38.086,-36.621,-38.574,0.000
1709298808.990,-38.574,-49.316,-43.945,-35.645,0.000
1709298808.994,-35.645,-35.645,-43.945,-34.180,0.000
1709298808.998,-34.180,-40.527,-40.527,-32.227,0.000
1709298809.002,-34.668,-52.246,-47.363,-28.809,0.000
1709298809.006,-35.156,-45.410,-50.781,-27.832,0.000
1709298809.009,-42.480,-30.762,-49.316,-42.480,0.000
1709298809.013,-37.109,-24.414,-54.199,-44.922,0.000
1709298809.017,-36.621,-20.996,-56.641,-45.410,0.000
1709298809.021,-42.969,-37.598,-42.480,-43.457,0.000
1709298809.025,-42.969,-57.617,-35.645,-34.180,0.000
1709298809.029,-47.363,-44.434,-41.016,-40.527,0.000
1709298809.033,-52.734,-35.156,-45.898,-39.551,0.000
1709298809.037,-59.082,-39.062,-51.270,-41.504,0.000
1709298809.041,-62.988,-34.180,-56.152,-46.875,0.000
1709298809.045,-64.453,-39.551,-54.688,-47.852,0.000
1709298809.049,-65.918,-54.199,-42.480,-42.969,0.000
1709298809.052,-64.941,-53.711,-44.434,-38.574,0.000
1709298809.056,-63.965,-44.434,-52.246,-39.551,0.000
1709298809.060,-66.895,-40.527,-51.270,-39.062,0.000
1709298809.064,-60.547,-44.434,-49.805,-42.969,0.000
1709298809.068,-55.664,-49.805,-44.434,-50.293,0.000
1709298809.072,-62.012,-45.410,-44.434,-47.852,0.000
1709298809.076,-53.711,-38.574,-42.969,-43.945,0.000
1709298809.080,-46.387,-40.527,-38.574,-46.387,0.000
1709298809.084,-50.293,-39.062,-41.992,-56.152,0.000
1709298809.088,-51.758,-34.668,-36.621,-52.734,0.000
1709298809.092,-47.852,-29.785,-40.527,-42.480,0.000
1709298809.095,-42.480,-39.062,-47.363,-46.875,0.000
1709298809.099,-50.293,-40.039,-33.691,-58.594,0.000
1709298809.103,-51.270,-23.438,-27.344,-68.359,0.000
1709298809.107,-53.223,-28.809,-36.133,-69.336,0.000
1709298809.111,-54.688,-37.598,-40.527,-52.246,0.000
1709298809.115,-41.016,-36.133,-35.156,-30.273,0.000
1709298809.119,-40.527,-33.691,-41.016,-42.480,0.000
1709298809.123,-53.711,-26.855,-50.293,-63.965,0.000
1709298809.127,-52.734,-16.602,-47.363,-55.664,0.000
1709298809.131,-38.574,-8.789,-45.410,-39.062,0.000
1709298809.134,-29.785,-16.113,-48.340,-37.598,0.000
1709298809.138,-20.508,-13.672,-44.434,-45.898,0.000
1709298809.142,-25.391,-11.230,-45.410,-46.387,0.000
1709298809.146,-30.762,-14.648,-44.922,-39.551,0.000
1709298809.150,-28.320,7.324,-46.875,-37.598,0.000
1709298809.154,-21.484,26.367,-56.152,-30.762,0.000
1709298809.158,-16.113,25.879,-56.641,-33.203,0.000
1709298809.162,-18.066,29.785,-58.105,-43.945,0.000
1709298809.166,-21.484,31.738,-59.570,-51.270,0.000
1709298809.170,-13.672,23.438,-55.664,-50.293,0.000
1709298809.174,-7.324,16.602,-54.688,-30.762,0.000
1709298809.177,-4.883,20.508,-61.523,-25.391,0.000
1709298809.181,3.418,34.668,-68.359,-44.922,0.000
1709298809.185,3.418,41.992,-67.383,-52.246,0.000
1709298809.189,10.254,46.875,-67.383,-29.297,0.000
1709298809.193,13.184,46.387,-76.660,-31.250,0.000
1709298809.197,11.230,41.504,-82.031,-47.363,0.000
1709298809.201,8.301,42.480,-85.938,-42.969,0.000
1709298809.205,4.395,38.574,-87.402,-44.434,0.000
1709298809.209,21.484,30.762,-83.008,-36.133,0.000
1709298809.213,23.926,48.340,-83.496,-36.621,0.000
1709298809.217,19.531,64.453,-85.449,-27.832,0.000
1709298809.220,26.855,43.457,-85.449,-25.879,0.000
1709298809.224,31.738,47.852,-84.961,-36.133,0.000
1709298809.228,25.879,69.336,-92.285,-33.203,0.000
1709298809.232,20.020,64.453,-98.145,-26.855,0.000
1709298809.236,30.273,56.152,-96.191,-13.672,0.000
1709298809.240,31.250,53.711,-92.285,-12.695,0.000
1709298809.244,33.203,48.340,-93.750,-13.672,0.000
1709298809.248,31.250,39.551,-93.262,-19.043,0.000
1709298809.252,28.809,44.922,-94.238,-16.113,0.000
1709298809.256,26.855,47.852,-90.332,-6.836,0.000
1709298809.260,33.691,41.504,-86.426,-3.906,0.000
1709298809.263,39.551,45.410,-83.008,-0.977,0.000
1709298809.267,21.484,38.086,-80.566,-10.742,0.000
1709298809.271,20.996,29.297,-85.449,-12.207,0.000
1709298809.275,30.762,24.414,-82.520,7.324,0.000
1709298809.279,33.203,18.555,-72.754,0.488,0.000
1709298809.283,23.926,23.438,-72.754,-12.695,0.000
1709298809.287,20.020,49.316,-75.195,-4.395,0.000
1709298809.291,16.113,48.340,-83.008,-0.977,0.000
1709298809.295,8.789,33.203,-85.938,1.465,0.000
1709298809.299,14.160,20.020,-77.637,3.418,0.000
1709298809.303,17.578,17.578,-72.754,1.953,0.000
1709298809.306,7.324,27.344,-67.871,0.000,0.000
1709298809.310,7.324,19.043,-64.453,-1.465,0.000
1709298809.314,13.184,9.277,-63.477,2.441,0.000
1709298809.318,6.348,11.230,-64.453,1.465,0.000
1709298809.322,7.324,4.883,-62.988,-0.488,0.000
1709298809.326,10.254,-3.906,-54.199,4.395,0.000
1709298809.330,1.953,6.836,-47.363,-4.395,0.000
1709298809.334,-0.488,-8.789,-50.781,-6.348,0.000
1709298809.338,-1.953,-29.785,-61.523,-4.395,0.000
1709298809.342,-14.160,-7.324,-56.152,-17.090,0.000
1709298809.346,-33.203,-1.465,-52.246,-33.203,0.000
1709298809.349,-31.738,-19.531,-52.734,-34.180,0.000
1709298809.353,-21.973,-20.020,-46.875,-18.555,0.000
1709298809.357,-22.461,-25.391,-48.340,-18.066,0.000
1709298809.361,-23.926,-29.785,-51.270,-34.668,0.000
1709298809.365,-25.879,-13.184,-53.223,-37.109,0.000
1709298809.369,-30.273,-8.789,-51.758,-24.902,0.000
1709298809.373,-32.715,-27.832,-54.199,-20.508,0.000
1709298809.377,-44.434,-35.156,-61.035,-17.578,0.000
1709298809.381,-54.688,-18.066,-59.082,-25.391,0.000
1709298809.385,-54.199,-16.602,-57.617,-44.434,0.000
1709298809.389,-56.152,-25.879,-53.711,-43.945,0.000
1709298809.392,-58.594,-34.668,-50.293,-30.273,0.000
1709298809.396,-53.711,-45.410,-53.711,-27.344,0.000
1709298809.400,-47.363,-42.969,-49.805,-26.367,0.000
1709298809.404,-44.434,-32.715,-47.363,-36.621,0.000
1709298809.408,-51.758,-31.738,-46.875,-43.457,0.000
1709298809.412,-54.199,-28.809,-42.969,-29.297,0.000
1709298809.416,-38.574,-37.598,-42.969,-15.625,0.000
1709298809.420,-38.574,-43.457,-44.922,-28.320,0.000
1709298809.424,-49.805,-22.949,-43.945,-45.898,0.000
1709298809.428,-47.363,-10.742,-36.621,-43.457,0.000
1709298809.432,-53.711,-25.391,-39.062,-38.574,0.000
1709298809.435,-54.199,-28.809,-51.758,-36.621,0.000
1709298809.439,-32.715,-21.484,-46.387,-32.227,0.000
1709298809.443,-26.367,-27.832,-41.992,-37.109,0.000
1709298809.447,-29.297,-13.184,-44.922,-44.434,0.000
1709298809.451,-26.367,-9.766,-39.551,-38.086,0.000
1709298809.455,-17.090,-23.438,-38.574,-22.949,0.000
1709298809.459,-14.160,-27.344,-46.387,-28.809,0.000
1709298809.463,-16.602,-26.855,-46.387,-41.504,0.000
1709298809.467,-26.367,-30.762,-45.410,-42.480,0.000
1709298809.471,-39.551,-37.109,-42.480,-37.598,0.000
1709298809.474,-43.945,-31.738,-41.504,-43.457,0.000
1709298809.478,-42.480,-26.855,-44.434,-51.758,0.000
1709298809.482,-33.691,-31.738,-37.109,-45.898,0.000
1709298809.486,-28.809,-38.086,-29.785,-36.621,0.000
1709298809.490,-33.203,-24.902,-34.180,-30.273,0.000
1709298809.494,-33.203,-7.812,-33.691,-26.855,0.000
1709298809.498,-34.668,-16.602,-35.156,-24.414,0.000
1709298809.502,-30.273,-39.551,-36.133,-20.508,0.000
1709298809.506,-18.066,-42.969,-35.156,-26.367,0.000
1709298809.510,-30.273,-21.973,-41.504,-30.762,0.000
1709298809.514,0.000,-14.160,-45.410,-25.391,0.000
1709298809.517,0.000,-27.832,-46.387,-23.438,0.000
1709298809.521,0.000,-28.320,-45.898,-18.066,0.000
1709298809.525,0.000,-24.902,-38.574,-19.531,0.000
1709298809.529,0.000,-21.484,-34.180,-27.344,0.000
1709298809.533,0.000,-17.578,-36.133,-27.344,0.000
1709298809.537,0.000,-27.344,-39.062,-20.508,0.000
1709298809.541,0.000,-24.902,-42.480,-22.461,0.000
1709298809.545,0.000,-28.809,-42.969,-26.855,0.000
1709298809.549,0.000,-22.461,-46.387,-33.203,0.000
1709298809.553,0.000,-11.230,-44.922,-31.250,0.000
1709298809.557,0.000,-15.625,-34.180,-23.438,0.000
1709298809.560,-12.695,-17.090,-33.691,-21.973,0.000
1709298809.564,-24.902,-17.578,-38.086,-35.645,0.000
1709298809.568,-36.621,-19.043,-39.551,-33.203,0.000
1709298809.572,-38.086,-26.367,-37.109,-31.738,0.000
1709298809.576,-26.367,-29.785,-35.156,-42.480,0.000
1709298809.580,-19.531,-26.855,-43.945,-39.062,0.000
1709298809.584,-26.855,-26.367,-50.781,-34.180,0.000
1709298809.588,-28.809,-36.133,-50.781,-30.762,0.000
1709298809.592,-41.016,-46.875,-42.480,-31.738,0.000
1709298809.596,-40.039,-30.273,-32.715,-25.879,0.000
1709298809.600,-33.203,-20.996,-33.203,-33.203,0.000
1709298809.603,-33.203,-23.438,-33.691,-41.992,0.000
1709298809.607,-36.133,-28.320,-36.133,-39.062,0.000
1709298809.611,-29.297,-33.203,-33.203,-35.156,0.000
1709298809.615,-19.531,-26.367,-34.180,-38.086,0.000
1709298809.619,-35.156,-27.344,-49.316,-39.551,0.000
1709298809.623,-45.898,-40.039,-48.340,-44.922,0.000
1709298809.627,-45.410,-38.086,-40.039,-44.434,0.000
1709298809.631,-42.969,-33.691,-40.039,-35.645,0.000
1709298809.635,-35.645,-41.992,-34.180,-35.156,0.000
1709298809.639,-26.855,-39.551,-26.367,-26.855,0.000
1709298809.643,-20.508,-30.762,-22.461,-28.320,0.000
1709298809.646,-26.367,-39.062,-24.414,-37.109,0.000
1709298809.650,-25.391,-39.551,-24.902,-29.297,0.000
1709298809.654,-21.484,-28.809,-24.902,-33.203,0.000
1709298809.658,-30.273,-22.949,-33.691,-39.551,0.000
1709298809.662,-39.062,-7.812,-36.621,-40.527,0.000
1709298809.666,-38.574,-6.836,-29.297,-43.945,0.000
1709298809.670,-31.250,-18.555,-34.668,-39.062,0.000
1709298809.674,-33.691,-28.809,-40.039,-46.387,0.000
1709298809.678,-36.621,-26.855,-35.645,-54.688,0.000
1709298809.682,-34.180,-27.832,-32.715,-38.574,0.000
1709298809.686,-31.738,-26.855,-25.391,-33.203,0.000
1709298809.689,-36.621,-26.367,-27.344,-44.434,0.000
1709298809.693,-33.203,-41.992,-30.273,-29.785,0.000
1709298809.697,-24.902,-28.809,-34.180,-34.180,0.000
1709298809.701,-37.109,-6.836,-40.527,-50.293,0.000
1709298809.705,-42.969,-8.301,-38.086,-47.363,0.000
1709298809.709,-40.039,-22.949,-31.738,-44.434,0.000
1709298809.713,-38.574,-20.020,-29.785,-33.203,0.000
1709298809.717,-37.109,-18.066,-31.250,-20.508,0.000
1709298809.721,-41.992,-42.480,-38.086,-27.832,0.000
1709298809.725,-52.734,-42.969,-41.016,-52.734,0.000
1709298809.728,-61.035,-27.832,-39.062,-56.641,0.000
1709298809.732,-56.641,-35.645,-40.039,-41.016,0.000
1709298809.736,-45.410,-30.762,-33.203,-43.457,0.000
1709298809.740,-41.016,-29.785,-34.668,-45.898,0.000
1709298809.744,-46.387,-35.156,-49.316,-38.574,0.000
1709298809.748,-49.805,-23.438,-41.992,-35.156,0.000
1709298809.752,-54.688,-24.902,-29.297,-41.992,0.000
1709298809.756,-50.293,-31.738,-27.344,-33.691,0.000
1709298809.760,-43.457,-31.250,-21.484,-24.414,0.000
1709298809.764,-45.898,-34.668,-20.020,-30.762,0.000
1709298809.768,-44.922,-35.156,-24.414,-37.598,0.000
1709298809.771,-44.922,-29.297,-33.203,-34.180,0.000
1709298809.775,-47.852,-20.508,-39.062,-14.648,0.000
1709298809.779,-35.645,-22.461,-37.598,-19.043,0.000
1709298809.783,-35.645,-34.180,-31.738,-34.668,0.000
1709298809.787,-48.828,-21.973,-25.879,-36.133,0.000
1709298809.791,-55.664,-7.812,-37.109,-39.551,0.000
1709298809.795,-57.129,-10.254,-47.363,-37.109,0.000
1709298809.799,-52.734,-30.273,-33.203,-36.133,0.000
1709298809.803,-53.223,-26.367,-24.902,-46.387,0.000
1709298809.807,-52.246,-13.184,-25.391,-46.387,0.000
1709298809.811,-49.805,-17.578,-27.832,-36.621,0.000
1709298809.814,-50.781,-30.273,-39.062,-27.832,0.000
1709298809.818,-41.992,-34.180,-42.969,-5.859,0.000
1709298809.822,-39.062,-11.719,-46.875,-5.371,0.000
1709298809.826,-41.992,-20.996,-50.293,-40.039,0.000
1709298809.830,-51.758,-25.879,-44.922,-49.805,0.000
1709298809.834,-50.293,-2.441,-36.621,-38.574,0.000
1709298809.838,-34.180,-10.254,-30.762,-22.461,0.000
1709298809.842,-39.551,-20.508,-36.621,-24.414,0.000
1709298809.846,-52.734,-15.625,-44.434,-49.316,0.000
1709298809.850,-57.129,-12.207,-41.992,-49.805,0.000
1709298809.854,-46.875,-13.184,-47.363,-25.391,0.000
1709298809.857,-38.086,-17.578,-47.852,-26.855,0.000
1709298809.861,-38.086,-24.414,-33.691,-44.434,0.000
1709298809.865,-33.691,-22.461,-24.414,-41.504,0.000
1709298809.869,-36.133,-1.953,-24.902,-34.668,0.000
1709298809.873,-39.551,-4.883,-32.715,-28.320,0.000
1709298809.877,-35.156,-12.207,-35.156,-25.879,0.000
1709298809.881,-35.156,0.000,-43.457,-38.574,0.000
1709298809.885,-37.109,-0.488,-46.387,-59.570,0.000
1709298809.889,-32.715,-6.836,-34.180,-54.199,0.000
1709298809.893,-29.297,-4.395,-33.203,-37.598,0.000
1709298809.897,-32.715,-22.949,-32.715,-39.551,0.000
1709298809.900,-44.922,-30.762,-32.227,-43.945,0.000
1709298809.904,-50.293,1.465,-37.598,-50.293,0.000
1709298809.908,-53.223,13.184,-35.645,-57.129,0.000
1709298809.912,-56.152,6.836,-37.109,-48.340,0.000
1709298809.916,-43.945,1.465,-41.504,-29.785,0.000
1709298809.920,-30.762,-12.207,-42.969,-13.672,0.000
1709298809.924,-25.391,-8.789,-41.016,3.418,0.000
1709298809.928,-25.391,7.324,-33.691,-20.508,0.000
1709298809.932,-27.344,9.277,-28.320,-39.062,0.000
1709298809.936,-28.320,-4.395,-28.320,-22.949,0.000
1709298809.940,-32.715,-4.883,-36.621,-19.043,0.000
1709298809.943,-32.715,5.859,-35.645,-28.809,0.000
1709298809.947,-41.504,2.441,-32.227,-41.504,0.000
1709298809.951,-52.246,1.465,-37.598,-37.109,0.000
1709298809.955,-43.945,-14.648,-37.109,-20.996,0.000
1709298809.959,-41.504,-28.320,-37.109,-24.414,0.000
1709298809.963,-46.875,-2.441,-45.898,-46.387,0.000
1709298809.967,-49.316,16.602,-51.758,-47.852,0.000
1709298809.971,-50.293,8.301,-46.875,-33.203,0.000
1709298809.975,-51.758,-5.859,-38.574,-35.645,0.000
1709298809.979,-43.945,-7.324,-39.062,-39.551,0.000
1709298809.983,-32.227,-9.277,-39.062,-39.551,0.000
1709298809.986,-37.109,-9.277,-34.668,-44.434,0.000
1709298809.990,-44.922,0.000,-37.109,-49.316,0.000
1709298809.994,-36.621,-4.395,-36.621,-46.387,0.000
1709298809.998,-39.062,-16.602,-33.203,-39.062,0.000
1709298810.002,-41.016,-12.695,-42.969,-33.203,0.000
1709298810.006,-32.715,-9.277,-41.992,-38.086,0.000
1709298810.010,-27.344,-0.488,-24.414,-40.039,0.000
1709298810.014,-29.297,13.184,-28.320,-26.367,0.000
1709298810.018,-34.668,15.625,-36.133,-17.090,0.000
1709298810.022,-29.785,11.719,-39.551,-19.531,0.000
1709298810.025,-27.344,6.836,-33.203,-24.414,0.000
1709298810.029,-36.133,-1.465,-25.879,-20.020,0.000
1709298810.033,-40.039,2.441,-32.227,-12.695,0.000
1709298810.037,-36.621,5.859,-38.086,-8.301,0.000
1709298810.041,-24.414,-6.836,-30.762,-4.883,0.000
1709298810.045,-40.527,-2.441,-31.250,-26.367,0.000
1709298810.049,-46.387,11.719,-30.273,-33.203,0.000
1709298810.053,-36.133,1.953,-28.809,-18.555,0.000
1709298810.057,-44.434,-12.695,-33.691,-20.996,0.000
1709298810.061,-42.480,-5.859,-36.133,-23.438,0.000
1709298810.065,-37.109,-4.883,-35.645,-31.250,0.000
1709298810.068,-32.227,-21.484,-31.250,-39.551,0.000
1709298810.072,-41.992,-9.766,-34.668,-45.410,0.000
1709298810.076,0.000,17.578,-44.922,-35.645,0.000
1709298810.080,0.000,20.020,-38.086,-21.484,0.000
1709298810.084,0.000,24.902,-27.832,-34.180,0.000
1709298810.088,0.000,18.555,-28.320,-48.828,0.000
1709298810.092,0.000,3.906,-30.273,-39.062,0.000
1709298810.096,0.000,5.371,-22.949,-17.578,0.000
1709298810.100,0.000,5.371,-28.809,-26.855,0.000
1709298810.104,0.000,-14.160,-41.504,-42.969,0.000
1709298810.108,0.000,-14.160,-38.574,-46.875,0.000
1709298810.111,0.000,14.160,-28.809,-43.457,0.000
1709298810.115,0.000,0.488,-39.062,-24.902,0.000
1709298810.119,0.000,-23.438,-38.574,-21.484,0.000
1709298810.123,-48.828,-10.742,-24.414,-39.062,0.000
1709298810.127,-47.363,15.137,-25.391,-44.922,0.000
1709298810.131,-43.945,13.184,-23.438,-33.203,0.000
1709298810.135,-41.992,9.766,-22.461,-40.527,0.000
1709298810.139,-38.574,23.438,-29.785,-36.621,0.000
1709298810.143,-33.203,20.020,-35.645,-29.297,0.000
1709298810.147,-33.203,10.742,-30.273,-26.855,0.000
1709298810.150,-39.551,-0.488,-28.809,-20.996,0.000
1709298810.154,-47.852,0.488,-38.086,-41.016,0.000
1709298810.158,-46.875,3.418,-49.805,-38.086,0.000
1709298810.162,-41.504,-10.254,-46.875,-28.809,0.000
1709298810.166,-31.738,-18.066,-35.156,-37.598,0.000
1709298810.170,-29.297,-4.883,-30.762,-40.039,0.000
1709298810.174,-41.504,25.879,-36.133,-42.480,0.000
1709298810.178,-50.293,30.273,-40.039,-36.621,0.000
1709298810.182,-40.527,5.371,-39.062,-29.297,0.000
1709298810.186,-41.016,-4.395,-40.039,-28.809,0.000
1709298810.189,-56.641,0.000,-38.086,-43.457,0.000
1709298810.193,-56.152,-3.418,-33.691,-45.410,0.000
1709298810.197,-50.293,4.395,-32.227,-39.062,0.000
1709298810.201,-47.363,5.371,-33.203,-42.480,0.000
1709298810.205,-52.734,0.977,-39.062,-42.969,0.000
1709298810.209,-64.941,8.789,-52.246,-45.410,0.000
1709298810.213,-65.430,13.672,-45.410,-43.945,0.000
1709298810.217,-54.688,16.113,-30.273,-38.086,0.000
1709298810.221,-39.551,12.695,-31.250,-35.156,0.000
1709298810.225,-38.086,5.859,-35.645,-31.738,0.000
1709298810.229,-38.574,6.348,-41.016,-28.809,0.000
1709298810.232,-43.945,7.324,-40.039,-32.227,0.000
1709298810.236,-56.641,12.207,-38.086,-30.762,0.000
1709298810.240,-52.734,22.949,-38.574,-34.668,0.000
1709298810.244,-41.504,23.926,-37.109,-40.039,0.000
1709298810.248,-48.828,9.766,-33.203,-36.133,0.000
1709298810.252,-57.129,9.766,-35.156,-33.203,0.000
1709298810.256,-44.434,17.578,-35.645,-29.297,0.000
1709298810.260,-29.785,17.090,-40.039,-33.691,0.000
1709298810.264,-23.438,20.996,-46.875,-49.316,0.000
1709298810.268,-27.344,4.883,-32.227,-40.039,0.000
1709298810.272,-35.156,-2.930,-33.203,-25.391,0.000
1709298810.275,-34.180,3.906,-40.039,-36.621,0.000
1709298810.279,-28.809,12.207,-33.691,-34.180,0.000
1709298810.283,-30.762,15.625,-37.109,-26.367,0.000
1709298810.287,-33.203,8.301,-39.551,-30.273,0.000
1709298810.291,-31.250,15.625,-34.180,-33.203,0.000
1709298810.295,-39.062,14.648,-28.320,-26.367,0.000
1709298810.299,-54.199,11.230,-28.809,-18.066,0.000
1709298810.303,-49.805,12.695,-33.203,-22.461,0.000
1709298810.307,-47.363,-2.930,-35.645,-29.785,0.000
1709298810.311,-39.551,-8.789,-33.691,-19.531,0.000
1709298810.315,-39.551,5.859,-38.086,-20.996,0.000
1709298810.318,-53.223,19.043,-34.668,-29.297,0.000
1709298810.322,-47.852,12.207,-29.297,-31.250,0.000
1709298810.326,-49.805,5.371,-33.691,-31.738,0.000
1709298810.330,-52.734,0.488,-35.156,-40.039,0.000
1709298810.334,-41.504,-7.324,-33.691,-24.414,0.000
1709298810.338,-32.227,-7.812,-41.504,-16.113,0.000
1709298810.342,-43.457,3.418,-45.898,-37.109,0.000
1709298810.346,-50.781,-6.836,-41.992,-52.246,0.000
1709298810.350,-50.781,-21.484,-39.551,-62.012,0.000
1709298810.354,-49.805,-6.348,-38.086,-56.641,0.000
1709298810.358,-52.246,6.348,-38.086,-58.105,0.000
1709298810.361,-53.711,9.766,-36.133,-44.922,0.000
1709298810.365,-53.223,-4.883,-37.109,-40.527,0.000
1709298810.369,-51.758,-8.789,-44.922,-46.875,0.000
1709298810.373,-52.246,-14.160,-47.852,-34.668,0.000
1709298810.377,-52.734,-13.184,-41.504,-35.156,0.000
1709298810.381,-39.551,-7.324,-34.668,-51.270,0.000
1709298810.385,-33.203,-11.230,-37.109,-60.059,0.000
1709298810.389,-38.574,-7.812,-39.551,-41.016,0.000
1709298810.393,-47.363,-18.066,-44.922,-31.738,0.000
1709298810.397,-47.363,-21.973,-42.969,-39.551,0.000
1709298810.400,-40.039,-9.766,-33.203,-38.574,0.000
1709298810.404,-45.410,-33.203,-32.227,-47.852,0.000
1709298810.408,-46.875,-59.570,-37.109,-48.340,0.000
1709298810.412,-47.852,-30.273,-41.504,-46.387,0.000
1709298810.416,-57.129,5.371,-45.410,-35.645,0.000
1709298810.420,-42.480,4.395,-36.133,-29.785,0.000
1709298810.424,-30.762,-1.465,-32.227,-42.969,0.000
1709298810.428,-37.109,-3.906,-30.273,-42.480,0.000
1709298810.432,-37.109,-1.953,-26.367,-34.668,0.000
1709298810.436,-33.691,-1.465,-32.227,-30.762,0.000
1709298810.440,-29.297,2.930,-34.180,-35.156,0.000
1709298810.443,-30.273,-1.465,-39.551,-36.133,0.000
1709298810.447,-28.809,-10.254,-41.992,-38.086,0.000
1709298810.451,-34.668,-7.324,-29.785,-47.363,0.000
1709298810.455,-40.527,-2.930,-37.598,-42.969,0.000
1709298810.459,-42.480,-6.348,-45.898,-44.434,0.000
1709298810.463,-49.805,1.953,-39.062,-45.898,0.000
1709298810.467,-47.363,-5.859,-36.621,-42.480,0.000
1709298810.471,-47.363,-9.277,-35.156,-45.898,0.000
1709298810.475,-52.734,11.719,-38.086,-44.922,0.000
1709298810.479,-51.758,5.859,-44.434,-46.875,0.000
1709298810.483,-44.434,6.348,-41.992,-51.270,0.000
1709298810.486,-32.715,3.418,-37.598,-46.387,0.000
1709298810.490,-18.555,-6.348,-36.621,-29.297,0.000
1709298810.494,-17.090,-2.930,-35.156,-30.762,0.000
1709298810.498,-19.043,-11.230,-28.809,-31.738,0.000
1709298810.502,-18.066,-3.906,-23.926,-27.344,0.000
1709298810.506,-19.531,-1.953,-29.785,-25.879,0.000
1709298810.510,-22.461,-6.836,-33.203,-34.180,0.000
1709298810.514,-32.227,0.977,-39.551,-34.180,0.000
1709298810.518,-25.879,-5.859,-46.387,-22.461,0.000
1709298810.522,-14.648,-0.488,-41.016,-30.273,0.000
1709298810.526,-13.672,-8.301,-37.598,-42.969,0.000
1709298810.529,-27.832,-18.555,-43.457,-49.316,0.000
1709298810.533,-35.645,-2.441,-40.527,-36.133,0.000
1709298810.537,-25.391,4.883,-31.738,-27.832,0.000
1709298810.541,-23.926,2.930,-29.785,-27.344,0.000
1709298810.545,-29.785,0.000,-32.227,-37.598,0.000
1709298810.549,-38.574,-16.113,-33.691,-38.574,0.000
1709298810.553,-45.898,-21.484,-40.527,-30.273,0.000
1709298810.557,-37.109,-5.859,-42.969,-34.668,0.000
1709298810.561,-36.133,-4.395,-34.180,-35.645,0.000
1709298810.565,-46.387,0.000,-32.227,-37.598,0.000
1709298810.569,-45.898,0.000,-32.715,-26.367,0.000
1709298810.572,-37.109,-11.230,-32.227,-26.367,0.000
1709298810.576,-41.016,-18.555,-30.273,-29.297,0.000
1709298810.580,-46.387,-15.625,-31.738,-31.738,0.000
1709298810.584,-47.852,-12.695,-31.250,-33.203,0.000
1709298810.588,-51.270,-7.324,-36.621,-37.109,0.000
1709298810.592,0.000,-2.441,-42.969,-47.363,0.000
1709298810.596,0.000,-3.906,-37.109,-33.691,0.000
1709298810.600,0.000,-0.488,-37.598,-20.508,0.000
1709298810.604,0.000,-10.742,-44.434,-30.273,0.000
1709298810.608,0.000,-16.113,-34.668,-28.320,0.000
1709298810.611,0.000,-12.207,-30.762,-22.461,0.000
1709298810.615,0.000,-16.602,-35.156,-30.762,0.000
1709298810.619,0.000,-5.371,-40.039,-48.828,0.000
1709298810.623,0.000,-2.441,-33.691,-44.922,0.000
1709298810.627,0.000,-12.695,-28.809,-35.156,0.000
1709298810.631,0.000,-20.508,-31.250,-29.297,0.000
1709298810.635,0.000,-25.391,-32.227,-20.996,0.000
1709298810.639,-35.156,-13.184,-35.645,-30.273,0.000
1709298810.643,-32.227,-18.555,-38.574,-42.969,0.000
1709298810.647,-36.133,-11.719,-41.016,-37.109,0.000
1709298810.651,-41.016,9.766,-45.410,-41.992,0.000
1709298810.654,-43.457,-0.977,-45.410,-45.410,0.000
1709298810.658,-35.645,-9.277,-42.480,-26.855,0.000
1709298810.662,-32.715,-6.348,-40.527,-25.879,0.000
1709298810.666,-43.457,-9.277,-38.574,-35.156,0.000
1709298810.670,-53.711,-11.719,-37.109,-30.762,0.000
1709298810.674,-54.199,-16.602,-29.297,-26.855,0.000
1709298810.678,-45.898,-14.160,-36.621,-33.203,0.000
1709298810.682,-37.598,-20.020,-52.246,-36.621,0.000
1709298810.686,-52.246,-33.691,-42.480,-42.480,0.000
1709298810.690,-60.547,-13.672,-34.180,-53.223,0.000
1709298810.694,-55.176,-18.066,-40.039,-48.340,0.000
1709298810.697,-50.781,-29.297,-39.551,-28.809,0.000
1709298810.701,-44.434,-13.184,-38.086,-26.367,0.000
1709298810.705,-49.316,-18.555,-40.527,-52.246,0.000
1709298810.709,-64.453,-29.297,-38.086,-59.570,0.000
1709298810.713,-57.129,-15.137,-31.738,-37.109,0.000
1709298810.717,-44.434,-4.883,-26.855,-14.160,0.000
1709298810.721,-38.086,-9.766,-27.832,-17.090,0.000
1709298810.725,-39.551,-18.555,-34.668,-30.273,0.000
1709298810.729,-48.340,-20.508,-40.039,-28.320,0.000
1709298810.733,-39.551,0.000,-32.715,-16.602,0.000
1709298810.737,-32.715,-0.977,-33.691,-20.996,0.000
1709298810.740,-36.621,-17.090,-35.645,-36.621,0.000
1709298810.744,-27.832,-12.207,-33.203,-39.551,0.000
1709298810.748,-33.691,-1.953,-29.297,-31.738,0.000
1709298810.752,-41.992,-13.672,-30.762,-22.949,0.000
1709298810.756,-27.344,-1.465,-34.180,-31.738,0.000
1709298810.760,-24.902,27.344,-27.344,-43.457,0.000
1709298810.764,-27.832,19.531,-28.320,-34.668,0.000
1709298810.768,-25.879,-3.418,-32.227,-36.133,0.000
1709298810.772,-32.227,-14.160,-33.691,-34.180,0.000
1709298810.776,-32.715,-8.789,-33.691,-28.809,0.000
1709298810.780,-37.109,-0.977,-42.480,-41.016,0.000
1709298810.783,-44.434,0.000,-47.852,-40.527,0.000
1709298810.787,-42.480,-9.766,-39.062,-44.434,0.000
1709298810.791,-39.551,-25.391,-25.391,-41.016,0.000
1709298810.795,-38.086,-29.297,-30.273,-36.133,0.000
1709298810.799,-41.992,-4.883,-30.762,-24.902,0.000
1709298810.803,-44.922,3.906,-25.879,-24.414,0.000
1709298810.807,-41.504,-19.043,-33.203,-36.621,0.000
1709298810.811,-41.992,-28.809,-36.133,-29.785,0.000
1709298810.815,-47.852,-17.090,-35.156,-34.668,0.000
1709298810.819,-56.152,-10.742,-37.598,-38.574,0.000
1709298810.823,-50.293,-11.719,-42.480,-38.086,0.000
1709298810.826,0.000,-19.043,-36.621,-37.109,0.000
1709298810.830,0.000,-17.578,-36.621,-40.527,0.000
1709298810.834,0.000,-14.160,-42.480,-49.316,0.000
1709298810.838,0.000,-12.207,-41.016,-31.738,0.000
1709298810.842,0.000,-27.832,-39.062,-21.973,0.000
1709298810.846,0.000,-23.926,-41.016,-41.992,0.000
1709298810.850,0.000,0.000,-41.016,-50.293,0.000
1709298810.854,0.000,-10.254,-40.039,-36.133,0.000
1709298810.858,0.000,-27.832,-42.969,-33.203,0.000
1709298810.862,0.000,-15.625,-39.551,-38.574,0.000
1709298810.866,0.000,-5.371,-33.203,-43.945,0.000
1709298810.869,0.000,-8.789,-32.715,-42.480,0.000
1709298810.873,-43.457,-15.137,-34.180,-40.039,0.000
1709298810.877,-46.875,-16.602,-33.691,-42.969,0.000
1709298810.881,-51.270,-14.648,-38.574,-39.062,0.000
1709298810.885,-42.480,-23.926,-35.156,-29.297,0.000
1709298810.889,-24.414,-33.691,-27.832,-22.461,0.000
1709298810.893,-29.297,-26.367,-33.203,-36.621,0.000
1709298810.897,-37.109,-24.902,-39.551,-38.574,0.000
1709298810.901,-41.504,-15.137,-36.621,-27.344,0.000
1709298810.905,-47.852,-18.555,-30.762,-28.809,0.000
1709298810.908,-41.992,-20.020,-28.320,-31.738,0.000
1709298810.912,-35.156,-12.207,-31.250,-25.879,0.000
1709298810.916,-33.691,-26.367,-39.551,-20.020,0.000
1709298810.920,-36.133,-20.996,-39.551,-25.879,0.000
1709298810.924,-30.762,-16.113,-29.297,-29.297,0.000
1709298810.928,-40.039,-24.902,-35.156,-30.762,0.000
1709298810.932,-55.664,-28.809,-39.062,-42.480,0.000
1709298810.936,-57.129,-25.391,-37.109,-35.156,0.000
1709298810.940,-35.645,-25.391,-37.598,-21.973,0.000
1709298810.944,-35.156,-29.785,-37.598,-32.715,0.000
1709298810.947,-52.734,-28.320,-38.574,-46.875,0.000
1709298810.951,-42.969,-40.527,-33.691,-40.039,0.000
1709298810.955,-25.391,-49.316,-29.785,-26.367,0.000
1709298810.959,-33.691,-30.273,-31.738,-21.973,0.000
1709298810.963,-39.062,-10.254,-34.668,-24.902,0.000
1709298810.967,-37.109,-10.254,-43.457,-38.574,0.000
1709298810.971,-42.480,-27.832,-49.805,-44.922,0.000
1709298810.975,-34.668,-30.273,-48.340,-31.738,0.000
1709298810.979,-27.344,-28.320,-48.340,-15.137,0.000
1709298810.983,-24.902,-42.969,-37.598,-27.344,0.000
1709298810.987,-15.625,-40.039,-31.250,-35.156,0.000
1709298810.990,-22.461,-12.695,-34.668,-26.855,0.000
1709298810.994,-31.738,-19.043,-39.062,-25.391,0.000
1709298810.998,-29.297,-40.527,-42.969,-30.273,0.000
1709298811.002,-30.762,-32.715,-38.574,-37.598,0.000
1709298811.006,-41.016,-26.855,-41.016,-39.062,0.000
1709298811.010,-45.410,-24.902,-39.062,-40.039,0.000
1709298811.014,-47.363,-27.832,-35.645,-37.109,0.000
1709298811.018,-47.363,-37.109,-42.969,-42.480,0.000
1709298811.022,-44.434,-26.855,-44.922,-41.016,0.000
1709298811.026,-42.480,-40.039,-40.039,-44.922,0.000
1709298811.030,-56.641,-56.641,-44.434,-50.781,0.000
1709298811.033,-65.918,-49.805,-40.039,-30.273,0.000
1709298811.037,-65.918,-52.734,-39.062,-36.621,0.000
1709298811.041,-63.477,-42.969,-43.457,-57.129,0.000
1709298811.045,-59.570,-27.344,-35.156,-56.152,0.000
1709298811.049,-53.711,-19.531,-37.598,-56.641,0.000
1709298811.053,-54.199,-29.785,-40.039,-47.363,0.000
1709298811.057,-52.734,-39.551,-40.039,-32.715,0.000
1709298811.061,-40.039,-32.715,-45.410,-30.762,0.000
1709298811.065,-32.715,-32.715,-40.527,-39.062,0.000
1709298811.069,-29.785,-27.344,-30.273,-45.898,0.000
1709298811.073,-20.996,-28.809,-22.949,-37.598,0.000
1709298811.076,-26.367,-40.039,-26.367,-27.344,0.000
1709298811.080,-37.109,-37.598,-38.086,-29.297,0.000
1709298811.084,-42.969,-37.109,-38.574,-45.898,0.000
1709298811.088,-43.457,-45.898,-39.062,-57.617,0.000
1709298811.092,-32.715,-52.734,-41.016,-40.527,0.000
1709298811.096,-35.156,-32.227,-41.992,-31.250,0.000
1709298811.100,-33.691,-14.648,-44.434,-31.738,0.000
1709298811.104,-26.367,-20.508,-42.969,-33.203,0.000
1709298811.108,-23.926,-22.461,-36.621,-31.738,0.000
1709298811.112,-27.344,-28.320,-41.504,-22.461,0.000
1709298811.116,-26.367,-29.297,-41.016,-23.438,0.000
1709298811.119,-22.461,-31.738,-35.156,-20.996,0.000
1709298811.123,-28.320,-43.457,-42.969,-32.227,0.000
1709298811.127,-41.992,-43.457,-45.898,-37.109,0.000
1709298811.131,-43.945,-45.410,-41.504,-17.578,0.000
1709298811.135,-38.574,-42.969,-37.109,-17.578,0.000
1709298811.139,-35.645,-17.090,-29.785,-27.832,0.000
1709298811.143,-31.738,-13.184,-26.855,-33.691,0.000
1709298811.147,-32.227,-29.785,-29.297,-40.039,0.000
1709298811.151,-40.527,-41.016,-31.738,-40.527,0.000
1709298811.155,-46.875,-44.922,-32.227,-36.621,0.000
1709298811.159,-44.434,-31.738,-37.598,-32.227,0.000
1709298811.162,-50.781,-20.996,-42.480,-35.645,0.000
1709298811.166,-53.711,-25.879,-41.504,-45.410,0.000
1709298811.170,-47.852,-36.621,-48.340,-51.758,0.000
1709298811.174,-53.711,-41.016,-54.688,-54.688,0.000
1709298811.178,-57.129,-27.344,-46.875,-49.805,0.000
1709298811.182,-58.105,-15.137,-39.551,-46.875,0.000
1709298811.186,-63.477,-20.020,-45.410,-57.617,0.000
1709298811.190,-54.688,-32.715,-43.457,-51.270,0.000
1709298811.194,-53.223,-39.062,-39.062,-42.969,0.000
1709298811.198,-54.688,-25.879,-40.527,-29.297,0.000
1709298811.202,-41.504,-5.859,-37.598,-20.508,0.000
1709298811.205,-49.805,-16.113,-39.062,-49.805,0.000
1709298811.209,-56.641,-22.461,-43.945,-59.082,0.000
1709298811.213,-38.574,-22.949,-35.156,-39.551,0.000
1709298811.217,-29.785,-34.180,-28.809,-25.879,0.000
1709298811.221,-39.551,-27.832,-35.156,-24.902,0.000
1709298811.225,-41.992,-36.133,-33.203,-25.879,0.000
1709298811.229,-35.645,-38.574,-34.180,-23.926,0.000
1709298811.233,-43.457,-21.484,-40.527,-34.180,0.000
1709298811.237,-35.645,-24.414,-43.457,-36.621,0.000
1709298811.241,-21.484,-30.762,-38.086,-27.832,0.000
1709298811.244,-23.926,-29.297,-37.598,-34.180,0.000
1709298811.248,0.000,-22.949,-40.039,-33.203,0.000
1709298811.252,0.000,-17.578,-40.039,-29.785,0.000
1709298811.256,0.000,-28.320,-40.039,-20.020,0.000
1709298811.260,0.000,-33.691,-36.133,-13.672,0.000
1709298811.264,0.000,-25.391,-33.203,-25.391,0.000
1709298811.268,0.000,-16.602,-34.668,-37.109,0.000
1709298811.272,0.000,-19.043,-44.922,-29.785,0.000
1709298811.276,0.000,-30.762,-40.039,-12.207,0.000
1709298811.280,0.000,-22.461,-31.738,-19.531,0.000
1709298811.284,0.000,-12.207,-32.715,-39.062,0.000
1709298811.287,0.000,-20.020,-31.738,-43.945,0.000
1709298811.291,0.000,-19.531,-28.320,-38.086,0.000
1709298811.295,-24.414,-15.137,-35.645,-35.645,0.000
1709298811.299,-23.438,-17.578,-40.039,-24.414,0.000
1709298811.303,-19.043,-26.367,-37.109,-27.832,0.000
1709298811.307,-20.020,-32.715,-36.621,-46.387,0.000
1709298811.311,-30.762,-12.207,-31.250,-42.969,0.000
1709298811.315,-32.227,-1.953,-22.949,-20.996,0.000
1709298811.319,-27.832,-21.973,-26.855,-11.719,0.000
1709298811.323,-26.855,-28.320,-37.109,-25.879,0.000
1709298811.326,-32.227,-15.137,-37.109,-40.039,0.000
1709298811.330,-31.250,-5.859,-32.227,-46.875,0.000
1709298811.334,-30.762,-13.184,-31.250,-41.016,0.000
1709298811.338,-44.434,-24.902,-34.668,-20.996,0.000
1709298811.342,-24.902,-14.160,-42.969,-23.926,0.000
1709298811.346,-26.855,-7.324,-41.016,-40.039,0.000
1709298811.350,-35.156,-8.789,-32.715,-40.527,0.000
1709298811.354,-39.062,-7.812,-41.992,-33.203,0.000
1709298811.358,-24.414,-10.742,-43.457,-31.250,0.000
1709298811.362,-18.066,-17.090,-39.062,-33.203,0.000
1709298811.366,-35.645,-18.066,-45.410,-42.969,0.000
1709298811.369,-42.480,-13.184,-45.410,-47.363,0.000
1709298811.373,-35.156,-16.602,-37.109,-30.762,0.000
1709298811.377,-23.926,-30.273,-37.598,-20.020,0.000
1709298811.381,-20.996,-32.715,-40.039,-25.391,0.000
1709298811.385,-35.156,-19.531,-39.062,-48.340,0.000
1709298811.389,-46.875,-14.160,-46.387,-57.129,0.000
1709298811.393,-40.039,-17.578,-50.293,-50.781,0.000
1709298811.397,-41.016,-15.137,-45.898,-39.551,0.000
1709298811.401,-43.945,-22.461,-42.480,-34.668,0.000
1709298811.405,-41.016,-34.668,-46.875,-38.086,0.000
1709298811.409,-39.551,-29.297,-49.805,-26.855,0.000
1709298811.412,-40.527,-17.578,-44.434,-29.785,0.000
1709298811.416,-47.852,-20.508,-42.480,-32.227,0.000
1709298811.420,-44.922,-22.461,-40.039,-14.160,0.000
1709298811.424,-39.551,-31.250,-34.180,-20.996,0.000
1709298811.428,-42.480,-37.598,-28.320,-28.320,0.000
1709298811.432,-54.199,-27.344,-37.598,-37.598,0.000
1709298811.436,-56.641,-24.902,-34.180,-39.062,0.000
1709298811.440,-46.875,-32.715,-32.227,-23.926,0.000
1709298811.444,-42.969,-29.297,-37.598,-27.344,0.000
1709298811.448,-43.945,-28.809,-40.039,-44.922,0.000
1709298811.452,-42.480,-42.480,-37.598,-47.852,0.000
1709298811.455,-41.992,-35.645,-33.691,-41.504,0.000
1709298811.459,-36.621,-38.086,-39.062,-34.668,0.000
1709298811.463,-38.574,-36.621,-46.387,-36.621,0.000
1709298811.467,-40.527,-19.531,-39.551,-41.016,0.000
1709298811.471,-36.133,-18.555,-29.785,-41.016,0.000
1709298811.475,-31.738,-19.531,-32.715,-35.645,0.000
1709298811.479,-27.832,-28.809,-30.273,-21.484,0.000
1709298811.483,-23.926,-29.785,-28.809,-24.902,0.000
1709298811.487,-28.809,-25.879,-31.250,-39.551,0.000
1709298811.491,-36.621,-17.578,-29.297,-34.180,0.000
1709298811.495,-31.738,-20.020,-27.832,-20.996,0.000
1709298811.498,-30.762,-34.668,-30.273,-13.672,0.000
1709298811.502,-32.227,-29.297,-34.180,-19.043,0.000
1709298811.506,-31.250,-20.020,-40.039,-27.832,0.000
1709298811.510,-34.180,-26.367,-41.016,-27.832,0.000
1709298811.514,-28.809,-31.738,-38.574,-17.090,0.000
1709298811.518,-32.227,-34.180,-34.668,-24.414,0.000
1709298811.522,-41.992,-17.578,-32.715,-51.758,0.000
1709298811.526,-34.668,0.000,-27.344,-47.852,0.000
1709298811.530,-40.039,-15.625,-30.273,-35.645,0.000
1709298811.534,-42.969,-38.086,-31.738,-32.715,0.000
1709298811.538,-35.156,-29.785,-30.273,-38.086,0.000
1709298811.541,-33.691,-23.926,-33.203,-48.340,0.000
1709298811.545,-49.805,-33.203,-39.062,-58.105,0.000
1709298811.549,-54.199,-39.062,-32.715,-47.363,0.000
1709298811.553,-49.316,-38.086,-25.391,-32.227,0.000
1709298811.557,-51.758,-30.273,-30.273,-35.156,0.000
1709298811.561,-52.734,-24.902,-33.691,-40.039,0.000
1709298811.565,-49.316,-19.043,-32.227,-41.016,0.000
1709298811.569,-40.039,-19.531,-33.203,-41.992,0.000
1709298811.573,-44.922,-24.414,-29.785,-36.621,0.000
1709298811.577,-33.691,-26.855,-30.762,-23.438,0.000
1709298811.581,-23.438,-28.809,-35.645,-25.879,0.000
1709298811.584,-34.180,-28.320,-35.156,-32.227,0.000
1709298811.588,-38.574,-30.762,-34.180,-26.367,0.000
1709298811.592,-31.738,-28.320,-35.156,-24.902,0.000
1709298811.596,-38.086,-32.715,-38.086,-30.762,0.000
1709298811.600,-43.457,-32.227,-41.992,-40.039,0.000
1709298811.604,-39.551,-16.602,-41.504,-49.316,0.000
1709298811.608,-40.039,-11.719,-39.551,-48.828,0.000
1709298811.612,-37.109,-17.578,-38.574,-39.551,0.000
1709298811.616,-40.039,-27.344,-41.504,-31.738,0.000
1709298811.620,-36.133,-33.203,-42.969,-33.203,0.000
1709298811.624,-30.762,-21.484,-35.645,-35.156,0.000
1709298811.627,-39.551,-10.742,-40.039,-37.598,0.000
1709298811.631,-49.316,-20.508,-43.945,-44.434,0.000
1709298811.635,-43.945,-23.926,-35.156,-38.086,0.000
1709298811.639,-32.227,-20.508,-27.344,-18.066,0.000
1709298811.643,-37.109,-23.438,-32.715,-26.367,0.000
1709298811.647,-45.410,-22.949,-36.133,-43.457,0.000
1709298811.651,-43.457,-21.484,-32.227,-39.551,0.000
1709298811.655,-45.898,-22.461,-38.086,-31.738,0.000
1709298811.659,-43.945,-26.855,-42.480,-23.926,0.000
1709298811.663,-30.762,-35.645,-40.527,-23.926,0.000
1709298811.666,-33.203,-37.109,-33.691,-33.691,0.000
1709298811.670,-52.246,-39.551,-30.273,-50.293,0.000
1709298811.674,-57.617,-39.062,-36.133,-50.293,0.000
1709298811.678,-57.617,-34.668,-47.852,-48.340,0.000
1709298811.682,-59.082,-40.039,-48.340,-48.828,0.000
1709298811.686,-52.246,-47.852,-41.016,-44.434,0.000
1709298811.690,-47.852,-34.668,-37.598,-44.434,0.000
1709298811.694,-54.199,-22.949,-41.016,-49.805,0.000
1709298811.698,-48.340,-23.438,-34.668,-31.250,0.000
1709298811.702,-39.551,-30.762,-37.109,-20.020,0.000
1709298811.706,-29.297,-49.316,-44.922,-29.297,0.000
1709298811.709,-32.715,-40.527,-37.598,-39.551,0.000
1709298811.713,-44.922,-14.160,-36.621,-48.340,0.000
1709298811.717,-34.180,-5.371,-34.668,-34.180,0.000
1709298811.721,-28.320,-9.766,-34.668,-28.809,0.000
1709298811.725,-38.086,-21.484,-41.504,-34.668,0.000
1709298811.729,-41.016,-25.391,-39.551,-37.598,0.000
1709298811.733,-40.039,-23.926,-37.109,-41.504,0.000
1709298811.737,-37.598,-27.344,-40.527,-29.785,0.000
1709298811.741,-28.809,-27.344,-35.645,-17.578,0.000
1709298811.745,-22.949,-32.227,-31.738,-31.738,0.000
1709298811.748,-29.297,-38.086,-35.156,-46.875,0.000
1709298811.752,-36.133,-33.203,-40.039,-50.781,0.000
1709298811.756,-41.016,-35.156,-41.016,-35.156,0.000
1709298811.760,-42.969,-25.391,-41.504,-24.902,0.000
1709298811.764,-36.133,-25.879,-35.645,-31.250,0.000
1709298811.768,-34.668,-39.062,-33.203,-42.969,0.000
1709298811.772,-41.016,-31.738,-41.504,-60.547,0.000
1709298811.776,-35.645,-20.508,-42.969,-52.246,0.000
1709298811.780,-36.133,-18.066,-41.992,-42.969,0.000
1709298811.784,-44.434,-29.297,-40.527,-47.363,0.000
1709298811.788,-50.293,-37.598,-38.086,-37.109,0.000
1709298811.792,-47.852,-35.645,-41.504,-40.527,0.000
1709298811.795,-48.828,-33.691,-43.457,-38.086,0.000
1709298811.799,-46.875,-32.715,-38.574,-27.344,0.000
1709298811.803,-39.062,-20.996,-39.551,-42.969,0.000
1709298811.807,-41.016,-21.484,-42.480,-46.875,0.000
1709298811.811,-47.852,-39.062,-44.434,-41.016,0.000
1709298811.815,-47.852,-33.203,-44.434,-40.527,0.000
1709298811.819,-41.992,-18.066,-39.551,-44.434,0.000
1709298811.823,-42.969,-28.320,-39.551,-44.434,0.000
1709298811.827,-47.852,-34.668,-41.016,-40.527,0.000
1709298811.831,-48.828,-30.273,-38.574,-36.133,0.000
1709298811.835,-41.992,-50.781,-48.340,-36.621,0.000
1709298811.838,-41.504,-61.523,-57.129,-30.273,0.000
1709298811.842,-50.293,-39.551,-43.457,-30.762,0.000
1709298811.846,-51.758,-20.020,-38.086,-40.039,0.000
1709298811.850,-48.340,-24.414,-40.039,-45.410,0.000
1709298811.854,-45.898,-37.109,-39.062,-46.875,0.000
1709298811.858,-43.945,-49.316,-39.062,-41.504,0.000
1709298811.862,-45.410,-41.504,-41.016,-34.180,0.000
1709298811.866,-46.387,-26.367,-43.457,-38.574,0.000
1709298811.870,-44.922,-28.809,-42.480,-42.480,0.000
1709298811.874,-45.898,-30.273,-37.109,-36.133,0.000
1709298811.877,-42.480,-40.527,-32.715,-23.926,0.000
1709298811.881,-24.414,-53.223,-36.621,-18.066,0.000
1709298811.885,-28.320,-45.898,-42.480,-34.668,0.000
1709298811.889,-39.062,-35.156,-38.086,-37.598,0.000
1709298811.893,-31.250,-36.133,-32.227,-33.203,0.000
1709298811.897,-25.391,-44.922,-32.715,-25.879,0.000
1709298811.901,-23.438,-49.316,-36.621,-20.508,0.000
1709298811.905,-24.414,-46.387,-38.086,-33.691,0.000
1709298811.909,-38.086,-47.363,-34.668,-52.246,0.000
1709298811.913,-54.688,-45.898,-33.203,-50.781,0.000
1709298811.917,-52.734,-44.434,-39.062,-42.969,0.000
1709298811.920,-48.340,-38.086,-43.945,-52.734,0.000
1709298811.924,-44.434,-35.645,-39.551,-59.570,0.000
1709298811.928,-39.551,-48.828,-32.227,-52.246,0.000
1709298811.932,-44.922,-51.758,-29.297,-36.133,0.000
1709298811.936,-50.781,-31.738,-34.668,-30.762,0.000
1709298811.940,-47.363,-25.391,-39.551,-27.832,0.000
1709298811.944,-40.527,-33.691,-44.922,-35.645,0.000
1709298811.948,-51.270,-41.504,-41.504,-51.270,0.000
1709298811.952,-61.035,-41.016,-36.621,-54.688,0.000
1709298811.956,-56.152,-39.551,-39.551,-50.781,0.000
1709298811.960,-43.945,-43.457,-39.551,-33.203,0.000
1709298811.963,-40.527,-39.062,-35.645,-27.344,0.000
1709298811.967,-44.922,-32.715,-43.945,-42.480,0.000
1709298811.971,-44.922,-26.367,-42.969,-53.711,0.000
1709298811.975,-41.016,-36.621,-27.832,-49.805,0.000
1709298811.979,-34.180,-47.852,-30.762,-36.621,0.000
1709298811.983,-46.875,-37.598,-32.715,-38.574,0.000
1709298811.987,-66.406,-36.133,-32.227,-61.035,0.000
1709298811.991,-67.383,-43.945,-34.668,-67.383,0.000
1709298811.995,-61.523,-42.480,-38.086,-63.965,0.000
1709298811.999,0.000,-40.039,-36.133,-51.758,0.000
1709298812.003,0.000,-43.457,-30.762,-43.457,0.000
1709298812.006,0.000,-35.645,-33.691,-44.434,0.000
1709298812.010,0.000,-22.949,-34.180,-50.293,0.000
1709298812.014,0.000,-27.832,-36.621,-47.363,0.000
1709298812.018,0.000,-24.902,-34.180,-37.598,0.000
1709298812.022,0.000,-20.508,-33.691,-38.086,0.000
1709298812.026,0.000,-27.832,-40.039,-39.551,0.000
1709298812.030,0.000,-24.414,-37.598,-41.504,0.000
1709298812.034,0.000,-29.297,-42.480,-39.551,0.000
1709298812.038,0.000,-26.367,-43.457,-26.855,0.000
1709298812.042,0.000,-22.461,-34.180,-13.184,0.000
1709298812.046,-38.086,-24.414,-37.598,-28.809,0.000
1709298812.049,-39.551,-29.785,-38.086,-42.480,0.000
1709298812.053,-44.434,-32.227,-40.039,-41.992,0.000
1709298812.057,-45.898,-25.879,-42.480,-41.016,0.000
1709298812.061,-30.273,-26.367,-37.109,-30.273,0.000
1709298812.065,-20.508,-38.086,-37.598,-24.414,0.000
1709298812.069,-30.762,-41.016,-42.480,-31.250,0.000
1709298812.073,-39.062,-11.230,-39.062,-32.715,0.000
1709298812.077,-34.180,-6.348,-39.062,-20.508,0.000
1709298812.081,-25.879,-21.484,-40.039,-13.672,0.000
1709298812.085,-20.996,-12.207,-34.180,-26.855,0.000
1709298812.088,-22.461,-11.719,-36.133,-29.785,0.000
1709298812.092,-23.926,-11.719,-43.945,-25.879,0.000
1709298812.096,-22.461,2.441,-39.551,-38.574,0.000
1709298812.100,-28.320,3.906,-33.691,-41.992,0.000
1709298812.104,-31.738,2.441,-32.715,-39.551,0.000
1709298812.108,-31.250,0.488,-25.879,-45.898,0.000
1709298812.112,-34.668,-9.766,-28.320,-37.598,0.000
1709298812.116,-30.762,-8.789,-32.715,-17.090,0.000
1709298812.120,-18.555,0.977,-29.297,-24.414,0.000
1709298812.124,-18.066,3.906,-27.832,-39.551,0.000
1709298812.128,-31.738,-3.418,-29.297,-46.875,0.000
1709298812.131,-32.715,-0.488,-25.879,-51.270,0.000
1709298812.135,-30.273,-4.395,-26.855,-52.734,0.000
1709298812.139,0.000,-13.672,-27.832,-39.551,0.000
1709298812.143,0.000,-20.996,-31.250,-34.180,0.000
1709298812.147,0.000,-34.180,-35.156,-44.434,0.000
1709298812.151,0.000,-21.484,-41.504,-44.434,0.000
1709298812.155,0.000,-8.301,-39.062,-40.039,0.000
1709298812.159,0.000,-8.301,-31.250,-37.109,0.000
1709298812.163,0.000,-6.348,-30.762,-37.109,0.000
1709298812.167,0.000,-17.090,-30.273,-30.273,0.000
1709298812.171,0.000,-20.508,-31.738,-35.156,0.000
1709298812.174,0.000,-20.996,-39.551,-43.945,0.000
1709298812.178,0.000,-16.113,-42.969,-30.762,0.000
1709298812.182,0.000,-19.531,-35.645,-24.902,0.000
1709298812.186,-45.410,-26.855,-32.715,-41.992,0.000
1709298812.190,-45.410,-2.930,-38.086,-51.758,0.000
1709298812.194,-44.434,5.371,-44.434,-35.645,0.000
1709298812.198,-37.109,-7.812,-35.156,-21.973,0.000
1709298812.202,-30.273,-8.789,-27.832,-18.555,0.000
1709298812.206,-44.922,-8.301,-35.156,-24.902,0.000
1709298812.210,-46.387,-12.695,-31.738,-31.738,0.000
1709298812.214,-35.645,-21.484,-26.367,-26.855,0.000
1709298812.217,-33.691,-30.762,-27.344,-12.695,0.000
1709298812.221,-30.273,-36.621,-33.203,-19.531,0.000
1709298812.225,-36.621,-39.062,-37.598,-43.945,0.000
1709298812.229,-49.805,-39.062,-36.133,-44.922,0.000
1709298812.233,-47.363,-48.340,-27.344,-13.184,0.000
1709298812.237,-41.992,-42.969,-29.297,-5.859,0.000
1709298812.241,-41.016,-19.043,-40.039,-30.273,0.000
1709298812.245,-42.969,-18.555,-38.574,-38.086,0.000
1709298812.249,-51.270,-28.320,-33.203,-39.062,0.000
1709298812.253,-44.434,-44.434,-30.273,-29.785,0.000
1709298812.257,-26.855,-42.480,-28.809,-21.973,0.000
1709298812.260,-31.250,-24.414,-30.762,-20.508,0.000
1709298812.264,-36.133,-28.809,-31.738,-19.531,0.000
1709298812.268,-30.762,-43.457,-27.344,-21.973,0.000
1709298812.272,-27.344,-45.898,-30.273,-23.926,0.000
1709298812.276,-38.574,-45.410,-37.109,-33.691,0.000
1709298812.280,-46.387,-24.414,-37.109,-44.434,0.000
1709298812.284,-46.875,-18.066,-38.086,-51.758,0.000
1709298812.288,-43.457,-28.809,-37.598,-57.617,0.000
1709298812.292,-44.922,-26.855,-38.086,-55.176,0.000
1709298812.296,-47.852,-37.598,-41.992,-47.852,0.000
1709298812.300,-32.227,-49.316,-43.945,-36.133,0.000
1709298812.303,-34.668,-47.363,-47.852,-43.945,0.000
1709298812.307,-51.758,-39.062,-52.734,-59.082,0.000
1709298812.311,-39.062,-36.621,-43.945,-47.363,0.000
1709298812.315,-37.109,-26.855,-38.086,-33.691,0.000
1709298812.319,-43.945,-15.625,-37.598,-37.109,0.000
1709298812.323,-39.062,-28.809,-34.180,-31.738,0.000
1709298812.327,0.000,-42.969,-36.133,-26.855,0.000
1709298812.331,0.000,-51.270,-39.062,-37.109,0.000
1709298812.335,0.000,-50.293,-40.039,-36.621,0.000
1709298812.339,0.000,-50.781,-35.645,-25.391,0.000
1709298812.343,0.000,-44.434,-33.691,-19.043,0.000
1709298812.346,0.000,-34.668,-36.133,-19.531,0.000
1709298812.350,0.000,-62.012,-26.367,-24.902,0.000
1709298812.354,0.000,-69.824,-26.367,-31.250,0.000
1709298812.358,0.000,-34.180,-39.062,-27.832,0.000
1709298812.362,0.000,-19.531,-40.527,-34.180,0.000
1709298812.366,0.000,-24.902,-36.621,-44.922,0.000
1709298812.370,0.000,-37.109,-34.668,-50.293,0.000
1709298812.374,-44.922,-44.922,-31.738,-32.715,0.000
1709298812.378,-31.738,-38.574,-34.180,-14.648,0.000
1709298812.382,-20.996,-38.574,-29.785,-13.184,0.000
1709298812.386,-29.785,-34.668,-26.367,-28.809,0.000
1709298812.389,-39.062,-29.297,-40.039,-38.574,0.000
1709298812.393,-38.086,-34.180,-41.504,-32.715,0.000
1709298812.397,-29.297,-41.016,-31.250,-20.020,0.000
1709298812.401,-24.414,-42.969,-30.762,-2.441,0.000
1709298812.405,-35.156,-34.180,-41.504,-14.648,0.000
1709298812.409,-50.781,-27.344,-43.457,-36.621,0.000
1709298812.413,-54.199,-31.738,-45.898,-31.250,0.000
1709298812.417,-45.410,-29.297,-46.875,-24.414,0.000
1709298812.421,-43.457,-21.973,-39.551,-29.785,0.000
1709298812.425,-45.898,-34.668,-35.645,-36.621,0.000
1709298812.429,-53.223,-36.621,-41.992,-41.016,0.000
1709298812.432,-50.781,-38.086,-40.039,-39.062,0.000
1709298812.436,-52.734,-42.480,-32.227,-37.598,0.000
1709298812.440,-43.945,-34.180,-35.156,-40.039,0.000
1709298812.444,-42.969,-33.203,-39.062,-41.992,0.000
1709298812.448,-44.922,-36.621,-40.527,-42.969,0.000
1709298812.452,-31.738,-39.062,-42.969,-42.480,0.000
1709298812.456,-32.715,-33.691,-43.945,-41.016,0.000
1709298812.460,-39.551,-33.203,-38.086,-38.086,0.000
1709298812.464,-41.016,-33.691,-39.062,-39.551,0.000
1709298812.468,-35.645,-33.691,-41.992,-47.363,0.000
1709298812.472,-34.668,-35.645,-41.504,-48.828,0.000
1709298812.475,-36.133,-23.438,-36.621,-39.551,0.000
1709298812.479,-32.227,-20.020,-32.715,-30.273,0.000
1709298812.483,-32.715,-26.367,-33.203,-33.691,0.000
1709298812.487,-31.738,-31.738,-33.691,-35.156,0.000
1709298812.491,-32.715,-37.109,-31.250,-18.555,0.000
1709298812.495,-40.527,-35.156,-36.621,-15.137,0.000
1709298812.499,-35.645,-42.969,-34.668,-18.555,0.000
1709298812.503,-31.738,-51.758,-32.227,-16.602,0.000
1709298812.507,-43.945,-43.945,-40.527,-25.391,0.000
1709298812.511,-44.922,-31.738,-39.551,-35.645,0.000
1709298812.515,-41.504,-35.156,-37.109,-26.367,0.000
1709298812.519,-41.992,-41.016,-41.504,-16.113,0.000
1709298812.522,-44.434,-38.086,-42.480,-15.625,0.000
1709298812.526,-52.246,-41.016,-47.363,-28.809,0.000
1709298812.530,-63.477,-44.434,-47.363,-44.434,0.000
1709298812.534,-59.082,-45.898,-48.828,-32.715,0.000
1709298812.538,-54.688,-40.527,-49.805,-30.273,0.000
1709298812.542,-49.316,-33.203,-38.574,-29.297,0.000
1709298812.546,-38.574,-35.156,-43.457,-23.438,0.000
1709298812.550,-42.480,-37.109,-41.992,-28.320,0.000
1709298812.554,-51.270,-38.086,-28.320,-38.574,0.000
1709298812.558,-49.805,-36.621,-28.320,-44.434,0.000
1709298812.562,-40.527,-26.367,-32.227,-40.527,0.000
1709298812.565,-41.504,-26.367,-37.109,-40.039,0.000
1709298812.569,-44.434,-41.016,-41.016,-43.457,0.000
1709298812.573,-41.504,-39.551,-38.574,-42.480,0.000
1709298812.577,-34.180,-38.574,-38.574,-30.273,0.000
1709298812.581,-37.109,-42.480,-37.109,-26.855,0.000
1709298812.585,-45.410,-34.668,-34.180,-37.109,0.000
1709298812.589,-50.293,-37.598,-40.039,-54.199,0.000
1709298812.593,-42.480,-46.387,-33.691,-45.410,0.000
1709298812.597,-35.645,-46.875,-29.297,-29.297,0.000
1709298812.601,-35.645,-32.715,-41.016,-39.062,0.000
1709298812.604,-24.414,-36.133,-35.645,-20.508,0.000
1709298812.608,-28.320,-59.082,-33.203,-30.762,0.000
1709298812.612,-38.086,-46.875,-38.574,-61.035,0.000
1709298812.616,-34.668,-21.484,-35.156,-45.410,0.000
1709298812.620,-24.902,-20.996,-33.691,-30.273,0.000
1709298812.624,-18.555,-30.273,-36.133,-29.297,0.000
1709298812.628,-20.020,-34.180,-33.691,-30.273,0.000
1709298812.632,-17.090,-28.320,-30.273,-18.555,0.000
1709298812.636,-26.367,-26.367,-35.156,-19.043,0.000
1709298812.640,-35.156,-32.227,-42.480,-27.832,0.000
1709298812.644,-39.551,-32.715,-41.992,-34.668,0.000
1709298812.647,-45.898,-36.621,-42.480,-40.039,0.000
1709298812.651,-51.758,-39.551,-43.457,-41.016,0.000
1709298812.655,-53.711,-36.621,-42.969,-32.715,0.000
1709298812.659,-45.898,-33.691,-42.480,-30.762,0.000
1709298812.663,-48.340,-20.020,-42.480,-52.246,0.000
1709298812.667,-59.082,-19.531,-43.457,-57.617,0.000
1709298812.671,-56.641,-32.715,-38.574,-49.805,0.000
1709298812.675,-53.711,-40.039,-39.062,-40.527,0.000
1709298812.679,-46.875,-39.062,-40.039,-28.320,0.000
1709298812.683,-43.945,-54.688,-41.504,-38.574,0.000
1709298812.687,-57.129,-57.129,-42.969,-56.641,0.000
1709298812.690,-54.688,-38.574,-39.551,-62.988,0.000
1709298812.694,-52.734,-38.574,-34.180,-52.734,0.000
1709298812.698,-58.594,-36.621,-29.785,-36.133,0.000
1709298812.702,-59.082,-41.504,-35.156,-45.898,0.000
1709298812.706,-51.758,-37.598,-34.180,-56.152,0.000
1709298812.710,-49.805,-29.297,-40.039,-56.152,0.000
1709298812.714,-40.527,-29.297,-41.504,-44.922,0.000
1709298812.718,-24.414,-30.273,-30.762,-30.762,0.000
1709298812.722,-26.367,-34.668,-31.250,-24.902,0.000
1709298812.726,-26.367,-36.621,-36.621,-26.367,0.000
1709298812.730,-31.738,-36.133,-39.062,-35.645,0.000
1709298812.733,-30.762,-37.109,-41.504,-32.715,0.000
1709298812.737,-26.367,-32.227,-41.504,-32.715,0.000
1709298812.741,-36.133,-33.203,-43.945,-37.598,0.000
1709298812.745,-38.574,-41.504,-36.621,-29.297,0.000
1709298812.749,-41.016,-44.922,-38.086,-40.039,0.000
1709298812.753,-57.617,-43.945,-48.828,-55.176,0.000
1709298812.757,-53.223,-51.270,-42.969,-41.016,0.000
1709298812.761,-45.410,-45.898,-33.691,-34.668,0.000
1709298812.765,-49.805,-39.551,-32.715,-43.945,0.000
1709298812.769,-52.734,-42.969,-29.785,-50.293,0.000
1709298812.773,-46.387,-41.992,-24.902,-44.434,0.000
1709298812.776,-41.504,-48.340,-32.715,-38.086,0.000
1709298812.780,-46.387,-34.180,-41.504,-42.969,0.000
1709298812.784,-37.598,-13.672,-44.922,-47.363,0.000
1709298812.788,-40.527,-25.391,-43.457,-48.340,0.000
1709298812.792,-50.781,-51.270,-42.480,-34.668,0.000
1709298812.796,-48.340,-48.828,-51.270,-31.738,0.000
1709298812.800,-42.480,-40.527,-47.852,-34.180,0.000
1709298812.804,-35.645,-42.480,-36.133,-32.715,0.000
1709298812.808,-29.785,-26.367,-32.715,-44.434,0.000
1709298812.812,-32.715,-25.391,-32.715,-42.969,0.000
1709298812.816,-34.668,-36.621,-36.133,-31.738,0.000
1709298812.819,-22.461,-45.898,-32.227,-14.648,0.000
1709298812.823,-16.113,-40.527,-30.273,-17.578,0.000
1709298812.827,-26.367,-26.367,-36.133,-29.297,0.000
1709298812.831,-28.320,-29.785,-33.203,-25.391,0.000
1709298812.835,-21.973,-27.344,-34.180,-29.785,0.000
1709298812.839,-18.066,-13.672,-41.016,-19.531,0.000
1709298812.843,-18.066,-17.090,-39.062,-14.648,0.000
1709298812.847,-30.762,-22.949,-34.668,-21.484,0.000
1709298812.851,-29.297,-21.973,-34.668,-20.020,0.000
1709298812.855,-17.090,-38.086,-35.156,-20.020,0.000
1709298812.859,-18.066,-29.785,-41.504,-25.879,0.000
1709298812.862,-21.973,-6.836,-44.434,-33.203,0.000
1709298812.866,-24.414,-8.301,-39.062,-35.156,0.000
1709298812.870,-22.461,-10.742,-39.062,-45.410,0.000
1709298812.874,-16.602,-8.789,-36.133,-41.504,0.000
1709298812.878,-22.461,-14.648,-38.574,-23.926,0.000
1709298812.882,-27.832,-23.926,-33.691,-20.508,0.000
1709298812.886,-26.855,-18.555,-30.273,-33.203,0.000
1709298812.890,-33.203,-15.625,-36.621,-40.039,0.000
1709298812.894,-52.246,-24.902,-39.062,-38.086,0.000
1709298812.898,-54.688,-29.785,-41.992,-42.969,0.000
1709298812.902,-42.969,-24.902,-41.992,-40.039,0.000
1709298812.905,-43.457,-23.438,-38.086,-35.645,0.000
1709298812.909,-49.316,-20.996,-35.645,-39.551,0.000
1709298812.913,-48.340,-20.508,-30.762,-34.180,0.000
1709298812.917,-49.805,-21.973,-32.227,-36.621,0.000
1709298812.921,-50.781,-30.762,-41.504,-43.945,0.000
1709298812.925,-41.992,-42.480,-37.598,-37.598,0.000
1709298812.929,-49.316,-31.250,-39.062,-41.504,0.000
1709298812.933,-62.500,-25.391,-43.945,-65.918,0.000
1709298812.937,-60.059,-29.297,-38.574,-75.195,0.000
1709298812.941,-53.223,-21.484,-35.645,-65.430,0.000
1709298812.945,-50.781,-13.672,-43.457,-60.547,0.000
1709298812.948,-40.039,-20.508,-42.969,-47.363,0.000
1709298812.952,-40.039,-25.391,-40.527,-34.180,0.000
1709298812.956,-55.176,-17.578,-48.340,-35.156,0.000
1709298812.960,-52.734,-20.020,-45.410,-36.133,0.000
1709298812.964,-42.480,-26.367,-40.527,-39.551,0.000
1709298812.968,-43.457,-23.438,-39.062,-41.504,0.000
1709298812.972,-44.434,-26.855,-38.086,-29.297,0.000
1709298812.976,-39.062,-25.879,-38.574,-26.367,0.000
1709298812.980,-33.203,-21.973,-38.086,-31.250,0.000
1709298812.984,-28.320,-32.227,-35.645,-22.461,0.000
1709298812.988,-31.250,-35.645,-35.645,-22.949,0.000
1709298812.991,-38.574,-16.602,-43.457,-31.250,0.000
1709298812.995,-39.551,-8.301,-34.668,-33.203,0.000
1709298812.999,-37.598,-18.066,-25.391,-32.715,0.000
1709298813.003,-38.574,-15.137,-28.809,-42.969,0.000
1709298813.007,-41.992,-16.113,-32.715,-56.641,0.000
1709298813.011,-44.922,-22.461,-39.551,-63.477,0.000
1709298813.015,-45.898,-37.109,-37.598,-39.551,0.000
1709298813.019,-50.781,-30.762,-36.621,-27.832,0.000
1709298813.023,-50.293,-10.742,-39.551,-40.527,0.000
1709298813.027,-43.457,-14.648,-34.180,-50.293,0.000
1709298813.031,-49.316,-23.438,-29.297,-58.105,0.000
1709298813.034,-41.992,-33.691,-33.203,-50.781,0.000
1709298813.038,-42.969,-29.785,-35.156,-49.805,0.000
1709298813.042,-46.387,-18.066,-30.762,-44.434,0.000
1709298813.046,-40.527,-20.020,-33.691,-43.945,0.000
1709298813.050,-51.270,-33.203,-39.551,-55.176,0.000
1709298813.054,-48.828,-32.227,-37.109,-44.434,0.000
1709298813.058,-35.645,-34.668,-37.109,-38.086,0.000
1709298813.062,-39.062,-24.414,-39.551,-43.457,0.000
1709298813.066,-49.316,-5.859,-41.016,-54.688,0.000
1709298813.070,-46.875,-18.555,-38.086,-60.547,0.000
1709298813.073,-45.898,-29.785,-36.133,-55.176,0.000
1709298813.077,-44.434,-35.645,-35.156,-43.945,0.000
1709298813.081,-32.715,-31.250,-33.203,-34.668,0.000
1709298813.085,-34.180,-27.832,-33.203,-42.969,0.000
1709298813.089,-36.621,-26.367,-30.273,-41.992,0.000
1709298813.093,-42.969,-22.461,-31.738,-28.809,0.000
1709298813.097,-49.316,-27.344,-33.203,-26.367,0.000
1709298813.101,-44.922,-33.691,-26.367,-22.461,0.000
1709298813.105,-39.551,-34.668,-21.484,-11.719,0.000
1709298813.109,-37.598,-34.180,-21.484,-13.672,0.000
1709298813.113,-41.992,-42.969,-26.855,-25.391,0.000
1709298813.116,-34.180,-40.039,-31.738,-25.391,0.000
1709298813.120,-20.020,-29.297,-30.762,-19.531,0.000
1709298813.124,-34.668,-21.484,-31.250,-19.531,0.000
1709298813.128,-40.527,-25.391,-31.250,-22.461,0.000
1709298813.132,-37.109,-27.344,-29.785,-21.973,0.000
1709298813.136,-33.691,-14.160,-26.367,-10.742,0.000
1709298813.140,-36.621,-19.043,-26.855,-2.930,0.000
1709298813.144,-41.016,-37.598,-32.227,-20.508,0.000
1709298813.148,-33.691,-49.805,-33.691,-40.527,0.000
1709298813.152,-36.621,-46.875,-34.668,-31.738,0.000
1709298813.156,-48.340,-32.715,-41.016,-34.180,0.000
1709298813.159,-47.363,-20.020,-39.551,-38.086,0.000
1709298813.163,-39.062,-15.137,-37.598,-39.062,0.000
1709298813.167,-40.527,-23.926,-36.133,-42.969,0.000
1709298813.171,-49.805,-30.273,-32.227,-50.781,0.000
1709298813.175,-52.734,-28.320,-38.086,-42.969,0.000
1709298813.179,-41.504,-29.297,-41.992,-24.902,0.000
1709298813.183,-42.480,-27.344,-34.180,-26.367,0.000
1709298813.187,-42.969,-20.508,-35.645,-42.480,0.000
1709298813.191,-41.992,-24.902,-35.645,-64.453,0.000
1709298813.195,-46.387,-35.156,-24.414,-41.016,0.000
1709298813.198,-45.410,-38.574,-27.832,-24.902,0.000
1709298813.202,-47.852,-33.203,-38.574,-35.156,0.000
1709298813.206,-51.758,-26.367,-38.574,-36.621,0.000
1709298813.210,-46.875,-25.391,-38.574,-43.945,0.000
1709298813.214,-42.480,-39.062,-35.645,-36.621,0.000
1709298813.218,-39.062,-33.691,-32.715,-23.926,0.000
1709298813.222,-40.527,-28.809,-40.039,-27.832,0.000
1709298813.226,-40.039,-44.922,-36.621,-27.832,0.000
1709298813.230,-45.410,-40.527,-28.320,-30.762,0.000
1709298813.234,-46.875,-21.484,-29.785,-40.039,0.000
1709298813.238,-34.668,-19.043,-39.551,-34.180,0.000
1709298813.241,-31.738,-23.438,-49.316,-23.926,0.000
1709298813.245,-43.457,-29.297,-53.223,-38.574,0.000
1709298813.249,-50.781,-32.227,-50.781,-38.086,0.000
1709298813.253,-48.828,-32.227,-44.922,-32.227,0.000
1709298813.257,-32.715,-36.133,-44.434,-42.969,0.000
1709298813.261,-30.273,-44.922,-46.387,-49.805,0.000
1709298813.265,-25.879,-47.852,-48.340,-50.781,0.000
1709298813.269,-35.156,-44.434,-49.316,-53.223,0.000
1709298813.273,-51.758,-47.852,-48.828,-51.270,0.000
1709298813.277,-39.062,-45.410,-49.805,-29.297,0.000
1709298813.281,-37.598,-29.297,-47.852,-28.809,0.000
1709298813.284,-42.969,-19.043,-38.574,-41.992,0.000
1709298813.288,-43.457,-20.996,-34.180,-41.992,0.000
1709298813.292,-54.688,-31.738,-38.574,-44.434,0.000
1709298813.296,-52.734,-36.621,-38.574,-44.922,0.000
1709298813.300,-45.410,-40.527,-37.598,-45.410,0.000
1709298813.304,-53.223,-51.758,-41.016,-41.504,0.000
1709298813.308,-56.152,-41.016,-45.898,-47.363,0.000
1709298813.312,-56.641,-35.645,-39.551,-67.383,0.000
1709298813.316,-53.711,-41.992,-31.738,-61.035,0.000
1709298813.320,-39.062,-32.227,-31.738,-39.551,0.000
1709298813.324,-45.898,-33.691,-32.715,-47.363,0.000
1709298813.327,-62.012,-30.762,-38.574,-57.129,0.000
1709298813.331,-54.688,-18.555,-38.574,-53.223,0.000
1709298813.335,-54.688,-23.926,-32.715,-35.156,0.000
1709298813.339,-53.711,-30.762,-34.668,-17.578,0.000
1709298813.343,-36.133,-39.551,-36.621,-16.113,0.000
1709298813.347,-32.715,-40.527,-39.551,-22.461,0.000
1709298813.351,-34.668,-42.969,-41.504,-36.621,0.000
1709298813.355,-30.273,-38.086,-41.016,-39.062,0.000
1709298813.359,-29.297,-24.414,-45.410,-33.691,0.000
1709298813.363,-17.578,-24.414,-41.016,-22.949,0.000
1709298813.367,-19.531,-25.879,-37.598,-18.555,0.000
1709298813.370,-28.320,-30.762,-44.434,-26.855,0.000
1709298813.374,-36.133,-36.621,-48.340,-31.738,0.000
1709298813.378,-41.016,-33.203,-44.434,-31.250,0.000
1709298813.382,-37.598,-23.438,-41.504,-27.832,0.000
1709298813.386,-39.551,-30.273,-45.898,-34.668,0.000
1709298813.390,-44.922,-42.480,-40.527,-37.109,0.000
1709298813.394,-55.176,-42.480,-43.457,-45.898,0.000
1709298813.398,-51.270,-42.480,-44.434,-45.410,0.000
1709298813.402,-37.598,-29.785,-39.551,-34.668,0.000
1709298813.406,-51.758,-18.066,-41.016,-44.434,0.000
1709298813.410,-60.059,-25.391,-41.992,-49.316,0.000
1709298813.413,-54.688,-29.297,-39.062,-41.016,0.000
1709298813.417,-50.293,-29.785,-34.668,-38.086,0.000
1709298813.421,-38.574,-31.250,-29.785,-36.621,0.000
1709298813.425,-35.645,-40.039,-29.785,-33.691,0.000
1709298813.429,-40.039,-43.457,-33.691,-47.852,0.000
1709298813.433,-37.598,-42.480,-33.691,-62.988,0.000
1709298813.437,-42.480,-34.180,-40.039,-58.594,0.000
1709298813.441,-39.062,-31.738,-39.062,-50.781,0.000
1709298813.445,-30.273,-50.293,-35.645,-54.688,0.000
1709298813.449,-34.180,-42.969,-37.598,-56.152,0.000
1709298813.453,-38.086,-34.668,-40.039,-52.734,0.000
1709298813.456,-36.621,-33.691,-45.410,-51.758,0.000
1709298813.460,-34.180,-24.902,-41.992,-38.086,0.000
1709298813.464,-31.250,-28.809,-41.016,-37.598,0.000
1709298813.468,-26.367,-33.203,-39.551,-41.992,0.000
1709298813.472,-27.344,-35.645,-32.715,-25.879,0.000
1709298813.476,-24.414,-31.738,-37.109,-21.973,0.000
1709298813.480,-18.555,-31.738,-39.062,-14.648,0.000
1709298813.484,-25.879,-47.363,-36.621,-14.160,0.000
1709298813.488,-32.227,-47.363,-36.621,-34.180,0.000
1709298813.492,-32.715,-38.574,-38.086,-40.039,0.000
1709298813.495,-36.133,-33.691,-41.992,-42.969,0.000
1709298813.499,-37.109,-21.484,-44.434,-36.621,0.000
1709298813.503,-30.762,-22.949,-41.992,-33.203,0.000
1709298813.507,-30.273,-33.203,-41.504,-43.945,0.000
1709298813.511,-37.109,-34.180,-46.387,-57.617,0.000
1709298813.515,-39.062,-43.457,-41.992,-56.152,0.000
1709298813.519,-41.016,-51.758,-41.016,-49.805,0.000
1709298813.523,-43.945,-34.180,-38.086,-54.199,0.000
1709298813.527,-44.922,-28.809,-34.180,-54.199,0.000
1709298813.531,-50.293,-42.480,-36.133,-56.152,0.000
1709298813.535,-50.781,-46.387,-34.180,-44.922,0.000
1709298813.538,-42.480,-40.039,-36.133,-41.016,0.000
1709298813.542,-35.645,-39.551,-35.645,-49.805,0.000
1709298813.546,-31.738,-41.504,-30.762,-48.828,0.000
1709298813.550,-38.086,-34.180,-35.645,-53.223,0.000
1709298813.554,-40.039,-41.016,-34.668,-41.016,0.000
1709298813.558,-34.180,-53.223,-29.297,-28.809,0.000
1709298813.562,-41.992,-27.832,-37.598,-46.875,0.000
1709298813.566,-48.340,-10.254,-46.875,-65.430,0.000
1709298813.570,-38.574,-14.648,-45.410,-47.363,0.000
1709298813.574,-28.809,-8.789,-39.551,-32.715,0.000
1709298813.578,-28.320,-20.508,-35.645,-42.480,0.000
1709298813.581,-32.715,-40.039,-39.062,-42.480,0.000
1709298813.585,-30.762,-35.645,-39.062,-38.574,0.000
1709298813.589,-25.879,-34.668,-38.574,-40.527,0.000
