timestamps,TP9,AF7,AF8,TP10,Right AUX
1709196832.230,-19.043,-32.715,-19.043,-15.137,0.000
1709196832.234,-24.414,-36.133,-21.484,-19.531,0.000
1709196832.238,-25.391,-29.297,-24.902,-13.672,0.000
1709196832.242,-20.020,-24.902,-27.344,-20.996,0.000
1709196832.245,-28.320,-29.297,-27.344,-32.227,0.000
1709196832.249,-36.133,-21.484,-27.832,-30.273,0.000
1709196832.253,-32.715,-24.902,-33.203,-24.902,0.000
1709196832.257,-30.762,-33.691,-36.621,-14.648,0.000
1709196832.261,-23.438,-29.297,-39.551,-13.672,0.000
1709196832.265,-17.090,-34.668,-35.645,-19.043,0.000
1709196832.269,-23.438,-33.203,-27.344,-24.902,0.000
1709196832.273,-36.621,-31.250,-23.926,-27.344,0.000
1709196832.277,-41.016,-30.273,-27.344,-23.438,0.000
1709196832.281,-32.715,-28.320,-30.273,-18.555,0.000
1709196832.284,-23.926,-35.645,-32.227,-17.578,0.000
1709196832.288,-29.785,-34.668,-30.273,-21.973,0.000
1709196832.292,-49.805,-29.297,-21.484,-28.809,0.000
1709196832.296,-62.500,-36.621,-25.879,-30.273,0.000
1709196832.300,-58.594,-43.457,-36.621,-22.949,0.000
1709196832.304,-40.527,-41.992,-35.156,-21.484,0.000
1709196832.308,-43.945,-39.551,-31.738,-38.086,0.000
1709196832.312,-48.828,-39.551,-32.715,-41.504,0.000
1709196832.316,-42.480,-43.457,-33.691,-28.320,0.000
1709196832.320,-30.273,-41.504,-26.855,-12.207,0.000
1709196832.324,-20.020,-40.039,-22.949,-4.883,0.000
1709196832.327,-22.461,-38.086,-26.855,-16.113,0.000
1709196832.331,-17.578,-30.762,-24.414,-20.020,0.000
1709196832.335,-4.883,-25.879,-22.949,-11.230,0.000
1709196832.339,-6.836,-27.344,-16.602,1.465,0.000
1709196832.343,-12.695,-35.645,-14.160,-0.488,0.000
1709196832.347,-25.879,-41.504,-20.020,-11.230,0.000
1709196832.351,-46.875,-38.086,-25.879,-25.879,0.000
1709196832.355,-41.016,-31.738,-28.809,-31.250,0.000
1709196832.359,-27.832,-34.180,-30.273,-16.602,0.000
1709196832.363,-30.762,-36.621,-35.645,-22.949,0.000
1709196832.367,-33.691,-34.668,-35.156,-40.039,0.000
1709196832.370,-42.480,-41.992,-32.227,-35.645,0.000
1709196832.374,-45.898,-35.156,-30.762,-34.180,0.000
1709196832.378,-39.551,-28.320,-32.715,-46.387,0.000
1709196832.382,-34.668,-37.598,-37.109,-51.758,0.000
1709196832.386,-36.133,-36.621,-37.109,-52.246,0.000
1709196832.390,-33.691,-31.738,-34.668,-54.199,0.000
1709196832.394,-34.180,-30.762,-35.156,-47.852,0.000
1709196832.398,-50.781,-30.762,-34.180,-34.668,0.000
1709196832.402,-40.039,-34.180,-28.320,-24.902,0.000
1709196832.406,-28.809,-39.062,-33.203,-20.020,0.000
1709196832.410,-32.715,-36.621,-38.574,-33.203,0.000
1709196832.413,-30.273,-32.227,-35.645,-38.086,0.000
1709196832.417,-24.414,-23.926,-33.203,-26.855,0.000
1709196832.421,-26.367,-21.973,-32.227,-21.484,0.000
1709196832.425,-36.621,-32.715,-31.250,-29.297,0.000
1709196832.429,-40.527,-33.203,-32.227,-38.086,0.000
1709196832.433,-40.527,-29.785,-29.297,-41.016,0.000
1709196832.437,-33.691,-35.645,-28.809,-33.691,0.000
1709196832.441,-32.227,-35.156,-32.227,-29.785,0.000
1709196832.445,-33.203,-36.621,-30.762,-30.762,0.000
1709196832.449,-40.039,-40.527,-29.785,-32.227,0.000
1709196832.452,-48.828,-41.504,-34.180,-28.320,0.000
1709196832.456,-38.574,-40.039,-31.250,-21.484,0.000
1709196832.460,-20.020,-36.621,-29.297,-22.949,0.000
1709196832.464,-19.043,-40.039,-27.832,-20.020,0.000
1709196832.468,-24.414,-48.828,-28.809,-28.809,0.000
1709196832.472,-23.926,-37.598,-35.645,-35.645,0.000
1709196832.476,-28.809,-35.156,-37.109,-19.043,0.000
1709196832.480,-24.902,-35.156,-32.227,-3.906,0.000
1709196832.484,-28.320,-27.344,-20.996,-11.719,0.000
1709196832.488,-26.367,-30.762,-13.672,-20.508,0.000
1709196832.492,-24.902,-38.086,-18.066,-10.742,0.000
1709196832.495,-38.086,-41.016,-27.832,-5.371,0.000
1709196832.499,-31.738,-33.691,-28.320,-10.254,0.000
1709196832.503,-30.762,-35.156,-22.461,-19.043,0.000
1709196832.507,-40.527,-37.598,-22.949,-36.133,0.000
1709196832.511,-41.992,-34.180,-25.391,-42.969,0.000
1709196832.515,-46.875,-35.645,-28.320,-41.992,0.000
1709196832.519,-38.086,-33.691,-29.785,-33.691,0.000
1709196832.523,-17.090,-32.227,-32.227,-28.320,0.000
1709196832.527,-38.574,-40.527,-34.180,-41.504,0.000
1709196832.531,-54.199,-46.875,-30.762,-41.992,0.000
1709196832.535,-48.340,-41.504,-29.785,-28.809,0.000
1709196832.538,-46.875,-37.598,-28.320,-20.020,0.000
1709196832.542,-44.922,-44.434,-27.344,-23.438,0.000
1709196832.546,-36.621,-39.062,-31.738,-36.621,0.000
1709196832.550,-50.781,-34.180,-31.250,-39.551,0.000
1709196832.554,-61.523,-41.992,-29.297,-35.645,0.000
1709196832.558,-47.852,-41.992,-35.645,-23.926,0.000
1709196832.562,-38.086,-44.434,-41.992,-35.156,0.000
1709196832.566,-35.156,-44.922,-42.480,-44.922,0.000
1709196832.570,-44.434,-38.086,-43.457,-47.363,0.000
1709196832.574,-40.527,-42.969,-41.504,-50.293,0.000
1709196832.577,-32.715,-43.945,-37.598,-44.434,0.000
1709196832.581,-25.879,-35.645,-35.645,-39.062,0.000
1709196832.585,-8.301,-34.668,-30.762,-22.461,0.000
1709196832.589,-21.973,-27.832,-33.203,-19.043,0.000
1709196832.593,-35.645,-32.227,-38.574,-33.203,0.000
1709196832.597,-22.949,-42.969,-40.527,-24.902,0.000
1709196832.601,-18.066,-43.945,-35.645,-17.090,0.000
1709196832.605,-15.137,-36.133,-32.227,-32.227,0.000
1709196832.609,-16.113,-29.785,-34.668,-40.527,0.000
1709196832.613,-17.578,-35.645,-34.180,-31.250,0.000
1709196832.617,-14.160,-34.668,-32.227,-20.020,0.000
1709196832.620,-21.484,-30.273,-32.227,-10.254,0.000
1709196832.624,-22.461,-35.645,-30.762,-17.090,0.000
1709196832.628,-22.461,-35.645,-34.180,-21.973,0.000
1709196832.632,-26.367,-29.785,-35.156,-8.301,0.000
1709196832.636,-24.414,-31.738,-34.180,-5.371,0.000
1709196832.640,-8.789,-33.203,-40.039,-8.301,0.000
1709196832.644,-9.766,-32.715,-36.133,-12.207,0.000
1709196832.648,-23.926,-35.156,-26.855,-16.113,0.000
1709196832.652,-23.438,-38.086,-26.367,-16.113,0.000
1709196832.656,-23.438,-32.227,-33.203,-20.508,0.000
1709196832.659,-19.531,-29.785,-34.180,-6.348,0.000
1709196832.663,-13.672,-34.668,-27.832,-0.977,0.000
1709196832.667,-26.855,-22.949,-29.297,-24.902,0.000
1709196832.671,-32.715,-18.066,-32.715,-27.344,0.000
1709196832.675,-32.715,-27.344,-31.738,-14.160,0.000
1709196832.679,-36.621,-34.180,-32.715,-20.508,0.000
1709196832.683,-33.691,-40.039,-31.250,-23.926,0.000
1709196832.687,-37.109,-37.598,-31.738,-33.203,0.000
1709196832.691,-44.434,-35.645,-28.320,-38.574,0.000
1709196832.695,-45.898,-41.504,-28.809,-33.203,0.000
1709196832.699,-34.180,-40.039,-31.250,-22.461,0.000
1709196832.702,-11.719,-39.062,-29.297,-24.414,0.000
1709196832.706,-18.555,-35.156,-26.367,-32.227,0.000
1709196832.710,-34.668,-31.738,-27.344,-32.227,0.000
1709196832.714,-43.457,-34.668,-33.203,-34.668,0.000
1709196832.718,-35.645,-34.668,-32.715,-24.414,0.000
1709196832.722,-18.555,-35.645,-31.738,-14.648,0.000
1709196832.726,-15.625,-32.715,-37.109,-17.578,0.000
1709196832.730,-22.461,-26.367,-30.762,-25.391,0.000
1709196832.734,-31.738,-27.832,-22.949,-25.391,0.000
1709196832.738,-30.762,-30.273,-20.508,-28.320,0.000
1709196832.742,-19.043,-40.039,-23.926,-30.762,0.000
1709196832.745,-14.648,-48.340,-30.762,-38.574,0.000
1709196832.749,-29.297,-38.574,-28.809,-44.434,0.000
1709196832.753,-27.832,-20.996,-26.367,-36.133,0.000
1709196832.757,-23.926,-23.438,-31.738,-28.809,0.000
1709196832.761,-18.066,-33.691,-35.645,-20.508,0.000
1709196832.765,-23.438,-39.062,-33.203,-20.020,0.000
1709196832.769,-50.781,-37.109,-28.809,-28.809,0.000
1709196832.773,-58.105,-29.785,-27.832,-34.668,0.000
1709196832.777,-50.781,-32.715,-32.227,-31.738,0.000
1709196832.781,-41.992,-35.645,-31.738,-22.949,0.000
1709196832.785,-34.180,-24.414,-26.855,-28.809,0.000
1709196832.788,-40.527,-24.902,-25.391,-35.645,0.000
1709196832.792,-54.688,-33.203,-29.297,-32.227,0.000
1709196832.796,-47.852,-35.645,-32.227,-32.227,0.000
1709196832.800,-34.668,-34.668,-35.645,-26.855,0.000
1709196832.804,-23.438,-28.809,-34.668,-29.297,0.000
1709196832.808,-27.344,-34.668,-27.832,-37.598,0.000
1709196832.812,-33.691,-40.039,-25.879,-21.973,0.000
1709196832.816,-27.832,-29.785,-27.832,-16.602,0.000
1709196832.820,-23.438,-16.113,-30.762,-28.320,0.000
1709196832.824,-10.254,-5.371,-38.574,-30.273,0.000
1709196832.827,-13.184,1.953,-44.434,-26.855,0.000
1709196832.831,-5.859,9.766,-48.340,-34.180,0.000
1709196832.835,-2.441,17.090,-52.246,-32.227,0.000
1709196832.839,-5.371,20.508,-56.641,-31.738,0.000
1709196832.843,-8.301,21.973,-64.453,-40.039,0.000
1709196832.847,-13.184,20.996,-69.824,-46.875,0.000
1709196832.851,-6.836,28.320,-70.312,-41.016,0.000
1709196832.855,2.441,35.645,-74.219,-38.574,0.000
1709196832.859,6.836,34.180,-77.637,-38.574,0.000
1709196832.863,10.742,41.504,-78.125,-36.621,0.000
1709196832.867,15.625,54.199,-81.055,-37.598,0.000
1709196832.870,9.766,56.152,-92.285,-37.598,0.000
1709196832.874,9.766,56.152,-97.656,-43.945,0.000
1709196832.878,15.137,65.430,-90.332,-43.457,0.000
1709196832.882,24.902,68.848,-89.355,-38.574,0.000
1709196832.886,16.602,67.383,-93.262,-41.504,0.000
1709196832.890,9.766,74.707,-92.285,-37.598,0.000
1709196832.894,12.207,73.730,-96.191,-29.785,0.000
1709196832.898,24.414,74.707,-102.051,-20.996,0.000
1709196832.902,26.855,72.754,-105.957,-12.695,0.000
1709196832.906,27.832,70.801,-110.352,-17.090,0.000
1709196832.910,29.785,71.289,-108.887,-35.645,0.000
1709196832.913,25.391,69.336,-95.703,-26.367,0.000
1709196832.917,28.320,68.359,-94.727,-12.207,0.000
1709196832.921,42.480,68.848,-94.727,-13.672,0.000
1709196832.925,38.574,71.777,-91.309,-15.137,0.000
1709196832.929,32.715,75.684,-88.379,-13.672,0.000
1709196832.933,34.668,77.637,-87.402,-7.324,0.000
1709196832.937,39.062,77.637,-83.008,4.395,0.000
1709196832.941,49.316,70.312,-85.938,19.531,0.000
1709196832.945,38.574,58.594,-92.285,4.395,0.000
1709196832.949,35.645,58.105,-90.332,-12.207,0.000
1709196832.952,41.504,62.500,-89.844,0.000,0.000
1709196832.956,29.785,61.523,-91.797,3.418,0.000
1709196832.960,32.227,61.523,-91.309,3.906,0.000
1709196832.964,35.156,58.594,-87.402,1.465,0.000
1709196832.968,27.344,56.152,-93.262,-3.906,0.000
1709196832.972,17.090,53.223,-91.309,-8.789,0.000
1709196832.976,20.508,48.828,-83.008,-5.859,0.000
1709196832.980,32.715,35.156,0.000,11.719,0.000
1709196832.984,35.156,25.391,0.000,0.000,0.000
1709196832.988,25.879,31.738,0.000,-23.438,0.000
1709196832.992,22.461,31.738,0.000,-26.367,0.000
1709196832.995,24.902,30.273,0.000,-20.020,0.000
1709196832.999,10.742,29.297,0.000,-6.836,0.000
1709196833.003,11.719,25.879,0.000,5.859,0.000
1709196833.007,24.902,24.902,0.000,-7.324,0.000
1709196833.011,3.906,26.367,0.000,-26.367,0.000
1709196833.015,-10.742,18.066,0.000,-18.066,0.000
1709196833.019,7.812,3.418,0.000,-6.348,0.000
1709196833.023,5.859,4.395,0.000,-12.207,0.000
1709196833.027,-5.859,15.625,-51.758,-21.973,0.000
1709196833.031,-19.043,11.230,-49.805,-27.832,0.000
1709196833.035,-25.391,-0.977,-46.875,-23.438,0.000
1709196833.038,-14.648,2.930,-42.969,-7.812,0.000
1709196833.042,-11.719,-0.977,-42.480,-6.348,0.000
1709196833.046,-17.090,-5.859,-40.039,-18.555,0.000
1709196833.050,-21.973,-4.883,-38.574,-10.742,0.000
1709196833.054,-19.531,-7.812,-40.527,-7.812,0.000
1709196833.058,-14.648,-7.324,-31.738,-24.902,0.000
1709196833.062,7.324,-4.395,-30.762,-20.020,0.000
1709196833.066,-6.348,-10.742,-37.598,-13.672,0.000
1709196833.070,-38.574,-14.648,-39.062,-31.250,0.000
1709196833.074,-35.645,-8.789,-44.922,-37.598,0.000
1709196833.078,-34.180,-13.672,-44.922,-24.902,0.000
1709196833.081,-34.668,-20.508,-43.945,-17.578,0.000
1709196833.085,-21.973,-22.949,-49.316,-13.672,0.000
1709196833.089,-16.113,-22.461,-45.898,-26.367,0.000
1709196833.093,-27.832,-25.391,-39.062,-37.598,0.000
1709196833.097,-26.855,-16.113,-35.645,-24.902,0.000
1709196833.101,-22.949,-12.695,-35.156,-19.531,0.000
1709196833.105,-23.926,-15.625,-35.645,-19.531,0.000
1709196833.109,-22.949,-12.207,-40.039,-20.020,0.000
1709196833.113,-17.578,-18.066,-39.551,-24.902,0.000
1709196833.117,-19.531,-15.625,-37.598,-27.344,0.000
1709196833.121,-26.367,-13.184,-39.062,-19.043,0.000
1709196833.124,-21.484,-19.043,-35.156,-11.230,0.000
1709196833.128,-20.020,-16.602,-30.273,-9.766,0.000
1709196833.132,-18.555,-21.484,-32.227,-10.254,0.000
1709196833.136,-25.391,-27.344,-31.738,-4.883,0.000
1709196833.140,-27.832,-17.578,-26.855,-3.906,0.000
1709196833.144,-14.160,-7.324,-23.926,-10.742,0.000
1709196833.148,-14.160,-1.953,-22.461,-16.113,0.000
1709196833.152,-25.391,-8.789,-28.809,-14.648,0.000
1709196833.156,-20.508,-15.625,-32.227,4.395,0.000
1709196833.160,-12.695,-7.812,-31.738,1.465,0.000
1709196833.163,-12.207,-0.977,-33.691,-17.090,0.000
1709196833.167,-3.418,-1.465,-40.527,-17.090,0.000
1709196833.171,-6.348,2.441,-47.852,-19.531,0.000
1709196833.175,-25.391,9.277,-54.199,-17.090,0.000
1709196833.179,-11.230,16.113,-58.594,-15.137,0.000
1709196833.183,5.371,20.508,-58.594,-19.043,0.000
1709196833.187,-11.230,24.414,-60.547,-34.180,0.000
1709196833.191,-19.531,23.438,-58.594,-42.480,0.000
1709196833.195,-18.555,22.461,-57.129,-34.668,0.000
1709196833.199,-20.020,24.414,-60.547,-29.297,0.000
1709196833.203,-8.789,22.461,-58.105,-27.832,0.000
1709196833.206,-12.695,10.742,-57.617,-42.480,0.000
1709196833.210,-9.766,10.742,-56.152,-46.387,0.000
1709196833.214,-1.953,5.371,-50.781,-32.715,0.000
1709196833.218,-4.883,-5.859,-51.758,-27.344,0.000
1709196833.222,-3.418,-0.977,-57.617,-26.855,0.000
1709196833.226,-6.836,-4.883,-52.246,-29.297,0.000
1709196833.230,-16.113,-5.859,-43.945,-28.809,0.000
1709196833.234,-10.742,-3.906,-38.574,-19.043,0.000
1709196833.238,-6.348,-14.160,-40.527,-23.926,0.000
1709196833.242,-13.672,-12.207,-41.992,-31.738,0.000
1709196833.246,-11.230,-3.906,-39.062,-23.926,0.000
1709196833.249,-21.973,-8.301,-39.551,-29.785,0.000
1709196833.253,-31.738,-9.766,-37.109,-41.504,0.000
1709196833.257,-27.832,-10.254,-35.156,-27.344,0.000
1709196833.261,-19.043,-21.484,-25.879,-2.930,0.000
1709196833.265,-10.742,-17.578,-27.832,-9.766,0.000
1709196833.269,-42.969,-16.113,-41.992,-38.574,0.000
1709196833.273,-50.293,-24.414,-40.039,-40.527,0.000
1709196833.277,-26.855,-23.926,-34.180,-26.367,0.000
1709196833.281,-18.555,-17.578,-36.133,-20.508,0.000
1709196833.285,-23.926,-6.836,-41.992,-28.809,0.000
1709196833.288,-25.391,-8.301,-42.969,-26.855,0.000
1709196833.292,-20.996,-17.090,-40.527,-14.648,0.000
1709196833.296,-21.484,-16.113,-41.016,-14.648,0.000
1709196833.300,-10.742,-10.254,-41.992,-13.672,0.000
1709196833.304,-2.930,-12.695,-41.016,-24.414,0.000
1709196833.308,-8.301,-17.578,-44.434,-34.668,0.000
1709196833.312,-15.625,-12.695,-40.039,-33.691,0.000
1709196833.316,-23.438,-17.090,-39.551,-34.668,0.000
1709196833.320,-13.672,-20.508,-41.016,-32.227,0.000
1709196833.324,-2.441,-14.160,-36.133,-29.297,0.000
1709196833.328,-29.785,-20.996,-33.691,-40.527,0.000
1709196833.331,-41.504,-25.879,-33.203,-46.875,0.000
1709196833.335,-42.480,-22.461,-32.715,-31.738,0.000
1709196833.339,-41.504,-18.066,-34.668,-25.391,0.000
1709196833.343,-33.203,-22.461,-31.738,-30.273,0.000
1709196833.347,-29.785,-24.414,-28.809,-28.320,0.000
1709196833.351,-34.668,-19.043,-31.738,-33.691,0.000
1709196833.355,-32.227,-15.137,-28.809,-34.180,0.000
1709196833.359,-27.344,-25.879,-27.832,-27.344,0.000
1709196833.363,-30.273,-32.227,-34.180,-20.996,0.000
1709196833.367,-29.297,-23.926,-34.180,-27.344,0.000
1709196833.370,-34.180,-22.461,-36.133,-34.180,0.000
1709196833.374,-38.574,-20.508,-42.480,-21.484,0.000
1709196833.378,-35.156,-24.414,-38.574,-13.672,0.000
1709196833.382,-24.414,-27.344,-30.762,-14.648,0.000
1709196833.386,-31.250,-26.367,-33.203,-25.391,0.000
1709196833.390,-38.574,-24.902,-35.645,-23.438,0.000
1709196833.394,-20.996,-19.531,-37.109,-15.137,0.000
1709196833.398,-28.320,-22.461,-32.715,-18.555,0.000
1709196833.402,-43.945,-27.832,-32.227,-29.297,0.000
1709196833.406,-44.922,-29.297,-35.156,-37.598,0.000
1709196833.410,-45.410,-26.855,-35.645,-48.828,0.000
1709196833.413,-43.457,-31.738,-37.598,-43.945,0.000
1709196833.417,-40.527,-31.250,-41.992,-27.344,0.000
1709196833.421,-28.320,-28.809,-38.574,-18.555,0.000
1709196833.425,-20.020,-36.133,-26.855,-20.508,0.000
1709196833.429,-35.156,-30.273,-25.391,-29.785,0.000
1709196833.433,-41.016,-29.297,-30.762,-35.156,0.000
1709196833.437,-29.297,-41.504,-22.949,-20.996,0.000
1709196833.441,-24.414,-36.621,-23.926,-12.207,0.000
1709196833.445,-17.578,-28.809,-33.691,-20.020,0.000
1709196833.449,-27.832,-23.438,-31.738,-29.785,0.000
1709196833.452,-40.039,-21.484,-32.227,-31.250,0.000
1709196833.456,-36.133,-20.996,-34.180,-18.066,0.000
1709196833.460,-20.020,-20.508,-31.250,-6.348,0.000
1709196833.464,-18.555,-23.926,-29.785,-16.113,0.000
1709196833.468,-29.785,-34.668,-32.715,-31.738,0.000
1709196833.472,-32.227,-35.156,-34.180,-29.297,0.000
1709196833.476,-48.340,-26.855,-34.180,-26.367,0.000
1709196833.480,-54.688,-28.320,-38.086,-38.574,0.000
1709196833.484,-46.387,-36.621,-35.156,-44.434,0.000
1709196833.488,-60.547,-31.250,-34.668,-40.039,0.000
1709196833.491,-67.383,-25.391,-33.691,-44.922,0.000
1709196833.495,-56.641,-33.691,-35.156,-41.016,0.000
1709196833.499,-26.855,-31.738,-33.691,-26.855,0.000
1709196833.503,-27.832,-22.461,-35.156,-31.250,0.000
1709196833.507,-37.598,-18.555,-34.668,-38.574,0.000
1709196833.511,-35.156,-20.508,-33.691,-50.293,0.000
1709196833.515,-37.598,-28.320,-40.039,-40.527,0.000
1709196833.519,-30.273,-31.250,-39.551,-25.879,0.000
1709196833.523,-21.484,-28.809,-36.133,-33.691,0.000
1709196833.527,-20.020,-29.297,-37.598,-38.086,0.000
1709196833.531,-25.391,-39.551,-42.969,-38.086,0.000
1709196833.534,-32.715,-32.715,-38.086,-46.387,0.000
1709196833.538,-28.809,-20.996,-33.691,-40.527,0.000
1709196833.542,-12.207,-28.320,-36.621,-30.762,0.000
1709196833.546,-7.324,-31.738,-36.621,-27.344,0.000
1709196833.550,-21.484,-26.367,-29.785,-24.414,0.000
1709196833.554,-18.555,-28.320,-33.691,-30.273,0.000
1709196833.558,-24.414,-37.598,-41.992,-25.391,0.000
1709196833.562,-38.574,-46.387,-37.109,-16.602,0.000
1709196833.566,-35.156,-44.434,-31.250,-25.391,0.000
1709196833.570,-37.598,-39.551,-28.320,-30.273,0.000
1709196833.574,-40.039,-42.969,-28.320,-14.160,0.000
1709196833.577,-40.527,-49.805,-26.855,-10.742,0.000
1709196833.581,-34.668,-44.922,-25.391,-20.996,0.000
1709196833.585,-26.367,-27.832,-26.367,-23.438,0.000
1709196833.589,-39.551,-26.367,-26.367,-29.785,0.000
1709196833.593,-35.156,-31.738,-21.484,-24.414,0.000
1709196833.597,-31.738,-24.902,-25.391,-15.625,0.000
1709196833.601,-35.645,-31.250,-31.250,-19.043,0.000
1709196833.605,-36.621,-40.039,-28.809,-26.367,0.000
1709196833.609,-43.945,-38.086,-26.367,-35.645,0.000
1709196833.613,-35.645,-41.504,-29.785,-37.109,0.000
1709196833.617,-17.578,-39.062,-36.133,-30.762,0.000
1709196833.620,-21.484,-30.273,-31.250,-9.277,0.000
1709196833.624,-20.020,-22.461,-27.832,-15.137,0.000
1709196833.628,-16.113,-25.879,-34.668,-32.227,0.000
1709196833.632,-22.949,-35.156,-32.715,-24.902,0.000
1709196833.636,-23.438,-39.551,-32.715,-26.855,0.000
1709196833.640,-21.973,-34.180,-37.109,-24.902,0.000
1709196833.644,-19.043,-23.926,-30.273,-21.973,0.000
1709196833.648,-21.973,-31.738,-26.855,-34.668,0.000
1709196833.652,-34.668,-31.250,-32.715,-42.969,0.000
1709196833.656,-25.391,-24.414,-33.203,-25.879,0.000
1709196833.659,-13.184,-28.320,-38.574,-19.531,0.000
1709196833.663,-19.531,-35.645,-41.016,-24.414,0.000
1709196833.667,-25.879,-41.016,-34.668,-21.484,0.000
1709196833.671,-23.926,-40.527,-34.668,-20.508,0.000
1709196833.675,-29.785,-38.574,-33.203,-16.602,0.000
1709196833.679,-43.945,-44.434,-35.645,-15.625,0.000
1709196833.683,-34.180,-36.133,-30.273,-19.043,0.000
1709196833.687,-17.578,-26.855,-28.809,-29.297,0.000
1709196833.691,-29.297,-26.367,-30.273,-29.785,0.000
1709196833.695,-42.969,-20.508,-21.973,-14.160,0.000
1709196833.699,-41.992,-22.461,-27.832,-16.602,0.000
1709196833.702,-40.527,-27.344,-36.621,-32.715,0.000
1709196833.706,-40.039,-21.484,-32.227,-25.879,0.000
1709196833.710,-37.109,-28.320,-29.297,-3.418,0.000
1709196833.714,-35.645,-28.320,-35.156,-20.996,0.000
1709196833.718,-31.738,-21.484,-36.133,-29.297,0.000
1709196833.722,-21.484,-23.438,-32.227,-20.508,0.000
1709196833.726,-25.391,-21.973,-33.203,-35.645,0.000
1709196833.730,-23.926,-22.949,-31.250,-38.086,0.000
1709196833.734,-19.043,-24.902,-29.785,-30.273,0.000
1709196833.738,-6.348,-26.855,-31.738,-20.020,0.000
1709196833.741,-12.695,-37.598,-29.785,-18.555,0.000
1709196833.745,-30.273,-34.180,-21.484,-22.461,0.000
1709196833.749,-40.527,-33.203,-24.414,-27.832,0.000
1709196833.753,-48.340,-38.086,-22.949,-22.949,0.000
1709196833.757,-40.527,-41.504,-14.648,-19.531,0.000
1709196833.761,-30.762,-41.504,-17.090,-26.367,0.000
1709196833.765,-20.996,-33.203,-22.461,-27.832,0.000
1709196833.769,-21.973,-37.598,-20.508,-29.785,0.000
1709196833.773,-21.973,-34.180,-21.484,-25.879,0.000
1709196833.777,-22.949,-30.762,-18.066,-24.414,0.000
1709196833.781,-11.719,-32.227,-18.555,-32.227,0.000
1709196833.784,-0.488,-22.461,-28.320,-36.621,0.000
1709196833.788,-25.391,-25.879,-29.297,-38.574,0.000
1709196833.792,-21.484,-34.180,-27.344,-27.832,0.000
1709196833.796,-15.625,-31.250,-30.273,-16.602,0.000
1709196833.800,-26.367,-24.902,-33.203,-12.207,0.000
1709196833.804,-25.391,-21.973,-32.227,-17.578,0.000
1709196833.808,-37.598,-29.785,-34.180,-31.250,0.000
1709196833.812,-44.922,-39.062,-30.273,-31.738,0.000
1709196833.816,-40.527,-40.039,-31.250,-33.203,0.000
1709196833.820,-42.480,-37.598,-31.250,-32.227,0.000
1709196833.823,-28.809,-36.621,-27.832,-18.066,0.000
1709196833.827,-28.809,-41.016,-26.367,-21.484,0.000
1709196833.831,-55.176,-42.969,-23.926,-29.297,0.000
1709196833.835,-44.434,-41.016,-24.414,-16.602,0.000
1709196833.839,-31.250,-39.062,-29.785,-20.508,0.000
1709196833.843,-35.645,-41.016,-40.039,-17.578,0.000
1709196833.847,-32.715,-38.086,-37.598,-18.555,0.000
1709196833.851,-23.438,-31.738,-27.832,-35.645,0.000
1709196833.855,-22.949,-27.344,-28.809,-34.668,0.000
1709196833.859,-27.344,-23.438,-30.762,-24.902,0.000
1709196833.863,-21.484,-26.367,-29.785,-25.391,0.000
1709196833.866,-34.180,-29.785,-25.879,-25.879,0.000
1709196833.870,-45.410,-30.762,-23.926,-24.902,0.000
1709196833.874,-38.086,-34.180,-28.809,-27.344,0.000
1709196833.878,-20.996,-26.855,-23.926,-19.043,0.000
1709196833.882,-15.625,-28.809,-16.113,-17.578,0.000
1709196833.886,-30.762,-45.410,-26.367,-22.949,0.000
1709196833.890,-29.785,-35.156,-37.109,-29.785,0.000
1709196833.894,-41.992,-30.273,-35.645,-27.344,0.000
1709196833.898,-48.340,-38.086,-31.250,-15.625,0.000
1709196833.902,-30.273,-32.715,-25.879,-0.488,0.000
1709196833.906,-26.855,-28.809,-30.273,-7.324,0.000
1709196833.909,-25.391,-25.391,-29.785,-27.344,0.000
1709196833.913,-33.203,-30.273,-30.762,-21.484,0.000
1709196833.917,-19.531,-35.156,-31.250,-11.719,0.000
1709196833.921,-0.488,-32.715,-30.762,-11.719,0.000
1709196833.925,-14.160,-27.832,-28.320,-12.207,0.000
1709196833.929,-26.367,-26.367,-31.250,-13.672,0.000
1709196833.933,-30.762,-28.320,-31.738,-18.555,0.000
1709196833.937,-29.297,-29.785,-27.344,-17.578,0.000
1709196833.941,-21.484,-27.832,-28.320,-4.883,0.000
1709196833.945,-9.277,-30.762,-30.273,-14.160,0.000
1709196833.948,-10.254,-39.062,-27.344,-18.555,0.000
1709196833.952,-35.156,-34.668,-23.438,-11.230,0.000
1709196833.956,-36.621,-28.320,-22.461,-14.160,0.000
1709196833.960,-19.043,-33.691,-22.949,-11.230,0.000
1709196833.964,-17.578,-27.344,-28.320,-15.625,0.000
1709196833.968,-35.156,-20.020,-26.367,-25.879,0.000
1709196833.972,-35.645,-22.949,-24.414,-33.691,0.000
1709196833.976,-21.973,-31.250,-24.902,-24.414,0.000
1709196833.980,-22.949,-32.227,-20.996,-10.254,0.000
1709196833.984,-11.719,-24.414,-20.996,-11.230,0.000
1709196833.988,-16.113,-25.391,-26.855,-16.113,0.000
1709196833.991,-29.297,-28.320,-28.809,-10.254,0.000
1709196833.995,-29.785,-34.180,-29.297,0.488,0.000
1709196833.999,-19.531,-37.109,-34.668,-8.301,0.000
1709196834.003,-12.695,-32.715,-36.133,-27.832,0.000
1709196834.007,-18.555,-32.715,-34.668,-33.203,0.000
1709196834.011,-44.922,-39.551,-42.969,-32.227,0.000
1709196834.015,-45.898,-35.645,-39.062,-27.832,0.000
1709196834.019,-31.738,-31.738,-26.367,-15.625,0.000
1709196834.023,-29.785,-35.156,-26.855,-10.742,0.000
1709196834.027,-29.785,-32.227,-24.902,-19.531,0.000
1709196834.031,-37.598,-34.180,-28.809,-29.297,0.000
1709196834.034,-33.691,-39.551,-33.203,-28.809,0.000
1709196834.038,-25.391,-34.668,-23.438,-8.301,0.000
1709196834.042,-12.695,-30.762,-16.602,14.160,0.000
1709196834.046,-1.953,-39.551,-17.090,-0.488,0.000
1709196834.050,-4.395,-37.109,-19.043,-11.719,0.000
1709196834.054,-12.207,-37.109,-27.344,-10.254,0.000
1709196834.058,-20.508,-37.109,-30.273,-10.742,0.000
1709196834.062,-11.719,-32.715,-26.367,-12.695,0.000
1709196834.066,-19.531,-34.180,-29.297,-8.789,0.000
1709196834.070,-22.949,-29.785,-30.762,-14.648,0.000
1709196834.073,-22.949,-32.227,-31.738,-20.020,0.000
1709196834.077,-24.902,-37.109,-34.668,-22.461,0.000
1709196834.081,-21.484,-33.203,-28.320,-8.301,0.000
1709196834.085,-27.344,-28.320,-30.273,-6.348,0.000
1709196834.089,-42.480,-37.598,-36.133,-37.109,0.000
1709196834.093,-42.480,-49.805,-32.715,-42.969,0.000
1709196834.097,-29.297,-40.039,-29.785,-33.203,0.000
1709196834.101,-36.133,-29.297,-32.227,-32.227,0.000
1709196834.105,-43.945,-32.715,-31.738,-30.762,0.000
1709196834.109,-39.551,-35.156,-28.320,-25.879,0.000
1709196834.113,-37.598,-37.109,-26.855,-29.785,0.000
1709196834.116,-39.551,-41.992,-25.391,-35.156,0.000
1709196834.120,-30.762,-42.480,-25.391,-29.297,0.000
1709196834.124,-22.461,-35.156,-26.367,-25.879,0.000
1709196834.128,-28.320,-36.133,-27.344,-29.297,0.000
1709196834.132,-27.832,-41.016,-27.832,-25.391,0.000
1709196834.136,-12.695,-37.109,-31.738,-15.625,0.000
1709196834.140,-20.508,-28.320,-29.785,-8.789,0.000
1709196834.144,-31.738,-31.738,-30.762,-12.695,0.000
1709196834.148,-28.809,-40.527,-29.785,-11.719,0.000
1709196834.152,-38.086,-42.969,-32.715,-29.785,0.000
1709196834.155,-45.898,-42.969,-34.180,-34.668,0.000
1709196834.159,-34.180,-39.062,-27.344,-17.578,0.000
1709196834.163,-30.762,-34.668,-27.344,-25.391,0.000
1709196834.167,-37.598,-36.621,-26.855,-39.062,0.000
1709196834.171,-35.645,-35.156,-26.367,-31.738,0.000
1709196834.175,-43.945,-33.691,-31.738,-24.902,0.000
1709196834.179,-42.969,-31.738,-33.691,-24.414,0.000
1709196834.183,-20.508,-20.996,-32.227,-22.949,0.000
1709196834.187,-28.320,-29.297,-40.039,-32.715,0.000
1709196834.191,-40.039,-35.645,-41.016,-42.480,0.000
1709196834.195,-36.621,-31.250,-32.715,-23.438,0.000
1709196834.198,-31.738,-32.715,-28.809,-10.742,0.000
1709196834.202,-20.996,-33.203,-31.250,-26.855,0.000
1709196834.206,-29.297,-36.621,-27.832,-39.551,0.000
1709196834.210,-30.273,-33.691,-25.879,-36.621,0.000
1709196834.214,-23.926,-30.762,-25.391,-23.926,0.000
1709196834.218,-19.043,-33.203,-21.484,-11.719,0.000
1709196834.222,-15.625,-41.016,-20.996,-15.137,0.000
1709196834.226,-23.926,-37.598,-13.672,-19.043,0.000
1709196834.230,-15.137,-30.273,-8.301,-14.648,0.000
1709196834.234,-24.414,-34.668,-21.484,-25.391,0.000
1709196834.237,-51.758,-31.738,-21.484,-32.715,0.000
1709196834.241,-48.828,-20.996,-12.695,-21.484,0.000
1709196834.245,-38.574,-29.785,-16.113,-24.414,0.000
1709196834.249,-42.969,-40.527,-23.438,-43.457,0.000
1709196834.253,-42.969,-34.668,-21.973,-34.668,0.000
1709196834.257,-36.133,-39.551,-20.508,-17.090,0.000
1709196834.261,-31.738,-34.180,-19.043,-9.766,0.000
1709196834.265,-31.738,-26.855,-21.973,-14.160,0.000
1709196834.269,-29.785,-32.715,-20.996,-17.090,0.000
1709196834.273,-28.320,-26.855,-20.508,-10.254,0.000
1709196834.277,-23.438,-28.809,-31.738,-4.883,0.000
1709196834.280,-4.395,-32.715,-27.344,5.371,0.000
1709196834.284,-4.883,-29.297,-26.367,-1.953,0.000
1709196834.288,-19.531,-27.832,-32.715,-17.090,0.000
1709196834.292,-23.438,-27.344,-28.809,-24.902,0.000
1709196834.296,-25.391,-24.902,-28.320,-26.367,0.000
1709196834.300,-24.414,-30.273,-32.715,-23.438,0.000
1709196834.304,-21.973,-36.133,-38.086,-28.809,0.000
1709196834.308,-27.832,-37.109,-36.621,-35.156,0.000
1709196834.312,-30.273,-34.180,-34.668,-24.902,0.000
1709196834.316,-10.254,-30.762,-31.250,-25.391,0.000
1709196834.320,-17.090,-32.715,-26.367,-25.879,0.000
1709196834.323,-30.762,-31.738,-33.203,-20.508,0.000
1709196834.327,-34.668,-24.902,-32.227,-20.996,0.000
1709196834.331,-30.273,-22.461,-25.879,-15.137,0.000
1709196834.335,-24.414,-27.832,-26.367,-15.137,0.000
1709196834.339,-27.344,-30.762,-29.297,-22.461,0.000
1709196834.343,-20.996,-31.738,-31.250,-30.273,0.000
1709196834.347,-22.461,-31.738,-27.832,-37.109,0.000
1709196834.351,-22.461,-34.668,-23.438,-35.645,0.000
1709196834.355,-19.531,-36.621,-31.738,-29.785,0.000
1709196834.359,-27.344,-39.062,-31.250,-17.090,0.000
1709196834.363,-25.879,-42.969,-19.043,-28.809,0.000
1709196834.366,-35.156,-36.133,-19.531,-45.898,0.000
1709196834.370,-42.480,-37.109,-22.949,-40.527,0.000
1709196834.374,-38.574,-40.039,-22.461,-31.738,0.000
1709196834.378,-30.273,-43.457,-23.438,-25.391,0.000
1709196834.382,-31.250,-46.387,-22.461,-32.227,0.000
1709196834.386,-21.973,-41.016,-20.508,-39.551,0.000
1709196834.390,-23.926,-39.551,-26.855,-35.156,0.000
1709196834.394,-50.293,-29.785,-32.227,-36.133,0.000
1709196834.398,-41.016,-18.066,-31.738,-31.738,0.000
1709196834.402,-34.180,-27.344,-27.344,-28.809,0.000
1709196834.405,-33.203,-36.133,-32.227,-31.250,0.000
1709196834.409,-31.250,-32.227,-33.691,-33.203,0.000
1709196834.413,-33.203,-35.156,-33.691,-27.344,0.000
1709196834.417,-31.738,-37.598,-38.086,-18.066,0.000
1709196834.421,-26.367,-35.645,-29.297,-18.066,0.000
1709196834.425,-19.043,-39.062,-28.809,-17.090,0.000
1709196834.429,-37.598,-44.922,-35.156,-28.320,0.000
1709196834.433,-50.293,-40.039,-37.109,-46.387,0.000
1709196834.437,-39.062,-26.855,-41.504,-41.992,0.000
1709196834.441,-33.203,-30.762,-40.039,-26.855,0.000
1709196834.445,-35.156,-38.086,-35.156,-21.973,0.000
1709196834.448,-25.391,-32.227,-35.645,-25.391,0.000
1709196834.452,-14.648,-34.180,-35.156,-24.414,0.000
1709196834.456,-18.066,-33.691,-31.250,-10.742,0.000
1709196834.460,-23.438,-30.762,-26.367,-3.418,0.000
1709196834.464,-25.391,-35.156,-27.344,-19.531,0.000
1709196834.468,-35.156,-30.273,-25.879,-26.367,0.000
1709196834.472,-29.297,-23.926,-21.973,-22.949,0.000
1709196834.476,-18.555,-29.297,-26.367,-24.414,0.000
1709196834.480,-29.785,-38.574,-31.250,-15.625,0.000
1709196834.484,-35.645,-39.551,-28.809,-19.043,0.000
1709196834.487,-32.715,-33.691,-24.414,-22.949,0.000
1709196834.491,-30.762,-35.156,-28.809,-17.578,0.000
1709196834.495,-37.109,-37.109,-27.344,-17.090,0.000
1709196834.499,-24.414,-42.969,-22.949,-13.184,0.000
1709196834.503,-14.160,-37.598,-26.855,-13.184,0.000
1709196834.507,-16.602,-21.973,-24.902,-19.043,0.000
1709196834.511,-30.273,-19.531,-24.902,-29.297,0.000
1709196834.515,-39.062,-23.926,-34.180,-32.715,0.000
1709196834.519,-24.902,-30.273,-33.203,-30.273,0.000
1709196834.523,-12.695,-25.391,-21.484,-16.602,0.000
1709196834.527,-20.508,-27.344,-22.461,-13.184,0.000
1709196834.530,-30.762,-40.527,-29.297,-25.879,0.000
1709196834.534,-25.879,-37.598,-25.879,-30.762,0.000
1709196834.538,-19.043,-39.062,-28.809,-33.203,0.000
1709196834.542,-23.438,-35.156,-33.691,-37.598,0.000
1709196834.546,-27.832,-30.273,-29.785,-32.715,0.000
1709196834.550,-22.949,-39.551,-32.715,-30.273,0.000
1709196834.554,-20.020,-42.480,-38.086,-38.086,0.000
1709196834.558,-40.039,-36.621,-28.809,-24.414,0.000
1709196834.562,-43.457,-34.180,-27.832,-19.043,0.000
1709196834.566,-37.109,-37.598,-28.320,-30.273,0.000
1709196834.569,-40.527,-40.039,-22.949,-22.461,0.000
1709196834.573,-43.945,-42.480,-28.809,-22.949,0.000
1709196834.577,-47.363,-41.016,-29.297,-26.855,0.000
1709196834.581,-39.551,-30.762,-28.320,-14.648,0.000
1709196834.585,-34.668,-29.297,-33.691,-19.531,0.000
1709196834.589,-31.738,-39.551,-26.367,-25.879,0.000
1709196834.593,-48.340,-42.480,-22.461,-18.066,0.000
1709196834.597,-48.828,-38.086,-26.855,-11.719,0.000
1709196834.601,-28.320,-33.691,-31.738,-12.207,0.000
1709196834.605,-23.926,-40.527,-31.250,-20.996,0.000
1709196834.608,-32.715,-43.945,-29.785,-19.531,0.000
1709196834.612,-36.621,-23.926,-29.785,-13.184,0.000
1709196834.616,-26.855,-23.438,-30.762,-11.719,0.000
1709196834.620,-16.113,-37.109,-33.203,1.953,0.000
1709196834.624,-15.625,-40.527,-41.992,-5.859,0.000
1709196834.628,-22.461,-40.527,-41.504,-28.809,0.000
1709196834.632,-35.645,-35.645,-28.809,-27.344,0.000
1709196834.636,-26.855,-28.320,-26.855,-12.207,0.000
1709196834.640,-9.277,-36.621,-31.738,-14.160,0.000
1709196834.644,-26.367,-42.969,-31.250,-20.996,0.000
1709196834.648,-40.039,-40.527,-29.785,-23.926,0.000
1709196834.652,-43.457,-40.039,-30.762,-21.973,0.000
1709196834.655,-30.762,-34.180,-30.273,-15.137,0.000
1709196834.659,-28.809,-33.691,-32.715,-21.484,0.000
1709196834.663,-33.691,-40.527,-31.738,-14.648,0.000
1709196834.667,-37.598,-38.574,-29.785,-17.578,0.000
1709196834.671,-55.176,-34.668,-31.250,-49.805,0.000
1709196834.675,-47.363,-33.691,-29.297,-43.945,0.000
1709196834.679,-36.621,-25.879,-27.344,-18.066,0.000
1709196834.683,-39.551,-26.367,-32.227,-36.133,0.000
1709196834.687,-48.828,-34.668,-33.203,-50.293,0.000
1709196834.691,-47.363,-34.180,-34.668,-40.527,0.000
1709196834.695,-53.711,-29.297,-36.621,-37.598,0.000
1709196834.698,-48.340,-24.414,-37.598,-26.367,0.000
1709196834.702,-43.457,-24.902,-34.668,-10.742,0.000
1709196834.706,-36.621,-29.785,-31.250,-16.602,0.000
1709196834.710,-25.391,-30.273,-34.180,-31.250,0.000
1709196834.714,-30.762,-32.227,-31.738,-22.461,0.000
1709196834.718,-27.832,-28.809,-27.832,-7.812,0.000
1709196834.722,-15.625,-20.996,-22.461,-7.812,0.000
1709196834.726,-17.090,-26.855,-22.461,-14.648,0.000
1709196834.730,-9.277,-29.297,-21.484,-18.066,0.000
1709196834.734,-20.996,-29.785,-21.484,-10.742,0.000
1709196834.737,-29.785,-29.297,-29.297,-2.441,0.000
1709196834.741,-15.137,-26.855,-20.996,-1.953,0.000
1709196834.745,-25.391,-32.227,-20.508,0.488,0.000
1709196834.749,-39.062,-38.574,-29.785,-11.719,0.000
1709196834.753,-40.039,-38.086,-26.367,-14.648,0.000
1709196834.757,-41.992,-32.715,-25.879,-10.742,0.000
1709196834.761,-35.156,-23.926,-22.461,-17.578,0.000
1709196834.765,-31.738,-13.672,-21.973,-16.602,0.000
1709196834.769,-44.434,-20.020,-29.785,-25.879,0.000
1709196834.773,-38.086,-24.414,-30.762,-37.598,0.000
1709196834.777,-41.504,-18.555,-27.832,-33.691,0.000
1709196834.780,-40.039,-20.508,-27.832,-10.742,0.000
1709196834.784,-37.598,-31.738,-31.738,-13.672,0.000
1709196834.788,-52.734,-34.180,-27.344,-25.391,0.000
1709196834.792,-59.082,-30.762,-25.879,-16.602,0.000
1709196834.796,-53.711,-28.320,-33.691,-12.695,0.000
1709196834.800,-35.645,-24.414,-28.809,-7.812,0.000
1709196834.804,-24.414,-24.902,-19.043,-11.719,0.000
1709196834.808,-28.320,-29.297,-19.531,-16.113,0.000
1709196834.812,-31.250,-36.621,-23.438,-17.090,0.000
1709196834.816,-38.574,-36.133,-29.785,-20.508,0.000
1709196834.820,-37.598,-33.203,-29.785,-23.926,0.000
1709196834.823,-29.785,-32.715,-26.855,-22.949,0.000
1709196834.827,-20.020,-35.156,-25.391,-32.715,0.000
1709196834.831,-28.320,-42.969,-31.738,-30.273,0.000
1709196834.835,-41.992,-43.945,-37.598,-6.836,0.000
1709196834.839,-38.086,-31.250,-37.109,-10.254,0.000
1709196834.843,-35.156,-32.227,-39.551,-20.020,0.000
1709196834.847,-26.855,-34.180,-35.156,-20.996,0.000
1709196834.851,-28.809,-43.457,-29.785,-26.367,0.000
1709196834.855,-23.438,-45.410,-29.785,-20.020,0.000
1709196834.859,-17.578,-36.621,-28.320,-6.836,0.000
1709196834.862,-13.184,-33.691,-24.414,-7.324,0.000
1709196834.866,-1.953,-33.203,-28.320,-19.043,0.000
1709196834.870,-26.367,-28.320,-26.367,-23.438,0.000
1709196834.874,-43.945,-24.414,-22.949,-15.137,0.000
1709196834.878,-30.762,-31.738,-25.879,-7.812,0.000
1709196834.882,-29.297,-30.273,-31.738,-13.672,0.000
1709196834.886,-43.457,-23.438,-41.504,-39.062,0.000
1709196834.890,-41.992,-26.367,-36.621,-46.387,0.000
1709196834.894,-40.039,-29.785,-34.668,-33.691,0.000
1709196834.898,-46.387,-25.879,-35.645,-24.414,0.000
1709196834.901,-30.273,-26.855,-32.227,-23.438,0.000
1709196834.905,-20.996,-33.691,-32.715,-23.926,0.000
1709196834.909,-19.043,-30.273,-34.180,-19.531,0.000
1709196834.913,-4.883,-26.855,-28.320,-14.648,0.000
1709196834.917,-12.695,-32.227,-25.391,-19.531,0.000
1709196834.921,-21.973,-34.668,-26.855,-16.113,0.000
1709196834.925,-20.020,-28.320,-28.809,-4.883,0.000
1709196834.929,-26.855,-29.785,-36.621,-30.762,0.000
1709196834.933,-23.438,-38.086,-34.668,-45.898,0.000
1709196834.937,-10.254,-44.922,-23.438,-21.484,0.000
1709196834.941,-8.789,-34.668,-22.949,-20.508,0.000
1709196834.944,-13.672,-28.809,-29.297,-39.062,0.000
1709196834.948,-20.020,-32.227,-30.762,-41.016,0.000
1709196834.952,-28.320,-34.668,-32.227,-27.832,0.000
1709196834.956,-18.066,-39.551,-39.062,-20.996,0.000
1709196834.960,9.277,-37.109,-37.598,-22.461,0.000
1709196834.964,-13.672,-43.945,-31.738,-26.367,0.000
1709196834.968,-37.109,-46.387,-34.180,-33.691,0.000
1709196834.972,-41.504,-37.109,-31.250,-34.668,0.000
1709196834.976,-50.781,-40.527,-26.367,-34.180,0.000
1709196834.980,-43.945,-47.363,-25.879,-21.973,0.000
1709196834.983,-36.621,-41.016,-23.438,-15.137,0.000
1709196834.987,-37.598,-33.691,-20.996,-20.020,0.000
1709196834.991,-36.133,-36.621,-23.438,-25.879,0.000
1709196834.995,-37.598,-37.598,-18.555,-22.949,0.000
1709196834.999,-39.551,-45.410,-17.578,-20.020,0.000
1709196835.003,-35.645,-41.992,-25.391,-35.156,0.000
1709196835.007,-20.996,-34.180,-26.855,-45.410,0.000
1709196835.011,-32.715,-35.156,-22.461,-41.016,0.000
1709196835.015,-51.758,-30.273,-27.344,-39.062,0.000
1709196835.019,-33.203,-25.879,-28.809,-36.621,0.000
1709196835.023,-23.438,-31.250,-30.273,-43.457,0.000
1709196835.026,-29.297,-37.109,-36.133,-47.363,0.000
1709196835.030,-30.762,-34.668,-34.180,-40.039,0.000
1709196835.034,-23.438,-27.832,-31.250,-32.227,0.000
1709196835.038,-14.160,-28.320,-34.180,-21.484,0.000
1709196835.042,-8.789,-34.180,-31.250,-23.926,0.000
1709196835.046,-12.207,-31.738,-27.344,-24.414,0.000
1709196835.050,-19.531,-29.785,-29.297,-21.973,0.000
1709196835.054,-21.973,-27.832,-28.320,-20.508,0.000
1709196835.058,-14.160,-24.902,-30.273,-11.719,0.000
1709196835.062,-4.883,-30.273,-29.297,-8.301,0.000
1709196835.066,-28.320,-38.574,-26.367,-15.137,0.000
1709196835.069,-29.297,-37.109,-25.879,-20.020,0.000
1709196835.073,-14.648,-39.551,-30.273,-20.996,0.000
1709196835.077,-27.344,-45.410,-34.180,-18.066,0.000
1709196835.081,-32.227,-36.621,-41.992,-24.902,0.000
1709196835.085,-29.297,-31.738,-40.039,-29.297,0.000
1709196835.089,-36.621,-32.227,-32.227,-33.203,0.000
1709196835.093,-39.551,-30.273,-33.691,-19.531,0.000
1709196835.097,-36.621,-29.297,-32.715,-11.719,0.000
1709196835.101,-26.855,-35.645,-31.250,-28.320,0.000
1709196835.105,-21.973,-39.551,-35.645,-39.062,0.000
1709196835.109,-33.203,-31.738,-37.109,-44.922,0.000
1709196835.112,-40.527,-24.414,-32.715,-45.898,0.000
1709196835.116,-33.691,-29.785,-34.180,-34.180,0.000
1709196835.120,-18.555,-32.227,-35.156,-15.625,0.000
1709196835.124,-29.297,-29.297,-29.785,-20.996,0.000
1709196835.128,-41.992,-29.297,-30.273,-34.180,0.000
1709196835.132,-47.363,-29.785,-35.645,-36.133,0.000
1709196835.136,0.000,-31.738,0.000,-33.691,0.000
1709196835.140,0.000,-34.180,0.000,-27.344,0.000
1709196835.144,0.000,-40.039,0.000,-20.508,0.000
1709196835.148,0.000,-40.039,0.000,-20.020,0.000
1709196835.151,0.000,-37.598,0.000,-35.156,0.000
1709196835.155,0.000,-41.504,0.000,-41.016,0.000
1709196835.159,0.000,-35.645,0.000,-28.809,0.000
1709196835.163,0.000,-18.555,0.000,-24.414,0.000
1709196835.167,0.000,-17.578,0.000,-29.785,0.000
1709196835.171,0.000,-28.320,0.000,-34.668,0.000
1709196835.175,0.000,-33.203,0.000,-26.367,0.000
1709196835.179,0.000,-38.574,0.000,-18.066,0.000
1709196835.183,-24.414,-32.227,-39.062,-21.973,0.000
1709196835.187,-25.879,-30.762,-39.551,-33.691,0.000
1709196835.191,-36.133,-35.645,-39.062,-28.320,0.000
1709196835.194,-38.574,-35.156,-37.109,-13.672,0.000
1709196835.198,-26.855,-35.156,-31.250,-9.766,0.000
1709196835.202,-13.672,-37.598,-29.785,-26.367,0.000
1709196835.206,-20.508,-37.598,-31.738,-44.922,0.000
1709196835.210,-29.297,-33.203,-32.227,-41.992,0.000
1709196835.214,-20.996,-36.133,-36.133,-35.156,0.000
1709196835.218,-23.438,-48.340,-40.527,-33.691,0.000
1709196835.222,-21.484,-29.785,-36.133,-35.156,0.000
1709196835.226,-21.973,-21.973,-34.180,-48.340,0.000
1709196835.230,-38.086,-26.367,-32.715,-52.246,0.000
1709196835.233,-32.227,-24.414,-30.762,-48.340,0.000
1709196835.237,-23.926,-26.367,-30.762,-35.645,0.000
1709196835.241,-16.113,-31.250,-29.785,-20.508,0.000
1709196835.245,-11.230,-41.016,-28.320,-28.320,0.000
1709196835.249,-28.320,-43.457,-29.297,-50.293,0.000
1709196835.253,-37.109,-41.504,-33.691,-45.898,0.000
1709196835.257,-28.809,-37.109,-36.133,-18.066,0.000
1709196835.261,-13.672,-34.668,-27.344,-19.531,0.000
1709196835.265,-28.320,-40.039,-20.508,-32.715,0.000
1709196835.269,-43.457,-31.738,-23.438,-41.992,0.000
1709196835.273,-37.109,-33.203,-26.367,-42.969,0.000
1709196835.276,-22.949,-41.992,-23.438,-19.043,0.000
1709196835.280,-13.184,-35.645,-24.902,-11.719,0.000
1709196835.284,-23.926,-33.203,-34.180,-23.926,0.000
1709196835.288,-38.574,-31.250,-35.156,-25.879,0.000
1709196835.292,-34.668,-29.297,-35.156,-26.367,0.000
1709196835.296,-18.066,-27.344,-35.645,-20.508,0.000
1709196835.300,-23.438,-28.809,-29.785,-5.371,0.000
1709196835.304,-36.133,-34.668,-31.250,-16.602,0.000
1709196835.308,-20.020,-31.250,-29.297,-21.484,0.000
1709196835.312,-17.090,-32.715,-29.785,-19.531,0.000
1709196835.315,-42.480,-43.457,-34.180,-24.414,0.000
1709196835.319,-36.621,-35.645,-30.762,-22.461,0.000
1709196835.323,-30.273,-22.949,-29.297,-23.926,0.000
1709196835.327,-40.039,-22.949,-29.785,-31.738,0.000
1709196835.331,-43.457,-32.715,-26.855,-36.133,0.000
1709196835.335,-34.668,-34.180,-29.297,-33.691,0.000
1709196835.339,-27.344,-27.344,-32.227,-29.297,0.000
1709196835.343,-33.203,-34.668,-32.715,-28.320,0.000
1709196835.347,-43.945,-42.969,-33.691,-31.738,0.000
1709196835.351,-32.227,-35.645,-28.809,-32.227,0.000
1709196835.355,-28.809,-31.250,-30.762,-21.484,0.000
1709196835.358,-45.898,-34.180,-38.086,-2.930,0.000
1709196835.362,-32.227,-28.809,-25.879,3.906,0.000
1709196835.366,-38.574,-30.762,-25.391,-15.625,0.000
1709196835.370,-52.246,-41.504,-32.227,-26.855,0.000
1709196835.374,-41.016,-37.109,-27.344,-20.020,0.000
1709196835.378,-38.086,-30.273,-28.809,-23.438,0.000
1709196835.382,-29.297,-25.879,-29.297,-25.391,0.000
1709196835.386,-19.043,-26.855,-26.367,-18.066,0.000
1709196835.390,-26.855,-35.156,-25.879,-13.184,0.000
1709196835.394,-32.227,-36.621,-24.414,-10.742,0.000
1709196835.398,-25.391,-38.574,-22.461,-3.906,0.000
1709196835.401,-4.883,-33.691,-18.066,5.371,0.000
1709196835.405,3.418,-27.832,-23.926,0.977,0.000
1709196835.409,-20.020,-36.133,-29.297,-18.555,0.000
1709196835.413,-18.066,-39.551,-25.391,-18.555,0.000
1709196835.417,-15.625,-32.227,-30.762,-14.648,0.000
1709196835.421,-24.902,-34.668,-29.297,-11.230,0.000
1709196835.425,-21.484,-40.039,-27.832,-11.719,0.000
1709196835.429,-27.832,-38.086,-27.344,-18.555,0.000
1709196835.433,-32.227,-31.738,-23.926,-12.207,0.000
1709196835.437,-25.879,-35.156,-28.809,-14.160,0.000
1709196835.440,-21.973,-38.574,-32.715,-30.273,0.000
1709196835.444,-14.648,-36.133,-30.762,-33.203,0.000
1709196835.448,-14.648,-38.086,-29.297,-28.809,0.000
1709196835.452,-16.602,-42.969,-32.715,-23.926,0.000
1709196835.456,-4.883,-38.086,-32.227,-26.855,0.000
1709196835.460,-10.742,-31.738,-23.438,-13.672,0.000
1709196835.464,-22.461,-40.527,-18.555,-16.602,0.000
1709196835.468,-27.344,-45.410,-27.344,-35.156,0.000
1709196835.472,-31.250,-42.480,-28.809,-32.715,0.000
1709196835.476,-28.809,-36.621,-27.832,-25.391,0.000
1709196835.480,-37.598,-38.574,-29.297,-20.508,0.000
1709196835.483,-37.109,-45.898,-23.926,-17.578,0.000
1709196835.487,-36.621,-41.504,-26.855,-36.133,0.000
1709196835.491,-41.504,-37.598,-29.297,-47.852,0.000
1709196835.495,-37.598,-40.039,-27.344,-30.273,0.000
1709196835.499,-18.555,-42.480,-29.785,-27.344,0.000
1709196835.503,-22.949,-41.504,-24.902,-28.809,0.000
1709196835.507,-36.621,-37.598,-19.043,-22.949,0.000
1709196835.511,-42.480,-40.039,-24.902,-21.973,0.000
1709196835.515,-40.039,-41.016,-31.738,-22.949,0.000
1709196835.519,-34.180,-38.086,-33.691,-24.414,0.000
1709196835.523,-21.484,-36.133,-32.715,-20.020,0.000
1709196835.526,-8.301,-36.621,-29.297,-26.367,0.000
1709196835.530,-18.555,-33.203,-28.320,-37.598,0.000
1709196835.534,-32.715,-37.109,-30.762,-34.180,0.000
1709196835.538,-22.461,-40.039,-26.855,-17.090,0.000
1709196835.542,-3.418,-32.715,-27.832,-7.812,0.000
1709196835.546,-4.883,-34.668,-36.133,-26.855,0.000
1709196835.550,-30.762,-41.016,-33.691,-23.926,0.000
1709196835.554,-31.250,-43.457,-30.762,-8.789,0.000
1709196835.558,-26.855,-50.293,-33.203,-5.859,0.000
1709196835.562,-27.832,-45.898,-29.297,-7.812,0.000
1709196835.565,-24.902,-46.387,-27.832,-8.789,0.000
1709196835.569,-30.762,-46.875,-32.227,-15.137,0.000
1709196835.573,-32.715,-42.480,-25.391,-24.414,0.000
1709196835.577,-27.832,-42.969,-22.461,-25.391,0.000
1709196835.581,-31.250,-41.016,-23.438,-28.809,0.000
1709196835.585,-25.879,-36.133,-24.902,-31.738,0.000
1709196835.589,-27.832,-31.250,-28.320,-42.480,0.000
1709196835.593,-49.316,-31.250,-25.879,-39.551,0.000
1709196835.597,-52.246,-36.621,-26.855,-38.086,0.000
1709196835.601,-38.086,-34.180,-29.785,-42.969,0.000
1709196835.605,-28.320,-31.738,-29.297,-39.551,0.000
1709196835.608,-39.551,-41.992,-30.762,-48.828,0.000
1709196835.612,-50.293,-46.875,-30.762,-53.223,0.000
1709196835.616,-29.297,-43.457,-25.879,-42.480,0.000
1709196835.620,-30.762,-47.852,-24.414,-30.762,0.000
1709196835.624,-59.082,-46.875,-26.367,-38.086,0.000
1709196835.628,-58.594,-43.457,-24.902,-49.316,0.000
1709196835.632,-56.641,-45.898,-21.973,-46.387,0.000
1709196835.636,-61.523,-41.504,-24.902,-46.875,0.000
1709196835.640,-44.434,-34.180,-27.344,-43.945,0.000
1709196835.644,-27.832,-38.574,-25.391,-45.410,0.000
1709196835.647,-21.484,-42.480,-28.809,-45.410,0.000
1709196835.651,-26.367,-38.574,-25.879,-31.250,0.000
1709196835.655,-39.551,-40.527,-24.414,-17.578,0.000
1709196835.659,-28.320,-36.621,-26.367,-14.648,0.000
1709196835.663,-12.695,-30.762,-22.949,-5.859,0.000
1709196835.667,-19.531,-31.738,-23.438,-15.137,0.000
1709196835.671,-21.973,-31.250,-24.902,-17.090,0.000
1709196835.675,-20.020,-32.715,-23.438,0.977,0.000
1709196835.679,-13.184,-35.645,-18.555,1.953,0.000
1709196835.683,-4.395,-33.203,-13.672,-9.766,0.000
1709196835.687,-8.789,-32.715,-19.531,-20.508,0.000
1709196835.690,-35.156,-34.180,-21.973,-16.113,0.000
1709196835.694,-30.762,-29.297,-20.020,-15.137,0.000
1709196835.698,-5.859,-27.832,-22.949,-9.766,0.000
1709196835.702,-7.812,-31.738,-25.391,-7.812,0.000
1709196835.706,-26.855,-38.086,-25.391,-21.484,0.000
1709196835.710,-28.320,-36.133,-21.484,-24.414,0.000
1709196835.714,-31.250,-33.691,-24.902,-34.180,0.000
1709196835.718,-45.410,-37.598,-31.250,-36.621,0.000
1709196835.722,-36.621,-34.180,-27.344,-21.484,0.000
1709196835.726,-28.320,-27.344,-24.414,-31.738,0.000
1709196835.729,-29.297,-35.156,-30.273,-41.992,0.000
1709196835.733,-28.809,-46.387,-29.785,-35.645,0.000
1709196835.737,-33.203,-37.598,-22.949,-29.297,0.000
1709196835.741,-34.668,-34.668,-21.484,-26.855,0.000
1709196835.745,-27.832,-41.016,-23.438,-31.250,0.000
1709196835.749,-29.785,-41.992,-24.414,-33.203,0.000
1709196835.753,-39.551,-40.527,-22.949,-25.391,0.000
1709196835.757,-24.902,-43.457,-27.832,-24.414,0.000
1709196835.761,-16.602,-35.645,-30.762,-26.367,0.000
1709196835.765,-28.320,-27.832,-27.832,-21.973,0.000
1709196835.769,-34.668,-27.832,-25.879,-27.832,0.000
1709196835.772,-32.227,-36.133,-29.785,-29.297,0.000
1709196835.776,-27.832,-41.992,-35.156,-16.602,0.000
1709196835.780,-13.184,-40.527,-28.809,0.000,0.000
1709196835.784,0.000,-37.109,-27.344,-8.789,0.000
1709196835.788,5.371,-35.645,-26.855,-22.461,0.000
1709196835.792,-18.066,-42.480,-16.602,-8.301,0.000
1709196835.796,-23.438,-38.086,-15.137,10.742,0.000
1709196835.800,-13.672,-36.133,-20.508,0.000,0.000
1709196835.804,-18.555,-37.109,-21.973,-17.578,0.000
1709196835.808,-30.273,-42.969,-19.531,-20.020,0.000
1709196835.812,-45.410,-49.805,-20.020,-12.207,0.000
1709196835.815,-45.898,-40.527,-20.020,-18.555,0.000
1709196835.819,-31.250,-32.227,-21.484,-20.020,0.000
1709196835.823,-33.691,-34.668,-24.414,-15.625,0.000
1709196835.827,-48.828,-41.992,-31.738,-22.949,0.000
1709196835.831,-49.805,-46.387,-31.738,-41.504,0.000
1709196835.835,-36.133,-46.387,-27.344,-43.457,0.000
1709196835.839,-26.855,-41.504,-28.809,-30.273,0.000
1709196835.843,-3.906,-26.367,-31.250,-36.133,0.000
1709196835.847,-11.230,-23.926,-33.203,-44.922,0.000
1709196835.851,-47.852,-29.785,-38.574,-48.828,0.000
1709196835.855,-48.340,-32.227,-34.668,-47.363,0.000
1709196835.858,-44.434,-35.645,-28.809,-43.945,0.000
1709196835.862,-33.691,-40.039,-26.855,-40.039,0.000
1709196835.866,-23.438,-41.504,-22.949,-38.574,0.000
1709196835.870,-38.086,-46.875,-25.391,-27.832,0.000
1709196835.874,-37.109,-52.734,-25.879,-32.715,0.000
1709196835.878,-28.320,-44.922,-23.926,-32.715,0.000
1709196835.882,-28.320,-37.109,-26.855,-29.297,0.000
1709196835.886,-27.832,-37.598,-25.879,-25.391,0.000
1709196835.890,-36.621,-41.992,-22.949,-23.926,0.000
1709196835.894,-32.715,-40.527,-21.484,-35.156,0.000
1709196835.897,-24.414,-33.691,-20.996,-28.320,0.000
1709196835.901,-37.109,-30.762,-20.508,-12.207,0.000
1709196835.905,-48.828,-33.203,-19.043,-26.367,0.000
1709196835.909,-55.176,-36.133,-26.367,-45.410,0.000
1709196835.913,-52.246,-37.598,-31.250,-39.551,0.000
1709196835.917,-37.598,-39.551,-29.297,-16.113,0.000
1709196835.921,-34.180,-42.480,-28.809,-21.973,0.000
1709196835.925,-38.086,-41.016,-32.715,-40.527,0.000
1709196835.929,-43.945,-34.180,-33.203,-50.293,0.000
1709196835.933,-46.875,-37.598,-27.344,-45.898,0.000
1709196835.937,-36.621,-41.016,-26.367,-32.227,0.000
1709196835.940,-30.762,-34.668,-31.738,-23.438,0.000
1709196835.944,-40.527,-38.086,-32.227,-38.086,0.000
1709196835.948,-39.062,-38.086,-28.320,-45.410,0.000
1709196835.952,-29.297,-34.180,-25.391,-33.203,0.000
1709196835.956,-23.926,-39.062,-29.297,-29.785,0.000
1709196835.960,-20.508,-46.387,-33.203,-27.344,0.000
1709196835.964,-25.879,-42.480,-38.086,-28.320,0.000
1709196835.968,-31.250,-33.691,-35.645,-37.109,0.000
1709196835.972,-30.273,-26.855,-32.227,-39.062,0.000
1709196835.976,-20.996,-33.203,-38.574,-23.926,0.000
1709196835.979,-3.906,-39.062,-43.945,-18.066,0.000
1709196835.983,-9.766,-39.062,-43.457,-30.273,0.000
1709196835.987,-27.344,-39.551,-39.062,-29.785,0.000
1709196835.991,-27.344,-35.156,-39.062,-25.879,0.000
1709196835.995,-16.602,-39.551,-37.109,-23.926,0.000
1709196835.999,-18.066,-40.039,-28.809,-15.137,0.000
1709196836.003,-15.625,-34.668,-28.809,-16.602,0.000
1709196836.007,-27.832,-37.109,-36.133,-34.668,0.000
1709196836.011,-41.992,-45.898,-39.062,-35.156,0.000
1709196836.015,-40.527,-51.758,-36.621,-19.043,0.000
1709196836.019,-32.227,-43.457,-34.180,-23.926,0.000
1709196836.022,-12.695,-38.574,-35.156,-26.367,0.000
1709196836.026,-22.949,-44.434,-40.039,-30.762,0.000
1709196836.030,-40.039,-43.945,-36.133,-37.109,0.000
1709196836.034,-31.738,-38.574,-23.926,-27.832,0.000
1709196836.038,-27.832,-34.668,-23.926,-14.160,0.000
1709196836.042,-27.832,-38.574,-31.738,-17.578,0.000
1709196836.046,-28.320,-40.039,-31.250,-27.344,0.000
1709196836.050,-28.809,-43.945,-28.809,-34.668,0.000
1709196836.054,-27.832,-43.945,-27.832,-40.039,0.000
1709196836.058,-41.016,-40.527,-33.691,-40.039,0.000
1709196836.061,-48.828,-41.016,-32.715,-34.180,0.000
1709196836.065,-46.875,-35.156,-27.344,-39.062,0.000
1709196836.069,-48.340,-30.273,-26.367,-55.176,0.000
1709196836.073,-49.316,-37.598,-31.250,-52.246,0.000
1709196836.077,-62.012,-39.062,-38.086,-40.039,0.000
1709196836.081,-51.758,-36.133,-36.133,-37.598,0.000
1709196836.085,-47.363,-39.551,-34.668,-38.574,0.000
1709196836.089,-49.805,-29.297,-31.738,-33.203,0.000
1709196836.093,-41.992,-28.809,-31.738,-27.832,0.000
1709196836.097,-48.828,-37.109,-32.715,-22.949,0.000
1709196836.100,-39.062,-29.785,-30.273,-25.879,0.000
1709196836.104,-18.555,-37.109,-29.297,-25.879,0.000
1709196836.108,-41.016,-48.828,-25.391,-25.879,0.000
1709196836.112,-60.059,-31.738,-24.414,-25.391,0.000
1709196836.116,-33.691,-24.902,-27.832,-10.742,0.000
1709196836.120,-40.527,-38.086,-20.996,-12.695,0.000
1709196836.124,-51.758,-38.574,-19.043,-18.066,0.000
1709196836.128,-39.551,-35.645,-25.391,-25.879,0.000
1709196836.132,-44.922,-27.832,-27.832,-31.738,0.000
1709196836.136,-32.715,-30.762,-27.344,-22.949,0.000
1709196836.140,-19.531,-38.086,-17.090,-8.789,0.000
1709196836.143,-25.391,-33.691,-17.090,-7.324,0.000
1709196836.147,-26.855,-23.438,-27.344,-28.320,0.000
1709196836.151,-23.926,-24.414,-27.344,-23.926,0.000
1709196836.155,-19.043,-27.832,-29.785,1.953,0.000
1709196836.159,-27.344,-31.250,-37.598,-0.488,0.000
1709196836.163,-22.461,-36.621,-36.133,-18.066,0.000
1709196836.167,0.000,-31.738,-33.203,-33.691,0.000
1709196836.171,0.000,-26.367,-29.785,-38.574,0.000
1709196836.175,0.000,-25.879,-30.762,-36.621,0.000
1709196836.179,0.000,-26.367,-29.785,-26.367,0.000
1709196836.183,0.000,-30.762,-27.344,-30.762,0.000
1709196836.186,0.000,-37.109,-27.832,-41.992,0.000
1709196836.190,0.000,-39.551,-26.855,-42.480,0.000
1709196836.194,0.000,-35.645,-28.320,-38.086,0.000
1709196836.198,0.000,-30.273,-25.879,-20.996,0.000
1709196836.202,0.000,-25.879,-31.250,-27.344,0.000
1709196836.206,0.000,-21.484,-31.738,-41.992,0.000
1709196836.210,0.000,-20.996,-29.785,-39.551,0.000
1709196836.214,-36.133,-23.438,-32.227,-36.621,0.000
1709196836.218,-17.578,-25.879,-27.832,-26.367,0.000
1709196836.222,-11.719,-21.484,-25.391,-12.695,0.000
1709196836.226,-32.715,-23.438,-23.926,-10.254,0.000
1709196836.229,-41.016,-35.156,-24.414,-12.207,0.000
1709196836.233,-37.109,-40.527,-28.809,-13.672,0.000
1709196836.237,-17.090,-38.086,-25.879,4.883,0.000
1709196836.241,-10.254,-30.762,-20.508,17.578,0.000
1709196836.245,-27.344,-32.715,-24.414,13.184,0.000
1709196836.249,-37.598,-42.969,-30.273,-7.812,0.000
1709196836.253,-34.180,-41.504,-31.250,-16.602,0.000
1709196836.257,-33.691,-31.250,-29.785,-8.301,0.000
1709196836.261,-20.996,-29.785,-25.879,7.324,0.000
1709196836.265,-11.719,-33.691,-24.902,-3.418,0.000
1709196836.269,-31.250,-33.203,-27.832,-26.855,0.000
1709196836.272,-36.133,-38.086,-33.691,-25.879,0.000
1709196836.276,-29.297,-42.969,-32.715,-27.344,0.000
1709196836.280,-20.020,-41.504,-24.902,-29.297,0.000
1709196836.284,-19.043,-36.621,-26.367,-41.016,0.000
1709196836.288,-31.250,-39.062,-31.250,-50.781,0.000
1709196836.292,-32.715,-38.574,-36.621,-36.133,0.000
1709196836.296,-23.438,-22.461,-36.133,-32.715,0.000
1709196836.300,-22.461,-22.461,-30.762,-33.203,0.000
1709196836.304,-26.367,-32.227,-36.621,-28.809,0.000
1709196836.308,-11.230,-29.785,-39.062,-34.668,0.000
1709196836.311,-16.602,-26.855,-35.645,-38.574,0.000
1709196836.315,-35.645,-34.180,-41.016,-36.621,0.000
1709196836.319,-27.832,-41.992,-44.434,-37.109,0.000
1709196836.323,-18.555,-42.969,-41.504,-40.039,0.000
1709196836.327,-20.996,-42.969,-35.645,-43.457,0.000
1709196836.331,-35.156,-39.062,-34.180,-42.480,0.000
1709196836.335,-35.645,-39.062,-30.273,-29.297,0.000
1709196836.339,-12.695,-36.133,-25.879,-18.066,0.000
1709196836.343,-19.531,-27.832,-26.367,-18.066,0.000
1709196836.347,-32.715,-33.691,-29.297,-27.344,0.000
1709196836.351,-29.297,-36.621,-30.273,-19.531,0.000
1709196836.355,0.000,-37.109,0.000,-16.602,0.000
1709196836.358,0.000,-36.621,0.000,-6.836,0.000
1709196836.362,0.000,-32.227,0.000,7.812,0.000
1709196836.366,0.000,-36.133,0.000,-18.066,0.000
1709196836.370,0.000,-46.387,0.000,-32.715,0.000
1709196836.374,0.000,-42.969,0.000,-29.297,0.000
1709196836.378,0.000,-30.762,0.000,-21.973,0.000
1709196836.382,0.000,-30.762,0.000,-12.695,0.000
1709196836.386,0.000,-22.461,0.000,-29.297,0.000
1709196836.390,0.000,-18.555,0.000,-29.785,0.000
1709196836.394,0.000,-32.715,0.000,-28.809,0.000
1709196836.398,0.000,-29.297,0.000,-36.621,0.000
1709196836.401,-16.602,-28.320,-41.016,-32.227,0.000
1709196836.405,-29.785,-41.016,-35.645,-31.738,0.000
1709196836.409,-39.062,-41.504,-36.133,-31.250,0.000
1709196836.413,-42.969,-32.227,-29.785,-30.762,0.000
1709196836.417,-26.855,-31.250,-23.438,-24.902,0.000
1709196836.421,-19.531,-37.109,-20.508,-16.602,0.000
1709196836.425,-28.809,-40.527,-24.902,-27.344,0.000
1709196836.429,-40.039,-40.039,-32.227,-43.457,0.000
1709196836.433,-35.645,-43.945,-27.832,-45.410,0.000
1709196836.437,-26.855,-47.363,-20.996,-30.273,0.000
1709196836.440,-31.250,-42.969,-27.344,-32.715,0.000
1709196836.444,-26.367,-35.156,-39.062,-45.898,0.000
1709196836.448,-29.297,-33.691,-32.227,-47.363,0.000
1709196836.452,-48.340,-40.527,-25.391,-46.387,0.000
1709196836.456,-33.691,-39.062,-24.902,-40.527,0.000
1709196836.460,-29.297,-34.668,-25.879,-34.180,0.000
1709196836.464,-22.461,-34.668,-27.344,-22.949,0.000
1709196836.468,-21.484,-32.715,-28.809,-20.996,0.000
1709196836.472,-33.691,-35.645,-30.273,-20.996,0.000
1709196836.476,-22.461,-30.762,-23.438,-11.230,0.000
1709196836.480,-13.672,-21.973,-20.508,-8.301,0.000
1709196836.483,-16.602,-29.297,-24.902,-9.766,0.000
1709196836.487,-18.555,-37.109,-27.832,-15.137,0.000
1709196836.491,-27.344,-40.039,-22.949,-24.414,0.000
1709196836.495,-29.297,-41.992,-22.461,-15.625,0.000
1709196836.499,-12.207,-41.504,-27.344,-15.137,0.000
1709196836.503,-25.391,-36.133,-26.367,-28.320,0.000
1709196836.507,-43.457,-36.133,-24.414,-39.062,0.000
1709196836.511,-43.457,-36.621,-24.414,-44.434,0.000
1709196836.515,-41.504,-40.039,-24.414,-32.715,0.000
1709196836.519,-39.551,-36.621,-21.973,-23.438,0.000
1709196836.523,-41.504,-33.203,-26.855,-26.367,0.000
1709196836.526,-47.363,-37.109,-32.227,-24.902,0.000
1709196836.530,-37.598,-35.645,-30.762,-18.555,0.000
1709196836.534,-31.250,-37.109,-30.273,-21.484,0.000
1709196836.538,-32.715,-39.062,-32.227,-30.762,0.000
1709196836.542,-29.297,-35.156,-29.785,-31.250,0.000
1709196836.546,-22.461,-32.715,-27.832,-29.785,0.000
1709196836.550,-22.461,-29.785,-31.738,-41.992,0.000
1709196836.554,-45.898,-37.598,-36.621,-45.898,0.000
1709196836.558,-39.062,-41.016,-32.227,-29.297,0.000
1709196836.562,-31.738,-40.527,-26.367,-24.902,0.000
1709196836.565,-40.527,-44.922,-27.344,-33.203,0.000
1709196836.569,-46.387,-45.410,-32.715,-39.551,0.000
1709196836.573,-43.945,-44.434,-38.086,-37.109,0.000
1709196836.577,-37.598,-42.969,-36.133,-18.555,0.000
1709196836.581,-15.625,-40.039,-27.832,-16.602,0.000
1709196836.585,-15.625,-38.086,-26.367,-29.785,0.000
1709196836.589,-29.297,-43.945,-31.738,-30.762,0.000
1709196836.593,-22.949,-39.551,-32.227,-33.203,0.000
1709196836.597,-21.973,-24.414,-28.320,-26.367,0.000
1709196836.601,-12.695,-21.973,-28.320,-19.043,0.000
1709196836.605,-8.789,-33.203,-32.227,-27.344,0.000
1709196836.608,-42.969,-40.527,-36.133,-41.504,0.000
1709196836.612,-52.246,-40.039,-33.691,-45.410,0.000
1709196836.616,-39.551,-35.645,-30.762,-38.574,0.000
1709196836.620,-25.879,-35.156,-31.250,-31.250,0.000
1709196836.624,-20.996,-32.715,-26.855,-26.855,0.000
1709196836.628,-30.762,-28.320,-20.020,-31.738,0.000
1709196836.632,-29.297,-25.879,-18.555,-39.551,0.000
1709196836.636,-25.879,-26.367,-26.855,-33.691,0.000
1709196836.640,-22.949,-25.391,-27.832,-16.602,0.000
1709196836.644,-20.020,-28.320,-21.973,-15.137,0.000
1709196836.648,-31.738,-35.645,-25.391,-35.156,0.000
1709196836.651,-33.203,-39.551,-30.762,-43.945,0.000
1709196836.655,-30.762,-33.691,-27.344,-44.922,0.000
1709196836.659,-40.039,-35.645,-26.855,-49.805,0.000
1709196836.663,-26.367,-44.922,-26.367,-45.410,0.000
1709196836.667,-5.371,-41.992,-24.902,-38.086,0.000
1709196836.671,-34.668,-42.969,-28.809,-42.480,0.000
1709196836.675,-46.387,-41.992,-29.785,-33.691,0.000
1709196836.679,-31.250,-46.387,-30.762,-14.648,0.000
1709196836.683,-20.508,-43.945,-32.227,-8.789,0.000
1709196836.687,-12.695,-33.203,-30.273,-20.508,0.000
1709196836.690,-29.785,-36.621,-29.785,-20.020,0.000
1709196836.694,-35.156,-43.457,-30.273,-8.301,0.000
1709196836.698,-30.273,-40.527,-29.785,-11.719,0.000
1709196836.702,-27.832,-41.504,-33.691,-12.207,0.000
1709196836.706,-37.598,-42.969,-31.250,-24.902,0.000
1709196836.710,-40.527,-39.551,-25.391,-26.367,0.000
1709196836.714,-23.438,-35.156,-22.949,-13.672,0.000
1709196836.718,-36.133,-38.574,-27.344,-23.438,0.000
1709196836.722,-30.273,-41.992,-26.855,-26.367,0.000
1709196836.726,-22.949,-35.645,-27.832,-32.715,0.000
1709196836.730,-32.227,-35.156,-31.738,-40.039,0.000
1709196836.733,-29.297,-36.133,-30.762,-28.809,0.000
1709196836.737,-13.672,-32.227,-29.785,-18.555,0.000
1709196836.741,-9.277,-33.691,-29.297,-20.996,0.000
1709196836.745,-21.484,-28.809,-31.250,-29.297,0.000
1709196836.749,-26.367,-28.809,-33.691,-42.969,0.000
1709196836.753,-24.414,-45.898,-35.156,-38.574,0.000
1709196836.757,-21.973,-51.270,-32.715,-18.066,0.000
1709196836.761,-16.113,-45.898,-29.297,-17.090,0.000
1709196836.765,-8.789,-36.133,-32.227,-25.879,0.000
1709196836.769,-9.766,-26.855,-39.062,-31.738,0.000
1709196836.772,-36.621,-35.156,-37.109,-34.180,0.000
1709196836.776,-36.133,-41.992,-28.809,-28.809,0.000
1709196836.780,-23.926,-38.574,-26.367,-16.602,0.000
1709196836.784,-21.973,-44.922,-33.203,-23.926,0.000
1709196836.788,-29.297,-53.711,-29.297,-34.668,0.000
1709196836.792,-28.809,-35.156,-22.949,-39.062,0.000
1709196836.796,-23.926,-24.902,-25.391,-29.785,0.000
1709196836.800,-17.578,-28.809,-27.344,-11.719,0.000
1709196836.804,-22.461,-26.855,-26.855,-16.113,0.000
1709196836.808,-29.297,-33.203,-26.367,-26.367,0.000
1709196836.812,-30.273,-39.551,-25.879,-26.367,0.000
1709196836.815,-35.156,-38.574,-30.762,-23.438,0.000
1709196836.819,-26.367,-35.156,-28.320,-21.484,0.000
1709196836.823,-18.066,-27.832,-23.438,-27.832,0.000
1709196836.827,-28.809,-33.203,-29.297,-30.273,0.000
1709196836.831,-38.574,-37.109,-33.203,-27.344,0.000
1709196836.835,-31.738,-32.715,-31.250,-24.414,0.000
1709196836.839,-31.250,-35.645,-35.645,-18.066,0.000
1709196836.843,-22.949,-38.574,-34.668,-23.926,0.000
1709196836.847,-25.391,-32.715,-29.785,-37.109,0.000
1709196836.851,-42.969,-34.180,-26.855,-41.992,0.000
1709196836.854,-48.828,-38.574,-31.250,-32.227,0.000
1709196836.858,-44.434,-39.551,-35.156,-27.832,0.000
1709196836.862,-35.156,-41.016,-35.156,-32.227,0.000
1709196836.866,-40.039,-32.227,-32.227,-32.227,0.000
1709196836.870,-43.945,-23.926,-28.809,-25.391,0.000
1709196836.874,-36.133,-23.926,-25.879,-9.766,0.000
1709196836.878,-16.113,-26.855,-26.855,3.418,0.000
1709196836.882,-18.066,-31.738,-29.785,-2.930,0.000
1709196836.886,-41.992,-35.156,-31.250,-17.578,0.000
1709196836.890,-39.062,-38.086,-30.762,-18.066,0.000
1709196836.894,-31.738,-38.086,-27.344,-21.973,0.000
1709196836.897,-23.926,-33.203,-28.809,-14.648,0.000
1709196836.901,-15.137,-35.645,-32.715,-12.695,0.000
1709196836.905,-19.531,-36.621,-26.367,-13.672,0.000
1709196836.909,-36.133,-33.203,-21.973,-20.996,0.000
1709196836.913,-34.180,-35.645,-21.484,-22.949,0.000
1709196836.917,-23.438,-36.133,-20.020,-5.859,0.000
1709196836.921,-21.484,-40.039,-25.391,-12.695,0.000
1709196836.925,-21.484,-43.945,-35.156,-36.621,0.000
1709196836.929,-47.363,-35.645,-37.109,-48.340,0.000
1709196836.933,-55.664,-28.809,-32.715,-37.109,0.000
1709196836.937,-48.828,-36.621,-34.180,-39.062,0.000
1709196836.940,-56.152,-38.086,-40.039,-51.270,0.000
1709196836.944,-58.594,-35.645,-41.016,-52.734,0.000
1709196836.948,-60.059,-38.086,-37.109,-52.246,0.000
1709196836.952,-54.199,-34.668,-36.621,-45.410,0.000
1709196836.956,-42.969,-30.762,-37.598,-33.691,0.000
1709196836.960,-47.852,-33.203,-32.715,-25.391,0.000
1709196836.964,-54.688,-36.133,-30.762,-42.969,0.000
1709196836.968,-56.641,-36.133,-31.738,-61.035,0.000
1709196836.972,-48.828,-32.715,-33.203,-62.012,0.000
1709196836.976,-35.156,-33.691,-31.250,-48.828,0.000
1709196836.979,-40.527,-32.227,-28.809,-35.645,0.000
1709196836.983,-41.992,-35.156,-31.250,-42.969,0.000
1709196836.987,-42.480,-40.039,-30.273,-50.293,0.000
1709196836.991,-43.457,-41.992,-36.133,-35.645,0.000
1709196836.995,-37.598,-45.898,-35.645,-13.672,0.000
1709196836.999,-22.949,-34.180,-32.715,-13.672,0.000
1709196837.003,-12.207,-26.855,-39.551,-23.926,0.000
1709196837.007,-22.949,-32.715,-38.574,-21.484,0.000
1709196837.011,-26.855,-41.504,-32.227,-25.879,0.000
1709196837.015,-17.090,-45.410,-35.645,-30.762,0.000
1709196837.019,-19.531,-39.551,-34.180,-22.461,0.000
1709196837.022,-25.391,-38.086,-28.320,-14.160,0.000
1709196837.026,-27.832,-40.039,-23.438,-20.508,0.000
1709196837.030,-26.367,-37.109,-23.926,-24.902,0.000
1709196837.034,-20.508,-35.645,-28.809,-17.578,0.000
1709196837.038,-10.254,-38.086,-28.809,-11.230,0.000
1709196837.042,-10.254,-41.016,-23.926,-18.555,0.000
1709196837.046,-19.043,-32.715,-26.855,-30.273,0.000
1709196837.050,-24.414,-26.855,-34.668,-29.785,0.000
1709196837.054,-18.066,-30.762,-36.133,-20.020,0.000
1709196837.058,-12.207,-31.250,-30.762,-14.648,0.000
1709196837.062,-4.395,-29.297,-30.273,-23.926,0.000
1709196837.065,-18.555,-39.062,-34.180,-30.273,0.000
1709196837.069,-27.832,-40.527,-30.273,-29.785,0.000
1709196837.073,-23.438,-35.156,-33.203,-36.621,0.000
1709196837.077,-17.090,-34.668,-34.180,-35.645,0.000
1709196837.081,-11.719,-24.902,-31.250,-21.973,0.000
1709196837.085,-16.602,-22.949,-37.109,-9.766,0.000
1709196837.089,-26.855,-25.879,-38.574,-24.902,0.000
1709196837.093,-36.133,-24.902,-34.180,-33.203,0.000
1709196837.097,-36.133,-33.691,-38.574,-30.762,0.000
1709196837.101,-31.250,-38.574,-40.039,-23.438,0.000
1709196837.104,-26.367,-38.574,-30.273,-22.949,0.000
1709196837.108,-24.902,-35.156,-29.785,-43.945,0.000
1709196837.112,-42.480,-33.203,-24.414,-45.898,0.000
1709196837.116,-42.969,-38.574,-19.531,-30.762,0.000
1709196837.120,-28.809,-35.156,-26.367,-23.438,0.000
1709196837.124,-30.273,-39.062,-22.949,-31.250,0.000
1709196837.128,-38.086,-44.434,-20.996,-31.738,0.000
1709196837.132,-32.715,-40.527,-21.973,-20.020,0.000
1709196837.136,-19.531,-41.016,-23.438,-17.090,0.000
1709196837.140,-21.484,-46.387,-25.879,-14.160,0.000
1709196837.144,-16.113,-44.434,-22.461,-8.789,0.000
1709196837.147,-18.555,-33.691,-20.508,-9.277,0.000
1709196837.151,-29.785,-34.668,-19.531,0.000,0.000
1709196837.155,-20.020,-41.504,-17.090,7.812,0.000
1709196837.159,-11.719,-37.109,-16.602,6.348,0.000
1709196837.163,-17.090,-32.715,-16.602,6.836,0.000
1709196837.167,-23.926,-38.086,-11.719,2.930,0.000
1709196837.171,-36.133,-40.039,-11.719,-2.441,0.000
1709196837.175,-35.645,-41.992,-10.254,5.371,0.000
1709196837.179,-31.250,-47.363,-12.695,9.277,0.000
1709196837.183,-22.461,-41.992,-14.160,5.371,0.000
1709196837.186,-29.785,-41.992,-15.137,-7.324,0.000
1709196837.190,-48.828,-42.480,-20.508,-33.691,0.000
1709196837.194,-53.223,-30.273,-24.414,-41.992,0.000
1709196837.198,-42.480,-26.367,-22.949,-32.227,0.000
1709196837.202,-37.598,-29.297,-20.020,-19.531,0.000
1709196837.206,-40.527,-35.645,-20.996,-19.043,0.000
1709196837.210,-29.785,-32.227,-24.414,-36.621,0.000
1709196837.214,-38.086,-21.973,-22.949,-38.086,0.000
1709196837.218,-44.434,-31.738,-22.949,-28.320,0.000
1709196837.222,-36.621,-41.016,-27.344,-30.273,0.000
1709196837.225,-37.109,-36.133,-32.227,-40.527,0.000
1709196837.229,-38.574,-32.227,-34.668,-43.457,0.000
1709196837.233,-45.898,-42.969,-34.180,-43.457,0.000
1709196837.237,-39.062,-41.504,-28.320,-27.344,0.000
1709196837.241,-27.832,-39.062,-31.250,-25.879,0.000
1709196837.245,-28.320,-45.410,-33.203,-44.434,0.000
1709196837.249,-28.809,-50.781,-29.785,-45.410,0.000
1709196837.253,-37.598,-54.688,-30.762,-40.039,0.000
1709196837.257,-20.996,-41.504,-26.855,-25.391,0.000
1709196837.261,3.418,-35.645,-19.043,-6.836,0.000
1709196837.265,-7.812,-52.246,-26.855,-9.277,0.000
1709196837.268,-24.414,-57.129,-32.227,-19.531,0.000
1709196837.272,-34.180,-44.434,-23.438,-19.043,0.000
1709196837.276,-31.738,-48.340,-23.926,-4.883,0.000
1709196837.280,-26.367,-56.152,-25.879,5.859,0.000
1709196837.284,-26.367,-48.828,-18.555,-2.441,0.000
1709196837.288,-20.996,-48.828,-15.137,-8.789,0.000
