timestamps,TP9,AF7,AF8,TP10,Right AUX
1709299313.401,-38.574,-47.363,-29.297,-25.391,0.000
1709299313.405,-29.785,-43.457,-32.227,-23.438,0.000
1709299313.409,-37.109,-48.828,-32.715,-28.320,0.000
1709299313.413,-46.875,-50.293,-47.363,-44.922,0.000
1709299313.417,-48.828,-44.434,-41.992,-46.875,0.000
1709299313.421,-39.551,-47.852,-27.832,-37.109,0.000
1709299313.425,-35.156,-48.828,-30.273,-32.715,0.000
1709299313.428,-44.434,-42.969,-34.668,-39.062,0.000
1709299313.432,-51.270,-46.875,-38.086,-50.781,0.000
1709299313.436,-47.852,-52.246,-41.992,-41.992,0.000
1709299313.440,-35.645,-52.734,-42.480,-40.039,0.000
1709299313.444,-24.902,-40.527,-42.480,-37.109,0.000
1709299313.448,-26.855,-41.016,-49.316,-32.715,0.000
1709299313.452,-39.062,-45.898,-49.805,-39.062,0.000
1709299313.456,-41.016,-45.410,-45.898,-41.504,0.000
1709299313.460,-35.156,-48.828,-44.922,-33.203,0.000
1709299313.464,-25.391,-41.504,-48.828,-21.484,0.000
1709299313.468,-23.926,-37.598,-41.992,-20.508,0.000
1709299313.471,-26.367,-40.039,-34.668,-17.090,0.000
1709299313.475,-21.973,-39.551,-36.133,-18.555,0.000
1709299313.479,-11.719,-41.016,-34.668,-7.812,0.000
1709299313.483,-12.695,-51.758,-33.203,-5.859,0.000
1709299313.487,-20.508,-42.969,-29.297,-16.602,0.000
1709299313.491,-27.832,-47.363,-34.180,-23.926,0.000
1709299313.495,-25.391,-51.758,-31.250,-27.832,0.000
1709299313.499,-18.555,-42.480,-24.902,-17.578,0.000
1709299313.503,-15.625,-47.363,-26.855,-13.184,0.000
1709299313.507,-24.414,-52.734,-31.250,-20.996,0.000
1709299313.510,-36.621,-52.734,-36.133,-34.668,0.000
1709299313.514,-39.551,-54.688,-38.574,-42.480,0.000
1709299313.518,-28.809,-52.734,-40.039,-33.203,0.000
1709299313.522,-17.090,-58.105,-33.203,-23.926,0.000
1709299313.526,-19.043,-53.711,-30.273,-23.926,0.000
1709299313.530,-22.461,-41.992,-35.156,-36.621,0.000
1709299313.534,-20.996,-41.992,-37.109,-41.016,0.000
1709299313.538,-18.555,-38.574,-32.715,-37.598,0.000
1709299313.542,-18.555,-38.086,-29.297,-32.227,0.000
1709299313.546,-24.902,-47.363,-40.039,-35.156,0.000
1709299313.550,-25.879,-51.758,-40.527,-46.387,0.000
1709299313.553,-23.438,-39.551,-29.785,-44.922,0.000
1709299313.557,-25.879,-40.039,-38.574,-38.086,0.000
1709299313.561,-12.695,-51.270,-39.551,-31.738,0.000
1709299313.565,-7.324,-38.574,-34.180,-30.762,0.000
1709299313.569,-19.043,-30.273,-40.039,-27.832,0.000
1709299313.573,-30.762,-34.668,-41.992,-32.715,0.000
1709299313.577,-40.527,-37.109,-43.945,-49.805,0.000
1709299313.581,-33.203,-40.039,-41.504,-40.527,0.000
1709299313.585,-29.297,-48.340,-46.875,-31.738,0.000
1709299313.588,-38.086,-53.711,-44.922,-41.504,0.000
1709299313.592,-42.480,-48.828,-33.203,-42.969,0.000
1709299313.596,-40.039,-42.969,-28.809,-32.715,0.000
1709299313.600,-27.832,-47.363,-31.250,-20.508,0.000
1709299313.604,-18.555,-44.922,-26.367,-15.137,0.000
1709299313.608,-20.996,-32.715,-19.043,-19.531,0.000
1709299313.612,-30.762,-31.250,-22.461,-28.809,0.000
1709299313.616,-41.992,-41.016,-26.367,-26.855,0.000
1709299313.620,-43.945,-44.922,-28.809,-18.555,0.000
1709299313.624,-35.645,-37.109,-27.832,-20.508,0.000
1709299313.628,-41.504,-32.227,-25.879,-33.691,0.000
1709299313.631,-46.387,-35.156,-23.438,-37.598,0.000
1709299313.636,-53.223,-38.086,-33.203,-43.457,0.000
1709299313.640,-53.223,-35.156,-37.598,-40.039,0.000
1709299313.643,-40.039,-42.969,-41.016,-34.180,0.000
1709299313.647,-39.551,-48.340,-42.480,-42.480,0.000
1709299313.651,-54.688,-36.621,-32.227,-47.363,0.000
1709299313.655,-49.316,-34.180,-32.227,-47.852,0.000
1709299313.659,-29.785,-36.621,-35.645,-35.156,0.000
1709299313.663,-27.832,-45.410,-37.598,-31.250,0.000
1709299313.667,-30.762,-49.805,-39.062,-40.039,0.000
1709299313.671,-28.809,-43.457,-28.809,-39.062,0.000
1709299313.675,-34.668,-45.898,-24.902,-44.434,0.000
1709299313.679,-41.992,-53.223,-28.809,-44.434,0.000
1709299313.682,-35.645,-48.828,-32.227,-38.574,0.000
1709299313.686,-33.691,-41.992,-28.809,-41.016,0.000
1709299313.690,-41.504,-45.898,-27.832,-49.805,0.000
1709299313.694,-52.246,-50.293,-30.273,-60.059,0.000
1709299313.698,-58.105,-58.594,-28.809,-53.711,0.000
1709299313.702,-51.270,-61.035,-29.785,-39.551,0.000
1709299313.706,-50.781,-41.016,-28.320,-38.086,0.000
1709299313.710,-61.523,-35.645,-33.691,-51.758,0.000
1709299313.713,-71.289,-43.945,-40.039,-59.570,0.000
1709299313.717,-76.660,-62.012,-39.062,-57.129,0.000
1709299313.721,-68.359,-64.453,-34.180,-38.574,0.000
1709299313.725,-63.965,-45.898,-33.203,-47.363,0.000
1709299313.729,-70.312,-41.992,0.000,-61.035,0.000
1709299313.733,-72.266,-42.480,0.000,-54.688,0.000
1709299313.737,-73.242,-46.875,0.000,-55.664,0.000
1709299313.741,-64.453,-55.176,0.000,-45.898,0.000
1709299313.745,-54.199,-54.688,0.000,-38.574,0.000
1709299313.749,-52.246,-51.758,0.000,-42.969,0.000
1709299313.753,-59.570,-49.316,0.000,-49.316,0.000
1709299313.757,-58.594,-44.922,0.000,-49.805,0.000
1709299313.761,-38.086,-34.668,0.000,-37.109,0.000
1709299313.764,-25.391,-38.086,0.000,-21.484,0.000
1709299313.768,-26.855,-44.434,0.000,-24.902,0.000
1709299313.772,-28.809,-35.645,0.000,-33.691,0.000
1709299313.776,-30.273,-22.461,-40.527,-34.668,0.000
1709299313.780,-13.184,-27.832,-37.598,-19.531,0.000
1709299313.784,-3.418,-44.434,-33.203,-12.695,0.000
1709299313.788,-10.254,-47.363,-33.691,-25.879,0.000
1709299313.792,-21.973,-42.969,-29.785,-33.203,0.000
1709299313.796,-36.621,-41.504,-29.785,-37.598,0.000
1709299313.800,-36.133,-39.551,-37.598,-42.969,0.000
1709299313.804,-33.203,-39.062,-41.992,-45.898,0.000
1709299313.808,-29.785,-35.156,-39.551,-41.992,0.000
1709299313.811,-45.410,-44.922,-41.992,-44.922,0.000
1709299313.815,-58.594,-48.828,-41.016,-56.641,0.000
1709299313.819,-50.781,-34.180,-37.109,-49.805,0.000
1709299313.823,-43.945,-34.668,-42.480,-41.504,0.000
1709299313.827,-51.270,-47.852,-45.898,-48.828,0.000
1709299313.831,-63.477,-43.945,-40.527,-52.734,0.000
1709299313.835,-65.918,-33.691,-28.809,-54.688,0.000
1709299313.839,-61.523,-43.945,-27.832,-44.434,0.000
1709299313.843,-55.176,-46.387,-36.621,-26.367,0.000
1709299313.847,-49.316,-37.598,-28.320,-22.949,0.000
1709299313.851,-52.734,-44.434,-18.066,-36.133,0.000
1709299313.854,-64.453,-53.223,-20.020,-42.480,0.000
1709299313.858,-68.848,-51.270,-27.832,-43.945,0.000
1709299313.862,-53.223,-47.363,-28.320,-39.551,0.000
1709299313.866,-40.039,-49.805,-27.344,-33.691,0.000
1709299313.870,-46.875,-43.945,-28.320,-34.180,0.000
1709299313.874,-58.594,-36.621,-26.855,-37.598,0.000
1709299313.878,-54.688,-41.504,-33.203,-37.598,0.000
1709299313.882,-41.504,-39.062,-30.762,-30.273,0.000
1709299313.886,-42.480,-40.527,-34.180,-36.133,0.000
1709299313.890,-51.758,-43.945,-43.457,-46.875,0.000
1709299313.894,-56.641,-42.480,-41.992,-58.105,0.000
1709299313.898,-60.059,-39.062,-35.645,-60.059,0.000
1709299313.902,-52.734,-43.457,-43.945,-53.711,0.000
1709299313.906,-39.551,-44.434,-50.781,-57.129,0.000
1709299313.909,-38.086,-35.645,-44.922,-62.500,0.000
1709299313.913,-41.504,-37.598,-49.805,-66.406,0.000
1709299313.917,-35.156,-39.062,-52.246,-54.688,0.000
1709299313.921,-24.902,-29.297,-44.434,-37.598,0.000
1709299313.925,-23.438,-30.273,-43.945,-34.180,0.000
1709299313.929,-20.996,-30.273,-44.434,-37.109,0.000
1709299313.933,-19.043,-28.809,-42.480,-40.527,0.000
1709299313.937,-15.137,-33.203,-37.109,-34.668,0.000
1709299313.941,-5.859,-35.645,-30.762,-24.902,0.000
1709299313.945,-2.930,-43.457,-32.715,-14.648,0.000
1709299313.948,-13.184,-34.668,-36.621,-14.648,0.000
1709299313.952,-32.715,-30.273,-33.203,-35.156,0.000
1709299313.956,-31.738,-37.109,-27.832,-31.738,0.000
1709299313.960,-16.602,-38.086,-23.926,-6.348,0.000
1709299313.964,-11.230,-37.109,-25.879,-6.836,0.000
1709299313.968,-19.531,-37.109,-29.785,-21.484,0.000
1709299313.972,-28.809,-41.992,-25.391,-23.438,0.000
1709299313.976,-37.109,-34.668,-22.461,-24.902,0.000
1709299313.980,-31.250,-29.785,-28.320,-21.484,0.000
1709299313.984,-24.414,-33.203,-31.250,-17.578,0.000
1709299313.987,-38.574,-39.551,-28.320,-31.738,0.000
1709299313.991,-54.199,-40.527,-39.062,-37.598,0.000
1709299313.995,-60.547,-45.410,-38.086,-42.969,0.000
1709299313.999,-53.711,-50.293,-25.879,-42.480,0.000
1709299314.003,-48.828,-45.410,-26.855,-30.273,0.000
1709299314.007,-57.617,-50.781,-36.621,-41.504,0.000
1709299314.011,-57.129,-45.898,-42.480,-54.688,0.000
1709299314.015,-58.105,-45.898,-40.527,-54.688,0.000
1709299314.019,-56.152,-49.316,-34.668,-45.410,0.000
1709299314.023,-47.852,-38.574,-33.203,-33.691,0.000
1709299314.027,-46.387,-42.969,-34.668,-38.574,0.000
1709299314.031,-48.828,-47.852,-35.156,-47.852,0.000
1709299314.035,-51.270,-45.410,-36.133,-45.898,0.000
1709299314.038,-52.246,-48.340,-40.527,-44.922,0.000
1709299314.042,-49.805,-48.340,-50.781,-46.387,0.000
1709299314.046,-40.527,-47.363,-45.410,-46.387,0.000
1709299314.050,-37.109,-53.711,-30.762,-52.734,0.000
1709299314.054,-41.504,-46.387,-35.156,-58.594,0.000
1709299314.058,-43.945,-32.715,-42.969,-58.594,0.000
1709299314.062,-41.504,-32.715,-35.156,-55.176,0.000
1709299314.066,-42.480,-35.645,-36.133,-55.176,0.000
1709299314.069,-45.410,-50.781,-44.922,-58.594,0.000
1709299314.073,-44.922,-48.828,-34.668,-54.199,0.000
1709299314.077,-44.434,-40.527,-27.832,-49.316,0.000
1709299314.081,-41.504,-49.316,-30.273,-47.363,0.000
1709299314.085,-42.480,-49.805,-30.273,-45.410,0.000
1709299314.089,-47.363,-46.875,-32.227,-46.387,0.000
1709299314.093,-55.176,-49.316,-33.203,-45.410,0.000
1709299314.097,-55.176,-59.570,-35.156,-31.738,0.000
1709299314.101,-45.898,-52.734,-38.574,-31.738,0.000
1709299314.105,-46.387,-41.992,-34.180,-39.062,0.000
1709299314.109,-52.734,-37.109,-28.320,-40.527,0.000
1709299314.113,-54.199,-28.320,-33.691,-49.805,0.000
1709299314.117,-54.688,-23.438,-39.551,-59.082,0.000
1709299314.120,-43.457,-26.367,-38.574,-48.828,0.000
1709299314.124,-33.203,-23.438,-39.551,-42.480,0.000
1709299314.128,-33.691,-3.418,-41.016,-46.875,0.000
1709299314.132,-45.898,4.395,-49.316,-57.129,0.000
1709299314.136,-60.059,1.465,-55.176,-68.848,0.000
1709299314.140,-44.922,5.859,-48.340,-54.199,0.000
1709299314.144,-32.227,11.230,-53.223,-50.293,0.000
1709299314.148,-39.551,11.230,-57.617,-71.289,0.000
1709299314.152,-50.781,5.371,-56.641,-74.219,0.000
1709299314.156,-54.199,12.207,-63.965,-78.613,0.000
1709299314.160,-42.969,16.602,-64.453,-78.125,0.000
1709299314.163,-39.551,9.766,-62.988,-66.406,0.000
1709299314.167,-42.969,21.484,-73.730,-79.590,0.000
1709299314.171,-48.828,28.809,-82.031,-92.773,0.000
1709299314.175,-48.340,21.973,-78.125,-91.797,0.000
1709299314.179,-40.039,28.320,-74.707,-87.402,0.000
1709299314.183,-39.062,31.250,-77.148,-82.520,0.000
1709299314.187,-32.715,34.668,-78.613,-73.730,0.000
1709299314.191,-29.785,38.086,-76.660,-83.984,0.000
1709299314.195,-41.016,32.227,-83.496,-97.168,0.000
1709299314.199,-37.598,18.066,-84.473,-79.590,0.000
1709299314.203,-23.438,34.668,-75.684,-60.547,0.000
1709299314.206,-28.320,59.082,-86.914,-76.660,0.000
1709299314.210,-36.621,59.082,-94.238,-87.891,0.000
1709299314.214,-32.227,42.969,-82.031,-84.473,0.000
1709299314.218,-28.809,39.062,-78.613,-81.543,0.000
1709299314.222,-20.020,47.363,-82.031,-69.824,0.000
1709299314.226,-11.719,38.086,-83.496,-60.059,0.000
1709299314.230,-15.625,35.645,-88.867,-50.781,0.000
1709299314.234,-10.254,41.992,-88.379,-50.781,0.000
1709299314.238,2.930,43.945,-83.496,-41.016,0.000
1709299314.242,21.973,30.762,-89.844,-8.301,0.000
1709299314.246,18.555,31.738,-92.773,-13.184,0.000
1709299314.249,12.207,45.898,-84.473,-38.086,0.000
1709299314.253,12.207,43.457,-85.449,-42.969,0.000
1709299314.257,10.742,36.621,-89.355,-41.016,0.000
1709299314.261,28.320,37.598,-85.449,-21.973,0.000
1709299314.265,42.480,22.949,-80.078,-8.789,0.000
1709299314.269,41.016,27.832,-81.543,-13.672,0.000
1709299314.273,48.828,31.738,-82.520,1.953,0.000
1709299314.277,42.480,10.254,-86.426,10.742,0.000
1709299314.281,30.273,18.066,-85.449,-5.859,0.000
1709299314.285,39.062,43.945,-72.266,0.488,0.000
1709299314.288,38.086,52.246,-67.383,3.418,0.000
1709299314.292,20.508,18.555,-70.801,-13.184,0.000
1709299314.296,14.648,3.418,-77.637,-7.324,0.000
1709299314.300,29.785,18.066,-82.031,2.441,0.000
1709299314.304,41.992,9.766,-71.777,2.930,0.000
1709299314.308,29.785,12.207,-74.707,-3.418,0.000
1709299314.312,11.719,15.137,-78.125,-5.371,0.000
1709299314.316,11.719,-3.418,-68.848,-4.395,0.000
1709299314.320,24.414,-12.695,-66.406,9.277,0.000
1709299314.324,25.879,11.230,-66.406,13.184,0.000
1709299314.327,15.625,20.996,-58.594,-8.301,0.000
1709299314.331,6.348,13.672,-57.129,-18.555,0.000
1709299314.335,1.953,3.906,-62.012,-22.461,0.000
1709299314.339,6.836,-1.953,-59.570,-13.184,0.000
1709299314.343,18.066,12.695,-56.641,1.953,0.000
1709299314.347,15.625,8.789,-56.152,0.977,0.000
1709299314.351,5.859,0.000,-54.199,-6.348,0.000
1709299314.355,-0.488,8.301,-50.781,-13.184,0.000
1709299314.359,1.953,3.418,-50.293,-9.277,0.000
1709299314.362,8.301,-12.695,-53.223,-0.977,0.000
1709299314.366,13.184,-19.043,-41.016,14.648,0.000
1709299314.370,-0.977,0.488,-39.551,-4.883,0.000
1709299314.374,-19.043,-0.488,-46.387,-33.691,0.000
1709299314.378,-10.254,-8.301,-38.574,-28.320,0.000
1709299314.382,-0.488,-10.254,-38.086,-10.254,0.000
1709299314.386,5.371,-9.766,-40.039,-3.418,0.000
1709299314.390,0.000,-7.324,-42.969,-20.020,0.000
1709299314.394,-16.113,-3.906,-46.875,-34.668,0.000
1709299314.397,-12.695,2.441,-42.480,-23.438,0.000
1709299314.401,-3.418,-0.977,-39.062,-15.625,0.000
1709299314.405,-6.836,-2.441,-48.828,-28.320,0.000
1709299314.409,-12.695,2.930,-45.898,-29.297,0.000
1709299314.413,-21.484,-9.277,-42.480,-24.414,0.000
1709299314.417,-24.414,-0.488,-44.922,-31.250,0.000
1709299314.421,-1.953,10.254,-32.715,-25.879,0.000
1709299314.425,7.324,-21.484,-35.645,-20.020,0.000
1709299314.429,-20.996,-14.648,-52.246,-35.156,0.000
1709299314.432,-37.598,11.230,-48.340,-46.875,0.000
1709299314.436,-41.504,3.906,-44.434,-47.363,0.000
1709299314.440,-36.621,-7.812,-42.969,-46.387,0.000
1709299314.444,-24.902,-14.648,-34.180,-31.738,0.000
1709299314.448,-30.762,-13.672,-35.645,-26.367,0.000
1709299314.452,-45.898,-17.090,-41.016,-33.691,0.000
1709299314.456,-44.434,-22.461,-27.832,-28.809,0.000
1709299314.460,-35.156,-19.043,-23.926,-24.414,0.000
1709299314.464,-25.391,-20.020,-28.809,-13.184,0.000
1709299314.468,-31.250,-27.832,-28.320,-14.648,0.000
1709299314.471,-45.410,-23.438,-26.855,-27.832,0.000
1709299314.475,-48.828,-20.020,-27.344,-31.738,0.000
1709299314.479,-54.199,-19.043,-31.738,-32.227,0.000
1709299314.483,-53.711,-18.555,-29.785,-16.602,0.000
1709299314.487,-50.781,-27.832,-28.320,-18.066,0.000
1709299314.491,-58.105,-28.320,-27.344,-39.062,0.000
1709299314.495,-66.895,-31.738,-28.320,-36.621,0.000
1709299314.499,-58.594,-40.527,-34.180,-19.043,0.000
1709299314.502,-47.363,-35.156,-37.109,-29.785,0.000
1709299314.506,-46.387,-24.414,-31.250,-37.598,0.000
1709299314.510,-51.758,-28.320,-29.297,-27.832,0.000
1709299314.514,-51.270,-36.621,-33.203,-27.832,0.000
1709299314.518,-40.039,-29.297,-28.809,-34.180,0.000
1709299314.522,-32.227,-24.414,-28.320,-28.320,0.000
1709299314.526,-26.855,-21.973,-28.320,-23.438,0.000
1709299314.530,-29.785,-26.855,-25.879,-31.250,0.000
1709299314.534,-40.039,-29.785,-30.273,-28.320,0.000
1709299314.538,-34.668,-22.949,-33.691,-19.043,0.000
1709299314.542,-23.926,-22.949,-32.227,-19.043,0.000
1709299314.546,-20.020,-42.480,-27.344,-18.555,0.000
1709299314.549,-32.227,-35.645,-29.297,-34.668,0.000
1709299314.553,-40.039,-25.879,-37.598,-51.270,0.000
1709299314.557,-34.668,-32.715,-38.574,-41.992,0.000
1709299314.561,-26.855,-25.879,-42.480,-28.809,0.000
1709299314.565,-16.602,-15.137,-42.969,-24.414,0.000
1709299314.569,-20.020,-18.066,-36.133,-32.227,0.000
1709299314.573,-31.250,-18.066,-40.039,-55.664,0.000
1709299314.577,-33.203,-22.949,-38.574,-53.711,0.000
1709299314.581,-26.367,-22.949,-31.250,-41.016,0.000
1709299314.585,-19.531,-23.438,-31.250,-28.809,0.000
1709299314.589,-26.367,-25.879,-34.180,-35.156,0.000
1709299314.592,-41.992,-22.461,-32.715,-49.316,0.000
1709299314.596,-47.852,-21.973,-31.250,-40.039,0.000
1709299314.600,-43.945,-24.414,-32.227,-31.250,0.000
1709299314.604,-34.180,-28.809,-23.438,-26.367,0.000
1709299314.608,-34.668,-28.809,-24.414,-22.949,0.000
1709299314.612,-49.316,-25.879,-32.715,-37.598,0.000
1709299314.616,-57.129,-16.113,-32.227,-50.781,0.000
1709299314.620,-36.621,-25.879,-34.668,-30.762,0.000
1709299314.624,-29.785,-52.246,-29.297,-16.602,0.000
1709299314.628,-39.551,-32.227,-24.902,-26.367,0.000
1709299314.631,-45.898,-12.207,-30.762,-30.762,0.000
1709299314.635,-44.434,-21.973,-28.320,-37.109,0.000
1709299314.639,-34.668,-24.902,-30.762,-41.016,0.000
1709299314.643,-25.391,-23.926,-36.133,-32.715,0.000
1709299314.647,-25.391,-28.320,-30.762,-32.227,0.000
1709299314.651,-36.621,-31.738,-27.344,-35.156,0.000
1709299314.655,-38.574,-32.715,-27.344,-38.086,0.000
1709299314.659,-34.180,-25.879,-27.832,-41.992,0.000
1709299314.663,-21.484,-29.297,-23.926,-28.809,0.000
1709299314.667,-17.578,-35.645,-35.156,-19.531,0.000
1709299314.670,-35.156,-31.250,-33.691,-34.668,0.000
1709299314.674,-43.945,-25.879,-26.855,-42.480,0.000
1709299314.678,-39.551,-11.719,-32.715,-34.180,0.000
1709299314.682,-29.297,-7.324,-38.086,-29.785,0.000
1709299314.686,-29.785,-16.113,-41.992,-29.785,0.000
1709299314.690,-37.598,-28.809,-34.668,-41.504,0.000
1709299314.694,-48.340,-34.180,-27.832,-45.410,0.000
1709299314.698,-51.270,-23.926,-25.391,-42.480,0.000
1709299314.702,-36.133,-29.785,-27.344,-42.480,0.000
1709299314.706,-30.273,-45.410,-33.691,-37.109,0.000
1709299314.710,-45.898,-35.156,-30.273,-45.410,0.000
1709299314.714,-54.199,-17.578,-27.344,-49.805,0.000
1709299314.718,-42.480,-15.625,-27.344,-36.621,0.000
1709299314.722,-37.109,-21.484,-25.879,-31.250,0.000
1709299314.725,-37.109,-41.016,-25.879,-32.227,0.000
1709299314.729,-39.551,-52.246,-22.461,-32.227,0.000
1709299314.733,-53.711,-43.945,-22.949,-39.062,0.000
1709299314.737,-58.105,-36.133,-26.855,-42.480,0.000
1709299314.741,-47.363,-27.344,-30.273,-25.391,0.000
1709299314.745,-36.133,-23.926,-29.297,-16.602,0.000
1709299314.749,-33.203,-26.367,-31.250,-25.391,0.000
1709299314.753,-37.109,-26.855,-24.414,-27.832,0.000
1709299314.757,-40.039,-31.250,-21.484,-20.996,0.000
1709299314.760,-36.133,-35.645,-28.809,-18.555,0.000
1709299314.764,-27.832,-22.461,-20.508,-18.555,0.000
1709299314.768,-37.109,-18.066,-21.973,-25.879,0.000
1709299314.772,-57.617,-31.738,-27.344,-37.598,0.000
1709299314.776,-69.824,-36.621,-21.484,-35.645,0.000
1709299314.780,-62.500,-42.480,-22.461,-30.273,0.000
1709299314.784,-54.199,-52.246,-22.949,-31.738,0.000
1709299314.788,-58.105,-51.270,-19.043,-39.551,0.000
1709299314.792,-63.477,-47.852,-17.090,-41.992,0.000
1709299314.796,-63.477,-54.688,-22.461,-50.293,0.000
1709299314.800,-56.641,-51.270,-22.949,-42.969,0.000
1709299314.803,-44.922,-48.340,-23.438,-30.762,0.000
1709299314.808,-44.922,-64.941,-33.691,-45.898,0.000
1709299314.811,-53.223,-61.523,-37.598,-55.664,0.000
1709299314.815,-50.293,-48.340,-36.133,-50.781,0.000
1709299314.819,-45.898,-43.457,-38.086,-44.434,0.000
1709299314.823,-36.133,-28.320,-47.852,-39.062,0.000
1709299314.827,-26.367,-23.438,-47.852,-31.738,0.000
1709299314.831,-33.203,-29.297,-42.480,-26.855,0.000
1709299314.835,-38.574,-40.039,-43.945,-33.203,0.000
1709299314.839,-43.945,-49.805,-45.410,-37.109,0.000
1709299314.843,-35.156,-41.504,-48.828,-32.715,0.000
1709299314.847,-24.414,-32.227,-51.270,-26.855,0.000
1709299314.851,-41.504,-40.527,-50.781,-38.086,0.000
1709299314.854,-51.270,-47.852,-44.922,-47.852,0.000
1709299314.858,-37.109,-47.852,-41.504,-36.133,0.000
1709299314.862,-26.367,-50.781,-39.062,-32.227,0.000
1709299314.866,-26.855,-53.711,-37.109,-34.668,0.000
1709299314.870,-28.809,-50.781,-31.738,-34.180,0.000
1709299314.874,-40.527,-46.387,-31.250,-36.621,0.000
1709299314.878,-46.387,-40.039,-33.691,-40.039,0.000
1709299314.881,-27.832,-29.785,-31.250,-32.227,0.000
1709299314.885,-16.113,-29.785,-31.250,-22.461,0.000
1709299314.889,-29.785,-39.551,-29.785,-15.625,0.000
1709299314.893,-37.598,-36.133,-24.902,-22.461,0.000
1709299314.897,-40.039,-41.016,-30.762,-41.016,0.000
1709299314.901,-30.273,-44.434,-34.180,-23.438,0.000
1709299314.905,-19.043,-31.738,-28.809,-6.836,0.000
1709299314.909,-32.715,-35.156,-32.715,-21.484,0.000
1709299314.913,-49.805,-47.852,-45.898,-40.039,0.000
1709299314.917,-57.129,-41.504,-36.621,-41.504,0.000
1709299314.921,-42.480,-55.176,-20.020,-30.762,0.000
1709299314.925,-31.738,-47.852,-25.879,-26.367,0.000
1709299314.928,-45.410,-18.066,-30.273,-43.945,0.000
1709299314.932,-55.664,-23.926,-25.879,-62.988,0.000
1709299314.936,-50.781,-43.945,-30.762,-54.199,0.000
1709299314.940,-36.133,-58.594,-29.785,-45.410,0.000
1709299314.944,-38.086,-50.781,-29.297,-54.199,0.000
1709299314.948,-48.828,-33.691,-35.156,-64.453,0.000
1709299314.952,-51.758,-36.621,-36.133,-69.824,0.000
1709299314.956,-49.316,-47.852,-36.621,-64.941,0.000
1709299314.960,-37.109,-55.664,-35.645,-59.570,0.000
1709299314.964,-26.367,-41.992,-32.715,-52.734,0.000
1709299314.968,-31.250,-39.551,-27.344,-46.387,0.000
1709299314.971,-42.969,-46.387,-22.949,-57.129,0.000
1709299314.975,-47.363,-29.297,-27.344,-58.105,0.000
1709299314.979,-40.527,-21.973,-29.785,-41.504,0.000
1709299314.983,-28.320,-24.414,-32.715,-29.297,0.000
1709299314.987,-20.996,-28.809,-30.273,-29.297,0.000
1709299314.991,-32.715,-38.574,-25.879,-38.086,0.000
1709299314.995,-44.434,-34.180,-25.879,-49.805,0.000
1709299314.999,-42.969,-26.367,-24.902,-48.340,0.000
1709299315.003,-34.668,-23.926,-20.020,-41.016,0.000
1709299315.007,-29.297,-26.367,-17.578,-37.109,0.000
1709299315.010,-40.527,-45.898,-18.066,-47.852,0.000
1709299315.014,-55.664,-52.734,-18.066,-51.758,0.000
1709299315.018,-54.199,-54.199,-18.555,-42.480,0.000
1709299315.022,-32.227,-69.824,-15.137,-35.645,0.000
1709299315.026,-23.926,-55.176,-12.695,-22.949,0.000
1709299315.030,-48.828,-29.297,-21.973,-36.621,0.000
1709299315.034,-60.547,-28.809,-25.391,-51.270,0.000
1709299315.038,-43.945,-30.762,-15.625,-36.133,0.000
1709299315.042,-23.926,-37.598,-14.160,-20.996,0.000
1709299315.046,-18.555,-51.270,-17.090,-25.391,0.000
1709299315.049,-24.414,-44.434,-21.484,-36.621,0.000
1709299315.053,-34.668,-42.480,-22.461,-41.992,0.000
1709299315.057,-39.062,-44.922,-18.555,-33.691,0.000
1709299315.061,-32.715,-38.086,-26.367,-25.391,0.000
1709299315.065,-29.297,-35.645,-33.203,-27.344,0.000
1709299315.069,-35.156,-36.133,-20.508,-26.855,0.000
1709299315.073,-46.387,-47.852,-12.207,-34.180,0.000
1709299315.077,-47.852,-55.664,-14.648,-38.086,0.000
1709299315.081,-46.387,-52.246,-19.043,-31.250,0.000
1709299315.085,-36.133,-52.734,-23.438,-32.227,0.000
1709299315.089,-35.156,-41.992,0.000,0.000,0.000
1709299315.092,-44.922,-37.109,0.000,0.000,0.000
1709299315.096,-46.875,-37.109,0.000,0.000,0.000
1709299315.100,-42.969,-43.945,0.000,0.000,0.000
1709299315.104,-34.668,-65.918,0.000,0.000,0.000
1709299315.108,-36.133,-73.242,0.000,0.000,0.000
1709299315.112,-46.875,-52.246,0.000,0.000,0.000
1709299315.116,-50.293,-37.109,0.000,0.000,0.000
1709299315.120,-54.199,-43.945,0.000,0.000,0.000
1709299315.124,-44.922,-39.551,0.000,0.000,0.000
1709299315.128,-39.551,-37.109,0.000,0.000,0.000
1709299315.132,-42.969,-44.434,0.000,0.000,0.000
1709299315.135,-47.363,-45.898,-23.926,-52.246,0.000
1709299315.139,-45.898,-44.434,-32.715,-48.340,0.000
1709299315.143,-40.527,-35.156,-30.273,-28.809,0.000
1709299315.147,-37.598,-31.738,-17.578,-27.832,0.000
1709299315.151,-45.410,-34.668,-13.672,-38.086,0.000
1709299315.155,-50.781,-38.086,-17.090,-40.039,0.000
1709299315.159,-45.898,-47.852,-20.996,-31.250,0.000
1709299315.163,-44.922,-44.922,-25.879,-29.785,0.000
1709299315.167,-42.480,-36.621,-20.020,-30.273,0.000
1709299315.170,-38.086,-43.457,-18.066,-28.320,0.000
1709299315.174,-47.363,-63.965,-23.926,-44.434,0.000
1709299315.178,-57.129,-58.594,-28.320,-50.293,0.000
1709299315.182,-55.176,-45.410,-31.738,-39.551,0.000
1709299315.186,-48.828,-43.457,-27.344,-38.086,0.000
1709299315.190,-52.734,-47.852,-23.438,-44.434,0.000
1709299315.194,-56.152,-55.176,-23.926,-44.922,0.000
1709299315.198,-50.781,-36.133,-20.020,-36.621,0.000
1709299315.202,-41.992,-25.879,-20.508,-24.414,0.000
1709299315.205,-33.203,-41.016,-23.926,-9.277,0.000
1709299315.209,-37.598,-41.016,-20.996,-17.578,0.000
1709299315.213,-51.270,-28.320,-21.973,-36.621,0.000
1709299315.217,-55.176,-33.691,-28.809,-40.039,0.000
1709299315.221,-50.293,-44.922,-36.621,-39.062,0.000
1709299315.225,-52.734,-42.969,-36.621,-42.480,0.000
1709299315.229,-57.129,-40.527,-27.832,-47.852,0.000
1709299315.233,-66.406,-40.527,-23.438,-49.316,0.000
1709299315.237,-71.289,-37.598,-29.297,-52.246,0.000
1709299315.241,-62.500,-40.039,-33.691,-50.781,0.000
1709299315.245,-52.734,-50.293,-30.273,-33.691,0.000
1709299315.249,-50.293,-46.875,-29.785,-32.227,0.000
1709299315.252,-53.223,-36.133,-31.738,-45.898,0.000
1709299315.256,-51.270,-43.457,-30.762,-41.504,0.000
1709299315.260,-38.086,-39.062,-32.227,-23.926,0.000
1709299315.264,-26.855,-32.227,-32.715,-7.812,0.000
1709299315.268,-30.273,-42.480,-28.809,-13.672,0.000
1709299315.272,-34.668,-46.387,-27.832,-24.902,0.000
1709299315.276,-33.691,-46.875,-30.273,-28.320,0.000
1709299315.280,-29.785,-34.668,-25.879,-30.273,0.000
1709299315.284,-25.879,-24.902,-26.367,-30.273,0.000
1709299315.288,-29.785,-27.832,-29.297,-30.762,0.000
1709299315.292,-33.203,-38.574,-23.926,-32.715,0.000
1709299315.296,-41.016,-49.805,-21.484,-39.551,0.000
1709299315.299,-43.945,-58.105,-25.879,-44.922,0.000
1709299315.303,-35.156,-39.551,-31.738,-38.574,0.000
1709299315.307,-38.086,-21.484,-34.180,-32.227,0.000
1709299315.311,-44.922,-30.762,-31.738,-45.898,0.000
1709299315.315,-45.898,-39.551,-28.809,-58.594,0.000
1709299315.319,-46.875,-43.457,-27.832,-50.781,0.000
1709299315.323,0.000,-34.668,-29.297,-46.387,0.000
1709299315.327,0.000,-27.832,-25.879,-46.387,0.000
1709299315.331,0.000,-33.203,-25.879,-51.758,0.000
1709299315.335,0.000,-40.527,-33.203,-58.105,0.000
1709299315.339,0.000,-40.039,-31.738,-52.246,0.000
1709299315.343,0.000,-48.828,-28.320,-44.434,0.000
1709299315.347,0.000,-53.711,-34.180,-38.574,0.000
1709299315.351,0.000,-47.363,-32.227,-46.387,0.000
1709299315.355,0.000,-53.711,-29.297,-53.223,0.000
1709299315.359,0.000,-47.363,-28.809,-33.691,0.000
1709299315.362,0.000,-33.691,-26.367,-23.438,0.000
1709299315.366,0.000,-44.922,-21.973,-27.344,0.000
1709299315.370,-39.062,-39.062,-20.020,-31.738,0.000
1709299315.373,-37.109,-19.043,-25.391,-40.039,0.000
1709299315.377,-46.387,-35.645,-30.762,-37.109,0.000
1709299315.381,-51.758,-46.387,-28.809,-23.438,0.000
1709299315.385,-52.734,-30.762,-28.320,-18.555,0.000
1709299315.389,-45.898,-23.926,-39.062,-29.785,0.000
1709299315.393,-41.992,-31.250,-48.828,-34.180,0.000
1709299315.397,-47.852,-41.016,-39.551,-35.645,0.000
1709299315.401,-51.758,-50.781,-31.250,-31.738,0.000
1709299315.405,-45.410,-43.457,-36.133,-32.227,0.000
1709299315.409,-36.621,-30.273,-28.809,-38.574,0.000
1709299315.413,-26.367,-31.738,-22.949,-37.598,0.000
1709299315.416,-35.645,-39.062,-25.879,-28.320,0.000
1709299315.420,-28.809,-34.668,-21.973,-28.809,0.000
1709299315.424,-25.391,-33.203,-26.367,-28.809,0.000
1709299315.428,-19.043,-41.016,-23.926,-20.508,0.000
1709299315.432,-14.160,-37.598,-16.113,-6.348,0.000
1709299315.436,-20.020,-33.691,-19.531,-13.672,0.000
1709299315.440,-22.949,-43.945,-28.320,-23.438,0.000
1709299315.444,-10.254,-55.664,-26.855,-9.766,0.000
1709299315.448,-16.113,-58.105,-26.855,-14.648,0.000
1709299315.452,-28.809,-49.316,-30.762,-41.504,0.000
1709299315.455,-39.062,-41.504,-22.949,-42.969,0.000
1709299315.459,-41.504,-35.645,-20.020,-30.762,0.000
1709299315.463,-36.133,-34.668,-24.414,-38.574,0.000
1709299315.467,-48.828,-50.781,-30.273,-50.781,0.000
1709299315.471,-57.129,-50.293,-26.367,-51.758,0.000
1709299315.475,-58.105,-36.621,-22.949,-44.434,0.000
1709299315.479,-52.734,-44.922,-20.996,-32.715,0.000
1709299315.483,-34.180,-54.688,-19.531,-22.949,0.000
1709299315.487,-37.109,-43.945,-23.926,-32.715,0.000
1709299315.490,-49.316,-42.969,-24.902,-41.992,0.000
1709299315.494,-52.734,-36.621,-23.926,-42.969,0.000
1709299315.498,-49.316,-30.273,-23.438,-41.504,0.000
1709299315.502,-31.738,-41.016,-26.367,-29.297,0.000
1709299315.506,-22.949,-45.410,-25.879,-27.832,0.000
1709299315.510,-29.297,-41.016,-26.855,-34.668,0.000
1709299315.514,-34.180,-42.969,-30.273,-35.156,0.000
1709299315.518,-27.344,-42.969,-32.227,-28.809,0.000
1709299315.522,-22.461,-32.227,-33.203,-19.531,0.000
1709299315.525,-34.180,-26.367,-41.016,-23.926,0.000
1709299315.529,-45.410,-41.992,-38.086,-30.273,0.000
1709299315.533,-49.316,-42.969,-32.715,-36.621,0.000
1709299315.537,-58.594,-34.668,-33.203,-37.598,0.000
1709299315.541,-47.852,-37.109,-30.762,-30.762,0.000
1709299315.545,-39.551,-42.480,-28.809,-31.250,0.000
1709299315.549,-46.387,-53.711,-28.320,-33.691,0.000
1709299315.553,-49.316,-43.945,-22.461,-38.086,0.000
1709299315.557,-59.570,-35.156,-20.020,-38.086,0.000
1709299315.560,-55.664,-41.992,-23.438,-30.273,0.000
1709299315.564,-50.293,-47.363,-19.043,-29.785,0.000
1709299315.568,-59.570,-52.734,-18.555,-33.203,0.000
1709299315.572,-60.547,-54.688,-16.602,-35.645,0.000
1709299315.576,-68.848,-50.781,-20.508,-46.387,0.000
1709299315.580,-64.941,-51.270,-21.973,-35.645,0.000
1709299315.584,-49.316,-52.734,-22.949,-28.320,0.000
1709299315.588,-43.457,-66.895,-30.762,-34.180,0.000
1709299315.592,-51.758,-62.500,-28.809,-46.387,0.000
1709299315.596,-44.434,-40.039,-20.020,-52.246,0.000
1709299315.599,-28.809,-30.762,-20.020,-41.016,0.000
1709299315.603,-24.902,-34.180,-21.484,-40.527,0.000
1709299315.607,-27.832,-40.039,-21.484,-36.133,0.000
1709299315.611,-33.691,-43.945,-25.879,-37.598,0.000
1709299315.615,-41.992,-42.969,-31.250,-47.363,0.000
1709299315.619,-38.086,-38.086,-33.203,-38.574,0.000
1709299315.623,-20.996,-34.180,-35.645,-25.879,0.000
1709299315.627,-23.438,-29.297,-36.133,-33.203,0.000
1709299315.631,-33.691,-36.621,-35.156,-41.992,0.000
1709299315.634,-36.133,-37.109,-35.156,-41.016,0.000
1709299315.638,-36.133,-33.691,-35.156,-31.250,0.000
1709299315.642,-28.320,-42.480,-38.574,-29.785,0.000
1709299315.646,-30.762,-41.504,-36.621,-41.992,0.000
1709299315.650,-42.969,-35.645,-37.598,-56.641,0.000
1709299315.654,-52.246,-46.875,-44.922,-64.941,0.000
1709299315.658,-46.387,-39.062,-39.551,-54.688,0.000
1709299315.662,-36.621,-23.926,-31.250,-47.363,0.000
1709299315.666,-36.133,-36.621,-34.668,-46.875,0.000
1709299315.670,-43.457,-49.316,-32.715,-49.316,0.000
1709299315.674,-55.176,-37.109,-31.738,-60.547,0.000
1709299315.678,-47.363,-31.250,-32.715,-55.176,0.000
1709299315.681,-34.180,-48.340,-30.762,-29.297,0.000
1709299315.685,-38.574,-49.316,-27.344,-25.391,0.000
1709299315.689,-46.875,-39.551,-24.414,-43.945,0.000
1709299315.693,-51.758,-39.062,-25.879,-55.176,0.000
1709299315.697,-51.758,-36.621,-28.320,-57.617,0.000
1709299315.701,-41.992,-39.551,-33.691,-50.781,0.000
1709299315.705,-37.109,-50.293,-31.738,-46.875,0.000
1709299315.709,-36.621,-47.363,-35.156,-47.363,0.000
1709299315.713,-38.574,-42.480,-36.621,-50.293,0.000
1709299315.717,-49.805,-44.922,-28.809,-51.758,0.000
1709299315.721,-44.922,-45.410,-24.414,-39.551,0.000
1709299315.724,-26.367,-44.922,-23.926,-25.391,0.000
1709299315.728,-29.297,-43.945,-22.461,-32.715,0.000
1709299315.732,-39.551,-41.992,-24.902,-42.969,0.000
1709299315.736,-44.922,-60.059,-29.297,-48.340,0.000
1709299315.740,-43.945,-60.547,-28.809,-41.016,0.000
1709299315.744,-36.621,-32.715,-32.715,-26.367,0.000
1709299315.748,-42.969,-28.809,-28.320,-37.598,0.000
1709299315.752,-50.781,-33.203,-21.973,-55.176,0.000
1709299315.756,-45.410,-35.645,-21.973,-46.387,0.000
1709299315.760,-32.715,-41.016,-27.344,-41.504,0.000
1709299315.764,-28.320,-46.387,-28.320,-46.875,0.000
1709299315.767,-32.227,-44.922,-25.879,-47.363,0.000
1709299315.771,-34.180,-40.039,-23.926,-44.434,0.000
1709299315.775,-38.574,-37.109,-25.879,-32.715,0.000
1709299315.779,-43.457,-35.645,-39.551,-35.645,0.000
1709299315.783,-39.551,-37.598,-36.133,-43.945,0.000
1709299315.787,-33.203,-36.133,-29.297,-30.762,0.000
1709299315.791,-40.039,-34.668,-28.809,-34.180,0.000
1709299315.795,-44.434,-41.016,-26.855,-44.922,0.000
1709299315.799,-33.691,-41.504,-23.438,-32.227,0.000
1709299315.803,-26.855,-38.086,-21.484,-29.785,0.000
1709299315.806,-23.438,-47.852,-13.184,-32.227,0.000
1709299315.810,-31.738,-53.711,-15.625,-35.645,0.000
1709299315.814,-40.527,-43.945,-25.391,-41.992,0.000
1709299315.818,-33.203,-31.738,-20.996,-31.738,0.000
1709299315.822,-23.438,-31.738,-18.555,-13.184,0.000
1709299315.826,-16.113,-40.039,-17.090,-16.113,0.000
1709299315.830,-29.297,-45.898,-19.043,-35.645,0.000
1709299315.834,-30.273,-42.480,-19.531,-38.086,0.000
1709299315.838,-20.996,-64.453,-14.648,-20.508,0.000
1709299315.842,-21.973,-55.664,-33.203,-19.531,0.000
1709299315.845,-26.855,-17.578,-42.969,-34.668,0.000
1709299315.849,-37.109,-21.973,-34.180,-42.480,0.000
1709299315.853,-43.945,-36.133,-40.527,-38.086,0.000
1709299315.857,-42.480,-34.668,-36.621,-36.133,0.000
1709299315.861,-34.668,-25.879,-28.320,-31.738,0.000
1709299315.865,-28.809,-26.855,-23.926,-15.137,0.000
1709299315.869,-39.551,-23.926,-23.926,-27.344,0.000
1709299315.873,-41.992,-33.203,-22.949,-40.527,0.000
1709299315.877,-37.598,-42.480,-19.043,-33.691,0.000
1709299315.881,-41.992,-32.715,-22.949,-34.180,0.000
1709299315.884,-41.992,-36.621,-32.227,-40.527,0.000
1709299315.888,-41.992,-42.969,-30.762,-44.922,0.000
1709299315.892,-52.246,-46.387,-23.438,-54.199,0.000
1709299315.896,-59.570,-41.992,-28.320,-60.547,0.000
1709299315.900,-49.805,-43.457,-30.762,-48.340,0.000
1709299315.904,-30.273,-48.828,-25.391,-45.898,0.000
1709299315.908,-32.227,-42.969,-17.090,-54.688,0.000
1709299315.912,-43.945,-46.387,-9.766,-60.547,0.000
1709299315.916,-45.410,-55.176,-12.695,-58.105,0.000
1709299315.919,-32.227,-56.641,-19.531,-36.621,0.000
1709299315.923,-23.926,-52.246,-23.438,-27.832,0.000
1709299315.927,-39.062,-36.621,-22.461,-46.387,0.000
1709299315.931,-55.176,-28.809,-18.066,-51.758,0.000
1709299315.935,-53.223,-31.738,-13.184,-43.945,0.000
1709299315.939,-47.852,-29.785,-13.672,-25.391,0.000
1709299315.943,-48.340,-41.504,-23.438,-20.020,0.000
1709299315.947,-47.852,-51.270,-24.414,-34.180,0.000
1709299315.951,-46.875,-53.223,-16.602,-35.645,0.000
1709299315.954,-42.969,-63.965,-14.160,-31.250,0.000
1709299315.958,-36.133,-45.898,-20.996,-31.738,0.000
1709299315.962,-31.738,-27.832,-29.785,-19.043,0.000
1709299315.966,-28.320,-39.551,-26.855,-8.789,0.000
1709299315.970,-33.203,-28.809,-24.902,-19.531,0.000
1709299315.974,-39.551,-16.602,-31.738,-37.598,0.000
1709299315.978,-34.668,-28.809,-25.879,-26.367,0.000
1709299315.982,-21.973,-39.062,-20.508,-8.301,0.000
1709299315.986,-28.320,-46.387,-26.367,-24.414,0.000
1709299315.990,-35.645,-53.711,-25.879,-37.109,0.000
1709299315.994,-43.457,-49.316,-31.738,-48.340,0.000
1709299315.998,-52.246,-41.992,-38.574,-63.965,0.000
1709299316.002,-44.434,-37.598,-41.992,-61.035,0.000
1709299316.005,-46.387,-37.109,-41.504,-71.289,0.000
1709299316.009,-50.293,-42.969,-35.645,-80.078,0.000
1709299316.013,-48.340,-42.480,-32.715,-63.965,0.000
1709299316.017,-46.875,-49.805,-35.645,-60.547,0.000
1709299316.021,-35.156,-47.852,-31.738,-53.223,0.000
1709299316.025,-34.668,-26.855,0.000,-50.781,0.000
1709299316.029,-43.945,-27.344,0.000,-64.941,0.000
1709299316.033,-47.363,-44.434,0.000,-56.641,0.000
1709299316.037,-37.598,-44.922,0.000,-40.039,0.000
1709299316.041,-28.809,-35.156,0.000,-41.016,0.000
1709299316.045,-36.621,-38.086,0.000,-45.410,0.000
1709299316.049,-41.016,-36.133,0.000,-38.574,0.000
1709299316.053,-46.387,-39.551,0.000,-38.086,0.000
1709299316.057,-52.246,-36.621,0.000,-37.598,0.000
1709299316.060,-44.922,-41.504,0.000,-6.348,0.000
1709299316.064,-27.344,-64.453,0.000,17.090,0.000
1709299316.068,-31.250,-53.223,0.000,-6.836,0.000
1709299316.072,-45.410,-32.227,-31.250,-27.832,0.000
1709299316.076,-41.016,-33.203,-14.160,-27.344,0.000
1709299316.080,-36.133,-28.809,-19.043,-14.648,0.000
1709299316.084,-38.574,-29.297,-30.273,-10.742,0.000
1709299316.088,-33.203,-37.598,-28.809,-16.113,0.000
1709299316.092,-41.504,-39.062,-28.320,-23.926,0.000
1709299316.096,-58.594,-32.227,-33.203,-29.297,0.000
1709299316.100,-43.945,-45.410,-36.621,-27.344,0.000
1709299316.104,-31.250,-56.152,-28.809,-31.250,0.000
1709299316.107,-46.875,-49.316,-24.414,-30.762,0.000
1709299316.111,-58.105,-35.645,-29.297,-50.293,0.000
1709299316.115,-59.082,-44.922,-32.715,-61.035,0.000
1709299316.119,-53.711,-53.223,-42.480,-48.340,0.000
1709299316.123,-37.109,-47.363,-31.738,-39.062,0.000
1709299316.127,-35.156,-39.551,-17.578,-39.551,0.000
1709299316.131,-47.852,-25.391,-19.531,-43.457,0.000
1709299316.135,-47.363,-40.039,-25.879,-40.039,0.000
1709299316.139,-41.504,-59.082,-34.180,-43.457,0.000
1709299316.143,-41.016,-51.270,-33.691,-47.852,0.000
1709299316.147,-37.598,-53.711,-23.438,-47.363,0.000
1709299316.150,-44.434,-46.875,-24.902,-46.875,0.000
1709299316.154,-61.523,-28.809,-38.086,-60.059,0.000
1709299316.158,-57.617,-27.832,-26.855,-61.035,0.000
1709299316.162,-40.527,-36.621,-12.695,-41.504,0.000
1709299316.166,-41.016,-47.852,-20.996,-37.598,0.000
1709299316.170,-52.734,-51.270,-23.438,-45.898,0.000
1709299316.174,-62.012,-37.109,-24.902,-51.270,0.000
1709299316.178,-54.199,-29.785,-21.973,-46.387,0.000
1709299316.182,-36.133,-31.738,-22.461,-29.785,0.000
1709299316.186,-22.461,-41.016,-20.996,-15.137,0.000
1709299316.189,-23.926,-51.270,-21.484,-15.137,0.000
1709299316.193,-27.832,-34.180,-29.297,-15.625,0.000
1709299316.197,-26.367,-30.273,-28.809,-7.812,0.000
1709299316.201,-17.578,-39.551,-23.438,-3.418,0.000
1709299316.205,-15.625,-32.227,-29.297,2.930,0.000
1709299316.209,-20.508,-24.414,-33.691,-0.488,0.000
1709299316.213,-25.879,-26.367,-34.668,-16.113,0.000
1709299316.217,-28.320,-28.809,-34.668,-21.973,0.000
1709299316.221,-16.602,-29.297,-31.738,-10.742,0.000
1709299316.225,-9.766,-28.809,-34.668,-8.301,0.000
1709299316.228,-17.578,-31.738,-37.109,-21.484,0.000
1709299316.232,-36.621,-36.133,-34.180,-31.250,0.000
1709299316.236,-42.480,-35.645,-37.598,-27.344,0.000
1709299316.240,-34.668,-25.391,-38.086,-16.113,0.000
1709299316.244,-34.668,-21.973,-33.691,-30.273,0.000
1709299316.248,-37.109,-42.480,-34.180,-47.852,0.000
1709299316.252,-41.992,-50.293,-36.621,-49.805,0.000
1709299316.256,-44.434,-31.738,-47.363,-51.270,0.000
1709299316.260,-36.621,-20.020,-47.852,-47.852,0.000
1709299316.263,-30.762,-31.738,-29.785,-38.086,0.000
1709299316.267,-30.762,-49.316,-29.785,-44.922,0.000
1709299316.271,-43.945,-56.641,-34.668,-59.570,0.000
1709299316.275,-50.781,-41.992,-31.250,-62.988,0.000
1709299316.279,-49.805,-36.133,-38.086,-62.988,0.000
1709299316.283,-41.504,-42.480,-40.039,-57.129,0.000
1709299316.287,-36.133,-40.527,-31.738,-44.922,0.000
1709299316.291,-49.316,-41.016,-31.250,-63.477,0.000
1709299316.295,-53.223,-49.316,-27.832,-62.988,0.000
1709299316.299,-47.363,-66.406,-24.902,-29.785,0.000
1709299316.302,-38.574,-48.340,-30.273,-21.973,0.000
1709299316.306,-20.020,-30.762,-24.414,-33.691,0.000
1709299316.310,-27.344,-34.668,-19.531,-37.598,0.000
1709299316.314,-41.016,-43.457,-21.484,-34.668,0.000
1709299316.318,-36.621,-51.270,-29.297,-20.508,0.000
1709299316.322,-26.855,-52.246,-26.855,-9.277,0.000
1709299316.326,-20.508,-46.387,-25.391,-3.906,0.000
1709299316.330,-27.344,-27.832,-32.715,-6.836,0.000
1709299316.334,-34.668,-39.062,-35.645,-12.207,0.000
1709299316.337,-44.922,-56.152,-33.203,-17.578,0.000
1709299316.341,-41.992,-43.945,-33.203,-20.020,0.000
1709299316.345,-30.762,-32.227,-36.621,-14.160,0.000
1709299316.349,-28.320,-34.668,-31.738,-19.043,0.000
1709299316.353,-30.273,-49.316,-29.297,-23.926,0.000
1709299316.357,-32.715,-63.477,-34.668,-19.043,0.000
1709299316.361,-32.715,-41.016,-30.273,-17.090,0.000
1709299316.365,-30.273,-29.297,-34.180,-23.438,0.000
1709299316.368,-31.738,-46.387,-39.062,-34.668,0.000
1709299316.372,-42.969,-43.945,-37.598,-44.922,0.000
1709299316.376,-44.922,-48.828,-38.086,-38.574,0.000
1709299316.380,-37.598,-66.406,-37.598,-35.156,0.000
1709299316.384,-34.180,-40.527,-33.203,-33.203,0.000
1709299316.388,-46.875,-18.066,-27.832,-36.133,0.000
1709299316.392,-59.082,-27.832,-28.809,-54.688,0.000
1709299316.396,-60.547,-43.945,-28.320,-61.035,0.000
1709299316.400,0.000,-61.523,-23.926,-43.457,0.000
1709299316.404,0.000,-55.176,-19.043,-26.855,0.000
1709299316.408,0.000,-49.805,-22.949,-27.832,0.000
1709299316.412,0.000,-49.316,-31.250,-49.316,0.000
1709299316.415,0.000,-33.203,-36.133,-52.734,0.000
1709299316.419,0.000,-39.551,-27.344,-35.645,0.000
1709299316.423,0.000,-42.480,-22.461,-27.344,0.000
1709299316.427,0.000,-30.762,-29.297,-26.855,0.000
1709299316.431,0.000,-42.969,-28.809,-48.340,0.000
1709299316.435,0.000,-54.199,-22.461,-43.945,0.000
1709299316.439,0.000,-39.551,-27.832,-28.320,0.000
1709299316.443,0.000,-33.203,-33.691,-25.879,0.000
1709299316.447,-29.785,-36.133,-36.621,-21.484,0.000
1709299316.451,-36.133,-40.039,-32.715,-36.133,0.000
1709299316.455,-48.340,-60.547,-30.762,-53.223,0.000
1709299316.459,-48.828,-53.711,-40.039,-45.898,0.000
1709299316.462,-33.691,-34.180,-33.691,-25.879,0.000
1709299316.466,-29.785,-51.270,-36.133,-29.297,0.000
1709299316.470,-45.898,-53.711,-44.434,-49.316,0.000
1709299316.474,-49.805,-35.645,-41.992,-52.246,0.000
1709299316.478,-38.086,-30.762,-50.293,-43.945,0.000
1709299316.482,-29.785,-40.527,-51.270,-34.668,0.000
1709299316.486,-20.020,-41.504,-50.293,-28.809,0.000
1709299316.490,-28.809,-31.738,-50.293,-41.504,0.000
1709299316.494,-36.133,-28.320,-48.340,-58.105,0.000
1709299316.498,-36.621,-30.762,-37.598,-59.082,0.000
1709299316.502,-31.738,-37.109,-29.785,-52.734,0.000
1709299316.505,-25.391,-39.062,-37.598,-44.434,0.000
1709299316.509,-30.273,-35.645,-41.016,-45.410,0.000
1709299316.513,-38.086,-47.363,-33.691,-56.152,0.000
1709299316.517,-40.039,-33.203,-21.484,-58.594,0.000
1709299316.521,-31.250,-19.043,-27.344,-49.316,0.000
1709299316.525,-23.926,-33.203,-29.785,-34.668,0.000
1709299316.529,-29.785,-28.320,-24.902,-42.969,0.000
1709299316.533,-37.598,-36.621,-31.250,-41.504,0.000
1709299316.537,-39.062,-44.922,-32.227,-43.457,0.000
1709299316.541,-31.250,-62.500,-29.785,-49.805,0.000
1709299316.544,-28.320,-58.594,-36.621,-39.551,0.000
1709299316.548,-33.203,-41.992,-30.762,-33.691,0.000
1709299316.552,-41.504,-54.199,-27.832,-41.504,0.000
1709299316.556,-45.898,-36.133,-36.621,-44.434,0.000
1709299316.560,-36.133,-18.066,-31.738,-30.762,0.000
1709299316.564,-21.484,-28.320,-36.621,-22.949,0.000
1709299316.568,-21.973,-41.016,-48.340,-21.973,0.000
1709299316.572,-35.645,-29.785,-36.621,-28.809,0.000
1709299316.576,-47.363,-21.484,-34.180,-43.457,0.000
1709299316.580,-46.875,-25.391,-39.551,-29.297,0.000
1709299316.584,-33.203,-37.598,-39.062,-5.371,0.000
1709299316.587,-34.668,-45.410,-33.691,-22.461,0.000
1709299316.591,-56.152,-29.297,-24.902,-54.199,0.000
1709299316.595,-59.570,-19.043,-25.391,-46.875,0.000
1709299316.599,-41.504,-38.574,-22.949,-22.949,0.000
1709299316.603,-33.203,-41.016,-28.320,-16.113,0.000
1709299316.607,-45.410,-18.066,-44.434,-28.320,0.000
1709299316.611,-52.734,-11.230,-38.574,-41.504,0.000
1709299316.615,-59.082,-21.973,-35.645,-42.480,0.000
1709299316.619,-51.758,-28.809,-36.133,-39.062,0.000
1709299316.622,-33.203,-41.016,-27.832,-27.832,0.000
1709299316.626,-30.762,-44.922,-29.297,-25.879,0.000
1709299316.630,-35.645,-23.438,-35.645,-33.203,0.000
1709299316.634,-48.828,-19.531,-38.086,-47.852,0.000
1709299316.638,-46.875,-34.668,-40.039,-42.480,0.000
1709299316.642,-32.715,-30.762,-37.598,-27.344,0.000
1709299316.646,-28.320,-44.922,-32.715,-22.461,0.000
1709299316.650,-37.598,-62.988,-39.551,-23.926,0.000
1709299316.654,-46.387,-34.180,-32.227,-41.016,0.000
1709299316.658,-41.016,-8.301,-24.414,-35.645,0.000
1709299316.661,-35.645,-7.324,-25.391,-17.090,0.000
1709299316.665,-35.156,-13.184,-28.320,-31.738,0.000
1709299316.669,-44.434,-19.531,-28.809,-46.387,0.000
1709299316.673,-52.734,-23.926,-22.949,-42.480,0.000
1709299316.677,-50.781,-23.926,-34.668,-40.527,0.000
1709299316.681,-43.457,-25.391,-35.156,-35.645,0.000
1709299316.685,-21.484,-29.785,-22.949,-18.066,0.000
1709299316.689,-27.832,-35.645,-18.555,-20.508,0.000
1709299316.693,-56.152,-22.461,-23.438,-47.852,0.000
1709299316.696,-57.617,-12.695,-27.344,-51.758,0.000
1709299316.700,-48.828,-23.438,-33.691,-37.598,0.000
1709299316.704,-42.480,-30.273,-31.738,-26.855,0.000
1709299316.708,-43.457,-28.809,-20.508,-31.738,0.000
1709299316.712,-54.199,-27.344,-29.785,-42.969,0.000
1709299316.716,-55.176,-39.551,-41.992,-49.805,0.000
1709299316.720,-55.664,-38.086,-38.574,-47.852,0.000
1709299316.724,-50.293,-16.602,-29.297,-29.785,0.000
1709299316.727,-44.434,-20.508,-23.438,-33.203,0.000
1709299316.731,-45.898,-21.973,-21.973,-48.828,0.000
1709299316.735,-46.875,-14.648,-32.715,-49.316,0.000
1709299316.739,-41.504,-19.531,-40.039,-41.504,0.000
1709299316.743,-35.645,-19.531,-35.645,-30.273,0.000
1709299316.747,-34.180,-26.367,-28.320,-28.320,0.000
1709299316.751,-31.738,-30.273,-26.367,-32.227,0.000
1709299316.755,-20.996,-29.785,-34.180,-26.367,0.000
1709299316.759,-28.320,-20.508,-37.598,-30.273,0.000
1709299316.763,-39.062,-11.230,-33.203,-29.297,0.000
1709299316.766,-38.086,-16.113,-33.691,-27.832,0.000
1709299316.770,-34.668,-25.879,-31.250,-33.691,0.000
1709299316.774,-34.180,-31.250,-24.902,-31.738,0.000
1709299316.778,-33.691,-25.879,-29.785,-24.414,0.000
1709299316.782,-26.855,-0.488,-34.668,-17.578,0.000
1709299316.786,-31.250,0.977,-33.203,-26.367,0.000
1709299316.790,-47.363,-21.484,-36.133,-40.039,0.000
1709299316.794,-61.035,-23.926,-31.250,-41.504,0.000
1709299316.798,-52.734,-23.438,-25.879,-27.832,0.000
1709299316.802,-51.758,-28.809,-40.527,-25.391,0.000
1709299316.806,-54.199,-22.461,-36.621,-32.715,0.000
1709299316.810,-57.617,-28.320,-30.762,-45.898,0.000
1709299316.813,-64.941,-30.273,-36.621,-52.246,0.000
1709299316.817,-54.199,-21.484,-33.691,-41.992,0.000
1709299316.821,-40.527,-29.785,-29.785,-34.180,0.000
1709299316.825,-41.016,-46.875,-38.086,-30.762,0.000
1709299316.829,-54.199,-34.668,-51.270,-42.969,0.000
1709299316.833,-70.312,-6.348,-41.992,-71.777,0.000
1709299316.837,-69.336,-4.883,-31.250,-74.707,0.000
1709299316.841,-57.617,-11.719,-26.367,-53.711,0.000
1709299316.845,-49.805,-15.137,-26.855,-49.805,0.000
1709299316.849,-52.734,-25.391,-27.832,-53.223,0.000
1709299316.853,-62.500,-35.156,-29.297,-59.082,0.000
1709299316.857,-59.570,-27.832,-30.762,-51.270,0.000
1709299316.860,-56.152,-32.715,-30.273,-32.227,0.000
1709299316.864,-45.898,-40.527,-35.645,-21.484,0.000
1709299316.868,-32.715,-26.367,-29.785,-30.273,0.000
1709299316.872,-38.086,-20.996,-32.715,-39.062,0.000
1709299316.876,-47.363,-31.738,-38.574,-38.086,0.000
1709299316.880,-45.898,-28.320,-30.762,-28.320,0.000
1709299316.884,-35.156,-22.949,-23.926,-19.531,0.000
1709299316.888,-27.832,-36.621,-29.785,-10.254,0.000
1709299316.892,-34.668,-42.969,-31.738,-19.531,0.000
1709299316.896,-51.758,-21.484,-28.320,-37.598,0.000
1709299316.900,-43.945,-13.184,-20.508,-31.738,0.000
1709299316.903,-37.109,-13.184,-23.926,-27.344,0.000
1709299316.907,-36.133,-21.484,-28.809,-26.855,0.000
1709299316.911,-27.832,-35.156,-20.996,-30.273,0.000
1709299316.915,-44.922,-24.414,-24.414,-42.969,0.000
1709299316.919,-47.363,-8.789,-34.668,-41.504,0.000
1709299316.923,-31.738,-5.859,-38.574,-36.133,0.000
1709299316.927,-38.086,-8.789,-30.762,-43.457,0.000
1709299316.931,-49.316,-17.578,-24.902,-53.223,0.000
1709299316.935,-55.176,-34.668,-37.598,-55.176,0.000
1709299316.939,-49.316,-37.598,-41.992,-60.059,0.000
1709299316.942,-42.969,-33.691,-40.527,-51.758,0.000
1709299316.946,-39.551,-39.062,-38.086,-38.574,0.000
1709299316.950,-53.223,-25.391,-39.062,-62.988,0.000
1709299316.954,-64.453,-18.555,-34.668,-68.848,0.000
1709299316.958,-56.641,-27.344,-30.273,-56.641,0.000
1709299316.962,-43.945,-25.391,-33.691,-47.363,0.000
1709299316.966,-41.504,-27.344,-37.109,-39.551,0.000
1709299316.970,-41.016,-30.273,-29.785,-45.410,0.000
1709299316.974,-54.688,-26.855,-26.855,-60.059,0.000
1709299316.978,-62.500,-31.250,-35.156,-51.758,0.000
1709299316.981,-37.598,-28.320,-35.156,-23.438,0.000
1709299316.985,-26.367,-30.762,-21.973,-17.578,0.000
1709299316.989,-32.227,-33.203,-26.367,-21.484,0.000
1709299316.993,-36.133,-20.508,-51.270,-20.996,0.000
1709299316.997,-33.203,-19.531,-35.645,-26.855,0.000
1709299317.001,-23.926,-29.785,-13.672,-22.461,0.000
1709299317.005,-25.879,-30.273,-21.484,-20.996,0.000
1709299317.009,-25.391,-17.578,-23.438,-23.926,0.000
1709299317.013,-38.086,-16.113,-20.508,-29.297,0.000
1709299317.016,-44.434,-30.762,-20.020,-30.762,0.000
1709299317.020,-35.645,-41.992,-25.879,-26.367,0.000
1709299317.024,-44.922,-30.762,-29.785,-28.320,0.000
1709299317.028,-51.758,-27.832,-29.785,-38.574,0.000
1709299317.032,-53.223,-37.109,-32.227,-40.039,0.000
1709299317.036,-54.688,-33.691,-36.621,-35.156,0.000
1709299317.040,-45.410,-30.273,-39.062,-43.457,0.000
1709299317.044,-33.691,-7.324,-34.180,-43.945,0.000
1709299317.048,-28.809,-5.859,-32.715,-34.180,0.000
1709299317.052,-38.086,-26.367,-32.715,-34.668,0.000
1709299317.055,0.000,-22.949,-35.645,-38.086,0.000
1709299317.059,0.000,-40.039,-31.250,-28.809,0.000
1709299317.063,0.000,-45.898,-28.320,-27.344,0.000
1709299317.067,0.000,-21.484,-25.391,-36.621,0.000
1709299317.071,0.000,-23.926,-28.809,-48.340,0.000
1709299317.075,0.000,-29.297,-37.598,-51.758,0.000
1709299317.079,0.000,-37.109,-33.691,-39.062,0.000
1709299317.083,0.000,-43.457,-40.527,-36.621,0.000
1709299317.087,0.000,-32.227,-58.594,-31.738,0.000
1709299317.091,0.000,-41.016,-54.688,-41.016,0.000
1709299317.094,0.000,-58.594,-19.531,-55.664,0.000
1709299317.098,0.000,-32.227,-15.137,-46.875,0.000
1709299317.102,-45.410,-8.789,-28.320,-44.922,0.000
1709299317.106,-49.805,-10.254,-19.531,-47.852,0.000
1709299317.110,-57.129,-32.227,-26.855,-46.875,0.000
1709299317.114,-56.152,-37.598,-32.715,-43.945,0.000
1709299317.118,-46.875,-20.508,-32.227,-31.738,0.000
1709299317.122,-37.598,-20.508,-39.551,-24.414,0.000
1709299317.126,-31.250,-29.297,-34.180,-28.320,0.000
1709299317.129,-35.156,-32.715,-28.320,-32.227,0.000
1709299317.133,-42.480,-41.992,-39.062,-40.527,0.000
1709299317.137,-41.992,-36.621,-39.551,-38.574,0.000
1709299317.141,-23.438,-24.414,-31.738,-14.160,0.000
1709299317.145,-6.836,-41.504,-29.297,3.906,0.000
1709299317.150,-8.301,-41.016,-30.273,-13.672,0.000
1709299317.153,-26.855,-22.461,-33.691,-28.809,0.000
1709299317.157,-38.086,-25.879,-42.969,-23.438,0.000
1709299317.161,-30.762,-38.086,-50.293,-20.020,0.000
1709299317.165,-22.461,-39.551,-38.574,-7.812,0.000
1709299317.169,-29.785,-25.879,-35.645,-13.672,0.000
1709299317.173,-42.969,-17.090,-42.480,-37.109,0.000
1709299317.177,-42.969,-25.391,-43.945,-41.016,0.000
1709299317.181,-34.180,-22.949,-41.016,-31.250,0.000
1709299317.185,-27.344,-29.297,-39.551,-23.438,0.000
1709299317.189,-30.273,-31.738,-38.086,-34.668,0.000
1709299317.192,-45.410,-13.672,-36.621,-44.434,0.000
1709299317.196,-40.527,-6.836,-29.785,-40.527,0.000
1709299317.200,-17.090,-13.672,-25.391,-34.180,0.000
1709299317.204,-18.555,-11.230,-29.297,-42.480,0.000
1709299317.208,-24.902,-14.648,-29.785,-46.387,0.000
1709299317.212,-35.645,-20.996,-28.809,-52.734,0.000
1709299317.216,-39.062,-14.648,-35.645,-52.734,0.000
1709299317.220,-37.598,-21.484,-34.668,-46.387,0.000
1709299317.224,-34.180,-10.742,-32.715,-46.387,0.000
1709299317.228,-34.668,-12.207,-32.715,-55.664,0.000
1709299317.232,-46.387,-21.973,-28.320,-70.312,0.000
1709299317.236,-45.410,-14.160,-34.180,-66.406,0.000
1709299317.239,-30.762,-15.137,-32.715,-37.109,0.000
1709299317.243,-15.137,-10.254,-35.645,-19.531,0.000
1709299317.247,-20.020,-7.812,-39.551,-22.949,0.000
1709299317.251,-34.180,-18.555,-39.551,-41.016,0.000
1709299317.255,-39.551,-13.184,-32.715,-40.039,0.000
1709299317.259,-33.691,-10.254,-26.855,-19.043,0.000
1709299317.263,-21.484,-21.484,-27.832,-10.742,0.000
1709299317.267,-21.484,-20.996,-20.996,-11.230,0.000
1709299317.271,-28.809,-11.230,-21.973,-8.301,0.000
1709299317.275,-32.715,-11.230,-30.273,-11.230,0.000
1709299317.278,-34.180,-15.137,-32.227,-17.578,0.000
1709299317.282,-20.508,-8.789,-20.508,-12.695,0.000
1709299317.286,-9.766,-10.254,-20.996,-13.672,0.000
1709299317.290,0.000,-42.480,0.000,-22.949,0.000
1709299317.294,0.000,-42.969,0.000,-29.785,0.000
1709299317.298,0.000,-7.812,0.000,-41.016,0.000
1709299317.302,0.000,-6.836,0.000,-34.668,0.000
1709299317.306,0.000,-23.438,0.000,-19.043,0.000
1709299317.310,0.000,-35.645,0.000,-29.297,0.000
1709299317.314,0.000,-24.902,0.000,-42.969,0.000
1709299317.318,0.000,-8.301,0.000,-39.551,0.000
1709299317.321,0.000,-24.414,0.000,-35.645,0.000
1709299317.325,0.000,-32.715,0.000,-42.480,0.000
1709299317.329,0.000,-24.902,0.000,-44.922,0.000
1709299317.333,0.000,-30.762,0.000,-39.551,0.000
1709299317.337,-45.898,-34.668,-29.785,-40.527,0.000
1709299317.341,-38.086,-28.809,-34.180,-38.574,0.000
1709299317.345,-36.621,-34.180,-39.551,-39.062,0.000
1709299317.349,-46.387,-35.156,-39.551,-53.223,0.000
1709299317.353,-51.758,-31.250,-34.180,-59.570,0.000
1709299317.357,-48.828,-41.016,-34.180,-52.734,0.000
1709299317.361,-42.969,-21.484,-39.551,-48.828,0.000
1709299317.365,-46.387,-8.789,-45.898,-45.898,0.000
1709299317.369,-54.688,-20.508,-35.645,-51.270,0.000
1709299317.372,-62.988,-27.832,-32.715,-54.688,0.000
1709299317.376,-64.453,-30.762,-41.016,-47.363,0.000
1709299317.380,-54.199,-34.180,-43.457,-44.922,0.000
1709299317.384,-43.457,-26.367,-44.434,-36.621,0.000
1709299317.388,-37.598,-30.273,-31.250,-31.250,0.000
1709299317.392,-46.387,-41.016,-20.996,-28.320,0.000
1709299317.396,-49.316,-31.738,-24.414,-19.043,0.000
1709299317.400,-46.387,-26.367,-31.738,-11.230,0.000
1709299317.404,-44.434,-25.879,-26.855,-8.301,0.000
1709299317.407,-36.621,-21.484,-23.438,-5.371,0.000
1709299317.411,-41.992,-31.250,-28.809,-22.949,0.000
1709299317.415,-40.039,-28.320,-24.414,-31.738,0.000
1709299317.419,-27.832,-29.785,-29.297,-25.391,0.000
1709299317.423,-17.090,-35.645,-31.250,-14.648,0.000
1709299317.427,-17.578,-27.832,-24.902,-17.090,0.000
1709299317.431,-24.414,-25.879,-28.809,-30.273,0.000
1709299317.435,-30.273,-33.203,-25.879,-37.109,0.000
1709299317.439,-35.156,-28.320,-21.973,-32.715,0.000
1709299317.442,-29.785,-13.672,-23.926,-19.531,0.000
1709299317.446,-29.297,-11.719,-20.020,-21.484,0.000
1709299317.450,-37.598,-19.531,-19.531,-36.621,0.000
1709299317.454,-43.945,-23.438,-31.738,-37.598,0.000
1709299317.458,-41.016,-25.879,-35.156,-41.992,0.000
1709299317.462,-33.691,-34.180,-29.785,-43.457,0.000
1709299317.466,-27.832,-38.574,-29.785,-34.180,0.000
1709299317.470,-34.180,-27.344,-37.109,-46.387,0.000
1709299317.474,-53.711,-14.648,-37.598,-61.035,0.000
1709299317.477,-50.781,-20.996,-27.832,-47.852,0.000
1709299317.481,-25.879,-34.668,-24.902,-22.949,0.000
1709299317.485,-20.996,-36.133,-22.461,-20.508,0.000
1709299317.489,-28.320,-30.762,-22.461,-24.414,0.000
1709299317.493,-36.133,-40.039,-27.832,-31.738,0.000
1709299317.497,-34.180,-43.945,-32.715,-33.203,0.000
1709299317.501,-20.508,-24.902,-29.785,-19.531,0.000
1709299317.505,-26.367,-3.906,-28.320,-25.391,0.000
1709299317.509,-33.691,-5.371,-28.320,-37.109,0.000
1709299317.513,-38.574,-18.066,-21.973,-39.062,0.000
1709299317.516,-40.039,-21.484,-19.531,-29.785,0.000
1709299317.520,-32.715,-20.508,-23.438,-22.461,0.000
1709299317.524,-25.879,-33.691,-24.902,-25.391,0.000
1709299317.528,-29.785,-49.316,-29.785,-31.250,0.000
1709299317.532,-42.969,-48.828,-37.598,-36.133,0.000
1709299317.536,-51.270,-36.621,-36.133,-44.922,0.000
1709299317.540,-43.945,-20.508,-33.203,-41.016,0.000
1709299317.544,-34.668,-24.902,-33.203,-21.484,0.000
1709299317.548,-35.645,-33.691,-32.227,-23.438,0.000
1709299317.552,-49.805,-27.344,-31.738,-55.664,0.000
1709299317.556,-46.387,-19.043,-24.902,-61.035,0.000
1709299317.560,-35.645,-21.973,-26.855,-41.016,0.000
1709299317.563,-35.156,-29.297,-32.227,-42.969,0.000
1709299317.567,-35.645,-36.133,-34.668,-48.828,0.000
1709299317.571,-42.480,-40.527,-31.250,-43.945,0.000
1709299317.575,-43.945,-47.363,-37.109,-39.551,0.000
1709299317.579,-48.340,-62.500,-45.410,-45.898,0.000
1709299317.583,-53.223,-43.457,-39.551,-43.457,0.000
1709299317.587,-48.828,-15.137,-34.180,-42.969,0.000
1709299317.591,-43.457,-16.113,-30.762,-50.293,0.000
1709299317.595,-43.945,-22.461,-29.785,-41.504,0.000
1709299317.599,-39.062,-21.973,-34.668,-27.832,0.000
1709299317.603,-26.367,-25.391,-34.668,-12.695,0.000
1709299317.607,-31.738,-27.832,-35.645,-6.348,0.000
1709299317.610,-50.293,-27.832,-36.621,-29.297,0.000
1709299317.614,-58.594,-39.551,-33.203,-36.133,0.000
1709299317.618,-41.016,-41.504,-31.250,-13.184,0.000
1709299317.622,-20.020,-24.414,-28.809,-10.254,0.000
1709299317.626,-29.297,-13.672,-41.992,-32.715,0.000
1709299317.630,-42.969,-12.695,-44.922,-41.504,0.000
1709299317.634,-43.457,-12.695,-37.109,-37.598,0.000
1709299317.638,-40.039,-33.203,-39.551,-30.273,0.000
1709299317.642,-29.297,-33.691,-41.016,-19.531,0.000
1709299317.646,-21.484,-20.508,-39.551,-5.859,0.000
1709299317.650,-32.715,-20.020,-35.156,-11.230,0.000
1709299317.653,-46.387,-10.742,-35.645,-34.668,0.000
1709299317.657,-43.945,-21.484,-34.668,-38.086,0.000
1709299317.661,-29.297,-29.785,-31.738,-22.949,0.000
1709299317.665,-22.461,-21.484,-29.297,-10.742,0.000
1709299317.669,-39.062,-28.320,-33.203,-41.992,0.000
1709299317.673,-50.293,-38.086,-31.250,-56.152,0.000
1709299317.677,-45.898,-36.133,-26.855,-44.922,0.000
1709299317.681,-46.387,-29.297,-35.645,-47.363,0.000
1709299317.685,-37.109,-28.809,-42.480,-41.992,0.000
1709299317.689,-26.367,-36.133,-36.621,-30.762,0.000
1709299317.693,-33.691,-38.086,-29.785,-31.738,0.000
1709299317.696,-51.270,-35.156,-40.527,-47.852,0.000
1709299317.700,-48.340,-35.156,-34.668,-44.434,0.000
1709299317.704,-36.621,-21.973,-37.109,-39.062,0.000
1709299317.708,-35.645,-21.484,-40.039,-48.340,0.000
1709299317.712,-42.480,-28.809,-34.668,-56.152,0.000
1709299317.716,-50.781,-24.414,-41.992,-60.059,0.000
1709299317.720,-43.945,-27.344,-41.016,-51.758,0.000
1709299317.724,-36.621,-38.086,-37.598,-45.898,0.000
1709299317.728,-45.410,-29.785,-40.527,-52.734,0.000
1709299317.732,-52.734,-22.461,-40.527,-62.012,0.000
1709299317.736,-50.293,-19.043,-35.156,-56.152,0.000
1709299317.740,-41.504,-20.996,-29.297,-31.250,0.000
1709299317.744,-38.086,-19.043,-35.156,-21.973,0.000
1709299317.748,-29.785,-8.789,-38.086,-22.461,0.000
1709299317.751,-28.809,-20.996,-36.621,-29.297,0.000
1709299317.755,-43.945,-30.273,-38.574,-41.992,0.000
1709299317.759,-50.293,-11.719,-33.203,-30.762,0.000
1709299317.763,-42.969,-11.230,-37.109,-19.531,0.000
1709299317.767,-39.551,-20.508,-36.621,-32.715,0.000
1709299317.771,-45.898,-17.090,-28.320,-44.922,0.000
1709299317.775,-44.922,-34.180,-22.949,-41.016,0.000
1709299317.779,-54.688,-35.645,-33.691,-42.969,0.000
1709299317.783,-46.875,-17.578,-30.273,-27.832,0.000
1709299317.786,-27.344,-28.809,-28.320,-9.277,0.000
1709299317.790,-34.180,-29.297,-33.691,-37.598,0.000
1709299317.794,-54.199,-3.418,-25.879,-55.664,0.000
1709299317.798,-59.570,6.348,-24.414,-43.457,0.000
1709299317.802,-38.574,-5.371,-29.785,-30.762,0.000
1709299317.806,-25.879,-9.766,-28.809,-24.902,0.000
1709299317.810,-35.645,-6.836,-26.855,-25.391,0.000
1709299317.814,-47.852,-27.832,-28.320,-41.016,0.000
1709299317.818,-51.758,-33.691,-24.902,-44.434,0.000
1709299317.821,-41.504,-12.695,-26.367,-32.715,0.000
1709299317.825,-33.691,-7.324,-32.715,-32.715,0.000
1709299317.829,-38.086,-16.113,-29.785,-36.133,0.000
1709299317.833,-43.457,-21.973,-31.738,-44.922,0.000
1709299317.837,-41.504,-6.348,-34.668,-54.688,0.000
1709299317.841,-36.133,0.000,-34.668,-55.176,0.000
1709299317.845,-33.203,0.488,-40.527,-46.875,0.000
1709299317.849,-38.574,0.000,-38.574,-48.340,0.000
1709299317.853,-44.922,-0.488,-31.250,-59.082,0.000
1709299317.857,-47.852,-0.977,-30.273,-53.711,0.000
1709299317.861,-39.062,-8.789,-33.203,-39.551,0.000
1709299317.865,-36.133,-7.812,-41.016,-47.852,0.000
1709299317.869,-42.969,5.859,-39.551,-61.523,0.000
1709299317.872,-45.410,12.207,-29.785,-52.246,0.000
1709299317.876,-38.574,-14.160,-22.949,-29.297,0.000
1709299317.880,-29.297,-11.719,-34.180,-23.438,0.000
1709299317.884,-30.762,12.695,-38.574,-35.156,0.000
1709299317.888,-29.785,17.578,-26.367,-38.086,0.000
1709299317.892,-36.133,10.254,-29.785,-43.457,0.000
1709299317.896,-41.504,9.277,-30.762,-37.598,0.000
1709299317.900,-32.227,11.719,-27.832,-25.879,0.000
1709299317.904,-19.043,1.953,-30.273,-22.461,0.000
1709299317.908,-18.066,-3.418,-30.762,-17.578,0.000
1709299317.912,-29.297,2.930,-33.691,-33.203,0.000
1709299317.916,-33.203,4.883,-29.785,-42.480,0.000
1709299317.919,-27.832,-0.488,-26.855,-34.668,0.000
1709299317.923,-23.926,-17.090,-31.738,-28.809,0.000
1709299317.927,-20.996,-29.297,-26.855,-34.180,0.000
1709299317.931,-29.785,-21.973,-23.438,-37.109,0.000
1709299317.935,-36.133,-18.555,-29.297,-28.320,0.000
1709299317.939,-40.527,-23.438,-39.551,-41.016,0.000
1709299317.943,-37.109,-0.977,-33.203,-44.922,0.000
1709299317.947,-28.809,8.789,-25.879,-45.410,0.000
1709299317.951,-30.273,5.859,-24.414,-50.293,0.000
1709299317.955,-32.715,6.348,-20.020,-45.410,0.000
1709299317.959,-22.461,-12.207,-21.484,-37.109,0.000
1709299317.962,-12.207,-8.789,-25.391,-26.367,0.000
1709299317.966,-17.578,3.906,-24.902,-27.832,0.000
1709299317.970,-34.668,-1.465,-31.738,-49.316,0.000
1709299317.974,-43.457,-8.789,-34.180,-55.176,0.000
1709299317.978,-39.062,-10.742,-24.414,-38.574,0.000
1709299317.982,-39.062,14.648,-26.367,-28.320,0.000
1709299317.986,-45.898,26.367,-37.109,-32.715,0.000
1709299317.990,-50.781,27.832,-42.480,-43.457,0.000
1709299317.994,-53.223,28.809,-52.734,-57.129,0.000
1709299317.998,-53.711,26.367,-46.875,-61.035,0.000
1709299318.002,-49.316,28.809,-35.156,-52.734,0.000
1709299318.005,-38.574,20.020,-27.832,-43.945,0.000
1709299318.009,-41.992,-5.371,-23.926,-41.504,0.000
1709299318.013,-60.547,0.977,-31.738,-51.758,0.000
1709299318.017,-56.641,19.043,-35.645,-53.711,0.000
1709299318.021,-43.457,-0.977,-37.598,-37.598,0.000
1709299318.025,-40.039,-2.930,-35.645,-23.926,0.000
1709299318.029,-42.480,-1.953,-37.109,-28.320,0.000
1709299318.033,-47.363,-5.371,-38.086,-40.527,0.000
1709299318.037,-48.340,5.859,-36.621,-46.387,0.000
1709299318.041,-47.852,3.418,-30.762,-38.574,0.000
1709299318.044,-38.086,-4.883,-29.297,-21.973,0.000
1709299318.048,-31.738,2.930,-37.109,-17.578,0.000
1709299318.052,-44.922,-3.906,-37.598,-30.762,0.000
1709299318.056,-54.199,-18.066,-41.016,-38.574,0.000
1709299318.060,-41.016,-15.625,-45.410,-22.949,0.000
1709299318.064,-23.438,-8.301,-38.086,-20.508,0.000
1709299318.068,-18.555,-16.113,-30.273,-22.461,0.000
1709299318.072,-28.320,-29.297,-31.250,-18.555,0.000
1709299318.076,-38.086,-20.996,-32.715,-36.133,0.000
1709299318.080,-38.086,-14.648,-33.691,-35.645,0.000
1709299318.084,-32.227,3.906,-29.785,-13.184,0.000
1709299318.087,-36.133,-2.930,-34.180,-13.184,0.000
1709299318.091,-45.410,-9.766,-41.504,-33.691,0.000
1709299318.095,-56.641,8.301,-42.480,-54.688,0.000
1709299318.099,-58.594,9.277,-38.086,-53.711,0.000
1709299318.103,-44.922,4.395,-37.109,-37.109,0.000
1709299318.107,-41.504,1.953,-39.062,-34.180,0.000
1709299318.111,-51.270,-8.301,-31.738,-44.434,0.000
1709299318.115,-53.711,-13.184,-33.203,-47.852,0.000
1709299318.119,-53.223,-3.418,-39.551,-46.387,0.000
1709299318.123,-50.781,-12.207,-40.527,-39.062,0.000
1709299318.126,-46.387,-14.160,-40.527,-44.434,0.000
1709299318.130,-41.992,6.348,-36.621,-55.176,0.000
1709299318.135,-45.898,4.395,-37.598,-62.012,0.000
1709299318.138,-38.086,-8.301,-40.527,-42.480,0.000
1709299318.142,-29.297,-6.836,-35.645,-16.113,0.000
1709299318.146,-27.344,-6.836,-34.668,-27.832,0.000
1709299318.150,-27.344,-11.230,-38.574,-43.945,0.000
1709299318.154,-36.621,-12.207,-38.574,-42.969,0.000
1709299318.158,-39.551,-16.113,-37.109,-30.762,0.000
1709299318.162,-41.992,-15.625,-36.621,-14.648,0.000
1709299318.166,-34.180,-11.230,-33.203,-14.648,0.000
1709299318.170,-27.344,-8.301,-23.438,-14.648,0.000
1709299318.174,-42.480,-15.137,-25.879,-22.461,0.000
1709299318.177,-48.828,-29.297,-31.738,-31.250,0.000
1709299318.181,-37.598,-27.344,-33.691,-28.809,0.000
1709299318.185,-32.715,-17.090,-37.109,-22.461,0.000
1709299318.189,-34.668,-22.949,-34.180,-18.555,0.000
1709299318.193,-45.898,-33.203,-31.250,-33.691,0.000
1709299318.197,-55.664,-24.414,-30.273,-47.852,0.000
1709299318.201,-47.852,-1.953,-31.738,-40.527,0.000
1709299318.205,-39.062,1.953,-26.855,-37.598,0.000
1709299318.209,-37.109,-12.695,-28.809,-40.039,0.000
1709299318.212,-37.598,-21.484,-32.715,-45.898,0.000
1709299318.216,-36.133,-21.973,-28.320,-51.758,0.000
1709299318.220,-33.203,-15.625,-28.809,-38.086,0.000
1709299318.224,-25.391,-19.531,-27.832,-29.297,0.000
1709299318.228,-21.973,-24.414,-24.902,-41.992,0.000
1709299318.232,-31.738,-23.438,-31.250,-57.129,0.000
1709299318.236,-45.898,-22.461,-35.156,-54.688,0.000
1709299318.240,-48.828,-25.879,-37.598,-43.457,0.000
1709299318.243,-32.715,-31.250,-32.227,-41.504,0.000
1709299318.247,-29.785,-33.203,-32.715,-35.645,0.000
1709299318.251,-39.062,-29.785,-37.598,-43.945,0.000
1709299318.255,-45.898,-24.902,-37.109,-57.129,0.000
1709299318.259,-38.086,-34.668,-37.109,-46.387,0.000
1709299318.263,-20.996,-28.809,-29.785,-30.273,0.000
1709299318.267,-24.414,-22.461,-32.715,-29.297,0.000
1709299318.271,-36.133,-46.875,-35.645,-34.668,0.000
1709299318.275,-37.598,-61.035,-27.832,-37.598,0.000
1709299318.279,-39.551,-32.227,-31.250,-35.645,0.000
1709299318.283,-28.320,-18.555,-29.785,-15.137,0.000
1709299318.287,-20.508,-35.156,-23.926,-21.973,0.000
1709299318.291,-34.180,-41.992,-26.855,-26.367,0.000
1709299318.294,-40.527,-30.762,-27.344,-19.043,0.000
1709299318.298,-39.062,-19.531,-23.438,-27.832,0.000
1709299318.302,-33.203,-24.414,-23.438,-32.227,0.000
1709299318.306,-32.227,-42.480,-25.391,-26.855,0.000
1709299318.310,-39.551,-46.875,-26.367,-24.902,0.000
1709299318.314,-43.945,-51.270,-38.086,-42.480,0.000
1709299318.318,-45.898,-59.082,-44.434,-48.828,0.000
1709299318.322,-38.086,-62.012,-29.297,-34.668,0.000
1709299318.326,-32.227,-42.480,-21.973,-29.297,0.000
1709299318.330,-36.133,-28.320,-31.738,-34.668,0.000
1709299318.334,-47.363,-33.203,-35.645,-44.434,0.000
1709299318.337,-51.270,-38.086,-29.785,-50.781,0.000
1709299318.341,-42.969,-46.875,-30.762,-38.086,0.000
1709299318.345,-37.598,-47.852,-29.297,-20.996,0.000
1709299318.349,-38.086,-33.691,-29.785,-32.227,0.000
1709299318.353,-52.734,-32.227,-35.156,-53.711,0.000
1709299318.357,-53.711,-45.410,-31.738,-51.270,0.000
1709299318.361,-37.598,-40.527,-33.691,-48.340,0.000
1709299318.365,-26.367,-44.922,-39.551,-47.852,0.000
1709299318.369,-35.645,-54.199,-37.598,-52.246,0.000
1709299318.373,-56.152,-48.340,-38.574,-67.383,0.000
1709299318.377,-58.105,-45.898,-38.086,-65.430,0.000
1709299318.381,-51.758,-48.340,-37.109,-44.922,0.000
1709299318.384,-44.922,-41.992,-32.715,-34.668,0.000
1709299318.388,-41.992,-41.504,-25.879,-36.621,0.000
1709299318.392,-50.293,-40.039,-23.438,-40.039,0.000
1709299318.396,-59.570,-36.621,-27.344,-48.340,0.000
1709299318.400,-46.875,-42.969,-30.273,-37.598,0.000
1709299318.404,-25.879,-43.945,-34.668,-25.879,0.000
1709299318.408,-25.879,-34.668,-33.203,-27.832,0.000
1709299318.412,-32.715,-36.133,-28.320,-39.551,0.000
1709299318.416,-30.273,-48.340,-31.250,-40.527,0.000
1709299318.420,-26.367,-41.016,-36.621,-24.902,0.000
1709299318.423,-12.695,-31.250,-39.062,-10.254,0.000
1709299318.427,-6.836,-35.645,-42.969,-16.113,0.000
1709299318.431,-26.855,-35.645,-39.062,-27.344,0.000
1709299318.435,-39.551,-36.621,-31.250,-34.668,0.000
1709299318.439,-41.504,-47.363,-24.902,-37.598,0.000
1709299318.443,-43.457,-47.363,-36.133,-29.297,0.000
1709299318.447,-43.945,-35.156,-44.922,-18.066,0.000
1709299318.451,-54.199,-34.668,-39.551,-36.621,0.000
1709299318.455,-53.223,-40.039,-30.762,-54.199,0.000
1709299318.459,-48.828,-44.922,-29.785,-47.852,0.000
