timestamps,TP9,AF7,AF8,TP10,Right AUX
1709291405.646,-32.227,-44.922,-36.621,-43.457,0.000
1709291405.650,-49.316,-30.762,-37.109,-40.527,0.000
1709291405.654,-39.062,-29.785,-40.039,-36.133,0.000
1709291405.658,-21.484,-44.922,-35.156,-22.461,0.000
1709291405.662,-20.508,-45.898,-37.109,-26.855,0.000
1709291405.666,-35.156,-46.875,-41.992,-40.527,0.000
1709291405.670,-37.598,-40.039,-38.086,-33.691,0.000
1709291405.673,-32.715,-43.457,-39.551,-15.137,0.000
1709291405.677,-27.344,-51.270,-41.504,-4.395,0.000
1709291405.681,-29.785,-32.715,-39.062,-21.973,0.000
1709291405.685,-37.109,-30.762,-38.086,-36.133,0.000
1709291405.689,-28.809,-37.109,-35.645,-35.156,0.000
1709291405.693,-27.344,-41.504,-34.180,-32.227,0.000
1709291405.697,-31.250,-34.668,-33.691,-22.949,0.000
1709291405.701,-20.996,-26.367,-36.621,-10.742,0.000
1709291405.705,-26.855,-35.645,-36.621,-29.785,0.000
1709291405.708,-47.852,-42.969,-37.598,-52.246,0.000
1709291405.712,-39.062,-41.016,-45.898,-44.922,0.000
1709291405.716,-20.508,-32.227,-41.504,-23.438,0.000
1709291405.720,-20.996,-42.480,-29.785,-9.277,0.000
1709291405.724,-28.809,-37.598,-31.738,-20.996,0.000
1709291405.728,-34.668,-20.508,-37.598,-39.551,0.000
1709291405.732,-28.320,-24.414,-37.598,-39.062,0.000
1709291405.736,-20.996,-29.297,-35.156,-16.113,0.000
1709291405.740,-27.832,-28.320,-29.297,-7.324,0.000
1709291405.743,-29.297,-27.344,-31.738,-18.066,0.000
1709291405.747,-33.691,-38.574,-41.504,-30.762,0.000
1709291405.751,-26.367,-44.434,-35.645,-24.414,0.000
1709291405.755,-14.648,-39.551,-30.762,-14.160,0.000
1709291405.759,-26.367,-41.504,-28.809,-9.277,0.000
1709291405.763,-41.992,-53.223,-25.391,-15.137,0.000
1709291405.767,-41.992,-55.176,-32.715,-34.668,0.000
1709291405.771,-41.992,-24.902,-34.668,-24.902,0.000
1709291405.775,-33.691,-30.273,-31.738,-8.301,0.000
1709291405.779,-22.949,-47.363,-37.598,-18.555,0.000
1709291405.783,-34.668,-44.434,-35.645,-34.180,0.000
1709291405.787,-44.922,-37.109,-29.297,-47.852,0.000
1709291405.791,-37.109,-32.227,-33.691,-45.898,0.000
1709291405.795,-40.527,-35.645,-35.645,-23.438,0.000
1709291405.798,-38.574,-35.156,-31.250,-23.438,0.000
1709291405.802,-36.133,-50.781,-30.762,-52.734,0.000
1709291405.806,-34.668,-45.898,-23.438,-58.105,0.000
1709291405.810,-40.527,-54.199,-27.344,-24.902,0.000
1709291405.814,-55.664,-59.082,-41.504,-20.996,0.000
1709291405.818,-39.062,-28.320,-39.062,-13.184,0.000
1709291405.822,-31.738,-35.156,-39.062,-17.578,0.000
1709291405.826,-37.109,-41.504,-36.621,-38.086,0.000
1709291405.830,-36.133,-40.039,-34.668,-37.598,0.000
1709291405.834,-27.344,-38.574,-32.227,-15.137,0.000
1709291405.838,-14.160,-39.062,-29.785,-3.906,0.000
1709291405.842,-17.578,-39.062,-26.855,-24.902,0.000
1709291405.846,-31.738,-32.227,-29.297,-30.762,0.000
1709291405.850,-28.320,-41.504,-30.273,-35.645,0.000
1709291405.853,-25.879,-57.129,-31.738,-35.645,0.000
1709291405.857,-21.973,-47.363,-35.645,-16.602,0.000
1709291405.861,-22.949,-27.832,-28.809,-10.254,0.000
1709291405.865,-34.180,-21.484,-26.367,-22.461,0.000
1709291405.869,-37.109,-46.387,-31.738,-21.973,0.000
1709291405.873,-31.250,-57.617,-34.180,-14.160,0.000
1709291405.877,-23.926,-20.508,-38.574,2.441,0.000
1709291405.881,-19.531,-23.438,-33.691,3.418,0.000
1709291405.885,-32.227,-45.898,-28.320,-32.715,0.000
1709291405.889,-41.504,-41.016,-28.809,-45.898,0.000
1709291405.893,-34.180,-33.691,-29.297,-30.273,0.000
1709291405.897,-24.902,-47.363,-30.273,-11.230,0.000
1709291405.900,-12.695,-48.828,-32.227,-17.090,0.000
1709291405.904,-27.344,-41.504,-32.715,-38.086,0.000
1709291405.908,-44.434,-35.645,-32.227,-37.109,0.000
1709291405.912,-34.180,-35.645,-34.180,-32.227,0.000
1709291405.916,-27.832,-49.316,-33.203,-13.672,0.000
1709291405.920,-28.809,-33.691,-37.109,-5.859,0.000
1709291405.924,-26.367,-17.090,-39.062,-20.020,0.000
1709291405.928,-30.762,-31.738,-40.039,-31.738,0.000
1709291405.932,-37.598,-37.109,-43.457,-37.109,0.000
1709291405.936,-20.996,-31.738,-36.621,-18.066,0.000
1709291405.940,-20.020,-37.109,-33.691,-12.207,0.000
1709291405.943,-28.809,-53.711,-38.574,-33.691,0.000
1709291405.947,-32.227,-57.129,-38.086,-42.969,0.000
1709291405.951,-39.062,-40.039,-39.551,-40.039,0.000
1709291405.955,-35.645,-35.645,-42.480,-26.367,0.000
1709291405.959,-41.016,-60.547,-40.527,-16.113,0.000
1709291405.963,-31.250,-63.477,-34.180,-15.625,0.000
1709291405.967,-26.367,-26.367,-28.809,-31.250,0.000
1709291405.971,-39.062,-27.832,-31.250,-41.504,0.000
1709291405.975,-29.297,-41.016,-33.691,-26.367,0.000
1709291405.979,-27.344,-42.480,-39.551,-23.438,0.000
1709291405.983,-30.762,-42.480,-41.992,-38.086,0.000
1709291405.986,-30.273,-45.410,-36.621,-42.480,0.000
1709291405.990,-31.250,-47.852,-31.738,-47.363,0.000
1709291405.994,-34.180,-41.504,-36.133,-37.109,0.000
1709291405.998,-37.109,-42.480,-41.016,-24.902,0.000
1709291406.002,-34.180,-40.527,-37.109,-28.809,0.000
1709291406.006,-41.992,-50.781,-34.180,-29.785,0.000
1709291406.010,-42.480,-44.434,-38.086,-37.109,0.000
1709291406.014,-28.320,-28.809,-42.969,-41.016,0.000
1709291406.018,-11.719,-33.203,-37.109,-14.648,0.000
1709291406.022,-23.926,-45.410,-31.250,-5.859,0.000
1709291406.025,-40.527,-45.410,-35.645,-36.133,0.000
1709291406.029,-37.109,-41.992,-42.480,-48.340,0.000
1709291406.033,-41.992,-47.363,-40.527,-37.109,0.000
1709291406.037,-33.691,-41.016,-37.109,-10.254,0.000
1709291406.041,-26.855,-40.039,-39.551,-7.324,0.000
1709291406.045,-38.574,-38.086,-42.480,-46.387,0.000
1709291406.049,-52.734,-51.270,-43.945,-65.918,0.000
1709291406.053,-47.852,-51.758,-39.551,-39.062,0.000
1709291406.057,-35.645,-18.555,-34.668,-11.719,0.000
1709291406.061,-46.875,-31.738,-40.527,-22.949,0.000
1709291406.065,-40.527,-53.223,-45.898,-43.945,0.000
1709291406.068,-44.922,-55.664,-46.875,-54.199,0.000
1709291406.072,-35.156,-40.039,-34.180,-21.973,0.000
1709291406.076,-15.625,-38.574,-36.621,4.395,0.000
1709291406.080,-26.367,-45.898,-51.270,-19.043,0.000
1709291406.084,-41.504,-42.480,-41.016,-36.621,0.000
1709291406.088,-47.363,-43.945,-38.574,-40.039,0.000
1709291406.092,-37.109,-47.363,-49.316,-44.922,0.000
1709291406.096,-31.738,-66.406,-48.828,-34.668,0.000
1709291406.100,-33.691,-42.969,-38.086,-18.555,0.000
1709291406.103,-36.133,-16.113,-29.297,-20.508,0.000
1709291406.107,-38.086,-35.645,-33.691,-36.621,0.000
1709291406.111,-37.598,-45.898,-43.945,-42.969,0.000
1709291406.115,-27.344,-38.086,-45.898,-27.832,0.000
1709291406.119,-25.879,-38.086,-40.527,-21.484,0.000
1709291406.123,-29.785,-47.852,-36.133,-26.855,0.000
1709291406.127,-32.715,-53.223,-34.180,-47.363,0.000
1709291406.131,-45.410,-44.434,-33.691,-38.574,0.000
1709291406.135,-37.598,-44.922,-32.227,-19.531,0.000
1709291406.138,-22.949,-59.570,-33.691,-18.555,0.000
1709291406.142,-29.297,-54.199,-36.621,-18.555,0.000
1709291406.146,-33.203,-30.762,-36.133,-33.691,0.000
1709291406.150,-27.832,-35.645,-36.133,-48.340,0.000
1709291406.154,-36.621,-43.945,-40.527,-37.598,0.000
1709291406.158,-29.785,-40.039,-39.551,-14.648,0.000
1709291406.162,-22.461,-34.668,-35.156,-10.254,0.000
1709291406.165,-42.969,-38.086,-31.738,-25.391,0.000
1709291406.169,-41.016,-39.551,-29.297,-20.996,0.000
1709291406.173,-28.809,-35.645,-31.738,-18.555,0.000
1709291406.177,-31.738,-42.969,-34.180,-20.508,0.000
1709291406.181,-33.203,-46.387,-27.832,-22.461,0.000
1709291406.185,-41.016,-62.500,-23.926,-21.973,0.000
1709291406.189,-42.969,-52.246,-26.855,-21.973,0.000
1709291406.193,-26.855,-24.414,-30.762,-31.738,0.000
1709291406.197,-30.762,-45.410,-31.250,-20.996,0.000
1709291406.201,-29.785,-46.875,-27.344,-17.090,0.000
1709291406.205,-13.672,-28.320,-24.902,-20.020,0.000
1709291406.209,-20.996,-34.180,-34.180,-27.832,0.000
1709291406.213,-28.809,-46.387,-37.598,-30.762,0.000
1709291406.217,-26.367,-43.457,-32.715,-8.301,0.000
1709291406.220,-20.996,-27.344,-25.391,1.953,0.000
1709291406.224,-25.391,-32.227,-30.273,-21.484,0.000
1709291406.228,-36.133,-56.641,-33.203,-39.062,0.000
1709291406.232,-31.250,-49.805,-29.297,-19.531,0.000
1709291406.236,-20.508,-9.277,-29.297,-7.812,0.000
1709291406.240,-24.414,-26.367,-33.691,-20.508,0.000
1709291406.244,-28.809,-39.062,-33.691,-38.574,0.000
1709291406.248,-29.297,-20.020,-35.156,-53.711,0.000
1709291406.252,-15.625,-13.184,-28.320,-35.156,0.000
1709291406.256,-15.137,-33.203,-27.832,-10.254,0.000
1709291406.260,-33.203,-52.246,-43.457,-23.926,0.000
1709291406.264,-40.527,-36.621,-42.480,-38.574,0.000
1709291406.268,-38.574,-23.926,-33.203,-33.203,0.000
1709291406.271,-26.855,-38.086,-35.645,-30.762,0.000
1709291406.275,-18.066,-44.434,-33.203,-12.695,0.000
1709291406.279,-13.184,-35.645,-27.344,10.254,0.000
1709291406.283,-14.648,-26.855,-32.227,-9.277,0.000
1709291406.287,-22.461,-29.297,-36.621,-45.410,0.000
1709291406.291,-39.551,-53.223,-35.645,-34.180,0.000
1709291406.295,-36.133,-34.668,-31.250,-12.207,0.000
1709291406.299,-36.621,-24.414,-36.133,-19.531,0.000
1709291406.303,-32.715,-38.574,-34.180,-25.391,0.000
1709291406.307,-37.598,-43.945,-31.738,-37.109,0.000
1709291406.311,-51.270,-46.387,-33.203,-43.945,0.000
1709291406.315,-27.832,-37.109,-28.320,-26.367,0.000
1709291406.318,-14.160,-47.363,-34.180,-15.625,0.000
1709291406.322,-28.320,-62.500,-36.621,-18.066,0.000
1709291406.326,-45.898,-50.293,-34.180,-27.344,0.000
1709291406.330,-59.570,-37.598,-32.715,-42.969,0.000
1709291406.334,-54.199,-60.059,-33.203,-34.668,0.000
1709291406.338,-30.762,-63.477,-29.297,-6.348,0.000
1709291406.342,-15.137,-21.484,-22.949,-20.020,0.000
1709291406.346,-32.227,-38.086,-37.598,-45.898,0.000
1709291406.350,-40.039,-56.641,-41.016,-40.039,0.000
1709291406.354,-27.344,-57.617,-33.691,-32.227,0.000
1709291406.358,-29.785,-48.340,-29.297,-14.648,0.000
1709291406.361,-37.598,-40.039,-32.227,-10.742,0.000
1709291406.365,-34.668,-49.316,-36.133,-23.926,0.000
1709291406.369,-39.551,-52.246,-37.109,-33.203,0.000
1709291406.373,-40.039,-43.945,-34.668,-21.484,0.000
1709291406.377,-20.996,-32.715,-28.809,-10.742,0.000
1709291406.381,-15.625,-51.270,-28.809,4.883,0.000
1709291406.385,-23.926,-37.598,-37.109,0.977,0.000
1709291406.389,-30.273,-18.066,-38.086,-28.809,0.000
1709291406.393,-26.855,-41.504,-32.715,-36.133,0.000
1709291406.397,-31.738,-42.480,-36.133,-15.137,0.000
1709291406.400,-30.762,-29.297,-35.645,-0.977,0.000
1709291406.404,-30.273,-29.297,-25.879,-23.438,0.000
1709291406.408,-39.551,-42.480,-28.809,-38.574,0.000
1709291406.412,-44.434,-56.641,-43.457,-42.480,0.000
1709291406.416,-37.109,-58.594,-41.992,-20.020,0.000
1709291406.420,-33.203,-47.363,-41.016,-8.789,0.000
1709291406.424,-36.133,-53.711,-41.504,-35.645,0.000
1709291406.428,-49.805,-64.941,-36.621,-46.875,0.000
1709291406.432,-45.898,-39.062,-38.086,-31.738,0.000
1709291406.436,-25.879,-37.109,-41.504,-14.160,0.000
1709291406.440,-30.762,-50.781,-32.227,-15.137,0.000
1709291406.443,-41.504,-46.875,-22.949,-28.809,0.000
1709291406.447,-43.457,-35.645,-25.391,-43.945,0.000
1709291406.451,-40.527,-42.969,-32.227,-33.691,0.000
1709291406.455,-29.785,-49.805,-32.715,-11.230,0.000
1709291406.459,-17.090,-46.387,-32.227,-13.672,0.000
1709291406.463,-18.066,-49.805,-29.297,-20.996,0.000
1709291406.467,-34.668,-48.340,-22.949,-37.109,0.000
1709291406.471,-42.480,-57.617,-21.973,-25.879,0.000
1709291406.475,-41.504,-50.293,-25.879,-11.719,0.000
1709291406.478,-40.527,-21.973,-28.809,-13.672,0.000
1709291406.482,-37.598,-36.621,-29.297,-23.438,0.000
1709291406.486,-40.039,-43.945,-33.691,-42.480,0.000
1709291406.490,-42.969,-34.668,-38.086,-39.062,0.000
1709291406.494,-30.273,-35.156,-37.598,-26.367,0.000
1709291406.498,-25.391,-44.434,-33.203,-17.090,0.000
1709291406.502,-34.668,-54.199,-44.922,-39.551,0.000
1709291406.506,-48.340,-41.992,-51.270,-51.758,0.000
1709291406.510,-42.969,-39.062,-41.504,-37.109,0.000
1709291406.513,-26.855,-56.152,-39.062,-19.531,0.000
1709291406.517,-25.391,-56.641,-41.992,-0.488,0.000
1709291406.521,-31.250,-27.344,-43.457,-7.812,0.000
1709291406.525,-30.273,-38.086,-43.945,-31.738,0.000
1709291406.529,-30.762,-51.270,-40.527,-40.039,0.000
1709291406.533,-31.738,-37.598,-38.086,-30.273,0.000
1709291406.537,-21.973,-27.344,-36.133,-13.184,0.000
1709291406.540,-15.137,-35.156,-36.621,-23.926,0.000
1709291406.544,-20.020,-43.457,-41.504,-38.574,0.000
1709291406.548,-34.180,-37.109,-40.527,-42.969,0.000
1709291406.552,-27.344,-40.527,-40.039,-27.344,0.000
1709291406.556,-11.719,-43.945,-42.480,-1.953,0.000
1709291406.560,-20.020,-58.594,-43.457,-12.207,0.000
1709291406.564,-35.645,-44.922,-44.922,-32.715,0.000
1709291406.568,-36.621,-22.461,-40.527,-53.711,0.000
1709291406.572,-32.227,-45.898,-41.992,-48.340,0.000
1709291406.576,-22.949,-50.293,-42.480,-28.809,0.000
1709291406.580,-18.555,-28.809,-41.992,-23.438,0.000
1709291406.583,-29.297,-34.180,-43.457,-32.227,0.000
1709291406.587,-33.203,-46.875,-43.945,-41.992,0.000
1709291406.591,-29.297,-40.527,-40.039,-33.203,0.000
1709291406.595,-26.855,-33.203,-37.109,-11.230,0.000
1709291406.599,-20.996,-38.086,-37.109,-16.113,0.000
1709291406.603,-11.230,-51.270,-27.832,-18.066,0.000
1709291406.607,-11.230,-48.340,-22.949,-17.578,0.000
1709291406.610,-21.973,-29.785,-35.156,-30.762,0.000
1709291406.614,-27.344,-39.062,-36.621,-20.020,0.000
1709291406.618,-31.250,-57.129,-38.574,-21.484,0.000
1709291406.622,-27.832,-49.805,-37.598,-33.203,0.000
1709291406.626,-33.203,-36.621,-35.645,-50.293,0.000
1709291406.630,-46.875,-45.410,-38.086,-47.852,0.000
1709291406.634,-43.457,-48.828,-38.086,-20.996,0.000
1709291406.638,-31.738,-41.992,-37.598,-2.930,0.000
1709291406.642,-39.062,-44.922,-31.738,-17.090,0.000
1709291406.646,-39.551,-50.293,-24.902,-39.062,0.000
1709291406.650,-38.086,-53.711,-22.949,-28.320,0.000
1709291406.654,-42.969,-48.340,-31.738,-13.184,0.000
1709291406.658,-21.973,-35.156,-37.109,-3.906,0.000
1709291406.661,-8.301,-42.480,-32.227,-7.812,0.000
1709291406.665,-24.414,-59.082,-27.344,-22.949,0.000
1709291406.669,-35.156,-34.668,-29.785,-18.066,0.000
1709291406.673,-36.133,-27.832,-38.574,-15.137,0.000
1709291406.677,-26.367,-42.480,-34.180,-20.020,0.000
1709291406.681,-22.461,-43.457,-26.367,-20.508,0.000
1709291406.685,-31.250,-37.109,-29.297,-20.508,0.000
1709291406.689,-35.645,-33.691,-29.785,-25.391,0.000
1709291406.693,-38.086,-58.594,-38.086,-37.109,0.000
1709291406.697,-11.719,-53.223,-28.320,-10.742,0.000
1709291406.701,-10.742,-32.715,-25.879,-0.488,0.000
1709291406.705,-38.574,-43.945,-47.852,-33.691,0.000
1709291406.708,-42.480,-65.918,-47.852,-43.945,0.000
1709291406.712,-37.598,-69.336,-41.504,-25.879,0.000
1709291406.716,-30.273,-32.227,-35.156,-0.488,0.000
1709291406.720,-37.109,-32.227,-33.203,-1.465,0.000
1709291406.724,-40.039,-43.945,-33.691,-13.672,0.000
1709291406.728,-38.574,-39.551,-30.762,-27.344,0.000
1709291406.732,-30.762,-33.691,-33.203,-30.273,0.000
1709291406.736,-24.902,-41.992,-36.133,-23.926,0.000
1709291406.740,-22.949,-45.898,-32.227,-16.602,0.000
1709291406.744,-25.879,-39.062,-28.320,-27.832,0.000
1709291406.748,-33.203,-38.574,-30.762,-52.246,0.000
1709291406.751,-30.762,-36.133,-36.621,-41.504,0.000
1709291406.755,-27.344,-61.035,-40.527,-14.648,0.000
1709291406.759,-24.902,-62.012,-39.062,-14.648,0.000
1709291406.763,-30.273,-37.598,-36.621,-36.133,0.000
1709291406.767,-33.203,-40.527,-35.156,-43.457,0.000
1709291406.771,-30.762,-39.062,-35.156,-27.832,0.000
1709291406.775,-28.320,-32.227,-33.691,-18.555,0.000
1709291406.779,-19.043,-34.668,-31.250,-15.625,0.000
1709291406.783,-15.137,-44.434,-33.203,-19.531,0.000
1709291406.787,-24.414,-50.293,-36.133,-30.273,0.000
1709291406.791,-39.062,-49.316,-35.156,-28.320,0.000
1709291406.794,-38.574,-56.152,-37.109,-21.484,0.000
1709291406.798,-25.391,-70.801,-40.039,-20.020,0.000
1709291406.802,-33.203,-64.941,-40.039,-24.414,0.000
1709291406.806,-44.434,-33.203,-37.598,-50.293,0.000
1709291406.810,-39.062,-38.086,-31.738,-50.293,0.000
1709291406.814,-33.691,-52.734,-30.762,-19.043,0.000
1709291406.818,-26.855,-40.527,-32.715,-3.906,0.000
1709291406.822,-27.344,-31.250,-31.738,-24.902,0.000
1709291406.826,-31.738,-47.363,-25.879,-35.645,0.000
1709291406.829,-8.301,-60.059,-9.277,-0.977,0.000
1709291406.833,-0.488,-47.363,-13.184,17.090,0.000
1709291406.837,-30.762,-42.480,-35.156,-19.043,0.000
1709291406.841,-29.297,-44.434,-36.621,-30.762,0.000
1709291406.845,-26.855,-56.641,-30.273,-26.855,0.000
1709291406.849,-52.246,-38.086,-35.645,-54.688,0.000
1709291406.853,-55.664,-6.348,-37.598,-59.570,0.000
1709291406.857,-41.504,-21.973,-31.250,-29.785,0.000
1709291406.861,-32.227,-24.902,-33.203,-36.133,0.000
1709291406.864,-44.922,-10.254,-40.527,-68.359,0.000
1709291406.868,-46.387,-14.648,-36.621,-77.148,0.000
1709291406.872,-26.367,-22.949,-37.109,-59.082,0.000
1709291406.876,-10.254,-5.371,-36.621,-38.574,0.000
1709291406.880,-12.207,7.812,-39.551,-54.199,0.000
1709291406.884,-15.625,-2.441,-41.992,-66.895,0.000
1709291406.888,-17.090,-16.113,-38.574,-70.801,0.000
1709291406.892,-5.371,-8.301,-37.109,-49.805,0.000
1709291406.896,12.207,24.902,-35.156,-20.020,0.000
1709291406.900,4.395,24.902,-40.527,-31.738,0.000
1709291406.904,8.789,4.395,-43.945,-28.809,0.000
1709291406.907,10.254,8.301,-42.480,-38.574,0.000
1709291406.911,-0.488,20.996,-41.504,-50.781,0.000
1709291406.915,15.137,15.137,-39.062,-22.949,0.000
1709291406.919,21.973,11.719,-34.668,-14.648,0.000
1709291406.923,18.555,21.484,-34.668,-24.414,0.000
1709291406.927,17.090,18.066,-37.598,-26.855,0.000
1709291406.931,11.719,14.160,-37.109,-19.531,0.000
1709291406.934,12.695,10.254,-39.062,-7.324,0.000
1709291406.938,16.113,10.742,-38.574,-5.371,0.000
1709291406.942,12.695,26.855,-43.945,-15.137,0.000
1709291406.946,4.395,16.113,-46.387,-23.926,0.000
1709291406.950,-0.488,-4.395,-43.457,-30.762,0.000
1709291406.954,5.371,9.766,-41.016,-7.812,0.000
1709291406.959,16.113,22.461,-40.527,14.160,0.000
1709291406.962,13.672,6.348,-38.086,2.441,0.000
1709291406.966,1.465,-10.742,-39.062,-18.555,0.000
1709291406.970,3.418,-7.812,-41.504,-21.484,0.000
1709291406.974,20.996,-0.977,-36.133,-1.465,0.000
1709291406.978,18.066,-26.855,-34.668,2.441,0.000
1709291406.982,1.465,-43.945,-39.551,-1.953,0.000
1709291406.986,-8.301,-2.441,-42.969,-14.648,0.000
1709291406.990,-12.207,7.324,-39.062,-24.414,0.000
1709291406.994,-2.441,-17.090,-35.156,-8.301,0.000
1709291406.998,5.371,-15.625,-33.691,3.906,0.000
1709291407.002,5.859,-6.348,-35.156,-6.348,0.000
1709291407.006,-3.418,-16.602,-42.480,-21.973,0.000
1709291407.010,0.488,-20.020,-38.086,-14.160,0.000
1709291407.013,3.906,-14.160,-30.762,5.371,0.000
1709291407.017,5.859,-19.531,-36.621,9.277,0.000
1709291407.021,4.395,-33.203,-41.016,-20.508,0.000
1709291407.025,-15.137,-41.504,-39.551,-30.273,0.000
1709291407.029,-22.461,-29.297,-36.133,-23.926,0.000
1709291407.033,-15.137,-23.438,-36.621,-28.809,0.000
1709291407.037,-9.766,-42.969,-42.969,-14.160,0.000
1709291407.041,-18.066,-70.312,-47.852,-3.418,0.000
1709291407.045,-26.367,-46.875,-43.945,-21.973,0.000
1709291407.049,-13.672,-16.113,-39.551,-40.039,0.000
1709291407.053,-16.113,-27.832,-38.574,-39.062,0.000
1709291407.057,-20.020,-32.715,-39.062,-17.090,0.000
1709291407.060,-1.953,-21.973,-37.598,-1.953,0.000
1709291407.064,-7.324,-18.066,-40.527,-16.602,0.000
1709291407.068,-20.996,-33.203,-45.898,-37.109,0.000
1709291407.072,-19.043,-41.016,-40.039,-33.691,0.000
1709291407.076,-9.277,-23.926,-35.645,0.488,0.000
1709291407.080,-7.324,-14.160,-37.109,5.371,0.000
1709291407.084,-15.625,-47.363,-39.062,-22.461,0.000
1709291407.088,-19.531,-58.594,-42.969,-34.668,0.000
1709291407.092,-21.484,-24.414,-39.062,-31.738,0.000
1709291407.096,-15.625,-22.949,-34.668,-15.625,0.000
1709291407.100,-11.719,-47.363,-41.504,-7.324,0.000
1709291407.103,-5.859,-39.551,-41.504,-10.254,0.000
1709291407.107,0.977,-21.973,-36.133,-22.949,0.000
1709291407.111,-1.953,-41.016,-33.691,-22.949,0.000
1709291407.115,-9.277,-46.875,-35.156,-6.836,0.000
1709291407.119,-15.625,-40.039,-38.574,-2.930,0.000
1709291407.123,-12.207,-36.133,-40.039,-19.043,0.000
1709291407.127,-16.113,-26.367,-44.434,-28.809,0.000
1709291407.131,-29.297,-53.711,-44.434,-18.066,0.000
1709291407.135,-23.926,-44.434,-40.039,-6.348,0.000
1709291407.139,-11.230,-14.648,-36.621,-13.672,0.000
1709291407.142,-7.812,-28.320,-37.598,-27.344,0.000
1709291407.146,-20.996,-35.645,-39.551,-32.227,0.000
1709291407.150,-33.203,-27.832,-38.574,-36.133,0.000
1709291407.154,-23.926,-35.645,-38.574,-28.809,0.000
1709291407.158,-16.113,-38.086,-34.668,-13.672,0.000
1709291407.162,-20.996,-25.391,-36.621,-13.184,0.000
1709291407.166,-24.414,-34.668,-40.039,-25.879,0.000
1709291407.170,-20.508,-31.250,-35.645,-31.738,0.000
1709291407.174,-20.020,-43.945,-30.273,-16.602,0.000
1709291407.178,-23.438,-53.223,-30.273,-4.883,0.000
1709291407.182,-17.578,-21.484,-34.180,-11.719,0.000
1709291407.185,-15.625,-26.855,-33.691,-23.438,0.000
1709291407.189,-31.250,-44.434,-33.203,-25.391,0.000
1709291407.193,-31.738,-36.621,-29.785,-22.949,0.000
1709291407.197,-19.043,-29.785,-27.344,-14.648,0.000
1709291407.201,-24.414,-37.598,-30.762,-11.719,0.000
1709291407.205,-33.203,-42.480,-34.180,-23.438,0.000
1709291407.209,-31.738,-40.039,-31.738,-33.691,0.000
1709291407.213,-28.320,-36.621,-28.809,-30.273,0.000
1709291407.217,-24.414,-29.297,-30.762,-23.438,0.000
1709291407.221,-4.883,-50.293,-26.855,-10.742,0.000
1709291407.224,-0.488,-45.898,-25.879,-2.441,0.000
1709291407.228,-26.855,-20.020,-36.621,-39.551,0.000
1709291407.232,-33.691,-26.367,-33.691,-42.480,0.000
1709291407.236,-25.391,-20.508,-31.250,-19.531,0.000
1709291407.240,-31.250,-8.789,-35.645,-23.438,0.000
1709291407.244,-23.926,-7.812,-30.762,-20.020,0.000
1709291407.248,-20.996,-13.672,-35.156,-35.645,0.000
1709291407.252,-30.762,-8.301,-43.945,-47.852,0.000
1709291407.255,-12.695,5.371,-44.922,-27.832,0.000
1709291407.259,-12.207,3.906,-44.922,-23.438,0.000
1709291407.263,-16.602,-2.441,-48.340,-31.738,0.000
1709291407.267,-7.812,0.000,-50.781,-41.504,0.000
1709291407.271,-12.695,23.438,-50.781,-36.621,0.000
1709291407.275,-9.277,29.297,-52.246,-21.973,0.000
1709291407.279,1.465,10.742,-55.176,-18.555,0.000
1709291407.283,2.930,12.695,-55.664,-28.809,0.000
1709291407.286,-8.789,19.043,-50.293,-53.711,0.000
1709291407.290,-19.043,1.465,-55.664,-60.547,0.000
1709291407.294,-16.602,-11.719,-61.035,-41.504,0.000
1709291407.298,-4.883,-8.301,-55.176,-26.367,0.000
1709291407.302,9.277,-4.883,-50.781,-30.762,0.000
1709291407.306,-14.648,-18.066,-52.246,-41.504,0.000
1709291407.310,-26.855,-37.109,-55.176,-29.297,0.000
1709291407.314,-16.113,-14.648,-54.688,-26.855,0.000
1709291407.318,-11.230,12.207,-47.852,-24.414,0.000
1709291407.322,-12.695,-2.930,-48.340,-25.391,0.000
1709291407.325,-31.250,-27.344,-49.316,-57.129,0.000
1709291407.329,-39.551,-16.113,-45.410,-52.734,0.000
1709291407.333,-36.133,-0.977,-43.945,-31.738,0.000
1709291407.337,-27.344,-16.602,-42.969,-22.949,0.000
1709291407.341,-14.160,-20.020,-38.574,-14.648,0.000
1709291407.345,-12.695,-9.766,-43.945,-30.273,0.000
1709291407.349,-14.160,-13.184,-50.781,-35.645,0.000
1709291407.352,-13.184,-33.691,-49.316,-26.367,0.000
1709291407.356,-11.719,-33.691,-48.340,-7.812,0.000
1709291407.360,-7.812,1.465,-49.805,-1.953,0.000
1709291407.364,-15.137,-4.883,-50.781,-21.484,0.000
1709291407.368,-25.391,-20.508,-46.875,-32.227,0.000
1709291407.372,-30.273,-16.113,-45.898,-26.367,0.000
1709291407.376,-37.109,-13.184,-47.363,-13.672,0.000
1709291407.380,-29.297,-20.508,-42.969,-9.277,0.000
1709291407.384,-27.832,-25.391,-37.598,-25.391,0.000
1709291407.388,-32.227,-22.461,-38.086,-34.668,0.000
1709291407.392,-27.344,-17.578,-36.621,-23.438,0.000
1709291407.396,-28.809,-30.273,-39.551,-17.090,0.000
1709291407.400,-26.367,-32.227,-42.969,-15.625,0.000
1709291407.403,-28.809,-18.066,-39.551,-33.203,0.000
1709291407.407,-33.203,-11.230,-39.551,-36.621,0.000
1709291407.411,-36.621,-19.531,-38.574,-29.785,0.000
1709291407.415,-30.762,-36.133,-36.621,-9.277,0.000
1709291407.419,-26.855,-18.555,-37.109,1.465,0.000
1709291407.423,-31.738,-12.207,-39.551,-14.648,0.000
1709291407.427,-32.715,-33.691,-40.039,-26.855,0.000
1709291407.431,-29.785,-32.227,-32.715,-24.902,0.000
1709291407.435,-18.066,-21.484,-27.344,0.000,0.000
1709291407.439,-8.301,-22.461,-25.879,11.230,0.000
1709291407.443,-13.672,-26.367,-26.855,0.000,0.000
1709291407.447,-28.809,-22.949,-27.832,-19.531,0.000
1709291407.450,-34.668,-13.184,-32.227,-24.902,0.000
1709291407.454,-29.297,-14.648,-35.645,-10.742,0.000
1709291407.458,-27.832,-35.156,-25.879,-4.395,0.000
1709291407.462,-33.203,-38.086,-29.785,-7.324,0.000
1709291407.466,-34.668,-21.484,-41.016,-26.367,0.000
1709291407.470,-32.715,-29.297,-35.645,-39.551,0.000
1709291407.474,-39.551,-42.969,-33.203,-21.484,0.000
1709291407.478,-31.738,-36.621,-30.273,-1.465,0.000
1709291407.482,-24.902,-23.438,-28.809,-11.230,0.000
1709291407.486,-28.809,-29.785,-27.832,-30.762,0.000
1709291407.490,-34.180,-47.363,-30.273,-40.527,0.000
1709291407.493,-33.203,-48.340,-35.156,-26.855,0.000
1709291407.497,-28.809,-45.410,-35.645,-17.090,0.000
1709291407.501,-32.227,-40.039,-38.574,-26.367,0.000
1709291407.505,-35.645,-50.781,-36.133,-29.297,0.000
1709291407.509,-30.273,-40.039,-32.715,-33.691,0.000
1709291407.513,-27.344,-16.602,-35.645,-30.762,0.000
1709291407.517,-22.461,-33.691,-33.203,-22.949,0.000
1709291407.521,-21.484,-41.992,-38.574,-26.855,0.000
1709291407.525,-29.297,-25.879,-39.551,-39.551,0.000
1709291407.529,-31.250,-27.344,-36.621,-41.504,0.000
1709291407.533,-30.273,-44.922,-35.156,-30.273,0.000
1709291407.536,-31.738,-46.387,-32.227,-20.508,0.000
1709291407.540,-32.227,-43.945,-34.180,-8.789,0.000
1709291407.544,-30.273,-38.574,-35.645,-27.344,0.000
1709291407.548,-33.691,-56.641,-32.227,-36.133,0.000
1709291407.552,-37.109,-70.312,-36.133,-21.973,0.000
1709291407.556,-40.527,-36.133,-39.062,-11.719,0.000
1709291407.560,-36.133,-27.344,-42.480,-14.160,0.000
1709291407.564,-30.762,-38.086,-39.551,-26.367,0.000
1709291407.568,-43.945,-37.598,-32.715,-40.527,0.000
1709291407.571,-37.109,-24.902,-27.832,-30.762,0.000
1709291407.575,-11.230,-33.691,-27.832,-8.301,0.000
1709291407.579,-25.391,-49.805,-35.645,-18.555,0.000
1709291407.583,-27.832,-52.246,-38.574,-33.203,0.000
1709291407.587,-11.230,-53.711,-39.062,-37.598,0.000
1709291407.591,-26.367,-46.875,-39.062,-31.250,0.000
1709291407.595,-34.668,-55.176,-41.504,-10.254,0.000
1709291407.599,-27.344,-47.852,-41.504,-15.137,0.000
1709291407.603,-24.902,-21.973,-35.645,-36.133,0.000
1709291407.607,-23.438,-35.156,-37.109,-43.945,0.000
1709291407.611,-16.602,-44.434,-46.387,-39.551,0.000
1709291407.614,-15.137,-33.691,-46.875,-32.715,0.000
1709291407.618,-13.184,-20.996,-43.945,-26.367,0.000
1709291407.622,-19.531,-31.738,-42.480,-22.949,0.000
1709291407.626,-25.879,-24.902,-39.062,-28.809,0.000
1709291407.630,-21.973,-17.578,-35.156,-27.344,0.000
1709291407.634,-24.414,-28.809,-34.180,-14.648,0.000
1709291407.638,-32.715,-39.551,-34.180,-12.695,0.000
1709291407.642,-35.645,-42.969,-37.109,-11.230,0.000
1709291407.646,-29.297,-23.438,-36.133,-29.297,0.000
1709291407.649,-32.715,-29.297,-34.180,-43.945,0.000
1709291407.653,-42.969,-41.992,-36.133,-35.156,0.000
1709291407.657,-38.574,-39.062,-32.715,-12.695,0.000
1709291407.661,-41.992,-37.109,-33.203,-8.789,0.000
1709291407.665,-46.387,-40.527,-32.715,-41.016,0.000
1709291407.669,-55.176,-47.363,-34.180,-52.734,0.000
1709291407.673,-29.785,-31.250,-28.320,-17.578,0.000
1709291407.676,-5.371,-32.227,-22.461,-1.953,0.000
1709291407.680,-20.996,-55.664,-31.738,-12.695,0.000
1709291407.684,-25.391,-72.266,-34.180,-9.766,0.000
1709291407.688,-34.180,-52.734,-35.645,-39.062,0.000
1709291407.692,-32.715,-20.508,-37.109,-53.711,0.000
1709291407.696,-22.949,-26.855,-40.527,-23.438,0.000
1709291407.700,-17.090,-33.203,-41.016,-7.324,0.000
1709291407.704,-20.508,-35.156,-43.945,-28.320,0.000
1709291407.708,-30.273,-26.855,-41.992,-39.062,0.000
1709291407.712,-35.645,-36.133,-36.133,-30.273,0.000
1709291407.716,-26.855,-42.969,-34.180,-19.531,0.000
1709291407.720,-13.184,-38.574,-34.668,-4.883,0.000
1709291407.724,-21.484,-42.480,-38.086,-22.461,0.000
1709291407.728,-37.598,-55.664,-33.203,-27.832,0.000
1709291407.732,-35.645,-64.941,-34.180,-16.113,0.000
1709291407.735,-32.227,-48.828,-36.133,-16.602,0.000
1709291407.739,-32.715,-32.715,-36.133,-23.438,0.000
1709291407.743,-31.738,-48.340,-38.086,-26.367,0.000
1709291407.747,-34.180,-53.711,-32.227,-28.320,0.000
1709291407.751,-38.086,-31.250,-28.809,-25.879,0.000
1709291407.755,-26.367,-33.203,-33.203,-8.301,0.000
1709291407.759,-22.461,-36.621,-31.738,-4.395,0.000
1709291407.763,-23.926,-35.645,-29.785,-18.555,0.000
1709291407.767,-25.391,-33.203,-32.227,-36.621,0.000
1709291407.771,-31.738,-39.062,-32.715,-35.156,0.000
1709291407.775,-33.691,-49.805,-35.645,-17.578,0.000
1709291407.779,-30.762,-40.527,-41.992,-16.113,0.000
1709291407.783,-23.438,-29.785,-42.480,-18.555,0.000
1709291407.786,-28.320,-39.551,-36.621,-30.762,0.000
1709291407.790,-26.367,-56.152,-34.180,-32.715,0.000
1709291407.794,-20.020,-42.480,-34.180,-8.301,0.000
1709291407.798,-32.715,-22.461,-41.504,-9.277,0.000
1709291407.802,-23.926,-27.344,-32.715,-8.789,0.000
1709291407.806,-25.391,-29.297,-32.227,-23.438,0.000
1709291407.810,-34.668,-36.133,-48.828,-47.363,0.000
1709291407.814,-24.902,-34.668,-42.969,-30.762,0.000
1709291407.818,-26.367,-45.898,-37.109,-15.137,0.000
1709291407.822,-32.715,-52.246,-34.180,-16.602,0.000
1709291407.826,-30.762,-41.016,-33.203,-36.621,0.000
1709291407.830,-35.156,-38.574,-31.738,-42.480,0.000
1709291407.833,-39.062,-56.641,-26.367,-20.996,0.000
1709291407.837,-36.133,-58.105,-27.344,3.906,0.000
1709291407.841,-23.926,-34.180,-26.367,0.977,0.000
1709291407.845,-22.949,-38.086,-29.785,-21.484,0.000
1709291407.849,-23.926,-45.898,-39.062,-31.738,0.000
1709291407.853,-15.625,-38.574,-36.621,-15.625,0.000
1709291407.857,-19.531,-30.762,-28.809,6.836,0.000
1709291407.861,-13.672,-32.227,-26.855,5.371,0.000
1709291407.865,-7.812,-42.969,-25.391,-18.066,0.000
1709291407.869,-15.137,-46.875,-27.344,-34.668,0.000
1709291407.873,-15.137,-30.273,-32.227,-18.555,0.000
1709291407.876,-19.043,-26.855,-35.156,-18.555,0.000
1709291407.880,-19.043,-59.082,-41.016,-25.391,0.000
1709291407.884,-21.973,-48.828,-38.574,-24.902,0.000
1709291407.888,-26.855,-23.438,-38.086,-42.480,0.000
1709291407.892,-32.227,-40.039,-42.480,-36.133,0.000
1709291407.896,-31.250,-41.992,-44.434,-25.879,0.000
1709291407.900,-28.809,-39.551,-44.922,-28.809,0.000
1709291407.904,-35.156,-29.297,-42.480,-31.738,0.000
1709291407.908,-34.668,-30.762,-42.480,-44.922,0.000
1709291407.912,-36.621,-46.387,-37.598,-47.363,0.000
1709291407.915,-26.855,-45.898,-36.133,-27.344,0.000
1709291407.919,-22.461,-33.691,-48.340,-12.207,0.000
1709291407.923,-28.809,-46.875,-45.410,-14.648,0.000
1709291407.927,-26.855,-55.176,-35.156,-25.879,0.000
1709291407.931,-34.668,-21.973,-36.133,-37.598,0.000
1709291407.935,-39.062,-23.926,-36.133,-20.996,0.000
1709291407.939,-38.574,-41.992,-35.156,-18.555,0.000
1709291407.943,-37.598,-33.691,-34.668,-27.344,0.000
1709291407.947,-39.551,-28.809,-36.621,-40.039,0.000
1709291407.950,-45.898,-41.016,-35.645,-45.410,0.000
1709291407.954,-44.434,-44.434,-33.691,-21.484,0.000
1709291407.958,-38.086,-38.574,-33.203,-18.555,0.000
1709291407.962,-41.504,-36.133,-39.551,-47.363,0.000
1709291407.966,-33.203,-32.227,-39.551,-45.410,0.000
1709291407.970,-21.484,-40.039,-22.461,-25.391,0.000
1709291407.974,-30.762,-37.109,-35.156,-29.785,0.000
1709291407.978,-24.414,-20.508,-46.387,-34.668,0.000
1709291407.982,-22.949,-41.504,-38.086,-27.832,0.000
1709291407.986,-26.855,-49.316,-34.668,-31.250,0.000
1709291407.989,-36.621,-41.992,-32.715,-37.109,0.000
1709291407.993,-37.598,-46.875,-32.715,-29.785,0.000
1709291407.997,-28.320,-57.617,-35.156,-6.836,0.000
1709291408.001,-29.297,-48.828,-33.203,-9.766,0.000
1709291408.005,-30.273,-39.551,-28.809,-35.645,0.000
1709291408.009,-31.738,-51.270,-34.668,-47.852,0.000
1709291408.013,-30.273,-66.406,-30.273,-37.109,0.000
1709291408.017,-28.320,-62.988,-27.832,-16.602,0.000
1709291408.021,-34.668,-27.344,-34.180,-17.090,0.000
1709291408.025,-33.691,-28.809,-38.086,-37.109,0.000
1709291408.028,-34.668,-48.340,-44.434,-52.246,0.000
1709291408.032,-38.574,-43.457,-45.410,-34.668,0.000
1709291408.036,-30.762,-32.227,-34.180,-19.043,0.000
1709291408.040,-22.949,-33.691,-36.133,-15.625,0.000
1709291408.044,-22.461,-45.410,-37.598,-23.926,0.000
1709291408.048,-30.762,-39.551,-33.203,-34.668,0.000
1709291408.052,-36.621,-43.945,-35.156,-31.250,0.000
1709291408.056,-20.508,-36.133,-22.949,-8.789,0.000
1709291408.059,-13.672,-50.781,-20.020,12.695,0.000
1709291408.063,-27.344,-54.688,-37.598,-17.578,0.000
1709291408.067,-24.902,-25.391,-40.527,-48.340,0.000
1709291408.071,-26.855,-43.457,-33.203,-38.574,0.000
1709291408.075,-25.879,-45.898,-38.086,-20.020,0.000
1709291408.079,-15.137,-33.203,-44.434,-13.672,0.000
1709291408.083,-25.391,-34.668,-39.062,-25.391,0.000
1709291408.086,-34.180,-45.898,-37.109,-25.391,0.000
1709291408.090,-22.949,-46.387,-38.574,-28.320,0.000
1709291408.094,-28.320,-31.738,-43.945,-25.391,0.000
1709291408.098,-29.785,-34.668,-40.527,-13.672,0.000
1709291408.102,-26.855,-57.129,-36.133,-20.020,0.000
1709291408.106,-31.250,-63.477,-37.598,-39.062,0.000
1709291408.110,-28.809,-35.645,-38.086,-43.457,0.000
1709291408.114,-27.344,-25.879,-41.016,-20.020,0.000
1709291408.118,-32.715,-45.898,-43.457,-16.113,0.000
1709291408.122,-41.992,-41.992,-45.898,-37.109,0.000
1709291408.125,-49.316,-38.574,-50.781,-55.176,0.000
1709291408.130,-47.363,-54.688,-44.922,-44.922,0.000
1709291408.134,-41.016,-51.270,-41.504,-15.137,0.000
1709291408.137,-22.461,-33.203,-31.250,3.418,0.000
1709291408.141,-12.207,-27.832,-33.203,-22.949,0.000
1709291408.145,-34.668,-52.734,-48.828,-52.734,0.000
1709291408.149,-52.734,-64.941,-45.898,-43.945,0.000
1709291408.153,-43.457,-49.316,-48.828,-27.344,0.000
1709291408.157,-29.297,-26.367,-44.922,-17.090,0.000
1709291408.161,-25.391,-30.762,-37.109,-16.602,0.000
1709291408.165,-18.066,-52.246,-34.668,-18.555,0.000
1709291408.169,-26.855,-41.016,-37.598,-26.367,0.000
1709291408.173,-33.203,-29.297,-37.598,-15.137,0.000
1709291408.177,-29.785,-40.039,-36.133,4.883,0.000
1709291408.181,-20.996,-36.621,-37.598,-5.859,0.000
1709291408.184,-18.066,-32.715,-36.621,-24.414,0.000
1709291408.188,-20.996,-38.086,-38.574,-29.297,0.000
1709291408.192,-25.879,-39.551,-36.621,-26.367,0.000
1709291408.196,-19.531,-41.504,-39.551,-7.324,0.000
1709291408.200,-14.160,-31.250,-43.457,2.441,0.000
1709291408.204,-13.672,-17.090,-39.551,-13.672,0.000
1709291408.208,-15.137,-42.969,-35.645,-21.973,0.000
1709291408.212,-20.508,-56.641,-36.621,-2.441,0.000
1709291408.216,-10.742,-15.137,-32.715,1.953,0.000
1709291408.220,-7.324,-16.602,-34.668,-4.395,0.000
1709291408.224,-5.371,-32.715,-30.762,4.395,0.000
1709291408.228,-15.137,-30.273,-30.273,-10.742,0.000
1709291408.231,-18.555,-29.785,-38.086,-21.484,0.000
1709291408.235,-20.508,-34.180,-36.621,-1.465,0.000
1709291408.239,-21.484,-37.598,-35.645,0.977,0.000
1709291408.243,-23.926,-39.062,-37.598,-22.949,0.000
1709291408.247,-20.020,-37.598,-44.922,-42.969,0.000
1709291408.251,-0.977,-33.691,-57.129,-35.645,0.000
1709291408.255,12.207,-51.270,-48.828,8.789,0.000
1709291408.259,-7.812,-53.223,-35.645,13.672,0.000
1709291408.263,-48.340,-38.086,-35.645,-39.551,0.000
1709291408.267,-46.387,-49.316,-25.879,-52.246,0.000
1709291408.270,-34.668,-56.152,-17.578,-29.785,0.000
1709291408.274,-42.969,-65.430,-30.273,-24.902,0.000
1709291408.278,-44.434,-61.523,-35.645,-32.227,0.000
1709291408.282,-49.805,-65.918,-33.691,-42.969,0.000
1709291408.286,-55.176,-72.754,-27.832,-44.922,0.000
1709291408.290,-60.547,-73.242,-21.484,-39.551,0.000
1709291408.294,-58.594,-63.477,-29.297,-25.879,0.000
1709291408.298,-44.434,-67.383,-32.715,-13.672,0.000
1709291408.302,-38.086,-78.125,-28.809,-4.883,0.000
1709291408.306,-43.457,-50.293,-35.156,-43.945,0.000
1709291408.310,-41.016,-48.340,-41.016,-67.383,0.000
1709291408.313,-50.293,-61.523,-41.992,-39.062,0.000
1709291408.317,-45.410,-49.316,-39.551,-14.648,0.000
1709291408.321,-33.203,-41.016,-33.691,-8.789,0.000
1709291408.325,-40.039,-42.480,-37.598,-15.625,0.000
1709291408.329,-31.250,-38.574,-38.086,-16.602,0.000
1709291408.333,-30.762,-46.387,-37.598,-30.762,0.000
1709291408.337,-51.270,-52.734,-43.945,-43.945,0.000
1709291408.341,-47.363,-49.316,-43.457,-33.691,0.000
1709291408.345,-46.387,-68.848,-44.434,-35.645,0.000
1709291408.348,-52.734,-53.223,-44.434,-53.223,0.000
1709291408.352,-37.598,-32.715,-40.039,-53.223,0.000
1709291408.356,-27.344,-50.781,-35.156,-22.949,0.000
1709291408.360,-38.086,-59.570,-38.086,-25.391,0.000
1709291408.364,-43.457,-47.852,-40.039,-43.457,0.000
1709291408.368,-32.227,-35.156,-35.645,-46.875,0.000
1709291408.372,-27.832,-53.223,-33.691,-44.922,0.000
1709291408.376,-34.668,-52.734,-36.133,-18.066,0.000
1709291408.380,-38.086,-41.504,-40.039,-6.836,0.000
1709291408.384,-38.574,-52.734,-44.922,-26.855,0.000
1709291408.387,-50.781,-65.430,-47.363,-47.363,0.000
1709291408.391,-49.316,-65.918,-46.387,-36.621,0.000
1709291408.395,-40.039,-32.715,-45.410,-19.043,0.000
1709291408.399,-26.367,-23.438,-37.598,-8.301,0.000
1709291408.403,-27.832,-43.457,-36.133,-19.531,0.000
1709291408.407,-40.039,-46.387,-43.945,-31.250,0.000
1709291408.411,-30.762,-36.133,-39.062,-19.043,0.000
1709291408.415,-21.973,-47.852,-35.156,-4.395,0.000
1709291408.418,-21.973,-49.805,-36.133,2.930,0.000
1709291408.422,-31.250,-42.480,-32.715,-16.113,0.000
1709291408.426,-42.969,-50.781,-34.180,-37.598,0.000
1709291408.430,-44.922,-55.664,-36.621,-41.016,0.000
1709291408.434,-35.645,-44.434,-38.086,-22.461,0.000
1709291408.438,-21.973,-29.785,-38.574,-14.648,0.000
1709291408.442,-24.414,-28.809,-35.156,-32.227,0.000
1709291408.446,-38.574,-34.180,-33.691,-46.875,0.000
1709291408.450,-44.922,-51.758,-35.645,-53.223,0.000
1709291408.454,-37.598,-29.785,-27.344,-33.203,0.000
1709291408.458,-37.109,-21.484,-34.180,-22.949,0.000
1709291408.462,-45.898,-49.805,-48.828,-40.527,0.000
1709291408.466,-39.062,-49.316,-44.922,-55.664,0.000
1709291408.470,-50.293,-44.434,-42.969,-57.617,0.000
1709291408.473,-48.340,-44.922,-37.109,-42.480,0.000
1709291408.477,-32.227,-59.082,-33.691,-21.484,0.000
1709291408.481,-24.414,-59.570,-21.973,-5.859,0.000
1709291408.485,-36.133,-34.180,-19.531,-31.738,0.000
1709291408.489,-54.199,-37.109,-34.668,-56.641,0.000
1709291408.493,-39.551,-45.898,-34.668,-43.945,0.000
1709291408.497,-20.020,-36.621,-24.902,-12.207,0.000
1709291408.501,-12.695,-24.902,-20.508,-2.930,0.000
1709291408.505,-32.227,-33.203,-28.809,-30.273,0.000
1709291408.509,-41.504,-43.457,-32.715,-45.898,0.000
1709291408.513,-32.227,-32.227,-33.691,-17.578,0.000
1709291408.517,-32.227,-31.738,-37.598,8.301,0.000
1709291408.521,-27.832,-47.852,-40.039,-14.648,0.000
1709291408.524,-35.645,-42.969,-35.156,-35.156,0.000
1709291408.528,-37.109,-41.504,-38.086,-41.504,0.000
1709291408.532,-26.855,-41.504,-43.945,-43.457,0.000
1709291408.536,-17.090,-34.180,-38.086,-24.414,0.000
1709291408.540,-10.254,-48.828,-34.180,-7.812,0.000
1709291408.544,-37.598,-47.852,-47.852,-22.461,0.000
1709291408.548,-46.875,-38.086,-56.152,-46.387,0.000
1709291408.552,-50.781,-54.199,-51.270,-50.293,0.000
1709291408.556,-45.898,-53.711,-42.969,-30.273,0.000
1709291408.560,-30.762,-39.062,-40.527,-16.113,0.000
1709291408.564,-34.668,-38.574,-41.016,-30.762,0.000
1709291408.568,-38.574,-41.992,-38.086,-40.527,0.000
1709291408.571,-45.410,-50.781,-41.016,-40.039,0.000
1709291408.575,-41.504,-47.852,-43.457,-26.855,0.000
1709291408.579,-5.371,-23.438,-35.156,2.930,0.000
1709291408.583,0.977,-42.480,-29.785,-0.488,0.000
1709291408.587,-36.133,-62.012,-36.621,-28.809,0.000
1709291408.591,-35.156,-28.809,-31.738,-38.086,0.000
1709291408.595,-32.715,-34.180,-27.344,-33.203,0.000
1709291408.599,-40.527,-45.898,-32.227,-26.855,0.000
1709291408.603,-25.391,-43.457,-28.809,-32.715,0.000
1709291408.607,-29.785,-39.062,-25.391,-57.617,0.000
1709291408.611,-51.270,-50.293,-28.809,-69.824,0.000
1709291408.614,-54.688,-57.129,-23.438,-42.969,0.000
1709291408.618,-51.270,-47.852,-27.344,-18.555,0.000
1709291408.622,-42.969,-52.246,-38.086,-22.949,0.000
1709291408.626,-33.691,-44.434,-38.086,-46.387,0.000
1709291408.630,-43.457,-64.941,-42.969,-45.898,0.000
1709291408.634,-48.828,-56.641,-33.691,-15.625,0.000
1709291408.638,-38.574,-28.809,-28.809,-13.672,0.000
1709291408.642,-32.715,-40.527,-33.691,-21.484,0.000
1709291408.646,-37.598,-35.156,-30.273,-30.762,0.000
1709291408.650,-44.922,-35.156,-34.180,-49.316,0.000
1709291408.654,-43.945,-36.621,-32.715,-41.992,0.000
1709291408.657,-24.902,-38.574,-29.297,-24.414,0.000
1709291408.661,-12.207,-44.434,-26.855,-27.832,0.000
1709291408.665,-22.949,-53.223,-31.738,-47.363,0.000
1709291408.669,-21.973,-30.762,-23.926,-42.969,0.000
1709291408.673,-21.484,-32.715,-20.996,-18.066,0.000
1709291408.677,-41.016,-59.570,-36.621,-19.043,0.000
1709291408.681,-27.832,-28.320,-29.297,-28.320,0.000
1709291408.685,-29.785,-29.297,-26.367,-32.715,0.000
1709291408.689,-40.527,-48.340,-25.391,-38.574,0.000
1709291408.692,-25.391,-40.039,-20.996,-24.902,0.000
1709291408.696,-23.926,-26.367,-26.855,-7.812,0.000
1709291408.700,-20.996,-35.156,-31.738,-18.066,0.000
1709291408.704,-10.742,-36.133,-29.785,-31.738,0.000
1709291408.708,-29.785,-33.203,-25.879,-40.039,0.000
1709291408.712,-38.574,-39.551,-29.297,-29.785,0.000
1709291408.716,-17.578,-33.691,-28.320,-11.230,0.000
1709291408.720,-18.066,-49.316,-31.250,-8.789,0.000
1709291408.724,-33.691,-49.805,-41.992,-14.648,0.000
1709291408.728,-32.715,-28.320,-39.062,-35.156,0.000
1709291408.732,-37.598,-39.551,-34.180,-38.574,0.000
1709291408.735,-30.273,-41.504,-30.273,-23.438,0.000
1709291408.739,-26.855,-29.297,-29.297,-16.113,0.000
1709291408.743,-43.457,-40.527,-35.156,-34.180,0.000
1709291408.747,-38.086,-58.594,-35.156,-42.969,0.000
1709291408.751,-33.691,-47.852,-25.879,-29.297,0.000
1709291408.755,-50.293,-51.270,-36.133,-31.738,0.000
1709291408.759,-55.664,-56.152,-38.574,-30.273,0.000
1709291408.763,-45.898,-55.176,-34.668,-31.250,0.000
1709291408.766,-46.387,-58.105,-36.133,-39.062,0.000
1709291408.770,-48.828,-37.109,-33.691,-43.945,0.000
1709291408.774,-36.133,-34.180,-31.738,-29.297,0.000
1709291408.778,-29.297,-41.016,-33.691,-3.906,0.000
1709291408.782,-25.879,-36.621,-32.227,-21.973,0.000
1709291408.786,-30.762,-32.227,-28.809,-38.086,0.000
1709291408.790,-33.203,-39.551,-30.762,-26.855,0.000
1709291408.794,-20.020,-53.223,-31.250,-6.836,0.000
1709291408.798,-20.508,-41.504,-26.855,-4.395,0.000
1709291408.801,-38.574,-41.504,-31.250,-23.926,0.000
1709291408.805,-43.945,-51.758,-38.086,-36.621,0.000
1709291408.809,-50.293,-63.965,-34.668,-33.691,0.000
1709291408.813,-46.875,-50.781,-37.598,-29.297,0.000
1709291408.817,-35.156,-20.020,-39.551,-20.996,0.000
1709291408.821,-37.598,-27.344,-36.621,-17.578,0.000
1709291408.825,-38.574,-25.879,-38.574,-37.109,0.000
1709291408.829,-32.715,-12.207,-25.879,-34.668,0.000
1709291408.832,-34.180,-20.996,-29.785,-30.273,0.000
1709291408.836,-34.180,-37.598,-43.945,-30.273,0.000
1709291408.840,-35.645,-48.828,-40.527,-30.762,0.000
1709291408.844,-49.805,-41.992,-41.504,-35.645,0.000
1709291408.848,-51.758,-37.598,-37.598,-42.969,0.000
1709291408.852,-45.410,-55.176,-37.109,-30.273,0.000
1709291408.856,-48.340,-59.570,-44.434,-11.230,0.000
1709291408.860,-43.457,-31.250,-43.457,-30.273,0.000
1709291408.864,-30.762,-22.949,-39.062,-31.738,0.000
1709291408.867,-31.250,-54.199,-34.668,-28.809,0.000
1709291408.871,-22.949,-59.082,-33.203,-21.484,0.000
1709291408.875,-14.160,-24.414,-35.156,2.930,0.000
1709291408.879,-10.254,-21.484,-26.855,13.672,0.000
1709291408.883,-9.277,-39.062,-27.344,-4.883,0.000
1709291408.887,-29.785,-44.922,-38.086,-42.480,0.000
1709291408.891,-28.320,-33.691,-37.109,-46.875,0.000
1709291408.895,-19.043,-38.574,-31.738,-18.555,0.000
1709291408.899,-16.113,-47.363,-33.691,-13.184,0.000
1709291408.903,-15.625,-41.992,-31.738,-22.949,0.000
1709291408.907,-26.367,-33.203,-30.273,-34.668,0.000
1709291408.911,-30.273,-40.039,-28.320,-32.715,0.000
1709291408.915,-29.297,-60.059,-25.391,-20.020,0.000
1709291408.919,-22.461,-48.340,-29.785,-4.883,0.000
1709291408.922,-31.250,-36.621,-32.715,-18.555,0.000
1709291408.926,-34.180,-46.387,-34.180,-35.156,0.000
1709291408.930,-28.320,-48.340,-36.621,-28.320,0.000
1709291408.934,-28.320,-38.086,-37.109,-24.414,0.000
1709291408.938,-29.785,-40.039,-39.551,-15.137,0.000
1709291408.942,-25.391,-44.922,-35.156,-15.137,0.000
1709291408.946,-31.738,-43.457,-26.855,-18.555,0.000
1709291408.950,-57.129,-45.410,-41.992,-32.715,0.000
1709291408.954,-52.246,-42.480,-44.922,-34.180,0.000
1709291408.958,-43.457,-56.152,-41.504,-18.555,0.000
1709291408.962,-45.410,-62.012,-40.039,-13.672,0.000
1709291408.966,-32.715,-31.738,-31.738,-34.668,0.000
1709291408.969,-43.457,-40.527,-36.133,-45.898,0.000
1709291408.973,-60.547,-61.523,-41.016,-32.227,0.000
1709291408.977,-52.246,-43.945,-36.133,-24.902,0.000
1709291408.981,-47.852,-35.156,-43.945,-33.203,0.000
1709291408.985,-36.133,-55.664,-41.016,-41.504,0.000
1709291408.989,-42.969,-67.871,-37.598,-38.086,0.000
1709291408.993,-49.805,-55.176,-38.086,-25.391,0.000
1709291408.997,-42.480,-40.527,-30.762,-11.719,0.000
1709291409.001,-32.227,-38.086,-30.762,-7.812,0.000
1709291409.005,-37.109,-57.129,-36.621,-16.113,0.000
1709291409.009,-41.992,-42.480,-37.598,-25.391,0.000
1709291409.012,-26.855,-12.695,-39.551,-20.996,0.000
1709291409.016,-29.785,-32.715,-40.039,-13.672,0.000
1709291409.020,-36.621,-39.551,-37.109,-15.625,0.000
1709291409.024,-39.551,-29.785,-31.738,-22.949,0.000
1709291409.028,-41.504,-30.762,-29.785,-32.715,0.000
1709291409.032,-33.691,-39.062,-33.691,-22.949,0.000
1709291409.036,-24.902,-46.387,-34.180,-4.883,0.000
1709291409.040,-20.996,-41.992,-32.715,-9.277,0.000
1709291409.044,-23.438,-41.016,-30.762,-27.832,0.000
1709291409.048,-37.109,-55.664,-37.109,-36.621,0.000
1709291409.052,-41.504,-62.500,-41.992,-30.273,0.000
1709291409.055,-25.391,-32.715,-33.203,-10.742,0.000
1709291409.059,-23.438,-27.832,-34.668,-9.766,0.000
1709291409.063,-22.949,-33.691,-28.320,-28.320,0.000
1709291409.067,-29.785,-28.809,-30.273,-47.363,0.000
1709291409.071,-46.875,-35.645,-46.875,-47.363,0.000
1709291409.075,-41.504,-41.992,-42.480,-23.926,0.000
1709291409.079,-38.086,-48.340,-43.945,-26.855,0.000
1709291409.083,-39.551,-45.410,-45.898,-40.039,0.000
1709291409.087,-45.898,-45.898,-38.086,-45.410,0.000
1709291409.091,-45.898,-41.016,-36.621,-37.598,0.000
1709291409.094,-24.902,-51.270,-36.621,-6.836,0.000
1709291409.098,-20.020,-52.734,-38.086,-7.812,0.000
1709291409.102,-20.996,-14.648,-28.809,-26.855,0.000
1709291409.106,-33.691,-30.273,-30.273,-44.922,0.000
1709291409.110,-44.922,-52.246,-43.457,-55.664,0.000
1709291409.114,-37.598,-33.203,-41.016,-41.992,0.000
1709291409.118,-29.297,-34.180,-38.574,-16.113,0.000
1709291409.122,-21.484,-39.551,-28.809,-5.371,0.000
1709291409.126,-22.949,-37.598,-28.809,-34.180,0.000
1709291409.129,-32.227,-41.504,-41.016,-41.504,0.000
1709291409.133,-37.109,-44.922,-43.457,-13.184,0.000
1709291409.137,-30.762,-44.922,-38.086,-5.371,0.000
1709291409.141,-29.297,-47.363,-35.156,-18.555,0.000
1709291409.145,-38.086,-24.414,-35.645,-45.410,0.000
1709291409.149,-42.969,-23.438,-35.645,-58.594,0.000
1709291409.153,-32.715,-47.363,-33.691,-40.039,0.000
1709291409.157,-22.949,-49.316,-29.785,-18.066,0.000
1709291409.160,-30.762,-37.598,-25.879,-20.996,0.000
1709291409.164,-26.367,-43.457,-28.809,-33.691,0.000
1709291409.168,-23.438,-44.434,-22.461,-35.156,0.000
1709291409.172,-37.598,-42.969,-36.621,-36.133,0.000
1709291409.176,-40.527,-59.570,-47.363,-34.668,0.000
1709291409.180,-35.156,-66.406,-40.039,-37.109,0.000
1709291409.184,-40.527,-72.754,-34.180,-42.969,0.000
1709291409.188,-42.969,-53.223,-31.250,-38.086,0.000
1709291409.192,-38.574,-24.902,-33.203,-36.133,0.000
1709291409.196,-34.668,-41.504,-32.227,-29.297,0.000
1709291409.200,-30.273,-37.598,-29.297,-13.672,0.000
1709291409.203,-37.598,-41.504,-31.738,-22.461,0.000
1709291409.208,-41.504,-49.316,-37.598,-49.316,0.000
1709291409.212,-33.203,-44.922,-36.133,-41.992,0.000
1709291409.216,-23.438,-44.922,-34.180,-22.461,0.000
1709291409.219,-21.973,-26.367,-31.738,-12.207,0.000
1709291409.223,-26.855,-20.020,-26.367,-19.531,0.000
1709291409.227,-23.926,-39.551,-27.832,-42.480,0.000
1709291409.231,-26.855,-46.387,-31.738,-34.668,0.000
1709291409.235,-17.090,-13.672,-20.508,-4.883,0.000
1709291409.239,-20.020,-21.973,-26.367,-11.719,0.000
1709291409.243,-36.621,-45.898,-32.227,-28.320,0.000
1709291409.247,-33.203,-38.574,-30.273,-41.992,0.000
1709291409.251,-29.297,-27.832,-28.809,-38.086,0.000
1709291409.255,-21.484,-28.809,-24.414,-11.719,0.000
1709291409.259,-11.719,-39.551,-22.461,-4.395,0.000
1709291409.263,-13.184,-40.527,-30.273,-12.695,0.000
1709291409.267,-20.996,-36.133,-33.203,-46.875,0.000
1709291409.270,-29.297,-52.734,-29.297,-55.664,0.000
1709291409.274,-27.344,-57.129,-30.762,-23.438,0.000
1709291409.278,-26.367,-40.039,-27.832,-7.812,0.000
1709291409.282,-28.809,-30.273,-22.949,-19.531,0.000
1709291409.286,-41.992,-39.551,-33.691,-41.992,0.000
1709291409.290,-51.270,-72.754,-42.969,-33.691,0.000
1709291409.294,-43.945,-63.477,-40.039,-22.461,0.000
1709291409.298,-36.621,-37.598,-37.598,-23.926,0.000
1709291409.302,-29.297,-51.270,-34.180,-20.020,0.000
1709291409.306,-26.855,-52.734,-33.203,-30.762,0.000
1709291409.310,-37.109,-40.527,-35.156,-36.621,0.000
1709291409.314,-35.645,-40.527,-38.574,-25.879,0.000
1709291409.317,-33.203,-49.316,-40.527,-26.855,0.000
1709291409.321,-37.598,-53.711,-43.945,-35.156,0.000
1709291409.325,-33.691,-37.598,-39.062,-48.340,0.000
1709291409.329,-33.691,-33.691,-26.855,-45.410,0.000
1709291409.333,-48.828,-66.895,-42.480,-40.039,0.000
1709291409.337,-40.527,-62.500,-47.852,-23.438,0.000
1709291409.341,-23.926,-22.949,-37.109,-18.555,0.000
1709291409.345,-32.227,-27.344,-47.852,-41.992,0.000
1709291409.349,-31.738,-40.527,-50.781,-40.039,0.000
1709291409.353,-29.785,-40.527,-42.480,-33.203,0.000
1709291409.357,-37.598,-35.156,-47.363,-33.691,0.000
1709291409.361,-27.344,-35.645,-41.016,-16.113,0.000
1709291409.364,-21.973,-41.504,-34.668,-26.367,0.000
1709291409.368,-23.438,-39.551,-38.086,-53.711,0.000
1709291409.372,-19.043,-32.227,-38.086,-43.945,0.000
1709291409.376,-25.879,-25.391,-39.551,-27.832,0.000
1709291409.380,-35.645,-49.805,-39.062,-11.719,0.000
1709291409.384,-33.691,-47.852,-35.156,-20.020,0.000
1709291409.388,-41.504,-23.926,-34.180,-47.852,0.000
1709291409.392,-39.551,-39.551,-36.621,-40.039,0.000
1709291409.396,-27.344,-44.434,-36.133,-23.926,0.000
1709291409.400,-20.020,-35.645,-30.273,-25.879,0.000
1709291409.404,-9.766,-26.855,-25.391,-27.344,0.000
1709291409.407,-22.461,-36.621,-28.320,-41.504,0.000
1709291409.411,-35.156,-47.852,-29.785,-36.621,0.000
1709291409.415,-37.109,-46.387,-23.926,-4.395,0.000
1709291409.419,-38.086,-41.992,-22.461,-0.488,0.000
1709291409.423,-39.551,-50.293,-29.297,-17.090,0.000
1709291409.427,-39.062,-53.223,-33.203,-27.832,0.000
1709291409.431,-25.879,-16.602,-31.250,-34.180,0.000
1709291409.435,-27.832,-18.555,-27.832,-22.461,0.000
1709291409.439,-28.809,-40.527,-28.320,-7.812,0.000
1709291409.442,-20.996,-39.551,-28.809,-22.949,0.000
1709291409.446,-31.250,-34.180,-31.738,-51.758,0.000
1709291409.450,-25.391,-25.391,-19.531,-50.781,0.000
1709291409.454,-22.949,-27.832,-15.625,-38.086,0.000
1709291409.458,-36.133,-48.340,-37.109,-39.062,0.000
1709291409.462,-34.668,-43.945,-35.156,-14.160,0.000
1709291409.466,-41.504,-38.574,-36.133,-24.414,0.000
1709291409.470,-32.715,-48.828,-33.203,-31.250,0.000
1709291409.474,-31.738,-36.133,-33.691,-18.066,0.000
1709291409.478,-39.062,-32.715,-52.734,-38.574,0.000
1709291409.482,-32.715,-47.852,-52.734,-40.527,0.000
1709291409.485,-37.109,-51.270,-43.945,-39.551,0.000
1709291409.489,-48.340,-41.016,-41.504,-46.875,0.000
1709291409.493,-42.969,-38.086,-36.133,-38.574,0.000
1709291409.497,-29.785,-46.387,-37.109,-27.832,0.000
1709291409.501,-30.273,-46.875,-40.527,-26.855,0.000
1709291409.505,-26.367,-36.621,-37.598,-45.410,0.000
1709291409.509,-34.180,-43.457,-36.621,-60.059,0.000
1709291409.513,-34.668,-53.711,-39.551,-47.363,0.000
1709291409.516,-22.461,-55.664,-35.645,-23.926,0.000
1709291409.520,-26.855,-26.855,-30.762,-13.672,0.000
1709291409.524,-35.156,-17.090,-29.785,-21.484,0.000
1709291409.528,-29.785,-31.250,-33.203,-31.250,0.000
1709291409.532,-20.508,-27.832,-33.203,-33.203,0.000
1709291409.536,0.000,-15.625,-33.691,-28.809,0.000
1709291409.540,0.000,-21.484,-40.039,-19.043,0.000
1709291409.544,0.000,-39.062,-42.969,-26.855,0.000
1709291409.547,0.000,-30.762,-25.391,-31.250,0.000
1709291409.551,0.000,-34.180,-20.996,-44.922,0.000
1709291409.555,0.000,-41.504,-28.320,-54.199,0.000
1709291409.559,0.000,-50.293,-25.391,-27.832,0.000
1709291409.563,0.000,-51.270,-31.250,-33.203,0.000
1709291409.567,0.000,-20.996,-34.668,-62.012,0.000
1709291409.571,0.000,-25.879,-28.809,-44.922,0.000
1709291409.575,0.000,-37.109,-28.809,-28.320,0.000
1709291409.579,0.000,-33.203,-33.203,-30.762,0.000
1709291409.582,-22.949,-18.555,-16.113,-20.996,0.000
1709291409.586,-28.809,-39.062,-23.926,-34.668,0.000
1709291409.590,-50.293,-60.059,-41.504,-41.504,0.000
1709291409.594,-52.246,-41.016,-33.691,-24.414,0.000
1709291409.598,-39.551,-34.180,-29.297,-13.672,0.000
1709291409.602,-23.438,-44.922,-28.320,-12.695,0.000
1709291409.606,-29.297,-49.805,-27.832,-18.066,0.000
1709291409.610,-33.691,-23.438,-26.855,-16.113,0.000
1709291409.614,-34.180,-29.297,-26.855,-15.137,0.000
1709291409.617,-35.645,-48.828,-31.738,-8.789,0.000
1709291409.621,-39.551,-35.156,-36.133,-20.508,0.000
1709291409.625,-38.574,-34.180,-37.109,-43.945,0.000
1709291409.630,-34.668,-43.457,-34.668,-45.898,0.000
1709291409.633,-39.062,-45.898,-30.762,-28.320,0.000
1709291409.637,-31.738,-52.246,-32.227,-11.719,0.000
1709291409.641,-23.926,-40.039,-31.738,-15.137,0.000
1709291409.645,-33.203,-43.945,-37.598,-27.832,0.000
1709291409.649,-52.734,-59.082,-50.293,-41.016,0.000
1709291409.653,-45.898,-40.527,-42.969,-45.898,0.000
1709291409.657,-34.668,-20.508,-36.621,-33.203,0.000
1709291409.661,-30.273,-25.879,-37.598,-26.855,0.000
1709291409.665,-26.367,-45.410,-36.133,-35.156,0.000
1709291409.669,-41.016,-36.621,-30.762,-37.109,0.000
1709291409.673,-41.992,-25.879,-27.832,-25.879,0.000
1709291409.677,-29.785,-36.133,-29.785,-3.418,0.000
1709291409.681,-21.973,-37.109,-33.203,-11.719,0.000
1709291409.684,-15.625,-28.320,-30.273,-38.574,0.000
1709291409.688,-16.602,-25.391,-26.367,-45.898,0.000
1709291409.692,-23.438,-38.574,-35.156,-43.457,0.000
1709291409.696,-11.230,-38.086,-21.973,-10.742,0.000
1709291409.700,-22.949,-33.203,-21.484,-9.277,0.000
1709291409.704,-41.016,-31.250,-37.598,-37.109,0.000
1709291409.708,-42.969,-45.410,-37.598,-33.203,0.000
1709291409.712,-46.875,-62.988,-38.574,-37.109,0.000
1709291409.716,-31.250,-36.133,-35.645,-19.531,0.000
1709291409.720,-19.531,-26.367,-33.691,-2.441,0.000
1709291409.724,-26.855,-44.434,-39.062,-27.832,0.000
1709291409.727,-28.320,-44.922,-39.062,-41.504,0.000
1709291409.731,-31.738,-41.504,-35.645,-44.922,0.000
1709291409.735,-38.574,-36.621,-33.691,-41.016,0.000
1709291409.739,-23.438,-35.645,-28.809,-22.461,0.000
1709291409.743,-18.555,-42.969,-29.297,-30.273,0.000
1709291409.747,-20.996,-39.551,-35.645,-59.570,0.000
1709291409.751,-32.227,-35.156,-39.062,-55.176,0.000
1709291409.755,-41.016,-56.152,-34.180,-16.602,0.000
1709291409.759,-33.691,-44.434,-32.715,-1.953,0.000
1709291409.763,-17.578,-16.113,-36.133,-23.926,0.000
1709291409.767,-26.855,-39.062,-35.645,-28.320,0.000
1709291409.770,-43.945,-47.363,-33.203,-33.691,0.000
1709291409.774,-31.250,-22.949,-28.320,-20.996,0.000
1709291409.778,-31.738,-23.438,-37.598,-10.254,0.000
1709291409.782,-35.156,-41.992,-43.457,-20.508,0.000
1709291409.786,-33.203,-47.363,-34.180,-23.926,0.000
1709291409.790,-36.621,-45.898,-31.250,-34.180,0.000
1709291409.794,-30.762,-44.434,-30.762,-34.180,0.000
1709291409.798,-29.785,-49.316,-34.668,-11.719,0.000
1709291409.802,-28.809,-44.434,-35.645,-10.254,0.000
1709291409.806,-16.602,-12.695,-28.809,-25.391,0.000
1709291409.809,-24.414,-17.578,-26.367,-40.527,0.000
1709291409.813,-38.574,-40.527,-32.227,-26.367,0.000
1709291409.817,0.000,-34.668,-37.598,-18.555,0.000
1709291409.821,0.000,-24.414,-41.992,-34.180,0.000
1709291409.825,0.000,-22.461,-35.156,-36.621,0.000
1709291409.829,0.000,-40.039,-29.785,-38.574,0.000
1709291409.833,0.000,-38.086,-30.762,-32.227,0.000
1709291409.837,0.000,-27.344,-26.855,-12.207,0.000
1709291409.841,0.000,-27.832,-28.320,-15.625,0.000
1709291409.845,0.000,-45.410,-33.203,-27.832,0.000
1709291409.849,0.000,-42.969,-33.691,-26.367,0.000
1709291409.852,0.000,-14.160,-34.668,-34.668,0.000
1709291409.856,0.000,-27.344,-35.156,-20.996,0.000
1709291409.860,0.000,-41.992,-35.645,-17.090,0.000
1709291409.864,-35.156,-37.598,-38.574,-38.574,0.000
1709291409.868,-46.387,-35.645,-41.992,-48.340,0.000
1709291409.872,-36.621,-40.527,-36.133,-34.180,0.000
1709291409.876,-33.691,-42.969,-38.574,-32.227,0.000
1709291409.880,-46.875,-48.828,-48.828,-41.504,0.000
1709291409.884,-44.922,-48.828,-45.898,-50.781,0.000
1709291409.888,-50.781,-60.547,-41.016,-61.523,0.000
1709291409.892,-49.316,-63.477,-31.738,-47.363,0.000
1709291409.895,-37.598,-29.785,-33.691,-32.715,0.000
1709291409.899,-30.273,-45.898,-38.574,-28.320,0.000
1709291409.903,-31.738,-64.453,-36.621,-30.762,0.000
1709291409.907,-39.062,-38.574,-35.645,-43.457,0.000
1709291409.911,-57.617,-29.785,-36.133,-59.082,0.000
1709291409.915,-49.316,-39.062,-27.832,-27.832,0.000
1709291409.919,-20.996,-43.457,-22.949,0.488,0.000
1709291409.923,-22.949,-39.062,-31.738,-4.395,0.000
1709291409.926,-38.574,-50.781,-31.738,-25.391,0.000
1709291409.930,-47.363,-51.270,-32.227,-53.711,0.000
1709291409.934,-41.504,-61.035,-39.062,-28.320,0.000
1709291409.938,-32.715,-52.246,-42.480,3.906,0.000
1709291409.942,-33.691,-21.484,-37.598,-16.602,0.000
1709291409.946,-35.645,-38.086,-39.551,-36.133,0.000
1709291409.950,-35.645,-57.617,-41.992,-35.156,0.000
1709291409.954,-33.691,-45.410,-41.016,-20.996,0.000
1709291409.957,-35.156,-39.551,-38.574,-11.719,0.000
1709291409.961,-26.855,-44.434,-36.621,-14.160,0.000
1709291409.965,-26.367,-41.504,-36.133,-27.832,0.000
1709291409.969,-39.551,-37.109,-32.715,-36.133,0.000
1709291409.973,-29.297,-38.574,-34.180,-16.113,0.000
1709291409.977,-19.043,-50.293,-34.668,-10.742,0.000
1709291409.981,-20.508,-55.176,-36.133,-20.508,0.000
1709291409.985,-42.969,-42.969,-39.551,-45.410,0.000
1709291409.989,-42.480,-24.902,-31.250,-41.016,0.000
1709291409.993,-18.066,-24.414,-20.996,-10.742,0.000
1709291409.996,-29.297,-47.852,-38.086,-15.137,0.000
1709291410.000,-27.832,-37.109,-43.457,-31.250,0.000
1709291410.004,-30.762,-37.109,-35.645,-44.434,0.000
1709291410.008,-41.016,-48.828,-34.668,-42.969,0.000
1709291410.012,-34.668,-38.574,-34.180,-26.855,0.000
1709291410.016,-29.785,-33.691,-28.809,-12.207,0.000
1709291410.019,-22.461,-38.574,-27.832,-15.625,0.000
1709291410.023,-32.227,-44.922,-26.855,-32.227,0.000
1709291410.027,-43.945,-38.086,-29.297,-38.574,0.000
1709291410.031,-35.645,-34.668,-33.203,-36.133,0.000
1709291410.035,-32.715,-34.180,-34.668,-26.367,0.000
1709291410.039,-18.555,-37.598,-33.691,4.395,0.000
1709291410.043,-24.414,-31.250,-36.133,-12.207,0.000
1709291410.047,-34.180,-12.695,-23.926,-31.738,0.000
1709291410.051,-28.320,-23.438,-16.113,-18.066,0.000
1709291410.055,-26.367,-45.898,-34.668,-26.367,0.000
1709291410.059,-21.973,-37.598,-32.715,-18.555,0.000
1709291410.063,-20.508,-24.902,-27.344,-16.602,0.000
1709291410.067,-20.020,-39.062,-33.691,-37.598,0.000
1709291410.070,-28.320,-53.223,-37.598,-45.410,0.000
1709291410.074,-27.832,-48.340,-34.180,-22.949,0.000
1709291410.078,-29.297,-39.062,-35.645,-11.230,0.000
1709291410.082,-27.344,-42.969,-34.180,-15.625,0.000
1709291410.086,-16.113,-46.875,-24.902,-20.508,0.000
1709291410.090,-23.926,-21.973,-24.902,-37.598,0.000
1709291410.094,-26.855,-22.949,-23.926,-30.762,0.000
1709291410.098,-20.020,-42.969,-22.461,-9.766,0.000
1709291410.102,-31.738,-45.898,-27.832,-22.461,0.000
1709291410.106,-39.062,-40.039,-29.785,-36.133,0.000
1709291410.110,-36.133,-47.852,-31.250,-35.645,0.000
1709291410.114,-23.926,-51.758,-23.926,-21.973,0.000
1709291410.117,-20.020,-52.734,-22.461,-10.254,0.000
1709291410.121,-21.973,-45.410,-20.508,-9.766,0.000
1709291410.125,-12.207,-24.414,-11.719,-8.301,0.000
1709291410.129,-38.574,-50.293,-27.832,-27.832,0.000
1709291410.133,-54.688,-54.199,-44.434,-40.527,0.000
1709291410.137,-29.297,-24.902,-42.480,-27.832,0.000
1709291410.141,-21.973,-36.621,-35.645,-21.973,0.000
1709291410.145,-22.461,-42.969,-34.180,-35.645,0.000
1709291410.149,-25.879,-40.527,-38.574,-49.805,0.000
1709291410.153,-39.062,-38.574,-41.504,-51.270,0.000
1709291410.157,-18.555,-38.574,-30.762,-24.902,0.000
1709291410.160,-12.207,-43.945,-27.344,-21.973,0.000
1709291410.164,-34.668,-49.316,-44.922,-52.246,0.000
1709291410.168,-37.598,-37.109,-46.875,-59.570,0.000
1709291410.172,-31.250,-45.410,-35.156,-42.480,0.000
1709291410.176,-15.137,-42.969,-21.973,-4.395,0.000
1709291410.180,-25.879,-22.949,-25.391,-13.672,0.000
1709291410.184,-21.973,-29.785,-30.273,-14.648,0.000
1709291410.188,-27.832,-38.574,-37.109,-32.715,0.000
1709291410.192,-41.992,-24.902,-28.320,-44.434,0.000
1709291410.195,-32.715,-21.484,-23.926,-19.043,0.000
1709291410.199,-49.316,-50.781,-47.852,-31.250,0.000
1709291410.203,-51.758,-55.176,-48.340,-40.527,0.000
1709291410.207,-35.645,-51.270,-38.574,-40.527,0.000
1709291410.211,-47.363,-49.316,-27.832,-37.109,0.000
1709291410.215,-47.363,-43.945,-22.461,-32.227,0.000
1709291410.219,-40.039,-64.941,-20.020,-12.695,0.000
1709291410.223,-41.016,-53.223,-24.414,-16.113,0.000
1709291410.227,-37.598,-20.508,-28.809,-58.594,0.000
1709291410.231,-36.133,-36.621,-29.297,-53.223,0.000
1709291410.235,-39.062,-49.316,-32.227,-19.043,0.000
1709291410.238,-26.855,-24.414,-21.484,-2.441,0.000
1709291410.242,-17.578,-32.715,-26.367,-20.996,0.000
1709291410.246,-44.922,-65.430,-45.898,-60.547,0.000
1709291410.250,-52.734,-57.129,-45.898,-49.805,0.000
1709291410.254,-34.180,-51.270,-39.551,-21.973,0.000
1709291410.258,-28.809,-59.570,-30.762,-11.230,0.000
1709291410.262,-29.297,-58.594,-27.344,-5.859,0.000
1709291410.266,-26.855,-52.734,-26.367,0.488,0.000
1709291410.270,-19.531,-29.785,-23.438,-2.441,0.000
1709291410.273,-16.113,-21.973,-32.715,-5.859,0.000
1709291410.277,-0.977,-27.832,-24.414,16.113,0.000
1709291410.281,2.441,-32.227,-22.461,12.207,0.000
1709291410.285,-27.344,-51.758,-46.387,-30.273,0.000
1709291410.289,-40.039,-54.199,-45.898,-47.363,0.000
1709291410.293,-43.457,-59.082,-39.551,-31.738,0.000
1709291410.297,-34.180,-44.922,-37.598,-25.391,0.000
1709291410.301,-28.809,-39.551,-39.062,-27.832,0.000
1709291410.304,-20.996,-38.574,-25.879,-16.602,0.000
1709291410.308,-27.344,-44.434,-28.320,-22.461,0.000
1709291410.312,-43.457,-50.293,-47.852,-36.133,0.000
1709291410.316,-41.504,-35.156,-44.434,-12.207,0.000
1709291410.320,-31.738,-41.016,-40.527,-1.953,0.000
1709291410.324,-26.367,-56.152,-38.574,-20.996,0.000
1709291410.328,-30.273,-45.410,-30.762,-26.367,0.000
1709291410.331,0.000,-31.250,-29.785,-27.344,0.000
1709291410.335,0.000,-42.969,-32.227,-15.625,0.000
1709291410.339,0.000,-51.270,-29.297,-11.719,0.000
1709291410.343,0.000,-39.551,-31.250,-30.762,0.000
1709291410.347,0.000,-29.785,-38.086,-38.574,0.000
1709291410.351,0.000,-47.363,-41.016,-20.508,0.000
1709291410.355,0.000,-64.941,-38.086,3.418,0.000
1709291410.359,0.000,-30.273,-36.621,6.836,0.000
1709291410.363,0.000,-7.812,-33.203,-6.348,0.000
1709291410.367,0.000,-36.621,-38.574,-35.645,0.000
1709291410.371,0.000,-41.992,-42.969,-50.781,0.000
1709291410.374,0.000,-31.250,-43.457,-29.785,0.000
1709291410.379,-29.297,-33.203,-38.086,-9.277,0.000
1709291410.383,-36.133,-39.551,-32.227,-24.902,0.000
1709291410.386,-37.109,-36.621,-27.832,-39.062,0.000
1709291410.390,-31.250,-36.133,-30.762,-39.062,0.000
1709291410.394,-11.719,-27.832,-18.555,-10.742,0.000
1709291410.398,-14.648,-26.367,-18.555,3.906,0.000
1709291410.402,-41.504,-38.086,-30.762,-20.020,0.000
1709291410.406,-41.992,-31.250,-25.879,-40.039,0.000
1709291410.410,-42.480,-35.156,-34.668,-44.922,0.000
1709291410.414,-45.898,-51.270,-35.156,-22.461,0.000
1709291410.418,-40.039,-34.668,-30.762,-14.160,0.000
1709291410.422,-39.551,-20.020,-32.715,-27.832,0.000
1709291410.426,-31.738,-34.180,-36.133,-40.039,0.000
1709291410.430,-34.180,-41.016,-38.574,-45.898,0.000
1709291410.434,-47.363,-42.480,-33.691,-38.086,0.000
1709291410.437,-38.574,-38.574,-30.273,-19.043,0.000
1709291410.441,-33.203,-43.945,-37.109,-29.785,0.000
1709291410.445,-43.457,-54.199,-39.551,-57.129,0.000
1709291410.449,-41.504,-33.203,-27.344,-49.805,0.000
1709291410.453,-33.691,-22.461,-30.762,-30.762,0.000
1709291410.457,-42.480,-54.688,-48.828,-32.227,0.000
1709291410.461,-46.387,-59.570,-41.992,-16.602,0.000
1709291410.465,-43.457,-24.414,-35.156,-30.273,0.000
1709291410.469,-28.320,-21.484,-41.992,-50.781,0.000
1709291410.473,-19.043,-41.992,-42.969,-34.180,0.000
1709291410.477,-28.809,-42.480,-38.574,-17.090,0.000
1709291410.481,-29.297,-31.250,-38.086,-26.367,0.000
1709291410.484,-32.227,-42.480,-40.527,-50.781,0.000
1709291410.488,-51.270,-55.176,-43.457,-48.828,0.000
1709291410.492,-53.223,-47.852,-45.410,-41.504,0.000
1709291410.496,-40.527,-41.992,-39.062,-24.414,0.000
1709291410.500,-39.551,-30.762,-36.133,-18.066,0.000
1709291410.504,-42.969,-48.828,-37.109,-39.062,0.000
1709291410.508,-35.156,-43.945,-28.809,-39.062,0.000
1709291410.512,-31.250,-18.066,-31.250,-32.227,0.000
1709291410.516,-9.766,-24.414,-28.320,-13.672,0.000
1709291410.520,-5.859,-28.320,-28.320,-5.859,0.000
1709291410.524,-34.668,-33.691,-42.480,-34.180,0.000
1709291410.527,-41.504,-40.527,-35.156,-53.711,0.000
1709291410.531,-39.062,-46.387,-35.645,-44.434,0.000
1709291410.535,-32.227,-46.387,-34.668,-30.273,0.000
1709291410.539,-29.297,-50.293,-33.203,-21.484,0.000
1709291410.543,-24.414,-34.180,-37.598,-16.113,0.000
1709291410.547,-27.344,-31.738,-35.156,-29.297,0.000
1709291410.551,-33.203,-49.805,-29.297,-33.203,0.000
1709291410.555,-22.461,-22.949,-27.832,-3.906,0.000
1709291410.559,-14.648,-26.367,-27.344,7.812,0.000
1709291410.563,-28.320,-52.246,-26.855,-5.371,0.000
1709291410.566,-36.133,-40.039,-32.227,-34.180,0.000
1709291410.570,-24.902,-32.715,-31.738,-41.992,0.000
1709291410.574,-10.742,-37.598,-30.762,-13.672,0.000
1709291410.578,-4.395,-45.410,-32.715,-7.324,0.000
1709291410.582,-28.320,-47.852,-31.250,-34.180,0.000
1709291410.586,-42.480,-33.203,-37.598,-43.945,0.000
1709291410.590,-33.691,-24.902,-37.109,-43.945,0.000
1709291410.594,-17.578,-42.969,-26.367,-15.625,0.000
1709291410.598,-23.926,-39.551,-29.785,-4.883,0.000
1709291410.602,-39.551,-26.367,-40.527,-39.062,0.000
1709291410.605,-41.504,-39.551,-41.016,-45.898,0.000
1709291410.609,-39.551,-37.109,-33.691,-35.645,0.000
1709291410.614,-34.668,-31.250,-33.203,-25.879,0.000
1709291410.618,-22.949,-30.273,-35.156,-30.762,0.000
1709291410.622,-19.531,-41.992,-34.668,-34.180,0.000
1709291410.626,-31.250,-47.363,-33.691,-44.434,0.000
1709291410.629,-38.086,-39.062,-36.133,-46.875,0.000
1709291410.633,-27.344,-33.691,-29.785,-30.273,0.000
1709291410.637,-16.602,-25.879,-20.508,-14.648,0.000
1709291410.641,-33.691,-43.457,-35.645,-15.625,0.000
1709291410.645,-51.270,-41.992,-44.434,-42.480,0.000
1709291410.649,-49.805,-25.391,-39.551,-56.641,0.000
1709291410.653,-39.062,-36.133,-41.504,-31.250,0.000
1709291410.657,-29.297,-37.598,-43.457,-12.695,0.000
1709291410.660,-13.184,-19.531,-27.832,-10.742,0.000
1709291410.664,-24.414,-34.180,-31.738,-34.668,0.000
1709291410.668,-33.691,-56.641,-41.992,-46.875,0.000
1709291410.672,-16.113,-41.504,-30.273,-25.879,0.000
1709291410.676,-11.230,-39.551,-23.438,-7.812,0.000
1709291410.680,-14.648,-44.922,-27.344,-8.789,0.000
1709291410.684,-24.414,-40.039,-30.762,-31.250,0.000
1709291410.688,-29.297,-35.156,-27.344,-47.852,0.000
1709291410.692,-27.832,-23.926,-30.273,-41.016,0.000
1709291410.696,-20.020,-27.344,-34.668,-16.602,0.000
1709291410.700,-7.812,-38.574,-20.996,12.695,0.000
1709291410.703,-11.230,-23.926,-20.020,-1.953,0.000
