timestamps,TP9,AF7,AF8,TP10,Right AUX
1709291923.474,-23.926,-32.227,-37.109,-37.598,0.000
1709291923.478,-35.645,-33.691,-37.598,-42.480,0.000
1709291923.482,-36.133,-31.250,-34.180,-34.180,0.000
1709291923.486,-29.297,-32.227,-33.203,-26.855,0.000
1709291923.490,-31.250,-33.203,-31.738,-29.785,0.000
1709291923.494,-34.668,-41.992,-23.926,-38.574,0.000
1709291923.497,-36.621,-40.527,-24.414,-39.551,0.000
1709291923.501,-41.016,-31.738,-33.691,-35.156,0.000
1709291923.505,-33.691,-37.598,-39.062,-33.691,0.000
1709291923.509,-26.367,-38.574,-38.574,-25.391,0.000
1709291923.513,-35.156,-36.133,-42.969,-29.785,0.000
1709291923.517,-43.457,-32.715,-47.852,-41.504,0.000
1709291923.522,-40.527,-31.738,0.000,0.000,0.000
1709291923.526,-36.133,-34.668,0.000,0.000,0.000
1709291923.530,-32.227,-34.180,0.000,0.000,0.000
1709291923.534,-39.062,-31.738,0.000,0.000,0.000
1709291923.537,-47.852,-31.738,0.000,0.000,0.000
1709291923.541,-42.969,-31.250,0.000,0.000,0.000
1709291923.545,-34.180,-31.738,0.000,0.000,0.000
1709291923.549,-25.879,-32.715,0.000,0.000,0.000
1709291923.553,-21.973,-30.273,0.000,0.000,0.000
1709291923.557,-30.762,-27.832,0.000,0.000,0.000
1709291923.561,-37.109,-30.273,0.000,0.000,0.000
1709291923.565,-34.180,-34.180,0.000,0.000,0.000
1709291923.569,-22.949,-26.855,-40.527,-25.879,0.000
1709291923.573,-21.484,-22.949,-37.598,-25.391,0.000
1709291923.577,-31.250,-23.438,-35.156,-32.715,0.000
1709291923.581,-35.156,-20.508,-32.715,-29.297,0.000
1709291923.585,-34.668,-25.391,-38.086,-33.691,0.000
1709291923.588,-26.367,-32.227,-37.598,-40.039,0.000
1709291923.592,-25.391,-31.250,-37.598,-36.621,0.000
1709291923.596,-38.086,-30.762,-42.969,-38.574,0.000
1709291923.600,-41.016,-28.809,-40.527,-32.227,0.000
1709291923.604,-43.945,-34.180,-38.086,-23.438,0.000
1709291923.608,-41.992,-30.762,-42.480,-29.785,0.000
1709291923.612,-27.344,-22.949,-44.922,-30.273,0.000
1709291923.616,-29.297,-21.484,-38.086,-24.902,0.000
1709291923.620,-35.645,-20.020,-36.133,-24.902,0.000
1709291923.624,-39.062,-22.461,-38.086,-35.645,0.000
1709291923.628,-26.855,-27.344,-34.180,-29.785,0.000
1709291923.631,-29.297,-33.691,-29.785,-23.438,0.000
1709291923.635,-36.621,-35.645,-31.250,-29.785,0.000
1709291923.639,-34.180,-34.180,-33.691,-34.180,0.000
1709291923.643,-41.016,-36.621,-39.062,-34.668,0.000
1709291923.647,-33.691,-32.715,-41.016,-24.902,0.000
1709291923.651,-26.367,-29.297,-41.992,-23.926,0.000
1709291923.655,-34.668,-29.785,-44.434,-35.156,0.000
1709291923.659,-37.598,-29.297,-41.504,-34.668,0.000
1709291923.662,-40.527,-30.273,-40.527,-25.879,0.000
1709291923.666,-40.527,-32.227,-48.340,-29.297,0.000
1709291923.670,-22.949,-35.645,-58.105,-28.809,0.000
1709291923.674,-11.719,-28.809,-48.828,-11.230,0.000
1709291923.678,-39.062,-34.668,-37.109,-26.367,0.000
1709291923.682,-60.547,-44.922,-35.645,-46.875,0.000
1709291923.686,-45.410,-39.551,-37.109,-33.691,0.000
1709291923.690,-36.621,-32.715,-35.645,-17.578,0.000
1709291923.694,-41.016,-34.668,-39.062,-25.391,0.000
1709291923.698,-42.969,-36.621,-41.992,-33.691,0.000
1709291923.702,-40.527,-35.645,-41.992,-30.273,0.000
1709291923.705,-28.809,-32.715,-41.504,-30.273,0.000
1709291923.709,-20.020,-28.320,-34.668,-24.414,0.000
1709291923.713,-27.344,-24.902,-36.133,-26.367,0.000
1709291923.717,-34.668,-29.297,-35.156,-28.809,0.000
1709291923.721,-40.527,-36.133,-35.645,-25.879,0.000
1709291923.725,-36.621,-29.297,-38.086,-30.273,0.000
1709291923.728,-24.902,-23.926,-34.180,-27.832,0.000
1709291923.732,-23.926,-29.785,-36.133,-26.855,0.000
1709291923.736,-32.227,-29.785,-43.945,-23.926,0.000
1709291923.740,-35.645,-29.785,-45.898,-25.879,0.000
1709291923.744,-31.250,-30.762,-42.480,-39.551,0.000
1709291923.748,-23.926,-29.785,-39.551,-33.203,0.000
1709291923.752,-22.949,-31.738,-40.527,-25.391,0.000
1709291923.755,-29.785,-36.133,-41.992,-28.320,0.000
1709291923.759,-37.598,-34.180,-37.109,-29.297,0.000
1709291923.763,-35.645,-29.785,-33.203,-31.738,0.000
1709291923.767,-29.785,-28.809,-35.645,-29.785,0.000
1709291923.771,-26.855,-30.762,-38.086,-23.926,0.000
1709291923.775,-34.668,-35.156,-40.039,-27.344,0.000
1709291923.779,-42.969,-35.156,-41.016,-31.738,0.000
1709291923.783,-41.992,-38.574,-38.574,-23.926,0.000
1709291923.787,-34.180,-36.621,-37.109,-20.996,0.000
1709291923.790,-22.949,-31.250,-37.598,-20.996,0.000
1709291923.794,-24.902,-34.668,-39.551,-29.297,0.000
1709291923.798,-34.180,-37.109,-41.992,-33.691,0.000
1709291923.801,-38.574,-37.598,-43.945,-29.297,0.000
1709291923.805,-31.738,-39.062,-41.504,-29.785,0.000
1709291923.809,-25.391,-32.227,-41.016,-32.227,0.000
1709291923.813,-31.250,-28.809,-48.340,-35.645,0.000
1709291923.817,-33.203,-28.320,-44.922,-34.180,0.000
1709291923.821,-28.809,-28.320,-35.645,-30.762,0.000
1709291923.825,-31.738,-32.227,-36.133,-16.113,0.000
1709291923.829,-24.414,-31.250,-38.574,-14.160,0.000
1709291923.833,-22.461,-31.738,-39.062,-30.273,0.000
1709291923.837,-30.273,-30.762,-34.668,-27.832,0.000
1709291923.841,-24.902,-24.902,-30.273,-20.020,0.000
1709291923.844,-24.414,-28.320,-31.738,-19.043,0.000
1709291923.848,-23.438,-33.691,-33.203,-17.090,0.000
1709291923.852,-23.438,-28.320,-33.203,-18.066,0.000
1709291923.855,-30.762,-27.344,-33.203,-21.973,0.000
1709291923.859,-32.715,-32.715,-34.180,-19.531,0.000
1709291923.863,-28.320,-33.691,-37.598,-16.602,0.000
1709291923.867,-20.508,-34.180,-37.598,-19.531,0.000
1709291923.871,-17.578,-32.715,-37.109,-22.461,0.000
1709291923.875,-29.297,-32.227,-39.062,-28.320,0.000
1709291923.879,-37.109,-33.203,-39.062,-30.762,0.000
1709291923.883,-34.668,-36.621,-39.551,-26.367,0.000
1709291923.887,-32.227,-34.668,-38.574,-22.949,0.000
1709291923.891,-38.086,-30.762,-42.480,-35.156,0.000
1709291923.895,-43.457,-33.203,-42.480,-41.992,0.000
1709291923.899,-50.781,-36.621,-45.898,-37.598,0.000
1709291923.903,-51.270,-35.645,-48.828,-38.086,0.000
1709291923.907,-38.574,-32.227,-46.875,-39.062,0.000
1709291923.911,-35.645,-27.344,-41.504,-37.598,0.000
1709291923.915,-40.527,-24.414,-36.621,-34.668,0.000
1709291923.919,-45.410,-30.273,-36.133,-32.715,0.000
1709291923.922,-40.527,-23.926,-37.109,-31.250,0.000
1709291923.926,-38.574,-25.879,-41.992,-30.273,0.000
1709291923.930,-36.133,-31.250,-38.574,-26.367,0.000
1709291923.934,-26.855,-24.902,-38.086,-22.461,0.000
1709291923.938,-35.645,-29.785,-42.480,-29.785,0.000
1709291923.942,-41.016,-32.227,-36.133,-24.902,0.000
1709291923.946,-22.949,-26.367,-35.645,-18.555,0.000
1709291923.950,-12.695,-21.484,-37.109,-17.578,0.000
1709291923.954,-21.484,-21.973,-34.180,-15.625,0.000
1709291923.958,-27.832,-20.508,-36.621,-14.160,0.000
1709291923.962,-21.484,-21.484,-37.598,-12.207,0.000
1709291923.966,-10.742,-20.508,-34.180,-15.625,0.000
1709291923.970,-6.836,-20.996,-32.227,-21.973,0.000
1709291923.974,-18.066,-23.926,-30.762,-22.461,0.000
1709291923.977,-30.762,-23.438,-34.668,-19.531,0.000
1709291923.981,-32.227,-22.949,-34.180,-27.344,0.000
1709291923.985,-19.043,-22.461,-30.762,-24.414,0.000
1709291923.989,-14.160,-22.949,-31.250,-24.414,0.000
1709291923.993,-25.879,-28.809,-32.715,-32.715,0.000
1709291923.997,-29.297,-28.320,-32.227,-29.297,0.000
1709291924.001,-25.879,-24.414,-34.668,-24.414,0.000
1709291924.005,-24.414,-21.973,-38.086,-26.367,0.000
1709291924.009,-22.949,-21.484,-34.668,-27.344,0.000
1709291924.013,-22.949,-25.879,-34.180,-23.438,0.000
1709291924.017,-33.691,-32.715,-40.039,-27.344,0.000
1709291924.021,-38.574,-33.691,-41.016,-19.043,0.000
1709291924.024,-29.785,-36.621,-41.504,-17.578,0.000
1709291924.028,-19.531,-39.062,-43.457,-29.297,0.000
1709291924.032,-22.949,-37.109,-40.039,-29.297,0.000
1709291924.036,-36.621,-35.645,-41.016,-33.691,0.000
1709291924.040,-33.203,-28.320,-41.016,-28.320,0.000
1709291924.044,-25.391,-24.902,-35.156,-20.996,0.000
1709291924.048,-25.391,-31.738,-30.762,-23.438,0.000
1709291924.052,-17.090,-29.297,-32.715,-32.715,0.000
1709291924.056,-22.461,-19.531,-36.621,-35.645,0.000
1709291924.060,-33.691,-24.414,-38.086,-35.645,0.000
1709291924.063,-38.574,-30.762,-41.504,-32.227,0.000
1709291924.067,-31.250,-30.762,-40.527,-37.109,0.000
1709291924.071,-32.715,-28.320,-35.156,-43.945,0.000
1709291924.075,-37.598,-29.297,-32.227,-39.551,0.000
1709291924.079,-37.109,-32.227,-33.691,-39.551,0.000
1709291924.083,-34.668,-30.273,-36.621,-36.133,0.000
1709291924.087,-27.832,-28.320,-40.527,-36.133,0.000
1709291924.091,-32.715,-27.344,-42.480,-39.551,0.000
1709291924.094,-42.480,-31.250,-46.875,-42.480,0.000
1709291924.098,-49.316,-36.133,-47.852,-43.945,0.000
1709291924.102,-48.828,-37.598,-41.992,-40.039,0.000
1709291924.106,-35.645,-36.621,-40.039,-36.621,0.000
1709291924.110,-38.086,-32.715,-43.945,-37.598,0.000
1709291924.114,-54.199,-35.156,-42.480,-42.969,0.000
1709291924.118,-45.410,-36.133,-37.598,-44.922,0.000
1709291924.122,-41.992,-33.203,-37.598,-42.969,0.000
1709291924.126,-41.992,-36.621,-35.156,-47.363,0.000
1709291924.129,-35.156,-28.809,-32.715,-41.992,0.000
1709291924.133,-44.434,-29.785,-38.574,-43.945,0.000
1709291924.137,-49.316,-36.621,-36.133,-45.898,0.000
1709291924.141,-47.363,-30.762,-35.156,-42.480,0.000
1709291924.145,-42.969,-29.785,-35.645,-38.574,0.000
1709291924.149,-37.109,-32.715,-33.203,-34.668,0.000
1709291924.153,-35.645,-32.715,-39.551,-34.180,0.000
1709291924.157,-37.598,-33.203,-41.504,-41.016,0.000
1709291924.160,-41.504,-37.598,-36.621,-46.387,0.000
1709291924.164,-21.484,-38.574,-31.250,-18.555,0.000
1709291924.168,-4.883,-25.391,-39.551,-5.371,0.000
1709291924.172,-26.855,-17.090,-42.969,-29.785,0.000
1709291924.176,0.000,-19.043,-37.598,-50.781,0.000
1709291924.179,0.000,-18.555,-39.062,-53.223,0.000
1709291924.183,0.000,-13.672,-45.410,-49.316,0.000
1709291924.187,0.000,-13.672,-49.316,-61.035,0.000
1709291924.191,0.000,-17.090,-54.199,-64.941,0.000
1709291924.195,0.000,-21.484,-59.570,-66.895,0.000
1709291924.199,0.000,-21.484,-53.711,-63.477,0.000
1709291924.203,0.000,-13.672,-53.223,-67.383,0.000
1709291924.207,0.000,-6.348,-56.641,-82.520,0.000
1709291924.211,0.000,-7.324,-55.176,-90.820,0.000
1709291924.215,0.000,-5.371,-54.199,-98.633,0.000
1709291924.219,0.000,-1.465,-57.129,-99.609,0.000
1709291924.222,-80.078,-2.930,-60.547,-97.656,0.000
1709291924.226,-62.988,-3.418,-59.082,-98.145,0.000
1709291924.230,-56.641,5.371,-56.641,-101.074,0.000
1709291924.233,-66.895,7.812,-57.617,-100.098,0.000
1709291924.237,-62.988,2.930,-58.105,-91.309,0.000
1709291924.241,-58.594,5.371,-60.547,-83.496,0.000
1709291924.245,-47.852,8.789,-63.477,-63.965,0.000
1709291924.249,-36.133,12.207,-64.941,-66.406,0.000
1709291924.253,-34.668,15.137,-67.383,-72.266,0.000
1709291924.257,-32.715,11.719,-70.801,-58.105,0.000
1709291924.261,-20.996,18.555,-66.406,-42.480,0.000
1709291924.265,2.441,25.879,-68.359,-34.180,0.000
1709291924.269,13.672,26.855,-72.754,-25.879,0.000
1709291924.273,13.672,27.344,-70.801,-13.184,0.000
1709291924.277,22.949,30.273,-73.242,0.000,0.000
1709291924.281,34.668,36.133,-78.125,8.301,0.000
1709291924.285,46.387,30.273,-75.684,16.113,0.000
1709291924.289,52.734,24.902,-74.707,23.926,0.000
1709291924.293,53.223,28.809,-76.172,30.762,0.000
1709291924.297,55.176,22.949,-73.730,33.691,0.000
1709291924.301,56.641,19.043,-73.242,34.668,0.000
1709291924.304,66.406,21.484,-76.172,42.969,0.000
1709291924.308,65.430,18.555,-76.172,37.598,0.000
1709291924.312,63.965,16.113,-71.289,40.039,0.000
1709291924.317,72.266,19.531,-66.895,48.828,0.000
1709291924.321,63.965,19.043,-65.430,38.574,0.000
1709291924.324,58.594,11.230,-61.035,36.133,0.000
1709291924.328,59.570,10.254,-58.594,38.574,0.000
1709291924.332,48.340,10.254,-55.664,36.133,0.000
1709291924.336,38.574,9.766,-50.293,35.645,0.000
1709291924.340,39.062,9.766,-49.316,38.574,0.000
1709291924.344,37.598,5.859,-51.758,25.879,0.000
1709291924.348,35.645,3.418,-52.246,26.367,0.000
1709291924.352,29.297,2.441,-47.852,37.109,0.000
1709291924.356,24.414,3.906,-49.805,31.738,0.000
1709291924.360,24.414,1.465,-45.898,24.414,0.000
1709291924.364,19.531,-5.859,-44.434,18.066,0.000
1709291924.368,21.484,-4.883,-43.457,22.949,0.000
1709291924.372,15.137,-0.488,-39.062,21.973,0.000
1709291924.375,9.277,-0.488,-37.109,21.484,0.000
1709291924.379,10.742,-3.418,-35.645,22.949,0.000
1709291924.383,18.555,-10.254,-35.156,19.531,0.000
1709291924.387,21.973,-12.207,-34.668,20.020,0.000
1709291924.391,19.531,-13.184,-38.574,18.555,0.000
1709291924.395,14.160,-17.090,-39.062,14.648,0.000
1709291924.399,6.836,-17.090,-39.551,11.719,0.000
1709291924.403,4.883,-17.578,-42.480,2.930,0.000
1709291924.407,11.719,-19.043,-43.457,5.371,0.000
1709291924.411,20.996,-20.996,-42.480,11.230,0.000
1709291924.415,19.531,-19.043,-41.504,7.324,0.000
1709291924.418,4.883,-20.020,-41.016,3.418,0.000
1709291924.422,3.906,-15.625,-38.574,4.883,0.000
1709291924.426,8.789,-13.672,-42.480,-0.977,0.000
1709291924.430,2.441,-19.043,-41.992,-3.906,0.000
1709291924.434,-5.859,-18.066,-37.598,-0.977,0.000
1709291924.438,-18.555,-20.020,-37.598,-2.441,0.000
1709291924.442,-23.926,-25.391,-37.598,-4.395,0.000
1709291924.446,-14.160,-22.461,-39.062,-6.836,0.000
1709291924.450,-10.742,-23.438,-41.016,-9.766,0.000
1709291924.454,-15.625,-28.809,-39.062,-10.742,0.000
1709291924.457,-16.113,-27.832,-38.574,-5.371,0.000
1709291924.461,-19.531,-25.879,-34.180,-8.301,0.000
1709291924.465,-21.973,-26.367,-25.879,-10.742,0.000
1709291924.469,-11.719,-23.926,-24.902,-6.348,0.000
1709291924.473,-16.602,-21.484,-24.414,-15.137,0.000
1709291924.477,-36.621,-23.438,-25.391,-17.090,0.000
1709291924.481,-35.156,-23.926,-27.344,-11.719,0.000
1709291924.485,-25.879,-24.902,-28.320,-5.371,0.000
1709291924.489,-24.414,-23.926,-32.715,-8.789,0.000
1709291924.492,-29.785,-25.879,-35.156,-22.461,0.000
1709291924.496,-37.598,-29.297,-29.297,-20.508,0.000
1709291924.500,-31.738,-26.855,-26.855,-19.531,0.000
1709291924.504,-22.461,-23.926,-30.273,-21.973,0.000
1709291924.508,-18.066,-26.855,-32.227,-27.832,0.000
1709291924.512,-25.879,-25.391,-33.203,-32.227,0.000
1709291924.516,-36.621,-26.855,-38.086,-37.598,0.000
1709291924.519,-30.762,-32.715,-40.527,-31.738,0.000
1709291924.523,-22.461,-24.414,-34.668,-20.996,0.000
1709291924.527,-17.578,-24.414,-32.715,-19.531,0.000
1709291924.531,-19.531,-30.273,-32.715,-22.461,0.000
1709291924.535,-26.855,-30.762,-32.227,-31.250,0.000
1709291924.539,-32.227,-31.250,-30.762,-28.809,0.000
1709291924.543,-29.785,-30.762,-35.156,-27.832,0.000
1709291924.547,-25.391,-30.762,-41.016,-26.367,0.000
1709291924.550,-19.531,-29.785,-42.969,-25.879,0.000
1709291924.554,-20.020,-31.738,-43.457,-31.250,0.000
1709291924.558,-28.320,-35.645,-46.387,-30.762,0.000
1709291924.562,-26.855,-36.621,-48.340,-23.926,0.000
1709291924.566,-18.555,-40.527,-50.781,-28.809,0.000
1709291924.570,-12.695,-38.574,-52.734,-30.273,0.000
1709291924.574,-27.832,-43.945,-50.293,-22.461,0.000
1709291924.578,-35.156,-43.457,-47.852,-30.273,0.000
1709291924.581,-20.508,-33.691,-44.434,-24.902,0.000
1709291924.585,-11.719,-34.180,-44.922,-19.043,0.000
1709291924.589,-18.555,-32.227,-43.945,-28.809,0.000
1709291924.593,-24.414,-31.250,-39.062,-22.949,0.000
1709291924.596,-20.020,-24.414,-39.551,-14.648,0.000
1709291924.600,-28.809,-20.020,-46.875,-19.043,0.000
1709291924.604,-31.738,-23.926,-49.805,-32.715,0.000
1709291924.608,-20.508,-23.438,-45.410,-34.668,0.000
1709291924.612,-17.090,-22.949,-44.922,-26.855,0.000
1709291924.616,-33.691,-22.949,-48.828,-33.691,0.000
1709291924.620,-39.062,-22.949,-46.875,-35.156,0.000
1709291924.624,-39.062,-23.926,-43.945,-30.762,0.000
1709291924.628,-31.250,-22.461,-41.504,-36.133,0.000
1709291924.632,-23.438,-21.973,-41.504,-41.504,0.000
1709291924.635,-30.273,-22.949,-48.828,-37.598,0.000
1709291924.639,-27.832,-16.113,-49.316,-28.320,0.000
1709291924.644,-25.879,-12.207,-47.852,-30.273,0.000
1709291924.648,-26.367,-9.766,-42.969,-27.832,0.000
1709291924.652,-30.762,-14.648,-41.992,-27.344,0.000
1709291924.656,-37.109,-20.020,-47.852,-38.086,0.000
1709291924.660,-37.598,-20.020,-47.363,-42.969,0.000
1709291924.664,-26.367,-23.926,-43.457,-34.668,0.000
1709291924.668,-13.672,-19.043,-39.062,-27.344,0.000
1709291924.671,-25.879,-16.113,-39.062,-36.621,0.000
1709291924.675,-39.062,-18.066,-40.039,-39.062,0.000
1709291924.679,-40.527,-19.531,-36.621,-27.832,0.000
1709291924.683,-37.598,-18.555,-35.156,-26.367,0.000
1709291924.687,-31.738,-14.648,-32.227,-34.180,0.000
1709291924.691,-30.273,-19.043,-34.180,-32.227,0.000
1709291924.695,-38.086,-22.949,-38.086,-25.879,0.000
1709291924.699,-46.875,-24.414,-37.109,-31.250,0.000
1709291924.703,-44.922,-26.855,-40.527,-38.086,0.000
1709291924.707,-33.691,-26.855,-38.574,-39.062,0.000
1709291924.711,-32.715,-25.879,-36.133,-41.016,0.000
1709291924.715,-32.227,-26.367,-36.621,-35.645,0.000
1709291924.719,-36.621,-19.531,-38.086,-33.691,0.000
1709291924.723,-39.062,-22.949,-40.039,-32.715,0.000
1709291924.727,-30.273,-31.250,-35.645,-27.344,0.000
1709291924.731,-28.320,-22.949,-36.133,-31.250,0.000
1709291924.734,-35.156,-20.996,-37.109,-30.762,0.000
1709291924.739,-42.480,-23.926,-36.621,-37.598,0.000
1709291924.743,-41.016,-25.879,-38.574,-39.062,0.000
1709291924.746,-34.180,-24.902,-42.480,-31.738,0.000
1709291924.750,-26.855,-18.555,-41.016,-31.738,0.000
1709291924.754,-34.668,-15.625,-39.551,-35.156,0.000
1709291924.758,-43.945,-22.461,-45.410,-41.504,0.000
1709291924.762,-38.086,-25.391,-43.945,-37.598,0.000
1709291924.766,-32.227,-21.973,-41.016,-40.039,0.000
1709291924.770,-29.785,-20.508,-38.086,-32.227,0.000
1709291924.774,-35.156,-21.484,-38.574,-23.926,0.000
1709291924.778,-38.574,-21.973,-40.039,-39.551,0.000
1709291924.782,-35.645,-24.414,-34.180,-40.527,0.000
1709291924.786,-34.668,-27.832,-31.738,-31.250,0.000
1709291924.789,-29.297,-25.879,-34.180,-26.367,0.000
1709291924.793,-34.180,-24.902,-40.039,-26.855,0.000
1709291924.797,-41.992,-27.344,-44.922,-34.668,0.000
1709291924.801,-31.250,-22.949,-41.992,-34.668,0.000
1709291924.805,-22.949,-23.926,-40.039,-29.297,0.000
1709291924.809,-20.020,-22.461,-39.062,-25.879,0.000
1709291924.813,-26.367,-20.020,-38.086,-24.414,0.000
1709291924.817,-41.504,-19.043,-40.039,-24.902,0.000
1709291924.821,-38.574,-20.508,-43.457,-32.227,0.000
1709291924.825,-33.691,-26.367,-41.016,-38.086,0.000
1709291924.828,-25.391,-23.438,-40.039,-20.996,0.000
1709291924.834,-17.578,-19.531,-40.527,-16.113,0.000
1709291924.838,-28.320,-13.672,-41.016,-28.320,0.000
1709291924.842,-35.156,-15.137,-41.992,-40.527,0.000
1709291924.846,-25.391,-15.137,-42.480,-38.574,0.000
1709291924.849,-17.578,-12.695,-45.410,-30.762,0.000
1709291924.853,-20.996,-14.160,-42.480,-31.738,0.000
1709291924.857,-34.668,-17.578,-37.598,-35.645,0.000
1709291924.861,-43.945,-21.484,-39.062,-39.551,0.000
1709291924.865,-41.016,-20.996,-41.016,-35.645,0.000
1709291924.869,-33.691,-19.531,-37.109,-33.691,0.000
1709291924.873,-32.715,-18.066,-41.504,-35.156,0.000
1709291924.877,-37.598,-22.461,-44.434,-36.621,0.000
1709291924.880,-41.016,-29.297,-41.992,-36.621,0.000
1709291924.884,-42.480,-31.250,-44.922,-39.062,0.000
1709291924.888,-35.645,-27.344,-41.992,-31.250,0.000
1709291924.892,-33.203,-26.855,-42.480,-22.461,0.000
1709291924.896,-42.969,-24.414,-41.016,-30.762,0.000
1709291924.900,-49.805,-29.785,-41.016,-39.551,0.000
1709291924.904,-43.457,-33.203,-39.551,-37.598,0.000
1709291924.908,-37.598,-27.344,-34.668,-28.809,0.000
1709291924.911,-32.715,-23.438,-36.133,-21.973,0.000
1709291924.915,-39.551,-27.344,-41.992,-28.809,0.000
1709291924.919,-50.781,-29.297,-42.969,-36.621,0.000
1709291924.923,-46.387,-23.926,-41.016,-31.738,0.000
1709291924.926,-36.133,-22.949,-40.039,-29.297,0.000
1709291924.930,-27.832,-24.902,-37.109,-29.785,0.000
1709291924.934,-34.180,-22.461,-39.551,-32.715,0.000
1709291924.938,-41.504,-24.902,-39.551,-37.109,0.000
1709291924.942,-41.016,-29.785,-35.645,-39.551,0.000
1709291924.946,-41.504,-27.832,-41.016,-34.668,0.000
1709291924.950,-39.062,-24.902,-41.504,-31.738,0.000
1709291924.954,-30.273,-19.043,-33.691,-25.879,0.000
1709291924.958,-22.461,-17.090,-30.762,-30.273,0.000
1709291924.962,-30.273,-20.996,-30.273,-31.250,0.000
1709291924.965,-33.691,-22.949,-33.203,-32.715,0.000
1709291924.969,-29.785,-20.996,-35.645,-39.551,0.000
1709291924.974,-35.156,-18.066,-32.227,-38.086,0.000
1709291924.978,-37.109,-17.578,-30.762,-37.598,0.000
1709291924.982,-29.297,-20.996,-39.062,-40.527,0.000
1709291924.986,-25.391,-17.578,-39.551,-36.133,0.000
1709291924.990,-24.414,-17.578,-31.250,-30.273,0.000
1709291924.994,-16.602,-21.484,-33.203,-23.438,0.000
1709291924.998,-25.391,-23.438,-36.621,-24.902,0.000
1709291925.001,-37.598,-24.902,-36.133,-27.832,0.000
1709291925.005,-37.109,-27.344,-34.180,-26.367,0.000
1709291925.009,-27.344,-24.414,-31.250,-33.691,0.000
1709291925.013,-28.809,-23.926,-34.668,-38.086,0.000
1709291925.017,-41.992,-25.879,-41.016,-36.133,0.000
1709291925.022,-38.574,-25.391,-36.133,-34.180,0.000
1709291925.025,-29.297,-26.855,-39.551,-29.297,0.000
1709291925.029,-29.785,-29.297,-44.922,-26.367,0.000
1709291925.033,-32.227,-27.832,-41.504,-31.250,0.000
1709291925.037,-31.738,-23.926,-35.645,-28.320,0.000
1709291925.041,-27.832,-24.414,-30.273,-26.367,0.000
1709291925.045,-20.996,-21.484,-31.738,-24.414,0.000
1709291925.049,-21.973,-19.043,-33.691,-26.367,0.000
1709291925.053,-25.391,-20.996,-33.203,-29.297,0.000
1709291925.057,-23.438,-21.973,-36.133,-20.996,0.000
1709291925.061,-20.020,-21.973,-37.109,-22.949,0.000
1709291925.064,-21.973,-18.555,-36.621,-24.414,0.000
1709291925.069,-22.461,-14.648,-35.645,-22.461,0.000
1709291925.073,-25.879,-19.531,-34.180,-28.320,0.000
1709291925.076,-35.645,-20.996,-31.250,-26.367,0.000
1709291925.080,-39.551,-16.602,-33.203,-28.809,0.000
1709291925.084,-35.156,-18.066,-36.621,-28.809,0.000
1709291925.088,-23.926,-20.996,-33.203,-21.484,0.000
1709291925.092,-20.508,-19.531,-34.668,-25.879,0.000
1709291925.096,-28.320,-20.020,-34.180,-26.855,0.000
1709291925.100,-34.668,-21.484,-33.203,-21.484,0.000
1709291925.104,-33.691,-22.949,-29.785,-13.184,0.000
1709291925.108,-23.926,-17.578,-30.273,-20.508,0.000
1709291925.112,-23.438,-20.996,-34.180,-31.738,0.000
1709291925.116,-27.344,-23.438,-32.227,-30.762,0.000
1709291925.119,-40.527,-23.926,-39.062,-35.156,0.000
1709291925.123,-46.387,-28.320,-40.527,-32.227,0.000
1709291925.127,-35.156,-26.855,-34.180,-26.367,0.000
1709291925.131,-26.855,-24.902,-31.738,-26.367,0.000
1709291925.135,-35.156,-26.855,-33.691,-29.785,0.000
1709291925.139,-44.434,-24.414,-33.203,-30.762,0.000
1709291925.143,-42.480,-25.391,-31.738,-28.809,0.000
1709291925.147,-38.574,-28.809,-30.762,-14.160,0.000
1709291925.151,-30.762,-24.414,-28.809,-8.301,0.000
1709291925.155,-32.715,-23.438,-28.809,-16.602,0.000
1709291925.158,-36.621,-27.832,-29.297,-19.043,0.000
1709291925.162,-33.691,-21.973,-31.738,-23.438,0.000
1709291925.166,-30.273,-14.160,-27.832,-27.344,0.000
1709291925.170,-22.949,-16.602,-26.855,-28.809,0.000
1709291925.174,-29.785,-21.973,-31.738,-32.227,0.000
1709291925.178,-26.367,-19.531,-27.832,-30.273,0.000
1709291925.182,-20.996,-17.090,-24.902,-22.461,0.000
1709291925.186,-22.949,-18.066,-28.320,-25.391,0.000
1709291925.190,-17.578,-18.066,-32.227,-20.020,0.000
1709291925.193,-11.719,-20.020,-34.668,-10.742,0.000
1709291925.197,-21.484,-23.438,-38.086,-23.926,0.000
1709291925.201,-27.832,-22.949,-36.133,-31.738,0.000
1709291925.205,-26.855,-25.879,-36.133,-28.809,0.000
1709291925.209,-23.926,-32.715,-38.574,-29.785,0.000
1709291925.213,-28.320,-31.250,-37.598,-33.203,0.000
1709291925.217,-31.738,-32.715,-37.598,-25.879,0.000
1709291925.220,-36.133,-35.156,-37.598,-22.949,0.000
1709291925.224,-30.273,-31.738,-37.109,-28.809,0.000
1709291925.228,-20.508,-25.879,-36.621,-28.809,0.000
1709291925.232,-15.137,-25.879,-29.785,-26.367,0.000
1709291925.236,-27.344,-29.785,-24.902,-15.625,0.000
1709291925.240,-39.062,-30.762,-32.715,-15.137,0.000
1709291925.244,-29.297,-28.320,-40.039,-24.414,0.000
1709291925.248,-21.484,-29.785,-40.039,-19.043,0.000
1709291925.252,-17.090,-33.691,-40.039,-27.832,0.000
1709291925.255,-20.508,-36.621,-45.410,-34.668,0.000
1709291925.259,-25.391,-34.180,-46.875,-27.832,0.000
1709291925.263,-19.043,-34.180,-38.574,-21.484,0.000
1709291925.267,-14.160,-32.227,-35.156,-24.902,0.000
1709291925.271,-10.742,-29.785,-34.668,-30.273,0.000
1709291925.275,-7.812,-28.320,-29.297,-27.832,0.000
1709291925.279,-19.043,-21.484,-27.344,-23.926,0.000
1709291925.282,-36.621,-22.949,-33.203,-34.668,0.000
1709291925.286,-38.086,-22.949,-36.621,-42.969,0.000
1709291925.290,-29.297,-21.484,-37.109,-41.504,0.000
1709291925.294,-26.367,-25.391,-36.621,-47.852,0.000
1709291925.298,-35.156,-27.344,-35.156,-44.922,0.000
1709291925.301,-43.945,-26.367,-31.250,-41.992,0.000
1709291925.305,-37.109,-28.320,-28.320,-39.551,0.000
1709291925.309,-39.062,-33.203,-33.691,-40.039,0.000
1709291925.313,-37.109,-31.738,-36.133,-38.574,0.000
1709291925.317,-37.109,-30.273,-39.062,-36.621,0.000
1709291925.321,-47.852,-28.320,-35.156,-35.156,0.000
1709291925.325,-42.969,-28.320,-31.738,-33.203,0.000
1709291925.329,-33.203,-31.738,-37.109,-34.180,0.000
1709291925.333,-30.762,-29.785,-39.551,-36.621,0.000
1709291925.336,-35.645,-27.344,-40.039,-37.109,0.000
1709291925.340,-40.527,-27.832,-40.039,-33.691,0.000
1709291925.344,-33.691,-21.484,-40.039,-27.344,0.000
1709291925.347,-31.738,-22.949,-40.039,-28.320,0.000
1709291925.351,-37.598,-32.715,-41.504,-28.809,0.000
1709291925.355,-42.480,-33.691,-42.969,-39.062,0.000
1709291925.359,-42.969,-34.180,-42.480,-42.480,0.000
1709291925.363,-35.156,-26.855,-40.527,-33.691,0.000
1709291925.367,-34.180,-29.297,-38.086,-29.785,0.000
1709291925.371,-40.039,-32.715,-41.504,-23.926,0.000
1709291925.375,-47.852,-26.855,-45.410,-27.344,0.000
1709291925.379,-42.969,-29.785,-40.039,-29.297,0.000
1709291925.383,-23.926,-29.785,-36.133,-21.973,0.000
1709291925.386,-20.508,-30.273,-38.086,-21.973,0.000
1709291925.390,-24.902,-32.227,-38.086,-30.273,0.000
1709291925.395,-30.762,-32.715,-36.621,-33.203,0.000
1709291925.399,-40.527,-33.203,-36.133,-26.367,0.000
1709291925.403,-33.691,-32.715,-33.203,-22.461,0.000
1709291925.407,-29.785,-34.180,-38.086,-25.879,0.000
1709291925.411,-31.738,-31.738,-45.410,-30.273,0.000
1709291925.414,-28.809,-26.367,-42.969,-34.180,0.000
1709291925.418,-34.668,-31.738,-41.992,-38.086,0.000
1709291925.422,-35.645,-35.645,-46.875,-41.992,0.000
1709291925.426,-31.250,-34.668,-45.898,-43.457,0.000
1709291925.430,-25.879,-33.203,-40.039,-30.762,0.000
1709291925.434,-36.621,-29.785,-41.992,-33.203,0.000
1709291925.438,-50.781,-26.367,-38.086,-40.039,0.000
1709291925.442,-42.480,-22.949,-30.762,-34.180,0.000
1709291925.446,-33.691,-22.949,-30.762,-28.320,0.000
1709291925.450,-44.434,-20.020,-33.203,-27.832,0.000
1709291925.454,-41.992,-18.066,-32.715,-37.598,0.000
1709291925.458,-35.156,-22.461,-33.203,-39.551,0.000
1709291925.462,-37.109,-23.438,-39.062,-32.715,0.000
1709291925.466,-37.109,-25.391,-44.922,-37.598,0.000
1709291925.470,-33.691,-32.715,-45.898,-42.969,0.000
1709291925.474,-32.715,-34.180,-46.387,-35.645,0.000
1709291925.477,-40.527,-29.785,-45.898,-29.297,0.000
1709291925.481,-48.828,-25.879,-48.340,-37.109,0.000
1709291925.485,-41.504,-24.902,-46.875,-39.551,0.000
1709291925.490,-25.879,-26.367,-41.992,-35.645,0.000
1709291925.494,-26.367,-20.020,-48.828,-29.785,0.000
1709291925.498,-31.738,-18.555,-47.363,-29.297,0.000
1709291925.501,-26.855,-22.461,-40.039,-28.809,0.000
1709291925.505,-21.484,-27.344,-43.945,-23.926,0.000
1709291925.509,-13.672,-29.785,-45.898,-16.602,0.000
1709291925.513,-9.766,-20.508,-39.551,-20.020,0.000
1709291925.517,-24.414,-21.484,-38.574,-24.902,0.000
1709291925.521,-35.645,-29.297,-39.551,-16.602,0.000
1709291925.525,-32.227,-26.367,-38.574,-15.625,0.000
1709291925.529,-24.414,-24.414,-39.062,-20.508,0.000
1709291925.533,-30.762,-24.414,-37.598,-19.531,0.000
1709291925.536,-36.621,-24.902,-34.668,-26.367,0.000
1709291925.540,-30.762,-27.832,-38.086,-26.855,0.000
1709291925.544,-33.691,-32.227,-42.480,-32.715,0.000
1709291925.548,-27.344,-35.156,-43.945,-30.762,0.000
1709291925.552,-16.113,-34.668,-42.480,-23.926,0.000
1709291925.556,-20.996,-28.809,-35.156,-26.367,0.000
1709291925.560,-33.691,-25.391,-34.668,-33.203,0.000
1709291925.564,-32.227,-27.832,-41.504,-36.621,0.000
1709291925.568,-31.250,-29.785,-40.039,-37.109,0.000
1709291925.572,-29.297,-30.762,-36.133,-38.574,0.000
1709291925.576,-25.391,-34.668,-35.156,-36.621,0.000
1709291925.579,-30.762,-36.133,-38.086,-32.715,0.000
1709291925.583,-41.992,-40.527,-41.016,-38.574,0.000
1709291925.587,-38.574,-41.992,-43.457,-46.875,0.000
1709291925.591,-24.902,-34.180,-37.598,-35.156,0.000
1709291925.595,-30.273,-35.156,-40.527,-36.133,0.000
1709291925.599,-39.062,-39.062,-40.039,-33.203,0.000
1709291925.603,-40.527,-36.133,-29.785,-20.020,0.000
1709291925.606,-32.715,-36.133,-31.250,-18.555,0.000
1709291925.610,-19.043,-30.762,-35.645,-10.254,0.000
1709291925.614,-19.043,-24.902,-36.133,-12.207,0.000
1709291925.618,-32.227,-27.344,-32.227,-22.949,0.000
1709291925.622,-38.574,-27.832,-33.691,-25.879,0.000
1709291925.626,-30.273,-22.461,-36.133,-20.996,0.000
1709291925.629,-23.438,-22.949,-33.691,-19.531,0.000
1709291925.633,-30.273,-29.297,-36.133,-30.273,0.000
1709291925.637,-31.738,-28.809,-40.039,-33.691,0.000
1709291925.641,-29.785,-26.855,-41.504,-33.203,0.000
1709291925.645,-25.879,-30.273,-41.992,-34.668,0.000
1709291925.649,-23.926,-31.738,-44.922,-45.410,0.000
1709291925.653,-24.902,-31.738,-43.945,-47.852,0.000
1709291925.657,-29.297,-31.738,-43.457,-35.645,0.000
1709291925.661,-32.715,-29.297,-44.922,-32.715,0.000
1709291925.665,-24.902,-27.344,-45.410,-35.156,0.000
1709291925.669,-25.391,-27.832,-45.898,-31.738,0.000
1709291925.672,-39.062,-35.156,-48.828,-29.785,0.000
1709291925.676,-47.363,-37.109,-44.434,-32.715,0.000
1709291925.680,-42.480,-30.273,-45.898,-23.926,0.000
1709291925.684,-42.480,-28.320,-45.898,-25.391,0.000
1709291925.687,-34.668,-27.832,-41.016,-31.250,0.000
1709291925.691,-26.367,-27.344,-38.574,-21.484,0.000
1709291925.695,-35.645,-25.391,-43.457,-27.832,0.000
1709291925.699,-39.062,-25.879,-43.945,-18.066,0.000
1709291925.703,-28.809,-24.902,-31.738,-10.742,0.000
1709291925.707,-32.715,-23.438,-27.832,-30.762,0.000
1709291925.711,-40.039,-27.832,-31.250,-35.645,0.000
1709291925.715,-37.109,-25.879,-33.203,-35.156,0.000
1709291925.719,-41.504,-25.391,-34.668,-41.992,0.000
1709291925.722,-42.969,-25.879,-37.598,-39.551,0.000
1709291925.726,-34.180,-26.367,-37.598,-31.738,0.000
1709291925.730,-28.320,-23.438,-33.691,-28.809,0.000
1709291925.734,-31.250,-23.926,-39.551,-31.250,0.000
1709291925.738,-38.574,-29.297,-42.480,-37.109,0.000
1709291925.741,-32.715,-34.180,-40.527,-30.273,0.000
1709291925.745,-20.508,-32.227,-39.062,-26.367,0.000
1709291925.749,-20.020,-26.855,-35.156,-26.855,0.000
1709291925.753,-31.738,-28.320,-36.133,-26.855,0.000
1709291925.757,-37.109,-32.227,-36.621,-20.996,0.000
1709291925.761,-35.645,-25.391,-34.668,-17.578,0.000
1709291925.765,-26.855,-21.484,-37.109,-24.902,0.000
1709291925.770,-20.020,-31.738,-39.551,-27.832,0.000
1709291925.773,-32.715,-34.180,-39.551,-29.297,0.000
1709291925.777,-36.133,-30.762,-38.574,-26.855,0.000
1709291925.781,-31.738,-24.902,-38.086,-24.902,0.000
1709291925.785,-27.344,-27.344,-37.598,-30.762,0.000
1709291925.789,-25.391,-31.738,-36.133,-26.367,0.000
1709291925.793,-30.273,-34.668,-34.668,-24.414,0.000
1709291925.797,-32.715,-29.297,-38.574,-29.785,0.000
1709291925.801,-33.691,-21.484,-40.039,-29.785,0.000
1709291925.805,-30.273,-27.344,-43.945,-25.879,0.000
1709291925.809,-22.949,-25.879,-43.457,-27.832,0.000
1709291925.813,-22.461,-23.926,-38.574,-33.691,0.000
1709291925.817,-31.738,-29.785,-40.527,-34.180,0.000
1709291925.821,-33.691,-23.438,-35.645,-26.855,0.000
1709291925.825,-26.855,-23.438,-34.668,-25.391,0.000
1709291925.829,-20.996,-25.391,-41.016,-32.227,0.000
1709291925.833,-24.414,-23.926,-41.016,-27.344,0.000
1709291925.836,-27.832,-31.250,-38.574,-28.320,0.000
1709291925.840,-22.949,-31.250,-39.062,-31.738,0.000
1709291925.844,-26.367,-32.715,-39.551,-31.738,0.000
1709291925.848,-20.020,-40.527,-38.574,-29.785,0.000
1709291925.852,-21.973,-35.156,-40.039,-26.367,0.000
1709291925.856,-30.762,-30.273,-42.969,-34.180,0.000
1709291925.860,-26.855,-31.738,-42.969,-36.133,0.000
1709291925.866,-19.531,-36.133,-42.969,-30.273,0.000
1709291925.869,-14.648,-40.039,-41.016,-27.344,0.000
1709291925.873,-16.602,-34.668,-37.598,-28.809,0.000
1709291925.877,-27.344,-33.203,-38.574,-35.645,0.000
1709291925.881,-32.227,-34.180,-39.062,-35.156,0.000
1709291925.885,-23.438,-36.133,-39.062,-30.273,0.000
1709291925.889,-14.648,-36.133,-35.645,-30.762,0.000
1709291925.893,-20.020,-38.086,-33.691,-33.203,0.000
1709291925.897,-32.227,-38.086,-37.598,-25.391,0.000
1709291925.901,-41.992,-37.598,-41.504,-22.949,0.000
1709291925.905,-46.875,-41.992,-42.480,-33.691,0.000
1709291925.908,-37.109,-40.039,-42.480,-36.621,0.000
1709291925.912,-25.391,-34.180,-42.969,-37.109,0.000
1709291925.916,-23.926,-30.762,-40.527,-31.250,0.000
1709291925.920,-27.832,-29.785,-38.086,-31.250,0.000
1709291925.924,-28.809,-28.809,-39.062,-30.762,0.000
1709291925.928,-29.297,-30.762,-39.551,-27.832,0.000
1709291925.932,-22.461,-26.367,-37.598,-33.691,0.000
1709291925.936,-19.531,-23.926,-41.016,-36.133,0.000
1709291925.940,-30.762,-30.762,-44.434,-34.180,0.000
1709291925.943,-35.156,-29.785,-42.480,-33.691,0.000
1709291925.947,-29.297,-29.785,-43.945,-30.273,0.000
1709291925.951,-29.785,-32.227,-46.387,-27.344,0.000
1709291925.955,-36.133,-31.250,-42.969,-28.320,0.000
1709291925.959,-44.434,-30.762,-41.016,-28.320,0.000
1709291925.963,-45.898,-31.738,-38.086,-31.738,0.000
1709291925.967,-35.156,-28.320,-33.203,-36.621,0.000
1709291925.970,-30.762,-29.297,-37.109,-40.527,0.000
1709291925.974,-33.691,-29.297,-41.992,-41.504,0.000
1709291925.978,-36.133,-29.785,-41.016,-41.016,0.000
1709291925.982,-39.062,-27.344,-36.621,-40.527,0.000
1709291925.986,-20.508,-27.832,-35.156,-18.066,0.000
1709291925.990,-12.207,-27.832,-37.109,-3.418,0.000
1709291925.994,-22.461,-25.879,-36.133,-17.090,0.000
1709291925.998,-39.551,-29.785,-32.715,-26.367,0.000
1709291926.002,-55.176,-31.250,-33.691,-39.062,0.000
1709291926.005,-49.805,-31.250,-40.039,-42.969,0.000
1709291926.009,-41.992,-28.809,-42.969,-33.691,0.000
1709291926.013,-38.574,-31.250,-37.598,-27.344,0.000
1709291926.017,-40.039,-36.133,-37.109,-25.879,0.000
1709291926.021,-33.203,-30.273,-39.551,-28.320,0.000
1709291926.025,-30.273,-32.715,-35.645,-22.461,0.000
1709291926.029,-27.344,-30.273,-31.250,-20.020,0.000
1709291926.033,-29.785,-30.273,-32.715,-20.508,0.000
1709291926.036,-45.410,-38.086,-38.574,-27.344,0.000
1709291926.040,-46.387,-34.668,-38.086,-23.438,0.000
1709291926.044,-36.133,-33.203,-33.203,-10.254,0.000
1709291926.048,-31.738,-31.738,-33.203,-8.789,0.000
1709291926.051,-29.785,-25.391,-34.668,-14.160,0.000
1709291926.055,-30.762,-23.926,-34.180,-28.320,0.000
1709291926.059,-32.227,-32.715,-40.527,-34.180,0.000
1709291926.063,-30.762,-29.785,-46.387,-25.391,0.000
1709291926.067,-28.320,-28.809,-42.969,-20.508,0.000
1709291926.071,-23.438,-32.227,-43.945,-27.832,0.000
1709291926.075,-23.926,-30.762,-45.410,-19.043,0.000
1709291926.079,-29.785,-25.879,-40.527,-12.207,0.000
1709291926.083,-33.203,-21.973,-38.086,-26.855,0.000
1709291926.087,-34.180,-24.414,-41.504,-32.227,0.000
1709291926.090,-29.785,-27.344,-44.434,-27.832,0.000
1709291926.094,-25.879,-28.320,-41.504,-24.902,0.000
1709291926.097,-30.762,-25.879,-42.969,-28.809,0.000
1709291926.101,-34.180,-23.438,-44.434,-31.738,0.000
1709291926.105,-24.414,-19.531,-39.551,-17.578,0.000
1709291926.109,-21.973,-16.113,-43.457,-13.184,0.000
1709291926.113,-27.344,-21.973,-49.316,-27.344,0.000
1709291926.117,-28.809,-23.926,-43.457,-25.391,0.000
1709291926.121,-22.949,-18.555,-41.016,-11.719,0.000
1709291926.125,-15.625,-13.672,-34.668,-16.602,0.000
1709291926.129,-19.531,-21.484,-34.668,-24.902,0.000
1709291926.133,-17.578,-28.809,-39.062,-18.555,0.000
1709291926.136,-18.555,-29.297,-37.598,-24.414,0.000
1709291926.140,-19.043,-30.273,-38.574,-21.973,0.000
1709291926.145,-18.555,-28.809,-37.109,-22.461,0.000
1709291926.149,-17.578,-29.785,-39.062,-28.320,0.000
1709291926.153,-17.090,-35.645,-43.457,-25.391,0.000
1709291926.157,-25.391,-34.668,-40.527,-29.297,0.000
1709291926.161,-33.203,-31.738,-41.016,-26.855,0.000
1709291926.164,-31.250,-33.203,-41.504,-20.508,0.000
1709291926.168,-22.461,-28.320,-39.062,-18.555,0.000
1709291926.172,-24.902,-27.344,-38.574,-19.043,0.000
1709291926.176,-28.809,-32.715,-37.598,-22.949,0.000
1709291926.180,-30.762,-35.645,-34.668,-17.578,0.000
1709291926.184,-36.133,-35.156,-32.227,-13.672,0.000
1709291926.188,-28.809,-35.156,-36.621,-26.367,0.000
1709291926.192,-30.273,-38.574,-42.969,-27.344,0.000
1709291926.196,-39.551,-34.180,-36.621,-19.531,0.000
1709291926.200,-39.062,-26.855,-34.180,-22.461,0.000
1709291926.204,-34.668,-24.414,-37.598,-31.738,0.000
1709291926.208,-31.250,-26.367,-36.133,-31.738,0.000
1709291926.212,-27.344,-26.855,-35.645,-28.809,0.000
1709291926.216,-29.297,-25.879,-33.203,-27.832,0.000
1709291926.220,-27.344,-23.438,-34.668,-30.762,0.000
1709291926.223,-21.484,-25.879,-34.180,-26.367,0.000
1709291926.227,-18.555,-26.367,-30.273,-16.113,0.000
1709291926.231,-20.996,-22.949,-32.715,-20.020,0.000
1709291926.235,-18.066,-21.484,-34.668,-22.949,0.000
1709291926.239,-21.484,-22.949,-36.133,-22.949,0.000
1709291926.243,-34.668,-24.414,-37.109,-27.832,0.000
1709291926.247,-32.715,-23.438,-38.574,-32.715,0.000
1709291926.251,-31.250,-27.344,-39.062,-40.527,0.000
1709291926.255,-34.180,-30.273,-40.039,-41.992,0.000
1709291926.259,-41.016,-29.297,-38.574,-36.133,0.000
1709291926.263,-32.715,-29.785,-35.156,-31.250,0.000
1709291926.267,-25.391,-29.297,-31.738,-35.156,0.000
1709291926.271,-24.902,-27.832,-30.273,-33.691,0.000
1709291926.274,-28.809,-25.391,-38.086,-24.902,0.000
1709291926.278,-44.922,-27.344,-38.574,-36.133,0.000
1709291926.282,-46.875,-24.902,-34.180,-37.109,0.000
1709291926.286,-36.133,-19.043,-36.621,-31.250,0.000
1709291926.290,-33.691,-20.508,-41.016,-34.180,0.000
1709291926.294,-36.621,-22.949,-44.922,-43.945,0.000
1709291926.298,-36.621,-20.020,-42.480,-41.016,0.000
1709291926.302,-33.691,-20.020,-35.156,-29.297,0.000
1709291926.306,-31.250,-18.066,-35.156,-32.227,0.000
1709291926.309,-25.391,-17.090,-36.133,-36.621,0.000
1709291926.313,-26.367,-26.367,-38.574,-34.668,0.000
1709291926.317,-33.203,-26.367,-39.062,-25.391,0.000
1709291926.321,-35.645,-24.902,-42.480,-29.785,0.000
1709291926.325,-34.668,-27.832,-43.945,-38.574,0.000
1709291926.329,-33.691,-27.344,-38.086,-38.574,0.000
1709291926.333,-41.016,-27.344,-33.203,-39.551,0.000
1709291926.337,-47.852,-25.391,-34.668,-37.598,0.000
1709291926.341,-47.363,-26.367,-35.156,-33.691,0.000
1709291926.344,-44.922,-27.832,-28.320,-30.762,0.000
1709291926.348,-38.086,-29.785,-25.879,-29.785,0.000
1709291926.352,-36.621,-33.691,-33.203,-30.762,0.000
1709291926.356,-34.180,-28.809,-32.227,-34.180,0.000
1709291926.360,-33.691,-27.344,-35.645,-36.621,0.000
1709291926.364,-37.109,-27.832,-39.551,-33.691,0.000
1709291926.368,-26.855,-21.484,-35.156,-30.273,0.000
1709291926.372,-25.879,-22.949,-37.109,-38.086,0.000
1709291926.376,-36.621,-24.414,-35.156,-40.039,0.000
1709291926.381,-40.039,-26.855,-32.227,-32.227,0.000
1709291926.385,-41.016,-30.762,-37.109,-32.227,0.000
1709291926.389,-38.574,-33.203,-35.156,-27.344,0.000
1709291926.392,-34.180,-35.645,-33.691,-23.438,0.000
1709291926.396,-37.109,-33.691,-35.645,-24.414,0.000
1709291926.400,-43.945,-28.320,-37.109,-32.715,0.000
1709291926.404,-41.992,-23.438,-37.109,-34.180,0.000
1709291926.408,-38.086,-28.809,-37.109,-29.785,0.000
1709291926.412,-40.039,-36.133,-41.016,-39.551,0.000
1709291926.416,-33.691,-33.203,-40.039,-40.039,0.000
1709291926.420,-32.715,-29.297,-40.039,-37.109,0.000
1709291926.424,-43.945,-31.250,-38.574,-38.086,0.000
1709291926.427,-41.016,-28.809,-36.133,-36.621,0.000
1709291926.431,-31.738,-28.809,-38.086,-32.715,0.000
1709291926.435,-31.738,-32.715,-41.016,-36.133,0.000
1709291926.439,-42.480,-34.668,-44.922,-47.852,0.000
1709291926.443,-39.062,-38.086,-50.293,-46.875,0.000
1709291926.446,-23.438,-33.203,-45.898,-37.109,0.000
1709291926.450,-23.926,-25.879,-43.945,-29.785,0.000
1709291926.454,-28.320,-28.809,-45.410,-29.785,0.000
1709291926.458,-27.832,-29.297,-38.574,-26.367,0.000
1709291926.462,-31.250,-29.297,-38.086,-26.855,0.000
1709291926.466,-30.762,-29.297,-41.992,-25.391,0.000
1709291926.470,-21.484,-29.297,-40.039,-20.996,0.000
1709291926.473,-21.484,-28.809,-37.109,-29.297,0.000
1709291926.477,-30.762,-23.926,-35.156,-28.320,0.000
1709291926.481,-32.715,-20.508,-40.527,-28.320,0.000
1709291926.485,-30.273,-19.043,-42.969,-28.320,0.000
1709291926.489,-29.785,-20.996,-46.387,-30.762,0.000
1709291926.492,-30.273,-26.367,-47.852,-35.156,0.000
1709291926.496,-31.250,-25.391,-41.504,-19.043,0.000
1709291926.500,-31.738,-25.879,-37.109,-11.719,0.000
1709291926.504,-35.156,-26.367,-34.668,-20.996,0.000
1709291926.508,-35.156,-25.879,-34.668,-24.414,0.000
1709291926.512,-37.109,-30.762,-39.062,-29.785,0.000
1709291926.516,-39.062,-29.297,-40.039,-31.250,0.000
1709291926.520,-39.062,-28.809,-36.621,-34.180,0.000
1709291926.524,-32.227,-28.809,-34.180,-31.250,0.000
1709291926.528,-22.461,-28.809,-33.691,-26.855,0.000
1709291926.532,-23.926,-31.738,-36.133,-35.156,0.000
1709291926.536,-31.738,-30.273,-35.645,-33.691,0.000
1709291926.540,-35.156,-27.344,-33.691,-26.855,0.000
1709291926.544,-26.855,-24.902,-34.180,-28.809,0.000
1709291926.548,-21.484,-26.855,-35.645,-29.297,0.000
1709291926.552,-20.996,-27.344,-35.645,-28.320,0.000
1709291926.556,-19.043,-24.414,-35.156,-21.973,0.000
1709291926.559,-32.715,-23.438,-38.086,-20.020,0.000
1709291926.563,-26.367,-22.461,-35.645,-18.066,0.000
1709291926.568,-21.973,-21.973,-31.250,-23.438,0.000
1709291926.572,-25.391,-22.949,-32.715,-32.227,0.000
1709291926.576,-24.414,-24.414,-35.156,-34.668,0.000
1709291926.580,-31.250,-23.926,-37.109,-33.691,0.000
1709291926.584,-34.180,-27.344,-35.156,-28.809,0.000
1709291926.588,-29.785,-30.273,-36.133,-31.738,0.000
1709291926.591,-24.414,-26.367,-37.109,-34.180,0.000
1709291926.595,-33.691,-27.832,-38.086,-41.016,0.000
1709291926.599,-43.945,-28.320,-36.133,-30.762,0.000
1709291926.603,-39.062,-24.902,-32.227,-14.648,0.000
1709291926.607,-20.508,-23.926,-33.203,-24.414,0.000
1709291926.611,-17.090,-25.391,-35.156,-34.668,0.000
1709291926.615,-28.809,-25.391,-34.668,-25.391,0.000
1709291926.619,-36.621,-25.391,-28.809,-23.438,0.000
1709291926.623,-42.480,-27.832,-29.785,-35.156,0.000
1709291926.627,-38.086,-28.320,-33.691,-32.227,0.000
1709291926.631,-33.203,-24.902,-30.762,-25.879,0.000
1709291926.635,-29.785,-22.949,-28.809,-31.250,0.000
1709291926.638,-29.297,-24.414,-23.926,-35.156,0.000
1709291926.642,-40.527,-29.297,-21.973,-26.367,0.000
1709291926.646,-42.969,-27.832,-22.949,-21.973,0.000
1709291926.650,-36.621,-24.902,-20.020,-19.531,0.000
1709291926.654,-25.879,-19.531,-20.996,-18.555,0.000
1709291926.658,-33.691,-19.531,-27.344,-20.996,0.000
1709291926.662,-48.828,-24.414,-29.785,-21.973,0.000
1709291926.666,-35.645,-21.973,-29.297,-19.531,0.000
1709291926.670,-22.461,-20.996,-29.297,-21.973,0.000
1709291926.674,-31.738,-26.855,-31.250,-23.438,0.000
1709291926.677,-38.574,-29.297,-32.227,-22.949,0.000
1709291926.681,-35.645,-26.855,-32.715,-20.996,0.000
1709291926.685,-31.738,-23.926,-30.762,-17.090,0.000
1709291926.689,-27.832,-23.926,-28.809,-15.625,0.000
1709291926.693,-27.832,-23.926,-30.762,-12.695,0.000
1709291926.697,-34.180,-21.484,-31.250,-24.902,0.000
1709291926.701,-39.551,-21.973,-33.203,-36.621,0.000
1709291926.705,-34.180,-29.297,-38.086,-36.133,0.000
1709291926.708,-27.344,-33.203,-39.062,-33.203,0.000
1709291926.712,-33.203,-34.180,-36.621,-36.621,0.000
1709291926.716,-34.180,-28.809,-36.133,-35.645,0.000
1709291926.720,-35.156,-25.879,-35.156,-28.809,0.000
1709291926.724,-29.297,-29.297,-36.133,-31.738,0.000
1709291926.728,-22.949,-33.691,-39.551,-33.691,0.000
1709291926.732,-20.996,-36.133,-38.574,-36.621,0.000
1709291926.736,-26.855,-31.738,-36.621,-31.738,0.000
1709291926.740,-41.992,-30.762,-36.133,-23.926,0.000
1709291926.744,-42.969,-34.668,-36.621,-34.180,0.000
1709291926.747,-34.180,-34.180,-35.645,-34.668,0.000
1709291926.751,-29.297,-28.809,-37.598,-35.645,0.000
1709291926.755,-34.668,-27.344,-40.527,-41.016,0.000
1709291926.759,-45.898,-32.715,-42.969,-42.480,0.000
1709291926.763,-43.945,-31.250,-39.551,-39.551,0.000
1709291926.767,-37.109,-27.832,-38.086,-37.598,0.000
1709291926.770,-25.391,-29.297,-37.109,-41.992,0.000
1709291926.774,-21.484,-26.855,-34.180,-41.016,0.000
1709291926.778,-30.273,-24.902,-33.203,-35.645,0.000
1709291926.782,-34.668,-23.438,-32.227,-31.738,0.000
1709291926.786,-29.297,-22.949,-37.109,-34.180,0.000
1709291926.790,-23.438,-22.949,-35.156,-37.598,0.000
1709291926.794,-28.320,-24.414,-31.250,-37.598,0.000
1709291926.798,-31.250,-25.879,-33.203,-35.156,0.000
1709291926.801,-31.250,-28.320,-30.762,-30.762,0.000
1709291926.805,-38.574,-32.715,-33.691,-32.715,0.000
1709291926.809,-31.738,-30.762,-38.086,-41.016,0.000
1709291926.813,-15.625,-23.926,-42.480,-34.668,0.000
1709291926.817,-16.602,-26.367,-38.574,-16.113,0.000
1709291926.821,-28.320,-35.156,-22.949,-14.648,0.000
1709291926.824,-33.691,-33.691,-19.043,-19.531,0.000
1709291926.828,-35.156,-32.715,-22.949,-21.484,0.000
1709291926.832,-37.598,-35.645,-25.391,-25.879,0.000
1709291926.836,-40.039,-36.133,-28.320,-21.973,0.000
1709291926.840,-46.387,-34.668,-31.738,-34.180,0.000
1709291926.844,-47.363,-33.203,-31.250,-41.016,0.000
1709291926.847,-39.062,-29.785,-29.297,-41.504,0.000
1709291926.851,-33.203,-29.297,-29.785,-39.551,0.000
1709291926.855,-41.504,-29.297,-30.273,-32.715,0.000
1709291926.859,-45.898,-30.762,-28.320,-34.180,0.000
1709291926.863,-36.621,-32.227,-35.645,-35.156,0.000
1709291926.867,-32.227,-29.297,-39.062,-30.273,0.000
1709291926.871,-30.762,-30.762,-34.668,-25.391,0.000
1709291926.875,-34.668,-31.250,-35.156,-30.273,0.000
1709291926.878,-37.598,-29.297,-36.621,-31.738,0.000
1709291926.882,-34.180,-26.367,-34.180,-26.367,0.000
1709291926.886,-33.691,-27.832,-37.598,-22.949,0.000
1709291926.890,-32.715,-35.156,-42.480,-27.344,0.000
1709291926.895,-41.504,-34.180,-40.039,-28.809,0.000
1709291926.899,-47.852,-32.227,-38.574,-33.691,0.000
1709291926.903,-36.621,-29.785,-41.992,-34.180,0.000
1709291926.907,-28.809,-22.461,-41.992,-33.691,0.000
1709291926.910,-19.531,-15.137,-33.203,-26.367,0.000
1709291926.914,-20.996,-13.672,-32.227,-22.461,0.000
1709291926.918,-32.227,-16.602,-29.785,-29.785,0.000
1709291926.922,-35.156,-22.461,-28.320,-27.832,0.000
1709291926.926,-23.926,-18.555,-29.297,-19.531,0.000
1709291926.930,-20.996,-21.973,-28.809,-7.324,0.000
1709291926.934,-33.691,-27.344,-28.809,-10.254,0.000
1709291926.938,-37.109,-22.461,-29.297,-25.879,0.000
1709291926.942,-34.180,-23.438,-30.273,-27.344,0.000
1709291926.946,-27.344,-24.414,-31.250,-25.391,0.000
1709291926.950,-28.809,-25.879,-36.133,-30.273,0.000
1709291926.954,-31.250,-24.414,-36.133,-27.344,0.000
1709291926.958,-32.227,-22.949,-36.133,-22.949,0.000
1709291926.962,-29.785,-21.484,-39.551,-24.414,0.000
1709291926.966,-22.461,-20.996,-35.645,-25.879,0.000
1709291926.970,-25.879,-21.484,-32.715,-34.180,0.000
1709291926.973,-30.273,-22.949,-38.086,-37.109,0.000
1709291926.977,-30.273,-19.531,-42.969,-32.715,0.000
1709291926.981,-32.715,-15.137,-44.434,-37.109,0.000
1709291926.985,-33.691,-24.902,-43.457,-44.922,0.000
1709291926.989,-36.133,-31.250,-44.922,-47.852,0.000
1709291926.993,-37.598,-31.250,-43.945,-44.434,0.000
1709291926.997,-37.109,-30.273,-39.551,-45.898,0.000
1709291927.001,-38.086,-25.879,-41.016,-46.387,0.000
1709291927.005,-39.551,-27.832,-42.969,-46.387,0.000
1709291927.009,-41.016,-30.762,-47.852,-52.246,0.000
1709291927.013,-42.969,-29.297,-49.316,-53.223,0.000
1709291927.017,-41.504,-28.809,-41.992,-42.969,0.000
1709291927.020,-32.715,-25.391,-40.039,-23.438,0.000
1709291927.024,-31.250,-20.996,-43.945,-26.367,0.000
1709291927.028,-44.922,-20.508,-45.898,-38.574,0.000
1709291927.032,-42.480,-20.020,-41.016,-29.785,0.000
1709291927.036,-37.598,-18.066,-35.156,-30.273,0.000
1709291927.040,-40.039,-17.090,-35.645,-26.855,0.000
1709291927.044,-39.551,-16.113,-40.527,-24.414,0.000
1709291927.048,-42.480,-15.137,-43.457,-36.133,0.000
1709291927.052,-42.969,-16.113,-40.527,-39.062,0.000
1709291927.056,-42.480,-12.695,-40.527,-31.250,0.000
1709291927.060,-41.504,-6.836,-38.086,-25.391,0.000
1709291927.063,-34.180,-4.395,-32.715,-18.555,0.000
1709291927.067,-26.367,-2.441,-27.344,-12.695,0.000
1709291927.071,-21.973,0.000,-31.250,-27.832,0.000
1709291927.075,-21.973,-2.441,-33.203,-31.250,0.000
1709291927.079,-27.344,-1.465,-25.879,-29.785,0.000
1709291927.083,-34.668,0.000,-27.832,-32.715,0.000
1709291927.087,-29.785,2.441,-25.879,-24.414,0.000
1709291927.091,-22.461,0.488,-21.973,-22.461,0.000
1709291927.094,-31.738,-3.418,-24.414,-23.438,0.000
1709291927.098,-32.227,-2.930,-22.461,-24.414,0.000
1709291927.102,-38.086,-7.812,-27.344,-25.391,0.000
1709291927.106,-42.480,-7.324,-32.227,-23.926,0.000
1709291927.110,-30.273,-2.930,-26.855,-20.020,0.000
1709291927.114,-27.344,-1.465,-24.414,-18.066,0.000
1709291927.118,-31.738,-0.977,-32.715,-26.367,0.000
1709291927.122,-35.645,-5.859,-38.574,-27.832,0.000
1709291927.126,-30.762,-3.906,-37.598,-27.344,0.000
1709291927.129,-25.879,-4.883,-38.086,-26.855,0.000
1709291927.133,-32.227,-4.395,-33.691,-28.320,0.000
1709291927.137,-40.527,-3.906,-32.715,-29.297,0.000
1709291927.141,-42.480,-4.395,-30.273,-23.438,0.000
1709291927.145,-32.715,-4.395,-30.273,-24.414,0.000
1709291927.149,-16.602,-2.930,-30.273,-13.672,0.000
1709291927.153,-19.531,-2.441,-30.273,-12.695,0.000
1709291927.157,-36.133,-6.348,-32.227,-20.508,0.000
1709291927.160,-38.086,-6.836,-34.180,-22.949,0.000
1709291927.164,-29.297,0.977,-35.156,-29.297,0.000
1709291927.168,-20.020,-0.977,-35.156,-27.832,0.000
1709291927.172,-21.484,-4.883,-38.086,-31.250,0.000
1709291927.176,-35.156,-3.418,-38.574,-36.133,0.000
1709291927.179,-39.062,-7.812,-40.527,-27.344,0.000
1709291927.183,-38.086,-9.277,-41.016,-31.738,0.000
1709291927.187,-32.715,-7.812,-35.156,-32.227,0.000
1709291927.191,-21.484,-7.812,-33.691,-22.949,0.000
1709291927.195,-25.879,-7.812,-37.598,-33.691,0.000
1709291927.199,-41.992,-6.348,-37.598,-38.086,0.000
1709291927.203,-43.457,-6.348,-38.086,-28.809,0.000
1709291927.207,-33.203,-2.930,-45.898,-42.969,0.000
1709291927.211,-30.273,-6.836,-49.316,-51.270,0.000
1709291927.215,-34.668,-10.254,-44.922,-43.945,0.000
1709291927.218,-37.109,-7.324,-41.016,-42.480,0.000
1709291927.222,-33.203,-5.859,-39.551,-41.016,0.000
1709291927.226,-21.973,-7.812,-36.621,-37.109,0.000
1709291927.229,-25.879,-12.695,-38.086,-41.016,0.000
1709291927.233,-39.062,-9.277,-40.527,-41.504,0.000
1709291927.237,-40.527,-5.859,-41.016,-37.109,0.000
1709291927.241,-38.086,-8.789,-41.016,-31.250,0.000
1709291927.245,-38.086,-11.230,-41.992,-23.926,0.000
1709291927.249,-39.062,-13.672,-41.992,-34.180,0.000
1709291927.253,-34.180,-13.672,-42.969,-40.039,0.000
1709291927.257,-33.203,-14.648,-41.992,-38.086,0.000
1709291927.261,-40.527,-18.555,-43.457,-36.621,0.000
1709291927.265,-36.621,-19.531,-42.480,-31.738,0.000
1709291927.268,-20.508,-17.090,-37.598,-37.598,0.000
1709291927.272,-21.973,-19.043,-40.039,-43.945,0.000
1709291927.276,-41.016,-23.438,-42.969,-42.480,0.000
1709291927.279,-41.992,-23.438,-42.480,-42.480,0.000
1709291927.283,-31.250,-20.996,-40.527,-43.457,0.000
1709291927.287,-33.203,-21.973,-38.086,-42.480,0.000
1709291927.291,-36.133,-21.484,-39.062,-39.062,0.000
1709291927.295,-36.621,-20.020,-41.016,-38.574,0.000
1709291927.299,-38.086,-23.926,-41.016,-35.156,0.000
1709291927.303,-36.133,-27.832,-39.062,-30.762,0.000
1709291927.307,-29.785,-22.949,-38.574,-35.645,0.000
1709291927.311,-29.785,-19.043,-40.527,-38.574,0.000
1709291927.315,-39.551,-25.879,-38.086,-38.574,0.000
1709291927.319,-40.039,-31.738,-37.109,-41.016,0.000
1709291927.323,-35.645,-31.738,-38.086,-34.668,0.000
1709291927.327,-28.320,-29.785,-35.645,-28.809,0.000
1709291927.331,-26.855,-27.344,-41.504,-33.691,0.000
1709291927.335,-23.926,-26.367,-41.504,-33.691,0.000
1709291927.339,-16.113,-24.414,-39.551,-30.273,0.000
1709291927.343,-21.973,-23.926,-42.480,-34.668,0.000
1709291927.347,-30.762,-27.344,-42.969,-35.156,0.000
1709291927.350,-31.738,-27.832,-42.969,-29.785,0.000
1709291927.354,-43.457,-26.855,-44.922,-36.621,0.000
1709291927.358,-47.852,-27.832,-44.922,-46.875,0.000
1709291927.363,-34.180,-27.344,-39.062,-43.457,0.000
1709291927.366,-29.785,-30.273,-30.762,-31.250,0.000
1709291927.370,-36.133,-34.668,-31.738,-24.414,0.000
1709291927.374,-41.504,-32.227,-37.598,-26.855,0.000
1709291927.378,-38.574,-26.367,-35.645,-28.320,0.000
1709291927.382,-39.062,-28.809,-40.039,-35.156,0.000
1709291927.386,-33.691,-29.785,-41.992,-38.574,0.000
1709291927.390,-29.297,-27.832,-41.992,-33.203,0.000
1709291927.394,-37.109,-25.879,-42.480,-26.367,0.000
1709291927.398,-36.621,-24.414,-42.480,-23.926,0.000
1709291927.402,-28.320,-20.508,-42.480,-32.715,0.000
1709291927.405,-24.902,-17.578,-38.086,-33.691,0.000
1709291927.410,-27.344,-18.555,-36.133,-35.645,0.000
1709291927.413,-34.668,-19.531,-34.180,-32.715,0.000
1709291927.417,-49.316,-23.438,-31.738,-29.297,0.000
1709291927.421,-48.828,-24.902,-29.297,-33.203,0.000
1709291927.425,-39.062,-24.902,-35.645,-33.691,0.000
1709291927.429,-41.016,-28.320,-37.109,-34.180,0.000
1709291927.433,-35.156,-20.996,-38.574,-27.344,0.000
1709291927.437,-36.621,-26.855,-45.898,-31.250,0.000
1709291927.441,-41.992,-37.598,-47.852,-26.367,0.000
1709291927.445,-30.762,-32.715,-41.992,-23.438,0.000
1709291927.449,-23.926,-30.273,-40.527,-31.250,0.000
1709291927.453,-23.926,-31.250,-40.527,-27.344,0.000
1709291927.456,-35.645,-31.738,-40.039,-31.738,0.000
1709291927.460,-43.945,-28.809,-40.527,-36.133,0.000
1709291927.464,-26.367,-25.879,-36.621,-25.879,0.000
1709291927.468,-15.137,-24.902,-34.180,-27.832,0.000
1709291927.472,-20.996,-24.902,-35.156,-34.180,0.000
1709291927.476,-33.203,-25.391,-32.715,-38.574,0.000
1709291927.480,-34.668,-25.879,-35.156,-30.273,0.000
1709291927.484,-25.391,-28.809,-45.410,-16.113,0.000
1709291927.488,-17.090,-29.297,-46.387,-20.508,0.000
1709291927.492,-19.531,-29.297,-46.875,-35.645,0.000
1709291927.495,-27.344,-31.738,-46.387,-39.551,0.000
1709291927.499,-34.668,-29.297,-39.551,-39.551,0.000
1709291927.503,-35.645,-29.297,-41.992,-42.480,0.000
1709291927.507,-31.738,-29.297,-41.992,-42.969,0.000
1709291927.511,-30.762,-30.273,-37.598,-41.504,0.000
1709291927.515,-31.250,-30.762,-39.551,-41.016,0.000
1709291927.519,-40.527,-21.484,-43.457,-39.062,0.000
1709291927.523,-41.992,-21.973,-44.434,-37.109,0.000
1709291927.526,-26.855,-28.320,-42.969,-32.715,0.000
1709291927.530,-24.902,-24.414,-41.016,-18.555,0.000
1709291927.534,-27.832,-22.949,-42.480,-24.902,0.000
1709291927.538,-28.809,-21.973,-40.039,-35.645,0.000
1709291927.542,-32.715,-24.902,-40.527,-35.156,0.000
1709291927.546,-19.531,-29.785,-47.363,-33.691,0.000
1709291927.549,-15.625,-25.879,-46.387,-32.715,0.000
1709291927.553,-21.484,-22.461,-42.480,-37.109,0.000
1709291927.557,-29.785,-24.902,-35.645,-33.203,0.000
1709291927.561,-32.715,-20.996,-36.133,-29.785,0.000
1709291927.565,-24.902,-18.555,-34.668,-35.156,0.000
1709291927.569,-26.855,-22.461,-32.227,-41.504,0.000
1709291927.573,-33.203,-24.414,-29.785,-28.809,0.000
1709291927.577,-41.992,-27.832,-29.297,-23.438,0.000
1709291927.581,-48.828,-32.227,-36.621,-38.086,0.000
1709291927.585,-34.180,-27.832,-40.039,-38.086,0.000
1709291927.589,-21.484,-23.926,-35.645,-37.109,0.000
1709291927.592,-36.621,-27.344,-32.715,-39.062,0.000
1709291927.596,-52.734,-29.297,-32.227,-41.992,0.000
1709291927.600,-43.945,-28.809,-31.738,-37.598,0.000
1709291927.604,-37.109,-31.250,-34.180,-38.574,0.000
1709291927.608,-35.645,-32.715,-36.133,-40.039,0.000
1709291927.612,-35.156,-26.367,-34.668,-33.203,0.000
1709291927.615,-46.387,-32.715,-39.062,-33.691,0.000
1709291927.619,-50.781,-38.574,-43.945,-28.809,0.000
1709291927.623,-45.898,-34.668,-42.969,-28.320,0.000
1709291927.627,-36.133,-36.621,-40.527,-27.344,0.000
1709291927.631,-35.645,-34.668,-36.133,-25.391,0.000
1709291927.635,-40.527,-34.180,-37.598,-32.715,0.000
1709291927.639,-48.828,-35.645,-43.457,-34.180,0.000
1709291927.642,-54.199,-35.156,-47.363,-32.715,0.000
1709291927.646,-43.457,-40.039,-48.340,-42.969,0.000
1709291927.650,-35.156,-39.551,-44.922,-47.852,0.000
1709291927.654,-42.969,-33.203,-40.039,-41.504,0.000
1709291927.658,-53.711,-35.645,-40.527,-39.062,0.000
1709291927.662,-44.922,-34.180,-34.180,-32.227,0.000
1709291927.666,-34.668,-33.203,-34.180,-31.738,0.000
1709291927.670,-37.109,-36.133,-38.574,-32.227,0.000
1709291927.673,-36.133,-32.715,-40.039,-29.297,0.000
1709291927.677,-38.574,-32.227,-37.109,-32.227,0.000
1709291927.681,-41.992,-28.320,-36.133,-36.621,0.000
1709291927.685,-20.996,-20.508,-39.062,-34.668,0.000
1709291927.690,-24.902,-21.484,-36.133,-28.320,0.000
1709291927.694,-43.945,-21.484,-38.086,-37.598,0.000
1709291927.698,-41.504,-18.066,-52.734,-45.410,0.000
1709291927.702,-30.762,-24.414,-52.246,-31.250,0.000
1709291927.705,-21.973,-32.715,-41.016,-19.043,0.000
1709291927.709,-24.414,-29.785,-35.156,-27.344,0.000
1709291927.713,-35.645,-25.391,-33.691,-47.852,0.000
1709291927.717,-47.363,-28.320,-39.062,-59.082,0.000
1709291927.721,-41.992,-30.762,-39.062,-37.598,0.000
1709291927.725,-31.738,-30.762,-37.109,-24.902,0.000
1709291927.729,-29.785,-25.879,-46.387,-31.738,0.000
1709291927.733,-37.109,-25.879,-46.875,-32.715,0.000
1709291927.737,-41.504,-27.832,-40.039,-29.297,0.000
1709291927.741,-45.898,-27.832,-43.945,-29.785,0.000
1709291927.745,-45.410,-26.855,-42.969,-26.367,0.000
1709291927.749,-37.598,-30.273,-39.551,-19.531,0.000
1709291927.753,-33.691,-27.832,-38.574,-20.508,0.000
1709291927.757,-34.668,-24.902,-35.645,-19.043,0.000
1709291927.761,-37.598,-26.367,-35.645,-18.066,0.000
1709291927.764,-31.250,-22.461,-33.203,-19.043,0.000
1709291927.768,-29.297,-22.949,-34.180,-15.625,0.000
1709291927.772,-23.926,-26.367,-34.180,-17.090,0.000
1709291927.776,-29.297,-26.367,-34.668,-33.691,0.000
1709291927.780,-38.574,-24.414,-34.180,-38.086,0.000
1709291927.784,-28.320,-20.508,-30.273,-34.180,0.000
1709291927.788,-20.996,-14.160,-29.785,-26.855,0.000
1709291927.792,-27.344,-16.602,-32.227,-20.996,0.000
1709291927.796,-37.598,-24.902,-33.203,-27.832,0.000
1709291927.800,-38.574,-22.461,-28.809,-28.809,0.000
1709291927.804,-36.133,-29.785,-37.109,-33.691,0.000
1709291927.808,-21.973,-27.832,-39.062,-32.715,0.000
1709291927.812,-16.602,-21.973,-33.691,-23.438,0.000
1709291927.816,-25.879,-26.367,-33.203,-16.113,0.000
1709291927.820,-36.133,-28.320,-37.109,-17.090,0.000
1709291927.824,-33.691,-24.414,-33.691,-14.648,0.000
1709291927.827,-26.855,-21.484,-30.762,-19.531,0.000
1709291927.831,-27.344,-25.879,-32.715,-27.832,0.000
1709291927.835,-31.738,-25.879,-33.203,-19.043,0.000
1709291927.839,-39.062,-24.414,-35.156,-20.020,0.000
1709291927.843,-39.062,-24.414,-36.621,-26.367,0.000
1709291927.847,-39.062,-23.438,-40.527,-24.902,0.000
1709291927.851,-32.715,-20.996,-38.086,-24.414,0.000
1709291927.855,-30.762,-20.996,-35.156,-30.762,0.000
1709291927.859,-34.668,-26.855,-41.504,-26.855,0.000
1709291927.863,-32.227,-26.855,-43.945,-20.508,0.000
1709291927.866,-32.227,-28.809,-41.504,-33.203,0.000
1709291927.870,-27.832,-30.762,-38.086,-36.133,0.000
1709291927.874,-21.973,-24.414,-37.598,-28.809,0.000
1709291927.878,-31.738,-24.902,-42.480,-36.621,0.000
1709291927.882,-41.016,-26.367,-41.504,-39.062,0.000
1709291927.886,-31.738,-22.461,-42.969,-38.086,0.000
1709291927.890,-22.949,-20.020,-42.969,-36.621,0.000
1709291927.894,-25.391,-17.578,-42.480,-35.645,0.000
1709291927.897,-34.180,-23.926,-40.039,-38.086,0.000
1709291927.901,-41.504,-29.785,-35.156,-36.133,0.000
1709291927.905,-30.273,-25.879,-34.180,-29.297,0.000
1709291927.909,-16.602,-21.484,-33.203,-27.832,0.000
1709291927.913,-22.461,-23.926,-33.691,-32.227,0.000
1709291927.917,-28.320,-28.320,-35.156,-30.273,0.000
1709291927.921,-25.391,-29.785,-33.691,-28.320,0.000
1709291927.924,-28.809,-26.367,-39.062,-26.855,0.000
1709291927.928,-25.879,-27.832,-43.945,-24.902,0.000
1709291927.932,-25.391,-29.297,-38.086,-21.973,0.000
1709291927.936,-33.691,-33.691,-39.551,-32.227,0.000
1709291927.940,-34.668,-33.203,-42.969,-39.551,0.000
1709291927.944,-31.738,-26.855,-45.410,-34.668,0.000
1709291927.948,-26.855,-29.297,-42.480,-28.809,0.000
1709291927.952,-31.250,-29.785,-41.016,-34.668,0.000
1709291927.956,-36.621,-29.785,-46.387,-48.340,0.000
1709291927.960,-36.621,-31.250,-42.480,-40.527,0.000
1709291927.963,-25.879,-28.320,-39.551,-33.203,0.000
1709291927.967,-18.066,-30.762,-42.969,-38.086,0.000
1709291927.971,-24.414,-31.738,-40.527,-36.621,0.000
1709291927.975,-35.156,-31.250,-39.551,-29.785,0.000
1709291927.978,-43.457,-32.715,-40.039,-33.691,0.000
1709291927.982,-34.668,-32.227,-34.180,-33.691,0.000
1709291927.986,-28.809,-27.832,-34.180,-30.273,0.000
1709291927.990,-30.762,-34.180,-39.551,-36.133,0.000
1709291927.994,-40.527,-40.039,-42.969,-30.273,0.000
1709291927.998,-53.223,-33.691,-45.410,-32.715,0.000
1709291928.002,-47.363,-41.504,-43.945,-42.969,0.000
1709291928.006,-37.598,-47.852,-46.387,-39.062,0.000
1709291928.010,-40.039,-49.316,-49.316,-42.480,0.000
1709291928.014,-41.016,-46.387,-42.480,-40.039,0.000
1709291928.018,-39.551,-38.574,-41.504,-36.621,0.000
1709291928.022,-33.203,-35.156,-39.062,-37.109,0.000
1709291928.026,-31.738,-38.086,-39.062,-30.273,0.000
1709291928.030,-31.738,-39.551,-40.039,-30.273,0.000
1709291928.034,-38.086,-38.574,-39.062,-40.039,0.000
1709291928.038,-45.898,-39.062,-43.945,-36.621,0.000
1709291928.042,-37.598,-33.691,-41.504,-27.344,0.000
1709291928.046,-37.598,-32.227,-39.551,-35.645,0.000
1709291928.050,-45.898,-35.645,-43.457,-43.457,0.000
1709291928.054,-45.410,-36.621,-43.457,-36.621,0.000
1709291928.057,-47.363,-34.180,-39.551,-41.016,0.000
1709291928.061,-33.691,-31.250,-37.109,-43.945,0.000
1709291928.066,-21.484,-30.273,-34.668,-31.250,0.000
1709291928.070,-25.879,-27.344,-31.738,-27.832,0.000
1709291928.074,-36.621,-25.391,-33.203,-33.203,0.000
1709291928.078,-46.875,-29.297,-34.668,-31.738,0.000
1709291928.081,-38.574,-31.250,-33.203,-29.785,0.000
1709291928.085,-30.273,-26.855,-29.785,-28.809,0.000
1709291928.089,-27.832,-27.832,-33.691,-25.391,0.000
1709291928.093,-31.250,-31.738,-36.621,-31.250,0.000
1709291928.097,-47.852,-31.738,-41.016,-34.180,0.000
1709291928.101,-55.176,-29.785,-42.480,-36.133,0.000
1709291928.105,-49.316,-29.785,-40.039,-37.109,0.000
1709291928.109,-46.387,-34.180,-44.922,-41.504,0.000
1709291928.113,-40.527,-35.156,-40.527,-44.434,0.000
1709291928.117,-46.875,-35.156,-31.738,-39.062,0.000
1709291928.121,-46.875,-34.668,-34.668,-35.645,0.000
1709291928.125,-33.203,-35.156,-38.574,-37.598,0.000
1709291928.129,-27.344,-34.180,-40.527,-40.039,0.000
1709291928.133,-28.809,-34.180,-41.016,-41.504,0.000
1709291928.137,-38.086,-39.062,-43.457,-43.945,0.000
1709291928.140,-43.457,-36.621,-47.852,-45.898,0.000
1709291928.144,-41.016,-34.180,-46.387,-33.691,0.000
1709291928.148,-40.039,-35.645,-44.434,-27.832,0.000
1709291928.152,-36.621,-29.297,-41.016,-31.250,0.000
1709291928.156,-41.016,-24.902,-41.504,-37.109,0.000
1709291928.160,-54.688,-28.320,-44.922,-47.852,0.000
1709291928.164,-48.828,-31.738,-44.922,-45.410,0.000
1709291928.168,-38.574,-28.809,-42.480,-35.645,0.000
1709291928.172,-40.527,-24.414,-40.527,-28.809,0.000
1709291928.176,-44.434,-27.832,-43.945,-33.691,0.000
1709291928.180,-46.875,-31.738,-42.480,-28.809,0.000
1709291928.183,-41.016,-33.691,-41.992,-21.973,0.000
1709291928.187,-25.391,-33.203,-48.340,-18.555,0.000
1709291928.191,-22.461,-34.180,-48.828,-23.926,0.000
1709291928.195,-43.945,-28.809,-50.293,-40.039,0.000
1709291928.199,-50.781,-24.902,-48.340,-36.133,0.000
1709291928.203,-37.598,-26.855,-39.062,-27.832,0.000
1709291928.207,-31.250,-23.926,-39.062,-30.273,0.000
1709291928.211,-37.109,-25.879,-47.363,-34.180,0.000
1709291928.215,-36.133,-24.902,-46.387,-28.809,0.000
1709291928.218,-34.668,-26.855,-47.363,-29.785,0.000
1709291928.222,-32.715,-27.832,-49.805,-37.598,0.000
1709291928.226,-25.879,-29.297,-48.828,-42.969,0.000
1709291928.230,-20.996,-28.809,-43.945,-41.992,0.000
1709291928.234,-22.949,-22.461,-38.086,-27.344,0.000
1709291928.238,-40.039,-24.414,-43.945,-27.344,0.000
1709291928.242,-38.086,-24.414,-46.387,-35.645,0.000
1709291928.246,-25.391,-22.461,-46.875,-36.133,0.000
1709291928.250,-22.461,-24.414,-47.852,-35.645,0.000
1709291928.253,-28.320,-23.926,-45.410,-28.809,0.000
1709291928.257,-43.457,-27.344,-50.293,-33.691,0.000
1709291928.261,-36.621,-28.809,-49.805,-31.250,0.000
1709291928.265,-22.461,-20.508,-47.852,-23.438,0.000
1709291928.269,-14.160,-22.949,-45.898,-27.344,0.000
1709291928.273,-8.301,-26.855,-37.109,-21.973,0.000
1709291928.277,-7.812,-22.949,-37.109,-16.113,0.000
1709291928.281,-13.184,-26.367,-40.039,-17.578,0.000
1709291928.285,-14.648,-25.391,-41.016,-22.949,0.000
1709291928.289,-10.742,-20.508,-39.062,-24.414,0.000
1709291928.292,-16.113,-21.973,-40.527,-26.367,0.000
1709291928.296,-25.391,-22.949,-44.434,-32.715,0.000
1709291928.300,-27.832,-21.484,-47.363,-31.250,0.000
1709291928.304,-23.926,-20.508,-47.852,-29.297,0.000
1709291928.308,-26.855,-24.902,-49.316,-28.809,0.000
1709291928.311,-29.297,-21.973,-47.852,-26.367,0.000
1709291928.315,-23.438,-19.531,-42.969,-28.809,0.000
1709291928.319,-31.250,-28.809,-43.457,-30.273,0.000
1709291928.323,-42.969,-29.297,-40.039,-23.926,0.000
1709291928.327,-34.668,-24.414,-37.598,-23.438,0.000
1709291928.331,-27.344,-25.879,-44.922,-29.785,0.000
1709291928.335,-31.738,-32.227,-44.434,-33.203,0.000
1709291928.339,-35.156,-32.227,-38.574,-30.273,0.000
1709291928.343,-37.598,-34.668,-40.527,-33.203,0.000
1709291928.348,-34.180,-38.086,-42.969,-36.621,0.000
1709291928.352,-24.902,-33.203,-39.551,-27.832,0.000
1709291928.355,-30.273,-33.203,-38.086,-30.273,0.000
1709291928.359,-41.992,-29.785,-43.945,-28.809,0.000
1709291928.363,-33.203,-27.832,-45.898,-27.832,0.000
1709291928.367,-22.949,-32.227,-44.434,-35.156,0.000
1709291928.371,-25.879,-31.250,-46.387,-30.762,0.000
1709291928.375,-36.133,-24.414,-43.457,-33.203,0.000
1709291928.379,-40.039,-21.484,-45.898,-35.156,0.000
1709291928.383,-34.180,-31.250,-52.246,-36.133,0.000
1709291928.387,-29.297,-30.273,-53.223,-35.645,0.000
1709291928.391,-39.062,-32.227,-56.641,-39.062,0.000
1709291928.394,-41.504,-32.227,-56.641,-37.598,0.000
1709291928.397,-42.480,-26.855,-53.711,-29.297,0.000
1709291928.401,-48.340,-34.668,-55.664,-39.062,0.000
1709291928.405,-35.156,-35.156,-55.664,-38.574,0.000
1709291928.409,-24.414,-30.273,-54.688,-28.320,0.000
1709291928.413,-21.484,-29.297,-50.293,-34.180,0.000
1709291928.417,-26.855,-30.762,-46.387,-38.086,0.000
1709291928.421,-31.250,-28.809,-50.293,-36.133,0.000
1709291928.425,-34.668,-28.320,-47.852,-37.598,0.000
1709291928.429,-28.320,-28.320,-41.504,-20.020,0.000
1709291928.433,-23.438,-25.879,-42.969,-11.230,0.000
1709291928.436,-41.016,-20.996,-47.852,-26.367,0.000
1709291928.441,-44.434,-25.879,-52.246,-24.902,0.000
1709291928.445,-31.738,-28.809,-56.641,-22.949,0.000
1709291928.449,-25.879,-31.738,-53.711,-28.320,0.000
1709291928.453,-32.227,-37.109,-54.199,-40.039,0.000
1709291928.457,-33.203,-34.180,-57.129,-49.805,0.000
1709291928.461,-27.344,-30.273,-50.781,-37.109,0.000
1709291928.464,-31.250,-30.273,-51.270,-30.273,0.000
1709291928.468,-37.109,-34.180,-55.664,-36.621,0.000
1709291928.472,-32.715,-29.785,-49.316,-37.598,0.000
1709291928.476,-38.574,-26.855,-46.875,-32.227,0.000
1709291928.480,-44.434,-27.832,-47.852,-40.039,0.000
1709291928.484,-26.367,-30.762,-46.875,-36.621,0.000
1709291928.488,-12.695,-30.273,-50.293,-25.391,0.000
1709291928.492,-21.484,-27.832,-52.246,-31.738,0.000
1709291928.496,-41.016,-32.227,-54.199,-48.340,0.000
1709291928.500,-38.574,-25.391,-55.176,-40.039,0.000
1709291928.504,-26.367,-24.902,-52.246,-24.414,0.000
1709291928.508,-30.273,-41.016,-49.805,-30.273,0.000
1709291928.512,-36.621,-42.480,-49.316,-41.016,0.000
1709291928.516,-41.016,-37.109,-48.828,-40.039,0.000
1709291928.519,-40.039,-36.133,-44.434,-22.949,0.000
1709291928.523,-33.203,-37.109,-43.945,-15.137,0.000
1709291928.527,-21.484,-37.109,-45.410,-23.438,0.000
1709291928.531,-19.043,-35.156,-44.922,-31.738,0.000
