timestamps,TP9,AF7,AF8,TP10,Right AUX
1709140364.111,-47.363,-46.875,-36.133,-49.805,0.000
1709140364.115,-40.039,-50.293,-39.062,-38.086,0.000
1709140364.119,-44.922,-45.410,-44.434,-48.828,0.000
1709140364.123,-42.480,-41.992,-52.246,-57.617,0.000
1709140364.127,-45.898,-41.992,-42.480,-61.035,0.000
1709140364.131,-48.828,-46.387,-35.156,-52.246,0.000
1709140364.135,-48.340,-49.805,-38.086,-40.527,0.000
1709140364.139,-39.062,-39.551,-34.668,-36.621,0.000
1709140364.143,-38.086,-33.203,-37.598,-39.551,0.000
1709140364.146,-46.875,-37.109,-38.086,-50.293,0.000
1709140364.150,-37.598,-41.992,-36.621,-40.527,0.000
1709140364.154,-31.250,-36.133,-44.434,-23.926,0.000
1709140364.158,-33.691,-34.180,-42.480,-22.949,0.000
1709140364.162,-38.574,-34.668,-36.133,-31.738,0.000
1709140364.166,-28.320,-48.828,-35.156,-37.598,0.000
1709140364.170,-30.273,-41.992,-36.133,-32.715,0.000
1709140364.174,-42.480,-19.043,-41.504,-23.926,0.000
1709140364.178,-37.598,-31.250,-41.016,-24.414,0.000
1709140364.182,-35.156,-41.504,-31.250,-37.598,0.000
1709140364.185,-32.227,-50.293,-26.855,-35.645,0.000
1709140364.189,-36.133,-44.434,-41.992,-39.551,0.000
1709140364.193,-37.598,-18.555,-47.363,-30.273,0.000
1709140364.197,-28.320,-22.461,-38.086,-16.602,0.000
1709140364.201,-23.438,-41.016,-35.156,-32.227,0.000
1709140364.205,-25.879,-45.898,-42.480,-46.875,0.000
1709140364.209,-31.250,-49.805,-47.852,-43.457,0.000
1709140364.213,-36.621,-48.340,-49.316,-38.086,0.000
1709140364.217,-34.180,-28.320,-45.898,-34.668,0.000
1709140364.221,-27.832,-27.344,-44.434,-30.762,0.000
1709140364.224,-22.461,-38.086,-47.363,-43.945,0.000
1709140364.228,-30.762,-47.363,-39.062,-45.898,0.000
1709140364.232,-38.086,-47.363,-34.180,-25.879,0.000
1709140364.236,-39.062,-52.246,-42.969,-21.973,0.000
1709140364.240,-35.645,-62.500,-46.387,-32.715,0.000
1709140364.244,-35.156,-51.270,-39.062,-46.387,0.000
1709140364.248,-38.574,-50.781,-44.434,-55.176,0.000
1709140364.252,-38.574,-51.758,-49.805,-44.922,0.000
1709140364.256,-35.156,-48.828,-39.551,-28.809,0.000
1709140364.259,-35.156,-38.086,-46.875,-34.668,0.000
1709140364.263,-39.551,-34.180,-55.664,-48.340,0.000
1709140364.267,-40.039,-45.898,-41.992,-53.223,0.000
1709140364.271,-37.109,-45.898,-39.062,-51.758,0.000
1709140364.275,-35.156,-50.781,-37.598,-33.203,0.000
1709140364.279,-26.855,-56.152,-32.715,-30.273,0.000
1709140364.283,-23.926,-54.688,-36.621,-44.434,0.000
1709140364.287,-26.855,-45.410,-41.016,-46.875,0.000
1709140364.291,-28.809,-31.738,-39.062,-35.156,0.000
1709140364.295,-27.832,-25.879,-37.598,-15.625,0.000
1709140364.298,-38.086,-37.598,-32.227,-12.695,0.000
1709140364.302,-35.645,-47.363,-28.320,-28.809,0.000
1709140364.306,-26.855,-35.645,-28.809,-39.062,0.000
1709140364.310,-36.621,-40.039,-34.668,-30.273,0.000
1709140364.314,-29.297,-62.012,-25.391,-6.836,0.000
1709140364.318,-21.973,-57.617,-21.484,0.000,0.000
1709140364.322,-28.809,-39.551,-32.227,-15.625,0.000
1709140364.326,-35.645,-37.598,-34.180,-34.668,0.000
1709140364.330,-41.504,-25.391,-35.156,-34.668,0.000
1709140364.333,-36.621,-29.785,-32.715,-26.367,0.000
1709140364.337,-30.273,-48.828,-31.738,-20.508,0.000
1709140364.341,-29.785,-41.504,-28.809,-31.250,0.000
1709140364.345,-36.133,-34.180,-29.297,-50.781,0.000
1709140364.349,-41.016,-37.109,-41.016,-48.340,0.000
1709140364.353,-33.691,-41.016,-46.875,-26.855,0.000
1709140364.357,-21.973,-50.293,-38.086,-17.090,0.000
1709140364.361,-23.926,-68.848,-25.879,-27.344,0.000
1709140364.365,-27.832,-52.734,-32.227,-42.969,0.000
1709140364.369,-26.855,-21.484,-37.109,-51.758,0.000
1709140364.373,-27.344,-29.785,-27.832,-41.992,0.000
1709140364.377,-31.738,-56.641,-19.531,-20.996,0.000
1709140364.380,-39.062,-46.387,-28.320,-22.949,0.000
1709140364.384,-45.410,-38.086,-36.621,-58.594,0.000
1709140364.388,-46.875,-42.480,-21.484,-66.895,0.000
1709140364.392,-41.016,-30.762,-15.137,-43.945,0.000
1709140364.396,-35.156,-36.621,-27.344,-23.926,0.000
1709140364.400,-35.645,-41.016,-28.320,-27.832,0.000
1709140364.404,-42.480,-33.203,-24.414,-49.805,0.000
1709140364.408,-49.805,-34.668,-24.902,-51.270,0.000
1709140364.412,-50.781,-42.969,-28.809,-31.250,0.000
1709140364.416,-38.574,-38.574,-29.785,-1.465,0.000
1709140364.420,-28.809,-40.527,-31.738,-6.348,0.000
1709140364.424,-22.461,-60.059,-31.250,-29.785,0.000
1709140364.427,-30.273,-58.594,-30.273,-39.062,0.000
1709140364.431,-47.852,-42.480,-39.551,-43.457,0.000
1709140364.435,-35.156,-40.527,-40.527,-27.344,0.000
1709140364.439,-36.133,-33.691,-40.039,-26.855,0.000
1709140364.443,-55.664,-34.180,-43.457,-47.852,0.000
1709140364.447,-53.711,-33.203,-39.551,-59.082,0.000
1709140364.451,-48.340,-33.203,-38.086,-41.016,0.000
1709140364.455,-40.527,-41.504,-32.227,-19.043,0.000
1709140364.459,-35.156,-46.875,-25.391,-15.137,0.000
1709140364.463,-38.574,-44.922,-34.180,-32.715,0.000
1709140364.467,-45.410,-47.852,-36.621,-58.105,0.000
1709140364.470,-45.898,-59.082,-34.180,-48.828,0.000
1709140364.474,-40.527,-58.594,-40.527,-27.344,0.000
1709140364.478,-38.574,-47.852,-32.227,-25.391,0.000
1709140364.482,-39.551,-33.691,-28.809,-40.527,0.000
1709140364.486,-40.039,-36.133,-28.809,-61.035,0.000
1709140364.490,-48.340,-45.410,-28.320,-60.059,0.000
1709140364.494,-44.922,-45.410,-40.039,-41.504,0.000
1709140364.498,-28.809,-46.387,-38.574,-34.668,0.000
1709140364.502,-34.668,-50.293,-32.227,-42.480,0.000
1709140364.506,-44.922,-59.570,-33.203,-58.594,0.000
1709140364.510,-46.387,-44.434,-35.645,-62.500,0.000
1709140364.513,-32.227,-46.387,-39.062,-35.156,0.000
1709140364.517,-24.414,-45.410,-37.109,-9.277,0.000
1709140364.521,-31.250,-37.109,-28.809,-24.902,0.000
1709140364.525,-35.156,-39.062,-20.020,-47.852,0.000
1709140364.529,-47.852,-43.457,-22.461,-51.270,0.000
1709140364.533,-46.875,-53.223,-24.414,-28.809,0.000
1709140364.537,-38.574,-49.805,-20.996,-7.812,0.000
1709140364.541,-46.875,-46.875,-22.949,-20.508,0.000
1709140364.545,-52.734,-56.152,-21.973,-50.293,0.000
1709140364.549,-48.828,-71.777,-9.766,-56.152,0.000
1709140364.553,-39.062,-62.988,-9.766,-35.645,0.000
1709140364.556,-35.156,-51.270,-20.996,-21.484,0.000
1709140364.560,-52.246,-62.500,-23.926,-26.367,0.000
1709140364.564,-48.340,-62.988,-20.508,-44.434,0.000
1709140364.568,-42.969,-56.641,-22.461,-56.152,0.000
1709140364.572,-46.387,-53.223,-33.691,-37.598,0.000
1709140364.576,-41.016,-63.477,-40.527,-20.020,0.000
1709140364.580,-36.621,-59.082,-39.551,-29.297,0.000
1709140364.584,-37.109,-40.039,-44.922,-49.316,0.000
1709140364.588,-42.480,-44.922,-41.992,-58.105,0.000
1709140364.591,-40.527,-50.781,-29.785,-38.086,0.000
1709140364.595,-34.180,-34.180,-26.855,-10.742,0.000
1709140364.599,-31.250,-38.086,-31.250,-22.949,0.000
1709140364.603,-27.344,-51.758,-25.879,-39.062,0.000
1709140364.607,-40.039,-65.918,-28.809,-39.062,0.000
1709140364.611,-44.434,-56.641,-29.785,-35.156,0.000
1709140364.615,-32.715,-29.297,-22.949,-10.742,0.000
1709140364.619,-26.855,-32.227,-28.809,-10.254,0.000
1709140364.623,-31.738,-31.250,-33.203,-32.227,0.000
1709140364.627,-38.086,-20.996,-38.574,-48.828,0.000
1709140364.630,-41.992,-33.691,-35.156,-43.945,0.000
1709140364.634,-34.668,-35.156,-23.438,-18.066,0.000
1709140364.638,-24.902,-26.367,-26.367,-15.137,0.000
1709140364.642,-20.996,-36.133,-33.691,-39.062,0.000
1709140364.646,-31.738,-45.410,-36.133,-63.965,0.000
1709140364.650,-35.156,-44.922,-30.762,-43.945,0.000
1709140364.654,-32.715,-40.527,-34.668,-21.973,0.000
1709140364.658,-33.203,-36.133,-39.062,-25.391,0.000
1709140364.662,-37.598,-49.805,-35.156,-42.480,0.000
1709140364.666,-41.992,-53.711,-37.598,-70.312,0.000
1709140364.669,-44.922,-35.645,-46.875,-66.895,0.000
1709140364.673,-49.316,-33.691,-41.504,-36.621,0.000
1709140364.677,-42.480,-55.664,-33.203,-12.207,0.000
1709140364.681,-41.504,-53.711,-41.016,-28.809,0.000
1709140364.685,-48.340,-40.527,-41.992,-68.848,0.000
1709140364.689,-58.594,-40.039,-37.598,-75.195,0.000
1709140364.693,-48.828,-30.273,-40.039,-43.945,0.000
1709140364.697,-32.227,-29.297,-42.480,-17.090,0.000
1709140364.701,-36.133,-41.016,-41.016,-30.273,0.000
1709140364.704,-41.992,-38.574,-28.320,-64.941,0.000
1709140364.708,-42.480,-34.668,-31.738,-68.359,0.000
1709140364.712,-32.227,-39.062,-40.527,-37.109,0.000
1709140364.716,-33.203,-47.852,-37.109,-14.648,0.000
1709140364.720,-34.180,-51.270,-37.109,-29.297,0.000
1709140364.724,-33.691,-41.992,-39.062,-59.082,0.000
1709140364.728,-53.711,-40.039,-47.363,-72.266,0.000
1709140364.732,-47.852,-37.109,-51.758,-50.293,0.000
1709140364.736,-32.227,-20.996,-36.133,-10.742,0.000
1709140364.740,-35.645,-29.785,-35.645,-16.602,0.000
1709140364.744,-39.062,-36.621,-33.691,-47.852,0.000
1709140364.748,-42.969,-30.273,-30.762,-62.500,0.000
1709140364.751,-42.969,-34.180,-35.156,-41.992,0.000
1709140364.755,-34.668,-47.363,-34.180,-3.906,0.000
1709140364.759,-37.109,-52.246,-33.691,-14.648,0.000
1709140364.763,-41.016,-60.059,-34.180,-52.734,0.000
1709140364.767,-40.039,-56.152,-40.039,-64.941,0.000
1709140364.771,-33.203,-42.480,-49.805,-47.852,0.000
1709140364.775,-41.992,-42.969,-46.387,-23.438,0.000
1709140364.779,-55.176,-36.133,-37.598,-26.367,0.000
1709140364.783,-55.176,-30.762,-36.621,-49.805,0.000
1709140364.787,-60.059,-38.086,-41.504,-68.848,0.000
1709140364.791,-66.895,-39.551,-50.781,-59.082,0.000
1709140364.795,-57.129,-37.109,-40.039,-26.855,0.000
1709140364.798,-43.457,-38.574,-27.344,-16.113,0.000
1709140364.802,-42.969,-48.340,-38.574,-37.598,0.000
1709140364.806,-48.340,-50.293,-44.922,-62.988,0.000
1709140364.810,-48.828,-41.504,-36.133,-55.664,0.000
1709140364.814,-48.828,-47.852,-37.109,-26.855,0.000
1709140364.818,-38.086,-53.223,-46.875,-8.301,0.000
1709140364.822,-31.738,-39.551,-47.852,-33.691,0.000
1709140364.826,-40.039,-51.270,-34.180,-69.824,0.000
1709140364.830,-38.086,-54.199,-27.832,-62.500,0.000
1709140364.834,-40.039,-30.273,-41.504,-35.156,0.000
1709140364.838,-45.898,-25.391,-51.270,-20.996,0.000
1709140364.841,-37.109,-35.156,-36.621,-28.809,0.000
1709140364.845,-37.109,-30.273,-29.297,-47.852,0.000
1709140364.849,-45.410,-24.902,-38.574,-55.176,0.000
1709140364.853,-45.898,-40.039,-26.855,-33.691,0.000
1709140364.857,-41.992,-39.062,-21.973,-16.113,0.000
1709140364.861,-41.992,-33.203,-33.203,-36.133,0.000
1709140364.865,-40.039,-37.598,-32.715,-68.359,0.000
1709140364.869,-45.410,-45.898,-32.227,-70.801,0.000
1709140364.873,-53.711,-49.805,-34.180,-45.898,0.000
1709140364.877,-47.852,-39.062,-34.668,-18.555,0.000
1709140364.881,-41.504,-30.273,-42.969,-33.203,0.000
1709140364.884,-51.270,-15.137,-49.316,-80.078,0.000
1709140364.888,-50.293,-13.672,-53.711,-83.496,0.000
1709140364.892,-29.785,-21.973,-60.059,-45.410,0.000
1709140364.896,-29.785,-8.301,-63.477,-22.949,0.000
1709140364.900,-31.250,6.836,-60.547,-37.598,0.000
1709140364.904,-29.297,5.371,-63.477,-69.336,0.000
1709140364.908,-24.414,0.488,-64.453,-77.148,0.000
1709140364.912,-23.926,15.625,-69.336,-57.617,0.000
1709140364.916,-31.250,28.320,-75.684,-27.832,0.000
1709140364.920,-39.062,15.137,-77.148,-32.227,0.000
1709140364.923,-40.527,3.906,-77.148,-62.012,0.000
1709140364.927,-35.645,1.953,-73.730,-79.102,0.000
1709140364.931,-32.227,13.184,-76.172,-69.824,0.000
1709140364.935,-19.531,33.203,-85.938,-36.621,0.000
1709140364.939,-14.160,51.758,-87.402,-41.504,0.000
1709140364.943,-23.438,53.223,-85.449,-75.195,0.000
1709140364.947,-27.832,50.781,-94.727,-93.262,0.000
1709140364.951,-11.719,53.223,-97.168,-78.125,0.000
1709140364.955,-16.602,47.852,-92.285,-53.223,0.000
1709140364.959,-27.344,33.203,-89.355,-48.828,0.000
1709140364.962,-15.137,28.320,-84.961,-65.918,0.000
1709140364.966,-11.719,20.508,-80.566,-85.449,0.000
1709140364.970,-14.648,17.578,-89.355,-74.219,0.000
1709140364.974,-18.555,31.738,-92.285,-48.828,0.000
1709140364.978,-8.301,30.762,-88.379,-42.969,0.000
1709140364.982,-2.930,31.738,-92.285,-56.152,0.000
1709140364.986,-17.090,51.270,-95.215,-82.031,0.000
1709140364.990,-22.461,50.293,-94.727,-73.730,0.000
1709140364.994,-14.160,43.457,-92.773,-34.180,0.000
1709140364.998,-0.488,46.875,-85.449,-9.277,0.000
1709140365.001,-0.977,36.621,-80.078,-28.320,0.000
1709140365.005,-13.184,19.043,-80.078,-63.477,0.000
1709140365.009,-16.602,20.996,-78.125,-66.406,0.000
1709140365.013,-6.348,29.297,-78.125,-38.086,0.000
1709140365.017,-8.789,12.695,-74.219,-19.043,0.000
1709140365.021,-15.137,3.906,-75.195,-47.363,0.000
1709140365.025,-16.113,16.602,-71.777,-67.871,0.000
1709140365.029,-17.090,13.672,-60.059,-63.965,0.000
1709140365.033,-11.719,-9.766,-57.129,-41.016,0.000
1709140365.037,-5.859,-22.949,-56.641,-18.066,0.000
1709140365.040,-11.719,-11.230,-48.340,-29.297,0.000
1709140365.044,-15.625,4.395,-53.223,-53.711,0.000
1709140365.048,-21.973,7.324,-67.871,-64.453,0.000
1709140365.052,-27.344,-3.906,-58.105,-38.574,0.000
1709140365.056,-14.648,-14.160,-50.781,-17.578,0.000
1709140365.060,-13.672,-4.395,-58.105,-32.227,0.000
1709140365.064,-28.320,10.254,-60.547,-56.152,0.000
1709140365.068,-39.551,-14.648,-60.547,-79.102,0.000
1709140365.072,-39.062,-29.785,-59.570,-62.012,0.000
1709140365.075,-22.461,-16.113,-61.035,-29.785,0.000
1709140365.079,-13.672,-16.113,-64.941,-30.273,0.000
1709140365.083,-21.484,-29.785,-63.477,-43.457,0.000
1709140365.087,-28.320,-32.227,-52.246,-55.664,0.000
1709140365.091,-39.062,-19.043,-45.898,-42.969,0.000
1709140365.095,-34.668,-10.742,-41.992,-10.254,0.000
1709140365.099,-26.367,-25.879,-50.781,-9.277,0.000
1709140365.103,-27.832,-37.109,-58.594,-39.062,0.000
1709140365.107,-36.621,-29.785,-40.039,-68.848,0.000
1709140365.111,-35.156,-30.273,-37.598,-58.105,0.000
1709140365.115,-25.879,-28.809,-41.992,-26.855,0.000
1709140365.119,-21.973,-34.180,-43.457,-25.391,0.000
1709140365.123,-15.625,-36.621,-47.852,-45.898,0.000
1709140365.126,-23.438,-29.297,-41.992,-72.266,0.000
1709140365.130,-32.715,-29.785,-34.180,-50.781,0.000
1709140365.134,-20.020,-27.344,-35.645,-18.555,0.000
1709140365.138,-17.578,-20.508,-38.086,-5.371,0.000
1709140365.142,-21.484,-15.137,-37.598,-21.484,0.000
1709140365.146,-22.949,-34.668,-40.527,-44.434,0.000
1709140365.150,-33.691,-49.805,-42.480,-38.086,0.000
1709140365.154,-41.992,-45.410,-47.363,-21.973,0.000
1709140365.158,-39.062,-47.363,-49.805,-16.602,0.000
1709140365.162,-47.363,-38.086,-41.992,-36.621,0.000
1709140365.166,-51.758,-35.645,-41.016,-65.918,0.000
1709140365.170,-40.527,-41.504,-40.527,-65.430,0.000
1709140365.173,-37.109,-38.086,-43.945,-35.645,0.000
1709140365.177,-30.762,-41.016,-42.480,-6.836,0.000
1709140365.181,-39.062,-45.410,-41.992,-25.879,0.000
1709140365.185,-44.922,-34.180,-44.434,-58.594,0.000
1709140365.189,-47.363,-35.156,-42.480,-63.965,0.000
1709140365.193,-46.875,-40.527,-42.480,-36.133,0.000
1709140365.197,-31.250,-38.086,-46.875,-1.953,0.000
1709140365.201,-21.484,-41.992,-46.387,-10.254,0.000
1709140365.205,-34.180,-41.016,-41.016,-44.434,0.000
1709140365.209,-43.945,-38.574,-41.016,-55.176,0.000
1709140365.213,-42.480,-33.691,-48.828,-44.434,0.000
1709140365.216,-37.598,-29.785,-48.340,-17.578,0.000
1709140365.220,-29.297,-36.133,-46.875,-16.602,0.000
1709140365.224,-38.574,-33.203,-48.340,-51.758,0.000
1709140365.228,-50.293,-39.062,-44.434,-66.895,0.000
1709140365.232,-41.504,-55.664,-36.133,-39.551,0.000
1709140365.236,-28.320,-44.434,-47.852,-5.859,0.000
1709140365.240,-16.602,-38.574,-44.434,-9.277,0.000
1709140365.244,-16.602,-40.039,-29.297,-32.227,0.000
1709140365.248,-43.457,-38.086,-29.297,-55.176,0.000
1709140365.252,-53.711,-28.320,-28.809,-47.363,0.000
1709140365.256,-39.551,-27.344,-34.668,-20.508,0.000
1709140365.259,-32.715,-33.203,-34.180,-30.762,0.000
1709140365.263,-36.133,-40.039,-40.527,-58.594,0.000
1709140365.267,-46.875,-40.527,-41.504,-70.801,0.000
1709140365.271,-45.410,-46.875,-38.574,-51.270,0.000
1709140365.275,-30.762,-58.594,-37.598,-13.184,0.000
1709140365.279,-23.926,-47.363,-32.227,-0.977,0.000
1709140365.283,-32.227,-31.250,-33.203,-25.391,0.000
1709140365.287,-40.527,-21.484,-35.645,-54.199,0.000
1709140365.291,-38.086,-22.949,-43.945,-48.828,0.000
1709140365.295,-34.668,-35.156,-53.711,-22.461,0.000
1709140365.298,-31.250,-34.668,-47.363,-9.766,0.000
1709140365.302,-36.133,-34.180,-41.016,-36.133,0.000
1709140365.306,-41.992,-36.133,-42.480,-62.988,0.000
1709140365.310,-36.621,-46.875,-41.992,-41.992,0.000
1709140365.314,-21.973,-49.316,-35.645,-14.160,0.000
1709140365.318,-23.926,-34.180,-41.504,-11.230,0.000
1709140365.322,-37.109,-33.203,-42.969,-40.527,0.000
1709140365.326,-47.363,-37.598,-34.180,-66.406,0.000
1709140365.330,-45.410,-40.039,-29.785,-59.570,0.000
1709140365.334,-34.180,-47.363,-33.691,-29.785,0.000
1709140365.337,-29.297,-41.504,-40.039,-10.742,0.000
1709140365.341,-26.367,-39.551,-38.086,-29.785,0.000
1709140365.345,-32.715,-36.621,-38.086,-68.359,0.000
1709140365.349,-39.062,-33.203,-42.969,-74.219,0.000
1709140365.353,-41.016,-39.551,-41.992,-37.598,0.000
1709140365.357,-40.039,-41.016,-31.250,-2.441,0.000
1709140365.361,-34.180,-42.969,-27.832,-29.297,0.000
1709140365.365,-36.133,-33.203,-30.762,-70.801,0.000
1709140365.369,-46.875,-33.691,-34.668,-68.848,0.000
1709140365.373,-46.875,-48.828,-32.715,-39.062,0.000
1709140365.377,-29.785,-43.945,-36.133,-13.184,0.000
1709140365.381,-37.109,-38.086,-39.062,-22.949,0.000
1709140365.385,-42.480,-50.293,-38.574,-48.340,0.000
1709140365.388,-38.086,-54.688,-37.109,-63.965,0.000
1709140365.392,-34.180,-41.992,-27.832,-44.922,0.000
1709140365.396,-27.344,-47.852,-26.855,-9.766,0.000
1709140365.400,-25.879,-49.316,-44.434,-7.324,0.000
1709140365.404,-38.086,-41.504,-49.805,-49.316,0.000
1709140365.408,-43.457,-32.227,-36.621,-70.801,0.000
1709140365.412,-40.527,-21.973,-29.297,-43.945,0.000
1709140365.416,-33.691,-30.762,-34.180,-6.348,0.000
1709140365.420,-26.855,-42.969,-41.504,1.465,0.000
1709140365.423,-28.809,-40.039,-29.297,-27.344,0.000
1709140365.427,-34.180,-35.156,-21.973,-49.805,0.000
1709140365.431,-39.062,-33.203,-26.855,-40.527,0.000
1709140365.435,-33.691,-34.180,-26.855,-8.789,0.000
1709140365.439,-19.531,-43.457,-28.320,-3.418,0.000
1709140365.443,-25.391,-54.688,-35.156,-32.715,0.000
1709140365.447,-50.293,-40.527,-36.133,-57.129,0.000
1709140365.451,-53.223,-41.504,-34.668,-47.852,0.000
1709140365.455,-38.574,-48.828,-37.598,-28.320,0.000
1709140365.459,-37.109,-34.668,-37.109,-20.020,0.000
1709140365.462,-40.039,-29.785,-32.227,-32.715,0.000
1709140365.466,-43.457,-30.762,-31.738,-65.430,0.000
1709140365.470,-48.828,-21.973,-31.250,-61.035,0.000
1709140365.474,-40.039,-35.156,-20.020,-21.484,0.000
1709140365.478,-27.832,-49.805,-14.160,-7.812,0.000
1709140365.482,-33.691,-33.203,-22.949,-35.156,0.000
1709140365.486,-46.387,-30.762,-29.785,-66.895,0.000
1709140365.490,-52.734,-29.297,-35.156,-62.988,0.000
1709140365.494,-44.922,-19.531,-35.156,-38.086,0.000
1709140365.498,-27.832,-26.367,-26.367,-17.090,0.000
1709140365.502,-30.273,-33.203,-27.344,-29.297,0.000
1709140365.506,-46.387,-41.504,-28.320,-54.199,0.000
1709140365.510,-41.992,-52.734,-30.273,-53.711,0.000
1709140365.513,-35.645,-43.945,-45.410,-33.203,0.000
1709140365.517,-37.109,-31.250,-37.109,-17.090,0.000
1709140365.521,-36.621,-31.738,-22.949,-23.926,0.000
1709140365.525,-39.551,-51.758,-23.438,-53.711,0.000
1709140365.529,-50.781,-62.500,-23.438,-69.824,0.000
1709140365.533,-54.199,-37.598,-23.438,-48.340,0.000
1709140365.537,-48.340,-30.273,-25.391,-29.297,0.000
1709140365.541,-51.270,-44.434,-31.250,-46.875,0.000
1709140365.545,-53.711,-41.016,-33.691,-77.637,0.000
1709140365.549,-58.105,-34.180,-32.715,-74.707,0.000
1709140365.553,-48.828,-40.527,-31.250,-38.574,0.000
1709140365.556,-35.645,-43.457,-32.715,-17.578,0.000
1709140365.560,-42.969,-38.086,-39.551,-27.344,0.000
1709140365.564,-47.363,-46.875,-47.852,-59.082,0.000
1709140365.568,-56.152,-48.340,-44.434,-76.172,0.000
1709140365.572,-64.941,-38.086,-39.062,-63.965,0.000
1709140365.576,-56.152,-48.340,-36.133,-34.668,0.000
1709140365.580,-47.363,-56.152,-42.480,-38.086,0.000
1709140365.584,-51.270,-48.340,-43.945,-64.453,0.000
1709140365.588,-52.246,-44.434,-37.109,-71.777,0.000
1709140365.592,-50.781,-41.016,-39.062,-55.176,0.000
1709140365.596,-52.246,-32.715,-37.598,-23.438,0.000
1709140365.599,-45.410,-32.715,-38.086,-19.043,0.000
1709140365.603,-34.668,-27.344,-36.133,-44.922,0.000
1709140365.607,-34.180,-29.297,-36.621,-67.383,0.000
1709140365.611,-39.551,-49.316,-47.363,-62.988,0.000
1709140365.615,-35.645,-51.270,-44.434,-22.461,0.000
1709140365.619,-38.574,-39.551,-39.551,-12.695,0.000
1709140365.623,-33.203,-30.762,-30.762,-42.480,0.000
1709140365.627,-32.715,-41.992,-24.902,-68.359,0.000
1709140365.631,-36.621,-50.293,-31.738,-60.547,0.000
1709140365.635,-34.180,-39.062,-42.480,-32.715,0.000
1709140365.639,-25.879,-43.457,-44.434,-14.160,0.000
1709140365.642,-21.973,-62.500,-33.203,-20.508,0.000
1709140365.646,-31.250,-51.758,-28.809,-59.082,0.000
1709140365.650,-35.156,-25.879,-40.039,-63.965,0.000
1709140365.654,-44.922,-31.250,-37.109,-37.598,0.000
1709140365.658,-42.969,-41.504,-30.762,-22.949,0.000
1709140365.662,-33.691,-28.809,-30.762,-41.992,0.000
1709140365.666,-32.227,-13.184,-27.832,-68.359,0.000
1709140365.670,-38.086,-23.438,-31.738,-66.895,0.000
1709140365.674,-29.785,-31.250,-36.133,-40.527,0.000
1709140365.678,-23.926,-56.641,-39.062,-17.090,0.000
1709140365.682,-41.992,-54.199,-38.574,-35.645,0.000
1709140365.685,-49.805,-28.320,-40.527,-66.406,0.000
1709140365.689,-48.828,-34.180,-40.527,-74.707,0.000
1709140365.693,-43.945,-41.504,-34.668,-54.688,0.000
1709140365.697,-34.668,-47.852,-37.109,-21.484,0.000
1709140365.701,-31.250,-45.898,-38.086,-26.367,0.000
1709140365.705,-42.969,-20.020,-42.969,-65.430,0.000
1709140365.709,-47.852,-12.695,-47.852,-76.660,0.000
1709140365.713,-38.086,-29.297,-38.086,-54.199,0.000
1709140365.717,-35.645,-35.645,-29.297,-19.531,0.000
1709140365.720,-36.621,-42.480,-34.180,-24.414,0.000
1709140365.724,-39.062,-41.016,-39.062,-59.082,0.000
1709140365.728,-35.645,-47.363,-37.598,-60.547,0.000
1709140365.732,-26.367,-64.453,-34.180,-27.344,0.000
1709140365.736,-39.551,-43.457,-24.902,-3.906,0.000
1709140365.740,-34.180,-19.531,-21.484,-12.207,0.000
1709140365.744,-27.344,-26.367,-24.414,-41.504,0.000
1709140365.748,-34.180,-26.367,-34.180,-66.895,0.000
1709140365.752,-33.691,-23.926,-38.574,-42.480,0.000
1709140365.755,-34.668,-30.762,-31.250,-10.742,0.000
1709140365.759,-29.297,-40.527,-25.391,-12.207,0.000
1709140365.763,-30.273,-45.898,-26.855,-38.086,0.000
1709140365.767,-41.992,-43.945,-32.715,-61.035,0.000
1709140365.771,-53.711,-42.480,-35.156,-58.594,0.000
1709140365.775,-45.898,-30.273,-38.086,-23.926,0.000
1709140365.779,-26.855,-13.672,-32.227,-4.883,0.000
1709140365.783,-26.367,-29.785,-29.297,-32.715,0.000
1709140365.787,-38.574,-53.223,-34.180,-61.035,0.000
1709140365.791,-48.340,-38.086,-34.180,-47.852,0.000
1709140365.795,-40.527,-30.762,-42.480,-16.113,0.000
1709140365.798,-35.645,-47.363,-46.875,-8.789,0.000
1709140365.802,-37.598,-50.781,-44.434,-40.527,0.000
1709140365.806,-44.922,-36.133,-44.434,-84.961,0.000
1709140365.810,-47.852,-31.738,-47.852,-88.867,0.000
1709140365.814,-45.410,-53.711,-40.527,-53.711,0.000
1709140365.818,-41.504,-64.941,-38.086,-27.344,0.000
1709140365.822,-44.922,-45.898,-41.992,-39.062,0.000
1709140365.826,-54.688,-27.832,-42.969,-77.637,0.000
1709140365.830,-52.734,-21.484,-45.898,-80.078,0.000
1709140365.833,-43.457,-38.086,-47.363,-55.176,0.000
1709140365.837,-44.922,-52.246,-40.039,-26.855,0.000
1709140365.841,-47.852,-55.176,-41.016,-33.203,0.000
1709140365.845,-43.457,-55.664,-41.504,-61.523,0.000
1709140365.849,-38.574,-42.480,-31.738,-61.035,0.000
1709140365.853,-35.645,-33.691,-32.715,-36.133,0.000
1709140365.857,-33.691,-20.996,-34.180,-7.324,0.000
1709140365.861,-37.598,-18.066,-29.785,-22.949,0.000
1709140365.865,-46.387,-36.133,-32.715,-60.059,0.000
1709140365.869,-52.246,-41.504,-33.691,-64.941,0.000
1709140365.873,-44.922,-38.086,-34.180,-43.457,0.000
1709140365.877,-39.062,-39.062,-32.715,-17.578,0.000
1709140365.880,-37.598,-61.523,-31.738,-10.742,0.000
1709140365.884,-38.086,-60.547,-35.645,-34.180,0.000
1709140365.888,-39.062,-26.855,-35.645,-50.781,0.000
1709140365.892,0.000,-23.926,-32.227,-36.133,0.000
1709140365.896,0.000,-30.273,-30.273,-11.719,0.000
1709140365.900,0.000,-27.832,-35.156,-17.578,0.000
1709140365.904,0.000,-35.156,-49.805,-49.316,0.000
1709140365.908,0.000,-41.504,-48.340,-71.289,0.000
1709140365.912,0.000,-32.715,-39.551,-60.059,0.000
1709140365.916,0.000,-30.273,-35.645,-33.203,0.000
1709140365.920,0.000,-38.574,-31.250,-29.297,0.000
1709140365.924,0.000,-47.852,-27.344,-54.199,0.000
1709140365.927,0.000,-49.805,-30.273,-69.824,0.000
1709140365.931,0.000,-50.781,-36.133,-63.477,0.000
1709140365.935,0.000,-63.477,-31.738,-36.133,0.000
1709140365.939,-39.062,-38.086,-35.645,-26.855,0.000
1709140365.943,-33.691,-18.066,-35.156,-49.805,0.000
1709140365.947,-34.180,-42.969,-35.645,-69.336,0.000
1709140365.951,-40.527,-43.945,-35.156,-57.617,0.000
1709140365.955,-37.109,-37.109,-29.785,-24.414,0.000
1709140365.959,-15.137,-30.762,-28.809,-6.836,0.000
1709140365.963,-22.949,-28.809,-30.762,-23.926,0.000
1709140365.967,-47.852,-50.781,-35.156,-55.176,0.000
1709140365.970,-44.434,-67.383,-32.227,-38.574,0.000
1709140365.974,-36.621,-48.828,-25.879,-4.395,0.000
1709140365.978,-35.645,-24.414,-27.344,-1.465,0.000
1709140365.982,-40.039,-39.062,-32.715,-26.855,0.000
1709140365.986,-44.922,-47.852,-38.086,-61.523,0.000
1709140365.990,-48.828,-39.551,-36.621,-61.035,0.000
1709140365.994,-38.574,-35.156,-36.133,-28.320,0.000
1709140365.998,-26.367,-44.922,-27.344,-2.930,0.000
1709140366.002,-39.062,-55.176,-23.438,-12.207,0.000
1709140366.006,-53.711,-55.664,-29.785,-46.875,0.000
1709140366.010,-56.152,-41.016,-32.227,-61.035,0.000
1709140366.013,-46.387,-43.457,-29.297,-26.855,0.000
1709140366.017,-37.598,-46.875,-36.133,8.301,0.000
1709140366.021,-36.621,-17.578,-40.039,-11.719,0.000
1709140366.025,-30.762,-25.879,-31.738,-50.293,0.000
1709140366.029,-32.715,-50.781,-30.762,-66.406,0.000
1709140366.033,-41.992,-41.016,-32.715,-49.805,0.000
1709140366.037,-40.039,-25.879,-32.227,-24.414,0.000
1709140366.041,-30.762,-34.180,-33.203,-23.926,0.000
1709140366.045,-35.156,-49.805,-40.039,-40.039,0.000
1709140366.049,-45.898,-35.156,-41.992,-50.293,0.000
1709140366.052,-42.480,-23.926,-35.156,-44.434,0.000
1709140366.056,-34.180,-43.457,-37.109,-39.551,0.000
1709140366.060,-40.527,-57.617,-41.016,-38.086,0.000
1709140366.064,-40.527,-31.738,-41.504,-39.551,0.000
1709140366.068,-36.621,-28.320,-41.016,-45.410,0.000
1709140366.072,-35.645,-52.734,-41.504,-41.016,0.000
1709140366.076,-32.715,-47.363,-39.062,-40.527,0.000
1709140366.080,-43.457,-26.855,-38.086,-50.293,0.000
1709140366.084,-52.246,-26.367,-40.527,-52.246,0.000
1709140366.088,-42.480,-41.992,-37.598,-46.875,0.000
1709140366.091,-43.457,-53.711,-29.297,-38.086,0.000
1709140366.095,-44.922,-46.387,-33.691,-29.297,0.000
1709140366.099,-35.156,-47.363,-42.480,-26.367,0.000
1709140366.103,-31.738,-50.293,-43.457,-33.203,0.000
1709140366.107,-35.156,-50.781,-42.969,-38.574,0.000
1709140366.111,-43.457,-36.133,-45.410,-38.086,0.000
1709140366.115,-52.246,-30.273,-43.945,-39.551,0.000
1709140366.119,-44.922,-48.828,-34.180,-39.551,0.000
1709140366.123,-40.039,-46.875,-33.691,-48.828,0.000
1709140366.126,-47.363,-38.086,-36.621,-59.082,0.000
1709140366.130,-49.316,-32.227,-36.133,-52.246,0.000
1709140366.134,-48.828,-34.180,-40.527,-41.504,0.000
1709140366.138,-43.457,-41.992,-45.410,-36.621,0.000
1709140366.142,-37.598,-46.875,-47.852,-40.039,0.000
1709140366.146,-39.062,-42.969,-40.527,-57.129,0.000
1709140366.150,-39.062,-37.598,-32.227,-43.457,0.000
1709140366.154,-41.504,-35.645,-41.016,-36.133,0.000
1709140366.158,-40.039,-46.875,-39.062,-50.293,0.000
1709140366.162,-38.086,-72.266,-24.414,-57.129,0.000
1709140366.166,-58.594,-74.707,-29.785,-70.801,0.000
1709140366.169,-78.613,-49.316,-31.738,-77.637,0.000
1709140366.173,-78.613,-55.176,-25.391,-71.289,0.000
1709140366.177,-84.473,-66.406,-22.461,-66.406,0.000
1709140366.181,-104.492,-60.547,-31.738,-85.449,0.000
1709140366.185,-112.793,-42.969,-31.250,-108.887,0.000
1709140366.189,-117.188,-53.711,-17.090,-121.582,0.000
1709140366.193,-127.930,-62.988,-13.672,-118.652,0.000
1709140366.197,-125.977,-54.199,-21.973,-107.422,0.000
1709140366.201,-112.305,-62.012,-19.043,-101.074,0.000
1709140366.204,-124.023,-65.918,-11.230,-125.977,0.000
1709140366.208,-145.508,-59.082,-8.789,-141.113,0.000
1709140366.212,-137.207,-66.406,-14.648,-115.723,0.000
1709140366.216,-116.211,-51.758,-22.461,-104.492,0.000
1709140366.220,-116.211,-25.391,-24.902,-110.352,0.000
1709140366.224,-122.559,-43.457,-19.043,-111.816,0.000
1709140366.228,-113.281,-56.152,-10.742,-111.328,0.000
1709140366.232,-103.516,-51.270,-20.020,-94.727,0.000
1709140366.236,-100.098,-48.340,-30.762,-82.031,0.000
1709140366.240,-99.121,-48.340,-25.391,-91.797,0.000
1709140366.244,-93.750,-45.898,-20.508,-102.051,0.000
1709140366.248,-85.938,-55.664,-30.762,-98.145,0.000
1709140366.251,-78.613,-69.824,-30.762,-86.426,0.000
1709140366.255,-65.918,-68.848,-20.508,-55.664,0.000
1709140366.259,-55.664,-59.570,-22.461,-32.227,0.000
1709140366.263,-62.012,-55.664,-28.320,-56.152,0.000
1709140366.268,-68.359,-45.898,-37.109,-71.777,0.000
1709140366.271,-63.477,-47.363,-35.156,-61.523,0.000
1709140366.275,-60.547,-55.664,-20.996,-48.340,0.000
1709140366.279,-52.246,-48.340,-16.113,-43.457,0.000
1709140366.283,-42.969,-55.664,-16.113,-51.758,0.000
1709140366.287,-40.527,-74.219,-18.555,-56.152,0.000
1709140366.291,-30.273,-71.289,-20.996,-55.176,0.000
1709140366.295,-25.391,-62.500,-23.438,-43.945,0.000
1709140366.299,-28.320,-41.992,-21.484,-23.438,0.000
1709140366.303,-20.996,-34.180,-20.996,-17.578,0.000
1709140366.307,-16.113,-52.246,-23.926,-36.621,0.000
1709140366.310,-19.043,-52.734,-19.531,-42.480,0.000
1709140366.314,-21.973,-47.852,-25.879,-26.367,0.000
1709140366.318,-25.391,-42.480,-25.391,-13.184,0.000
1709140366.322,-25.879,-46.875,-24.414,-21.484,0.000
1709140366.326,-21.973,-56.641,-25.879,-27.832,0.000
1709140366.330,-21.484,-57.617,-24.414,-21.973,0.000
1709140366.334,-17.578,-52.246,-21.973,-16.113,0.000
1709140366.338,-22.461,-47.852,-24.414,-20.996,0.000
1709140366.342,-27.832,-48.340,-26.367,-26.367,0.000
1709140366.346,-21.484,-54.199,-20.996,-23.926,0.000
1709140366.350,-23.926,-73.242,-24.902,-20.996,0.000
1709140366.354,-29.785,-60.547,-30.273,-12.207,0.000
1709140366.357,-23.438,-40.039,-26.855,-8.301,0.000
1709140366.361,-15.625,-41.504,-24.902,-7.324,0.000
1709140366.365,-19.531,-31.250,-30.273,-15.625,0.000
1709140366.369,-25.391,-41.016,-35.645,-25.391,0.000
1709140366.373,-19.043,-58.105,-28.320,-22.949,0.000
1709140366.377,-29.785,-44.434,-25.879,-25.391,0.000
1709140366.381,-32.715,-36.621,-31.738,-35.156,0.000
1709140366.385,-21.973,-50.781,-28.320,-36.133,0.000
1709140366.389,-20.508,-61.035,-29.297,-35.156,0.000
1709140366.393,-29.785,-53.711,-43.945,-30.273,0.000
1709140366.396,-34.180,-35.156,-43.457,-34.668,0.000
1709140366.400,-27.832,-43.457,-36.133,-34.180,0.000
1709140366.404,-24.414,-61.523,-34.668,-28.809,0.000
1709140366.409,-30.762,-48.340,-32.227,-31.738,0.000
1709140366.412,-32.227,-26.855,-29.297,-28.320,0.000
1709140366.416,-24.414,-29.785,-28.809,-25.879,0.000
1709140366.420,-28.320,-39.062,-31.738,-36.133,0.000
1709140366.424,-35.645,-46.387,-33.203,-45.410,0.000
1709140366.428,-39.062,-43.945,-30.273,-47.852,0.000
1709140366.432,-43.945,-38.086,-32.715,-40.527,0.000
1709140366.436,-36.133,-54.199,-37.109,-23.926,0.000
1709140366.440,-29.785,-58.105,-28.320,-19.043,0.000
1709140366.444,-27.832,-57.617,-26.367,-27.344,0.000
1709140366.448,-23.926,-51.758,-29.785,-33.691,0.000
1709140366.452,-29.785,-41.504,-22.949,-26.855,0.000
1709140366.455,-27.344,-39.062,-19.531,-24.414,0.000
1709140366.459,-21.484,-36.133,-21.973,-22.949,0.000
1709140366.463,-23.438,-43.945,-28.320,-30.762,0.000
1709140366.467,-34.668,-37.598,-35.156,-44.434,0.000
1709140366.471,-35.645,-20.508,-38.086,-39.551,0.000
1709140366.475,-35.645,-30.273,-28.809,-31.738,0.000
1709140366.479,-30.762,-47.852,-21.484,-28.320,0.000
1709140366.483,-31.250,-43.457,-29.785,-27.832,0.000
1709140366.487,-41.504,-32.227,-33.691,-45.410,0.000
1709140366.490,-41.504,-35.156,-34.668,-45.410,0.000
1709140366.494,-33.691,-41.992,-37.598,-28.320,0.000
1709140366.498,-27.344,-41.504,-38.574,-24.414,0.000
1709140366.502,-27.832,-26.855,-41.504,-29.297,0.000
1709140366.506,-47.363,-26.367,-43.457,-39.062,0.000
1709140366.510,-41.504,-36.621,-38.574,-30.762,0.000
1709140366.514,-24.902,-39.062,-40.039,-9.277,0.000
1709140366.518,-18.555,-33.691,-42.969,-5.371,0.000
1709140366.522,-11.719,-29.785,-43.945,-0.488,0.000
1709140366.525,-12.695,-34.668,-50.293,7.324,0.000
1709140366.529,-8.789,-33.203,-50.781,6.836,0.000
1709140366.533,-0.488,-28.809,-54.199,7.324,0.000
1709140366.537,5.371,-28.809,-60.059,8.789,0.000
1709140366.541,27.344,-24.902,-59.082,20.020,0.000
1709140366.545,31.250,-22.461,-66.895,14.648,0.000
1709140366.549,19.043,-23.926,-71.289,-7.324,0.000
1709140366.553,17.090,-16.113,-64.453,-3.418,0.000
1709140366.557,18.066,-15.137,-58.105,11.719,0.000
1709140366.561,16.113,-17.090,-61.523,16.113,0.000
1709140366.565,21.484,-5.371,-63.477,6.348,0.000
1709140366.569,33.203,-23.438,-54.688,9.766,0.000
1709140366.573,18.066,-39.551,-47.852,20.020,0.000
1709140366.577,2.930,-7.324,-50.781,8.789,0.000
1709140366.581,6.348,5.859,-52.246,1.465,0.000
1709140366.585,-4.395,-5.371,-52.246,-3.906,0.000
1709140366.589,-5.859,-8.789,-46.387,-8.789,0.000
1709140366.592,-3.906,-29.785,-39.551,-4.883,0.000
1709140366.596,-7.812,-38.086,-43.457,1.953,0.000
1709140366.600,-11.719,-23.438,-58.594,6.836,0.000
1709140366.604,-21.973,-14.160,-53.711,-7.812,0.000
1709140366.608,-29.297,-7.812,-38.086,-30.273,0.000
1709140366.612,-27.832,-8.301,-40.527,-24.902,0.000
1709140366.616,-24.902,-19.043,-45.410,-4.395,0.000
1709140366.620,-22.949,-30.762,-43.945,-10.254,0.000
1709140366.624,-25.391,-29.785,-42.969,-27.832,0.000
1709140366.628,-25.879,-32.227,-39.551,-28.809,0.000
1709140366.632,-18.066,-43.945,-40.039,-16.602,0.000
1709140366.636,-17.090,-38.574,-44.922,-9.277,0.000
1709140366.639,-26.367,-35.156,-39.551,-7.812,0.000
1709140366.643,-22.949,-34.180,-39.551,-13.184,0.000
1709140366.647,-16.602,-25.391,-43.457,-13.672,0.000
1709140366.651,-18.555,-23.438,-41.016,-19.531,0.000
1709140366.655,-22.949,-29.297,-41.016,-21.973,0.000
1709140366.659,-23.438,-27.344,-51.758,-20.996,0.000
1709140366.663,-19.043,-24.902,-51.270,-29.785,0.000
1709140366.667,-20.020,-31.250,-41.016,-31.250,0.000
1709140366.671,-28.809,-38.086,-44.434,-32.227,0.000
1709140366.675,-37.109,-35.156,-48.828,-29.785,0.000
1709140366.679,-37.109,-36.621,-41.504,-14.648,0.000
1709140366.682,-31.250,-47.363,-34.668,-27.832,0.000
1709140366.686,-23.438,-42.969,-41.504,-41.992,0.000
1709140366.690,-25.879,-39.062,-48.828,-38.086,0.000
1709140366.694,-39.551,-36.133,-45.410,-32.227,0.000
1709140366.698,-36.621,-38.086,-31.250,-24.902,0.000
1709140366.702,-27.344,-54.199,-25.391,-21.484,0.000
1709140366.706,-22.949,-54.688,-29.297,-26.855,0.000
1709140366.710,-42.969,-35.156,-36.133,-38.574,0.000
1709140366.714,-55.176,-27.344,-40.527,-38.086,0.000
1709140366.718,-47.852,-37.598,-42.480,-28.320,0.000
1709140366.722,-41.992,-45.410,-32.227,-15.625,0.000
1709140366.725,-42.969,-44.922,-27.344,-25.391,0.000
1709140366.729,-47.363,-52.246,-31.250,-32.227,0.000
1709140366.733,-44.922,-58.594,-34.668,-20.508,0.000
1709140366.737,-38.574,-47.363,-31.738,-20.020,0.000
1709140366.741,-22.949,-42.969,-27.344,-20.508,0.000
1709140366.745,-25.391,-40.527,-36.133,-26.367,0.000
1709140366.749,-38.086,-41.992,-40.527,-29.785,0.000
1709140366.753,-35.156,-40.527,-41.016,-25.391,0.000
1709140366.757,-33.691,-38.086,-43.457,-23.438,0.000
1709140366.761,-34.668,-26.855,-41.992,-31.250,0.000
1709140366.764,-27.832,-32.227,-35.645,-34.668,0.000
1709140366.768,-20.996,-40.039,-34.180,-33.203,0.000
1709140366.772,-19.043,-28.320,-33.691,-33.203,0.000
1709140366.776,-15.137,-30.762,-40.039,-29.785,0.000
1709140366.780,-14.648,-43.457,-45.898,-23.438,0.000
1709140366.784,-24.902,-50.293,-42.480,-30.273,0.000
1709140366.788,-33.691,-34.180,-35.156,-45.410,0.000
1709140366.792,-39.062,-28.320,-32.227,-51.758,0.000
1709140366.796,-46.875,-31.250,-32.227,-44.434,0.000
1709140366.800,-48.340,-37.598,-36.621,-42.480,0.000
1709140366.804,-38.086,-28.320,-41.016,-48.828,0.000
1709140366.807,-45.898,-20.020,-41.504,-49.316,0.000
1709140366.811,-48.828,-35.156,-45.410,-36.133,0.000
1709140366.815,-47.363,-44.434,-47.852,-37.109,0.000
1709140366.819,-43.945,-48.828,-47.852,-55.176,0.000
1709140366.823,-36.621,-53.223,-46.387,-49.805,0.000
1709140366.827,-47.363,-40.527,-48.828,-58.594,0.000
1709140366.831,-59.570,-34.668,-48.340,-62.500,0.000
1709140366.835,-53.711,-59.570,-44.922,-38.574,0.000
1709140366.839,-39.551,-47.852,-40.527,-35.645,0.000
1709140366.842,-37.598,-34.180,-41.016,-47.852,0.000
1709140366.846,-48.340,-32.227,-39.551,-44.434,0.000
1709140366.850,-48.828,-32.227,-37.598,-34.668,0.000
1709140366.854,-44.434,-37.598,-37.598,-26.367,0.000
1709140366.858,-35.156,-41.504,-41.504,-17.090,0.000
1709140366.862,-28.809,-38.086,-45.898,-22.461,0.000
1709140366.866,-39.062,-34.668,-36.133,-29.785,0.000
1709140366.870,-30.762,-40.039,-28.809,-28.320,0.000
1709140366.874,-18.066,-46.387,-27.344,-22.949,0.000
1709140366.877,-25.879,-38.086,-28.320,-28.809,0.000
1709140366.881,-36.621,-36.621,-38.574,-38.086,0.000
1709140366.885,-42.969,-49.316,-44.434,-51.270,0.000
1709140366.889,-45.410,-46.875,-49.805,-60.059,0.000
1709140366.893,-40.527,-30.273,-58.105,-53.223,0.000
1709140366.897,-36.621,-29.785,-52.246,-42.969,0.000
1709140366.901,-28.320,-35.645,-37.598,-34.180,0.000
1709140366.905,-35.645,-32.227,-40.039,-43.945,0.000
1709140366.909,-45.898,-30.273,-47.852,-55.664,0.000
1709140366.913,-56.152,-29.785,-50.781,-57.617,0.000
1709140366.917,-55.664,-27.832,-48.340,-54.199,0.000
1709140366.920,-39.062,-26.367,-45.898,-51.758,0.000
1709140366.924,-38.086,-37.109,-43.457,-53.711,0.000
1709140366.928,-30.273,-47.363,-41.504,-45.410,0.000
1709140366.932,-22.949,-40.039,-46.875,-43.457,0.000
1709140366.936,-41.504,-38.574,-46.387,-48.340,0.000
1709140366.940,-43.945,-35.645,-40.039,-38.574,0.000
1709140366.944,-36.621,-40.527,-35.645,-31.738,0.000
1709140366.948,-44.434,-46.875,-34.180,-34.180,0.000
1709140366.951,-48.828,-51.270,-31.250,-32.227,0.000
1709140366.955,-41.504,-42.480,-34.180,-31.250,0.000
1709140366.959,-40.039,-31.250,-36.133,-27.832,0.000
1709140366.963,-41.016,-38.086,-37.598,-29.785,0.000
1709140366.967,-41.504,-54.688,-44.434,-48.828,0.000
1709140366.971,-47.363,-51.270,-46.875,-51.270,0.000
1709140366.975,-49.316,-37.598,-40.039,-45.898,0.000
1709140366.979,-48.340,-39.551,-34.180,-44.922,0.000
1709140366.983,-43.945,-50.781,-33.691,-48.828,0.000
1709140366.987,-44.434,-54.688,-34.668,-47.852,0.000
1709140366.991,-45.410,-46.387,-37.598,-45.410,0.000
1709140366.995,-45.410,-29.785,-37.598,-47.363,0.000
1709140366.998,-39.062,-24.414,-37.109,-40.527,0.000
1709140367.002,-41.992,-38.574,-37.598,-42.480,0.000
1709140367.006,-54.199,-40.039,-33.691,-44.434,0.000
1709140367.010,-43.457,-41.504,-36.133,-52.246,0.000
1709140367.014,-40.039,-57.617,-40.039,-58.105,0.000
1709140367.018,-40.527,-50.293,-38.086,-54.199,0.000
1709140367.022,-51.270,-32.715,-42.969,-54.688,0.000
1709140367.026,-63.477,-37.598,-54.199,-53.223,0.000
1709140367.030,-64.941,-51.758,-45.898,-60.547,0.000
1709140367.034,-68.359,-44.922,-33.691,-62.988,0.000
1709140367.038,-62.988,-34.668,-30.273,-49.805,0.000
1709140367.042,-55.176,-57.617,-36.621,-48.340,0.000
1709140367.045,-56.641,-53.223,-38.086,-52.734,0.000
1709140367.049,-55.176,-20.508,-27.832,-45.410,0.000
1709140367.053,-56.152,-34.180,-37.598,-39.062,0.000
1709140367.057,-61.035,-36.621,-45.410,-45.898,0.000
1709140367.061,-60.059,-20.020,-39.551,-44.434,0.000
1709140367.065,-48.828,-36.133,-37.109,-46.387,0.000
1709140367.069,-41.992,-34.180,-41.504,-56.641,0.000
1709140367.073,-50.781,-33.203,-43.457,-40.039,0.000
1709140367.077,-46.875,-60.547,-40.527,-24.414,0.000
1709140367.081,-34.180,-48.340,-41.992,-30.273,0.000
1709140367.085,-30.762,-37.598,-41.992,-26.855,0.000
1709140367.088,-32.227,-50.781,-34.180,-38.574,0.000
1709140367.092,-29.785,-39.062,-27.344,-52.246,0.000
1709140367.096,-37.109,-27.832,-34.668,-45.898,0.000
1709140367.100,-41.992,-29.297,-36.621,-39.062,0.000
1709140367.104,-41.992,-39.551,-38.086,-49.316,0.000
1709140367.108,-36.133,-45.898,-39.062,-57.129,0.000
1709140367.112,-38.086,-40.039,-33.203,-59.570,0.000
1709140367.116,-48.828,-42.969,-37.598,-53.711,0.000
1709140367.120,-43.945,-36.621,-37.109,-50.781,0.000
1709140367.124,-38.574,-39.062,-36.133,-51.270,0.000
1709140367.128,-50.293,-48.828,-41.992,-54.688,0.000
1709140367.131,-53.711,-43.457,-33.691,-57.129,0.000
1709140367.135,-52.734,-41.504,-29.297,-54.688,0.000
1709140367.139,-48.828,-38.086,-27.832,-43.457,0.000
1709140367.143,-36.621,-29.297,-26.367,-36.621,0.000
1709140367.147,-28.809,-33.691,-29.785,-44.922,0.000
1709140367.151,-41.992,-38.574,-28.320,-39.062,0.000
1709140367.155,-41.992,-41.992,-32.227,-34.668,0.000
1709140367.159,-34.668,-35.645,-38.574,-35.645,0.000
1709140367.163,-36.133,-38.574,-43.945,-35.156,0.000
1709140367.167,-31.250,-76.172,-47.363,-39.551,0.000
1709140367.170,-35.156,-54.199,-46.875,-48.828,0.000
1709140367.174,-37.598,-19.531,-39.551,-52.734,0.000
1709140367.178,-24.902,-29.297,-37.109,-47.852,0.000
1709140367.182,-18.555,-28.320,-38.086,-32.715,0.000
1709140367.186,-31.250,-20.508,-35.645,-41.504,0.000
1709140367.190,-50.781,-29.297,-33.691,-57.617,0.000
1709140367.194,-62.012,-48.340,-35.645,-58.594,0.000
1709140367.198,-59.570,-49.316,-37.109,-63.477,0.000
1709140367.202,-70.312,-49.805,-31.250,-76.172,0.000
1709140367.205,-82.520,-47.363,-30.273,-88.379,0.000
1709140367.209,-83.984,-48.340,-24.902,-91.309,0.000
1709140367.213,-95.215,-60.059,-22.461,-89.844,0.000
1709140367.217,-95.215,-71.777,-23.438,-85.938,0.000
1709140367.221,-91.309,-75.684,-19.043,-86.426,0.000
1709140367.225,-97.168,-62.012,-19.043,-103.027,0.000
1709140367.229,-100.586,-34.668,-30.273,-107.910,0.000
1709140367.233,-100.098,-35.645,-38.574,-96.191,0.000
1709140367.237,-94.238,-40.039,-28.809,-92.285,0.000
1709140367.241,-81.055,-41.992,-27.344,-82.520,0.000
1709140367.245,-66.895,-49.316,-35.156,-78.125,0.000
1709140367.248,-65.918,-64.941,-40.039,-76.660,0.000
1709140367.252,-66.406,-59.082,-44.434,-72.266,0.000
1709140367.256,-49.316,-66.406,-31.250,-56.152,0.000
1709140367.260,-44.922,-81.543,-19.043,-53.223,0.000
1709140367.264,-63.477,-46.875,-38.574,-77.637,0.000
1709140367.268,-75.195,-21.484,-41.016,-90.332,0.000
1709140367.272,-68.359,-28.320,-30.273,-79.590,0.000
1709140367.276,-62.988,-46.387,-29.297,-59.082,0.000
1709140367.280,-55.176,-53.223,-28.809,-53.223,0.000
1709140367.283,-45.410,-47.852,-32.227,-62.988,0.000
1709140367.287,-42.969,-40.527,-27.344,-57.129,0.000
1709140367.291,-42.969,-59.570,-25.391,-51.270,0.000
1709140367.295,-43.457,-65.430,-34.668,-43.945,0.000
1709140367.299,-37.109,-48.340,-39.062,-34.180,0.000
1709140367.303,-34.668,-24.902,-37.109,-42.969,0.000
1709140367.307,-31.250,-17.090,-27.832,-42.480,0.000
1709140367.311,-37.109,-36.133,-22.949,-36.133,0.000
1709140367.314,-41.504,-40.039,-27.832,-34.180,0.000
1709140367.318,-37.109,-41.504,-30.762,-33.203,0.000
1709140367.322,-38.574,-52.734,-36.621,-29.785,0.000
1709140367.326,-39.062,-62.012,-41.992,-34.668,0.000
1709140367.330,-41.992,-52.246,-30.273,-45.898,0.000
1709140367.334,-41.016,-36.133,-25.879,-36.621,0.000
1709140367.338,-39.062,-41.016,-25.879,-25.879,0.000
1709140367.342,-41.016,-61.523,-28.320,-29.785,0.000
1709140367.346,-37.109,-48.340,-32.715,-24.414,0.000
1709140367.350,-41.016,-37.109,-35.645,-36.621,0.000
1709140367.354,-45.410,-50.781,-34.180,-32.227,0.000
1709140367.358,-47.363,-57.129,-37.109,-33.203,0.000
1709140367.362,-46.387,-44.434,-39.062,-47.852,0.000
1709140367.365,-34.668,-55.664,-31.250,-45.410,0.000
1709140367.369,-26.367,-63.965,-31.738,-45.410,0.000
1709140367.373,-32.715,-52.246,-34.668,-39.551,0.000
1709140367.377,-41.016,-47.363,-39.062,-36.621,0.000
1709140367.381,-41.016,-51.758,-39.551,-38.574,0.000
1709140367.385,-37.109,-45.898,-37.109,-46.875,0.000
1709140367.389,-41.504,-38.574,-38.086,-49.316,0.000
1709140367.393,-48.828,-41.016,-41.504,-40.527,0.000
1709140367.397,-43.945,-39.551,-40.039,-37.109,0.000
1709140367.401,-38.574,-30.762,-31.738,-38.574,0.000
1709140367.405,-39.062,-39.062,-30.762,-42.480,0.000
1709140367.408,-27.832,-51.270,-34.180,-30.273,0.000
1709140367.412,-29.785,-46.875,-39.062,-23.438,0.000
1709140367.416,-38.086,-37.109,-33.203,-20.996,0.000
1709140367.420,-38.086,-28.809,-24.902,-34.668,0.000
1709140367.424,-32.715,-33.203,-29.785,-47.363,0.000
1709140367.428,-29.785,-28.809,-31.738,-32.715,0.000
1709140367.432,-28.809,-32.227,-31.250,-26.367,0.000
1709140367.436,-29.297,-50.293,-39.551,-22.949,0.000
1709140367.440,-23.438,-45.898,-43.457,-20.996,0.000
1709140367.444,-11.230,-41.016,-36.621,-26.855,0.000
1709140367.448,-26.367,-37.109,-33.203,-21.484,0.000
1709140367.451,-28.809,-31.250,-28.809,-11.719,0.000
1709140367.455,-24.414,-40.527,-32.715,-15.137,0.000
1709140367.459,-21.973,-44.434,-38.086,-18.555,0.000
1709140367.463,-20.996,-55.176,-34.668,-25.879,0.000
1709140367.467,-25.391,-47.852,-32.715,-30.273,0.000
1709140367.471,-22.949,-41.504,-26.367,-15.625,0.000
1709140367.475,-22.949,-50.781,-26.367,-14.648,0.000
1709140367.479,-25.391,-43.945,-30.273,-20.508,0.000
1709140367.483,-26.367,-28.809,-25.391,-17.090,0.000
1709140367.487,-35.156,-34.180,-23.438,-30.273,0.000
1709140367.491,-41.992,-36.621,-25.391,-46.387,0.000
1709140367.494,-48.340,-41.992,-32.227,-53.223,0.000
1709140367.498,-52.246,-66.406,-42.969,-52.734,0.000
1709140367.502,-45.410,-67.871,-48.340,-55.664,0.000
1709140367.506,-43.945,-42.480,-41.016,-61.035,0.000
1709140367.510,-59.082,-31.738,-41.016,-64.453,0.000
1709140367.514,-51.758,-36.621,-41.016,-51.758,0.000
1709140367.518,-35.156,-44.922,-37.109,-28.809,0.000
1709140367.522,-35.156,-39.062,-35.156,-37.598,0.000
1709140367.526,-36.133,-43.945,-32.715,-53.711,0.000
1709140367.530,-31.250,-51.270,-29.785,-52.734,0.000
1709140367.533,-34.180,-40.527,-36.133,-46.387,0.000
1709140367.537,-34.668,-48.828,-38.086,-25.391,0.000
1709140367.541,-34.180,-49.805,-43.457,-16.602,0.000
1709140367.545,-37.109,-39.062,-47.363,-27.832,0.000
1709140367.549,-36.133,-51.270,-42.969,-37.109,0.000
1709140367.553,-36.621,-63.965,-41.016,-26.855,0.000
1709140367.557,-42.969,-33.203,-31.250,-22.949,0.000
1709140367.561,-46.387,-28.320,-29.297,-26.367,0.000
1709140367.565,-41.016,-39.062,-30.273,-32.227,0.000
1709140367.569,-43.945,-31.250,-29.785,-39.062,0.000
1709140367.572,-48.340,-44.922,-36.621,-27.832,0.000
1709140367.576,-48.340,-49.316,-32.715,-27.832,0.000
1709140367.580,-55.664,-46.387,-22.461,-36.133,0.000
1709140367.584,-60.547,-51.270,-31.738,-48.340,0.000
1709140367.588,-60.059,-47.852,-34.180,-53.711,0.000
1709140367.592,-51.270,-44.922,-31.250,-40.527,0.000
1709140367.596,-42.480,-48.340,-34.180,-41.016,0.000
1709140367.600,-29.297,-40.039,-36.133,-41.504,0.000
1709140367.604,-10.742,-28.809,-43.457,-26.855,0.000
1709140367.608,-6.348,-25.879,-48.340,-14.648,0.000
1709140367.611,0.000,-17.090,-47.363,-10.254,0.000
1709140367.615,8.789,-32.227,-51.270,-9.277,0.000
1709140367.619,7.324,-40.527,-54.199,-11.230,0.000
1709140367.623,9.277,-14.160,-59.082,-10.742,0.000
1709140367.627,3.418,-7.812,-63.965,-15.625,0.000
1709140367.631,3.906,-9.277,-58.594,-23.926,0.000
1709140367.635,-0.977,-10.254,-52.734,-20.996,0.000
1709140367.639,-5.371,-23.438,-45.410,-13.672,0.000
1709140367.643,-5.371,-29.297,-48.828,-22.949,0.000
1709140367.646,-10.742,-31.738,-48.828,-39.062,0.000
1709140367.650,-20.508,-33.203,-41.016,-31.250,0.000
1709140367.654,-27.832,-19.043,-46.875,-22.949,0.000
1709140367.658,-12.695,-14.648,-44.434,-16.113,0.000
1709140367.662,-7.812,-38.574,-44.434,-9.277,0.000
1709140367.666,-20.020,-43.457,-49.805,-9.277,0.000
1709140367.670,-22.949,-20.996,-49.316,-10.742,0.000
1709140367.674,-20.020,-23.438,-45.898,3.418,0.000
1709140367.677,-21.484,-41.992,-41.992,1.953,0.000
1709140367.681,-22.461,-39.062,-37.598,-19.531,0.000
1709140367.685,-26.367,-33.203,-32.227,-25.391,0.000
1709140367.689,-35.156,-15.625,-39.551,-30.273,0.000
1709140367.693,-16.602,-11.719,-29.297,-15.625,0.000
1709140367.697,-23.438,-50.293,-33.691,-4.883,0.000
1709140367.701,-43.945,-47.852,-62.500,-29.785,0.000
1709140367.705,-38.574,-23.926,-55.664,-41.016,0.000
1709140367.709,-40.527,-38.574,-35.156,-43.457,0.000
1709140367.713,-42.969,-43.457,-37.598,-42.969,0.000
1709140367.717,-37.109,-48.340,-32.227,-21.973,0.000
1709140367.721,-36.621,-55.176,-29.785,-23.438,0.000
1709140367.725,-37.109,-32.715,-40.039,-47.363,0.000
1709140367.729,-39.062,-15.137,-44.434,-51.758,0.000
1709140367.733,-33.203,-27.344,-39.551,-35.645,0.000
1709140367.737,-34.668,-35.156,-34.180,-20.996,0.000
1709140367.741,-38.086,-28.320,-38.086,-23.438,0.000
1709140367.744,-29.785,-20.996,-42.969,-36.621,0.000
1709140367.748,-30.762,-22.461,-46.387,-45.898,0.000
1709140367.752,-27.344,-27.344,-39.062,-36.133,0.000
1709140367.756,-12.695,-51.758,-33.203,-25.391,0.000
1709140367.760,-27.344,-59.570,-36.621,-30.762,0.000
1709140367.764,-36.133,-27.344,-45.898,-32.227,0.000
1709140367.768,-41.016,-25.879,-55.664,-36.621,0.000
1709140367.772,-39.062,-43.945,-53.223,-41.504,0.000
1709140367.776,-23.438,-44.922,-42.969,-29.785,0.000
1709140367.780,-33.691,-43.945,-39.062,-28.320,0.000
1709140367.784,-45.410,-46.875,-39.551,-25.879,0.000
1709140367.787,-48.828,-46.387,-37.109,-34.180,0.000
1709140367.791,-48.340,-36.621,-31.738,-44.922,0.000
1709140367.795,-48.340,-33.691,-36.621,-39.551,0.000
1709140367.799,-51.270,-37.109,-42.969,-34.180,0.000
1709140367.803,-46.387,-34.180,-43.945,-30.762,0.000
1709140367.807,-43.457,-42.969,-43.457,-31.738,0.000
1709140367.811,-43.457,-57.129,-34.668,-30.762,0.000
1709140367.815,-50.781,-54.199,-33.203,-20.508,0.000
1709140367.819,-43.945,-39.551,-47.363,-18.555,0.000
1709140367.823,-26.855,-44.922,-37.598,-31.250,0.000
1709140367.827,-41.504,-59.570,-22.949,-35.156,0.000
1709140367.830,-48.340,-45.410,-26.855,-26.367,0.000
1709140367.834,-38.574,-21.484,-38.574,-28.809,0.000
1709140367.838,-32.715,-19.043,-43.457,-38.086,0.000
1709140367.842,-26.367,-29.297,-44.434,-30.762,0.000
1709140367.846,-23.438,-37.109,-42.969,-20.020,0.000
1709140367.850,-34.180,-36.621,-42.480,-33.691,0.000
1709140367.854,-42.480,-43.945,-33.691,-34.180,0.000
1709140367.858,-35.156,-34.668,-25.879,-21.973,0.000
1709140367.862,-28.809,-36.133,-27.832,-25.879,0.000
1709140367.866,-28.809,-54.688,-39.062,-34.180,0.000
1709140367.870,-34.668,-44.922,-45.410,-39.062,0.000
1709140367.873,-40.039,-31.738,-38.574,-37.598,0.000
1709140367.877,-30.762,-39.062,-34.668,-36.621,0.000
1709140367.881,-43.945,-47.363,-38.086,-36.621,0.000
1709140367.885,-51.270,-33.691,-38.086,-41.504,0.000
1709140367.889,-39.062,-37.598,-40.039,-38.086,0.000
1709140367.893,-37.598,-44.922,-38.574,-29.785,0.000
1709140367.897,-41.504,-34.180,-41.016,-34.668,0.000
1709140367.901,-47.852,-34.180,-54.199,-38.574,0.000
1709140367.905,-47.852,-44.434,-58.594,-46.387,0.000
1709140367.909,-45.410,-46.387,-42.480,-63.965,0.000
1709140367.912,-53.711,-42.969,-33.203,-63.965,0.000
1709140367.916,-59.082,-40.527,-38.574,-60.059,0.000
1709140367.920,-62.988,-36.133,-33.203,-53.711,0.000
1709140367.924,-54.199,-44.922,-25.391,-53.711,0.000
1709140367.928,-49.805,-58.594,-29.785,-56.641,0.000
1709140367.932,-61.523,-63.477,-35.156,-48.828,0.000
1709140367.936,-58.594,-44.922,-34.180,-34.668,0.000
1709140367.940,-57.129,-27.832,-36.133,-41.504,0.000
1709140367.944,-50.781,-22.949,-37.109,-53.223,0.000
1709140367.948,-38.574,-31.738,-31.738,-42.969,0.000
1709140367.951,-41.016,-35.156,-29.297,-36.133,0.000
1709140367.955,-56.641,-42.480,-42.480,-35.645,0.000
1709140367.959,-49.805,-49.316,-47.363,-38.086,0.000
1709140367.963,-31.250,-36.621,-39.551,-35.156,0.000
1709140367.967,-24.414,-47.852,-37.109,-34.668,0.000
1709140367.971,-25.879,-60.547,-38.086,-33.203,0.000
1709140367.975,-27.832,-57.617,-41.504,-25.391,0.000
1709140367.979,-28.320,-42.969,-43.457,-15.137,0.000
1709140367.983,-34.180,-23.438,-47.852,-21.973,0.000
1709140367.987,-30.762,-37.109,-43.945,-38.086,0.000
1709140367.990,-33.203,-46.875,-41.504,-37.109,0.000
1709140367.994,-32.715,-51.758,-52.246,-19.531,0.000
1709140367.998,-28.320,-45.898,-55.176,-27.344,0.000
1709140368.002,-30.273,-29.785,-47.363,-47.852,0.000
1709140368.006,-33.203,-51.758,-41.504,-54.199,0.000
1709140368.010,-41.992,-55.664,-36.621,-55.664,0.000
1709140368.014,-51.270,-19.043,-41.504,-61.035,0.000
1709140368.018,-46.875,-21.973,-41.016,-57.129,0.000
1709140368.022,-45.410,-35.156,-36.621,-58.105,0.000
1709140368.025,-43.945,-35.645,-30.273,-57.129,0.000
1709140368.029,-37.109,-61.523,-35.645,-50.293,0.000
1709140368.033,-41.016,-69.336,-37.598,-48.828,0.000
1709140368.037,-44.922,-65.918,-21.973,-41.016,0.000
1709140368.041,-41.504,-47.852,-23.926,-43.457,0.000
1709140368.045,-58.594,-27.832,-35.156,-47.852,0.000
1709140368.049,-58.594,-25.879,-36.621,-41.504,0.000
1709140368.053,-45.410,-24.414,-34.180,-36.621,0.000
1709140368.056,-42.480,-53.711,-36.133,-32.715,0.000
1709140368.060,-41.992,-60.059,-39.551,-35.645,0.000
1709140368.064,-39.551,-38.574,-36.621,-44.922,0.000
1709140368.068,-33.203,-35.645,-39.551,-40.527,0.000
1709140368.072,-33.691,-31.738,-41.992,-33.203,0.000
1709140368.076,-44.922,-22.949,-35.645,-37.598,0.000
1709140368.080,-37.109,-30.273,-28.809,-32.227,0.000
1709140368.084,-20.996,-27.344,-28.320,-30.762,0.000
1709140368.088,-16.602,-25.879,-39.062,-39.062,0.000
1709140368.092,-25.879,-66.895,-44.922,-41.504,0.000
1709140368.096,-38.086,-81.543,-35.645,-43.945,0.000
1709140368.100,-29.785,-40.527,-39.551,-49.805,0.000
1709140368.104,-40.527,-26.367,-51.270,-55.176,0.000
1709140368.107,-63.477,-23.926,-46.875,-56.641,0.000
1709140368.111,-50.293,-30.273,-40.039,-53.711,0.000
1709140368.115,-43.457,-44.434,-35.156,-55.176,0.000
1709140368.119,-57.129,-50.781,-40.039,-63.477,0.000
1709140368.123,-54.688,-57.129,-45.410,-59.570,0.000
1709140368.127,-47.363,-59.570,-34.180,-48.828,0.000
1709140368.131,-48.340,-50.293,-29.785,-36.621,0.000
1709140368.135,-47.852,-55.664,-35.156,-33.203,0.000
1709140368.139,-43.457,-60.547,-31.738,-43.945,0.000
1709140368.143,-37.598,-33.203,-35.156,-42.480,0.000
1709140368.147,-33.691,-32.227,-31.738,-30.762,0.000
1709140368.150,-39.551,-38.574,-28.809,-28.809,0.000
1709140368.154,-41.016,-33.691,-26.855,-26.855,0.000
1709140368.158,-24.414,-46.387,-21.484,-15.625,0.000
1709140368.162,-27.832,-48.340,-29.785,-21.973,0.000
1709140368.166,-43.945,-33.203,-33.691,-37.598,0.000
1709140368.170,-48.828,-29.297,-32.715,-47.363,0.000
1709140368.174,-42.969,-62.500,-34.668,-31.250,0.000
1709140368.178,-33.691,-55.664,-34.668,-12.695,0.000
1709140368.182,-33.203,-25.391,-45.898,-22.949,0.000
1709140368.186,-25.391,-41.504,-45.410,-28.320,0.000
1709140368.190,-24.902,-51.758,-35.156,-29.297,0.000
1709140368.194,-33.691,-38.086,-26.367,-33.203,0.000
1709140368.197,-42.969,-33.203,-30.762,-39.062,0.000
1709140368.201,-46.387,-22.461,-41.016,-46.875,0.000
1709140368.205,-43.457,-26.855,-32.715,-56.152,0.000
1709140368.209,-49.805,-44.922,-30.273,-59.082,0.000
1709140368.213,-51.758,-42.969,-37.598,-56.152,0.000
1709140368.217,-40.039,-48.340,-41.016,-48.340,0.000
1709140368.221,-41.016,-48.828,-35.156,-34.180,0.000
1709140368.225,-48.340,-47.363,-24.902,-41.016,0.000
1709140368.229,-44.434,-47.852,-33.691,-63.477,0.000
1709140368.233,-43.945,-37.109,-34.668,-60.059,0.000
1709140368.236,-52.734,-29.297,-32.227,-51.758,0.000
1709140368.240,-50.293,-34.668,-34.668,-49.316,0.000
1709140368.244,-47.363,-46.387,-27.832,-42.480,0.000
1709140368.248,-47.852,-52.734,-26.855,-41.504,0.000
1709140368.252,-50.293,-39.062,-36.133,-40.527,0.000
1709140368.256,-56.641,-43.457,-39.062,-32.227,0.000
1709140368.260,-47.852,-46.387,-41.016,-26.855,0.000
1709140368.264,-37.109,-40.527,-45.898,-23.926,0.000
1709140368.268,-36.621,-46.387,-45.898,-24.902,0.000
1709140368.272,-51.270,-42.480,-44.922,-39.062,0.000
1709140368.276,-54.199,-41.504,-31.250,-35.156,0.000
1709140368.279,-46.387,-35.645,-25.879,-26.367,0.000
1709140368.283,-55.176,-35.156,-28.320,-35.645,0.000
1709140368.287,-56.152,-37.109,-32.227,-45.410,0.000
1709140368.291,-46.387,-38.086,-41.016,-48.828,0.000
1709140368.295,-41.504,-40.039,-43.457,-37.109,0.000
1709140368.299,-37.109,-35.645,-37.598,-20.508,0.000
1709140368.303,-37.109,-46.875,-40.039,-25.391,0.000
1709140368.307,-41.504,-47.363,-43.457,-37.109,0.000
1709140368.311,-35.156,-37.598,-38.574,-28.320,0.000
1709140368.315,-33.203,-51.270,-44.434,-20.020,0.000
1709140368.318,-39.062,-51.270,-45.898,-29.297,0.000
1709140368.322,-35.645,-26.855,-40.039,-34.668,0.000
1709140368.326,-40.039,-45.898,-36.621,-37.598,0.000
1709140368.330,-47.363,-56.641,-37.598,-42.969,0.000
1709140368.334,-45.898,-33.691,-51.758,-39.551,0.000
1709140368.338,-42.969,-34.180,-50.293,-32.715,0.000
1709140368.342,-36.133,-53.711,-39.551,-30.273,0.000
1709140368.346,-31.738,-53.223,-41.504,-40.527,0.000
1709140368.350,-38.086,-37.598,-34.180,-56.152,0.000
1709140368.354,-40.527,-41.504,-34.180,-50.781,0.000
1709140368.357,-43.457,-43.945,-39.551,-32.227,0.000
1709140368.361,-36.621,-41.016,-36.621,-36.133,0.000
1709140368.365,-21.484,-54.199,-36.621,-44.922,0.000
1709140368.369,-39.551,-58.594,-37.598,-43.945,0.000
1709140368.373,-48.340,-42.480,-36.133,-43.945,0.000
1709140368.377,-37.598,-41.504,-42.480,-39.551,0.000
1709140368.381,-37.109,-45.898,-41.992,-36.133,0.000
1709140368.385,-39.062,-36.621,-35.156,-39.062,0.000
1709140368.389,-28.320,-37.109,-33.203,-35.645,0.000
1709140368.392,-16.113,-54.199,-33.691,-29.785,0.000
1709140368.396,-21.484,-44.434,-40.039,-22.949,0.000
1709140368.400,-28.809,-32.227,-42.480,-20.020,0.000
1709140368.404,-28.320,-36.621,-37.109,-22.461,0.000
1709140368.408,-25.879,-31.738,-34.668,-34.180,0.000
1709140368.412,-19.043,-32.715,-32.715,-28.809,0.000
1709140368.416,-27.832,-36.133,-38.086,-20.020,0.000
1709140368.420,-36.133,-28.809,-39.551,-28.809,0.000
1709140368.423,-37.598,-38.086,-34.668,-31.738,0.000
1709140368.427,-14.160,-59.082,-31.738,-24.902,0.000
1709140368.431,0.000,-57.617,-30.762,-23.926,0.000
1709140368.435,-36.133,-48.828,-37.109,-34.668,0.000
1709140368.439,-57.129,-42.969,-44.922,-57.617,0.000
1709140368.443,-54.199,-46.875,-34.668,-58.105,0.000
1709140368.447,-63.477,-49.316,-20.996,-51.758,0.000
1709140368.451,-86.914,-54.688,-20.996,-77.637,0.000
1709140368.455,-98.633,-63.965,-20.996,-99.121,0.000
1709140368.459,-104.980,-55.176,-23.926,-111.816,0.000
1709140368.463,-113.770,-46.875,-33.691,-122.559,0.000
1709140368.466,-121.582,-54.688,-30.273,-132.324,0.000
1709140368.470,-132.812,-55.176,-20.996,-137.207,0.000
1709140368.474,-139.648,-59.570,-23.438,-126.953,0.000
1709140368.478,-140.137,-64.941,-27.344,-123.047,0.000
1709140368.482,-126.953,-98.145,-24.414,-116.699,0.000
1709140368.486,-113.281,-105.957,-20.508,-117.188,0.000
1709140368.490,-107.910,-55.664,-20.508,-116.211,0.000
1709140368.494,-109.863,-47.363,-24.902,-109.375,0.000
1709140368.498,-111.816,-64.941,-30.273,-110.352,0.000
1709140368.502,-100.098,-64.453,-29.297,-103.027,0.000
1709140368.506,-89.355,-59.570,-26.367,-86.426,0.000
1709140368.510,-81.543,-51.270,-22.949,-92.285,0.000
1709140368.513,-82.520,-57.617,-22.461,-87.402,0.000
1709140368.517,-85.449,-64.453,-28.809,-73.730,0.000
1709140368.521,-74.219,-54.199,-28.809,-72.266,0.000
1709140368.525,-68.359,-55.664,-25.391,-70.312,0.000
1709140368.529,-71.289,-74.219,-25.391,-71.777,0.000
1709140368.533,-65.430,-77.148,-27.344,-59.570,0.000
1709140368.537,-59.082,-70.801,-33.203,-56.152,0.000
1709140368.541,-54.199,-70.312,-32.227,-53.711,0.000
1709140368.545,-55.176,-70.312,-28.320,-46.387,0.000
1709140368.549,-62.988,-63.477,-39.551,-60.059,0.000
1709140368.553,-57.617,-55.664,-41.992,-55.664,0.000
1709140368.557,-43.457,-40.527,-31.738,-45.410,0.000
1709140368.560,-31.738,-38.086,-30.273,-43.945,0.000
1709140368.564,-22.461,-45.898,-27.832,-39.062,0.000
1709140368.568,-12.695,-41.016,-24.414,-36.133,0.000
1709140368.572,-18.066,-42.480,-22.949,-34.668,0.000
1709140368.576,-23.438,-51.270,-26.367,-22.949,0.000
1709140368.580,-25.391,-55.664,-31.250,-14.160,0.000
1709140368.584,-31.738,-60.059,-31.738,-23.926,0.000
1709140368.588,-30.762,-61.523,-29.297,-30.273,0.000
1709140368.592,-26.367,-75.684,-31.250,-22.949,0.000
1709140368.596,-22.949,-74.707,-29.785,0.000,0.000
1709140368.600,-22.949,-38.574,-26.367,3.418,0.000
1709140368.603,-35.156,-34.668,-38.574,-23.438,0.000
1709140368.607,-40.039,-44.922,-40.039,-42.969,0.000
1709140368.611,-46.387,-42.969,-31.250,-43.945,0.000
1709140368.615,-49.805,-45.898,-30.273,-24.902,0.000
1709140368.619,-40.527,-50.293,-29.785,-18.066,0.000
1709140368.623,-31.250,-51.758,-27.832,-28.809,0.000
1709140368.627,-21.484,-54.199,-24.902,-31.250,0.000
1709140368.631,-26.855,-78.125,-27.832,-31.738,0.000
1709140368.635,-33.691,-72.266,-29.297,-28.320,0.000
1709140368.639,-20.508,-49.805,-27.832,-15.625,0.000
1709140368.643,-22.949,-44.434,-27.344,-10.742,0.000
1709140368.646,-25.391,-44.922,-35.156,-29.297,0.000
1709140368.650,-31.250,-49.316,-38.086,-39.062,0.000
1709140368.654,-45.410,-39.551,-35.645,-36.621,0.000
1709140368.658,-39.551,-45.898,-40.039,-34.180,0.000
1709140368.662,-33.203,-58.105,-41.504,-34.668,0.000
1709140368.666,-40.527,-51.758,-37.598,-47.852,0.000
1709140368.670,-42.480,-45.898,-33.203,-44.434,0.000
1709140368.674,-37.109,-46.875,-31.250,-29.785,0.000
1709140368.678,-33.691,-57.617,-29.297,-19.043,0.000
1709140368.682,-33.203,-60.059,-28.809,-17.090,0.000
1709140368.685,-32.227,-27.832,-28.320,-19.043,0.000
1709140368.689,-23.926,-28.320,-32.715,-36.621,0.000
1709140368.693,-35.156,-48.340,-35.156,-31.738,0.000
1709140368.697,-37.598,-39.551,-36.621,-16.113,0.000
1709140368.701,-27.832,-41.504,-41.992,-15.625,0.000
1709140368.705,-28.320,-48.340,-36.621,-13.184,0.000
1709140368.709,-24.902,-44.434,-33.691,-24.902,0.000
1709140368.713,-22.461,-54.199,-36.133,-30.273,0.000
1709140368.717,-14.648,-42.480,-33.203,-13.184,0.000
1709140368.721,1.465,-23.926,-34.668,8.301,0.000
1709140368.724,1.953,-22.949,-40.039,0.977,0.000
1709140368.728,-4.883,-20.996,-43.457,-7.324,0.000
1709140368.732,-0.488,-22.461,-44.434,3.418,0.000
1709140368.736,2.441,-19.531,-52.246,9.766,0.000
1709140368.740,13.184,-16.602,-57.617,15.625,0.000
1709140368.744,19.043,-22.461,-52.734,7.812,0.000
1709140368.748,9.766,-29.297,-57.129,-1.465,0.000
1709140368.752,9.766,-18.066,-62.988,2.441,0.000
1709140368.756,6.836,-20.508,-56.641,1.953,0.000
1709140368.759,-5.371,-16.113,-56.152,0.488,0.000
1709140368.763,-5.859,-0.488,-64.941,-3.906,0.000
1709140368.767,-10.254,-24.414,-60.547,-18.066,0.000
1709140368.771,-11.230,-26.367,-53.711,-28.809,0.000
1709140368.775,-16.602,-4.883,-53.223,-13.184,0.000
1709140368.779,-21.484,-12.207,-51.758,-2.930,0.000
1709140368.783,-26.855,-31.250,-52.246,-28.320,0.000
1709140368.787,-30.762,-35.156,-52.734,-48.828,0.000
1709140368.791,-31.250,-24.414,-55.176,-41.016,0.000
1709140368.795,-37.598,-11.230,-51.758,-26.855,0.000
1709140368.798,-31.250,-17.578,-36.133,-20.508,0.000
1709140368.802,-28.809,-28.320,-32.715,-26.367,0.000
1709140368.806,-27.832,-39.062,-49.805,-32.715,0.000
1709140368.810,-23.926,-49.805,-51.758,-28.809,0.000
1709140368.814,-39.551,-31.738,-50.781,-20.508,0.000
1709140368.818,-39.062,-28.809,-56.641,-12.207,0.000
1709140368.822,-30.273,-48.828,-45.898,-13.672,0.000
1709140368.826,-29.297,-43.945,-38.086,-33.203,0.000
1709140368.830,-32.227,-19.043,-41.016,-41.504,0.000
1709140368.833,-30.273,-6.836,-38.086,-36.133,0.000
1709140368.837,-25.879,-19.043,-34.180,-24.902,0.000
1709140368.841,-23.926,-30.762,-32.715,-20.508,0.000
1709140368.845,-20.996,-31.250,-36.621,-27.832,0.000
1709140368.849,-18.066,-41.504,-35.156,-26.855,0.000
1709140368.853,-16.113,-53.711,-30.273,-19.531,0.000
1709140368.857,-20.020,-43.457,-41.992,-14.648,0.000
1709140368.861,-23.926,-20.996,-45.410,-20.508,0.000
1709140368.865,-27.344,-20.508,-38.574,-35.645,0.000
1709140368.869,-23.438,-21.484,-36.133,-37.109,0.000
1709140368.873,-21.484,-20.508,-40.527,-35.645,0.000
1709140368.877,-33.691,-38.086,-45.410,-30.762,0.000
1709140368.880,-34.180,-65.430,-38.574,-15.137,0.000
1709140368.884,-31.738,-47.363,-30.762,-21.973,0.000
1709140368.888,-29.785,-34.668,-41.016,-29.297,0.000
1709140368.892,-30.762,-49.316,-47.852,-22.461,0.000
1709140368.896,-34.180,-26.367,-35.645,-29.297,0.000
1709140368.900,-45.410,-20.508,-31.738,-47.363,0.000
1709140368.904,-45.898,-33.691,-40.527,-47.852,0.000
1709140368.908,-41.016,-34.668,-37.598,-47.363,0.000
1709140368.912,-40.527,-42.480,-25.879,-41.016,0.000
1709140368.916,-31.250,-41.504,-28.320,-26.855,0.000
1709140368.920,-41.504,-41.504,-41.504,-23.926,0.000
1709140368.924,-45.898,-39.062,-39.551,-30.762,0.000
1709140368.927,-40.039,-29.297,-27.832,-28.320,0.000
1709140368.931,-41.992,-42.480,-30.762,-29.297,0.000
1709140368.935,-39.551,-67.383,-34.668,-23.926,0.000
1709140368.939,-35.156,-75.684,-25.391,-18.066,0.000
1709140368.943,-45.410,-53.223,-29.297,-35.645,0.000
1709140368.947,-57.617,-22.461,-40.527,-54.688,0.000
1709140368.951,-53.711,-13.184,-38.574,-47.852,0.000
1709140368.955,-47.852,-23.926,-41.016,-34.668,0.000
1709140368.959,-44.434,-33.203,-41.504,-33.691,0.000
1709140368.963,-41.992,-30.273,-34.180,-44.434,0.000
1709140368.967,-41.016,-34.668,-33.203,-53.711,0.000
1709140368.970,-37.598,-50.293,-42.969,-49.805,0.000
1709140368.974,-40.527,-43.945,-38.086,-30.273,0.000
1709140368.978,-41.504,-58.594,-36.621,-32.227,0.000
1709140368.982,-42.969,-67.383,-45.898,-47.363,0.000
1709140368.986,-41.016,-41.992,-32.227,-62.012,0.000
1709140368.990,-46.875,-24.414,-29.785,-70.801,0.000
1709140368.994,-48.340,-20.996,-40.527,-64.453,0.000
1709140368.998,-41.992,-29.785,-40.039,-49.805,0.000
1709140369.002,-39.062,-35.156,-37.598,-50.293,0.000
1709140369.006,-36.621,-41.504,-40.039,-62.988,0.000
1709140369.010,-37.598,-38.574,-39.062,-64.941,0.000
1709140369.013,-35.645,-43.457,-41.016,-58.105,0.000
1709140369.017,-24.902,-57.617,-37.598,-41.504,0.000
1709140369.021,-2.441,-56.152,-35.645,-38.086,0.000
1709140369.025,-13.184,-47.852,-25.391,-44.434,0.000
1709140369.029,-37.598,-49.316,-23.438,-51.270,0.000
1709140369.033,-51.758,-42.969,-38.574,-53.223,0.000
1709140369.037,-53.711,-27.832,-44.434,-52.246,0.000
1709140369.041,-45.410,-26.367,-44.922,-42.969,0.000
1709140369.045,-49.316,-30.273,-36.133,-32.715,0.000
1709140369.049,-52.734,-30.762,-30.762,-46.875,0.000
1709140369.052,-50.293,-38.086,-29.785,-41.992,0.000
1709140369.056,-52.734,-55.176,-34.180,-40.039,0.000
1709140369.060,-47.852,-54.688,-45.410,-38.574,0.000
1709140369.064,-44.922,-54.199,-42.969,-39.551,0.000
1709140369.068,-49.316,-57.129,-40.527,-56.641,0.000
1709140369.072,-41.992,-49.805,-31.250,-43.945,0.000
1709140369.076,-48.828,-51.758,-27.832,-24.414,0.000
1709140369.080,-43.945,-60.059,-35.156,-16.113,0.000
1709140369.084,-32.227,-46.387,-35.156,-22.949,0.000
1709140369.088,-39.062,-29.297,-39.062,-38.574,0.000
1709140369.091,-50.293,-32.227,-41.992,-41.992,0.000
1709140369.095,-47.363,-43.457,-38.574,-30.762,0.000
1709140369.099,-41.016,-45.410,-43.945,-27.832,0.000
1709140369.103,-36.133,-46.387,-40.527,-37.598,0.000
1709140369.107,-34.668,-48.340,-40.527,-39.062,0.000
1709140369.111,-46.387,-47.363,-46.387,-39.551,0.000
1709140369.115,-46.875,-44.922,-41.504,-44.434,0.000
1709140369.119,-45.898,-47.363,-42.969,-47.852,0.000
1709140369.123,-66.895,-44.922,-45.898,-56.152,0.000
1709140369.126,-66.406,-47.852,-35.645,-59.570,0.000
1709140369.130,-55.664,-59.082,-37.109,-54.688,0.000
1709140369.134,-49.805,-46.387,-45.410,-54.688,0.000
1709140369.138,-53.223,-41.016,-48.828,-50.293,0.000
1709140369.142,-54.199,-46.875,-49.316,-48.828,0.000
1709140369.146,-47.363,-53.711,-43.945,-46.387,0.000
1709140369.150,-43.457,-56.152,-42.969,-26.367,0.000
1709140369.154,-38.086,-46.875,-40.039,-19.043,0.000
1709140369.158,-50.781,-43.945,-41.992,-34.180,0.000
1709140369.162,-54.199,-51.758,-42.480,-39.062,0.000
1709140369.165,-46.387,-62.012,-38.574,-39.062,0.000
1709140369.169,-41.992,-71.289,-39.062,-46.387,0.000
1709140369.174,-36.621,-59.082,-31.250,-29.785,0.000
1709140369.177,-36.133,-41.992,-30.273,-18.555,0.000
1709140369.181,-30.273,-38.086,-41.992,-28.320,0.000
1709140369.185,-23.926,-27.832,-45.410,-35.645,0.000
1709140369.189,-36.621,-26.855,-37.109,-42.480,0.000
1709140369.193,-36.621,-46.875,-39.062,-30.273,0.000
1709140369.197,-30.762,-51.758,-40.527,-13.184,0.000
1709140369.201,-35.645,-46.387,-37.109,-37.598,0.000
1709140369.205,-45.410,-52.734,-39.062,-58.594,0.000
1709140369.209,-44.434,-56.152,-38.086,-50.781,0.000
1709140369.213,-40.527,-51.758,-42.969,-46.387,0.000
1709140369.216,-39.551,-48.340,-42.969,-47.852,0.000
1709140369.221,-36.621,-46.875,-43.457,-53.223,0.000
1709140369.224,-37.109,-30.762,-37.598,-52.734,0.000
1709140369.228,-44.922,-39.062,-33.203,-48.828,0.000
1709140369.232,-42.969,-52.246,-37.109,-41.016,0.000
1709140369.236,-40.527,-39.551,-34.668,-32.715,0.000
1709140369.240,-39.062,-28.320,-31.738,-32.715,0.000
1709140369.244,-23.926,-41.504,-26.855,-38.574,0.000
1709140369.248,-16.602,-46.875,-32.227,-49.805,0.000
1709140369.252,-39.062,-36.133,-37.109,-49.316,0.000
1709140369.256,-41.992,-47.363,-41.992,-33.203,0.000
1709140369.260,-36.621,-43.457,-43.945,-35.156,0.000
1709140369.264,-45.898,-23.438,-39.062,-39.062,0.000
1709140369.268,-45.898,-34.668,-34.180,-48.340,0.000
1709140369.271,-41.992,-39.062,-33.203,-55.176,0.000
1709140369.275,-49.316,-36.133,-36.133,-40.527,0.000
1709140369.279,-44.434,-34.180,-37.598,-28.809,0.000
1709140369.283,-36.133,-35.645,-37.598,-31.738,0.000
1709140369.287,-37.598,-32.715,-37.109,-41.992,0.000
1709140369.291,-43.945,-25.391,-40.039,-45.898,0.000
1709140369.295,-43.457,-27.344,-45.898,-37.109,0.000
1709140369.299,-38.086,-36.621,-48.340,-33.691,0.000
1709140369.303,-34.180,-55.664,-51.270,-40.527,0.000
1709140369.307,-35.645,-44.434,-44.922,-51.270,0.000
1709140369.310,-47.363,-40.527,-33.203,-45.410,0.000
1709140369.314,-46.387,-59.082,-27.344,-37.598,0.000
1709140369.318,-42.969,-54.199,-29.785,-39.062,0.000
1709140369.322,-36.621,-29.785,-35.156,-37.598,0.000
1709140369.326,-34.180,-19.531,-41.992,-38.086,0.000
1709140369.330,-29.785,-25.879,-38.086,-41.504,0.000
1709140369.334,-26.855,-48.828,-30.762,-35.645,0.000
1709140369.338,-24.414,-66.895,-26.367,-25.879,0.000
1709140369.342,-33.691,-49.316,-21.484,-27.832,0.000
1709140369.346,-36.133,-26.367,-25.879,-30.273,0.000
1709140369.350,-25.879,-22.949,-36.133,-45.410,0.000
1709140369.354,-38.086,-22.949,-44.922,-46.387,0.000
1709140369.357,-42.480,-34.668,-48.340,-31.738,0.000
1709140369.361,-36.621,-41.504,-38.086,-24.414,0.000
1709140369.365,-35.156,-37.109,-28.809,-25.879,0.000
1709140369.369,-42.480,-40.039,-34.180,-47.852,0.000
1709140369.373,-45.410,-44.922,-37.598,-51.270,0.000
1709140369.377,-40.527,-43.945,-33.203,-40.039,0.000
1709140369.381,-38.086,-48.340,-32.715,-30.762,0.000
1709140369.385,-38.574,-46.387,-40.039,-36.133,0.000
1709140369.389,-37.109,-55.664,-41.016,-45.410,0.000
1709140369.393,-37.598,-67.383,-27.344,-33.691,0.000
1709140369.396,-39.062,-41.016,-21.973,-29.785,0.000
1709140369.400,-39.062,-24.902,-30.273,-34.180,0.000
1709140369.404,-44.922,-28.809,-36.133,-43.945,0.000
1709140369.408,-50.781,-36.133,-37.109,-48.828,0.000
1709140369.412,-56.641,-37.598,-36.133,-46.875,0.000
1709140369.416,-42.969,-51.270,-35.645,-48.828,0.000
1709140369.420,-44.434,-57.617,-43.457,-48.340,0.000
1709140369.424,-62.500,-33.203,-55.664,-52.734,0.000
1709140369.428,-53.711,-30.762,-54.688,-58.105,0.000
1709140369.432,-41.016,-38.086,-43.945,-53.223,0.000
1709140369.435,-38.086,-30.762,-38.086,-33.203,0.000
1709140369.439,-36.621,-38.574,-37.598,-20.508,0.000
1709140369.443,-27.344,-63.965,-34.180,-25.391,0.000
1709140369.447,-28.320,-40.039,-32.715,-37.598,0.000
1709140369.451,-32.715,-27.832,-30.762,-36.133,0.000
1709140369.455,-23.438,-42.480,-32.227,-24.414,0.000
1709140369.459,-26.367,-48.828,-35.156,-18.555,0.000
1709140369.463,-36.621,-56.641,-33.203,-25.879,0.000
1709140369.467,-42.480,-41.504,-32.227,-41.504,0.000
1709140369.471,-49.316,-40.527,-32.227,-48.828,0.000
1709140369.474,-65.430,-56.641,-33.691,-46.875,0.000
1709140369.478,-58.105,-59.082,-37.598,-41.504,0.000
1709140369.482,-46.387,-52.246,-36.621,-28.809,0.000
1709140369.486,-46.387,-41.504,-33.691,-44.922,0.000
1709140369.490,-45.898,-42.480,-36.133,-55.664,0.000
1709140369.494,-45.898,-45.898,-41.504,-47.852,0.000
1709140369.498,-47.363,-44.922,-42.480,-42.969,0.000
1709140369.502,-50.293,-50.781,-40.039,-46.875,0.000
1709140369.506,-45.898,-54.199,-36.621,-51.270,0.000
1709140369.509,-39.062,-49.805,-33.691,-52.734,0.000
1709140369.513,-40.039,-46.875,-38.086,-56.152,0.000
1709140369.517,-51.270,-42.969,-40.527,-43.457,0.000
1709140369.521,-47.852,-43.457,-43.457,-35.156,0.000
1709140369.525,-36.621,-40.527,-40.527,-44.922,0.000
1709140369.529,-50.781,-36.133,-37.598,-46.875,0.000
1709140369.533,-48.828,-45.410,-39.062,-45.898,0.000
1709140369.537,-33.203,-43.457,-40.527,-36.621,0.000
1709140369.541,-30.273,-36.621,-41.016,-37.109,0.000
1709140369.545,-32.715,-47.363,-42.480,-46.387,0.000
1709140369.548,-34.180,-50.293,-38.574,-46.875,0.000
1709140369.552,-39.062,-58.594,-36.133,-40.527,0.000
1709140369.556,-46.387,-64.453,-37.109,-34.668,0.000
1709140369.560,-51.758,-38.086,-41.992,-39.062,0.000
1709140369.564,-44.922,-36.621,-44.434,-51.270,0.000
1709140369.568,-40.039,-47.852,-33.691,-50.293,0.000
1709140369.572,-47.852,-44.434,-35.645,-44.434,0.000
1709140369.576,-50.293,-47.363,-45.898,-41.016,0.000
1709140369.580,-40.039,-49.805,-40.527,-40.039,0.000
1709140369.583,-40.527,-39.551,-30.762,-39.551,0.000
1709140369.587,-37.109,-39.551,-27.832,-37.598,0.000
1709140369.591,-36.133,-41.992,-28.320,-44.922,0.000
1709140369.595,-50.781,-41.016,-32.715,-46.387,0.000
1709140369.599,-38.086,-55.176,-38.086,-27.832,0.000
1709140369.603,-33.203,-50.293,-35.156,-32.227,0.000
1709140369.607,-44.922,-46.875,-27.832,-48.340,0.000
1709140369.611,-40.527,-46.875,-34.180,-42.969,0.000
1709140369.615,-38.574,-48.828,-41.016,-41.016,0.000
1709140369.619,-33.691,-44.922,-39.062,-38.086,0.000
1709140369.623,-27.344,-31.250,-36.133,-33.203,0.000
1709140369.627,-29.785,-29.297,-43.457,-43.945,0.000
1709140369.631,-34.668,-38.574,-50.293,-54.688,0.000
1709140369.634,-48.340,-36.133,-42.969,-49.805,0.000
1709140369.638,-44.434,-30.762,-33.203,-45.898,0.000
1709140369.642,-30.762,-41.504,-35.156,-48.828,0.000
1709140369.646,-37.598,-38.574,-39.062,-56.641,0.000
1709140369.650,-46.875,-40.527,-37.109,-57.617,0.000
1709140369.654,-34.668,-38.086,-38.086,-47.363,0.000
1709140369.658,-33.691,-39.551,-38.574,-33.203,0.000
1709140369.662,-35.156,-53.223,-40.039,-26.855,0.000
1709140369.666,-30.762,-46.875,-37.598,-38.086,0.000
1709140369.670,-31.738,-51.270,-37.109,-50.781,0.000
1709140369.674,-36.621,-53.711,-39.062,-41.016,0.000
1709140369.678,-36.621,-40.527,-30.273,-18.066,0.000
1709140369.681,-31.250,-25.879,-24.902,-23.926,0.000
1709140369.685,-31.250,-38.574,-29.785,-34.668,0.000
1709140369.689,-28.809,-47.852,-32.227,-40.527,0.000
1709140369.693,-30.762,-35.645,-38.574,-42.480,0.000
1709140369.697,-34.180,-34.180,-37.598,-38.086,0.000
1709140369.701,-29.297,-33.203,-30.762,-36.621,0.000
1709140369.705,-45.898,-40.527,-37.109,-47.852,0.000
1709140369.709,-56.641,-43.945,-38.086,-62.012,0.000
1709140369.713,-30.762,-35.156,-31.250,-53.711,0.000
1709140369.717,-27.832,-34.668,-33.691,-43.457,0.000
1709140369.721,-41.992,-37.109,-32.715,-25.879,0.000
1709140369.724,-38.574,-45.898,-36.621,-17.090,0.000
1709140369.728,-35.645,-51.758,-45.898,-37.109,0.000
1709140369.732,-38.086,-45.898,-41.992,-45.410,0.000
1709140369.736,-38.086,-48.340,-38.574,-47.852,0.000
1709140369.740,-39.551,-34.668,-44.434,-47.852,0.000
1709140369.744,-45.898,-29.785,-41.504,-41.504,0.000
1709140369.748,-44.434,-38.086,-36.621,-42.969,0.000
1709140369.752,-37.109,-46.387,-29.785,-49.316,0.000
1709140369.756,-35.156,-48.340,-32.715,-42.480,0.000
1709140369.760,-39.551,-36.621,-40.039,-36.621,0.000
1709140369.764,-39.551,-40.039,-35.156,-49.805,0.000
1709140369.767,-42.969,-52.246,-34.668,-58.594,0.000
1709140369.771,-53.711,-50.293,-34.668,-57.617,0.000
1709140369.775,-50.781,-57.617,-32.227,-37.598,0.000
1709140369.779,-51.270,-58.105,-38.574,-25.879,0.000
1709140369.783,-46.875,-48.340,-34.668,-35.645,0.000
1709140369.787,-41.992,-54.199,-35.645,-52.734,0.000
1709140369.791,-46.387,-47.852,-41.992,-51.270,0.000
1709140369.795,-44.434,-35.645,-42.480,-34.180,0.000
1709140369.799,-45.410,-43.457,-45.898,-31.738,0.000
1709140369.803,-42.969,-50.781,-45.410,-35.645,0.000
1709140369.806,-38.574,-44.922,-44.434,-41.992,0.000
1709140369.810,-39.551,-53.223,-45.410,-41.992,0.000
1709140369.814,-46.387,-57.617,-49.316,-44.434,0.000
1709140369.818,-56.152,-44.434,-58.594,-51.270,0.000
1709140369.822,-49.805,-42.969,-49.805,-51.270,0.000
1709140369.826,-51.758,-46.387,-41.992,-51.758,0.000
1709140369.830,-53.223,-38.086,-40.039,-51.270,0.000
1709140369.834,-49.805,-36.133,-37.598,-47.852,0.000
1709140369.838,-43.457,-60.547,-39.551,-35.645,0.000
1709140369.842,-32.715,-69.336,-40.527,-30.273,0.000
1709140369.845,-29.297,-51.758,-35.645,-37.109,0.000
1709140369.849,-29.297,-45.898,-42.969,-45.410,0.000
1709140369.853,-29.297,-45.898,-50.781,-43.945,0.000
1709140369.857,-23.926,-62.012,-46.387,-26.367,0.000
1709140369.861,-20.508,-53.223,-47.363,-29.785,0.000
1709140369.865,-24.902,-14.648,-43.457,-42.969,0.000
1709140369.869,-33.203,-21.973,-32.227,-46.387,0.000
1709140369.873,-23.438,-45.898,-28.809,-41.504,0.000
1709140369.877,-21.484,-51.270,-34.180,-31.738,0.000
1709140369.880,-33.203,-41.504,-33.203,-22.461,0.000
1709140369.884,-34.668,-42.969,-32.227,-30.762,0.000
1709140369.888,-38.574,-39.062,-36.133,-43.457,0.000
1709140369.892,-42.969,-43.457,-37.598,-34.668,0.000
1709140369.896,-36.133,-82.520,-34.180,-19.043,0.000
1709140369.900,-30.273,-86.914,-29.785,-22.949,0.000
1709140369.904,-38.086,-42.969,-31.250,-40.527,0.000
1709140369.908,-48.828,-32.715,-40.527,-58.594,0.000
1709140369.912,-56.641,-36.621,-38.086,-64.453,0.000
1709140369.916,-52.734,-34.180,-33.203,-52.246,0.000
1709140369.920,-54.199,-32.715,-41.504,-48.340,0.000
1709140369.923,-50.781,-41.016,-42.969,-55.664,0.000
1709140369.927,-42.480,-45.898,-36.621,-53.711,0.000
1709140369.931,-46.387,-43.945,-37.598,-46.875,0.000
1709140369.935,-37.598,-49.805,-41.016,-49.805,0.000
1709140369.939,-35.156,-49.316,-38.574,-48.340,0.000
1709140369.943,-44.434,-37.109,-33.691,-45.410,0.000
1709140369.947,-52.734,-40.527,-36.621,-42.969,0.000
1709140369.951,-59.570,-52.734,-40.039,-50.781,0.000
1709140369.954,-51.758,-54.199,-36.621,-53.223,0.000
1709140369.958,-42.480,-40.527,-38.574,-51.270,0.000
1709140369.962,-42.480,-26.855,-41.016,-51.758,0.000
1709140369.966,-42.480,-46.387,-36.133,-48.828,0.000
1709140369.970,-51.758,-59.082,-37.598,-52.734,0.000
1709140369.974,-49.316,-30.762,-34.668,-44.922,0.000
1709140369.978,-41.992,-35.156,-30.762,-34.668,0.000
1709140369.982,-34.180,-46.875,-37.109,-37.109,0.000
1709140369.986,-21.973,-47.852,-33.691,-44.922,0.000
1709140369.990,-33.203,-66.895,-27.832,-48.340,0.000
1709140369.994,-39.551,-49.805,-34.668,-41.016,0.000
1709140369.998,-36.133,-24.414,-33.203,-32.715,0.000
1709140370.002,-39.551,-35.156,-34.180,-31.250,0.000
1709140370.005,-41.992,-56.152,-35.645,-34.668,0.000
1709140370.009,-41.992,-41.992,-32.227,-44.922,0.000
1709140370.013,-40.039,-36.621,-39.062,-52.734,0.000
1709140370.017,-39.062,-55.176,-44.922,-42.969,0.000
1709140370.021,-36.133,-41.504,-41.504,-39.551,0.000
1709140370.025,-37.598,-35.156,-40.039,-45.898,0.000
1709140370.029,-40.039,-34.668,-38.574,-43.945,0.000
1709140370.033,-34.180,-39.062,-32.227,-32.715,0.000
1709140370.037,-32.227,-63.965,-36.133,-19.043,0.000
1709140370.041,-36.133,-58.105,-40.527,-26.367,0.000
1709140370.045,-36.133,-32.227,-39.062,-42.969,0.000
1709140370.049,-36.133,-28.809,-42.969,-51.270,0.000
1709140370.052,-53.711,-30.762,-55.176,-48.340,0.000
1709140370.056,-55.664,-26.855,-53.223,-46.875,0.000
1709140370.060,-47.363,-26.855,-42.480,-49.316,0.000
1709140370.064,-54.688,-29.785,-40.527,-42.480,0.000
1709140370.068,-48.340,-39.062,-38.574,-40.527,0.000
1709140370.072,-39.062,-53.711,-38.574,-41.992,0.000
1709140370.076,-37.598,-55.176,-38.574,-32.715,0.000
1709140370.080,-39.062,-30.273,-38.574,-31.250,0.000
1709140370.084,-49.805,-29.785,-39.551,-41.992,0.000
1709140370.088,-37.598,-37.598,-31.250,-48.828,0.000
1709140370.092,-31.250,-29.297,-33.203,-54.199,0.000
1709140370.095,-45.898,-43.457,-44.922,-36.133,0.000
1709140370.099,-52.734,-48.828,-43.457,-33.203,0.000
1709140370.103,-49.316,-40.527,-40.527,-49.805,0.000
1709140370.107,-37.109,-36.133,-35.645,-51.270,0.000
1709140370.111,-35.645,-38.086,-29.297,-42.969,0.000
1709140370.115,-46.387,-42.969,-28.320,-34.180,0.000
1709140370.119,-52.246,-32.227,-28.320,-34.668,0.000
1709140370.123,-38.574,-42.969,-28.809,-34.668,0.000
1709140370.127,-34.668,-71.777,-34.180,-38.574,0.000
1709140370.131,-45.410,-45.898,-39.551,-51.270,0.000
1709140370.135,-48.828,-24.902,-33.691,-57.617,0.000
1709140370.138,-48.340,-20.508,-26.367,-45.410,0.000
1709140370.142,-40.527,-10.254,-29.785,-25.879,0.000
1709140370.146,-39.062,-20.996,-41.016,-36.621,0.000
1709140370.150,-38.574,-34.668,-42.969,-45.898,0.000
1709140370.154,-47.852,-39.062,-31.250,-32.227,0.000
1709140370.158,-55.664,-50.293,-29.785,-30.762,0.000
1709140370.162,-42.480,-61.035,-37.598,-39.551,0.000
1709140370.166,-51.270,-43.945,-40.039,-45.898,0.000
1709140370.170,-55.176,-52.246,-39.551,-44.434,0.000
1709140370.174,-39.551,-57.617,-37.598,-43.945,0.000
1709140370.177,-43.945,-49.316,-40.039,-47.852,0.000
1709140370.181,-50.781,-49.805,-42.969,-45.898,0.000
1709140370.185,-48.340,-40.527,-42.969,-46.387,0.000
1709140370.189,-49.316,-41.992,-40.527,-43.945,0.000
1709140370.193,-48.340,-42.480,-36.621,-35.645,0.000
1709140370.197,-50.781,-36.621,-39.551,-27.344,0.000
1709140370.201,-54.199,-50.293,-38.574,-29.297,0.000
1709140370.205,-42.480,-61.035,-32.227,-33.691,0.000
1709140370.209,-40.527,-43.457,-32.227,-28.320,0.000
1709140370.213,-47.852,-32.227,-42.969,-29.785,0.000
1709140370.216,-38.574,-43.945,-42.480,-37.109,0.000
1709140370.220,-43.457,-50.293,-38.086,-42.480,0.000
1709140370.224,-45.410,-33.691,-39.062,-47.363,0.000
1709140370.228,-34.668,-25.879,-34.180,-37.109,0.000
1709140370.232,-31.738,-51.270,-32.227,-19.531,0.000
1709140370.236,-36.621,-54.688,-35.645,-21.973,0.000
1709140370.240,-33.691,-38.086,-32.227,-22.461,0.000
1709140370.244,-37.109,-30.762,-36.621,-31.250,0.000
1709140370.248,-42.969,-29.785,-42.969,-42.480,0.000
1709140370.251,-41.992,-35.156,-38.574,-39.062,0.000
1709140370.255,-38.574,-31.738,-40.039,-33.203,0.000
1709140370.259,-38.574,-26.855,-37.598,-33.691,0.000
1709140370.263,-33.691,-30.273,-30.273,-40.039,0.000
1709140370.267,-32.227,-36.621,-31.250,-42.480,0.000
1709140370.271,-33.203,-36.133,-35.156,-36.621,0.000
1709140370.275,-29.785,-33.691,-34.668,-28.809,0.000
1709140370.279,-31.250,-33.691,-35.645,-29.297,0.000
1709140370.283,-26.855,-41.504,-34.180,-40.527,0.000
1709140370.287,-37.598,-43.457,-36.133,-54.688,0.000
1709140370.291,-47.852,-39.062,-35.645,-55.664,0.000
1709140370.294,-39.062,-48.828,-38.086,-39.551,0.000
1709140370.298,-34.668,-51.270,-40.039,-30.273,0.000
1709140370.302,-31.738,-42.969,-33.691,-37.109,0.000
1709140370.306,-37.109,-34.668,-33.203,-44.922,0.000
1709140370.310,-41.016,-22.949,-34.180,-47.363,0.000
1709140370.314,-30.273,-11.230,-29.785,-36.133,0.000
1709140370.318,-34.668,-18.555,-35.156,-31.738,0.000
1709140370.322,-40.527,-32.227,-38.574,-26.855,0.000
1709140370.326,-41.016,-37.598,-35.156,-37.598,0.000
1709140370.329,-43.457,-51.758,-41.504,-51.758,0.000
1709140370.333,-50.293,-49.316,-44.922,-44.434,0.000
1709140370.337,-53.223,-45.410,-41.016,-41.992,0.000
1709140370.341,-49.805,-60.547,-38.574,-46.875,0.000
1709140370.345,-44.434,-47.852,-35.645,-46.387,0.000
1709140370.349,-36.621,-37.109,-40.527,-47.852,0.000
1709140370.353,-37.109,-46.875,-41.504,-45.898,0.000
1709140370.357,-36.133,-38.574,-42.480,-38.574,0.000
1709140370.361,-39.551,-34.180,-37.598,-41.016,0.000
1709140370.365,-48.340,-50.293,-36.133,-48.340,0.000
1709140370.369,-39.062,-50.293,-43.457,-53.223,0.000
1709140370.373,-34.668,-30.273,-39.551,-45.410,0.000
1709140370.376,-38.574,-28.320,-35.156,-33.691,0.000
1709140370.380,-33.203,-40.527,-39.551,-32.227,0.000
1709140370.384,-36.133,-40.527,-41.992,-44.434,0.000
1709140370.388,-43.457,-49.316,-48.828,-51.270,0.000
1709140370.392,-39.551,-58.105,-48.340,-40.527,0.000
1709140370.396,-28.809,-53.711,-34.668,-32.715,0.000
1709140370.400,-26.367,-42.480,-35.645,-30.762,0.000
1709140370.404,-27.832,-28.320,-31.738,-39.062,0.000
1709140370.408,-30.762,-38.574,-30.273,-46.875,0.000
1709140370.412,-48.340,-40.527,-36.133,-44.922,0.000
1709140370.416,-51.758,-38.574,-34.668,-36.621,0.000
1709140370.420,-38.574,-53.223,-33.691,-27.344,0.000
1709140370.423,-37.598,-60.547,-34.180,-36.133,0.000
1709140370.427,-38.574,-40.527,-28.809,-48.340,0.000
1709140370.431,-36.621,-35.645,-24.414,-53.711,0.000
1709140370.435,-36.133,-31.250,-26.855,-49.805,0.000
1709140370.439,-43.945,-32.227,-29.297,-50.781,0.000
1709140370.443,-41.992,-50.293,-31.738,-54.199,0.000
1709140370.447,-38.574,-61.523,-37.109,-43.457,0.000
1709140370.451,-35.645,-58.594,-44.434,-48.340,0.000
1709140370.455,-22.461,-45.410,-40.527,-54.199,0.000
1709140370.459,-35.645,-39.062,-34.668,-41.992,0.000
1709140370.463,-44.434,-47.363,-32.227,-36.621,0.000
1709140370.466,-33.691,-48.828,-35.645,-43.457,0.000
1709140370.470,-32.715,-50.293,-36.621,-44.434,0.000
1709140370.474,-32.715,-41.016,-28.809,-41.016,0.000
1709140370.478,-38.086,-41.992,-36.621,-42.969,0.000
1709140370.482,-37.598,-47.852,-42.969,-44.434,0.000
1709140370.486,-35.645,-37.109,-38.086,-51.758,0.000
1709140370.490,-42.969,-47.852,-36.133,-56.152,0.000
1709140370.494,-51.758,-51.270,-36.133,-49.316,0.000
1709140370.498,-52.246,-38.086,-37.598,-48.340,0.000
1709140370.502,-41.016,-41.504,-47.852,-48.340,0.000
1709140370.506,-28.320,-36.621,-47.363,-49.316,0.000
1709140370.509,-28.809,-45.410,-38.086,-53.223,0.000
1709140370.513,-46.387,-56.152,-33.691,-48.340,0.000
1709140370.517,-46.387,-55.176,-30.273,-34.668,0.000
1709140370.521,-41.016,-58.105,-32.227,-42.969,0.000
1709140370.525,-48.828,-47.363,-37.109,-58.105,0.000
1709140370.529,-55.664,-42.969,-37.598,-61.035,0.000
1709140370.533,-51.270,-28.809,-34.180,-53.223,0.000
1709140370.537,-45.410,-35.645,-35.645,-50.293,0.000
1709140370.541,-48.828,-47.363,-37.109,-48.340,0.000
1709140370.545,-55.176,-44.434,-40.527,-54.688,0.000
1709140370.548,-44.922,-43.457,-37.598,-53.711,0.000
1709140370.552,-39.062,-40.039,-36.133,-44.434,0.000
1709140370.556,-45.898,-45.410,-44.922,-41.992,0.000
1709140370.560,-38.574,-33.203,-38.574,-26.855,0.000
1709140370.564,-29.785,-37.109,-24.414,-16.602,0.000
1709140370.568,-27.344,-60.547,-23.438,-32.715,0.000
1709140370.572,-36.133,-42.969,-32.715,-34.180,0.000
1709140370.576,-41.016,-18.066,-37.598,-31.738,0.000
1709140370.580,-34.180,-31.738,-40.039,-32.715,0.000
1709140370.584,-30.273,-27.832,-43.457,-40.039,0.000
1709140370.587,-25.879,-19.043,-42.480,-51.270,0.000
1709140370.591,-31.738,-32.715,-44.922,-48.340,0.000
1709140370.595,-30.762,-35.156,-42.480,-35.156,0.000
1709140370.599,-22.461,-31.250,-41.992,-30.762,0.000
1709140370.603,-18.066,-37.598,-37.598,-32.715,0.000
1709140370.607,-32.715,-50.293,-35.645,-26.855,0.000
1709140370.611,-38.086,-50.293,-38.574,-28.320,0.000
1709140370.615,-25.879,-54.199,-36.621,-22.949,0.000
1709140370.619,-25.879,-55.664,-45.410,-20.508,0.000
1709140370.623,-41.992,-29.785,-53.711,-39.062,0.000
1709140370.626,-44.434,-30.762,-47.852,-46.387,0.000
1709140370.630,-45.898,-45.898,-40.527,-43.945,0.000
1709140370.634,-47.363,-49.805,-40.039,-41.992,0.000
1709140370.638,-45.898,-40.527,-39.062,-39.551,0.000
1709140370.642,-45.898,-35.156,-38.574,-43.457,0.000
1709140370.646,-43.457,-39.062,-33.691,-50.293,0.000
1709140370.650,-41.016,-53.223,-29.785,-42.480,0.000
1709140370.654,-27.832,-58.594,-29.785,-29.785,0.000
1709140370.658,-18.066,-48.340,-40.039,-26.855,0.000
1709140370.662,-24.414,-38.086,-41.992,-21.484,0.000
1709140370.665,-26.855,-44.922,-30.273,-29.297,0.000
1709140370.669,-38.086,-48.340,-37.109,-52.246,0.000
1709140370.673,-45.898,-42.969,-38.086,-51.758,0.000
1709140370.677,-36.621,-38.086,-30.273,-36.621,0.000
1709140370.681,-33.203,-34.668,-34.668,-34.668,0.000
1709140370.685,-31.250,-53.711,-34.180,-36.133,0.000
1709140370.689,-27.832,-55.176,-29.297,-34.668,0.000
1709140370.693,-26.855,-44.434,-34.180,-30.762,0.000
1709140370.696,-24.414,-43.945,-39.551,-21.973,0.000
1709140370.700,-33.691,-39.062,-34.180,-35.645,0.000
1709140370.704,-56.641,-34.180,-37.598,-53.223,0.000
1709140370.708,-62.500,-32.227,-41.992,-60.059,0.000
1709140370.712,-58.105,-41.992,-41.992,-55.664,0.000
1709140370.716,-51.270,-39.551,-45.410,-41.992,0.000
1709140370.720,-46.387,-35.645,-41.992,-38.574,0.000
1709140370.724,-45.410,-41.016,-43.457,-48.340,0.000
1709140370.728,-40.527,-33.691,-41.504,-50.781,0.000
1709140370.732,-48.340,-45.410,-44.922,-44.922,0.000
1709140370.736,-41.992,-76.660,-50.293,-42.969,0.000
1709140370.740,-27.344,-53.223,-50.293,-40.039,0.000
1709140370.744,-44.922,-27.832,-41.016,-42.480,0.000
1709140370.747,-48.340,-38.086,-34.180,-50.781,0.000
1709140370.751,-47.363,-42.480,-35.156,-45.410,0.000
1709140370.755,-49.316,-46.387,-38.574,-31.250,0.000
1709140370.759,-48.828,-41.992,-34.180,-35.156,0.000
1709140370.763,-42.480,-33.203,-34.668,-46.875,0.000
1709140370.767,-42.480,-31.250,-37.598,-47.852,0.000
1709140370.771,-42.480,-37.109,-36.621,-48.828,0.000
1709140370.775,-42.480,-47.852,-38.086,-43.457,0.000
1709140370.779,-43.457,-39.551,-37.598,-33.691,0.000
1709140370.783,-35.156,-37.109,-37.598,-39.551,0.000
1709140370.787,-41.992,-51.758,-35.645,-51.758,0.000
1709140370.791,-44.922,-42.969,-27.832,-49.316,0.000
1709140370.794,-58.594,-33.691,-29.785,-39.551,0.000
1709140370.798,-61.523,-38.086,-39.551,-31.738,0.000
1709140370.802,-47.852,-33.203,-40.039,-31.250,0.000
1709140370.806,-45.898,-33.691,-30.273,-50.293,0.000
1709140370.810,-47.363,-45.898,-25.879,-56.641,0.000
1709140370.814,-55.664,-57.129,-33.691,-43.945,0.000
1709140370.818,-49.805,-44.922,-41.016,-46.387,0.000
1709140370.822,-36.621,-28.809,-40.039,-56.641,0.000
1709140370.826,-44.434,-26.367,-36.621,-51.270,0.000
1709140370.830,-50.781,-38.086,-39.551,-51.270,0.000
1709140370.834,-51.758,-49.805,-44.434,-53.223,0.000
1709140370.837,-45.898,-54.688,-43.457,-44.434,0.000
1709140370.841,-36.133,-64.453,-40.527,-41.016,0.000
1709140370.845,-43.945,-66.406,-39.062,-44.434,0.000
1709140370.849,-49.805,-38.086,-33.203,-44.434,0.000
1709140370.853,-50.781,-27.832,-29.785,-50.781,0.000
1709140370.857,-51.758,-42.969,-32.715,-47.852,0.000
1709140370.861,-32.715,-42.969,-33.691,-37.598,0.000
1709140370.865,-27.832,-30.762,-36.621,-36.621,0.000
1709140370.869,-48.828,-44.434,-37.109,-42.969,0.000
1709140370.873,-53.711,-48.340,-40.039,-42.480,0.000
1709140370.877,-47.363,-38.086,-43.457,-32.227,0.000
1709140370.880,-42.969,-56.641,-34.180,-29.785,0.000
1709140370.884,-48.340,-52.246,-44.434,-46.875,0.000
1709140370.888,-47.852,-32.715,-43.945,-58.105,0.000
1709140370.892,-34.668,-29.785,-36.133,-47.363,0.000
1709140370.896,-40.039,-35.645,-39.551,-48.828,0.000
1709140370.900,-39.551,-37.598,-37.109,-46.875,0.000
1709140370.904,-29.297,-46.387,-41.016,-41.992,0.000
1709140370.908,-41.992,-54.688,-42.480,-47.363,0.000
1709140370.912,-53.223,-37.109,-41.504,-50.781,0.000
1709140370.916,-52.246,-23.438,-40.527,-54.199,0.000
1709140370.919,-52.246,-28.320,-41.992,-54.688,0.000
1709140370.923,-43.457,-39.062,-40.039,-53.223,0.000
1709140370.927,-39.551,-28.809,-40.039,-62.500,0.000
1709140370.931,-44.434,-27.344,-48.828,-68.359,0.000
1709140370.935,-39.551,-46.875,-50.293,-52.246,0.000
1709140370.939,-34.668,-46.387,-47.363,-43.457,0.000
1709140370.943,-32.227,-24.414,-41.016,-45.898,0.000
1709140370.947,-18.555,-23.926,-40.527,-46.387,0.000
1709140370.951,-34.668,-36.621,-47.852,-54.688,0.000
1709140370.955,-49.805,-41.016,-42.969,-41.992,0.000
1709140370.958,-42.969,-41.016,-46.875,-28.320,0.000
1709140370.962,-42.969,-50.293,-44.434,-27.344,0.000
1709140370.966,-45.410,-50.293,-38.574,-34.180,0.000
1709140370.970,-40.039,-33.691,-32.227,-40.039,0.000
1709140370.974,-34.180,-21.973,-27.832,-34.180,0.000
1709140370.978,-31.250,-39.551,-35.645,-26.855,0.000
1709140370.982,-25.879,-56.152,-29.297,-14.160,0.000
1709140370.986,-40.039,-41.992,-26.367,-29.297,0.000
1709140370.990,-46.875,-27.344,-35.645,-42.969,0.000
1709140370.994,-45.410,-32.715,-39.551,-38.574,0.000
1709140370.998,-49.316,-50.293,-35.645,-30.273,0.000
1709140371.001,-39.551,-46.387,-33.203,-34.180,0.000
1709140371.005,-40.039,-32.227,-34.180,-46.387,0.000
1709140371.009,-45.898,-26.855,-35.156,-52.734,0.000
1709140371.013,-46.387,-42.480,-42.480,-50.293,0.000
1709140371.017,-42.969,-66.406,-42.480,-38.574,0.000
1709140371.021,-44.922,-50.781,-34.668,-36.133,0.000
1709140371.025,-59.082,-37.598,-43.457,-48.340,0.000
1709140371.029,-60.059,-39.062,-53.711,-57.617,0.000
1709140371.033,-46.387,-41.016,-45.410,-49.316,0.000
1709140371.036,-38.574,-57.129,-42.969,-28.809,0.000
1709140371.040,-42.480,-62.012,-40.527,-31.250,0.000
1709140371.044,-38.574,-41.016,-29.785,-44.922,0.000
1709140371.048,-32.227,-33.691,-24.902,-40.527,0.000
1709140371.052,-50.293,-37.598,-33.203,-27.344,0.000
1709140371.056,-50.781,-35.156,-30.762,-19.531,0.000
1709140371.060,-35.645,-38.574,-26.367,-14.648,0.000
1709140371.064,-24.414,-45.898,-26.855,-13.672,0.000
1709140371.067,-23.438,-40.527,-31.738,-24.902,0.000
1709140371.071,-27.344,-32.715,-37.109,-17.578,0.000
1709140371.075,-27.832,-24.902,-33.691,-16.602,0.000
1709140371.079,-27.344,-26.855,-28.809,-22.461,0.000
1709140371.083,-27.832,-62.012,-32.227,-25.879,0.000
1709140371.087,-30.762,-56.152,-35.645,-40.527,0.000
1709140371.091,-43.457,-33.691,-36.621,-45.898,0.000
1709140371.095,-41.504,-27.832,-35.156,-35.645,0.000
1709140371.099,-33.691,-36.133,-33.203,-28.320,0.000
1709140371.102,-41.016,-34.180,-31.250,-34.180,0.000
1709140371.106,-53.711,-19.043,-32.715,-48.340,0.000
1709140371.110,-53.711,-36.133,-35.645,-48.340,0.000
1709140371.114,-38.574,-52.246,-30.762,-38.086,0.000
1709140371.118,-33.203,-42.480,-29.785,-34.180,0.000
1709140371.122,-44.434,-39.062,-33.691,-46.387,0.000
1709140371.126,-47.363,-44.434,-33.203,-46.875,0.000
1709140371.130,-35.156,-58.105,-31.738,-25.391,0.000
1709140371.134,-31.250,-57.129,-32.715,-28.320,0.000
1709140371.138,-35.645,-39.062,-30.273,-32.715,0.000
1709140371.142,-45.410,-16.113,-29.297,-37.109,0.000
1709140371.146,-49.805,-22.461,-35.645,-47.363,0.000
1709140371.149,-43.457,-51.758,-36.133,-39.062,0.000
1709140371.153,-35.156,-42.969,-32.227,-33.691,0.000
1709140371.157,-39.551,-23.438,-28.809,-33.691,0.000
1709140371.161,-45.410,-42.480,-34.668,-33.203,0.000
1709140371.165,-43.945,-44.434,-36.133,-40.527,0.000
1709140371.169,-45.410,-20.996,-29.297,-47.852,0.000
1709140371.173,-36.621,-19.043,-28.809,-35.156,0.000
1709140371.177,-35.645,-33.691,-28.320,-24.414,0.000
1709140371.181,-37.109,-34.180,-27.832,-38.574,0.000
1709140371.185,-33.203,-26.367,-31.738,-41.504,0.000
1709140371.189,-39.551,-35.156,-35.645,-44.434,0.000
1709140371.192,-49.316,-46.875,-35.645,-46.387,0.000
1709140371.196,-50.781,-41.992,-35.156,-42.480,0.000
1709140371.200,-45.898,-42.480,-35.645,-47.363,0.000
1709140371.204,-47.852,-49.316,-31.738,-48.828,0.000
1709140371.208,-42.969,-54.199,-26.855,-48.828,0.000
1709140371.212,-36.133,-61.035,-24.902,-45.410,0.000
1709140371.216,-33.203,-57.617,-25.391,-38.574,0.000
1709140371.220,-38.086,-43.457,-34.180,-29.297,0.000
1709140371.224,-45.410,-28.809,-34.180,-31.250,0.000
1709140371.228,-29.785,-30.762,-23.438,-37.598,0.000
1709140371.232,-29.785,-45.898,-25.879,-36.621,0.000
1709140371.235,-36.621,-35.645,-31.250,-31.738,0.000
1709140371.239,-33.691,-25.391,-33.691,-28.809,0.000
1709140371.243,-33.691,-45.898,-29.785,-35.156,0.000
1709140371.247,-37.109,-53.223,-36.621,-44.922,0.000
1709140371.251,-38.574,-37.598,-43.457,-43.457,0.000
1709140371.255,-35.645,-43.945,-41.504,-26.367,0.000
1709140371.259,-30.762,-45.410,-44.922,-22.949,0.000
1709140371.263,-28.320,-36.133,-50.293,-37.109,0.000
1709140371.267,-30.762,-37.109,-45.410,-34.180,0.000
1709140371.271,-30.762,-39.551,-43.457,-28.809,0.000
1709140371.275,-28.320,-45.898,-36.133,-31.738,0.000
1709140371.278,-31.738,-53.711,-32.227,-35.645,0.000
1709140371.282,-22.949,-44.922,-37.598,-41.992,0.000
1709140371.286,-21.484,-28.809,-36.621,-43.457,0.000
1709140371.290,-41.504,-38.086,-40.039,-56.641,0.000
1709140371.294,-40.039,-44.922,-44.434,-56.641,0.000
1709140371.298,-30.273,-42.969,-39.062,-41.016,0.000
1709140371.302,-36.133,-49.805,-39.062,-42.969,0.000
1709140371.306,-40.527,-47.363,-34.668,-49.316,0.000
1709140371.310,-44.434,-49.316,-38.574,-46.875,0.000
1709140371.314,-43.457,-44.922,-43.945,-39.551,0.000
1709140371.317,-36.621,-37.109,-43.457,-28.809,0.000
1709140371.321,-33.691,-38.574,-43.457,-29.297,0.000
1709140371.325,-33.203,-46.387,-46.387,-44.922,0.000
1709140371.329,-32.715,-44.922,-48.828,-51.270,0.000
1709140371.333,-41.992,-43.945,-45.898,-46.875,0.000
1709140371.337,-36.621,-40.039,-44.434,-40.527,0.000
1709140371.341,-41.016,-45.410,-43.945,-38.574,0.000
1709140371.345,-58.594,-53.223,-45.898,-44.434,0.000
1709140371.349,-51.758,-38.086,-45.410,-52.734,0.000
1709140371.353,-39.551,-33.691,-52.734,-46.875,0.000
1709140371.356,-46.875,-53.223,-52.246,-37.109,0.000
1709140371.360,-52.246,-57.129,-41.504,-37.598,0.000
1709140371.364,-47.363,-50.781,-46.387,-41.992,0.000
1709140371.368,-48.340,-58.105,-41.016,-53.223,0.000
1709140371.372,-55.176,-51.758,-36.621,-51.270,0.000
1709140371.376,-55.176,-44.922,-38.086,-39.551,0.000
1709140371.380,-45.898,-51.758,-40.039,-34.668,0.000
1709140371.384,-58.105,-48.828,-44.922,-37.598,0.000
1709140371.388,-58.594,-52.246,-39.062,-41.016,0.000
1709140371.391,-47.852,-62.500,-30.273,-48.340,0.000
1709140371.395,-55.664,-41.504,-39.062,-53.711,0.000
1709140371.399,-51.758,-34.668,-39.551,-41.016,0.000
1709140371.403,-47.363,-52.734,-29.785,-46.387,0.000
1709140371.407,-45.410,-59.082,-31.738,-67.383,0.000
1709140371.411,-47.363,-62.012,-41.504,-66.895,0.000
1709140371.415,-47.852,-47.852,-47.363,-60.059,0.000
1709140371.419,-47.363,-28.320,-49.316,-59.082,0.000
1709140371.423,-48.828,-28.809,0.000,-62.988,0.000
1709140371.426,-43.945,-37.598,0.000,-69.336,0.000
1709140371.430,-44.434,-36.133,0.000,-63.965,0.000
1709140371.434,-49.805,-32.227,0.000,-51.270,0.000
1709140371.438,-45.898,-35.645,0.000,-51.758,0.000
1709140371.442,-36.621,-40.039,0.000,-49.805,0.000
1709140371.446,-28.809,-61.035,0.000,-37.598,0.000
1709140371.450,-32.715,-55.176,0.000,-47.852,0.000
1709140371.454,-39.551,-42.969,0.000,-47.363,0.000
1709140371.458,-43.945,-42.480,0.000,-31.738,0.000
1709140371.462,-55.664,-35.156,0.000,-33.203,0.000
1709140371.466,-64.453,-33.691,0.000,-38.574,0.000
1709140371.470,-63.477,-34.180,-32.227,-44.922,0.000
1709140371.474,-48.340,-34.180,-32.227,-42.969,0.000
1709140371.477,-34.668,-43.457,-31.250,-30.762,0.000
1709140371.481,-41.016,-51.270,-29.785,-30.762,0.000
1709140371.485,-46.387,-38.574,-28.320,-35.156,0.000
1709140371.489,-48.340,-30.273,-30.273,-32.715,0.000
1709140371.493,-48.340,-32.227,-39.062,-26.855,0.000
1709140371.497,-43.457,-39.062,-37.598,-24.902,0.000
1709140371.501,-29.785,-44.922,-24.414,-20.020,0.000
1709140371.505,-24.414,-60.059,-27.344,-15.625,0.000
1709140371.509,-37.598,-62.500,-33.203,-27.344,0.000
1709140371.513,-42.480,-45.410,-27.832,-39.551,0.000
1709140371.517,-39.062,-30.273,-24.902,-26.855,0.000
1709140371.521,-28.809,-25.879,-27.832,-8.301,0.000
1709140371.524,-15.625,-25.879,-31.250,-13.184,0.000
1709140371.528,-27.832,-27.344,-36.621,-36.133,0.000
1709140371.532,-39.551,-27.832,-37.109,-41.016,0.000
1709140371.536,-31.738,-38.574,-35.156,-30.762,0.000
1709140371.540,-27.832,-48.340,-38.086,-26.855,0.000
1709140371.544,-28.809,-48.828,-37.598,-33.691,0.000
1709140371.548,-37.598,-45.898,-36.621,-42.480,0.000
1709140371.552,-38.574,-35.156,-43.457,-34.180,0.000
1709140371.556,-35.156,-32.227,-41.992,-28.809,0.000
1709140371.560,-29.785,-34.668,-28.320,-26.855,0.000
1709140371.564,-16.113,-41.504,-34.668,-27.832,0.000
1709140371.568,-28.320,-40.039,-36.133,-29.297,0.000
1709140371.572,-43.945,-28.320,-32.227,-31.738,0.000
1709140371.576,-38.086,-41.992,-33.691,-26.855,0.000
1709140371.580,-35.156,-36.621,-37.109,-17.578,0.000
1709140371.584,-34.180,-21.484,-45.410,-18.555,0.000
1709140371.587,-23.438,-33.203,-43.457,-21.484,0.000
1709140371.591,-19.043,-38.574,-35.156,-28.809,0.000
1709140371.595,-26.855,-31.250,-35.645,-26.367,0.000
1709140371.599,-26.855,-27.344,-27.344,-19.043,0.000
1709140371.603,-21.973,-27.344,-32.715,-26.855,0.000
1709140371.607,-38.086,-41.992,-40.527,-37.598,0.000
1709140371.611,-49.316,-43.457,-33.691,-44.434,0.000
1709140371.615,-44.922,-48.340,-33.691,-35.645,0.000
1709140371.619,-41.504,-49.805,-42.969,-23.926,0.000
1709140371.623,-44.434,-38.574,-41.992,-28.809,0.000
1709140371.627,-48.828,-32.227,-42.480,-48.340,0.000
1709140371.630,-48.828,-35.156,-44.922,-56.641,0.000
1709140371.634,-42.969,-40.527,-41.992,-46.387,0.000
1709140371.638,-38.086,-51.270,-42.480,-32.227,0.000
1709140371.642,-37.109,-49.805,-36.133,-32.227,0.000
1709140371.646,-41.016,-32.227,-36.133,-42.969,0.000
1709140371.650,-55.176,-33.203,-46.387,-63.477,0.000
1709140371.654,-51.758,-36.133,-40.039,-60.059,0.000
1709140371.658,-41.504,-35.156,-32.227,-37.598,0.000
1709140371.662,-48.340,-29.297,-45.898,-49.805,0.000
1709140371.666,-50.781,-34.668,-47.363,-65.918,0.000
1709140371.669,-54.688,-52.734,-47.363,-71.289,0.000
1709140371.673,-52.246,-56.641,-50.293,-69.824,0.000
1709140371.677,-49.316,-51.758,-42.969,-62.988,0.000
1709140371.681,-49.805,-38.086,-40.527,-61.035,0.000
1709140371.685,-42.480,-31.738,-39.062,-57.617,0.000
1709140371.689,-38.574,-42.480,-41.016,-57.129,0.000
1709140371.693,-35.645,-47.363,-41.992,-60.547,0.000
1709140371.697,-32.715,-37.598,-41.016,-47.363,0.000
1709140371.701,-41.504,-42.969,-48.340,-47.852,0.000
1709140371.705,-45.898,-54.688,-47.852,-58.594,0.000
1709140371.708,-47.852,-30.273,-37.598,-57.617,0.000
1709140371.712,-45.410,-23.926,-36.621,-42.969,0.000
1709140371.716,-30.762,-35.156,-38.086,-30.273,0.000
1709140371.720,-26.855,-40.039,-40.039,-33.203,0.000
1709140371.724,-32.227,-49.805,-41.992,-32.227,0.000
1709140371.728,-34.180,-46.875,-37.109,-35.156,0.000
1709140371.732,-43.457,-56.641,-35.645,-36.133,0.000
1709140371.736,-37.109,-68.359,-33.691,-32.715,0.000
1709140371.740,-26.855,-44.922,-39.551,-30.273,0.000
1709140371.744,-26.367,-25.391,-49.316,-37.109,0.000
1709140371.747,-30.273,-27.832,-36.621,-47.363,0.000
1709140371.751,-45.898,-31.738,-30.762,-44.434,0.000
1709140371.755,-50.781,-26.367,-36.621,-37.109,0.000
1709140371.759,-40.039,-51.270,-32.715,-23.926,0.000
1709140371.763,-35.156,-61.035,-44.434,-20.508,0.000
1709140371.767,-38.574,-28.320,-56.641,-34.180,0.000
1709140371.771,-38.086,-31.738,-38.086,-41.016,0.000
1709140371.775,-34.668,-45.898,-31.738,-30.762,0.000
1709140371.779,-26.855,-38.574,-31.250,-19.531,0.000
1709140371.783,-25.879,-47.363,-27.344,-27.832,0.000
1709140371.786,-43.945,-37.109,-35.645,-37.598,0.000
1709140371.790,-41.992,-37.109,-35.156,-30.762,0.000
1709140371.794,-35.156,-48.828,-32.715,-32.715,0.000
1709140371.798,-38.086,-47.852,-33.203,-32.715,0.000
1709140371.802,-32.227,-48.828,-41.016,-23.926,0.000
1709140371.806,-32.715,-38.574,-49.805,-27.344,0.000
1709140371.810,-37.109,-34.668,-49.805,-41.992,0.000
1709140371.814,-35.156,-28.809,-48.340,-50.293,0.000
1709140371.817,-29.297,-21.973,-40.039,-41.992,0.000
1709140371.821,-35.156,-31.250,-40.039,-34.668,0.000
1709140371.825,-34.668,-36.133,-35.645,-40.039,0.000
1709140371.829,-32.715,-45.898,-24.414,-46.875,0.000
1709140371.833,-35.156,-55.664,-26.367,-43.457,0.000
1709140371.837,-39.062,-57.617,-35.156,-37.109,0.000
1709140371.841,-41.504,-40.039,-36.133,-32.227,0.000
1709140371.845,-30.273,-36.133,-34.668,-34.180,0.000
1709140371.849,-33.691,-52.246,-35.645,-44.434,0.000
1709140371.852,-46.387,-52.246,-38.086,-44.434,0.000
1709140371.856,-46.387,-30.273,-45.410,-37.109,0.000
1709140371.860,-45.898,-24.414,-59.082,-27.832,0.000
1709140371.864,-46.387,-29.785,-52.734,-30.273,0.000
1709140371.868,-47.363,-35.156,-32.227,-48.828,0.000
1709140371.872,-53.223,-36.133,-23.438,-53.711,0.000
1709140371.876,-54.688,-40.527,-31.250,-50.293,0.000
1709140371.880,-44.922,-70.801,-32.715,-33.691,0.000
1709140371.884,-41.016,-64.941,-30.762,-38.086,0.000
1709140371.888,-38.086,-30.273,-39.551,-59.082,0.000
1709140371.892,-32.715,-32.715,-41.992,-55.664,0.000
1709140371.896,-36.621,-42.969,-34.668,-44.434,0.000
1709140371.899,-35.156,-36.621,-28.809,-34.180,0.000
1709140371.903,-38.574,-34.668,-39.551,-36.133,0.000
1709140371.907,-43.945,-38.574,-43.457,-42.969,0.000
1709140371.911,-38.086,-39.551,-33.691,-42.969,0.000
1709140371.915,-39.551,-36.621,-40.039,-35.156,0.000
1709140371.919,-41.016,-43.457,-37.598,-33.691,0.000
1709140371.923,-37.109,-50.781,-35.156,-40.527,0.000
1709140371.927,-43.457,-32.715,-40.527,-42.480,0.000
1709140371.931,-47.363,-20.020,-39.551,-48.340,0.000
1709140371.935,-44.434,-33.203,-31.250,-43.457,0.000
1709140371.939,-45.410,-38.574,-32.715,-37.598,0.000
1709140371.942,-44.434,-37.109,-39.062,-39.062,0.000
1709140371.946,-37.598,-42.969,-31.738,-49.316,0.000
1709140371.950,-35.645,-44.922,-30.273,-53.223,0.000
1709140371.954,-32.715,-44.922,-38.086,-47.852,0.000
1709140371.958,-27.832,-37.598,-34.180,-33.691,0.000
1709140371.962,-25.391,-14.160,-39.551,-34.180,0.000
1709140371.966,-29.297,-21.484,-45.898,-47.363,0.000
1709140371.970,-33.691,-57.617,-34.668,-43.457,0.000
1709140371.974,-31.250,-49.805,-37.598,-27.832,0.000
1709140371.978,-20.020,-29.297,-45.898,-20.508,0.000
1709140371.982,-17.090,-40.039,-41.992,-28.320,0.000
1709140371.985,-35.156,-50.293,-33.203,-43.457,0.000
1709140371.989,-49.805,-33.203,-28.809,-48.340,0.000
1709140371.993,-43.457,-21.973,-35.156,-42.969,0.000
1709140371.997,-39.062,-38.086,-33.203,-29.297,0.000
1709140372.001,-50.781,-41.504,-33.691,-27.344,0.000
1709140372.005,-52.246,-43.945,-39.551,-39.551,0.000
1709140372.009,-42.480,-44.922,-39.062,-44.434,0.000
1709140372.013,-41.016,-43.945,-39.551,-39.062,0.000
1709140372.017,-45.410,-43.945,-36.621,-34.668,0.000
1709140372.021,-39.062,-34.180,-32.715,-35.645,0.000
1709140372.025,-42.969,-37.598,-34.180,-39.551,0.000
1709140372.028,-60.547,-46.875,-49.805,-52.734,0.000
1709140372.032,-54.688,-58.594,-48.340,-55.176,0.000
1709140372.036,-49.805,-50.781,-35.645,-48.828,0.000
1709140372.040,-44.434,-44.922,-31.738,-49.316,0.000
1709140372.044,-47.852,-46.875,-23.926,-51.758,0.000
1709140372.048,-59.570,-43.457,-29.785,-57.129,0.000
1709140372.052,-65.430,-46.875,-42.969,-60.059,0.000
1709140372.056,-61.035,-51.270,-41.504,-49.805,0.000
1709140372.060,-50.781,-51.758,-36.133,-42.969,0.000
1709140372.064,-41.992,-41.504,-42.480,-47.363,0.000
1709140372.068,-37.598,-24.902,-44.434,-51.270,0.000
1709140372.071,-48.340,-28.320,-44.434,-58.594,0.000
1709140372.075,-47.363,-40.039,-40.527,-51.758,0.000
1709140372.079,-32.227,-35.645,-36.133,-37.109,0.000
1709140372.083,-33.691,-43.457,-37.598,-46.387,0.000
1709140372.087,-32.227,-58.105,-31.250,-50.293,0.000
1709140372.091,-29.785,-56.152,-35.645,-46.875,0.000
1709140372.095,-30.273,-41.992,-44.922,-50.293,0.000
1709140372.099,-29.785,-32.715,-48.828,-59.082,0.000
1709140372.103,-41.504,-31.738,-42.480,-51.270,0.000
1709140372.106,-40.039,-44.434,-35.156,-29.785,0.000
1709140372.110,-41.504,-59.570,-38.086,-41.992,0.000
1709140372.114,-45.410,-33.691,-31.738,-47.852,0.000
1709140372.118,-37.598,-18.066,-26.367,-25.391,0.000
1709140372.122,-25.391,-37.109,-30.273,-19.531,0.000
1709140372.126,-27.832,-54.199,-31.250,-29.297,0.000
1709140372.130,-42.480,-41.016,-33.203,-39.551,0.000
1709140372.134,-35.156,-40.527,-31.738,-40.527,0.000
1709140372.138,-22.461,-35.645,-31.250,-34.180,0.000
1709140372.142,-29.785,-30.273,-38.574,-31.738,0.000
1709140372.145,-38.574,-45.898,-41.504,-40.527,0.000
1709140372.149,-43.945,-43.457,-41.016,-45.898,0.000
1709140372.153,-44.922,-33.691,-42.969,-36.621,0.000
1709140372.157,-38.574,-47.852,-43.945,-37.598,0.000
1709140372.161,-31.250,-50.781,-44.434,-41.016,0.000
1709140372.165,-38.086,-42.969,-46.875,-47.363,0.000
1709140372.169,-49.805,-43.945,-41.504,-53.223,0.000
1709140372.173,-50.781,-55.664,-47.852,-52.246,0.000
1709140372.177,-50.293,-41.016,-55.176,-45.898,0.000
1709140372.180,-39.551,-25.879,-40.527,-31.250,0.000
1709140372.184,-32.227,-44.922,-28.809,-38.574,0.000
1709140372.188,-45.410,-48.828,-34.180,-63.965,0.000
1709140372.192,-49.805,-33.691,-39.062,-59.082,0.000
1709140372.196,-40.039,-35.645,-41.016,-35.645,0.000
1709140372.200,-21.484,-41.504,-38.086,-29.297,0.000
1709140372.204,-21.484,-53.223,-37.598,-33.691,0.000
1709140372.208,-31.738,-53.711,-41.504,-39.551,0.000
1709140372.212,-27.344,-29.785,-35.156,-36.133,0.000
1709140372.216,-30.762,-23.438,-42.480,-41.504,0.000
1709140372.219,-35.156,-26.855,-47.852,-39.062,0.000
1709140372.223,-30.762,-30.273,-43.945,-33.691,0.000
1709140372.227,-29.785,-40.039,-46.387,-42.480,0.000
1709140372.231,-35.645,-40.039,-38.574,-44.922,0.000
1709140372.235,-33.691,-45.410,-30.273,-41.016,0.000
1709140372.239,-28.320,-57.617,-30.762,-36.133,0.000
1709140372.243,-27.832,-62.988,-28.809,-39.551,0.000
1709140372.247,-38.086,-40.039,-36.133,-51.270,0.000
1709140372.251,-49.805,-21.973,-40.527,-53.711,0.000
1709140372.254,-51.270,-38.086,-33.691,-34.180,0.000
1709140372.258,-50.293,-48.828,-26.855,-24.902,0.000
1709140372.262,-41.992,-55.664,-24.902,-30.273,0.000
1709140372.266,-34.180,-52.246,-33.691,-42.480,0.000
1709140372.270,-48.828,-43.945,-36.133,-51.270,0.000
1709140372.274,-57.617,-33.203,-29.297,-41.992,0.000
1709140372.278,-50.781,-25.879,-35.645,-40.527,0.000
1709140372.282,-51.270,-29.297,-32.227,-42.480,0.000
1709140372.286,-55.176,-44.922,-33.691,-50.293,0.000
1709140372.290,-63.477,-56.641,-41.992,-61.035,0.000
1709140372.294,-71.289,-51.758,-44.922,-64.941,0.000
1709140372.298,-66.895,-40.527,-43.457,-53.711,0.000
1709140372.301,-54.199,-43.457,-42.969,-41.016,0.000
1709140372.305,-56.641,-40.039,-39.551,-55.664,0.000
1709140372.309,-53.711,-41.016,-33.203,-68.848,0.000
1709140372.313,0.000,-37.109,-38.574,-58.594,0.000
1709140372.317,0.000,-31.250,-44.922,-54.688,0.000
1709140372.321,0.000,-51.270,-39.551,-52.734,0.000
1709140372.325,0.000,-46.875,-37.598,-50.781,0.000
1709140372.329,0.000,-33.691,-39.551,-56.641,0.000
1709140372.333,0.000,-27.344,-37.598,-56.152,0.000
1709140372.337,0.000,-20.996,-30.273,-46.387,0.000
1709140372.341,0.000,-28.320,-33.691,-33.691,0.000
1709140372.345,0.000,-38.086,-42.969,-29.785,0.000
1709140372.348,0.000,-36.133,-41.504,-41.016,0.000
1709140372.352,0.000,-38.574,-34.668,-46.387,0.000
1709140372.356,0.000,-49.316,-32.227,-25.879,0.000
1709140372.360,-29.297,-48.340,-36.133,-14.160,0.000
1709140372.364,-25.879,-46.387,-29.297,-20.996,0.000
1709140372.368,-22.949,-50.293,-24.414,-26.367,0.000
1709140372.372,-27.344,-35.645,-34.668,-32.227,0.000
1709140372.376,-31.738,-28.320,-39.551,-30.273,0.000
1709140372.380,-29.785,-39.062,-39.062,-21.484,0.000
1709140372.384,-25.879,-35.645,-38.086,-23.926,0.000
1709140372.388,-23.438,-19.531,-38.574,-36.133,0.000
1709140372.391,-22.461,-21.484,-36.133,-34.180,0.000
1709140372.395,-33.691,-45.898,-31.250,-32.715,0.000
1709140372.399,-32.715,-47.363,-28.320,-30.273,0.000
1709140372.403,-31.250,-39.062,-28.809,-33.203,0.000
1709140372.407,-34.668,-43.457,-33.203,-45.898,0.000
1709140372.411,-38.574,-49.805,-40.527,-44.922,0.000
1709140372.415,-42.480,-41.016,-37.109,-40.527,0.000
1709140372.419,-37.109,-37.598,-31.250,-39.551,0.000
1709140372.423,-33.691,-45.410,-29.785,-34.180,0.000
1709140372.427,-42.480,-47.363,-30.762,-47.852,0.000
1709140372.430,-45.410,-37.109,-30.762,-62.500,0.000
1709140372.434,-43.945,-39.551,-37.109,-51.270,0.000
1709140372.438,-38.086,-55.176,-37.109,-42.969,0.000
1709140372.442,-28.320,-41.504,-31.250,-47.363,0.000
1709140372.446,-38.086,-30.273,-35.645,-59.082,0.000
1709140372.450,-43.457,-25.879,-38.086,-65.430,0.000
1709140372.454,-38.086,-27.344,-43.457,-66.895,0.000
1709140372.458,-36.621,-33.203,-44.922,-62.500,0.000
1709140372.462,-42.969,-43.945,-36.621,-59.570,0.000
1709140372.466,-49.316,-43.945,-34.180,-59.570,0.000
1709140372.469,-52.246,-36.133,-44.922,-66.895,0.000
1709140372.473,-55.176,-45.410,-44.434,-66.895,0.000
1709140372.477,-52.246,-51.270,-36.621,-56.152,0.000
1709140372.481,-45.898,-43.457,-35.645,-44.922,0.000
1709140372.485,-35.156,-40.527,-32.227,-48.340,0.000
1709140372.489,-40.039,-58.594,-28.809,-50.781,0.000
1709140372.493,-44.434,-54.199,-33.203,-40.527,0.000
1709140372.497,-33.203,-29.297,-36.133,-26.855,0.000
1709140372.501,-22.461,-28.809,-42.480,-23.926,0.000
1709140372.505,-27.832,-38.574,-47.852,-40.527,0.000
1709140372.509,-40.527,-38.086,-43.457,-48.828,0.000
1709140372.513,-47.852,-34.668,-37.598,-53.223,0.000
1709140372.517,-44.922,-38.086,-34.668,-44.434,0.000
1709140372.521,-29.297,-41.992,-37.109,-28.320,0.000
1709140372.524,-22.461,-55.176,-35.156,-24.902,0.000
1709140372.528,-38.086,-55.176,-44.434,-27.344,0.000
1709140372.532,-40.039,-30.273,-47.363,-38.574,0.000
1709140372.536,-41.992,-34.180,-31.738,-37.598,0.000
1709140372.540,-51.270,-36.621,-31.250,-38.574,0.000
1709140372.544,-44.922,-28.320,-31.738,-39.551,0.000
1709140372.548,-40.039,-36.621,-31.250,-43.945,0.000
1709140372.552,-46.387,-36.621,-33.691,-44.922,0.000
1709140372.555,-42.969,-38.574,-34.668,-32.227,0.000
1709140372.559,-41.016,-40.039,-35.645,-32.227,0.000
1709140372.563,-40.039,-37.598,-30.273,-41.992,0.000
1709140372.567,-44.922,-37.598,-29.297,-55.176,0.000
1709140372.571,-48.340,-47.852,-30.273,-60.547,0.000
1709140372.575,-45.410,-49.316,-31.738,-52.246,0.000
1709140372.579,-51.758,-34.180,-36.621,-48.340,0.000
1709140372.583,-51.758,-35.645,-45.410,-51.270,0.000
1709140372.587,-43.457,-40.039,-45.898,-53.223,0.000
1709140372.591,-56.152,-54.199,-38.574,-53.223,0.000
1709140372.594,-60.547,-49.805,-35.156,-57.129,0.000
1709140372.598,-55.664,-31.250,-38.086,-53.223,0.000
1709140372.602,-55.176,-33.203,-42.480,-41.992,0.000
1709140372.606,-47.363,-35.156,-40.527,-43.457,0.000
1709140372.610,-47.363,-48.828,-35.156,-47.363,0.000
1709140372.614,-45.898,-54.688,-36.133,-42.480,0.000
1709140372.618,-43.945,-46.875,-41.992,-40.039,0.000
1709140372.622,-48.828,-48.340,-44.434,-39.551,0.000
1709140372.626,-43.457,-42.969,-41.016,-39.551,0.000
1709140372.629,-47.363,-50.293,-46.387,-38.086,0.000
1709140372.633,-49.805,-41.016,-49.805,-39.062,0.000
1709140372.637,-55.664,-19.043,-43.457,-41.016,0.000
1709140372.641,-56.641,-39.062,-43.945,-39.551,0.000
1709140372.645,-39.062,-43.945,-41.992,-36.621,0.000
1709140372.649,-40.039,-45.410,-29.785,-37.109,0.000
1709140372.653,-53.223,-66.406,-29.297,-41.992,0.000
1709140372.657,-51.758,-42.480,-33.203,-41.504,0.000
1709140372.661,-43.945,-32.715,-28.320,-38.574,0.000
1709140372.665,-42.480,-55.664,-30.273,-33.691,0.000
1709140372.669,-48.340,-37.598,-36.621,-39.551,0.000
1709140372.673,-50.781,-39.551,-41.016,-36.133,0.000
1709140372.677,-50.293,-38.086,-43.457,-24.414,0.000
1709140372.680,-46.875,-20.508,-43.945,-28.320,0.000
1709140372.684,-43.945,-38.574,-48.340,-35.156,0.000
1709140372.688,-34.668,-56.641,-42.969,-39.062,0.000
1709140372.692,-29.785,-32.715,-39.551,-41.504,0.000
1709140372.696,-33.203,-23.926,-41.504,-37.109,0.000
1709140372.700,-25.879,-36.133,-39.551,-34.180,0.000
1709140372.704,-21.484,-45.410,-36.133,-37.598,0.000
1709140372.708,-26.367,-58.594,-32.715,-42.969,0.000
1709140372.712,-30.762,-60.059,-36.621,-41.992,0.000
1709140372.716,-25.391,-53.223,-38.574,-32.715,0.000
1709140372.720,-26.367,-45.410,-36.621,-21.484,0.000
1709140372.723,-34.668,-30.273,-46.387,-31.738,0.000
1709140372.727,-36.133,-21.973,-43.457,-51.758,0.000
1709140372.731,-40.039,-28.809,-29.297,-50.293,0.000
1709140372.735,-40.527,-37.109,-29.785,-36.621,0.000
1709140372.739,-36.621,-20.508,-35.156,-29.297,0.000
1709140372.743,-34.180,-21.484,-38.574,-32.715,0.000
1709140372.747,-30.273,-46.387,-35.156,-37.109,0.000
1709140372.751,-40.039,-44.434,-29.297,-40.527,0.000
1709140372.755,-47.852,-37.109,-28.320,-38.086,0.000
1709140372.759,-40.527,-43.457,-22.949,-36.133,0.000
1709140372.763,-30.762,-57.129,-19.043,-25.391,0.000
1709140372.766,-42.969,-48.828,-21.484,-16.602,0.000
1709140372.770,-50.781,-28.320,-30.273,-30.762,0.000
1709140372.774,-44.922,-36.133,-39.062,-41.016,0.000
1709140372.778,-37.598,-41.504,-41.016,-34.180,0.000
1709140372.782,-29.785,-35.645,-44.922,-35.156,0.000
1709140372.786,-31.738,-27.832,-50.781,-43.945,0.000
1709140372.790,-33.691,-29.297,-39.062,-39.062,0.000
1709140372.794,-38.574,-37.109,-26.367,-27.832,0.000
1709140372.798,-42.969,-35.645,-29.297,-27.832,0.000
1709140372.802,-35.156,-37.109,-38.574,-34.668,0.000
1709140372.806,-38.574,-47.852,-41.016,-47.852,0.000
1709140372.810,-41.504,-63.965,-32.715,-47.852,0.000
1709140372.814,-40.527,-58.594,-35.156,-37.109,0.000
1709140372.818,-53.223,-31.250,-44.434,-40.039,0.000
1709140372.822,-61.035,-26.367,-42.969,-39.062,0.000
1709140372.825,-49.805,-40.527,-38.574,-38.574,0.000
1709140372.830,-44.922,-41.016,-38.086,-45.898,0.000
1709140372.834,-33.691,-40.527,-38.086,-35.645,0.000
1709140372.837,-33.691,-36.621,-39.551,-31.250,0.000
1709140372.841,-39.551,-35.645,-28.809,-36.133,0.000
1709140372.845,-31.738,-50.293,-28.809,-35.645,0.000
1709140372.849,-38.086,-44.922,-39.062,-33.691,0.000
1709140372.853,-38.086,-37.109,-37.109,-29.785,0.000
1709140372.857,-35.156,-37.109,-35.645,-40.527,0.000
1709140372.861,-38.086,-40.527,-37.109,-37.109,0.000
1709140372.865,-43.457,-37.598,-37.598,-31.250,0.000
1709140372.869,-42.969,-33.691,-39.551,-34.180,0.000
1709140372.873,-41.504,-40.039,-39.551,-32.715,0.000
1709140372.877,-44.434,-44.434,-35.156,-41.504,0.000
1709140372.881,-45.410,-46.387,-31.738,-36.133,0.000
1709140372.885,-37.109,-54.688,-30.273,-23.438,0.000
1709140372.889,-30.762,-46.875,-34.668,-17.578,0.000
1709140372.892,-24.414,-48.828,-41.504,-18.066,0.000
1709140372.896,-23.438,-55.664,-36.621,-32.715,0.000
1709140372.900,-28.809,-34.668,-33.203,-49.316,0.000
1709140372.904,-37.109,-25.879,-31.738,-39.062,0.000
1709140372.908,-38.086,-36.621,-28.809,-23.438,0.000
1709140372.912,-29.297,-39.551,-32.715,-21.484,0.000
1709140372.916,-33.691,-41.992,-41.992,-36.133,0.000
1709140372.920,-39.551,-53.711,-47.363,-49.805,0.000
1709140372.924,-43.457,-48.828,-42.969,-49.316,0.000
1709140372.928,-38.574,-27.344,-38.086,-44.922,0.000
1709140372.932,-29.785,-16.602,-39.062,-35.156,0.000
1709140372.936,-30.762,-29.785,-35.645,-29.297,0.000
1709140372.939,-27.832,-51.758,-34.180,-34.180,0.000
1709140372.943,-33.203,-47.363,-39.551,-49.805,0.000
1709140372.947,-36.621,-25.879,-38.086,-40.039,0.000
1709140372.951,-34.180,-21.973,-31.738,-19.043,0.000
1709140372.955,-32.715,-37.598,-30.273,-26.367,0.000
1709140372.959,-36.133,-42.969,-29.785,-45.410,0.000
1709140372.963,-34.180,-44.922,-29.297,-42.969,0.000
1709140372.967,-27.344,-41.992,-23.438,-25.879,0.000
