timestamps,TP9,AF7,AF8,TP10,Right AUX
1709374313.426,-67.383,-33.691,-33.203,-45.410,0.000
1709374313.430,-14.160,-28.809,-29.785,-11.230,0.000
1709374313.434,10.742,-38.574,-25.879,9.277,0.000
1709374313.438,-34.180,-37.109,-24.902,-30.273,0.000
1709374313.442,-67.383,-33.203,-26.855,-57.617,0.000
1709374313.446,-54.199,-30.762,-30.273,-50.781,0.000
1709374313.450,-10.742,-29.297,-32.227,-23.926,0.000
1709374313.453,21.973,-33.691,-33.203,-3.906,0.000
1709374313.457,-13.672,-32.715,-35.156,-27.344,0.000
1709374313.461,-61.035,-27.832,-40.039,-53.711,0.000
1709374313.465,-60.547,-31.250,-38.086,-55.176,0.000
1709374313.469,-20.996,-34.668,-42.969,-32.227,0.000
1709374313.473,9.277,-34.180,-46.387,-17.578,0.000
1709374313.477,-29.785,-34.180,-42.480,-41.504,0.000
1709374313.481,-58.105,-30.762,-40.527,-62.988,0.000
1709374313.485,-62.500,-28.320,-37.598,-63.965,0.000
1709374313.489,-38.086,-25.391,-37.598,-40.039,0.000
1709374313.493,0.000,-29.785,-41.504,-11.230,0.000
1709374313.497,-28.809,-35.156,-40.039,-31.250,0.000
1709374313.500,-63.965,-29.785,-34.668,-60.547,0.000
1709374313.504,-58.594,-24.414,-33.203,-51.270,0.000
1709374313.508,-34.180,-29.785,-37.109,-29.785,0.000
1709374313.512,1.465,-32.715,-40.527,-7.324,0.000
1709374313.516,-18.066,-30.273,-41.504,-22.949,0.000
1709374313.520,-64.453,-28.809,-41.504,-56.152,0.000
1709374313.524,-67.871,-26.367,-40.039,-57.617,0.000
1709374313.528,-38.086,-29.297,-39.062,-40.527,0.000
1709374313.532,16.113,-29.297,-39.551,-1.465,0.000
1709374313.536,6.348,-28.320,-38.574,-3.906,0.000
1709374313.540,-47.363,-27.832,-34.668,-41.992,0.000
1709374313.543,-53.223,-28.809,-33.203,-54.199,0.000
1709374313.547,-29.785,-32.227,-32.715,-41.016,0.000
1709374313.551,12.207,-31.738,-34.180,-2.441,0.000
1709374313.555,8.789,-33.691,-39.551,-10.742,0.000
1709374313.559,-40.039,-37.598,-38.574,-56.641,0.000
1709374313.563,-50.781,-37.598,-35.156,-70.801,0.000
1709374313.567,-37.598,-37.598,-41.504,-61.035,0.000
1709374313.571,-1.465,-36.621,-47.363,-25.391,0.000
1709374313.575,7.324,-37.598,-46.387,-19.043,0.000
1709374313.579,-33.203,-38.086,-41.504,-50.293,0.000
1709374313.583,-64.453,-46.387,-44.434,-69.824,0.000
1709374313.587,-57.129,-45.410,-49.316,-62.988,0.000
1709374313.590,-9.766,-38.574,-47.852,-24.902,0.000
1709374313.594,4.395,-37.109,-45.898,-1.465,0.000
1709374313.598,-49.316,-37.598,-43.457,-32.227,0.000
1709374313.602,-72.754,-40.039,-39.551,-62.012,0.000
1709374313.606,-55.176,-40.527,-38.574,-54.199,0.000
1709374313.610,-22.949,-39.551,-46.387,-22.949,0.000
1709374313.614,2.441,-37.598,-45.410,-2.441,0.000
1709374313.618,-28.809,-36.621,-41.992,-36.621,0.000
1709374313.622,-63.965,-36.621,-41.016,-61.523,0.000
1709374313.625,-58.105,-38.086,-41.504,-55.176,0.000
1709374313.629,-17.578,-37.109,-44.434,-30.762,0.000
1709374313.633,11.230,-33.203,-37.109,-0.977,0.000
1709374313.637,-30.762,-32.227,-29.297,-21.484,0.000
1709374313.641,-74.219,-34.668,-30.762,-44.434,0.000
1709374313.645,-68.848,-36.133,-37.109,-50.781,0.000
1709374313.649,-34.180,-38.086,-33.691,-29.297,0.000
1709374313.653,-1.465,-38.574,-33.691,-0.488,0.000
1709374313.657,-29.297,-36.621,-33.691,-25.879,0.000
1709374313.660,-74.707,-38.574,-27.832,-62.012,0.000
1709374313.664,-84.473,-42.969,-27.832,-69.824,0.000
1709374313.668,-52.734,-43.457,-35.156,-48.828,0.000
1709374313.672,-10.254,-44.434,-42.969,-21.484,0.000
1709374313.676,-24.902,-39.551,-40.527,-34.668,0.000
1709374313.680,-63.477,-38.086,-35.645,-59.570,0.000
1709374313.684,-67.383,-39.551,-33.691,-54.688,0.000
1709374313.688,-39.062,-40.039,-37.109,-40.039,0.000
1709374313.692,4.395,-41.992,-41.992,-7.324,0.000
1709374313.696,-5.371,-44.434,-40.527,-15.625,0.000
1709374313.699,-48.828,-42.480,-38.574,-48.340,0.000
1709374313.703,-57.617,-36.133,-33.691,-48.828,0.000
1709374313.707,-38.086,-39.062,-34.668,-38.574,0.000
1709374313.711,8.789,-41.504,-40.527,-1.953,0.000
1709374313.715,2.441,-39.551,-44.434,-0.977,0.000
1709374313.719,-51.758,-38.086,-43.945,-41.992,0.000
1709374313.723,-66.406,-35.645,-43.457,-57.129,0.000
1709374313.726,-49.805,-33.691,-42.480,-45.410,0.000
1709374313.730,-4.395,-35.156,-41.504,-7.324,0.000
1709374313.734,-5.859,-37.109,-39.551,-8.789,0.000
1709374313.738,-50.781,-36.621,-41.504,-50.293,0.000
1709374313.742,-63.477,-34.668,-46.387,-70.312,0.000
1709374313.746,-54.199,-34.668,-49.316,-68.848,0.000
1709374313.750,-10.742,-34.180,-44.922,-29.785,0.000
1709374313.754,4.883,-32.715,-42.969,-10.254,0.000
1709374313.758,-43.457,-38.086,-45.898,-50.781,0.000
1709374313.762,-66.895,-41.504,-45.898,-68.359,0.000
1709374313.766,-52.246,-36.621,-44.922,-60.059,0.000
1709374313.770,-7.324,-33.691,-41.992,-29.785,0.000
1709374313.774,11.719,-33.203,-42.480,-7.812,0.000
1709374313.777,-43.457,-38.574,-46.875,-44.922,0.000
1709374313.781,-77.148,-42.969,-42.480,-71.777,0.000
1709374313.785,-64.941,-40.527,-38.574,-61.523,0.000
1709374313.789,-27.344,-37.109,-36.621,-24.414,0.000
1709374313.793,-0.488,-37.598,-37.109,-6.836,0.000
1709374313.797,-34.668,-34.668,-38.574,-40.039,0.000
1709374313.801,-65.918,-33.203,-32.715,-64.453,0.000
1709374313.805,-62.988,-37.598,-30.762,-62.988,0.000
1709374313.809,-27.344,-44.922,-42.969,-39.062,0.000
1709374313.813,4.395,-41.992,-43.945,-15.625,0.000
1709374313.817,-24.414,-36.133,-34.668,-39.551,0.000
1709374313.821,-52.734,-37.109,-32.715,-62.988,0.000
1709374313.825,-62.500,-41.504,-37.109,-64.941,0.000
1709374313.829,-38.086,-47.363,-38.086,-40.039,0.000
1709374313.832,6.348,-48.340,-33.691,-0.488,0.000
1709374313.836,-17.090,-44.434,-30.273,-16.602,0.000
1709374313.840,-59.082,-45.410,-32.715,-59.082,0.000
1709374313.844,-64.453,-44.922,-34.668,-62.500,0.000
1709374313.848,-40.039,-45.898,-32.715,-34.180,0.000
1709374313.852,-1.953,-48.828,-35.645,-0.488,0.000
1709374313.856,-16.602,-44.434,-41.504,-23.438,0.000
1709374313.860,-60.547,-41.992,-39.062,-56.641,0.000
1709374313.864,-59.570,-40.527,-39.551,-57.617,0.000
1709374313.868,-23.926,-39.062,-37.109,-37.109,0.000
1709374313.872,13.184,-40.039,-34.668,3.906,0.000
1709374313.875,-2.930,-42.480,-36.133,-3.906,0.000
1709374313.879,-49.316,-39.062,-30.762,-29.785,0.000
1709374313.883,-64.941,-38.574,-32.227,-44.922,0.000
1709374313.887,-42.969,-41.016,-36.621,-46.387,0.000
1709374313.891,5.371,-41.016,-40.039,-10.742,0.000
1709374313.895,7.324,-40.527,-41.016,-7.812,0.000
1709374313.899,-41.016,-43.945,-39.551,-46.875,0.000
1709374313.903,-62.012,-43.457,-37.598,-66.406,0.000
1709374313.907,-48.340,-39.062,-36.621,-48.828,0.000
1709374313.911,-5.859,-36.133,-34.180,-3.418,0.000
1709374313.915,4.395,-33.691,-37.109,-1.953,0.000
1709374313.918,-44.922,-41.016,-39.551,-46.387,0.000
1709374313.922,-64.941,-42.480,-42.969,-62.012,0.000
1709374313.926,-50.293,-33.203,-45.410,-45.898,0.000
1709374313.930,-4.883,-33.691,-46.387,-20.508,0.000
1709374313.934,10.742,-36.133,-42.969,-6.836,0.000
1709374313.938,-41.504,-31.250,-42.969,-33.691,0.000
1709374313.942,-70.801,-27.832,-40.039,-58.594,0.000
1709374313.946,-62.500,-33.203,-33.203,-55.664,0.000
1709374313.950,-17.578,-40.039,-36.621,-15.625,0.000
1709374313.954,17.090,-39.062,-39.551,12.695,0.000
1709374313.957,-18.555,-36.133,-37.598,-23.926,0.000
1709374313.961,-42.969,-34.180,-32.227,-58.594,0.000
1709374313.965,-22.461,-30.762,-30.273,-38.574,0.000
1709374313.969,12.207,-24.902,-46.387,4.883,0.000
1709374313.973,21.973,-19.531,-52.246,7.324,0.000
1709374313.977,-19.531,-5.859,-40.039,-39.551,0.000
1709374313.981,-45.898,4.883,-40.527,-59.082,0.000
1709374313.985,-35.156,14.160,-43.945,-52.734,0.000
1709374313.989,-9.766,27.344,-44.922,-41.992,0.000
1709374313.992,17.578,32.715,-50.781,-11.230,0.000
1709374313.996,-4.395,42.480,-52.734,-16.113,0.000
1709374314.000,-29.785,57.129,-47.363,-43.457,0.000
1709374314.004,-22.949,69.824,-49.805,-45.898,0.000
1709374314.008,11.230,80.566,-53.711,-19.043,0.000
1709374314.012,54.199,83.496,-59.570,22.461,0.000
1709374314.016,38.574,87.891,-64.453,15.137,0.000
1709374314.020,3.418,91.797,-67.383,-22.949,0.000
1709374314.024,5.371,98.145,-68.848,-27.344,0.000
1709374314.028,36.133,103.516,-70.801,-0.977,0.000
1709374314.032,87.891,104.980,-83.984,41.016,0.000
1709374314.035,80.566,112.305,-84.961,40.527,0.000
1709374314.039,35.156,122.559,-82.031,4.883,0.000
1709374314.043,30.762,127.930,-88.379,2.441,0.000
1709374314.047,61.035,130.859,-94.727,22.949,0.000
1709374314.051,106.934,132.324,-91.309,62.012,0.000
1709374314.055,108.398,129.883,-85.938,62.012,0.000
1709374314.059,59.570,131.836,-85.938,24.414,0.000
1709374314.063,41.992,132.324,-89.844,16.113,0.000
1709374314.066,71.777,129.883,-88.379,28.809,0.000
1709374314.070,119.141,128.418,-87.402,65.430,0.000
1709374314.074,114.746,128.418,-89.844,59.570,0.000
1709374314.078,54.199,126.953,-84.473,15.625,0.000
1709374314.082,24.414,121.094,-84.473,0.000,0.000
1709374314.086,42.969,116.699,-80.078,14.648,0.000
1709374314.090,85.938,106.445,-72.754,44.434,0.000
1709374314.093,101.562,102.051,-73.730,56.152,0.000
1709374314.097,49.805,101.562,-73.242,20.020,0.000
1709374314.101,11.719,95.215,-71.777,-7.324,0.000
1709374314.105,18.555,86.914,-67.871,5.371,0.000
1709374314.109,57.617,78.125,-70.801,40.527,0.000
1709374314.113,79.102,67.871,-68.359,51.270,0.000
1709374314.117,25.879,57.129,-66.406,8.301,0.000
1709374314.121,-8.301,55.176,-70.801,-16.602,0.000
1709374314.125,-5.371,53.223,-70.312,-24.414,0.000
1709374314.129,26.367,49.316,-71.289,-10.742,0.000
1709374314.133,47.363,43.945,-67.871,14.160,0.000
1709374314.137,1.953,37.109,-66.406,-17.578,0.000
1709374314.141,-33.203,30.273,-62.012,-43.945,0.000
1709374314.145,-34.180,29.785,-56.641,-37.598,0.000
1709374314.148,5.371,31.250,-56.641,-6.836,0.000
1709374314.152,42.969,25.879,-62.500,18.066,0.000
1709374314.156,5.859,18.066,-60.059,-16.113,0.000
1709374314.160,-34.668,15.625,-56.641,-45.898,0.000
1709374314.164,-31.738,15.625,-55.664,-38.086,0.000
1709374314.168,-1.465,9.766,-56.641,-7.324,0.000
1709374314.172,43.945,2.441,-49.316,26.367,0.000
1709374314.176,26.367,-5.371,-39.551,5.371,0.000
1709374314.180,-30.273,-10.742,-45.898,-35.156,0.000
1709374314.184,-40.527,-4.395,-47.852,-45.410,0.000
1709374314.188,-9.277,-1.953,-39.551,-29.297,0.000
1709374314.192,35.645,-11.719,-40.527,9.766,0.000
1709374314.196,18.555,-12.207,-44.922,0.000,0.000
1709374314.199,-31.738,-10.742,-47.852,-42.480,0.000
1709374314.203,-44.922,-10.742,-49.316,-48.340,0.000
1709374314.207,-17.578,-8.301,-49.805,-24.902,0.000
1709374314.211,35.156,-10.742,-52.734,21.973,0.000
1709374314.215,25.879,-13.184,-50.781,14.160,0.000
1709374314.219,-24.902,-10.254,-52.246,-31.738,0.000
1709374314.223,-37.109,-8.789,-46.387,-35.156,0.000
1709374314.227,-11.719,-11.719,-37.598,-18.555,0.000
1709374314.231,37.109,-13.184,-36.621,11.719,0.000
1709374314.235,28.320,-14.160,-33.691,10.254,0.000
1709374314.239,-28.320,-17.090,-36.621,-26.367,0.000
1709374314.243,-45.898,-17.090,-37.109,-38.086,0.000
1709374314.246,-38.086,-19.531,-40.039,-32.715,0.000
1709374314.250,0.000,-22.949,-40.039,-1.465,0.000
1709374314.254,17.578,-22.461,-35.156,19.043,0.000
1709374314.258,-29.785,-27.832,-36.133,-19.043,0.000
1709374314.262,-64.453,-32.227,-38.086,-47.363,0.000
1709374314.266,-53.223,-26.855,-39.551,-36.621,0.000
1709374314.270,-10.742,-25.879,-38.086,-5.371,0.000
1709374314.274,-3.418,-29.297,-36.621,5.371,0.000
1709374314.278,-51.758,-29.785,-39.062,-33.203,0.000
1709374314.282,-78.613,-29.785,-43.945,-58.105,0.000
1709374314.286,-64.941,-28.809,-44.922,-63.477,0.000
1709374314.289,-20.508,-28.320,-44.434,-28.809,0.000
1709374314.293,1.465,-29.297,-44.434,-5.859,0.000
1709374314.297,-41.992,-30.273,-43.945,-42.969,0.000
1709374314.301,-70.801,-28.320,-47.852,-56.641,0.000
1709374314.305,-61.523,-26.855,-41.992,-54.199,0.000
1709374314.309,-21.973,-26.367,-36.621,-24.902,0.000
1709374314.313,3.418,-29.297,-36.621,-1.953,0.000
1709374314.317,-36.621,-31.738,-37.109,-34.668,0.000
1709374314.321,-67.383,-29.297,-40.527,-61.035,0.000
1709374314.325,-63.477,-28.809,-40.039,-60.059,0.000
1709374314.328,-35.156,-33.691,-37.109,-37.598,0.000
1709374314.332,4.883,-37.109,-39.062,-16.602,0.000
1709374314.336,-21.484,-29.785,-35.645,-36.133,0.000
1709374314.340,-61.523,-25.879,-35.645,-61.523,0.000
1709374314.344,-61.035,-32.715,-41.992,-61.035,0.000
1709374314.348,-40.527,-38.086,-40.039,-34.668,0.000
1709374314.352,7.324,-29.785,-39.551,-9.766,0.000
1709374314.356,-6.348,-20.020,-37.598,-16.602,0.000
1709374314.360,-58.594,-22.461,-36.133,-46.387,0.000
1709374314.363,-68.848,-20.996,-33.203,-64.941,0.000
1709374314.367,-50.293,-20.996,-33.691,-54.199,0.000
1709374314.371,-5.859,-26.367,-46.387,-15.625,0.000
1709374314.375,-5.371,-20.996,-43.457,-18.555,0.000
1709374314.379,-55.176,-18.066,-33.691,-58.105,0.000
1709374314.383,-64.941,-21.484,-37.598,-66.895,0.000
1709374314.387,-33.203,-18.555,-40.527,-39.551,0.000
1709374314.391,13.672,-16.602,-39.551,9.766,0.000
1709374314.395,5.859,-21.973,-40.039,-8.789,0.000
1709374314.399,-49.316,-26.367,-42.969,-50.781,0.000
1709374314.403,-74.219,-26.367,-45.898,-59.082,0.000
1709374314.406,-53.223,-26.855,-41.504,-49.316,0.000
1709374314.410,-4.883,-24.902,-38.086,-11.230,0.000
1709374314.414,-4.395,-21.973,-37.598,-6.348,0.000
1709374314.418,-56.152,-20.508,-39.062,-40.527,0.000
1709374314.422,-70.312,-21.484,-34.180,-49.805,0.000
1709374314.426,-49.805,-24.414,-30.762,-46.875,0.000
1709374314.430,-6.836,-27.832,-32.715,-26.367,0.000
1709374314.434,4.395,-30.273,-37.109,-5.859,0.000
1709374314.437,-43.945,-24.414,-40.527,-41.992,0.000
1709374314.441,-68.359,-24.902,-38.574,-73.730,0.000
1709374314.445,-55.664,-31.738,-38.574,-62.012,0.000
1709374314.449,-14.160,-35.156,-38.574,-22.949,0.000
1709374314.453,3.418,-32.227,-43.945,-6.348,0.000
1709374314.457,-35.156,-26.855,-41.016,-39.062,0.000
1709374314.461,-59.570,-30.762,-38.086,-62.500,0.000
1709374314.465,-53.711,-38.086,-40.527,-62.500,0.000
1709374314.468,-15.137,-40.527,-42.969,-22.949,0.000
1709374314.472,16.602,-37.109,-45.898,1.953,0.000
1709374314.476,-20.508,-34.668,-41.016,-32.715,0.000
1709374314.480,-53.711,-29.785,-36.621,-44.922,0.000
1709374314.484,-59.570,-27.344,-40.527,-42.480,0.000
1709374314.488,-23.438,-30.273,-44.434,-28.809,0.000
1709374314.492,15.625,-39.062,-46.387,3.418,0.000
1709374314.496,-23.438,-39.551,-42.480,-23.438,0.000
1709374314.500,-57.617,-33.691,-39.062,-53.711,0.000
1709374314.504,0.000,-36.133,-41.992,-55.176,0.000
1709374314.508,0.000,-39.551,-43.945,-38.574,0.000
1709374314.512,0.000,-42.480,-41.504,-1.953,0.000
1709374314.516,0.000,-42.480,-37.598,-21.973,0.000
1709374314.520,0.000,-35.645,-40.039,-61.523,0.000
1709374314.524,0.000,-33.691,-36.621,-61.523,0.000
1709374314.527,0.000,-40.039,-33.203,-39.551,0.000
1709374314.531,0.000,-41.016,-38.086,-16.113,0.000
1709374314.535,0.000,-37.598,-38.574,-31.250,0.000
1709374314.539,0.000,-34.668,-35.156,-57.129,0.000
1709374314.543,0.000,-32.227,-38.574,-61.523,0.000
1709374314.547,0.000,-34.668,-38.086,-43.945,0.000
1709374314.551,1.465,-37.598,-34.668,-4.883,0.000
1709374314.555,-3.906,-35.156,-33.691,-10.254,0.000
1709374314.559,-51.270,-39.062,-37.598,-55.664,0.000
1709374314.563,-72.266,-38.574,-37.109,-65.430,0.000
1709374314.567,-49.805,-33.691,-32.227,-40.039,0.000
1709374314.571,8.789,-33.203,-29.785,-2.930,0.000
1709374314.575,-0.977,-32.227,-28.809,-7.812,0.000
1709374314.578,-53.711,-34.668,-29.297,-49.805,0.000
1709374314.582,-63.965,-39.062,-30.273,-63.965,0.000
1709374314.586,-51.270,-37.598,-31.250,-51.758,0.000
1709374314.590,-5.859,-40.039,-32.715,-19.531,0.000
1709374314.594,3.906,-41.504,-35.156,-15.137,0.000
1709374314.598,-41.992,-33.203,-35.645,-47.363,0.000
1709374314.602,-62.500,-29.297,-34.180,-59.570,0.000
1709374314.606,-45.898,-28.320,-34.668,-50.293,0.000
1709374314.610,4.883,-30.273,-38.086,-5.371,0.000
1709374314.614,10.742,-34.180,-35.156,1.953,0.000
1709374314.618,-53.223,-36.133,-32.227,-52.246,0.000
1709374314.621,-81.055,-38.086,-33.203,-70.801,0.000
1709374314.625,-65.918,-39.062,-36.133,-58.594,0.000
1709374314.629,-21.973,-41.992,-40.039,-23.438,0.000
1709374314.633,1.465,-43.457,-41.504,-3.418,0.000
1709374314.637,-41.016,-38.574,-42.480,-42.480,0.000
1709374314.641,-71.777,-30.762,-41.992,-65.918,0.000
1709374314.645,-60.547,-30.762,-42.969,-56.152,0.000
1709374314.649,-21.973,-34.668,-41.504,-27.832,0.000
1709374314.653,4.395,-39.062,-44.922,-5.859,0.000
1709374314.657,-36.133,-40.039,-42.969,-31.738,0.000
1709374314.661,-69.336,-34.668,-37.598,-62.988,0.000
1709374314.664,-59.570,-38.574,-40.527,-65.918,0.000
1709374314.668,-25.879,-42.969,-41.992,-35.156,0.000
1709374314.672,1.465,-42.480,-40.039,-4.395,0.000
1709374314.676,-29.297,-41.016,-37.598,-16.113,0.000
1709374314.680,-65.430,-45.898,-40.527,-51.270,0.000
1709374314.684,-65.918,-50.293,-38.086,-62.500,0.000
1709374314.688,-35.156,-40.527,-37.598,-39.062,0.000
1709374314.692,5.371,-36.133,-38.086,-6.836,0.000
1709374314.696,-15.625,-38.574,-33.203,-33.691,0.000
1709374314.700,-65.430,-42.480,-34.180,-73.730,0.000
1709374314.703,-76.660,-44.922,-38.086,-77.148,0.000
1709374314.707,-41.016,-40.527,-37.109,-55.176,0.000
1709374314.711,2.441,-38.086,-37.598,-19.531,0.000
1709374314.715,-8.789,-37.109,-35.156,-25.879,0.000
1709374314.719,-55.176,-35.645,-31.738,-57.129,0.000
1709374314.723,-74.219,-38.574,-34.668,-61.035,0.000
1709374314.727,-53.223,-50.781,-40.039,-46.875,0.000
1709374314.731,-1.953,-52.246,-36.621,-9.766,0.000
1709374314.735,1.953,-41.016,-32.227,-12.207,0.000
1709374314.739,-49.316,-33.203,-33.691,-53.223,0.000
1709374314.742,-72.266,-35.156,-37.109,-68.359,0.000
1709374314.746,-49.805,-40.527,-36.621,-54.688,0.000
1709374314.750,1.465,-39.551,-35.645,-7.324,0.000
1709374314.754,2.441,-33.691,-33.203,4.883,0.000
1709374314.758,-54.688,-33.691,-31.250,-41.504,0.000
1709374314.762,-82.031,-39.551,-36.621,-63.965,0.000
1709374314.766,-66.406,-44.434,-35.156,-41.504,0.000
1709374314.770,-18.066,-44.922,-34.668,-7.324,0.000
1709374314.774,3.418,-43.457,-32.227,2.441,0.000
1709374314.778,-33.691,-39.062,-28.320,-28.809,0.000
1709374314.781,-61.035,-34.668,-30.273,-51.758,0.000
1709374314.785,-53.223,-36.133,-33.203,-49.805,0.000
1709374314.789,-18.555,-42.480,-35.645,-18.555,0.000
1709374314.793,0.000,-38.574,-35.156,-1.465,0.000
1709374314.797,-34.180,-32.715,-32.227,-36.133,0.000
1709374314.801,-64.941,-37.598,-36.133,-63.477,0.000
1709374314.805,-74.707,-40.527,-35.645,-58.594,0.000
1709374314.809,-38.574,-31.738,-31.250,-21.484,0.000
1709374314.813,-4.883,-29.785,-32.715,1.953,0.000
1709374314.817,-43.457,-36.621,-33.691,-34.180,0.000
1709374314.820,-78.613,-33.691,-33.203,-59.570,0.000
1709374314.824,-67.383,-28.320,-31.250,-55.176,0.000
1709374314.828,-24.414,-32.227,-33.691,-24.414,0.000
1709374314.832,9.766,-33.203,-36.621,5.859,0.000
1709374314.836,-19.531,-36.133,-34.180,-20.508,0.000
1709374314.840,-52.246,-39.062,-36.621,-45.898,0.000
1709374314.844,-59.082,-34.668,-35.645,-53.711,0.000
1709374314.847,-34.668,-39.551,-33.203,-41.016,0.000
1709374314.851,7.812,-43.457,-35.156,0.000,0.000
1709374314.855,-14.160,-34.668,-31.738,-10.254,0.000
1709374314.859,-63.965,-33.203,-29.785,-53.711,0.000
1709374314.863,-72.754,-37.598,-30.273,-53.711,0.000
1709374314.867,-42.969,-33.203,-27.344,-23.926,0.000
1709374314.871,0.977,-29.785,-29.297,2.930,0.000
1709374314.875,-11.719,-40.039,-34.180,-12.207,0.000
1709374314.879,-63.965,-43.457,-39.551,-43.457,0.000
1709374314.883,-70.312,-34.180,-38.574,-46.387,0.000
1709374314.887,-39.062,-32.715,-35.156,-35.156,0.000
1709374314.891,5.859,-38.574,-37.598,-11.230,0.000
1709374314.895,4.883,-34.668,-35.156,-21.484,0.000
1709374314.899,-41.504,-32.715,-33.203,-59.570,0.000
1709374314.902,-57.129,-39.062,-32.715,-76.660,0.000
1709374314.906,-44.434,-39.062,-29.785,-65.430,0.000
1709374314.910,-12.695,-36.621,-35.156,-31.250,0.000
1709374314.914,-4.883,-34.668,-35.156,-23.438,0.000
1709374314.918,-48.828,-38.574,-33.203,-56.641,0.000
1709374314.922,-75.195,-36.621,-31.738,-68.359,0.000
1709374314.926,0.000,-33.203,-31.250,-60.547,0.000
1709374314.930,0.000,-34.180,-31.738,-18.555,0.000
1709374314.934,0.000,-35.645,-34.180,-3.906,0.000
1709374314.938,0.000,-34.180,-35.156,-43.945,0.000
1709374314.942,0.000,-32.715,-34.180,-53.223,0.000
1709374314.946,0.000,-35.156,-36.133,-45.410,0.000
1709374314.950,0.000,-34.180,-39.551,-15.137,0.000
1709374314.953,0.000,-34.668,-38.574,-2.441,0.000
1709374314.957,0.000,-31.738,-29.297,-34.180,0.000
1709374314.961,0.000,-30.762,-32.227,-52.734,0.000
1709374314.965,0.000,-33.691,-35.645,-60.059,0.000
1709374314.969,0.000,-32.715,-34.180,-25.879,0.000
1709374314.973,1.465,-33.203,-34.668,2.930,0.000
1709374314.977,-37.598,-34.180,-37.109,-29.297,0.000
1709374314.981,-73.242,-43.945,-40.039,-55.176,0.000
1709374314.985,-72.754,-44.922,-37.598,-56.641,0.000
1709374314.989,-31.738,-41.016,-38.574,-24.414,0.000
1709374314.993,-0.977,-47.852,-39.551,0.488,0.000
1709374314.997,-37.598,-47.852,-36.133,-32.227,0.000
1709374315.001,-72.754,-42.480,-40.039,-62.500,0.000
1709374315.004,-69.824,-41.992,-37.109,-56.152,0.000
1709374315.008,-41.504,-43.457,-40.039,-32.715,0.000
1709374315.012,-9.766,-46.875,-48.828,-16.113,0.000
1709374315.016,-42.969,-45.898,-44.922,-40.039,0.000
1709374315.020,-78.125,-42.969,-38.086,-64.453,0.000
1709374315.024,-80.566,-41.504,-37.598,-65.918,0.000
1709374315.028,-48.340,-37.598,-35.645,-43.945,0.000
1709374315.032,-4.395,-40.527,-33.691,-5.859,0.000
1709374315.036,-23.926,-41.016,-32.715,-19.043,0.000
1709374315.040,-61.035,-32.715,-30.762,-54.199,0.000
1709374315.043,-65.430,-26.855,-25.391,-55.664,0.000
1709374315.047,-39.551,-32.715,-26.855,-32.715,0.000
1709374315.051,6.836,-40.039,-35.645,2.930,0.000
1709374315.055,-13.672,-38.574,-40.527,-11.719,0.000
1709374315.059,-68.359,-43.457,-40.039,-54.199,0.000
1709374315.063,-79.102,-41.504,-39.551,-62.500,0.000
1709374315.067,-50.781,-32.227,-40.039,-43.457,0.000
1709374315.071,0.000,-30.273,-39.551,-9.766,0.000
1709374315.075,-5.371,-28.809,-40.039,-12.207,0.000
1709374315.079,-52.734,-34.668,-37.598,-49.316,0.000
1709374315.082,-67.871,-38.574,-34.668,-59.570,0.000
1709374315.086,-57.617,-38.574,-34.668,-48.828,0.000
1709374315.090,-13.672,-37.598,-34.668,-16.113,0.000
1709374315.094,-0.977,-39.062,-34.668,-5.371,0.000
1709374315.098,-48.340,-39.551,-36.133,-41.016,0.000
1709374315.102,-68.848,-36.133,-33.691,-61.523,0.000
1709374315.106,-61.035,-38.086,-33.203,-52.734,0.000
1709374315.110,-23.926,-39.062,-41.992,-22.461,0.000
1709374315.114,-6.836,-36.621,-46.875,-15.625,0.000
1709374315.117,-54.688,-36.621,-41.504,-52.734,0.000
1709374315.121,-80.566,-38.574,-32.715,-69.336,0.000
1709374315.125,-74.219,-41.504,-34.668,-63.477,0.000
1709374315.129,-26.855,-39.062,-36.133,-26.367,0.000
1709374315.133,1.465,-43.457,-35.645,-6.348,0.000
1709374315.137,-38.574,-50.293,-33.203,-39.062,0.000
1709374315.141,-66.895,-44.922,-32.227,-52.246,0.000
1709374315.145,-61.523,-41.504,-39.062,-49.805,0.000
1709374315.149,-20.020,-40.527,-41.992,-22.949,0.000
1709374315.153,9.277,-37.598,-39.551,-3.418,0.000
1709374315.157,-26.855,-37.598,-39.551,-39.062,0.000
1709374315.160,-58.105,-37.598,-44.434,-58.105,0.000
1709374315.164,-54.199,-38.574,-49.316,-63.477,0.000
1709374315.168,-21.973,-36.621,-47.852,-43.945,0.000
1709374315.172,16.602,-35.156,-45.410,-4.883,0.000
1709374315.176,-20.996,-35.156,-42.480,-37.109,0.000
1709374315.180,-69.336,-35.156,-44.922,-76.172,0.000
1709374315.184,-70.312,-36.621,-41.016,-67.383,0.000
1709374315.188,-45.410,-41.992,-35.645,-41.016,0.000
1709374315.191,-6.836,-40.039,-38.574,-13.672,0.000
1709374315.195,-26.855,-35.645,-33.203,-28.809,0.000
1709374315.199,-62.500,-33.203,-27.832,-54.688,0.000
1709374315.203,-70.801,-31.738,-35.645,-62.012,0.000
1709374315.207,-45.898,-30.273,-35.156,-44.922,0.000
1709374315.211,3.906,-32.715,-33.203,-1.465,0.000
1709374315.215,-11.230,-36.621,-41.504,-7.812,0.000
1709374315.218,-58.105,-36.621,-42.969,-51.758,0.000
1709374315.222,-73.730,-36.133,-34.180,-70.312,0.000
1709374315.226,-50.781,-32.227,-36.621,-51.758,0.000
1709374315.230,0.488,-30.762,-38.086,1.465,0.000
1709374315.234,-9.277,-34.180,-30.273,-2.441,0.000
1709374315.238,-58.105,-37.598,-27.344,-48.340,0.000
1709374315.242,-71.289,-37.109,-30.273,-59.570,0.000
1709374315.246,-59.082,-36.621,-38.086,-46.387,0.000
1709374315.250,-13.672,-41.992,-37.598,-10.254,0.000
1709374315.254,-0.977,-41.016,-31.250,-4.883,0.000
1709374315.258,-55.664,-40.039,-26.855,-38.086,0.000
1709374315.262,-76.660,-41.016,-27.344,-51.270,0.000
1709374315.266,-49.805,-35.156,-26.855,-41.016,0.000
1709374315.270,-10.254,-40.039,-27.344,-4.395,0.000
1709374315.273,-7.812,-47.852,-29.297,3.906,0.000
1709374315.277,-52.734,-49.805,-28.320,-37.598,0.000
1709374315.281,-72.754,-44.922,-26.855,-57.129,0.000
1709374315.285,-63.477,-35.156,-34.180,-46.875,0.000
1709374315.289,-15.137,-31.738,-36.133,-7.324,0.000
1709374315.293,-0.488,-36.133,-35.645,5.859,0.000
1709374315.297,-46.387,-37.598,-34.180,-39.062,0.000
1709374315.301,-77.148,-39.062,-31.738,-64.941,0.000
1709374315.305,-77.637,-40.039,-36.621,-65.918,0.000
1709374315.309,-34.180,-37.109,-35.645,-38.574,0.000
1709374315.313,-6.348,-40.527,-34.180,-9.277,0.000
1709374315.317,-52.246,-44.922,-36.621,-39.062,0.000
1709374315.321,-81.055,-40.039,-35.645,-62.500,0.000
1709374315.324,-70.801,-41.016,-34.668,-53.711,0.000
1709374315.328,-35.156,-42.969,-32.715,-24.902,0.000
1709374315.332,4.395,-40.527,-29.785,2.930,0.000
1709374315.336,-26.367,-38.574,-31.738,-14.160,0.000
1709374315.340,-67.383,-41.016,-32.227,-41.504,0.000
1709374315.344,-63.965,-45.898,-30.273,-44.922,0.000
1709374315.348,-35.645,-47.852,-34.668,-27.832,0.000
1709374315.352,-3.906,-45.898,-39.062,0.977,0.000
1709374315.356,-29.297,-41.992,-38.574,-24.902,0.000
1709374315.360,-66.406,-46.387,-32.227,-52.246,0.000
1709374315.364,-66.895,-48.828,-30.762,-45.410,0.000
1709374315.367,-37.598,-46.387,-32.227,-26.855,0.000
1709374315.371,0.488,-42.480,-34.668,4.395,0.000
1709374315.375,-24.414,-41.016,-40.527,-9.277,0.000
1709374315.379,-65.918,-35.156,-35.156,-36.133,0.000
1709374315.383,-66.895,-32.227,-29.297,-35.645,0.000
1709374315.387,-41.016,-34.180,-32.227,-23.438,0.000
1709374315.391,3.906,-38.086,-35.645,8.301,0.000
1709374315.395,-3.418,-38.574,-29.297,-4.395,0.000
1709374315.399,-50.293,-36.133,-26.855,-42.969,0.000
1709374315.403,-66.895,-40.527,-33.203,-58.105,0.000
1709374315.407,-48.340,-39.551,-39.551,-44.922,0.000
1709374315.410,-0.488,-37.109,-40.527,-5.371,0.000
1709374315.414,-4.395,-33.691,-39.551,-18.555,0.000
1709374315.418,-53.711,-33.691,-41.992,-66.895,0.000
1709374315.422,-74.219,-41.992,-43.945,-88.379,0.000
1709374315.426,-57.617,-37.598,-41.992,-62.988,0.000
1709374315.430,-12.695,-35.156,-41.016,-26.367,0.000
1709374315.434,0.000,-35.645,-37.109,-19.531,0.000
1709374315.438,-41.992,-34.180,-34.668,-48.828,0.000
1709374315.442,-66.895,-33.203,-36.621,-62.500,0.000
1709374315.446,-51.270,-35.156,-41.504,-54.688,0.000
1709374315.449,-3.906,-41.016,-40.039,-13.184,0.000
1709374315.453,15.625,-38.574,-37.109,11.230,0.000
1709374315.457,-29.785,-36.133,-35.156,-30.273,0.000
1709374315.461,-51.270,-37.109,-30.273,-48.828,0.000
1709374315.465,-44.434,-41.992,-34.180,-46.387,0.000
1709374315.469,-8.789,-40.527,-41.016,-10.254,0.000
1709374315.473,11.230,-34.180,-37.109,15.137,0.000
1709374315.477,-36.621,-34.180,-38.086,-28.809,0.000
1709374315.481,-70.312,-40.527,-39.551,-54.199,0.000
1709374315.485,-64.941,-45.898,-34.668,-50.781,0.000
1709374315.488,-19.043,-49.805,-31.250,-25.391,0.000
1709374315.492,4.395,-47.363,-31.738,-0.977,0.000
1709374315.496,-43.457,-42.969,-33.203,-33.203,0.000
1709374315.500,-76.660,-39.551,-28.809,-63.477,0.000
1709374315.504,-65.918,-40.527,-28.809,-65.918,0.000
1709374315.508,-21.973,-38.574,-36.621,-36.621,0.000
1709374315.512,16.113,-33.203,-35.156,-9.277,0.000
1709374315.516,-19.043,-36.621,-31.250,-23.926,0.000
1709374315.520,-59.082,-35.156,-38.574,-58.594,0.000
1709374315.524,-56.152,-27.832,-40.039,-71.289,0.000
1709374315.527,-25.879,-28.809,-35.156,-42.969,0.000
1709374315.531,14.160,-26.855,-34.668,-4.395,0.000
1709374315.535,-9.277,-25.879,-31.250,-24.414,0.000
1709374315.539,-58.594,-38.574,-33.203,-61.035,0.000
1709374315.543,-60.547,-32.227,-33.203,-55.176,0.000
1709374315.547,-40.039,-27.832,-33.203,-35.156,0.000
1709374315.551,3.906,-31.738,-36.133,-4.395,0.000
1709374315.555,-10.254,-36.133,-34.668,-18.555,0.000
1709374315.558,-61.523,-41.504,-38.086,-52.734,0.000
1709374315.562,-70.312,-38.574,-42.969,-58.105,0.000
1709374315.566,-40.527,-33.691,-40.039,-46.875,0.000
1709374315.570,13.184,-28.809,-37.598,-7.812,0.000
1709374315.574,-0.488,-31.738,-40.527,-21.484,0.000
1709374315.578,-54.199,-36.133,-41.992,-63.965,0.000
1709374315.582,-66.406,-31.250,-40.527,-67.871,0.000
1709374315.586,-43.457,-31.738,-41.992,-49.316,0.000
1709374315.589,1.953,-34.180,-45.898,-17.578,0.000
1709374315.593,-7.324,-30.273,-42.480,-13.672,0.000
1709374315.597,-57.129,-30.273,-38.574,-46.875,0.000
1709374315.601,-70.801,-31.738,-38.086,-58.594,0.000
1709374315.605,-49.805,-32.227,-37.598,-38.574,0.000
1709374315.609,-3.906,-38.086,-40.527,-3.418,0.000
1709374315.613,4.395,-41.504,-38.574,-1.953,0.000
1709374315.617,-41.504,-44.434,-32.715,-41.504,0.000
1709374315.621,-71.289,-47.363,-31.738,-62.988,0.000
1709374315.625,-63.477,-48.340,-29.785,-57.617,0.000
1709374315.628,-15.137,-46.875,-29.785,-20.508,0.000
1709374315.632,6.348,-40.039,-29.297,-3.418,0.000
1709374315.636,-41.504,-32.715,-27.344,-39.551,0.000
1709374315.640,-69.824,-34.180,-29.297,-65.430,0.000
1709374315.644,-55.664,-39.062,-29.785,-57.617,0.000
1709374315.648,-14.160,-38.086,-29.785,-18.555,0.000
1709374315.652,13.672,-29.785,-24.902,4.395,0.000
1709374315.655,-29.785,-27.344,-29.785,-34.668,0.000
1709374315.659,-66.406,-31.738,-37.109,-57.617,0.000
1709374315.663,-64.453,-32.227,-36.133,-46.387,0.000
1709374315.667,-36.133,-31.250,-39.551,-22.949,0.000
1709374315.671,-0.977,-40.527,-39.551,0.000,0.000
1709374315.675,-33.691,-39.062,-33.203,-21.484,0.000
1709374315.679,-71.777,-28.809,-34.180,-56.152,0.000
1709374315.683,-71.777,-34.180,-36.621,-62.012,0.000
1709374315.687,-39.551,-39.551,-42.480,-33.203,0.000
1709374315.691,0.000,-43.457,-47.363,-1.465,0.000
1709374315.695,-29.785,-43.945,-39.551,-32.227,0.000
1709374315.699,-68.359,-36.621,-39.551,-66.406,0.000
1709374315.703,-61.035,-38.574,-41.016,-62.988,0.000
1709374315.707,-38.574,-42.969,-36.133,-36.133,0.000
1709374315.710,-2.930,-40.527,-33.203,2.930,0.000
1709374315.714,-21.973,-42.480,-33.691,-15.137,0.000
1709374315.718,-67.871,-44.922,-36.621,-52.246,0.000
1709374315.722,-71.289,-43.457,-33.691,-58.105,0.000
1709374315.726,-52.734,-40.527,-33.203,-43.457,0.000
1709374315.730,-17.090,-39.062,-37.109,-9.277,0.000
1709374315.734,-22.949,-37.598,-34.180,-16.602,0.000
1709374315.738,-61.035,-38.574,-33.203,-55.664,0.000
1709374315.742,-63.477,-41.504,-33.691,-62.988,0.000
1709374315.746,-42.480,-41.992,-35.645,-48.828,0.000
1709374315.750,-3.418,-42.969,-33.691,-8.789,0.000
1709374315.754,-2.441,-38.574,-28.809,-2.930,0.000
1709374315.757,-45.410,-41.016,-34.668,-42.480,0.000
1709374315.761,-62.988,-41.992,-37.109,-62.988,0.000
1709374315.765,-48.828,-37.109,-37.109,-51.758,0.000
1709374315.769,-3.906,-34.668,-41.016,-15.137,0.000
1709374315.773,1.953,-36.621,-38.574,-12.207,0.000
1709374315.777,-48.828,-41.016,-34.668,-54.199,0.000
1709374315.781,-74.219,-41.992,-39.062,-72.754,0.000
1709374315.785,-58.105,-37.109,-39.062,-62.500,0.000
1709374315.789,-8.301,-36.133,-38.574,-29.297,0.000
1709374315.793,4.395,-35.645,-41.016,-21.484,0.000
1709374315.797,-45.898,-31.250,-35.645,-47.852,0.000
1709374315.800,-67.383,-35.156,-35.156,-52.734,0.000
1709374315.804,-60.547,-44.922,-39.062,-58.594,0.000
1709374315.808,-25.391,-40.039,-35.156,-30.273,0.000
1709374315.812,-3.418,-33.203,-37.598,-2.441,0.000
1709374315.816,-48.828,-32.715,-36.621,-38.574,0.000
1709374315.820,-76.172,-31.738,-34.180,-66.406,0.000
1709374315.824,-63.477,-32.227,-37.598,-57.129,0.000
1709374315.828,-18.555,-31.738,-36.621,-27.832,0.000
1709374315.832,15.625,-29.297,-41.016,-3.906,0.000
1709374315.836,-22.461,-35.156,-44.922,-38.086,0.000
1709374315.840,-56.152,-36.621,-40.527,-77.148,0.000
1709374315.843,-59.082,-31.738,-40.039,-64.941,0.000
1709374315.847,-33.203,-38.086,-45.410,-30.762,0.000
1709374315.851,3.418,-44.922,-45.898,-5.371,0.000
1709374315.855,-26.855,-42.480,-41.016,-26.855,0.000
1709374315.859,-67.871,-38.574,-38.086,-56.641,0.000
1709374315.863,-70.312,-38.086,-39.551,-60.059,0.000
1709374315.867,-35.156,-41.504,-40.039,-34.668,0.000
1709374315.871,7.324,-41.992,-37.109,3.418,0.000
1709374315.875,-17.578,-32.715,-39.062,-10.742,0.000
1709374315.878,-57.129,-25.879,-41.016,-46.387,0.000
1709374315.882,-66.895,-28.809,-37.109,-52.246,0.000
1709374315.886,-41.504,-30.273,-35.645,-28.809,0.000
1709374315.890,7.324,-28.809,-31.738,18.066,0.000
1709374315.894,-10.254,-31.738,-27.344,-2.441,0.000
1709374315.898,-66.406,-34.180,-28.320,-52.734,0.000
1709374315.902,-76.172,-34.668,-33.203,-61.523,0.000
1709374315.906,-47.852,-40.527,-31.738,-46.875,0.000
1709374315.910,0.977,-38.574,-30.273,-12.695,0.000
1709374315.913,-3.906,-33.691,-35.645,-15.625,0.000
1709374315.917,-60.059,-35.645,-34.180,-50.781,0.000
1709374315.921,-70.801,-37.109,-37.109,-64.941,0.000
1709374315.925,-41.504,-37.109,-40.039,-57.617,0.000
1709374315.929,-2.930,-35.645,-38.086,-17.090,0.000
1709374315.933,-3.418,-32.227,-37.109,-1.465,0.000
1709374315.937,-48.340,-27.344,-39.062,-43.945,0.000
1709374315.941,-63.477,-30.762,-40.527,-72.754,0.000
1709374315.945,-41.504,-35.156,-39.062,-57.129,0.000
1709374315.949,-0.488,-27.832,-40.039,-14.160,0.000
1709374315.953,4.883,-21.973,-39.551,-7.324,0.000
1709374315.956,0.000,-21.484,-37.109,-49.316,0.000
1709374315.960,0.000,-24.414,-36.133,-69.336,0.000
1709374315.964,0.000,-27.832,-41.992,-64.453,0.000
1709374315.968,0.000,-32.715,-44.922,-29.297,0.000
1709374315.972,0.000,-35.156,-43.457,-10.254,0.000
1709374315.976,0.000,-33.691,-40.039,-46.387,0.000
1709374315.980,0.000,-40.527,-41.504,-64.453,0.000
1709374315.983,0.000,-42.480,-41.504,-64.941,0.000
1709374315.987,0.000,-40.039,-40.039,-39.062,0.000
1709374315.991,0.000,-35.645,-37.598,-9.766,0.000
1709374315.995,0.000,-37.598,-36.133,-40.527,0.000
1709374315.999,0.000,-42.969,-36.621,-63.477,0.000
1709374316.003,-58.105,-41.992,-36.133,-56.152,0.000
1709374316.007,-24.414,-42.480,-34.668,-24.414,0.000
1709374316.010,5.859,-41.016,-34.668,17.090,0.000
1709374316.014,-25.391,-41.016,-31.250,-5.371,0.000
1709374316.018,-64.941,-45.898,-34.180,-43.457,0.000
1709374316.022,-62.988,-44.434,-39.551,-56.152,0.000
1709374316.026,-28.809,-38.086,-35.156,-31.738,0.000
1709374316.030,15.625,-32.227,-31.738,7.324,0.000
1709374316.034,-7.812,-30.762,-30.762,-19.043,0.000
1709374316.038,-54.688,-35.156,-35.156,-52.734,0.000
1709374316.042,-65.430,-35.645,-39.062,-53.711,0.000
1709374316.046,-36.133,-28.809,-34.668,-32.227,0.000
1709374316.050,7.812,-26.855,-33.203,1.465,0.000
1709374316.054,-16.113,-31.250,-37.598,-19.531,0.000
1709374316.058,-61.035,-31.738,-37.598,-57.129,0.000
1709374316.061,-62.500,-31.250,-35.156,-58.105,0.000
1709374316.065,-34.180,-33.691,-36.621,-33.691,0.000
1709374316.069,8.789,-32.227,-35.156,6.348,0.000
1709374316.073,-1.465,-36.133,-35.156,-0.488,0.000
1709374316.077,-50.781,-39.062,-38.086,-41.016,0.000
1709374316.081,-61.035,-36.621,-33.203,-51.758,0.000
1709374316.085,-39.551,-35.156,-30.273,-31.250,0.000
1709374316.089,-2.930,-40.039,-38.086,0.977,0.000
1709374316.093,-7.812,-39.062,-38.574,-0.977,0.000
1709374316.097,-58.594,-33.203,-32.227,-42.480,0.000
1709374316.101,-76.660,-36.133,-32.715,-63.965,0.000
1709374316.105,-57.129,-38.574,-37.598,-49.805,0.000
1709374316.108,-10.742,-39.551,-40.039,-11.719,0.000
1709374316.112,-12.695,-35.645,-38.086,-6.836,0.000
1709374316.116,-61.523,-37.109,-37.598,-44.434,0.000
1709374316.120,-86.914,-42.480,-36.621,-62.988,0.000
1709374316.124,-73.730,-38.574,-33.203,-57.617,0.000
1709374316.128,-22.949,-32.715,-34.180,-14.160,0.000
1709374316.132,-11.719,-31.250,-34.180,0.977,0.000
1709374316.136,-60.547,-28.320,-30.273,-46.387,0.000
1709374316.140,-77.148,-26.367,-25.879,-63.477,0.000
1709374316.144,-66.895,-32.715,-27.832,-56.152,0.000
1709374316.148,-29.785,-38.574,-34.180,-31.250,0.000
1709374316.152,-7.812,-36.133,-38.086,-16.113,0.000
1709374316.155,-51.758,-35.645,-31.738,-48.340,0.000
1709374316.159,-82.520,-39.551,-36.621,-79.102,0.000
1709374316.163,-73.730,-36.133,-44.434,-78.125,0.000
1709374316.167,-31.250,-33.203,-37.598,-36.621,0.000
1709374316.171,6.348,-36.133,-32.227,-7.812,0.000
1709374316.175,-31.738,-30.273,-26.367,-27.832,0.000
1709374316.179,-71.777,-27.344,-26.367,-59.570,0.000
1709374316.183,-66.406,-30.273,-27.344,-65.918,0.000
1709374316.187,-33.691,-31.250,-31.738,-40.039,0.000
1709374316.191,12.207,-33.691,-36.133,-4.395,0.000
1709374316.194,-18.066,-30.762,-33.203,-15.625,0.000
1709374316.198,-77.148,-27.344,-35.156,-57.129,0.000
1709374316.202,-80.566,-28.809,-32.227,-69.824,0.000
1709374316.206,-39.062,-32.227,-32.715,-44.922,0.000
1709374316.210,-2.441,-30.762,-37.109,-8.789,0.000
1709374316.214,-31.738,-27.344,-37.109,-27.832,0.000
1709374316.218,-81.055,-33.691,-40.527,-65.430,0.000
1709374316.222,-87.891,-39.062,-42.969,-73.242,0.000
1709374316.226,-56.152,-34.668,-48.828,-61.035,0.000
1709374316.230,-9.766,-31.738,-49.805,-23.926,0.000
1709374316.234,-20.508,-36.621,-40.527,-31.250,0.000
1709374316.237,0.000,-39.062,-34.180,-66.406,0.000
1709374316.241,0.000,-38.086,-39.062,-74.707,0.000
1709374316.245,0.000,-40.527,-41.992,-54.688,0.000
1709374316.249,0.000,-40.527,-40.039,-14.160,0.000
1709374316.253,0.000,-38.574,-42.969,-16.602,0.000
1709374316.257,0.000,-39.062,-41.504,-60.059,0.000
1709374316.261,0.000,-38.574,-41.016,-73.242,0.000
1709374316.265,0.000,-39.551,-42.480,-52.734,0.000
1709374316.269,0.000,-41.016,-42.969,-18.066,0.000
1709374316.273,0.000,-36.621,-42.480,-19.531,0.000
1709374316.276,0.000,-32.227,-36.133,-62.012,0.000
1709374316.280,0.000,-32.227,-32.227,-68.359,0.000
1709374316.284,-57.617,-35.645,-36.621,-50.781,0.000
1709374316.288,-5.371,-40.039,-40.527,-17.090,0.000
1709374316.292,7.812,-38.574,-35.156,-7.812,0.000
1709374316.296,-49.805,-38.086,-36.621,-52.246,0.000
1709374316.300,-77.148,-45.410,-41.504,-74.219,0.000
1709374316.304,-59.570,-42.480,-35.156,-59.570,0.000
1709374316.308,-10.254,-37.109,-32.227,-13.672,0.000
1709374316.311,11.719,-37.598,-33.691,5.859,0.000
1709374316.315,-38.574,-35.645,-39.062,-33.203,0.000
1709374316.319,-71.777,-30.273,-42.480,-60.059,0.000
1709374316.323,-56.152,-29.297,-40.039,-50.781,0.000
1709374316.327,-16.113,-28.320,-40.039,-14.648,0.000
1709374316.331,3.906,-27.832,-36.133,9.277,0.000
1709374316.335,-31.250,-30.762,-28.809,-20.508,0.000
1709374316.339,-64.453,-28.809,-30.762,-51.270,0.000
1709374316.342,-65.918,-30.273,-31.738,-51.270,0.000
1709374316.346,-24.902,-33.691,-33.691,-26.367,0.000
1709374316.350,6.836,-36.133,-30.273,7.324,0.000
1709374316.354,-37.109,-39.551,-28.809,-6.836,0.000
1709374316.358,-73.730,-36.621,-36.133,-50.293,0.000
1709374316.362,-57.129,-35.156,-31.738,-55.664,0.000
1709374316.366,-20.508,-37.109,-28.320,-25.391,0.000
1709374316.370,7.324,-35.645,-38.574,0.000,0.000
1709374316.374,-21.973,-34.668,-40.039,-22.461,0.000
1709374316.377,-56.641,-30.762,-36.133,-52.734,0.000
1709374316.381,-54.688,-32.227,-36.621,-58.594,0.000
1709374316.385,-24.414,-35.156,-38.086,-35.645,0.000
1709374316.389,18.066,-30.762,-35.645,9.277,0.000
1709374316.393,-6.836,-29.297,-31.738,-9.766,0.000
1709374316.397,-56.641,-32.227,-34.668,-54.688,0.000
1709374316.401,-62.500,-36.621,-34.668,-59.082,0.000
1709374316.405,-37.598,-37.598,-33.203,-36.621,0.000
1709374316.409,6.836,-40.527,-35.645,-5.371,0.000
1709374316.412,-6.836,-34.668,-34.668,-12.207,0.000
1709374316.416,-51.270,-30.762,-37.598,-40.527,0.000
1709374316.420,-60.547,-32.715,-35.645,-55.664,0.000
1709374316.424,-44.922,-36.133,-32.227,-54.199,0.000
1709374316.428,-6.836,-41.504,-35.645,-12.695,0.000
1709374316.432,-9.766,-36.133,-32.227,-4.883,0.000
1709374316.436,-54.199,-28.809,-27.832,-45.898,0.000
1709374316.440,-77.148,-27.832,-35.156,-57.617,0.000
1709374316.444,-61.035,-29.297,-34.668,-38.086,0.000
1709374316.448,-11.230,-38.574,-39.551,-7.812,0.000
1709374316.452,-7.324,-41.504,-42.969,-8.301,0.000
1709374316.456,-51.270,-37.109,-32.227,-37.109,0.000
1709374316.460,-61.035,-41.016,-29.785,-39.551,0.000
1709374316.463,-43.457,-41.992,-40.039,-39.551,0.000
1709374316.467,-3.906,-36.621,-40.527,-10.254,0.000
1709374316.471,1.465,-35.156,-32.227,-3.418,0.000
1709374316.475,-47.852,-34.180,-31.738,-48.828,0.000
1709374316.479,-75.195,-36.133,-34.180,-63.965,0.000
1709374316.483,-62.012,-42.480,-32.227,-58.594,0.000
1709374316.487,-9.277,-45.898,-34.668,-26.367,0.000
1709374316.491,5.859,-40.039,-39.551,-5.859,0.000
1709374316.495,-52.246,-37.598,-40.527,-48.340,0.000
1709374316.499,-79.590,-38.574,-37.598,-72.754,0.000
1709374316.503,-63.965,-36.133,-35.156,-58.105,0.000
1709374316.507,-26.367,-37.598,-38.086,-28.809,0.000
1709374316.511,6.348,-39.062,-38.086,-6.836,0.000
1709374316.514,-27.344,-33.203,-27.832,-26.855,0.000
1709374316.518,-58.594,-36.621,-28.809,-45.898,0.000
1709374316.522,-48.828,-42.480,-35.156,-47.852,0.000
1709374316.526,-17.090,-37.109,-30.273,-23.926,0.000
1709374316.530,9.277,-36.621,-30.273,4.883,0.000
1709374316.534,-30.273,-44.434,-33.203,-24.902,0.000
1709374316.538,-66.406,-47.363,-33.691,-57.617,0.000
1709374316.542,-59.570,-40.527,-32.715,-61.035,0.000
1709374316.546,-31.250,-39.551,-30.273,-34.180,0.000
1709374316.550,6.836,-43.945,-30.273,8.789,0.000
1709374316.554,-16.113,-43.945,-29.297,-12.695,0.000
1709374316.558,-64.941,-41.504,-29.297,-57.129,0.000
1709374316.561,-71.777,-37.109,-32.227,-62.988,0.000
1709374316.565,-37.109,-40.527,-33.691,-41.016,0.000
1709374316.569,8.789,-42.480,-40.527,0.000,0.000
1709374316.573,-4.883,-37.109,-36.133,-6.836,0.000
1709374316.577,-48.828,-31.250,-28.320,-41.504,0.000
1709374316.581,-63.965,-33.203,-32.715,-48.828,0.000
1709374316.585,-39.062,-35.645,-37.109,-30.273,0.000
1709374316.589,4.395,-37.598,-40.039,3.418,0.000
1709374316.593,-5.371,-41.016,-41.016,-0.488,0.000
1709374316.597,-48.828,-39.062,-39.551,-37.598,0.000
1709374316.600,-65.918,-41.992,-39.062,-49.805,0.000
1709374316.604,-41.504,-41.992,-43.457,-42.480,0.000
1709374316.608,11.719,-32.227,-48.828,-7.324,0.000
1709374316.612,0.000,-36.133,0.000,0.000,0.000
1709374316.616,0.000,-41.504,0.000,0.000,0.000
1709374316.620,0.000,-34.668,0.000,0.000,0.000
1709374316.624,0.000,-33.691,0.000,0.000,0.000
1709374316.628,0.000,-37.109,0.000,0.000,0.000
1709374316.632,0.000,-37.109,0.000,0.000,0.000
1709374316.636,0.000,-33.203,0.000,0.000,0.000
1709374316.640,0.000,-30.762,0.000,0.000,0.000
1709374316.644,0.000,-32.227,0.000,0.000,0.000
1709374316.647,0.000,-32.227,0.000,0.000,0.000
1709374316.651,0.000,-39.062,0.000,0.000,0.000
1709374316.655,0.000,-38.086,0.000,0.000,0.000
1709374316.659,-63.477,-30.273,-37.598,-71.289,0.000
1709374316.663,-53.711,-30.273,-42.480,-66.406,0.000
1709374316.667,-15.625,-32.715,-41.992,-34.668,0.000
1709374316.671,6.836,-36.133,-38.574,-13.184,0.000
1709374316.675,-33.203,-41.016,-36.621,-45.898,0.000
1709374316.679,-71.777,-41.016,-33.691,-64.453,0.000
1709374316.682,-79.590,-37.598,-33.203,-56.641,0.000
1709374316.686,-44.434,-41.992,-38.574,-29.785,0.000
1709374316.690,-8.301,-45.410,-38.086,-2.930,0.000
1709374316.694,-43.945,-41.016,-33.203,-30.273,0.000
1709374316.698,-71.289,-36.133,-25.391,-59.082,0.000
1709374316.702,-61.523,-35.645,-26.855,-56.641,0.000
1709374316.706,-29.785,-34.668,-31.250,-34.668,0.000
1709374316.710,2.930,-33.691,-30.762,2.930,0.000
1709374316.713,-24.902,-35.156,-32.715,-11.230,0.000
1709374316.717,-63.965,-36.621,-34.180,-51.270,0.000
1709374316.721,-65.918,-38.574,-36.133,-58.105,0.000
1709374316.725,-34.180,-43.945,-35.156,-29.785,0.000
1709374316.729,9.766,-41.016,-32.715,10.742,0.000
1709374316.733,-16.602,-37.598,-38.086,-13.184,0.000
1709374316.737,-59.570,-43.945,-40.039,-48.828,0.000
1709374316.741,-60.547,-47.363,-38.086,-50.781,0.000
1709374316.745,-40.527,-43.945,-37.598,-41.016,0.000
1709374316.749,2.441,-40.527,-40.039,-9.766,0.000
1709374316.752,-3.418,-36.621,-36.621,-15.625,0.000
1709374316.756,-54.199,-37.109,-39.062,-54.688,0.000
1709374316.760,-69.336,-40.039,-48.340,-61.035,0.000
1709374316.764,-50.781,-41.016,-47.363,-44.434,0.000
1709374316.768,-11.719,-37.598,-47.363,-6.348,0.000
1709374316.772,-12.695,-37.109,-41.016,-0.488,0.000
1709374316.776,-63.477,-42.969,-39.551,-43.945,0.000
1709374316.780,-83.496,-40.527,-44.922,-62.500,0.000
1709374316.784,-64.453,-34.180,-43.457,-47.852,0.000
1709374316.787,-16.602,-33.203,-38.086,-8.789,0.000
1709374316.791,-10.254,-34.180,-36.133,-6.836,0.000
1709374316.795,-59.570,-37.598,-45.898,-50.293,0.000
1709374316.799,-71.289,-38.574,-46.875,-68.848,0.000
1709374316.803,-53.711,-35.156,-43.457,-58.594,0.000
1709374316.807,-16.602,-37.598,-48.828,-28.320,0.000
1709374316.811,3.418,-41.992,-47.852,-20.996,0.000
1709374316.815,-40.527,-44.434,-43.945,-48.828,0.000
1709374316.819,-62.012,-40.527,-40.527,-62.012,0.000
1709374316.823,-49.805,-39.062,-39.062,-61.035,0.000
1709374316.827,-9.277,-46.875,-41.016,-30.273,0.000
1709374316.831,8.301,-45.410,-39.062,-8.789,0.000
1709374316.835,-37.598,-35.645,-33.691,-33.691,0.000
1709374316.839,-72.754,-36.133,-38.086,-59.082,0.000
1709374316.842,-66.406,-46.875,-44.922,-67.383,0.000
1709374316.847,-20.508,-45.410,-44.434,-31.738,0.000
1709374316.850,16.113,-34.180,-44.434,3.418,0.000
1709374316.854,-10.742,-32.715,-40.527,-23.926,0.000
1709374316.858,-50.293,-41.016,-35.645,-46.387,0.000
1709374316.862,-54.199,-41.016,-34.180,-45.410,0.000
1709374316.866,-10.254,-34.668,-32.227,-18.066,0.000
1709374316.870,26.367,-34.668,-35.156,13.672,0.000
1709374316.874,-15.625,-38.086,-32.227,-17.090,0.000
1709374316.878,-54.688,-37.109,-29.297,-45.898,0.000
1709374316.882,-52.246,-36.621,-34.180,-49.805,0.000
1709374316.886,-25.879,-45.410,-37.109,-38.574,0.000
1709374316.890,8.789,-41.016,-35.645,-10.254,0.000
1709374316.894,-14.648,-27.832,-35.645,-23.438,0.000
1709374316.897,-59.570,-29.297,-36.621,-50.781,0.000
1709374316.901,-62.988,-30.273,-38.574,-56.152,0.000
1709374316.905,-30.273,-30.762,-41.504,-39.062,0.000
1709374316.909,19.043,-29.297,-38.574,-0.977,0.000
1709374316.913,-3.418,-26.855,-35.645,-8.301,0.000
1709374316.917,-59.570,-33.203,-40.039,-49.316,0.000
1709374316.921,-63.965,-41.504,-41.016,-60.059,0.000
1709374316.925,-43.457,-35.645,-37.109,-31.738,0.000
1709374316.929,-0.977,-31.250,-39.551,-0.977,0.000
1709374316.933,-14.160,-33.691,-40.527,-18.066,0.000
1709374316.936,-66.406,-39.062,-36.621,-56.641,0.000
1709374316.940,-80.078,-46.875,-39.551,0.000,0.000
1709374316.944,-58.105,-45.410,-41.504,0.000,0.000
1709374316.948,-0.977,-36.621,-37.598,0.000,0.000
1709374316.952,-0.488,-37.109,-35.156,0.000,0.000
1709374316.956,-53.711,-35.156,-31.738,0.000,0.000
1709374316.960,-75.684,-33.691,-30.273,0.000,0.000
1709374316.964,-62.500,-38.574,-36.133,0.000,0.000
1709374316.968,-12.207,-38.574,-42.480,0.000,0.000
1709374316.972,-2.441,-39.062,-48.828,0.000,0.000
1709374316.976,-48.828,-40.039,-53.223,0.000,0.000
1709374316.980,-68.848,-36.621,-47.363,0.000,0.000
1709374316.983,-57.617,-36.133,-41.504,0.000,0.000
1709374316.987,-12.695,-39.551,-40.039,-24.414,0.000
1709374316.991,6.348,-39.062,-36.133,-6.836,0.000
1709374316.995,-41.992,-38.574,-32.227,-37.598,0.000
1709374316.999,-65.430,-37.109,-36.621,-61.035,0.000
1709374317.003,-52.246,-32.715,-35.645,-55.176,0.000
1709374317.007,-13.672,-32.715,-38.086,-18.066,0.000
1709374317.011,9.277,-33.203,-40.527,8.789,0.000
1709374317.015,-32.227,-35.645,-34.668,-15.137,0.000
1709374317.018,-68.359,-37.598,-33.203,-45.410,0.000
1709374317.022,-62.500,-34.180,-32.715,-49.805,0.000
1709374317.026,-25.879,-29.785,-34.668,-25.391,0.000
1709374317.030,6.348,-32.715,-34.180,-4.395,0.000
1709374317.034,-28.320,-42.480,-29.297,-36.133,0.000
1709374317.038,-63.965,-40.527,-24.902,-57.617,0.000
1709374317.042,-61.523,-38.086,-28.809,-53.223,0.000
1709374317.046,-27.832,-39.551,-37.109,-31.250,0.000
1709374317.050,10.742,-39.551,-35.156,6.348,0.000
1709374317.053,-20.996,-37.598,-30.273,-16.602,0.000
1709374317.057,-62.988,-36.133,-29.785,-43.457,0.000
1709374317.061,-64.941,-38.086,-35.156,-39.062,0.000
1709374317.065,-38.086,-37.598,-41.992,-27.832,0.000
1709374317.069,1.953,-36.621,-37.598,-6.836,0.000
1709374317.073,-17.578,-33.203,-30.273,-29.297,0.000
1709374317.077,-59.570,-32.227,-32.227,-62.012,0.000
1709374317.081,-68.359,-34.668,-37.109,-65.918,0.000
1709374317.084,-46.387,-29.297,-37.109,-43.457,0.000
1709374317.088,0.488,-26.855,-32.227,0.488,0.000
1709374317.092,-6.348,-25.879,-33.203,-6.348,0.000
1709374317.096,-57.129,-27.832,-39.551,-52.734,0.000
1709374317.100,-70.312,-35.156,-39.062,-68.848,0.000
1709374317.104,-35.645,-35.645,-34.180,-37.598,0.000
1709374317.108,12.695,-29.785,-33.691,-1.465,0.000
1709374317.112,7.812,-27.832,-32.227,-6.348,0.000
1709374317.116,-41.016,-30.762,-30.273,-40.527,0.000
1709374317.120,-54.688,-26.855,-31.250,-59.570,0.000
1709374317.124,-35.156,-32.715,-38.086,-52.734,0.000
1709374317.127,1.953,-36.621,-47.852,-17.578,0.000
1709374317.131,5.371,-30.762,-46.387,-19.043,0.000
1709374317.135,-45.410,-38.086,-40.039,-63.965,0.000
1709374317.139,-67.871,-40.039,-43.457,-77.637,0.000
1709374317.143,-46.387,-34.180,-41.992,-63.965,0.000
1709374317.147,0.000,-37.598,-35.645,-17.090,0.000
1709374317.151,3.418,-41.992,-38.086,-5.371,0.000
1709374317.154,-45.898,-32.227,-38.574,-44.434,0.000
1709374317.158,-65.430,-27.344,-35.156,-55.664,0.000
1709374317.162,-52.246,-25.391,-32.227,-37.109,0.000
1709374317.166,-13.672,-25.879,-32.227,-3.418,0.000
1709374317.170,4.883,-33.203,-34.180,8.301,0.000
1709374317.174,-43.457,-33.691,-35.645,-27.832,0.000
1709374317.178,-81.055,-36.133,-36.621,-60.059,0.000
1709374317.182,-67.871,-37.109,-36.621,-57.617,0.000
1709374317.186,-23.438,-36.621,-41.016,-26.367,0.000
1709374317.190,-1.465,-42.969,-45.898,-5.371,0.000
1709374317.194,-44.922,-43.945,-42.969,-32.715,0.000
1709374317.198,-72.754,-36.133,-40.527,-62.500,0.000
1709374317.202,-60.547,-32.227,-37.598,-60.547,0.000
1709374317.206,-17.578,-32.715,-32.227,-23.926,0.000
1709374317.209,20.508,-36.133,-27.344,11.230,0.000
1709374317.213,-16.113,-38.574,-29.297,-22.461,0.000
1709374317.217,-50.293,-33.691,-30.762,-57.129,0.000
1709374317.221,-50.781,-36.621,-27.344,-50.781,0.000
1709374317.225,-32.227,-42.969,-28.320,-31.738,0.000
1709374317.229,1.953,-42.969,-27.344,-5.371,0.000
1709374317.233,-20.020,-41.504,-29.785,-23.438,0.000
1709374317.237,-61.523,-42.969,-29.297,-58.105,0.000
1709374317.241,-62.012,-42.480,-27.344,-56.641,0.000
1709374317.245,-32.715,-39.062,-32.715,-39.551,0.000
1709374317.249,8.789,-34.180,-34.668,-6.348,0.000
1709374317.253,-14.648,-33.691,-34.180,-12.695,0.000
1709374317.256,-66.895,-37.598,-32.227,-49.316,0.000
1709374317.260,-74.219,-36.133,-37.598,-66.406,0.000
1709374317.264,-52.246,-41.992,-42.480,-55.176,0.000
1709374317.268,-7.812,-43.457,-40.527,-11.230,0.000
1709374317.272,-13.672,-34.180,-40.039,-12.695,0.000
1709374317.276,-67.871,-36.133,-37.109,-53.711,0.000
1709374317.280,-82.031,-35.645,-37.109,-65.430,0.000
1709374317.284,-60.547,-31.250,-41.016,-53.711,0.000
1709374317.288,-11.719,-34.668,-41.992,-21.973,0.000
1709374317.292,-4.883,-40.527,-43.945,-22.949,0.000
1709374317.296,-56.152,-43.945,-44.922,-57.129,0.000
1709374317.300,-74.707,-38.574,-41.504,-57.617,0.000
1709374317.303,-49.316,-35.645,-37.109,-49.316,0.000
1709374317.307,-1.465,-39.551,-41.016,-16.602,0.000
1709374317.311,0.000,-36.621,-40.039,-4.883,0.000
1709374317.315,-51.758,-37.109,-31.250,-41.016,0.000
1709374317.319,-75.195,-43.457,-29.785,-52.246,0.000
1709374317.323,-62.500,-40.039,-35.645,-48.828,0.000
1709374317.327,-24.414,-36.133,-39.062,-22.949,0.000
1709374317.331,-0.977,-38.574,-35.156,-4.883,0.000
1709374317.335,-40.527,-40.527,-34.180,-39.062,0.000
1709374317.339,-67.871,-42.969,-33.691,-59.082,0.000
1709374317.342,-54.199,-40.039,-32.715,-53.223,0.000
1709374317.346,-12.207,-30.273,-42.480,-21.973,0.000
1709374317.350,11.230,-31.738,-42.969,-2.441,0.000
1709374317.354,-28.809,-30.273,-38.086,-36.621,0.000
1709374317.358,-58.105,-26.855,-38.574,-65.918,0.000
1709374317.362,-53.711,-26.855,-38.574,-58.594,0.000
1709374317.366,-12.695,-28.320,-39.551,-24.414,0.000
1709374317.370,26.367,-32.227,-41.016,2.930,0.000
1709374317.374,-16.602,-33.691,-40.527,-27.832,0.000
1709374317.378,-60.547,-35.645,-35.645,-57.129,0.000
1709374317.382,-60.059,-37.598,-35.156,-57.617,0.000
1709374317.385,-30.273,-37.598,-37.598,-31.250,0.000
1709374317.389,4.395,-41.016,-38.574,4.883,0.000
1709374317.393,-24.902,-37.109,-33.691,-25.879,0.000
1709374317.397,-66.895,-34.180,-30.273,-62.988,0.000
1709374317.401,-76.660,-41.992,-34.668,-63.477,0.000
1709374317.405,-42.969,-40.039,-37.598,-42.480,0.000
1709374317.409,0.488,-41.992,-38.086,-12.695,0.000
1709374317.413,-22.461,-41.504,-37.109,-23.926,0.000
1709374317.417,-61.523,-39.062,-33.203,-51.270,0.000
1709374317.420,-63.477,-37.598,-35.645,-55.176,0.000
1709374317.424,-38.086,-30.273,-39.551,-34.180,0.000
1709374317.428,10.742,-31.250,-39.062,-1.465,0.000
1709374317.432,0.000,-36.133,-40.039,-10.742,0.000
1709374317.436,-44.922,-39.551,-41.016,-46.875,0.000
1709374317.440,-51.270,-35.645,-37.598,-61.035,0.000
1709374317.444,-32.227,-33.691,-38.574,-45.410,0.000
1709374317.448,12.207,-31.250,-40.039,0.977,0.000
1709374317.452,4.883,-31.738,-37.598,3.418,0.000
1709374317.455,-55.176,-37.598,-39.551,-44.922,0.000
1709374317.459,-70.801,-37.109,-42.480,-73.242,0.000
1709374317.463,-48.828,-37.109,-40.527,-52.734,0.000
1709374317.467,-7.812,-38.086,-41.016,-16.113,0.000
1709374317.471,-0.488,-34.180,-42.480,-13.184,0.000
1709374317.475,-49.805,-31.738,-41.016,-44.434,0.000
1709374317.479,-75.195,-35.645,-38.574,-61.523,0.000
1709374317.483,-55.176,-36.621,-35.645,-50.293,0.000
1709374317.487,-5.371,-38.086,-37.109,-18.066,0.000
1709374317.490,10.742,-35.156,-37.598,-5.371,0.000
1709374317.494,-39.062,-28.809,-34.668,-33.203,0.000
1709374317.498,-72.754,-30.762,-36.133,-62.500,0.000
1709374317.502,-65.918,-39.551,-39.062,-55.176,0.000
1709374317.506,-15.137,-38.086,-33.203,-19.043,0.000
1709374317.510,6.348,-32.715,-32.715,-4.883,0.000
1709374317.514,-43.945,-36.133,-36.621,-46.875,0.000
1709374317.518,-74.707,-38.574,-40.039,-74.707,0.000
1709374317.521,-59.082,-36.621,-39.551,-64.941,0.000
1709374317.525,-6.836,-34.180,-30.762,-26.855,0.000
1709374317.529,30.273,-35.156,-29.785,-9.766,0.000
1709374317.533,-18.066,-37.109,-31.738,-43.945,0.000
1709374317.537,-57.129,-35.156,-27.832,-59.082,0.000
1709374317.541,-56.152,-32.715,-31.738,-58.105,0.000
1709374317.545,-27.832,-32.715,-33.691,-30.273,0.000
1709374317.549,13.672,-30.762,-29.785,8.301,0.000
1709374317.553,-20.020,-32.227,-33.203,-19.531,0.000
1709374317.557,-66.895,-32.227,-34.180,-59.082,0.000
1709374317.561,-64.453,-37.598,-30.762,-59.570,0.000
1709374317.565,-25.391,-42.969,-32.715,-26.367,0.000
1709374317.569,8.301,-37.109,-29.785,5.371,0.000
1709374317.573,-28.809,-34.668,-26.367,-21.973,0.000
1709374317.576,-65.918,-35.156,-29.297,-59.570,0.000
1709374317.580,-57.617,-31.738,-27.344,-56.641,0.000
1709374317.584,-29.785,-27.832,-28.809,-26.367,0.000
1709374317.588,12.695,-24.414,-30.762,5.859,0.000
1709374317.592,-4.395,-30.762,-29.297,-8.301,0.000
1709374317.596,-53.223,-34.180,-34.180,-51.758,0.000
1709374317.600,-67.383,-32.227,-32.715,-66.406,0.000
1709374317.604,-49.805,-34.180,-34.180,-46.875,0.000
1709374317.608,-6.836,-36.621,-39.062,-13.184,0.000
1709374317.612,-19.531,-34.180,-40.039,-19.043,0.000
1709374317.616,-64.453,-31.738,-37.598,-58.594,0.000
1709374317.620,-81.055,-33.203,-38.086,-76.172,0.000
1709374317.623,-62.500,-37.598,-40.527,-60.547,0.000
1709374317.627,1.465,-37.598,-31.738,-7.324,0.000
1709374317.631,1.953,-42.969,-36.133,-7.324,0.000
1709374317.635,-53.223,-41.016,-41.504,-53.711,0.000
1709374317.639,-70.801,-33.691,-36.621,-64.453,0.000
1709374317.644,-59.082,-33.691,-36.133,-51.270,0.000
1709374317.647,-8.301,-30.273,-34.668,-15.137,0.000
1709374317.651,1.953,-34.668,-39.551,-11.230,0.000
1709374317.655,-47.852,-34.668,-36.621,-45.410,0.000
1709374317.659,-67.871,-26.855,-31.738,-59.570,0.000
1709374317.663,-55.664,-37.109,-37.598,-51.758,0.000
1709374317.667,-15.137,-43.945,-42.480,-25.391,0.000
1709374317.671,2.930,-35.156,-38.086,-13.672,0.000
1709374317.675,-46.387,-27.344,-32.715,-35.156,0.000
1709374317.679,-74.707,-34.180,-37.109,-63.477,0.000
1709374317.683,-56.641,-40.527,-41.504,-66.895,0.000
1709374317.687,-7.324,-38.574,-37.598,-30.762,0.000
1709374317.690,11.230,-41.016,-32.715,-1.953,0.000
1709374317.694,-36.133,-38.574,-33.203,-28.809,0.000
1709374317.698,-65.918,-36.133,-33.203,-59.570,0.000
1709374317.702,-50.293,-36.133,-31.250,-59.082,0.000
1709374317.706,-12.695,-37.109,-34.668,-25.879,0.000
1709374317.710,10.254,-39.062,-36.621,1.465,0.000
1709374317.714,-25.879,-38.086,-33.691,-23.926,0.000
1709374317.718,-61.035,-41.992,-34.180,-44.922,0.000
1709374317.722,-56.641,-42.480,-36.133,-38.086,0.000
1709374317.726,-26.367,-39.062,-38.574,-20.996,0.000
1709374317.729,7.324,-37.109,-41.992,5.859,0.000
1709374317.733,-18.555,-36.621,-39.062,-18.066,0.000
1709374317.737,-64.941,-29.297,-39.551,-58.594,0.000
1709374317.741,-63.477,-21.973,-39.062,-66.895,0.000
1709374317.745,-28.809,-30.273,-41.504,-46.875,0.000
1709374317.749,12.207,-34.668,-41.992,-9.766,0.000
1709374317.753,-7.324,-36.621,-37.109,-21.484,0.000
1709374317.757,-49.805,-37.598,-42.480,-59.082,0.000
1709374317.761,-48.340,-34.668,-36.133,-57.129,0.000
1709374317.765,-22.461,-38.574,-28.809,-20.996,0.000
1709374317.768,7.812,-42.969,-38.574,7.812,0.000
1709374317.772,-11.230,-42.480,-44.434,-14.160,0.000
1709374317.776,-50.293,-39.062,-35.156,-47.852,0.000
1709374317.780,-62.500,-40.527,-31.738,-58.594,0.000
1709374317.784,0.000,-43.945,-38.086,-41.016,0.000
1709374317.788,0.000,-38.086,-36.621,-0.977,0.000
1709374317.792,0.000,-38.086,-35.645,-9.766,0.000
1709374317.796,0.000,-42.480,-39.062,-43.945,0.000
1709374317.800,0.000,-40.039,-37.598,-50.293,0.000
1709374317.803,0.000,-36.133,-32.715,-36.133,0.000
1709374317.807,0.000,-33.691,-33.203,0.977,0.000
1709374317.811,0.000,-37.598,-38.574,4.395,0.000
1709374317.815,0.000,-37.109,-35.156,-33.691,0.000
1709374317.819,0.000,-37.598,-29.785,-49.316,0.000
1709374317.823,0.000,-42.969,-36.621,-42.969,0.000
1709374317.827,0.000,-38.574,-40.039,-5.859,0.000
1709374317.831,0.977,-38.574,-36.133,5.859,0.000
1709374317.835,-53.223,-45.410,-33.203,-39.551,0.000
1709374317.838,-75.684,-46.875,-36.133,-63.477,0.000
1709374317.842,-62.988,-43.457,-37.109,-55.176,0.000
1709374317.846,-22.461,-46.875,-34.668,-25.391,0.000
1709374317.850,-7.812,-41.504,-36.621,-13.672,0.000
1709374317.854,-63.477,-31.738,-39.551,-41.016,0.000
1709374317.858,-98.633,-35.156,-43.945,-68.359,0.000
1709374317.862,-81.543,-37.598,-40.039,-68.359,0.000
1709374317.866,-27.832,-35.156,-36.133,-31.250,0.000
1709374317.870,5.859,-34.180,-40.527,-5.859,0.000
1709374317.874,-37.109,-34.180,-41.016,-38.574,0.000
1709374317.878,-70.801,-33.691,-38.086,-66.895,0.000
1709374317.882,-56.152,-34.668,-38.574,-57.129,0.000
1709374317.886,-16.113,-35.156,-39.062,-24.414,0.000
1709374317.890,10.254,-37.109,-36.133,-0.488,0.000
1709374317.893,-27.344,-36.621,-34.668,-35.156,0.000
1709374317.897,-63.477,-36.133,-34.668,-56.641,0.000
1709374317.901,-57.617,-36.621,-41.504,-52.246,0.000
1709374317.905,-22.949,-38.574,-43.457,-31.250,0.000
1709374317.909,9.277,-40.039,-40.039,0.488,0.000
1709374317.913,-21.973,-34.180,-38.574,-19.043,0.000
1709374317.917,-66.406,-35.156,-39.551,-50.293,0.000
1709374317.921,-72.266,-40.527,-39.551,-57.617,0.000
1709374317.925,-43.945,-42.969,-38.086,-37.598,0.000
1709374317.929,6.836,-37.109,-36.621,4.883,0.000
1709374317.933,-9.766,-32.715,-36.133,-6.836,0.000
1709374317.937,-54.199,-28.320,-36.621,-53.223,0.000
1709374317.941,-58.594,-24.414,-35.156,-63.965,0.000
1709374317.945,-37.598,-29.785,-38.086,-41.992,0.000
1709374317.948,8.301,-34.180,-38.086,-2.930,0.000
1709374317.952,-3.906,-30.273,-35.156,-7.812,0.000
1709374317.956,-51.270,-29.785,-36.133,-46.387,0.000
1709374317.960,-60.547,-29.297,-34.668,-58.105,0.000
1709374317.964,-45.898,-36.133,-32.715,-53.223,0.000
1709374317.968,-8.789,-47.852,-36.133,-23.926,0.000
1709374317.972,-3.906,-45.898,-34.668,-17.578,0.000
1709374317.976,-56.152,-40.039,-33.203,-56.641,0.000
1709374317.980,-86.914,-45.898,-41.016,-81.055,0.000
1709374317.984,-69.824,-42.969,-44.434,-75.684,0.000
1709374317.988,-15.137,-35.645,-37.598,-30.273,0.000
1709374317.992,-5.859,-34.180,-36.621,-9.277,0.000
1709374317.995,-52.246,-31.250,-39.062,-45.410,0.000
1709374317.999,-71.777,-27.344,-34.180,-63.965,0.000
1709374318.003,-53.711,-29.297,-32.715,-47.852,0.000
1709374318.007,-10.742,-38.574,-37.598,-11.230,0.000
1709374318.011,-1.953,-40.527,-38.574,-4.395,0.000
1709374318.015,-47.363,-39.062,-41.504,-49.805,0.000
1709374318.019,-82.520,-43.457,-42.480,-71.289,0.000
1709374318.023,-79.590,-43.945,-40.527,-67.871,0.000
1709374318.027,-29.297,-43.457,-42.969,-31.738,0.000
1709374318.031,-2.441,-50.293,-41.016,0.488,0.000
1709374318.035,-45.898,-45.898,-36.621,-31.250,0.000
1709374318.038,-75.195,-35.645,-35.645,-59.082,0.000
1709374318.042,-63.965,-32.715,-36.621,-59.570,0.000
1709374318.046,-22.461,-39.062,-38.086,-28.809,0.000
1709374318.050,1.465,-39.062,-36.621,8.789,0.000
1709374318.054,-33.203,-38.086,-37.109,-28.320,0.000
1709374318.058,-59.082,-41.016,-39.551,-68.359,0.000
1709374318.062,-63.477,-41.992,-36.133,-65.430,0.000
1709374318.066,-32.715,-40.527,-35.156,-39.062,0.000
1709374318.070,6.836,-36.133,-36.133,-7.812,0.000
1709374318.074,-22.461,-38.086,-35.645,-32.227,0.000
1709374318.078,-64.941,-38.574,-37.109,-70.312,0.000
1709374318.081,-66.895,-39.062,-38.574,-71.289,0.000
1709374318.085,-29.297,-35.645,-34.180,-37.598,0.000
1709374318.089,13.672,-29.297,-32.715,-2.441,0.000
1709374318.093,-14.648,-30.762,-33.203,-23.926,0.000
1709374318.097,-51.758,-26.855,-31.738,-52.246,0.000
1709374318.101,-50.781,-30.762,-30.762,-57.129,0.000
1709374318.105,-30.273,-40.527,-27.344,-36.133,0.000
1709374318.109,10.254,-27.832,-28.809,-1.953,0.000
1709374318.113,-6.348,-17.578,-32.227,-16.113,0.000
1709374318.116,-58.105,-24.902,-31.250,-59.570,0.000
1709374318.120,-73.730,-29.785,-34.180,-69.336,0.000
1709374318.124,-53.223,-29.297,-41.016,-51.758,0.000
1709374318.128,-9.766,-34.180,-41.992,-21.973,0.000
1709374318.132,-17.090,-39.551,-41.016,-26.367,0.000
1709374318.136,-61.035,-38.086,-37.598,-54.688,0.000
1709374318.140,-73.730,-35.645,-36.133,-56.641,0.000
1709374318.144,-53.711,-38.574,-39.551,-51.270,0.000
1709374318.148,0.488,-35.156,-37.598,-11.230,0.000
1709374318.152,2.441,-31.250,-34.668,-2.441,0.000
1709374318.156,-58.105,-41.504,-38.086,-45.898,0.000
1709374318.159,-74.707,-42.969,-35.156,-61.035,0.000
1709374318.163,-54.199,-39.062,-35.156,-51.758,0.000
1709374318.167,-7.812,-46.875,-41.016,-18.555,0.000
1709374318.171,7.324,-48.828,-42.480,-3.906,0.000
1709374318.175,-45.410,-43.945,-40.039,-41.992,0.000
1709374318.179,-75.684,-38.574,-32.715,-61.523,0.000
1709374318.183,-62.988,-37.598,-31.738,-49.805,0.000
1709374318.187,-14.160,-41.504,-40.039,-17.578,0.000
1709374318.191,8.789,-37.598,-41.992,-7.324,0.000
1709374318.194,-35.156,-33.691,-36.621,-33.691,0.000
1709374318.198,-61.035,-30.273,-30.762,-48.828,0.000
1709374318.202,-53.711,-34.180,-38.086,-49.316,0.000
1709374318.206,-3.906,-39.062,-41.016,-23.926,0.000
1709374318.210,19.531,-35.156,-36.621,-2.930,0.000
1709374318.214,-34.180,-30.762,-36.621,-35.156,0.000
1709374318.218,-69.336,-32.715,-41.504,-67.871,0.000
1709374318.222,-69.336,-37.109,-43.457,-67.871,0.000
1709374318.225,-36.133,-36.133,-44.922,-36.133,0.000
1709374318.229,0.488,-35.645,-44.434,-8.301,0.000
1709374318.233,-33.203,-39.062,-40.527,-40.039,0.000
1709374318.237,-69.824,-35.645,-41.504,-72.266,0.000
1709374318.241,-62.500,-35.645,-41.992,-73.242,0.000
1709374318.245,-32.715,-41.016,-42.480,-44.922,0.000
1709374318.249,3.418,-44.434,-44.922,-8.301,0.000
1709374318.253,-18.066,-42.480,-45.410,-32.227,0.000
1709374318.257,-58.594,-42.480,-41.992,-62.500,0.000
1709374318.261,-55.176,-35.645,-39.062,-62.012,0.000
1709374318.265,-29.785,-38.086,-43.457,-45.898,0.000
1709374318.269,-2.441,-48.340,-42.969,-7.324,0.000
1709374318.273,-19.043,-42.969,-32.227,-13.672,0.000
1709374318.277,-58.105,-41.016,-30.273,-49.316,0.000
1709374318.280,-67.871,-41.992,-35.645,-68.359,0.000
1709374318.284,-40.039,-38.086,-32.227,-52.246,0.000
1709374318.288,3.906,-39.551,-33.203,-6.836,0.000
1709374318.292,-15.137,-40.527,-39.062,-20.996,0.000
1709374318.296,-66.406,-36.621,-40.039,-66.406,0.000
1709374318.300,0.000,-35.645,-39.551,-74.707,0.000
1709374318.304,0.000,-36.621,-37.109,-51.270,0.000
1709374318.308,0.000,-36.133,-37.598,-11.719,0.000
1709374318.312,0.000,-34.180,-37.598,-8.789,0.000
1709374318.316,0.000,-38.086,-33.203,-43.457,0.000
1709374318.320,0.000,-41.504,-31.250,-62.012,0.000
1709374318.324,0.000,-39.551,-35.156,-50.293,0.000
1709374318.328,0.000,-36.133,-33.203,-7.324,0.000
1709374318.332,0.000,-34.668,-28.809,4.395,0.000
1709374318.335,0.000,-31.738,-32.715,-32.715,0.000
1709374318.339,0.000,-22.949,-29.297,-54.688,0.000
1709374318.343,0.000,-21.484,-26.855,-50.293,0.000
1709374318.347,-8.789,-26.367,-30.762,-18.555,0.000
1709374318.351,3.906,-28.809,-33.203,0.000,0.000
1709374318.355,-36.133,-31.250,-29.297,-31.250,0.000
1709374318.359,-63.477,-36.133,-28.809,-55.664,0.000
1709374318.363,-53.223,-33.203,-30.273,-56.641,0.000
1709374318.367,-3.906,-33.203,-30.273,-19.043,0.000
1709374318.371,19.531,-38.574,-35.645,2.441,0.000
1709374318.375,-22.461,-35.156,-34.180,-29.297,0.000
1709374318.379,-55.176,-34.668,-25.391,-43.945,0.000
1709374318.382,-49.805,-37.109,-29.297,-41.504,0.000
1709374318.386,-19.531,-34.668,-36.133,-21.484,0.000
1709374318.390,0.488,-37.109,-31.738,1.953,0.000
1709374318.394,-41.504,-35.645,-29.297,-30.273,0.000
1709374318.398,-73.730,-31.738,-32.227,-54.199,0.000
1709374318.402,-74.219,-33.203,-35.645,-58.105,0.000
1709374318.406,-32.715,-36.621,-31.738,-27.344,0.000
1709374318.410,10.254,-34.668,-32.227,4.395,0.000
1709374318.414,-22.461,-31.738,-34.668,-27.344,0.000
1709374318.418,-58.105,-31.738,-37.109,-63.477,0.000
1709374318.422,-52.246,-31.738,-34.668,-62.012,0.000
1709374318.425,-22.949,-32.715,-34.668,-27.832,0.000
1709374318.429,17.090,-37.109,-41.016,-1.953,0.000
1709374318.433,-10.742,-34.180,-37.598,-24.902,0.000
1709374318.437,-60.547,-35.645,-32.227,-52.246,0.000
1709374318.441,-72.754,-40.039,-35.156,-56.152,0.000
1709374318.445,-43.457,-33.203,-34.180,-39.551,0.000
1709374318.449,3.418,-35.645,-32.227,-4.883,0.000
1709374318.453,-19.043,-37.598,-29.785,-15.137,0.000
1709374318.457,-68.848,-32.715,-24.414,-53.223,0.000
1709374318.461,-81.543,-36.133,-28.320,-68.848,0.000
1709374318.464,-58.594,-36.133,-31.738,-54.199,0.000
1709374318.468,-8.789,-39.062,-31.250,-13.672,0.000
1709374318.472,-14.160,-42.969,-30.762,-15.625,0.000
1709374318.476,-62.988,-38.086,-30.762,-65.430,0.000
1709374318.480,-70.801,-41.016,-31.738,-79.102,0.000
1709374318.484,-47.363,-49.805,-29.297,-58.594,0.000
