timestamps,TP9,AF7,AF8,TP10,Right AUX
1709374399.668,8.789,-36.621,-38.086,-3.906,0.000
1709374399.672,-20.020,-37.109,-39.062,-25.879,0.000
1709374399.676,-66.406,-38.086,-42.480,-54.199,0.000
1709374399.680,-64.941,-36.621,-41.504,-56.641,0.000
1709374399.684,-29.785,-36.133,-42.969,-43.457,0.000
1709374399.688,6.836,-39.551,-41.504,-15.137,0.000
1709374399.692,-18.066,-37.598,-39.551,-23.926,0.000
1709374399.696,-60.547,-35.645,-45.898,-45.410,0.000
1709374399.700,-62.012,-33.691,-46.387,-53.223,0.000
1709374399.704,-34.180,-32.715,-41.016,-41.504,0.000
1709374399.707,12.207,-30.762,-42.480,4.395,0.000
1709374399.711,-1.465,-29.297,-41.992,1.465,0.000
1709374399.715,0.000,-29.785,-40.039,-40.039,0.000
1709374399.719,0.000,-26.367,-35.645,-42.969,0.000
1709374399.723,0.000,-31.738,-36.621,-28.809,0.000
1709374399.727,0.000,-37.109,-40.039,-5.371,0.000
1709374399.731,0.000,-35.645,-37.109,-7.812,0.000
1709374399.735,0.000,-32.715,-37.109,-44.434,0.000
1709374399.739,0.000,-34.180,-35.645,-46.875,0.000
1709374399.742,0.000,-31.738,-32.715,-29.297,0.000
1709374399.746,0.000,-33.203,-34.668,-8.301,0.000
1709374399.750,0.000,-39.062,-36.621,-10.742,0.000
1709374399.754,0.000,-36.621,-32.715,-43.945,0.000
1709374399.758,0.000,-36.133,-33.203,-52.246,0.000
1709374399.762,-52.734,-39.551,-38.086,-47.852,0.000
1709374399.766,-16.113,-45.898,-41.504,-18.066,0.000
1709374399.769,-6.348,-49.805,-41.992,-5.859,0.000
1709374399.773,-45.410,-41.504,-35.156,-41.992,0.000
1709374399.777,-66.406,-36.133,-34.180,-58.594,0.000
1709374399.781,-61.523,-37.109,-38.086,-50.781,0.000
1709374399.785,-27.832,-37.598,-39.062,-9.766,0.000
1709374399.789,-8.301,-41.016,-40.527,11.230,0.000
1709374399.793,-43.945,-36.133,-40.039,-23.926,0.000
1709374399.797,-65.918,-34.180,-41.016,-44.434,0.000
1709374399.801,-54.688,-33.691,-39.551,-45.898,0.000
1709374399.805,-20.508,-37.598,-39.551,-21.973,0.000
1709374399.808,7.324,-39.062,-43.945,4.395,0.000
1709374399.812,-27.344,-37.109,-42.969,-24.902,0.000
1709374399.816,-59.082,-35.645,-38.574,-53.223,0.000
1709374399.820,-55.176,-35.645,-38.574,-55.176,0.000
1709374399.824,-14.160,-35.645,-38.086,-24.902,0.000
1709374399.828,22.949,-35.645,-37.598,14.648,0.000
1709374399.831,-9.766,-35.156,-36.133,-5.859,0.000
1709374399.835,-44.434,-30.273,-34.180,-32.227,0.000
1709374399.839,-55.176,-34.668,-35.156,-40.039,0.000
1709374399.843,-31.250,-37.109,-32.227,-17.578,0.000
1709374399.847,2.930,-35.156,-33.691,5.859,0.000
1709374399.851,-26.367,-33.691,-33.691,-26.367,0.000
1709374399.855,-57.617,-32.715,-27.832,-52.734,0.000
1709374399.859,-70.801,-35.645,-26.855,-60.547,0.000
1709374399.863,-53.223,-39.062,-30.273,-50.293,0.000
1709374399.867,-6.836,-41.504,-34.180,-23.438,0.000
1709374399.871,-27.344,-42.969,-33.691,-37.598,0.000
1709374399.875,-72.266,-41.016,-37.109,-70.312,0.000
1709374399.879,-78.125,-38.574,-41.016,-77.148,0.000
1709374399.883,-54.688,-46.387,-46.875,-61.523,0.000
1709374399.887,-14.648,-44.922,-45.410,-22.461,0.000
1709374399.890,-22.461,-38.086,-39.062,-24.414,0.000
1709374399.894,-63.477,-34.668,-38.574,-52.734,0.000
1709374399.898,-69.336,-35.645,-34.180,-57.617,0.000
1709374399.902,-49.805,-42.969,-34.180,-48.828,0.000
1709374399.906,-15.137,-40.527,-36.133,-10.742,0.000
1709374399.910,-20.996,-41.016,-38.086,-14.160,0.000
1709374399.914,-65.918,-45.898,-38.574,-56.152,0.000
1709374399.918,-78.613,-46.875,-37.109,-67.871,0.000
1709374399.922,-64.941,-45.898,-39.551,-59.082,0.000
1709374399.926,-21.973,-41.504,-39.551,-22.461,0.000
1709374399.930,-12.207,-43.945,-39.551,-15.137,0.000
1709374399.934,-53.711,-43.945,-32.715,-44.434,0.000
1709374399.938,-72.754,-41.016,-33.203,-57.129,0.000
1709374399.941,-63.477,-41.504,-38.574,-53.711,0.000
1709374399.945,-17.578,-42.480,-38.574,-18.555,0.000
1709374399.949,3.906,-40.039,-35.645,2.930,0.000
1709374399.953,-38.574,-38.086,-33.203,-36.133,0.000
1709374399.957,-66.406,-35.156,-37.109,-66.406,0.000
1709374399.961,-57.617,-28.809,-38.086,-57.129,0.000
1709374399.965,-15.137,-33.691,-40.039,-23.438,0.000
1709374399.969,0.488,-42.480,-46.875,-15.625,0.000
1709374399.973,-44.922,-39.551,-47.363,-51.758,0.000
1709374399.977,-78.613,-37.109,-47.852,-69.824,0.000
1709374399.981,-72.754,-45.410,-47.363,-64.453,0.000
1709374399.984,-37.598,-51.270,-50.293,-44.922,0.000
1709374399.988,-11.719,-46.387,-50.293,-27.344,0.000
1709374399.992,-39.062,-38.574,-39.062,-45.898,0.000
1709374399.996,-72.266,-35.156,-36.133,-62.500,0.000
1709374400.000,-72.266,-41.016,-39.062,-67.383,0.000
1709374400.004,-36.621,-43.945,-41.992,-45.410,0.000
1709374400.008,-7.812,-42.480,-41.504,-13.672,0.000
1709374400.012,-37.109,-41.504,-34.180,-33.203,0.000
1709374400.016,-68.359,-45.898,-28.320,-61.523,0.000
1709374400.020,-70.312,-45.410,-28.809,-66.895,0.000
1709374400.024,-34.668,-31.738,-25.879,-34.668,0.000
1709374400.027,-4.395,-35.156,-33.203,-8.789,0.000
1709374400.031,-41.992,-44.434,-38.086,-40.039,0.000
1709374400.035,-76.172,-39.062,-32.715,-63.965,0.000
1709374400.039,-67.383,-38.574,-32.715,-60.547,0.000
1709374400.043,-39.062,-43.457,-36.133,-41.016,0.000
1709374400.047,-1.465,-45.898,-37.598,-7.324,0.000
1709374400.051,-26.367,-47.852,-35.645,-20.020,0.000
1709374400.055,-70.801,-45.410,-33.691,-52.734,0.000
1709374400.059,-72.266,-43.457,-37.598,-60.547,0.000
1709374400.062,-47.363,-42.969,-38.086,-46.387,0.000
1709374400.066,0.488,-35.156,-39.551,-7.324,0.000
1709374400.070,-5.859,-33.203,-44.434,-7.812,0.000
1709374400.074,-46.875,-35.645,-40.039,-46.387,0.000
1709374400.078,-60.547,-36.133,-41.992,-59.570,0.000
1709374400.082,-46.875,-38.574,-44.922,-45.410,0.000
1709374400.086,-0.488,-31.738,-44.434,-10.742,0.000
1709374400.090,-0.977,-31.250,-45.410,-11.230,0.000
1709374400.094,-44.434,-32.715,-41.016,-41.992,0.000
1709374400.097,-55.176,-32.715,-39.551,-50.781,0.000
1709374400.101,-38.574,-35.156,-39.062,-36.621,0.000
1709374400.105,0.000,-40.039,-42.480,-1.953,0.000
1709374400.109,6.836,-43.457,-43.945,1.465,0.000
1709374400.113,-32.227,-37.598,-37.109,-26.855,0.000
1709374400.117,-58.105,-32.715,-29.297,-40.527,0.000
1709374400.121,-47.363,-37.109,-26.367,-44.434,0.000
1709374400.125,-6.348,-44.922,-33.203,-23.438,0.000
1709374400.129,1.465,-48.828,-38.574,-12.207,0.000
1709374400.133,-43.945,-42.969,-33.203,-42.480,0.000
1709374400.136,-65.430,-36.621,-32.227,-64.453,0.000
1709374400.140,-61.523,-36.621,-29.785,-56.641,0.000
1709374400.144,-27.832,-37.598,-30.273,-29.297,0.000
1709374400.148,0.977,-38.086,-31.738,-4.883,0.000
1709374400.152,-37.109,-37.109,-33.203,-27.344,0.000
1709374400.156,-71.289,-35.645,-32.227,-51.758,0.000
1709374400.160,-64.453,-33.203,-25.879,-36.621,0.000
1709374400.163,-33.203,-38.086,-34.180,-20.020,0.000
1709374400.167,-8.789,-42.969,-39.551,-11.719,0.000
1709374400.171,-39.062,-40.527,-36.621,-30.762,0.000
1709374400.175,-74.219,-40.039,-39.062,-54.199,0.000
1709374400.179,-77.637,-40.527,-38.574,-52.734,0.000
1709374400.183,-41.504,-38.086,-40.039,-27.832,0.000
1709374400.186,5.859,-33.691,-43.457,2.441,0.000
1709374400.190,-18.066,-32.715,-41.504,-19.043,0.000
1709374400.194,-61.523,-32.227,-43.457,-55.176,0.000
1709374400.198,-66.406,-30.273,-44.922,-57.617,0.000
1709374400.202,-46.387,-34.668,-43.945,-31.738,0.000
1709374400.206,-14.648,-38.574,-44.922,-4.395,0.000
1709374400.210,-28.809,-38.574,-40.527,-28.809,0.000
1709374400.214,-66.406,-39.551,-36.621,-55.664,0.000
1709374400.218,-70.801,-41.016,-37.109,-42.480,0.000
1709374400.222,-42.969,-38.574,-40.039,-21.973,0.000
1709374400.226,-3.418,-39.062,-41.504,-1.465,0.000
1709374400.230,0.000,-38.086,0.000,-9.277,0.000
1709374400.234,0.000,-34.668,0.000,-45.410,0.000
1709374400.238,0.000,-31.250,0.000,-58.594,0.000
1709374400.242,0.000,-27.344,0.000,-46.387,0.000
1709374400.245,0.000,-30.273,0.000,-6.836,0.000
1709374400.249,0.000,-32.227,0.000,-2.930,0.000
1709374400.253,0.000,-30.762,0.000,-43.457,0.000
1709374400.257,0.000,-33.691,0.000,-65.918,0.000
1709374400.261,0.000,-35.156,0.000,-57.617,0.000
1709374400.265,0.000,-35.156,0.000,-17.090,0.000
1709374400.269,0.000,-35.156,0.000,-18.555,0.000
1709374400.273,0.000,-31.738,0.000,-59.570,0.000
1709374400.277,-65.918,-28.809,-40.039,-70.312,0.000
1709374400.281,-53.223,-29.785,-37.109,-61.035,0.000
1709374400.285,-15.137,-33.203,-35.645,-29.297,0.000
1709374400.289,-3.418,-34.668,-28.320,-18.066,0.000
1709374400.293,-43.945,-35.156,-27.832,-48.828,0.000
1709374400.296,-65.430,-32.715,-36.621,-65.430,0.000
1709374400.300,-59.082,-32.227,-37.598,-62.012,0.000
1709374400.304,-24.414,-33.203,-38.574,-33.691,0.000
1709374400.308,-6.348,-31.250,-36.621,-8.789,0.000
1709374400.312,-54.199,-36.133,-38.086,-40.527,0.000
1709374400.316,-77.148,-38.574,-39.062,-66.895,0.000
1709374400.320,-62.500,-36.133,-34.668,-57.129,0.000
1709374400.324,-22.949,-39.551,-37.109,-30.762,0.000
1709374400.328,3.906,-45.410,-39.551,-9.277,0.000
1709374400.332,-28.809,-41.504,-34.180,-29.297,0.000
1709374400.336,-59.082,-34.668,-31.250,-51.758,0.000
1709374400.340,-61.035,-35.645,-32.227,-50.781,0.000
1709374400.343,-30.273,-36.133,-35.156,-23.438,0.000
1709374400.347,0.488,-35.156,-36.621,-2.441,0.000
1709374400.351,-30.762,-32.227,-38.086,-31.738,0.000
1709374400.355,-56.152,-37.598,-41.504,-52.734,0.000
1709374400.359,-53.223,-41.504,-39.062,-56.641,0.000
1709374400.363,-30.762,-35.156,-40.039,-43.945,0.000
1709374400.367,19.531,-29.785,-38.086,0.977,0.000
1709374400.371,0.488,-27.344,-36.621,-15.137,0.000
1709374400.375,-59.082,-19.043,-40.527,-62.012,0.000
1709374400.379,-74.707,-11.719,-40.039,-71.289,0.000
1709374400.383,-39.551,-6.836,-38.574,-49.805,0.000
1709374400.386,-0.488,-4.395,-43.945,-22.949,0.000
1709374400.390,-17.578,8.789,-46.875,-40.527,0.000
1709374400.394,-59.570,25.879,-52.734,-75.195,0.000
1709374400.398,-77.637,31.738,-57.129,-86.426,0.000
1709374400.402,-56.152,39.062,-55.176,-76.172,0.000
1709374400.406,-25.391,41.992,-56.641,-60.059,0.000
1709374400.410,-43.457,43.457,-54.688,-80.078,0.000
1709374400.414,-80.566,51.758,-58.594,-117.188,0.000
1709374400.418,-88.379,59.570,-62.500,-119.629,0.000
1709374400.422,-65.918,66.895,-61.035,-99.121,0.000
1709374400.425,-23.926,70.801,-62.012,-70.312,0.000
1709374400.429,-27.344,79.102,-68.359,-79.590,0.000
1709374400.433,-68.359,97.168,-73.730,-107.910,0.000
1709374400.437,-71.289,104.004,-74.707,-104.492,0.000
1709374400.441,-50.781,98.145,-78.613,-89.355,0.000
1709374400.445,-0.977,104.004,-78.125,-43.457,0.000
1709374400.449,12.207,112.793,-80.566,-37.598,0.000
1709374400.453,-29.785,114.746,-84.473,-69.824,0.000
1709374400.457,-31.250,116.211,-89.355,-62.500,0.000
1709374400.461,-5.859,117.188,-90.332,-43.457,0.000
1709374400.464,37.598,119.629,-86.426,-9.766,0.000
1709374400.468,62.988,120.117,-85.938,16.602,0.000
1709374400.472,44.434,118.652,-87.402,0.977,0.000
1709374400.476,30.762,114.746,-87.891,-22.461,0.000
1709374400.480,43.457,112.793,-89.844,-6.348,0.000
1709374400.484,99.609,119.629,-90.820,42.969,0.000
1709374400.488,121.582,119.629,-89.355,68.359,0.000
1709374400.492,72.266,116.699,-84.961,48.340,0.000
1709374400.496,35.156,110.352,-89.355,18.066,0.000
1709374400.499,43.457,100.586,-91.309,18.066,0.000
1709374400.503,85.938,93.750,-89.355,52.734,0.000
1709374400.507,121.582,91.797,-85.938,81.543,0.000
1709374400.511,88.867,91.797,-78.125,52.734,0.000
1709374400.515,47.852,85.938,-79.102,28.320,0.000
1709374400.519,51.758,87.402,-75.195,28.320,0.000
1709374400.523,81.543,88.379,-74.219,44.922,0.000
1709374400.526,113.770,81.055,-74.707,75.195,0.000
1709374400.530,74.707,75.195,-69.824,51.270,0.000
1709374400.534,23.926,62.012,-72.754,20.508,0.000
1709374400.538,11.719,50.293,-69.824,8.301,0.000
1709374400.542,40.039,41.016,-70.801,15.625,0.000
1709374400.546,84.961,32.715,-68.359,45.898,0.000
1709374400.550,56.152,28.320,-60.059,32.227,0.000
1709374400.554,4.395,27.832,-59.570,-4.883,0.000
1709374400.557,-2.441,25.391,-59.570,-10.254,0.000
1709374400.561,25.391,17.578,-57.129,11.230,0.000
1709374400.565,70.312,16.113,-55.176,41.504,0.000
1709374400.569,54.688,15.625,-58.105,30.762,0.000
1709374400.573,0.977,10.254,-61.523,-6.836,0.000
1709374400.577,-6.348,10.742,-59.570,-14.160,0.000
1709374400.581,13.672,4.883,-59.082,0.000,0.000
1709374400.585,43.457,-1.953,-62.988,25.391,0.000
1709374400.589,32.715,1.465,-60.547,16.113,0.000
1709374400.592,-15.625,0.000,-57.129,-18.555,0.000
1709374400.596,-31.738,-5.859,-60.547,-27.344,0.000
1709374400.600,-13.672,-6.348,-58.594,-20.996,0.000
1709374400.605,27.344,-7.812,-56.152,9.277,0.000
1709374400.609,21.973,-15.137,-52.734,11.719,0.000
1709374400.612,-27.344,-17.578,-54.688,-31.738,0.000
1709374400.616,-46.387,-13.184,-56.641,-49.316,0.000
1709374400.620,-24.902,-14.648,-51.270,-36.133,0.000
1709374400.624,20.508,-21.973,-52.734,-3.418,0.000
1709374400.628,18.555,-20.020,-50.293,-0.488,0.000
1709374400.632,-32.227,-18.066,-48.828,-39.062,0.000
1709374400.636,-51.758,-22.949,-52.734,-53.223,0.000
1709374400.640,-32.715,-16.113,-48.340,-40.527,0.000
1709374400.644,6.836,-14.648,-44.434,-12.695,0.000
1709374400.648,13.672,-22.461,-46.387,-3.906,0.000
1709374400.652,-24.902,-22.949,-46.387,-27.832,0.000
1709374400.656,-41.504,-20.508,-41.992,-41.504,0.000
1709374400.660,-33.203,-21.484,-39.062,-41.504,0.000
1709374400.663,2.930,-27.344,-39.551,-15.137,0.000
1709374400.667,29.785,-28.320,-42.480,3.906,0.000
1709374400.671,-5.371,-19.043,-39.551,-21.973,0.000
1709374400.675,-41.504,-20.996,-34.180,-42.969,0.000
1709374400.679,-40.527,-25.391,-35.156,-50.293,0.000
1709374400.683,-6.348,-24.902,-33.203,-20.508,0.000
1709374400.687,11.230,-27.832,-36.133,10.742,0.000
1709374400.691,-28.320,-30.762,-42.480,-31.250,0.000
1709374400.695,-60.547,-27.832,-41.504,-57.129,0.000
1709374400.699,-62.988,-32.227,-37.598,-57.129,0.000
1709374400.703,-24.902,-34.180,-35.156,-34.668,0.000
1709374400.707,13.672,-28.320,-37.109,2.441,0.000
1709374400.710,-20.020,-25.879,-38.574,-23.438,0.000
1709374400.714,-66.895,-31.738,-37.598,-57.129,0.000
1709374400.718,-63.965,-36.621,-39.062,-54.688,0.000
1709374400.722,-23.926,-30.762,-38.574,-35.156,0.000
1709374400.726,0.977,-32.715,-39.551,-8.301,0.000
1709374400.730,-26.367,-29.785,-41.992,-15.137,0.000
1709374400.734,-63.477,-25.391,-41.992,-42.969,0.000
1709374400.738,-69.824,-27.344,-42.969,-50.781,0.000
1709374400.742,-29.297,-28.320,-42.480,-25.391,0.000
1709374400.746,12.695,-27.832,-40.527,11.230,0.000
1709374400.750,-19.043,-26.367,-41.016,-12.695,0.000
1709374400.754,-64.941,-27.832,-38.086,-57.129,0.000
1709374400.757,-64.453,-20.508,-40.039,-56.152,0.000
1709374400.761,-38.086,-12.695,-44.434,-34.668,0.000
1709374400.765,11.230,-19.043,-41.016,4.395,0.000
1709374400.769,7.324,-18.555,-39.062,-3.418,0.000
1709374400.773,-39.551,-21.973,-39.062,-41.992,0.000
1709374400.777,-58.105,-22.949,-38.574,-48.340,0.000
1709374400.781,-48.340,-20.020,-37.598,-41.504,0.000
1709374400.785,-5.371,-24.414,-38.574,-18.066,0.000
1709374400.789,-5.859,-20.996,-45.410,-19.531,0.000
1709374400.793,0.000,-20.020,-46.875,-50.781,0.000
1709374400.797,0.000,-24.414,-45.410,-64.453,0.000
1709374400.800,0.000,-25.879,-45.898,-51.758,0.000
1709374400.804,0.000,-26.367,-43.457,-7.324,0.000
1709374400.808,0.000,-26.367,-42.969,1.465,0.000
1709374400.812,0.000,-28.320,-39.551,-41.504,0.000
1709374400.816,0.000,-27.344,-34.668,-52.246,0.000
1709374400.820,0.000,-29.785,-35.645,-40.527,0.000
1709374400.824,0.000,-33.203,-38.086,-10.742,0.000
1709374400.828,0.000,-32.227,-41.992,-1.465,0.000
1709374400.832,0.000,-35.645,-43.457,-40.527,0.000
1709374400.836,0.000,-31.250,-41.992,-61.523,0.000
1709374400.839,-57.129,-29.785,-44.922,-58.105,0.000
1709374400.843,-20.996,-30.762,-45.898,-33.691,0.000
1709374400.847,5.859,-30.762,-43.457,-6.348,0.000
1709374400.851,-32.715,-36.133,-43.945,-29.297,0.000
1709374400.855,-64.941,-41.504,-47.363,-66.406,0.000
1709374400.859,-60.059,-44.434,-47.852,-65.430,0.000
1709374400.863,-26.367,-39.062,-44.434,-23.438,0.000
1709374400.867,-3.418,-34.180,-44.922,-0.488,0.000
1709374400.870,-41.504,-40.527,-52.734,-44.922,0.000
1709374400.874,-70.312,-36.621,-49.805,-67.871,0.000
1709374400.878,-70.801,-32.227,-45.410,-59.570,0.000
1709374400.882,-44.434,-37.109,-46.875,-38.574,0.000
1709374400.886,-1.465,-39.062,-45.410,-11.230,0.000
1709374400.890,-20.020,-39.551,-45.410,-31.250,0.000
1709374400.894,-55.176,-35.645,-40.039,-59.082,0.000
1709374400.898,-53.223,-27.344,-32.715,-54.688,0.000
1709374400.901,-21.973,-24.414,-32.227,-27.344,0.000
1709374400.905,6.348,-35.645,-39.062,-4.883,0.000
1709374400.909,-19.531,-38.574,-40.527,-15.625,0.000
1709374400.913,-59.570,-31.738,-41.504,-49.316,0.000
1709374400.917,-62.988,-33.691,-42.480,-65.918,0.000
1709374400.921,-41.504,-42.480,-42.480,-44.922,0.000
1709374400.925,-3.906,-41.504,-43.457,-13.672,0.000
1709374400.929,-7.812,-35.156,-37.598,-22.461,0.000
1709374400.932,0.000,-34.180,-33.691,-53.711,0.000
1709374400.936,0.000,-35.156,-31.738,-59.570,0.000
1709374400.940,0.000,-40.527,-39.062,-44.434,0.000
1709374400.944,0.000,-46.875,-44.922,-15.137,0.000
1709374400.948,0.000,-47.852,-38.086,-16.602,0.000
1709374400.952,0.000,-46.875,-37.109,-42.480,0.000
1709374400.956,0.000,-35.645,-36.133,-47.363,0.000
1709374400.960,0.000,-35.645,-31.738,-43.945,0.000
1709374400.964,0.000,-44.922,-35.156,-18.555,0.000
1709374400.967,0.000,-38.086,-34.668,-9.766,0.000
1709374400.971,0.000,-35.156,-37.109,-46.387,0.000
1709374400.975,0.000,-38.574,-38.086,-61.523,0.000
1709374400.980,-53.711,-40.527,0.000,-46.875,0.000
1709374400.984,-13.672,-43.457,0.000,-21.484,0.000
1709374400.987,-3.906,-47.852,0.000,-19.531,0.000
1709374400.991,-43.457,-47.363,0.000,-50.781,0.000
1709374400.995,-56.641,-44.922,0.000,-62.988,0.000
1709374400.999,-42.969,-47.363,0.000,-57.617,0.000
1709374401.003,-17.578,-44.434,0.000,-29.785,0.000
1709374401.007,2.441,-38.086,0.000,-7.812,0.000
1709374401.011,-30.762,-34.180,0.000,-32.715,0.000
1709374401.015,-66.895,-32.715,0.000,-54.199,0.000
1709374401.019,-67.871,-31.250,0.000,-58.594,0.000
1709374401.023,-24.902,-31.250,0.000,-25.879,0.000
1709374401.027,16.602,-37.109,-38.086,7.324,0.000
1709374401.031,-19.043,-39.551,-37.598,-29.785,0.000
1709374401.035,-64.941,-42.480,-34.668,-75.195,0.000
1709374401.039,-66.406,-43.945,-33.691,-78.613,0.000
1709374401.043,-31.250,-43.457,-35.645,-48.340,0.000
1709374401.047,-0.488,-40.039,-33.691,-9.766,0.000
1709374401.050,-35.156,-39.551,-35.156,-27.832,0.000
1709374401.054,-73.730,-45.410,-40.039,-60.059,0.000
1709374401.058,-69.824,-38.574,-40.527,-50.293,0.000
1709374401.062,-37.109,-38.086,-42.480,-32.715,0.000
1709374401.066,-0.488,-39.062,-39.062,-8.789,0.000
1709374401.070,-32.227,-47.363,-39.062,-21.973,0.000
1709374401.074,0.000,-54.199,-41.016,-53.223,0.000
1709374401.078,0.000,-45.898,-41.016,-60.059,0.000
1709374401.082,0.000,-41.992,-39.062,-46.387,0.000
1709374401.086,0.000,-42.480,-35.645,-10.742,0.000
1709374401.090,0.000,-41.504,-37.109,-18.066,0.000
1709374401.094,0.000,-41.504,-37.598,-48.340,0.000
1709374401.098,0.000,-36.621,-36.621,-53.223,0.000
1709374401.101,0.000,-38.086,-37.109,-42.969,0.000
1709374401.105,0.000,-39.062,-35.156,2.930,0.000
1709374401.109,0.000,-33.691,-28.809,0.000,0.000
1709374401.113,0.000,-36.621,-26.367,-51.758,0.000
1709374401.117,0.000,-40.527,-29.785,-62.012,0.000
1709374401.121,-39.551,-36.133,-35.156,-48.340,0.000
1709374401.125,5.859,-36.133,-39.551,-16.602,0.000
1709374401.129,4.883,-41.504,-41.504,-15.137,0.000
1709374401.133,-38.086,-38.574,-37.598,-44.922,0.000
1709374401.137,-53.223,-39.551,-36.133,-61.035,0.000
1709374401.141,-46.875,-42.969,-37.598,-57.129,0.000
1709374401.144,-11.230,-40.527,-37.109,-22.949,0.000
1709374401.148,-10.254,-41.016,-41.504,-6.348,0.000
1709374401.152,-43.945,-39.551,-38.574,-31.250,0.000
1709374401.156,-60.547,-39.062,-35.156,-59.082,0.000
1709374401.160,-53.711,-45.410,-34.668,-61.035,0.000
1709374401.164,-16.113,-47.852,-36.621,-26.855,0.000
1709374401.168,-1.465,-40.039,-39.062,-9.766,0.000
1709374401.172,-39.062,-38.574,-35.645,-40.527,0.000
1709374401.176,-70.312,-42.480,-37.109,-60.059,0.000
1709374401.180,-71.777,-41.992,-40.039,-55.176,0.000
1709374401.183,-31.738,-36.621,-38.574,-28.809,0.000
1709374401.187,4.883,-39.062,-40.527,-7.812,0.000
1709374401.191,-40.039,-47.363,-42.480,-35.156,0.000
1709374401.195,-74.219,-43.457,-37.598,-53.711,0.000
1709374401.199,-57.129,-39.551,-35.156,-53.223,0.000
1709374401.203,-21.973,-45.410,-39.062,-37.598,0.000
1709374401.207,1.953,-46.387,-39.551,-8.301,0.000
1709374401.211,-33.691,-48.340,-34.180,-24.414,0.000
1709374401.215,-66.895,-43.945,-31.738,-49.805,0.000
1709374401.219,-67.383,-39.062,-35.645,-51.270,0.000
1709374401.222,-40.527,-39.551,-42.969,-37.109,0.000
1709374401.226,-4.395,-38.086,-43.945,-9.766,0.000
1709374401.230,-25.391,-40.039,-39.551,-26.855,0.000
1709374401.234,-63.477,-42.480,-35.645,-57.617,0.000
1709374401.238,-68.359,-43.945,-39.551,-51.758,0.000
1709374401.242,-40.039,-41.504,-46.387,-25.879,0.000
1709374401.246,7.324,-39.062,-51.758,-9.277,0.000
1709374401.250,-16.113,-36.621,-48.828,-27.344,0.000
1709374401.254,-67.871,-34.668,-39.062,-52.246,0.000
1709374401.258,-70.312,-39.062,-43.457,-58.105,0.000
1709374401.261,-51.270,-42.480,-46.875,-44.434,0.000
1709374401.265,-11.719,-37.109,-43.945,-12.695,0.000
1709374401.269,-21.484,-31.250,-45.410,-23.926,0.000
1709374401.273,-62.500,-32.715,-43.945,-57.129,0.000
1709374401.277,-66.895,-41.016,-41.504,-65.430,0.000
1709374401.281,-42.480,-40.527,-39.551,-51.270,0.000
1709374401.285,2.930,-32.715,-39.551,-5.371,0.000
1709374401.289,0.488,-31.738,-35.156,-10.742,0.000
1709374401.292,-43.945,-32.227,-30.273,-53.223,0.000
1709374401.296,-60.547,-33.203,-34.668,-52.734,0.000
1709374401.300,-51.270,-36.621,-40.039,-41.992,0.000
1709374401.304,-11.230,-37.109,-39.062,-22.461,0.000
1709374401.308,-4.395,-40.039,-36.133,-14.160,0.000
1709374401.312,-48.340,-38.086,-28.809,-40.039,0.000
1709374401.316,-70.312,-30.762,-32.227,-63.477,0.000
1709374401.319,-60.547,-33.203,-38.574,-57.129,0.000
1709374401.323,-18.555,-37.109,-38.574,-18.066,0.000
1709374401.327,-5.859,-38.086,-38.086,0.000,0.000
1709374401.331,-46.875,-35.156,-39.062,-37.109,0.000
1709374401.335,-64.453,-34.180,-40.527,-65.918,0.000
1709374401.339,-46.875,-36.133,-38.086,-55.176,0.000
1709374401.343,-8.301,-39.551,-43.457,-26.367,0.000
1709374401.347,10.742,-42.480,-44.922,-19.043,0.000
1709374401.351,-20.996,-35.156,-35.156,-45.410,0.000
1709374401.355,-52.246,-37.598,0.000,-60.059,0.000
1709374401.359,-48.828,-38.086,0.000,-48.340,0.000
1709374401.363,-11.230,-41.016,0.000,-17.578,0.000
1709374401.367,8.301,-46.387,0.000,-2.441,0.000
1709374401.371,-34.180,-42.969,0.000,-30.762,0.000
1709374401.375,-62.012,-37.109,0.000,-52.734,0.000
1709374401.378,-59.570,-35.156,0.000,-48.340,0.000
1709374401.382,-29.785,-40.527,0.000,-25.391,0.000
1709374401.386,-1.953,-41.504,0.000,-1.465,0.000
1709374401.390,-35.645,-41.016,0.000,-20.020,0.000
1709374401.394,-66.406,-43.457,0.000,-54.688,0.000
1709374401.398,-63.965,-44.922,0.000,-69.824,0.000
1709374401.403,-27.832,-44.434,-36.133,-43.457,0.000
1709374401.406,4.883,-41.504,-35.645,-7.812,0.000
1709374401.410,-26.855,-41.504,-38.086,-30.762,0.000
1709374401.414,-67.871,-41.016,-37.598,-61.035,0.000
1709374401.418,-72.266,-40.039,-37.109,-64.453,0.000
1709374401.422,-41.016,-44.434,-44.922,-46.387,0.000
1709374401.426,-7.324,-44.434,-40.527,-9.766,0.000
1709374401.430,-27.344,-40.039,-33.203,-21.484,0.000
1709374401.434,-63.965,-37.109,-32.715,-44.922,0.000
1709374401.438,-72.266,-47.363,-31.738,-41.992,0.000
1709374401.442,-44.434,-55.664,-32.715,-36.133,0.000
1709374401.445,1.953,-44.922,-30.273,-6.836,0.000
1709374401.449,-10.742,-34.668,-28.320,-15.137,0.000
1709374401.453,-55.176,-29.297,-29.297,-51.758,0.000
1709374401.457,-67.871,-28.809,-29.297,-58.105,0.000
1709374401.461,-47.852,-34.668,-29.297,-41.016,0.000
1709374401.465,-4.395,-44.434,-34.668,-12.207,0.000
1709374401.469,-7.324,-52.734,-41.016,-20.996,0.000
1709374401.473,-56.152,-43.457,-38.574,-53.223,0.000
1709374401.477,-69.824,-35.645,-34.668,-62.500,0.000
1709374401.481,-42.969,-36.133,-35.156,-45.898,0.000
1709374401.485,1.953,-35.156,-37.109,-12.695,0.000
1709374401.489,0.488,-36.621,-39.062,-6.836,0.000
1709374401.492,-51.758,-39.062,-33.203,-39.551,0.000
1709374401.496,-69.336,-41.992,-34.180,-56.152,0.000
1709374401.500,-51.758,-36.133,-34.180,-40.039,0.000
1709374401.504,-7.324,-36.133,-29.785,-10.742,0.000
1709374401.508,7.324,-41.016,-32.227,-2.441,0.000
1709374401.512,-43.457,-33.691,-38.086,-32.715,0.000
1709374401.516,-72.266,-27.832,-41.016,-57.617,0.000
1709374401.520,-59.082,-26.855,-39.551,-56.641,0.000
1709374401.524,-11.230,-35.156,-35.156,-17.578,0.000
1709374401.528,7.812,-39.062,-31.250,3.906,0.000
1709374401.531,-32.715,-35.645,-33.691,-34.180,0.000
1709374401.535,-60.547,-38.574,-32.715,-60.547,0.000
1709374401.539,-66.895,-40.039,-36.621,-64.941,0.000
1709374401.543,-30.273,-36.621,-37.598,-36.133,0.000
1709374401.547,2.441,-40.527,-36.621,-17.090,0.000
1709374401.551,-34.180,-46.387,-37.109,-50.781,0.000
1709374401.555,-69.336,-41.504,-36.621,-70.801,0.000
1709374401.559,-64.941,-39.062,-39.551,-65.918,0.000
1709374401.563,-34.668,-43.945,-44.922,-38.086,0.000
1709374401.566,4.883,-39.062,-40.039,-3.418,0.000
1709374401.570,-18.066,-33.691,-37.598,-22.949,0.000
1709374401.574,-66.895,-41.992,-43.457,-51.758,0.000
1709374401.578,-71.777,-41.504,-43.945,-56.641,0.000
1709374401.582,-37.598,-38.574,-36.621,-36.621,0.000
1709374401.586,-0.488,-45.898,-41.504,-2.930,0.000
1709374401.590,-23.926,-48.828,-42.969,-20.508,0.000
1709374401.594,-62.500,-49.316,-36.621,-55.664,0.000
1709374401.597,-64.941,-46.387,-40.039,-58.594,0.000
1709374401.601,-42.480,-41.992,-44.922,-39.551,0.000
1709374401.605,-4.883,-44.922,-41.992,-7.812,0.000
1709374401.609,-11.719,-42.969,-39.551,-22.949,0.000
1709374401.613,-46.387,-36.621,-38.086,-53.223,0.000
1709374401.617,-68.359,-39.551,-33.691,-55.664,0.000
1709374401.621,-54.199,-45.898,-37.598,-56.152,0.000
1709374401.625,-3.418,-44.922,-40.527,-16.602,0.000
1709374401.629,-20.508,-41.504,-41.992,-10.742,0.000
1709374401.633,-72.266,-36.621,-48.340,-53.223,0.000
1709374401.636,-75.684,-38.574,-45.898,-69.824,0.000
1709374401.640,-55.176,-44.922,-42.480,-59.082,0.000
1709374401.644,-14.160,-44.922,-46.875,-21.484,0.000
1709374401.648,-4.395,-41.016,-41.992,-14.648,0.000
1709374401.652,-43.457,-37.598,-29.785,-41.016,0.000
1709374401.656,-66.895,-39.062,-29.297,-53.223,0.000
1709374401.660,-55.176,-41.992,-33.203,-38.574,0.000
1709374401.664,-9.277,-38.086,-29.297,-4.395,0.000
1709374401.667,-1.465,-43.457,-31.250,-0.977,0.000
1709374401.671,-43.457,-42.969,-33.691,-34.668,0.000
1709374401.675,-64.941,-38.574,-33.203,-54.688,0.000
1709374401.679,-55.664,-38.574,-35.156,-46.875,0.000
1709374401.683,-13.184,-38.086,-34.180,-10.742,0.000
1709374401.687,-1.465,-40.527,-32.715,3.906,0.000
1709374401.691,-43.945,-35.156,-33.691,-34.668,0.000
1709374401.694,-73.730,-33.203,-32.227,-63.477,0.000
1709374401.698,-58.105,-34.668,-32.715,-53.711,0.000
1709374401.702,-20.020,-39.551,-35.156,-17.578,0.000
1709374401.706,-5.859,-42.969,-34.180,2.930,0.000
1709374401.710,-47.363,-39.062,-32.715,-35.645,0.000
1709374401.714,-69.336,-40.039,-33.691,-67.871,0.000
1709374401.718,-50.293,-41.016,-31.250,-57.129,0.000
1709374401.722,-23.926,-39.062,-33.203,-28.320,0.000
1709374401.726,-6.348,-34.668,-34.180,-9.766,0.000
1709374401.730,-37.598,-31.250,-35.156,-37.109,0.000
1709374401.734,-68.848,-31.738,-39.062,-61.035,0.000
1709374401.738,-65.918,-40.039,-41.992,-57.617,0.000
1709374401.742,-37.109,-42.480,-43.945,-34.668,0.000
1709374401.746,-1.953,-38.574,-40.039,-0.488,0.000
1709374401.749,-21.484,-39.062,-37.109,-18.555,0.000
1709374401.753,-62.988,-36.621,-38.574,-58.594,0.000
1709374401.757,-67.383,-31.738,-41.016,-68.359,0.000
1709374401.761,-33.691,-26.855,-34.668,-43.945,0.000
1709374401.765,2.441,-30.273,-38.574,-10.254,0.000
1709374401.769,-25.879,-32.715,-45.898,-32.227,0.000
1709374401.773,-65.918,-30.273,-42.480,-66.406,0.000
1709374401.778,-72.266,-34.668,-42.480,-66.406,0.000
1709374401.781,-41.016,-31.738,-36.621,-43.945,0.000
1709374401.785,5.371,-32.227,-33.691,-9.277,0.000
1709374401.789,-13.184,-37.598,-32.227,-24.414,0.000
1709374401.793,-58.105,-34.180,-29.785,-52.734,0.000
1709374401.797,-68.359,-31.738,-33.691,-57.617,0.000
1709374401.801,-51.758,-34.668,-40.527,-51.758,0.000
1709374401.805,-14.160,-33.691,-37.598,-22.949,0.000
1709374401.809,-20.020,-32.715,-31.250,-21.484,0.000
1709374401.813,-66.895,-37.109,-36.621,-57.129,0.000
1709374401.817,-79.102,-38.086,-38.574,-74.707,0.000
1709374401.821,-59.570,-40.527,-36.621,-62.988,0.000
1709374401.825,-22.949,-39.551,-39.062,-30.762,0.000
1709374401.828,-12.695,-37.109,-40.039,-23.438,0.000
1709374401.832,-50.781,-36.621,-38.086,-50.781,0.000
1709374401.836,-72.754,-37.598,-37.109,-63.965,0.000
1709374401.840,-61.035,-40.039,-36.621,-57.129,0.000
1709374401.844,-20.508,-39.551,-32.227,-26.367,0.000
1709374401.848,-1.953,-43.457,-31.738,-18.555,0.000
1709374401.852,-45.410,-46.387,-34.180,-45.410,0.000
1709374401.856,-72.266,-47.363,-33.203,-53.223,0.000
1709374401.860,-65.430,-49.805,-40.527,-56.641,0.000
1709374401.864,-30.762,-44.434,-41.992,-24.902,0.000
1709374401.868,-2.930,-41.016,-34.668,-1.465,0.000
1709374401.871,-37.598,-41.016,-34.180,-37.109,0.000
1709374401.875,-62.500,-43.457,-37.598,-52.246,0.000
1709374401.879,-49.316,-39.062,-32.715,-37.598,0.000
1709374401.883,0.488,-27.344,-34.180,-1.465,0.000
1709374401.887,29.785,-32.715,-41.016,17.090,0.000
1709374401.891,-22.949,-39.551,-39.551,-27.832,0.000
1709374401.895,-58.594,-27.832,-33.691,-61.523,0.000
1709374401.899,-56.641,-25.879,-39.062,-50.781,0.000
1709374401.903,-26.367,-33.203,-48.340,-30.762,0.000
1709374401.907,1.465,-37.598,-50.293,-18.066,0.000
1709374401.910,-32.227,-34.668,-49.316,-37.598,0.000
1709374401.914,-62.500,-31.250,-40.527,-59.570,0.000
1709374401.918,-60.547,-36.133,-40.039,-61.523,0.000
1709374401.922,-22.461,-33.691,-41.504,-33.691,0.000
1709374401.926,25.391,-25.391,-31.250,5.371,0.000
1709374401.930,-10.742,-21.973,-35.156,-19.043,0.000
1709374401.934,-57.129,-28.320,-41.504,-54.688,0.000
1709374401.938,-63.477,-36.621,-35.645,-57.617,0.000
1709374401.942,-42.969,-38.086,-41.504,-44.922,0.000
1709374401.946,2.930,-35.156,-40.527,-9.277,0.000
1709374401.949,-13.184,-34.668,-34.180,-22.949,0.000
1709374401.953,-59.082,-33.691,-34.668,-64.453,0.000
1709374401.957,-58.594,-32.227,-32.715,-66.406,0.000
1709374401.961,-31.250,-35.645,-32.715,-47.852,0.000
1709374401.965,-0.488,-36.621,-37.109,-19.043,0.000
1709374401.969,-12.207,-34.668,-38.574,-26.367,0.000
1709374401.973,-47.363,-34.180,-33.691,-55.176,0.000
1709374401.976,-60.059,-34.180,-36.133,-65.430,0.000
1709374401.980,-37.598,-32.227,-39.062,-50.293,0.000
1709374401.984,4.395,-32.227,-38.574,-17.090,0.000
1709374401.988,-4.883,-35.156,-37.598,-11.230,0.000
1709374401.992,-50.293,-39.551,-35.156,-38.086,0.000
1709374401.996,-69.336,-41.016,-37.109,-58.594,0.000
1709374402.000,-56.152,-43.457,-41.504,-52.246,0.000
1709374402.004,-6.836,-43.457,-41.504,-16.602,0.000
1709374402.008,5.859,-41.504,-43.457,-9.766,0.000
1709374402.011,-37.109,-36.621,-47.852,-49.805,0.000
1709374402.015,-56.152,-22.461,-41.504,-59.082,0.000
1709374402.019,-42.969,-21.973,-38.574,-51.270,0.000
1709374402.023,-0.488,-32.227,-42.969,-29.297,0.000
1709374402.027,9.766,-37.109,-44.922,-8.301,0.000
1709374402.031,-33.203,-36.133,-42.969,-36.621,0.000
1709374402.035,-62.500,-36.133,-37.109,-53.223,0.000
1709374402.039,-59.570,-39.551,-37.109,-44.434,0.000
1709374402.043,-11.719,-37.109,-39.062,-26.367,0.000
1709374402.046,15.625,-35.156,-38.086,-6.836,0.000
1709374402.050,-27.832,-39.551,-35.156,-34.180,0.000
1709374402.054,-61.035,-44.922,-32.227,-56.641,0.000
1709374402.058,-50.293,-42.969,-35.156,-53.711,0.000
1709374402.062,-18.555,-41.992,-37.109,-35.645,0.000
1709374402.066,4.395,-34.668,-40.039,-15.137,0.000
1709374402.069,-32.227,-34.668,-42.969,-33.203,0.000
1709374402.073,-74.707,-41.992,-38.574,-56.641,0.000
1709374402.077,-71.777,-39.062,-34.180,-51.758,0.000
1709374402.081,-39.551,-38.086,-34.668,-23.926,0.000
1709374402.085,1.465,-42.969,-38.086,-5.371,0.000
1709374402.089,-23.438,-40.039,-35.645,-27.344,0.000
1709374402.093,-62.988,-35.156,-40.039,-55.664,0.000
1709374402.097,-60.547,-37.109,-43.457,-61.523,0.000
1709374402.101,-33.691,-38.086,-42.969,-41.016,0.000
1709374402.105,8.789,-35.645,-42.480,-1.465,0.000
1709374402.109,-10.742,-36.133,-38.086,-15.625,0.000
1709374402.113,-54.688,-35.156,-40.527,-59.082,0.000
1709374402.117,-66.895,-34.668,-40.039,-65.430,0.000
1709374402.121,-42.969,-35.645,-35.156,-40.039,0.000
1709374402.125,-4.395,-37.598,-36.133,-2.930,0.000
1709374402.128,-23.926,-40.527,-39.062,-17.090,0.000
1709374402.132,-66.895,-37.598,-34.180,-55.664,0.000
1709374402.136,-77.148,-36.621,-34.180,-65.918,0.000
1709374402.140,-58.105,-40.527,-40.527,-42.969,0.000
1709374402.144,-16.602,-46.875,-42.969,-11.230,0.000
1709374402.148,-17.578,-47.363,-41.504,-21.484,0.000
1709374402.152,-58.594,-42.969,-37.109,-52.246,0.000
1709374402.156,-68.848,-40.039,-37.109,-61.035,0.000
1709374402.160,-47.363,-43.457,-39.551,-50.293,0.000
1709374402.164,-4.395,-44.922,-40.039,-17.090,0.000
1709374402.168,-6.348,-44.434,-40.039,-12.695,0.000
1709374402.172,-45.898,-42.969,-37.598,-45.898,0.000
1709374402.176,-58.594,-42.480,-35.645,-57.129,0.000
1709374402.179,-45.898,-38.574,-34.180,-47.852,0.000
1709374402.183,-2.930,-36.133,-30.762,-6.348,0.000
1709374402.187,-0.488,-36.133,-34.668,1.953,0.000
1709374402.191,-50.293,-34.668,-40.039,-51.758,0.000
1709374402.195,-62.988,-31.250,-35.645,-62.012,0.000
1709374402.199,-54.199,-32.227,-35.156,-47.852,0.000
1709374402.203,-17.090,-40.527,-41.016,-19.531,0.000
1709374402.207,15.625,-41.016,-38.086,-4.883,0.000
1709374402.211,-16.113,-35.645,-35.156,-41.992,0.000
1709374402.215,-34.180,-33.691,-41.016,-64.941,0.000
1709374402.219,-25.879,-35.645,-43.457,-57.617,0.000
1709374402.223,-2.441,-31.250,-41.016,-25.879,0.000
1709374402.226,9.277,-30.762,-41.504,-3.906,0.000
1709374402.230,-36.133,-40.039,-44.434,-26.367,0.000
1709374402.234,-63.477,-36.621,-46.387,-51.270,0.000
1709374402.238,-55.176,-31.250,-51.758,-56.152,0.000
1709374402.242,-15.137,-32.715,-52.246,-23.438,0.000
1709374402.246,20.020,-39.062,-45.898,8.789,0.000
1709374402.250,-15.625,-38.086,-43.457,-17.578,0.000
1709374402.254,-52.246,-29.297,-41.992,-47.852,0.000
1709374402.258,-54.199,-30.762,-36.621,-43.457,0.000
1709374402.262,-27.832,-34.668,-37.109,-23.926,0.000
1709374402.265,3.418,-28.809,-37.598,3.418,0.000
1709374402.269,-24.414,-27.344,-38.574,-20.996,0.000
1709374402.273,-55.664,-24.414,-36.133,-48.340,0.000
1709374402.277,-59.082,-23.438,-31.250,-45.898,0.000
1709374402.281,-35.156,-34.668,-34.668,-36.133,0.000
1709374402.285,9.277,-32.715,-33.203,-5.859,0.000
1709374402.289,-17.578,-33.691,-28.809,-21.484,0.000
1709374402.293,-61.523,-35.156,-32.227,-50.781,0.000
1709374402.297,-62.500,-29.785,-33.691,-56.152,0.000
1709374402.300,-30.762,-29.785,-30.762,-39.062,0.000
1709374402.304,6.348,-32.227,-31.738,-1.953,0.000
1709374402.308,-19.531,-33.691,-29.785,-16.602,0.000
1709374402.312,-65.430,-37.598,-29.785,-49.316,0.000
1709374402.316,-67.383,-36.621,-27.832,-45.898,0.000
1709374402.320,-49.316,-40.039,-32.715,-31.738,0.000
1709374402.324,-4.395,-40.527,-34.668,-11.719,0.000
1709374402.328,-4.883,-39.062,-35.645,-22.949,0.000
1709374402.332,-61.035,-44.434,-33.203,-55.664,0.000
1709374402.336,-72.754,-41.504,-26.367,-59.082,0.000
1709374402.339,-50.293,-36.133,-32.715,-49.316,0.000
1709374402.343,-5.859,-33.691,-34.180,-19.043,0.000
1709374402.347,-2.930,-36.621,-33.691,-12.207,0.000
1709374402.351,-56.641,-36.133,-38.086,-51.270,0.000
1709374402.355,-77.637,-36.133,-41.992,-66.895,0.000
1709374402.359,-67.871,-38.574,-45.410,-62.012,0.000
1709374402.363,-26.367,-35.645,-44.922,-27.344,0.000
1709374402.367,-6.348,-35.156,-40.527,-8.789,0.000
1709374402.371,-45.410,-38.574,-38.574,-44.922,0.000
1709374402.374,-63.965,-44.922,-35.156,-57.129,0.000
1709374402.378,-55.176,-45.898,-33.203,-52.246,0.000
1709374402.382,-18.555,-41.016,-35.645,-20.996,0.000
1709374402.386,9.766,-36.133,-31.250,3.418,0.000
1709374402.390,-24.902,-38.086,-29.785,-27.344,0.000
1709374402.394,-55.176,-34.180,-29.785,-49.805,0.000
1709374402.398,-52.246,-25.391,-30.762,-47.852,0.000
1709374402.402,-24.414,-32.715,-33.691,-22.461,0.000
1709374402.405,11.230,-41.992,-32.715,-2.441,0.000
1709374402.409,-25.391,-35.645,-34.180,-24.414,0.000
1709374402.413,-65.918,-30.762,-40.039,-52.734,0.000
1709374402.417,-53.711,-35.156,-37.598,-57.617,0.000
1709374402.421,-20.020,-40.527,-38.086,-33.691,0.000
1709374402.425,9.277,-39.551,-43.945,-14.160,0.000
1709374402.429,-27.344,-34.180,-40.039,-39.551,0.000
1709374402.432,-64.453,-32.227,-32.715,-64.941,0.000
1709374402.436,-61.523,-31.250,-30.273,-64.941,0.000
1709374402.440,-35.156,-30.273,-30.762,-45.410,0.000
1709374402.444,5.371,-34.180,-35.645,-18.555,0.000
1709374402.448,-15.625,-36.133,-39.551,-39.551,0.000
1709374402.452,-62.988,-33.203,-41.504,-66.406,0.000
1709374402.456,-69.336,-32.715,-38.574,-62.012,0.000
1709374402.460,-40.527,-35.156,-32.715,-45.410,0.000
1709374402.464,-1.465,-36.621,-32.227,-12.207,0.000
1709374402.468,-18.066,-32.715,-30.762,-19.043,0.000
1709374402.471,-65.918,-27.832,-39.062,-52.734,0.000
1709374402.475,-75.195,-32.715,-47.363,-68.359,0.000
1709374402.480,-52.246,-39.551,-43.457,-49.316,0.000
1709374402.484,-8.789,-40.527,-44.922,-18.066,0.000
1709374402.487,-13.672,-39.551,-46.387,-30.762,0.000
1709374402.491,-57.129,-36.621,-44.434,-58.594,0.000
1709374402.495,-69.824,-41.504,-47.852,-68.848,0.000
1709374402.499,-54.688,-42.969,-43.945,-54.688,0.000
1709374402.503,-9.277,-42.969,-41.016,-14.648,0.000
1709374402.507,-1.953,-44.434,-41.992,-14.160,0.000
1709374402.511,-49.805,-40.039,-38.086,-47.852,0.000
1709374402.515,-68.848,-29.785,-37.598,-54.688,0.000
1709374402.519,-56.641,-33.691,-44.434,-51.758,0.000
1709374402.523,-11.719,-37.598,-44.922,-22.949,0.000
1709374402.527,0.000,-41.016,-43.457,-13.672,0.000
1709374402.531,0.000,-44.434,-40.527,-45.410,0.000
1709374402.535,0.000,-42.969,-35.156,-62.012,0.000
1709374402.539,0.000,-41.992,-36.621,-51.270,0.000
1709374402.542,0.000,-45.410,-38.574,-19.531,0.000
1709374402.546,0.000,-48.828,-41.992,-18.066,0.000
1709374402.550,0.000,-47.852,-42.480,-51.270,0.000
1709374402.554,0.000,-40.527,-33.203,-61.035,0.000
1709374402.558,0.000,-33.691,-31.738,-44.434,0.000
1709374402.562,0.000,-35.645,-35.645,-18.555,0.000
1709374402.566,0.000,-35.645,-39.062,-12.695,0.000
1709374402.570,0.000,-31.738,-39.062,-36.621,0.000
1709374402.574,-75.195,-30.762,-33.691,-56.152,0.000
1709374402.578,-69.336,-29.297,-31.250,-56.152,0.000
1709374402.582,-24.902,-32.715,-28.809,-26.855,0.000
1709374402.586,7.324,-30.273,-27.344,-2.930,0.000
1709374402.589,-29.297,-25.879,-27.832,-21.484,0.000
1709374402.593,-62.500,-29.785,-25.391,-45.410,0.000
1709374402.597,-63.477,-31.250,-24.902,-45.410,0.000
1709374402.601,-25.879,-25.879,-29.785,-20.508,0.000
1709374402.605,15.137,-23.926,-31.250,10.254,0.000
1709374402.609,-26.367,-28.320,-34.180,-16.113,0.000
1709374402.613,-61.035,-29.785,-35.645,-56.641,0.000
1709374402.617,-54.199,-31.738,-32.227,-55.176,0.000
1709374402.621,-29.785,-26.367,-32.715,-26.855,0.000
1709374402.625,10.742,-25.879,-30.762,5.371,0.000
1709374402.628,-18.555,-32.227,-36.621,-16.113,0.000
1709374402.632,-64.941,-33.203,-39.062,-41.992,0.000
1709374402.636,-72.754,-30.273,-35.156,-49.805,0.000
1709374402.640,-49.805,-31.250,-40.527,-41.504,0.000
1709374402.644,-8.301,-39.551,-40.039,-8.301,0.000
1709374402.648,-27.832,-44.922,-35.645,-14.160,0.000
1709374402.652,-75.195,-36.621,-33.691,-50.293,0.000
1709374402.656,-78.613,-32.715,-34.180,-69.336,0.000
1709374402.660,-54.688,-35.156,-37.109,-55.664,0.000
1709374402.664,-8.301,-33.691,-35.645,-16.113,0.000
1709374402.667,-6.836,-33.203,-31.738,-18.066,0.000
1709374402.671,-49.316,-38.574,-33.691,-50.781,0.000
1709374402.675,-62.500,-39.551,-39.062,-52.734,0.000
1709374402.679,-44.922,-35.645,-36.621,-38.574,0.000
1709374402.683,-0.977,-36.133,-38.086,-12.207,0.000
1709374402.687,-1.953,-34.180,-40.039,-13.672,0.000
1709374402.691,-51.758,-38.086,-35.156,-51.758,0.000
1709374402.695,-63.965,-42.969,-31.738,-56.152,0.000
1709374402.699,-47.363,-40.527,-38.086,-46.875,0.000
1709374402.703,-9.277,-38.086,-35.645,-19.531,0.000
1709374402.707,-5.371,-39.551,-36.133,-7.812,0.000
1709374402.710,-54.199,-45.410,-38.574,-34.180,0.000
1709374402.714,-70.312,-46.875,-36.133,-51.270,0.000
1709374402.718,-56.152,-40.527,-39.551,-50.293,0.000
1709374402.722,-18.066,-40.527,-40.527,-20.996,0.000
1709374402.726,-2.441,-45.898,-40.039,-7.812,0.000
1709374402.730,-49.805,-46.875,-38.574,-41.504,0.000
1709374402.734,-81.055,-46.387,-36.621,-65.430,0.000
1709374402.738,-75.195,-44.434,-38.086,-57.617,0.000
1709374402.741,-34.668,-45.410,-36.621,-27.344,0.000
1709374402.745,-12.695,-46.387,-37.598,-21.973,0.000
1709374402.749,-51.758,-46.875,-37.598,-50.293,0.000
1709374402.753,-80.078,-46.875,-35.156,-70.312,0.000
1709374402.757,-73.730,-44.434,-32.715,-63.477,0.000
1709374402.761,-36.133,-43.457,-33.691,-36.621,0.000
1709374402.765,-4.883,-43.457,-33.691,-17.090,0.000
1709374402.769,-35.156,-39.551,-29.785,-33.203,0.000
1709374402.773,-59.570,-31.250,-33.203,-51.758,0.000
1709374402.777,-58.594,-30.762,-33.203,-51.270,0.000
1709374402.781,-37.109,-38.574,-29.785,-28.809,0.000
1709374402.785,7.324,-36.621,-29.785,7.812,0.000
1709374402.789,-11.230,-32.227,-26.855,-3.418,0.000
1709374402.793,-58.105,-38.574,-30.273,-41.504,0.000
1709374402.796,-59.570,-41.992,-29.297,-44.434,0.000
1709374402.800,-23.438,-40.039,-26.855,-20.508,0.000
1709374402.804,6.348,-45.410,-32.227,5.371,0.000
1709374402.809,-16.113,-42.480,-32.715,-14.648,0.000
1709374402.812,-49.805,-33.691,-31.738,-47.363,0.000
1709374402.816,-55.664,-36.133,-28.809,-47.852,0.000
1709374402.820,-40.039,-40.527,-30.273,-33.691,0.000
1709374402.824,1.953,-38.574,-31.738,-7.324,0.000
1709374402.828,-4.883,-36.621,-31.250,-5.371,0.000
1709374402.832,-54.688,-34.180,-31.250,-32.227,0.000
1709374402.836,-69.824,-34.180,-31.738,-50.293,0.000
1709374402.840,-41.992,-36.133,-34.180,-39.062,0.000
1709374402.844,7.324,-39.062,-37.109,-5.859,0.000
1709374402.848,3.418,-35.645,-38.574,-6.836,0.000
1709374402.852,-49.316,-26.367,-38.574,-45.898,0.000
1709374402.856,-68.359,-31.738,-40.527,-59.082,0.000
1709374402.860,-53.711,-34.180,-40.527,-45.410,0.000
1709374402.864,-11.719,-37.109,-41.016,-20.020,0.000
1709374402.868,2.441,-39.551,-40.039,-13.184,0.000
1709374402.872,-40.039,-30.273,-36.621,-35.156,0.000
1709374402.875,-70.801,-32.227,-37.598,-53.711,0.000
1709374402.879,-62.012,-37.598,-34.668,-52.246,0.000
1709374402.883,-16.113,-35.156,-37.598,-22.949,0.000
1709374402.887,3.906,-35.645,-43.457,-9.766,0.000
1709374402.891,-34.180,-32.227,-33.691,-26.367,0.000
1709374402.895,-64.941,-36.621,-30.762,-47.363,0.000
1709374402.899,-62.012,-41.992,-34.668,-54.199,0.000
1709374402.903,0.000,-41.992,-35.645,-20.508,0.000
1709374402.907,0.000,-35.645,-31.738,1.465,0.000
1709374402.911,0.000,-32.715,-32.227,-35.645,0.000
1709374402.915,0.000,-40.039,-36.133,-64.453,0.000
1709374402.919,0.000,-42.969,-35.645,-60.059,0.000
1709374402.923,0.000,-41.016,-35.645,-30.273,0.000
1709374402.926,0.000,-41.016,-35.156,-4.395,0.000
1709374402.930,0.000,-38.574,-32.715,-28.809,0.000
1709374402.934,0.000,-38.086,-29.297,-42.480,0.000
1709374402.938,0.000,-38.574,-28.809,-41.504,0.000
1709374402.942,0.000,-39.062,-30.273,-26.855,0.000
1709374402.946,0.000,-42.480,-36.133,-5.859,0.000
1709374402.950,-14.160,-37.109,-39.551,-31.250,0.000
1709374402.954,-51.758,-30.273,-36.621,-53.711,0.000
1709374402.958,-57.129,-30.273,-32.715,-58.594,0.000
1709374402.962,-22.949,-32.715,-33.203,-41.504,0.000
1709374402.966,11.230,-33.691,-37.109,-17.090,0.000
1709374402.969,-10.742,-32.715,-38.574,-33.691,0.000
1709374402.973,-46.875,-33.203,-37.598,-61.523,0.000
1709374402.977,-61.523,-35.156,-39.551,-66.895,0.000
1709374402.981,-42.969,-36.621,-42.969,-44.922,0.000
1709374402.985,-11.719,-35.645,-42.480,-17.090,0.000
1709374402.989,-28.809,-32.227,-40.039,-33.691,0.000
1709374402.993,-73.730,-37.109,-37.109,-61.523,0.000
1709374402.997,-83.008,-47.363,-34.668,-70.312,0.000
1709374403.001,-58.105,-41.992,-33.203,-63.477,0.000
1709374403.005,-19.043,-33.203,-30.762,-26.855,0.000
1709374403.008,-27.832,-34.180,-32.715,-28.809,0.000
1709374403.012,-72.754,-42.480,-37.598,-68.359,0.000
1709374403.016,-90.332,-46.875,-40.527,-81.055,0.000
1709374403.020,-70.312,-45.410,-40.039,-61.035,0.000
1709374403.024,-21.484,-52.246,-36.133,-15.137,0.000
1709374403.028,-19.043,-44.434,-33.203,-7.812,0.000
1709374403.032,-58.594,-40.527,-34.180,-57.129,0.000
1709374403.036,-68.848,-46.875,-35.156,-74.707,0.000
1709374403.040,-47.852,-45.898,-37.598,-59.570,0.000
1709374403.043,1.465,-46.387,-40.039,-23.438,0.000
1709374403.047,6.348,-51.270,-41.504,-17.090,0.000
1709374403.051,-42.969,-45.898,-31.738,-43.945,0.000
1709374403.055,-65.430,-39.551,-24.414,-48.340,0.000
1709374403.059,-58.105,-37.109,-28.320,-41.504,0.000
1709374403.063,-17.578,-32.715,-26.855,-9.766,0.000
1709374403.067,0.000,-38.086,-27.344,7.324,0.000
1709374403.071,-47.363,-47.363,-29.297,-20.020,0.000
1709374403.075,-73.242,-47.852,-27.832,-48.340,0.000
1709374403.079,-56.152,-39.551,-30.762,-55.664,0.000
1709374403.083,-17.578,-31.738,-38.574,-24.414,0.000
1709374403.086,4.395,-32.715,-36.621,-2.930,0.000
1709374403.090,0.000,-32.715,-38.086,-40.527,0.000
1709374403.094,0.000,-32.227,-39.551,-63.477,0.000
1709374403.098,0.000,-34.668,-34.668,-53.223,0.000
1709374403.102,0.000,-34.180,-34.668,-33.203,0.000
1709374403.106,0.000,-32.227,-35.645,-13.184,0.000
1709374403.110,0.000,-33.691,-36.133,-41.504,0.000
1709374403.113,0.000,-31.250,-34.668,-54.688,0.000
1709374403.117,0.000,-29.785,-41.992,-44.922,0.000
1709374403.121,0.000,-28.809,-46.387,-37.109,0.000
1709374403.125,0.000,-29.297,-42.969,-3.418,0.000
1709374403.129,0.000,-28.320,-44.434,-20.508,0.000
1709374403.133,0.000,-30.762,-43.945,-56.641,0.000
1709374403.137,-58.594,-37.598,-39.062,-55.664,0.000
1709374403.140,-32.227,-35.156,-36.133,-32.227,0.000
1709374403.144,7.812,-32.227,-33.203,-2.441,0.000
1709374403.148,-16.602,-33.203,-36.621,-21.973,0.000
1709374403.152,-62.500,-38.086,-38.574,-47.852,0.000
1709374403.156,-62.988,-34.668,-35.645,-49.316,0.000
1709374403.160,-32.715,-30.762,-36.621,-31.738,0.000
1709374403.164,4.883,-30.273,-36.621,5.371,0.000
1709374403.168,-14.160,-31.250,-31.738,-8.789,0.000
1709374403.172,-59.082,-32.227,-29.785,-42.480,0.000
1709374403.176,-67.871,-33.691,-37.109,-50.781,0.000
1709374403.180,-54.688,-38.086,-38.574,-49.805,0.000
1709374403.183,-9.277,-38.086,-34.180,-17.578,0.000
1709374403.187,1.465,-32.715,-32.715,-13.184,0.000
1709374403.191,-46.387,-32.715,-33.691,-56.641,0.000
1709374403.195,-68.359,-37.109,-40.039,-70.312,0.000
1709374403.199,-42.969,-33.691,-40.039,-56.641,0.000
1709374403.203,2.930,-30.762,-33.691,-15.625,0.000
1709374403.206,3.906,-29.785,-34.668,-7.812,0.000
1709374403.210,-41.992,-29.785,-37.109,-52.246,0.000
1709374403.214,-56.152,-33.203,-33.691,-62.988,0.000
1709374403.218,-39.062,-38.086,-38.574,-56.152,0.000
1709374403.222,-8.789,-44.434,-43.457,-37.598,0.000
1709374403.226,-3.906,-47.852,-39.062,-24.414,0.000
1709374403.230,-44.434,-41.992,-38.086,-51.270,0.000
1709374403.234,-63.477,-38.086,-32.715,-69.824,0.000
1709374403.238,-53.711,-41.504,-35.645,-59.082,0.000
1709374403.242,-20.020,-38.574,-42.480,-29.785,0.000
1709374403.246,-0.488,-37.109,-43.457,-16.113,0.000
1709374403.250,-30.762,-40.039,-41.504,-45.410,0.000
1709374403.254,-57.617,-41.504,-44.434,-69.336,0.000
1709374403.258,-60.547,-41.016,-45.410,-62.988,0.000
1709374403.261,-24.902,-40.527,-44.434,-38.086,0.000
1709374403.265,0.977,-42.969,-46.387,-16.602,0.000
1709374403.269,-40.527,-40.039,-41.992,-36.133,0.000
1709374403.273,-71.777,-42.480,-40.039,-59.082,0.000
1709374403.278,-65.918,-43.945,-41.992,-57.129,0.000
1709374403.282,-33.691,-41.016,-43.457,-37.598,0.000
1709374403.286,1.465,-40.527,-40.039,-10.254,0.000
1709374403.290,-29.297,-46.875,-38.574,-25.391,0.000
1709374403.293,-68.359,-53.711,-36.621,-49.316,0.000
1709374403.297,-61.035,-47.363,-32.227,-49.316,0.000
1709374403.301,-33.691,-42.969,-34.180,-36.621,0.000
1709374403.305,7.324,-47.363,-36.621,-7.324,0.000
1709374403.309,-9.766,-48.340,-36.133,-12.695,0.000
1709374403.313,-51.270,-40.039,-35.156,-46.875,0.000
1709374403.317,-60.059,-34.668,-39.062,-62.988,0.000
1709374403.321,-35.156,-32.227,-41.504,-43.457,0.000
1709374403.325,9.277,-26.367,-36.133,-2.930,0.000
1709374403.329,-10.254,-24.414,-31.738,-18.066,0.000
1709374403.333,-48.340,-26.367,-31.250,-58.105,0.000
1709374403.337,-59.082,-34.668,-30.762,-54.199,0.000
1709374403.340,-43.945,-42.480,-34.180,-38.574,0.000
1709374403.344,2.441,-41.016,-36.133,-9.277,0.000
1709374403.348,-1.465,-42.480,-34.180,-16.602,0.000
1709374403.352,-51.270,-39.551,-36.621,-52.734,0.000
1709374403.356,-61.523,-32.715,-33.691,-50.781,0.000
1709374403.360,-41.504,-35.645,-33.691,-33.691,0.000
1709374403.364,-6.348,-40.527,-36.621,-10.254,0.000
1709374403.368,-9.766,-42.969,-33.691,-17.090,0.000
1709374403.372,-58.105,-45.898,-32.715,-52.246,0.000
1709374403.375,-78.613,-41.992,-35.156,-61.523,0.000
1709374403.379,-58.105,-34.180,-37.109,-48.828,0.000
1709374403.383,-7.324,-30.762,-38.574,-14.648,0.000
1709374403.387,0.488,-26.367,-35.645,-8.301,0.000
1709374403.391,-43.457,-28.320,-32.227,-41.016,0.000
1709374403.395,-67.383,-35.645,-38.086,-61.523,0.000
1709374403.399,-57.129,-35.156,-36.133,-46.387,0.000
1709374403.403,-18.555,-33.691,-37.598,-5.859,0.000
1709374403.407,-11.719,-38.574,-41.016,-2.441,0.000
1709374403.411,-56.641,-41.992,-33.691,-40.527,0.000
1709374403.415,-72.754,-37.598,-33.691,-58.105,0.000
1709374403.418,-57.129,-30.762,-31.738,-49.316,0.000
1709374403.422,-17.578,-32.227,-26.367,-17.090,0.000
1709374403.426,0.488,-38.574,-27.832,-3.418,0.000
1709374403.430,-39.062,-39.551,-32.715,-32.227,0.000
1709374403.434,-70.312,-38.086,-34.668,-48.828,0.000
1709374403.438,-62.988,-35.645,-31.250,-47.852,0.000
1709374403.442,-24.902,-30.273,-28.809,-27.832,0.000
1709374403.446,4.883,-27.832,-35.156,-1.465,0.000
1709374403.450,-27.344,-30.273,-37.598,-22.461,0.000
1709374403.453,-62.500,-31.250,-36.133,-60.059,0.000
1709374403.457,-58.105,-35.645,-40.039,-64.453,0.000
1709374403.461,-24.414,-39.551,-36.621,-33.691,0.000
1709374403.465,2.441,-41.992,-35.156,-9.277,0.000
1709374403.469,-25.391,-32.227,-32.715,-33.691,0.000
1709374403.473,-57.617,-22.949,-35.156,-61.523,0.000
1709374403.477,-69.336,-33.691,-43.457,-69.824,0.000
1709374403.481,-47.852,-38.086,-39.062,-51.270,0.000
1709374403.484,-3.418,-34.180,-39.062,-20.508,0.000
1709374403.488,-23.438,-38.086,-40.039,-28.809,0.000
1709374403.492,-67.383,-42.480,-34.180,-50.781,0.000
1709374403.496,-78.613,-42.480,-37.109,-65.918,0.000
1709374403.500,-50.781,-40.527,-41.504,-48.828,0.000
1709374403.504,-9.766,-43.945,-39.551,-7.324,0.000
1709374403.508,-31.250,-40.527,-36.133,-12.695,0.000
1709374403.511,0.000,-40.039,-36.621,-45.898,0.000
1709374403.515,0.000,-45.898,-42.969,-62.988,0.000
1709374403.519,0.000,-46.875,-47.852,-49.316,0.000
1709374403.523,0.000,-43.457,-48.340,-12.695,0.000
1709374403.527,0.000,-43.457,-47.363,-21.484,0.000
1709374403.531,0.000,-45.898,-40.527,-49.805,0.000
1709374403.535,0.000,-43.457,-36.621,-54.688,0.000
1709374403.539,0.000,-40.527,-38.086,-39.062,0.000
1709374403.543,0.000,-44.434,-41.504,-2.930,0.000
1709374403.547,0.000,-47.852,-39.062,2.441,0.000
1709374403.551,0.000,-44.434,-39.062,-30.762,0.000
1709374403.554,0.000,-34.668,-42.480,-51.270,0.000
1709374403.558,-51.270,-38.574,-41.504,-45.410,0.000
1709374403.562,-2.930,-40.527,-42.969,-8.301,0.000
1709374403.566,7.324,-31.738,-45.410,-8.789,0.000
1709374403.570,-36.621,-31.738,-41.504,-50.293,0.000
1709374403.574,-55.176,-35.156,-40.527,-65.430,0.000
1709374403.577,-44.922,-36.133,-40.527,-57.129,0.000
1709374403.581,-9.277,-39.551,-39.062,-20.508,0.000
1709374403.585,6.348,-38.086,-41.992,-8.301,0.000
1709374403.589,-43.457,-32.715,-39.551,-41.504,0.000
1709374403.593,-75.684,-36.133,-39.551,-56.641,0.000
1709374403.597,-65.918,-34.668,-35.645,-54.688,0.000
1709374403.601,-30.762,-34.180,-32.715,-31.738,0.000
1709374403.605,6.836,-37.109,-31.738,-1.465,0.000
1709374403.609,-24.902,-35.645,-28.809,-26.367,0.000
1709374403.613,-68.848,-36.621,-29.297,-62.988,0.000
1709374403.617,-73.730,-39.551,-33.203,-71.289,0.000
1709374403.621,-41.504,-37.598,-41.504,-44.922,0.000
1709374403.625,-10.742,-30.273,-42.480,-16.113,0.000
1709374403.629,-42.480,-31.738,-38.086,-43.457,0.000
1709374403.632,-70.801,-30.762,-39.062,-68.359,0.000
1709374403.636,-57.617,-30.273,-41.504,-61.035,0.000
1709374403.640,-28.809,-37.109,-38.086,-31.738,0.000
1709374403.644,-1.953,-37.598,-37.109,1.465,0.000
1709374403.648,-27.344,-28.809,-35.645,-18.066,0.000
1709374403.652,-63.965,-25.879,-35.156,-57.129,0.000
1709374403.656,-62.988,-34.180,-37.109,-64.453,0.000
1709374403.660,-37.109,-39.551,-37.109,-41.992,0.000
1709374403.664,-1.953,-32.715,-35.645,-13.184,0.000
1709374403.668,-21.973,-29.297,-33.203,-27.344,0.000
1709374403.672,-59.082,-30.762,-33.203,-56.641,0.000
1709374403.676,-63.477,-31.250,-32.715,-62.012,0.000
1709374403.680,-35.645,-27.832,-32.715,-47.363,0.000
1709374403.683,10.742,-28.320,-30.273,-0.977,0.000
1709374403.687,0.000,-24.414,-33.203,-4.883,0.000
1709374403.691,-50.781,-24.902,-32.715,-45.410,0.000
1709374403.695,-61.523,-25.879,-31.250,-46.387,0.000
1709374403.699,-44.922,-27.344,-40.527,-39.551,0.000
1709374403.703,-1.953,-27.832,-43.457,-18.066,0.000
1709374403.707,-2.441,-26.855,-44.434,-21.484,0.000
1709374403.711,-46.387,-31.250,-44.922,-54.688,0.000
1709374403.715,-59.570,-37.109,-45.410,-62.500,0.000
1709374403.719,-47.852,-33.203,-43.945,-50.781,0.000
1709374403.723,-11.230,-30.273,-43.945,-16.602,0.000
1709374403.727,-2.441,-40.527,-43.457,-0.977,0.000
1709374403.730,-47.363,-44.434,-40.527,-25.391,0.000
1709374403.734,-65.918,-39.062,-38.574,-43.457,0.000
1709374403.738,-49.316,-34.180,-38.574,-40.039,0.000
1709374403.742,-3.906,-31.738,-43.457,-6.836,0.000
1709374403.746,15.137,-32.715,-41.992,3.418,0.000
1709374403.750,-24.414,-33.691,-37.109,-27.832,0.000
1709374403.754,-51.270,-35.645,-35.645,-42.969,0.000
1709374403.758,-40.527,-37.598,-41.016,-37.598,0.000
1709374403.762,-1.465,-33.691,-38.574,-3.906,0.000
1709374403.766,16.113,-29.785,-33.691,19.043,0.000
1709374403.770,-17.578,-32.715,-39.062,-10.254,0.000
1709374403.773,-46.387,-36.133,-42.480,-24.902,0.000
1709374403.777,-54.199,-36.133,-39.062,-23.438,0.000
1709374403.781,-19.043,-30.273,-41.504,-8.789,0.000
1709374403.785,9.766,-39.062,-41.992,8.301,0.000
1709374403.789,-22.949,-38.574,-39.551,-21.973,0.000
1709374403.793,-54.199,-30.273,-36.133,-41.992,0.000
1709374403.797,-56.152,-35.645,-36.133,-48.340,0.000
1709374403.801,-15.625,-36.133,-40.039,-32.227,0.000
1709374403.805,30.273,-32.227,-41.016,-5.371,0.000
1709374403.808,0.488,-33.203,-40.039,-34.180,0.000
1709374403.812,-49.805,-34.180,-39.062,-66.895,0.000
1709374403.816,-63.965,-39.551,-39.551,-68.359,0.000
1709374403.820,-40.527,-46.875,-42.969,-42.480,0.000
1709374403.824,-2.930,-40.039,-41.504,-10.742,0.000
1709374403.828,-20.996,-39.551,-34.668,-23.438,0.000
1709374403.832,-54.199,-39.551,-35.645,-47.363,0.000
1709374403.836,-58.105,-31.250,-35.156,-45.410,0.000
1709374403.839,-32.227,-32.227,-30.273,-22.461,0.000
1709374403.843,18.066,-38.086,-30.273,14.648,0.000
1709374403.847,4.395,-44.922,-30.762,1.953,0.000
1709374403.851,-47.363,-51.758,-27.832,-32.227,0.000
1709374403.855,-56.152,-43.457,-26.367,-36.621,0.000
1709374403.859,-27.832,-41.504,-27.344,-23.926,0.000
1709374403.863,11.719,-47.852,-23.438,20.020,0.000
1709374403.867,4.883,-42.969,-23.438,24.414,0.000
1709374403.871,-39.551,-41.016,-27.832,-28.320,0.000
1709374403.875,-47.852,-40.527,-28.809,-40.039,0.000
1709374403.879,-28.809,-37.598,-27.344,-23.926,0.000
1709374403.882,13.184,-36.133,-25.391,3.418,0.000
1709374403.886,17.090,-36.133,-26.367,-0.977,0.000
1709374403.890,-33.203,-41.992,-25.391,-41.504,0.000
1709374403.894,-50.781,-44.922,-24.414,-55.176,0.000
1709374403.898,-43.945,-43.457,-27.832,-44.922,0.000
1709374403.902,-6.836,-39.551,-34.180,-13.672,0.000
1709374403.906,0.977,-39.062,-36.133,-12.695,0.000
1709374403.909,-50.781,-41.016,-38.574,-49.316,0.000
1709374403.913,-74.219,-41.992,-40.039,-73.730,0.000
1709374403.917,-59.570,-38.086,-38.086,-76.172,0.000
1709374403.921,-24.414,-37.598,-44.434,-52.734,0.000
1709374403.925,-14.648,-39.062,-47.852,-40.527,0.000
1709374403.929,-57.129,-32.715,-44.434,-66.406,0.000
1709374403.933,-72.266,-31.738,-40.039,-81.543,0.000
1709374403.937,-53.223,-29.785,-28.809,-68.359,0.000
1709374403.941,-6.348,-28.809,-27.832,-31.250,0.000
1709374403.945,27.344,-39.551,-33.691,-8.789,0.000
1709374403.948,-15.625,-40.527,-30.762,-34.180,0.000
1709374403.952,-49.316,-40.039,-29.297,-47.363,0.000
1709374403.956,-39.551,-39.551,-31.250,-41.504,0.000
1709374403.960,-2.441,-38.086,-29.297,-15.625,0.000
1709374403.964,20.996,-44.434,-25.391,13.672,0.000
1709374403.968,-13.672,-44.922,-17.578,2.930,0.000
1709374403.972,-41.504,-43.945,-14.648,-20.508,0.000
1709374403.976,-39.551,-50.293,-17.090,-30.762,0.000
1709374403.981,0.000,-54.688,0.000,-7.812,0.000
1709374403.984,0.000,-53.711,0.000,22.461,0.000
1709374403.988,0.000,-48.828,0.000,5.859,0.000
1709374403.992,0.000,-46.387,0.000,-21.484,0.000
1709374403.996,0.000,-46.387,0.000,-29.785,0.000
1709374404.000,0.000,-50.781,0.000,-9.277,0.000
1709374404.004,0.000,-53.223,0.000,24.414,0.000
1709374404.008,0.000,-51.270,0.000,1.953,0.000
1709374404.012,0.000,-50.781,0.000,-37.109,0.000
1709374404.016,0.000,-50.781,0.000,-42.969,0.000
1709374404.020,0.000,-46.387,0.000,-30.273,0.000
1709374404.023,0.000,-48.828,0.000,-5.371,0.000
1709374404.028,-5.371,-49.316,-27.344,-14.648,0.000
1709374404.032,-55.176,-40.039,-29.785,-48.340,0.000
1709374404.035,-58.105,-38.574,-26.367,-55.664,0.000
1709374404.039,-33.691,-41.992,-27.344,-43.945,0.000
1709374404.043,2.930,-37.598,-32.227,-7.324,0.000
1709374404.047,-5.859,-33.691,-35.645,-6.836,0.000
1709374404.051,-55.176,-36.133,-35.156,-48.340,0.000
1709374404.055,-68.359,-32.715,-36.133,-66.406,0.000
1709374404.059,-49.316,-31.738,-40.039,-50.781,0.000
1709374404.063,-11.719,-30.273,-41.992,-9.766,0.000
1709374404.067,-15.625,-33.203,-41.992,-7.324,0.000
1709374404.071,-56.152,-39.062,-40.039,-43.457,0.000
1709374404.075,-75.684,-37.598,-41.504,-57.129,0.000
1709374404.078,-77.637,-39.062,-46.875,-56.641,0.000
1709374404.082,-36.621,-42.969,-49.316,-30.762,0.000
1709374404.086,-13.184,-37.109,-41.016,-13.672,0.000
1709374404.090,-59.082,-31.738,-39.551,-42.480,0.000
1709374404.094,-86.914,-35.645,-44.434,-57.617,0.000
1709374404.098,-72.266,-34.180,-42.480,-48.828,0.000
1709374404.102,-26.367,-33.203,-41.504,-16.602,0.000
1709374404.106,-3.418,-40.527,-41.504,6.348,0.000
1709374404.110,-49.316,-38.574,-41.016,-26.855,0.000
1709374404.114,-74.707,-32.715,-41.016,-60.059,0.000
1709374404.118,-68.848,-33.203,-39.062,-57.129,0.000
1709374404.121,-34.180,-37.598,-43.457,-23.438,0.000
1709374404.125,-5.371,-42.969,-44.922,-4.883,0.000
1709374404.129,-41.016,-38.574,-40.039,-30.762,0.000
1709374404.133,-80.566,-39.062,-41.992,-58.105,0.000
1709374404.137,-80.566,-41.016,-45.898,-65.430,0.000
1709374404.141,-44.434,-40.527,-44.434,-44.434,0.000
1709374404.145,-10.742,-42.480,-42.969,-27.832,0.000
1709374404.149,-32.715,-35.156,-37.109,-37.109,0.000
1709374404.153,-68.848,-39.062,-39.062,-59.082,0.000
1709374404.157,-75.684,-37.598,-40.039,-71.289,0.000
1709374404.160,-46.875,-27.344,-38.086,-40.527,0.000
1709374404.164,-12.207,-35.645,-41.504,-11.230,0.000
1709374404.168,-44.922,-38.086,-42.969,-36.621,0.000
1709374404.172,-91.309,-33.203,-48.828,-67.383,0.000
1709374404.176,-91.309,-37.598,-48.340,-71.289,0.000
1709374404.180,-63.965,-39.062,-44.434,-52.734,0.000
1709374404.184,-27.344,-41.016,-44.922,-20.508,0.000
1709374404.188,-37.598,-35.645,-47.363,-37.109,0.000
1709374404.192,-75.195,-27.832,-44.434,-69.336,0.000
1709374404.196,-79.590,-27.832,-44.922,-61.523,0.000
1709374404.199,-58.105,-29.785,-53.223,-51.758,0.000
1709374404.203,-15.137,-31.250,-51.270,-27.344,0.000
1709374404.207,-21.484,-33.691,-45.898,-27.344,0.000
1709374404.211,-70.801,-33.691,-48.340,-67.871,0.000
1709374404.215,-79.590,-30.273,-51.270,-83.008,0.000
1709374404.219,-58.105,-30.273,-51.270,-73.242,0.000
1709374404.223,-23.926,-32.715,-47.852,-38.086,0.000
1709374404.227,-22.949,-31.250,-42.480,-35.156,0.000
1709374404.230,-70.801,-26.367,-42.480,-74.219,0.000
1709374404.234,-84.473,-23.926,-45.410,-88.379,0.000
1709374404.238,-57.617,-23.438,-36.621,-69.336,0.000
1709374404.242,-12.695,-25.879,-35.156,-23.926,0.000
1709374404.246,-9.277,-27.344,-41.504,-21.484,0.000
1709374404.250,-56.152,-29.297,-41.992,-61.523,0.000
1709374404.254,-71.289,-35.645,-39.551,-73.730,0.000
1709374404.258,-62.988,-34.668,-41.016,-56.152,0.000
1709374404.261,-25.879,-30.762,-44.922,-27.344,0.000
1709374404.265,0.977,-26.367,-38.086,-15.625,0.000
1709374404.269,-42.969,-26.855,-36.133,-49.805,0.000
1709374404.273,-78.613,-34.668,-45.898,-79.102,0.000
1709374404.277,-70.801,-30.762,-47.852,-65.430,0.000
1709374404.281,-32.227,-29.297,-46.875,-32.227,0.000
1709374404.285,-4.395,-37.598,-46.875,-9.277,0.000
1709374404.289,-37.598,-29.785,-39.551,-35.645,0.000
1709374404.293,-66.895,-26.855,-40.039,-65.430,0.000
1709374404.296,-60.059,-28.809,-43.457,-59.082,0.000
1709374404.300,-25.879,-30.762,-43.945,-31.738,0.000
1709374404.304,1.465,-31.738,-46.387,-20.996,0.000
1709374404.308,-33.203,-33.203,-45.898,-53.711,0.000
1709374404.312,-67.871,-36.133,-41.504,-68.359,0.000
1709374404.316,-69.336,-35.645,-41.016,-71.289,0.000
1709374404.320,-42.480,-33.691,-45.410,-54.688,0.000
1709374404.323,-4.883,-37.598,-44.922,-24.414,0.000
1709374404.327,-34.180,-32.715,-41.016,-40.527,0.000
1709374404.331,-78.613,-29.785,-38.574,-69.336,0.000
1709374404.335,-76.660,-32.227,-40.527,-82.520,0.000
1709374404.339,-40.039,-32.227,-48.828,-58.105,0.000
1709374404.343,-1.465,-33.691,-47.363,-14.160,0.000
1709374404.347,-23.926,-32.715,-40.039,-27.832,0.000
1709374404.351,-61.523,-38.574,-42.480,-57.129,0.000
1709374404.355,-68.848,-46.875,-42.969,-62.988,0.000
1709374404.359,-54.688,-48.340,-41.016,-52.246,0.000
1709374404.363,-12.207,-43.457,-37.598,-13.184,0.000
1709374404.367,-22.949,-42.480,-35.156,-18.066,0.000
1709374404.371,-70.801,-46.875,-38.086,-62.012,0.000
1709374404.375,-77.148,-48.340,-37.109,-70.801,0.000
1709374404.378,-50.781,-44.922,-36.621,-47.852,0.000
1709374404.382,-9.277,-45.410,-40.039,-14.160,0.000
1709374404.386,-12.695,-39.551,-36.133,-20.020,0.000
1709374404.390,-60.547,-32.715,-29.297,-50.781,0.000
1709374404.394,-73.242,-32.715,-29.297,-59.570,0.000
1709374404.398,-53.711,-37.109,-34.180,-48.340,0.000
1709374404.402,-12.695,-42.480,-35.156,-15.625,0.000
1709374404.406,-15.137,-44.922,-34.668,-18.555,0.000
1709374404.410,-63.477,-48.828,-41.016,-57.129,0.000
1709374404.414,-71.289,-45.410,-43.457,-72.266,0.000
1709374404.418,-50.293,-40.527,-41.992,-65.430,0.000
1709374404.422,-7.324,-37.109,-38.574,-34.180,0.000
1709374404.426,3.906,-35.645,-41.016,-27.832,0.000
1709374404.429,-45.898,-34.180,-43.457,-71.289,0.000
1709374404.433,-69.336,-35.645,-39.551,-78.125,0.000
1709374404.437,-52.246,-35.156,-38.574,-50.293,0.000
1709374404.441,-14.648,-31.738,-42.969,-30.762,0.000
1709374404.445,1.465,-33.203,-39.551,-16.602,0.000
1709374404.449,-38.086,-40.527,-36.133,-38.574,0.000
1709374404.453,-64.453,-37.598,-34.668,-58.105,0.000
1709374404.457,-56.641,-31.250,-29.785,-57.617,0.000
1709374404.461,-26.367,-36.133,-32.227,-30.273,0.000
1709374404.465,-5.371,-41.992,-37.109,-15.625,0.000
1709374404.469,-40.039,-41.992,-37.598,-50.293,0.000
1709374404.473,-75.195,-42.969,-37.598,-72.266,0.000
1709374404.476,-70.312,-43.945,-40.039,-71.289,0.000
1709374404.480,-36.621,-44.922,-40.527,-47.363,0.000
1709374404.484,-2.441,-42.969,-36.621,-22.461,0.000
1709374404.488,-33.203,-42.480,-39.062,-49.316,0.000
1709374404.492,-67.383,-46.387,-38.574,-72.266,0.000
1709374404.496,-64.941,-39.551,-35.156,-69.824,0.000
1709374404.500,-43.945,-33.203,-40.527,-53.711,0.000
1709374404.504,-5.371,-35.156,-38.574,-20.996,0.000
1709374404.508,-28.320,-42.480,-35.156,-38.574,0.000
1709374404.512,-69.336,-42.969,-33.203,-69.824,0.000
1709374404.516,-75.684,-31.250,-37.598,-70.801,0.000
1709374404.519,-49.805,-25.391,-39.062,-41.504,0.000
1709374404.523,-5.859,-32.715,-42.969,-7.324,0.000
1709374404.527,-22.949,-38.086,-49.805,-22.949,0.000
1709374404.531,-68.848,-35.645,-44.922,-63.477,0.000
1709374404.535,-74.707,-37.109,-40.039,-67.383,0.000
1709374404.539,-45.410,-40.527,-40.527,-47.363,0.000
1709374404.543,2.930,-34.668,-37.109,-10.254,0.000
1709374404.547,-4.395,-35.645,-35.156,-12.207,0.000
1709374404.551,-49.316,-39.062,-35.645,-46.875,0.000
1709374404.554,-55.176,-37.109,-33.691,-54.688,0.000
1709374404.558,-32.715,-37.598,-34.668,-41.016,0.000
1709374404.562,4.883,-35.645,-29.785,-2.441,0.000
1709374404.566,-6.348,-37.109,-31.738,-5.371,0.000
1709374404.570,-53.223,-42.969,-42.969,-38.086,0.000
1709374404.574,-61.523,-46.387,-40.039,-47.363,0.000
1709374404.578,-47.852,-49.316,-36.621,-41.504,0.000
1709374404.582,-1.953,-51.758,-36.133,-15.137,0.000
1709374404.586,13.672,-41.016,-31.250,-8.301,0.000
1709374404.589,-32.227,-37.109,-31.250,-37.109,0.000
1709374404.593,-58.105,-41.992,-31.250,-55.664,0.000
1709374404.597,-51.758,-38.086,-32.715,-47.852,0.000
1709374404.601,-13.184,-33.691,-36.621,-6.836,0.000
1709374404.605,0.000,-32.715,-36.133,-5.371,0.000
1709374404.609,-42.480,-34.180,-33.691,-45.410,0.000
1709374404.613,-70.801,-40.039,-37.598,-48.828,0.000
1709374404.617,-63.477,-44.434,-40.527,-42.480,0.000
1709374404.621,-20.996,-43.457,-41.016,-23.438,0.000
1709374404.625,1.953,-40.039,-38.574,1.465,0.000
1709374404.629,-39.551,-36.621,-36.621,-27.832,0.000
1709374404.632,-66.406,-33.203,-31.738,-53.711,0.000
1709374404.636,-57.129,-33.203,-31.738,-55.176,0.000
1709374404.640,-29.297,-33.691,-33.691,-32.227,0.000
1709374404.644,-10.254,-30.273,-32.715,-3.906,0.000
1709374404.648,-33.691,-28.320,-33.691,-30.273,0.000
1709374404.652,-64.941,-31.738,-35.156,-56.152,0.000
1709374404.656,-68.359,-37.109,-35.645,-62.012,0.000
1709374404.659,-29.785,-35.156,-38.086,-35.156,0.000
1709374404.663,0.977,-37.109,-44.434,-8.789,0.000
1709374404.667,-29.785,-37.109,-37.598,-32.227,0.000
1709374404.671,-62.500,-32.227,-32.227,-50.293,0.000
1709374404.675,-68.359,-38.086,-37.598,-59.082,0.000
1709374404.679,-42.969,-40.527,-39.551,-49.805,0.000
1709374404.683,-12.207,-42.969,-41.016,-17.090,0.000
1709374404.686,-34.180,-49.316,-40.039,-21.484,0.000
1709374404.690,-68.848,-43.457,-38.086,-46.387,0.000
1709374404.694,-67.383,-35.645,-34.180,-49.316,0.000
1709374404.698,-41.016,-40.527,-35.645,-27.344,0.000
1709374404.702,4.395,-41.992,-37.109,7.324,0.000
1709374404.706,-8.301,-38.574,-35.645,-9.277,0.000
1709374404.710,-60.547,-40.527,-34.180,-51.270,0.000
1709374404.714,-66.895,-35.156,-30.762,-53.711,0.000
1709374404.718,-34.668,-35.645,-30.762,-26.367,0.000
1709374404.722,14.648,-37.109,-30.273,6.836,0.000
1709374404.725,7.324,-29.785,-29.785,-7.812,0.000
