timestamps,TP9,AF7,AF8,TP10,Right AUX
1709298824.894,-20.996,-46.875,-40.039,-17.090,0.000
1709298824.898,-23.926,-41.016,-40.527,-11.719,0.000
1709298824.902,-34.180,-27.344,-36.621,-21.973,0.000
1709298824.906,-24.902,-21.973,-32.227,-24.414,0.000
1709298824.910,-12.695,-24.414,-24.902,-15.137,0.000
1709298824.913,-6.836,-35.645,-26.367,-9.277,0.000
1709298824.917,-4.883,-41.016,-26.367,-10.254,0.000
1709298824.921,-6.348,-27.344,-32.715,-11.719,0.000
1709298824.925,-7.812,-20.020,-37.598,-10.254,0.000
1709298824.929,-7.812,-33.691,-30.762,-15.137,0.000
1709298824.933,-6.348,-42.480,-37.109,-19.531,0.000
1709298824.937,-6.348,-28.320,-39.062,-22.949,0.000
1709298824.941,0.000,-25.879,-27.832,-25.391,0.000
1709298824.945,0.000,-27.832,-34.180,-26.855,0.000
1709298824.949,0.000,-24.414,-41.016,-13.184,0.000
1709298824.953,0.000,-34.668,-36.621,-4.395,0.000
1709298824.956,0.000,-53.223,-40.039,-26.367,0.000
1709298824.960,0.000,-41.992,-37.598,-36.133,0.000
1709298824.964,0.000,-18.066,-38.086,-29.297,0.000
1709298824.968,0.000,-28.809,-39.551,-23.438,0.000
1709298824.972,0.000,-44.922,-40.039,-20.020,0.000
1709298824.976,0.000,-34.668,-42.969,-25.391,0.000
1709298824.980,0.000,-22.949,-36.621,-30.762,0.000
1709298824.984,0.000,-24.414,-35.156,-29.297,0.000
1709298824.988,-38.086,-30.762,-46.875,-16.602,0.000
1709298824.992,-36.621,-32.715,-40.039,-7.812,0.000
1709298824.996,-30.273,-58.105,-28.320,-16.602,0.000
1709298824.999,-31.738,-71.777,-20.996,-18.555,0.000
1709298825.003,-42.969,-40.527,-29.785,-20.508,0.000
1709298825.007,-44.434,-34.180,-42.480,-26.855,0.000
1709298825.011,-34.668,-58.594,-35.645,-19.043,0.000
1709298825.015,-26.367,-50.293,-35.645,-18.066,0.000
1709298825.019,-35.156,-33.691,-46.387,-19.531,0.000
1709298825.023,-42.480,-31.250,-47.363,-20.020,0.000
1709298825.027,-33.691,-22.461,-41.016,-14.648,0.000
1709298825.031,-20.020,-24.414,-32.715,1.465,0.000
1709298825.035,-17.578,-39.551,-29.297,-0.977,0.000
1709298825.039,-24.902,-41.992,-32.715,-13.672,0.000
1709298825.042,-21.973,-28.320,-33.691,-13.184,0.000
1709298825.046,-23.926,-30.273,-30.762,-5.859,0.000
1709298825.050,-31.738,-44.434,-36.133,-9.277,0.000
1709298825.054,-30.762,-46.387,-37.109,-11.719,0.000
1709298825.058,-30.762,-39.551,-26.855,-13.184,0.000
1709298825.062,-39.062,-40.527,-36.621,-25.391,0.000
1709298825.066,-39.551,-34.668,-39.062,-19.043,0.000
1709298825.070,-37.598,-32.227,-30.762,-20.020,0.000
1709298825.074,-30.273,-39.062,-29.785,-33.203,0.000
1709298825.078,-25.879,-35.645,-29.785,-29.297,0.000
1709298825.082,-40.527,-45.410,-37.598,-31.250,0.000
1709298825.085,-47.363,-53.223,-38.574,-27.344,0.000
1709298825.089,-35.156,-31.738,-27.832,-24.414,0.000
1709298825.093,-33.691,-40.039,-32.715,-37.109,0.000
1709298825.097,-41.504,-53.711,-37.598,-50.781,0.000
1709298825.101,-45.898,-30.762,-39.551,-49.316,0.000
1709298825.105,-45.410,-16.113,-35.156,-48.340,0.000
1709298825.109,-39.551,-35.156,-25.879,-27.344,0.000
1709298825.113,-31.250,-48.828,-33.203,-5.371,0.000
1709298825.117,-27.344,-23.926,-39.551,-21.973,0.000
1709298825.121,-36.133,-11.719,-41.992,-39.062,0.000
1709298825.125,-45.898,-15.625,-42.969,-45.410,0.000
1709298825.128,-48.340,-16.113,-40.039,-47.363,0.000
1709298825.132,-45.410,-14.160,-36.621,-48.828,0.000
1709298825.136,-45.898,-20.996,-40.039,-53.223,0.000
1709298825.140,-50.293,-36.621,-46.387,-62.500,0.000
1709298825.144,-59.570,-42.480,-46.387,-69.824,0.000
1709298825.148,-55.664,-26.855,-46.387,-61.523,0.000
1709298825.152,-52.246,-34.668,-57.129,-48.340,0.000
1709298825.156,-54.199,-63.965,-62.012,-40.039,0.000
1709298825.160,-48.828,-49.805,-52.734,-53.711,0.000
1709298825.164,-44.922,-39.551,-47.852,-60.547,0.000
1709298825.167,-34.180,-56.641,-47.363,-48.828,0.000
1709298825.171,-28.809,-49.805,-38.574,-41.992,0.000
1709298825.175,-25.391,-31.738,-35.645,-43.945,0.000
1709298825.179,-21.484,-32.715,-35.645,-47.363,0.000
1709298825.183,-33.203,-43.457,-37.109,-53.223,0.000
1709298825.187,-35.156,-41.992,-49.805,-48.340,0.000
1709298825.191,-24.902,-41.016,-49.805,-33.203,0.000
1709298825.195,-26.367,-41.992,-32.715,-31.738,0.000
1709298825.199,-31.738,-41.504,-30.762,-34.180,0.000
1709298825.203,-22.461,-37.109,-35.156,-24.414,0.000
1709298825.207,-25.879,-36.621,-34.668,-15.625,0.000
1709298825.210,-34.180,-46.387,-33.203,-7.324,0.000
1709298825.214,-28.320,-41.992,-31.250,-6.836,0.000
1709298825.218,-32.227,-41.992,-36.133,-18.555,0.000
1709298825.222,-46.387,-43.945,-40.527,-25.391,0.000
1709298825.226,-48.340,-50.781,-34.180,-19.043,0.000
1709298825.230,-49.316,-42.969,-37.109,-18.555,0.000
1709298825.234,-53.223,-28.320,-34.180,-34.180,0.000
1709298825.238,-62.988,-29.297,-38.086,-52.246,0.000
1709298825.242,-72.754,-30.273,-46.875,-55.176,0.000
1709298825.246,-72.266,-31.738,-44.434,-46.387,0.000
1709298825.250,-72.266,-40.527,-44.922,-40.527,0.000
1709298825.253,-67.383,-51.270,-45.410,-49.316,0.000
1709298825.257,-60.547,-43.945,-50.293,-57.617,0.000
1709298825.261,-65.430,-41.504,-52.246,-71.777,0.000
1709298825.265,-68.848,-43.457,-40.039,-70.801,0.000
1709298825.269,-60.547,-43.457,-40.527,-63.965,0.000
1709298825.273,-52.246,-43.945,-45.898,-62.012,0.000
1709298825.277,-49.805,-42.480,-51.758,-59.570,0.000
1709298825.281,-50.781,-37.109,-53.223,-63.965,0.000
1709298825.285,-53.711,-38.086,-53.223,-58.105,0.000
1709298825.289,-43.457,-43.457,-49.805,-30.762,0.000
1709298825.292,-37.598,-45.898,-43.945,-18.066,0.000
1709298825.296,-39.062,-47.363,-43.945,-25.879,0.000
1709298825.300,-33.203,-47.363,-45.410,-32.227,0.000
1709298825.304,-34.180,-43.945,-45.898,-28.809,0.000
1709298825.308,-35.156,-52.734,-46.875,-20.996,0.000
1709298825.312,-35.645,-49.805,-51.758,-31.250,0.000
1709298825.316,-35.645,-41.016,-45.410,-43.457,0.000
1709298825.320,-38.574,-41.016,-39.551,-41.016,0.000
1709298825.324,-40.039,-35.645,-46.387,-37.598,0.000
1709298825.328,-35.156,-25.391,-50.781,-38.574,0.000
1709298825.332,-27.344,-30.762,-47.363,-38.086,0.000
1709298825.335,-22.949,-37.109,-42.969,-45.410,0.000
1709298825.339,-37.109,-29.785,-45.410,-48.828,0.000
1709298825.343,-55.176,-20.996,-47.852,-51.758,0.000
1709298825.347,-54.199,-26.855,-42.480,-52.734,0.000
1709298825.351,-51.758,-46.875,-42.480,-46.875,0.000
1709298825.355,-51.758,-34.180,-46.875,-45.898,0.000
1709298825.359,-49.805,-21.973,-40.527,-48.828,0.000
1709298825.363,-52.734,-38.086,-35.645,-46.875,0.000
1709298825.367,-57.129,-42.480,-44.434,-53.223,0.000
1709298825.371,-61.523,-50.781,-42.969,-55.176,0.000
1709298825.375,-52.246,-47.363,-42.480,-56.152,0.000
1709298825.378,-41.504,-35.156,-43.457,-62.500,0.000
1709298825.382,-56.152,-41.016,-49.805,-62.988,0.000
1709298825.386,-67.383,-33.203,-55.664,-58.594,0.000
1709298825.390,-58.594,-28.320,-55.176,-47.852,0.000
1709298825.394,-55.176,-35.645,-63.965,-49.805,0.000
1709298825.398,-55.664,-38.574,-65.430,-57.129,0.000
1709298825.402,-62.988,-34.180,-57.129,-67.871,0.000
1709298825.406,-67.383,-40.039,-55.176,-71.289,0.000
1709298825.410,0.000,-42.969,0.000,0.000,0.000
1709298825.414,0.000,-44.434,0.000,0.000,0.000
1709298825.418,0.000,-46.387,0.000,0.000,0.000
1709298825.421,0.000,-49.316,0.000,0.000,0.000
1709298825.425,0.000,-45.410,0.000,0.000,0.000
1709298825.429,0.000,-38.086,0.000,0.000,0.000
1709298825.433,0.000,-41.992,0.000,0.000,0.000
1709298825.437,0.000,-44.434,0.000,0.000,0.000
1709298825.441,0.000,-45.898,0.000,0.000,0.000
1709298825.445,0.000,-43.457,0.000,0.000,0.000
1709298825.449,0.000,-38.574,0.000,0.000,0.000
1709298825.453,0.000,-42.480,0.000,0.000,0.000
1709298825.457,-20.020,-52.734,-41.992,-19.043,0.000
1709298825.461,-24.414,-46.875,-46.875,-26.367,0.000
1709298825.464,-32.715,-28.320,-51.270,-19.043,0.000
1709298825.468,-37.598,-35.156,-48.828,-1.465,0.000
1709298825.472,-40.039,-47.852,-39.062,-7.324,0.000
1709298825.476,-45.410,-38.086,-28.320,-23.926,0.000
1709298825.480,-57.617,-27.344,-20.996,-43.457,0.000
1709298825.484,-59.082,-43.945,-22.461,-44.922,0.000
1709298825.488,-63.965,-49.316,-28.320,-29.785,0.000
1709298825.492,-75.195,-33.691,-27.344,-33.203,0.000
1709298825.496,-76.660,-39.062,-31.250,-50.293,0.000
1709298825.500,-69.824,-50.293,-32.227,-64.453,0.000
1709298825.504,-62.500,-40.527,-30.273,-66.406,0.000
1709298825.507,-55.664,-44.434,-32.715,-62.012,0.000
1709298825.511,-45.410,-55.664,-30.762,-58.594,0.000
1709298825.515,-38.086,-53.223,-31.250,-57.129,0.000
1709298825.519,-45.410,-50.781,-40.039,-62.012,0.000
1709298825.523,-52.246,-25.879,-43.457,-72.266,0.000
1709298825.527,-40.039,-9.277,-38.086,-67.871,0.000
1709298825.531,-30.762,-18.066,-34.180,-42.480,0.000
1709298825.535,-26.367,-26.855,-38.086,-36.133,0.000
1709298825.539,-31.738,-30.273,-48.828,-52.246,0.000
1709298825.543,-41.992,-36.621,-51.270,-51.270,0.000
1709298825.546,-37.109,-38.086,-42.480,-34.180,0.000
1709298825.550,-25.391,-37.598,-33.203,-15.137,0.000
1709298825.554,-19.043,-48.340,-36.621,-24.902,0.000
1709298825.558,-27.832,-34.668,-40.527,-49.805,0.000
1709298825.562,-33.203,-7.812,-42.480,-50.781,0.000
1709298825.566,-23.926,-19.531,-46.875,-39.062,0.000
1709298825.570,-19.531,-30.273,-39.551,-34.668,0.000
1709298825.574,-24.902,-11.719,-36.621,-33.203,0.000
1709298825.578,-23.926,-10.254,-38.086,-27.832,0.000
1709298825.582,-23.926,-14.648,-42.480,-41.504,0.000
1709298825.586,-34.668,-4.883,-44.434,-49.805,0.000
1709298825.589,-29.785,-7.324,-40.039,-33.203,0.000
1709298825.593,-17.090,-5.859,-38.574,-33.691,0.000
1709298825.597,-19.531,0.488,-42.969,-42.480,0.000
1709298825.601,-19.043,-6.836,-48.828,-36.133,0.000
1709298825.605,-11.719,-5.371,-52.246,-28.320,0.000
1709298825.609,-6.836,9.277,-51.758,-18.555,0.000
1709298825.613,1.465,15.625,-61.523,-15.137,0.000
1709298825.617,5.859,20.020,-57.129,-32.715,0.000
1709298825.621,5.371,12.207,-54.199,-37.598,0.000
1709298825.625,2.441,13.672,-65.430,-32.715,0.000
1709298825.629,-1.465,8.789,-63.965,-33.691,0.000
1709298825.632,11.719,12.207,-62.500,-20.996,0.000
1709298825.636,17.090,19.043,-71.289,-28.809,0.000
1709298825.640,7.324,11.230,-80.566,-32.227,0.000
1709298825.644,15.625,24.902,-74.219,-35.156,0.000
1709298825.648,27.832,37.109,-67.871,-40.039,0.000
1709298825.652,28.809,44.922,-77.148,-33.203,0.000
1709298825.656,30.273,42.969,-91.797,-33.203,0.000
1709298825.660,13.672,27.344,-90.820,-42.480,0.000
1709298825.664,10.254,25.879,-83.008,-34.668,0.000
1709298825.668,25.879,31.738,-82.520,-12.207,0.000
1709298825.671,37.598,16.113,-83.984,-8.301,0.000
1709298825.675,43.945,19.043,-81.543,-23.926,0.000
1709298825.679,34.668,51.270,-82.031,-31.738,0.000
1709298825.683,13.184,53.711,-84.473,-33.691,0.000
1709298825.687,10.254,36.621,-83.984,-22.949,0.000
1709298825.691,22.461,36.621,-74.707,-2.930,0.000
1709298825.695,21.973,49.316,-67.871,-15.625,0.000
1709298825.699,17.578,42.969,-74.707,-29.297,0.000
1709298825.703,20.508,36.133,-79.102,-20.020,0.000
1709298825.707,20.508,25.391,-76.660,-7.812,0.000
1709298825.711,22.949,9.277,-83.496,7.324,0.000
1709298825.714,22.461,6.348,-82.520,3.418,0.000
1709298825.718,9.766,21.973,-72.266,-24.414,0.000
1709298825.722,-5.859,34.668,-70.801,-27.832,0.000
1709298825.726,0.000,33.203,-66.406,1.953,0.000
1709298825.730,7.324,24.902,-67.871,-1.465,0.000
1709298825.734,10.742,20.508,-64.453,-3.418,0.000
1709298825.738,10.742,24.902,-64.453,2.441,0.000
1709298825.742,-4.395,10.254,-70.312,-21.973,0.000
1709298825.746,-13.184,8.301,-62.500,-19.043,0.000
1709298825.750,-7.812,23.438,-58.594,-8.301,0.000
1709298825.754,-12.207,19.043,-62.012,-13.672,0.000
1709298825.757,-13.672,-3.418,-54.199,-11.719,0.000
1709298825.761,-22.949,-22.949,-51.270,-13.184,0.000
1709298825.765,-36.133,-2.930,-53.223,-25.391,0.000
1709298825.769,-22.461,22.461,-49.805,-11.719,0.000
1709298825.773,-14.648,2.930,-52.734,0.488,0.000
1709298825.777,-22.461,-8.789,-56.641,-20.508,0.000
1709298825.781,-36.133,-9.766,-57.617,-25.391,0.000
1709298825.785,-41.016,-3.418,-58.594,-36.621,0.000
1709298825.789,-29.785,5.859,-46.875,-53.711,0.000
1709298825.793,-19.043,0.977,-33.691,-39.062,0.000
1709298825.797,-29.785,-14.160,-39.551,-33.203,0.000
1709298825.800,-37.598,-23.926,-49.805,-35.645,0.000
1709298825.804,-32.715,-15.625,-50.781,-38.574,0.000
1709298825.808,-33.691,-4.883,-47.363,-35.645,0.000
1709298825.812,-28.809,-2.441,-43.945,-23.926,0.000
1709298825.816,-17.090,-7.812,-41.504,-21.973,0.000
1709298825.820,-25.879,-14.648,-46.387,-29.785,0.000
1709298825.824,-29.785,-7.324,-50.293,-29.785,0.000
1709298825.828,-18.555,-9.766,-52.734,-16.113,0.000
1709298825.832,-6.836,-25.879,-49.805,-15.137,0.000
1709298825.836,-6.836,-27.832,-46.875,-21.484,0.000
1709298825.840,-23.438,-6.348,-52.246,-35.156,0.000
1709298825.843,-31.738,11.719,-51.270,-44.922,0.000
1709298825.847,-45.410,4.395,-63.477,-31.250,0.000
1709298825.851,-36.133,-4.883,-70.312,-19.531,0.000
1709298825.855,-22.461,-5.371,-55.664,-57.617,0.000
1709298825.859,-36.621,-13.184,-46.387,-75.684,0.000
1709298825.863,-42.480,-18.066,-49.316,-52.734,0.000
1709298825.867,-31.250,7.812,-53.223,-50.293,0.000
1709298825.871,-34.668,20.996,-57.617,-47.852,0.000
1709298825.875,-31.738,15.625,-61.035,-37.109,0.000
1709298825.879,-18.066,15.137,-59.570,-36.133,0.000
1709298825.883,-27.832,13.184,-59.082,-35.645,0.000
1709298825.886,-23.926,1.465,-62.012,-24.414,0.000
1709298825.890,-14.160,3.418,-65.918,-14.648,0.000
1709298825.894,-7.812,19.043,-55.664,-10.254,0.000
1709298825.898,-19.043,19.043,-41.992,-4.883,0.000
1709298825.902,-22.949,3.906,-38.574,3.418,0.000
1709298825.906,-8.789,-1.953,-30.762,18.066,0.000
1709298825.910,-14.160,7.812,-32.715,2.441,0.000
1709298825.914,-19.043,10.742,-39.062,-15.137,0.000
1709298825.918,-19.043,20.508,-39.551,-13.184,0.000
1709298825.922,-31.738,21.484,-40.527,-36.133,0.000
1709298825.925,-28.809,-5.371,-37.598,-30.273,0.000
1709298825.929,-15.137,-5.371,-34.180,-13.672,0.000
1709298825.933,-19.043,19.531,-41.504,-21.973,0.000
1709298825.937,-30.273,21.484,-48.340,-30.762,0.000
1709298825.941,-32.227,13.184,-42.480,-36.133,0.000
1709298825.945,-28.809,16.113,-41.504,-30.762,0.000
1709298825.949,-24.902,23.438,-43.945,-14.648,0.000
1709298825.953,-26.367,22.949,-40.039,-4.395,0.000
1709298825.957,-28.809,22.461,-39.062,-12.207,0.000
1709298825.961,-22.461,13.184,-45.410,-25.879,0.000
1709298825.965,-18.066,5.859,-43.945,-26.855,0.000
1709298825.968,-23.438,14.160,-41.016,-19.531,0.000
1709298825.972,-28.809,22.461,-45.898,-33.691,0.000
1709298825.976,-29.297,26.367,-41.992,-51.270,0.000
1709298825.980,-30.762,19.043,-44.434,-56.152,0.000
1709298825.984,-29.297,16.602,-50.781,-45.898,0.000
1709298825.988,-37.109,20.508,-42.480,-38.086,0.000
1709298825.992,-40.527,10.742,-27.344,-31.738,0.000
1709298825.996,-34.668,2.930,-29.297,-29.785,0.000
1709298826.000,-42.969,17.578,-36.133,-42.480,0.000
1709298826.004,-42.480,31.250,-35.645,-38.086,0.000
1709298826.007,-38.086,11.230,-35.156,-23.926,0.000
1709298826.011,-31.738,-7.324,-25.879,-2.930,0.000
1709298826.015,-20.996,-0.488,-25.879,-11.230,0.000
1709298826.019,-38.574,6.836,-26.367,-36.621,0.000
1709298826.023,-52.246,16.113,-30.273,-35.645,0.000
1709298826.027,-42.969,18.066,-38.086,-34.668,0.000
1709298826.031,-39.062,2.441,-37.109,-18.555,0.000
1709298826.035,-40.039,-5.859,-41.504,-18.555,0.000
1709298826.039,-41.016,13.672,-43.945,-35.645,0.000
1709298826.043,-39.062,26.855,-38.086,-37.109,0.000
1709298826.047,-32.227,16.602,-39.551,-30.762,0.000
1709298826.050,-27.344,-5.859,-42.969,-29.297,0.000
1709298826.054,-14.648,-16.602,-37.109,-25.879,0.000
1709298826.058,-12.207,-16.602,-36.621,-19.043,0.000
1709298826.062,-39.551,-11.230,-47.363,-44.922,0.000
1709298826.066,-51.758,-1.953,-51.270,-62.500,0.000
1709298826.070,-41.504,-3.418,-43.945,-55.176,0.000
1709298826.074,-27.344,-12.207,-37.598,-47.852,0.000
1709298826.078,-25.391,-6.348,-32.715,-52.734,0.000
1709298826.082,-34.668,-8.301,-38.086,-61.035,0.000
1709298826.086,-40.039,-13.184,-48.828,-58.105,0.000
1709298826.090,-39.551,5.859,-43.457,-52.734,0.000
1709298826.093,-38.086,8.789,-41.016,-52.246,0.000
1709298826.097,-43.457,-10.254,-40.039,-59.570,0.000
1709298826.101,-59.570,-13.672,-31.738,-65.918,0.000
1709298826.105,-67.871,-4.883,-39.551,-66.406,0.000
1709298826.109,-57.617,-17.090,-44.922,-41.504,0.000
1709298826.113,-43.945,-30.762,-38.086,-20.996,0.000
1709298826.117,-38.086,-10.742,-39.062,-29.297,0.000
1709298826.121,-50.781,-5.859,-40.527,-47.363,0.000
1709298826.125,-67.871,-14.160,-45.410,-54.688,0.000
1709298826.129,-63.477,-14.648,-40.039,-30.762,0.000
1709298826.133,-45.898,-22.949,-32.227,-11.230,0.000
1709298826.136,-50.293,-21.484,-43.945,-26.367,0.000
1709298826.140,-57.617,-5.371,-44.434,-45.410,0.000
1709298826.144,-49.805,1.465,-42.480,-44.434,0.000
1709298826.148,-37.598,-10.254,-43.457,-34.668,0.000
1709298826.152,-26.367,-12.695,-40.039,-17.578,0.000
1709298826.156,-24.902,-24.414,-35.156,-1.953,0.000
1709298826.160,-38.086,-15.625,-42.480,-15.137,0.000
1709298826.164,-47.363,6.348,-49.316,-28.320,0.000
1709298826.168,-47.852,7.812,-37.109,-22.949,0.000
1709298826.172,-43.457,14.160,-34.180,-12.207,0.000
1709298826.176,-28.320,12.207,-39.551,-5.859,0.000
1709298826.179,-28.809,6.348,-38.086,-15.625,0.000
1709298826.183,-44.922,-3.418,-39.551,-41.504,0.000
1709298826.187,-50.781,-6.836,-46.387,-41.992,0.000
1709298826.191,-54.688,8.789,-46.387,-33.691,0.000
1709298826.195,-41.504,15.137,-43.457,-41.992,0.000
1709298826.199,-29.785,0.000,-41.504,-52.734,0.000
1709298826.203,-51.270,-8.789,-39.551,-50.781,0.000
1709298826.207,-52.246,-3.418,-37.598,-28.320,0.000
1709298826.211,-47.363,-14.160,-38.086,-32.227,0.000
1709298826.215,-49.805,-28.320,-41.016,-48.828,0.000
1709298826.219,-44.922,-9.277,-38.574,-46.875,0.000
1709298826.222,-47.363,2.930,-44.434,-44.922,0.000
1709298826.226,-46.387,-7.324,-47.363,-35.645,0.000
1709298826.230,-40.527,0.977,-40.039,-25.879,0.000
1709298826.234,-44.434,6.836,-41.016,-18.066,0.000
1709298826.238,-44.434,-0.488,-34.180,-12.695,0.000
1709298826.242,-41.016,-1.953,-29.297,-28.320,0.000
1709298826.246,-32.227,-3.906,-35.645,-36.621,0.000
1709298826.250,-29.785,0.000,-33.691,-14.648,0.000
1709298826.254,-30.762,-5.859,-40.527,-9.277,0.000
1709298826.258,-32.227,-12.695,-47.363,-16.113,0.000
1709298826.261,-42.480,-13.672,-47.363,-18.066,0.000
1709298826.265,-33.203,-1.465,-44.922,-22.461,0.000
1709298826.269,-20.508,-1.465,-30.762,-19.043,0.000
1709298826.273,-42.969,-2.930,-34.668,-27.832,0.000
1709298826.277,-47.852,9.766,-39.062,-35.156,0.000
1709298826.281,-32.715,15.137,-40.527,-29.297,0.000
1709298826.285,-35.645,15.625,-43.945,-28.320,0.000
1709298826.289,-31.738,9.277,-47.363,-24.414,0.000
1709298826.293,-38.086,-0.977,-46.875,-27.344,0.000
1709298826.297,-43.457,2.930,-46.387,-38.086,0.000
1709298826.301,-43.945,8.301,-48.340,-47.363,0.000
1709298826.304,-51.270,0.488,-40.527,-51.270,0.000
1709298826.308,-45.898,-12.695,-37.109,-43.457,0.000
1709298826.312,-49.316,-12.207,-42.969,-54.688,0.000
1709298826.316,-55.664,-3.906,-45.410,-68.848,0.000
1709298826.320,-55.664,-13.672,-38.574,-71.777,0.000
1709298826.324,-60.547,-5.859,-34.668,-66.895,0.000
1709298826.328,-65.430,-0.488,-42.969,-57.129,0.000
1709298826.332,-51.758,-6.348,-41.504,-44.922,0.000
1709298826.336,-42.480,3.418,-41.016,-50.293,0.000
1709298826.340,-52.246,4.883,-39.062,-59.082,0.000
1709298826.344,-51.270,-9.277,-37.109,-49.316,0.000
1709298826.347,-44.922,-28.320,-50.293,-41.992,0.000
1709298826.351,-41.992,-31.738,-43.945,-42.480,0.000
1709298826.355,-34.668,-5.859,-32.715,-30.273,0.000
1709298826.359,-46.387,6.348,-34.180,-27.344,0.000
1709298826.363,-48.340,1.953,-41.016,-41.016,0.000
1709298826.367,-33.691,-0.488,-51.270,-23.926,0.000
1709298826.371,-35.645,-13.184,-37.109,-13.184,0.000
1709298826.375,-42.969,-13.672,-23.926,-27.344,0.000
1709298826.379,-51.758,4.883,-32.227,-41.504,0.000
1709298826.383,-45.898,11.719,-38.574,-48.340,0.000
1709298826.386,-39.062,5.371,-37.598,-39.062,0.000
1709298826.390,-31.250,-4.883,-28.809,-26.367,0.000
1709298826.394,-24.902,-2.930,-34.668,-24.414,0.000
1709298826.398,-24.414,10.254,-39.062,-32.227,0.000
1709298826.402,-26.855,15.137,-36.621,-32.715,0.000
1709298826.406,-30.273,17.578,-39.551,-38.086,0.000
1709298826.410,-28.809,11.719,-34.668,-35.156,0.000
1709298826.414,-34.180,0.977,-35.645,-23.438,0.000
1709298826.418,-35.645,-2.441,-32.715,-28.809,0.000
1709298826.422,-34.180,-9.766,-26.855,-41.992,0.000
1709298826.426,-33.691,0.000,-35.645,-42.969,0.000
1709298826.429,-37.109,7.812,-46.387,-41.504,0.000
1709298826.433,-41.016,3.418,-44.922,-51.270,0.000
1709298826.437,-35.156,6.836,-40.527,-50.293,0.000
1709298826.441,-30.273,0.000,-34.668,-38.574,0.000
1709298826.445,-44.434,-23.438,-38.574,-44.434,0.000
1709298826.449,-45.410,-21.484,-43.945,-48.340,0.000
1709298826.453,-41.504,-1.953,-38.086,-48.828,0.000
1709298826.457,-37.109,8.301,-32.227,-36.621,0.000
1709298826.461,-27.832,4.395,-32.715,-36.621,0.000
1709298826.465,-33.691,6.348,-31.250,-41.992,0.000
1709298826.469,-32.227,8.301,-31.738,-33.203,0.000
1709298826.472,-28.809,3.418,-40.039,-37.598,0.000
1709298826.476,-31.738,-9.766,-40.039,-41.992,0.000
1709298826.480,-26.855,-7.812,-32.715,-38.574,0.000
1709298826.484,-35.645,2.441,-33.691,-42.480,0.000
1709298826.488,-24.414,2.930,-32.227,-26.855,0.000
1709298826.492,-23.926,-2.441,-32.715,-26.367,0.000
1709298826.496,-41.504,-23.926,-40.039,-42.480,0.000
1709298826.500,-35.156,-9.277,-36.133,-39.551,0.000
1709298826.504,-42.480,12.695,-39.551,-37.109,0.000
1709298826.508,-48.340,1.953,-41.016,-33.203,0.000
1709298826.512,-37.598,-7.324,-27.344,-26.367,0.000
1709298826.515,-32.715,-2.930,-33.203,-37.109,0.000
1709298826.519,-35.645,-18.555,-45.410,-29.785,0.000
1709298826.523,-32.715,-34.180,-37.598,-26.367,0.000
1709298826.527,-33.203,-8.301,-30.273,-38.574,0.000
1709298826.531,-35.156,9.766,-27.832,-32.227,0.000
1709298826.535,-29.785,5.371,-35.645,-34.180,0.000
1709298826.539,-40.039,-3.906,-44.434,-40.527,0.000
1709298826.543,-55.664,-19.531,-37.598,-42.480,0.000
1709298826.547,-50.293,-36.133,-34.180,-34.668,0.000
1709298826.551,-40.039,-24.902,-31.250,-23.438,0.000
1709298826.555,-38.086,-14.648,-29.785,-23.438,0.000
1709298826.558,-37.598,-24.902,-31.250,-32.715,0.000
1709298826.562,-50.293,-19.043,-28.809,-34.668,0.000
1709298826.566,-57.617,-5.859,-30.762,-28.809,0.000
1709298826.570,-41.016,-10.254,-27.344,-9.766,0.000
1709298826.574,-31.250,-23.438,-27.832,-11.230,0.000
1709298826.578,-42.969,-22.949,-37.598,-36.621,0.000
1709298826.582,-54.688,-14.160,-40.039,-41.504,0.000
1709298826.586,-44.922,-18.066,-38.574,-35.156,0.000
1709298826.590,-34.180,-25.879,-39.551,-27.832,0.000
1709298826.594,-29.297,-17.090,-40.527,-24.414,0.000
1709298826.597,-33.203,-20.996,-39.551,-34.180,0.000
1709298826.601,-43.945,-21.973,-41.016,-41.992,0.000
1709298826.605,-50.293,-4.883,-42.969,-44.434,0.000
1709298826.609,-48.340,-0.488,-45.898,-47.363,0.000
1709298826.613,-52.734,-1.953,-49.805,-47.852,0.000
1709298826.617,-51.270,-11.230,-48.340,-47.363,0.000
1709298826.621,-48.340,-20.996,-38.574,-37.598,0.000
1709298826.625,-46.875,-25.391,-39.062,-25.391,0.000
1709298826.629,-39.551,-29.785,-48.340,-26.855,0.000
1709298826.633,-44.434,-25.879,-44.922,-45.410,0.000
1709298826.637,-49.805,-17.090,-38.574,-46.875,0.000
1709298826.640,-56.641,-19.531,-40.039,-52.246,0.000
1709298826.644,-51.270,-30.762,-37.598,-53.711,0.000
1709298826.648,-47.363,-34.180,-39.551,-48.828,0.000
1709298826.652,-50.781,-21.973,-34.668,-44.434,0.000
1709298826.656,-39.551,-5.371,-29.297,-39.062,0.000
1709298826.660,-46.387,-14.160,-34.668,-58.594,0.000
1709298826.664,-44.922,-24.902,-30.762,-56.152,0.000
1709298826.668,-31.250,-20.508,-30.273,-27.832,0.000
1709298826.672,-47.852,-27.832,-41.992,-12.695,0.000
1709298826.676,-58.105,-29.297,-44.434,-26.367,0.000
1709298826.680,-53.223,-22.461,-34.668,-42.480,0.000
1709298826.683,-46.387,-33.691,-34.668,-33.203,0.000
1709298826.687,-36.621,-41.504,-41.992,-26.855,0.000
1709298826.691,-41.504,-23.438,-40.039,-34.668,0.000
1709298826.695,-47.363,-6.348,-36.133,-45.410,0.000
1709298826.699,-41.016,-14.160,-33.691,-43.945,0.000
1709298826.703,-40.039,-22.461,-36.133,-46.875,0.000
1709298826.707,-36.621,-9.277,-42.480,-42.969,0.000
1709298826.711,-36.621,-4.883,-34.668,-23.926,0.000
1709298826.715,-34.668,-20.020,-43.457,-27.832,0.000
1709298826.719,-29.297,-29.297,-48.828,-37.598,0.000
1709298826.722,-30.273,-26.855,-31.250,-49.316,0.000
1709298826.726,-28.809,-12.695,-30.273,-53.223,0.000
1709298826.730,-26.855,-5.859,-36.621,-42.480,0.000
1709298826.734,-37.598,2.930,-40.527,-37.598,0.000
1709298826.738,-28.809,8.789,-41.992,-44.434,0.000
1709298826.742,-20.508,-0.977,-39.551,-51.270,0.000
1709298826.746,-33.691,-3.418,-34.180,-46.387,0.000
1709298826.750,-34.180,-6.348,-34.668,-36.621,0.000
1709298826.754,-17.578,-6.348,-34.668,-22.949,0.000
1709298826.758,-4.883,-6.836,-27.832,-26.367,0.000
1709298826.762,-22.949,-10.742,-27.832,-47.363,0.000
1709298826.765,-46.875,-4.883,-33.691,-62.012,0.000
1709298826.769,-46.387,10.254,-26.855,-52.246,0.000
1709298826.773,-43.457,5.859,-34.180,-40.039,0.000
1709298826.777,-43.457,-5.859,-40.039,-44.434,0.000
1709298826.781,-45.410,3.906,-34.180,-47.363,0.000
1709298826.785,-47.363,12.695,-31.250,-43.945,0.000
1709298826.789,-39.551,0.488,-33.203,-21.484,0.000
1709298826.793,-39.062,-8.789,-36.133,-10.742,0.000
1709298826.797,-39.062,18.555,-27.344,-28.809,0.000
1709298826.801,-38.086,19.043,-26.855,-34.180,0.000
1709298826.805,-46.387,0.000,-36.133,-22.949,0.000
1709298826.808,-47.852,6.836,-36.621,-23.438,0.000
1709298826.812,-41.504,15.137,-39.062,-33.203,0.000
1709298826.816,0.000,5.371,-41.992,-35.645,0.000
1709298826.820,0.000,5.859,-39.551,-41.016,0.000
1709298826.824,0.000,-9.277,-35.156,-30.273,0.000
1709298826.828,0.000,-6.836,-39.062,-24.414,0.000
1709298826.832,0.000,20.996,-43.457,-30.273,0.000
1709298826.836,0.000,14.160,-42.969,-29.785,0.000
1709298826.840,0.000,11.719,-34.668,-22.949,0.000
1709298826.844,0.000,7.324,-31.250,-33.691,0.000
1709298826.848,0.000,3.906,-40.527,-37.598,0.000
1709298826.851,0.000,-4.883,-45.410,-5.371,0.000
1709298826.855,0.000,-8.789,-51.758,-7.812,0.000
1709298826.859,0.000,7.812,-49.316,-40.527,0.000
1709298826.863,-34.668,26.855,-45.898,-45.898,0.000
1709298826.867,-41.992,23.926,-48.828,-44.922,0.000
1709298826.871,-40.527,18.066,-44.922,-40.527,0.000
1709298826.875,-31.250,7.812,-44.922,-43.457,0.000
1709298826.879,-30.273,6.348,-45.410,-48.828,0.000
1709298826.883,-36.133,9.277,-36.621,-43.457,0.000
1709298826.887,-30.273,0.488,-30.762,-30.273,0.000
1709298826.891,-27.832,-1.465,-27.832,-17.578,0.000
1709298826.894,-34.668,-3.418,-26.367,-19.043,0.000
1709298826.898,-41.016,1.953,-31.738,-23.438,0.000
1709298826.902,-46.875,9.766,-42.480,-20.996,0.000
1709298826.906,-37.109,8.789,-41.016,-10.742,0.000
1709298826.910,-38.574,-2.930,-32.227,-12.207,0.000
1709298826.914,-45.898,1.953,-26.367,-26.367,0.000
1709298826.918,-41.504,-15.625,-17.578,-32.227,0.000
1709298826.922,-39.551,-50.293,-22.949,-41.992,0.000
1709298826.926,-47.363,-12.207,-37.109,-44.922,0.000
1709298826.930,-62.500,14.648,-44.922,-33.203,0.000
1709298826.933,-56.641,-3.906,-39.551,-25.879,0.000
1709298826.937,-54.199,-6.348,-39.551,-25.391,0.000
1709298826.941,-46.875,-17.578,-36.621,-19.043,0.000
1709298826.945,-46.875,-32.227,-34.668,-24.902,0.000
1709298826.949,-62.500,-20.020,-40.039,-38.086,0.000
1709298826.953,-44.434,-14.648,-34.180,-20.996,0.000
1709298826.957,-35.645,-21.484,-30.762,-23.926,0.000
1709298826.961,-46.875,-22.461,-28.809,-43.457,0.000
1709298826.965,-47.852,-21.484,-35.645,-52.246,0.000
1709298826.969,-42.969,-7.812,-41.016,-57.617,0.000
1709298826.973,-30.273,-0.488,-38.574,-42.969,0.000
1709298826.976,-14.648,-9.277,-51.270,-30.762,0.000
1709298826.980,-15.137,-13.672,-49.805,-41.016,0.000
1709298826.984,-20.508,-14.648,-31.738,-47.363,0.000
1709298826.988,-22.461,-9.277,-36.133,-43.945,0.000
1709298826.992,-26.367,-1.953,-46.387,-42.969,0.000
1709298826.996,-20.508,0.977,-44.434,-37.598,0.000
1709298827.000,-26.855,-17.578,-42.480,-32.227,0.000
1709298827.004,-30.762,-23.438,-45.898,-23.438,0.000
1709298827.008,-32.227,2.441,-43.945,-30.273,0.000
1709298827.012,-37.109,10.254,-38.086,-45.898,0.000
1709298827.016,-31.250,-2.930,-37.109,-38.574,0.000
1709298827.019,-35.156,-21.973,-35.156,-28.320,0.000
1709298827.023,-35.156,-17.578,-35.645,-28.809,0.000
1709298827.027,-41.016,-3.906,-34.668,-29.785,0.000
1709298827.031,-41.504,-10.742,-34.668,-20.996,0.000
1709298827.035,-38.086,-12.695,-33.691,-19.043,0.000
1709298827.039,-39.551,-8.789,-33.203,-31.250,0.000
1709298827.043,-44.434,-10.254,-33.203,-21.973,0.000
1709298827.047,-42.480,-23.926,-33.691,-14.648,0.000
1709298827.051,-30.273,-30.762,-34.180,-5.859,0.000
1709298827.055,-36.621,-18.555,-37.109,-9.766,0.000
1709298827.059,-45.898,-13.672,-44.922,-24.414,0.000
1709298827.062,-35.645,-15.137,-47.852,-27.832,0.000
1709298827.066,-38.574,-13.672,-38.086,-32.715,0.000
1709298827.070,-44.922,-20.020,-31.250,-29.297,0.000
1709298827.074,-36.621,-31.738,-35.156,-25.879,0.000
1709298827.078,-44.922,-29.785,-48.340,-33.691,0.000
1709298827.082,-58.105,-0.977,-52.734,-51.270,0.000
1709298827.086,-51.758,12.207,-39.062,-43.945,0.000
1709298827.090,-38.086,-5.859,-36.621,-31.250,0.000
1709298827.094,-32.227,-27.344,-41.992,-43.457,0.000
1709298827.098,-40.039,-24.902,-37.598,-45.410,0.000
1709298827.101,-54.688,-6.348,-33.203,-36.621,0.000
1709298827.105,-46.875,-5.371,-26.855,-44.434,0.000
1709298827.109,-42.969,-31.738,-32.715,-58.594,0.000
1709298827.113,-49.316,-30.762,-38.574,-59.570,0.000
1709298827.117,-47.852,1.465,-37.109,-62.988,0.000
1709298827.121,-41.504,-10.254,-37.109,-48.340,0.000
1709298827.125,-32.227,-24.414,-42.480,-40.527,0.000
1709298827.129,-37.598,-5.859,-46.387,-48.828,0.000
1709298827.133,-36.133,-3.906,-39.062,-31.738,0.000
1709298827.137,-22.461,-13.184,-30.273,-15.625,0.000
1709298827.141,-21.973,-21.973,-29.297,-8.789,0.000
1709298827.144,-22.949,-10.254,-42.480,-20.508,0.000
1709298827.148,-23.926,-4.883,-44.434,-24.902,0.000
1709298827.152,-17.578,-12.695,-37.109,-14.648,0.000
1709298827.156,-20.020,-12.695,-40.039,-18.555,0.000
1709298827.160,-33.691,-17.090,-41.992,-26.855,0.000
1709298827.164,-26.367,-20.996,-41.016,-19.043,0.000
1709298827.168,-16.602,-18.066,-41.016,-6.348,0.000
1709298827.172,-26.367,-3.418,-42.480,-16.113,0.000
1709298827.176,-34.180,-3.418,-42.969,-32.715,0.000
1709298827.180,-32.715,-15.137,-50.293,-26.367,0.000
1709298827.183,-42.969,-15.137,-49.805,-23.438,0.000
1709298827.187,-53.223,-11.719,-30.273,-41.016,0.000
1709298827.191,-45.898,-4.883,-30.762,-36.133,0.000
1709298827.195,-30.762,-16.602,-37.109,-30.762,0.000
1709298827.199,-26.855,-11.719,-35.645,-53.711,0.000
1709298827.203,-26.855,9.277,-36.133,-61.523,0.000
1709298827.207,-43.945,0.000,-37.109,-60.059,0.000
1709298827.211,-44.434,-3.418,-34.180,-44.922,0.000
1709298827.215,-33.691,-3.906,-36.133,-40.039,0.000
1709298827.219,-33.691,-19.531,-41.504,-50.781,0.000
1709298827.223,-40.039,-18.066,-41.504,-60.059,0.000
1709298827.226,-48.828,6.836,-31.250,-61.523,0.000
1709298827.230,-45.410,0.977,-27.344,-53.711,0.000
1709298827.234,-45.898,-17.090,-30.273,-54.688,0.000
1709298827.238,-44.434,-5.859,-31.250,-59.570,0.000
1709298827.242,-36.621,0.000,-28.809,-63.477,0.000
1709298827.246,-48.828,-10.742,-23.926,-63.477,0.000
1709298827.250,-48.340,-14.160,-29.785,-58.105,0.000
1709298827.254,-37.598,-8.789,-38.086,-55.664,0.000
1709298827.258,-51.270,-1.465,-34.668,-60.547,0.000
1709298827.262,-46.875,-8.301,-35.645,-59.082,0.000
1709298827.266,-37.109,-16.602,-34.668,-41.504,0.000
1709298827.269,-43.457,-9.766,-30.762,-14.160,0.000
1709298827.273,-43.457,-6.348,-34.180,-11.719,0.000
1709298827.277,-41.992,4.883,-36.621,-30.273,0.000
1709298827.281,-43.457,-7.812,-36.133,-28.320,0.000
1709298827.285,-38.086,-16.602,-30.273,-24.902,0.000
1709298827.289,-36.133,-9.766,-37.109,-19.043,0.000
1709298827.293,-38.086,-11.230,-40.039,-12.695,0.000
1709298827.297,-39.551,-8.789,-28.809,-16.602,0.000
1709298827.301,-37.109,-6.836,-28.809,-19.531,0.000
1709298827.305,-30.762,-8.789,-35.645,-21.484,0.000
1709298827.309,-35.645,-11.230,-39.551,-22.461,0.000
1709298827.313,-44.434,-10.742,-39.551,-20.996,0.000
1709298827.316,-39.062,-18.066,-35.156,-12.207,0.000
1709298827.320,-40.527,-14.648,-36.133,-18.555,0.000
1709298827.324,-50.781,-12.207,-39.062,-27.344,0.000
1709298827.328,-41.992,-25.391,-35.645,-11.719,0.000
1709298827.332,-35.156,-35.156,-31.250,-11.230,0.000
1709298827.336,-47.852,-29.785,-32.227,-24.902,0.000
1709298827.340,-53.223,-19.043,-37.598,-31.738,0.000
1709298827.344,-58.594,-17.090,-44.434,-43.945,0.000
1709298827.348,-53.711,-18.066,-42.480,-48.828,0.000
1709298827.352,-37.598,-30.762,-37.598,-33.691,0.000
1709298827.356,-40.527,-29.785,-32.227,-33.691,0.000
1709298827.359,-49.316,-12.695,-32.227,-43.945,0.000
1709298827.363,-49.805,-10.742,-32.715,-35.645,0.000
1709298827.367,-51.270,-14.160,-29.785,-28.320,0.000
1709298827.371,-41.016,-24.902,-30.762,-21.973,0.000
1709298827.375,-32.715,-39.551,-34.180,-11.230,0.000
1709298827.379,-37.109,-39.551,-39.551,-32.227,0.000
1709298827.383,-44.434,-26.367,-36.133,-55.176,0.000
1709298827.387,-32.227,-23.438,-41.504,-41.504,0.000
1709298827.391,-25.879,-32.715,-53.223,-26.855,0.000
1709298827.395,-32.715,-28.320,-38.086,-16.602,0.000
1709298827.399,-27.832,-22.949,-31.738,-26.855,0.000
1709298827.402,-35.645,-9.766,-35.645,-55.176,0.000
1709298827.406,-40.527,-8.301,-38.574,-57.617,0.000
1709298827.410,-40.039,-21.484,-39.062,-37.109,0.000
1709298827.414,-36.621,-27.344,-44.922,-27.344,0.000
1709298827.418,-33.691,-25.879,-49.805,-31.738,0.000
1709298827.422,-35.645,-23.438,-41.016,-35.156,0.000
1709298827.426,0.000,-45.898,-42.480,-31.738,0.000
1709298827.430,0.000,-35.156,-42.480,-27.344,0.000
1709298827.434,0.000,-13.672,-37.109,-27.344,0.000
1709298827.438,0.000,-23.926,-37.598,-22.949,0.000
1709298827.442,0.000,-22.461,-45.898,-20.020,0.000
1709298827.445,0.000,-19.531,-45.410,-31.250,0.000
1709298827.449,0.000,-19.531,-40.039,-36.133,0.000
1709298827.453,0.000,-34.668,-34.668,-23.926,0.000
1709298827.457,0.000,-43.457,-31.738,-29.297,0.000
1709298827.461,0.000,-18.555,-38.574,-37.109,0.000
1709298827.465,0.000,-7.324,-31.738,-16.602,0.000
1709298827.469,0.000,-16.113,-39.062,-13.672,0.000
1709298827.473,-23.926,-21.484,-52.734,-12.695,0.000
1709298827.477,-32.715,-18.555,-39.551,-21.973,0.000
1709298827.481,-50.781,-16.113,-33.203,-46.875,0.000
1709298827.484,-41.504,-0.488,-35.645,-47.852,0.000
1709298827.488,-39.062,-1.953,-37.109,-41.504,0.000
1709298827.492,-35.645,-21.973,-34.668,-35.645,0.000
1709298827.496,-28.809,-15.137,-29.785,-25.879,0.000
1709298827.500,-30.762,-7.324,-32.227,-23.926,0.000
1709298827.504,-26.855,-16.113,-42.480,-31.738,0.000
1709298827.508,-22.461,-30.762,-37.598,-28.320,0.000
1709298827.512,-25.391,-16.602,-32.715,-23.438,0.000
1709298827.516,-37.598,-2.930,-37.109,-38.574,0.000
1709298827.520,-39.062,-13.672,-36.133,-41.016,0.000
1709298827.524,-38.086,-17.090,-36.621,-31.738,0.000
1709298827.527,-43.457,-19.043,-41.016,-38.086,0.000
1709298827.531,-44.434,-10.742,-45.898,-39.551,0.000
1709298827.535,-34.668,-4.395,-41.992,-15.625,0.000
1709298827.539,-29.785,-17.090,-41.504,-7.324,0.000
1709298827.543,-36.621,-21.973,-41.504,-23.926,0.000
1709298827.547,-43.945,-1.465,-22.461,-37.598,0.000
1709298827.551,-45.410,9.277,-17.578,-40.527,0.000
1709298827.555,-32.715,3.418,-17.578,-29.785,0.000
1709298827.559,-22.461,-22.461,-20.508,-23.926,0.000
1709298827.563,-36.621,-29.785,-31.250,-32.227,0.000
1709298827.567,-44.434,-5.859,-31.250,-35.645,0.000
1709298827.570,-34.180,-6.836,-35.645,-27.344,0.000
1709298827.574,-33.691,-18.555,-37.109,-30.273,0.000
1709298827.578,-39.551,-1.953,-32.227,-32.227,0.000
1709298827.582,-44.434,12.207,-36.133,-32.227,0.000
1709298827.586,-39.062,-8.789,-37.109,-15.137,0.000
1709298827.590,-32.715,-28.809,-35.156,-13.672,0.000
1709298827.594,-32.715,-14.160,-39.062,-33.203,0.000
1709298827.598,-38.574,-5.371,-41.504,-43.457,0.000
1709298827.602,-50.781,-7.812,-46.387,-40.527,0.000
1709298827.606,-51.758,-3.906,-41.016,-29.297,0.000
1709298827.610,-45.898,0.488,-38.574,-32.227,0.000
1709298827.613,-34.668,-5.859,-43.945,-40.039,0.000
1709298827.617,-32.227,-26.367,-37.109,-41.016,0.000
1709298827.621,-41.016,-15.625,-34.668,-38.574,0.000
1709298827.625,-36.133,-3.906,-36.133,-29.785,0.000
1709298827.629,-37.109,-8.789,-37.598,-28.320,0.000
1709298827.633,-43.457,1.465,-48.340,-37.598,0.000
1709298827.637,-41.504,-5.859,-44.434,-40.527,0.000
1709298827.641,-39.062,-13.184,-38.086,-41.016,0.000
1709298827.645,-35.645,-8.301,-38.574,-40.039,0.000
1709298827.649,-30.273,-8.789,-38.574,-31.738,0.000
1709298827.653,-40.527,4.883,-40.039,-34.180,0.000
1709298827.656,-40.527,14.648,-42.480,-39.062,0.000
1709298827.660,-42.480,-9.766,-40.527,-49.316,0.000
1709298827.664,-49.805,-19.531,-43.457,-51.270,0.000
1709298827.668,-52.246,-13.672,-51.270,-35.645,0.000
1709298827.672,-56.641,-25.391,-46.875,-37.109,0.000
1709298827.676,-49.805,-33.203,-36.133,-56.641,0.000
1709298827.680,-51.758,-29.297,-31.250,-67.871,0.000
1709298827.684,-62.500,-15.137,-39.551,-70.312,0.000
1709298827.688,-60.547,-20.020,-47.363,-60.547,0.000
1709298827.692,-48.828,-35.645,-37.109,-37.109,0.000
1709298827.696,-45.410,-27.832,-33.691,-30.273,0.000
1709298827.699,-45.898,-20.020,-32.715,-39.062,0.000
1709298827.703,-48.828,-26.855,-31.250,-36.621,0.000
1709298827.707,0.000,-20.996,-35.645,-33.691,0.000
1709298827.711,0.000,-12.207,-33.691,-27.344,0.000
1709298827.715,0.000,-19.531,-28.809,-18.066,0.000
1709298827.719,0.000,-35.156,-40.039,-31.250,0.000
1709298827.723,0.000,-39.062,-41.016,-46.387,0.000
1709298827.727,0.000,-30.273,-36.133,-31.250,0.000
1709298827.731,0.000,-18.066,-38.086,-17.090,0.000
1709298827.735,0.000,7.324,-33.691,-15.137,0.000
1709298827.738,0.000,16.602,-30.273,-8.789,0.000
1709298827.742,0.000,5.859,-33.691,-32.715,0.000
1709298827.746,0.000,-7.812,-37.598,-50.781,0.000
1709298827.750,0.000,-16.602,-40.039,-30.273,0.000
1709298827.754,-17.578,-16.602,-48.340,-33.203,0.000
1709298827.758,-17.578,-8.301,-42.969,-39.551,0.000
1709298827.762,-18.066,-0.977,-33.691,-31.250,0.000
1709298827.766,-16.113,-12.695,-37.109,-25.391,0.000
1709298827.770,-15.137,-14.648,-41.504,-26.855,0.000
1709298827.774,-32.715,-14.648,-47.363,-34.668,0.000
1709298827.778,-41.504,-14.160,-49.316,-47.852,0.000
1709298827.781,-48.828,-7.812,-38.086,-48.828,0.000
1709298827.785,-57.617,-19.043,-45.898,-44.434,0.000
1709298827.789,-56.152,-17.090,-47.363,-44.434,0.000
1709298827.793,-57.617,-12.207,-31.738,-43.945,0.000
1709298827.797,-54.199,-12.207,-31.738,-47.852,0.000
1709298827.801,-39.551,-17.090,-33.203,-51.270,0.000
1709298827.805,-50.781,-24.902,-33.691,-47.363,0.000
1709298827.809,-64.941,-18.066,-33.203,-34.668,0.000
1709298827.813,-64.941,-5.371,-34.668,-25.879,0.000
1709298827.817,-57.617,-2.441,-39.551,-29.785,0.000
1709298827.821,-55.664,-9.766,-41.992,-37.598,0.000
1709298827.824,-53.711,-5.859,-42.969,-36.133,0.000
1709298827.828,-57.129,-14.160,-41.504,-25.391,0.000
1709298827.832,-44.922,-19.043,-44.922,-17.578,0.000
1709298827.836,-31.250,-9.277,-45.410,-24.414,0.000
1709298827.840,-45.410,-10.742,-44.922,-36.133,0.000
1709298827.844,-52.734,-7.812,-40.527,-48.340,0.000
1709298827.848,-46.875,-0.977,-30.762,-39.062,0.000
1709298827.852,-30.273,-4.395,-41.016,-22.949,0.000
1709298827.856,-25.391,-5.371,-41.504,-37.598,0.000
1709298827.860,-35.645,-7.324,-39.062,-54.688,0.000
1709298827.864,-36.621,-6.836,-41.504,-54.199,0.000
1709298827.867,-30.762,-8.301,-44.434,-41.504,0.000
1709298827.871,-13.184,0.488,-43.945,-26.367,0.000
1709298827.875,-12.207,9.277,-40.039,-20.996,0.000
1709298827.879,-21.484,-6.348,-38.086,-21.484,0.000
1709298827.883,-20.508,-22.949,-42.969,-23.926,0.000
1709298827.887,-26.855,-0.977,-44.434,-21.484,0.000
1709298827.891,-28.320,3.418,-37.109,-11.719,0.000
1709298827.895,-25.391,-6.836,-37.109,-18.555,0.000
1709298827.899,-29.297,4.883,-40.039,-41.016,0.000
1709298827.903,-32.227,-2.441,-45.898,-45.410,0.000
1709298827.906,-36.621,-0.488,-46.875,-38.086,0.000
1709298827.910,-27.344,-3.418,-40.527,-30.762,0.000
1709298827.914,-31.250,-14.160,-39.062,-29.297,0.000
1709298827.918,-51.270,2.930,-34.180,-35.156,0.000
1709298827.922,-52.246,10.742,-26.367,-47.363,0.000
1709298827.926,-46.875,7.812,-30.762,-48.340,0.000
1709298827.930,-44.922,-4.883,-40.527,-38.574,0.000
1709298827.934,-41.016,-7.812,-38.574,-29.297,0.000
1709298827.938,-35.156,-6.348,-32.715,-31.738,0.000
1709298827.942,-41.504,-11.719,-36.621,-35.645,0.000
1709298827.946,-46.387,-9.277,-39.062,-40.039,0.000
1709298827.949,-47.363,-8.789,-36.621,-42.969,0.000
1709298827.953,-39.551,-17.578,-36.621,-27.832,0.000
1709298827.957,-38.574,-9.277,-46.387,-22.949,0.000
1709298827.961,-41.016,6.836,-57.129,-49.805,0.000
1709298827.965,-35.645,3.906,-47.363,-52.734,0.000
1709298827.969,-37.598,2.930,-36.621,-48.828,0.000
1709298827.973,-31.250,7.324,-37.109,-46.875,0.000
1709298827.977,-13.672,2.930,-38.086,-22.949,0.000
1709298827.981,-6.836,-12.207,-40.039,-34.180,0.000
1709298827.985,-15.625,6.348,-40.527,-57.617,0.000
1709298827.989,-19.043,22.461,-42.969,-49.805,0.000
1709298827.992,-12.695,13.184,-42.480,-40.039,0.000
1709298827.996,-8.789,6.836,-38.086,-33.203,0.000
1709298828.000,-18.066,5.859,-49.805,-33.203,0.000
1709298828.004,-27.344,15.625,-47.363,-33.691,0.000
1709298828.008,-24.902,14.160,-37.598,-25.391,0.000
1709298828.012,-19.531,9.277,-42.480,-24.414,0.000
1709298828.016,-18.555,13.184,-36.621,-7.812,0.000
1709298828.020,-22.461,3.418,-30.273,-2.930,0.000
1709298828.024,-29.297,-6.348,-37.598,-19.043,0.000
1709298828.028,-25.391,0.000,-45.898,-24.414,0.000
1709298828.032,-31.738,-4.883,-37.598,-25.391,0.000
1709298828.035,-36.621,-20.996,-23.926,-25.391,0.000
1709298828.039,-34.668,-30.273,-23.926,-31.738,0.000
1709298828.043,-39.551,-23.926,-31.738,-41.016,0.000
1709298828.047,-42.969,-12.207,-27.344,-31.250,0.000
1709298828.051,-36.621,-22.949,-22.949,-17.578,0.000
1709298828.055,-27.344,-23.438,-31.738,-7.812,0.000
1709298828.059,-38.574,-1.465,-38.574,-9.277,0.000
1709298828.063,-43.457,-0.488,-28.809,-29.785,0.000
1709298828.067,-47.363,-32.715,-26.367,-34.668,0.000
1709298828.071,-56.641,-21.484,-28.809,-31.738,0.000
1709298828.075,-43.457,-3.418,-29.297,-39.551,0.000
1709298828.078,-39.062,-14.160,-38.574,-39.062,0.000
1709298828.082,-51.758,-13.184,-38.086,-47.363,0.000
1709298828.086,-52.734,-7.812,-38.574,-45.898,0.000
1709298828.090,-42.480,-11.719,-37.598,-16.602,0.000
1709298828.094,-32.227,-13.672,-33.203,-0.977,0.000
1709298828.098,-39.551,-29.297,-35.645,-15.625,0.000
1709298828.102,-50.781,-44.922,-43.945,-43.945,0.000
1709298828.106,-56.152,-17.090,-43.945,-59.082,0.000
1709298828.110,-51.270,-7.324,-31.738,-44.434,0.000
1709298828.114,-51.270,-18.555,-33.203,-19.531,0.000
1709298828.118,-54.199,-12.207,-38.574,-32.227,0.000
1709298828.121,-41.504,-20.996,-30.762,-38.086,0.000
1709298828.125,-35.645,-33.203,-31.250,-26.367,0.000
1709298828.129,0.000,-31.250,-45.410,-22.949,0.000
1709298828.133,0.000,-27.344,-41.992,-18.555,0.000
1709298828.137,0.000,-11.719,-36.133,-18.555,0.000
1709298828.141,0.000,-4.883,-36.621,-30.273,0.000
1709298828.145,0.000,-15.137,-35.645,-30.762,0.000
1709298828.149,0.000,-26.855,-42.480,-20.996,0.000
1709298828.153,0.000,-20.508,-40.527,-19.531,0.000
1709298828.157,0.000,-5.371,-37.598,-39.551,0.000
1709298828.160,0.000,-4.883,-34.180,-47.852,0.000
1709298828.164,0.000,-13.672,-32.715,-37.109,0.000
1709298828.168,0.000,-30.762,-32.715,-18.066,0.000
1709298828.172,0.000,-31.250,-32.715,0.000,0.000
1709298828.176,-44.434,-18.555,-33.691,-16.602,0.000
1709298828.180,-46.875,-5.859,-28.809,-44.434,0.000
1709298828.184,-51.758,-12.207,-23.926,-47.852,0.000
1709298828.188,-53.223,-14.160,-25.391,-33.691,0.000
1709298828.192,-48.828,-16.113,-28.320,-35.645,0.000
1709298828.196,-50.293,-17.090,-30.273,-43.945,0.000
1709298828.200,-56.152,-14.648,-34.668,-39.551,0.000
1709298828.203,-54.688,-12.207,-39.551,-41.992,0.000
1709298828.207,-51.758,-1.953,-42.969,-38.574,0.000
1709298828.211,-39.062,-20.996,-32.715,-11.719,0.000
1709298828.215,-37.598,-24.414,-35.645,-26.855,0.000
1709298828.219,-48.340,0.000,-41.504,-55.664,0.000
1709298828.223,-48.828,4.883,-34.180,-62.012,0.000
1709298828.227,-51.270,-16.602,-32.715,-62.012,0.000
1709298828.231,-47.852,-20.020,-33.691,-47.363,0.000
1709298828.235,-36.621,-3.418,-32.715,-41.992,0.000
1709298828.239,-32.715,-3.906,-36.621,-46.875,0.000
1709298828.243,-31.738,-5.859,-37.109,-45.898,0.000
1709298828.246,-38.086,-12.207,-33.691,-31.738,0.000
1709298828.250,-44.434,-10.254,-38.574,-9.277,0.000
1709298828.254,-34.180,-4.883,-42.969,-7.812,0.000
1709298828.258,-26.367,-17.090,-37.598,-25.391,0.000
1709298828.262,-32.715,-13.672,-31.738,-42.480,0.000
1709298828.266,-30.273,-12.207,-30.273,-31.738,0.000
1709298828.270,-27.832,-26.367,-40.039,-21.973,0.000
1709298828.274,-28.809,-10.254,-39.551,-19.531,0.000
1709298828.278,-27.344,1.465,-33.203,-16.113,0.000
1709298828.282,-26.367,7.812,-35.645,-26.367,0.000
1709298828.285,-23.438,-1.465,-33.691,-35.156,0.000
1709298828.289,-13.672,-23.438,-27.832,-18.066,0.000
1709298828.293,-14.160,-17.578,-24.902,-11.719,0.000
1709298828.297,-33.203,0.977,-32.227,-38.086,0.000
1709298828.301,-41.992,1.465,-33.203,-46.875,0.000
1709298828.305,-37.598,-7.812,-34.180,-47.852,0.000
1709298828.309,-25.879,-11.230,-30.762,-31.250,0.000
1709298828.313,-24.414,-15.137,-31.250,-29.297,0.000
1709298828.317,-37.109,-16.602,-33.203,-36.621,0.000
1709298828.321,-37.109,-33.203,-28.809,-33.691,0.000
1709298828.325,-41.016,-27.832,-30.273,-35.645,0.000
1709298828.328,-48.340,-13.672,-31.250,-35.156,0.000
1709298828.332,-41.016,-31.250,-32.227,-36.133,0.000
1709298828.336,-23.438,-43.945,-35.156,-42.969,0.000
1709298828.340,-31.250,-34.668,-38.086,-50.293,0.000
1709298828.344,-56.152,-17.578,-32.227,-48.340,0.000
1709298828.348,-48.828,-17.090,-32.227,-31.738,0.000
1709298828.352,-30.762,-21.484,-41.504,-25.879,0.000
1709298828.356,-31.738,-10.742,-34.668,-34.668,0.000
1709298828.360,-30.273,-6.836,-26.855,-36.133,0.000
1709298828.364,-26.367,-21.973,-28.809,-39.551,0.000
1709298828.368,-40.039,-31.250,-37.598,-32.715,0.000
1709298828.371,-42.969,-21.484,-37.598,-14.648,0.000
1709298828.375,-30.273,-15.625,-36.133,-15.137,0.000
1709298828.379,-18.066,-17.578,-36.621,-27.832,0.000
1709298828.383,-21.484,-21.973,-34.180,-38.086,0.000
1709298828.387,-32.715,-24.902,-36.621,-38.574,0.000
1709298828.391,-39.551,-18.555,-34.668,-24.414,0.000
1709298828.395,-30.762,-26.367,-33.203,-13.672,0.000
1709298828.399,-32.715,-26.855,-37.109,-25.391,0.000
1709298828.403,-55.176,-9.766,-27.832,-53.223,0.000
1709298828.407,-55.176,-6.836,-23.926,-56.152,0.000
1709298828.411,-48.828,-10.742,-31.738,-40.039,0.000
1709298828.414,-47.852,-16.113,-35.156,-23.926,0.000
1709298828.418,-41.992,-31.250,-30.762,-15.625,0.000
1709298828.422,-42.969,-30.762,-34.668,-34.668,0.000
1709298828.426,-57.129,-22.461,-34.180,-51.270,0.000
1709298828.430,-54.199,-22.949,-30.762,-34.668,0.000
1709298828.434,-37.598,-19.043,-31.250,-19.043,0.000
1709298828.438,-29.297,-20.508,-35.645,-33.691,0.000
1709298828.442,-38.574,-41.016,-37.598,-31.738,0.000
1709298828.446,-57.129,-32.715,-36.133,-28.320,0.000
1709298828.450,-60.547,2.441,-38.086,-38.574,0.000
1709298828.454,-44.922,-4.395,-36.621,-31.250,0.000
1709298828.457,-23.438,-11.719,-28.320,-15.137,0.000
1709298828.461,-22.461,-15.137,-34.668,-21.973,0.000
1709298828.465,-34.180,-36.133,-34.180,-42.969,0.000
1709298828.469,-24.414,-42.480,-25.391,-41.504,0.000
1709298828.473,-21.973,-26.367,-34.668,-27.344,0.000
1709298828.477,-31.738,-14.648,-36.133,-20.020,0.000
1709298828.481,-28.809,-16.113,-32.227,-36.133,0.000
1709298828.485,-27.832,-28.320,-35.645,-36.621,0.000
1709298828.489,-28.809,-30.273,-33.691,-11.719,0.000
1709298828.493,-24.414,-18.066,-31.738,-13.184,0.000
1709298828.496,-21.973,-7.812,-29.297,-16.602,0.000
1709298828.500,-34.668,-8.301,-30.273,-29.785,0.000
1709298828.504,-50.293,-14.160,-41.504,-37.109,0.000
1709298828.508,-45.410,-15.137,-41.992,-26.855,0.000
1709298828.512,-44.434,-11.719,-27.344,-29.297,0.000
1709298828.516,-40.039,-10.254,-23.438,-31.250,0.000
1709298828.520,-44.434,-17.578,-36.621,-34.180,0.000
1709298828.524,-54.688,-19.531,-37.598,-42.969,0.000
1709298828.528,-55.664,-13.184,-34.668,-40.527,0.000
1709298828.532,-41.504,-12.695,-33.203,-17.578,0.000
1709298828.536,-18.555,-28.809,-29.297,-8.301,0.000
1709298828.539,-18.555,-36.133,-34.668,-33.691,0.000
1709298828.543,-41.016,-24.902,-40.039,-52.734,0.000
1709298828.547,-44.922,-10.742,-40.527,-42.480,0.000
1709298828.551,-34.668,-21.973,-42.480,-23.926,0.000
1709298828.555,-43.457,-30.273,-43.945,-30.762,0.000
1709298828.559,-52.246,-21.484,-33.691,-44.434,0.000
1709298828.563,-53.223,-17.090,-25.391,-40.527,0.000
1709298828.567,-46.875,-17.090,-28.320,-30.273,0.000
1709298828.571,-41.992,-17.578,-38.086,-20.996,0.000
1709298828.575,-41.504,-21.973,-38.574,-11.230,0.000
1709298828.579,-37.109,-30.273,-33.203,-3.418,0.000
1709298828.582,-39.551,-28.320,-40.527,-26.855,0.000
1709298828.586,-41.992,-28.320,-44.434,-51.758,0.000
1709298828.590,-38.086,-35.156,-44.434,-41.992,0.000
1709298828.594,-46.387,-23.438,-53.711,-36.621,0.000
1709298828.598,-47.363,-20.508,-46.387,-36.133,0.000
1709298828.602,-32.715,-32.715,-34.180,-47.363,0.000
1709298828.606,-33.691,-17.090,-35.156,-48.828,0.000
1709298828.610,-41.992,-14.160,-35.645,-39.551,0.000
1709298828.614,-39.551,-23.926,-40.527,-52.246,0.000
1709298828.618,-46.387,-22.949,-43.945,-68.359,0.000
1709298828.621,-53.711,-15.625,-39.062,-65.918,0.000
1709298828.625,-57.129,-13.672,-38.574,-45.898,0.000
1709298828.629,-52.246,-30.762,-49.805,-48.340,0.000
1709298828.633,-41.992,-27.344,-46.875,-51.270,0.000
1709298828.637,-44.434,-13.184,-41.016,-46.875,0.000
1709298828.641,-48.340,-8.301,-41.992,-50.781,0.000
1709298828.645,-46.387,-9.766,-36.621,-50.293,0.000
1709298828.649,-42.969,-29.297,-34.668,-41.016,0.000
1709298828.653,-42.480,-31.738,-40.527,-31.250,0.000
1709298828.657,-38.574,-22.461,-43.945,-26.367,0.000
1709298828.661,-39.551,-24.902,-41.504,-40.039,0.000
1709298828.664,-45.898,-30.762,-36.133,-47.852,0.000
1709298828.668,-50.293,-32.715,-37.109,-29.297,0.000
1709298828.672,-52.246,-25.879,-45.898,-44.922,0.000
1709298828.676,-42.969,-14.160,-46.387,-55.176,0.000
1709298828.680,-32.715,-16.113,-36.133,-50.781,0.000
1709298828.684,-26.367,-24.414,-27.344,-45.410,0.000
1709298828.688,-25.391,-15.625,-31.738,-34.180,0.000
1709298828.692,-26.367,-5.371,-35.156,-31.250,0.000
1709298828.696,-23.926,-6.348,-36.621,-29.297,0.000
1709298828.700,-24.414,-8.789,-38.574,-33.691,0.000
1709298828.704,-24.902,-9.766,-35.645,-31.738,0.000
1709298828.707,-16.602,-23.926,-33.203,-20.508,0.000
1709298828.711,-16.602,-24.414,-31.250,-24.902,0.000
1709298828.715,-25.391,-8.789,-30.273,-32.715,0.000
1709298828.719,-25.391,-13.184,-39.062,-42.969,0.000
1709298828.723,-39.062,-28.320,-44.434,-51.758,0.000
1709298828.727,-47.363,-30.273,-39.551,-49.805,0.000
1709298828.731,-43.457,-20.508,-34.180,-45.898,0.000
1709298828.735,-26.367,-11.719,-36.621,-37.109,0.000
1709298828.739,-25.391,-17.090,-41.504,-38.574,0.000
1709298828.743,-43.457,-8.789,-43.457,-45.410,0.000
1709298828.747,-41.992,2.930,-45.898,-41.016,0.000
1709298828.750,-42.969,-6.836,-45.898,-36.133,0.000
1709298828.754,-38.574,-4.395,-45.898,-30.273,0.000
1709298828.758,-32.227,-14.160,-40.039,-34.180,0.000
1709298828.762,-38.574,-30.273,-33.691,-46.387,0.000
1709298828.766,-39.551,-30.273,-33.691,-47.852,0.000
1709298828.770,-22.949,-28.809,-31.250,-26.855,0.000
1709298828.774,-27.832,-22.461,-40.527,-15.625,0.000
1709298828.778,-35.645,-16.113,-49.805,-26.367,0.000
1709298828.782,-21.484,-14.160,-36.133,-32.715,0.000
1709298828.786,-30.273,-27.344,-30.273,-41.992,0.000
1709298828.790,-40.039,-31.250,-32.715,-34.180,0.000
1709298828.793,-32.227,-5.371,-27.344,-12.695,0.000
1709298828.797,-34.668,-13.184,-35.645,-15.137,0.000
1709298828.801,-39.062,-19.043,-39.062,-31.738,0.000
1709298828.805,-32.227,-17.578,-35.645,-32.227,0.000
1709298828.809,-25.879,-26.367,-40.039,-22.949,0.000
1709298828.813,-26.367,-24.902,-39.062,-20.508,0.000
1709298828.817,-33.203,-30.762,-37.109,-20.020,0.000
1709298828.821,-37.598,-28.809,-38.574,-30.762,0.000
1709298828.825,-45.410,-21.484,-39.062,-37.109,0.000
1709298828.829,-44.434,-23.438,-43.945,-33.203,0.000
1709298828.833,-36.621,-23.438,-51.270,-37.598,0.000
1709298828.836,-43.457,-18.066,-42.480,-33.691,0.000
1709298828.840,-46.387,-37.109,-33.203,-38.086,0.000
1709298828.844,-51.270,-39.551,-34.180,-43.457,0.000
1709298828.848,-60.059,-20.996,-35.156,-34.668,0.000
1709298828.852,-60.547,-25.879,-45.410,-29.785,0.000
1709298828.856,-52.246,-36.133,-43.457,-33.203,0.000
1709298828.860,-41.992,-34.180,-28.809,-27.344,0.000
1709298828.864,-45.898,-30.762,-35.645,-36.133,0.000
1709298828.868,-55.176,-18.555,-38.086,-43.457,0.000
1709298828.872,-51.270,-20.508,-33.691,-24.902,0.000
1709298828.876,-48.828,-41.016,-32.715,-24.414,0.000
1709298828.879,-45.410,-32.715,-39.062,-48.340,0.000
1709298828.883,-51.758,-21.973,-45.410,-58.594,0.000
1709298828.887,-62.500,-30.762,-43.945,-48.828,0.000
1709298828.891,-53.711,-20.996,-41.992,-41.992,0.000
1709298828.895,-29.785,-17.578,-37.598,-30.762,0.000
1709298828.899,-27.344,-31.738,-40.527,-31.738,0.000
1709298828.903,-50.293,-40.039,-42.480,-49.316,0.000
1709298828.907,-55.176,-37.109,-30.273,-35.645,0.000
1709298828.911,-45.410,-27.344,-30.273,-11.719,0.000
1709298828.915,-42.969,-20.996,-39.551,-17.578,0.000
1709298828.918,-33.691,-30.273,-40.039,-25.879,0.000
1709298828.922,-34.668,-45.410,-34.668,-26.855,0.000
1709298828.926,-41.504,-36.621,-29.297,-26.855,0.000
1709298828.930,-37.598,-19.531,-27.832,-26.855,0.000
1709298828.934,-43.457,-20.020,-30.273,-21.484,0.000
1709298828.938,-40.527,-23.438,-33.203,-25.879,0.000
1709298828.942,-38.086,-28.809,-29.785,-32.715,0.000
1709298828.946,-45.898,-33.203,-27.344,-32.227,0.000
1709298828.950,-41.504,-41.504,-24.414,-26.855,0.000
1709298828.954,-32.715,-46.875,-28.809,-11.719,0.000
1709298828.958,-32.715,-29.785,-38.086,-34.180,0.000
1709298828.961,-33.691,-30.273,-35.645,-54.688,0.000
1709298828.965,-44.922,-36.621,-39.062,-49.805,0.000
1709298828.969,-45.898,-21.973,-40.527,-53.223,0.000
1709298828.973,-39.062,-21.484,-41.016,-48.340,0.000
1709298828.977,-41.016,-22.949,-42.969,-47.852,0.000
1709298828.981,-41.504,-20.996,-33.203,-51.758,0.000
1709298828.985,-45.898,-27.344,-41.016,-57.129,0.000
1709298828.989,-41.992,-29.785,-46.387,-59.570,0.000
1709298828.993,-44.922,-40.527,-36.621,-47.363,0.000
1709298828.997,-45.898,-26.855,-32.715,-45.898,0.000
1709298829.001,-45.898,-1.953,-32.715,-59.082,0.000
1709298829.004,-49.316,-5.371,-38.086,-67.383,0.000
1709298829.008,-49.805,-19.531,-32.715,-57.129,0.000
1709298829.012,-44.434,-31.738,-33.203,-46.875,0.000
1709298829.016,-39.551,-23.926,-38.086,-53.223,0.000
1709298829.020,-29.297,-12.695,-33.203,-57.617,0.000
1709298829.024,-38.574,-17.578,-31.250,-44.922,0.000
1709298829.028,-48.340,-22.461,-34.668,-38.086,0.000
1709298829.032,-34.180,-22.461,-33.203,-32.227,0.000
1709298829.036,-22.461,-20.020,-33.691,-24.902,0.000
1709298829.040,-23.926,-20.996,-37.109,-27.344,0.000
1709298829.044,-33.691,-20.508,-39.551,-25.879,0.000
1709298829.047,-32.715,-20.020,-41.016,-29.297,0.000
1709298829.051,-30.273,-25.879,-35.156,-28.809,0.000
1709298829.055,-30.762,-20.996,-34.668,-25.879,0.000
1709298829.059,-29.297,-10.742,-31.250,-29.297,0.000
1709298829.063,-36.133,-16.113,-31.738,-37.598,0.000
1709298829.067,-39.551,-24.414,-34.180,-43.457,0.000
1709298829.071,-39.551,-17.578,-34.180,-36.621,0.000
1709298829.075,-39.551,-18.555,-35.156,-20.996,0.000
1709298829.079,-34.180,-26.367,-35.645,-26.855,0.000
1709298829.083,-36.133,-22.949,-35.645,-35.156,0.000
1709298829.087,-38.086,-29.297,-33.203,-31.250,0.000
1709298829.090,-39.062,-31.738,-35.645,-29.297,0.000
1709298829.094,-43.945,-15.625,-37.598,-22.461,0.000
1709298829.098,-43.457,-18.066,-40.039,-32.715,0.000
1709298829.102,-43.945,-24.902,-39.551,-47.852,0.000
1709298829.106,-60.059,-13.184,-42.480,-48.828,0.000
1709298829.110,-55.176,-10.254,-40.527,-41.016,0.000
1709298829.114,-45.898,-12.207,-35.156,-34.180,0.000
1709298829.118,-56.641,-15.137,-38.086,-39.062,0.000
1709298829.122,-56.152,-15.137,-43.945,-54.199,0.000
1709298829.126,-57.129,-24.414,-45.410,-67.383,0.000
1709298829.130,-53.711,-25.879,-37.109,-54.199,0.000
1709298829.133,-46.875,-19.531,-32.715,-31.738,0.000
1709298829.137,-51.758,-26.367,-38.574,-33.691,0.000
1709298829.141,-60.059,-24.902,-46.387,-36.621,0.000
1709298829.145,-64.453,-26.367,-45.410,-42.480,0.000
1709298829.149,-64.941,-34.668,-41.992,-38.574,0.000
1709298829.153,-56.641,-30.273,-44.434,-33.203,0.000
1709298829.157,-51.270,-29.297,-44.434,-36.133,0.000
1709298829.161,-42.480,-26.855,-42.969,-41.504,0.000
1709298829.165,-35.645,-22.461,-33.691,-47.363,0.000
1709298829.169,-41.016,-19.043,-31.250,-38.086,0.000
1709298829.173,-40.527,-17.578,-37.598,-23.926,0.000
1709298829.176,-35.645,-20.020,-29.785,-28.809,0.000
1709298829.180,-30.762,-25.391,-27.832,-36.133,0.000
1709298829.184,-31.738,-38.086,-27.832,-38.574,0.000
1709298829.188,-46.387,-23.438,-33.203,-34.668,0.000
1709298829.192,-46.387,-12.695,-37.109,-19.043,0.000
1709298829.196,-25.879,-31.738,-29.785,-17.578,0.000
1709298829.200,-18.066,-43.945,-29.785,-21.973,0.000
1709298829.204,-36.133,-28.320,-38.574,-29.297,0.000
1709298829.208,-43.945,-15.137,-40.527,-38.574,0.000
1709298829.212,-40.039,-14.648,-40.039,-32.715,0.000
1709298829.216,-33.691,-21.484,-42.969,-23.926,0.000
1709298829.219,-20.996,-30.273,-40.039,-31.738,0.000
1709298829.223,-26.367,-38.086,-36.133,-34.180,0.000
1709298829.227,-43.457,-29.785,-34.668,-24.902,0.000
1709298829.231,-45.898,-26.855,-31.738,-17.090,0.000
1709298829.235,-40.039,-35.156,-38.574,-6.836,0.000
1709298829.239,-40.527,-35.156,-50.293,-19.531,0.000
1709298829.243,-48.828,-33.691,-45.898,-41.016,0.000
1709298829.247,-48.828,-34.180,-39.062,-49.805,0.000
1709298829.251,-44.434,-38.086,-34.668,-34.180,0.000
1709298829.255,-47.363,-55.176,-39.062,-29.785,0.000
1709298829.259,-54.688,-52.734,-44.922,-53.711,0.000
1709298829.262,-47.363,-23.438,-37.598,-48.340,0.000
1709298829.266,-40.039,-36.621,-34.668,-41.992,0.000
1709298829.270,-51.270,-42.480,-41.992,-47.852,0.000
1709298829.274,-53.711,-26.855,-50.293,-40.039,0.000
1709298829.278,-45.410,-30.762,-47.852,-48.828,0.000
1709298829.282,-46.875,-39.551,-36.133,-47.363,0.000
1709298829.286,-46.875,-44.434,-34.180,-38.574,0.000
1709298829.290,-38.574,-31.250,-34.180,-44.922,0.000
1709298829.294,-23.926,-21.973,-35.156,-37.598,0.000
1709298829.298,-29.297,-40.527,-43.457,-34.668,0.000
1709298829.302,-35.645,-45.898,-40.527,-40.039,0.000
1709298829.305,-38.086,-41.016,-36.133,-38.086,0.000
1709298829.309,-41.504,-48.340,-39.062,-32.227,0.000
1709298829.313,-38.086,-50.293,-41.016,-34.180,0.000
1709298829.317,-27.832,-54.199,-38.086,-35.156,0.000
1709298829.321,-28.809,-44.922,-39.062,-34.668,0.000
1709298829.325,-35.156,-33.203,-42.969,-32.715,0.000
1709298829.329,-31.738,-34.180,-36.621,-26.367,0.000
1709298829.333,-30.273,-33.203,-34.668,-24.414,0.000
1709298829.337,-36.133,-34.668,-41.016,-31.738,0.000
1709298829.341,-44.434,-41.016,-41.016,-41.016,0.000
1709298829.345,-42.480,-35.645,-41.992,-36.621,0.000
1709298829.348,-37.109,-26.855,-44.434,-37.109,0.000
1709298829.352,-37.109,-33.203,-43.945,-37.109,0.000
1709298829.356,-39.062,-46.875,-41.992,-29.785,0.000
1709298829.360,-37.598,-55.176,-52.734,-40.527,0.000
1709298829.364,-48.828,-44.434,-53.223,-61.523,0.000
1709298829.368,-50.781,-34.668,-40.039,-59.570,0.000
1709298829.372,-37.109,-41.016,-37.109,-34.668,0.000
1709298829.376,-34.180,-36.133,-36.133,-21.973,0.000
1709298829.380,-33.203,-23.438,-35.645,-42.969,0.000
1709298829.384,-39.062,-33.203,-40.039,-57.129,0.000
1709298829.387,-50.293,-45.410,-39.551,-61.523,0.000
1709298829.391,-42.480,-45.898,-42.480,-50.293,0.000
1709298829.395,-31.738,-46.387,-40.527,-35.156,0.000
1709298829.399,-24.414,-55.176,-36.133,-38.086,0.000
1709298829.403,-32.715,-44.434,-42.969,-63.477,0.000
1709298829.407,-48.828,-20.996,-39.551,-64.941,0.000
1709298829.411,-32.715,-29.297,-38.574,-53.223,0.000
1709298829.415,-9.277,-52.734,-40.039,-27.344,0.000
1709298829.419,-28.320,-53.223,-41.992,-13.184,0.000
1709298829.423,-36.133,-30.273,-47.363,-38.574,0.000
1709298829.427,-36.133,-24.414,-41.992,-47.363,0.000
1709298829.430,-41.504,-41.016,-37.598,-39.062,0.000
1709298829.434,-26.855,-39.062,-40.039,-33.203,0.000
1709298829.438,-24.414,-44.434,-38.574,-22.461,0.000
1709298829.442,-32.715,-45.410,-27.832,-14.648,0.000
1709298829.446,-40.039,-44.922,-32.227,-27.344,0.000
1709298829.450,-46.387,-50.781,-35.156,-36.133,0.000
1709298829.454,-33.691,-42.480,-33.203,-34.180,0.000
1709298829.458,-23.438,-42.480,-42.969,-29.785,0.000
1709298829.462,-28.320,-41.504,-41.992,-20.508,0.000
1709298829.466,-30.762,-45.898,-41.992,-32.227,0.000
1709298829.470,-32.715,-54.688,-43.945,-44.922,0.000
1709298829.473,-36.621,-50.781,-36.621,-47.852,0.000
1709298829.477,-44.434,-43.457,-33.203,-46.875,0.000
1709298829.481,-52.246,-39.062,-40.527,-50.293,0.000
1709298829.485,-55.664,-39.551,-37.598,-60.547,0.000
1709298829.489,-53.711,-45.410,-33.203,-54.199,0.000
1709298829.493,-49.316,-49.316,-35.645,-45.410,0.000
1709298829.497,-47.852,-57.617,-31.738,-41.016,0.000
1709298829.501,-54.199,-61.523,-29.297,-50.781,0.000
1709298829.505,-60.547,-49.316,-35.156,-62.500,0.000
1709298829.509,-67.871,-45.898,-39.551,-61.035,0.000
1709298829.513,-60.547,-57.617,-40.527,-45.410,0.000
1709298829.516,-51.758,-62.500,-40.527,-43.457,0.000
1709298829.520,-45.410,-40.527,-42.969,-51.270,0.000
1709298829.524,-47.363,-32.227,-47.363,-52.734,0.000
1709298829.528,-54.199,-28.809,-42.480,-45.898,0.000
1709298829.532,-43.457,-30.273,-37.109,-31.250,0.000
1709298829.536,-31.250,-40.527,-41.504,-22.461,0.000
1709298829.540,-33.203,-37.109,-42.480,-29.297,0.000
1709298829.544,-30.762,-32.227,-39.551,-37.598,0.000
1709298829.548,-26.855,-41.992,-36.133,-28.809,0.000
1709298829.552,-22.949,-44.922,-39.062,-9.766,0.000
1709298829.555,-21.484,-32.715,-43.945,-10.742,0.000
1709298829.559,-38.574,-19.043,-42.969,-30.762,0.000
1709298829.563,-39.062,-19.531,-42.969,-41.504,0.000
1709298829.567,-40.039,-24.902,-39.062,-30.273,0.000
1709298829.571,-37.109,-30.273,-37.598,-13.672,0.000
1709298829.575,-15.137,-37.598,-42.969,-9.766,0.000
1709298829.579,-20.996,-32.715,-41.016,-17.578,0.000
1709298829.583,-40.527,-32.227,-38.574,-29.297,0.000
1709298829.587,-36.621,-34.668,-34.180,-31.250,0.000
1709298829.591,-27.344,-37.109,-33.691,-31.250,0.000
1709298829.595,-32.715,-49.316,-41.504,-24.902,0.000
1709298829.598,-36.621,-46.875,-38.574,-13.672,0.000
1709298829.602,-38.086,-39.062,-36.621,-16.602,0.000
1709298829.606,-41.504,-40.039,-41.016,-25.879,0.000
1709298829.610,-41.992,-39.551,-45.898,-21.484,0.000
1709298829.614,-31.250,-44.434,-46.875,-20.020,0.000
1709298829.618,-32.227,-48.340,-46.387,-39.551,0.000
1709298829.622,-37.598,-41.016,-44.922,-51.270,0.000
1709298829.626,-38.574,-45.898,-40.039,-47.852,0.000
1709298829.630,-37.598,-56.152,-34.668,-43.945,0.000
1709298829.634,-34.668,-50.781,-36.133,-38.574,0.000
1709298829.638,-31.250,-40.039,-32.715,-37.109,0.000
1709298829.641,-41.992,-39.551,-30.762,-40.527,0.000
1709298829.645,-54.688,-40.527,-35.156,-42.969,0.000
1709298829.649,-51.758,-52.734,-27.832,-44.434,0.000
1709298829.653,-43.457,-48.828,-23.438,-29.297,0.000
1709298829.657,-41.016,-38.086,-28.320,-11.719,0.000
1709298829.661,-42.480,-41.992,-33.203,-25.391,0.000
1709298829.665,-39.551,-37.598,-29.297,-32.715,0.000
1709298829.669,-37.598,-51.270,-27.344,-25.391,0.000
1709298829.673,-28.320,-57.129,-33.691,-26.855,0.000
1709298829.677,-15.625,-40.039,-31.250,-20.996,0.000
1709298829.681,-29.785,-28.320,-30.762,-29.785,0.000
1709298829.684,-38.574,-23.438,-36.621,-43.457,0.000
1709298829.688,-38.574,-34.180,-38.086,-41.016,0.000
1709298829.692,-36.133,-42.969,-31.738,-33.203,0.000
1709298829.696,-20.508,-43.945,-34.668,-31.250,0.000
1709298829.700,-33.203,-42.969,-41.504,-43.945,0.000
1709298829.704,-47.852,-38.574,-37.598,-53.223,0.000
1709298829.708,-39.062,-39.551,-34.668,-45.410,0.000
1709298829.712,-25.391,-48.828,-34.668,-34.180,0.000
1709298829.716,-29.785,-51.758,-39.551,-40.527,0.000
1709298829.720,-41.504,-29.297,-41.016,-40.527,0.000
1709298829.724,-35.156,-23.438,-37.598,-46.875,0.000
1709298829.727,-45.410,-28.320,-40.039,-52.246,0.000
1709298829.731,-56.641,-39.551,-40.039,-45.410,0.000
1709298829.735,-36.621,-45.898,-38.086,-42.480,0.000
1709298829.739,-39.062,-40.039,-37.598,-39.551,0.000
1709298829.743,-55.176,-39.551,-33.203,-44.434,0.000
1709298829.747,-51.270,-42.969,-23.438,-31.738,0.000
1709298829.751,-39.062,-41.016,-25.879,-25.879,0.000
1709298829.755,-27.832,-31.738,-28.809,-41.992,0.000
1709298829.759,-28.809,-36.621,-27.344,-42.969,0.000
1709298829.763,-47.852,-46.387,-38.086,-48.828,0.000
1709298829.766,-49.805,-40.039,-39.062,-38.574,0.000
1709298829.770,-49.805,-40.527,-38.574,-28.809,0.000
1709298829.774,-55.664,-50.293,-36.621,-35.645,0.000
1709298829.778,-53.223,-43.457,-30.273,-38.086,0.000
1709298829.782,-50.293,-41.016,-28.320,-32.715,0.000
1709298829.786,-56.152,-49.805,-25.879,-31.738,0.000
1709298829.790,-57.617,-49.316,-30.273,-29.297,0.000
1709298829.794,-51.758,-44.922,-31.738,-25.879,0.000
1709298829.798,-48.828,-49.316,-30.762,-34.180,0.000
1709298829.802,-47.852,-41.504,-30.273,-37.598,0.000
1709298829.806,-48.340,-38.574,-28.809,-39.551,0.000
1709298829.809,-42.969,-41.504,-26.367,-31.250,0.000
1709298829.813,-43.945,-48.340,-26.855,-25.391,0.000
1709298829.817,-37.109,-41.016,-27.344,-22.949,0.000
1709298829.821,-38.574,-26.855,-28.320,-29.785,0.000
1709298829.825,-53.711,-36.621,-32.227,-44.434,0.000
1709298829.829,-46.875,-42.480,-28.320,-45.410,0.000
1709298829.833,-37.598,-38.574,-29.785,-38.086,0.000
1709298829.837,-41.992,-42.480,-36.133,-32.715,0.000
1709298829.841,-50.781,-47.852,-40.039,-33.203,0.000
1709298829.845,-44.922,-47.852,-32.715,-44.434,0.000
1709298829.849,-42.480,-48.828,-32.715,-46.875,0.000
1709298829.852,-47.363,-53.711,-40.039,-35.156,0.000
1709298829.856,-45.898,-61.523,-40.039,-27.344,0.000
1709298829.860,-45.898,-61.523,-40.527,-42.969,0.000
1709298829.864,-38.574,-40.527,-38.574,-33.203,0.000
1709298829.868,-37.109,-43.945,-42.969,-19.043,0.000
1709298829.872,-36.621,-51.270,-43.457,-34.668,0.000
1709298829.876,-32.715,-47.852,-46.387,-39.551,0.000
1709298829.880,-24.414,-45.410,-45.410,-28.809,0.000
1709298829.884,-23.926,-39.551,-40.527,-35.645,0.000
1709298829.888,-33.203,-47.363,-39.062,-40.527,0.000
1709298829.892,-33.691,-51.270,-36.621,-26.855,0.000
1709298829.895,-26.367,-50.781,-36.621,-11.230,0.000
1709298829.899,-31.738,-56.152,-37.598,-11.719,0.000
1709298829.903,-41.016,-53.711,-35.156,-40.039,0.000
1709298829.907,-43.457,-58.105,-35.156,-43.945,0.000
1709298829.911,-36.133,-62.500,-38.574,-42.480,0.000
1709298829.915,-36.133,-44.434,-36.133,-43.457,0.000
1709298829.919,-41.504,-39.062,-33.203,-39.551,0.000
1709298829.923,-46.387,-45.898,-37.109,-45.410,0.000
1709298829.927,-55.176,-42.480,-33.691,-47.363,0.000
1709298829.931,-49.805,-40.039,-31.738,-38.574,0.000
1709298829.935,-42.480,-40.039,-26.367,-21.973,0.000
1709298829.938,-40.039,-44.434,-23.438,-29.785,0.000
1709298829.942,-46.387,-51.270,-33.203,-39.062,0.000
1709298829.946,-47.852,-53.223,-35.645,-39.062,0.000
1709298829.950,-43.945,-48.340,-39.062,-44.434,0.000
1709298829.954,-39.062,-47.363,-37.109,-32.715,0.000
