timestamps,TP9,AF7,AF8,TP10,Right AUX
1709299353.161,-41.504,-44.434,-30.762,-52.246,0.000
1709299353.165,-47.363,-46.875,-36.133,-50.293,0.000
1709299353.169,-49.316,-52.246,-33.691,-41.992,0.000
1709299353.173,-40.527,-60.547,-28.320,-39.551,0.000
1709299353.177,-38.574,-44.434,-26.367,-48.340,0.000
1709299353.181,-46.875,-39.551,-32.715,-50.293,0.000
1709299353.185,-50.781,-47.852,-44.434,-40.039,0.000
1709299353.189,-47.363,-42.969,-41.016,-36.621,0.000
1709299353.192,-37.109,-41.504,-27.832,-32.715,0.000
1709299353.196,-41.504,-46.387,-30.273,-36.621,0.000
1709299353.200,-39.062,-45.898,-31.250,-35.645,0.000
1709299353.204,-38.086,-41.016,-31.250,-34.180,0.000
1709299353.208,-37.109,-53.711,-34.668,-34.668,0.000
1709299353.212,-34.180,-58.105,-33.203,-27.832,0.000
1709299353.216,-37.109,-43.945,-30.273,-24.414,0.000
1709299353.220,-33.203,-50.293,-41.016,-33.203,0.000
1709299353.223,-27.832,-55.176,-49.316,-36.621,0.000
1709299353.227,-22.461,-60.059,-40.527,-16.113,0.000
1709299353.231,-17.090,-58.594,-33.203,-11.230,0.000
1709299353.235,-16.113,-38.086,-28.809,-18.555,0.000
1709299353.239,-24.414,-30.762,-24.902,-29.297,0.000
1709299353.243,-30.762,-36.621,-22.949,-32.227,0.000
1709299353.247,-28.809,-44.922,-25.879,-29.297,0.000
1709299353.251,-17.578,-39.551,-28.320,-26.855,0.000
1709299353.255,-21.484,-34.668,-29.785,-28.320,0.000
1709299353.259,-25.879,-40.527,-32.227,-42.969,0.000
1709299353.263,-25.879,-40.527,-30.273,-47.363,0.000
1709299353.267,-37.109,-46.387,-24.414,-31.738,0.000
1709299353.271,-32.227,-56.152,-29.785,-20.020,0.000
1709299353.275,-24.902,-47.363,-28.809,-22.461,0.000
1709299353.279,-34.668,-39.062,-22.949,-32.227,0.000
1709299353.283,-44.434,-45.898,-35.156,-45.410,0.000
1709299353.287,-44.922,-55.664,-36.621,-41.504,0.000
1709299353.290,-41.504,-38.574,-25.391,-26.855,0.000
1709299353.294,-36.621,-37.109,-25.879,-34.668,0.000
1709299353.298,-37.598,-45.410,-34.180,-51.270,0.000
1709299353.302,-42.969,-39.551,-31.738,-53.711,0.000
1709299353.306,-34.668,-41.992,-28.809,-41.504,0.000
1709299353.310,-27.344,-32.227,-31.250,-30.273,0.000
1709299353.314,-37.109,-30.762,-31.250,-32.227,0.000
1709299353.318,-36.621,-41.504,-31.738,-41.016,0.000
1709299353.322,-33.203,-35.645,-32.227,-43.945,0.000
1709299353.326,-27.344,-35.156,-27.344,-35.645,0.000
1709299353.330,-22.949,-39.551,-29.785,-28.809,0.000
1709299353.333,-17.578,-24.414,-43.457,-23.926,0.000
1709299353.337,-16.602,-21.484,-40.039,-30.762,0.000
1709299353.341,-25.391,-26.855,-32.227,-42.480,0.000
1709299353.345,-24.414,-20.508,-29.785,-43.457,0.000
1709299353.349,0.000,-23.438,-31.250,-34.180,0.000
1709299353.353,0.000,-39.062,-40.039,-30.273,0.000
1709299353.357,0.000,-47.363,-35.156,-36.133,0.000
1709299353.361,0.000,-41.992,-34.668,-37.598,0.000
1709299353.365,0.000,-32.227,-42.480,-41.504,0.000
1709299353.369,0.000,-29.297,-40.527,-41.016,0.000
1709299353.373,0.000,-29.785,-38.086,-37.109,0.000
1709299353.376,0.000,-41.016,-33.203,-37.109,0.000
1709299353.380,0.000,-48.340,-33.203,-36.133,0.000
1709299353.384,0.000,-29.297,-41.504,-40.527,0.000
1709299353.388,0.000,-29.297,-41.504,-44.922,0.000
1709299353.392,0.000,-51.270,-37.598,-44.434,0.000
1709299353.396,-44.922,-50.293,-28.809,-54.199,0.000
1709299353.400,-47.852,-37.598,-29.785,-58.594,0.000
1709299353.404,-51.758,-28.809,-41.504,-54.199,0.000
1709299353.408,-55.176,-34.180,-32.715,-47.852,0.000
1709299353.412,-49.805,-46.875,-28.809,-42.969,0.000
1709299353.416,-45.898,-47.363,-36.133,-43.457,0.000
1709299353.419,-45.410,-48.340,-33.203,-50.781,0.000
1709299353.423,-42.969,-41.016,-28.809,-47.363,0.000
1709299353.427,-49.316,-47.363,-32.715,-40.039,0.000
1709299353.431,-46.875,-65.430,-29.297,-40.527,0.000
1709299353.435,-45.898,-54.688,-31.738,-45.410,0.000
1709299353.439,-50.781,-31.250,-41.992,-50.781,0.000
1709299353.443,-45.898,-36.133,-43.457,-43.945,0.000
1709299353.447,-44.922,-45.898,-38.086,-37.598,0.000
1709299353.451,-41.504,-40.527,-27.832,-32.227,0.000
1709299353.455,-34.668,-43.457,-22.949,-33.203,0.000
1709299353.459,-35.156,-37.598,-25.879,-35.156,0.000
1709299353.463,-38.086,-43.945,-26.855,-32.715,0.000
1709299353.467,-38.574,-57.129,-19.531,-29.785,0.000
1709299353.471,-40.527,-49.316,-25.879,-23.438,0.000
1709299353.474,-43.457,-39.551,-40.527,-40.039,0.000
1709299353.478,-47.852,-37.109,-43.945,-58.594,0.000
1709299353.482,-56.152,-38.574,-41.504,-55.664,0.000
1709299353.486,-55.176,-39.062,-41.016,-50.781,0.000
1709299353.490,-52.734,-46.387,-30.762,-44.922,0.000
1709299353.494,-53.711,-64.941,-21.484,-46.387,0.000
1709299353.498,-51.270,-69.824,-29.785,-53.711,0.000
1709299353.502,-50.781,-55.176,-28.809,-52.246,0.000
1709299353.506,-51.758,-52.734,-27.344,-48.828,0.000
1709299353.509,-47.852,-50.293,-33.691,-46.387,0.000
1709299353.513,-38.086,-49.805,-30.273,-44.434,0.000
1709299353.517,-38.574,-47.852,-24.414,-41.504,0.000
1709299353.521,-49.316,-36.133,-27.832,-39.551,0.000
1709299353.525,-48.828,-38.574,-33.203,-40.527,0.000
1709299353.529,-47.852,-47.363,-31.738,-30.273,0.000
1709299353.533,-49.805,-61.035,-41.992,-30.762,0.000
1709299353.537,-48.828,-63.965,-43.457,-48.340,0.000
1709299353.541,-45.410,-50.293,-27.344,-45.410,0.000
1709299353.544,-47.852,-52.734,-35.645,-42.969,0.000
1709299353.548,-46.387,-37.598,-47.363,-43.945,0.000
1709299353.552,-33.203,-23.926,-37.109,-34.668,0.000
1709299353.556,-38.086,-35.156,-39.551,-33.691,0.000
1709299353.560,-42.480,-41.016,-41.992,-30.762,0.000
1709299353.564,-33.691,-43.945,-34.668,-26.367,0.000
1709299353.568,-37.598,-38.086,-37.598,-34.180,0.000
1709299353.572,-37.109,-39.062,-48.828,-32.227,0.000
1709299353.576,-40.039,-57.129,-48.828,-32.227,0.000
1709299353.580,-42.969,-55.664,-31.738,-45.898,0.000
1709299353.583,-37.109,-44.434,-23.438,-45.410,0.000
1709299353.587,-37.109,-58.105,-28.809,-36.621,0.000
1709299353.591,-35.156,-54.199,-32.227,-33.203,0.000
1709299353.595,-34.180,-43.457,-31.738,-33.691,0.000
1709299353.599,-35.156,-40.039,-28.809,-40.527,0.000
1709299353.603,-34.180,-48.340,-30.273,-43.457,0.000
1709299353.607,-32.227,-53.223,-37.109,-40.039,0.000
1709299353.611,-32.715,-51.270,-43.457,-34.180,0.000
1709299353.614,-32.227,-55.176,-36.621,-31.738,0.000
1709299353.618,-27.832,-47.852,-36.621,-30.273,0.000
1709299353.622,-31.250,-41.504,-44.922,-29.297,0.000
1709299353.626,-39.062,-48.340,-43.457,-32.227,0.000
1709299353.631,-33.203,-46.875,-39.551,-29.297,0.000
1709299353.635,-25.879,-44.434,-30.762,-30.273,0.000
1709299353.639,-28.809,-41.016,-29.297,-37.598,0.000
1709299353.642,-39.062,-27.832,-35.156,-44.434,0.000
1709299353.646,-36.133,-33.203,-38.086,-43.457,0.000
1709299353.650,-33.691,-45.410,-42.969,-30.273,0.000
1709299353.654,-37.109,-41.504,-42.480,-24.902,0.000
1709299353.658,-36.133,-42.480,-42.480,-34.180,0.000
1709299353.662,-35.645,-46.875,-43.945,-37.109,0.000
1709299353.666,-34.180,-52.734,-38.574,-30.762,0.000
1709299353.670,-36.133,-57.617,-35.156,-28.809,0.000
1709299353.674,-42.969,-41.504,-36.621,-31.738,0.000
1709299353.678,-36.133,-40.039,-37.109,-37.598,0.000
1709299353.682,-38.574,-41.016,-37.109,-39.062,0.000
1709299353.685,-43.945,-38.574,-38.574,-38.574,0.000
1709299353.689,-32.715,-55.176,-38.574,-22.949,0.000
1709299353.693,-27.344,-54.199,-42.480,-16.602,0.000
1709299353.697,-35.156,-46.875,-41.992,-34.180,0.000
1709299353.701,-35.156,-44.434,-42.969,-46.875,0.000
1709299353.705,-33.203,-42.969,-45.410,-40.527,0.000
1709299353.709,-43.945,-45.410,-37.598,-30.762,0.000
1709299353.713,-43.945,-41.016,-25.879,-27.832,0.000
1709299353.717,-34.180,-45.898,-25.391,-25.391,0.000
1709299353.721,-36.621,-46.875,-29.785,-35.156,0.000
1709299353.725,-37.598,-43.945,-24.902,-35.645,0.000
1709299353.728,-41.992,-51.758,-31.250,-31.738,0.000
1709299353.732,-39.551,-45.898,-34.180,-38.574,0.000
1709299353.736,-35.645,-47.363,-30.273,-42.969,0.000
1709299353.740,-34.668,-51.758,-35.156,-36.621,0.000
1709299353.744,-38.086,-46.387,-41.016,-38.086,0.000
1709299353.748,-45.898,-39.062,-40.527,-44.434,0.000
1709299353.752,-42.480,-28.809,-45.410,-39.551,0.000
1709299353.756,-34.180,-32.227,-43.457,-31.738,0.000
1709299353.760,-37.598,-47.852,-41.992,-39.062,0.000
1709299353.764,-39.551,-46.387,-40.039,-40.527,0.000
1709299353.767,-35.156,-44.434,-37.109,-38.574,0.000
1709299353.771,-33.203,-50.781,-46.875,-39.551,0.000
1709299353.775,-36.133,-49.316,-48.828,-40.527,0.000
1709299353.779,-35.156,-53.711,-55.176,-41.504,0.000
1709299353.783,-36.133,-41.016,-58.594,-32.715,0.000
1709299353.787,-33.691,-34.668,-43.945,-28.809,0.000
1709299353.791,-27.832,-41.016,-35.645,-26.855,0.000
1709299353.795,-32.715,-38.574,-43.457,-37.109,0.000
1709299353.799,-40.039,-42.969,-42.480,-37.109,0.000
1709299353.803,-42.480,-43.945,-43.457,-32.715,0.000
1709299353.807,-41.016,-42.480,-45.410,-42.480,0.000
1709299353.810,-38.086,-50.781,-35.645,-35.645,0.000
1709299353.814,-40.039,-50.293,-30.273,-34.180,0.000
1709299353.818,-42.480,-49.805,-29.297,-47.852,0.000
1709299353.822,-44.922,-48.340,-30.762,-46.875,0.000
1709299353.826,-37.598,-36.133,-29.297,-39.062,0.000
1709299353.830,-38.574,-35.645,-27.832,-36.133,0.000
1709299353.834,-40.527,-41.016,-31.738,-26.855,0.000
1709299353.838,-36.621,-50.781,-38.574,-31.250,0.000
1709299353.842,-38.086,-53.711,-36.133,-41.016,0.000
1709299353.845,-35.645,-50.293,-39.062,-31.250,0.000
1709299353.849,-29.297,-44.922,-42.969,-20.508,0.000
1709299353.853,-30.273,-41.992,-33.691,-26.367,0.000
1709299353.857,-29.297,-42.969,-31.738,-38.574,0.000
1709299353.861,-23.926,-50.293,-41.016,-47.363,0.000
1709299353.865,-24.414,-54.688,-41.016,-46.387,0.000
1709299353.869,-25.391,-33.203,-36.133,-37.109,0.000
1709299353.873,-29.785,-28.320,-41.016,-33.691,0.000
1709299353.877,-38.574,-43.457,-47.363,-42.969,0.000
1709299353.880,-41.992,-52.246,-47.852,-50.293,0.000
1709299353.884,-41.504,-57.617,-46.387,-41.992,0.000
1709299353.888,-36.621,-64.941,-39.062,-21.484,0.000
1709299353.892,-29.785,-56.641,-30.762,-12.695,0.000
1709299353.896,-38.574,-51.270,-42.480,-41.504,0.000
1709299353.900,-36.621,-42.969,-36.133,-51.758,0.000
1709299353.904,-23.926,-34.668,-20.020,-35.156,0.000
1709299353.908,-31.738,-34.668,-23.438,-34.668,0.000
1709299353.912,-30.273,-38.574,-26.855,-32.227,0.000
1709299353.915,-26.855,-42.480,-29.297,-35.645,0.000
1709299353.919,-34.180,-47.852,-30.273,-43.457,0.000
1709299353.923,-39.551,-42.969,-34.668,-40.039,0.000
1709299353.927,-39.062,-43.457,-38.574,-29.785,0.000
1709299353.931,-32.227,-59.082,-38.574,-21.973,0.000
1709299353.935,-29.785,-49.805,-32.227,-18.066,0.000
1709299353.939,-33.691,-35.156,-38.086,-35.156,0.000
1709299353.943,-38.574,-45.410,-52.246,-48.340,0.000
1709299353.947,-38.086,-60.059,-46.387,-38.086,0.000
1709299353.951,-39.551,-47.852,-33.691,-36.133,0.000
1709299353.954,-29.297,-33.691,-32.715,-33.203,0.000
1709299353.958,0.000,-44.434,-33.691,-34.180,0.000
1709299353.962,0.000,-48.340,-33.203,-40.039,0.000
1709299353.966,0.000,-37.598,-32.227,-27.832,0.000
1709299353.970,0.000,-37.598,-29.785,-21.973,0.000
1709299353.974,0.000,-30.762,-27.344,-28.320,0.000
1709299353.978,0.000,-28.320,-33.203,-39.062,0.000
1709299353.982,0.000,-36.621,-40.039,-38.574,0.000
1709299353.986,0.000,-37.598,-41.992,-31.250,0.000
1709299353.989,0.000,-49.805,-32.227,-28.809,0.000
1709299353.993,0.000,-43.945,-39.551,-27.344,0.000
1709299353.997,0.000,-40.039,-32.715,-31.250,0.000
1709299354.001,0.000,-44.434,-28.320,-43.945,0.000
1709299354.004,-27.344,-44.434,-35.156,-39.551,0.000
1709299354.008,-41.992,-41.016,-25.879,-21.484,0.000
1709299354.012,-32.227,-46.875,-25.391,-17.578,0.000
1709299354.016,-22.949,-57.617,-34.180,-24.902,0.000
1709299354.020,-24.902,-48.340,-37.109,-31.738,0.000
1709299354.023,-35.156,-51.270,-38.574,-23.438,0.000
1709299354.027,-37.109,-56.641,-34.668,-15.137,0.000
1709299354.031,-31.250,-42.480,-31.250,-26.855,0.000
1709299354.035,-31.250,-35.645,-44.434,-36.133,0.000
1709299354.039,-31.738,-40.527,-43.945,-22.461,0.000
1709299354.043,-34.180,-36.133,-32.715,-26.855,0.000
1709299354.047,-43.945,-25.879,-31.738,-38.574,0.000
1709299354.051,-25.879,-29.785,-33.691,-46.387,0.000
1709299354.055,-36.133,-33.203,-40.527,-61.523,0.000
1709299354.059,-33.691,-30.762,-38.086,-62.012,0.000
1709299354.063,-35.645,-38.086,-32.715,-62.012,0.000
1709299354.067,-32.715,-49.805,-31.738,-53.223,0.000
1709299354.070,-10.254,-53.711,-34.180,-32.227,0.000
1709299354.074,-8.789,-34.668,-38.086,-35.156,0.000
1709299354.078,-24.414,-16.602,-41.992,-49.316,0.000
1709299354.082,-25.879,-23.438,-39.062,-50.781,0.000
1709299354.086,-24.902,-24.414,-39.062,-40.527,0.000
1709299354.090,-20.996,-13.672,-37.598,-30.762,0.000
1709299354.094,-6.836,-19.531,-34.180,-29.297,0.000
1709299354.098,-7.812,-16.602,-32.227,-43.945,0.000
1709299354.102,-21.973,-0.488,-41.504,-62.012,0.000
1709299354.106,-21.484,-3.906,-45.898,-58.105,0.000
1709299354.110,-20.508,-11.719,-41.992,-53.711,0.000
1709299354.113,-35.156,-0.488,-44.434,-58.594,0.000
1709299354.117,-44.922,11.230,-40.527,-67.383,0.000
1709299354.121,-53.711,7.324,-40.039,-83.984,0.000
1709299354.125,-56.152,12.695,-41.016,-85.449,0.000
1709299354.129,-59.570,5.371,-41.016,-79.590,0.000
1709299354.133,-77.148,-7.324,-50.293,-95.703,0.000
1709299354.137,-92.285,10.254,-58.105,-117.188,0.000
1709299354.141,-92.773,29.297,-60.547,-125.000,0.000
1709299354.145,-93.262,31.250,0.000,0.000,0.000
1709299354.149,-98.145,31.250,0.000,0.000,0.000
1709299354.153,-100.586,25.391,0.000,0.000,0.000
1709299354.157,-101.562,39.551,0.000,0.000,0.000
1709299354.160,-104.492,32.227,0.000,0.000,0.000
1709299354.164,-101.074,29.297,0.000,0.000,0.000
1709299354.168,-92.773,57.617,0.000,0.000,0.000
1709299354.172,-95.215,59.082,0.000,0.000,0.000
1709299354.176,-95.215,63.965,0.000,0.000,0.000
1709299354.180,-87.402,69.336,0.000,0.000,0.000
1709299354.184,-83.496,63.965,0.000,0.000,0.000
1709299354.188,-66.895,53.711,0.000,0.000,0.000
1709299354.192,-56.152,41.504,-87.402,-105.957,0.000
1709299354.196,-49.805,66.406,-84.961,-103.027,0.000
1709299354.199,-51.270,78.613,-80.566,-96.191,0.000
1709299354.203,-47.852,57.617,-81.543,-83.008,0.000
1709299354.207,-37.598,44.922,-89.844,-74.707,0.000
1709299354.211,-35.156,51.270,-87.891,-71.289,0.000
1709299354.215,-25.391,41.504,-75.195,-68.359,0.000
1709299354.219,-12.207,22.949,-76.172,-51.758,0.000
1709299354.223,-11.230,39.062,-84.473,-45.410,0.000
1709299354.227,4.395,42.969,-85.449,-30.273,0.000
1709299354.231,10.254,24.902,-82.520,-6.348,0.000
1709299354.235,13.184,25.391,-87.402,-4.395,0.000
1709299354.238,18.066,30.762,-91.309,-20.996,0.000
1709299354.242,9.766,26.367,-88.867,-24.902,0.000
1709299354.246,22.949,19.531,-84.961,-4.883,0.000
1709299354.250,33.691,20.996,-83.984,6.836,0.000
1709299354.254,28.809,22.461,-89.355,5.371,0.000
1709299354.258,39.062,16.602,-90.820,8.789,0.000
1709299354.262,46.387,13.672,-87.891,20.020,0.000
1709299354.266,42.969,9.766,-80.566,34.668,0.000
1709299354.270,51.758,5.371,-78.613,35.645,0.000
1709299354.274,52.246,6.836,-80.078,28.809,0.000
1709299354.278,48.828,3.418,-75.195,26.855,0.000
1709299354.281,52.734,-8.789,-74.219,29.785,0.000
1709299354.285,54.688,-5.371,-73.242,33.203,0.000
1709299354.289,51.758,-6.836,-63.965,41.992,0.000
1709299354.293,50.781,4.395,-62.500,44.922,0.000
1709299354.297,44.434,15.137,-61.035,36.621,0.000
1709299354.301,35.156,-10.742,-58.594,41.992,0.000
1709299354.305,35.156,-13.184,-63.477,41.504,0.000
1709299354.309,22.461,-9.277,-62.012,23.926,0.000
1709299354.313,12.695,-12.695,-58.594,10.742,0.000
1709299354.316,12.207,-15.625,-57.617,1.953,0.000
1709299354.320,12.207,-19.043,-55.664,0.488,0.000
1709299354.324,0.977,-23.438,-53.711,-5.859,0.000
1709299354.328,-7.324,-23.926,-46.875,0.000,0.000
1709299354.332,4.395,-27.832,-48.828,8.301,0.000
1709299354.336,2.441,-40.527,-47.852,-3.418,0.000
1709299354.340,-7.812,-44.922,-46.875,-12.207,0.000
1709299354.344,-3.906,-39.062,-52.246,-10.254,0.000
1709299354.347,-8.301,-23.926,-44.922,-3.418,0.000
1709299354.351,-12.207,-31.738,-45.898,3.418,0.000
1709299354.355,-8.301,-53.711,-47.363,-1.465,0.000
1709299354.359,-15.137,-31.250,-38.574,-20.508,0.000
1709299354.363,-21.484,-26.855,-41.992,-29.785,0.000
1709299354.367,-22.461,-32.227,-48.340,-19.043,0.000
1709299354.371,-24.902,-24.902,-47.852,-15.625,0.000
1709299354.375,-23.926,-23.926,-44.434,-28.809,0.000
1709299354.379,-26.855,-25.391,0.000,-27.832,0.000
1709299354.383,-19.531,-40.527,0.000,-28.320,0.000
1709299354.387,0.000,-79.590,0.000,-24.414,0.000
1709299354.391,-10.742,-58.594,0.000,-21.973,0.000
1709299354.395,-23.438,-4.395,0.000,-30.273,0.000
1709299354.398,-16.602,-4.883,0.000,-21.484,0.000
1709299354.402,-20.020,-20.996,0.000,-23.926,0.000
1709299354.406,-14.648,-20.996,0.000,-20.020,0.000
1709299354.410,-5.859,-24.414,0.000,1.465,0.000
1709299354.414,-13.184,-45.898,0.000,-3.418,0.000
1709299354.418,-15.137,-45.410,0.000,-20.508,0.000
1709299354.422,-21.484,-30.273,0.000,-26.367,0.000
1709299354.426,-27.344,-24.902,-44.922,-28.809,0.000
1709299354.430,-22.949,-36.133,-36.621,-30.273,0.000
1709299354.434,-29.297,-45.898,-39.551,-36.133,0.000
1709299354.438,-40.527,-30.273,-40.527,-46.387,0.000
1709299354.442,-46.875,-28.320,-40.527,-45.410,0.000
1709299354.445,-53.711,-44.434,-40.527,-51.270,0.000
1709299354.449,-50.781,-29.297,-37.109,-55.176,0.000
1709299354.453,-48.340,-28.320,-41.992,-57.617,0.000
1709299354.457,-46.875,-35.156,-37.598,-42.480,0.000
1709299354.461,-47.852,-45.410,-36.133,-38.574,0.000
1709299354.465,-48.828,-44.922,-44.922,-57.617,0.000
1709299354.469,-47.852,-26.855,-41.504,-48.340,0.000
1709299354.473,-35.645,-28.320,-29.297,-34.668,0.000
1709299354.477,-27.832,-41.016,-27.832,-32.227,0.000
1709299354.481,-40.039,-26.367,-36.133,-41.504,0.000
1709299354.485,-50.781,-18.066,-41.016,-52.246,0.000
1709299354.489,-48.828,-32.227,-44.434,-39.062,0.000
1709299354.492,-43.457,-34.668,-39.551,-30.273,0.000
1709299354.496,-41.992,-24.414,-32.715,-32.227,0.000
1709299354.500,-38.574,-25.879,-38.574,-32.715,0.000
1709299354.504,-30.762,-26.855,-43.457,-19.531,0.000
1709299354.508,-17.090,-32.227,-37.598,-15.625,0.000
1709299354.512,-19.531,-25.391,-35.645,-30.762,0.000
1709299354.516,-30.762,-20.508,-46.875,-37.598,0.000
1709299354.520,-33.203,-36.621,-48.828,-29.785,0.000
1709299354.524,-32.227,-30.762,-45.410,-31.250,0.000
1709299354.528,-41.016,-21.973,-51.270,-36.621,0.000
1709299354.531,-38.574,-39.062,-46.387,-30.762,0.000
1709299354.535,-31.250,-55.664,-44.434,-29.297,0.000
1709299354.539,-37.109,-39.062,-44.434,-37.109,0.000
1709299354.543,-29.785,-20.508,-37.598,-35.645,0.000
1709299354.547,-26.855,-33.691,-35.156,-31.250,0.000
1709299354.551,-30.273,-50.781,-35.156,-28.320,0.000
1709299354.555,-26.855,-46.875,-35.156,-28.320,0.000
1709299354.559,-26.367,-43.457,-40.039,-33.203,0.000
1709299354.563,-16.602,-33.203,-33.691,-34.180,0.000
1709299354.567,-30.273,-27.344,-29.297,-31.738,0.000
1709299354.570,-49.316,-29.297,-31.738,-28.809,0.000
1709299354.574,-45.898,-31.738,-35.645,-18.066,0.000
1709299354.578,-39.551,-37.109,-41.992,-7.812,0.000
1709299354.582,-32.715,-39.551,-27.344,-18.555,0.000
1709299354.586,-23.926,-32.715,-20.020,-23.926,0.000
1709299354.590,-26.855,-23.926,-27.344,-21.973,0.000
1709299354.594,-34.668,-29.785,-33.203,-17.578,0.000
1709299354.598,-32.227,-45.410,-38.086,-20.996,0.000
1709299354.602,-38.086,-39.551,-41.992,-30.273,0.000
1709299354.606,-29.785,-19.043,-40.527,-18.555,0.000
1709299354.610,-26.367,-21.973,-42.480,-10.254,0.000
1709299354.613,-33.691,-38.086,-39.551,-7.812,0.000
1709299354.617,-22.949,-42.969,-35.645,-15.625,0.000
1709299354.621,-28.809,-33.691,-40.039,-21.484,0.000
1709299354.625,-29.297,-18.555,-41.992,-18.555,0.000
1709299354.629,-24.414,-34.180,-45.898,-14.648,0.000
1709299354.633,-27.344,-44.922,-46.387,-20.508,0.000
1709299354.637,-25.391,-33.691,-41.992,-27.832,0.000
1709299354.641,-18.066,-47.363,-39.062,-11.719,0.000
1709299354.645,-16.602,-71.289,-48.340,-18.066,0.000
1709299354.649,-31.250,-58.594,-46.875,-33.691,0.000
1709299354.652,-33.203,-33.691,-31.738,-34.180,0.000
1709299354.656,-31.250,-31.250,-26.367,-36.621,0.000
1709299354.660,-33.691,-40.527,-22.949,-45.410,0.000
1709299354.664,-39.062,-37.598,-27.344,-50.293,0.000
1709299354.668,-37.598,-33.691,-31.250,-36.133,0.000
1709299354.672,-32.227,-39.062,-30.762,-24.902,0.000
1709299354.676,-35.645,-34.180,-35.156,-33.203,0.000
1709299354.680,-38.574,-26.855,-30.273,-34.668,0.000
1709299354.684,-41.504,-29.785,-32.715,-31.250,0.000
1709299354.687,-31.250,-39.062,-37.598,-24.414,0.000
1709299354.691,-23.438,-37.598,-34.668,-19.043,0.000
1709299354.695,-30.762,-29.785,-33.691,-31.738,0.000
1709299354.699,-34.180,-36.133,-35.645,-46.387,0.000
1709299354.703,-33.203,-41.992,-32.227,-41.992,0.000
1709299354.707,-35.156,-42.969,-36.133,-33.203,0.000
1709299354.711,-41.504,-33.203,-38.574,-30.273,0.000
1709299354.715,-35.645,-20.996,-34.668,-29.297,0.000
1709299354.718,-39.551,-27.344,-32.715,-43.457,0.000
1709299354.722,-46.875,-47.852,-25.391,-44.922,0.000
1709299354.726,-45.898,-52.734,-23.926,-36.621,0.000
1709299354.730,-45.410,-36.133,-33.203,-33.203,0.000
1709299354.734,-50.781,-45.410,-31.738,-32.715,0.000
1709299354.738,-51.758,-54.688,-24.902,-45.410,0.000
1709299354.742,-47.363,-43.457,-25.879,-40.527,0.000
1709299354.746,-40.527,-42.969,-31.738,-24.414,0.000
1709299354.750,-35.645,-35.645,-35.156,-32.227,0.000
1709299354.754,-31.738,-37.109,-36.133,-43.457,0.000
1709299354.758,-31.738,-42.480,-37.598,-44.434,0.000
1709299354.762,-35.156,-42.480,-41.992,-44.434,0.000
1709299354.766,-32.715,-52.734,-49.805,-33.691,0.000
1709299354.769,-28.320,-53.223,-41.016,-29.297,0.000
1709299354.773,-32.715,-54.199,-31.738,-41.016,0.000
1709299354.777,-34.180,-40.039,-31.250,-48.340,0.000
1709299354.781,-35.156,-23.926,-38.086,-48.340,0.000
1709299354.785,-38.574,-28.809,-41.992,-44.434,0.000
1709299354.789,-36.621,-47.363,-36.621,-28.809,0.000
1709299354.793,-37.109,-49.805,-29.785,-28.320,0.000
1709299354.797,-47.363,-41.992,-30.762,-42.480,0.000
1709299354.801,0.000,-38.574,0.000,-45.410,0.000
1709299354.805,0.000,-41.992,0.000,-42.969,0.000
1709299354.809,0.000,-41.992,0.000,-39.062,0.000
1709299354.813,0.000,-50.293,0.000,-38.086,0.000
1709299354.816,0.000,-51.270,0.000,-37.598,0.000
1709299354.820,0.000,-46.875,0.000,-33.203,0.000
1709299354.824,0.000,-62.500,0.000,-26.367,0.000
1709299354.828,0.000,-61.035,0.000,-31.738,0.000
1709299354.832,0.000,-44.434,0.000,-40.527,0.000
1709299354.836,0.000,-36.621,0.000,-38.574,0.000
1709299354.840,0.000,-40.039,0.000,-32.715,0.000
1709299354.844,0.000,-60.547,0.000,-40.527,0.000
1709299354.848,-42.480,-49.805,-32.715,-44.922,0.000
1709299354.852,-39.551,-30.762,-25.391,-39.062,0.000
1709299354.856,-37.598,-37.109,-23.926,-45.410,0.000
1709299354.860,-49.805,-43.945,-31.738,-60.547,0.000
1709299354.863,-57.617,-45.410,-37.109,-60.059,0.000
1709299354.867,-51.270,-53.711,-35.156,-41.504,0.000
1709299354.871,-36.133,-57.617,-30.762,-24.414,0.000
1709299354.875,-33.691,-42.480,-30.762,-31.738,0.000
1709299354.879,-42.480,-54.199,-30.273,-37.598,0.000
1709299354.883,-48.828,-49.805,-28.320,-37.598,0.000
1709299354.887,-44.922,-35.645,-30.762,-46.875,0.000
1709299354.891,-33.203,-52.246,-25.879,-39.062,0.000
1709299354.895,-41.992,-47.852,-28.320,-38.574,0.000
1709299354.899,-51.270,-34.180,-33.203,-48.340,0.000
1709299354.902,-41.016,-38.086,-38.574,-46.875,0.000
1709299354.906,-33.203,-48.340,-38.574,-40.039,0.000
1709299354.910,-35.156,-50.781,-31.738,-29.785,0.000
1709299354.914,-36.133,-40.527,-32.715,-28.320,0.000
1709299354.918,-30.762,-43.457,-35.645,-38.574,0.000
1709299354.922,-28.320,-48.828,-30.273,-32.227,0.000
1709299354.926,-34.180,-41.504,-30.273,-24.902,0.000
1709299354.930,-37.598,-43.457,-36.621,-38.086,0.000
1709299354.934,-34.668,-47.852,-36.133,-37.109,0.000
1709299354.938,-34.180,-46.875,-32.715,-37.598,0.000
1709299354.941,-31.738,-56.152,-30.273,-39.062,0.000
1709299354.945,-41.016,-62.988,-32.715,-44.922,0.000
1709299354.949,-34.180,-52.734,-32.715,-34.180,0.000
1709299354.953,-26.855,-43.457,-26.367,-30.762,0.000
1709299354.957,-38.086,-39.551,-23.438,-40.527,0.000
1709299354.961,-47.363,-37.598,-24.414,-40.039,0.000
1709299354.965,-46.875,-43.945,-26.855,-39.551,0.000
1709299354.969,-40.039,-46.387,-29.297,-26.367,0.000
1709299354.973,-43.945,-49.316,-30.762,-29.297,0.000
1709299354.977,-43.457,-58.105,-35.645,-42.969,0.000
1709299354.981,-46.875,-54.199,-36.133,-47.852,0.000
1709299354.984,-44.434,-48.828,-27.344,-45.898,0.000
1709299354.988,-35.156,-54.199,-25.391,-30.273,0.000
1709299354.992,-39.062,-42.969,-32.715,-27.832,0.000
1709299354.996,-43.457,-39.062,-38.086,-43.945,0.000
1709299355.000,-45.898,-41.016,-34.180,-43.945,0.000
1709299355.004,-40.039,-52.246,-33.203,-36.133,0.000
1709299355.008,-35.645,-54.688,-34.668,-37.109,0.000
1709299355.012,-36.621,-47.852,-33.691,-29.297,0.000
1709299355.016,-41.504,-37.109,-36.621,-28.809,0.000
1709299355.020,-50.781,-28.320,-41.504,-48.828,0.000
1709299355.023,-53.711,-35.156,-37.109,-57.617,0.000
1709299355.027,-56.152,-45.410,-35.156,-49.316,0.000
1709299355.031,-49.805,-47.363,-42.480,-39.551,0.000
1709299355.035,-42.480,-37.598,-45.898,-44.922,0.000
1709299355.039,-43.945,-34.668,-42.480,-54.688,0.000
1709299355.043,-41.016,-48.828,-48.828,-51.270,0.000
1709299355.047,-33.691,-51.758,-45.898,-38.574,0.000
1709299355.051,-43.457,-51.270,-38.574,-41.992,0.000
1709299355.055,-49.805,-46.387,-40.039,-47.363,0.000
1709299355.058,-52.246,-44.434,-40.039,-37.109,0.000
1709299355.062,-51.270,-45.898,-39.551,-27.344,0.000
1709299355.066,-34.180,-45.898,-39.062,-28.320,0.000
1709299355.070,-27.344,-48.828,-40.039,-33.203,0.000
1709299355.074,-46.875,-44.922,-42.969,-33.203,0.000
1709299355.078,-55.664,-36.621,-36.621,-37.109,0.000
1709299355.082,-51.270,-42.480,-36.133,-42.969,0.000
1709299355.086,-49.316,-48.340,-38.086,-30.273,0.000
1709299355.089,-43.457,-38.086,-39.062,-22.949,0.000
1709299355.093,-39.551,-41.504,-34.668,-28.320,0.000
1709299355.097,-40.527,-56.152,-34.668,-38.086,0.000
1709299355.101,-38.086,-51.758,-37.109,-50.293,0.000
1709299355.105,-35.645,-44.434,-30.762,-36.621,0.000
1709299355.109,-35.645,-54.199,-34.180,-34.668,0.000
1709299355.113,-39.551,-57.617,-38.086,-46.875,0.000
1709299355.117,-49.805,-48.828,-37.109,-45.898,0.000
1709299355.121,-48.828,-38.086,-39.551,-46.875,0.000
1709299355.125,-35.156,-40.527,-36.133,-51.270,0.000
1709299355.129,-42.969,-51.270,-35.156,-42.969,0.000
1709299355.133,-53.711,-50.293,-39.062,-41.016,0.000
1709299355.137,-43.945,-30.273,-34.668,-41.016,0.000
1709299355.140,-48.828,-31.250,-34.668,-48.340,0.000
1709299355.144,-49.805,-43.945,-35.156,-49.316,0.000
1709299355.148,-41.016,-46.387,-33.203,-39.551,0.000
1709299355.152,-44.922,-52.246,-36.133,-36.621,0.000
1709299355.156,-46.387,-56.641,-35.156,-30.273,0.000
1709299355.160,-53.223,-58.105,-35.645,-37.598,0.000
1709299355.164,-53.711,-47.363,-37.109,-44.434,0.000
1709299355.168,-41.016,-35.156,-40.527,-49.316,0.000
1709299355.172,-38.574,-42.480,-39.062,-48.340,0.000
1709299355.176,-44.922,-55.176,-32.715,-40.527,0.000
1709299355.180,-50.781,-51.270,-32.715,-39.551,0.000
1709299355.184,-44.434,-45.410,-38.086,-41.504,0.000
1709299355.187,-24.414,-54.688,-34.668,-25.879,0.000
1709299355.191,-21.484,-50.781,-33.691,-11.230,0.000
1709299355.195,-30.273,-36.133,-29.785,-26.367,0.000
1709299355.199,-24.414,-41.016,-29.785,-39.062,0.000
1709299355.203,-30.273,-41.016,-37.109,-49.316,0.000
1709299355.207,-29.297,-38.086,-38.086,-36.133,0.000
1709299355.211,-23.926,-50.781,-38.574,-23.438,0.000
1709299355.215,-23.438,-46.387,-41.504,-30.762,0.000
1709299355.219,-26.367,-40.039,-43.945,-31.250,0.000
1709299355.223,-31.250,-41.992,-42.480,-30.273,0.000
1709299355.227,-29.297,-44.434,-44.434,-35.156,0.000
1709299355.230,-31.250,-40.527,-45.410,-33.691,0.000
1709299355.234,-41.992,-58.594,-38.574,-26.855,0.000
1709299355.238,-48.340,-55.176,-38.086,-35.645,0.000
1709299355.242,-49.805,-31.738,-38.574,-42.969,0.000
1709299355.246,-52.246,-33.203,-40.039,-41.016,0.000
1709299355.250,-52.734,-42.969,-39.062,-35.156,0.000
1709299355.254,-48.828,-54.199,-39.551,-26.855,0.000
1709299355.258,-43.457,-56.152,-45.898,-38.086,0.000
1709299355.262,-41.992,-49.805,-42.969,-39.062,0.000
1709299355.266,-42.480,-50.293,-37.598,-30.273,0.000
1709299355.270,-46.387,-55.664,-36.621,-33.691,0.000
1709299355.273,-50.781,-59.570,-37.598,-40.527,0.000
1709299355.277,-42.480,-48.828,-32.227,-39.551,0.000
1709299355.281,-43.457,-43.457,-31.738,-42.480,0.000
1709299355.285,-41.992,-45.410,-35.645,-35.645,0.000
1709299355.289,-34.180,-45.410,-38.086,-24.414,0.000
1709299355.293,-35.156,-51.270,-38.086,-34.180,0.000
1709299355.297,-35.156,-48.340,-40.039,-30.762,0.000
1709299355.301,-35.156,-42.480,-38.086,-28.320,0.000
1709299355.305,-34.180,-40.039,-36.133,-28.320,0.000
1709299355.309,-27.832,-52.734,-34.180,-14.160,0.000
1709299355.313,-25.879,-66.895,-33.691,-15.137,0.000
1709299355.316,-29.297,-56.152,-39.062,-23.926,0.000
1709299355.320,-29.785,-40.039,-38.574,-33.203,0.000
1709299355.324,-31.738,-37.598,-39.062,-39.551,0.000
1709299355.328,-30.273,-40.527,-40.039,-31.738,0.000
1709299355.332,-30.762,-32.227,-40.527,-17.578,0.000
1709299355.336,-23.926,-36.621,-40.527,-23.926,0.000
1709299355.340,-14.648,-50.781,-40.039,-38.574,0.000
1709299355.344,-28.809,-42.480,-39.062,-25.391,0.000
1709299355.348,-42.480,-32.227,-35.156,-18.066,0.000
1709299355.352,-40.039,-40.039,-27.344,-29.297,0.000
1709299355.355,-48.340,-52.734,-30.762,-43.945,0.000
1709299355.359,-50.781,-61.035,-37.598,-45.898,0.000
1709299355.363,-45.898,-59.082,-34.180,-31.738,0.000
1709299355.367,-41.016,-49.805,-29.297,-20.508,0.000
1709299355.371,-38.086,-51.758,-24.414,-21.973,0.000
1709299355.375,-44.434,-54.199,-28.320,-31.738,0.000
1709299355.379,-51.758,-52.734,-41.504,-37.598,0.000
1709299355.383,-50.293,-57.129,-44.922,-46.875,0.000
1709299355.387,-55.176,-52.246,-31.738,-45.410,0.000
1709299355.390,-57.129,-43.457,-30.762,-33.691,0.000
1709299355.394,-40.527,-41.016,-33.691,-30.273,0.000
1709299355.398,-33.203,-45.898,-31.738,-26.367,0.000
1709299355.402,-33.203,-60.547,-24.414,-23.926,0.000
1709299355.406,-31.738,-62.500,-29.297,-31.250,0.000
1709299355.410,-35.156,-43.457,-35.645,-33.691,0.000
1709299355.414,-27.832,-43.457,-34.668,-33.691,0.000
1709299355.418,-26.855,-41.504,-31.738,-33.203,0.000
1709299355.422,-37.109,-40.039,-45.410,-39.062,0.000
1709299355.426,-37.109,-53.223,-40.039,-38.574,0.000
1709299355.429,-36.621,-51.758,-22.949,-32.715,0.000
1709299355.433,-37.598,-41.504,-29.297,-38.086,0.000
1709299355.437,-40.527,-29.297,-35.156,-42.969,0.000
1709299355.441,-37.598,-31.250,-33.691,-40.039,0.000
1709299355.445,-38.574,-52.246,-34.668,-41.504,0.000
1709299355.449,-36.621,-56.152,-43.457,-40.527,0.000
1709299355.453,-34.668,-34.668,-38.574,-35.645,0.000
1709299355.457,-34.668,-35.645,-30.273,-40.039,0.000
1709299355.460,-36.621,-40.527,-27.832,-36.621,0.000
1709299355.464,-35.645,-32.715,-33.203,-36.133,0.000
1709299355.468,-34.668,-42.480,-34.180,-33.691,0.000
1709299355.472,-36.133,-46.387,-36.133,-35.645,0.000
1709299355.476,-44.922,-40.527,-41.016,-43.457,0.000
1709299355.480,-49.316,-40.039,-34.668,-39.551,0.000
1709299355.484,-48.828,-41.992,-36.621,-40.039,0.000
1709299355.488,-47.852,-40.527,-36.133,-45.898,0.000
1709299355.492,-47.363,-43.945,-34.668,-44.434,0.000
1709299355.496,-53.223,-46.387,-38.574,-41.504,0.000
1709299355.500,-46.875,-49.805,-34.668,-40.527,0.000
1709299355.504,-42.480,-62.012,-36.133,-38.086,0.000
1709299355.508,-44.434,-49.805,-34.668,-30.762,0.000
1709299355.511,-39.062,-43.457,-29.785,-27.832,0.000
1709299355.515,-39.062,-45.898,-33.203,-38.086,0.000
1709299355.519,-44.434,-43.457,-37.109,-48.828,0.000
1709299355.523,-48.340,-40.527,-40.039,-50.781,0.000
1709299355.527,-42.969,-41.016,-39.062,-44.434,0.000
1709299355.531,-34.180,-41.016,-36.621,-34.180,0.000
1709299355.535,-36.133,-34.180,-34.668,-32.715,0.000
1709299355.539,-40.039,-40.527,-34.180,-31.738,0.000
1709299355.543,-46.875,-57.129,-33.691,-44.922,0.000
1709299355.547,-60.059,-52.246,-36.621,-50.781,0.000
1709299355.551,-54.199,-47.852,-38.574,-48.828,0.000
1709299355.555,-46.875,-52.246,-38.086,-52.734,0.000
1709299355.558,-49.805,-41.992,-37.598,-45.898,0.000
1709299355.562,-47.852,-48.340,-29.785,-40.527,0.000
1709299355.566,-46.387,-56.641,-35.645,-42.480,0.000
1709299355.570,-33.691,-54.688,-40.039,-30.273,0.000
1709299355.574,-35.645,-39.551,-38.086,-25.391,0.000
1709299355.578,-53.711,-27.832,-41.016,-33.691,0.000
1709299355.582,-48.828,-48.828,-37.109,-22.461,0.000
1709299355.586,-45.410,-56.641,-38.086,-13.672,0.000
1709299355.590,-46.875,-36.133,-36.133,-21.973,0.000
1709299355.594,-44.922,-32.227,-28.809,-28.809,0.000
1709299355.598,-38.574,-42.969,-26.855,-38.574,0.000
1709299355.601,-37.109,-42.480,-26.367,-48.340,0.000
1709299355.605,-43.457,-38.574,-28.320,-38.574,0.000
1709299355.609,-44.434,-30.273,-32.715,-30.273,0.000
1709299355.613,-42.969,-29.297,-35.645,-47.363,0.000
1709299355.617,-43.945,-48.828,-33.203,-59.082,0.000
1709299355.621,-45.898,-46.387,-32.227,-52.734,0.000
1709299355.625,-43.457,-33.203,-34.180,-41.504,0.000
1709299355.629,-33.691,-38.574,-33.203,-28.320,0.000
1709299355.633,-32.227,-48.340,-40.039,-34.668,0.000
1709299355.637,-41.992,-46.387,-43.945,-51.758,0.000
1709299355.641,-41.992,-33.203,-30.273,-52.246,0.000
1709299355.644,-35.156,-30.273,-25.879,-52.246,0.000
1709299355.648,-27.344,-30.273,-30.273,-47.363,0.000
1709299355.652,-30.762,-27.832,-28.320,-31.738,0.000
1709299355.656,-35.156,-35.156,-25.879,-31.250,0.000
1709299355.660,-35.156,-28.320,-29.297,-39.551,0.000
1709299355.664,-32.715,-26.855,-29.297,-39.551,0.000
1709299355.668,-22.949,-32.715,-25.879,-34.180,0.000
1709299355.672,-17.578,-28.320,-32.715,-25.879,0.000
1709299355.676,-34.668,-26.367,-41.016,-22.461,0.000
1709299355.680,-33.691,-31.250,-36.621,-33.691,0.000
1709299355.684,-24.902,-40.527,-31.250,-34.668,0.000
1709299355.687,-34.180,-43.457,-29.297,-34.180,0.000
1709299355.691,-37.598,-46.387,-34.180,-40.527,0.000
1709299355.695,-33.691,-36.621,-36.621,-40.527,0.000
1709299355.699,-31.738,-26.367,-37.598,-44.434,0.000
1709299355.703,-34.180,-32.227,-39.062,-53.223,0.000
1709299355.707,-25.879,-40.527,-35.156,-50.293,0.000
1709299355.711,-15.625,-40.527,-39.062,-48.828,0.000
1709299355.715,-20.996,-43.457,-47.363,-51.758,0.000
1709299355.719,-36.621,-52.246,-42.480,-46.387,0.000
1709299355.723,-40.039,-49.316,-37.109,-47.363,0.000
1709299355.726,-26.367,-42.480,-34.180,-52.734,0.000
1709299355.730,-18.066,-42.969,-37.109,-54.199,0.000
1709299355.734,-30.273,-43.457,-39.551,-50.781,0.000
1709299355.738,-42.480,-44.922,-41.504,-48.828,0.000
1709299355.742,-38.086,-37.598,-41.016,-45.898,0.000
1709299355.746,-34.180,-36.133,-39.062,-38.574,0.000
1709299355.750,-36.133,-44.434,-36.133,-31.738,0.000
1709299355.754,-38.574,-50.293,-36.133,-40.527,0.000
1709299355.758,-36.133,-55.664,-38.086,-42.969,0.000
1709299355.762,-34.180,-59.082,-33.691,-37.598,0.000
1709299355.765,-42.969,-58.594,-34.180,-28.809,0.000
1709299355.769,-44.922,-53.223,-36.133,-32.715,0.000
1709299355.773,-43.457,-46.387,-34.180,-29.785,0.000
1709299355.777,-45.898,-46.875,-35.156,-29.785,0.000
1709299355.781,-39.062,-45.410,-33.691,-37.109,0.000
1709299355.785,-46.387,-44.922,-34.180,-39.551,0.000
1709299355.789,-49.805,-45.410,-30.273,-32.715,0.000
1709299355.793,-36.133,-43.457,-24.902,-20.020,0.000
1709299355.797,-28.809,-49.805,-26.855,-24.902,0.000
1709299355.801,-25.879,-59.570,-29.785,-33.691,0.000
1709299355.805,-31.738,-53.711,-24.902,-28.320,0.000
1709299355.809,-34.180,-46.875,-23.438,-16.113,0.000
1709299355.813,-36.133,-42.969,-34.180,-20.508,0.000
1709299355.817,-31.738,-36.621,-40.527,-34.180,0.000
1709299355.820,-25.879,-44.434,-39.062,-38.574,0.000
1709299355.824,-40.527,-48.340,-35.156,-31.738,0.000
1709299355.828,-46.387,-45.898,-36.133,-36.621,0.000
1709299355.832,0.000,-46.387,-33.691,-37.109,0.000
1709299355.836,0.000,-45.410,-34.180,-36.621,0.000
1709299355.840,0.000,-36.621,-33.691,-39.062,0.000
1709299355.844,0.000,-41.992,-31.738,-35.156,0.000
1709299355.848,0.000,-57.129,-40.527,-45.898,0.000
1709299355.851,0.000,-53.711,-42.969,-38.574,0.000
1709299355.855,0.000,-49.316,-37.109,-31.250,0.000
1709299355.859,0.000,-48.828,-34.668,-43.945,0.000
1709299355.863,0.000,-47.363,-35.645,-46.387,0.000
1709299355.867,0.000,-46.875,-36.621,-28.320,0.000
1709299355.871,0.000,-45.898,-32.227,-13.672,0.000
1709299355.875,0.000,-47.363,-35.156,-20.508,0.000
1709299355.879,-35.156,-41.504,-37.598,-19.531,0.000
1709299355.883,-30.762,-34.668,-33.203,-17.578,0.000
1709299355.887,-26.367,-36.621,-35.156,-7.324,0.000
1709299355.891,-21.973,-43.945,-32.715,-10.254,0.000
1709299355.895,-32.715,-56.641,-31.250,-21.973,0.000
1709299355.899,-42.480,-57.129,-30.273,-24.902,0.000
1709299355.902,-45.410,-46.875,-32.715,-34.668,0.000
1709299355.906,-41.992,-41.016,-34.668,-29.297,0.000
1709299355.910,-26.855,-45.410,-25.391,-16.602,0.000
1709299355.914,-24.902,-44.434,-22.461,-19.043,0.000
1709299355.918,-36.133,-45.410,-22.949,-34.668,0.000
1709299355.922,-36.133,-56.152,-29.785,-43.457,0.000
1709299355.926,-38.086,-50.781,-33.691,-36.133,0.000
1709299355.930,-34.180,-43.945,-39.551,-26.855,0.000
1709299355.934,-30.762,-47.363,-45.410,-27.344,0.000
1709299355.938,-33.203,-44.434,-44.922,-36.621,0.000
1709299355.942,-29.297,-41.016,-39.551,-41.504,0.000
1709299355.946,-20.996,-43.945,-34.180,-35.156,0.000
1709299355.949,-31.250,-49.316,-40.039,-35.645,0.000
1709299355.953,-42.480,-42.480,-42.969,-38.086,0.000
1709299355.957,-37.598,-46.387,-43.457,-31.250,0.000
1709299355.961,-39.062,-50.293,-45.410,-38.574,0.000
1709299355.965,-44.434,-48.828,-43.457,-54.199,0.000
1709299355.969,-41.992,-41.504,-41.016,-47.363,0.000
1709299355.973,-40.039,-35.156,-38.574,-43.457,0.000
1709299355.977,-36.133,-37.109,-40.039,-39.551,0.000
1709299355.981,-37.598,-39.551,-38.574,-39.062,0.000
1709299355.985,-38.574,-40.527,-31.738,-47.363,0.000
1709299355.989,-40.527,-38.086,-36.133,-44.434,0.000
1709299355.992,-46.875,-35.156,-41.016,-39.062,0.000
1709299355.996,-37.598,-39.551,-35.156,-39.551,0.000
1709299356.000,-36.621,-55.176,-36.133,-41.992,0.000
1709299356.004,-37.109,-63.965,-40.527,-40.039,0.000
1709299356.008,-44.434,-47.852,-43.945,-47.852,0.000
1709299356.012,-49.316,-47.363,-37.598,-52.246,0.000
1709299356.016,-46.875,-44.434,-36.133,-55.176,0.000
1709299356.020,-46.387,-35.645,-38.574,-58.594,0.000
1709299356.024,-48.340,-38.574,-38.574,-53.223,0.000
1709299356.028,-37.598,-46.387,-41.016,-38.086,0.000
1709299356.032,-18.555,-50.293,-32.227,-20.508,0.000
1709299356.035,-26.367,-30.762,-29.785,-32.227,0.000
1709299356.039,-39.551,-34.180,-43.945,-50.781,0.000
1709299356.043,-35.645,-50.293,-41.992,-51.758,0.000
1709299356.047,-38.574,-53.711,-33.691,-37.598,0.000
1709299356.051,-49.316,-52.246,-35.645,-19.043,0.000
1709299356.055,-48.340,-46.387,-33.203,-37.109,0.000
1709299356.059,-42.480,-54.199,-29.785,-47.852,0.000
1709299356.063,-45.410,-55.176,-37.598,-41.504,0.000
1709299356.067,-54.199,-43.945,-44.922,-47.363,0.000
1709299356.071,-47.363,-51.270,-40.527,-44.922,0.000
1709299356.074,-45.410,-49.316,-40.039,-35.156,0.000
1709299356.078,-50.293,-42.969,-43.457,-46.875,0.000
1709299356.082,-47.852,-39.551,-34.180,-63.965,0.000
1709299356.086,-48.828,-39.062,-30.273,-60.059,0.000
1709299356.090,-41.992,-51.270,-31.738,-48.828,0.000
1709299356.094,-47.852,-59.570,-29.297,-36.621,0.000
1709299356.098,-54.199,-61.523,-31.738,-36.621,0.000
1709299356.102,-44.922,-56.641,-35.156,-35.645,0.000
1709299356.106,-42.480,-44.922,-32.227,-37.109,0.000
1709299356.110,-47.363,-42.969,-27.344,-43.945,0.000
1709299356.115,-44.922,-44.434,-24.902,-28.320,0.000
1709299356.119,-45.410,-47.852,-27.344,-37.598,0.000
1709299356.123,-37.598,-58.105,-32.227,-28.320,0.000
1709299356.127,-22.949,-60.547,-30.273,-18.066,0.000
1709299356.131,-31.250,-47.363,-26.855,-27.344,0.000
1709299356.135,-32.715,-31.250,-25.391,-38.086,0.000
1709299356.138,-22.949,-30.762,-27.344,-30.273,0.000
1709299356.142,-18.066,-37.109,-24.414,-11.719,0.000
1709299356.146,-21.484,-28.809,-23.438,-19.043,0.000
1709299356.150,-28.320,-24.902,-33.203,-51.758,0.000
1709299356.154,-29.785,-32.227,-41.016,-62.012,0.000
1709299356.158,-25.391,-37.109,-37.109,-54.688,0.000
1709299356.163,-25.879,-38.086,0.000,0.000,0.000
1709299356.166,-32.227,-42.480,0.000,0.000,0.000
1709299356.170,-29.785,-41.992,0.000,0.000,0.000
1709299356.174,-29.297,-37.598,0.000,0.000,0.000
1709299356.178,-27.344,-39.062,0.000,0.000,0.000
1709299356.182,-32.715,-50.781,0.000,0.000,0.000
1709299356.186,-44.922,-43.457,0.000,0.000,0.000
1709299356.190,-27.344,-44.434,0.000,0.000,0.000
1709299356.194,-15.137,-56.641,0.000,0.000,0.000
1709299356.198,-44.434,-42.969,0.000,0.000,0.000
1709299356.202,-57.129,-36.133,0.000,0.000,0.000
1709299356.205,-50.781,-44.922,0.000,0.000,0.000
1709299356.209,-46.387,-38.574,-28.320,-46.387,0.000
1709299356.213,-44.922,-36.621,-28.320,-31.738,0.000
1709299356.217,-46.387,-32.715,-28.320,-30.762,0.000
1709299356.221,-41.504,-36.133,-26.367,-32.227,0.000
1709299356.225,-32.715,-51.758,-29.785,-29.785,0.000
1709299356.229,-38.086,-45.410,-29.785,-28.320,0.000
1709299356.233,-41.016,-35.645,-29.785,-22.461,0.000
1709299356.236,-36.133,-28.809,-24.414,-21.484,0.000
1709299356.240,-36.621,-37.109,-26.855,-23.926,0.000
1709299356.244,-40.527,-49.805,-27.832,-30.273,0.000
1709299356.248,-44.434,-41.992,-31.738,-32.227,0.000
1709299356.252,-37.109,-40.527,-35.156,-28.320,0.000
1709299356.256,-41.016,-50.781,-28.809,-34.180,0.000
1709299356.260,-43.457,-44.922,-29.297,-38.574,0.000
1709299356.264,-33.203,-28.320,-31.738,-31.738,0.000
1709299356.268,-32.715,-26.855,-32.715,-21.484,0.000
1709299356.272,-31.738,-33.691,-30.762,-13.184,0.000
1709299356.276,-27.832,-37.109,-28.809,-17.578,0.000
1709299356.280,-39.062,-40.527,-32.715,-33.691,0.000
1709299356.283,-40.039,-40.527,-35.645,-46.875,0.000
1709299356.287,-28.320,-39.551,-28.320,-38.574,0.000
1709299356.291,-27.344,-48.340,-35.156,-20.020,0.000
1709299356.295,-33.203,-47.363,-39.062,-31.738,0.000
1709299356.299,-30.273,-31.738,-32.227,-48.828,0.000
1709299356.303,-27.344,-30.762,-28.320,-51.270,0.000
1709299356.307,-43.945,-39.551,-25.879,-48.828,0.000
1709299356.311,-59.570,-47.363,-31.738,-50.781,0.000
1709299356.315,-43.945,-38.574,-35.645,-50.781,0.000
1709299356.319,-47.852,-39.551,-34.668,-45.410,0.000
1709299356.323,-69.824,-48.340,-36.133,-44.922,0.000
1709299356.327,-67.383,-44.922,-39.551,-57.617,0.000
1709299356.330,-64.941,-41.992,-39.551,-60.059,0.000
1709299356.334,-59.082,-36.133,-34.180,-44.434,0.000
1709299356.338,-42.480,-37.598,-30.273,-32.227,0.000
1709299356.342,-44.922,-53.711,-37.598,-46.387,0.000
1709299356.346,-47.363,-49.805,-37.109,-57.129,0.000
1709299356.350,-45.898,-47.852,-32.227,-53.223,0.000
1709299356.354,-42.480,-60.547,-37.109,-50.293,0.000
1709299356.358,-37.109,-61.523,-42.969,-46.875,0.000
1709299356.362,-35.156,-55.664,-37.109,-43.945,0.000
1709299356.366,-40.039,-42.480,-37.109,-49.316,0.000
1709299356.370,-40.039,-35.156,-41.992,-49.316,0.000
1709299356.373,-40.527,-45.898,-35.156,-43.457,0.000
1709299356.377,-43.457,-61.523,-34.180,-40.039,0.000
1709299356.381,-36.621,-46.387,-39.062,-32.715,0.000
1709299356.385,-40.039,-27.832,-40.039,-43.457,0.000
1709299356.389,-47.852,-29.297,-39.062,-45.898,0.000
1709299356.393,-41.016,-42.480,-43.457,-32.227,0.000
1709299356.397,0.000,-40.039,-41.504,-36.133,0.000
1709299356.401,0.000,-35.645,-35.156,-50.781,0.000
1709299356.405,0.000,-48.828,-37.109,-56.152,0.000
1709299356.409,0.000,-51.758,-35.156,-49.805,0.000
1709299356.412,0.000,-39.062,-33.203,-42.480,0.000
1709299356.416,0.000,-42.480,-35.645,-45.410,0.000
1709299356.420,0.000,-46.875,-32.227,-45.898,0.000
1709299356.424,0.000,-48.340,-27.832,-39.551,0.000
1709299356.428,0.000,-41.016,-28.809,-35.156,0.000
1709299356.432,0.000,-30.762,-38.574,-38.086,0.000
1709299356.436,0.000,-34.180,-44.434,-48.340,0.000
1709299356.440,0.000,-35.156,-38.574,-56.152,0.000
1709299356.444,-35.645,-40.039,-41.504,-55.664,0.000
1709299356.447,-54.688,-42.480,-39.062,-50.293,0.000
1709299356.451,-52.246,-43.945,-29.297,-42.969,0.000
1709299356.455,-47.852,-43.457,-32.715,-33.691,0.000
1709299356.459,-48.340,-42.969,-42.969,-40.039,0.000
1709299356.463,-48.828,-51.758,-39.062,-47.852,0.000
1709299356.467,-49.805,-50.781,-30.762,-42.969,0.000
1709299356.471,-45.898,-44.434,-27.832,-23.926,0.000
1709299356.475,-37.598,-39.551,-25.879,-28.809,0.000
1709299356.479,-34.180,-32.227,-25.879,-48.828,0.000
1709299356.483,-35.645,-33.691,-31.250,-55.176,0.000
1709299356.487,-38.574,-43.457,-37.109,-47.852,0.000
1709299356.491,-36.621,-44.434,-29.785,-48.828,0.000
1709299356.495,-34.668,-47.852,-27.344,-43.945,0.000
1709299356.499,-36.133,-39.062,-34.180,-37.598,0.000
1709299356.502,-37.109,-29.297,-33.691,-54.688,0.000
1709299356.506,-43.945,-33.203,-33.691,-61.523,0.000
1709299356.510,-41.992,-35.645,-33.691,-45.410,0.000
1709299356.514,-35.645,-40.039,-30.273,-25.879,0.000
1709299356.518,-36.621,-44.922,-30.762,-20.508,0.000
1709299356.522,-37.109,-44.434,-34.668,-35.156,0.000
1709299356.526,-39.551,-39.551,-35.645,-44.922,0.000
1709299356.530,-34.180,-38.086,-35.645,-40.527,0.000
1709299356.534,-29.785,-41.504,-39.551,-37.109,0.000
1709299356.538,-32.715,-53.223,-42.480,-35.156,0.000
1709299356.542,-36.133,-62.500,-38.574,-35.645,0.000
1709299356.546,-40.039,-47.363,-36.133,-42.480,0.000
1709299356.550,-42.969,-38.574,-39.062,-40.527,0.000
1709299356.553,-42.969,-42.969,-36.621,-41.016,0.000
1709299356.557,-38.086,-41.504,-34.180,-36.621,0.000
1709299356.561,-44.922,-43.945,-39.062,-48.828,0.000
1709299356.565,-52.246,-37.598,-43.457,-60.059,0.000
1709299356.569,-52.246,-31.250,-41.016,-49.316,0.000
1709299356.573,-51.270,-35.645,-40.527,-45.410,0.000
1709299356.577,-44.434,-36.621,-44.922,-35.645,0.000
1709299356.581,-44.434,-33.691,-41.992,-43.457,0.000
1709299356.584,-49.805,-42.480,-41.504,-62.988,0.000
1709299356.588,-53.223,-45.410,-44.922,-62.012,0.000
1709299356.592,-48.340,-42.480,-40.527,-48.828,0.000
1709299356.596,-46.875,-54.199,-36.621,-40.527,0.000
1709299356.600,-52.246,-53.223,-39.551,-36.133,0.000
1709299356.604,-57.617,-43.945,-42.480,-41.016,0.000
1709299356.608,-58.594,-39.062,-41.016,-48.828,0.000
1709299356.612,-55.664,-38.086,-40.039,-44.922,0.000
1709299356.616,-51.758,-49.316,-37.598,-32.227,0.000
1709299356.620,-42.480,-61.523,-31.250,-27.832,0.000
1709299356.623,-46.387,-54.199,-39.551,-34.180,0.000
1709299356.627,-52.246,-41.504,-44.922,-38.086,0.000
1709299356.631,-35.645,-42.969,-42.480,-22.949,0.000
1709299356.635,-26.367,-43.945,-40.527,-5.859,0.000
1709299356.639,-34.668,-46.387,-40.527,-20.020,0.000
1709299356.643,-34.180,-37.109,-41.016,-36.621,0.000
1709299356.647,-39.551,-44.434,-45.410,-42.969,0.000
1709299356.651,-38.574,-60.547,-47.363,-35.156,0.000
1709299356.655,-31.250,-59.570,-40.039,-20.996,0.000
1709299356.659,-33.691,-53.223,-36.621,-30.273,0.000
1709299356.663,-37.598,-42.480,-37.598,-37.109,0.000
1709299356.667,-42.480,-47.852,-39.062,-42.969,0.000
1709299356.670,-44.434,-41.992,-40.039,-48.828,0.000
1709299356.674,-39.062,-39.062,-40.039,-48.340,0.000
1709299356.678,-39.551,-42.969,-43.945,-51.758,0.000
1709299356.682,-52.734,-39.062,-45.898,-55.664,0.000
1709299356.686,-56.641,-44.434,-44.922,-50.293,0.000
1709299356.690,-48.828,-43.945,-43.457,-35.645,0.000
1709299356.694,-37.598,-43.945,-38.086,-35.645,0.000
1709299356.698,-33.691,-52.246,-31.738,-43.945,0.000
1709299356.702,-35.645,-43.945,-32.227,-44.434,0.000
1709299356.706,-34.668,-41.504,-36.621,-51.758,0.000
1709299356.710,-30.762,-50.293,-36.133,-43.945,0.000
1709299356.713,-29.297,-53.711,-33.691,-28.809,0.000
1709299356.717,-25.391,-54.199,-29.785,-26.367,0.000
1709299356.721,-20.996,-47.363,-31.250,-25.879,0.000
1709299356.725,-27.344,-42.480,-35.645,-27.832,0.000
1709299356.729,-39.062,-48.828,-39.062,-35.645,0.000
1709299356.733,-36.133,-54.199,-37.109,-36.133,0.000
1709299356.737,-30.273,-48.828,-33.203,-31.738,0.000
1709299356.741,-36.133,-45.898,-38.086,-35.156,0.000
1709299356.745,-42.480,-42.480,-39.062,-33.203,0.000
1709299356.749,-42.969,-39.551,-29.785,-33.691,0.000
1709299356.753,-36.133,-38.574,-25.391,-28.320,0.000
1709299356.756,-25.391,-40.039,-25.879,-16.113,0.000
1709299356.760,-26.367,-40.527,-29.785,-28.320,0.000
1709299356.764,-30.762,-40.039,-31.250,-33.203,0.000
1709299356.768,-41.016,-41.016,-31.738,-27.832,0.000
1709299356.772,-42.969,-55.176,-34.668,-26.855,0.000
1709299356.776,-39.551,-76.172,-36.621,-32.227,0.000
1709299356.780,-45.410,-63.477,-36.133,-50.293,0.000
1709299356.784,-48.828,-44.434,-34.180,-56.152,0.000
1709299356.788,-56.641,-41.016,-36.133,-57.129,0.000
1709299356.792,-57.617,-38.086,-40.039,-49.805,0.000
1709299356.795,-52.246,-29.785,-23.926,-45.410,0.000
1709299356.799,-53.711,-39.551,-22.461,-40.527,0.000
1709299356.803,-59.082,-44.434,-34.180,-40.039,0.000
1709299356.807,-64.453,-39.062,-33.691,-47.363,0.000
1709299356.811,-56.152,-42.969,-34.180,-42.969,0.000
1709299356.815,-49.805,-42.969,-37.598,-40.527,0.000
1709299356.819,-44.434,-40.527,0.000,-33.691,0.000
1709299356.823,-33.203,-40.039,0.000,-33.203,0.000
1709299356.827,-40.039,-48.340,0.000,-38.574,0.000
1709299356.831,-52.246,-55.176,0.000,-41.504,0.000
1709299356.835,-43.457,-41.504,0.000,-43.945,0.000
1709299356.839,-39.062,-25.879,0.000,-47.852,0.000
1709299356.843,-37.109,-33.203,0.000,-45.410,0.000
1709299356.847,-28.320,-41.992,0.000,-25.391,0.000
1709299356.850,-22.461,-24.414,0.000,-21.484,0.000
1709299356.854,-34.180,-28.809,0.000,-37.598,0.000
1709299356.858,-38.574,-48.340,0.000,-43.457,0.000
1709299356.862,-33.203,-41.992,0.000,-47.363,0.000
1709299356.866,-40.039,-30.762,-32.715,-50.781,0.000
1709299356.870,-38.574,-36.133,-35.645,-40.039,0.000
1709299356.874,-32.715,-43.945,-35.156,-31.250,0.000
1709299356.878,-31.738,-41.504,-29.297,-28.320,0.000
1709299356.882,-30.762,-38.086,-28.320,-33.203,0.000
1709299356.885,-29.785,-40.039,-28.320,-42.480,0.000
1709299356.889,-33.203,-41.992,-35.645,-44.922,0.000
1709299356.893,-30.273,-46.875,-41.016,-35.645,0.000
1709299356.897,-27.832,-50.293,-31.250,-31.250,0.000
1709299356.901,-31.738,-45.898,-27.832,-42.480,0.000
1709299356.905,-39.062,-56.152,-32.715,-41.504,0.000
1709299356.909,-49.805,-56.152,-37.598,-38.574,0.000
1709299356.913,-47.852,-43.457,-38.086,-37.109,0.000
1709299356.916,-44.434,-45.898,-35.156,-34.180,0.000
1709299356.920,-53.223,-45.898,-33.203,-38.086,0.000
1709299356.924,-52.246,-47.852,-29.297,-37.598,0.000
1709299356.928,-52.246,-43.457,-29.297,-43.945,0.000
1709299356.932,-52.734,-36.621,-33.691,-41.016,0.000
1709299356.936,-43.457,-41.016,-30.273,-24.414,0.000
1709299356.940,-39.062,-41.992,-34.668,-36.621,0.000
1709299356.944,-40.527,-41.992,-38.574,-52.734,0.000
1709299356.948,-37.598,-42.480,-40.527,-44.922,0.000
1709299356.952,-33.691,-44.434,-39.062,-36.133,0.000
1709299356.955,-34.668,-44.922,-32.227,-30.762,0.000
1709299356.959,-30.273,-32.715,-33.691,-31.250,0.000
1709299356.963,-32.227,-36.133,-36.621,-31.738,0.000
1709299356.967,-40.039,-42.480,-32.715,-33.691,0.000
1709299356.971,-33.691,-38.574,-30.273,-32.715,0.000
1709299356.975,-32.227,-41.992,-31.738,-20.508,0.000
1709299356.979,-32.227,-51.758,-32.227,-32.715,0.000
1709299356.983,-40.039,-61.035,-35.156,-56.152,0.000
1709299356.986,-48.340,-44.922,-38.574,-58.594,0.000
1709299356.990,-43.945,-28.809,-40.527,-53.711,0.000
1709299356.994,-38.574,-34.668,-37.109,-47.852,0.000
1709299356.998,-40.039,-43.457,-36.621,-47.852,0.000
1709299357.002,-46.875,-43.945,-34.180,-59.082,0.000
1709299357.006,-41.992,-44.922,-27.344,-53.223,0.000
1709299357.010,-39.551,-48.828,-32.715,-39.551,0.000
1709299357.014,-36.133,-57.617,-32.227,-32.715,0.000
1709299357.018,-35.156,-62.012,-31.738,-36.133,0.000
1709299357.022,-44.922,-49.805,-30.762,-35.156,0.000
1709299357.026,-47.852,-47.852,-31.738,-29.297,0.000
1709299357.030,-50.781,-54.688,-37.109,-37.598,0.000
1709299357.033,-54.199,-45.898,-35.645,-38.574,0.000
1709299357.037,-44.922,-40.039,-32.715,-31.250,0.000
1709299357.041,-50.781,-49.805,-32.715,-37.598,0.000
1709299357.045,-50.781,-47.363,-40.039,-49.805,0.000
1709299357.049,-39.551,-43.457,-42.969,-42.969,0.000
1709299357.053,-41.016,-38.574,-34.668,-35.156,0.000
1709299357.057,-36.133,-36.621,-33.203,-37.109,0.000
1709299357.061,-37.109,-37.598,-36.621,-48.828,0.000
1709299357.065,-41.992,-41.992,-32.227,-54.199,0.000
1709299357.069,-38.574,-44.434,-31.738,-39.551,0.000
1709299357.073,-28.320,-38.086,-36.133,-30.273,0.000
1709299357.076,-21.973,-31.250,-41.992,-38.574,0.000
1709299357.080,-34.180,-34.668,-43.457,-48.340,0.000
1709299357.084,-37.598,-37.598,-38.574,-38.574,0.000
1709299357.088,-31.250,-38.086,-42.480,-35.156,0.000
1709299357.092,-34.668,-34.180,-43.457,-48.340,0.000
1709299357.096,-34.180,-32.227,-41.992,-47.852,0.000
1709299357.101,-32.227,-40.039,-40.527,-49.316,0.000
1709299357.105,-34.180,-44.434,-40.039,-52.246,0.000
1709299357.109,-35.156,-41.504,-42.480,-48.828,0.000
1709299357.113,-35.645,-41.016,-39.551,-43.457,0.000
1709299357.116,-30.273,-42.480,-36.621,-37.598,0.000
1709299357.120,-33.203,-44.922,-34.180,-39.551,0.000
1709299357.124,-40.527,-47.363,-34.180,-51.270,0.000
1709299357.128,-36.133,-46.875,-35.645,-43.945,0.000
1709299357.132,-34.668,-45.410,-34.180,-18.555,0.000
1709299357.136,-41.992,-42.480,-39.551,-21.484,0.000
1709299357.140,-30.273,-42.969,-41.016,-27.344,0.000
1709299357.144,-26.367,-52.246,-35.645,-28.809,0.000
1709299357.148,-36.133,-54.688,-36.133,-30.273,0.000
1709299357.152,-34.180,-40.527,-32.227,-31.250,0.000
1709299357.155,-23.926,-32.227,-26.855,-28.809,0.000
1709299357.159,-26.367,-35.645,-32.715,-29.785,0.000
1709299357.163,-32.227,-41.992,-33.203,-37.598,0.000
1709299357.167,-33.691,-44.434,-33.691,-45.410,0.000
1709299357.171,-35.156,-43.945,-35.645,-42.969,0.000
1709299357.175,-35.645,-41.992,-35.156,-41.504,0.000
1709299357.179,-28.809,-41.504,-37.598,-41.992,0.000
1709299357.183,-22.461,-41.504,-36.621,-46.875,0.000
1709299357.187,-33.203,-48.340,-37.598,-43.945,0.000
1709299357.191,-39.062,-55.664,-41.504,-36.621,0.000
1709299357.194,-32.715,-44.922,-45.410,-38.574,0.000
1709299357.198,-26.855,-47.852,-46.387,-36.621,0.000
1709299357.202,-24.902,-55.664,-42.969,-34.180,0.000
1709299357.206,-25.391,-45.410,-41.992,-31.250,0.000
1709299357.210,-26.855,-46.387,-44.434,-35.156,0.000
1709299357.214,-20.508,-52.734,-41.016,-34.668,0.000
1709299357.218,-26.855,-52.734,-38.086,-31.738,0.000
1709299357.222,-37.598,-55.176,-37.598,-34.668,0.000
1709299357.226,-32.715,-48.340,-35.156,-37.598,0.000
1709299357.230,-37.109,-42.480,-37.598,-57.129,0.000
1709299357.233,-37.598,-43.945,-38.574,-58.105,0.000
1709299357.237,-36.621,-46.387,-36.621,-49.316,0.000
1709299357.241,-42.969,-45.410,-31.738,-53.711,0.000
1709299357.245,-43.457,-45.898,-26.855,-60.059,0.000
1709299357.249,-43.457,-51.758,-30.273,-50.293,0.000
1709299357.253,-52.246,-45.410,-34.668,-46.875,0.000
1709299357.257,-46.875,-44.922,-32.715,-45.410,0.000
1709299357.261,-40.039,-62.012,-36.621,-54.199,0.000
1709299357.264,-52.734,-51.270,-41.016,-59.570,0.000
1709299357.268,-49.805,-39.062,-36.133,-46.875,0.000
1709299357.272,-42.480,-43.457,-35.645,-38.086,0.000
1709299357.276,-43.457,-41.504,-32.715,-21.973,0.000
1709299357.280,-41.504,-39.062,-29.297,-22.461,0.000
1709299357.284,-44.434,-52.734,-30.762,-39.062,0.000
1709299357.288,-45.898,-56.641,-34.180,-40.039,0.000
1709299357.292,-41.016,-50.781,-32.715,-23.926,0.000
1709299357.296,-37.598,-52.734,-32.715,-19.531,0.000
1709299357.299,-47.363,-52.246,-41.016,-34.180,0.000
1709299357.303,-54.688,-48.340,-44.434,-50.781,0.000
1709299357.307,-47.852,-46.875,-43.945,-53.223,0.000
1709299357.311,-46.875,-43.457,-38.574,-28.809,0.000
1709299357.315,-46.875,-44.434,-34.668,-22.949,0.000
1709299357.319,-38.574,-46.875,-36.133,-41.992,0.000
1709299357.323,-34.668,-48.828,-36.133,-43.457,0.000
1709299357.327,-40.527,-51.270,-38.574,-32.715,0.000
1709299357.331,-42.969,-51.270,-41.992,-22.461,0.000
1709299357.335,-43.945,-50.293,-42.969,-17.578,0.000
1709299357.339,-48.340,-39.551,-36.621,-37.109,0.000
1709299357.343,-48.340,-40.039,-30.273,-47.852,0.000
1709299357.346,-43.945,-62.988,-34.668,-48.340,0.000
1709299357.350,-40.039,-62.988,-30.762,-47.852,0.000
1709299357.354,-45.410,-37.598,-37.109,-37.109,0.000
1709299357.358,-45.898,-32.227,-43.945,-31.738,0.000
1709299357.362,-41.016,-36.133,-39.062,-45.898,0.000
1709299357.366,-41.992,-35.156,-41.504,-50.781,0.000
1709299357.370,-42.480,-32.227,-37.109,-36.621,0.000
1709299357.374,-41.504,-31.250,-36.621,-15.625,0.000
1709299357.378,-37.598,-43.945,-40.039,-21.973,0.000
1709299357.382,-33.691,-50.293,-33.203,-33.203,0.000
1709299357.386,-26.367,-49.805,-33.203,-20.508,0.000
1709299357.390,-26.367,-47.852,-36.621,-18.066,0.000
1709299357.393,-29.785,-51.758,-37.598,-20.020,0.000
1709299357.397,-27.832,-57.617,-45.410,-20.996,0.000
1709299357.401,-29.297,-55.664,-42.969,-25.879,0.000
1709299357.405,-22.949,-56.152,-28.809,-22.949,0.000
1709299357.409,-21.484,-62.500,-33.691,-23.438,0.000
1709299357.413,-29.785,-53.223,-40.527,-23.438,0.000
1709299357.417,-27.344,-38.086,-36.133,-18.555,0.000
1709299357.421,-26.855,-31.738,-36.621,-24.414,0.000
1709299357.425,-29.297,-40.039,-36.621,-37.109,0.000
1709299357.429,-33.203,-43.457,-35.645,-42.969,0.000
1709299357.433,-43.945,-47.363,-39.551,-41.992,0.000
1709299357.436,-37.598,-65.430,-33.691,-27.832,0.000
1709299357.440,-40.039,-62.012,-31.250,-35.645,0.000
1709299357.444,-55.664,-62.988,-37.109,-67.871,0.000
1709299357.448,-57.129,-50.781,-37.109,-66.895,0.000
1709299357.452,-47.363,-33.203,-32.715,-46.387,0.000
1709299357.456,-45.898,-41.504,-33.691,-42.480,0.000
1709299357.460,-44.434,-46.387,-33.203,-39.062,0.000
1709299357.464,-34.180,-29.785,-29.785,-30.762,0.000
1709299357.468,-36.621,-27.832,-23.926,-36.133,0.000
1709299357.472,-42.969,-44.922,-23.438,-42.969,0.000
1709299357.475,-35.645,-51.270,-28.809,-38.086,0.000
1709299357.479,-41.504,-54.688,-27.832,-40.039,0.000
1709299357.483,-48.340,-55.664,-28.809,-45.898,0.000
1709299357.487,-45.410,-43.457,-34.668,-45.410,0.000
1709299357.491,-43.457,-45.410,-35.156,-37.598,0.000
1709299357.495,-44.434,-48.340,-37.598,-36.133,0.000
1709299357.499,-43.945,-42.969,-35.156,-41.016,0.000
1709299357.503,-42.969,-47.363,-32.227,-47.363,0.000
1709299357.507,-47.852,-46.387,-40.039,-40.527,0.000
1709299357.511,-51.270,-41.504,-42.969,-32.227,0.000
1709299357.515,-46.875,-44.922,-38.086,-31.250,0.000
1709299357.518,-38.086,-43.945,-32.715,-27.344,0.000
1709299357.522,-34.668,-40.039,-34.180,-29.785,0.000
1709299357.526,-36.133,-41.504,-33.203,-33.691,0.000
1709299357.530,-37.598,-49.805,-35.156,-30.273,0.000
1709299357.534,-36.621,-56.641,-39.551,-25.391,0.000
1709299357.538,-34.180,-59.082,-39.551,-30.273,0.000
1709299357.542,-39.551,-54.199,-38.086,-42.480,0.000
1709299357.546,-36.621,-40.527,-34.668,-47.852,0.000
1709299357.550,-26.855,-36.133,-32.715,-32.227,0.000
1709299357.554,-29.785,-34.668,-30.762,-17.578,0.000
1709299357.557,-32.227,-32.715,-32.715,-31.250,0.000
1709299357.561,-36.133,-37.109,-38.086,-44.434,0.000
1709299357.565,-44.922,-48.340,-40.039,-56.152,0.000
1709299357.569,-47.852,-53.711,-35.156,-54.688,0.000
1709299357.573,-52.246,-47.363,-34.668,-52.246,0.000
1709299357.577,-51.270,-44.922,-32.715,-52.734,0.000
1709299357.581,-46.387,-40.039,-28.320,-53.223,0.000
1709299357.585,-45.898,-46.387,-27.832,-57.617,0.000
1709299357.589,-51.758,-53.223,-28.809,-56.152,0.000
1709299357.592,-55.664,-37.109,-31.738,-48.340,0.000
1709299357.596,-50.293,-38.574,-29.297,-31.250,0.000
1709299357.600,-49.316,-49.316,-30.762,-34.668,0.000
1709299357.604,-54.199,-54.688,-37.109,-47.363,0.000
1709299357.608,-45.898,-59.570,-40.039,-43.457,0.000
1709299357.612,-36.621,-55.664,-34.668,-39.551,0.000
1709299357.616,-39.062,-48.828,-34.668,-36.621,0.000
1709299357.620,-34.180,-41.016,-34.180,-28.320,0.000
1709299357.624,-21.484,-57.129,-26.367,-27.832,0.000
1709299357.628,-25.391,-65.918,-33.691,-39.062,0.000
1709299357.632,-43.457,-39.062,-43.945,-38.086,0.000
1709299357.635,-41.016,-34.180,-40.527,-26.367,0.000
1709299357.639,-30.273,-43.457,-39.551,-23.926,0.000
1709299357.643,-34.668,-27.832,-44.434,-20.996,0.000
1709299357.647,-37.109,-28.320,-40.039,-28.809,0.000
1709299357.651,-36.133,-53.711,-30.762,-36.133,0.000
1709299357.655,-38.574,-55.664,-32.715,-25.879,0.000
1709299357.659,-41.016,-37.598,-34.668,-25.879,0.000
1709299357.663,-42.969,-42.480,-34.180,-39.551,0.000
1709299357.667,-50.781,-52.734,-31.250,-36.621,0.000
1709299357.671,-56.152,-45.410,-23.926,-33.691,0.000
1709299357.675,-60.059,-41.504,-37.109,-41.016,0.000
1709299357.679,-67.383,-35.645,-44.922,-41.992,0.000
1709299357.683,-68.848,-42.969,-41.016,-55.176,0.000
1709299357.686,-62.988,-63.477,-37.109,-53.223,0.000
1709299357.690,-64.941,-54.688,-35.645,-49.316,0.000
1709299357.694,-71.289,-34.668,-39.551,-57.129,0.000
1709299357.698,-64.453,-41.992,-41.016,-59.570,0.000
1709299357.702,-52.734,-49.805,-37.598,-65.918,0.000
1709299357.706,-55.664,-51.270,-36.133,-65.430,0.000
1709299357.710,-61.035,-47.852,-38.574,-59.570,0.000
1709299357.714,-41.016,-44.922,-29.297,-43.457,0.000
1709299357.717,-27.344,-50.293,-25.391,-27.832,0.000
1709299357.721,-30.273,-52.734,-35.156,-37.109,0.000
1709299357.725,-26.855,-41.992,-34.180,-54.199,0.000
1709299357.729,-21.484,-30.273,-29.785,-43.945,0.000
1709299357.733,-29.785,-40.039,-34.180,-33.691,0.000
1709299357.737,-40.039,-45.410,-38.086,-41.992,0.000
1709299357.741,-32.227,-40.039,-34.180,-52.246,0.000
1709299357.745,-29.297,-44.434,-34.180,-47.363,0.000
1709299357.749,-27.832,-37.109,-33.691,-24.902,0.000
1709299357.753,-28.320,-34.180,-33.691,-20.996,0.000
1709299357.757,-32.227,-45.410,-36.621,-17.090,0.000
1709299357.761,-34.668,-53.223,-33.691,-23.438,0.000
1709299357.764,-35.645,-50.781,-36.621,-37.598,0.000
1709299357.768,-33.691,-43.945,-37.109,-31.738,0.000
1709299357.772,-35.645,-42.480,-31.738,-22.949,0.000
1709299357.776,-29.297,-40.039,-28.320,-12.695,0.000
1709299357.780,-29.785,-39.062,-31.738,-18.555,0.000
1709299357.784,-41.016,-44.922,-28.809,-30.273,0.000
1709299357.788,-50.293,-48.340,-28.809,-36.133,0.000
1709299357.792,-47.363,-37.598,-30.762,-25.879,0.000
1709299357.796,-42.480,-37.598,-31.738,-27.344,0.000
1709299357.800,-47.852,-41.016,-33.203,-42.969,0.000
1709299357.804,-53.711,-45.898,-31.738,-47.363,0.000
1709299357.807,-58.594,-46.387,-37.598,-51.758,0.000
1709299357.811,-53.223,-43.457,-36.133,-46.387,0.000
1709299357.815,-47.363,-51.758,-35.645,-41.992,0.000
1709299357.819,-50.781,-55.664,-35.156,-47.852,0.000
1709299357.823,-51.758,-45.410,-32.227,-59.082,0.000
1709299357.827,-50.781,-41.504,-36.133,-53.711,0.000
1709299357.831,-42.480,-48.828,-33.203,-26.855,0.000
1709299357.835,-33.203,-43.945,-28.320,-21.973,0.000
1709299357.839,-29.297,-31.250,-30.273,-39.062,0.000
1709299357.843,-30.273,-34.180,-37.109,-49.316,0.000
1709299357.846,-35.156,-51.270,-41.504,-44.434,0.000
1709299357.850,-34.668,-52.246,-38.086,-29.785,0.000
1709299357.854,-36.621,-46.387,-41.504,-33.203,0.000
1709299357.858,-31.738,-53.223,-41.992,-37.109,0.000
1709299357.862,-43.945,-47.852,-38.086,-42.969,0.000
1709299357.866,-53.711,-46.387,-41.016,-49.316,0.000
1709299357.870,-45.898,-46.387,-38.086,-36.621,0.000
1709299357.874,-37.109,-45.898,-34.180,-25.391,0.000
1709299357.878,-34.668,-52.734,-38.574,-23.926,0.000
1709299357.882,-35.156,-53.711,-39.062,-26.367,0.000
1709299357.886,-34.180,-41.504,-39.062,-29.297,0.000
1709299357.889,-31.250,-31.250,-41.992,-25.391,0.000
1709299357.893,-28.809,-38.574,-40.039,-32.227,0.000
1709299357.897,-23.926,-50.293,-33.203,-26.855,0.000
1709299357.901,-27.832,-52.734,-33.691,-21.973,0.000
1709299357.905,-43.945,-47.852,-35.645,-48.340,0.000
1709299357.909,-47.363,-35.156,-38.086,-58.105,0.000
1709299357.913,-47.852,-42.969,-38.086,-50.293,0.000
1709299357.917,-52.734,-53.223,-33.691,-45.410,0.000
1709299357.921,-56.152,-47.852,-31.250,-52.734,0.000
1709299357.925,-52.734,-50.781,-34.180,-54.199,0.000
1709299357.928,-52.246,-52.246,-38.086,-47.852,0.000
1709299357.932,-52.734,-41.504,-43.945,-53.711,0.000
1709299357.936,-38.574,-41.016,-39.551,-45.410,0.000
1709299357.940,-33.691,-42.969,-40.039,-47.852,0.000
1709299357.944,-36.133,-39.062,-43.457,-56.641,0.000
1709299357.948,-35.156,-36.133,-35.645,-51.758,0.000
1709299357.952,-33.691,-47.852,-32.715,-57.129,0.000
1709299357.956,-27.832,-40.039,-34.668,-60.059,0.000
1709299357.960,-32.715,-29.785,-38.574,-57.617,0.000
1709299357.964,-39.062,-43.457,-38.574,-61.523,0.000
1709299357.968,-37.598,-46.875,-41.992,-63.477,0.000
1709299357.972,-31.738,-37.598,-41.504,-47.363,0.000
1709299357.976,-30.762,-33.691,-36.133,-39.062,0.000
1709299357.980,-26.855,-47.852,-29.297,-48.340,0.000
1709299357.983,-25.391,-47.363,-27.832,-43.945,0.000
1709299357.987,-24.414,-43.457,-29.297,-24.902,0.000
1709299357.992,-24.902,-62.988,-24.902,-32.227,0.000
1709299357.995,-29.297,-57.617,-31.738,-47.852,0.000
1709299357.999,-34.180,-37.109,-42.480,-51.758,0.000
1709299358.003,-32.715,-32.227,-33.691,-46.875,0.000
1709299358.007,-31.250,-35.645,-27.832,-39.551,0.000
1709299358.011,-29.785,-49.316,-33.691,-33.691,0.000
1709299358.015,-31.250,-45.898,-34.668,-20.020,0.000
1709299358.019,-34.180,-33.203,-32.227,-19.043,0.000
1709299358.023,-39.062,-35.156,-32.227,-40.527,0.000
1709299358.027,-45.898,-38.574,-36.621,-52.246,0.000
1709299358.031,-46.387,-40.039,-32.715,-39.062,0.000
1709299358.035,-47.852,-48.340,-28.320,-32.715,0.000
1709299358.038,-49.805,-49.316,-32.227,-42.480,0.000
1709299358.042,-46.875,-48.340,-37.109,-45.898,0.000
1709299358.046,-46.875,-55.664,-43.457,-42.480,0.000
1709299358.050,-53.711,-56.641,-42.480,-33.203,0.000
1709299358.054,-49.805,-51.270,-39.062,-25.879,0.000
1709299358.058,-42.969,-44.922,-40.039,-27.832,0.000
1709299358.062,-52.734,-41.992,-38.086,-30.273,0.000
1709299358.066,-55.176,-56.641,-39.551,-30.762,0.000
1709299358.069,-52.246,-60.059,-46.387,-45.898,0.000
1709299358.073,-59.570,-39.551,-45.898,-63.477,0.000
1709299358.077,-55.176,-40.039,-36.621,-46.387,0.000
1709299358.081,-46.387,-47.852,-36.621,-42.969,0.000
1709299358.085,-41.016,-49.805,-42.480,-46.387,0.000
1709299358.089,-39.551,-59.570,-39.551,-36.133,0.000
1709299358.093,-39.551,-49.316,-34.180,-33.691,0.000
1709299358.096,-30.762,-33.691,-29.785,-38.086,0.000
1709299358.100,-34.668,-38.086,-31.738,-48.340,0.000
1709299358.104,-39.062,-35.156,-37.598,-54.199,0.000
1709299358.108,-21.484,-38.086,-33.203,-37.598,0.000
1709299358.112,-28.809,-31.250,-28.809,-25.879,0.000
1709299358.116,-32.715,-34.180,-35.156,-28.320,0.000
1709299358.120,-23.926,-45.410,-34.668,-25.879,0.000
1709299358.124,-25.391,-36.133,-28.320,-27.832,0.000
1709299358.128,-29.785,-35.156,-32.715,-34.668,0.000
1709299358.132,-34.668,-49.805,-31.738,-25.391,0.000
1709299358.136,-29.297,-53.223,-26.855,-19.043,0.000
1709299358.140,-34.668,-35.645,-29.297,-31.738,0.000
1709299358.143,-41.504,-28.320,-33.691,-42.969,0.000
1709299358.147,-33.203,-34.180,-35.156,-28.809,0.000
1709299358.151,-25.391,-41.016,-29.785,-2.930,0.000
1709299358.155,-30.273,-43.945,-28.320,-13.184,0.000
1709299358.159,-31.250,-37.598,-30.273,-26.367,0.000
1709299358.163,-27.344,-50.781,-30.762,-22.949,0.000
1709299358.167,-28.809,-46.875,-29.785,-18.555,0.000
1709299358.171,-35.156,-32.227,-36.133,-27.344,0.000
1709299358.175,-33.203,-37.598,-35.645,-20.020,0.000
1709299358.179,-30.762,-52.246,-28.809,-12.695,0.000
1709299358.183,-36.621,-45.898,-27.832,-29.297,0.000
1709299358.186,-37.598,-30.273,-28.320,-31.250,0.000
1709299358.190,-37.109,-41.992,-30.273,-30.273,0.000
1709299358.194,-41.016,-39.062,-32.715,-36.621,0.000
1709299358.198,-45.898,-30.273,-37.598,-46.875,0.000
1709299358.202,-45.410,-40.527,-41.504,-51.270,0.000
1709299358.206,-42.480,-46.387,-37.598,-51.270,0.000
1709299358.210,-45.410,-44.922,-41.504,-43.945,0.000
1709299358.214,-41.992,-51.758,-44.434,-36.621,0.000
1709299358.218,-35.156,-52.734,-40.039,-39.062,0.000
1709299358.222,-31.738,-45.898,-33.203,-44.922,0.000
