timestamps,TP9,AF7,AF8,TP10,Right AUX
1709374297.257,-47.852,-41.016,-35.156,-45.410,0.000
1709374297.261,-4.883,-40.039,-35.156,-7.324,0.000
1709374297.265,-14.648,-39.062,-38.086,-15.625,0.000
1709374297.269,-58.105,-35.645,-35.645,-56.152,0.000
1709374297.273,-63.477,-39.062,-36.621,-67.871,0.000
1709374297.276,-39.062,-39.551,-33.203,-52.246,0.000
1709374297.280,4.883,-30.273,-31.250,-7.812,0.000
1709374297.284,-6.348,-31.250,-30.762,-5.371,0.000
1709374297.288,-62.988,-38.574,-29.785,-46.387,0.000
1709374297.292,-75.684,-36.133,-29.785,-50.293,0.000
1709374297.296,-55.664,-36.133,-30.273,-48.340,0.000
1709374297.300,-15.625,-41.016,-36.133,-16.602,0.000
1709374297.304,-6.836,-39.062,-36.133,0.000,0.000
1709374297.308,-57.129,-36.133,-33.691,-41.016,0.000
1709374297.312,-81.543,-36.133,-35.645,-65.430,0.000
1709374297.316,-67.383,-39.062,-38.086,-60.547,0.000
1709374297.319,-17.578,-38.086,-34.668,-17.090,0.000
1709374297.323,4.395,-36.621,-27.832,-1.465,0.000
1709374297.327,-50.781,-41.992,-28.809,-45.410,0.000
1709374297.331,-82.520,-42.480,-29.785,-66.406,0.000
1709374297.335,-68.359,-42.480,-21.973,-45.898,0.000
1709374297.339,-25.391,-44.922,-22.461,-5.859,0.000
1709374297.343,-0.488,-43.457,-28.320,8.789,0.000
1709374297.347,-42.969,-41.016,-28.320,-27.344,0.000
1709374297.351,-74.707,-34.668,-23.926,-52.734,0.000
1709374297.355,-67.871,-34.180,-22.949,-48.828,0.000
1709374297.358,-28.320,-43.457,-25.879,-26.855,0.000
1709374297.362,1.953,-46.387,-26.855,0.488,0.000
1709374297.366,-34.180,-43.457,-26.367,-22.949,0.000
1709374297.370,-70.801,-40.527,-26.367,-57.129,0.000
1709374297.374,-65.430,-39.551,-28.320,-59.082,0.000
1709374297.378,-28.320,-45.410,-33.203,-31.738,0.000
1709374297.382,8.789,-41.016,-30.762,13.672,0.000
1709374297.386,-20.996,-34.180,-29.785,-12.207,0.000
1709374297.390,-62.500,-36.133,-33.203,-54.199,0.000
1709374297.394,-60.059,-36.621,-30.762,-50.293,0.000
1709374297.397,-28.320,-33.691,-30.762,-24.902,0.000
1709374297.401,13.184,-33.691,-37.109,5.371,0.000
1709374297.405,-11.719,-37.598,-36.133,-15.625,0.000
1709374297.409,-55.664,-38.574,-38.086,-51.758,0.000
1709374297.413,-58.105,-37.109,-42.480,-61.035,0.000
1709374297.417,-33.203,-34.180,-38.086,-41.016,0.000
1709374297.421,16.602,-28.320,-36.133,-1.465,0.000
1709374297.425,0.977,-26.855,-37.109,-5.859,0.000
1709374297.429,-51.758,-28.809,-38.574,-46.875,0.000
1709374297.433,-59.570,-31.738,-41.992,-60.059,0.000
1709374297.437,-38.574,-33.691,-38.574,-41.992,0.000
1709374297.440,2.441,-30.273,-42.480,-1.953,0.000
1709374297.444,-5.859,-29.297,-47.852,-10.254,0.000
1709374297.448,-48.828,-31.250,-41.504,-52.246,0.000
1709374297.452,-61.035,-27.344,-39.551,-62.500,0.000
1709374297.456,-50.293,-27.832,-41.016,-56.152,0.000
1709374297.460,-4.395,-27.344,-37.598,-17.578,0.000
1709374297.464,-1.953,-27.832,-39.062,-13.672,0.000
1709374297.468,-51.270,-28.809,-37.109,-50.293,0.000
1709374297.471,-67.871,-26.367,-34.180,-47.852,0.000
1709374297.475,-61.035,-29.785,-34.180,-48.340,0.000
1709374297.479,-11.719,-32.227,-30.762,-14.648,0.000
1709374297.483,4.395,-32.227,-29.785,4.395,0.000
1709374297.487,-47.852,-32.715,-33.691,-46.875,0.000
1709374297.491,-71.289,-29.785,-36.621,-67.871,0.000
1709374297.495,-57.129,-36.621,-39.062,-62.012,0.000
1709374297.499,-15.137,-40.039,-37.109,-29.785,0.000
1709374297.502,5.371,-31.738,-36.133,-3.418,0.000
1709374297.506,-47.363,-35.645,-38.574,-38.086,0.000
1709374297.510,-85.449,-37.598,-39.062,-63.965,0.000
1709374297.514,-75.195,-38.574,-41.016,-54.688,0.000
1709374297.518,-31.250,-42.480,-41.992,-21.973,0.000
1709374297.522,-6.836,-41.504,-42.480,-0.488,0.000
1709374297.526,-37.109,-35.645,-35.645,-34.180,0.000
1709374297.530,-65.918,-36.621,-32.227,-58.594,0.000
1709374297.534,-66.895,-38.086,-35.156,-57.617,0.000
1709374297.537,-24.902,-36.133,-36.133,-32.715,0.000
1709374297.541,10.742,-37.109,-31.738,5.859,0.000
1709374297.545,-30.762,-36.621,-27.344,-18.066,0.000
1709374297.549,-77.637,-33.691,-32.227,-59.082,0.000
1709374297.553,-76.172,-35.645,-36.621,-69.336,0.000
1709374297.557,-43.945,-46.387,-38.574,-45.410,0.000
1709374297.561,-6.348,-44.434,-35.156,-3.906,0.000
1709374297.565,-27.832,-35.645,-34.668,-36.133,0.000
1709374297.569,-62.012,-36.621,-35.156,-72.266,0.000
1709374297.572,-60.059,-33.691,-31.250,-65.918,0.000
1709374297.576,-34.668,-35.645,-39.551,-45.410,0.000
1709374297.580,10.742,-37.598,-40.527,-10.742,0.000
1709374297.584,-6.836,-35.156,-33.203,-24.902,0.000
1709374297.588,-55.664,-35.156,-34.668,-60.547,0.000
1709374297.592,-62.988,-38.086,-38.574,-66.406,0.000
1709374297.596,-41.504,-38.086,-41.992,-52.734,0.000
1709374297.600,6.836,-38.086,-37.109,-10.742,0.000
1709374297.604,4.395,-38.086,-32.227,-6.836,0.000
1709374297.608,-41.504,-36.621,-34.180,-44.434,0.000
1709374297.612,-59.570,-37.109,-34.668,-62.012,0.000
1709374297.616,-54.688,-42.480,-33.691,-51.270,0.000
1709374297.620,-10.254,-45.898,-38.086,0.000,0.000
1709374297.624,-12.695,-37.598,-41.992,0.000,0.000
1709374297.627,-73.242,-40.527,-43.945,-58.105,0.000
1709374297.632,-87.402,-42.969,-41.504,-73.730,0.000
1709374297.636,-68.359,-38.574,-38.086,-60.547,0.000
1709374297.640,-25.879,-41.504,-36.621,-27.344,0.000
1709374297.644,-15.625,-40.039,-35.156,-25.391,0.000
1709374297.647,-65.918,-35.645,-32.227,-67.871,0.000
1709374297.651,-83.008,-36.133,-29.785,-77.148,0.000
1709374297.655,-68.359,-34.180,-32.715,-66.895,0.000
1709374297.659,-16.602,-31.738,-37.109,-31.250,0.000
1709374297.663,8.301,-30.762,-41.016,-12.207,0.000
1709374297.667,-45.410,-30.273,-41.016,-38.574,0.000
1709374297.671,-68.359,-33.691,-38.086,-62.012,0.000
1709374297.675,-53.223,-37.109,-39.551,-62.988,0.000
1709374297.679,-15.137,-33.691,-41.992,-28.320,0.000
1709374297.683,10.254,-29.297,-41.016,-1.953,0.000
1709374297.687,-40.039,-32.227,-44.434,-39.062,0.000
1709374297.691,-74.707,-33.691,-39.062,-62.988,0.000
1709374297.694,-58.594,-32.715,-38.086,-55.664,0.000
1709374297.698,-21.973,-35.645,-44.434,-33.691,0.000
1709374297.702,13.184,-39.551,-40.527,-7.812,0.000
1709374297.706,-21.973,-42.969,-41.016,-35.645,0.000
1709374297.710,-54.199,-37.598,-35.156,-54.199,0.000
1709374297.714,-47.852,-32.715,-32.227,-48.828,0.000
1709374297.718,-23.438,-38.574,-38.086,-26.855,0.000
1709374297.722,4.395,-41.992,-37.598,6.348,0.000
1709374297.726,-23.926,-36.133,-32.227,-18.555,0.000
1709374297.730,-70.312,-32.715,-32.715,-51.758,0.000
1709374297.734,-81.055,-33.203,-36.621,-53.223,0.000
1709374297.738,-47.363,-38.574,-41.016,-33.691,0.000
1709374297.742,-7.324,-42.480,-35.156,4.883,0.000
1709374297.746,-28.320,-36.621,-29.785,-10.254,0.000
1709374297.750,-63.477,-37.109,-28.809,-53.711,0.000
1709374297.754,-72.266,-39.062,-27.832,-64.941,0.000
1709374297.757,-44.922,-34.668,-30.762,-38.574,0.000
1709374297.761,1.953,-34.180,-35.156,-5.371,0.000
1709374297.765,-11.230,-33.203,-32.227,-13.184,0.000
1709374297.769,-52.734,-34.668,-30.273,-44.922,0.000
1709374297.773,-56.641,-30.273,-29.297,-58.105,0.000
1709374297.777,-34.668,-31.738,-30.762,-44.434,0.000
1709374297.781,9.766,-32.715,-30.273,-2.441,0.000
1709374297.785,1.465,-35.156,-28.320,0.977,0.000
1709374297.789,-40.039,-37.598,-25.879,-36.133,0.000
1709374297.792,-52.734,-35.156,-29.297,-50.293,0.000
1709374297.796,-42.480,-37.109,-30.762,-35.645,0.000
1709374297.800,10.254,-33.691,-26.367,13.672,0.000
1709374297.804,14.648,-33.691,-31.250,15.625,0.000
1709374297.808,-38.574,-37.598,-35.645,-33.691,0.000
1709374297.812,-56.152,-36.133,-31.738,-43.945,0.000
1709374297.816,-44.434,-38.086,-32.227,-35.156,0.000
1709374297.820,-1.465,-41.016,-37.109,-5.371,0.000
1709374297.824,2.441,-38.086,-35.645,-2.441,0.000
1709374297.827,-45.410,-36.621,-33.203,-36.621,0.000
1709374297.831,-63.965,-43.457,-37.109,-55.664,0.000
1709374297.835,-55.176,-42.480,-39.062,-59.082,0.000
1709374297.839,-21.973,-38.086,-41.504,-30.273,0.000
1709374297.843,1.465,-41.504,-42.969,-9.277,0.000
1709374297.847,-39.062,-40.039,-34.180,-29.297,0.000
1709374297.851,-69.336,-40.527,-34.668,-59.570,0.000
1709374297.855,-56.641,-41.992,-41.992,-62.500,0.000
1709374297.859,-9.277,-42.480,-42.480,-25.879,0.000
1709374297.863,20.996,-39.062,-37.598,2.930,0.000
1709374297.866,-24.414,-32.715,-40.039,-30.762,0.000
1709374297.870,-57.617,-34.668,-40.527,-62.988,0.000
1709374297.874,-42.969,-37.109,-38.086,-66.895,0.000
1709374297.878,-13.184,-39.551,-43.945,-41.992,0.000
1709374297.882,7.812,-43.457,-47.363,-14.648,0.000
1709374297.886,-24.414,-41.016,-38.574,-35.156,0.000
1709374297.890,-57.617,-36.133,-33.691,-50.781,0.000
1709374297.893,-62.500,-36.621,-35.156,-55.664,0.000
1709374297.897,-27.832,-40.039,-35.645,-35.156,0.000
1709374297.901,22.461,-34.668,-40.039,1.465,0.000
1709374297.905,-11.719,-32.715,-43.945,-29.785,0.000
1709374297.909,-58.594,-40.527,-42.480,-68.848,0.000
1709374297.913,-62.988,-44.922,-39.062,-65.918,0.000
1709374297.917,-35.156,-43.457,-36.621,-43.945,0.000
1709374297.920,13.672,-40.527,-41.992,-11.230,0.000
1709374297.924,-4.395,-41.016,-41.504,-23.438,0.000
1709374297.928,-42.480,-42.480,-36.621,-48.828,0.000
1709374297.932,-45.898,-32.227,-35.645,-44.922,0.000
1709374297.936,-43.457,-20.020,-34.668,-41.016,0.000
1709374297.940,-6.836,-16.113,-42.969,-27.344,0.000
1709374297.944,-3.418,-3.906,-46.875,-25.879,0.000
1709374297.948,-46.875,9.766,-43.457,-58.105,0.000
1709374297.952,-62.500,20.508,-46.387,-73.242,0.000
1709374297.956,-41.016,27.832,-52.246,-63.965,0.000
1709374297.960,6.348,32.715,-60.059,-25.391,0.000
1709374297.964,5.371,49.805,-60.547,-17.090,0.000
1709374297.968,-40.039,62.988,-59.082,-58.594,0.000
1709374297.972,-57.129,66.895,-62.500,-74.707,0.000
1709374297.975,-34.180,77.148,-67.383,-62.500,0.000
1709374297.979,20.508,87.891,-66.406,-18.555,0.000
1709374297.983,27.832,95.703,-70.801,-10.742,0.000
1709374297.987,-20.020,96.680,-74.219,-55.664,0.000
1709374297.991,-38.574,100.586,-73.730,-71.289,0.000
1709374297.995,-23.438,105.469,-76.660,-52.246,0.000
1709374297.999,37.109,109.863,-81.055,6.348,0.000
1709374298.003,69.824,119.629,-84.473,26.855,0.000
1709374298.007,24.414,129.395,-87.402,-12.207,0.000
1709374298.011,3.418,128.418,-87.891,-28.320,0.000
1709374298.015,26.367,126.953,-88.379,-11.230,0.000
1709374298.019,80.078,126.953,-89.844,36.133,0.000
1709374298.023,102.051,123.535,-86.426,57.129,0.000
1709374298.026,65.430,121.582,-85.449,25.879,0.000
1709374298.030,41.992,115.234,-92.285,7.812,0.000
1709374298.034,38.086,113.281,-91.309,12.207,0.000
1709374298.038,69.824,115.234,-90.332,38.086,0.000
1709374298.042,104.980,116.699,-90.332,75.684,0.000
1709374298.046,76.660,111.328,-87.891,43.457,0.000
1709374298.050,41.992,104.492,-85.938,0.977,0.000
1709374298.054,45.410,103.027,-79.102,9.277,0.000
1709374298.058,78.125,98.145,-81.543,34.180,0.000
1709374298.062,111.816,91.797,-81.543,62.988,0.000
1709374298.066,84.961,86.914,-72.754,38.574,0.000
1709374298.069,36.133,79.102,-74.707,-2.441,0.000
1709374298.073,16.602,71.289,-73.242,-8.789,0.000
1709374298.077,33.203,66.406,-71.289,13.184,0.000
1709374298.081,77.637,59.570,-68.848,49.316,0.000
1709374298.085,52.734,47.852,-63.477,38.086,0.000
1709374298.089,-3.418,45.898,-63.477,-3.418,0.000
1709374298.093,-10.742,44.922,-61.523,-19.043,0.000
1709374298.097,13.184,39.551,-58.105,2.930,0.000
1709374298.101,59.570,39.551,-57.617,43.457,0.000
1709374298.105,51.758,39.062,-54.199,32.227,0.000
1709374298.108,1.953,29.297,-52.734,-3.906,0.000
1709374298.112,-23.926,18.066,-54.688,-12.695,0.000
1709374298.116,-7.324,15.625,-54.688,-1.465,0.000
1709374298.120,39.062,13.184,-55.176,30.762,0.000
1709374298.124,34.180,14.160,-51.270,30.762,0.000
1709374298.128,-19.531,14.160,-49.316,-8.789,0.000
1709374298.132,-37.109,9.766,-49.316,-25.391,0.000
1709374298.136,-10.742,11.719,-50.781,-18.555,0.000
1709374298.140,33.691,12.695,-50.781,19.043,0.000
1709374298.144,29.785,13.672,-45.410,28.809,0.000
1709374298.147,-22.949,3.906,-49.316,-15.625,0.000
1709374298.151,-35.645,-5.371,-53.223,-33.691,0.000
1709374298.155,-14.160,-1.465,-47.363,-25.879,0.000
1709374298.159,22.461,-4.395,-47.852,6.348,0.000
1709374298.163,42.480,-9.277,-46.875,18.555,0.000
1709374298.167,-6.348,-13.184,-48.340,-18.066,0.000
1709374298.171,-43.457,-8.301,-49.805,-43.457,0.000
1709374298.175,-39.062,-2.930,-45.410,-31.738,0.000
1709374298.179,-6.348,-7.812,-47.852,3.906,0.000
1709374298.183,21.973,-10.254,-51.758,4.883,0.000
1709374298.186,-16.602,-10.742,-48.828,-38.086,0.000
1709374298.190,-54.688,-16.113,-48.828,-47.852,0.000
1709374298.194,-57.617,-20.996,-52.246,-48.828,0.000
1709374298.198,-16.113,-21.484,-48.340,-19.043,0.000
1709374298.202,27.832,-15.625,-44.922,21.973,0.000
1709374298.206,-21.484,-20.996,-49.316,-23.438,0.000
1709374298.210,-57.129,-20.508,-48.828,-60.059,0.000
1709374298.214,-50.293,-9.277,-52.246,-54.199,0.000
1709374298.218,-15.137,-5.859,-52.734,-25.391,0.000
1709374298.221,36.621,-1.953,-47.363,20.508,0.000
1709374298.225,8.789,2.930,-45.410,-5.859,0.000
1709374298.229,-37.598,1.465,-44.922,-39.551,0.000
1709374298.233,-38.574,-1.953,-45.410,-35.156,0.000
1709374298.237,-4.883,-6.836,-47.363,-16.113,0.000
1709374298.241,32.227,-10.742,-51.270,13.184,0.000
1709374298.245,-2.441,-18.066,-50.781,-12.207,0.000
1709374298.249,-49.805,-18.066,-50.781,-50.781,0.000
1709374298.252,-52.734,-13.184,-53.223,-56.152,0.000
1709374298.256,-23.438,-17.578,-54.688,-35.156,0.000
1709374298.260,20.996,-22.949,-57.129,-1.953,0.000
1709374298.264,-5.371,-27.344,-53.223,-7.812,0.000
1709374298.268,-61.523,-29.297,-54.688,-43.457,0.000
1709374298.272,-61.523,-28.809,-53.223,-55.664,0.000
1709374298.276,-41.992,-27.344,-44.434,-41.992,0.000
1709374298.280,-10.742,-26.367,-44.922,-7.324,0.000
1709374298.284,-17.578,-31.738,-49.805,-12.695,0.000
1709374298.287,-58.594,-30.762,-44.434,-53.223,0.000
1709374298.291,-67.383,-24.902,-40.039,-61.035,0.000
1709374298.295,-53.223,-24.902,-43.945,-48.828,0.000
1709374298.299,-2.441,-26.367,-45.898,-17.090,0.000
1709374298.303,7.812,-30.273,-46.875,-16.602,0.000
1709374298.307,-41.504,-28.809,-44.434,-49.316,0.000
1709374298.311,-63.477,-25.391,-41.992,-57.617,0.000
1709374298.315,-47.363,-21.973,-41.992,-43.945,0.000
1709374298.318,0.488,-23.438,-43.945,-9.766,0.000
1709374298.322,8.789,-28.320,-43.945,-2.930,0.000
1709374298.326,-41.504,-28.809,-43.945,-48.828,0.000
1709374298.330,-62.988,-25.879,-47.852,-84.473,0.000
1709374298.335,0.000,-23.926,-49.805,-74.707,0.000
1709374298.338,0.000,-24.902,-46.387,-30.273,0.000
1709374298.342,0.000,-23.926,-41.504,-10.742,0.000
1709374298.346,0.000,-24.414,-40.527,-44.922,0.000
1709374298.350,0.000,-25.879,-41.504,-65.918,0.000
1709374298.354,0.000,-30.273,-41.504,-60.547,0.000
1709374298.358,0.000,-31.250,-43.945,-28.320,0.000
1709374298.362,0.000,-33.691,-42.969,-5.371,0.000
1709374298.366,0.000,-31.250,-38.574,-37.109,0.000
1709374298.370,0.000,-25.391,-36.133,-54.688,0.000
1709374298.374,0.000,-32.227,-39.551,-55.176,0.000
1709374298.377,0.000,-35.156,-44.922,-36.621,0.000
1709374298.382,1.465,-32.227,-42.480,-2.930,0.000
1709374298.386,-37.109,-33.691,-41.016,-29.785,0.000
1709374298.389,-63.965,-32.227,-37.109,-59.570,0.000
1709374298.393,-58.594,-37.598,-32.715,-54.199,0.000
1709374298.397,-28.809,-40.039,-33.203,-23.438,0.000
1709374298.401,16.602,-38.574,-32.227,10.742,0.000
1709374298.405,-16.602,-43.945,-31.738,-19.531,0.000
1709374298.409,-62.500,-38.086,-32.715,-58.594,0.000
1709374298.413,-65.918,-33.691,-31.738,-53.223,0.000
1709374298.417,-38.574,-32.715,-30.762,-25.391,0.000
1709374298.421,2.441,-34.668,-35.156,-2.930,0.000
1709374298.425,-24.414,-41.504,-39.551,-27.344,0.000
1709374298.429,-69.824,-35.156,-37.598,-60.059,0.000
1709374298.432,-72.266,-34.180,-36.621,-70.312,0.000
1709374298.436,-44.434,-36.621,-38.574,-51.758,0.000
1709374298.440,-2.930,-34.180,-39.062,-5.371,0.000
1709374298.444,-20.508,-34.668,-37.109,-10.742,0.000
1709374298.448,-67.383,-35.645,-37.109,-48.828,0.000
1709374298.452,-74.707,-36.133,-43.457,-53.223,0.000
1709374298.456,-47.852,-34.668,-43.945,-42.480,0.000
1709374298.460,0.000,-33.203,-38.574,-5.371,0.000
1709374298.464,-11.230,-37.109,-41.016,0.977,0.000
1709374298.468,-58.105,-38.574,-41.992,-38.086,0.000
1709374298.472,-75.195,-37.598,-39.551,-52.734,0.000
1709374298.475,-64.453,-33.691,-37.109,-40.527,0.000
1709374298.479,-8.789,-33.691,-42.480,-7.812,0.000
1709374298.483,8.789,-36.133,-46.387,1.465,0.000
1709374298.487,-40.527,-42.480,-43.945,-36.133,0.000
1709374298.491,-62.988,-38.086,-45.410,-59.082,0.000
1709374298.495,-46.875,-30.273,-47.363,-54.688,0.000
1709374298.499,-6.348,-35.645,-47.363,-23.926,0.000
1709374298.503,6.348,-36.133,-42.480,-5.859,0.000
1709374298.507,-39.551,-32.715,-39.062,-32.227,0.000
1709374298.511,-59.570,-32.227,-40.527,-62.012,0.000
1709374298.514,-39.062,-31.738,-42.480,-57.617,0.000
1709374298.518,5.371,-34.668,-40.039,-20.508,0.000
1709374298.522,20.020,-35.645,-36.133,-3.418,0.000
1709374298.526,-28.809,-33.203,-38.086,-40.527,0.000
1709374298.530,-54.688,-34.180,-39.551,-65.430,0.000
1709374298.534,-37.109,-35.645,-35.645,-64.941,0.000
1709374298.538,1.465,-36.621,-38.574,-27.832,0.000
1709374298.542,29.785,-33.691,-39.551,1.465,0.000
1709374298.546,-15.137,-30.762,-32.715,-32.715,0.000
1709374298.550,-57.129,-30.762,-28.320,-55.176,0.000
1709374298.553,-62.988,-34.668,-36.133,-58.105,0.000
1709374298.557,-30.762,-34.180,-36.621,-35.156,0.000
1709374298.561,4.883,-32.227,-31.738,0.000,0.000
1709374298.565,-31.738,-37.598,-36.133,-26.855,0.000
1709374298.569,0.000,-40.039,0.000,-56.641,0.000
1709374298.573,0.000,-36.621,0.000,-58.594,0.000
1709374298.577,0.000,-39.062,0.000,-34.668,0.000
1709374298.581,0.000,-38.086,0.000,-0.488,0.000
1709374298.585,0.000,-29.785,0.000,-17.090,0.000
1709374298.589,0.000,-30.273,0.000,-44.434,0.000
1709374298.593,0.000,-30.762,0.000,-43.457,0.000
1709374298.597,0.000,-30.762,0.000,-20.508,0.000
1709374298.601,0.000,-31.738,0.000,4.395,0.000
1709374298.605,0.000,-28.320,0.000,-9.766,0.000
1709374298.608,0.000,-33.691,0.000,-41.504,0.000
1709374298.612,0.000,-37.109,0.000,-51.270,0.000
1709374298.616,-43.945,-34.668,-36.133,-40.527,0.000
1709374298.620,5.859,-39.062,-40.527,-5.371,0.000
1709374298.624,0.977,-38.574,-42.480,-3.418,0.000
1709374298.628,-52.246,-33.203,-42.480,-37.109,0.000
1709374298.632,-58.594,-27.344,-40.039,-50.781,0.000
1709374298.635,-33.691,-24.414,-31.738,-30.273,0.000
1709374298.639,16.602,-29.297,-28.320,17.090,0.000
1709374298.643,20.508,-31.738,-29.785,11.719,0.000
1709374298.647,-37.598,-33.203,-33.203,-40.527,0.000
1709374298.651,-60.547,-36.621,-33.691,-55.176,0.000
1709374298.655,-44.922,-37.109,-30.762,-40.527,0.000
1709374298.659,5.371,-39.551,-27.344,3.418,0.000
1709374298.663,11.230,-37.598,-29.785,14.160,0.000
1709374298.666,-38.574,-27.832,-29.297,-28.320,0.000
1709374298.670,-59.082,-27.832,-27.832,-55.176,0.000
1709374298.674,-54.199,-28.320,-30.762,-56.641,0.000
1709374298.678,-1.953,-30.273,-35.156,-16.602,0.000
1709374298.682,29.785,-34.180,-36.133,14.648,0.000
1709374298.686,-36.133,-36.133,-35.645,-19.043,0.000
1709374298.690,-89.355,-41.016,-34.180,-58.105,0.000
1709374298.694,-79.590,-42.480,-31.250,-66.406,0.000
1709374298.698,-26.855,-44.922,-29.785,-35.156,0.000
1709374298.702,0.000,-47.363,-32.715,-9.766,0.000
1709374298.705,-41.504,-42.969,-32.227,-35.156,0.000
1709374298.710,-66.895,-41.016,-32.227,-54.199,0.000
1709374298.714,-61.523,-44.922,-30.273,-57.129,0.000
1709374298.717,-23.438,-45.898,-30.273,-35.645,0.000
1709374298.721,6.348,-42.480,-32.715,-6.348,0.000
1709374298.725,-22.461,-38.086,-27.344,-28.809,0.000
1709374298.729,-55.664,-39.062,-25.879,-57.617,0.000
1709374298.733,-56.152,-39.551,-31.250,-53.711,0.000
1709374298.737,-23.438,-41.504,-35.156,-30.762,0.000
1709374298.741,17.578,-40.039,-31.738,4.883,0.000
1709374298.745,-4.395,-35.156,-28.809,-8.301,0.000
1709374298.749,-45.898,-33.203,-33.203,-44.434,0.000
1709374298.753,-51.270,-38.086,-37.109,-56.641,0.000
1709374298.757,-19.531,-41.992,-37.109,-35.156,0.000
1709374298.761,23.438,-37.598,-36.133,7.324,0.000
1709374298.765,-1.465,-35.156,-35.156,-10.254,0.000
1709374298.768,-46.387,-34.668,-34.180,-45.410,0.000
1709374298.772,-48.828,-33.203,-34.668,-50.781,0.000
1709374298.776,-21.973,-30.273,-38.086,-37.598,0.000
1709374298.780,22.461,-29.297,-39.551,0.488,0.000
1709374298.784,8.301,-36.621,-37.109,-3.418,0.000
1709374298.788,-46.875,-39.551,-32.227,-41.504,0.000
1709374298.792,-62.988,-33.203,-37.598,-51.758,0.000
1709374298.796,-45.898,-36.133,-44.922,-51.270,0.000
1709374298.800,-1.465,-46.875,-41.504,-21.484,0.000
1709374298.804,-1.465,-43.457,-38.574,-12.695,0.000
1709374298.808,-53.711,-40.039,-38.574,-51.758,0.000
1709374298.811,-66.406,-40.039,-37.109,-72.266,0.000
1709374298.815,-42.480,-39.551,-36.133,-61.523,0.000
1709374298.819,0.000,-42.969,-34.668,-18.066,0.000
1709374298.823,-3.418,-44.922,-36.621,-13.672,0.000
1709374298.827,-58.594,-41.992,-34.180,-58.105,0.000
1709374298.831,-77.637,-46.875,-34.180,-74.219,0.000
1709374298.835,-61.523,-41.992,-39.551,-60.547,0.000
1709374298.839,-17.090,-33.691,-41.504,-24.414,0.000
1709374298.843,-1.465,-39.551,-41.016,-17.578,0.000
1709374298.847,-41.504,-40.039,-40.039,-50.293,0.000
1709374298.850,-62.988,-33.691,-40.527,-61.523,0.000
1709374298.854,-64.453,-39.551,-41.992,-60.547,0.000
1709374298.858,-26.855,-47.852,-38.574,-25.391,0.000
1709374298.862,5.371,-45.410,-43.457,0.977,0.000
1709374298.866,-35.156,-37.109,-48.828,-35.156,0.000
1709374298.870,-68.359,-32.715,-41.016,-58.105,0.000
1709374298.874,-65.430,-34.668,-36.133,-54.688,0.000
1709374298.878,-23.438,-34.180,-44.434,-22.949,0.000
1709374298.882,11.719,-34.668,-42.969,13.184,0.000
1709374298.886,-23.438,-35.645,-37.598,-24.902,0.000
1709374298.890,-57.617,-31.250,-37.598,-62.988,0.000
1709374298.893,-62.012,-27.832,-36.621,-52.734,0.000
1709374298.897,-30.762,-35.156,-34.668,-21.973,0.000
1709374298.901,5.371,-41.504,-33.691,0.488,0.000
1709374298.905,-25.879,-35.156,-35.156,-27.832,0.000
1709374298.909,-57.617,-28.809,-33.203,-55.176,0.000
1709374298.913,-59.570,-30.762,-35.156,-62.500,0.000
1709374298.917,-31.250,-32.715,-38.574,-47.852,0.000
1709374298.921,5.371,-35.645,-35.645,-14.160,0.000
1709374298.925,-29.785,-35.156,-35.156,-23.926,0.000
1709374298.929,-75.684,-32.715,-38.574,-68.848,0.000
1709374298.932,-77.637,-31.738,-38.086,-82.031,0.000
1709374298.936,-49.316,-33.691,-34.668,-45.898,0.000
1709374298.940,-8.789,-35.645,-38.574,-10.742,0.000
1709374298.944,-21.973,-30.762,-37.598,-27.344,0.000
1709374298.948,-61.035,-33.203,-33.691,-58.105,0.000
1709374298.952,-76.172,-38.574,-38.086,-62.500,0.000
1709374298.956,-55.664,-32.227,-38.086,-44.434,0.000
1709374298.960,-7.812,-25.391,-38.574,-3.418,0.000
1709374298.963,-13.184,-32.227,-40.527,-7.812,0.000
1709374298.967,-58.105,-36.621,-39.062,-46.387,0.000
1709374298.971,-70.801,-29.785,-38.086,-46.387,0.000
1709374298.975,-59.082,-31.738,-40.039,-50.293,0.000
1709374298.979,-15.137,-38.086,-39.551,-20.996,0.000
1709374298.983,-1.465,-37.598,-35.156,-5.371,0.000
1709374298.987,-48.828,-30.762,-35.156,-51.270,0.000
1709374298.991,-68.848,-32.227,-41.016,-63.965,0.000
1709374298.994,-56.152,-33.203,-39.062,-55.664,0.000
1709374298.998,-19.043,-30.762,-31.250,-23.438,0.000
1709374299.002,-11.230,-29.785,-32.715,-10.742,0.000
1709374299.006,-59.082,-26.855,-38.086,-57.617,0.000
1709374299.010,-81.055,-26.855,-36.133,-75.684,0.000
1709374299.014,-62.988,-28.320,-33.691,-59.082,0.000
1709374299.018,-21.484,-27.344,-36.621,-22.461,0.000
1709374299.022,-8.301,-27.832,-36.133,-10.742,0.000
1709374299.026,-51.270,-34.180,-32.715,-47.363,0.000
1709374299.030,-80.078,-36.133,-34.668,-71.289,0.000
1709374299.034,-72.754,-34.668,-37.598,-69.824,0.000
1709374299.037,-32.715,-39.551,-36.621,-39.062,0.000
1709374299.041,-0.488,-43.457,-32.715,-13.672,0.000
1709374299.045,-45.898,-37.598,-32.227,-44.434,0.000
1709374299.049,-85.938,-33.203,-29.785,-66.895,0.000
1709374299.053,-75.684,-40.039,-29.297,-64.453,0.000
1709374299.057,-38.574,-43.945,-34.668,-38.086,0.000
1709374299.061,-7.812,-42.969,-31.738,-3.418,0.000
1709374299.064,-35.645,-35.645,-26.855,-30.762,0.000
1709374299.068,-70.312,-35.156,-29.297,-67.383,0.000
1709374299.072,-68.848,-42.969,-29.297,-67.871,0.000
1709374299.076,-44.434,-39.551,-33.203,-42.969,0.000
1709374299.080,-7.324,-35.645,-35.645,-7.324,0.000
1709374299.084,-26.367,-33.691,-30.273,-21.973,0.000
1709374299.088,-68.359,-33.203,-29.785,-54.199,0.000
1709374299.092,-74.219,-41.992,-34.668,-66.895,0.000
1709374299.096,-41.016,-47.852,-35.156,-45.898,0.000
1709374299.100,1.953,-40.527,-35.156,1.953,0.000
1709374299.104,-20.508,-33.691,-39.551,-9.766,0.000
1709374299.108,-67.871,-35.645,-38.574,-61.035,0.000
1709374299.112,-73.730,-37.109,-35.156,-74.219,0.000
1709374299.116,-50.293,-32.227,-37.598,-52.734,0.000
1709374299.119,-6.348,-34.668,-38.574,-11.719,0.000
1709374299.123,-9.766,-39.551,-38.086,-16.113,0.000
1709374299.127,-56.641,-38.574,-33.691,-56.641,0.000
1709374299.131,-69.336,-33.691,-28.320,-65.430,0.000
1709374299.135,-42.480,-32.227,-32.715,-49.316,0.000
1709374299.139,4.395,-32.715,-37.598,-9.277,0.000
1709374299.143,2.930,-32.715,-39.551,-13.672,0.000
1709374299.147,-46.387,-36.133,-37.598,-52.246,0.000
1709374299.151,-73.242,-37.598,-43.457,-60.059,0.000
1709374299.155,-61.035,-32.227,-44.434,-45.898,0.000
1709374299.159,-17.090,-36.133,-37.598,-13.184,0.000
1709374299.163,-3.418,-47.363,-39.062,-1.953,0.000
1709374299.167,-48.828,-40.039,-37.598,-25.879,0.000
1709374299.170,-78.125,-28.809,-34.668,-52.734,0.000
1709374299.174,-64.453,-24.414,-34.180,-48.828,0.000
1709374299.178,-16.602,-31.738,-32.715,-16.113,0.000
1709374299.182,-0.488,-38.574,-27.832,-6.348,0.000
1709374299.186,-47.852,-37.598,-29.785,-40.527,0.000
1709374299.190,-63.965,-33.691,-28.809,-62.988,0.000
1709374299.194,-59.082,-41.992,-26.855,-59.570,0.000
1709374299.198,-35.156,-46.875,-37.598,-28.320,0.000
1709374299.202,-4.395,-38.086,-39.062,-10.742,0.000
1709374299.206,-36.133,-38.086,-35.156,-45.898,0.000
1709374299.210,-69.824,-37.598,-32.715,-57.617,0.000
1709374299.214,-66.406,-35.156,-35.156,-53.223,0.000
1709374299.217,-24.902,-34.668,-38.086,-32.715,0.000
1709374299.221,13.672,-37.109,-39.551,-2.930,0.000
1709374299.225,-22.461,-41.016,-37.109,-33.203,0.000
1709374299.229,-54.688,-34.180,-29.785,-58.105,0.000
1709374299.233,-51.270,-27.344,-29.785,-52.246,0.000
1709374299.237,-17.090,-31.250,-36.621,-24.414,0.000
1709374299.241,26.367,-34.668,-35.156,12.207,0.000
1709374299.245,-22.949,-34.668,-33.691,-22.461,0.000
1709374299.249,-71.777,-39.551,-34.180,-59.570,0.000
1709374299.253,-57.617,-40.039,-30.762,-49.805,0.000
1709374299.256,-27.832,-35.156,-39.551,-17.090,0.000
1709374299.260,-3.418,-35.645,-46.875,7.812,0.000
1709374299.264,-20.020,-40.039,-40.527,-13.184,0.000
1709374299.268,-59.082,-40.527,-34.668,-43.945,0.000
1709374299.272,-71.289,-36.133,-33.691,-43.457,0.000
1709374299.276,-45.898,-41.016,-34.180,-25.879,0.000
1709374299.280,6.836,-43.457,-30.762,5.371,0.000
1709374299.284,-6.348,-32.715,-27.344,-10.254,0.000
1709374299.288,-54.688,-31.738,-28.809,-54.688,0.000
1709374299.292,-68.359,-37.598,-30.273,-67.383,0.000
1709374299.295,-49.805,-38.574,-32.227,-50.781,0.000
1709374299.299,5.859,-43.457,-29.785,-3.418,0.000
1709374299.303,4.395,-42.480,-28.809,-8.301,0.000
1709374299.307,-41.016,-38.574,-34.668,-56.152,0.000
1709374299.311,-50.781,-38.086,-34.668,-73.242,0.000
1709374299.315,-41.504,-40.527,-35.156,-54.688,0.000
1709374299.319,0.000,-40.039,0.000,-11.230,0.000
1709374299.323,0.000,-35.645,0.000,-7.812,0.000
1709374299.327,0.000,-35.645,0.000,-44.434,0.000
1709374299.331,0.000,-40.527,0.000,-49.805,0.000
1709374299.335,0.000,-41.504,0.000,-44.922,0.000
1709374299.339,0.000,-25.879,0.000,-11.719,0.000
1709374299.343,0.000,-21.484,0.000,4.395,0.000
1709374299.347,0.000,-28.320,0.000,-27.832,0.000
1709374299.350,0.000,-27.832,0.000,-55.176,0.000
1709374299.354,0.000,-26.367,0.000,-53.223,0.000
1709374299.358,0.000,-33.203,0.000,-20.508,0.000
1709374299.362,0.000,-41.016,0.000,-7.812,0.000
1709374299.366,-35.645,-38.086,-49.805,-44.434,0.000
1709374299.370,-55.664,-29.297,-45.410,-65.918,0.000
1709374299.374,-50.781,-30.762,-46.387,-61.523,0.000
1709374299.378,-12.695,-34.180,-47.852,-28.320,0.000
1709374299.381,20.020,-41.504,-43.457,4.883,0.000
1709374299.385,-30.762,-48.828,-38.574,-33.203,0.000
1709374299.389,-71.289,-43.945,-34.180,-56.152,0.000
1709374299.393,-67.871,-43.457,-37.109,-48.340,0.000
1709374299.397,-31.738,-43.457,-36.621,-20.996,0.000
1709374299.401,1.953,-41.016,-34.668,6.836,0.000
1709374299.405,-27.832,-44.922,-34.668,-27.344,0.000
1709374299.409,-66.895,-43.457,-37.598,-52.734,0.000
1709374299.413,-69.824,-32.227,-37.598,-51.270,0.000
1709374299.417,-34.180,-36.133,-40.527,-36.133,0.000
1709374299.421,8.301,-41.504,-40.527,3.906,0.000
1709374299.425,-16.113,-35.645,-36.133,-6.836,0.000
1709374299.428,-52.246,-32.715,-32.715,-43.945,0.000
1709374299.432,-53.223,-36.621,-30.273,-45.898,0.000
1709374299.436,-29.785,-41.504,-31.250,-19.043,0.000
1709374299.440,12.207,-41.016,-33.691,16.602,0.000
1709374299.444,-2.441,-36.621,-32.227,2.930,0.000
1709374299.448,-51.270,-40.527,-32.227,-37.109,0.000
1709374299.452,-66.406,-46.387,-35.645,-39.062,0.000
1709374299.456,-39.062,-36.621,-37.598,-20.996,0.000
1709374299.459,4.883,-30.762,-43.945,3.418,0.000
1709374299.463,-7.812,-32.227,-43.457,-11.230,0.000
1709374299.467,-50.293,-29.297,-37.598,-55.176,0.000
1709374299.471,-67.383,-31.738,-41.016,-69.824,0.000
1709374299.475,-54.199,-42.480,-44.922,-59.082,0.000
1709374299.479,-7.812,-44.434,-46.387,-20.996,0.000
1709374299.483,-2.441,-35.156,-43.457,-14.648,0.000
1709374299.487,-52.246,-33.203,-41.016,-51.270,0.000
1709374299.490,-78.125,-41.016,-39.551,-67.383,0.000
1709374299.494,-61.523,-41.504,-35.156,-42.480,0.000
1709374299.498,-12.695,-40.527,-36.621,-4.883,0.000
1709374299.502,-3.906,-39.551,-39.062,-11.230,0.000
1709374299.506,-49.805,-32.715,-33.691,-50.781,0.000
1709374299.510,-64.941,-39.551,-33.203,-67.871,0.000
1709374299.514,-56.152,-42.480,-35.156,-56.641,0.000
1709374299.518,-8.301,-39.551,-32.715,-11.719,0.000
1709374299.522,20.020,-39.551,-29.785,12.695,0.000
1709374299.526,-33.691,-36.133,-27.344,-29.297,0.000
1709374299.530,-75.195,-32.715,-25.391,-61.035,0.000
1709374299.534,-64.941,-30.273,-27.344,-53.711,0.000
1709374299.538,-13.184,-27.832,-26.367,-17.090,0.000
1709374299.541,3.418,-31.738,-28.809,6.836,0.000
1709374299.545,-49.316,-40.527,-35.645,-37.598,0.000
1709374299.549,-70.801,-41.504,-35.156,-72.266,0.000
1709374299.553,-59.082,-29.297,-33.691,-68.848,0.000
1709374299.557,-19.531,-26.367,-34.668,-35.156,0.000
1709374299.561,14.648,-32.715,-35.156,-5.859,0.000
1709374299.565,-35.156,-33.691,-33.691,-42.969,0.000
1709374299.569,-73.730,-31.250,-30.273,-74.219,0.000
1709374299.573,-73.242,-35.156,-31.250,-67.383,0.000
1709374299.577,-43.457,-38.574,-34.180,-43.457,0.000
1709374299.581,-4.395,-33.691,-30.762,-16.113,0.000
1709374299.585,-30.273,-33.691,-22.949,-28.320,0.000
1709374299.588,-70.801,-39.551,-22.949,-61.035,0.000
1709374299.592,-66.406,-37.109,-27.832,-66.406,0.000
1709374299.596,-36.133,-35.645,-32.227,-43.945,0.000
1709374299.600,-1.465,-37.598,-29.785,-9.766,0.000
1709374299.604,-18.555,-41.016,-26.855,-26.367,0.000
1709374299.608,-51.758,-38.086,-29.297,-59.570,0.000
1709374299.612,-62.988,-34.180,-25.391,-59.082,0.000
1709374299.616,-39.551,-33.691,-24.414,-41.016,0.000
1709374299.620,6.836,-33.203,-27.832,6.348,0.000
1709374299.624,-12.207,-32.715,-27.344,0.000,0.000
1709374299.627,-60.059,-32.227,-28.809,-42.969,0.000
1709374299.631,-71.777,-32.715,-33.203,-41.504,0.000
1709374299.635,-54.688,-41.016,-36.133,-42.480,0.000
1709374299.639,-1.465,-37.598,-37.598,-18.066,0.000
1709374299.643,-10.742,-36.133,-40.527,-18.066,0.000
1709374299.647,-64.453,-40.039,-41.504,-58.594,0.000
1709374299.651,-70.801,-35.156,-43.945,-69.336,0.000
1709374299.655,-47.363,-29.297,-40.039,-61.035,0.000
1709374299.659,-1.953,-32.715,-36.133,-24.902,0.000
1709374299.663,-2.441,-33.203,-33.691,-17.578,0.000
1709374299.666,-51.758,-31.738,-30.762,-60.059,0.000
1709374299.670,-70.801,-35.156,-40.039,-77.637,0.000
1709374299.674,-51.758,-35.645,-40.039,-60.059,0.000
1709374299.678,-6.348,-33.203,-37.598,-21.484,0.000
1709374299.682,7.324,-36.621,-39.551,-10.254,0.000
1709374299.686,-32.227,-39.062,-34.668,-47.363,0.000
1709374299.690,-62.012,-33.203,-32.715,-62.988,0.000
1709374299.694,-61.523,-33.203,-35.156,-56.641,0.000
1709374299.698,-20.508,-44.434,-30.762,-17.090,0.000
1709374299.701,6.348,-45.410,-27.832,5.859,0.000
1709374299.705,-41.504,-39.062,-29.785,-37.598,0.000
1709374299.709,-67.383,-37.598,-27.344,-60.547,0.000
1709374299.713,-56.152,-38.574,-27.344,-56.641,0.000
1709374299.717,-22.949,-42.480,-27.344,-24.902,0.000
1709374299.721,11.230,-39.062,-24.414,16.113,0.000
1709374299.725,-30.762,-30.273,-24.902,-16.602,0.000
1709374299.729,-65.918,-29.297,-29.297,-54.199,0.000
1709374299.733,-56.152,-37.109,-32.715,-53.711,0.000
1709374299.737,-21.484,-37.598,-32.227,-28.320,0.000
1709374299.740,13.672,-33.691,-30.762,-3.906,0.000
1709374299.744,-22.949,-31.738,-27.832,-31.738,0.000
1709374299.748,-70.312,-35.645,-29.297,-68.848,0.000
1709374299.752,-76.172,-34.180,-32.227,-69.824,0.000
1709374299.756,-46.387,-34.668,-35.645,-46.875,0.000
1709374299.760,-6.348,-42.969,-39.062,-19.531,0.000
1709374299.764,-26.367,-43.457,-37.598,-31.250,0.000
1709374299.768,-70.312,-36.133,-38.086,-62.500,0.000
1709374299.772,-74.219,-36.621,-40.039,-67.871,0.000
1709374299.776,-42.480,-43.945,-38.086,-44.434,0.000
1709374299.779,-1.465,-41.992,-36.621,-8.789,0.000
1709374299.783,-17.578,-37.598,-39.062,-25.391,0.000
1709374299.787,-62.012,-38.574,-38.086,-64.453,0.000
1709374299.791,-68.848,-40.039,-36.621,-63.965,0.000
1709374299.795,-42.480,-37.109,-39.551,-40.527,0.000
1709374299.799,3.906,-32.715,-42.969,-1.953,0.000
1709374299.803,-3.418,-35.156,-43.945,-8.789,0.000
1709374299.807,-47.363,-41.016,-42.480,-52.246,0.000
1709374299.810,-63.477,-37.598,-39.062,-53.711,0.000
1709374299.814,-48.340,-36.621,-38.086,-42.969,0.000
1709374299.818,-8.789,-38.574,-38.574,-20.996,0.000
1709374299.822,-11.719,-33.203,-36.133,-22.461,0.000
1709374299.826,-51.270,-36.621,-33.691,-50.781,0.000
1709374299.830,-63.477,-42.480,-34.668,-58.594,0.000
1709374299.834,-55.664,-39.062,-38.574,-54.199,0.000
1709374299.838,-11.719,-37.598,-38.574,-20.508,0.000
1709374299.842,-0.488,-38.086,-34.180,-10.254,0.000
1709374299.846,-53.711,-34.180,-26.855,-45.898,0.000
1709374299.850,-71.777,-28.320,-24.414,-58.105,0.000
1709374299.854,-65.918,-30.762,-31.738,-49.316,0.000
1709374299.858,-21.484,-35.156,-32.227,-13.184,0.000
1709374299.862,-3.906,-38.086,-31.250,1.953,0.000
1709374299.866,-51.270,-38.574,-29.785,-36.133,0.000
1709374299.869,-71.777,-29.297,-29.297,-51.758,0.000
1709374299.873,-62.500,-30.762,-29.297,-51.758,0.000
1709374299.877,-27.832,-35.645,-27.832,-22.949,0.000
1709374299.881,7.324,-29.297,-30.273,7.812,0.000
1709374299.885,-25.391,-26.367,-33.691,-30.762,0.000
1709374299.889,-67.871,-26.367,-35.156,-62.012,0.000
1709374299.893,-64.453,-29.785,-31.738,-52.734,0.000
1709374299.897,-18.066,-34.180,-31.250,-15.137,0.000
1709374299.901,18.555,-39.551,-33.203,13.184,0.000
1709374299.905,-17.578,-39.551,-34.668,-20.996,0.000
1709374299.909,-57.617,-35.156,-37.109,-59.082,0.000
1709374299.913,-57.617,-33.691,-37.109,-62.012,0.000
1709374299.917,-25.879,-35.156,-39.062,-26.367,0.000
1709374299.920,14.648,-39.062,-40.039,1.953,0.000
1709374299.924,-18.555,-36.621,-34.180,-22.461,0.000
1709374299.928,-59.570,-34.180,-34.668,-56.152,0.000
1709374299.932,-60.547,-38.086,-35.645,-66.895,0.000
1709374299.936,-42.480,-40.527,-36.133,-44.922,0.000
1709374299.940,-2.930,-38.574,-33.203,-2.930,0.000
1709374299.944,-25.391,-34.668,-30.762,-19.531,0.000
1709374299.948,-78.125,-33.691,-34.668,-62.012,0.000
1709374299.952,-81.055,-35.156,-33.203,-64.941,0.000
1709374299.956,-53.223,-38.086,-34.180,-48.340,0.000
1709374299.960,-6.348,-39.551,-33.691,-2.441,0.000
1709374299.963,-9.277,-40.527,-29.297,-3.418,0.000
1709374299.967,-57.617,-41.504,-35.645,-50.781,0.000
1709374299.971,-70.801,-36.621,-37.109,-58.594,0.000
1709374299.975,-54.199,-35.156,-31.738,-40.039,0.000
1709374299.979,-3.906,-31.250,-32.227,-2.930,0.000
1709374299.983,2.930,-30.762,-28.320,-0.488,0.000
1709374299.987,-49.316,-42.480,-29.785,-40.527,0.000
1709374299.991,-59.082,-38.574,-31.738,-48.828,0.000
1709374299.995,-38.574,-32.715,-28.320,-37.598,0.000
1709374299.999,-2.441,-38.574,-30.273,0.000,0.000
1709374300.003,0.000,-39.062,-33.203,6.836,0.000
1709374300.006,-41.016,-32.227,-29.297,-22.949,0.000
1709374300.010,-56.152,-25.879,-24.902,-34.180,0.000
1709374300.014,-41.016,-33.203,-27.832,-31.250,0.000
1709374300.018,6.348,-37.109,-35.645,3.418,0.000
1709374300.022,22.949,-33.203,-36.621,14.160,0.000
1709374300.026,-27.344,-31.250,-32.227,-27.832,0.000
1709374300.030,-54.688,-30.273,-32.715,-50.293,0.000
1709374300.034,-50.293,-30.273,-38.574,-51.270,0.000
1709374300.038,-9.277,-30.273,-41.992,-22.949,0.000
1709374300.042,16.113,-30.762,-39.062,-5.371,0.000
1709374300.046,-31.250,-30.762,-40.039,-47.363,0.000
1709374300.050,-62.012,-27.344,-38.086,-69.336,0.000
1709374300.054,-59.082,-30.762,-42.480,-66.406,0.000
1709374300.058,-20.508,-39.551,-48.340,-41.504,0.000
1709374300.061,17.090,-39.062,-46.875,-15.625,0.000
1709374300.065,-21.484,-35.156,-41.992,-40.527,0.000
1709374300.069,-66.895,-39.551,-41.016,-64.453,0.000
1709374300.073,-64.941,-38.574,-43.945,-62.012,0.000
1709374300.077,-26.367,-37.598,-44.434,-37.109,0.000
1709374300.081,10.742,-38.086,-39.551,-4.395,0.000
1709374300.085,-25.391,-37.598,-37.109,-23.438,0.000
1709374300.089,-74.219,-43.457,-42.969,-62.500,0.000
1709374300.092,-72.754,-43.945,-44.434,-65.430,0.000
1709374300.096,-38.086,-37.598,-35.645,-24.414,0.000
1709374300.100,-0.488,-34.180,-36.133,10.254,0.000
1709374300.104,-21.973,-34.668,-40.039,-11.230,0.000
1709374300.108,-60.059,-35.156,-40.039,-43.457,0.000
1709374300.112,-61.035,-36.621,-36.621,-52.246,0.000
1709374300.116,-48.340,-37.598,-37.598,-41.992,0.000
1709374300.120,-14.160,-37.109,-41.504,-8.301,0.000
1709374300.123,-24.414,-42.480,-41.016,-20.508,0.000
1709374300.127,-66.895,-46.387,-40.527,-60.547,0.000
1709374300.131,-76.660,-40.039,-41.016,-66.895,0.000
1709374300.135,-54.199,-42.480,-41.992,-57.129,0.000
1709374300.139,-3.906,-43.457,-37.598,-20.020,0.000
1709374300.143,-15.625,-43.945,-34.668,-24.414,0.000
1709374300.147,-66.895,-46.387,-35.156,-67.383,0.000
1709374300.151,-74.219,-42.480,-37.109,-80.566,0.000
1709374300.155,-52.246,-38.086,-37.109,-59.570,0.000
1709374300.159,-6.348,-39.062,-38.086,-20.508,0.000
1709374300.162,-6.348,-44.434,-41.016,-27.344,0.000
1709374300.166,-55.664,-48.828,-40.039,-59.082,0.000
1709374300.170,-70.801,-43.457,-34.668,-63.477,0.000
1709374300.174,-57.617,-41.992,-34.180,-57.617,0.000
1709374300.178,-6.836,-42.480,-35.645,-18.066,0.000
1709374300.182,5.371,-43.945,-35.156,-2.930,0.000
1709374300.186,-44.922,-41.504,-38.086,-37.598,0.000
1709374300.190,-71.777,-32.227,-38.574,-61.035,0.000
1709374300.193,-67.383,-35.156,-37.598,-58.105,0.000
1709374300.197,-10.742,-37.109,-34.180,-21.484,0.000
1709374300.201,10.742,-35.645,-29.785,-7.324,0.000
1709374300.205,-38.574,-35.156,-30.762,-45.898,0.000
1709374300.209,-67.871,-40.039,-39.551,-75.684,0.000
1709374300.213,-59.570,-47.852,-41.016,-69.336,0.000
1709374300.217,-20.508,-44.922,-42.969,-29.785,0.000
1709374300.221,3.418,-37.109,-43.945,0.488,0.000
1709374300.225,-34.668,-35.156,-40.039,-31.250,0.000
1709374300.229,-71.289,-34.180,-43.945,-60.547,0.000
1709374300.233,-68.848,-38.574,-47.363,-57.129,0.000
1709374300.237,-33.691,-41.504,-45.898,-28.320,0.000
1709374300.241,2.930,-38.574,-44.434,0.000,0.000
1709374300.245,-29.297,-33.203,-39.062,-23.438,0.000
1709374300.248,-65.918,-34.668,-38.574,-54.688,0.000
1709374300.252,-60.059,-38.574,-43.945,-62.500,0.000
1709374300.256,-23.438,-36.133,-45.410,-35.156,0.000
1709374300.260,19.043,-34.180,-46.387,3.906,0.000
1709374300.264,-6.836,-32.227,-42.480,-13.184,0.000
1709374300.268,-48.828,-28.320,-35.156,-46.875,0.000
1709374300.272,-58.105,-29.297,-34.668,-51.758,0.000
1709374300.276,-25.879,-32.227,-36.621,-23.926,0.000
1709374300.280,13.184,-32.715,-32.715,12.207,0.000
1709374300.284,-19.531,-37.109,-31.250,-7.324,0.000
1709374300.288,-61.523,-34.668,-29.785,-41.016,0.000
1709374300.292,-70.312,-27.344,-28.320,-38.086,0.000
1709374300.295,-57.617,-30.762,-30.762,-32.227,0.000
1709374300.299,-5.859,-32.227,-30.762,-3.418,0.000
1709374300.303,-10.742,-28.320,-29.297,-11.230,0.000
1709374300.307,-62.500,-27.832,-28.320,-46.875,0.000
1709374300.311,-76.172,-31.738,-29.785,-57.617,0.000
1709374300.315,-56.641,-34.180,-33.203,-45.898,0.000
1709374300.319,-2.441,-34.668,-37.109,-10.254,0.000
1709374300.323,0.488,-36.621,-41.016,-11.719,0.000
1709374300.327,-56.152,-41.992,-40.039,-52.734,0.000
1709374300.331,-71.777,-41.504,-37.109,-64.941,0.000
1709374300.335,-51.758,-40.039,-36.621,-44.922,0.000
1709374300.339,-8.789,-41.016,-37.109,-9.277,0.000
1709374300.342,-7.324,-41.016,-39.551,-6.836,0.000
1709374300.346,-62.988,-39.551,-40.039,-48.340,0.000
1709374300.350,-81.543,-37.109,-36.621,-68.848,0.000
1709374300.354,-65.430,-38.574,-40.039,-66.406,0.000
1709374300.358,-20.020,-39.062,-44.922,-32.227,0.000
1709374300.362,-5.859,-38.086,-42.480,-17.578,0.000
1709374300.366,-50.781,-37.598,-38.574,-57.129,0.000
1709374300.370,-71.289,-46.875,-39.062,-79.102,0.000
1709374300.374,-63.965,-46.387,-39.551,-69.336,0.000
1709374300.378,-36.621,-39.062,-41.992,-38.086,0.000
1709374300.382,-12.207,-39.551,-43.457,-10.254,0.000
1709374300.385,-54.688,-40.527,-41.992,-47.363,0.000
1709374300.389,-89.355,-41.504,-37.598,-81.055,0.000
1709374300.393,-77.637,-38.574,-35.156,-72.266,0.000
1709374300.397,-36.621,-41.504,-37.109,-37.109,0.000
1709374300.401,-3.418,-43.457,-41.504,-15.137,0.000
1709374300.405,-39.551,-36.133,-38.574,-45.898,0.000
1709374300.409,-71.777,-32.715,-34.180,-68.848,0.000
1709374300.413,-62.012,-32.227,-34.180,-62.012,0.000
1709374300.417,-26.855,-35.645,-33.691,-30.273,0.000
1709374300.420,1.953,-42.480,-33.203,-5.859,0.000
1709374300.424,-23.438,-35.156,-32.715,-22.461,0.000
1709374300.428,-64.453,-34.668,-34.180,-48.828,0.000
1709374300.432,-66.406,-41.016,-34.668,-60.547,0.000
1709374300.436,-23.926,-37.598,-34.668,-35.156,0.000
1709374300.440,15.625,-35.156,-36.621,4.883,0.000
1709374300.444,-10.254,-37.109,-37.109,-14.160,0.000
1709374300.448,-50.781,-45.410,-38.574,-50.781,0.000
1709374300.452,-58.105,-40.527,-40.527,-57.617,0.000
1709374300.455,-34.180,-37.598,-42.480,-37.598,0.000
1709374300.459,14.648,-41.016,-43.457,0.977,0.000
1709374300.463,-0.977,-40.527,-40.527,-6.836,0.000
1709374300.467,-60.059,-44.922,-38.086,-40.527,0.000
1709374300.471,-68.848,-46.875,-36.621,-47.852,0.000
1709374300.475,-52.246,-41.992,-42.969,-45.410,0.000
1709374300.479,-4.395,-42.480,-47.852,-11.719,0.000
1709374300.483,-2.441,-41.016,-45.410,-13.672,0.000
1709374300.487,-57.617,-37.598,-40.527,-55.664,0.000
1709374300.490,-71.777,-37.109,-38.574,-63.477,0.000
1709374300.494,-45.410,-36.621,-40.039,-53.711,0.000
1709374300.498,-0.488,-37.109,-41.016,-17.578,0.000
1709374300.502,1.465,-34.180,-43.457,-9.766,0.000
1709374300.506,-39.062,-34.180,-45.410,-51.270,0.000
1709374300.510,-62.500,-34.180,-42.480,-66.406,0.000
1709374300.514,-49.805,-37.598,-38.086,-46.875,0.000
1709374300.518,-1.465,-39.062,-41.504,-7.324,0.000
1709374300.522,7.324,-27.344,-41.992,-6.348,0.000
1709374300.526,-38.574,-25.879,-40.039,-47.852,0.000
1709374300.529,-68.359,-31.738,-40.527,-63.965,0.000
1709374300.533,-48.828,-29.785,-37.109,-59.570,0.000
1709374300.538,1.465,-31.738,-35.645,-26.855,0.000
1709374300.542,15.137,-33.691,-34.180,-7.812,0.000
1709374300.546,-28.809,-29.785,-27.344,-39.551,0.000
1709374300.550,-59.570,-31.738,-30.762,-62.988,0.000
1709374300.553,-63.477,-37.109,-35.645,-59.082,0.000
1709374300.557,-25.391,-34.668,-33.691,-19.043,0.000
1709374300.561,5.371,-33.203,-29.785,14.160,0.000
1709374300.565,-32.715,-34.668,-28.320,-27.344,0.000
1709374300.569,-62.988,-32.227,-27.832,-60.547,0.000
1709374300.573,-58.594,-28.809,-32.227,-50.293,0.000
1709374300.577,-16.602,-33.203,-37.598,-20.508,0.000
1709374300.581,20.020,-33.691,-36.621,6.348,0.000
1709374300.585,-19.043,-30.762,-35.645,-21.973,0.000
1709374300.589,-62.012,-28.809,-39.551,-56.152,0.000
1709374300.593,-63.477,-25.879,-41.016,-54.199,0.000
1709374300.597,-23.438,-33.203,-43.457,-29.297,0.000
1709374300.601,19.531,-38.086,-42.969,1.465,0.000
1709374300.605,-18.066,-40.527,-40.039,-16.602,0.000
1709374300.608,-62.988,-44.922,-41.016,-46.387,0.000
1709374300.612,-63.965,-54.688,-37.109,-47.363,0.000
1709374300.616,-36.621,-57.129,-37.109,-26.855,0.000
1709374300.620,8.301,-47.363,-38.086,18.066,0.000
1709374300.624,-6.836,-40.527,-34.668,6.348,0.000
1709374300.628,-54.199,-38.086,-32.227,-43.457,0.000
1709374300.632,-60.547,-35.645,-34.180,-49.316,0.000
1709374300.636,-31.250,-36.133,-33.691,-34.180,0.000
1709374300.640,10.742,-37.109,-33.691,-0.488,0.000
1709374300.644,-0.977,-37.109,-36.133,-7.324,0.000
1709374300.648,-43.457,-38.574,-32.227,-48.340,0.000
1709374300.652,-62.500,-42.480,-31.250,-57.129,0.000
1709374300.655,-60.547,-43.945,-36.621,-42.969,0.000
1709374300.659,-20.020,-47.852,-41.016,-6.836,0.000
1709374300.663,-10.742,-42.480,-37.109,-4.395,0.000
1709374300.667,-53.711,-36.133,-36.133,-29.785,0.000
1709374300.671,-75.195,-43.457,-36.133,-57.617,0.000
1709374300.675,-59.570,-43.457,-30.273,-57.129,0.000
1709374300.679,-19.531,-39.551,-34.180,-20.020,0.000
1709374300.683,-10.742,-46.875,-42.480,-21.973,0.000
1709374300.687,-61.035,-42.480,-39.062,-60.059,0.000
1709374300.691,-84.961,-37.109,-34.180,-71.289,0.000
1709374300.695,-60.547,-46.875,-31.738,-48.828,0.000
1709374300.698,-6.836,-40.527,-29.297,-11.719,0.000
1709374300.702,8.789,-33.203,-30.762,-1.953,0.000
1709374300.706,-37.598,-34.668,-32.715,-42.969,0.000
1709374300.710,-57.129,-33.203,-26.855,-54.688,0.000
1709374300.714,-46.875,-29.297,-24.414,-40.527,0.000
1709374300.718,-14.160,-33.203,-32.227,-20.020,0.000
1709374300.722,9.766,-35.156,-32.227,-2.441,0.000
1709374300.726,-31.250,-39.062,-31.250,-39.551,0.000
1709374300.730,-65.918,-45.410,-35.645,-73.730,0.000
1709374300.734,-56.152,-39.062,-33.691,-64.941,0.000
1709374300.738,-21.484,-36.621,-35.645,-23.926,0.000
1709374300.741,9.277,-33.691,-39.062,7.812,0.000
1709374300.745,-20.508,-35.156,-35.156,-23.926,0.000
1709374300.749,-52.734,-39.062,-37.598,-57.129,0.000
1709374300.753,-48.828,-32.715,-39.551,-46.387,0.000
1709374300.757,-20.508,-32.715,-38.086,-13.184,0.000
1709374300.761,11.230,-42.969,-42.969,0.977,0.000
1709374300.765,-15.137,-34.668,-40.039,-24.902,0.000
1709374300.769,-54.199,-27.832,-38.086,-57.129,0.000
1709374300.773,-59.570,-33.203,-42.480,-67.383,0.000
1709374300.777,-33.691,-33.203,-43.945,-47.852,0.000
1709374300.780,3.418,-36.133,-43.945,-15.625,0.000
1709374300.784,-19.531,-41.016,-45.410,-30.273,0.000
1709374300.788,-69.824,-44.922,-46.875,-65.918,0.000
1709374300.792,-77.637,-50.781,-43.457,-72.754,0.000
1709374300.796,-54.688,-44.922,-44.434,-56.152,0.000
1709374300.800,-9.277,-41.016,-45.898,-17.578,0.000
1709374300.804,-21.484,-39.551,-39.551,-18.066,0.000
1709374300.808,-72.754,-41.992,-40.527,-60.059,0.000
1709374300.812,-75.195,-42.480,-39.062,-69.824,0.000
1709374300.816,-47.363,-37.598,-36.133,-42.969,0.000
1709374300.819,0.000,-37.109,-34.180,-7.324,0.000
1709374300.823,-7.812,-44.922,-33.691,-20.020,0.000
1709374300.827,-58.594,-42.969,-34.180,-65.430,0.000
1709374300.831,-71.289,-35.156,-33.203,-69.824,0.000
1709374300.835,-56.641,-40.527,-37.598,-54.688,0.000
1709374300.839,-14.160,-42.480,-41.016,-16.113,0.000
1709374300.843,-15.137,-39.551,-37.109,-7.812,0.000
1709374300.847,-68.359,-42.480,-35.156,-42.480,0.000
1709374300.851,-91.309,-43.457,-37.109,-62.500,0.000
1709374300.855,-67.383,-36.133,-33.203,-52.734,0.000
1709374300.859,-18.555,-40.039,-33.203,-10.254,0.000
1709374300.862,-9.277,-42.480,-31.738,8.301,0.000
1709374300.866,-56.152,-37.109,-33.203,-29.297,0.000
1709374300.870,-82.031,-39.551,-35.156,-58.594,0.000
1709374300.874,-69.824,-36.621,-32.715,-46.387,0.000
1709374300.878,-23.438,-31.738,-37.598,-12.207,0.000
1709374300.882,1.465,-34.180,-40.039,0.977,0.000
1709374300.886,-41.504,-32.227,-35.156,-32.715,0.000
1709374300.890,-76.172,-33.203,-36.621,-52.734,0.000
1709374300.893,-72.266,-35.645,-41.992,-44.922,0.000
1709374300.897,-30.762,-36.621,-43.945,-24.414,0.000
1709374300.901,0.488,-35.645,-40.527,-1.465,0.000
1709374300.905,-32.715,-31.250,-35.645,-25.391,0.000
1709374300.909,-66.895,-30.273,-41.504,-54.688,0.000
1709374300.913,-62.500,-37.598,-43.945,-58.105,0.000
1709374300.917,-20.996,-42.480,-41.504,-35.156,0.000
1709374300.921,22.461,-38.086,-43.457,-4.395,0.000
1709374300.925,-18.555,-34.180,-43.945,-30.273,0.000
1709374300.929,-72.266,-34.668,-45.410,-66.895,0.000
1709374300.932,-65.918,-34.668,-39.551,-55.176,0.000
1709374300.936,-22.949,-35.156,-37.109,-19.531,0.000
1709374300.940,13.184,-40.039,-38.574,3.418,0.000
1709374300.944,-19.531,-41.016,-35.156,-20.996,0.000
1709374300.948,-58.594,-39.062,-33.691,-55.176,0.000
1709374300.952,-59.082,-41.504,-36.621,-57.617,0.000
1709374300.956,-36.133,-41.992,-39.551,-32.227,0.000
1709374300.959,5.859,-40.527,-37.109,0.000,0.000
1709374300.963,-8.789,-50.781,-33.691,-21.973,0.000
1709374300.967,-59.082,-55.664,-39.062,-61.523,0.000
1709374300.971,-69.336,-41.504,-47.363,-68.359,0.000
1709374300.975,-45.410,-35.156,-46.875,-51.270,0.000
1709374300.979,-3.418,-37.598,-44.922,-21.484,0.000
1709374300.983,-11.719,-35.156,-46.387,-30.762,0.000
1709374300.987,-54.688,-34.180,-43.945,-66.895,0.000
1709374300.991,-71.777,-38.574,-41.992,-76.172,0.000
1709374300.994,-53.711,-42.969,-40.039,-55.664,0.000
1709374300.998,-0.977,-40.039,-39.062,-15.137,0.000
1709374301.002,-3.906,-39.062,-40.527,-23.926,0.000
1709374301.006,-58.594,-50.781,-42.969,-74.219,0.000
1709374301.010,-71.777,-45.410,-41.504,-84.961,0.000
1709374301.014,-49.805,-39.551,-38.574,-68.848,0.000
1709374301.018,-3.906,-40.527,-38.086,-32.715,0.000
1709374301.022,-3.906,-42.969,-42.969,-20.020,0.000
1709374301.026,-52.246,-48.828,-38.086,-51.758,0.000
1709374301.030,-63.477,-44.922,-36.133,-64.453,0.000
1709374301.034,-48.828,-34.180,-43.457,-58.105,0.000
1709374301.038,-8.301,-35.156,-41.504,-20.020,0.000
1709374301.042,2.930,-42.480,-35.645,0.488,0.000
1709374301.045,-43.945,-39.551,-31.738,-38.574,0.000
1709374301.049,-61.035,-41.016,-34.180,-55.664,0.000
1709374301.053,-58.105,-45.410,-34.180,-47.852,0.000
1709374301.057,-25.391,-44.922,-35.645,-23.438,0.000
1709374301.061,5.859,-43.457,-38.574,-3.418,0.000
1709374301.065,-28.320,-39.062,-34.668,-37.109,0.000
1709374301.069,-60.059,-35.645,-31.738,-65.430,0.000
1709374301.073,-59.082,-38.086,-33.691,-60.547,0.000
1709374301.077,-25.879,-43.457,-36.621,-33.203,0.000
1709374301.081,9.277,-43.457,-41.992,-6.348,0.000
1709374301.085,-25.391,-40.527,-37.109,-15.137,0.000
1709374301.088,-64.941,-39.062,-35.156,-39.062,0.000
1709374301.092,-60.059,-41.504,-37.598,-51.758,0.000
1709374301.096,-31.250,-42.969,-34.668,-25.879,0.000
1709374301.100,4.883,-41.016,-30.762,6.348,0.000
1709374301.104,-23.926,-41.016,-28.320,-16.113,0.000
1709374301.108,-63.965,-44.434,-31.738,-45.410,0.000
1709374301.112,-64.941,-39.551,-29.785,-47.363,0.000
1709374301.116,-33.691,-29.297,-28.809,-21.484,0.000
1709374301.120,14.160,-22.949,-29.297,12.207,0.000
1709374301.124,-8.301,-28.320,-31.738,-15.137,0.000
1709374301.128,-56.641,-29.785,-31.250,-50.781,0.000
1709374301.131,-73.242,-24.902,-27.344,-52.246,0.000
1709374301.135,-55.176,-30.273,-26.855,-48.340,0.000
1709374301.139,-7.324,-35.156,-29.785,-21.484,0.000
1709374301.143,-24.414,-33.691,-34.180,-35.645,0.000
1709374301.147,-79.102,-32.227,-37.598,-72.754,0.000
1709374301.151,-83.496,-32.227,-32.227,-73.242,0.000
1709374301.155,-50.781,-35.645,-31.250,-46.387,0.000
1709374301.159,1.465,-37.109,-33.691,-6.348,0.000
1709374301.163,-6.836,-42.480,-37.109,-17.578,0.000
1709374301.166,-54.688,-45.410,-37.109,-55.176,0.000
1709374301.170,-58.105,-39.062,-34.668,-61.035,0.000
1709374301.174,-46.875,-33.691,-35.156,-41.016,0.000
1709374301.178,-8.301,-32.227,-35.645,1.953,0.000
1709374301.182,6.836,-32.227,-40.527,0.000,0.000
1709374301.186,-37.109,-34.180,-41.016,-41.504,0.000
1709374301.190,-60.059,-38.086,-38.086,-56.641,0.000
1709374301.194,-44.434,-30.762,-35.645,-48.828,0.000
1709374301.198,2.441,-27.344,-37.598,-11.719,0.000
1709374301.201,16.602,-34.668,-40.039,4.883,0.000
1709374301.205,-36.621,-36.621,-37.598,-41.016,0.000
1709374301.209,-60.547,-37.109,-36.621,-69.336,0.000
1709374301.213,-42.969,-39.551,-39.551,-58.105,0.000
1709374301.217,-2.441,-33.203,-41.016,-19.531,0.000
1709374301.221,15.137,-28.809,-39.551,4.395,0.000
1709374301.225,-40.527,-31.738,-37.109,-40.039,0.000
1709374301.229,-76.172,-32.227,-35.156,-63.965,0.000
1709374301.233,-72.754,-36.133,-32.715,-55.176,0.000
1709374301.237,-30.273,-40.039,-27.832,-22.949,0.000
1709374301.240,8.301,-38.086,-30.273,4.883,0.000
1709374301.244,-36.621,-31.250,-31.738,-30.762,0.000
1709374301.248,-68.848,-33.203,-31.250,-58.105,0.000
1709374301.252,-60.059,-32.227,-31.250,-57.129,0.000
1709374301.256,-25.879,-38.574,-33.203,-30.273,0.000
1709374301.260,3.906,-50.293,-39.551,-7.812,0.000
1709374301.264,-31.250,-46.875,-31.250,-26.855,0.000
1709374301.268,-68.359,-43.945,-25.391,-49.805,0.000
1709374301.272,-67.871,-47.852,-30.762,-60.547,0.000
1709374301.275,-31.250,-47.852,-32.715,-41.992,0.000
1709374301.279,8.789,-45.410,-35.645,-5.371,0.000
1709374301.283,-7.324,-39.062,-31.738,-20.020,0.000
1709374301.287,0.000,-41.992,-30.273,-54.688,0.000
1709374301.291,0.000,-48.828,-34.180,-57.129,0.000
1709374301.295,0.000,-41.504,-39.551,-36.621,0.000
1709374301.299,0.000,-36.621,-40.039,-0.488,0.000
1709374301.302,0.000,-37.598,-36.621,-8.789,0.000
1709374301.306,0.000,-43.457,-35.156,-44.434,0.000
1709374301.310,0.000,-39.062,-29.297,-45.410,0.000
1709374301.314,0.000,-32.715,-26.367,-34.180,0.000
1709374301.318,0.000,-35.645,-34.180,-4.883,0.000
1709374301.322,0.000,-38.574,-41.016,-9.277,0.000
1709374301.326,0.000,-45.898,-39.551,-54.688,0.000
1709374301.330,0.000,-45.410,-36.621,-63.965,0.000
1709374301.333,-54.199,-43.945,-37.598,-47.363,0.000
1709374301.337,-5.859,-41.016,-39.551,-10.742,0.000
1709374301.341,2.441,-37.598,-37.598,-4.395,0.000
1709374301.345,-41.016,-34.668,-30.762,-39.062,0.000
1709374301.349,-61.523,-34.180,-34.180,-60.547,0.000
1709374301.353,-44.434,-35.156,-37.109,-50.781,0.000
1709374301.357,-0.488,-34.668,-35.156,-9.766,0.000
1709374301.361,7.812,-38.574,-37.109,-9.277,0.000
1709374301.364,-41.016,-39.551,-34.180,-46.875,0.000
1709374301.368,-68.359,-41.504,-36.133,-58.105,0.000
1709374301.372,-62.988,-41.992,-41.992,-60.059,0.000
1709374301.376,-14.648,-44.434,-41.504,-28.809,0.000
1709374301.380,20.996,-40.039,-34.668,5.371,0.000
1709374301.384,-23.438,-31.738,-33.691,-36.133,0.000
1709374301.388,-52.734,-28.809,-36.621,-64.453,0.000
1709374301.392,-43.457,-28.809,-33.203,-48.340,0.000
1709374301.396,-12.207,-30.762,-29.785,-14.648,0.000
1709374301.400,11.230,-31.738,-27.832,5.371,0.000
1709374301.404,-34.180,-34.668,-33.203,-37.598,0.000
1709374301.408,-75.195,-33.203,-39.062,-68.848,0.000
1709374301.412,-64.453,-36.133,-37.109,-62.012,0.000
1709374301.416,-27.344,-42.480,-37.598,-23.438,0.000
1709374301.419,-4.883,-44.922,-40.039,1.465,0.000
1709374301.423,-36.133,-40.527,-35.156,-25.391,0.000
1709374301.427,-68.848,-41.504,-30.273,-52.734,0.000
1709374301.431,-66.895,-46.387,-32.715,-54.688,0.000
1709374301.435,-19.043,-42.480,-36.621,-29.297,0.000
1709374301.439,23.438,-36.621,-36.133,2.930,0.000
1709374301.443,-18.555,-34.180,-35.645,-22.949,0.000
1709374301.447,-63.965,-40.527,-37.109,-49.805,0.000
1709374301.451,-57.617,-33.203,-37.598,-50.781,0.000
1709374301.455,-24.414,-29.297,-37.598,-36.621,0.000
1709374301.459,13.672,-35.156,-36.621,0.977,0.000
1709374301.463,-8.301,-35.156,-34.668,-11.230,0.000
1709374301.466,-52.246,-33.203,-36.133,-43.457,0.000
1709374301.470,-62.988,-35.156,-38.574,-49.805,0.000
1709374301.474,-41.016,-41.016,-37.598,-40.039,0.000
1709374301.478,7.812,-36.133,-36.621,-6.836,0.000
1709374301.482,-2.441,-34.668,-34.668,-16.113,0.000
1709374301.486,-44.922,-37.598,-29.297,-46.387,0.000
1709374301.490,-55.176,-41.504,-27.344,-51.758,0.000
1709374301.494,-41.504,-39.551,-28.809,-47.852,0.000
1709374301.498,4.395,-33.203,-32.227,-18.555,0.000
1709374301.502,-7.324,-38.086,-35.645,-12.207,0.000
1709374301.506,-57.617,-39.062,-32.715,-36.621,0.000
1709374301.509,-72.266,-35.156,-34.668,-64.941,0.000
1709374301.513,-58.594,-30.762,-37.598,-64.941,0.000
1709374301.517,-8.789,-27.344,-34.180,-19.531,0.000
1709374301.521,-6.836,-32.715,-37.598,-10.742,0.000
1709374301.525,-52.246,-33.691,-39.551,-51.270,0.000
1709374301.529,-62.500,-28.320,-36.621,-65.430,0.000
1709374301.533,-55.176,-32.227,-35.156,-57.129,0.000
1709374301.537,-14.648,-33.203,-35.645,-23.926,0.000
1709374301.541,7.812,-37.598,-38.574,-8.789,0.000
1709374301.545,-36.133,-40.039,-41.016,-51.270,0.000
1709374301.548,-64.453,-34.668,-39.062,-67.383,0.000
1709374301.552,-54.688,-35.156,-37.598,-54.199,0.000
1709374301.556,-13.184,-41.016,-40.527,-25.391,0.000
1709374301.560,8.789,-36.133,-37.109,-2.930,0.000
1709374301.564,-41.504,-33.203,-34.668,-36.133,0.000
1709374301.568,-76.660,-39.062,-39.551,-67.383,0.000
1709374301.572,-68.359,-43.457,-40.039,-66.406,0.000
1709374301.576,-24.414,-37.598,-36.621,-31.738,0.000
1709374301.580,8.789,-36.133,-41.016,-4.395,0.000
1709374301.583,-31.738,-40.527,-36.621,-36.133,0.000
1709374301.587,-71.777,-41.504,-32.227,-67.871,0.000
1709374301.591,-69.336,-35.645,-33.203,-66.895,0.000
1709374301.595,-29.785,-33.203,-30.762,-28.320,0.000
1709374301.599,15.625,-38.086,-28.809,2.930,0.000
1709374301.603,-15.137,-37.109,-30.273,-23.926,0.000
1709374301.607,-62.500,-27.832,-34.180,-55.664,0.000
1709374301.611,-66.406,-25.391,-33.691,-57.617,0.000
1709374301.615,-41.016,-34.180,-39.551,-42.480,0.000
1709374301.618,-2.930,-40.039,-46.387,-18.066,0.000
1709374301.622,-23.438,-38.574,-42.969,-36.133,0.000
1709374301.626,-61.523,-38.574,-41.016,-66.406,0.000
1709374301.630,-62.988,-41.016,-38.574,-67.383,0.000
1709374301.634,-42.969,-44.922,-37.109,-53.711,0.000
1709374301.638,3.418,-44.434,-40.527,-11.230,0.000
1709374301.642,-4.883,-41.992,-41.504,-16.113,0.000
1709374301.646,-51.758,-41.016,-35.645,-54.688,0.000
1709374301.650,-65.918,-41.504,-35.156,-60.547,0.000
1709374301.654,-49.805,-45.410,-41.016,-50.293,0.000
1709374301.657,-6.348,-45.898,-42.480,-13.672,0.000
1709374301.661,-17.090,-46.387,-41.992,-17.578,0.000
1709374301.665,-62.012,-45.410,-40.039,-52.734,0.000
1709374301.669,-67.383,-39.551,-38.574,-60.059,0.000
1709374301.673,-54.688,-41.992,-40.039,-53.223,0.000
1709374301.677,-3.418,-43.457,-36.133,-15.137,0.000
1709374301.681,5.371,-36.133,-29.785,5.859,0.000
1709374301.684,-48.340,-35.156,-30.273,-26.367,0.000
1709374301.688,-64.941,-37.109,-30.762,-50.293,0.000
1709374301.692,-56.641,-39.551,-31.738,-43.457,0.000
1709374301.696,-11.230,-41.992,-35.156,-14.160,0.000
1709374301.700,3.906,-38.574,-39.551,-6.348,0.000
1709374301.704,-49.316,-34.668,-41.992,-43.457,0.000
1709374301.708,-72.754,-37.598,-37.598,-67.871,0.000
1709374301.711,-50.293,-41.992,-36.621,-64.941,0.000
1709374301.715,-12.695,-41.016,-40.527,-28.320,0.000
1709374301.719,5.859,-35.645,-38.086,-12.695,0.000
1709374301.723,-35.645,-34.180,-35.645,-48.340,0.000
1709374301.727,-67.871,-38.086,-34.180,-64.453,0.000
1709374301.731,-56.641,-41.016,-36.621,-66.895,0.000
1709374301.735,-27.832,-37.598,-39.551,-41.504,0.000
1709374301.739,-7.812,-37.598,-37.598,-15.625,0.000
1709374301.743,-44.434,-37.598,-34.180,-45.410,0.000
1709374301.747,-71.777,-32.715,-39.551,-70.312,0.000
1709374301.751,-59.570,-33.691,-38.574,-70.312,0.000
1709374301.755,-37.598,-42.969,-37.598,-46.387,0.000
1709374301.759,-15.625,-44.922,-43.945,-15.625,0.000
1709374301.763,-45.898,-40.527,-39.551,-32.715,0.000
1709374301.767,-80.566,-37.598,-33.203,-64.941,0.000
1709374301.771,-79.590,-41.016,-35.156,-68.359,0.000
1709374301.775,-47.363,-43.945,-33.691,-36.621,0.000
1709374301.779,-4.883,-37.598,-35.156,-2.441,0.000
1709374301.783,-32.715,-34.668,-37.109,-33.691,0.000
1709374301.786,-79.102,-39.062,-34.668,-67.383,0.000
1709374301.790,-81.055,-35.645,-35.156,-58.105,0.000
1709374301.794,-51.758,-29.785,-32.227,-36.621,0.000
1709374301.798,-7.324,-35.156,-30.762,-6.836,0.000
1709374301.802,-18.555,-42.969,-31.250,-20.508,0.000
1709374301.806,-60.059,-40.039,-31.250,-51.758,0.000
1709374301.810,-69.824,-41.992,-37.109,-68.359,0.000
1709374301.814,-52.246,-46.387,-48.340,-54.199,0.000
1709374301.818,-3.906,-38.086,-46.875,-1.465,0.000
1709374301.822,-8.301,-33.203,-38.086,-6.836,0.000
1709374301.826,-55.176,-33.203,-40.039,-52.246,0.000
1709374301.830,-67.871,-30.273,-41.016,-62.988,0.000
1709374301.833,-43.457,-30.762,-36.621,-34.668,0.000
1709374301.837,-1.953,-35.156,-35.645,5.859,0.000
1709374301.841,-2.441,-35.156,-36.133,-6.836,0.000
1709374301.845,-48.340,-38.086,-28.809,-47.363,0.000
1709374301.849,-67.383,-34.668,-26.855,-59.570,0.000
1709374301.853,-50.781,-36.621,-30.762,-49.316,0.000
1709374301.857,-1.465,-35.156,-26.855,-10.254,0.000
1709374301.861,10.254,-27.344,-32.227,-4.883,0.000
1709374301.865,-43.457,-28.320,-37.109,-49.805,0.000
1709374301.869,-65.918,-25.879,-31.738,-65.918,0.000
1709374301.873,-55.176,-25.391,-35.645,-56.641,0.000
1709374301.877,-7.812,-24.414,-36.133,-22.461,0.000
1709374301.881,11.719,-20.996,-29.297,3.906,0.000
1709374301.884,-38.086,-28.809,-33.203,-39.551,0.000
1709374301.888,-60.059,-30.762,-32.227,-63.965,0.000
1709374301.892,-43.457,-28.320,-28.809,-48.828,0.000
1709374301.896,-8.301,-41.016,-39.062,-23.926,0.000
1709374301.900,15.137,-43.457,-39.062,-3.418,0.000
1709374301.904,-28.809,-34.180,-29.785,-28.809,0.000
1709374301.908,-65.430,-31.738,-30.762,-53.711,0.000
1709374301.912,-57.129,-33.203,-32.227,-50.293,0.000
1709374301.916,-19.531,-34.180,-32.715,-18.555,0.000
1709374301.920,8.789,-33.203,-32.715,3.906,0.000
1709374301.923,-20.996,-33.203,-31.250,-29.785,0.000
1709374301.927,-56.152,-31.250,-28.809,-53.711,0.000
1709374301.931,-62.500,-32.715,-30.273,-54.199,0.000
1709374301.935,-27.832,-35.645,-35.156,-32.227,0.000
1709374301.939,6.348,-37.109,-35.156,-4.395,0.000
1709374301.943,-30.273,-37.598,-32.715,-26.367,0.000
1709374301.947,-71.777,-34.180,-35.156,-59.082,0.000
1709374301.951,-68.359,-33.203,-37.109,-66.406,0.000
1709374301.955,-31.738,-34.180,-39.551,-44.434,0.000
1709374301.958,11.719,-36.621,-40.527,-6.836,0.000
1709374301.962,-11.230,-36.621,-41.504,-30.762,0.000
1709374301.966,-64.941,-33.691,-40.527,-64.941,0.000
1709374301.970,-76.660,-32.715,-37.598,-54.199,0.000
1709374301.974,-46.387,-32.227,-39.551,-40.039,0.000
1709374301.978,-0.977,-33.203,-39.062,-14.160,0.000
1709374301.982,-13.672,-38.086,-36.621,-23.926,0.000
1709374301.986,-61.035,-38.574,-36.621,-58.105,0.000
1709374301.990,-71.777,-36.133,-36.133,-63.477,0.000
1709374301.993,-45.898,-32.715,-31.738,-41.992,0.000
1709374301.997,9.766,-35.645,-31.738,-1.465,0.000
1709374302.001,5.371,-34.668,-30.273,-6.348,0.000
1709374302.005,-46.387,-37.598,-30.273,-48.340,0.000
1709374302.009,-60.059,-49.316,-35.645,-67.871,0.000
1709374302.013,-46.875,-41.992,-35.156,-53.711,0.000
1709374302.017,-5.859,-37.109,-38.086,-14.160,0.000
1709374302.021,-5.371,-46.387,-39.062,-14.648,0.000
1709374302.025,-57.129,-44.922,-36.133,-50.781,0.000
1709374302.029,-73.730,-40.039,-37.109,-68.848,0.000
1709374302.032,-49.805,-36.133,-32.227,-60.547,0.000
1709374302.036,-0.488,-36.133,-33.691,-20.508,0.000
1709374302.040,9.766,-38.086,-36.621,-11.719,0.000
1709374302.044,-45.410,-31.738,-31.250,-45.898,0.000
1709374302.048,-70.312,-28.809,-30.273,-59.570,0.000
1709374302.052,-56.152,-35.156,-34.180,-53.711,0.000
1709374302.056,-1.953,-35.645,-32.715,-13.672,0.000
1709374302.060,25.391,-31.250,-32.227,10.254,0.000
1709374302.063,-34.180,-33.691,-31.738,-31.738,0.000
1709374302.067,-66.406,-38.086,-31.738,-61.035,0.000
1709374302.071,-54.688,-40.039,-36.621,-52.246,0.000
1709374302.075,-26.367,-38.086,-38.574,-16.113,0.000
1709374302.079,-6.836,-40.527,-41.504,0.000,0.000
1709374302.083,-42.969,-45.898,-40.527,-40.527,0.000
1709374302.087,-76.660,-47.852,-37.109,-58.105,0.000
1709374302.090,-75.195,-41.992,-39.551,-50.781,0.000
1709374302.094,-33.203,-37.598,-40.527,-28.320,0.000
1709374302.098,-1.465,-38.086,-34.668,0.977,0.000
1709374302.102,-34.180,-40.039,-31.250,-23.926,0.000
1709374302.106,-63.965,-35.645,-33.203,-57.617,0.000
1709374302.110,-57.617,-31.738,-32.715,-55.664,0.000
1709374302.114,-19.531,-35.645,-35.156,-26.855,0.000
1709374302.118,21.973,-36.133,-35.156,14.160,0.000
1709374302.122,-7.324,-33.203,-30.762,-13.672,0.000
1709374302.126,-54.688,-35.156,-33.203,-54.688,0.000
1709374302.130,-62.012,-40.527,-33.691,-53.223,0.000
1709374302.134,-33.203,-38.574,-29.785,-27.344,0.000
1709374302.138,7.324,-37.598,-32.715,4.883,0.000
1709374302.141,-8.301,-39.062,-34.668,-17.090,0.000
1709374302.145,-49.316,-44.922,-30.273,-42.480,0.000
1709374302.149,-57.129,-40.527,-33.691,-50.293,0.000
1709374302.153,-30.273,-32.227,-38.574,-49.805,0.000
1709374302.157,9.277,-36.621,-40.527,-13.184,0.000
1709374302.161,-11.719,-40.039,-37.598,-13.184,0.000
1709374302.165,-63.477,-40.039,-36.133,-47.852,0.000
1709374302.169,-77.148,-41.992,-44.434,-71.289,0.000
1709374302.173,-56.641,-41.504,-44.434,-57.129,0.000
1709374302.177,-2.441,-38.086,-40.527,-9.766,0.000
1709374302.181,-1.465,-37.598,-41.992,-13.672,0.000
1709374302.185,-51.758,-41.504,-41.016,-53.711,0.000
1709374302.189,-67.871,-41.992,-39.062,-67.871,0.000
1709374302.192,-49.316,-39.062,-38.574,-60.059,0.000
1709374302.196,-2.441,-41.504,-46.387,-19.531,0.000
1709374302.200,3.418,-41.992,-41.504,-10.742,0.000
1709374302.204,-46.387,-49.805,-36.621,-47.363,0.000
1709374302.208,-70.312,-48.828,-37.598,-56.641,0.000
1709374302.212,-60.547,-43.457,-38.086,-56.152,0.000
1709374302.216,-17.578,-44.922,-41.016,-32.227,0.000
1709374302.220,-1.465,-38.086,-39.551,-12.207,0.000
1709374302.224,-50.781,-37.109,-38.086,-46.387,0.000
1709374302.228,-72.754,-34.668,-36.133,-63.965,0.000
1709374302.232,-60.547,-27.832,-31.250,-49.805,0.000
1709374302.236,-23.438,-30.762,-31.738,-18.555,0.000
1709374302.239,4.395,-29.297,-30.273,-1.465,0.000
1709374302.243,-34.668,-29.785,-29.785,-37.109,0.000
1709374302.247,-68.359,-29.785,-28.320,-58.105,0.000
1709374302.251,-61.035,-27.832,-25.879,-50.293,0.000
1709374302.255,-18.555,-34.180,-30.762,-14.648,0.000
1709374302.259,10.254,-38.086,-36.621,3.418,0.000
1709374302.263,-31.250,-38.574,-37.109,-30.762,0.000
1709374302.267,-65.918,-33.691,-34.180,-52.246,0.000
1709374302.271,-62.500,-33.203,-32.715,-44.434,0.000
1709374302.275,-31.250,-37.109,-32.715,-15.625,0.000
1709374302.278,7.812,-43.945,-36.133,1.465,0.000
1709374302.282,-21.484,-44.434,-37.109,-32.227,0.000
1709374302.286,-60.547,-35.645,-35.645,-63.477,0.000
1709374302.290,-61.035,-38.086,-38.086,-70.801,0.000
1709374302.294,-34.180,-37.109,-40.527,-48.340,0.000
1709374302.298,15.137,-31.738,-38.086,-4.395,0.000
1709374302.302,-3.418,-30.762,-36.621,-20.996,0.000
1709374302.306,-47.852,-30.762,-35.645,-65.430,0.000
1709374302.310,-48.828,-28.809,-34.180,-70.801,0.000
1709374302.314,-22.461,-33.203,-37.598,-44.922,0.000
