timestamps,TP9,AF7,AF8,TP10,Right AUX
1709297814.636,-33.691,-33.203,-45.898,-40.527,0.000
1709297814.640,-40.039,-35.645,-42.969,-54.199,0.000
1709297814.644,-44.922,-35.645,-44.922,-59.082,0.000
1709297814.648,-39.551,-31.738,-44.922,-50.293,0.000
1709297814.651,-27.344,-31.250,-37.598,-35.156,0.000
1709297814.655,-20.996,-32.715,-38.086,-32.715,0.000
1709297814.659,-26.855,-29.785,-41.992,-31.738,0.000
1709297814.663,-40.039,-28.809,-39.551,-30.273,0.000
1709297814.667,-36.621,-26.367,-34.668,-30.762,0.000
1709297814.671,-31.250,-29.785,-34.668,-14.160,0.000
1709297814.675,-34.180,-35.645,-33.203,-17.090,0.000
1709297814.679,-39.551,-33.203,-36.133,-38.574,0.000
1709297814.683,-44.922,-32.227,-37.598,-39.551,0.000
1709297814.687,-54.199,-38.086,-38.086,-28.809,0.000
1709297814.691,-51.270,-41.016,-39.551,-22.949,0.000
1709297814.694,-36.621,-38.086,-41.016,-26.855,0.000
1709297814.698,-40.527,-33.691,-41.016,-32.227,0.000
1709297814.702,-50.293,-30.762,-39.551,-30.762,0.000
1709297814.706,-48.340,-32.227,-42.480,-27.832,0.000
1709297814.710,-33.691,-29.785,-41.992,-24.902,0.000
1709297814.714,-26.367,-28.809,-42.480,-24.902,0.000
1709297814.718,-29.297,-32.227,-43.945,-38.574,0.000
1709297814.722,-36.621,-30.762,-41.504,-46.387,0.000
1709297814.726,-43.457,-30.762,-39.551,-45.410,0.000
1709297814.730,-43.457,-37.109,-43.457,-39.551,0.000
1709297814.733,-35.156,-36.621,-44.922,-33.203,0.000
1709297814.737,-36.621,-32.227,-44.434,-48.828,0.000
1709297814.741,-47.852,-30.273,-45.410,-51.758,0.000
1709297814.745,-54.688,-31.250,-43.457,-37.598,0.000
1709297814.749,-50.293,-29.297,-40.527,-22.949,0.000
1709297814.753,-40.039,-26.855,-38.574,-21.973,0.000
1709297814.757,-44.922,-32.715,-39.062,-30.762,0.000
1709297814.761,-59.082,-36.621,-39.551,-37.598,0.000
1709297814.765,-62.012,-36.133,-44.434,-38.086,0.000
1709297814.769,-55.176,-37.598,-47.363,-30.273,0.000
1709297814.773,-50.781,-34.180,-48.340,-29.297,0.000
1709297814.776,-48.828,-37.598,-53.223,-33.691,0.000
1709297814.780,-61.523,-38.086,-53.711,-42.969,0.000
1709297814.784,-73.730,-35.645,-51.758,-47.852,0.000
1709297814.788,-69.824,-38.086,-52.246,-38.086,0.000
1709297814.792,-57.617,-35.645,-50.293,-28.809,0.000
1709297814.796,-53.223,-34.668,-47.852,-45.410,0.000
1709297814.800,-60.059,-33.203,-45.410,-60.059,0.000
1709297814.804,-68.848,-30.762,-43.457,-53.223,0.000
1709297814.808,-65.430,-31.738,-45.410,-31.250,0.000
1709297814.812,-46.387,-29.785,-40.527,-13.184,0.000
1709297814.816,-36.133,-23.926,-34.668,-24.414,0.000
1709297814.819,-44.434,-25.391,-43.945,-48.828,0.000
1709297814.823,-51.758,-30.273,-47.363,-54.688,0.000
1709297814.827,-55.176,-32.227,-43.457,-42.969,0.000
1709297814.831,-44.434,-29.297,-42.480,-27.344,0.000
1709297814.835,-38.574,-31.250,-43.457,-23.438,0.000
1709297814.839,-52.246,-37.109,-44.434,-39.551,0.000
1709297814.843,-60.547,-35.645,-47.363,-46.875,0.000
1709297814.847,-55.664,-32.227,-48.828,-42.969,0.000
1709297814.851,-44.434,-31.738,-51.270,-41.992,0.000
1709297814.855,-38.086,-27.832,-52.734,-38.086,0.000
1709297814.858,-37.109,-24.414,-50.781,-47.852,0.000
1709297814.862,-44.434,-29.785,-49.316,-49.316,0.000
1709297814.866,-43.457,-33.203,-51.758,-33.203,0.000
1709297814.870,0.000,-29.785,-52.246,-24.902,0.000
1709297814.874,0.000,-34.668,-49.316,-29.785,0.000
1709297814.878,0.000,-37.109,-49.316,-41.992,0.000
1709297814.882,0.000,-32.715,-51.270,-41.016,0.000
1709297814.886,0.000,-32.227,-50.781,-31.738,0.000
1709297814.890,0.000,-32.227,-46.875,-16.602,0.000
1709297814.894,0.000,-33.691,-45.410,-15.137,0.000
1709297814.898,0.000,-35.645,-45.898,-20.020,0.000
1709297814.901,0.000,-30.762,-42.480,-24.414,0.000
1709297814.905,0.000,-31.250,-38.574,-33.203,0.000
1709297814.909,0.000,-32.227,-36.621,-20.996,0.000
1709297814.913,0.000,-29.297,-33.691,-3.906,0.000
1709297814.917,-35.645,-25.391,-32.227,-13.184,0.000
1709297814.921,-48.340,-25.391,-36.621,-38.086,0.000
1709297814.925,-53.223,-26.367,-40.527,-34.668,0.000
1709297814.929,-40.039,-22.461,-38.574,-17.578,0.000
1709297814.933,-31.738,-22.461,-37.598,-20.020,0.000
1709297814.937,-36.621,-25.879,-42.480,-35.156,0.000
1709297814.941,-38.086,-26.855,-41.504,-42.480,0.000
1709297814.944,-40.527,-24.414,-37.598,-36.621,0.000
1709297814.948,-40.527,-22.949,-42.480,-30.762,0.000
1709297814.952,-25.879,-25.391,-41.016,-26.855,0.000
1709297814.956,-21.973,-30.762,-35.156,-27.832,0.000
1709297814.960,-38.086,-35.156,-38.574,-38.086,0.000
1709297814.964,-42.480,-37.109,-41.016,-47.852,0.000
1709297814.968,-37.598,-37.109,-41.504,-39.551,0.000
1709297814.972,-29.297,-35.156,-41.016,-29.297,0.000
1709297814.976,-14.648,-27.832,-34.668,-32.227,0.000
1709297814.980,-28.809,-28.320,-33.203,-41.016,0.000
1709297814.983,-45.410,-31.250,-38.086,-41.504,0.000
1709297814.987,-38.574,-28.320,-38.574,-20.996,0.000
1709297814.991,-26.855,-26.855,-38.086,2.930,0.000
1709297814.995,-14.648,-28.809,-39.551,-8.789,0.000
1709297814.999,-24.414,-31.250,-42.969,-28.320,0.000
1709297815.003,-44.434,-34.180,-45.410,-32.715,0.000
1709297815.007,-51.758,-39.062,-47.852,-27.344,0.000
1709297815.011,-40.527,-38.086,-48.340,-16.113,0.000
1709297815.015,-31.738,-35.645,-44.922,-17.578,0.000
1709297815.019,-41.504,-32.227,-43.457,-32.227,0.000
1709297815.023,-47.363,-27.832,-42.969,-40.527,0.000
1709297815.026,-50.781,-25.391,-39.062,-25.879,0.000
1709297815.030,-47.363,-22.949,-37.109,-15.625,0.000
1709297815.034,-37.109,-23.438,-41.504,-10.742,0.000
1709297815.038,-37.598,-25.391,-42.480,-19.043,0.000
1709297815.042,-46.387,-21.484,-41.992,-27.344,0.000
1709297815.046,-49.805,-24.902,-45.410,-27.832,0.000
1709297815.050,-40.527,-28.320,-44.922,-27.832,0.000
1709297815.054,-33.691,-26.855,-41.016,-25.879,0.000
1709297815.058,-38.086,-27.832,-37.109,-34.668,0.000
1709297815.062,-51.270,-28.809,-42.480,-42.969,0.000
1709297815.065,-57.617,-24.902,-44.922,-37.109,0.000
1709297815.069,-52.734,-26.855,-44.434,-32.715,0.000
1709297815.073,-45.898,-30.273,-44.434,-37.109,0.000
1709297815.077,-45.410,-30.273,-42.480,-30.762,0.000
1709297815.081,-48.340,-29.297,-40.527,-30.762,0.000
1709297815.085,-47.852,-31.738,-41.016,-37.598,0.000
1709297815.089,-43.945,-32.715,-38.574,-28.809,0.000
1709297815.093,-38.086,-32.715,-35.645,-15.625,0.000
1709297815.097,-42.969,-35.156,-39.551,-29.785,0.000
1709297815.101,-49.316,-34.180,-41.992,-50.293,0.000
1709297815.105,-50.781,-30.762,-42.480,-47.363,0.000
1709297815.108,-49.805,-34.180,-47.852,-46.875,0.000
1709297815.112,-32.227,-36.133,-45.410,-42.969,0.000
1709297815.116,-23.926,-35.156,-44.922,-42.480,0.000
1709297815.120,-35.645,-39.551,-43.457,-48.828,0.000
1709297815.124,-50.781,-40.039,-39.551,-54.199,0.000
1709297815.128,-51.758,-33.203,-41.504,-50.293,0.000
1709297815.132,-35.645,-28.809,-37.109,-49.316,0.000
1709297815.136,-24.902,-32.715,-40.527,-51.270,0.000
1709297815.140,-41.504,-35.645,-48.340,-48.828,0.000
1709297815.144,-51.270,-29.785,-43.457,-51.270,0.000
1709297815.147,-50.293,-30.273,-45.898,-51.270,0.000
1709297815.151,-46.387,-31.738,-51.270,-40.527,0.000
1709297815.155,-29.297,-30.273,-47.363,-39.062,0.000
1709297815.159,-33.203,-28.320,-44.434,-48.340,0.000
1709297815.163,-42.969,-21.973,-40.039,-45.410,0.000
1709297815.167,-33.691,-23.926,-38.574,-37.598,0.000
1709297815.171,-21.484,-22.949,-45.410,-36.621,0.000
1709297815.175,-15.625,-20.996,-45.410,-42.480,0.000
1709297815.179,-21.973,-24.902,-42.969,-51.758,0.000
1709297815.183,-43.457,-27.832,-42.969,-51.758,0.000
1709297815.187,-48.828,-24.902,-41.016,-43.457,0.000
1709297815.190,-32.227,-23.438,-43.945,-43.945,0.000
1709297815.194,-26.855,-26.855,-45.898,-44.922,0.000
1709297815.198,-37.109,-30.273,-43.457,-50.781,0.000
1709297815.202,-42.480,-31.738,-39.062,-55.664,0.000
1709297815.206,-45.898,-31.738,-38.086,-48.340,0.000
1709297815.210,-39.062,-34.180,-42.480,-36.621,0.000
1709297815.214,-30.273,-34.668,-43.945,-36.621,0.000
1709297815.218,-43.457,-35.156,-47.363,-53.223,0.000
1709297815.222,-48.340,-35.156,-47.852,-59.082,0.000
1709297815.226,-42.480,-34.668,-41.992,-47.363,0.000
1709297815.230,-36.621,-32.715,-43.945,-26.367,0.000
1709297815.233,-27.344,-31.738,-46.387,-25.879,0.000
1709297815.237,-31.250,-33.203,-44.434,-41.016,0.000
1709297815.241,-47.852,-32.715,-45.410,-47.852,0.000
1709297815.245,-52.246,-31.250,-45.410,-46.875,0.000
1709297815.249,-43.457,-32.715,-42.480,-34.180,0.000
1709297815.253,-32.715,-35.156,-42.969,-31.250,0.000
1709297815.257,-30.273,-34.668,-40.527,-28.809,0.000
1709297815.261,-35.156,-30.762,-39.062,-33.691,0.000
1709297815.265,-39.551,-31.738,-44.434,-40.039,0.000
1709297815.269,-28.809,-32.227,-41.016,-31.250,0.000
1709297815.272,-21.973,-33.691,-43.457,-24.414,0.000
1709297815.276,-33.691,-35.645,-47.363,-27.344,0.000
1709297815.280,-41.016,-30.762,-42.480,-40.039,0.000
1709297815.284,-41.992,-28.809,-38.574,-40.039,0.000
1709297815.288,-38.086,-31.250,-36.133,-31.738,0.000
1709297815.292,-30.762,-33.691,-38.574,-29.297,0.000
1709297815.296,-27.344,-33.691,-38.574,-30.273,0.000
1709297815.300,-37.109,-32.227,-39.062,-37.598,0.000
1709297815.304,-47.363,-33.691,-42.480,-37.598,0.000
1709297815.308,-44.922,-31.738,-38.574,-30.273,0.000
1709297815.312,-40.039,-32.715,-34.668,-21.484,0.000
1709297815.315,-33.691,-37.109,-38.574,-23.926,0.000
1709297815.319,-34.180,-35.156,-42.969,-38.086,0.000
1709297815.323,-38.086,-31.738,-42.480,-38.086,0.000
1709297815.327,-37.109,-30.762,-39.551,-35.645,0.000
1709297815.331,-30.273,-34.180,-45.410,-40.527,0.000
1709297815.335,-25.391,-35.645,-50.293,-44.922,0.000
1709297815.339,-35.156,-36.133,-47.852,-52.246,0.000
1709297815.343,-44.922,-37.598,-50.781,-49.805,0.000
1709297815.347,-40.527,-34.180,-48.340,-29.297,0.000
1709297815.351,-26.855,-33.691,-45.898,-22.461,0.000
1709297815.355,-11.719,-40.039,-50.293,-28.320,0.000
1709297815.358,-8.789,-34.668,-45.410,-30.762,0.000
1709297815.362,-24.414,-29.785,-44.922,-37.598,0.000
1709297815.366,-32.227,-37.598,-50.781,-29.297,0.000
1709297815.370,-23.438,-38.086,-48.340,-26.855,0.000
1709297815.374,-17.090,-31.738,-45.898,-31.250,0.000
1709297815.378,-23.926,-30.762,-46.387,-37.598,0.000
1709297815.382,-41.016,-31.738,-45.898,-43.945,0.000
1709297815.386,-41.992,-30.273,-44.434,-35.156,0.000
1709297815.390,-26.855,-28.809,-42.969,-23.926,0.000
1709297815.394,-28.809,-29.785,-44.922,-27.832,0.000
1709297815.397,-32.715,-30.273,-49.316,-33.203,0.000
1709297815.401,-38.574,-31.738,-49.316,-36.133,0.000
1709297815.405,-51.758,-34.668,-47.363,-40.527,0.000
1709297815.409,-45.410,-39.062,-47.852,-27.832,0.000
1709297815.413,-31.250,-39.551,-47.852,-18.555,0.000
1709297815.417,-38.086,-34.668,-50.293,-40.527,0.000
1709297815.421,-52.734,-32.715,-51.270,-56.152,0.000
1709297815.425,-60.547,-32.715,-45.898,-43.457,0.000
1709297815.429,-58.105,-35.645,-43.945,-36.133,0.000
1709297815.433,-33.691,-34.180,-50.293,-39.551,0.000
1709297815.436,-23.438,-26.367,-50.781,-40.039,0.000
1709297815.440,-40.039,-29.785,-48.340,-36.621,0.000
1709297815.444,-51.270,-33.691,-50.293,-34.668,0.000
1709297815.448,-47.363,-33.203,-49.805,-35.645,0.000
1709297815.452,-41.992,-38.086,-46.875,-24.414,0.000
1709297815.456,-40.527,-38.086,-47.852,-23.926,0.000
1709297815.460,-46.387,-31.738,-48.828,-38.574,0.000
1709297815.464,-53.711,-36.621,-45.410,-42.480,0.000
1709297815.468,-55.176,-36.621,-41.016,-38.086,0.000
1709297815.472,-46.387,-32.715,-41.992,-32.227,0.000
1709297815.476,-35.645,-30.762,-41.504,-35.156,0.000
1709297815.479,-40.527,-30.273,-39.062,-45.898,0.000
1709297815.483,-50.781,-33.203,-41.992,-43.945,0.000
1709297815.487,-51.270,-35.156,-43.945,-36.621,0.000
1709297815.491,-42.480,-39.551,-46.387,-42.480,0.000
1709297815.495,-47.852,-40.527,-46.387,-48.340,0.000
1709297815.499,-59.082,-38.086,-45.898,-52.734,0.000
1709297815.503,-61.523,-37.109,-42.480,-45.410,0.000
1709297815.507,-59.082,-36.621,-43.945,-37.109,0.000
1709297815.511,-47.363,-34.668,-47.363,-30.762,0.000
1709297815.515,-36.621,-31.250,-41.992,-21.484,0.000
1709297815.519,-38.086,-27.344,-37.598,-30.273,0.000
1709297815.522,-49.805,-27.832,-36.133,-36.621,0.000
1709297815.526,-55.176,-27.344,-36.621,-33.691,0.000
1709297815.530,-48.340,-29.297,-38.574,-28.809,0.000
1709297815.534,-34.668,-32.715,-36.133,-30.762,0.000
1709297815.538,-38.086,-33.691,-36.621,-47.852,0.000
1709297815.542,-49.805,-35.156,-42.480,-52.246,0.000
1709297815.546,-53.711,-31.738,-42.969,-33.691,0.000
1709297815.550,-44.922,-32.715,-41.016,-23.438,0.000
1709297815.554,-32.715,-33.691,-39.062,-24.414,0.000
1709297815.558,-38.574,-33.691,-36.133,-27.832,0.000
1709297815.561,-53.223,-30.762,-31.738,-32.227,0.000
1709297815.565,-55.176,-32.715,-34.668,-42.969,0.000
1709297815.569,-50.293,-40.039,-41.504,-48.340,0.000
1709297815.573,-35.156,-31.250,-40.527,-39.551,0.000
1709297815.577,-35.645,-23.438,-35.156,-33.203,0.000
1709297815.581,-59.082,-26.855,-35.156,-37.598,0.000
1709297815.585,-58.594,-27.832,-36.133,-35.645,0.000
1709297815.589,-47.852,-31.738,-37.109,-34.180,0.000
1709297815.593,-35.645,-34.180,-39.551,-29.785,0.000
1709297815.597,-29.297,-28.320,-39.551,-29.785,0.000
1709297815.601,-44.922,-30.273,-42.969,-53.711,0.000
1709297815.604,-58.105,-38.574,-42.969,-42.969,0.000
1709297815.608,-50.781,-38.086,-41.016,-5.859,0.000
1709297815.612,-45.898,-33.691,-46.875,-23.926,0.000
1709297815.616,-51.270,-33.691,-46.875,-51.758,0.000
1709297815.620,-32.715,-33.691,-40.039,-71.289,0.000
1709297815.624,-52.734,-33.691,-39.551,-74.707,0.000
1709297815.628,-95.703,-38.574,-40.039,-51.758,0.000
1709297815.632,-83.008,-38.086,-37.109,-30.762,0.000
1709297815.636,-83.008,-39.551,-37.109,-9.277,0.000
1709297815.640,-98.633,-39.062,-40.527,-3.906,0.000
1709297815.644,-102.051,-35.645,-37.598,6.836,0.000
1709297815.647,-98.633,-33.691,-36.621,20.020,0.000
1709297815.651,-84.961,-31.250,-39.551,17.578,0.000
1709297815.655,-81.543,-35.645,-40.527,9.277,0.000
1709297815.659,-99.609,-35.156,-42.480,13.184,0.000
1709297815.663,-104.980,-26.367,-41.992,23.438,0.000
1709297815.667,-94.727,-26.855,-39.062,6.836,0.000
1709297815.671,-84.473,-29.297,-40.039,-1.953,0.000
1709297815.675,-80.078,-28.320,-43.945,-2.930,0.000
1709297815.679,-78.613,-25.391,-37.598,-20.020,0.000
1709297815.683,-87.891,-27.832,-34.180,-32.715,0.000
1709297815.686,-98.145,-30.273,-36.133,-32.715,0.000
1709297815.690,-69.824,-30.762,-34.180,-5.859,0.000
1709297815.694,-43.945,-30.273,-32.227,17.578,0.000
1709297815.698,-62.500,-18.555,-35.156,-25.879,0.000
1709297815.702,-82.031,-9.766,-41.504,-63.965,0.000
1709297815.706,-72.754,-9.277,-43.945,-45.410,0.000
1709297815.710,-45.410,-1.465,-43.457,-33.203,0.000
1709297815.714,-26.855,5.859,-51.270,-41.504,0.000
1709297815.718,-32.227,11.719,-59.082,-48.828,0.000
1709297815.722,-43.945,19.043,-68.359,-54.688,0.000
1709297815.726,-33.203,26.855,-67.871,-45.898,0.000
1709297815.729,-26.367,36.621,-66.406,-19.043,0.000
1709297815.733,-23.438,44.922,-70.312,-43.457,0.000
1709297815.737,-12.207,50.781,-78.613,-83.008,0.000
1709297815.741,-9.766,57.617,-83.008,-56.641,0.000
1709297815.745,-6.836,65.430,-80.078,-51.270,0.000
1709297815.749,1.953,72.754,-79.102,-47.852,0.000
1709297815.753,13.184,76.172,-81.055,-39.551,0.000
1709297815.757,17.578,76.172,-81.055,-46.387,0.000
1709297815.761,5.859,78.125,-83.008,-53.711,0.000
1709297815.765,6.348,81.055,-90.820,-54.688,0.000
1709297815.769,30.273,85.449,-92.773,-39.062,0.000
1709297815.772,46.387,86.426,-85.938,-22.949,0.000
1709297815.776,38.574,86.914,-88.379,-29.297,0.000
1709297815.780,37.598,92.285,-99.121,-34.180,0.000
1709297815.784,57.617,91.797,-97.656,-15.137,0.000
1709297815.788,66.406,93.750,-93.262,5.859,0.000
1709297815.792,75.195,99.609,-91.797,9.766,0.000
1709297815.796,99.121,95.215,-86.914,9.766,0.000
1709297815.800,99.609,90.332,-88.867,-0.977,0.000
1709297815.804,88.867,89.355,-95.215,0.000,0.000
1709297815.808,91.797,83.984,-97.656,20.020,0.000
1709297815.811,103.516,80.566,-96.680,32.715,0.000
1709297815.815,106.934,79.590,-95.215,29.297,0.000
1709297815.819,98.633,73.242,-98.145,20.508,0.000
1709297815.823,85.449,65.918,-97.168,20.020,0.000
1709297815.827,89.355,60.547,-92.773,40.527,0.000
1709297815.831,115.723,59.570,-91.309,55.176,0.000
1709297815.835,132.812,62.500,-90.820,51.758,0.000
1709297815.839,116.699,58.594,-83.984,43.457,0.000
1709297815.843,98.633,48.340,-85.449,35.156,0.000
1709297815.847,102.539,44.434,-85.938,47.363,0.000
1709297815.851,105.957,39.551,-80.078,55.176,0.000
1709297815.854,114.258,39.062,-76.660,52.246,0.000
1709297815.858,95.215,39.062,-76.660,37.109,0.000
1709297815.862,82.520,36.621,-75.684,33.691,0.000
1709297815.866,80.566,34.180,-67.871,34.180,0.000
1709297815.870,85.449,29.785,-69.824,29.785,0.000
1709297815.874,96.680,30.762,-70.312,32.227,0.000
1709297815.878,74.707,23.926,-65.918,10.742,0.000
1709297815.882,60.547,20.508,-65.918,-3.906,0.000
1709297815.886,58.594,18.066,-64.941,-7.324,0.000
1709297815.890,56.641,13.672,-66.406,-1.465,0.000
1709297815.893,56.641,12.695,-65.430,2.441,0.000
1709297815.897,45.898,11.230,-60.547,-4.395,0.000
1709297815.901,35.156,11.719,-58.105,-13.184,0.000
1709297815.905,32.715,4.395,-59.082,-15.137,0.000
1709297815.909,36.133,4.395,-63.477,-13.672,0.000
1709297815.913,39.062,5.371,-60.059,-6.836,0.000
1709297815.917,32.715,2.441,-60.547,-5.859,0.000
1709297815.921,23.926,6.348,-66.895,-21.973,0.000
1709297815.925,24.414,7.812,-63.965,-14.648,0.000
1709297815.929,32.227,4.395,-53.223,11.230,0.000
1709297815.933,32.227,0.488,-54.199,23.438,0.000
1709297815.936,22.461,0.488,-60.059,13.672,0.000
1709297815.940,22.461,5.371,-58.594,0.977,0.000
1709297815.944,27.832,6.836,-52.246,6.836,0.000
1709297815.948,24.902,0.488,-50.293,14.160,0.000
1709297815.952,20.508,-3.906,-50.293,14.160,0.000
1709297815.956,16.602,-4.395,-48.340,4.883,0.000
1709297815.960,5.371,-6.348,-45.410,-9.277,0.000
1709297815.964,-15.625,-11.230,-44.434,-16.113,0.000
1709297815.968,-11.719,-15.625,-49.805,-6.836,0.000
1709297815.972,5.859,-16.113,-47.852,-4.395,0.000
1709297815.976,1.953,-18.066,-43.457,-15.137,0.000
1709297815.979,-21.973,-24.414,-48.340,-20.996,0.000
1709297815.983,-38.086,-30.762,-48.828,-23.438,0.000
1709297815.987,-25.879,-30.273,-47.852,-13.184,0.000
1709297815.991,-8.301,-26.855,-49.805,-7.812,0.000
1709297815.995,-13.184,-29.297,-46.875,-6.836,0.000
1709297815.999,-33.203,-30.273,-43.457,-9.766,0.000
1709297816.003,-40.527,-28.809,-44.434,-19.043,0.000
1709297816.007,-33.691,-31.250,-51.270,-20.508,0.000
1709297816.011,-19.043,-27.832,-47.852,2.441,0.000
1709297816.015,-9.277,-26.855,-42.480,1.465,0.000
1709297816.018,-10.742,-30.762,-41.504,-21.973,0.000
1709297816.022,-17.090,-25.391,-41.992,-15.137,0.000
1709297816.026,-23.438,-20.996,-42.969,-1.953,0.000
1709297816.030,-18.066,-24.414,-42.480,-4.395,0.000
1709297816.034,-20.996,-27.832,-45.410,-13.184,0.000
1709297816.038,-29.297,-23.438,-49.316,-27.344,0.000
1709297816.042,-36.133,-24.414,-56.152,-41.992,0.000
1709297816.046,-29.785,-22.461,-54.199,-36.133,0.000
1709297816.050,-14.160,-22.461,-49.316,-14.648,0.000
1709297816.054,-15.137,-27.344,-51.270,-14.648,0.000
1709297816.058,-23.926,-27.344,-49.805,-22.949,0.000
1709297816.061,-40.039,-23.926,-51.758,-32.227,0.000
1709297816.065,-54.688,-22.461,-52.734,-39.551,0.000
1709297816.069,-48.828,-25.391,-48.340,-20.996,0.000
1709297816.073,-48.340,-26.855,-48.828,-24.414,0.000
1709297816.077,-57.129,-31.738,-48.828,-39.551,0.000
1709297816.081,-60.059,-37.109,-43.457,-35.156,0.000
1709297816.085,-64.453,-41.016,-43.945,-39.551,0.000
1709297816.089,-62.012,-49.805,-45.410,-37.109,0.000
1709297816.093,-48.340,-49.316,-47.363,-32.227,0.000
1709297816.097,-51.270,-46.875,-46.875,-40.527,0.000
1709297816.100,-61.035,-45.410,-44.434,-47.363,0.000
1709297816.104,-62.012,-43.457,-41.016,-40.039,0.000
1709297816.108,-45.898,-41.504,-40.039,-30.273,0.000
1709297816.112,-33.691,-37.598,-41.504,-21.973,0.000
1709297816.116,-31.250,-38.574,-36.621,-4.883,0.000
1709297816.120,-18.555,-34.180,-31.738,-1.953,0.000
1709297816.124,-30.273,-34.180,-34.668,-22.949,0.000
1709297816.128,-34.668,-30.762,-35.645,-29.297,0.000
1709297816.132,-8.301,-25.391,-37.109,-3.418,0.000
1709297816.136,12.207,-33.203,-39.551,21.484,0.000
1709297816.140,13.184,-33.203,-38.574,27.344,0.000
1709297816.143,-5.371,-30.762,-31.250,1.953,0.000
1709297816.147,-13.184,-34.668,-31.250,-10.254,0.000
1709297816.151,-13.184,-37.109,-37.598,0.977,0.000
1709297816.155,-10.254,-41.016,-38.086,-6.836,0.000
1709297816.159,-20.020,-42.480,-41.016,-11.230,0.000
1709297816.163,-31.250,-40.527,-41.016,-9.766,0.000
1709297816.167,-21.973,-37.109,-41.992,-14.160,0.000
1709297816.171,-13.184,-38.574,-48.828,-9.277,0.000
1709297816.175,-12.695,-43.945,-51.758,-16.602,0.000
1709297816.179,-27.832,-45.898,-54.199,-31.738,0.000
1709297816.182,-42.969,-42.969,-55.176,-37.598,0.000
1709297816.186,-33.691,-44.922,-49.316,-26.855,0.000
1709297816.190,-21.484,-43.457,-48.340,-27.344,0.000
1709297816.194,-16.113,-40.039,-47.363,-30.762,0.000
1709297816.198,-18.555,-41.504,-46.875,-36.621,0.000
1709297816.202,-36.133,-41.992,-45.410,-35.645,0.000
1709297816.206,-40.039,-39.551,-45.410,-33.203,0.000
1709297816.210,-21.973,-37.109,-46.875,-36.621,0.000
1709297816.214,-11.230,-33.203,-45.410,-30.273,0.000
1709297816.218,-22.949,-34.180,-43.945,-39.062,0.000
1709297816.222,-37.109,-38.574,-40.527,-45.898,0.000
1709297816.225,-34.668,-38.086,-41.504,-36.133,0.000
1709297816.229,-21.973,-39.551,-42.480,-25.391,0.000
1709297816.233,-17.578,-37.598,-41.992,-26.855,0.000
1709297816.237,-26.367,-37.109,-35.645,-17.578,0.000
1709297816.241,-41.992,-37.598,-32.227,-18.066,0.000
1709297816.245,-41.016,-35.645,-37.598,-24.414,0.000
1709297816.249,-27.344,-35.645,-37.598,-19.531,0.000
1709297816.253,-13.184,-35.156,-35.645,-18.066,0.000
1709297816.257,-10.742,-33.203,-34.668,-21.973,0.000
1709297816.261,-23.438,-37.109,-31.250,-30.273,0.000
1709297816.265,-33.203,-37.109,-32.715,-23.438,0.000
1709297816.268,-30.762,-31.250,-36.621,-15.625,0.000
1709297816.272,-21.484,-34.668,-41.016,-21.484,0.000
1709297816.276,-22.949,-36.133,-46.875,-35.645,0.000
1709297816.280,-36.621,-35.156,-46.387,-48.340,0.000
1709297816.284,-43.945,-35.645,-44.922,-45.410,0.000
1709297816.288,-40.527,-33.203,-50.293,-41.504,0.000
1709297816.292,-30.273,-35.645,-46.875,-35.645,0.000
1709297816.296,-32.227,-38.086,-46.875,-37.598,0.000
1709297816.300,-51.758,-40.527,-50.781,-50.293,0.000
1709297816.304,-56.641,-39.062,-48.340,-47.852,0.000
1709297816.307,-42.969,-35.156,-49.316,-37.109,0.000
1709297816.311,-33.691,-33.203,-51.270,-31.738,0.000
1709297816.315,-32.227,-29.785,-52.246,-36.133,0.000
1709297816.319,-44.434,-31.738,-50.293,-39.062,0.000
1709297816.323,-56.152,-31.738,-43.457,-28.809,0.000
1709297816.327,-51.758,-30.762,-43.457,-26.367,0.000
1709297816.331,-32.227,-31.738,-45.898,-22.949,0.000
1709297816.335,-19.531,-28.320,-41.992,-24.414,0.000
1709297816.339,-31.738,-29.297,-43.945,-37.109,0.000
1709297816.343,-44.922,-30.273,-45.898,-36.133,0.000
1709297816.347,-45.898,-29.785,-48.828,-38.574,0.000
1709297816.350,-27.344,-29.297,-48.340,-36.133,0.000
1709297816.354,-22.461,-27.344,-45.898,-22.949,0.000
1709297816.358,-27.344,-24.414,-48.828,-30.273,0.000
1709297816.362,-38.574,-25.391,-48.828,-44.922,0.000
1709297816.366,-41.992,-31.738,-47.852,-42.480,0.000
1709297816.370,-30.273,-34.668,-48.340,-32.715,0.000
1709297816.374,-24.414,-31.738,-44.922,-28.320,0.000
1709297816.378,-31.250,-31.250,-41.016,-32.715,0.000
1709297816.382,-59.082,-38.574,-43.457,-45.410,0.000
1709297816.386,-72.754,-45.898,-47.363,-54.199,0.000
1709297816.390,-57.129,-41.504,-44.434,-47.852,0.000
1709297816.393,-37.598,-32.227,-39.062,-53.223,0.000
1709297816.397,-41.992,-35.645,-41.504,-56.641,0.000
1709297816.401,-57.129,-38.086,-43.457,-59.082,0.000
1709297816.405,-62.012,-35.156,-41.504,-64.453,0.000
1709297816.409,-56.152,-35.645,-43.945,-53.711,0.000
1709297816.413,-41.504,-34.668,-43.945,-38.574,0.000
1709297816.417,-38.574,-31.250,-44.922,-45.898,0.000
1709297816.421,-39.551,-28.320,-44.922,-53.711,0.000
1709297816.425,-53.711,-32.227,-43.457,-48.828,0.000
1709297816.429,-62.500,-37.109,-46.387,-35.645,0.000
1709297816.432,-57.129,-37.598,-45.410,-33.691,0.000
1709297816.436,-60.547,-33.691,-44.434,-50.293,0.000
1709297816.440,-60.059,-35.645,-41.504,-56.641,0.000
1709297816.444,-68.359,-40.527,-41.504,-51.758,0.000
1709297816.448,-65.430,-41.992,-44.434,-51.270,0.000
1709297816.452,-46.875,-42.969,-44.922,-56.641,0.000
1709297816.456,-47.852,-43.457,-43.457,-57.129,0.000
1709297816.460,-61.035,-39.062,-44.434,-62.012,0.000
1709297816.464,-65.430,-36.621,-45.898,-64.453,0.000
1709297816.468,-59.570,-37.598,-46.875,-59.082,0.000
1709297816.472,-49.805,-35.645,-49.316,-40.527,0.000
1709297816.475,-36.621,-34.180,-46.875,-40.527,0.000
1709297816.479,-39.062,-31.738,-44.434,-52.734,0.000
1709297816.483,-50.293,-29.297,-40.527,-51.758,0.000
1709297816.487,-48.828,-31.250,-41.992,-42.969,0.000
1709297816.491,-41.504,-32.715,-43.945,-33.691,0.000
1709297816.495,-28.320,-28.320,-42.969,-33.203,0.000
1709297816.499,-38.574,-31.250,-42.480,-44.922,0.000
1709297816.503,-55.176,-31.738,-46.875,-48.340,0.000
1709297816.507,-57.617,-27.832,-49.316,-35.156,0.000
1709297816.511,-45.898,-29.297,-44.922,-32.227,0.000
1709297816.515,-36.133,-32.227,-43.457,-38.574,0.000
1709297816.518,-44.922,-35.645,-45.898,-47.363,0.000
1709297816.522,-48.828,-31.738,-43.945,-48.828,0.000
1709297816.526,-47.852,-34.180,-40.527,-37.109,0.000
1709297816.530,-35.156,-36.621,-44.434,-23.926,0.000
1709297816.534,-37.598,-31.738,-48.340,-16.602,0.000
1709297816.538,-42.480,-32.715,-45.410,-27.832,0.000
1709297816.542,-43.945,-35.156,-45.410,-51.270,0.000
1709297816.546,-56.152,-33.691,-46.875,-51.758,0.000
1709297816.550,-43.945,-28.320,-41.992,-32.227,0.000
1709297816.554,-24.414,-29.297,-43.945,-16.602,0.000
1709297816.558,-34.668,-31.738,-45.898,-24.902,0.000
1709297816.561,-46.875,-32.715,-41.992,-34.180,0.000
1709297816.565,-44.434,-32.227,-42.480,-29.785,0.000
1709297816.569,-32.227,-25.879,-42.480,-22.461,0.000
1709297816.573,-24.414,-22.949,-43.945,-28.809,0.000
1709297816.577,-41.992,-22.461,-50.781,-44.922,0.000
1709297816.581,-58.594,-16.113,-53.223,-43.945,0.000
1709297816.585,-60.059,-13.184,-50.293,-45.410,0.000
1709297816.589,-46.387,-16.113,-45.410,-38.086,0.000
1709297816.593,-41.504,-17.578,-44.434,-33.203,0.000
1709297816.597,-44.434,-19.043,-47.852,-35.156,0.000
1709297816.600,-55.176,-20.996,-48.828,-38.574,0.000
1709297816.604,-63.477,-24.414,-46.387,-37.598,0.000
1709297816.608,-59.082,-22.949,-44.922,-20.020,0.000
1709297816.612,-49.316,-22.949,-47.363,-20.020,0.000
1709297816.616,-43.945,-28.809,-48.340,-45.410,0.000
1709297816.620,-47.363,-27.344,-48.828,-41.016,0.000
1709297816.624,-56.641,-21.973,-51.758,-39.551,0.000
1709297816.628,-54.688,-27.344,-50.293,-39.062,0.000
1709297816.632,-40.527,-30.273,-48.828,-31.738,0.000
1709297816.636,-40.527,-29.785,-49.316,-40.527,0.000
1709297816.640,-48.340,-32.227,-47.852,-39.551,0.000
1709297816.643,-51.270,-31.738,-49.805,-38.574,0.000
1709297816.647,-37.598,-29.297,-49.805,-38.086,0.000
1709297816.651,-16.113,-23.438,-46.387,-26.855,0.000
1709297816.655,-9.277,-18.555,-39.551,-19.043,0.000
1709297816.659,-20.508,-21.973,-36.133,-22.461,0.000
1709297816.663,-29.785,-20.996,-34.668,-13.672,0.000
1709297816.667,-21.973,-22.949,-33.203,0.000,0.000
1709297816.671,-10.742,-27.832,-34.668,4.883,0.000
1709297816.675,-6.348,-25.391,-33.691,-1.953,0.000
1709297816.679,-13.184,-24.902,-33.691,-14.648,0.000
1709297816.683,-30.762,-20.996,-36.621,-14.160,0.000
1709297816.686,-32.227,-26.855,-34.668,-3.906,0.000
1709297816.690,-22.461,-32.715,-38.574,-1.465,0.000
1709297816.694,-21.973,-28.320,-42.969,-11.719,0.000
1709297816.698,-24.902,-30.762,-40.527,-25.391,0.000
1709297816.702,-31.250,-31.738,-41.992,-28.809,0.000
1709297816.706,-37.109,-30.762,-43.945,-21.484,0.000
1709297816.710,-33.691,-34.180,-44.922,-12.207,0.000
1709297816.714,-29.297,-34.180,-43.945,-14.160,0.000
1709297816.718,-36.621,-35.645,-42.480,-19.043,0.000
1709297816.722,-58.594,-37.109,-43.945,-27.832,0.000
1709297816.725,-59.082,-32.715,-41.016,-29.297,0.000
1709297816.729,-44.434,-32.227,-41.016,-17.578,0.000
1709297816.733,-37.109,-29.785,-44.922,-22.949,0.000
1709297816.737,-34.180,-25.391,-42.480,-31.738,0.000
1709297816.741,-48.340,-28.320,-42.969,-40.527,0.000
1709297816.745,-59.082,-28.809,-45.898,-41.992,0.000
1709297816.749,-43.457,-32.227,-47.852,-40.039,0.000
1709297816.753,-27.832,-37.109,-44.922,-38.574,0.000
1709297816.757,-38.574,-37.598,-43.945,-38.086,0.000
1709297816.761,-51.270,-30.273,-43.457,-52.734,0.000
1709297816.765,-54.199,-30.273,-41.016,-53.711,0.000
1709297816.768,-54.199,-36.621,-43.945,-50.293,0.000
1709297816.772,-43.945,-30.762,-41.016,-35.645,0.000
1709297816.776,-40.527,-27.344,-39.551,-27.832,0.000
1709297816.780,-47.852,-27.344,-41.504,-42.480,0.000
1709297816.784,-51.270,-29.297,-36.133,-43.457,0.000
1709297816.788,-48.828,-35.156,-38.086,-28.809,0.000
1709297816.792,-40.527,-37.109,-45.410,-32.715,0.000
1709297816.796,-30.273,-29.785,-42.969,-39.062,0.000
1709297816.800,-36.133,-26.367,-41.504,-47.852,0.000
1709297816.804,-53.711,-28.320,-44.434,-51.758,0.000
1709297816.808,-53.711,-26.855,-40.527,-38.086,0.000
1709297816.811,-35.156,-26.855,-36.621,-21.973,0.000
1709297816.815,-30.273,-29.297,-34.668,-23.926,0.000
1709297816.819,-40.527,-33.691,-35.156,-24.902,0.000
1709297816.823,-49.805,-34.180,-41.016,-26.367,0.000
1709297816.827,-50.293,-27.832,-38.574,-27.832,0.000
1709297816.831,-39.062,-26.855,-36.133,-15.625,0.000
1709297816.835,-33.203,-28.320,-38.086,-18.555,0.000
1709297816.839,-37.598,-24.414,-34.668,-34.668,0.000
1709297816.843,-44.434,-29.785,-34.180,-41.504,0.000
1709297816.847,-52.246,-34.180,-32.227,-34.180,0.000
1709297816.850,-44.434,-28.809,-32.227,-24.414,0.000
1709297816.854,-37.109,-28.809,-39.551,-27.832,0.000
1709297816.858,-46.875,-33.691,-41.016,-37.598,0.000
1709297816.862,-54.199,-35.645,-40.039,-37.598,0.000
1709297816.866,-42.969,-31.250,-39.551,-23.438,0.000
1709297816.870,-28.320,-28.320,-34.180,-13.184,0.000
1709297816.874,-24.902,-29.785,-33.691,-17.578,0.000
1709297816.878,-45.410,-24.902,-37.598,-41.504,0.000
1709297816.882,-68.848,-26.367,-40.039,-62.500,0.000
1709297816.886,-73.242,-30.273,-45.410,-62.988,0.000
1709297816.890,-66.406,-34.180,-51.270,-57.617,0.000
1709297816.893,-50.781,-34.180,-48.340,-44.922,0.000
1709297816.897,-53.223,-30.273,-41.504,-50.293,0.000
1709297816.901,-69.824,-30.762,-40.039,-62.988,0.000
1709297816.905,-75.684,-33.691,-43.945,-64.453,0.000
1709297816.909,-64.453,-34.668,-45.410,-41.992,0.000
1709297816.913,-51.270,-31.738,-43.457,-32.227,0.000
1709297816.917,-44.434,-26.855,-41.504,-44.434,0.000
1709297816.921,-53.711,-27.344,-45.898,-52.246,0.000
1709297816.925,-72.754,-34.180,-49.316,-57.129,0.000
1709297816.929,-65.918,-38.574,-48.340,-44.434,0.000
1709297816.932,0.000,-39.062,-48.340,-35.645,0.000
1709297816.936,0.000,-36.621,-45.898,-36.621,0.000
1709297816.940,0.000,-33.691,-42.480,-43.945,0.000
1709297816.944,0.000,-35.156,-49.316,-35.156,0.000
1709297816.948,0.000,-38.086,-50.781,-27.344,0.000
1709297816.952,0.000,-39.062,-47.363,-27.344,0.000
1709297816.956,0.000,-43.945,-52.734,-35.645,0.000
1709297816.960,0.000,-43.945,-54.688,-49.316,0.000
1709297816.964,0.000,-43.945,-53.711,-48.340,0.000
1709297816.968,0.000,-43.457,-49.316,-41.016,0.000
1709297816.972,0.000,-39.551,-49.316,-34.668,0.000
1709297816.975,0.000,-35.645,-48.340,-31.738,0.000
1709297816.979,-52.734,-36.621,-47.363,-36.621,0.000
1709297816.983,-69.824,-41.504,-45.410,-42.969,0.000
1709297816.987,-71.777,-41.504,-45.410,-36.621,0.000
1709297816.991,-56.152,-38.086,-51.758,-33.691,0.000
1709297816.995,-45.898,-41.016,-50.293,-39.062,0.000
1709297816.999,-52.734,-40.039,-45.898,-41.504,0.000
1709297817.003,-62.500,-35.645,-46.875,-45.898,0.000
1709297817.007,-64.941,-37.109,-47.852,-51.270,0.000
1709297817.011,-54.199,-40.527,-50.293,-41.992,0.000
1709297817.014,-45.410,-38.086,-52.734,-38.574,0.000
1709297817.018,-45.410,-33.203,-46.875,-50.781,0.000
1709297817.022,-53.711,-31.738,-42.969,-58.594,0.000
1709297817.026,-56.641,-29.297,-41.016,-49.805,0.000
1709297817.030,-42.480,-30.273,-37.109,-32.715,0.000
1709297817.034,-32.227,-35.156,-40.527,-33.691,0.000
1709297817.038,-38.086,-37.598,-47.363,-44.434,0.000
1709297817.042,-50.781,-41.016,-44.434,-41.992,0.000
1709297817.046,-49.805,-33.691,-39.551,-33.203,0.000
1709297817.050,-37.109,-24.902,-37.598,-29.785,0.000
1709297817.054,-30.762,-28.320,-36.133,-29.785,0.000
1709297817.057,-41.016,-35.645,-41.016,-24.902,0.000
1709297817.061,-57.129,-35.156,-39.551,-21.973,0.000
1709297817.065,-60.059,-32.227,-36.133,-26.855,0.000
1709297817.069,-48.340,-32.227,-41.504,-27.832,0.000
1709297817.073,-40.527,-33.203,-42.480,-22.461,0.000
1709297817.077,-42.969,-37.109,-42.480,-33.203,0.000
1709297817.081,-53.223,-38.086,-43.457,-45.898,0.000
1709297817.085,-66.406,-39.551,-44.434,-43.945,0.000
1709297817.089,-62.500,-38.574,-46.875,-31.738,0.000
1709297817.093,-52.734,-40.039,-46.875,-21.973,0.000
1709297817.097,-49.316,-39.551,-44.922,-32.227,0.000
1709297817.100,-53.223,-33.203,-43.945,-41.992,0.000
1709297817.104,-61.523,-35.156,-46.875,-34.668,0.000
1709297817.108,-58.594,-39.062,-55.176,-34.180,0.000
1709297817.112,-47.852,-35.645,-53.711,-37.598,0.000
1709297817.116,-53.223,-31.738,-47.852,-42.480,0.000
1709297817.120,-65.918,-31.250,-47.852,-55.176,0.000
1709297817.124,-73.242,-32.715,-42.969,-52.734,0.000
1709297817.128,-61.523,-28.809,-39.062,-42.480,0.000
1709297817.132,-46.875,-30.762,-42.480,-37.598,0.000
1709297817.136,-44.922,-29.297,-41.992,-35.156,0.000
1709297817.140,-50.293,-21.973,-38.574,-28.809,0.000
1709297817.143,-59.570,-20.996,-36.621,-31.738,0.000
1709297817.147,-56.641,-25.879,-36.133,-17.578,0.000
1709297817.151,-39.551,-27.832,-35.645,-2.930,0.000
1709297817.155,-27.832,-23.926,-36.133,-26.367,0.000
1709297817.159,-35.156,-21.973,-41.016,-44.434,0.000
1709297817.163,-45.410,-19.531,-39.551,-44.434,0.000
1709297817.167,-45.898,-23.926,-40.039,-38.086,0.000
1709297817.171,-32.227,-25.391,-41.504,-30.762,0.000
1709297817.175,-25.391,-25.391,-44.922,-41.992,0.000
1709297817.179,-31.738,-25.879,-46.875,-55.664,0.000
1709297817.182,-43.457,-24.902,-46.387,-54.199,0.000
1709297817.186,-41.992,-31.738,-44.434,-43.945,0.000
1709297817.190,-28.320,-37.109,-39.551,-31.738,0.000
1709297817.194,-30.762,-33.691,-36.621,-26.855,0.000
1709297817.198,-35.645,-31.250,-35.156,-36.621,0.000
1709297817.202,-39.551,-34.180,-34.180,-48.828,0.000
1709297817.206,-39.551,-37.598,-34.668,-32.715,0.000
1709297817.210,-30.762,-39.062,-37.598,-18.555,0.000
1709297817.214,-22.461,-36.133,-37.598,-22.949,0.000
1709297817.218,-21.973,-31.250,-34.668,-31.738,0.000
1709297817.222,-35.645,-32.715,-34.668,-41.504,0.000
1709297817.225,-49.316,-36.133,-36.621,-38.574,0.000
1709297817.229,-40.527,-39.062,-42.480,-23.926,0.000
1709297817.233,-28.320,-39.551,-45.898,-30.762,0.000
1709297817.237,-29.785,-35.156,-48.340,-46.387,0.000
1709297817.241,-41.992,-29.785,-51.270,-52.734,0.000
1709297817.245,-44.434,-28.320,-53.223,-54.199,0.000
1709297817.249,-35.645,-37.109,-48.340,-40.039,0.000
1709297817.253,-31.250,-34.668,-44.922,-44.922,0.000
1709297817.257,-31.738,-26.855,-47.363,-55.664,0.000
1709297817.261,-39.062,-28.320,-44.434,-48.340,0.000
1709297817.264,-52.246,-33.691,-43.945,-42.480,0.000
1709297817.268,-68.359,-38.574,-44.434,-54.688,0.000
1709297817.272,-74.219,-42.480,-45.898,-70.312,0.000
1709297817.276,-71.289,-42.969,-46.875,-74.707,0.000
1709297817.280,-79.102,-42.969,-42.480,-69.336,0.000
1709297817.284,-81.055,-43.945,-44.434,-62.988,0.000
1709297817.288,-66.895,-40.039,-43.945,-55.176,0.000
1709297817.292,-49.805,-38.086,-41.016,-46.875,0.000
1709297817.296,-48.828,-40.039,-42.969,-45.898,0.000
1709297817.300,-59.082,-42.480,-42.969,-58.105,0.000
1709297817.304,-64.941,-35.645,-44.434,-58.105,0.000
1709297817.307,-61.035,-32.227,-45.898,-42.969,0.000
1709297817.311,-45.898,-33.691,-43.457,-32.715,0.000
1709297817.315,-41.016,-34.668,-41.992,-41.992,0.000
1709297817.319,-49.316,-35.645,-41.016,-50.293,0.000
1709297817.323,-53.711,-35.645,-39.551,-52.734,0.000
1709297817.327,-60.547,-36.133,-41.016,-40.527,0.000
1709297817.331,-53.223,-40.039,-42.480,-28.320,0.000
1709297817.335,-39.551,-40.039,-40.039,-31.738,0.000
1709297817.339,-40.039,-34.668,-35.156,-36.133,0.000
1709297817.343,-52.246,-35.156,-34.180,-39.062,0.000
1709297817.346,-56.152,-38.086,-40.527,-37.109,0.000
1709297817.350,-38.574,-40.527,-43.457,-29.785,0.000
1709297817.354,-29.297,-36.621,-41.504,-31.250,0.000
1709297817.358,-39.062,-30.273,-39.551,-50.781,0.000
1709297817.362,-56.641,-32.227,-38.574,-54.199,0.000
1709297817.366,-47.852,-30.762,-36.621,-41.504,0.000
1709297817.370,-30.762,-34.180,-39.062,-31.738,0.000
1709297817.374,-28.809,-36.621,-44.922,-28.320,0.000
1709297817.378,-41.016,-32.227,-45.898,-38.574,0.000
1709297817.382,-48.340,-30.273,-44.922,-43.945,0.000
1709297817.386,-40.527,-29.297,-40.039,-36.621,0.000
1709297817.389,-36.621,-32.715,-38.574,-32.715,0.000
1709297817.393,-32.715,-32.227,-43.457,-34.180,0.000
1709297817.397,-40.039,-28.809,-41.992,-37.598,0.000
1709297817.401,-50.781,-34.180,-43.945,-46.387,0.000
1709297817.405,-51.758,-39.551,-45.898,-49.316,0.000
1709297817.409,-50.293,-38.086,-44.434,-46.875,0.000
1709297817.413,-44.434,-34.668,-44.922,-42.480,0.000
1709297817.417,-48.828,-30.762,-41.016,-36.621,0.000
1709297817.421,-66.406,-29.297,-38.086,-44.434,0.000
1709297817.425,-61.035,-30.273,-40.039,-51.270,0.000
1709297817.429,-41.016,-29.785,-40.039,-40.527,0.000
1709297817.432,-37.598,-35.156,-41.504,-27.832,0.000
1709297817.436,-39.062,-38.574,-41.016,-34.180,0.000
1709297817.440,-49.316,-35.645,-39.062,-48.340,0.000
1709297817.444,-62.500,-38.086,-42.480,-48.340,0.000
1709297817.448,-53.223,-36.621,-41.504,-38.086,0.000
1709297817.452,-35.645,-31.250,-39.551,-28.809,0.000
1709297817.456,-26.367,-28.809,-40.039,-33.691,0.000
1709297817.460,-36.621,-31.738,-37.109,-47.363,0.000
1709297817.464,-52.734,-36.621,-39.062,-42.969,0.000
1709297817.468,-43.945,-36.133,-43.945,-29.297,0.000
1709297817.471,-31.250,-33.203,-45.898,-28.809,0.000
1709297817.475,-35.156,-31.250,-45.898,-30.273,0.000
1709297817.479,-44.922,-31.250,-42.480,-26.367,0.000
1709297817.483,-51.758,-30.273,-44.434,-31.250,0.000
1709297817.487,-48.340,-29.785,-42.969,-37.598,0.000
1709297817.491,-33.691,-28.809,-40.527,-28.809,0.000
1709297817.495,-32.227,-26.367,-40.039,-30.273,0.000
1709297817.499,-47.363,-27.344,-40.039,-38.574,0.000
1709297817.503,-56.641,-32.227,-44.922,-42.969,0.000
1709297817.507,-67.871,-38.086,-47.852,-38.086,0.000
1709297817.511,-59.082,-36.133,-45.898,-28.809,0.000
1709297817.514,-49.805,-35.645,-47.852,-25.391,0.000
1709297817.518,-57.129,-38.086,-48.340,-36.133,0.000
1709297817.522,-64.453,-39.062,-44.922,-36.133,0.000
1709297817.526,-57.617,-33.691,-39.551,-14.160,0.000
1709297817.530,-46.387,-29.785,-42.480,-11.719,0.000
1709297817.534,-34.180,-31.738,-42.480,-15.625,0.000
1709297817.538,-36.133,-33.203,-38.574,-20.020,0.000
1709297817.542,-51.270,-36.621,-38.086,-23.926,0.000
1709297817.546,-49.316,-39.551,-43.945,-20.996,0.000
1709297817.550,-40.039,-39.551,-45.898,-13.672,0.000
1709297817.554,-36.621,-41.504,-43.457,-9.766,0.000
1709297817.557,-40.527,-39.551,-47.852,-20.508,0.000
1709297817.561,-51.758,-33.203,-47.852,-25.391,0.000
1709297817.565,-53.223,-32.715,-41.992,-20.020,0.000
1709297817.569,-34.668,-33.691,-40.527,-7.812,0.000
1709297817.573,-20.996,-32.227,-44.922,-3.418,0.000
1709297817.577,-25.391,-31.250,-43.457,-15.137,0.000
1709297817.581,-30.273,-31.738,-42.480,-23.926,0.000
1709297817.585,-27.344,-32.715,-42.480,-18.066,0.000
1709297817.589,-26.855,-35.156,-44.434,-20.020,0.000
1709297817.593,-20.020,-35.645,-44.922,-20.020,0.000
1709297817.597,-18.555,-28.320,-38.086,-15.625,0.000
1709297817.600,-29.785,-21.973,-32.715,-25.879,0.000
1709297817.604,-41.992,-22.461,-33.691,-27.344,0.000
1709297817.608,-38.086,-24.902,-36.621,-19.043,0.000
1709297817.612,-31.250,-29.297,-38.574,-18.066,0.000
1709297817.616,-31.250,-31.738,-37.109,-17.578,0.000
1709297817.620,-35.156,-29.297,-35.645,-34.180,0.000
1709297817.624,-42.969,-27.832,-37.598,-43.945,0.000
1709297817.628,-43.457,-26.367,-39.062,-35.156,0.000
1709297817.632,-38.574,-31.738,-39.062,-39.062,0.000
1709297817.636,-33.691,-34.668,-38.086,-44.434,0.000
1709297817.639,-44.434,-31.738,-38.086,-50.781,0.000
1709297817.643,-51.758,-32.227,-38.086,-54.688,0.000
1709297817.647,-47.852,-35.156,-39.062,-47.363,0.000
1709297817.651,-47.363,-35.156,-37.598,-41.504,0.000
1709297817.655,-43.945,-35.156,-33.691,-44.434,0.000
1709297817.659,-52.246,-34.668,-33.691,-47.363,0.000
1709297817.663,-62.988,-35.156,-35.156,-43.457,0.000
1709297817.667,-61.523,-38.574,-32.715,-33.203,0.000
1709297817.671,-54.199,-38.574,-33.691,-22.461,0.000
1709297817.675,-44.434,-35.156,-36.133,-19.043,0.000
1709297817.679,-37.109,-34.180,-38.086,-23.926,0.000
1709297817.682,-41.504,-36.133,-40.039,-34.668,0.000
1709297817.686,-40.039,-34.668,-38.574,-32.227,0.000
1709297817.690,-28.809,-35.645,-37.598,-21.484,0.000
1709297817.694,-23.438,-36.621,-39.551,-26.367,0.000
1709297817.698,-37.109,-37.109,-44.922,-39.551,0.000
1709297817.702,-54.688,-37.598,-42.480,-41.016,0.000
1709297817.706,-54.688,-37.598,-43.945,-42.969,0.000
1709297817.710,-41.992,-36.133,-44.434,-51.270,0.000
1709297817.714,-40.039,-38.574,-46.875,-55.176,0.000
1709297817.718,-49.805,-40.039,-47.852,-60.059,0.000
1709297817.721,-58.105,-34.180,-42.969,-60.059,0.000
1709297817.725,-62.012,-35.645,-45.410,-55.664,0.000
1709297817.729,-53.223,-39.551,-49.805,-51.270,0.000
1709297817.733,-43.457,-38.086,-47.852,-49.316,0.000
1709297817.737,-46.875,-35.645,-43.945,-50.293,0.000
1709297817.741,-48.340,-30.273,-43.457,-50.293,0.000
1709297817.745,-54.688,-36.621,-46.387,-50.293,0.000
1709297817.749,-56.641,-39.062,-50.293,-43.457,0.000
1709297817.753,-42.480,-35.156,-48.340,-31.250,0.000
1709297817.757,-39.551,-36.133,-44.922,-40.527,0.000
1709297817.761,-53.711,-35.156,-40.527,-43.457,0.000
1709297817.764,-54.199,-32.227,-38.574,-31.738,0.000
1709297817.768,-40.527,-29.785,-42.969,-30.762,0.000
1709297817.772,-28.320,-28.809,-42.969,-32.715,0.000
1709297817.776,-25.879,-26.367,-38.086,-40.527,0.000
1709297817.780,-44.434,-27.832,-40.527,-54.688,0.000
1709297817.784,-62.988,-33.691,-42.969,-58.105,0.000
1709297817.788,-52.246,-30.762,-40.527,-45.898,0.000
1709297817.792,-37.109,-29.785,-40.527,-33.691,0.000
1709297817.796,-45.898,-35.156,-42.480,-41.504,0.000
1709297817.800,-62.012,-34.668,-43.457,-49.805,0.000
1709297817.804,-62.500,-34.180,-43.457,-44.922,0.000
1709297817.807,-48.340,-35.156,-41.504,-20.508,0.000
1709297817.811,-43.457,-31.738,-43.945,-8.789,0.000
1709297817.815,-43.457,-35.645,-46.875,-26.367,0.000
1709297817.819,-53.711,-37.109,-45.898,-36.133,0.000
1709297817.823,0.000,-36.621,-47.363,0.000,0.000
1709297817.827,0.000,-41.016,-51.270,0.000,0.000
1709297817.831,0.000,-41.016,-53.711,0.000,0.000
1709297817.835,0.000,-40.527,-46.875,0.000,0.000
1709297817.839,0.000,-38.574,-41.992,0.000,0.000
1709297817.843,0.000,-35.645,-45.410,0.000,0.000
1709297817.847,0.000,-38.086,-44.434,0.000,0.000
1709297817.850,0.000,-39.062,-43.457,0.000,0.000
1709297817.854,0.000,-38.574,-46.875,0.000,0.000
1709297817.858,0.000,-37.598,-49.316,0.000,0.000
1709297817.862,0.000,-36.133,-48.340,0.000,0.000
1709297817.866,0.000,-32.715,-45.410,0.000,0.000
1709297817.870,-35.645,-33.203,-46.875,-13.672,0.000
1709297817.874,-36.133,-33.691,-46.387,-11.230,0.000
1709297817.878,-43.457,-36.133,-49.316,-29.297,0.000
1709297817.882,-56.641,-37.109,-47.852,-39.551,0.000
1709297817.886,-62.500,-34.180,-44.922,-28.809,0.000
1709297817.889,-52.246,-30.762,-45.898,-20.020,0.000
1709297817.893,-43.945,-30.762,-42.969,-26.367,0.000
1709297817.897,-44.434,-28.320,-42.969,-34.180,0.000
1709297817.901,-47.363,-27.344,-45.898,-49.316,0.000
1709297817.905,-49.805,-30.762,-43.945,-54.688,0.000
1709297817.909,-55.176,-34.180,-38.574,-38.086,0.000
1709297817.913,-47.852,-32.227,-37.109,-22.461,0.000
1709297817.917,-42.969,-32.227,-40.527,-33.691,0.000
1709297817.921,-60.547,-37.598,-42.480,-51.270,0.000
1709297817.925,-63.477,-38.574,-38.086,-46.875,0.000
1709297817.929,-53.223,-35.156,-34.180,-36.621,0.000
1709297817.932,-40.527,-29.297,-33.691,-32.715,0.000
1709297817.936,-42.969,-28.809,-36.133,-46.387,0.000
1709297817.940,-57.129,-32.227,-41.504,-59.570,0.000
1709297817.944,-62.500,-33.203,-38.086,-41.504,0.000
1709297817.948,-55.176,-30.762,-38.574,-31.250,0.000
1709297817.952,-41.992,-28.320,-40.039,-39.551,0.000
1709297817.956,-45.410,-33.691,-35.645,-41.504,0.000
1709297817.960,-55.176,-35.156,-37.109,-47.363,0.000
1709297817.964,-61.035,-27.832,-34.668,-43.457,0.000
1709297817.968,-53.223,-28.320,-35.645,-38.086,0.000
1709297817.971,-38.086,-30.762,-36.133,-32.715,0.000
1709297817.975,-39.062,-33.691,-40.039,-40.039,0.000
1709297817.979,-51.758,-30.762,-45.410,-49.805,0.000
1709297817.983,-64.941,-27.344,-43.945,-47.363,0.000
1709297817.987,-66.406,-28.809,-39.551,-30.762,0.000
1709297817.991,-52.734,-29.785,-40.527,-15.625,0.000
1709297817.995,-37.109,-25.879,-40.527,-30.273,0.000
1709297817.999,-45.898,-24.414,-43.945,-41.504,0.000
1709297818.003,-64.941,-26.855,-46.875,-36.621,0.000
1709297818.007,-55.176,-28.320,-45.410,-33.691,0.000
1709297818.011,-35.645,-27.344,-46.875,-32.227,0.000
1709297818.014,-37.598,-28.320,-48.828,-32.227,0.000
1709297818.018,-45.410,-31.738,-46.387,-36.621,0.000
1709297818.022,-47.852,-27.344,-42.969,-38.574,0.000
1709297818.026,-44.434,-26.367,-42.480,-31.738,0.000
1709297818.030,-31.738,-26.367,-42.969,-17.578,0.000
1709297818.034,-34.668,-27.344,-43.945,-11.230,0.000
1709297818.038,-44.434,-32.227,-43.945,-26.367,0.000
1709297818.042,-50.781,-33.203,-39.551,-38.086,0.000
1709297818.046,-50.293,-31.738,-36.621,-30.762,0.000
1709297818.050,-41.016,-34.668,-40.039,-23.438,0.000
1709297818.053,-41.992,-40.527,-45.898,-29.785,0.000
1709297818.057,-47.852,-42.480,-53.223,-36.621,0.000
1709297818.061,-45.410,-41.992,-47.852,-28.809,0.000
1709297818.065,-42.969,-36.621,-43.457,-26.855,0.000
1709297818.069,-38.086,-32.715,-44.922,-32.227,0.000
1709297818.073,-38.086,-34.668,-36.621,-43.945,0.000
1709297818.077,-52.246,-32.227,-30.273,-47.363,0.000
1709297818.081,-68.848,-34.668,-35.156,-46.875,0.000
1709297818.085,-75.195,-38.086,-36.133,-57.129,0.000
1709297818.089,-65.430,-33.691,-29.297,-56.641,0.000
1709297818.093,-62.500,-39.062,-26.367,-56.641,0.000
1709297818.096,-72.266,-39.062,-25.879,-69.336,0.000
1709297818.100,-83.496,-35.645,-24.902,-78.125,0.000
1709297818.104,0.000,-42.969,0.000,-69.824,0.000
1709297818.108,0.000,-44.922,0.000,-57.617,0.000
1709297818.112,0.000,-41.992,0.000,-51.758,0.000
1709297818.116,0.000,-42.969,0.000,-59.570,0.000
1709297818.120,0.000,-43.945,0.000,-69.824,0.000
1709297818.124,0.000,-41.504,0.000,-67.383,0.000
1709297818.128,0.000,-39.062,0.000,-56.152,0.000
1709297818.132,0.000,-34.668,0.000,-49.316,0.000
1709297818.136,0.000,-34.668,0.000,-52.734,0.000
1709297818.139,0.000,-33.691,0.000,-52.734,0.000
1709297818.143,0.000,-33.203,0.000,-54.688,0.000
1709297818.147,0.000,-31.250,0.000,-48.828,0.000
1709297818.151,-84.961,-33.691,-39.062,-42.969,0.000
1709297818.155,-74.707,-35.156,-40.039,-54.688,0.000
1709297818.159,-62.012,-34.180,-41.504,-63.965,0.000
1709297818.163,-49.805,-37.109,-43.945,-60.547,0.000
1709297818.167,-54.199,-34.668,-41.992,-51.270,0.000
1709297818.171,-67.871,-34.668,-40.527,-43.945,0.000
1709297818.175,-69.824,-36.133,-44.434,-38.574,0.000
1709297818.178,-55.664,-34.180,-42.480,-45.410,0.000
1709297818.182,-52.246,-27.832,-41.992,-48.340,0.000
1709297818.186,-70.801,-30.273,-41.992,-35.645,0.000
1709297818.190,-74.219,-32.227,-40.527,-30.273,0.000
1709297818.194,-64.941,-33.203,-37.109,-27.832,0.000
1709297818.198,-50.781,-35.156,-34.180,-34.668,0.000
1709297818.202,-58.594,-33.203,-33.203,-44.922,0.000
1709297818.206,-65.430,-34.180,-34.668,-39.062,0.000
1709297818.210,-45.410,-32.715,-38.086,-27.344,0.000
1709297818.214,-44.434,-39.551,-40.527,-31.738,0.000
1709297818.218,-57.129,-41.504,-47.363,-47.852,0.000
1709297818.221,-53.711,-29.297,-43.457,-44.922,0.000
1709297818.225,-54.199,-29.785,-39.551,-34.668,0.000
1709297818.229,-51.758,-32.715,-42.480,-32.227,0.000
1709297818.233,-37.109,-26.855,-38.086,-33.203,0.000
1709297818.237,-33.203,-20.996,-39.551,-42.480,0.000
1709297818.241,-45.410,-23.926,-43.457,-57.129,0.000
1709297818.245,-46.875,-24.414,-42.969,-50.293,0.000
1709297818.249,-31.738,-21.484,-42.480,-38.086,0.000
1709297818.253,-19.531,-23.926,-42.969,-34.180,0.000
1709297818.257,-21.484,-26.367,-42.969,-38.574,0.000
1709297818.261,-30.762,-28.320,-43.457,-56.641,0.000
1709297818.264,-46.387,-27.832,-42.969,-58.594,0.000
1709297818.268,-46.875,-27.344,-41.504,-42.969,0.000
1709297818.272,-40.527,-28.320,-45.898,-40.039,0.000
1709297818.276,-46.387,-24.414,-44.922,-39.062,0.000
1709297818.280,-55.664,-26.367,-41.992,-49.316,0.000
1709297818.284,-64.453,-32.715,-47.852,-59.570,0.000
1709297818.288,-59.082,-32.715,-45.898,-50.781,0.000
1709297818.292,-49.316,-29.297,-40.039,-35.645,0.000
1709297818.296,-46.387,-29.785,-39.062,-37.109,0.000
1709297818.300,-49.316,-27.344,-38.086,-48.828,0.000
1709297818.303,-56.641,-30.762,-43.457,-50.781,0.000
1709297818.307,-50.293,-32.715,-42.969,-43.945,0.000
1709297818.311,-40.527,-30.273,-41.504,-40.527,0.000
1709297818.315,-38.086,-30.273,-43.457,-44.922,0.000
1709297818.319,-45.898,-33.203,-43.945,-39.062,0.000
1709297818.323,-55.176,-35.645,-50.293,-47.852,0.000
1709297818.327,-53.223,-36.621,-51.758,-53.223,0.000
1709297818.331,-50.293,-41.016,-41.992,-43.457,0.000
1709297818.335,-50.781,-33.691,-37.109,-40.039,0.000
1709297818.339,-58.105,-30.273,-39.062,-44.922,0.000
1709297818.343,-63.965,-32.715,-38.574,-54.199,0.000
1709297818.346,-59.570,-32.227,-36.621,-43.945,0.000
1709297818.350,-41.992,-36.621,-36.133,-30.273,0.000
1709297818.354,-34.180,-35.645,-36.133,-32.715,0.000
1709297818.358,-49.805,-36.133,-37.109,-48.340,0.000
1709297818.362,-58.594,-35.156,-40.039,-51.270,0.000
1709297818.366,-50.293,-30.762,-39.551,-39.062,0.000
1709297818.370,-40.039,-30.762,-37.109,-37.109,0.000
1709297818.374,-43.945,-30.762,-37.598,-41.016,0.000
1709297818.378,-45.898,-30.762,-35.645,-45.410,0.000
1709297818.382,-43.457,-30.273,-39.551,-47.363,0.000
1709297818.385,-39.062,-30.762,-46.387,-42.969,0.000
1709297818.389,-30.762,-32.227,-45.410,-41.992,0.000
1709297818.393,-28.809,-33.203,-43.457,-38.086,0.000
1709297818.397,-27.344,-32.227,-42.480,-44.434,0.000
1709297818.401,-31.738,-31.250,-41.992,-46.387,0.000
1709297818.405,-40.527,-33.203,-40.039,-33.691,0.000
1709297818.409,-35.156,-35.645,-41.504,-17.578,0.000
1709297818.413,-18.555,-31.738,-44.434,-18.066,0.000
1709297818.417,-20.996,-28.809,-44.922,-37.598,0.000
1709297818.421,-34.668,-33.691,-42.480,-41.504,0.000
1709297818.425,-31.738,-29.297,-44.434,-32.715,0.000
1709297818.428,-27.344,-27.344,-46.875,-29.297,0.000
1709297818.432,-22.461,-30.273,-43.457,-29.785,0.000
1709297818.436,-24.902,-33.203,-41.992,-34.180,0.000
1709297818.440,-34.180,-35.645,-45.410,-39.062,0.000
1709297818.444,-34.180,-29.785,-44.922,-44.922,0.000
1709297818.448,-27.832,-29.297,-42.480,-38.086,0.000
1709297818.452,-13.184,-30.762,-41.016,-22.461,0.000
1709297818.456,-14.648,-29.785,-40.527,-25.879,0.000
1709297818.460,-27.344,-28.809,-43.945,-44.922,0.000
1709297818.464,-30.273,-25.879,-44.922,-53.223,0.000
1709297818.467,-24.902,-26.855,-46.875,-30.273,0.000
1709297818.471,-11.719,-30.762,-48.828,-16.602,0.000
1709297818.475,-7.324,-30.273,-42.969,-33.691,0.000
1709297818.479,0.000,-30.762,-38.086,-37.109,0.000
1709297818.483,0.000,-31.738,-39.551,-34.180,0.000
1709297818.487,0.000,-32.715,-38.086,-32.715,0.000
1709297818.491,0.000,-36.621,-38.574,-25.391,0.000
1709297818.495,0.000,-36.133,-41.504,-29.297,0.000
1709297818.499,0.000,-32.227,-41.504,-38.574,0.000
1709297818.503,0.000,-35.156,-41.504,-41.992,0.000
1709297818.507,0.000,-33.203,-42.969,-38.086,0.000
1709297818.510,0.000,-26.855,-38.086,-24.414,0.000
1709297818.514,0.000,-30.762,-38.086,-25.879,0.000
1709297818.518,0.000,-33.203,-41.992,-37.598,0.000
1709297818.522,0.000,-27.344,-38.086,-44.434,0.000
1709297818.526,-27.832,-26.855,-34.668,-32.715,0.000
1709297818.530,-18.066,-25.879,-33.203,-14.160,0.000
1709297818.534,-7.812,-24.902,-32.227,-14.648,0.000
1709297818.538,-22.461,-26.367,-32.715,-23.438,0.000
1709297818.542,-36.621,-23.926,-33.691,-24.414,0.000
1709297818.546,-39.551,-21.484,-37.598,-19.531,0.000
1709297818.550,-32.715,-22.949,-41.016,-15.625,0.000
1709297818.553,-26.855,-26.367,-43.457,-21.973,0.000
1709297818.557,-24.414,-25.879,-43.945,-30.762,0.000
1709297818.561,-30.762,-25.879,-39.551,-29.785,0.000
1709297818.565,-30.762,-25.391,-37.598,-37.109,0.000
1709297818.569,-21.973,-23.926,-43.457,-39.062,0.000
1709297818.573,-15.137,-22.461,-43.457,-22.461,0.000
1709297818.577,-21.973,-20.020,-38.086,-29.785,0.000
1709297818.581,-32.227,-20.020,-42.480,-45.898,0.000
1709297818.585,-35.645,-26.855,-45.410,-41.504,0.000
1709297818.589,-26.367,-30.762,-40.527,-26.367,0.000
1709297818.592,-13.672,-31.738,-39.062,-17.578,0.000
1709297818.596,-23.438,-32.715,-40.039,-24.414,0.000
1709297818.600,-36.133,-31.738,-39.062,-37.598,0.000
1709297818.604,-43.457,-34.668,-42.969,-36.621,0.000
1709297818.608,-40.039,-35.645,-44.434,-23.438,0.000
1709297818.612,-34.180,-38.574,-45.410,-35.156,0.000
1709297818.616,-32.227,-39.062,-45.410,-42.969,0.000
1709297818.620,-34.180,-36.621,-41.504,-41.016,0.000
1709297818.624,-39.062,-35.156,-46.387,-45.898,0.000
1709297818.628,-37.109,-34.180,-48.828,-34.180,0.000
1709297818.632,-23.926,-35.645,-47.852,-15.625,0.000
1709297818.635,-11.230,-34.668,-47.852,-26.855,0.000
1709297818.639,-22.949,-33.691,-45.410,-42.969,0.000
1709297818.643,-31.250,-32.715,-39.551,-44.922,0.000
1709297818.647,-36.133,-30.762,-35.645,-34.180,0.000
1709297818.651,-34.180,-28.809,-35.645,-16.602,0.000
1709297818.655,-26.367,-29.785,-41.504,-28.320,0.000
1709297818.659,-30.762,-31.250,-43.945,-43.457,0.000
1709297818.663,-36.621,-34.668,-45.898,-41.992,0.000
1709297818.667,-35.645,-36.621,-47.852,-41.016,0.000
1709297818.671,-27.344,-39.551,-42.969,-41.016,0.000
1709297818.675,-25.879,-40.039,-40.039,-43.457,0.000
1709297818.678,-29.785,-36.133,-39.062,-50.781,0.000
1709297818.682,-31.250,-31.250,-38.086,-53.711,0.000
1709297818.686,-35.156,-30.273,-37.109,-36.621,0.000
1709297818.690,-34.668,-31.250,-41.504,-19.531,0.000
1709297818.694,-34.668,-34.668,-39.551,-16.602,0.000
1709297818.698,-38.086,-35.156,-39.062,-27.344,0.000
1709297818.702,-39.551,-32.715,-41.504,-41.992,0.000
1709297818.706,-42.480,-36.621,-39.551,-29.785,0.000
1709297818.710,-36.621,-36.133,-40.039,-24.902,0.000
1709297818.714,-22.949,-32.227,-42.969,-21.973,0.000
1709297818.717,-19.531,-31.250,-39.551,-26.855,0.000
1709297818.721,-25.391,-35.156,-38.574,-35.156,0.000
1709297818.725,-25.391,-35.156,-40.039,-26.855,0.000
1709297818.729,-19.531,-33.691,-39.551,-23.438,0.000
1709297818.733,-22.949,-36.621,-43.457,-22.949,0.000
1709297818.737,-28.320,-36.621,-41.992,-20.508,0.000
1709297818.741,-33.203,-38.574,-39.551,-20.020,0.000
1709297818.745,-33.691,-40.527,-44.434,-36.133,0.000
1709297818.749,-30.762,-38.574,-45.410,-41.992,0.000
1709297818.753,-24.414,-31.738,-42.480,-33.203,0.000
1709297818.757,-22.949,-27.832,-35.645,-33.203,0.000
1709297818.760,-33.691,-31.250,-35.645,-40.527,0.000
1709297818.764,-41.504,-30.273,-37.598,-40.039,0.000
1709297818.768,-34.180,-28.320,-34.668,-31.250,0.000
1709297818.772,-12.695,-30.762,-32.715,-21.973,0.000
1709297818.776,-17.090,-32.227,-34.180,-28.320,0.000
1709297818.780,-39.062,-31.250,-36.621,-42.480,0.000
1709297818.784,-52.734,-29.297,-38.086,-37.598,0.000
1709297818.788,-52.734,-31.250,-43.945,-32.715,0.000
1709297818.792,-32.715,-35.156,-45.898,-34.668,0.000
1709297818.796,-24.902,-35.645,-43.945,-35.156,0.000
1709297818.799,-38.086,-30.762,-43.945,-42.480,0.000
1709297818.803,-45.410,-28.320,-47.852,-46.387,0.000
1709297818.807,-39.551,-29.785,-44.922,-41.504,0.000
1709297818.811,-32.227,-32.715,-44.922,-35.156,0.000
1709297818.815,-36.133,-34.180,-47.363,-36.133,0.000
1709297818.819,-36.133,-33.691,-46.387,-48.828,0.000
1709297818.823,-43.457,-31.250,-48.828,-50.293,0.000
1709297818.827,-39.551,-25.879,-43.945,-28.809,0.000
1709297818.831,-26.367,-23.926,-42.480,-15.625,0.000
1709297818.835,-24.902,-28.809,-42.969,-27.344,0.000
1709297818.839,-37.109,-29.785,-43.457,-38.086,0.000
1709297818.842,-47.852,-28.320,-45.410,-43.945,0.000
1709297818.846,-43.945,-30.762,-43.457,-40.039,0.000
1709297818.850,-38.574,-30.762,-44.922,-36.133,0.000
1709297818.854,0.000,-27.344,-43.457,-29.297,0.000
1709297818.858,0.000,-28.809,-46.875,-28.320,0.000
1709297818.862,0.000,-27.344,-56.641,-41.016,0.000
1709297818.866,0.000,-28.320,-55.176,-28.320,0.000
1709297818.870,0.000,-35.645,-49.805,-16.113,0.000
1709297818.874,0.000,-44.434,-45.410,-33.203,0.000
1709297818.878,0.000,-45.410,-40.039,-68.359,0.000
1709297818.881,0.000,-39.062,-35.156,-79.102,0.000
1709297818.885,0.000,-37.109,-35.645,-61.035,0.000
1709297818.889,0.000,-41.504,-40.527,-39.062,0.000
1709297818.893,0.000,-41.992,-41.504,-42.969,0.000
1709297818.897,0.000,-44.434,-43.457,-68.848,0.000
1709297818.901,-26.855,-44.922,-44.434,-66.895,0.000
1709297818.905,-30.762,-42.480,-45.410,-55.664,0.000
1709297818.909,-42.969,-41.504,-50.781,-54.199,0.000
1709297818.913,-34.180,-43.457,-56.152,-61.035,0.000
1709297818.917,-34.668,-44.922,-55.176,-62.500,0.000
1709297818.920,-52.246,-41.016,-50.781,-62.012,0.000
1709297818.924,-68.359,-40.039,-46.875,-62.012,0.000
1709297818.928,-73.730,-43.457,-47.852,-58.105,0.000
1709297818.932,-66.406,-43.945,-49.805,-44.922,0.000
1709297818.936,-54.688,-44.434,-45.410,-41.992,0.000
1709297818.940,-36.133,-41.992,-44.922,-59.570,0.000
1709297818.944,-38.574,-38.574,-47.363,-65.430,0.000
1709297818.948,-43.945,-40.039,-47.852,-50.293,0.000
1709297818.952,-34.668,-40.039,-49.316,-36.621,0.000
1709297818.956,-32.227,-39.062,-48.828,-41.504,0.000
1709297818.960,-37.598,-33.691,-45.898,-50.781,0.000
1709297818.963,-36.133,-36.621,-45.898,-52.734,0.000
1709297818.967,-24.414,-40.527,-44.922,-47.852,0.000
1709297818.971,-14.160,-40.527,-43.945,-41.504,0.000
1709297818.975,-20.508,-40.039,-39.551,-35.156,0.000
1709297818.979,-29.785,-41.992,-35.645,-34.180,0.000
1709297818.983,-38.086,-41.504,-39.062,-36.133,0.000
1709297818.987,-36.133,-41.016,-37.598,-30.273,0.000
1709297818.991,-23.926,-37.598,-33.691,-10.742,0.000
1709297818.995,-15.137,-32.715,-35.645,-8.301,0.000
1709297818.999,-17.578,-32.227,-37.109,-27.344,0.000
1709297819.002,-20.020,-32.227,-36.133,-21.484,0.000
1709297819.006,-18.066,-33.203,-36.621,-12.207,0.000
1709297819.010,-17.090,-32.715,-31.738,-9.277,0.000
1709297819.014,-22.461,-34.180,-30.273,-11.719,0.000
1709297819.018,-39.062,-38.086,-32.715,-33.691,0.000
1709297819.022,-42.969,-37.598,-35.156,-41.016,0.000
1709297819.026,-40.527,-36.133,-37.598,-32.227,0.000
1709297819.030,-26.855,-36.133,-38.574,-29.785,0.000
1709297819.034,-16.113,-34.180,-36.133,-27.344,0.000
1709297819.038,-22.461,-32.715,-34.668,-28.809,0.000
1709297819.042,-34.668,-35.645,-39.551,-37.598,0.000
1709297819.045,-40.039,-40.039,-41.992,-49.316,0.000
1709297819.049,-32.227,-37.598,-41.016,-50.293,0.000
1709297819.053,-25.391,-36.133,-40.039,-39.062,0.000
1709297819.057,-28.809,-38.086,-42.480,-41.504,0.000
1709297819.061,-45.898,-34.668,-47.852,-52.246,0.000
1709297819.065,-57.617,-32.715,-48.828,-60.059,0.000
1709297819.069,-51.758,-36.133,-49.316,-44.922,0.000
1709297819.073,-40.039,-38.086,-50.781,-41.016,0.000
1709297819.077,-28.320,-33.203,-43.945,-51.758,0.000
1709297819.081,-35.156,-31.738,-43.457,-52.246,0.000
1709297819.084,-40.039,-33.203,-43.945,-50.293,0.000
1709297819.088,-36.133,-32.715,-41.504,-35.645,0.000
1709297819.092,-30.273,-36.133,-41.504,-38.086,0.000
1709297819.096,-32.227,-36.621,-41.992,-43.945,0.000
1709297819.100,-48.340,-35.156,-37.109,-49.316,0.000
1709297819.104,-49.805,-38.086,-32.227,-55.664,0.000
1709297819.108,-39.551,-36.621,-36.133,-45.898,0.000
1709297819.112,-29.785,-31.738,-37.598,-42.480,0.000
1709297819.116,-31.738,-31.250,-41.016,-45.410,0.000
1709297819.120,-42.480,-29.785,-45.410,-54.688,0.000
1709297819.124,-44.434,-27.832,-42.480,-55.176,0.000
1709297819.127,-37.109,-34.668,-43.457,-41.504,0.000
1709297819.131,-27.344,-39.062,-40.527,-29.297,0.000
1709297819.135,-35.645,-38.574,-41.016,-32.227,0.000
1709297819.139,-46.387,-40.527,-42.480,-47.852,0.000
1709297819.143,-41.992,-39.062,-40.527,-48.340,0.000
1709297819.147,-40.527,-34.180,-40.527,-36.133,0.000
1709297819.151,-31.738,-33.203,-44.922,-34.180,0.000
1709297819.155,-28.809,-35.156,-50.293,-40.527,0.000
1709297819.159,-39.062,-32.715,-52.246,-37.598,0.000
1709297819.163,-44.434,-29.785,-50.781,-38.574,0.000
1709297819.166,-43.945,-36.621,-52.246,-48.828,0.000
1709297819.170,-37.109,-37.598,-56.641,-45.898,0.000
1709297819.174,-34.180,-31.250,-50.781,-38.086,0.000
1709297819.178,-41.016,-30.762,-50.781,-45.898,0.000
1709297819.182,-52.246,-35.645,-52.734,-56.641,0.000
1709297819.186,-48.828,-35.645,-47.363,-45.898,0.000
1709297819.190,-34.180,-31.250,-44.922,-28.809,0.000
1709297819.194,-24.414,-30.762,-41.992,-24.902,0.000
1709297819.198,-24.414,-30.273,-40.527,-32.227,0.000
1709297819.202,-40.039,-33.203,-42.969,-35.645,0.000
1709297819.206,-42.969,-35.645,-42.969,-22.949,0.000
1709297819.209,-20.508,-30.762,-43.945,-14.648,0.000
1709297819.213,-2.930,-28.320,-45.898,-21.973,0.000
1709297819.217,-9.277,-34.668,-42.480,-29.785,0.000
1709297819.221,-29.297,-37.598,-38.086,-25.879,0.000
1709297819.225,-24.902,-34.668,-33.691,-21.973,0.000
1709297819.229,-19.043,-37.598,-36.621,-17.578,0.000
1709297819.233,-19.043,-37.598,-37.109,-16.602,0.000
1709297819.237,-20.996,-38.574,-35.645,-16.602,0.000
1709297819.241,-31.250,-38.086,-38.574,-20.508,0.000
1709297819.245,-30.273,-39.062,-38.086,-16.113,0.000
1709297819.249,-17.578,-39.062,-35.645,1.465,0.000
1709297819.252,-5.859,-32.715,-33.691,11.230,0.000
1709297819.256,-3.418,-30.273,-35.645,2.930,0.000
1709297819.260,-15.625,-30.762,-32.715,-10.254,0.000
1709297819.264,-27.344,-29.785,-29.785,-1.465,0.000
1709297819.268,-18.066,-25.391,-30.273,7.812,0.000
1709297819.272,-12.207,-27.832,-34.668,-1.953,0.000
1709297819.276,-15.625,-34.668,-36.133,-15.137,0.000
1709297819.280,-22.461,-35.645,-34.668,-23.926,0.000
1709297819.284,-33.691,-34.180,-37.598,-24.902,0.000
1709297819.288,-32.715,-34.668,-42.480,-20.996,0.000
1709297819.291,-16.113,-30.762,-43.945,-21.484,0.000
1709297819.295,-14.648,-30.762,-42.480,-34.180,0.000
1709297819.299,-26.855,-30.273,-41.992,-42.969,0.000
1709297819.303,-35.156,-26.855,-40.039,-38.574,0.000
1709297819.307,-31.250,-26.855,-41.504,-20.996,0.000
1709297819.311,-21.973,-24.414,-43.457,-7.324,0.000
1709297819.315,-18.555,-17.578,-39.062,-16.113,0.000
1709297819.319,-17.090,-15.137,-35.156,-21.973,0.000
1709297819.323,-21.973,-19.531,-38.086,-26.367,0.000
1709297819.327,-24.414,-26.855,-40.039,-28.809,0.000
1709297819.331,-14.648,-29.297,-42.480,-27.832,0.000
1709297819.334,-16.602,-32.715,-44.434,-34.668,0.000
1709297819.338,-27.832,-35.156,-41.504,-40.527,0.000
1709297819.342,-28.809,-34.668,-37.109,-41.504,0.000
1709297819.346,-24.902,-35.645,-40.527,-35.645,0.000
1709297819.350,-14.648,-32.227,-41.016,-29.785,0.000
1709297819.354,-9.277,-32.715,-39.062,-22.949,0.000
1709297819.358,-19.043,-32.715,-41.504,-29.785,0.000
1709297819.362,-28.809,-28.320,-42.480,-43.457,0.000
1709297819.366,-26.855,-24.414,-38.574,-32.227,0.000
1709297819.370,-20.996,-27.832,-41.016,-18.555,0.000
1709297819.374,-20.020,-28.809,-41.504,-21.484,0.000
1709297819.377,-24.414,-27.344,-39.551,-29.297,0.000
1709297819.381,-31.738,-34.668,-44.434,-40.527,0.000
1709297819.385,-26.855,-30.762,-46.387,-40.039,0.000
1709297819.389,-19.043,-26.367,-46.387,-32.715,0.000
1709297819.393,-19.531,-36.133,-47.363,-31.738,0.000
1709297819.397,-23.926,-37.598,-43.945,-37.598,0.000
1709297819.401,-33.691,-33.203,-41.016,-38.086,0.000
1709297819.405,-34.668,-29.785,-41.504,-33.691,0.000
1709297819.409,-26.367,-32.227,-42.480,-40.039,0.000
1709297819.413,-23.926,-33.691,-44.922,-42.480,0.000
1709297819.417,-21.484,-34.180,-44.922,-44.434,0.000
1709297819.420,-29.785,-34.180,-41.992,-47.363,0.000
1709297819.424,-37.598,-32.227,-38.574,-39.551,0.000
1709297819.428,-35.645,-34.180,-37.598,-34.180,0.000
1709297819.432,-24.902,-28.809,-35.156,-30.762,0.000
1709297819.436,-26.855,-23.438,-32.227,-36.621,0.000
1709297819.440,-45.410,-30.273,-38.574,-53.711,0.000
1709297819.444,-54.688,-35.156,-44.434,-55.664,0.000
1709297819.448,-49.316,-34.180,-43.945,-49.805,0.000
1709297819.452,-35.645,-33.203,-44.434,-44.434,0.000
1709297819.456,-32.715,-33.203,-41.992,-43.945,0.000
1709297819.459,-42.969,-30.762,-40.039,-46.387,0.000
1709297819.463,-51.758,-30.762,-39.551,-45.410,0.000
1709297819.467,-37.109,-28.809,-46.875,-43.457,0.000
1709297819.471,-5.859,-25.391,-54.688,-14.648,0.000
1709297819.475,2.441,-28.320,-47.363,-1.465,0.000
1709297819.479,-24.902,-33.203,-33.691,-20.996,0.000
1709297819.483,-50.781,-40.039,-33.203,-36.621,0.000
1709297819.487,-46.387,-46.387,-40.039,-40.527,0.000
1709297819.491,-31.250,-55.176,-33.203,-26.855,0.000
1709297819.495,-35.156,-63.965,-29.297,-39.062,0.000
1709297819.499,-46.387,-66.406,-29.297,-43.457,0.000
1709297819.503,-55.176,-70.801,-25.879,-35.645,0.000
1709297819.506,-55.664,-73.730,-24.414,-48.340,0.000
1709297819.510,-43.945,-74.707,-26.855,-33.691,0.000
1709297819.514,-42.480,-70.801,-29.297,-25.391,0.000
1709297819.518,-46.875,-69.824,-33.691,-41.016,0.000
1709297819.522,-46.875,-69.824,-36.621,-42.969,0.000
1709297819.526,-50.293,-68.359,-40.039,-38.574,0.000
1709297819.530,-40.527,-68.359,-42.480,-24.902,0.000
1709297819.534,-33.203,-62.988,-42.480,-20.508,0.000
1709297819.538,-35.645,-60.547,-38.086,-25.391,0.000
1709297819.542,-36.621,-62.500,-34.668,-24.902,0.000
1709297819.545,-41.016,-60.059,-34.668,-23.926,0.000
1709297819.549,-34.668,-57.617,-35.645,-15.625,0.000
1709297819.553,-30.762,-56.152,-38.574,-17.090,0.000
1709297819.557,-32.227,-57.129,-41.016,-28.320,0.000
1709297819.561,-35.156,-56.152,-41.992,-40.039,0.000
1709297819.565,-45.410,-55.664,-39.551,-29.785,0.000
1709297819.569,-38.574,-53.223,-35.645,-21.484,0.000
1709297819.573,-20.996,-53.223,-38.086,-30.762,0.000
1709297819.577,-28.809,-54.688,-39.551,-41.504,0.000
1709297819.581,-46.875,-53.223,-45.898,-45.898,0.000
1709297819.585,-45.410,-52.246,-49.805,-41.504,0.000
1709297819.588,-32.227,-48.828,-42.480,-31.738,0.000
1709297819.592,-31.738,-51.758,-40.039,-24.902,0.000
1709297819.596,-36.133,-54.688,-39.062,-28.809,0.000
1709297819.600,-34.668,-53.223,-38.574,-41.504,0.000
1709297819.604,-34.668,-47.363,-35.156,-33.203,0.000
1709297819.608,-32.227,-43.945,-33.203,-23.926,0.000
1709297819.612,-27.344,-47.363,-31.738,-34.668,0.000
1709297819.616,-29.297,-43.945,-27.832,-34.668,0.000
1709297819.620,-37.109,-40.527,-29.297,-37.109,0.000
1709297819.624,-39.551,-41.504,-31.738,-25.391,0.000
1709297819.627,-33.203,-42.480,-32.227,-17.090,0.000
1709297819.631,-20.020,-43.945,-37.109,-23.926,0.000
1709297819.635,-18.555,-43.945,-39.062,-28.320,0.000
1709297819.639,-34.668,-41.992,-36.621,-32.715,0.000
1709297819.643,-49.805,-38.086,-36.621,-36.133,0.000
1709297819.647,-50.293,-37.109,-40.039,-36.621,0.000
1709297819.651,-33.203,-40.039,-42.969,-27.832,0.000
1709297819.655,-22.461,-37.109,-41.016,-24.902,0.000
1709297819.659,-32.227,-32.227,-36.621,-42.969,0.000
1709297819.663,-44.434,-33.203,-34.180,-48.340,0.000
1709297819.667,-41.992,-32.715,-34.180,-33.691,0.000
1709297819.670,-26.855,-31.738,-33.691,-28.320,0.000
1709297819.674,-24.414,-31.738,-38.086,-40.527,0.000
1709297819.678,-41.016,-31.250,-42.969,-61.523,0.000
1709297819.682,-59.570,-34.180,-45.410,-60.547,0.000
1709297819.686,-58.594,-38.086,-47.852,-43.457,0.000
1709297819.690,-33.691,-31.738,-44.922,-38.574,0.000
1709297819.694,-26.855,-29.785,-41.992,-34.668,0.000
