timestamps,TP9,AF7,AF8,TP10,Right AUX
1709374281.555,0.000,-39.062,-42.480,-61.035,0.000
1709374281.559,0.000,-44.434,-34.180,-72.266,0.000
1709374281.562,0.000,-41.504,-32.715,-45.898,0.000
1709374281.566,0.000,-38.574,-34.668,-1.465,0.000
1709374281.570,0.000,-39.062,-32.227,-8.301,0.000
1709374281.574,0.000,-32.227,-32.715,-39.551,0.000
1709374281.578,0.000,-26.855,-29.785,-51.270,0.000
1709374281.582,0.000,-30.273,-29.785,-35.645,0.000
1709374281.586,0.000,-35.645,-33.691,11.719,0.000
1709374281.590,0.000,-34.180,-35.645,0.000,0.000
1709374281.594,0.000,-34.668,-35.645,-54.199,0.000
1709374281.598,0.000,-35.645,-29.297,-65.430,0.000
1709374281.601,-41.016,-35.645,-28.320,-50.293,0.000
1709374281.605,3.418,-35.156,-26.367,-11.719,0.000
1709374281.609,2.930,-37.109,-26.855,-5.371,0.000
1709374281.613,-45.898,-41.504,-34.180,-49.316,0.000
1709374281.617,-65.430,-32.715,-33.691,-62.500,0.000
1709374281.621,-47.363,-23.926,-33.691,-46.387,0.000
1709374281.625,-4.883,-31.250,-37.598,-14.648,0.000
1709374281.629,0.977,-30.273,-27.832,-0.977,0.000
1709374281.633,-54.688,-27.344,-23.926,-37.109,0.000
1709374281.637,-80.566,-33.203,-30.273,-59.570,0.000
1709374281.641,-68.359,-37.109,-30.762,-55.176,0.000
1709374281.644,-18.555,-37.109,-31.250,-16.113,0.000
1709374281.648,4.395,-35.156,-34.668,6.836,0.000
1709374281.652,-41.016,-37.598,-30.762,-29.297,0.000
1709374281.656,-65.430,-41.992,-27.344,-55.664,0.000
1709374281.660,-66.895,-38.574,-32.715,-53.711,0.000
1709374281.664,-31.250,-41.504,-39.062,-23.438,0.000
1709374281.668,-2.930,-40.039,-37.598,-2.930,0.000
1709374281.672,-47.852,-35.645,-38.086,-35.645,0.000
1709374281.676,-77.637,-40.527,-38.574,-54.199,0.000
1709374281.679,-73.242,-42.480,-36.133,-54.688,0.000
1709374281.683,-38.086,-40.039,-31.738,-33.691,0.000
1709374281.687,0.488,-39.062,-33.203,-6.836,0.000
1709374281.691,-27.344,-38.574,-38.574,-36.621,0.000
1709374281.695,-62.500,-30.762,-39.551,-64.941,0.000
1709374281.699,-65.918,-29.785,-39.062,-61.523,0.000
1709374281.703,-28.809,-28.320,-36.621,-32.227,0.000
1709374281.707,12.695,-31.250,-39.551,-5.859,0.000
1709374281.710,-18.066,-36.133,-38.086,-21.973,0.000
1709374281.714,-53.223,-29.297,-28.320,-44.922,0.000
1709374281.718,-57.617,-31.738,-23.926,-46.875,0.000
1709374281.722,-36.133,-41.992,-28.320,-31.250,0.000
1709374281.726,10.742,-40.039,-31.250,-4.395,0.000
1709374281.730,0.488,-37.598,-34.668,-20.020,0.000
1709374281.734,-41.016,-40.527,-39.062,-60.059,0.000
1709374281.738,-51.270,-35.645,-38.574,-65.918,0.000
1709374281.742,-23.926,-27.344,-35.645,-34.180,0.000
1709374281.745,17.090,-31.738,-32.227,3.418,0.000
1709374281.749,-1.465,-36.133,-31.250,-7.324,0.000
1709374281.753,-51.270,-32.227,-39.062,-42.969,0.000
1709374281.757,-69.336,-33.203,-38.574,-58.594,0.000
1709374281.761,-52.734,-39.551,-31.738,-36.621,0.000
1709374281.765,-9.277,-43.945,-32.715,9.766,0.000
1709374281.769,-3.418,-39.551,-34.668,2.930,0.000
1709374281.773,-45.898,-35.645,-33.203,-33.203,0.000
1709374281.777,-57.617,-33.203,-27.344,-44.434,0.000
1709374281.781,-37.109,-27.344,-31.250,-31.738,0.000
1709374281.785,6.348,-31.250,-41.016,0.000,0.000
1709374281.789,12.695,-29.785,-41.992,8.789,0.000
1709374281.793,-32.227,-24.902,-35.645,-23.438,0.000
1709374281.797,-50.781,-24.414,-33.203,-43.457,0.000
1709374281.800,-39.062,-27.344,-36.621,-36.621,0.000
1709374281.804,2.441,-34.668,-35.156,0.488,0.000
1709374281.808,8.789,-36.133,-29.297,17.578,0.000
1709374281.812,-42.969,-41.016,-33.203,-31.250,0.000
1709374281.816,-67.871,-40.527,-34.180,-64.453,0.000
1709374281.820,-58.594,-36.621,-34.180,-58.105,0.000
1709374281.824,-14.648,-36.621,-38.086,-12.207,0.000
1709374281.828,4.395,-34.180,-38.574,5.371,0.000
1709374281.832,-35.156,-38.086,-39.551,-41.504,0.000
1709374281.836,-60.547,-36.621,-36.621,-67.871,0.000
1709374281.840,-59.082,-37.109,-38.086,-60.059,0.000
1709374281.844,-21.973,-39.062,-38.574,-28.809,0.000
1709374281.848,6.348,-39.062,-36.621,0.977,0.000
1709374281.851,-31.738,-37.109,-38.086,-24.414,0.000
1709374281.855,-70.312,-33.203,-36.621,-62.988,0.000
1709374281.859,-74.707,-34.180,-37.598,-70.312,0.000
1709374281.863,-41.992,-40.039,-44.922,-42.480,0.000
1709374281.867,0.977,-45.898,-43.457,0.000,0.000
1709374281.871,-26.367,-41.992,-36.133,-13.672,0.000
1709374281.875,-69.336,-39.062,-41.992,-54.199,0.000
1709374281.879,-62.500,-39.062,-39.062,-47.852,0.000
1709374281.883,-20.508,-34.668,-36.133,-14.160,0.000
1709374281.887,13.672,-31.250,-42.480,1.953,0.000
1709374281.891,-27.344,-32.715,-41.504,-35.645,0.000
1709374281.895,-70.312,-33.203,-42.480,-71.777,0.000
1709374281.898,-65.430,-25.879,-40.527,-68.359,0.000
1709374281.902,-35.645,-26.367,-38.574,-45.410,0.000
1709374281.906,8.789,-29.297,-37.109,-14.160,0.000
1709374281.910,-5.371,-28.320,-35.156,-21.973,0.000
1709374281.914,-53.711,-29.297,-32.227,-46.875,0.000
1709374281.918,-69.336,-28.320,-31.738,-58.105,0.000
1709374281.922,-50.781,-35.156,-32.227,-57.129,0.000
1709374281.926,0.977,-38.086,-29.785,-17.090,0.000
1709374281.930,-2.441,-33.691,-32.715,-14.160,0.000
1709374281.934,-54.199,-33.203,-31.250,-62.500,0.000
1709374281.938,-65.430,-31.250,-27.832,-75.684,0.000
1709374281.941,-49.316,-26.855,-29.785,-62.012,0.000
1709374281.945,-13.672,-29.297,-33.203,-26.367,0.000
1709374281.949,-4.395,-28.809,-36.133,-17.090,0.000
1709374281.953,-48.828,-28.809,-39.062,-51.270,0.000
1709374281.957,-62.988,-30.762,-35.156,-66.406,0.000
1709374281.961,-47.363,-33.203,-35.156,-58.105,0.000
1709374281.965,-5.859,-37.598,-42.969,-27.344,0.000
1709374281.969,13.672,-36.621,-41.504,-11.719,0.000
1709374281.973,-30.273,-33.203,-33.203,-41.016,0.000
1709374281.976,-47.852,-30.273,-32.227,-62.988,0.000
1709374281.980,-41.016,-28.320,-36.621,-59.570,0.000
1709374281.984,-6.836,-33.203,-41.504,-23.438,0.000
1709374281.988,20.020,-34.668,-41.016,-3.906,0.000
1709374281.992,-22.461,-32.227,-33.691,-41.992,0.000
1709374281.996,-56.641,-31.738,-35.156,-62.012,0.000
1709374282.000,-50.293,-33.691,-35.156,-49.805,0.000
1709374282.004,-7.324,-41.992,-38.574,-14.648,0.000
1709374282.008,21.484,-39.062,-45.898,6.836,0.000
1709374282.012,-22.949,-35.156,-39.062,-31.738,0.000
1709374282.016,-58.594,-39.062,-38.574,-60.547,0.000
1709374282.019,-55.664,-39.062,-38.574,-58.105,0.000
1709374282.023,-28.320,-39.551,-37.109,-29.785,0.000
1709374282.027,5.371,-42.969,-38.574,-1.465,0.000
1709374282.031,-25.879,-45.410,-37.598,-26.855,0.000
1709374282.035,-66.895,-42.969,-38.574,-56.641,0.000
1709374282.039,-63.965,-42.969,-40.039,-54.688,0.000
1709374282.043,-33.691,-41.504,-34.668,-31.738,0.000
1709374282.047,-2.441,-35.645,-33.203,5.371,0.000
1709374282.051,-25.879,-33.203,-35.645,-7.812,0.000
1709374282.054,-69.824,-37.109,-39.551,-55.176,0.000
1709374282.058,-79.590,-41.016,-41.504,-67.383,0.000
1709374282.062,-48.828,-40.039,-41.016,-41.016,0.000
1709374282.066,0.000,-34.180,-36.133,1.953,0.000
1709374282.070,-15.137,-35.645,-39.062,-14.160,0.000
1709374282.074,-60.059,-35.645,-40.527,-52.734,0.000
1709374282.078,-64.453,-32.227,-38.086,-54.688,0.000
1709374282.082,-39.551,-34.668,-39.551,-40.039,0.000
1709374282.086,8.789,-34.668,-39.551,-2.930,0.000
1709374282.089,3.906,-34.180,-40.527,-11.230,0.000
1709374282.093,-35.156,-34.668,-39.551,-47.363,0.000
1709374282.097,-46.387,-34.668,-38.086,-51.758,0.000
1709374282.101,-37.598,-38.086,-41.504,-43.457,0.000
1709374282.105,9.766,-38.086,-41.016,-3.906,0.000
1709374282.109,10.254,-34.180,-34.180,8.301,0.000
1709374282.113,-46.875,-31.738,-33.691,-34.180,0.000
1709374282.116,-66.406,-24.414,-34.180,-51.758,0.000
1709374282.120,-51.270,-23.438,-31.250,-42.969,0.000
1709374282.124,-3.418,-29.785,-27.832,-10.254,0.000
1709374282.128,4.883,-26.367,-27.344,-9.766,0.000
1709374282.132,-42.480,-26.855,-27.832,-45.898,0.000
1709374282.136,-67.871,-30.273,-33.203,-60.547,0.000
1709374282.140,-78.613,-23.926,-35.156,-69.824,0.000
1709374282.144,-42.480,-12.207,-41.016,-52.246,0.000
1709374282.148,-15.625,-1.953,-50.293,-41.504,0.000
1709374282.152,-57.129,6.836,-52.734,-84.961,0.000
1709374282.156,-89.355,21.484,-55.176,-111.816,0.000
1709374282.159,-86.426,38.574,-55.664,-113.281,0.000
1709374282.164,-49.805,49.805,-57.129,-88.867,0.000
1709374282.168,-27.832,59.082,-58.105,-64.941,0.000
1709374282.171,-60.059,72.754,-52.734,-100.098,0.000
1709374282.175,-86.914,80.078,-62.500,-127.930,0.000
1709374282.179,-76.660,84.961,-67.871,-113.281,0.000
1709374282.183,-35.156,96.191,-63.965,-71.777,0.000
1709374282.187,2.930,106.445,-65.918,-36.133,0.000
1709374282.191,-15.625,109.863,-71.777,-51.758,0.000
1709374282.195,-38.086,114.258,-79.590,-64.941,0.000
1709374282.199,-20.508,120.605,-79.590,-38.086,0.000
1709374282.203,34.180,124.023,-89.355,9.766,0.000
1709374282.207,90.820,125.977,-95.215,53.223,0.000
1709374282.211,75.684,130.859,-97.168,34.668,0.000
1709374282.215,47.363,135.742,-99.609,10.742,0.000
1709374282.219,48.828,135.254,-102.051,12.695,0.000
1709374282.222,81.543,132.812,-101.562,34.180,0.000
1709374282.226,134.766,131.836,-104.492,76.660,0.000
1709374282.230,118.652,131.836,-104.492,59.570,0.000
1709374282.234,80.566,134.766,-99.609,28.809,0.000
1709374282.238,74.219,137.695,-96.680,28.809,0.000
1709374282.242,107.422,137.207,-92.773,52.734,0.000
1709374282.246,152.832,131.836,-99.609,92.773,0.000
1709374282.250,125.977,127.441,-100.098,76.660,0.000
1709374282.254,78.613,128.906,-92.773,36.621,0.000
1709374282.258,57.129,125.488,-86.914,20.508,0.000
1709374282.262,64.941,111.328,-80.078,41.504,0.000
1709374282.266,115.234,100.098,-80.078,86.426,0.000
1709374282.269,107.910,98.145,-74.219,85.449,0.000
1709374282.273,52.246,90.332,-67.871,37.109,0.000
1709374282.277,30.762,80.078,-73.730,7.324,0.000
1709374282.281,35.156,70.801,-73.730,16.602,0.000
1709374282.285,73.242,60.059,-67.383,49.316,0.000
1709374282.289,73.730,51.270,-67.871,55.176,0.000
1709374282.293,20.020,44.922,-73.730,17.090,0.000
1709374282.297,1.953,44.434,-69.824,-8.789,0.000
1709374282.301,12.695,43.945,-59.082,0.000,0.000
1709374282.305,46.875,34.668,-59.570,37.598,0.000
1709374282.309,61.035,27.832,-62.500,54.199,0.000
1709374282.312,15.625,28.809,-54.688,13.184,0.000
1709374282.316,-11.230,24.414,-54.688,-16.602,0.000
1709374282.320,-9.277,17.578,-55.664,-6.348,0.000
1709374282.324,36.133,15.625,-51.758,33.203,0.000
1709374282.328,61.523,11.230,-52.734,39.062,0.000
1709374282.332,15.625,11.719,-48.828,2.441,0.000
1709374282.336,-9.766,12.207,-44.434,-8.789,0.000
1709374282.340,-17.090,11.719,-49.805,-18.555,0.000
1709374282.344,8.301,10.254,-53.711,2.441,0.000
1709374282.348,40.039,5.371,-54.199,24.414,0.000
1709374282.352,2.441,1.953,-54.688,-9.766,0.000
1709374282.355,-34.668,-0.488,-52.246,-40.039,0.000
1709374282.359,-29.297,-3.906,-51.270,-38.086,0.000
1709374282.363,-1.465,-9.277,-55.176,-6.348,0.000
1709374282.367,25.879,-12.207,-55.176,15.625,0.000
1709374282.371,-10.742,-9.766,-52.734,-17.090,0.000
1709374282.375,-50.293,-5.371,-53.711,-50.293,0.000
1709374282.379,-49.805,-5.859,-46.387,-42.480,0.000
1709374282.383,-17.578,-14.648,-46.875,-17.578,0.000
1709374282.387,17.090,-17.090,-50.293,4.883,0.000
1709374282.391,-5.371,-10.254,-43.457,-2.930,0.000
1709374282.394,-43.457,-13.184,-42.480,-38.086,0.000
1709374282.398,-49.316,-17.578,-41.504,-49.805,0.000
1709374282.402,-21.973,-20.020,-37.109,-23.926,0.000
1709374282.406,21.484,-21.973,-40.039,13.672,0.000
1709374282.410,2.930,-20.020,-49.316,-3.906,0.000
1709374282.414,-45.898,-18.555,-51.758,-45.410,0.000
1709374282.418,-56.641,-16.602,-47.363,-51.270,0.000
1709374282.422,-32.227,-14.648,-46.387,-34.668,0.000
1709374282.426,16.602,-19.531,-49.805,-0.488,0.000
1709374282.430,12.207,-19.531,-50.293,-9.277,0.000
1709374282.433,-39.551,-19.043,-46.387,-50.293,0.000
1709374282.437,-51.270,-21.973,-41.992,-52.734,0.000
1709374282.441,-34.180,-20.996,-41.504,-36.133,0.000
1709374282.445,8.789,-20.508,-46.875,-5.371,0.000
1709374282.449,14.648,-22.461,-50.293,-3.906,0.000
1709374282.453,-32.715,-19.531,-47.363,-42.480,0.000
1709374282.457,-59.082,-20.996,-44.434,-57.129,0.000
1709374282.461,-45.410,-25.879,-45.410,-49.316,0.000
1709374282.464,8.789,-22.461,-44.434,-8.789,0.000
1709374282.468,25.391,-11.230,-40.527,15.137,0.000
1709374282.472,-30.273,-12.695,-38.574,-30.762,0.000
1709374282.476,-60.059,-26.367,-41.016,-62.988,0.000
1709374282.480,-45.898,-22.461,-39.062,-56.641,0.000
1709374282.484,-5.859,-20.996,-36.133,-22.949,0.000
1709374282.488,6.348,-23.926,-46.387,-5.859,0.000
1709374282.492,-43.945,-24.414,-43.945,-41.504,0.000
1709374282.495,-78.613,-28.809,-32.715,-64.453,0.000
1709374282.499,-75.195,-29.785,-34.668,-62.988,0.000
1709374282.503,-36.133,-30.762,-38.086,-29.297,0.000
1709374282.507,-5.371,-34.180,-37.109,-6.836,0.000
1709374282.511,-44.434,-37.598,-34.668,-39.062,0.000
1709374282.515,-79.102,-38.574,-31.738,-48.828,0.000
1709374282.519,-74.219,-40.039,-32.715,-48.828,0.000
1709374282.523,-33.691,-43.945,-36.133,-26.855,0.000
1709374282.527,-1.953,-44.434,-40.039,0.977,0.000
1709374282.531,-36.133,-39.062,-40.039,-29.785,0.000
1709374282.535,-67.871,-38.086,-38.086,-52.734,0.000
1709374282.539,-59.570,-36.133,-39.062,-63.477,0.000
1709374282.543,-25.391,-31.738,-36.621,-52.734,0.000
1709374282.547,14.160,-33.691,-33.203,-14.160,0.000
1709374282.550,-16.602,-38.086,-31.738,-32.227,0.000
1709374282.554,-66.895,-38.574,-29.297,-65.918,0.000
1709374282.558,-71.289,-42.969,-33.691,-69.336,0.000
1709374282.562,-42.480,-39.551,-36.133,-40.039,0.000
1709374282.566,9.277,-35.156,-34.180,1.953,0.000
1709374282.570,-9.277,-38.574,-33.691,-16.113,0.000
1709374282.574,-57.129,-40.039,-28.320,-45.410,0.000
1709374282.578,-64.941,-44.434,-28.320,-55.664,0.000
1709374282.582,-52.246,-42.480,-31.250,-44.434,0.000
1709374282.587,-10.254,-38.574,-27.344,1.953,0.000
1709374282.591,-16.602,-43.945,-26.855,-11.230,0.000
1709374282.594,-57.129,-42.480,-26.367,-50.293,0.000
1709374282.598,-67.383,-39.062,-25.391,-56.641,0.000
1709374282.602,-51.758,-41.016,-23.438,-47.852,0.000
1709374282.606,-5.371,-41.504,-23.438,-5.371,0.000
1709374282.610,-5.371,-35.645,-24.414,-1.953,0.000
1709374282.614,-53.711,-31.738,-29.297,-52.246,0.000
1709374282.618,-61.035,-34.180,-29.297,-67.383,0.000
1709374282.622,-36.621,-27.832,-30.273,-41.504,0.000
1709374282.626,8.789,-26.367,-38.574,-9.766,0.000
1709374282.630,12.695,-33.203,-40.039,-3.418,0.000
1709374282.634,-35.156,-35.156,-37.109,-43.457,0.000
1709374282.638,-50.293,-30.273,-35.645,-63.965,0.000
1709374282.641,-36.621,-30.762,-35.645,-53.223,0.000
1709374282.645,-0.488,-39.551,-40.527,-22.461,0.000
1709374282.649,13.184,-41.016,-39.551,-4.395,0.000
1709374282.653,-27.832,-36.621,-32.715,-30.762,0.000
1709374282.657,-60.547,-39.062,-33.691,-56.641,0.000
1709374282.661,-65.430,-35.156,-32.227,-63.477,0.000
1709374282.665,-24.902,-26.855,-28.809,-20.508,0.000
1709374282.669,-0.488,-24.414,-32.227,2.930,0.000
1709374282.673,-41.504,-27.344,-30.762,-41.016,0.000
1709374282.677,-80.566,-34.668,-28.320,-59.082,0.000
1709374282.680,-73.242,-33.203,-31.738,-52.246,0.000
1709374282.684,-35.645,-34.180,-38.574,-33.203,0.000
1709374282.688,-9.277,-39.062,-42.969,-6.348,0.000
1709374282.692,-36.621,-30.762,-34.668,-30.762,0.000
1709374282.696,-67.383,-28.809,-29.785,-57.617,0.000
1709374282.700,-62.500,-36.133,-32.715,-54.688,0.000
1709374282.704,-28.809,-34.180,-31.250,-23.926,0.000
1709374282.708,8.789,-29.297,-26.855,14.160,0.000
1709374282.712,-15.137,-30.273,-27.344,-7.324,0.000
1709374282.716,-62.500,-34.180,-35.156,-50.781,0.000
1709374282.720,-66.895,-37.109,-34.180,-55.664,0.000
1709374282.723,-23.926,-28.809,-32.715,-28.320,0.000
1709374282.727,0.000,-24.414,-35.645,7.324,0.000
1709374282.731,0.000,-30.762,-33.691,-9.766,0.000
1709374282.735,0.000,-35.156,-32.227,-45.410,0.000
1709374282.739,0.000,-40.527,-41.016,-62.988,0.000
1709374282.743,0.000,-43.457,-45.898,-54.688,0.000
1709374282.747,0.000,-42.480,-39.062,-8.789,0.000
1709374282.751,0.000,-34.668,-35.156,-13.184,0.000
1709374282.755,0.000,-31.250,-35.156,-52.246,0.000
1709374282.758,0.000,-32.715,-36.133,-53.711,0.000
1709374282.762,0.000,-37.598,-36.133,-44.922,0.000
1709374282.766,0.000,-40.039,-36.621,-14.160,0.000
1709374282.770,0.000,-41.504,-38.574,-17.578,0.000
1709374282.774,-58.594,-45.898,-38.086,-62.012,0.000
1709374282.778,-72.754,-47.363,-35.156,-73.242,0.000
1709374282.782,-45.898,-44.922,-35.645,-52.246,0.000
1709374282.786,5.371,-38.574,-34.180,-5.371,0.000
1709374282.790,10.742,-32.715,-28.320,5.859,0.000
1709374282.793,-34.668,-30.273,-25.879,-35.645,0.000
1709374282.797,-53.223,-31.738,-23.926,-52.246,0.000
1709374282.801,-45.898,-34.668,-26.855,-39.062,0.000
1709374282.805,-2.930,-37.598,-34.180,-9.766,0.000
1709374282.809,19.531,-37.598,-38.574,-0.977,0.000
1709374282.813,-26.367,-36.133,-38.086,-43.457,0.000
1709374282.817,-59.082,-36.133,-35.645,-64.941,0.000
1709374282.821,-50.293,-34.668,-31.250,-51.758,0.000
1709374282.824,-1.953,-37.598,-29.297,-5.859,0.000
1709374282.828,23.926,-37.109,-30.762,15.137,0.000
1709374282.832,-19.043,-35.156,-30.762,-27.344,0.000
1709374282.836,-49.805,-38.574,-33.691,-47.852,0.000
1709374282.840,-50.293,-40.039,-37.598,-51.270,0.000
1709374282.844,-15.137,-36.621,-32.227,-20.020,0.000
1709374282.848,9.277,-40.039,-28.809,11.230,0.000
1709374282.852,-34.668,-39.551,-32.715,-36.621,0.000
1709374282.856,-65.918,-33.203,-30.762,-67.383,0.000
1709374282.860,-64.453,-35.645,-35.645,-55.664,0.000
1709374282.864,-37.109,-41.016,-38.574,-30.762,0.000
1709374282.867,8.301,-43.945,-28.320,5.859,0.000
1709374282.871,-19.531,-41.992,-27.344,-20.508,0.000
1709374282.875,-64.453,-38.086,-28.809,-55.664,0.000
1709374282.879,-59.570,-40.527,-29.297,-50.781,0.000
1709374282.883,-18.066,-34.180,-29.297,-20.996,0.000
1709374282.887,23.438,-29.785,-23.438,17.578,0.000
1709374282.891,-12.207,-37.598,-23.926,-9.766,0.000
1709374282.894,-60.547,-40.527,-30.273,-51.758,0.000
1709374282.898,-58.594,-33.691,-31.738,-52.734,0.000
1709374282.902,-28.809,-31.250,-31.738,-42.480,0.000
1709374282.906,10.742,-38.574,-38.574,-13.184,0.000
1709374282.910,-5.859,-40.039,-40.527,-20.020,0.000
1709374282.914,-51.270,-37.598,-37.109,-52.246,0.000
1709374282.918,-73.242,-43.457,-38.574,-59.570,0.000
1709374282.922,-56.641,-42.480,-42.480,-51.270,0.000
1709374282.926,-10.742,-41.504,-43.945,-21.484,0.000
1709374282.930,-20.020,-41.504,-40.527,-29.785,0.000
1709374282.934,-69.824,-40.039,-41.992,-68.359,0.000
1709374282.938,-77.637,-43.945,-43.945,-79.590,0.000
1709374282.942,-57.617,-45.410,-43.457,-70.312,0.000
1709374282.946,-17.090,-39.551,-46.875,-30.762,0.000
1709374282.949,-20.508,-39.062,-46.387,-17.090,0.000
1709374282.953,-67.871,-42.969,-41.992,-56.641,0.000
1709374282.957,-86.914,-42.480,-43.457,-73.730,0.000
1709374282.961,-66.895,-41.504,-42.480,-54.688,0.000
1709374282.965,-11.719,-43.457,-39.062,-11.230,0.000
1709374282.969,-3.906,-38.574,-39.062,-1.465,0.000
1709374282.973,-51.758,-33.691,-34.180,-36.621,0.000
1709374282.977,-69.824,-36.621,-33.203,-50.781,0.000
1709374282.981,-47.363,-39.551,-35.156,-41.992,0.000
1709374282.985,-4.883,-40.039,-37.598,-13.672,0.000
1709374282.989,15.625,-41.504,-37.598,4.883,0.000
1709374282.993,-28.809,-39.062,-35.645,-32.715,0.000
1709374282.997,-66.895,-37.109,-39.062,-54.688,0.000
1709374283.000,-57.129,-31.250,-43.945,-49.316,0.000
1709374283.004,-13.184,-29.785,-44.434,-21.973,0.000
1709374283.008,20.020,-30.273,-41.992,2.441,0.000
1709374283.012,-25.879,-36.621,-44.922,-39.551,0.000
1709374283.016,-63.477,-34.668,-41.992,-72.266,0.000
1709374283.020,-63.477,-31.738,-40.527,-66.406,0.000
1709374283.024,-28.809,-36.133,-38.086,-35.645,0.000
1709374283.028,11.719,-32.715,-33.691,-15.137,0.000
1709374283.032,-28.320,-29.785,-40.039,-51.758,0.000
1709374283.036,-66.895,-28.809,-36.133,-80.078,0.000
1709374283.040,-62.988,-29.297,-31.250,-68.848,0.000
1709374283.043,-32.227,-40.039,-37.598,-40.039,0.000
1709374283.047,1.953,-44.434,-39.551,-10.254,0.000
1709374283.051,-32.227,-41.504,-34.180,-26.855,0.000
1709374283.055,-68.848,-39.062,-28.320,-59.082,0.000
1709374283.059,-64.941,-38.086,-25.391,-62.988,0.000
1709374283.063,-36.133,-39.062,-28.809,-37.109,0.000
1709374283.067,3.418,-39.062,-30.273,1.953,0.000
1709374283.071,-20.996,-39.551,-29.785,-16.602,0.000
1709374283.075,-68.848,-41.016,-33.203,-57.129,0.000
1709374283.079,-78.125,-42.969,-34.668,-73.730,0.000
1709374283.083,-44.922,-38.086,-30.273,-47.852,0.000
1709374283.086,10.254,-35.645,-27.344,6.348,0.000
1709374283.090,-7.812,-37.109,-32.715,-15.137,0.000
1709374283.094,-61.523,-35.645,-35.156,-63.965,0.000
1709374283.098,-76.172,-40.527,-35.156,-68.848,0.000
1709374283.102,-55.176,-46.875,-34.668,-55.664,0.000
1709374283.106,-2.441,-43.457,-38.086,-23.926,0.000
1709374283.110,-2.441,-41.504,-40.039,-20.020,0.000
1709374283.114,-56.152,-44.434,-38.574,-57.129,0.000
1709374283.118,-75.684,-38.574,-42.480,-77.637,0.000
1709374283.122,-56.152,-36.133,-46.875,-67.871,0.000
1709374283.125,-4.883,-41.504,-49.316,-28.809,0.000
1709374283.129,1.465,-36.133,-50.293,-11.719,0.000
1709374283.133,-50.293,-27.832,-47.852,-41.504,0.000
1709374283.137,-72.266,-32.715,-44.922,-64.941,0.000
1709374283.141,-66.895,-37.109,-42.480,-59.082,0.000
1709374283.145,-22.949,-35.156,-41.992,-19.043,0.000
1709374283.149,2.930,-31.250,-39.062,2.441,0.000
1709374283.153,-41.992,-26.367,-39.062,-27.344,0.000
1709374283.156,-62.012,-26.367,-34.668,-43.457,0.000
1709374283.160,-47.852,-30.762,-32.227,-36.621,0.000
1709374283.164,-10.254,-32.715,-36.133,-5.371,0.000
1709374283.168,15.625,-26.855,-37.598,10.742,0.000
1709374283.172,-30.273,-26.367,-36.621,-26.367,0.000
1709374283.176,-63.965,-29.297,-36.133,-39.551,0.000
1709374283.180,-62.500,-33.691,-35.645,-43.945,0.000
1709374283.184,-27.832,-36.621,-35.645,-24.902,0.000
1709374283.188,3.418,-37.598,-36.133,3.906,0.000
1709374283.192,-37.598,-35.156,-35.645,-30.273,0.000
1709374283.195,-74.219,-37.598,-34.180,-62.988,0.000
1709374283.199,-75.195,-38.574,-33.203,-62.012,0.000
1709374283.203,-41.016,-30.762,-29.785,-35.645,0.000
1709374283.207,-4.883,-35.156,-39.062,-14.648,0.000
1709374283.211,-40.039,-39.062,-42.480,-38.086,0.000
1709374283.215,-85.938,-31.738,-39.551,-66.406,0.000
1709374283.219,-79.590,-28.320,-37.109,-66.406,0.000
1709374283.223,-44.434,-33.203,-37.109,-39.551,0.000
1709374283.227,-14.648,-35.156,-41.992,-11.230,0.000
1709374283.231,-36.133,-29.785,-36.133,-26.855,0.000
1709374283.234,-78.613,-39.551,-38.574,-61.035,0.000
1709374283.238,-90.332,-45.898,-46.875,-65.918,0.000
1709374283.242,-60.059,-43.945,-44.922,-51.758,0.000
1709374283.246,-14.648,-44.434,-44.922,-21.973,0.000
1709374283.250,-25.879,-47.363,-45.410,-31.738,0.000
1709374283.254,-61.523,-44.922,-44.434,-70.312,0.000
1709374283.258,-70.312,-42.969,-46.387,-77.637,0.000
1709374283.261,-51.758,-40.039,-44.434,-57.617,0.000
1709374283.265,-0.977,-40.527,-45.410,-13.672,0.000
1709374283.269,-5.859,-45.898,-47.363,-19.043,0.000
1709374283.273,-51.270,-41.016,-41.992,-53.711,0.000
1709374283.277,-65.918,-36.621,-43.457,-63.965,0.000
1709374283.281,-49.316,-38.086,-45.898,-48.828,0.000
1709374283.285,4.395,-41.016,-38.086,-5.371,0.000
1709374283.289,8.301,-41.992,-37.109,-2.930,0.000
1709374283.293,-39.551,-41.016,-34.180,-38.086,0.000
1709374283.297,-60.547,-43.457,-26.855,-51.758,0.000
1709374283.301,-54.199,-35.156,-29.297,-43.945,0.000
1709374283.305,-11.230,-32.227,-33.691,-10.254,0.000
1709374283.309,0.488,-41.016,-30.762,3.418,0.000
1709374283.313,-48.340,-38.086,-32.715,-38.574,0.000
1709374283.316,-74.707,-33.203,-39.062,-70.312,0.000
1709374283.320,-63.965,-41.992,-37.109,-62.012,0.000
1709374283.324,-18.066,-44.434,-35.645,-13.184,0.000
1709374283.328,2.441,-37.598,-38.086,-3.906,0.000
1709374283.332,-44.922,-33.203,-36.133,-50.781,0.000
1709374283.336,-73.242,-33.691,-34.180,-66.895,0.000
1709374283.340,-61.523,-41.504,-36.133,-67.383,0.000
1709374283.344,-16.602,-42.480,-40.527,-37.109,0.000
1709374283.348,3.906,-36.621,-39.062,-18.066,0.000
1709374283.352,-41.992,-33.691,-39.062,-53.223,0.000
1709374283.356,-76.172,-30.273,-40.527,-77.148,0.000
1709374283.360,-73.242,-36.133,-39.551,-71.777,0.000
1709374283.364,-37.598,-47.852,-41.016,-38.574,0.000
1709374283.367,1.953,-40.527,-41.504,-3.906,0.000
1709374283.371,-28.320,-33.203,-37.109,-22.461,0.000
1709374283.375,-69.336,-38.086,-36.621,-63.965,0.000
1709374283.379,-70.801,-33.691,-36.621,-66.406,0.000
1709374283.383,0.000,-32.715,-34.180,-39.551,0.000
1709374283.387,0.000,-38.574,-37.109,-10.742,0.000
1709374283.391,0.000,-38.086,-36.621,-32.715,0.000
1709374283.395,0.000,-39.551,-34.668,-74.219,0.000
1709374283.399,0.000,-43.945,-40.039,-73.730,0.000
1709374283.403,0.000,-36.133,-40.039,-41.992,0.000
1709374283.407,0.000,-30.273,-35.156,-8.301,0.000
1709374283.410,0.000,-37.598,-37.598,-29.297,0.000
1709374283.414,0.000,-39.551,-33.691,-48.828,0.000
1709374283.418,0.000,-28.809,-31.738,-47.363,0.000
1709374283.422,0.000,-31.250,-41.016,-47.852,0.000
1709374283.426,0.000,-40.527,-43.457,-12.695,0.000
1709374283.430,0.000,-37.109,-39.062,-4.883,0.000
1709374283.434,-43.457,-34.180,-35.156,-46.875,0.000
1709374283.438,-56.641,-37.598,-35.156,-61.523,0.000
1709374283.442,-34.668,-37.598,-34.668,-41.992,0.000
1709374283.446,8.789,-36.621,-33.691,0.977,0.000
1709374283.450,10.742,-39.551,-36.133,-1.465,0.000
1709374283.454,-30.762,-40.527,-35.156,-43.945,0.000
1709374283.457,-38.574,-35.645,-32.227,-51.270,0.000
1709374283.461,-31.250,-32.715,-31.250,-31.738,0.000
1709374283.465,5.859,-32.227,-32.715,-4.395,0.000
1709374283.469,13.184,-32.715,-31.738,-0.977,0.000
1709374283.473,-39.062,-34.668,-31.250,-35.156,0.000
1709374283.477,-65.430,-33.691,-33.691,-51.758,0.000
1709374283.481,-53.223,-28.809,-32.715,-41.504,0.000
1709374283.485,-9.277,-34.180,-34.668,-8.301,0.000
1709374283.489,6.348,-37.598,-36.133,11.230,0.000
1709374283.493,-40.527,-30.273,-29.785,-24.902,0.000
1709374283.496,-64.941,-27.344,-29.297,-50.781,0.000
1709374283.500,-59.570,-30.273,-35.645,-51.270,0.000
1709374283.504,-18.555,-34.180,-35.156,-17.578,0.000
1709374283.508,8.301,-29.785,-34.668,11.230,0.000
1709374283.512,-32.715,-29.297,-36.133,-26.367,0.000
1709374283.516,-54.199,-30.273,-33.691,-50.781,0.000
1709374283.520,-55.176,-29.785,-33.691,-46.387,0.000
1709374283.524,-28.809,-34.668,-33.203,-20.508,0.000
1709374283.528,2.441,-43.457,-31.250,0.488,0.000
1709374283.531,-35.156,-43.457,-32.715,-29.785,0.000
1709374283.535,-71.777,-35.645,-31.738,-53.223,0.000
1709374283.539,-72.754,-34.180,-31.250,-57.617,0.000
1709374283.543,-41.992,-34.668,-30.273,-38.086,0.000
1709374283.547,-11.719,-35.645,-33.203,-2.930,0.000
1709374283.551,-48.828,-44.434,-40.039,-27.832,0.000
1709374283.555,-86.426,-46.875,-40.039,-68.848,0.000
1709374283.559,-76.172,-39.062,-34.180,-63.965,0.000
1709374283.563,-44.922,-39.062,-32.227,-33.203,0.000
1709374283.567,-6.836,-41.504,-34.180,-2.930,0.000
1709374283.570,-30.762,-43.945,-37.598,-29.297,0.000
1709374283.574,-79.102,-43.457,-35.156,-59.570,0.000
1709374283.578,-83.008,-38.086,-34.180,-57.129,0.000
1709374283.582,-51.758,-35.156,-35.156,-43.945,0.000
1709374283.586,-7.324,-41.504,-37.598,-12.207,0.000
1709374283.590,-15.137,-33.203,-33.691,-24.414,0.000
1709374283.594,-51.270,-25.879,-34.668,-53.711,0.000
1709374283.598,-56.641,-30.762,-34.668,-60.547,0.000
1709374283.602,-39.062,-33.691,-32.227,-56.641,0.000
1709374283.605,2.930,-31.738,-36.133,-20.508,0.000
1709374283.609,-4.883,-35.156,-39.062,-20.020,0.000
1709374283.613,-51.758,-35.645,-35.645,-57.617,0.000
1709374283.617,-64.453,-30.273,-35.156,-65.918,0.000
1709374283.621,-42.480,-27.832,-33.691,-48.340,0.000
1709374283.625,0.977,-29.297,-38.574,-10.254,0.000
1709374283.629,-5.371,-37.598,-42.969,-6.836,0.000
1709374283.632,-56.641,-43.945,-41.992,-41.992,0.000
1709374283.636,-73.730,-39.062,-42.480,-59.082,0.000
1709374283.640,-54.688,-36.621,-36.621,-41.504,0.000
1709374283.644,-2.441,-41.016,-32.715,-7.324,0.000
1709374283.648,12.695,-43.945,-35.156,-0.488,0.000
1709374283.652,-37.109,-37.109,-36.621,-35.156,0.000
1709374283.656,-55.664,-37.109,-35.156,-60.547,0.000
1709374283.660,-45.898,-40.039,-40.527,-64.453,0.000
1709374283.664,-12.695,-34.668,-45.898,-33.691,0.000
1709374283.668,7.812,-31.738,-43.945,-20.020,0.000
1709374283.672,-36.133,-29.785,-41.504,-60.547,0.000
1709374283.676,-77.637,-30.762,-43.945,-84.961,0.000
1709374283.680,-69.824,-34.180,-43.945,-79.590,0.000
1709374283.684,-24.414,-33.203,-41.992,-38.086,0.000
1709374283.687,-3.906,-35.645,-46.387,-17.090,0.000
1709374283.691,-37.598,-37.109,-46.875,-55.664,0.000
1709374283.695,-69.824,-34.668,-38.574,-73.242,0.000
1709374283.699,-60.059,-32.715,-34.180,-54.688,0.000
1709374283.703,-16.113,-33.203,-34.180,-21.484,0.000
1709374283.707,17.578,-36.621,-35.156,-3.418,0.000
1709374283.711,-20.508,-34.668,-34.180,-27.344,0.000
1709374283.715,-67.871,-29.785,-32.227,-54.199,0.000
1709374283.719,-73.730,-33.203,-35.156,-61.035,0.000
1709374283.723,-40.039,-36.133,-36.133,-35.156,0.000
1709374283.727,2.930,-36.621,-40.039,-3.418,0.000
1709374283.731,-26.855,-38.574,-40.039,-32.227,0.000
1709374283.734,-65.430,-38.574,-36.133,-59.570,0.000
1709374283.738,-62.012,-39.551,-35.645,-57.129,0.000
1709374283.742,-41.016,-43.457,-37.109,-41.016,0.000
1709374283.746,-2.441,-45.410,-39.062,-2.930,0.000
1709374283.750,-23.926,-46.875,-41.504,-24.414,0.000
1709374283.754,-73.730,-37.598,-43.945,-65.430,0.000
1709374283.758,0.000,-33.691,-44.434,-74.707,0.000
1709374283.762,0.000,-35.645,-43.457,-60.059,0.000
1709374283.766,0.000,-33.203,-40.527,-12.207,0.000
1709374283.770,0.000,-37.598,-37.109,-3.418,0.000
1709374283.774,0.000,-39.062,-34.180,-53.711,0.000
1709374283.778,0.000,-39.062,-32.227,-69.824,0.000
1709374283.781,0.000,-43.457,-34.180,-50.781,0.000
1709374283.785,0.000,-43.457,-38.086,-20.996,0.000
1709374283.789,0.000,-43.457,-36.133,-13.184,0.000
1709374283.793,0.000,-48.340,-35.645,-42.480,0.000
1709374283.797,0.000,-45.898,-36.621,-66.895,0.000
1709374283.801,0.000,-43.457,-34.668,-56.641,0.000
1709374283.805,-9.766,-43.457,-36.133,-14.160,0.000
1709374283.809,-6.348,-39.551,-35.645,-9.766,0.000
1709374283.813,-51.270,-36.621,-31.738,-45.410,0.000
1709374283.817,-72.754,-43.457,-30.762,-60.547,0.000
1709374283.821,-68.359,-42.969,-33.691,-61.523,0.000
1709374283.824,-25.879,-31.250,-41.504,-33.691,0.000
1709374283.828,-9.766,-29.297,-41.016,-17.578,0.000
1709374283.832,-67.871,-34.180,-39.062,-55.664,0.000
1709374283.836,-86.426,-32.227,-39.062,-61.523,0.000
1709374283.840,-66.406,-30.762,-35.645,-54.199,0.000
1709374283.844,-39.551,-33.203,-31.738,-38.086,0.000
1709374283.848,-16.602,-36.621,-31.250,-21.484,0.000
1709374283.852,-47.852,-35.645,-31.250,-48.340,0.000
1709374283.856,-74.707,-38.086,-30.762,-69.336,0.000
1709374283.860,-70.801,-41.992,-27.832,-67.871,0.000
1709374283.863,-30.762,-37.598,-27.344,-41.016,0.000
1709374283.867,1.953,-36.133,-26.855,-12.207,0.000
1709374283.871,-34.180,-37.109,-27.344,-31.738,0.000
1709374283.875,-73.242,-33.691,-26.855,-62.988,0.000
1709374283.879,-70.312,-33.691,-23.438,-55.664,0.000
1709374283.883,-35.645,-38.086,-27.832,-23.926,0.000
1709374283.887,8.301,-39.062,-28.320,4.883,0.000
1709374283.891,-20.996,-45.898,-26.367,-17.578,0.000
1709374283.895,-62.500,-46.875,-24.902,-55.664,0.000
1709374283.898,-59.570,-39.551,-26.367,-56.152,0.000
1709374283.902,-29.297,-37.598,-29.297,-33.203,0.000
1709374283.906,10.254,-39.551,-30.762,-4.883,0.000
1709374283.910,-15.137,-39.551,-31.738,-30.273,0.000
1709374283.914,-59.570,-40.527,-32.227,-67.383,0.000
1709374283.918,-66.895,-43.457,-36.133,-69.336,0.000
1709374283.922,-43.457,-41.992,-35.156,-41.504,0.000
1709374283.926,-2.930,-38.574,-31.738,2.930,0.000
1709374283.930,-13.672,-42.480,-33.691,-21.484,0.000
1709374283.934,-57.617,-44.434,-28.320,-60.547,0.000
1709374283.938,-72.266,-38.086,-27.344,-67.871,0.000
1709374283.941,-53.711,-41.016,-32.715,-54.199,0.000
1709374283.945,-8.789,-48.340,-34.180,-12.207,0.000
1709374283.949,-14.160,-46.387,-35.156,-15.137,0.000
1709374283.953,-58.594,-41.504,-32.227,-48.828,0.000
1709374283.957,-69.336,-37.598,-30.762,-60.547,0.000
1709374283.961,-55.664,-34.668,-27.344,-56.641,0.000
1709374283.965,-6.836,-34.180,-27.344,-20.020,0.000
1709374283.969,4.395,-34.668,-30.273,-1.465,0.000
1709374283.972,-52.734,-36.621,-30.762,-40.039,0.000
1709374283.976,-79.102,-37.598,-36.621,-68.848,0.000
1709374283.980,-67.383,-36.133,-40.527,-59.082,0.000
1709374283.984,-20.508,-37.109,-40.039,-22.461,0.000
1709374283.988,-3.906,-41.992,-36.133,-12.207,0.000
1709374283.992,-50.781,-37.109,-36.621,-54.199,0.000
1709374283.996,-80.566,-38.086,-41.992,-74.707,0.000
1709374284.000,-69.336,-40.039,-40.527,-62.012,0.000
1709374284.003,-19.043,-37.109,-41.992,-28.320,0.000
1709374284.007,8.789,-36.133,-42.480,-8.301,0.000
1709374284.011,-35.156,-38.086,-37.598,-34.668,0.000
1709374284.015,-78.125,-42.480,-43.457,-52.734,0.000
1709374284.019,-69.824,-40.527,-42.480,-51.270,0.000
1709374284.023,-22.461,-38.086,-38.086,-24.414,0.000
1709374284.027,5.371,-37.109,-39.551,2.930,0.000
1709374284.031,-32.227,-36.133,-38.086,-30.273,0.000
1709374284.035,-63.965,-39.062,-35.645,-64.453,0.000
1709374284.038,-58.594,-38.574,-32.227,-66.895,0.000
1709374284.042,-26.367,-34.668,-39.062,-40.527,0.000
1709374284.046,2.441,-33.691,-44.434,-8.789,0.000
1709374284.050,-35.156,-35.645,-40.039,-39.062,0.000
1709374284.054,-74.219,-37.598,-37.598,-64.453,0.000
1709374284.058,-66.406,-37.109,-40.527,-61.523,0.000
1709374284.062,-34.668,-45.898,-42.969,-45.410,0.000
1709374284.066,-1.953,-43.457,-42.480,-9.766,0.000
1709374284.069,-24.902,-34.668,-36.133,-29.785,0.000
1709374284.073,-65.918,-38.574,-35.156,-58.594,0.000
1709374284.077,-71.777,-37.109,-35.156,-58.594,0.000
1709374284.081,-42.480,-33.203,-36.133,-40.039,0.000
1709374284.085,7.324,-32.715,-35.645,1.953,0.000
1709374284.089,-6.348,-32.227,-29.785,-5.371,0.000
1709374284.093,-59.570,-41.504,-34.180,-53.223,0.000
1709374284.097,-70.801,-48.828,-35.645,-60.059,0.000
1709374284.101,-49.316,-41.016,-29.297,-35.156,0.000
1709374284.105,-8.789,-36.621,-28.809,-0.977,0.000
1709374284.109,-12.695,-38.574,-33.203,-8.301,0.000
1709374284.113,-62.500,-36.133,-37.109,-51.270,0.000
1709374284.117,-76.172,-33.203,-35.645,-57.617,0.000
1709374284.120,-54.688,-33.691,-35.645,-41.504,0.000
1709374284.124,-2.441,-34.180,-37.598,-18.066,0.000
1709374284.128,0.977,-31.250,-32.715,-13.184,0.000
1709374284.132,-55.664,-30.762,-31.250,-45.898,0.000
1709374284.136,-77.637,-32.715,-38.086,-68.848,0.000
1709374284.140,-61.035,-33.203,-35.645,-62.012,0.000
1709374284.144,-9.277,-35.645,-28.320,-23.926,0.000
1709374284.148,4.395,-35.156,-33.203,-15.137,0.000
1709374284.152,-43.945,-32.715,-33.691,-50.781,0.000
1709374284.156,-67.383,-40.039,-31.250,-63.477,0.000
1709374284.160,-50.781,-41.016,-27.832,-49.316,0.000
1709374284.164,-4.395,-33.203,-26.367,-4.883,0.000
1709374284.167,15.137,-21.484,-30.273,8.301,0.000
1709374284.171,-29.297,-24.902,-31.738,-43.457,0.000
1709374284.175,-59.570,-29.785,-31.250,-62.988,0.000
1709374284.179,-56.641,-28.320,-31.738,-55.176,0.000
1709374284.183,-17.578,-30.762,-36.133,-27.832,0.000
1709374284.187,9.766,-31.738,-38.086,-5.371,0.000
1709374284.191,-28.809,-35.645,-33.691,-35.645,0.000
1709374284.195,-58.594,-30.273,-27.832,-56.152,0.000
1709374284.199,-59.570,-31.738,-30.273,-55.176,0.000
1709374284.203,-32.227,-39.062,-34.668,-31.738,0.000
1709374284.207,3.418,-39.551,-34.668,-1.465,0.000
1709374284.210,-29.297,-30.273,-31.738,-20.996,0.000
1709374284.214,-62.500,-33.691,-32.227,-60.059,0.000
1709374284.218,-65.918,-41.992,-33.691,-73.730,0.000
1709374284.222,-39.062,-39.062,-37.598,-46.387,0.000
1709374284.226,6.348,-35.645,-42.480,-16.113,0.000
1709374284.230,-23.438,-33.691,-33.203,-36.621,0.000
1709374284.234,-65.430,-31.250,-30.762,-67.871,0.000
1709374284.238,-65.918,-34.180,-32.715,-65.430,0.000
1709374284.242,-38.574,-36.133,-27.832,-39.551,0.000
1709374284.246,3.906,-41.016,-30.762,-2.930,0.000
1709374284.249,-12.695,-36.621,-33.203,-20.996,0.000
1709374284.253,-51.758,-30.273,-33.691,-52.734,0.000
1709374284.257,-68.848,-33.691,-37.109,-59.082,0.000
1709374284.261,-51.758,-35.156,-37.109,-48.340,0.000
1709374284.265,5.859,-40.039,-35.645,-1.953,0.000
1709374284.269,0.977,-37.109,-33.203,-2.441,0.000
1709374284.273,-51.758,-30.762,-32.227,-44.922,0.000
1709374284.277,-61.523,-28.809,-36.133,-51.270,0.000
1709374284.281,-43.945,-28.809,-33.691,-34.180,0.000
1709374284.285,-3.418,-34.668,-37.109,0.488,0.000
1709374284.288,1.465,-36.133,-40.527,1.953,0.000
1709374284.292,-50.781,-30.762,-36.621,-40.527,0.000
1709374284.296,-75.684,-35.156,-35.645,-59.570,0.000
1709374284.300,-61.035,-39.551,-35.645,-43.945,0.000
1709374284.304,-15.137,-32.227,-41.016,-12.695,0.000
1709374284.308,-1.953,-31.250,-41.992,-9.766,0.000
1709374284.312,-48.828,-35.645,-43.945,-54.688,0.000
1709374284.316,-63.965,-34.180,-41.016,-73.730,0.000
1709374284.320,-43.945,-34.668,-37.598,-58.105,0.000
1709374284.324,0.488,-36.133,-41.016,-22.949,0.000
1709374284.327,14.648,-40.527,-42.480,-12.207,0.000
1709374284.331,-29.297,-35.645,-39.551,-41.992,0.000
1709374284.335,-60.547,-31.738,-38.574,-57.129,0.000
1709374284.339,-58.594,-40.039,-38.574,-57.617,0.000
1709374284.343,-12.207,-39.062,-34.180,-16.602,0.000
1709374284.347,15.625,-33.203,-30.762,13.184,0.000
1709374284.351,-35.156,-35.645,-30.273,-36.621,0.000
1709374284.355,-70.312,-41.016,-29.297,-64.453,0.000
1709374284.359,-61.523,-36.133,-30.273,-47.852,0.000
1709374284.363,-27.344,-31.738,-31.738,-20.996,0.000
1709374284.366,2.930,-35.645,-33.203,-1.465,0.000
1709374284.370,-29.297,-39.551,-35.156,-32.715,0.000
1709374284.374,-69.336,-35.156,-34.180,-65.430,0.000
1709374284.378,-74.707,-33.691,-35.156,-62.988,0.000
1709374284.382,-41.992,-38.574,-33.691,-34.668,0.000
1709374284.386,5.859,-37.109,-31.738,3.906,0.000
1709374284.390,-20.996,-32.227,-34.668,-14.160,0.000
1709374284.394,-65.430,-33.691,-36.621,-56.641,0.000
1709374284.397,-70.312,-32.715,-37.598,-62.012,0.000
1709374284.401,-42.969,-30.762,-36.133,-41.016,0.000
1709374284.405,-1.953,-32.715,-37.109,-6.836,0.000
1709374284.409,-17.578,-36.133,-35.645,-21.484,0.000
1709374284.413,-57.617,-35.645,-32.715,-48.828,0.000
1709374284.417,-63.965,-36.133,-35.156,-54.199,0.000
1709374284.421,-41.992,-35.156,-35.645,-37.109,0.000
1709374284.424,5.371,-36.621,-39.551,-4.395,0.000
1709374284.428,-1.953,-39.551,-40.527,-14.160,0.000
1709374284.432,-56.641,-40.039,-42.480,-44.434,0.000
1709374284.436,-70.312,-42.969,-43.457,-53.223,0.000
1709374284.440,-42.969,-43.457,-41.016,-41.016,0.000
1709374284.444,1.465,-44.922,-41.504,-5.371,0.000
1709374284.448,-9.277,-41.992,-39.062,3.418,0.000
1709374284.452,-57.617,-34.180,-37.109,-30.273,0.000
1709374284.456,-71.777,-36.621,-36.621,-53.223,0.000
1709374284.460,-53.711,-40.527,-37.109,-40.039,0.000
1709374284.464,-7.324,-41.016,-37.598,-3.418,0.000
1709374284.468,2.441,-35.156,-31.250,-3.906,0.000
1709374284.472,-47.852,-31.738,-30.762,-42.480,0.000
1709374284.475,-70.312,-39.551,-31.250,-60.547,0.000
1709374284.479,-52.734,-49.805,-29.297,-45.898,0.000
1709374284.483,-8.789,-43.457,-32.227,-10.254,0.000
1709374284.487,2.930,-31.250,-36.133,-4.883,0.000
1709374284.491,-43.945,-35.645,-32.715,-41.016,0.000
1709374284.495,-77.637,-41.504,-34.668,-66.895,0.000
1709374284.499,-68.359,-37.598,-35.645,-66.406,0.000
1709374284.503,-25.391,-36.133,-36.621,-21.973,0.000
1709374284.507,0.977,-38.574,-41.504,-1.953,0.000
1709374284.511,-37.109,-36.133,-40.527,-38.574,0.000
1709374284.515,-61.523,-31.738,-37.109,-55.176,0.000
1709374284.519,-56.152,-36.133,-34.180,-52.246,0.000
1709374284.522,-21.484,-37.109,-35.156,-22.461,0.000
1709374284.526,8.301,-35.156,-36.621,7.812,0.000
1709374284.530,-28.320,-35.156,-34.180,-24.414,0.000
1709374284.534,-58.105,-30.762,-31.738,-52.734,0.000
1709374284.538,-52.734,-33.203,-31.250,-43.945,0.000
1709374284.542,-16.602,-36.133,-30.273,-16.113,0.000
1709374284.546,9.277,-36.621,-32.227,0.977,0.000
1709374284.550,-26.855,-34.668,-33.203,-32.715,0.000
1709374284.554,-60.547,-33.691,-32.227,-55.176,0.000
1709374284.558,-53.711,-36.133,-33.203,-47.852,0.000
1709374284.562,-22.949,-36.133,-36.133,-30.762,0.000
1709374284.565,5.371,-32.227,-38.086,-3.418,0.000
1709374284.569,-17.578,-30.273,-36.133,-24.902,0.000
1709374284.573,-58.105,-33.203,-36.133,-60.547,0.000
1709374284.577,-64.453,-39.551,-41.504,-64.941,0.000
1709374284.581,-38.086,-40.039,-42.969,-34.180,0.000
1709374284.585,-0.977,-41.016,-37.598,7.812,0.000
1709374284.589,-9.766,-40.039,-34.668,-20.020,0.000
1709374284.593,-50.781,-36.621,-34.668,-61.035,0.000
1709374284.597,-66.895,-38.574,-37.109,-61.035,0.000
1709374284.601,-49.316,-41.016,-37.109,-44.922,0.000
1709374284.605,-4.883,-41.504,-40.527,-6.836,0.000
1709374284.608,-16.113,-41.992,-44.434,-20.508,0.000
1709374284.612,-67.383,-42.969,-47.363,-63.477,0.000
1709374284.616,-87.402,-41.016,-47.363,-72.754,0.000
1709374284.620,-60.547,-40.039,-41.992,-47.852,0.000
1709374284.624,-5.859,-41.992,-41.504,-11.719,0.000
1709374284.628,-9.277,-39.551,-39.551,-7.812,0.000
1709374284.632,-56.641,-39.062,-33.691,-39.551,0.000
1709374284.636,-72.266,-38.574,-36.621,-59.570,0.000
1709374284.640,-53.711,-38.574,-39.062,-44.922,0.000
1709374284.644,-6.348,-41.016,-39.062,-5.371,0.000
1709374284.647,-2.930,-46.875,-41.992,2.441,0.000
1709374284.651,-55.176,-43.945,-42.480,-42.480,0.000
1709374284.655,-71.289,-35.156,-38.086,-64.941,0.000
1709374284.659,-60.059,-29.785,-38.086,-56.641,0.000
1709374284.663,-21.484,-30.762,-39.551,-19.531,0.000
1709374284.667,-7.324,-41.504,-44.434,-6.836,0.000
1709374284.671,-44.922,-42.969,-43.457,-43.945,0.000
1709374284.675,-66.406,-36.621,-40.527,-53.711,0.000
1709374284.679,-60.547,-42.480,-50.293,-49.805,0.000
1709374284.683,-26.367,-43.945,-46.875,-27.344,0.000
1709374284.686,-6.348,-39.551,-40.039,-8.789,0.000
1709374284.690,-50.293,-43.945,-45.410,-44.434,0.000
1709374284.694,-76.660,-47.363,-43.457,-72.266,0.000
1709374284.698,-67.871,-41.016,-38.574,-68.359,0.000
1709374284.702,-33.203,-38.574,-39.062,-35.156,0.000
1709374284.706,-3.418,-41.016,-40.527,-9.766,0.000
1709374284.710,-32.227,-40.527,-37.109,-40.527,0.000
1709374284.714,-72.266,-43.457,-34.668,-68.848,0.000
1709374284.718,-74.707,-48.340,-37.598,-62.988,0.000
1709374284.721,-35.645,-45.410,-35.645,-36.133,0.000
1709374284.725,9.277,-35.645,-34.180,-2.441,0.000
1709374284.729,-12.695,-30.762,-36.621,-16.113,0.000
1709374284.733,-57.617,-31.738,-31.250,-49.316,0.000
1709374284.737,-71.777,-34.668,-26.367,-64.453,0.000
1709374284.741,-40.527,-33.203,-32.227,-43.945,0.000
1709374284.745,5.859,-28.809,-34.668,-5.371,0.000
1709374284.749,-18.555,-28.809,-28.809,-16.113,0.000
1709374284.753,-64.941,-30.273,-24.414,-55.176,0.000
1709374284.756,-73.730,-29.297,-29.297,-64.453,0.000
1709374284.760,-47.852,-28.809,-36.133,-37.109,0.000
1709374284.764,1.465,-29.785,-36.133,14.160,0.000
1709374284.768,-5.371,-31.738,-35.156,0.977,0.000
1709374284.772,-47.852,-29.297,-28.809,-45.410,0.000
1709374284.776,-58.594,-32.227,-27.344,-50.293,0.000
1709374284.780,-39.551,-31.250,-27.344,-34.180,0.000
1709374284.784,0.488,-29.297,-27.832,-2.441,0.000
1709374284.787,-8.301,-37.109,-29.785,-3.418,0.000
1709374284.791,-52.734,-32.715,-27.344,-49.805,0.000
1709374284.795,-65.430,-29.297,-24.414,-67.871,0.000
1709374284.799,-50.293,-38.574,-33.691,-58.105,0.000
1709374284.803,-9.766,-43.457,-40.039,-29.297,0.000
1709374284.807,-3.906,-42.969,-40.527,-14.160,0.000
1709374284.811,-52.734,-41.016,-41.504,-40.527,0.000
1709374284.815,-73.242,-40.039,-40.039,-59.082,0.000
1709374284.819,-56.152,-30.273,-39.551,-48.828,0.000
1709374284.823,-5.859,-24.414,-40.527,-7.324,0.000
1709374284.826,9.277,-27.344,-41.016,7.324,0.000
1709374284.830,-34.180,-27.832,-42.480,-35.645,0.000
1709374284.835,-62.988,-32.715,-44.922,-70.312,0.000
1709374284.838,-58.105,-37.598,-41.992,-62.988,0.000
1709374284.842,-15.137,-40.039,-44.434,-25.879,0.000
1709374284.846,8.301,-41.992,-42.969,-12.207,0.000
1709374284.850,-37.109,-39.062,-40.039,-46.387,0.000
1709374284.854,-69.824,-31.738,-43.457,-60.059,0.000
1709374284.858,-62.988,-28.320,-43.945,-52.734,0.000
1709374284.862,-23.438,-29.785,-41.992,-23.926,0.000
1709374284.866,10.742,-30.273,-36.133,8.789,0.000
1709374284.870,-23.926,-32.227,-32.715,-20.020,0.000
1709374284.874,-59.082,-35.645,-33.203,-57.129,0.000
1709374284.878,-48.828,-35.156,-32.227,-56.641,0.000
1709374284.882,-17.578,-38.086,-40.039,-32.715,0.000
1709374284.886,13.672,-38.086,-40.039,-1.465,0.000
1709374284.889,-15.137,-26.855,-32.227,-24.414,0.000
1709374284.893,-51.270,-22.461,-28.809,-52.246,0.000
1709374284.897,-49.805,-22.949,-30.273,-45.410,0.000
1709374284.901,-21.973,-25.879,-33.691,-27.832,0.000
1709374284.905,19.043,-39.062,-34.668,3.906,0.000
1709374284.909,-8.301,-40.527,-32.715,-13.184,0.000
1709374284.913,-57.129,-31.738,-28.809,-49.805,0.000
1709374284.917,-67.383,-31.250,-32.715,-54.688,0.000
1709374284.921,-44.434,-37.109,-31.738,-42.969,0.000
1709374284.925,7.812,-37.598,-24.902,-5.859,0.000
1709374284.929,-4.883,-33.691,-28.320,-15.625,0.000
1709374284.933,-65.918,-32.715,-35.645,-48.828,0.000
1709374284.936,-70.312,-33.691,-34.180,-54.199,0.000
1709374284.940,-36.621,-34.180,-31.250,-40.527,0.000
1709374284.944,6.836,-36.133,-34.668,-2.930,0.000
1709374284.948,-3.906,-40.039,-36.133,-2.930,0.000
1709374284.952,-56.152,-40.039,-35.645,-45.410,0.000
1709374284.956,-64.941,-35.645,-33.691,-57.617,0.000
1709374284.960,-50.293,-33.203,-30.273,-31.738,0.000
1709374284.964,-12.207,-35.645,-37.109,-1.953,0.000
1709374284.968,-10.254,-39.551,-39.551,-4.395,0.000
1709374284.972,-58.594,-38.574,-38.086,-51.270,0.000
1709374284.976,-77.148,-35.645,-40.039,-72.266,0.000
1709374284.979,-62.012,-37.109,-38.574,-51.758,0.000
1709374284.983,-16.113,-44.434,-36.621,-15.137,0.000
1709374284.987,5.859,-39.551,-38.086,-2.930,0.000
1709374284.991,-41.504,-32.715,-42.969,-45.410,0.000
1709374284.995,-71.777,-40.039,-45.410,-68.359,0.000
1709374284.999,-60.547,-41.016,-43.457,-56.152,0.000
1709374285.003,-12.207,-40.039,-40.527,-17.090,0.000
1709374285.007,10.254,-38.574,-41.016,4.883,0.000
1709374285.011,-33.691,-32.227,-34.668,-32.227,0.000
1709374285.015,-57.617,-29.297,-31.250,-49.805,0.000
1709374285.018,-51.758,-34.668,-35.645,-52.246,0.000
1709374285.022,-15.625,-41.504,-37.109,-30.273,0.000
1709374285.026,9.766,-40.527,-34.668,-5.371,0.000
1709374285.030,-36.621,-38.574,-40.039,-42.969,0.000
1709374285.034,-71.289,-39.062,-43.945,-64.941,0.000
1709374285.038,-63.965,-35.645,-41.016,-63.965,0.000
1709374285.042,-27.832,-35.156,-42.969,-44.434,0.000
1709374285.046,7.324,-36.621,-48.340,-16.602,0.000
1709374285.050,-27.344,-35.156,-43.945,-25.879,0.000
1709374285.054,-64.941,-31.250,-42.480,-59.570,0.000
1709374285.057,-65.918,-33.691,-46.875,-71.289,0.000
1709374285.061,-37.109,-41.016,-47.852,-41.992,0.000
1709374285.065,-0.977,-43.457,-45.898,-14.648,0.000
1709374285.069,-23.926,-40.039,-39.551,-32.715,0.000
1709374285.073,-65.918,-33.691,-33.203,-56.152,0.000
1709374285.077,-72.266,-31.738,-29.785,-62.012,0.000
1709374285.081,-47.852,-35.645,-30.762,-46.387,0.000
1709374285.085,-1.465,-38.086,-33.691,-5.859,0.000
1709374285.089,-22.461,-38.574,-36.133,-20.508,0.000
1709374285.092,-76.172,-42.969,-39.062,-57.617,0.000
1709374285.096,-68.359,-41.016,-34.668,-50.293,0.000
1709374285.100,-34.668,-36.621,-34.180,-29.785,0.000
1709374285.104,3.418,-37.598,-37.598,1.465,0.000
1709374285.108,-3.906,-33.203,-32.715,-2.930,0.000
1709374285.112,-45.410,-34.668,-29.297,-39.062,0.000
1709374285.116,-54.199,-35.645,-28.320,-45.410,0.000
1709374285.120,-38.086,-32.227,-29.785,-24.414,0.000
1709374285.123,-3.418,-36.133,-32.227,8.301,0.000
1709374285.127,-10.742,-40.039,-35.645,-0.977,0.000
1709374285.131,-55.176,-35.156,-33.203,-47.852,0.000
1709374285.135,-67.383,-35.645,-26.855,-60.059,0.000
1709374285.139,-49.805,-36.133,-31.250,-39.062,0.000
1709374285.143,-1.953,-29.785,-38.574,-14.160,0.000
1709374285.147,12.695,-28.809,-39.062,-14.160,0.000
1709374285.151,-29.297,-30.762,-40.039,-54.688,0.000
1709374285.155,-52.734,-31.250,-40.527,-71.289,0.000
1709374285.159,-49.805,-30.762,-42.969,-65.918,0.000
1709374285.162,-8.789,-31.738,-45.410,-35.645,0.000
1709374285.166,10.742,-35.645,-41.992,-15.625,0.000
1709374285.170,-46.875,-37.109,-45.898,-55.176,0.000
1709374285.174,-83.984,-32.715,-45.410,-79.590,0.000
1709374285.178,-71.289,-34.180,-42.480,-68.848,0.000
1709374285.182,-27.344,-38.086,-41.016,-23.926,0.000
1709374285.186,-3.418,-39.062,-38.086,-0.488,0.000
1709374285.190,-44.434,-38.574,-38.086,-41.504,0.000
1709374285.193,-70.801,-38.086,-36.621,-57.617,0.000
1709374285.197,-61.035,-37.598,-33.691,-43.945,0.000
1709374285.201,-25.391,-40.527,-35.645,-26.367,0.000
1709374285.205,4.395,-41.992,-35.645,-5.371,0.000
1709374285.209,-30.273,-43.457,-36.133,-30.273,0.000
1709374285.213,-62.012,-43.945,-33.203,-55.664,0.000
1709374285.217,-63.965,-35.645,-32.227,-61.035,0.000
1709374285.221,-36.621,-35.156,-35.156,-45.410,0.000
1709374285.225,-2.441,-38.574,-37.109,-14.160,0.000
1709374285.229,-25.879,-37.598,-36.621,-27.832,0.000
1709374285.233,-66.895,-36.621,-37.598,-66.895,0.000
1709374285.237,-71.289,-31.250,-34.668,-71.777,0.000
1709374285.241,-38.086,-33.691,-32.227,-37.598,0.000
1709374285.244,4.883,-39.551,-33.203,1.465,0.000
1709374285.248,-18.066,-37.598,-36.133,-23.438,0.000
1709374285.252,-66.895,-42.480,-41.016,-65.430,0.000
1709374285.256,-75.195,-41.504,-40.527,-73.730,0.000
1709374285.260,-55.176,-39.551,-44.922,-53.711,0.000
1709374285.264,-10.742,-42.480,-46.875,-16.113,0.000
1709374285.268,-18.066,-37.109,-43.945,-27.344,0.000
1709374285.272,-57.617,-33.691,-38.086,-61.523,0.000
1709374285.276,-70.312,-36.133,-36.133,-64.941,0.000
1709374285.280,-47.852,-37.109,-43.457,-52.734,0.000
1709374285.284,11.719,-36.133,-41.992,-10.742,0.000
1709374285.288,14.648,-30.762,-34.668,4.883,0.000
1709374285.292,-44.922,-27.832,-31.250,-36.621,0.000
1709374285.295,-59.570,-26.367,-32.227,-59.570,0.000
1709374285.299,-40.527,-31.250,-34.180,-48.828,0.000
1709374285.303,0.977,-32.715,-35.156,-16.113,0.000
1709374285.307,1.953,-33.203,-38.574,-16.113,0.000
1709374285.311,-51.758,-34.180,-38.086,-55.664,0.000
1709374285.315,-70.801,-38.086,-35.645,-68.848,0.000
1709374285.319,-55.176,-36.621,-31.250,-59.082,0.000
1709374285.323,-14.160,-31.738,-31.250,-19.043,0.000
1709374285.327,-0.488,-38.574,-34.668,-8.789,0.000
1709374285.331,-35.645,-43.945,-32.715,-41.016,0.000
1709374285.335,-58.594,-34.668,-30.762,-44.434,0.000
1709374285.339,-51.758,-25.391,-30.273,-43.945,0.000
1709374285.342,-10.254,-26.855,-32.227,-17.090,0.000
1709374285.346,17.090,-28.809,-28.320,4.883,0.000
1709374285.350,-31.738,-36.621,-27.832,-27.832,0.000
1709374285.354,-59.570,-36.621,-31.250,-52.246,0.000
1709374285.358,-46.875,-25.391,-27.344,-55.176,0.000
1709374285.362,-10.254,-29.297,-26.367,-19.531,0.000
1709374285.366,20.996,-28.320,-31.250,14.648,0.000
1709374285.370,-22.461,-23.926,-34.180,-24.414,0.000
1709374285.374,-64.453,-28.320,-36.133,-54.688,0.000
1709374285.378,-61.035,-27.344,-33.203,-43.945,0.000
1709374285.381,-19.531,-21.484,-28.809,-5.371,0.000
1709374285.385,19.531,-22.949,-29.297,12.695,0.000
1709374285.389,-13.672,-35.645,-32.227,-24.902,0.000
1709374285.393,-49.805,-37.598,-30.273,-50.781,0.000
1709374285.397,-54.199,-36.621,-38.086,-59.570,0.000
1709374285.401,-23.438,-33.691,-43.945,-41.992,0.000
1709374285.405,17.578,-26.367,-39.551,-6.348,0.000
1709374285.409,-14.648,-21.973,-33.691,-30.273,0.000
1709374285.413,-67.871,-30.273,-34.180,-63.965,0.000
1709374285.417,-73.242,-31.250,-36.621,-65.430,0.000
1709374285.420,-47.363,-24.902,-36.133,-43.457,0.000
1709374285.424,-3.418,-35.645,-41.016,1.465,0.000
1709374285.428,-22.949,-39.551,-41.504,-17.090,0.000
1709374285.432,-68.848,-39.062,-35.156,-57.129,0.000
1709374285.436,-79.102,-41.504,-35.645,-60.059,0.000
1709374285.440,-51.270,-41.992,-37.598,-35.156,0.000
1709374285.444,-8.301,-42.969,-38.086,-1.953,0.000
1709374285.448,-16.602,-39.062,-34.180,-2.441,0.000
1709374285.452,-53.223,-38.086,-29.785,-39.062,0.000
1709374285.455,-71.777,-33.691,-32.227,-63.477,0.000
1709374285.459,-54.688,-24.414,-31.738,-48.828,0.000
1709374285.463,-9.766,-31.738,-29.785,-11.719,0.000
1709374285.467,-5.859,-39.551,-36.133,-12.695,0.000
1709374285.471,-49.805,-41.016,-43.457,-51.758,0.000
1709374285.475,-67.871,-35.156,-42.969,-64.453,0.000
1709374285.479,-50.781,-23.926,-43.457,-46.875,0.000
1709374285.483,-6.836,-26.855,-41.992,-3.906,0.000
1709374285.487,2.441,-36.621,-38.086,6.836,0.000
1709374285.490,-44.922,-37.598,-44.434,-34.668,0.000
1709374285.494,-70.801,-35.645,-45.898,-61.035,0.000
1709374285.498,-65.918,-42.969,-44.922,-54.688,0.000
1709374285.502,-19.531,-43.945,-41.992,-22.949,0.000
1709374285.506,5.859,-35.645,-41.992,-11.230,0.000
1709374285.510,-48.340,-39.551,-43.945,-44.922,0.000
1709374285.514,-83.984,-36.133,-40.039,-59.082,0.000
1709374285.518,-72.266,-30.273,-42.480,-54.688,0.000
1709374285.522,-22.461,-32.227,-48.340,-25.879,0.000
1709374285.526,-0.488,-34.180,-43.945,-12.695,0.000
1709374285.529,-51.758,-36.133,-40.039,-53.711,0.000
1709374285.533,-73.242,-32.227,-43.457,-63.965,0.000
1709374285.538,-63.965,-34.668,-42.480,-56.641,0.000
1709374285.541,-33.203,-40.527,-34.180,-34.668,0.000
1709374285.545,-0.977,-43.945,-32.227,-6.836,0.000
1709374285.549,-41.504,-46.875,-37.598,-40.039,0.000
1709374285.553,-69.824,-41.016,-35.156,-65.918,0.000
1709374285.557,-62.988,-42.969,-32.715,-57.617,0.000
1709374285.561,-31.738,-43.457,-41.016,-35.645,0.000
1709374285.565,11.719,-35.156,-45.898,-3.418,0.000
1709374285.569,-17.090,-30.762,-42.480,-27.344,0.000
1709374285.573,-62.500,-36.133,-41.504,-57.129,0.000
1709374285.577,-67.871,-41.016,-42.969,-53.223,0.000
1709374285.581,-36.621,-38.574,-42.480,-40.527,0.000
1709374285.585,5.859,-36.133,-37.598,-2.930,0.000
1709374285.589,-14.648,-34.668,-33.203,-13.672,0.000
1709374285.592,-58.594,-37.598,-36.133,-56.152,0.000
1709374285.596,-67.871,-41.504,-36.133,-64.453,0.000
1709374285.600,-39.062,-37.109,-35.156,-36.621,0.000
1709374285.604,4.883,-36.133,-36.621,10.254,0.000
1709374285.608,-13.672,-41.016,-36.621,-2.441,0.000
1709374285.612,-60.547,-36.133,-35.156,-49.805,0.000
1709374285.616,-73.730,-32.715,-32.227,-58.594,0.000
1709374285.620,-59.082,-42.480,-35.645,-44.922,0.000
1709374285.624,-12.207,-42.480,-44.434,-6.836,0.000
1709374285.628,-10.742,-33.691,-45.898,-8.789,0.000
1709374285.632,-62.500,-38.086,-43.945,-61.523,0.000
1709374285.636,-80.078,-40.039,-42.969,-75.684,0.000
1709374285.640,-60.059,-34.668,-46.875,-62.500,0.000
1709374285.643,-6.348,-36.133,-46.387,-27.832,0.000
1709374285.647,1.465,-36.621,-38.086,-16.602,0.000
1709374285.651,-47.852,-39.551,-36.133,-56.152,0.000
1709374285.655,-67.871,-40.039,-38.574,-70.801,0.000
1709374285.659,-57.129,-37.109,-41.504,-61.035,0.000
1709374285.663,-10.254,-34.668,-42.480,-25.879,0.000
1709374285.667,-8.789,-32.715,-42.969,-20.020,0.000
1709374285.671,-49.316,-32.715,-41.992,-53.711,0.000
1709374285.675,-63.477,-32.715,-36.621,-64.941,0.000
1709374285.679,-56.641,-34.180,-34.668,-58.594,0.000
1709374285.683,-10.254,-38.574,-37.598,-25.391,0.000
1709374285.686,4.395,-39.551,-44.434,-7.812,0.000
1709374285.690,-45.410,-37.598,-43.457,-44.434,0.000
1709374285.694,-78.125,-41.016,-37.109,-67.383,0.000
1709374285.698,-73.730,-43.457,-41.016,-63.965,0.000
1709374285.702,-32.227,-40.527,-46.875,-35.156,0.000
1709374285.706,-2.441,-44.922,-45.898,-6.348,0.000
1709374285.710,-40.039,-43.945,-37.598,-24.902,0.000
1709374285.714,-78.125,-43.457,-36.621,-56.641,0.000
1709374285.718,-69.824,-45.898,-39.551,-62.500,0.000
1709374285.722,-22.949,-37.109,-31.250,-25.879,0.000
1709374285.725,14.648,-36.133,-30.273,4.883,0.000
1709374285.729,-20.996,-39.062,-34.668,-25.391,0.000
1709374285.733,-63.477,-42.480,-35.645,-62.012,0.000
1709374285.737,-66.406,-49.805,-39.551,-59.082,0.000
1709374285.741,-36.133,-46.387,-41.016,-27.832,0.000
1709374285.745,6.348,-38.086,-40.527,1.953,0.000
1709374285.749,-16.602,-38.086,-41.016,-16.602,0.000
1709374285.753,-55.176,-35.156,-35.156,-42.969,0.000
1709374285.757,-62.012,-33.691,-35.645,-51.270,0.000
1709374285.761,-40.039,-39.062,-40.527,-38.086,0.000
1709374285.765,2.441,-46.875,-35.156,-3.418,0.000
1709374285.768,-8.789,-49.316,-31.738,-17.578,0.000
1709374285.772,-55.176,-39.551,-35.156,-55.176,0.000
1709374285.776,-70.312,-38.086,-36.621,-66.895,0.000
1709374285.780,-53.711,-40.527,-37.598,-50.781,0.000
1709374285.784,1.465,-38.086,-37.109,-10.254,0.000
1709374285.788,4.883,-36.621,-35.156,-11.230,0.000
1709374285.792,-55.664,-32.227,-31.250,-51.270,0.000
1709374285.796,-71.289,-30.762,-27.832,-54.199,0.000
1709374285.800,-47.852,-28.320,-30.273,-36.621,0.000
1709374285.804,-6.348,-28.320,-38.086,-10.742,0.000
1709374285.807,-5.371,-27.344,-40.527,-6.348,0.000
1709374285.811,-52.734,-26.855,-40.039,-42.969,0.000
1709374285.815,-61.523,-29.785,-37.109,-62.988,0.000
1709374285.819,-52.734,-32.227,-35.156,-53.223,0.000
1709374285.823,-8.301,-32.227,-33.691,-13.184,0.000
1709374285.827,10.254,-33.691,-35.645,-1.953,0.000
1709374285.831,-39.062,-36.621,-37.109,-45.898,0.000
1709374285.835,-58.594,-29.297,-32.715,-62.012,0.000
1709374285.839,-50.293,-31.738,-33.203,-52.246,0.000
1709374285.842,-16.113,-38.574,-33.203,-15.625,0.000
1709374285.846,-1.465,-37.598,-37.109,0.977,0.000
1709374285.850,-38.574,-36.133,-40.039,-51.270,0.000
1709374285.854,-60.547,-33.203,-38.086,-74.707,0.000
1709374285.858,-65.430,-32.715,-40.527,-63.965,0.000
1709374285.862,-28.320,-34.668,-40.039,-31.738,0.000
1709374285.866,5.859,-42.969,-34.668,-4.395,0.000
1709374285.870,-36.621,-49.805,-31.738,-36.621,0.000
1709374285.873,-73.242,-38.086,-34.180,-60.547,0.000
1709374285.877,-63.965,-32.227,-35.645,-53.711,0.000
1709374285.881,-26.367,-31.738,-36.133,-26.367,0.000
1709374285.885,6.348,-33.691,-38.574,8.789,0.000
1709374285.889,-19.043,-34.668,-38.574,-7.324,0.000
1709374285.893,-51.270,-26.367,-34.180,-46.875,0.000
1709374285.897,-59.082,-23.926,-30.273,-57.617,0.000
1709374285.901,-33.203,-27.832,-32.715,-34.668,0.000
1709374285.905,9.277,-25.391,-33.691,-0.488,0.000
1709374285.909,-16.602,-25.391,-35.645,-21.973,0.000
1709374285.913,-61.523,-26.855,-40.039,-49.805,0.000
1709374285.917,-64.941,-29.297,-38.574,-51.758,0.000
1709374285.921,-32.715,-34.180,-36.621,-38.086,0.000
1709374285.925,18.066,-33.691,-30.762,2.930,0.000
1709374285.928,-0.977,-31.738,-27.344,-10.742,0.000
1709374285.932,-42.969,-31.250,-25.879,-42.969,0.000
1709374285.936,-43.457,-29.297,-23.926,-42.969,0.000
1709374285.940,-27.832,-27.832,-29.785,-24.902,0.000
1709374285.944,10.742,-29.785,-33.203,13.184,0.000
1709374285.948,4.395,-28.320,-26.367,16.113,0.000
1709374285.952,-42.480,-26.855,-29.297,-25.391,0.000
1709374285.956,-58.105,-30.273,-30.273,-48.340,0.000
1709374285.960,-41.016,-38.574,-26.855,-37.598,0.000
1709374285.964,5.859,-33.691,-27.832,-1.953,0.000
1709374285.968,0.977,-26.855,-31.738,-6.836,0.000
1709374285.972,-49.316,-28.809,-33.203,-51.270,0.000
1709374285.976,-56.641,-29.297,-30.762,-57.129,0.000
1709374285.979,-37.598,-32.227,-35.156,-46.387,0.000
1709374285.983,3.906,-35.156,-41.992,-21.973,0.000
1709374285.987,10.742,-36.133,-42.969,-22.949,0.000
1709374285.991,-39.551,-35.156,-38.086,-53.223,0.000
1709374285.995,-62.500,-33.203,-33.691,-55.176,0.000
1709374285.999,-52.734,-33.203,-31.738,-50.293,0.000
1709374286.003,0.977,-37.109,-33.691,-17.578,0.000
1709374286.007,14.160,-45.410,-33.691,2.441,0.000
1709374286.011,-50.293,-43.457,-29.297,-29.297,0.000
1709374286.015,-79.590,-39.062,-29.785,-50.293,0.000
1709374286.019,-65.918,-32.715,-32.715,-46.875,0.000
1709374286.023,-18.555,-26.855,-33.203,-10.254,0.000
1709374286.026,3.906,-30.762,-36.133,1.953,0.000
1709374286.030,-41.992,-37.598,-40.527,-43.945,0.000
1709374286.034,-70.801,-36.133,-33.691,-64.941,0.000
1709374286.038,-68.359,-31.250,-30.762,-45.898,0.000
1709374286.042,-32.715,-33.691,-40.039,-13.672,0.000
1709374286.046,-0.977,-35.645,-40.527,0.488,0.000
1709374286.050,-37.109,-41.992,-38.574,-30.273,0.000
1709374286.054,-79.590,-43.457,-43.457,-56.641,0.000
1709374286.058,-78.125,-37.109,-47.852,-61.523,0.000
1709374286.062,-40.527,-35.156,-48.340,-39.551,0.000
1709374286.066,1.465,-31.250,-40.527,-2.441,0.000
1709374286.069,-26.367,-33.691,-37.598,-20.508,0.000
1709374286.073,-70.312,-44.434,-42.480,-53.711,0.000
1709374286.077,-66.895,-40.527,-42.480,-67.383,0.000
1709374286.081,-30.762,-28.809,-37.109,-41.992,0.000
1709374286.085,10.742,-30.762,-37.598,-0.977,0.000
1709374286.089,-11.719,-31.738,-39.062,-26.855,0.000
1709374286.093,-53.711,-28.809,-34.668,-55.664,0.000
1709374286.097,-53.223,-34.668,-39.551,-50.293,0.000
1709374286.101,-34.668,-41.504,-46.875,-39.062,0.000
1709374286.105,4.395,-34.180,-46.875,-8.301,0.000
1709374286.108,-0.977,-31.738,-43.945,-20.020,0.000
1709374286.112,-47.852,-38.574,-40.039,-57.129,0.000
1709374286.116,-62.500,-38.574,-34.180,-58.105,0.000
1709374286.120,-41.992,-35.645,-33.203,-40.527,0.000
1709374286.124,1.953,-39.062,-36.133,-5.859,0.000
1709374286.128,-3.906,-43.457,-34.668,-6.836,0.000
1709374286.132,-47.363,-41.016,-33.203,-40.039,0.000
1709374286.136,-63.477,-39.551,-34.668,-56.152,0.000
1709374286.140,-45.898,-41.016,-35.156,-49.805,0.000
1709374286.144,10.254,-45.898,-33.691,-6.348,0.000
1709374286.147,10.254,-45.898,-35.156,3.906,0.000
1709374286.151,-40.039,-40.527,-34.668,-39.062,0.000
1709374286.155,-55.664,-34.180,-31.738,-61.523,0.000
1709374286.159,-48.828,-31.738,-32.715,-58.105,0.000
1709374286.163,-2.930,-38.086,-39.551,-24.414,0.000
1709374286.167,20.020,-36.133,-35.645,-13.184,0.000
1709374286.171,-28.320,-27.344,-31.250,-49.805,0.000
1709374286.175,-59.082,-32.715,-37.109,-64.941,0.000
1709374286.179,-52.246,-37.109,-37.598,-56.641,0.000
1709374286.183,-10.254,-32.715,-36.621,-28.809,0.000
1709374286.187,7.812,-36.133,-38.086,-9.277,0.000
1709374286.190,-41.016,-38.574,-33.691,-41.016,0.000
1709374286.194,-67.871,-41.504,-30.762,-63.477,0.000
1709374286.198,-57.617,-40.039,-32.227,-52.734,0.000
1709374286.202,-18.066,-36.133,-32.227,-16.602,0.000
1709374286.206,8.301,-39.062,-36.621,3.906,0.000
1709374286.210,-31.250,-42.969,-41.016,-29.297,0.000
1709374286.214,-67.871,-42.480,-35.156,-57.617,0.000
1709374286.218,-71.777,-41.016,-36.621,-55.664,0.000
1709374286.221,-36.133,-43.457,-41.992,-26.367,0.000
1709374286.225,3.906,-47.363,-39.551,0.488,0.000
1709374286.229,-25.879,-42.480,-37.109,-33.203,0.000
1709374286.233,-63.965,-37.109,-32.715,-65.918,0.000
1709374286.237,-61.035,-31.250,-31.250,-59.082,0.000
1709374286.241,-33.691,-36.621,-33.203,-35.645,0.000
1709374286.245,3.906,-41.016,-34.180,-1.465,0.000
1709374286.249,-18.555,-37.109,-34.668,-17.090,0.000
1709374286.253,-62.500,-38.574,-36.133,-57.129,0.000
1709374286.256,-67.383,-33.691,-41.504,-61.523,0.000
1709374286.260,-37.109,-30.273,-43.945,-42.969,0.000
1709374286.264,9.277,-31.250,-36.133,-0.977,0.000
1709374286.268,-8.789,-34.668,-32.715,-13.184,0.000
1709374286.272,-54.688,-36.133,-34.180,-53.711,0.000
1709374286.276,-68.359,-30.762,-34.668,-57.129,0.000
1709374286.280,-45.898,-26.855,-36.621,-41.016,0.000
1709374286.284,3.418,-33.203,-38.086,-2.930,0.000
1709374286.287,-6.836,-36.621,-35.645,-0.977,0.000
1709374286.291,-55.664,-33.691,-36.133,-39.551,0.000
1709374286.295,-66.406,-36.621,-37.109,-49.805,0.000
1709374286.299,-49.316,-37.598,-36.133,-30.762,0.000
1709374286.303,-4.883,-37.598,-36.621,11.230,0.000
1709374286.307,-10.742,-44.922,-38.086,7.324,0.000
1709374286.311,-55.664,-41.016,-36.621,-36.621,0.000
1709374286.315,-60.547,-39.062,-33.203,-51.270,0.000
1709374286.319,-39.551,-41.992,-32.715,-42.480,0.000
1709374286.323,6.348,-35.156,-30.273,-1.465,0.000
1709374286.326,11.230,-34.668,-31.738,2.930,0.000
1709374286.330,-42.969,-40.039,-38.574,-46.387,0.000
1709374286.334,-72.266,-40.527,-44.922,-64.941,0.000
1709374286.338,-62.012,-38.086,-44.434,-59.082,0.000
1709374286.342,-17.578,-43.457,-41.992,-25.879,0.000
1709374286.346,0.000,-45.410,-41.504,-9.766,0.000
1709374286.350,-36.621,-33.203,-39.551,-42.969,0.000
1709374286.354,-59.570,-30.273,-41.504,-62.012,0.000
1709374286.358,-54.688,-34.180,-44.922,-49.316,0.000
1709374286.362,-14.160,-33.203,-44.434,-19.531,0.000
1709374286.366,4.883,-36.133,-42.480,-9.766,0.000
1709374286.370,-43.457,-31.250,-36.133,-39.062,0.000
1709374286.374,-78.125,-30.762,-40.039,-61.035,0.000
1709374286.377,-74.707,-38.086,-47.363,-62.012,0.000
1709374286.382,-39.551,-41.016,-42.969,-41.016,0.000
1709374286.385,-7.812,-43.457,-35.156,-9.277,0.000
1709374286.389,-37.598,-38.574,-30.273,-31.738,0.000
1709374286.393,-71.289,-37.109,-33.203,-56.641,0.000
1709374286.397,-68.359,-39.062,-34.668,-52.734,0.000
1709374286.401,-33.203,-41.504,-35.156,-25.879,0.000
1709374286.405,6.348,-43.457,-36.621,11.230,0.000
1709374286.409,-21.484,-43.945,-36.621,-13.672,0.000
1709374286.413,-60.547,-39.062,-31.738,-43.457,0.000
1709374286.417,-60.547,-34.180,-29.785,-40.039,0.000
1709374286.421,-35.156,-41.504,-34.668,-24.414,0.000
1709374286.424,3.906,-44.922,-36.621,10.254,0.000
1709374286.428,-10.742,-37.598,-36.133,-3.906,0.000
1709374286.432,-55.664,-38.574,-37.598,-47.363,0.000
1709374286.436,-60.059,-38.574,-34.668,-56.641,0.000
1709374286.440,-30.273,-41.016,-33.691,-36.133,0.000
1709374286.444,9.766,-44.434,-35.645,-3.418,0.000
1709374286.448,-8.789,-41.016,-33.203,-18.555,0.000
1709374286.452,-60.059,-38.086,-34.180,-57.617,0.000
1709374286.456,-65.918,-38.086,-36.621,-62.500,0.000
1709374286.460,-40.527,-39.551,-37.109,-37.598,0.000
1709374286.464,-5.371,-38.574,-41.016,-4.883,0.000
1709374286.468,-14.648,-37.598,-42.969,-16.113,0.000
1709374286.471,-61.523,-36.621,-41.016,-58.105,0.000
1709374286.475,-82.031,-41.504,-41.504,-71.777,0.000
1709374286.479,-64.453,-49.316,-40.039,-56.152,0.000
1709374286.483,-14.160,-43.945,-38.574,-19.531,0.000
1709374286.487,-3.418,-30.762,-33.691,-18.555,0.000
1709374286.491,-51.758,-33.691,-30.273,-61.523,0.000
1709374286.495,-67.871,-37.598,-27.832,-76.172,0.000
1709374286.499,-55.664,-33.691,-30.762,-65.430,0.000
1709374286.503,-13.672,-34.668,-30.762,-23.438,0.000
1709374286.507,0.977,-39.062,-34.668,-5.859,0.000
1709374286.510,-56.641,-42.480,-40.527,-50.781,0.000
1709374286.514,-80.566,-38.086,-36.133,-71.289,0.000
1709374286.518,-67.383,-40.039,-33.203,-59.082,0.000
1709374286.522,-27.832,-41.504,-39.062,-27.344,0.000
1709374286.526,-2.441,-41.504,-39.551,-8.789,0.000
1709374286.530,-41.016,-40.039,-33.203,-39.062,0.000
1709374286.534,-73.730,-34.180,-36.133,-61.523,0.000
1709374286.538,-69.824,-36.133,-39.551,-59.082,0.000
1709374286.542,-29.785,-38.574,-38.574,-31.738,0.000
1709374286.546,0.977,-40.039,-39.062,-2.441,0.000
1709374286.549,-38.574,-42.969,-35.156,-24.414,0.000
1709374286.553,-73.730,-38.086,-33.691,-65.918,0.000
1709374286.557,-75.195,-36.621,-36.133,-71.289,0.000
1709374286.561,-34.180,-41.992,-40.039,-42.480,0.000
1709374286.565,2.930,-39.551,-43.945,-18.555,0.000
1709374286.569,-39.062,-36.133,-41.016,-39.062,0.000
1709374286.573,-81.055,-37.598,-41.016,-63.965,0.000
1709374286.577,-83.008,-42.480,-43.945,-69.336,0.000
1709374286.581,-53.223,-42.969,-42.480,-49.805,0.000
1709374286.584,-2.930,-40.527,-42.480,-13.184,0.000
1709374286.588,-16.602,-38.574,-39.551,-26.855,0.000
1709374286.592,-62.500,-30.762,-32.227,-52.734,0.000
1709374286.596,-65.918,-33.203,-34.180,-47.852,0.000
1709374286.600,-34.668,-38.574,-37.109,-35.156,0.000
1709374286.604,14.160,-36.621,-36.133,-6.836,0.000
1709374286.608,1.465,-32.227,-34.668,-14.160,0.000
1709374286.612,-53.223,-35.156,-36.133,-48.828,0.000
