timestamps,TP9,AF7,AF8,TP10,Right AUX
1709298695.599,-36.621,-27.344,-36.133,-20.508,0.000
1709298695.602,-30.273,-26.367,-40.039,-23.926,0.000
1709298695.606,-33.203,-34.180,-48.340,-33.691,0.000
1709298695.610,-35.156,-25.879,-43.945,-31.250,0.000
1709298695.614,-25.391,-26.855,-43.457,-17.090,0.000
1709298695.618,-8.789,-32.227,-43.945,-8.301,0.000
1709298695.622,6.836,-25.879,-37.109,5.859,0.000
1709298695.626,6.836,-23.438,-36.133,3.418,0.000
1709298695.630,0.000,-23.438,-44.434,-13.184,0.000
1709298695.634,-3.418,-25.391,-48.340,-7.812,0.000
1709298695.638,3.418,-24.414,-37.598,1.465,0.000
1709298695.641,6.348,-20.996,-38.574,-10.254,0.000
1709298695.645,0.000,-15.625,-36.133,-23.926,0.000
1709298695.649,0.000,-10.254,-30.273,-29.785,0.000
1709298695.653,0.000,-14.648,-35.156,-35.645,0.000
1709298695.657,0.000,-22.461,-35.156,-36.133,0.000
1709298695.661,0.000,-30.762,-41.992,-44.434,0.000
1709298695.665,0.000,-46.387,-40.039,-64.453,0.000
1709298695.669,0.000,-50.781,-35.156,-71.777,0.000
1709298695.673,0.000,-54.688,-40.527,-67.383,0.000
1709298695.677,0.000,-56.152,-32.227,-55.664,0.000
1709298695.681,0.000,-51.270,-37.598,-52.734,0.000
1709298695.684,0.000,-41.016,-46.875,-60.547,0.000
1709298695.688,0.000,-30.762,-39.062,-59.082,0.000
1709298695.692,-39.551,-29.785,-29.785,-45.410,0.000
1709298695.696,-34.668,-32.715,-33.203,-30.273,0.000
1709298695.700,-24.414,-30.762,-39.062,-25.879,0.000
1709298695.704,-27.344,-36.133,-48.828,-37.109,0.000
1709298695.708,-32.715,-42.480,-41.992,-39.551,0.000
1709298695.712,-28.809,-42.480,-33.203,-27.344,0.000
1709298695.716,-28.320,-40.527,-41.504,-21.973,0.000
1709298695.720,-24.414,-35.156,-44.434,-22.461,0.000
1709298695.723,-23.926,-33.203,-45.410,-23.926,0.000
1709298695.727,-30.273,-34.180,-44.922,-29.297,0.000
1709298695.731,-35.156,-32.715,-42.480,-28.809,0.000
1709298695.735,-30.762,-27.344,-42.480,-17.578,0.000
1709298695.739,-21.484,-30.273,-46.387,-12.207,0.000
1709298695.743,-18.066,-38.086,-45.410,-21.973,0.000
1709298695.747,-22.949,-38.574,-46.387,-34.668,0.000
1709298695.751,-25.879,-38.086,-51.270,-34.668,0.000
1709298695.755,-22.461,-31.250,-43.945,-19.531,0.000
1709298695.759,-24.902,-18.066,-48.340,-17.090,0.000
1709298695.763,-27.832,-15.137,-49.316,-32.715,0.000
1709298695.766,-31.250,-20.508,-49.805,-39.062,0.000
1709298695.770,-33.691,-27.832,-47.363,-41.504,0.000
1709298695.774,-29.297,-20.020,-41.016,-30.762,0.000
1709298695.778,-25.879,-23.926,-45.898,-25.879,0.000
1709298695.782,-26.855,-31.738,-40.527,-29.785,0.000
1709298695.786,-34.180,-25.391,-39.062,-41.992,0.000
1709298695.790,-39.551,-25.391,-41.016,-47.852,0.000
1709298695.794,-47.363,-26.855,-47.852,-43.945,0.000
1709298695.798,-43.945,-31.738,-52.734,-40.039,0.000
1709298695.802,-42.480,-32.227,-43.457,-43.945,0.000
1709298695.806,-51.758,-41.504,-34.668,-59.082,0.000
1709298695.809,-55.176,-43.945,-35.156,-55.176,0.000
1709298695.813,-55.176,-34.668,-37.109,-50.293,0.000
1709298695.817,-54.199,-36.621,-41.016,-40.039,0.000
1709298695.821,-46.875,-36.621,-43.457,-32.715,0.000
1709298695.825,-44.922,-33.203,-44.434,-54.199,0.000
1709298695.829,-51.758,-32.227,-44.922,-63.965,0.000
1709298695.833,-54.199,-24.414,-49.316,-51.758,0.000
1709298695.837,-46.387,-27.344,-41.016,-32.227,0.000
1709298695.841,-41.016,-32.715,-40.039,-27.832,0.000
1709298695.845,-51.758,-25.391,-48.340,-41.016,0.000
1709298695.848,-60.059,-32.227,-43.945,-48.828,0.000
1709298695.852,-62.012,-39.062,-47.852,-42.480,0.000
1709298695.856,-51.758,-39.551,-49.316,-34.180,0.000
1709298695.860,-45.898,-41.992,-42.969,-31.738,0.000
1709298695.864,-48.340,-41.504,-41.016,-29.785,0.000
1709298695.868,-45.898,-41.504,-43.945,-34.668,0.000
1709298695.872,-52.246,-41.992,-48.340,-47.363,0.000
1709298695.876,-45.410,-40.527,-48.828,-35.645,0.000
1709298695.880,-30.762,-39.551,-42.480,-24.902,0.000
1709298695.884,-44.434,-40.527,-46.875,-46.875,0.000
1709298695.888,-55.176,-41.504,-49.805,-61.035,0.000
1709298695.891,-54.199,-35.156,-46.875,-51.270,0.000
1709298695.895,-53.223,-32.715,-45.898,-51.270,0.000
1709298695.899,-52.246,-48.828,-48.828,-55.176,0.000
1709298695.903,-54.688,-48.828,-55.664,-55.664,0.000
1709298695.907,-57.617,-31.738,-54.688,-53.223,0.000
1709298695.911,-59.082,-31.250,-43.457,-47.852,0.000
1709298695.915,-56.641,-30.273,-43.457,-48.340,0.000
1709298695.919,-55.176,-30.273,-45.410,-41.504,0.000
1709298695.923,-52.734,-40.039,-41.504,-47.852,0.000
1709298695.927,-52.246,-42.480,-42.969,-58.105,0.000
1709298695.931,-52.246,-42.480,-44.434,-62.012,0.000
1709298695.934,-44.922,-49.316,-43.945,-47.852,0.000
1709298695.938,-31.250,-42.480,-41.016,-32.227,0.000
1709298695.942,-29.785,-29.297,-34.668,-38.574,0.000
1709298695.946,-33.691,-30.762,-26.367,-45.410,0.000
1709298695.950,-33.203,-30.762,-21.973,-38.086,0.000
1709298695.954,-44.922,-42.969,-33.691,-23.926,0.000
1709298695.958,-47.363,-50.781,-39.551,-20.508,0.000
1709298695.962,-41.016,-43.945,-34.180,-26.367,0.000
1709298695.966,-38.086,-40.039,-33.203,-29.785,0.000
1709298695.970,-43.945,-39.062,-33.203,-28.320,0.000
1709298695.973,-49.316,-40.527,-27.344,-23.926,0.000
1709298695.977,-42.969,-33.691,-23.438,-15.625,0.000
1709298695.981,-36.133,-28.809,-26.367,-14.648,0.000
1709298695.985,-38.574,-30.273,-36.621,-26.367,0.000
1709298695.989,-34.180,-30.273,-32.227,-23.438,0.000
1709298695.993,-31.738,-28.809,-21.973,-20.020,0.000
1709298695.997,-39.062,-37.598,-28.809,-16.113,0.000
1709298696.001,-34.668,-47.363,-32.715,-15.137,0.000
1709298696.005,-33.691,-36.133,-28.320,-28.320,0.000
1709298696.009,-33.691,-29.297,-28.809,-39.551,0.000
1709298696.013,-36.133,-41.504,-34.180,-36.133,0.000
1709298696.016,-37.109,-40.527,-36.133,-27.344,0.000
1709298696.020,-35.645,-32.227,-33.691,-30.273,0.000
1709298696.024,-41.016,-30.762,-34.668,-41.016,0.000
1709298696.028,-42.969,-32.227,-34.180,-49.316,0.000
1709298696.032,-51.270,-40.527,-36.621,-51.270,0.000
1709298696.036,-59.570,-48.828,-42.969,-44.434,0.000
1709298696.040,-57.617,-42.969,-39.062,-40.527,0.000
1709298696.044,-56.152,-43.945,-34.668,-42.480,0.000
1709298696.048,-56.641,-43.457,-40.527,-54.199,0.000
1709298696.052,-54.688,-26.855,-40.039,-57.129,0.000
1709298696.055,-50.293,-27.344,-36.621,-30.762,0.000
1709298696.059,-38.086,-31.738,-37.598,-20.996,0.000
1709298696.063,-27.832,-29.297,-38.086,-33.691,0.000
1709298696.067,-28.320,-21.973,-40.039,-36.133,0.000
1709298696.071,-33.691,-18.555,-42.480,-28.320,0.000
1709298696.075,-32.715,-26.855,-41.016,-24.902,0.000
1709298696.079,-27.344,-28.320,-42.480,-23.438,0.000
1709298696.083,-24.902,-28.320,-42.969,-25.391,0.000
1709298696.087,-27.344,-40.527,-39.551,-29.785,0.000
1709298696.091,-32.227,-35.156,-37.109,-30.273,0.000
1709298696.095,-26.367,-28.320,-33.203,-26.367,0.000
1709298696.098,-15.625,-29.785,-27.832,-17.090,0.000
1709298696.102,-20.508,-26.855,-25.391,-20.996,0.000
1709298696.106,-30.273,-32.715,-40.039,-33.203,0.000
1709298696.110,-26.367,-25.879,-40.039,-34.180,0.000
1709298696.114,-19.043,-25.879,-29.785,-24.414,0.000
1709298696.118,-22.461,-36.133,-32.715,-17.578,0.000
1709298696.122,-27.344,-35.645,-39.551,-28.809,0.000
1709298696.126,-26.367,-33.203,-38.086,-40.039,0.000
1709298696.130,-24.902,-34.180,-34.668,-38.086,0.000
1709298696.134,-26.367,-29.785,-36.133,-25.391,0.000
1709298696.138,-24.414,-28.320,-36.621,-19.531,0.000
1709298696.141,-20.996,-20.020,-32.715,-21.484,0.000
1709298696.145,-24.902,-23.926,-33.691,-33.203,0.000
1709298696.149,-29.785,-35.645,-38.086,-42.969,0.000
1709298696.153,-28.320,-35.156,-39.062,-35.156,0.000
1709298696.157,-24.902,-29.297,-39.551,-24.902,0.000
1709298696.161,-29.785,-29.297,0.000,-26.855,0.000
1709298696.165,-34.180,-29.297,0.000,-35.645,0.000
1709298696.169,-41.992,-28.320,0.000,-48.340,0.000
1709298696.173,-44.922,-37.109,0.000,-43.457,0.000
1709298696.177,-37.109,-37.109,0.000,-21.973,0.000
1709298696.180,-37.598,-32.227,0.000,-28.320,0.000
1709298696.184,-38.574,-34.668,0.000,-38.086,0.000
1709298696.188,-38.086,-32.715,0.000,-39.062,0.000
1709298696.192,-38.086,-34.668,0.000,-34.180,0.000
1709298696.196,-37.598,-38.086,0.000,-19.531,0.000
1709298696.200,-33.691,-37.598,0.000,-19.531,0.000
1709298696.204,-22.949,-35.156,0.000,-23.438,0.000
1709298696.208,-28.809,-31.250,-43.457,-34.180,0.000
1709298696.212,-36.133,-30.762,-41.992,-34.180,0.000
1709298696.216,-26.855,-34.668,-42.480,-29.297,0.000
1709298696.220,-17.090,-31.250,-38.574,-20.020,0.000
1709298696.223,-23.438,-29.785,-40.527,-26.855,0.000
1709298696.227,-28.320,-21.973,-41.504,-40.039,0.000
1709298696.231,-27.344,-25.391,-34.668,-32.227,0.000
1709298696.235,-31.250,-39.551,-36.133,-26.855,0.000
1709298696.239,-25.879,-36.133,-31.250,-18.555,0.000
1709298696.243,-29.297,-28.320,-27.832,-19.531,0.000
1709298696.247,-38.574,-29.785,-36.133,-28.320,0.000
1709298696.251,-35.156,-25.391,-41.016,-24.414,0.000
1709298696.255,-36.133,-20.996,-41.016,-21.973,0.000
1709298696.259,-31.738,-25.391,-40.527,-18.555,0.000
1709298696.263,-24.902,-27.832,-38.574,-17.090,0.000
1709298696.266,-35.156,-20.508,-36.621,-22.949,0.000
1709298696.270,-39.551,-17.578,-30.762,-25.879,0.000
1709298696.274,-39.551,-26.367,-33.691,-26.367,0.000
1709298696.278,-36.621,-29.297,-36.133,-19.531,0.000
1709298696.282,-35.156,-32.715,-36.621,-8.789,0.000
1709298696.286,-38.574,-36.621,-41.504,-16.602,0.000
1709298696.290,-37.598,-38.086,-39.062,-29.785,0.000
1709298696.294,-39.551,-37.598,-34.668,-20.508,0.000
1709298696.298,-36.621,-27.344,-34.668,-16.113,0.000
1709298696.302,-30.762,-20.508,-36.621,-20.508,0.000
1709298696.306,-26.855,-24.414,-34.668,-27.832,0.000
1709298696.309,-34.180,-28.320,-38.086,-35.156,0.000
1709298696.313,-43.457,-31.250,-41.504,-38.574,0.000
1709298696.317,-39.062,-34.180,-39.062,-33.691,0.000
1709298696.321,-31.250,-34.668,-39.551,-29.785,0.000
1709298696.325,-34.668,-33.691,-38.086,-41.504,0.000
1709298696.329,-46.387,-32.227,-41.016,-45.410,0.000
1709298696.333,-44.922,-30.762,-43.945,-36.133,0.000
1709298696.337,-32.715,-34.180,-40.527,-29.785,0.000
1709298696.341,-29.785,-31.250,-33.203,-22.949,0.000
1709298696.345,-31.250,-34.668,-36.621,-28.320,0.000
1709298696.348,-38.574,-48.828,-39.062,-42.480,0.000
1709298696.352,-44.922,-37.109,-35.156,-38.574,0.000
1709298696.356,-47.363,-29.297,-41.016,-22.949,0.000
1709298696.360,-46.875,-37.109,-41.504,-21.484,0.000
1709298696.364,-41.016,-38.574,-38.086,-27.344,0.000
1709298696.368,-40.527,-36.133,-31.250,-25.391,0.000
1709298696.372,-49.805,-38.574,-32.227,-22.461,0.000
1709298696.376,-47.363,-42.969,-37.109,-13.184,0.000
1709298696.380,-41.504,-36.621,-39.551,-17.090,0.000
1709298696.384,-46.387,-29.785,-40.527,-26.855,0.000
1709298696.387,-44.922,-38.086,-40.527,-29.785,0.000
1709298696.391,-44.922,-38.574,-37.598,-24.414,0.000
1709298696.395,-41.016,-38.574,-35.156,-7.324,0.000
1709298696.399,-34.668,-39.551,-41.016,-7.812,0.000
1709298696.403,-41.016,-22.461,-44.922,-23.926,0.000
1709298696.407,-48.828,-14.160,-47.363,-32.715,0.000
1709298696.411,-38.086,-10.254,-44.434,-25.391,0.000
1709298696.415,-34.180,-7.324,-48.828,-23.926,0.000
1709298696.419,-38.574,-15.625,-60.059,-31.250,0.000
1709298696.423,-33.691,-16.113,-59.570,-35.156,0.000
1709298696.427,-38.574,-8.789,-60.547,-50.781,0.000
1709298696.430,-43.945,0.488,-61.035,-53.223,0.000
1709298696.434,-40.527,13.184,-59.570,-45.898,0.000
1709298696.438,-36.621,22.949,-65.430,-44.922,0.000
1709298696.442,-19.531,26.855,-63.965,-42.969,0.000
1709298696.446,-15.625,31.250,-63.965,-48.340,0.000
1709298696.450,-23.438,36.133,-68.848,-48.340,0.000
1709298696.454,-16.113,37.598,-69.336,-43.457,0.000
1709298696.458,-8.301,37.598,-69.336,-34.180,0.000
1709298696.462,-3.418,47.852,-68.359,-24.414,0.000
1709298696.466,-7.812,55.176,-73.242,-38.086,0.000
1709298696.470,-10.254,57.129,-76.660,-47.852,0.000
1709298696.473,-1.953,59.082,-73.242,-43.945,0.000
1709298696.477,10.254,56.152,-72.266,-30.273,0.000
1709298696.481,14.648,60.547,-69.824,-20.996,0.000
1709298696.485,9.766,64.941,-75.684,-35.645,0.000
1709298696.489,3.418,53.223,-89.355,-43.945,0.000
1709298696.493,2.441,49.316,-91.309,-35.156,0.000
1709298696.497,7.812,68.359,-84.961,-22.949,0.000
1709298696.501,14.160,82.031,-88.379,-20.020,0.000
1709298696.505,11.719,77.148,-94.727,-34.180,0.000
1709298696.509,5.371,76.172,-95.703,-37.598,0.000
1709298696.513,3.906,77.637,-93.750,-30.762,0.000
1709298696.516,11.230,64.941,-90.820,-30.273,0.000
1709298696.520,18.555,59.570,-89.355,-22.461,0.000
1709298696.524,18.066,67.383,-85.938,-16.113,0.000
1709298696.528,17.090,70.312,-86.426,-31.250,0.000
1709298696.532,14.160,69.336,-85.938,-36.621,0.000
1709298696.536,17.578,67.383,-79.590,-19.043,0.000
1709298696.540,23.438,60.547,-81.055,-5.859,0.000
1709298696.544,24.414,60.059,-85.449,-9.766,0.000
1709298696.548,20.996,59.570,-80.078,-20.020,0.000
1709298696.552,13.184,50.293,-81.055,-20.508,0.000
1709298696.555,7.812,42.480,-85.449,-8.789,0.000
1709298696.559,11.230,41.504,-79.102,-5.371,0.000
1709298696.563,20.996,43.945,-75.195,-13.672,0.000
1709298696.567,22.461,41.016,-76.660,-3.906,0.000
1709298696.571,11.230,33.691,-71.777,4.395,0.000
1709298696.575,11.230,23.438,-71.777,-4.883,0.000
1709298696.579,14.648,9.766,-70.312,-6.348,0.000
1709298696.583,15.137,17.090,-65.918,-7.812,0.000
1709298696.587,12.207,17.578,-65.918,-21.484,0.000
1709298696.591,1.465,8.789,-64.941,-27.832,0.000
1709298696.595,-5.371,4.883,-58.105,-14.160,0.000
1709298696.598,-9.277,1.953,-54.688,-10.254,0.000
1709298696.602,-9.277,1.953,-56.641,-13.672,0.000
1709298696.606,-7.324,-3.906,-58.105,-22.949,0.000
1709298696.610,-17.578,7.324,-58.105,-25.879,0.000
1709298696.614,-20.508,7.324,-60.547,-13.672,0.000
1709298696.618,-19.531,-4.395,-61.523,-18.066,0.000
1709298696.622,-20.996,3.906,-56.641,-34.180,0.000
1709298696.626,-28.809,0.000,-53.711,-41.504,0.000
1709298696.630,0.000,-1.465,0.000,0.000,0.000
1709298696.634,0.000,-3.906,0.000,0.000,0.000
1709298696.638,0.000,-11.230,0.000,0.000,0.000
1709298696.641,0.000,-10.742,0.000,0.000,0.000
1709298696.645,0.000,-11.230,0.000,0.000,0.000
1709298696.649,0.000,-0.488,0.000,0.000,0.000
1709298696.653,0.000,-1.953,0.000,0.000,0.000
1709298696.657,0.000,-16.602,0.000,0.000,0.000
1709298696.661,0.000,-23.438,0.000,0.000,0.000
1709298696.665,0.000,-21.484,0.000,0.000,0.000
1709298696.669,0.000,-7.812,0.000,0.000,0.000
1709298696.673,0.000,-14.160,0.000,0.000,0.000
1709298696.677,-34.668,-22.461,-41.016,-31.250,0.000
1709298696.681,-26.367,-7.812,-34.180,-22.461,0.000
1709298696.684,-21.973,-17.090,-31.738,-25.879,0.000
1709298696.688,-27.344,-21.484,-33.691,-37.598,0.000
1709298696.692,-30.273,-16.602,-34.180,-37.109,0.000
1709298696.696,-23.926,-20.508,-35.645,-26.855,0.000
1709298696.700,-20.508,-22.461,-41.016,-29.785,0.000
1709298696.704,-26.367,-33.203,-40.527,-38.086,0.000
1709298696.708,-31.250,-28.320,-40.527,-50.293,0.000
1709298696.712,-44.922,-17.578,-48.828,-62.012,0.000
1709298696.716,-49.316,-27.832,-50.293,-54.688,0.000
1709298696.720,-40.039,-37.598,-43.457,-46.387,0.000
1709298696.723,-40.039,-27.832,-45.898,-43.945,0.000
1709298696.727,-40.527,-21.484,-44.434,-37.109,0.000
1709298696.731,-41.992,-29.297,-38.086,-31.738,0.000
1709298696.735,-43.945,-33.203,-39.062,-42.480,0.000
1709298696.739,-41.992,-26.855,-40.527,-48.340,0.000
1709298696.743,-45.410,-26.367,-40.527,-49.316,0.000
1709298696.747,-47.363,-34.180,-35.156,-47.852,0.000
1709298696.751,-47.363,-33.203,-33.691,-40.039,0.000
1709298696.755,-46.875,-34.180,-32.715,-32.715,0.000
1709298696.759,-40.039,-28.809,-37.598,-28.809,0.000
1709298696.763,-39.551,-14.648,-33.691,-29.297,0.000
1709298696.766,-46.387,-12.695,-30.762,-27.344,0.000
1709298696.770,-50.293,-23.438,-35.645,-25.391,0.000
1709298696.774,-44.922,-33.203,-37.598,-20.020,0.000
1709298696.778,-34.668,-34.180,-37.598,-9.766,0.000
1709298696.782,-30.762,-41.992,-34.668,-9.766,0.000
1709298696.786,-28.320,-48.340,-39.551,-25.391,0.000
1709298696.790,-31.738,-45.410,-39.551,-34.180,0.000
1709298696.794,-37.598,-37.598,-40.039,-24.414,0.000
1709298696.798,-33.691,-28.320,-46.387,-19.531,0.000
1709298696.802,-28.809,-30.762,-45.410,-31.250,0.000
1709298696.805,-22.461,-37.109,-40.039,-40.527,0.000
1709298696.809,-20.508,-33.203,-35.156,-41.504,0.000
1709298696.813,-27.832,-30.762,-39.062,-38.086,0.000
1709298696.817,-24.902,-41.016,-45.898,-31.738,0.000
1709298696.821,-20.020,-49.316,-44.434,-29.785,0.000
1709298696.825,-15.625,-53.223,-41.992,-36.621,0.000
1709298696.829,-15.625,-46.387,-38.574,-42.480,0.000
1709298696.833,-23.926,-37.109,-35.156,-43.457,0.000
1709298696.837,-21.484,-40.527,-35.645,-28.320,0.000
1709298696.841,-17.090,-38.086,-31.250,-17.578,0.000
1709298696.845,-12.695,-28.320,-26.855,-23.438,0.000
1709298696.848,-18.555,-29.297,-26.367,-32.715,0.000
1709298696.852,-25.879,-34.668,-22.949,-33.203,0.000
1709298696.856,-27.344,-32.715,-25.391,-19.043,0.000
1709298696.860,-27.832,-31.250,-26.855,-17.578,0.000
1709298696.864,-30.762,-34.668,-32.227,-33.203,0.000
1709298696.868,-40.039,-42.480,-36.133,-41.504,0.000
1709298696.872,-49.316,-42.480,-33.203,-35.645,0.000
1709298696.876,-43.457,-34.180,-35.156,-19.531,0.000
1709298696.880,-38.086,-32.227,-38.574,-14.648,0.000
1709298696.884,-46.875,-42.969,-37.109,-35.645,0.000
1709298696.888,-49.316,-43.457,-37.598,-48.340,0.000
1709298696.891,-47.852,-38.574,-39.551,-43.457,0.000
1709298696.895,-44.434,-41.992,-31.250,-30.762,0.000
1709298696.899,-39.551,-42.480,-29.785,-15.625,0.000
1709298696.903,-38.574,-46.387,-37.598,-29.785,0.000
1709298696.907,-35.645,-40.527,-36.133,-41.504,0.000
1709298696.911,-38.574,-29.297,-36.133,-42.480,0.000
1709298696.915,-37.109,-30.762,-39.062,-40.039,0.000
1709298696.919,-32.227,-22.949,-39.551,-33.203,0.000
1709298696.923,-26.855,-21.973,-39.551,-39.551,0.000
1709298696.927,-29.297,-29.297,-40.039,-49.805,0.000
1709298696.930,-37.598,-30.762,-39.062,-46.387,0.000
1709298696.934,-36.621,-31.738,-39.551,-38.574,0.000
1709298696.938,-34.668,-29.785,-40.039,-36.133,0.000
1709298696.942,-31.738,-34.180,-36.621,-29.785,0.000
1709298696.946,-24.902,-36.621,-36.621,-27.832,0.000
1709298696.950,-34.180,-40.527,-42.480,-51.758,0.000
1709298696.954,-38.086,-45.898,-42.969,-46.387,0.000
1709298696.958,0.000,-43.945,-36.621,-22.949,0.000
1709298696.962,0.000,-36.621,-33.691,-31.738,0.000
1709298696.966,0.000,-27.832,-35.156,-50.781,0.000
1709298696.970,0.000,-30.762,-36.133,-53.711,0.000
1709298696.973,0.000,-34.668,-39.062,-48.340,0.000
1709298696.977,0.000,-38.574,-36.133,-42.480,0.000
1709298696.981,0.000,-42.480,-36.133,-40.527,0.000
1709298696.985,0.000,-34.180,-38.086,-41.992,0.000
1709298696.989,0.000,-31.250,-37.598,-35.156,0.000
1709298696.993,0.000,-31.738,-35.645,-27.832,0.000
1709298696.997,0.000,-31.738,-35.645,-20.996,0.000
1709298697.001,0.000,-32.227,-32.227,-10.254,0.000
1709298697.005,-19.043,-32.715,-30.273,-15.625,0.000
1709298697.009,-25.879,-36.133,-38.086,-29.785,0.000
1709298697.013,-30.762,-34.180,-34.180,-31.250,0.000
1709298697.016,-30.273,-31.738,-24.902,-24.414,0.000
1709298697.020,-32.227,-39.062,-30.762,-24.414,0.000
1709298697.024,-29.785,-39.551,-34.668,-34.180,0.000
1709298697.028,-31.738,-35.645,-30.273,-43.457,0.000
1709298697.032,-33.203,-31.738,-28.809,-33.691,0.000
1709298697.036,-33.203,-29.297,-33.691,-28.320,0.000
1709298697.040,-36.621,-31.738,-38.086,-24.414,0.000
1709298697.044,-30.762,-35.645,-35.645,-16.113,0.000
1709298697.048,-34.668,-33.203,-35.645,-36.133,0.000
1709298697.052,-49.805,-28.809,-41.016,-54.688,0.000
1709298697.056,-50.293,-26.367,-44.922,-50.781,0.000
1709298697.059,-34.180,-31.250,-43.945,-38.086,0.000
1709298697.063,-23.926,-35.645,-38.086,-31.250,0.000
1709298697.067,-28.320,-34.180,-41.504,-35.156,0.000
1709298697.071,-45.410,-33.203,-46.875,-46.387,0.000
1709298697.075,-47.363,-32.227,-37.109,-40.039,0.000
1709298697.079,-34.668,-31.250,-36.133,-26.855,0.000
1709298697.083,-35.645,-35.156,-40.527,-38.086,0.000
1709298697.087,-42.480,-36.621,-35.156,-57.129,0.000
1709298697.091,-42.969,-39.551,-34.668,-58.594,0.000
1709298697.095,-35.156,-36.621,-36.621,-40.527,0.000
1709298697.098,-34.180,-28.320,-42.480,-33.691,0.000
1709298697.102,-33.691,-34.180,-45.898,-36.621,0.000
1709298697.106,-33.203,-46.387,-45.410,-46.387,0.000
1709298697.110,-36.133,-35.156,-44.922,-51.758,0.000
1709298697.114,-37.598,-19.043,-48.340,-43.945,0.000
1709298697.118,-35.156,-16.602,-47.852,-31.738,0.000
1709298697.122,-34.668,-25.391,-43.457,-26.855,0.000
1709298697.126,-40.527,-31.738,-40.527,-39.551,0.000
1709298697.130,-49.316,-31.250,-42.969,-53.223,0.000
1709298697.134,-45.410,-33.691,-41.016,-41.504,0.000
1709298697.138,-35.156,-26.367,-32.715,-23.926,0.000
1709298697.141,-32.227,-26.855,-32.227,-30.762,0.000
1709298697.145,-41.016,-41.016,-35.645,-53.711,0.000
1709298697.149,-50.293,-37.109,-34.180,-62.988,0.000
1709298697.153,-56.152,-26.855,-40.527,-60.059,0.000
1709298697.157,-59.570,-26.367,-41.016,-50.781,0.000
1709298697.161,-63.965,-32.715,-38.574,-49.316,0.000
1709298697.165,-62.500,-31.738,-41.016,-54.688,0.000
1709298697.169,-58.105,-41.016,-35.156,-50.293,0.000
1709298697.173,-57.617,-44.922,-33.203,-47.852,0.000
1709298697.177,-53.711,-27.832,-29.297,-43.457,0.000
1709298697.180,-50.781,-20.020,-29.785,-37.109,0.000
1709298697.184,-57.129,-24.902,-36.621,-41.016,0.000
1709298697.188,-58.594,-22.461,-36.621,-40.527,0.000
1709298697.192,-52.246,-26.367,-24.902,-24.902,0.000
1709298697.196,-50.293,-31.738,-22.949,-9.277,0.000
1709298697.200,-41.016,-23.438,-36.621,-12.207,0.000
1709298697.204,-32.715,-33.203,-32.715,-23.926,0.000
1709298697.208,-41.504,-42.969,-34.180,-46.875,0.000
1709298697.212,-43.945,-39.062,-33.691,-42.480,0.000
1709298697.216,-31.250,-34.180,-22.949,-20.020,0.000
1709298697.220,-28.809,-23.438,-24.902,-18.066,0.000
1709298697.223,-31.250,-18.555,-26.855,-20.996,0.000
1709298697.227,-34.180,-22.949,-26.855,-21.484,0.000
1709298697.231,-40.039,-30.762,-29.785,-22.461,0.000
1709298697.235,-42.480,-34.668,-32.227,-24.414,0.000
1709298697.239,-30.762,-33.203,-32.227,-6.836,0.000
1709298697.243,-20.996,-30.273,-30.273,-4.883,0.000
1709298697.247,-26.367,-29.785,-32.227,-30.762,0.000
1709298697.251,-34.668,-31.250,-37.109,-34.668,0.000
1709298697.255,-39.551,-35.156,-45.410,-31.738,0.000
1709298697.259,-34.180,-28.809,-43.945,-30.762,0.000
1709298697.263,-27.344,-28.809,-35.156,-27.832,0.000
1709298697.266,-30.273,-31.738,-34.180,-37.598,0.000
1709298697.270,-38.574,-28.320,-26.855,-35.645,0.000
1709298697.274,-42.480,-35.156,-30.762,-24.902,0.000
1709298697.278,-40.527,-34.180,-38.086,-21.973,0.000
1709298697.282,-35.645,-30.762,-38.086,-18.555,0.000
1709298697.286,-31.250,-36.621,-36.621,-23.926,0.000
1709298697.290,-33.691,-42.480,-35.645,-34.668,0.000
1709298697.294,-41.504,-41.992,-35.645,-29.297,0.000
1709298697.298,-48.340,-36.133,-35.645,-21.484,0.000
1709298697.302,-46.875,-40.527,-35.156,-19.531,0.000
1709298697.305,-43.945,-53.223,-36.133,-22.949,0.000
1709298697.309,-52.246,-53.711,-41.504,-39.062,0.000
1709298697.313,-57.617,-43.945,-47.852,-46.387,0.000
1709298697.317,-52.734,-32.715,-40.527,-27.344,0.000
1709298697.321,-47.363,-27.832,-39.062,-12.207,0.000
1709298697.325,-45.410,-30.273,-45.410,-31.250,0.000
1709298697.329,-46.875,-40.039,-39.551,-46.387,0.000
1709298697.333,-52.734,-39.551,-37.598,-44.434,0.000
1709298697.337,-45.898,-37.109,-38.086,-30.273,0.000
1709298697.341,-37.109,-33.691,-37.109,-20.020,0.000
1709298697.345,-39.062,-34.180,-39.062,-23.926,0.000
1709298697.348,-36.621,-35.156,-40.039,-38.086,0.000
1709298697.352,-37.109,-40.527,-39.551,-51.270,0.000
1709298697.356,-41.992,-42.480,-37.109,-44.922,0.000
1709298697.360,-36.621,-44.434,-38.574,-40.527,0.000
1709298697.364,-31.250,-50.781,-39.062,-40.039,0.000
1709298697.368,-35.156,-36.133,-37.109,-43.457,0.000
1709298697.372,-34.180,-26.855,-34.668,-44.434,0.000
1709298697.376,-30.273,-26.367,-34.180,-36.621,0.000
1709298697.380,-28.320,-22.949,-35.156,-40.039,0.000
1709298697.384,-28.809,-20.508,-35.156,-41.992,0.000
1709298697.388,-28.809,-20.996,-31.250,-38.574,0.000
1709298697.391,-32.227,-32.227,-30.273,-45.410,0.000
1709298697.395,-37.598,-36.621,-36.621,-42.480,0.000
1709298697.399,-38.574,-39.551,-39.062,-34.180,0.000
1709298697.403,-41.992,-36.621,-35.645,-33.203,0.000
1709298697.407,-43.457,-32.715,-30.273,-35.156,0.000
1709298697.411,-45.410,-32.715,-29.297,-35.156,0.000
1709298697.415,-47.852,-25.391,-29.785,-38.086,0.000
1709298697.419,-42.969,-25.391,-29.785,-27.344,0.000
1709298697.423,-39.551,-36.621,-32.715,-26.855,0.000
1709298697.427,-41.504,-33.203,-27.832,-38.574,0.000
1709298697.430,-46.387,-31.738,-27.832,-33.691,0.000
1709298697.434,-52.734,-42.969,-34.668,-26.855,0.000
1709298697.438,-44.434,-30.273,-26.367,-15.625,0.000
1709298697.442,-30.762,-24.902,-32.227,-9.766,0.000
1709298697.446,-36.133,-29.297,-46.387,-29.785,0.000
1709298697.450,-46.387,-17.578,-39.551,-53.223,0.000
1709298697.454,-33.203,-29.785,-27.832,-35.645,0.000
1709298697.458,-23.926,-40.527,-21.973,-12.695,0.000
1709298697.462,-31.250,-27.344,-21.484,-26.855,0.000
1709298697.466,-36.133,-23.438,-24.902,-43.457,0.000
1709298697.470,-42.480,-23.438,-29.785,-41.992,0.000
1709298697.473,0.000,-28.809,-30.273,-30.273,0.000
1709298697.477,0.000,-39.551,-23.438,-16.113,0.000
1709298697.481,0.000,-40.039,-20.020,-17.090,0.000
1709298697.485,0.000,-41.504,-28.320,-36.621,0.000
1709298697.489,0.000,-36.621,-35.645,-41.016,0.000
1709298697.493,0.000,-28.809,-38.574,-36.133,0.000
1709298697.497,0.000,-32.715,-39.551,-32.227,0.000
1709298697.501,0.000,-26.367,-36.621,-21.484,0.000
1709298697.505,0.000,-20.020,-30.762,-37.109,0.000
1709298697.509,0.000,-25.879,-32.715,-52.246,0.000
1709298697.512,0.000,-31.250,-37.109,-41.504,0.000
1709298697.516,0.000,-41.016,-33.691,-20.508,0.000
1709298697.520,-37.109,-42.480,-32.227,-24.902,0.000
1709298697.524,-51.758,-15.625,-35.156,-41.504,0.000
1709298697.528,-59.570,-9.277,-36.621,-48.340,0.000
1709298697.532,-59.082,-12.695,-34.668,-46.875,0.000
1709298697.536,-43.945,-14.160,-32.715,-33.691,0.000
1709298697.540,-37.598,-20.508,-34.668,-27.344,0.000
1709298697.544,-38.086,-22.461,-31.250,-23.926,0.000
1709298697.548,-34.668,-22.461,-26.367,-26.367,0.000
1709298697.552,-38.086,-25.879,-30.762,-37.109,0.000
1709298697.555,-39.551,-21.973,-35.645,-34.180,0.000
1709298697.559,-34.668,-15.625,-40.039,-26.367,0.000
1709298697.563,-40.527,-13.184,-40.039,-31.738,0.000
1709298697.567,-36.621,-12.695,-37.109,-43.457,0.000
1709298697.571,-24.902,-7.812,-32.227,-40.039,0.000
1709298697.575,-26.367,-10.742,-28.320,-33.691,0.000
1709298697.579,-26.855,-19.531,-30.273,-37.598,0.000
1709298697.583,-21.973,-16.602,-33.203,-37.109,0.000
1709298697.587,-22.949,-18.066,-27.832,-35.156,0.000
1709298697.591,-26.855,-22.461,-23.438,-45.898,0.000
1709298697.595,-31.250,-19.043,-25.391,-45.898,0.000
1709298697.598,-27.832,-18.066,-25.391,-38.086,0.000
1709298697.602,-22.461,-31.250,-30.762,-30.762,0.000
1709298697.606,-17.090,-22.461,-27.344,-21.484,0.000
1709298697.610,-25.391,-7.812,-29.297,-45.410,0.000
1709298697.614,-32.227,-13.672,-30.762,-51.758,0.000
1709298697.618,-32.715,-10.254,-30.273,-38.574,0.000
1709298697.622,-30.762,-2.930,-33.203,-43.457,0.000
1709298697.626,-32.227,-0.977,-35.156,-46.387,0.000
1709298697.630,-31.250,-0.488,-31.738,-31.250,0.000
1709298697.634,-29.785,-14.648,-32.227,-20.996,0.000
1709298697.638,-39.551,-19.531,-40.039,-32.227,0.000
1709298697.641,-32.715,-7.812,-36.133,-37.598,0.000
1709298697.645,-23.926,-5.859,-35.156,-43.457,0.000
1709298697.649,-22.949,-3.906,-32.715,-44.434,0.000
1709298697.653,-26.367,-7.812,-33.203,-40.527,0.000
1709298697.657,-30.273,-12.207,-32.715,-28.809,0.000
1709298697.661,-23.926,-17.578,-27.832,-17.090,0.000
1709298697.665,-21.484,-19.043,-26.855,-18.066,0.000
1709298697.669,-24.414,-12.207,-32.715,-32.715,0.000
1709298697.673,-23.926,-11.230,-37.598,-38.574,0.000
1709298697.677,-25.391,-3.906,-34.668,-29.785,0.000
1709298697.680,-25.391,-9.766,-31.250,-26.855,0.000
1709298697.684,-31.250,-16.113,-34.180,-34.180,0.000
1709298697.688,-39.062,-6.836,-33.203,-43.945,0.000
1709298697.692,-38.574,-15.625,-31.250,-31.738,0.000
1709298697.696,-38.574,-21.484,-37.109,-17.090,0.000
1709298697.700,-46.387,-15.625,-42.480,-20.996,0.000
1709298697.704,-48.828,-11.719,-42.480,-32.227,0.000
1709298697.708,-47.852,-13.672,-36.621,-41.016,0.000
1709298697.712,-49.805,-18.066,-35.156,-42.969,0.000
1709298697.716,-48.340,-21.973,-36.133,-37.109,0.000
1709298697.720,-35.645,-23.926,-35.156,-29.297,0.000
1709298697.723,-29.785,-23.926,-33.203,-34.180,0.000
1709298697.727,-32.227,-22.949,-31.738,-39.551,0.000
1709298697.731,-34.668,-18.066,-29.297,-46.387,0.000
1709298697.735,-32.715,-5.371,-34.180,-41.016,0.000
1709298697.739,-39.551,-17.578,-41.504,-31.250,0.000
1709298697.743,-44.434,-33.691,-33.203,-34.668,0.000
1709298697.747,-37.598,-22.949,-25.391,-38.574,0.000
1709298697.751,-43.945,-20.508,-30.762,-39.062,0.000
1709298697.755,-45.410,-26.367,-34.668,-24.902,0.000
1709298697.759,-40.039,-33.691,-35.645,-21.973,0.000
1709298697.763,-40.039,-42.480,-34.668,-36.133,0.000
1709298697.766,-49.805,-25.879,-34.180,-45.898,0.000
1709298697.770,-56.152,-20.996,-39.062,-44.922,0.000
1709298697.774,-51.270,-34.668,-39.062,-33.691,0.000
1709298697.778,-55.176,-34.180,-35.156,-37.109,0.000
1709298697.782,-41.992,-28.320,-30.273,-28.320,0.000
1709298697.786,-40.039,-27.832,-25.879,-22.461,0.000
1709298697.790,-44.434,-26.855,-32.227,-45.410,0.000
1709298697.794,-40.039,-30.273,-42.480,-48.828,0.000
1709298697.798,-50.781,-38.086,-42.969,-33.203,0.000
1709298697.802,-42.480,-36.621,-40.527,-37.109,0.000
1709298697.805,-40.527,-24.414,-40.039,-46.875,0.000
1709298697.809,-46.875,-22.949,-37.598,-49.316,0.000
1709298697.813,-41.016,-24.902,-38.086,-44.922,0.000
1709298697.817,-37.109,-24.902,-35.645,-32.227,0.000
1709298697.821,-41.992,-24.414,-35.156,-36.133,0.000
1709298697.825,-40.039,-30.762,-32.227,-39.551,0.000
1709298697.829,-34.180,-44.922,-26.855,-35.156,0.000
1709298697.833,-43.457,-34.180,-33.203,-38.086,0.000
1709298697.837,-50.781,-17.578,-42.969,-37.109,0.000
1709298697.841,-44.922,-19.531,-40.527,-33.691,0.000
1709298697.845,-40.039,-23.438,-33.203,-38.574,0.000
1709298697.848,-43.457,-19.531,-32.227,-39.062,0.000
1709298697.852,-45.410,-18.066,-30.273,-39.062,0.000
1709298697.856,-42.480,-20.508,-24.902,-30.273,0.000
1709298697.860,-30.762,-33.691,-24.902,-17.090,0.000
1709298697.864,-32.715,-38.574,-30.762,-33.691,0.000
1709298697.868,-35.156,-21.973,-32.227,-47.852,0.000
1709298697.872,-30.273,-17.578,-32.227,-42.969,0.000
1709298697.876,-17.090,-24.414,-31.250,-31.250,0.000
1709298697.880,-6.836,-30.762,-31.738,-27.344,0.000
1709298697.884,-17.090,-31.250,-40.527,-34.668,0.000
1709298697.887,-22.461,-19.531,-39.062,-39.062,0.000
1709298697.891,-24.414,-9.277,-33.203,-41.504,0.000
1709298697.895,-25.391,-12.695,-31.250,-38.574,0.000
1709298697.899,-21.484,-17.090,-29.297,-32.227,0.000
1709298697.903,-13.184,-10.742,-31.738,-31.250,0.000
1709298697.907,-12.207,-15.137,-28.809,-34.668,0.000
1709298697.911,-20.508,-22.949,-28.320,-39.062,0.000
1709298697.915,-27.832,-14.648,-32.715,-43.457,0.000
1709298697.919,-32.227,-13.184,-30.273,-29.297,0.000
1709298697.923,-37.598,-20.996,-32.715,-27.344,0.000
1709298697.927,-34.180,-20.996,-35.156,-39.062,0.000
1709298697.930,-33.203,-15.625,-31.738,-35.156,0.000
1709298697.934,-38.574,-23.926,-29.297,-36.133,0.000
1709298697.938,-34.668,-26.855,-29.785,-37.598,0.000
1709298697.942,-35.645,-17.090,-35.156,-37.598,0.000
1709298697.946,-40.527,-11.230,-35.645,-47.363,0.000
1709298697.950,-40.527,-9.766,-35.156,-54.199,0.000
1709298697.954,-47.852,-14.648,-33.691,-41.992,0.000
1709298697.958,-46.387,-17.578,-28.809,-25.879,0.000
1709298697.962,-38.086,-20.996,-32.715,-22.949,0.000
1709298697.966,-40.039,-18.555,-42.480,-31.250,0.000
1709298697.970,-43.457,-13.184,-43.457,-48.340,0.000
1709298697.973,-42.969,-19.531,-36.133,-52.246,0.000
1709298697.977,-46.875,-29.785,-33.203,-37.109,0.000
1709298697.981,-41.504,-27.832,-30.273,-31.738,0.000
1709298697.985,-34.668,-25.391,-29.785,-33.203,0.000
1709298697.989,-46.875,-31.738,-33.203,-32.227,0.000
1709298697.993,-45.410,-19.043,-31.250,-31.738,0.000
1709298697.997,-41.016,-18.555,-29.785,-24.902,0.000
1709298698.001,-36.133,-29.785,-34.180,-27.832,0.000
1709298698.005,-29.785,-30.273,-36.621,-35.645,0.000
1709298698.009,-33.691,-18.555,-33.203,-41.992,0.000
1709298698.012,-35.156,-13.184,-31.738,-43.457,0.000
1709298698.016,-33.203,-8.301,-32.715,-30.762,0.000
1709298698.020,-37.598,-7.324,-35.156,-31.738,0.000
1709298698.024,-47.852,-18.555,-41.016,-37.109,0.000
1709298698.028,-54.199,-24.414,-40.527,-42.480,0.000
1709298698.032,-57.617,-25.879,-45.410,-59.082,0.000
1709298698.036,-62.988,-24.414,-46.875,-62.012,0.000
1709298698.040,-62.988,-22.461,-41.992,-53.223,0.000
1709298698.044,-53.223,-28.320,-41.016,-50.293,0.000
1709298698.048,-56.152,-30.273,-43.457,-61.523,0.000
1709298698.052,-56.641,-23.926,-42.969,-65.918,0.000
1709298698.055,-49.805,-30.762,-38.574,-57.617,0.000
1709298698.059,-61.523,-38.086,-31.738,-51.758,0.000
1709298698.063,-54.688,-32.715,-32.227,-53.223,0.000
1709298698.067,-53.223,-29.297,-34.668,-52.734,0.000
1709298698.071,-58.105,-25.391,-33.691,-48.828,0.000
1709298698.075,-49.316,-23.926,-32.227,-43.457,0.000
1709298698.079,-43.457,-26.367,-28.320,-25.879,0.000
1709298698.083,-33.203,-30.273,-30.762,-31.250,0.000
1709298698.087,-33.203,-32.227,-30.273,-42.480,0.000
1709298698.091,-44.922,-28.320,-29.297,-41.992,0.000
1709298698.095,-41.992,-28.320,-32.227,-37.598,0.000
1709298698.098,-25.879,-21.484,-30.762,-33.203,0.000
1709298698.102,-27.344,-19.531,-26.367,-29.297,0.000
1709298698.106,-36.621,-27.344,-29.785,-41.992,0.000
1709298698.110,-30.762,-28.320,-31.738,-46.875,0.000
1709298698.114,-36.621,-32.227,-29.297,-26.855,0.000
1709298698.118,-44.434,-28.809,-32.227,-28.809,0.000
1709298698.122,-30.762,-25.879,-35.156,-43.457,0.000
1709298698.126,-30.273,-27.344,-34.180,-49.316,0.000
1709298698.130,-40.527,-24.902,-33.691,-54.688,0.000
1709298698.134,-46.875,-28.809,-37.598,-64.453,0.000
1709298698.138,-40.039,-29.785,-39.551,-52.246,0.000
1709298698.141,-28.809,-37.109,-43.457,-36.133,0.000
1709298698.145,-35.645,-35.156,-42.480,-43.945,0.000
1709298698.149,-52.246,-24.902,-39.062,-52.734,0.000
1709298698.153,-52.246,-25.879,-37.109,-47.363,0.000
1709298698.157,-45.410,-19.531,-29.785,-25.879,0.000
1709298698.161,-41.016,-18.066,-33.691,-23.438,0.000
1709298698.165,-36.133,-15.137,-32.715,-31.250,0.000
1709298698.169,-32.227,-21.973,-31.250,-23.438,0.000
1709298698.173,-34.668,-30.273,-32.715,-30.273,0.000
1709298698.177,-39.062,-22.949,-28.320,-36.133,0.000
1709298698.180,-23.926,-14.648,-30.762,-27.832,0.000
1709298698.184,-24.902,-19.531,-32.715,-25.391,0.000
1709298698.188,-36.133,-28.320,-30.762,-36.133,0.000
1709298698.192,-32.227,-24.414,-29.785,-26.367,0.000
1709298698.196,-36.133,-23.438,-31.250,-18.066,0.000
1709298698.200,-35.645,-17.090,-23.926,-13.672,0.000
1709298698.204,-30.762,-16.113,-20.020,-8.301,0.000
1709298698.208,-30.762,-27.344,-25.879,-20.508,0.000
1709298698.212,-30.762,-12.695,-29.785,-29.297,0.000
1709298698.216,-25.879,-9.766,-32.715,-21.973,0.000
1709298698.220,-24.414,-35.645,-29.297,-22.949,0.000
1709298698.223,-29.785,-25.879,-25.879,-39.551,0.000
1709298698.227,-38.574,3.418,-23.438,-43.945,0.000
1709298698.231,-42.969,5.859,-21.973,-40.039,0.000
1709298698.235,-40.527,0.488,-25.391,-23.926,0.000
1709298698.239,-28.809,-4.395,-29.297,-13.672,0.000
1709298698.243,-20.508,-6.348,-28.320,-14.648,0.000
1709298698.247,-27.344,-9.277,-25.879,-6.836,0.000
1709298698.251,-33.203,-12.695,-29.785,-20.020,0.000
1709298698.255,-27.832,-1.953,-39.062,-39.062,0.000
1709298698.259,-16.602,-8.301,-41.504,-41.504,0.000
1709298698.262,-19.043,-21.973,-37.109,-33.203,0.000
1709298698.266,-27.832,-21.973,-33.691,-31.250,0.000
1709298698.270,-33.203,-15.137,-30.762,-45.898,0.000
1709298698.274,-41.016,-17.090,-26.367,-49.316,0.000
1709298698.278,-40.039,-24.902,-30.762,-40.527,0.000
1709298698.282,-41.504,-22.461,-33.203,-30.762,0.000
1709298698.286,-53.223,-23.926,-30.273,-29.297,0.000
1709298698.290,-43.457,-22.949,-34.668,-35.156,0.000
1709298698.294,-52.734,-18.555,-34.668,-26.367,0.000
1709298698.298,-64.453,-21.973,-30.273,-18.066,0.000
1709298698.302,-57.129,-21.484,-32.715,-26.855,0.000
1709298698.305,-57.129,-23.926,-32.227,-33.691,0.000
1709298698.309,-60.547,-25.391,-32.715,-43.457,0.000
1709298698.313,-69.336,-23.438,-33.691,-42.969,0.000
1709298698.317,-65.430,-31.250,-34.180,-38.086,0.000
1709298698.321,-51.270,-31.738,-37.598,-34.180,0.000
1709298698.325,-47.852,-20.508,-35.156,-41.992,0.000
1709298698.329,-63.965,-18.066,-38.574,-67.383,0.000
1709298698.333,-62.012,-25.391,-39.551,-59.082,0.000
1709298698.337,-53.223,-27.832,-33.691,-37.109,0.000
1709298698.341,-53.711,-25.391,-36.133,-31.738,0.000
1709298698.345,-41.504,-25.879,-35.156,-36.133,0.000
1709298698.348,-29.785,-26.367,-36.621,-36.133,0.000
1709298698.352,-31.738,-37.109,-35.156,-41.992,0.000
1709298698.356,-28.320,-34.668,-33.691,-35.645,0.000
1709298698.360,-27.344,-23.926,-38.086,-22.949,0.000
1709298698.364,-24.902,-24.902,-36.133,-28.320,0.000
1709298698.368,-30.273,-30.273,-37.598,-45.410,0.000
1709298698.372,-32.715,-34.668,-41.016,-47.363,0.000
1709298698.376,-32.227,-32.715,-39.062,-34.180,0.000
1709298698.380,-30.273,-27.832,-41.992,-17.090,0.000
1709298698.384,-22.461,-32.715,-46.875,-20.020,0.000
1709298698.388,-22.949,-35.645,-46.387,-34.180,0.000
1709298698.391,-29.297,-22.949,-46.875,-39.062,0.000
1709298698.395,-38.086,-27.344,-41.016,-36.133,0.000
1709298698.399,-46.387,-36.621,-41.504,-30.273,0.000
1709298698.403,-46.875,-28.320,-41.992,-39.062,0.000
1709298698.407,-33.691,-26.367,-39.551,-50.293,0.000
1709298698.411,-40.039,-29.785,-39.551,-36.621,0.000
1709298698.415,-57.129,-28.320,-41.016,-23.926,0.000
1709298698.419,-46.875,-29.785,-36.133,-18.066,0.000
1709298698.423,-28.809,-27.344,-29.785,-11.719,0.000
1709298698.427,-32.227,-23.926,-36.133,-27.344,0.000
1709298698.430,-44.922,-29.297,-40.527,-41.504,0.000
1709298698.434,-46.387,-20.020,-33.691,-32.227,0.000
1709298698.438,-42.969,-17.090,-36.621,-28.320,0.000
1709298698.442,-41.504,-34.180,-38.574,-20.996,0.000
1709298698.446,-46.387,-35.645,-35.645,-21.973,0.000
1709298698.450,-50.781,-28.809,-39.551,-43.457,0.000
1709298698.454,-40.527,-28.809,-37.109,-42.480,0.000
1709298698.458,-37.109,-28.320,-31.738,-28.809,0.000
1709298698.462,-37.109,-29.297,-35.645,-23.438,0.000
1709298698.466,-40.039,-31.250,-42.480,-36.621,0.000
1709298698.470,-36.621,-34.180,-41.016,-40.527,0.000
1709298698.473,-33.691,-36.621,-43.457,-32.227,0.000
1709298698.477,-35.645,-26.855,-49.805,-25.391,0.000
1709298698.481,-31.250,-22.461,-44.434,-15.137,0.000
1709298698.485,-30.762,-31.250,-41.504,-24.902,0.000
1709298698.489,-28.809,-29.785,-42.480,-35.645,0.000
1709298698.493,-38.086,-21.484,-42.480,-36.621,0.000
1709298698.497,-42.969,-24.902,-40.527,-33.203,0.000
1709298698.501,-37.109,-25.879,-37.109,-31.250,0.000
1709298698.505,0.000,-26.367,-44.434,-48.340,0.000
1709298698.509,0.000,-27.344,-48.340,-59.082,0.000
1709298698.513,0.000,-30.273,-43.457,-53.711,0.000
1709298698.516,0.000,-40.527,-51.270,-53.223,0.000
1709298698.520,0.000,-45.410,-49.805,-49.316,0.000
1709298698.524,0.000,-47.363,-38.086,-48.828,0.000
1709298698.528,0.000,-45.410,-41.016,-56.641,0.000
1709298698.532,0.000,-37.598,-48.340,-53.223,0.000
1709298698.536,0.000,-37.109,-49.805,-46.875,0.000
1709298698.540,0.000,-41.504,-44.434,-44.922,0.000
1709298698.544,0.000,-38.086,-41.504,-44.922,0.000
1709298698.548,0.000,-40.039,-40.527,-51.270,0.000
1709298698.552,-44.434,-44.922,-36.133,-50.293,0.000
1709298698.555,-38.574,-35.156,-36.133,-42.969,0.000
1709298698.559,-35.156,-38.086,-36.621,-36.621,0.000
1709298698.563,-37.598,-41.992,-39.551,-39.551,0.000
1709298698.567,-41.992,-33.203,-46.387,-51.758,0.000
1709298698.571,-44.434,-39.551,-43.945,-47.852,0.000
1709298698.575,-37.109,-45.410,-40.039,-32.715,0.000
1709298698.579,-36.621,-42.969,-46.387,-31.250,0.000
1709298698.583,-41.504,-47.363,-47.852,-37.109,0.000
1709298698.587,-41.016,-40.527,-42.969,-49.316,0.000
1709298698.591,-43.457,-30.273,-42.480,-54.199,0.000
1709298698.595,-46.387,-36.621,-42.969,-48.828,0.000
1709298698.598,-39.062,-38.574,-40.527,-44.434,0.000
1709298698.602,-29.297,-31.738,-35.156,-44.922,0.000
1709298698.606,-26.367,-35.645,-36.621,-49.316,0.000
1709298698.610,-41.992,-41.992,-41.016,-61.035,0.000
1709298698.614,-45.898,-40.527,-41.016,-54.199,0.000
1709298698.618,-36.133,-45.898,-38.574,-38.086,0.000
1709298698.622,-33.691,-45.898,-39.551,-30.762,0.000
1709298698.626,-36.133,-40.039,-40.527,-30.762,0.000
1709298698.630,-43.945,-46.875,-41.016,-46.387,0.000
1709298698.634,-32.227,-54.688,-37.598,-49.805,0.000
1709298698.637,-37.109,-36.621,-35.645,-43.945,0.000
1709298698.641,-44.922,-23.438,-42.480,-37.109,0.000
1709298698.645,-31.738,-29.297,-44.922,-36.621,0.000
1709298698.649,-33.691,-29.297,-37.109,-43.945,0.000
1709298698.653,-42.480,-25.391,-35.156,-41.504,0.000
1709298698.657,-39.551,-20.508,-39.062,-28.320,0.000
1709298698.661,-27.832,-22.461,-36.621,-21.484,0.000
1709298698.665,-23.926,-28.320,-32.227,-31.738,0.000
1709298698.669,-29.297,-32.715,-34.180,-35.645,0.000
1709298698.673,-36.621,-29.785,-41.992,-42.480,0.000
1709298698.677,-36.621,-29.785,-42.969,-37.109,0.000
1709298698.680,-38.574,-39.551,-38.574,-20.508,0.000
1709298698.684,-44.434,-40.527,-39.551,-32.227,0.000
1709298698.688,-48.340,-40.039,-40.039,-47.852,0.000
1709298698.692,-48.340,-43.457,-35.156,-55.176,0.000
1709298698.696,-47.852,-39.062,-38.574,-48.828,0.000
1709298698.700,-50.781,-34.668,-42.969,-36.133,0.000
1709298698.704,-46.387,-40.527,-37.109,-32.227,0.000
1709298698.708,-43.945,-34.668,-35.645,-39.551,0.000
1709298698.712,-43.945,-27.832,-36.133,-34.668,0.000
1709298698.716,-41.504,-32.715,-37.598,-19.531,0.000
1709298698.720,-34.668,-30.762,-40.039,-21.973,0.000
1709298698.723,-28.320,-27.344,-41.504,-30.762,0.000
1709298698.727,-34.668,-30.273,-38.574,-35.156,0.000
1709298698.731,-42.480,-31.738,-42.480,-40.527,0.000
1709298698.735,-45.898,-25.879,-49.316,-44.922,0.000
1709298698.739,-35.645,-30.762,-46.387,-37.598,0.000
1709298698.743,-28.320,-36.133,-40.039,-28.320,0.000
1709298698.747,-28.320,-36.133,-39.062,-30.762,0.000
1709298698.751,-39.551,-36.133,-41.992,-41.992,0.000
1709298698.755,-46.387,-31.738,-41.992,-46.387,0.000
1709298698.759,-37.109,-37.109,-42.969,-33.203,0.000
1709298698.762,-39.551,-41.992,-41.504,-18.066,0.000
1709298698.766,-32.715,-41.992,-37.109,-22.461,0.000
1709298698.770,-38.086,-49.316,-35.645,-41.992,0.000
1709298698.774,-47.852,-45.410,-34.180,-44.922,0.000
1709298698.778,-40.039,-34.668,-35.645,-29.297,0.000
1709298698.782,-40.039,-35.645,-41.504,-22.461,0.000
1709298698.786,-37.598,-33.203,-41.016,-28.320,0.000
1709298698.790,-41.016,-28.809,-38.574,-38.086,0.000
1709298698.794,-42.480,-28.809,-36.621,-46.387,0.000
1709298698.798,-39.551,-30.273,-37.109,-25.391,0.000
1709298698.802,-32.715,-34.180,-39.551,-17.090,0.000
1709298698.805,-31.250,-36.621,-33.203,-36.621,0.000
1709298698.809,-41.992,-34.180,-30.273,-41.504,0.000
1709298698.813,-40.527,-24.902,-37.109,-45.898,0.000
1709298698.817,-30.762,-20.020,-40.039,-32.227,0.000
1709298698.821,-31.250,-21.484,-35.645,-18.555,0.000
1709298698.825,-36.133,-32.227,-37.109,-37.109,0.000
1709298698.829,-34.668,-26.855,-42.969,-47.852,0.000
1709298698.833,0.000,-14.648,-44.434,-41.504,0.000
1709298698.837,0.000,-22.949,-41.992,-33.203,0.000
1709298698.841,0.000,-32.227,-39.551,-20.996,0.000
1709298698.845,0.000,-32.227,-40.039,-18.555,0.000
1709298698.848,0.000,-28.320,-41.504,-39.551,0.000
1709298698.852,0.000,-23.926,-39.551,-44.922,0.000
1709298698.856,0.000,-31.738,-45.410,-37.598,0.000
1709298698.860,0.000,-41.016,-48.340,-38.086,0.000
1709298698.864,0.000,-34.668,-41.992,-34.180,0.000
1709298698.868,0.000,-26.367,-44.922,-42.480,0.000
1709298698.872,0.000,-29.785,-48.828,-42.480,0.000
1709298698.876,0.000,-24.414,-44.922,-27.832,0.000
1709298698.880,-29.297,-22.461,-41.016,-23.926,0.000
1709298698.884,-30.273,-30.273,-43.945,-28.320,0.000
1709298698.888,-30.762,-27.344,-48.340,-37.598,0.000
1709298698.891,-33.691,-29.297,-46.875,-35.156,0.000
1709298698.895,-40.039,-32.227,-46.387,-33.203,0.000
1709298698.899,-32.715,-29.297,-41.016,-38.086,0.000
1709298698.903,-28.320,-36.133,-40.039,-37.109,0.000
1709298698.907,-42.480,-38.086,-40.527,-36.133,0.000
1709298698.911,-52.246,-34.180,-37.598,-39.062,0.000
1709298698.915,-57.617,-32.227,-39.551,-40.039,0.000
1709298698.919,-47.852,-30.273,-34.668,-28.809,0.000
1709298698.923,-35.156,-27.344,-30.273,-23.926,0.000
1709298698.927,-37.598,-31.738,-30.273,-26.367,0.000
1709298698.931,-44.922,-35.156,-39.062,-41.504,0.000
1709298698.934,-44.922,-33.203,-41.504,-46.875,0.000
1709298698.938,-40.527,-27.832,-38.086,-31.250,0.000
1709298698.942,-43.457,-30.762,-44.434,-21.484,0.000
1709298698.946,-40.527,-40.039,-43.945,-28.320,0.000
1709298698.950,-31.250,-41.504,-35.156,-33.203,0.000
1709298698.954,-28.809,-36.621,-32.715,-36.133,0.000
1709298698.958,-33.691,-39.551,-40.039,-38.574,0.000
1709298698.962,-27.344,-40.527,-42.480,-31.738,0.000
1709298698.966,-22.461,-37.109,-33.691,-30.762,0.000
1709298698.970,-29.785,-39.551,-34.180,-27.832,0.000
1709298698.973,-36.621,-39.551,-38.574,-28.809,0.000
1709298698.977,-36.621,-32.227,-39.551,-31.250,0.000
1709298698.981,-30.762,-26.367,-39.062,-35.156,0.000
1709298698.985,-24.902,-28.809,-31.250,-33.691,0.000
1709298698.989,-19.531,-29.785,-30.762,-35.645,0.000
1709298698.993,-27.832,-30.273,-39.551,-43.457,0.000
1709298698.997,-33.691,-29.297,-37.109,-25.879,0.000
1709298699.001,-25.391,-31.250,-34.668,-8.789,0.000
1709298699.005,-22.949,-30.273,-37.598,-15.625,0.000
1709298699.009,-22.949,-33.203,-33.203,-26.367,0.000
1709298699.013,-32.715,-33.203,-34.180,-35.645,0.000
1709298699.016,-36.621,-26.855,-36.621,-25.879,0.000
1709298699.020,-34.180,-27.832,-37.598,-18.555,0.000
1709298699.024,-35.645,-29.785,-39.551,-21.973,0.000
1709298699.028,-35.156,-30.762,-35.645,-31.738,0.000
1709298699.032,-36.133,-33.203,-33.203,-38.574,0.000
1709298699.036,-38.574,-37.598,-30.762,-25.391,0.000
1709298699.040,-34.668,-41.016,-29.785,-5.859,0.000
1709298699.044,-28.809,-47.852,-26.855,0.000,0.000
1709298699.048,-35.645,-42.969,-26.855,-21.973,0.000
1709298699.052,-48.340,-32.715,-33.691,-44.434,0.000
1709298699.055,-48.828,-27.832,-36.133,-39.062,0.000
1709298699.059,-42.969,-30.762,-36.133,-34.180,0.000
1709298699.063,-39.551,-27.344,-34.180,-33.691,0.000
1709298699.067,-43.457,-28.320,-36.621,-42.480,0.000
1709298699.071,-47.852,-38.574,-35.645,-49.805,0.000
1709298699.075,-48.340,-50.293,-35.156,-53.223,0.000
1709298699.079,-47.363,-47.363,-37.109,-58.105,0.000
1709298699.083,-37.109,-29.785,-34.180,-45.410,0.000
1709298699.087,-33.691,-21.484,-33.203,-41.016,0.000
1709298699.091,-44.434,-27.344,-34.180,-50.293,0.000
1709298699.095,-39.062,-28.809,-36.621,-43.457,0.000
1709298699.098,-21.484,-33.203,-35.156,-31.250,0.000
1709298699.102,-24.902,-43.457,-36.621,-27.344,0.000
1709298699.106,-27.344,-36.133,-41.016,-35.645,0.000
1709298699.110,-27.832,-35.156,-40.527,-47.852,0.000
1709298699.114,-36.133,-41.504,-43.945,-37.598,0.000
1709298699.118,-44.434,-36.133,-45.898,-27.832,0.000
1709298699.122,-41.504,-35.156,-43.457,-26.855,0.000
1709298699.126,-35.645,-40.527,-42.480,-28.809,0.000
1709298699.130,-37.109,-31.738,-32.715,-41.016,0.000
1709298699.134,-37.109,-20.508,-24.902,-38.574,0.000
1709298699.137,-35.645,-19.043,-29.297,-19.043,0.000
1709298699.141,-30.762,-27.344,-33.203,-14.648,0.000
1709298699.145,-32.715,-30.273,-31.250,-27.344,0.000
1709298699.149,-41.992,-25.391,-30.273,-36.133,0.000
1709298699.153,-44.434,-27.832,-35.156,-33.203,0.000
1709298699.157,-45.898,-28.809,-32.227,-27.344,0.000
1709298699.161,-45.410,-24.414,-27.344,-22.461,0.000
1709298699.165,-37.598,-23.926,-27.832,-25.879,0.000
1709298699.169,-37.109,-23.926,-30.762,-39.551,0.000
1709298699.173,-45.898,-26.855,-35.645,-42.969,0.000
1709298699.177,-47.363,-39.062,-36.133,-34.180,0.000
1709298699.180,-42.480,-43.945,-36.133,-38.086,0.000
1709298699.184,-45.410,-38.574,-39.062,-50.293,0.000
1709298699.188,-41.504,-37.109,-36.133,-48.340,0.000
1709298699.192,-41.016,-51.270,-37.598,-42.480,0.000
1709298699.196,-51.758,-59.570,-40.039,-27.344,0.000
1709298699.200,-54.688,-46.875,-37.598,-23.926,0.000
1709298699.204,-44.922,-33.203,-36.133,-27.344,0.000
1709298699.208,-42.480,-26.855,-34.180,-31.738,0.000
1709298699.212,-43.457,-26.367,-38.086,-37.109,0.000
1709298699.216,-38.086,-27.344,-39.062,-31.738,0.000
1709298699.220,-32.227,-23.926,-33.691,-21.484,0.000
1709298699.223,-34.668,-24.902,-37.109,-15.137,0.000
1709298699.227,-41.016,-36.621,-41.992,-28.809,0.000
1709298699.231,-41.016,-46.387,-40.039,-40.527,0.000
1709298699.235,-39.062,-43.457,-35.645,-28.809,0.000
1709298699.239,-36.621,-41.016,-31.738,-11.719,0.000
1709298699.243,-34.180,-36.133,-30.762,-20.996,0.000
1709298699.247,-34.668,-32.227,-30.762,-37.598,0.000
1709298699.251,-41.504,-37.109,-31.250,-36.621,0.000
1709298699.255,-39.062,-36.133,-36.621,-30.273,0.000
1709298699.259,-35.156,-23.926,-35.645,-27.344,0.000
1709298699.263,-38.574,-29.785,-32.715,-28.320,0.000
1709298699.266,-29.785,-40.527,-34.668,-33.203,0.000
1709298699.270,-28.320,-35.156,-37.109,-44.434,0.000
1709298699.274,-26.855,-30.762,-33.691,-41.992,0.000
1709298699.278,-25.879,-32.715,-35.156,-31.738,0.000
1709298699.282,-33.203,-31.250,-30.273,-25.879,0.000
1709298699.286,-32.715,-24.414,-31.738,-24.902,0.000
1709298699.290,-35.156,-26.367,-31.738,-43.945,0.000
1709298699.294,-28.809,-29.785,-25.391,-34.180,0.000
1709298699.298,-20.508,-34.180,-29.785,-16.602,0.000
1709298699.302,-17.578,-35.156,-31.738,-20.996,0.000
1709298699.305,-20.996,-32.227,-32.227,-20.020,0.000
1709298699.309,-27.832,-39.551,-34.668,-28.809,0.000
1709298699.313,-34.668,-36.621,-35.156,-37.598,0.000
1709298699.317,-37.598,-20.508,-36.133,-38.086,0.000
1709298699.321,-32.227,-34.668,-34.668,-21.973,0.000
1709298699.325,-35.156,-45.410,-31.250,-23.438,0.000
1709298699.329,-33.691,-26.367,-29.297,-37.109,0.000
1709298699.333,-34.180,-24.414,-26.855,-38.086,0.000
1709298699.337,-35.156,-27.832,-26.855,-36.133,0.000
1709298699.341,-29.785,-21.484,-28.320,-27.344,0.000
1709298699.345,-28.320,-24.414,-27.832,-29.785,0.000
1709298699.348,-21.484,-30.273,-19.043,-40.039,0.000
1709298699.352,-26.855,-35.156,-22.461,-43.945,0.000
1709298699.356,-33.203,-38.574,-30.762,-36.133,0.000
1709298699.360,-32.227,-43.457,-28.320,-27.344,0.000
1709298699.364,-30.762,-41.016,-30.273,-27.344,0.000
1709298699.368,-32.227,-34.180,-34.180,-32.227,0.000
1709298699.372,-34.180,-40.039,-35.156,-28.320,0.000
1709298699.376,-37.598,-31.250,-35.645,-18.066,0.000
1709298699.380,-30.762,-19.043,-30.762,-18.555,0.000
1709298699.384,-24.414,-20.996,-30.762,-21.973,0.000
1709298699.387,-28.320,-21.973,-33.203,-25.879,0.000
1709298699.391,-36.621,-20.020,-30.762,-26.855,0.000
1709298699.395,-36.133,-21.484,-31.250,-24.902,0.000
1709298699.399,-26.855,-34.180,-34.180,-17.578,0.000
1709298699.403,-26.367,-34.180,-30.762,-14.648,0.000
1709298699.407,-33.203,-25.391,-28.809,-25.391,0.000
1709298699.411,-38.574,-21.973,-30.273,-31.250,0.000
1709298699.415,-37.598,-26.855,-27.344,-27.344,0.000
1709298699.419,-37.109,-30.273,-31.250,-10.742,0.000
1709298699.423,-38.086,-30.762,-37.598,-14.160,0.000
1709298699.427,-42.969,-34.180,-39.551,-35.156,0.000
1709298699.430,-59.082,-33.691,-40.039,-51.270,0.000
1709298699.434,-60.059,-29.297,-36.133,-58.105,0.000
1709298699.438,-47.363,-35.645,-34.668,-41.016,0.000
1709298699.442,-50.293,-45.410,-38.574,-37.109,0.000
1709298699.446,-49.805,-39.062,-35.156,-47.363,0.000
1709298699.450,-47.852,-37.109,-31.250,-54.199,0.000
1709298699.454,-54.199,-42.969,-35.156,-50.293,0.000
1709298699.458,-49.805,-42.969,-37.598,-40.527,0.000
1709298699.462,-35.645,-33.691,-32.715,-25.879,0.000
1709298699.466,-41.992,-31.738,-33.203,-20.996,0.000
1709298699.469,-44.434,-29.297,-35.156,-34.180,0.000
1709298699.473,-37.109,-33.203,-37.109,-35.156,0.000
1709298699.477,-33.203,-41.504,-42.480,-23.926,0.000
1709298699.481,-37.598,-43.457,-35.156,-14.648,0.000
1709298699.485,-37.598,-38.574,-33.691,-26.855,0.000
1709298699.489,0.000,-41.016,-35.156,-41.992,0.000
1709298699.493,0.000,-48.828,-33.203,-50.293,0.000
1709298699.497,0.000,-33.203,-36.621,-37.109,0.000
1709298699.501,0.000,-21.484,-37.109,-20.996,0.000
1709298699.505,0.000,-29.297,-38.574,-20.020,0.000
1709298699.509,0.000,-32.227,-39.551,-25.879,0.000
1709298699.512,0.000,-33.691,-41.504,-34.668,0.000
1709298699.516,0.000,-29.297,-42.480,-35.645,0.000
1709298699.520,0.000,-24.414,-36.621,-23.926,0.000
1709298699.524,0.000,-26.855,-32.715,-19.043,0.000
1709298699.528,0.000,-29.297,-34.180,-28.809,0.000
1709298699.532,0.000,-32.227,-39.551,-36.133,0.000
1709298699.536,-35.156,-36.621,-35.156,-25.879,0.000
1709298699.540,-34.180,-41.016,-34.668,-19.531,0.000
1709298699.544,-32.715,-39.062,-38.574,-28.809,0.000
1709298699.548,-28.809,-32.715,-36.621,-35.156,0.000
1709298699.552,-28.320,-24.902,-38.574,-35.156,0.000
1709298699.555,-37.109,-22.461,-39.062,-38.086,0.000
1709298699.559,-48.340,-22.949,-38.574,-35.645,0.000
1709298699.563,-43.457,-24.902,-45.410,-29.785,0.000
1709298699.567,-46.387,-39.062,-41.504,-38.086,0.000
1709298699.571,-50.293,-32.227,-34.668,-47.363,0.000
1709298699.575,-44.922,-20.996,-38.574,-45.410,0.000
1709298699.579,-40.527,-33.203,-43.945,-38.086,0.000
1709298699.583,0.000,-34.180,-41.016,-23.438,0.000
1709298699.587,0.000,-38.574,-46.387,-24.414,0.000
1709298699.591,0.000,-45.410,-45.410,-43.945,0.000
1709298699.595,0.000,-41.992,-41.504,-50.781,0.000
1709298699.598,0.000,-39.551,-44.922,-43.457,0.000
1709298699.602,0.000,-30.762,-41.504,-43.457,0.000
1709298699.606,0.000,-33.691,-42.480,-50.781,0.000
1709298699.610,0.000,-41.016,-41.992,-55.176,0.000
1709298699.614,0.000,-31.250,-40.527,-45.410,0.000
1709298699.618,0.000,-22.461,-45.898,-44.922,0.000
1709298699.622,0.000,-29.297,-48.340,-47.363,0.000
1709298699.626,0.000,-34.180,-40.527,-36.621,0.000
1709298699.630,-39.551,-39.551,-36.133,-42.969,0.000
1709298699.634,-41.016,-51.758,-33.691,-41.992,0.000
1709298699.637,-37.598,-38.574,-31.250,-30.762,0.000
1709298699.641,-32.227,-24.414,-37.109,-26.855,0.000
1709298699.645,-28.809,-28.809,-42.480,-41.016,0.000
1709298699.649,-33.203,-29.785,-43.457,-50.781,0.000
1709298699.653,-38.574,-30.273,-40.527,-47.852,0.000
1709298699.657,-45.410,-32.227,-39.551,-29.297,0.000
1709298699.661,-45.898,-37.109,-42.969,-19.531,0.000
1709298699.665,-33.691,-41.504,-50.293,-32.227,0.000
1709298699.669,-32.715,-37.598,-47.852,-35.645,0.000
1709298699.673,-38.086,-30.762,-38.574,-36.133,0.000
1709298699.677,-33.203,-30.273,-38.086,-25.879,0.000
1709298699.680,-28.809,-41.016,-36.133,-9.277,0.000
1709298699.684,-28.809,-46.875,-31.738,-20.996,0.000
1709298699.688,-32.715,-32.715,-33.203,-31.250,0.000
1709298699.692,-33.203,-23.926,-29.785,-33.691,0.000
1709298699.696,-30.762,-32.715,-29.785,-36.133,0.000
1709298699.700,-34.180,-44.922,-36.133,-31.738,0.000
1709298699.704,-38.086,-38.574,-33.691,-31.250,0.000
1709298699.708,-38.086,-27.832,-30.762,-37.109,0.000
1709298699.712,-44.434,-31.250,-34.180,-45.898,0.000
1709298699.716,-41.992,-36.133,-41.504,-49.805,0.000
1709298699.719,-34.180,-25.879,-41.504,-38.574,0.000
1709298699.723,-33.203,-20.020,-41.504,-33.691,0.000
1709298699.727,-40.527,-27.344,-43.945,-42.969,0.000
1709298699.731,-47.852,-29.297,-38.574,-45.410,0.000
1709298699.735,-52.246,-29.785,-37.109,-44.434,0.000
1709298699.739,-48.340,-27.832,-35.645,-30.273,0.000
1709298699.743,-32.227,-29.785,-34.180,-25.879,0.000
1709298699.747,-27.832,-30.762,-31.250,-29.297,0.000
1709298699.751,-41.504,-31.250,-32.715,-41.504,0.000
1709298699.755,-46.387,-40.039,-33.203,-48.340,0.000
1709298699.759,-21.973,-40.527,-34.180,-33.691,0.000
1709298699.762,-23.438,-27.344,-36.133,-27.832,0.000
1709298699.766,-39.062,-19.531,-31.738,-35.645,0.000
1709298699.770,-38.574,-23.926,-30.762,-50.293,0.000
1709298699.774,-33.203,-25.391,-34.668,-47.852,0.000
1709298699.778,-26.367,-30.273,-32.227,-23.438,0.000
1709298699.782,-24.902,-36.133,-31.738,-11.719,0.000
1709298699.786,-17.090,-33.691,-34.668,-24.902,0.000
1709298699.790,-18.555,-28.809,-34.668,-33.203,0.000
1709298699.794,-24.414,-23.438,-34.180,-21.484,0.000
1709298699.798,-14.648,-21.484,-33.691,-13.672,0.000
1709298699.802,-10.742,-20.020,-36.621,-17.578,0.000
1709298699.805,-14.648,-28.320,-36.133,-26.367,0.000
1709298699.809,-17.090,-40.039,-38.574,-33.691,0.000
1709298699.813,-30.273,-32.715,-38.086,-30.762,0.000
1709298699.817,-35.156,-30.762,-36.133,-31.250,0.000
1709298699.821,-37.598,-43.945,-37.109,-32.227,0.000
1709298699.825,-43.945,-48.340,-29.785,-24.414,0.000
1709298699.829,-39.551,-42.480,-27.344,-24.414,0.000
1709298699.833,-47.852,-38.574,-34.668,-36.133,0.000
1709298699.837,-55.664,-28.320,-38.086,-39.551,0.000
1709298699.841,-41.504,-17.090,-33.691,-26.367,0.000
1709298699.844,-35.645,-25.391,-41.992,-24.414,0.000
1709298699.848,-37.109,-38.574,-49.316,-37.109,0.000
1709298699.852,-31.738,-47.363,-39.551,-43.945,0.000
1709298699.856,-24.902,-40.527,-33.203,-34.668,0.000
1709298699.860,-18.066,-23.438,-33.203,-17.578,0.000
1709298699.864,-21.973,-24.414,-27.344,-12.207,0.000
1709298699.868,-21.484,-34.180,-26.855,-21.484,0.000
1709298699.872,-29.297,-44.434,-36.621,-30.762,0.000
1709298699.876,-34.668,-37.109,-34.668,-24.902,0.000
1709298699.880,-23.438,-31.738,-29.297,-16.113,0.000
1709298699.884,-21.484,-36.133,-30.762,-14.160,0.000
1709298699.887,-20.020,-36.621,-30.762,-19.531,0.000
1709298699.891,-28.320,-28.320,-33.203,-28.320,0.000
1709298699.895,-38.086,-20.020,-38.086,-34.180,0.000
1709298699.899,-31.250,-16.602,-31.250,-19.043,0.000
1709298699.903,-28.320,-14.648,-28.809,-8.789,0.000
1709298699.907,-24.902,-23.926,-32.715,-26.855,0.000
1709298699.911,-20.020,-28.320,-26.855,-38.086,0.000
1709298699.915,-33.203,-21.484,-31.738,-37.598,0.000
1709298699.919,-37.109,-25.879,-33.691,-29.785,0.000
1709298699.923,-33.691,-37.598,-31.738,-31.738,0.000
1709298699.927,-41.992,-27.832,-34.668,-41.016,0.000
1709298699.930,-51.270,-18.555,-33.203,-40.039,0.000
1709298699.934,-56.641,-26.367,-35.645,-42.480,0.000
1709298699.938,-47.852,-30.273,-36.133,-42.969,0.000
1709298699.942,-39.062,-30.762,-34.668,-32.227,0.000
1709298699.946,-36.133,-30.762,-36.621,-22.461,0.000
1709298699.950,-40.527,-31.250,-39.062,-36.621,0.000
1709298699.954,-41.016,-35.645,-38.574,-41.504,0.000
1709298699.958,-34.180,-35.645,-37.598,-31.738,0.000
1709298699.962,-37.109,-39.551,-42.969,-34.668,0.000
1709298699.966,-34.180,-39.062,-43.945,-36.133,0.000
1709298699.969,-29.785,-31.250,-41.504,-40.039,0.000
1709298699.973,-37.598,-30.273,-41.504,-40.039,0.000
1709298699.977,-35.645,-29.785,-38.574,-27.344,0.000
1709298699.981,-23.438,-33.691,-35.645,-16.113,0.000
1709298699.985,-20.508,-36.133,-38.574,-13.672,0.000
1709298699.989,-26.367,-38.086,-39.551,-19.043,0.000
1709298699.993,-30.762,-50.293,-36.621,-30.762,0.000
1709298699.997,-22.949,-49.805,-35.645,-26.367,0.000
1709298700.001,-21.484,-37.598,-37.109,-12.695,0.000
1709298700.005,-25.391,-44.434,-37.598,-16.602,0.000
1709298700.009,-27.832,-47.852,-37.109,-32.227,0.000
1709298700.012,-42.480,-33.691,-43.945,-47.852,0.000
1709298700.016,-47.852,-26.855,-46.387,-41.992,0.000
1709298700.020,-33.691,-31.738,-44.434,-31.250,0.000
1709298700.024,-30.273,-28.809,-40.039,-33.691,0.000
1709298700.028,-37.598,-26.855,-37.598,-37.109,0.000
1709298700.032,-46.387,-33.691,-37.109,-33.691,0.000
1709298700.036,-42.969,-27.344,-38.574,-26.367,0.000
1709298700.040,-31.738,-21.973,-42.969,-29.785,0.000
1709298700.044,-24.414,-32.715,-41.504,-31.738,0.000
1709298700.048,-17.578,-27.832,-41.016,-35.156,0.000
1709298700.052,-18.555,-26.855,-39.062,-36.621,0.000
1709298700.055,-23.438,-32.715,-37.109,-30.762,0.000
1709298700.059,-29.785,-29.297,-35.156,-25.391,0.000
1709298700.063,-26.855,-26.367,-35.156,-29.297,0.000
1709298700.067,-31.738,-27.344,-37.598,-44.922,0.000
1709298700.071,-34.668,-28.809,-35.156,-52.734,0.000
1709298700.075,-30.762,-30.273,-28.320,-43.945,0.000
1709298700.079,-40.527,-33.691,-33.203,-34.668,0.000
1709298700.083,-39.551,-40.039,-36.133,-30.273,0.000
1709298700.087,-35.645,-40.527,-28.809,-42.969,0.000
1709298700.091,-46.387,-39.062,-29.785,-49.805,0.000
1709298700.094,-52.246,-38.086,-32.715,-37.109,0.000
1709298700.098,-46.875,-37.109,-31.250,-26.855,0.000
1709298700.102,-46.387,-32.715,-32.715,-28.320,0.000
1709298700.106,-52.734,-27.832,-31.738,-30.762,0.000
1709298700.110,-53.711,-31.738,-29.785,-35.156,0.000
1709298700.114,-48.828,-26.855,-28.320,-41.992,0.000
1709298700.118,-45.898,-29.785,-29.297,-38.086,0.000
1709298700.122,-44.922,-39.062,-30.762,-24.902,0.000
1709298700.126,-42.480,-38.086,-35.645,-29.297,0.000
1709298700.130,-45.898,-32.715,-36.133,-43.457,0.000
1709298700.134,-51.758,-25.391,-32.715,-46.387,0.000
1709298700.137,-56.641,-26.855,-35.645,-39.551,0.000
1709298700.141,-52.734,-33.203,-42.969,-30.762,0.000
1709298700.145,-47.363,-35.645,-37.598,-38.574,0.000
1709298700.149,-55.664,-36.133,-33.691,-51.758,0.000
1709298700.153,-62.500,-32.715,-41.504,-57.129,0.000
1709298700.157,-51.270,-29.297,-37.109,-42.480,0.000
1709298700.161,-34.180,-28.809,-34.180,-27.344,0.000
1709298700.165,-26.855,-33.691,-40.527,-23.926,0.000
1709298700.169,-22.461,-35.645,-40.527,-26.367,0.000
1709298700.173,-25.391,-27.832,-40.527,-37.109,0.000
1709298700.177,-32.227,-27.344,-44.434,-37.109,0.000
1709298700.180,-35.645,-29.785,-45.410,-28.320,0.000
1709298700.184,-34.180,-24.902,-41.504,-27.832,0.000
1709298700.188,-33.203,-26.367,-39.062,-34.180,0.000
1709298700.192,-34.668,-29.785,-35.156,-43.945,0.000
1709298700.196,-38.574,-28.320,-33.691,-44.922,0.000
1709298700.200,-38.574,-24.414,-35.156,-32.227,0.000
1709298700.204,-37.598,-37.598,-36.621,-35.156,0.000
1709298700.208,-38.086,-39.062,-35.645,-44.434,0.000
1709298700.212,-37.598,-20.020,-39.551,-39.062,0.000
1709298700.216,-37.109,-18.555,-41.992,-28.320,0.000
1709298700.219,-41.504,-23.438,-37.109,-28.320,0.000
1709298700.223,-43.457,-28.320,-35.645,-30.273,0.000
1709298700.227,-37.598,-28.320,-32.227,-26.855,0.000
1709298700.231,-31.738,-43.457,-30.762,-28.809,0.000
1709298700.235,-37.598,-52.246,-33.203,-35.645,0.000
1709298700.239,-38.574,-24.902,-35.156,-32.715,0.000
1709298700.243,-41.992,-13.672,-41.992,-35.156,0.000
1709298700.247,-44.434,-23.926,-41.504,-36.621,0.000
1709298700.251,-33.203,-26.367,-30.762,-35.645,0.000
1709298700.255,-32.715,-42.480,-26.367,-32.227,0.000
1709298700.259,-36.133,-35.645,-32.715,-25.391,0.000
1709298700.262,-36.133,-16.602,-41.504,-34.180,0.000
1709298700.266,-39.062,-15.625,-39.551,-45.898,0.000
1709298700.270,-41.504,-16.602,-33.203,-42.480,0.000
1709298700.274,-46.875,-30.273,-35.156,-30.762,0.000
1709298700.278,-42.480,-30.762,-32.715,-32.227,0.000
1709298700.282,-39.062,-21.484,-28.320,-35.156,0.000
1709298700.286,-35.645,-34.180,-35.156,-36.133,0.000
1709298700.290,-31.250,-37.598,-38.574,-42.480,0.000
1709298700.294,-26.855,-31.250,-34.668,-43.457,0.000
1709298700.298,-29.297,-28.320,-40.039,-40.039,0.000
1709298700.302,-34.668,-26.855,-46.387,-33.691,0.000
1709298700.305,-25.879,-24.902,-40.527,-31.738,0.000
1709298700.309,-23.926,-23.438,-31.738,-37.109,0.000
1709298700.313,-27.832,-25.391,-32.715,-37.109,0.000
1709298700.317,-35.645,-20.996,-38.086,-32.227,0.000
1709298700.321,-39.062,-19.531,-37.598,-17.090,0.000
1709298700.325,-34.668,-25.879,-41.992,-25.879,0.000
1709298700.329,-33.691,-29.297,-35.156,-39.551,0.000
1709298700.333,-41.016,-32.227,-34.180,-42.480,0.000
1709298700.337,-43.457,-30.762,-40.039,-43.945,0.000
1709298700.341,-35.156,-20.996,-37.109,-38.574,0.000
1709298700.344,-33.203,-27.344,-40.039,-30.273,0.000
1709298700.348,-36.133,-29.785,-43.457,-31.738,0.000
1709298700.352,-33.203,-26.367,-35.645,-31.250,0.000
1709298700.356,-34.180,-30.762,-35.156,-33.203,0.000
1709298700.360,-35.156,-32.715,-34.668,-33.691,0.000
1709298700.364,-30.273,-43.457,-36.133,-18.555,0.000
1709298700.368,-37.598,-44.434,-44.922,-27.832,0.000
1709298700.372,-41.504,-23.438,-44.434,-48.828,0.000
1709298700.376,-40.527,-15.137,-45.410,-45.898,0.000
1709298700.380,-40.039,-23.926,-47.363,-36.621,0.000
1709298700.384,-32.227,-20.508,-42.480,-23.926,0.000
1709298700.387,-34.180,-22.461,-39.551,-21.484,0.000
1709298700.391,-36.133,-25.879,-40.039,-32.227,0.000
1709298700.395,-31.250,-19.043,-39.062,-24.902,0.000
1709298700.399,-24.902,-26.367,-35.156,-4.883,0.000
1709298700.403,-19.531,-28.809,-34.668,-13.184,0.000
1709298700.407,-26.855,-16.602,-35.156,-38.574,0.000
1709298700.411,-35.156,-14.160,-36.133,-42.480,0.000
1709298700.415,-38.574,-22.461,-42.969,-41.504,0.000
1709298700.419,-32.227,-27.832,-41.016,-34.180,0.000
1709298700.423,-17.090,-32.715,-32.227,-19.531,0.000
1709298700.427,-19.043,-33.203,-36.621,-21.973,0.000
1709298700.430,-29.785,-20.996,-39.062,-35.156,0.000
1709298700.434,-35.156,-17.090,-41.016,-34.668,0.000
1709298700.438,-38.574,-14.160,-43.945,-31.250,0.000
1709298700.442,-34.180,-9.766,-38.086,-28.320,0.000
1709298700.446,-26.367,-11.230,-32.227,-25.391,0.000
1709298700.450,-24.414,-18.555,-36.621,-33.203,0.000
1709298700.454,-22.949,-20.020,-34.668,-28.320,0.000
1709298700.458,-30.762,-33.691,-37.109,-25.391,0.000
1709298700.462,-36.133,-43.457,-41.992,-30.762,0.000
1709298700.466,-38.086,-39.062,-36.621,-33.203,0.000
1709298700.469,-45.410,-37.109,-34.668,-39.062,0.000
1709298700.473,-41.504,-30.273,-33.691,-34.668,0.000
1709298700.477,-39.062,-29.297,-32.715,-17.578,0.000
1709298700.481,-44.434,-29.297,-35.156,-14.648,0.000
1709298700.485,-46.387,-25.879,-35.645,-23.926,0.000
1709298700.489,-39.551,-31.250,-38.086,-35.645,0.000
1709298700.493,-32.227,-40.527,-37.109,-42.480,0.000
1709298700.497,-26.367,-40.527,-28.809,-31.250,0.000
1709298700.501,-34.668,-24.414,-30.762,-17.090,0.000
1709298700.505,-41.992,-14.648,-39.062,-21.973,0.000
1709298700.509,-33.691,-24.902,-37.109,-34.668,0.000
1709298700.512,-34.180,-30.762,-36.621,-42.480,0.000
1709298700.516,-30.273,-20.996,-37.109,-37.598,0.000
1709298700.520,-18.555,-22.949,-36.621,-23.438,0.000
1709298700.524,-18.555,-30.762,-38.086,-12.207,0.000
1709298700.528,-25.391,-26.855,-43.945,-20.020,0.000
1709298700.532,-20.020,-23.438,-41.504,-33.691,0.000
1709298700.536,-20.020,-26.855,-36.133,-24.902,0.000
1709298700.540,-22.949,-27.832,-32.227,-7.324,0.000
1709298700.544,-17.578,-36.133,-34.668,-6.836,0.000
1709298700.548,-19.531,-35.156,-38.086,-27.344,0.000
1709298700.551,-28.809,-21.973,-33.691,-33.203,0.000
1709298700.555,-38.574,-20.996,-27.344,-23.926,0.000
1709298700.559,-40.039,-27.344,-25.879,-21.973,0.000
1709298700.563,-32.715,-26.855,-29.785,-22.949,0.000
1709298700.567,-24.902,-27.344,-37.109,-32.227,0.000
1709298700.571,-27.832,-25.879,-38.574,-37.598,0.000
1709298700.575,-41.992,-16.602,-35.156,-36.621,0.000
1709298700.579,-46.875,-19.043,-41.504,-38.086,0.000
1709298700.583,-41.992,-17.090,-40.527,-38.574,0.000
1709298700.587,-33.203,-19.531,-37.109,-35.645,0.000
1709298700.591,-33.691,-25.879,-37.109,-36.621,0.000
1709298700.594,-40.039,-21.484,-34.668,-41.992,0.000
1709298700.598,-39.551,-25.879,-36.621,-39.062,0.000
1709298700.602,-24.414,-33.203,-33.691,-29.297,0.000
1709298700.606,-17.578,-27.832,-30.273,-32.715,0.000
1709298700.610,-24.414,-21.973,-30.273,-42.480,0.000
1709298700.614,0.000,-22.949,-28.320,-32.715,0.000
1709298700.618,0.000,-30.273,-36.133,-24.414,0.000
1709298700.622,0.000,-30.273,-41.992,-24.414,0.000
1709298700.626,0.000,-23.438,-37.598,-22.949,0.000
1709298700.630,0.000,-26.855,-36.621,-25.879,0.000
1709298700.634,0.000,-33.203,-39.551,-28.809,0.000
1709298700.637,0.000,-32.227,-37.109,-18.555,0.000
1709298700.641,0.000,-26.367,-42.969,-10.742,0.000
1709298700.645,0.000,-23.438,-41.992,-22.949,0.000
1709298700.649,0.000,-14.160,-35.156,-34.180,0.000
1709298700.653,0.000,-12.207,-37.598,-36.621,0.000
1709298700.657,0.000,-23.926,-35.645,-30.762,0.000
