timestamps,TP9,AF7,AF8,TP10,Right AUX
1709299493.774,-16.113,-37.109,-41.016,-34.668,0.000
1709299493.778,-21.484,-34.668,-41.992,-35.645,0.000
1709299493.782,-34.180,-31.250,-35.645,-46.875,0.000
1709299493.786,-33.691,-48.828,-27.832,-36.133,0.000
1709299493.789,-22.949,-50.781,-24.414,-23.438,0.000
1709299493.793,-23.438,-34.180,-31.250,-25.879,0.000
1709299493.797,-29.297,-46.875,-41.504,-28.809,0.000
1709299493.801,-37.109,-48.828,-39.062,-39.551,0.000
1709299493.805,-40.527,-32.227,-38.574,-45.898,0.000
1709299493.809,-34.180,-34.668,-37.109,-32.715,0.000
1709299493.813,-25.391,-40.527,-35.645,-17.578,0.000
1709299493.817,-23.926,-28.809,-36.133,-19.531,0.000
1709299493.821,-36.133,-26.855,-36.621,-31.250,0.000
1709299493.825,-46.875,-34.180,-34.668,-39.551,0.000
1709299493.829,-38.086,-35.156,-35.645,-29.785,0.000
1709299493.833,-20.508,-40.527,-33.691,-18.066,0.000
1709299493.836,-9.766,-37.109,-30.762,-21.484,0.000
1709299493.840,-25.391,-32.715,-31.738,-35.156,0.000
1709299493.844,-40.039,-26.855,-39.551,-39.551,0.000
1709299493.848,-36.621,-28.809,-43.457,-37.109,0.000
1709299493.852,-30.762,-32.227,-45.410,-30.273,0.000
1709299493.856,-20.020,-24.902,-35.645,-15.137,0.000
1709299493.860,-20.996,-29.785,-36.133,-20.996,0.000
1709299493.864,-35.645,-35.156,-41.504,-38.086,0.000
1709299493.868,-41.016,-35.156,-31.738,-40.039,0.000
1709299493.872,-26.855,-46.875,-31.250,-26.367,0.000
1709299493.876,-30.273,-42.480,-34.668,-27.344,0.000
1709299493.880,-45.898,-29.785,-40.039,-43.457,0.000
1709299493.883,-53.223,-32.715,-41.504,-53.711,0.000
1709299493.887,-57.617,-32.227,-47.363,-54.688,0.000
1709299493.891,-52.734,-31.250,-44.922,-43.945,0.000
1709299493.895,-45.898,-44.434,-27.832,-41.016,0.000
1709299493.899,-52.246,-40.039,-25.879,-42.969,0.000
1709299493.903,-59.570,-32.227,-35.645,-45.410,0.000
1709299493.907,-49.316,-41.016,-36.621,-50.293,0.000
1709299493.911,-28.809,-42.969,-29.785,-32.715,0.000
1709299493.915,-21.973,-36.621,-28.809,-24.414,0.000
1709299493.919,-27.832,-28.809,-40.039,-30.762,0.000
1709299493.923,-26.367,-25.879,-37.598,-31.250,0.000
1709299493.927,-15.137,-32.227,-29.297,-28.809,0.000
1709299493.930,1.953,-35.645,-40.527,-17.578,0.000
1709299493.934,12.695,-33.203,-38.574,-5.859,0.000
1709299493.938,0.977,-11.230,-29.297,-17.090,0.000
1709299493.942,-19.531,-25.391,-37.109,-38.086,0.000
1709299493.946,-22.461,-35.645,-41.016,-26.855,0.000
1709299493.950,-12.695,-18.555,-40.039,-20.020,0.000
1709299493.954,-9.766,-23.926,-39.062,-31.738,0.000
1709299493.958,-27.832,-27.832,-37.109,-49.805,0.000
1709299493.962,-46.875,-26.367,-30.762,-62.500,0.000
1709299493.966,-46.387,-29.297,-36.133,-51.270,0.000
1709299493.969,-33.691,-42.480,-38.574,-31.250,0.000
1709299493.973,-27.344,-58.105,-44.434,-26.855,0.000
1709299493.977,-28.320,-58.594,-46.387,-44.434,0.000
1709299493.981,-32.227,-49.316,-41.504,-55.664,0.000
1709299493.985,-37.109,-31.250,-37.109,-53.711,0.000
1709299493.989,-20.020,-30.273,-38.086,-26.367,0.000
1709299493.993,-10.254,-41.016,-37.598,-9.277,0.000
1709299493.997,-18.066,-29.785,-24.902,-18.066,0.000
1709299494.001,-20.996,-22.949,-19.531,-28.320,0.000
1709299494.005,-32.227,-29.785,-22.949,-37.598,0.000
1709299494.008,-28.320,-40.039,-27.344,-27.832,0.000
1709299494.012,-17.090,-53.223,-33.203,-22.461,0.000
1709299494.016,-15.625,-31.738,-39.062,-24.414,0.000
1709299494.020,-25.879,-18.066,-32.715,-34.180,0.000
1709299494.024,-32.715,-28.320,-25.879,-41.992,0.000
1709299494.028,-30.762,-35.645,-27.344,-38.574,0.000
1709299494.032,-32.227,-45.410,-36.621,-31.738,0.000
1709299494.036,-33.203,-49.316,-41.992,-29.297,0.000
1709299494.040,-46.387,-41.016,-35.645,-49.805,0.000
1709299494.044,-59.082,-32.715,-34.668,-56.152,0.000
1709299494.048,-55.664,-40.527,-32.227,-46.387,0.000
1709299494.051,-48.340,-44.922,-31.250,-41.504,0.000
1709299494.055,-45.410,-41.504,-37.109,-44.922,0.000
1709299494.059,-52.246,-44.434,-36.133,-55.664,0.000
1709299494.063,-61.523,-41.504,-30.273,-50.781,0.000
1709299494.067,-59.570,-45.898,-38.574,-43.945,0.000
1709299494.071,-46.875,-46.387,-42.480,-42.480,0.000
1709299494.075,-41.992,-39.551,-34.180,-41.992,0.000
1709299494.079,-52.246,-39.551,-28.809,-42.480,0.000
1709299494.083,-58.105,-37.109,-27.832,-38.574,0.000
1709299494.086,-54.688,-40.039,-28.320,-41.992,0.000
1709299494.090,-40.527,-44.434,-25.391,-36.621,0.000
1709299494.094,-35.645,-45.410,-27.832,-24.414,0.000
1709299494.098,-48.828,-49.316,-29.297,-35.645,0.000
1709299494.102,-58.105,-45.898,-26.367,-52.734,0.000
1709299494.106,-59.082,-60.059,-32.715,-51.270,0.000
1709299494.110,-54.688,-55.664,-30.762,-36.621,0.000
1709299494.114,-41.992,-34.180,-38.086,-28.320,0.000
1709299494.118,-34.668,-36.133,-39.062,-33.691,0.000
1709299494.121,-41.016,-48.828,-29.297,-48.340,0.000
1709299494.125,-43.945,-47.852,-28.809,-39.062,0.000
1709299494.129,-38.086,-41.504,-32.227,-34.180,0.000
1709299494.133,-27.832,-40.039,-36.621,-35.645,0.000
1709299494.137,-24.414,-39.551,-39.551,-36.621,0.000
1709299494.141,-43.457,-40.039,-40.527,-44.922,0.000
1709299494.145,-46.875,-40.039,-42.480,-41.504,0.000
1709299494.149,-34.180,-45.410,-34.180,-37.109,0.000
1709299494.152,-33.691,-30.273,-29.297,-42.969,0.000
1709299494.156,-33.203,-26.367,-26.855,-40.527,0.000
1709299494.160,-40.527,-39.062,-31.738,-49.316,0.000
1709299494.164,-50.293,-38.086,-34.180,-57.617,0.000
1709299494.168,-44.434,-34.180,-31.250,-39.062,0.000
1709299494.172,-26.367,-41.504,-25.879,-27.344,0.000
1709299494.176,-32.227,-53.223,-24.902,-35.645,0.000
1709299494.180,-41.504,-45.898,-29.297,-41.016,0.000
1709299494.184,-40.039,-28.809,-26.367,-43.945,0.000
1709299494.188,-51.758,-32.715,-30.273,-55.664,0.000
1709299494.192,-51.270,-56.152,-36.621,-53.711,0.000
1709299494.196,-40.039,-51.758,-33.691,-41.992,0.000
1709299494.200,-49.316,-37.598,-32.715,-48.828,0.000
1709299494.203,-57.617,-34.180,-36.133,-50.293,0.000
1709299494.207,-62.988,-34.668,-42.969,-54.688,0.000
1709299494.211,-62.012,-38.574,-40.039,-52.734,0.000
1709299494.215,-53.223,-35.645,-34.668,-41.992,0.000
1709299494.219,-56.152,-42.969,-32.715,-54.688,0.000
1709299494.223,-57.617,-42.969,-33.691,-66.895,0.000
1709299494.227,-43.945,-42.969,-39.551,-50.293,0.000
1709299494.231,-28.809,-33.691,-40.527,-26.367,0.000
1709299494.235,-31.250,-23.926,-37.598,-28.320,0.000
1709299494.239,-40.039,-33.691,-30.762,-42.969,0.000
1709299494.243,-43.945,-28.809,-26.855,-50.781,0.000
1709299494.247,-43.457,-14.160,-35.645,-55.176,0.000
1709299494.250,-37.109,-17.578,-44.434,-40.039,0.000
1709299494.254,-29.297,-34.180,-42.969,-35.156,0.000
1709299494.258,-33.203,-38.574,-30.273,-43.457,0.000
1709299494.262,-50.781,-47.363,-37.109,-52.246,0.000
1709299494.266,-55.664,-35.645,-44.434,-57.129,0.000
1709299494.270,-39.062,-33.203,-39.551,-46.387,0.000
1709299494.274,-30.762,-34.180,-41.992,-43.457,0.000
1709299494.278,-41.992,-24.902,-36.621,-50.781,0.000
1709299494.282,-53.223,-24.414,-33.691,-64.453,0.000
1709299494.286,-58.594,-39.062,-37.598,-65.918,0.000
1709299494.290,-53.711,-42.480,-41.016,-44.434,0.000
1709299494.294,-47.852,-34.668,-46.875,-47.363,0.000
1709299494.297,-44.434,-48.828,-41.504,-51.270,0.000
1709299494.301,-46.875,-54.199,-38.574,-48.340,0.000
1709299494.305,-50.293,-51.270,-37.109,-54.199,0.000
1709299494.309,-41.504,-42.480,-34.180,-45.410,0.000
1709299494.313,-27.344,-27.832,-36.133,-33.203,0.000
1709299494.317,-27.832,-39.551,-35.645,-31.738,0.000
1709299494.321,-37.598,-36.621,-37.109,-35.645,0.000
1709299494.325,-49.805,-15.137,-39.062,-47.363,0.000
1709299494.329,-46.387,-13.672,-30.273,-28.809,0.000
1709299494.333,-35.645,-29.297,-33.203,-15.137,0.000
1709299494.337,-40.039,-36.621,-40.039,-25.391,0.000
1709299494.340,-43.945,-33.203,-34.180,-32.227,0.000
1709299494.344,-45.898,-42.969,-39.062,-38.086,0.000
1709299494.348,-45.898,-57.617,-41.504,-40.039,0.000
1709299494.352,-37.598,-53.711,-41.504,-35.156,0.000
1709299494.356,-37.109,-46.875,-45.898,-30.762,0.000
1709299494.360,-42.969,-46.875,-42.969,-45.410,0.000
1709299494.364,-45.410,-56.152,-39.062,-51.758,0.000
1709299494.368,-53.711,-57.129,-41.992,-40.039,0.000
1709299494.372,-43.457,-35.156,-47.852,-32.227,0.000
1709299494.376,-28.320,-37.109,-41.504,-28.320,0.000
1709299494.379,-37.598,-38.574,-31.738,-35.156,0.000
1709299494.383,-43.945,-35.156,-27.832,-39.062,0.000
1709299494.387,-35.645,-52.734,-28.809,-36.621,0.000
1709299494.391,-25.879,-58.105,-29.785,-29.297,0.000
1709299494.395,-20.020,-46.875,-30.762,-28.320,0.000
1709299494.399,-15.137,-41.504,-28.809,-32.227,0.000
1709299494.403,-24.902,-25.879,-28.809,-45.898,0.000
1709299494.407,-40.527,-26.855,-33.203,-48.828,0.000
1709299494.411,-33.691,-23.438,-33.203,-33.203,0.000
1709299494.415,-23.926,-26.367,-33.691,-22.949,0.000
1709299494.419,-27.832,-26.855,-39.062,-35.645,0.000
1709299494.422,-51.758,-25.879,-45.410,-57.617,0.000
1709299494.426,-61.523,-34.668,-42.969,-59.570,0.000
1709299494.430,-48.828,-25.879,-29.785,-54.199,0.000
1709299494.434,-48.340,-37.109,-29.785,-58.594,0.000
1709299494.438,-50.781,-57.129,-32.715,-62.012,0.000
1709299494.442,-62.500,-47.363,-44.922,-68.848,0.000
1709299494.446,-62.500,-33.691,-52.246,-57.617,0.000
1709299494.450,-39.062,-41.504,-39.062,-36.621,0.000
1709299494.454,-31.250,-41.016,-41.504,-28.809,0.000
1709299494.457,-38.086,-38.574,-41.504,-30.762,0.000
1709299494.461,-27.344,-31.738,-34.668,-36.621,0.000
1709299494.465,-43.945,-9.766,-42.480,-68.359,0.000
1709299494.469,-51.758,-7.324,-47.363,-74.219,0.000
1709299494.473,-28.809,-19.531,-48.828,-47.852,0.000
1709299494.477,-23.926,-21.484,-48.340,-61.035,0.000
1709299494.481,-22.949,-14.648,-45.898,-74.219,0.000
1709299494.485,-15.137,-23.926,-48.340,-53.223,0.000
1709299494.489,-13.184,-15.625,-44.434,-37.109,0.000
1709299494.492,-9.277,9.277,-43.945,-39.062,0.000
1709299494.496,-8.789,1.953,-44.922,-39.551,0.000
1709299494.500,-10.742,-8.789,-52.734,-24.902,0.000
1709299494.504,-8.789,12.207,-62.012,-35.156,0.000
1709299494.508,-0.488,14.160,-54.199,-35.156,0.000
1709299494.512,17.578,8.789,-53.711,-18.066,0.000
1709299494.516,23.438,8.301,-60.547,-20.508,0.000
1709299494.520,12.207,10.254,-62.988,-28.809,0.000
1709299494.524,-1.953,13.184,-68.848,-34.180,0.000
1709299494.528,2.930,4.395,-75.195,-30.762,0.000
1709299494.532,21.484,8.789,-74.219,-25.391,0.000
1709299494.536,22.949,12.207,-68.848,-20.996,0.000
1709299494.540,15.137,7.324,-76.660,-28.320,0.000
1709299494.544,8.301,12.207,-84.473,-36.133,0.000
1709299494.547,13.184,22.949,-81.055,-30.762,0.000
1709299494.551,28.809,19.043,-82.031,-11.719,0.000
1709299494.555,35.645,29.785,-78.125,-14.648,0.000
1709299494.559,25.391,38.574,-75.684,-37.109,0.000
1709299494.563,10.742,36.133,-76.660,-45.898,0.000
1709299494.567,8.301,35.156,-77.637,-38.086,0.000
1709299494.571,0.000,24.902,0.000,-22.949,0.000
1709299494.575,0.000,23.438,0.000,-10.742,0.000
1709299494.579,0.000,33.691,0.000,-16.113,0.000
1709299494.583,0.000,40.039,0.000,-32.715,0.000
1709299494.587,0.000,35.645,0.000,-32.715,0.000
1709299494.591,0.000,32.715,0.000,-19.531,0.000
1709299494.594,0.000,24.902,0.000,-10.742,0.000
1709299494.598,0.000,23.926,0.000,-11.230,0.000
1709299494.602,0.000,25.879,0.000,-21.973,0.000
1709299494.606,0.000,23.438,0.000,-15.137,0.000
1709299494.610,0.000,20.508,0.000,-5.371,0.000
1709299494.614,0.000,14.160,0.000,7.812,0.000
1709299494.618,34.180,-9.766,-67.871,8.789,0.000
1709299494.622,10.742,2.441,-85.449,-17.578,0.000
1709299494.626,0.000,39.062,-74.707,-31.738,0.000
1709299494.630,1.465,38.086,-62.500,-15.137,0.000
1709299494.634,9.277,22.461,-68.359,1.953,0.000
1709299494.638,9.766,33.203,-69.336,1.465,0.000
1709299494.641,-5.371,30.762,-68.848,-7.812,0.000
1709299494.645,-9.766,18.066,-65.918,-12.695,0.000
1709299494.649,3.418,11.230,-64.941,1.465,0.000
1709299494.653,8.789,7.812,-70.801,8.789,0.000
1709299494.657,5.859,9.766,-63.477,0.000,0.000
1709299494.661,-3.418,-2.930,-58.105,-11.719,0.000
1709299494.665,-8.301,-11.719,-59.570,-23.438,0.000
1709299494.669,-7.324,-16.602,-64.941,-23.926,0.000
1709299494.673,9.277,-6.348,-70.312,-5.371,0.000
1709299494.677,4.883,-4.883,-71.777,-12.207,0.000
1709299494.681,-14.160,1.953,-66.895,-39.551,0.000
1709299494.685,-10.254,13.672,-57.617,-44.922,0.000
1709299494.689,-3.418,-15.137,-57.129,-30.762,0.000
1709299494.693,9.277,-30.273,-68.359,-1.953,0.000
1709299494.697,19.531,-2.930,-69.824,6.348,0.000
1709299494.701,6.348,5.859,-54.199,-24.414,0.000
1709299494.705,-14.648,-9.277,-39.551,-49.316,0.000
1709299494.708,-16.113,-0.977,-35.156,-44.922,0.000
1709299494.712,7.324,11.719,-33.691,-20.020,0.000
1709299494.716,8.301,0.488,-35.156,-9.277,0.000
1709299494.720,-8.789,-0.488,-47.363,-27.832,0.000
1709299494.724,-20.508,4.395,-51.758,-48.340,0.000
1709299494.728,-20.020,6.836,-50.293,-48.828,0.000
1709299494.732,-6.836,-2.930,-41.992,-33.691,0.000
1709299494.736,-7.324,-23.926,-41.016,-31.738,0.000
1709299494.740,-17.090,-26.367,-48.340,-40.527,0.000
1709299494.744,-18.555,-37.598,-41.504,-38.086,0.000
1709299494.747,-13.672,-50.293,-36.621,-37.109,0.000
1709299494.751,-22.461,-39.062,-45.898,-42.480,0.000
1709299494.755,-22.949,-35.645,-37.598,-34.180,0.000
1709299494.759,-22.461,-27.832,-41.016,-33.691,0.000
1709299494.763,-36.621,-32.715,-54.688,-50.293,0.000
1709299494.767,-52.246,-46.875,-43.457,-50.293,0.000
1709299494.771,-48.340,-35.156,-39.551,-36.133,0.000
1709299494.775,-17.578,-47.363,-43.945,-11.719,0.000
1709299494.779,-33.203,-62.012,-40.039,-26.367,0.000
1709299494.783,-67.383,-44.922,-38.574,-56.641,0.000
1709299494.786,-62.012,-34.668,-40.527,-41.504,0.000
1709299494.790,-36.621,-31.738,-33.691,-24.414,0.000
1709299494.794,-11.230,-30.273,-33.691,-24.902,0.000
1709299494.798,-21.484,-34.668,-29.785,-23.438,0.000
1709299494.802,-36.133,-37.598,-27.832,-30.762,0.000
1709299494.806,-46.387,-35.645,-35.645,-39.062,0.000
1709299494.810,-57.617,-29.297,-41.992,-41.504,0.000
1709299494.814,-37.598,-37.109,-40.527,-33.691,0.000
1709299494.818,-29.297,-42.480,-33.691,-29.785,0.000
1709299494.822,-43.457,-37.598,-37.598,-45.410,0.000
1709299494.826,-57.617,-35.645,-50.293,-61.035,0.000
1709299494.830,-58.105,-41.504,-44.922,-52.246,0.000
1709299494.834,-41.016,-52.734,-36.621,-32.227,0.000
1709299494.838,-28.809,-52.734,-38.574,-38.574,0.000
1709299494.841,-40.039,-54.688,-50.293,-60.547,0.000
1709299494.845,-37.598,-36.621,-54.688,-69.824,0.000
1709299494.849,-30.762,-26.367,-42.969,-58.105,0.000
1709299494.853,-50.781,-35.645,-39.062,-48.340,0.000
1709299494.857,-51.270,-28.320,-37.109,-47.363,0.000
1709299494.861,-49.316,-28.320,-37.598,-51.270,0.000
1709299494.865,-65.430,-40.039,-39.551,-58.594,0.000
1709299494.869,-67.871,-41.992,-41.016,-58.105,0.000
1709299494.873,-49.805,-39.551,-42.480,-42.969,0.000
1709299494.876,-43.945,-49.316,-44.434,-23.926,0.000
1709299494.880,-53.711,-61.035,-45.898,-31.738,0.000
1709299494.884,-65.430,-48.828,-54.688,-58.105,0.000
1709299494.888,-66.406,-40.039,-52.246,-68.359,0.000
1709299494.892,-57.129,-41.504,-34.668,-48.828,0.000
1709299494.896,-43.457,-41.504,-27.832,-39.062,0.000
1709299494.900,-53.711,-30.762,-34.668,-55.664,0.000
1709299494.903,-65.430,-19.531,-35.156,-64.453,0.000
1709299494.907,-57.129,-30.762,-32.227,-62.988,0.000
1709299494.911,-56.152,-38.086,-39.551,-48.828,0.000
1709299494.915,-48.828,-32.227,-43.945,-39.062,0.000
1709299494.919,-46.387,-35.156,-45.410,-39.551,0.000
1709299494.923,-49.316,-48.340,-40.039,-36.133,0.000
1709299494.927,-47.852,-43.945,-36.621,-40.527,0.000
1709299494.931,-38.574,-34.668,-35.156,-26.367,0.000
1709299494.935,-24.414,-37.109,-35.156,-5.859,0.000
1709299494.939,-23.926,-33.203,-35.645,-16.113,0.000
1709299494.943,-33.203,-26.367,-36.621,-32.715,0.000
1709299494.947,-34.668,-24.414,-39.062,-27.344,0.000
1709299494.951,-21.484,-34.668,-31.738,-8.789,0.000
1709299494.954,-10.742,-35.645,-37.109,-4.883,0.000
1709299494.958,-20.508,-12.207,-41.016,-20.020,0.000
1709299494.962,-25.879,-11.230,-39.062,-26.855,0.000
1709299494.966,-21.973,-12.695,-36.133,-16.113,0.000
1709299494.970,-16.602,-17.090,-34.180,-16.602,0.000
1709299494.974,-12.695,-36.133,-40.039,-23.926,0.000
1709299494.978,-12.695,-37.598,-39.062,-26.367,0.000
1709299494.982,-14.648,-26.367,-34.180,-21.973,0.000
1709299494.986,-24.414,-32.227,-29.297,-22.949,0.000
1709299494.990,-15.137,-44.434,-32.227,-20.996,0.000
1709299494.994,-4.883,-39.062,-39.062,-13.672,0.000
1709299494.998,-14.648,-28.809,-37.598,-22.949,0.000
1709299495.001,-28.809,-30.762,-28.809,-38.086,0.000
1709299495.005,-36.133,-42.480,-39.062,-46.875,0.000
1709299495.009,-40.039,-35.645,-51.270,-44.434,0.000
1709299495.013,-31.250,-31.738,-44.922,-33.203,0.000
1709299495.017,-21.973,-42.480,-41.504,-32.715,0.000
1709299495.021,-28.809,-20.996,-43.457,-47.852,0.000
1709299495.025,-38.574,-12.695,-45.410,-53.711,0.000
1709299495.029,-30.762,-30.762,-49.316,-40.527,0.000
1709299495.033,-14.160,-43.945,-54.688,-32.715,0.000
1709299495.037,-12.695,-39.062,-49.316,-36.133,0.000
1709299495.041,-20.996,-23.926,-43.457,-40.527,0.000
1709299495.044,-35.156,-12.207,-48.828,-42.969,0.000
1709299495.048,-33.203,-7.812,-43.945,-37.109,0.000
1709299495.052,-14.648,-21.973,-37.109,-11.230,0.000
1709299495.056,-14.160,-27.344,-41.016,-11.230,0.000
1709299495.060,-34.180,-32.715,-41.504,-36.133,0.000
1709299495.064,-40.039,-31.250,-37.109,-40.039,0.000
1709299495.068,-33.203,-25.879,-37.109,-26.855,0.000
1709299495.072,-28.320,-41.992,-44.434,-20.996,0.000
1709299495.076,-32.227,-37.109,-44.434,-30.762,0.000
1709299495.080,-41.504,-18.555,-41.992,-36.133,0.000
1709299495.083,-59.082,-20.996,-47.852,-48.340,0.000
1709299495.087,-59.082,-24.902,-41.504,-52.734,0.000
1709299495.091,-39.062,-17.578,-28.809,-36.133,0.000
1709299495.095,-32.227,-24.902,-28.320,-28.320,0.000
1709299495.099,-39.551,-33.203,-40.039,-39.062,0.000
1709299495.103,-41.016,-37.598,-40.527,-47.852,0.000
1709299495.107,-41.992,-37.109,-43.945,-36.621,0.000
1709299495.111,-36.621,-51.758,-43.945,-31.250,0.000
1709299495.115,-34.668,-50.781,-39.551,-46.387,0.000
1709299495.119,-45.410,-33.203,-40.527,-52.734,0.000
1709299495.123,-51.758,-20.508,-40.039,-51.270,0.000
1709299495.126,-58.105,-18.066,-44.922,-52.734,0.000
1709299495.130,-49.316,-26.855,-39.062,-55.176,0.000
1709299495.134,-41.504,-23.438,-38.574,-56.152,0.000
1709299495.138,-47.852,-23.926,-50.781,-49.316,0.000
1709299495.142,-58.105,-33.203,-54.199,-50.293,0.000
1709299495.146,-63.477,-36.133,-49.805,-58.105,0.000
1709299495.150,-54.199,-35.156,-39.551,-48.340,0.000
1709299495.154,-36.621,-45.898,-39.551,-29.297,0.000
1709299495.158,-35.645,-57.129,-46.875,-35.645,0.000
1709299495.161,-48.340,-38.086,-42.969,-50.293,0.000
1709299495.165,-53.223,-38.086,-39.551,-60.547,0.000
1709299495.169,-56.152,-38.086,-44.434,-56.152,0.000
1709299495.173,-43.945,-30.273,-45.410,-41.992,0.000
1709299495.177,-39.551,-43.457,-40.039,-40.527,0.000
1709299495.181,-53.711,-37.109,-44.434,-50.781,0.000
1709299495.185,-54.199,-26.367,-47.363,-56.152,0.000
1709299495.189,-44.922,-41.016,-45.898,-37.109,0.000
1709299495.193,-33.203,-67.871,-49.805,-20.508,0.000
1709299495.197,-25.879,-51.758,-41.016,-22.461,0.000
1709299495.200,-28.320,-28.809,-34.668,-44.922,0.000
1709299495.204,-41.992,-49.316,-40.527,-59.570,0.000
1709299495.208,-55.664,-48.828,-40.039,-55.176,0.000
1709299495.212,-42.969,-32.715,-35.156,-51.758,0.000
1709299495.216,-46.387,-38.574,-31.250,-50.781,0.000
1709299495.220,-50.781,-41.504,-29.297,-57.129,0.000
1709299495.224,-74.219,-32.227,-32.227,-64.941,0.000
1709299495.228,-80.566,-36.621,-26.367,-61.523,0.000
1709299495.231,-58.594,-39.551,-26.367,-46.875,0.000
1709299495.235,-60.547,-41.504,-34.668,-40.527,0.000
1709299495.239,-57.129,-44.434,-37.598,-44.434,0.000
1709299495.243,-52.246,-46.387,-32.227,-51.758,0.000
1709299495.247,-53.711,-51.758,-27.344,-44.434,0.000
1709299495.251,-52.246,-48.340,-38.574,-29.297,0.000
1709299495.255,-48.340,-35.156,-44.434,-39.062,0.000
1709299495.259,-40.527,-37.598,-40.039,-55.664,0.000
1709299495.263,-39.062,-50.293,-44.434,-57.617,0.000
1709299495.267,-47.363,-41.992,-45.898,-57.129,0.000
1709299495.271,-36.133,-25.879,-42.480,-43.457,0.000
1709299495.274,-23.438,-18.555,-49.316,-23.926,0.000
1709299495.278,-17.090,-25.391,-50.781,-31.738,0.000
1709299495.282,-28.320,-32.227,-42.969,-47.852,0.000
1709299495.286,-44.922,-27.832,-36.621,-43.457,0.000
1709299495.290,-34.668,-32.715,-36.133,-41.504,0.000
1709299495.294,-23.438,-40.039,-38.086,-36.133,0.000
1709299495.298,-18.555,-38.086,-35.156,-32.715,0.000
1709299495.302,-29.785,-35.645,-35.645,-45.898,0.000
1709299495.305,-35.645,-41.016,-41.016,-46.875,0.000
1709299495.309,-35.645,-43.457,-41.504,-43.457,0.000
1709299495.313,-41.016,-43.945,-39.551,-49.805,0.000
1709299495.317,-40.527,-42.480,-33.203,-48.828,0.000
1709299495.321,-51.758,-43.945,-31.738,-53.711,0.000
1709299495.325,-68.848,-47.363,-33.203,-73.242,0.000
1709299495.329,-68.359,-38.086,-40.527,-70.801,0.000
1709299495.333,-52.734,-29.297,-35.645,-54.688,0.000
1709299495.337,-42.969,-34.668,-31.738,-48.340,0.000
1709299495.341,-50.293,-50.293,-33.203,-52.734,0.000
1709299495.345,-56.152,-46.875,-34.180,-57.129,0.000
1709299495.349,-58.594,-33.203,-34.180,-50.781,0.000
1709299495.353,-49.316,-34.180,-28.320,-38.086,0.000
1709299495.356,-41.016,-41.016,-31.738,-29.785,0.000
1709299495.360,-45.410,-44.922,-37.109,-54.688,0.000
1709299495.364,-50.781,-41.016,-34.668,-59.082,0.000
1709299495.369,0.000,-37.109,-31.250,0.000,0.000
1709299495.373,0.000,-38.086,-29.785,0.000,0.000
1709299495.377,0.000,-35.156,-33.691,0.000,0.000
1709299495.380,0.000,-22.461,-33.203,0.000,0.000
1709299495.384,0.000,-21.973,-38.086,0.000,0.000
1709299495.388,0.000,-37.109,-40.527,0.000,0.000
1709299495.392,0.000,-29.297,-39.551,0.000,0.000
1709299495.396,0.000,-17.090,-42.480,0.000,0.000
1709299495.400,0.000,-34.180,-43.457,0.000,0.000
1709299495.404,0.000,-44.434,-42.969,0.000,0.000
1709299495.408,0.000,-19.531,-42.969,0.000,0.000
1709299495.412,0.000,-19.043,-41.992,0.000,0.000
1709299495.416,-28.320,-38.086,-47.363,-46.875,0.000
1709299495.420,-32.715,-30.762,-48.828,-45.410,0.000
1709299495.423,-35.645,-32.715,-36.621,-46.387,0.000
1709299495.427,-36.133,-35.156,-26.367,-49.805,0.000
1709299495.431,-31.250,-39.062,-28.320,-39.062,0.000
1709299495.435,-21.484,-35.156,-28.809,-31.250,0.000
1709299495.439,-27.832,-27.344,-23.438,-35.156,0.000
1709299495.443,-32.715,-27.344,-18.066,-33.203,0.000
1709299495.447,-37.598,-42.480,-24.902,-27.832,0.000
1709299495.451,-37.109,-43.457,-30.762,-35.645,0.000
1709299495.455,-27.344,-48.340,-29.297,-41.504,0.000
1709299495.459,-30.273,-61.035,-27.832,-44.922,0.000
1709299495.463,-33.203,-50.293,-27.344,-45.410,0.000
1709299495.467,-34.180,-28.809,-33.691,-43.457,0.000
1709299495.470,-38.086,-19.043,-48.340,-40.039,0.000
1709299495.474,-35.645,-24.902,-41.992,-35.645,0.000
1709299495.478,-31.738,-44.434,-37.598,-29.785,0.000
1709299495.482,-37.598,-41.992,-41.992,-36.133,0.000
1709299495.486,-33.691,-21.484,-31.738,-40.039,0.000
1709299495.490,-27.344,-44.922,-34.668,-31.738,0.000
1709299495.494,-23.926,-55.664,-35.156,-4.395,0.000
1709299495.498,-22.949,-42.480,-31.250,-14.648,0.000
1709299495.502,-32.715,-32.715,-34.180,-47.852,0.000
1709299495.506,-45.410,-33.203,-33.691,-57.617,0.000
1709299495.509,-40.039,-38.574,-30.273,-47.363,0.000
1709299495.513,-20.996,-41.504,-31.250,-30.762,0.000
1709299495.517,-25.879,-43.457,-27.344,-22.461,0.000
1709299495.521,-41.016,-36.133,-24.902,-27.832,0.000
1709299495.525,-51.270,-37.109,-32.227,-46.875,0.000
1709299495.529,-52.246,-35.156,-33.691,-45.410,0.000
1709299495.533,-42.480,-24.902,-25.391,-27.832,0.000
1709299495.537,-42.480,-35.645,-22.461,-23.926,0.000
1709299495.541,-52.246,-53.711,-27.832,-33.691,0.000
1709299495.545,-61.035,-44.922,-24.414,-46.875,0.000
1709299495.548,-62.988,-37.109,-23.926,-45.898,0.000
1709299495.552,-44.434,-46.875,-24.414,-34.180,0.000
1709299495.556,-39.551,-41.504,-29.297,-38.574,0.000
1709299495.560,-53.223,-31.250,-30.762,-44.434,0.000
1709299495.564,-63.477,-38.574,-30.762,-44.922,0.000
1709299495.568,-62.012,-40.527,-34.180,-56.641,0.000
1709299495.572,-51.758,-36.621,-30.762,-62.012,0.000
1709299495.576,-42.969,-29.785,-32.227,-50.781,0.000
1709299495.580,-46.387,-39.551,-36.621,-43.457,0.000
1709299495.583,-55.176,-46.875,-37.598,-45.410,0.000
1709299495.587,-56.152,-44.922,-26.855,-56.641,0.000
1709299495.591,-43.945,-49.805,-17.090,-46.875,0.000
1709299495.595,-34.180,-54.688,-25.879,-33.691,0.000
1709299495.599,-49.805,-53.711,-28.809,-36.621,0.000
1709299495.603,-57.617,-38.086,-28.320,-42.969,0.000
1709299495.607,-53.223,-33.203,-38.086,-37.598,0.000
1709299495.611,-46.875,-33.203,-44.922,-28.320,0.000
1709299495.615,-38.086,-33.203,-31.250,-29.297,0.000
1709299495.618,-51.270,-41.992,-23.926,-41.504,0.000
1709299495.622,-56.641,-40.039,-25.391,-46.387,0.000
1709299495.626,-56.641,-35.645,-30.273,-38.086,0.000
1709299495.630,-54.688,-35.645,-32.715,-30.762,0.000
1709299495.634,-37.109,-38.574,-28.809,-34.180,0.000
1709299495.638,-30.762,-42.480,-31.738,-43.457,0.000
1709299495.642,-47.852,-45.898,-37.598,-54.199,0.000
1709299495.646,-57.129,-46.875,-33.203,-51.758,0.000
1709299495.650,-50.293,-36.133,-34.180,-37.109,0.000
1709299495.654,-45.898,-26.855,-36.621,-34.668,0.000
1709299495.658,-43.945,-20.508,-38.574,-40.039,0.000
1709299495.662,-50.293,-32.227,-32.715,-41.992,0.000
1709299495.666,-59.570,-61.523,-31.250,-39.551,0.000
1709299495.669,-55.176,-53.711,-37.109,-27.344,0.000
1709299495.673,-41.992,-27.832,-37.598,-20.996,0.000
1709299495.677,-31.738,-24.902,-34.180,-36.133,0.000
1709299495.681,-52.734,-38.086,-36.621,-47.363,0.000
1709299495.685,-67.383,-42.969,-38.086,-56.152,0.000
1709299495.689,-59.082,-64.941,-34.180,-55.664,0.000
1709299495.693,-49.805,-76.172,-35.156,-42.969,0.000
1709299495.697,-50.781,-35.645,-32.715,-42.969,0.000
1709299495.701,-65.918,-24.414,-37.109,-62.500,0.000
1709299495.705,-67.871,-26.855,-42.969,-75.684,0.000
1709299495.709,-54.688,-31.738,-35.156,-74.707,0.000
1709299495.713,-54.688,-37.598,-44.922,-60.059,0.000
1709299495.716,-49.805,-31.250,-48.828,-42.969,0.000
1709299495.720,-39.551,-37.109,-38.086,-48.828,0.000
1709299495.724,-37.109,-35.156,-32.715,-54.199,0.000
1709299495.728,-34.668,-36.133,-29.297,-36.621,0.000
1709299495.732,-33.203,-48.828,-41.016,-21.484,0.000
1709299495.736,-27.344,-44.434,-49.316,-23.926,0.000
1709299495.740,-28.320,-34.180,-41.992,-36.621,0.000
1709299495.744,-38.574,-33.691,-36.133,-44.922,0.000
1709299495.748,-37.109,-25.391,-32.715,-40.039,0.000
1709299495.752,-32.715,-28.809,-27.344,-28.320,0.000
1709299495.756,-21.973,-46.875,-26.367,-23.438,0.000
1709299495.760,-21.973,-35.156,-29.297,-29.297,0.000
1709299495.763,-35.156,-17.090,-30.273,-31.250,0.000
1709299495.767,-45.898,-29.297,-33.203,-34.668,0.000
1709299495.771,-35.156,-38.574,-34.668,-26.855,0.000
1709299495.775,-21.973,-18.555,-26.855,-13.672,0.000
1709299495.779,-20.020,-26.367,-31.738,-16.602,0.000
1709299495.783,-23.926,-30.273,-34.180,-32.227,0.000
1709299495.787,-28.320,-31.738,-28.320,-36.133,0.000
1709299495.791,-26.367,-40.527,-27.832,-26.367,0.000
1709299495.795,-26.367,-25.879,-38.574,-25.879,0.000
1709299495.799,-21.973,-22.461,-45.410,-30.273,0.000
1709299495.803,-35.645,-31.738,-43.945,-44.434,0.000
1709299495.806,-54.688,-28.809,-34.668,-49.805,0.000
1709299495.810,-48.340,-37.109,-36.621,-32.715,0.000
1709299495.814,-41.504,-44.434,-41.504,-20.020,0.000
1709299495.818,-50.293,-25.879,-40.527,-32.227,0.000
1709299495.822,-53.223,-38.086,-39.551,-36.621,0.000
1709299495.826,-59.082,-53.711,-38.574,-41.016,0.000
1709299495.830,-61.523,-42.969,-38.086,-52.246,0.000
1709299495.834,-56.152,-37.598,-33.691,-44.922,0.000
1709299495.838,-50.781,-46.387,-28.809,-41.504,0.000
1709299495.842,-51.758,-56.152,-25.391,-47.363,0.000
1709299495.845,-69.824,-42.969,-31.250,-60.547,0.000
1709299495.849,-58.594,-32.715,-34.668,-56.152,0.000
1709299495.853,-41.016,-33.691,-32.715,-38.086,0.000
1709299495.857,-39.062,-33.691,-36.133,-24.414,0.000
1709299495.861,-40.039,-28.809,-42.480,-30.762,0.000
1709299495.865,-46.875,-23.926,-40.527,-45.898,0.000
1709299495.869,-43.457,-28.320,-31.250,-34.668,0.000
1709299495.873,-31.738,-28.809,-30.762,-21.484,0.000
1709299495.877,-16.113,-28.320,-31.738,-17.578,0.000
1709299495.881,-18.066,-36.133,-30.273,-16.602,0.000
1709299495.884,-27.344,-48.340,-44.922,-34.180,0.000
1709299495.888,-38.086,-63.965,-49.316,-51.270,0.000
1709299495.892,-44.922,-37.598,-50.293,-46.875,0.000
1709299495.896,-35.156,-14.648,-48.828,-39.551,0.000
1709299495.900,-33.203,-22.461,-43.457,-40.039,0.000
1709299495.904,-37.598,-28.809,-38.574,-46.387,0.000
1709299495.908,-33.691,-39.551,-29.297,-47.852,0.000
1709299495.912,-30.273,-41.992,-31.250,-32.227,0.000
1709299495.916,-25.879,-29.297,-38.086,-24.902,0.000
1709299495.920,-24.902,-24.414,-36.133,-36.133,0.000
1709299495.924,-33.203,-31.250,-38.086,-44.922,0.000
1709299495.927,-43.457,-46.387,-36.133,-41.016,0.000
1709299495.931,-46.875,-44.434,-32.715,-41.992,0.000
1709299495.935,-33.691,-40.527,-40.039,-24.414,0.000
1709299495.939,-32.227,-45.898,-49.805,-19.531,0.000
1709299495.943,-40.039,-42.480,-43.945,-42.969,0.000
1709299495.947,-45.898,-31.250,-29.785,-47.363,0.000
1709299495.951,-43.457,-32.227,-30.762,-34.668,0.000
1709299495.955,-36.621,-34.180,-37.598,-27.344,0.000
1709299495.959,-41.504,-29.297,-33.691,-30.273,0.000
1709299495.962,-44.434,-39.062,-29.297,-43.945,0.000
1709299495.966,-51.758,-46.875,-31.250,-57.129,0.000
1709299495.970,-58.594,-38.086,-33.691,-52.734,0.000
1709299495.974,-47.852,-41.992,-38.086,-35.645,0.000
1709299495.978,-33.691,-37.598,-43.457,-27.832,0.000
1709299495.982,-38.574,-39.551,-29.297,-30.273,0.000
1709299495.986,-45.410,-60.059,-17.578,-25.391,0.000
1709299495.990,-54.199,-39.551,-26.367,-32.715,0.000
1709299495.993,-48.828,-28.320,-37.109,-30.273,0.000
1709299495.997,-28.320,-43.945,-31.738,-26.367,0.000
1709299496.001,-30.273,-38.574,-27.344,-28.320,0.000
1709299496.005,-37.598,-27.832,-32.715,-37.598,0.000
1709299496.009,-35.645,-29.785,-33.691,-43.457,0.000
1709299496.013,-34.180,-45.898,-32.715,-35.156,0.000
1709299496.017,-25.391,-50.293,-36.621,-32.715,0.000
1709299496.021,-36.621,-43.457,-34.180,-34.180,0.000
1709299496.025,-54.688,-39.062,-30.273,-43.945,0.000
1709299496.029,-50.293,-39.062,-27.344,-41.504,0.000
1709299496.033,-37.109,-49.805,-34.180,-37.109,0.000
1709299496.037,-33.203,-42.480,-41.992,-43.457,0.000
1709299496.041,-34.668,-32.227,-36.621,-48.828,0.000
1709299496.044,-45.410,-41.504,-36.133,-47.852,0.000
1709299496.048,-49.805,-42.480,-34.668,-42.969,0.000
1709299496.052,-26.855,-48.828,-31.250,-32.715,0.000
1709299496.056,-17.090,-62.012,-36.621,-22.949,0.000
1709299496.060,-31.250,-41.016,-39.551,-35.156,0.000
1709299496.064,-40.039,-14.160,-38.086,-51.758,0.000
1709299496.068,-49.805,-29.297,-32.715,-61.035,0.000
1709299496.072,-49.316,-42.480,-30.273,-53.711,0.000
1709299496.076,-31.250,-31.738,-31.738,-42.480,0.000
1709299496.080,-20.996,-41.016,-30.762,-40.527,0.000
1709299496.084,-44.922,-41.504,-38.086,-55.176,0.000
1709299496.088,-63.477,-32.227,-47.852,-69.336,0.000
1709299496.092,-49.316,-40.527,-41.992,-53.223,0.000
1709299496.095,-35.645,-35.156,-41.504,-40.039,0.000
1709299496.099,-41.016,-44.434,-51.270,-41.016,0.000
1709299496.103,-46.875,-54.688,-45.898,-40.039,0.000
1709299496.107,-48.828,-41.992,-39.551,-41.504,0.000
1709299496.111,-50.293,-48.828,-44.922,-48.340,0.000
1709299496.115,-37.109,-41.504,-44.922,-43.457,0.000
1709299496.119,-35.645,-41.016,-42.969,-35.645,0.000
1709299496.123,-56.641,-41.016,-43.457,-49.805,0.000
1709299496.127,-56.641,-31.738,-38.086,-60.547,0.000
1709299496.131,-31.250,-41.992,-32.227,-47.363,0.000
1709299496.135,-30.273,-50.781,-35.156,-31.738,0.000
1709299496.138,-36.621,-60.059,-41.016,-28.320,0.000
1709299496.142,-51.270,-58.105,-39.062,-48.340,0.000
1709299496.146,-62.988,-49.805,-37.109,-64.453,0.000
1709299496.150,-53.223,-37.109,-37.598,-56.152,0.000
1709299496.154,-41.504,-23.438,-31.738,-31.250,0.000
1709299496.158,-26.855,-33.691,-32.715,-31.738,0.000
1709299496.162,-26.367,-48.340,-42.969,-49.316,0.000
1709299496.166,-36.133,-42.969,-50.781,-49.805,0.000
1709299496.170,-40.527,-45.410,-40.527,-49.316,0.000
1709299496.174,-26.855,-42.480,-24.902,-41.504,0.000
1709299496.178,-13.184,-35.645,-24.414,-27.832,0.000
1709299496.181,-25.391,-31.250,-33.203,-39.062,0.000
1709299496.185,-38.574,-31.250,-40.527,-58.105,0.000
1709299496.189,-29.297,-29.785,-40.039,-49.805,0.000
1709299496.193,-21.484,-36.133,-34.668,-34.668,0.000
1709299496.197,-16.113,-38.574,-30.762,-19.043,0.000
1709299496.201,-20.020,-30.273,-34.668,-31.250,0.000
1709299496.205,-34.668,-13.672,-34.180,-51.758,0.000
1709299496.209,-31.738,-30.273,-31.250,-49.805,0.000
1709299496.213,-41.504,-39.062,-42.969,-50.781,0.000
1709299496.217,-49.316,-24.414,-49.316,-43.945,0.000
1709299496.221,-53.223,-34.668,-44.434,-37.598,0.000
1709299496.224,-65.430,-41.016,-38.574,-51.270,0.000
1709299496.228,-62.012,-47.852,-29.297,-54.688,0.000
1709299496.232,-42.969,-53.711,-27.344,-32.715,0.000
1709299496.236,-38.086,-46.387,-42.480,-36.133,0.000
1709299496.240,-52.734,-33.203,-40.039,-46.875,0.000
1709299496.244,-55.664,-41.016,-40.527,-45.898,0.000
1709299496.248,-50.781,-57.129,-42.480,-49.316,0.000
1709299496.252,-52.734,-56.641,-37.109,-51.758,0.000
1709299496.256,-44.434,-24.414,-30.762,-40.527,0.000
1709299496.259,-43.457,-14.648,-27.344,-35.156,0.000
1709299496.263,-49.805,-28.809,-32.227,-44.434,0.000
1709299496.267,-45.410,-46.875,-32.715,-46.875,0.000
1709299496.271,-38.574,-52.246,-36.621,-48.828,0.000
1709299496.275,-28.809,-43.945,-36.621,-31.738,0.000
1709299496.279,-31.250,-37.598,-35.645,-27.344,0.000
1709299496.283,-28.320,-47.852,-31.738,-36.621,0.000
1709299496.287,-23.438,-61.523,-28.809,-28.809,0.000
1709299496.291,-31.250,-35.645,-31.738,-26.855,0.000
1709299496.295,-26.367,-21.973,-32.227,-30.762,0.000
1709299496.299,-16.113,-29.785,-33.691,-24.902,0.000
1709299496.302,-18.555,-30.273,-44.434,-26.855,0.000
1709299496.306,-41.504,-40.039,-42.969,-41.992,0.000
1709299496.310,-40.039,-38.574,-27.344,-44.922,0.000
1709299496.314,-27.344,-42.969,-27.344,-29.785,0.000
1709299496.318,-32.715,-34.180,-34.668,-29.785,0.000
1709299496.322,-38.086,-33.203,-28.809,-39.062,0.000
1709299496.326,-41.016,-48.828,-26.855,-42.969,0.000
1709299496.330,-40.527,-41.016,-31.738,-38.086,0.000
1709299496.334,-36.133,-33.691,-32.227,-20.508,0.000
1709299496.337,-25.879,-36.621,-31.738,-24.414,0.000
1709299496.341,-28.809,-43.457,-34.180,-33.691,0.000
1709299496.345,-30.273,-54.688,-37.598,-29.785,0.000
1709299496.349,-40.039,-45.410,-34.180,-33.691,0.000
1709299496.353,-45.410,-24.902,-37.598,-29.297,0.000
1709299496.357,-40.039,-31.250,-41.504,-24.902,0.000
1709299496.361,-45.898,-43.945,-34.180,-36.621,0.000
1709299496.365,-63.965,-40.039,-33.691,-49.316,0.000
1709299496.368,-67.871,-36.133,-36.621,-48.340,0.000
1709299496.372,-52.734,-38.574,-28.320,-33.203,0.000
1709299496.376,-35.156,-41.992,-29.297,-16.602,0.000
1709299496.380,-33.691,-41.016,-36.133,-15.625,0.000
1709299496.384,-35.156,-49.316,-29.297,-26.367,0.000
1709299496.388,-39.062,-51.758,-31.738,-29.785,0.000
1709299496.392,-36.133,-32.715,-37.598,-29.297,0.000
1709299496.396,-28.320,-20.508,-35.156,-26.367,0.000
1709299496.400,-25.391,-19.531,-38.086,-20.996,0.000
1709299496.404,-33.203,-27.832,-41.016,-33.203,0.000
1709299496.408,-46.387,-39.062,-43.457,-55.176,0.000
1709299496.412,-41.504,-42.969,-49.316,-50.781,0.000
1709299496.416,-21.973,-41.016,-42.480,-27.344,0.000
1709299496.420,-14.160,-32.227,-33.203,-34.180,0.000
1709299496.423,-33.203,-23.438,-38.574,-56.641,0.000
1709299496.427,-43.457,-39.062,-36.133,-60.059,0.000
1709299496.431,-34.180,-41.992,-26.855,-47.852,0.000
1709299496.435,-23.438,-20.508,-26.367,-34.668,0.000
1709299496.439,-18.555,-20.020,-31.738,-32.227,0.000
1709299496.443,-19.043,-37.109,-34.668,-35.156,0.000
1709299496.447,-25.879,-41.992,-46.387,-39.062,0.000
1709299496.451,-31.738,-39.551,-37.598,-37.109,0.000
1709299496.455,-41.992,-32.227,-30.273,-41.016,0.000
1709299496.459,-43.457,-27.344,-32.227,-38.574,0.000
1709299496.463,-35.645,-42.480,-26.855,-34.180,0.000
1709299496.467,-42.969,-46.387,-29.297,-30.273,0.000
1709299496.470,-45.898,-37.109,-26.367,-27.344,0.000
1709299496.474,-31.250,-37.598,-26.367,-21.484,0.000
1709299496.478,-15.625,-39.551,-19.531,-5.371,0.000
1709299496.482,-31.738,-49.805,-24.902,-17.578,0.000
1709299496.486,-56.641,-49.805,-42.969,-47.363,0.000
1709299496.490,-50.293,-30.273,-35.156,-51.270,0.000
1709299496.494,-38.574,-34.180,-30.273,-35.645,0.000
1709299496.498,-36.621,-56.152,-39.551,-31.250,0.000
1709299496.502,-41.016,-63.477,-45.410,-39.551,0.000
1709299496.506,-46.387,-46.875,-40.527,-50.293,0.000
1709299496.510,-48.828,-38.086,-37.598,-48.340,0.000
1709299496.514,-41.992,-42.480,-42.480,-41.992,0.000
1709299496.518,-30.273,-31.250,-45.410,-38.086,0.000
1709299496.521,-30.762,-24.902,-38.086,-40.039,0.000
1709299496.525,-31.250,-39.551,-23.438,-43.457,0.000
1709299496.529,-24.414,-45.410,-23.926,-43.457,0.000
1709299496.533,-16.602,-37.109,-35.156,-39.062,0.000
1709299496.537,-19.043,-43.945,-35.156,-29.297,0.000
1709299496.541,-24.414,-50.293,-32.227,-32.227,0.000
1709299496.545,-29.297,-38.086,-28.809,-36.621,0.000
1709299496.549,-40.527,-34.668,-29.785,-44.434,0.000
1709299496.553,-41.016,-39.062,-34.180,-41.016,0.000
1709299496.557,-45.898,-34.668,-37.598,-41.504,0.000
1709299496.560,-59.570,-45.410,-34.668,-47.852,0.000
1709299496.564,-58.594,-50.293,-47.363,-55.176,0.000
1709299496.568,-52.246,-44.434,-46.875,-55.176,0.000
1709299496.572,-49.805,-53.711,-38.574,-41.992,0.000
1709299496.576,-41.016,-37.109,-39.062,-37.598,0.000
1709299496.580,-35.645,-20.996,-36.133,-45.410,0.000
1709299496.584,-47.852,-31.738,-42.480,-59.570,0.000
1709299496.588,-49.316,-29.785,-39.551,-54.199,0.000
1709299496.592,-48.828,-40.039,-41.504,-47.363,0.000
1709299496.596,-39.062,-56.641,-45.898,-37.598,0.000
1709299496.599,-23.438,-60.059,-40.039,-22.949,0.000
1709299496.603,-37.109,-49.805,-34.180,-35.156,0.000
1709299496.607,-49.805,-23.926,-43.945,-57.617,0.000
1709299496.611,-43.457,-18.555,-44.434,-56.641,0.000
1709299496.615,-27.832,-31.250,-40.039,-37.598,0.000
1709299496.619,-33.691,-44.922,-40.527,-22.949,0.000
1709299496.623,-43.945,-37.109,-35.645,-29.785,0.000
1709299496.627,-44.434,-48.340,-37.598,-41.016,0.000
1709299496.631,-53.711,-50.781,-37.598,-37.109,0.000
1709299496.635,-49.805,-35.645,-30.273,-31.738,0.000
1709299496.638,-40.039,-41.016,-26.855,-27.344,0.000
1709299496.642,-43.945,-39.551,-31.738,-29.785,0.000
1709299496.646,-55.664,-49.805,-31.738,-40.527,0.000
1709299496.650,-56.152,-74.707,-32.715,-37.598,0.000
1709299496.654,-46.875,-48.340,-41.016,-25.391,0.000
1709299496.658,-46.387,-26.855,-42.480,-23.438,0.000
1709299496.662,-62.012,-52.246,-36.621,-32.227,0.000
1709299496.666,-72.754,-41.504,-34.180,-37.598,0.000
1709299496.670,-68.359,-36.133,-41.504,-32.227,0.000
1709299496.674,-52.246,-50.781,-35.156,-31.250,0.000
1709299496.678,-49.805,-48.828,-32.227,-43.945,0.000
1709299496.681,-59.082,-54.688,-41.504,-45.898,0.000
1709299496.685,-60.547,-52.734,-39.062,-50.781,0.000
1709299496.689,-55.176,-46.387,-41.992,-51.758,0.000
1709299496.693,-39.062,-52.734,-40.039,-27.832,0.000
1709299496.697,-22.461,-53.711,-31.738,-15.625,0.000
1709299496.701,-24.414,-48.828,-29.785,-31.250,0.000
1709299496.705,-39.551,-50.293,-27.832,-42.480,0.000
1709299496.709,-34.668,-71.289,-29.297,-31.738,0.000
1709299496.713,-19.531,-54.199,-37.598,-29.785,0.000
1709299496.716,-31.738,-27.832,-51.270,-33.691,0.000
1709299496.720,-32.227,-31.250,-49.316,-38.574,0.000
1709299496.724,-33.691,-37.109,-37.109,-48.340,0.000
1709299496.728,-42.969,-36.621,-30.762,-61.035,0.000
1709299496.732,-38.574,-36.621,-30.273,-51.758,0.000
1709299496.736,-32.715,-49.805,-26.855,-34.668,0.000
1709299496.740,-22.461,-59.082,-26.367,-34.668,0.000
1709299496.744,-27.344,-40.039,-32.227,-34.180,0.000
1709299496.747,-36.621,-53.711,-34.180,-33.691,0.000
1709299496.751,-29.297,-64.941,-33.203,-31.738,0.000
1709299496.755,-27.832,-34.180,-36.133,-37.598,0.000
1709299496.759,-23.926,-38.086,-37.109,-44.434,0.000
1709299496.763,-26.367,-41.016,-39.062,-45.410,0.000
1709299496.767,-40.039,-28.809,-41.504,-56.152,0.000
1709299496.771,-41.992,-45.898,-36.621,-48.828,0.000
1709299496.775,-18.066,-66.406,-25.879,-31.250,0.000
1709299496.778,-16.113,-42.480,-29.297,-30.762,0.000
1709299496.782,-26.855,-21.973,-33.691,-42.969,0.000
1709299496.786,-41.992,-34.668,-30.762,-56.641,0.000
1709299496.790,-56.152,-52.246,-27.344,-41.992,0.000
1709299496.794,-46.875,-67.871,-28.320,-25.879,0.000
1709299496.798,-36.133,-55.664,-35.156,-38.086,0.000
1709299496.802,-46.875,-42.969,-39.062,-52.246,0.000
1709299496.806,-65.430,-49.316,-30.762,-57.617,0.000
1709299496.810,-54.199,-46.387,-27.344,-51.270,0.000
1709299496.814,-41.504,-43.457,-36.621,-38.086,0.000
1709299496.817,-38.574,-45.410,-44.922,-38.574,0.000
1709299496.822,-37.598,-49.316,-39.062,-42.480,0.000
1709299496.825,-47.852,-42.480,-32.227,-44.434,0.000
1709299496.829,-45.410,-40.527,-37.109,-52.246,0.000
1709299496.833,-28.809,-52.246,-30.762,-50.293,0.000
1709299496.837,-20.020,-48.828,-27.832,-37.598,0.000
1709299496.841,-18.066,-33.203,-38.086,-37.109,0.000
1709299496.845,-30.273,-27.832,-34.668,-52.246,0.000
1709299496.849,-43.457,-32.227,-31.738,-55.176,0.000
1709299496.853,-29.785,-36.133,-38.574,-45.410,0.000
1709299496.857,-14.160,-34.180,-29.785,-34.180,0.000
1709299496.861,-7.324,-46.875,-25.879,-29.785,0.000
1709299496.865,-12.695,-62.500,-25.879,-29.297,0.000
1709299496.869,-31.250,-57.617,-31.250,-37.598,0.000
1709299496.872,-39.062,-39.551,-34.668,-53.223,0.000
1709299496.876,-29.297,-33.203,-27.344,-45.898,0.000
1709299496.880,-29.297,-39.551,-26.367,-41.992,0.000
1709299496.884,-44.922,-36.133,-29.297,-50.781,0.000
1709299496.888,-44.434,-34.668,-28.320,-47.852,0.000
1709299496.892,-29.785,-45.410,-26.855,-35.156,0.000
1709299496.896,-19.531,-36.133,-24.902,-26.367,0.000
1709299496.900,-23.926,-27.832,-27.832,-24.414,0.000
1709299496.904,-35.156,-39.062,-34.180,-29.297,0.000
1709299496.908,-37.109,-39.062,-34.180,-37.598,0.000
1709299496.912,-31.250,-26.367,-31.738,-34.668,0.000
1709299496.915,-28.809,-34.180,-33.691,-28.320,0.000
1709299496.919,-31.250,-34.668,-36.621,-22.949,0.000
1709299496.923,-34.668,-23.438,-34.668,-32.715,0.000
1709299496.927,-41.992,-26.855,-30.762,-50.293,0.000
1709299496.931,-45.410,-34.668,-30.273,-49.805,0.000
1709299496.935,-35.645,-40.039,-28.320,-36.133,0.000
1709299496.939,-33.691,-50.781,-28.320,-24.902,0.000
1709299496.943,-35.645,-51.758,-40.527,-38.574,0.000
1709299496.947,-43.457,-29.785,-41.504,-51.270,0.000
1709299496.951,-43.945,-33.691,-38.086,-44.922,0.000
1709299496.955,-38.574,-56.641,-39.062,-46.387,0.000
1709299496.958,-38.086,-54.199,-39.062,-51.758,0.000
1709299496.962,-40.039,-32.715,-39.062,-51.270,0.000
1709299496.966,-53.711,-24.414,-39.551,-60.059,0.000
1709299496.970,-45.898,-29.785,-33.691,-59.570,0.000
1709299496.974,-25.391,-26.855,-34.668,-49.316,0.000
1709299496.978,-16.113,-44.434,-37.598,-42.480,0.000
1709299496.982,-41.016,-53.223,-40.039,-47.852,0.000
1709299496.986,-66.406,-35.645,-40.039,-59.570,0.000
1709299496.990,-59.082,-35.156,-37.109,-52.734,0.000
1709299496.994,-40.039,-38.574,-30.762,-33.203,0.000
1709299496.998,-38.574,-39.551,-32.715,-27.832,0.000
1709299497.001,-54.688,-37.598,-43.457,-45.898,0.000
1709299497.005,-57.129,-54.199,-41.992,-56.641,0.000
1709299497.009,-57.617,-54.688,-39.551,-50.781,0.000
1709299497.013,-48.340,-43.457,-39.551,-35.156,0.000
1709299497.017,-35.645,-53.711,-39.062,-29.785,0.000
1709299497.021,-37.109,-47.363,-38.086,-39.551,0.000
1709299497.025,-48.828,-27.832,-39.551,-44.434,0.000
1709299497.029,-58.105,-25.391,-36.621,-40.039,0.000
1709299497.033,-48.828,-33.691,-33.203,-27.832,0.000
1709299497.036,-28.809,-40.527,-40.039,-14.648,0.000
1709299497.040,-33.203,-47.363,-44.434,-31.250,0.000
1709299497.044,-45.410,-41.504,-42.480,-49.316,0.000
1709299497.048,-46.387,-40.527,-41.504,-47.852,0.000
1709299497.052,-38.086,-60.059,-47.363,-47.363,0.000
1709299497.056,0.000,-53.223,-43.945,-44.922,0.000
1709299497.060,0.000,-42.480,-27.832,-42.969,0.000
1709299497.064,0.000,-55.176,-25.879,-42.480,0.000
1709299497.068,0.000,-47.363,-37.109,-48.828,0.000
1709299497.072,0.000,-31.738,-41.016,-48.828,0.000
1709299497.075,0.000,-31.250,-37.598,-54.688,0.000
1709299497.079,0.000,-33.691,-33.203,-54.199,0.000
1709299497.083,0.000,-41.992,-29.785,-50.781,0.000
1709299497.087,0.000,-68.359,-28.320,-61.523,0.000
1709299497.091,0.000,-67.871,-35.156,-58.105,0.000
1709299497.095,0.000,-26.855,-38.574,-47.363,0.000
1709299497.099,0.000,-24.414,-36.621,-43.945,0.000
1709299497.103,-40.039,-37.598,-35.156,-45.898,0.000
1709299497.106,-59.570,-43.945,-33.203,-53.711,0.000
1709299497.110,-52.734,-45.898,-25.879,-54.688,0.000
1709299497.114,-43.945,-37.109,-30.762,-51.758,0.000
1709299497.118,-49.805,-50.781,-31.738,-50.781,0.000
1709299497.122,-45.898,-60.059,-23.926,-50.293,0.000
1709299497.126,-43.457,-43.457,-25.391,-51.758,0.000
1709299497.130,-42.480,-44.434,-29.785,-49.805,0.000
1709299497.134,-32.715,-41.992,-30.762,-37.598,0.000
1709299497.138,-29.785,-32.715,-36.621,-21.484,0.000
1709299497.142,-38.574,-43.945,-44.434,-27.344,0.000
1709299497.146,-48.340,-30.273,-36.621,-45.410,0.000
1709299497.149,-49.805,-19.043,-35.645,-46.387,0.000
1709299497.153,-44.434,-44.434,-42.969,-42.969,0.000
1709299497.157,-37.598,-50.781,-38.086,-40.039,0.000
1709299497.161,-39.551,-47.852,-39.551,-40.039,0.000
1709299497.165,-45.410,-53.223,-54.199,-51.758,0.000
1709299497.169,-47.363,-48.828,-44.922,-62.012,0.000
1709299497.173,-43.457,-46.387,-25.391,-47.363,0.000
1709299497.177,-40.039,-41.992,-27.344,-45.410,0.000
1709299497.180,-41.992,-35.156,-37.598,-60.059,0.000
1709299497.184,-48.340,-36.133,-38.574,-55.664,0.000
1709299497.188,-41.504,-48.340,-32.715,-47.852,0.000
1709299497.192,-31.250,-57.129,-34.668,-42.969,0.000
1709299497.196,-40.039,-40.039,-41.504,-39.062,0.000
1709299497.200,-47.852,-29.297,-42.480,-42.969,0.000
1709299497.204,-43.945,-30.762,-31.250,-44.434,0.000
1709299497.208,-46.387,-38.086,-27.832,-44.922,0.000
1709299497.212,-55.664,-40.527,-29.785,-46.387,0.000
1709299497.216,-45.898,-32.715,-24.902,-34.180,0.000
1709299497.220,-36.621,-41.016,-19.531,-33.691,0.000
1709299497.224,-51.270,-43.945,-22.949,-41.504,0.000
1709299497.228,-64.941,-42.480,-21.973,-35.645,0.000
1709299497.231,-65.918,-41.504,-23.926,-24.902,0.000
1709299497.235,-66.895,-35.156,-33.691,-23.926,0.000
1709299497.239,-63.965,-40.039,-34.668,-27.832,0.000
1709299497.243,-57.129,-47.363,-25.391,-35.156,0.000
1709299497.247,-57.617,-43.457,-29.297,-43.457,0.000
1709299497.251,-66.895,-47.852,-32.227,-39.062,0.000
1709299497.255,-66.895,-53.223,-27.832,-31.250,0.000
1709299497.259,-56.641,-44.922,-27.832,-28.809,0.000
1709299497.263,-51.270,-29.785,-28.809,-41.504,0.000
1709299497.267,-44.922,-48.828,-39.551,-60.059,0.000
1709299497.271,-43.945,-53.711,-41.504,-50.293,0.000
1709299497.275,-45.898,-48.340,-40.039,-25.879,0.000
1709299497.278,-31.738,-43.457,-43.945,-20.508,0.000
1709299497.282,-22.461,-31.738,-38.086,-38.086,0.000
1709299497.286,-31.250,-42.969,-32.715,-51.270,0.000
1709299497.290,-30.762,-45.410,-23.438,-43.457,0.000
1709299497.294,-15.625,-38.086,-26.367,-38.086,0.000
1709299497.298,-18.066,-35.156,-44.922,-41.504,0.000
1709299497.302,-28.320,-44.922,-38.574,-46.387,0.000
1709299497.306,-41.504,-37.109,-39.551,-60.059,0.000
1709299497.310,-55.176,-40.039,-49.316,-71.777,0.000
1709299497.314,-46.387,-64.453,-33.691,-59.570,0.000
1709299497.318,-30.273,-59.082,-28.809,-46.875,0.000
1709299497.321,-35.645,-39.551,-33.203,-45.410,0.000
1709299497.325,-46.387,-31.738,-34.180,-56.641,0.000
1709299497.329,-44.434,-27.344,-41.992,-58.105,0.000
1709299497.333,-31.250,-34.180,-39.551,-29.297,0.000
1709299497.337,-29.785,-52.246,-42.480,-19.531,0.000
1709299497.341,-33.203,-62.500,-41.016,-26.855,0.000
1709299497.345,-36.133,-53.223,-34.668,-34.180,0.000
1709299497.349,-41.504,-32.715,-32.227,-44.922,0.000
1709299497.353,-39.062,-32.715,-31.738,-50.781,0.000
1709299497.357,-41.992,-39.062,-40.039,-44.434,0.000
1709299497.361,-44.434,-35.156,-48.340,-39.062,0.000
1709299497.364,-46.387,-35.645,-48.828,-45.410,0.000
1709299497.368,-46.387,-53.711,-42.969,-45.898,0.000
1709299497.372,-47.363,-50.781,-42.969,-55.664,0.000
1709299497.376,-45.410,-37.598,-41.992,-49.316,0.000
1709299497.380,-38.086,-46.387,-40.039,-35.645,0.000
1709299497.384,-44.922,-33.691,-43.457,-45.898,0.000
1709299497.388,-49.316,-31.738,-41.016,-48.340,0.000
1709299497.392,-38.574,-50.781,-43.457,-42.480,0.000
1709299497.396,-35.645,-43.457,-52.246,-44.434,0.000
1709299497.399,-43.945,-32.227,-43.457,-45.898,0.000
1709299497.403,-44.922,-34.180,-40.039,-52.734,0.000
1709299497.407,-41.016,-39.062,-39.551,-43.945,0.000
1709299497.411,-40.527,-52.246,-40.527,-36.621,0.000
1709299497.415,-29.785,-46.875,-39.062,-39.062,0.000
1709299497.419,-36.133,-30.273,-37.109,-39.551,0.000
1709299497.423,-43.945,-30.762,-42.969,-53.223,0.000
1709299497.427,-35.156,-39.551,-38.086,-53.223,0.000
1709299497.431,-23.926,-52.246,-30.273,-37.109,0.000
1709299497.435,-20.508,-40.039,-39.551,-28.320,0.000
1709299497.438,-29.785,-29.785,-44.434,-27.344,0.000
1709299497.442,-37.109,-20.020,-38.086,-42.969,0.000
1709299497.446,-38.574,-19.043,-38.086,-47.852,0.000
1709299497.450,-37.598,-34.180,-38.086,-33.203,0.000
1709299497.454,-25.391,-42.969,-39.551,-21.484,0.000
1709299497.458,-16.602,-41.016,-38.086,-16.602,0.000
1709299497.462,-22.461,-26.855,-41.016,-28.320,0.000
1709299497.466,-31.250,-26.855,-44.434,-36.133,0.000
1709299497.470,-35.645,-56.152,-31.250,-33.691,0.000
1709299497.474,-30.273,-51.270,-30.273,-28.809,0.000
1709299497.478,-28.809,-17.578,-37.109,-35.645,0.000
1709299497.482,-45.898,-20.020,-38.086,-45.410,0.000
1709299497.486,-55.176,-33.691,-35.645,-41.504,0.000
1709299497.490,-47.363,-52.734,-39.551,-35.156,0.000
1709299497.493,-31.250,-52.246,-46.387,-22.461,0.000
1709299497.497,-34.180,-42.969,-47.363,-29.297,0.000
1709299497.501,-49.805,-36.133,-37.109,-36.133,0.000
1709299497.505,-56.152,-37.109,-31.738,-42.480,0.000
1709299497.509,-53.223,-35.156,-35.645,-45.898,0.000
1709299497.513,-37.598,-43.945,-35.156,-26.367,0.000
1709299497.517,-36.621,-56.641,-37.109,-20.020,0.000
1709299497.521,-41.992,-27.344,-37.598,-34.668,0.000
1709299497.524,-42.480,-12.695,-34.668,-46.387,0.000
1709299497.528,-38.086,-26.367,-32.227,-47.852,0.000
1709299497.532,-20.996,-23.926,-35.156,-28.320,0.000
1709299497.536,-4.395,-13.184,-36.133,-10.254,0.000
1709299497.540,-12.695,-27.832,-26.855,-20.020,0.000
1709299497.544,-33.691,-35.645,-23.926,-35.645,0.000
1709299497.548,-34.180,-33.691,-27.344,-47.363,0.000
1709299497.552,-28.320,-44.922,-26.367,-47.363,0.000
1709299497.556,-24.902,-47.363,-30.762,-36.621,0.000
1709299497.560,-24.902,-31.250,-39.551,-36.621,0.000
1709299497.563,-34.668,-20.020,-30.762,-44.434,0.000
1709299497.567,-37.598,-24.414,-28.809,-52.734,0.000
1709299497.572,-25.879,-26.367,-47.852,-47.363,0.000
1709299497.576,-5.371,-25.879,-41.016,-30.273,0.000
1709299497.580,-9.277,-26.367,-29.297,-28.809,0.000
1709299497.584,-30.273,-32.715,-35.156,-45.410,0.000
1709299497.588,-36.621,-43.457,-39.062,-49.316,0.000
1709299497.592,-40.527,-40.039,-31.738,-34.180,0.000
1709299497.595,-43.457,-38.086,-27.344,-30.762,0.000
1709299497.599,-41.992,-26.367,-34.180,-34.668,0.000
1709299497.603,-53.223,-29.785,-30.273,-39.062,0.000
1709299497.607,-71.777,-46.387,-27.344,-50.293,0.000
1709299497.611,-69.824,-33.203,-32.715,-28.320,0.000
1709299497.615,-54.199,-22.461,-37.598,-7.812,0.000
1709299497.619,-49.316,-18.066,-32.715,-23.438,0.000
1709299497.623,-42.969,-28.320,-23.926,-31.250,0.000
1709299497.627,-47.852,-52.734,-19.531,-36.133,0.000
1709299497.631,-64.453,-43.457,-22.461,-41.504,0.000
1709299497.635,-57.129,-29.297,-19.531,-32.227,0.000
1709299497.639,-41.016,-36.621,-20.508,-28.320,0.000
1709299497.642,-51.270,-44.922,-29.297,-48.340,0.000
1709299497.646,-54.688,-38.574,-27.832,-57.617,0.000
1709299497.650,-53.223,-43.945,-26.367,-58.105,0.000
1709299497.654,-54.199,-46.875,-31.250,-43.945,0.000
1709299497.658,-40.527,-41.016,-34.180,-32.227,0.000
1709299497.662,-38.086,-41.992,-34.180,-42.480,0.000
1709299497.666,-51.758,-38.574,-35.645,-52.246,0.000
1709299497.670,-54.199,-25.879,-37.598,-50.781,0.000
1709299497.674,-38.574,-31.738,-33.203,-41.504,0.000
1709299497.678,-27.344,-49.805,-29.297,-32.227,0.000
1709299497.682,-35.156,-38.574,-34.668,-48.340,0.000
1709299497.685,-47.852,-26.367,-41.992,-65.430,0.000
1709299497.689,-53.711,-28.320,-48.340,-62.500,0.000
1709299497.693,-45.898,-33.691,-46.387,-44.434,0.000
1709299497.697,-29.297,-37.598,-38.574,-21.484,0.000
1709299497.701,-28.320,-38.574,-34.668,-35.645,0.000
1709299497.705,-32.715,-30.762,-32.227,-61.035,0.000
1709299497.709,-26.367,-26.855,-28.320,-58.105,0.000
1709299497.713,-22.949,-26.855,-32.227,-49.316,0.000
1709299497.717,-17.578,-34.668,-33.691,-42.480,0.000
1709299497.721,-11.230,-38.086,-28.320,-39.062,0.000
1709299497.724,-20.020,-35.156,-25.879,-43.457,0.000
1709299497.728,-30.762,-45.410,-36.133,-38.574,0.000
1709299497.732,-31.738,-41.992,-41.992,-35.645,0.000
1709299497.736,-30.273,-28.809,-42.969,-38.574,0.000
1709299497.740,-25.879,-24.902,-37.598,-32.715,0.000
1709299497.744,-27.832,-24.414,-36.133,-33.691,0.000
1709299497.748,-31.250,-22.461,-37.598,-48.828,0.000
1709299497.752,-22.461,-35.156,-35.645,-45.410,0.000
1709299497.756,-12.695,-36.133,-33.203,-28.320,0.000
1709299497.759,-12.695,-30.762,-39.062,-25.879,0.000
1709299497.763,-22.461,-35.645,-44.922,-39.551,0.000
1709299497.767,-42.480,-38.086,-39.551,-52.246,0.000
1709299497.771,-51.758,-41.016,-39.062,-58.594,0.000
1709299497.775,-41.992,-41.992,-37.598,-46.875,0.000
1709299497.779,-29.297,-38.574,-32.227,-39.062,0.000
1709299497.783,-28.320,-39.551,-30.762,-47.852,0.000
1709299497.787,-38.086,-47.363,-27.832,-46.875,0.000
1709299497.791,-42.480,-49.316,-29.785,-38.086,0.000
1709299497.795,-27.832,-38.086,-33.203,-28.320,0.000
1709299497.799,-11.719,-39.062,-36.621,-32.715,0.000
1709299497.802,-9.277,-52.734,-43.457,-34.668,0.000
1709299497.806,-20.508,-51.758,-39.551,-36.133,0.000
1709299497.810,-26.855,-38.574,-35.156,-32.227,0.000
1709299497.814,-20.020,-39.062,-41.504,-32.715,0.000
1709299497.818,-10.742,-45.898,-39.551,-47.363,0.000
1709299497.822,-20.508,-18.555,-39.062,-47.852,0.000
1709299497.826,-35.645,-14.160,-43.945,-43.945,0.000
1709299497.830,-38.086,-31.250,-40.527,-41.504,0.000
1709299497.834,-28.809,-39.551,-30.762,-25.391,0.000
1709299497.837,-23.438,-46.875,-32.227,-20.996,0.000
1709299497.841,-21.484,-35.645,-37.598,-30.762,0.000
1709299497.845,-28.320,-21.973,-24.414,-35.156,0.000
1709299497.849,-41.504,-37.598,-28.320,-32.715,0.000
1709299497.853,-43.457,-45.898,-38.574,-37.109,0.000
1709299497.857,-40.039,-47.363,-33.691,-36.133,0.000
1709299497.861,-41.992,-46.387,-33.203,-34.180,0.000
1709299497.865,-51.270,-37.598,-27.832,-43.457,0.000
1709299497.868,-58.105,-33.691,-35.645,-48.340,0.000
1709299497.872,-52.246,-32.715,-41.504,-37.598,0.000
1709299497.876,-43.945,-40.527,-37.598,-31.250,0.000
1709299497.880,-36.621,-33.691,-41.504,-36.621,0.000
1709299497.884,-40.039,-31.738,-32.715,-47.363,0.000
1709299497.888,-54.199,-38.086,-30.762,-52.734,0.000
1709299497.892,-50.781,-51.270,-36.621,-36.133,0.000
1709299497.896,-31.250,-66.895,-35.645,-20.508,0.000
1709299497.899,-26.855,-54.199,-37.109,-12.207,0.000
1709299497.903,-39.551,-29.785,-41.992,-16.602,0.000
1709299497.907,-49.805,-19.043,-45.410,-36.621,0.000
1709299497.911,-42.969,-23.926,-42.480,-43.945,0.000
1709299497.915,-25.879,-32.227,-44.434,-28.320,0.000
1709299497.919,-20.508,-35.156,-40.039,-23.438,0.000
1709299497.923,-36.621,-50.293,-39.062,-34.180,0.000
1709299497.927,-43.945,-48.340,-39.551,-44.922,0.000
1709299497.931,-37.109,-34.668,-35.645,-39.062,0.000
1709299497.935,-33.691,-40.039,-38.086,-23.926,0.000
1709299497.938,-34.668,-41.992,-33.691,-30.762,0.000
1709299497.942,-41.992,-32.227,-31.738,-54.688,0.000
1709299497.946,-46.387,-41.016,-31.738,-63.477,0.000
1709299497.950,-40.039,-51.758,-31.250,-48.828,0.000
1709299497.954,-39.062,-40.527,-36.621,-42.480,0.000
1709299497.958,-36.133,-29.785,-41.992,-41.016,0.000
1709299497.962,-30.273,-31.738,-43.945,-39.551,0.000
1709299497.966,-45.898,-44.434,-40.039,-45.410,0.000
1709299497.970,-52.734,-46.387,-36.621,-46.875,0.000
1709299497.974,-49.316,-39.551,-37.598,-44.434,0.000
1709299497.978,-40.527,-62.500,-39.062,-34.180,0.000
1709299497.982,-39.551,-81.055,-41.992,-28.320,0.000
1709299497.986,-56.152,-39.062,-41.016,-41.016,0.000
1709299497.989,-56.641,-23.438,-35.156,-34.180,0.000
1709299497.994,-42.969,-51.758,-34.668,-21.973,0.000
1709299497.997,-41.504,-42.969,-38.086,-53.223,0.000
1709299498.001,-53.711,-28.320,-53.223,-69.336,0.000
1709299498.005,-55.664,-31.250,-52.246,-48.828,0.000
1709299498.009,-48.828,-42.480,-38.574,-55.176,0.000
1709299498.013,-49.805,-44.434,-48.828,-51.758,0.000
1709299498.017,-40.039,-31.738,-57.129,-36.621,0.000
1709299498.021,-24.902,-29.297,-52.246,-40.527,0.000
1709299498.025,-24.414,-48.340,-49.805,-37.598,0.000
1709299498.029,-34.180,-53.711,-43.457,-38.086,0.000
1709299498.033,-36.621,-31.250,-35.645,-41.504,0.000
1709299498.036,-22.461,-24.414,-36.621,-31.250,0.000
1709299498.040,-27.344,-32.715,-35.645,-18.066,0.000
1709299498.044,-38.086,-43.457,-27.832,-21.484,0.000
1709299498.048,-42.969,-48.828,-30.273,-44.922,0.000
1709299498.052,-42.969,-41.016,-36.133,-45.898,0.000
1709299498.056,-41.504,-43.945,-39.062,-27.344,0.000
1709299498.060,-38.574,-58.594,-42.480,-10.742,0.000
1709299498.064,-33.203,-55.176,-40.527,-18.066,0.000
1709299498.068,-35.156,-30.273,-37.109,-41.016,0.000
1709299498.072,-31.738,-26.367,-39.062,-38.574,0.000
1709299498.076,-20.020,-38.574,-43.457,-30.273,0.000
1709299498.079,-13.672,-41.016,-47.363,-28.320,0.000
1709299498.083,-24.902,-27.344,-40.039,-27.832,0.000
1709299498.087,-49.316,-21.484,-41.992,-46.387,0.000
1709299498.091,-52.734,-21.973,-38.086,-56.152,0.000
1709299498.095,-40.039,-19.043,-32.715,-48.828,0.000
1709299498.099,-28.320,-45.898,-35.156,-32.227,0.000
1709299498.103,-37.109,-44.922,-34.180,-26.855,0.000
1709299498.107,-62.988,-27.832,-40.527,-44.434,0.000
1709299498.111,-79.590,-31.250,-46.875,-64.453,0.000
1709299498.115,-72.754,-34.180,-42.480,-59.082,0.000
1709299498.119,-59.082,-42.480,-35.645,-38.086,0.000
1709299498.122,-62.500,-44.922,-34.180,-41.016,0.000
1709299498.126,-65.430,-42.969,-42.969,-49.316,0.000
1709299498.130,-58.594,-40.527,-44.434,-43.457,0.000
1709299498.134,-49.316,-61.523,-33.203,-42.480,0.000
1709299498.138,-53.223,-46.875,-27.344,-39.062,0.000
1709299498.142,-57.129,-20.508,-33.203,-35.156,0.000
1709299498.146,-61.035,-39.551,-38.574,-50.781,0.000
1709299498.150,-73.730,-55.664,-41.504,-69.336,0.000
1709299498.154,-59.082,-48.828,-37.109,-54.199,0.000
1709299498.157,-41.504,-54.199,-38.086,-37.598,0.000
1709299498.161,-43.945,-53.223,-42.969,-33.691,0.000
1709299498.165,-50.781,-40.039,-41.504,-37.109,0.000
1709299498.169,-46.875,-39.551,-37.598,-45.410,0.000
1709299498.173,-33.691,-37.598,-36.621,-41.504,0.000
1709299498.177,-15.137,-36.621,-38.086,-32.227,0.000
1709299498.181,-19.043,-43.457,-39.551,-25.391,0.000
1709299498.185,-34.668,-29.785,-40.039,-36.621,0.000
1709299498.189,-40.039,-20.508,-35.645,-37.598,0.000
1709299498.193,-35.156,-32.227,-39.551,-13.672,0.000
1709299498.196,-20.508,-57.129,-37.109,-8.301,0.000
1709299498.200,-17.090,-67.871,-38.086,-29.297,0.000
1709299498.204,-36.133,-29.785,-44.922,-44.922,0.000
1709299498.208,-48.828,-2.441,-36.621,-49.805,0.000
1709299498.212,-51.758,-19.043,-31.738,-54.199,0.000
1709299498.216,-40.039,-28.809,-40.527,-42.480,0.000
1709299498.220,-33.691,-32.715,-39.551,-42.480,0.000
1709299498.224,-44.434,-28.320,-30.273,-56.152,0.000
1709299498.228,-50.781,-28.320,-28.809,-60.547,0.000
1709299498.232,-56.641,-37.598,-41.016,-57.617,0.000
1709299498.236,-45.410,-41.016,-38.574,-33.691,0.000
1709299498.240,-44.922,-46.875,-32.715,-29.297,0.000
1709299498.244,-49.805,-50.781,-36.621,-45.410,0.000
1709299498.248,-50.293,-45.410,-36.621,-52.734,0.000
1709299498.252,-51.758,-43.457,-27.832,-36.133,0.000
1709299498.255,-40.039,-68.359,-22.949,-10.254,0.000
1709299498.259,-24.414,-75.684,-33.691,-17.090,0.000
1709299498.263,-38.086,-39.062,-33.203,-32.227,0.000
1709299498.267,-53.711,-26.855,-27.832,-39.062,0.000
1709299498.271,-47.852,-29.297,-28.320,-42.480,0.000
1709299498.275,-26.855,-35.156,0.000,-25.391,0.000
1709299498.279,-12.695,-63.477,0.000,-7.324,0.000
1709299498.282,-15.137,-62.988,0.000,-6.348,0.000
1709299498.286,-25.391,-41.016,0.000,-19.043,0.000
1709299498.290,-41.992,-43.945,0.000,-25.391,0.000
1709299498.294,-26.367,-61.035,0.000,-0.488,0.000
1709299498.298,-4.883,-80.566,0.000,17.090,0.000
1709299498.302,-15.137,-76.660,0.000,-6.348,0.000
1709299498.306,-32.715,-41.016,0.000,-41.504,0.000
1709299498.310,-31.250,-20.508,0.000,-38.086,0.000
1709299498.314,-25.879,-19.531,0.000,-11.230,0.000
1709299498.318,-11.230,-29.297,0.000,-6.836,0.000
1709299498.322,-4.883,-42.480,-20.020,-17.578,0.000
1709299498.326,-20.020,-52.246,-29.297,-22.949,0.000
1709299498.330,-35.645,-51.270,-30.273,-35.645,0.000
1709299498.333,-33.203,-39.062,-28.809,-33.203,0.000
1709299498.337,-24.902,-38.086,-37.109,-17.578,0.000
1709299498.341,-22.949,-51.270,-37.109,-14.648,0.000
1709299498.345,-30.762,-52.246,-33.691,-28.809,0.000
1709299498.349,-35.156,-38.574,-36.133,-45.898,0.000
1709299498.353,-37.598,-41.016,-47.852,-48.340,0.000
1709299498.357,-34.668,-48.340,-46.387,-32.715,0.000
1709299498.361,-28.809,-46.875,-33.203,-25.391,0.000
1709299498.365,-37.109,-47.852,-39.551,-43.457,0.000
1709299498.369,-57.617,-24.414,-43.457,-59.082,0.000
1709299498.373,-50.781,-11.230,-30.762,-54.199,0.000
1709299498.376,-34.180,-20.508,-27.832,-46.387,0.000
1709299498.380,-34.180,-26.367,-32.227,-36.621,0.000
1709299498.384,-37.109,-39.062,-31.250,-38.574,0.000
1709299498.388,-41.504,-42.969,-29.785,-43.945,0.000
1709299498.392,-41.016,-31.250,-24.414,-30.273,0.000
1709299498.396,-34.668,-35.645,-23.926,-23.926,0.000
1709299498.400,-35.156,-38.574,-28.809,-20.508,0.000
1709299498.404,-34.180,-53.223,-30.762,-21.973,0.000
1709299498.408,-49.316,-58.105,-35.156,-47.852,0.000
1709299498.412,-46.875,-32.715,-35.156,-47.363,0.000
1709299498.416,-35.156,-37.598,-30.273,-30.273,0.000
1709299498.419,-44.434,-55.664,-33.203,-31.250,0.000
1709299498.423,-45.898,-58.105,-34.180,-37.598,0.000
1709299498.427,-41.992,-56.152,-32.715,-39.062,0.000
1709299498.431,-36.621,-54.688,-30.273,-33.203,0.000
1709299498.435,-22.461,-56.152,-23.926,-20.996,0.000
1709299498.439,-5.371,-38.086,-24.902,-7.812,0.000
1709299498.443,-10.254,-54.688,-27.344,-9.766,0.000
1709299498.447,-22.461,-75.195,-28.809,-7.812,0.000
1709299498.451,-38.086,-35.156,-37.598,-27.832,0.000
1709299498.455,-39.551,-20.508,-36.621,-44.922,0.000
1709299498.459,-26.367,-45.410,-34.180,-34.180,0.000
1709299498.462,-26.367,-50.781,-39.062,-29.785,0.000
1709299498.466,-49.316,-46.387,-41.992,-55.176,0.000
1709299498.470,-59.082,-36.621,-38.574,-69.824,0.000
1709299498.474,-51.758,-29.297,-34.668,-49.805,0.000
1709299498.478,-37.109,-48.340,-34.668,-46.875,0.000
1709299498.482,-28.809,-43.945,-39.551,-63.965,0.000
1709299498.486,-35.645,-27.344,-36.133,-67.871,0.000
1709299498.490,-40.039,-40.527,-40.039,-60.547,0.000
1709299498.494,-37.109,-48.340,-41.992,-38.574,0.000
1709299498.498,-26.855,-37.598,-37.598,-34.668,0.000
1709299498.501,-23.926,-28.320,-28.809,-46.387,0.000
1709299498.505,-22.949,-29.297,-21.973,-50.293,0.000
1709299498.509,-21.484,-43.457,-23.926,-48.340,0.000
1709299498.513,-41.016,-48.828,-28.320,-43.457,0.000
1709299498.517,-30.273,-45.898,-31.738,-31.250,0.000
1709299498.521,-16.602,-36.621,-33.203,-20.996,0.000
1709299498.525,-29.785,-34.180,-29.785,-36.133,0.000
1709299498.529,-44.434,-49.316,-28.320,-51.270,0.000
1709299498.533,-41.992,-37.598,-29.785,-43.945,0.000
1709299498.537,-40.527,-27.344,-40.039,-31.738,0.000
1709299498.540,-33.203,-27.832,-42.480,-21.484,0.000
1709299498.544,-33.691,-20.020,-36.133,-23.926,0.000
1709299498.548,-42.969,-27.832,-34.180,-47.852,0.000
1709299498.552,-43.457,-45.898,-37.109,-54.199,0.000
1709299498.556,-43.945,-40.039,-42.969,-36.133,0.000
1709299498.560,-40.527,-28.320,-46.387,-35.645,0.000
1709299498.564,-48.340,-32.227,-46.875,-55.664,0.000
1709299498.568,-57.129,-34.180,-43.457,-69.336,0.000
1709299498.572,-54.199,-30.762,-45.410,-61.523,0.000
1709299498.575,-44.434,-32.715,-46.387,-48.340,0.000
1709299498.579,-27.832,-27.832,-46.387,-38.086,0.000
1709299498.583,-33.691,-41.016,-51.758,-32.715,0.000
1709299498.587,-44.922,-46.875,-47.852,-48.340,0.000
1709299498.591,-47.363,-28.320,-28.809,-67.383,0.000
1709299498.595,-44.922,-21.973,-30.273,-59.082,0.000
1709299498.599,-33.691,-30.762,-40.527,-47.852,0.000
1709299498.603,-34.180,-23.438,-40.039,-50.293,0.000
1709299498.606,-42.969,-30.762,-33.203,-50.293,0.000
1709299498.610,-50.293,-47.363,-33.203,-43.457,0.000
1709299498.614,-41.992,-26.855,-36.133,-36.133,0.000
1709299498.618,-34.180,-13.184,-40.527,-34.668,0.000
1709299498.622,-38.574,-21.973,-43.945,-41.016,0.000
1709299498.626,-45.410,-33.203,-41.992,-42.480,0.000
1709299498.630,-51.758,-38.574,-32.227,-38.574,0.000
1709299498.634,-46.875,-47.852,-27.832,-39.062,0.000
1709299498.638,-38.086,-52.246,-27.832,-31.250,0.000
1709299498.642,-39.062,-53.223,-29.785,-15.137,0.000
1709299498.646,-48.340,-45.898,-30.273,-25.879,0.000
1709299498.649,-56.152,-37.109,-32.715,-49.805,0.000
1709299498.653,-60.059,-36.621,-36.133,-45.898,0.000
1709299498.657,-44.922,-38.086,-38.086,-28.809,0.000
1709299498.661,-34.180,-29.297,-31.738,-26.367,0.000
1709299498.665,-50.781,-39.551,-31.250,-43.945,0.000
1709299498.669,-65.430,-42.480,-41.504,-46.875,0.000
1709299498.673,-51.270,-33.203,-42.969,-33.691,0.000
1709299498.677,-29.785,-54.688,-39.551,-25.879,0.000
1709299498.681,-37.598,-51.270,-36.133,-25.879,0.000
1709299498.684,-37.598,-29.785,-27.344,-29.297,0.000
1709299498.688,-32.227,-41.504,-20.508,-28.809,0.000
1709299498.692,-35.156,-43.457,-25.391,-29.297,0.000
1709299498.696,-35.156,-22.461,-36.621,-31.250,0.000
1709299498.700,-36.621,-19.531,-41.992,-26.367,0.000
1709299498.704,-45.410,-28.809,-36.133,-37.109,0.000
1709299498.708,-59.082,-45.898,-34.180,-58.105,0.000
1709299498.712,-60.547,-59.570,-35.156,-51.270,0.000
1709299498.716,-47.363,-50.293,-39.062,-31.250,0.000
1709299498.720,-47.363,-47.852,-46.387,-39.062,0.000
1709299498.724,-49.805,-39.551,-40.527,-62.500,0.000
1709299498.728,-57.617,-20.996,-29.785,-70.801,0.000
1709299498.732,-62.012,-27.344,-25.391,-62.500,0.000
1709299498.735,-54.199,-31.250,-29.785,-48.340,0.000
1709299498.739,-42.969,-36.133,-29.297,-35.156,0.000
1709299498.743,-45.898,-38.086,-28.320,-41.016,0.000
1709299498.747,-51.270,-33.691,-34.180,-46.875,0.000
1709299498.751,-41.504,-54.688,-31.250,-35.645,0.000
1709299498.755,-39.551,-48.828,-29.785,-37.598,0.000
1709299498.759,-30.762,-22.461,-35.645,-49.316,0.000
1709299498.763,-27.832,-19.531,-38.086,-54.199,0.000
1709299498.767,-42.480,-20.996,-33.691,-51.758,0.000
1709299498.771,-39.062,-38.574,-28.809,-41.504,0.000
1709299498.775,-28.320,-52.734,-28.809,-20.508,0.000
1709299498.779,-28.320,-39.551,-29.785,-16.602,0.000
1709299498.783,-28.809,-21.973,-34.180,-33.203,0.000
1709299498.786,-45.410,-15.137,-30.762,-31.250,0.000
1709299498.791,-51.270,-40.527,-28.809,-15.625,0.000
1709299498.795,-28.320,-56.641,-42.480,-16.602,0.000
1709299498.799,-18.555,-28.809,-46.387,-25.879,0.000
1709299498.803,-37.598,-29.785,-35.156,-38.574,0.000
1709299498.807,-52.246,-48.340,-28.809,-52.246,0.000
1709299498.810,-56.641,-42.969,-30.273,-51.270,0.000
1709299498.814,-55.176,-42.480,-33.691,-50.293,0.000
1709299498.818,-34.668,-41.992,-27.344,-40.527,0.000
1709299498.822,-28.320,-47.363,-27.832,-30.762,0.000
1709299498.826,-34.668,-49.805,-29.297,-47.363,0.000
1709299498.830,-35.645,-52.734,-25.391,-43.457,0.000
1709299498.834,-31.250,-61.523,-25.879,-29.785,0.000
