timestamps,TP9,AF7,AF8,TP10,Right AUX
1709291887.566,-30.273,-27.344,-35.645,-21.973,0.000
1709291887.570,-30.762,-27.832,-37.109,-26.367,0.000
1709291887.574,-15.625,-21.973,-35.645,-33.203,0.000
1709291887.578,-7.812,-24.414,-32.227,-33.203,0.000
1709291887.582,-21.484,-29.297,-31.738,-34.668,0.000
1709291887.586,-25.879,-29.297,-32.715,-34.668,0.000
1709291887.590,-20.020,-29.297,-32.715,-35.645,0.000
1709291887.594,-15.625,-31.738,-26.855,-20.508,0.000
1709291887.597,-3.418,-28.320,-24.902,0.488,0.000
1709291887.601,-14.160,-23.926,-26.367,-10.742,0.000
1709291887.605,-32.715,-26.855,-28.809,-18.555,0.000
1709291887.609,-31.250,-30.762,-30.273,-14.160,0.000
1709291887.613,-28.809,-32.227,-30.762,-17.090,0.000
1709291887.617,-27.344,-31.738,-34.180,-24.902,0.000
1709291887.621,-30.762,-34.668,-33.203,-26.367,0.000
1709291887.625,-34.668,-34.668,-31.250,-24.414,0.000
1709291887.629,-24.902,-31.738,-31.250,-25.879,0.000
1709291887.633,-20.508,-34.180,-31.738,-29.297,0.000
1709291887.637,-22.949,-30.273,-29.297,-27.344,0.000
1709291887.641,-24.902,-28.809,-29.785,-22.461,0.000
1709291887.645,-27.344,-30.273,-29.785,-20.508,0.000
1709291887.649,-25.879,-27.344,-26.855,-20.508,0.000
1709291887.652,-20.508,-27.344,-27.832,-17.578,0.000
1709291887.656,-16.602,-29.785,-28.320,-16.113,0.000
1709291887.660,-23.926,-35.645,-33.691,-24.414,0.000
1709291887.664,-31.738,-41.504,-36.133,-27.344,0.000
1709291887.668,-38.086,-38.574,-32.715,-23.926,0.000
1709291887.672,-34.180,-39.551,-31.250,-20.996,0.000
1709291887.676,-32.227,-43.457,-33.203,-24.902,0.000
1709291887.680,-35.156,-42.969,-31.250,-28.809,0.000
1709291887.684,-36.621,-42.969,-26.855,-19.531,0.000
1709291887.688,-41.504,-40.527,-30.273,-17.090,0.000
1709291887.691,-28.809,-36.133,-31.738,-19.043,0.000
1709291887.695,-6.348,-35.156,-29.785,-14.648,0.000
1709291887.699,-18.066,-36.133,-30.762,-20.020,0.000
1709291887.703,-28.809,-39.551,-34.180,-21.973,0.000
1709291887.707,-24.902,-35.645,-34.668,-14.160,0.000
1709291887.711,-24.414,-32.227,-29.297,-13.184,0.000
1709291887.715,-16.602,-35.645,-28.320,-22.949,0.000
1709291887.719,-21.973,-36.133,-34.180,-27.344,0.000
1709291887.723,-30.762,-35.156,-33.203,-27.832,0.000
1709291887.726,-32.227,-35.156,-32.227,-21.973,0.000
1709291887.730,-29.785,-35.645,-31.250,-5.859,0.000
1709291887.734,-29.785,-32.227,-25.391,-9.766,0.000
1709291887.738,-27.832,-25.391,-27.832,-19.043,0.000
1709291887.742,-24.902,-23.926,-30.273,-17.578,0.000
1709291887.746,-31.738,-28.809,-28.320,-20.508,0.000
1709291887.750,-36.621,-30.762,-30.273,-25.879,0.000
1709291887.754,-31.738,-23.926,-32.715,-23.926,0.000
1709291887.757,-23.926,-23.438,-30.273,-16.602,0.000
1709291887.761,-26.855,-34.668,-31.738,-20.020,0.000
1709291887.765,-31.250,-31.738,-36.133,-22.461,0.000
1709291887.769,-26.367,-27.832,-34.180,-19.531,0.000
1709291887.773,-22.461,-32.227,-27.832,-13.184,0.000
1709291887.777,-18.066,-31.250,-27.344,-14.160,0.000
1709291887.781,-20.508,-29.785,-28.809,-21.484,0.000
1709291887.785,-34.180,-39.062,-32.715,-30.273,0.000
1709291887.789,-31.250,-38.574,-33.691,-29.297,0.000
1709291887.793,-20.996,-30.273,-34.668,-24.902,0.000
1709291887.796,-24.902,-35.156,-41.504,-32.715,0.000
1709291887.801,-32.715,-38.574,-41.504,-34.668,0.000
1709291887.805,-40.039,-34.668,-39.551,-30.762,0.000
1709291887.809,-34.180,-35.645,-41.992,-29.297,0.000
1709291887.813,-24.414,-34.668,-40.527,-28.809,0.000
1709291887.817,-27.344,-29.297,-36.133,-30.762,0.000
1709291887.821,-30.762,-28.809,-39.551,-34.668,0.000
1709291887.825,-32.227,-35.156,-40.527,-32.715,0.000
1709291887.829,-29.785,-36.621,-38.086,-25.879,0.000
1709291887.833,-20.508,-26.367,-36.621,-17.578,0.000
1709291887.837,-18.555,-28.320,-31.250,-17.578,0.000
1709291887.841,-26.855,-36.133,-37.598,-29.297,0.000
1709291887.844,-35.645,-34.668,-41.016,-37.109,0.000
1709291887.849,-29.785,-36.621,-39.062,-36.621,0.000
1709291887.853,-29.297,-41.016,-41.016,-36.133,0.000
1709291887.857,-37.109,-42.480,-45.898,-38.086,0.000
1709291887.861,-32.715,-39.551,-46.387,-44.434,0.000
1709291887.865,-39.062,-35.156,-44.922,-43.945,0.000
1709291887.869,-38.086,-35.645,-45.410,-27.832,0.000
1709291887.873,-23.438,-34.668,-45.898,-22.949,0.000
1709291887.876,-18.066,-31.738,-44.922,-27.344,0.000
1709291887.880,-12.207,-32.227,-41.992,-14.160,0.000
1709291887.884,-10.254,-32.227,-41.016,-8.301,0.000
1709291887.888,-20.508,-33.203,-43.945,-21.484,0.000
1709291887.892,-24.902,-35.645,-42.480,-29.785,0.000
1709291887.896,-19.531,-36.621,-38.086,-23.438,0.000
1709291887.900,-18.066,-36.133,-39.551,-14.160,0.000
1709291887.904,-24.902,-32.715,-39.551,-26.367,0.000
1709291887.908,-25.879,-32.227,-37.598,-32.715,0.000
1709291887.912,-21.484,-27.344,-37.109,-22.949,0.000
1709291887.916,-16.602,-27.344,-32.715,-18.555,0.000
1709291887.920,-9.277,-24.414,-32.227,-20.508,0.000
1709291887.924,-19.043,-28.320,-35.645,-29.785,0.000
1709291887.928,-27.344,-31.738,-27.344,-17.578,0.000
1709291887.932,-26.367,-23.438,-17.090,-5.371,0.000
1709291887.935,-22.461,-22.461,-21.973,-12.695,0.000
1709291887.939,-19.531,-21.973,-23.438,-19.043,0.000
1709291887.943,-30.762,-22.949,-20.020,-26.855,0.000
1709291887.947,-39.062,-30.762,-21.484,-28.320,0.000
1709291887.951,-31.738,-33.203,-20.020,-22.461,0.000
1709291887.955,-23.438,-28.809,-26.367,-23.926,0.000
1709291887.959,-22.461,-30.273,-28.809,-32.227,0.000
1709291887.963,-29.297,-30.273,-28.809,-34.668,0.000
1709291887.967,-33.691,-30.762,-35.156,-38.086,0.000
1709291887.971,-27.344,-29.785,-35.645,-24.902,0.000
1709291887.975,-20.996,-24.902,-33.203,-14.648,0.000
1709291887.979,-22.461,-27.344,-33.691,-27.832,0.000
1709291887.983,-24.414,-25.391,-31.738,-36.621,0.000
1709291887.986,-23.926,-18.555,-29.785,-31.738,0.000
1709291887.990,-25.879,-23.926,-32.227,-27.344,0.000
1709291887.994,-18.066,-23.926,-33.203,-28.320,0.000
1709291887.998,-12.695,-22.949,-32.715,-29.297,0.000
1709291888.002,-19.043,-27.832,-33.203,-30.273,0.000
1709291888.006,-24.902,-20.020,-31.250,-28.320,0.000
1709291888.010,-27.344,-20.020,-26.855,-18.066,0.000
1709291888.014,-23.438,-28.320,-24.902,-19.043,0.000
1709291888.018,-20.020,-25.391,-27.344,-21.484,0.000
1709291888.022,-21.973,-29.785,-26.367,-23.926,0.000
1709291888.026,-28.809,-34.180,-26.855,-25.879,0.000
1709291888.029,-35.645,-36.621,-36.621,-23.926,0.000
1709291888.033,-29.297,-34.668,-36.621,-34.668,0.000
1709291888.037,-26.367,-26.855,-29.785,-29.785,0.000
1709291888.041,-35.156,-25.879,-30.273,-25.391,0.000
1709291888.045,-38.574,-27.344,-34.180,-30.762,0.000
1709291888.049,-34.668,-27.832,-36.621,-30.762,0.000
1709291888.053,-25.391,-23.926,-31.250,-23.438,0.000
1709291888.057,-15.137,-20.996,-29.297,-17.090,0.000
1709291888.061,-22.461,-23.438,-29.785,-18.555,0.000
1709291888.064,-30.762,-22.461,-24.902,-14.648,0.000
1709291888.068,-32.227,-20.996,-27.832,-19.531,0.000
1709291888.072,-28.809,-20.996,-27.344,-19.531,0.000
1709291888.076,-21.484,-26.855,-31.738,-17.578,0.000
1709291888.080,-22.461,-30.273,-41.016,-22.461,0.000
1709291888.084,-25.879,-29.297,-43.457,-21.973,0.000
1709291888.088,-28.809,-28.809,-44.434,-15.625,0.000
1709291888.091,-28.809,-22.949,-38.086,-18.555,0.000
1709291888.095,-17.090,-30.273,-35.645,-25.391,0.000
1709291888.099,-11.230,-34.180,-34.668,-20.020,0.000
1709291888.103,-18.555,-27.344,-34.668,-18.066,0.000
1709291888.107,-23.926,-27.344,-40.039,-16.113,0.000
1709291888.111,-28.320,-26.855,-40.039,-19.531,0.000
1709291888.115,-23.438,-26.367,-38.574,-29.297,0.000
1709291888.119,-20.020,-27.832,-33.691,-27.832,0.000
1709291888.123,-32.227,-27.832,-31.250,-26.367,0.000
1709291888.127,-36.621,-30.273,-35.645,-27.832,0.000
1709291888.130,-33.691,-33.203,-36.133,-27.344,0.000
1709291888.134,-26.855,-31.738,-33.691,-23.438,0.000
1709291888.138,-22.949,-37.109,-35.645,-22.461,0.000
1709291888.142,-28.320,-36.621,-32.715,-23.926,0.000
1709291888.146,-33.203,-27.832,-29.785,-25.391,0.000
1709291888.150,-34.668,-34.180,-35.645,-20.020,0.000
1709291888.153,-22.949,-37.598,-36.621,-12.695,0.000
1709291888.157,-20.996,-33.691,-37.109,-25.879,0.000
1709291888.161,-32.715,-34.180,-37.598,-40.527,0.000
1709291888.165,-28.320,-30.273,-30.762,-30.762,0.000
1709291888.169,-30.273,-31.250,-35.645,-24.414,0.000
1709291888.173,-30.762,-35.645,-40.039,-37.109,0.000
1709291888.178,-24.902,-36.133,-35.156,-40.527,0.000
1709291888.182,-21.973,-38.086,-33.691,-36.133,0.000
1709291888.186,-32.227,-34.668,-35.645,-35.645,0.000
1709291888.190,-39.062,-37.598,-26.855,-28.809,0.000
1709291888.193,-14.160,-45.898,-18.555,-2.441,0.000
1709291888.197,10.742,-29.785,-29.297,16.602,0.000
1709291888.201,-10.742,-18.555,-32.715,-3.906,0.000
1709291888.205,-31.250,-19.531,-27.832,-25.391,0.000
1709291888.209,-27.344,-16.113,-32.227,-26.367,0.000
1709291888.213,-26.367,-14.160,-45.410,-31.738,0.000
1709291888.217,-22.949,-15.137,-47.363,-37.109,0.000
1709291888.221,-26.367,-20.020,-43.457,-41.504,0.000
1709291888.225,-35.156,-17.578,-46.387,-45.410,0.000
1709291888.229,-38.574,-5.859,-51.270,-48.340,0.000
1709291888.233,-41.504,-11.230,-56.152,-58.594,0.000
1709291888.237,-33.203,-18.555,-52.734,-55.176,0.000
1709291888.241,-30.273,-13.184,-54.199,-57.129,0.000
1709291888.245,-40.039,-11.230,-59.570,-61.035,0.000
1709291888.249,-37.598,-4.883,-58.594,-52.246,0.000
1709291888.253,-34.180,2.441,-60.547,-60.547,0.000
1709291888.257,-26.855,3.906,-59.082,-54.199,0.000
1709291888.260,-21.484,2.930,-58.105,-51.270,0.000
1709291888.264,-34.668,6.348,-57.617,-70.312,0.000
1709291888.268,-36.133,10.254,-56.641,-65.430,0.000
1709291888.273,-25.391,15.137,-57.617,-60.059,0.000
1709291888.277,-18.066,17.578,-60.547,-66.895,0.000
1709291888.281,-13.672,21.484,-63.965,-64.453,0.000
1709291888.285,-9.766,28.320,-69.336,-52.246,0.000
1709291888.289,-5.859,22.949,-67.383,-43.457,0.000
1709291888.293,1.953,23.926,-64.453,-33.691,0.000
1709291888.297,13.672,25.879,-60.547,-19.531,0.000
1709291888.301,30.273,27.344,-58.594,-8.301,0.000
1709291888.304,40.039,31.250,-62.988,2.930,0.000
1709291888.308,27.832,30.762,-63.965,7.812,0.000
1709291888.312,18.555,23.438,-67.383,-0.977,0.000
1709291888.316,37.598,21.484,-67.383,0.977,0.000
1709291888.320,56.641,28.320,-64.453,14.648,0.000
1709291888.324,45.410,31.250,-59.570,11.230,0.000
1709291888.328,27.344,26.855,-58.105,6.836,0.000
1709291888.332,35.156,19.043,-62.500,14.160,0.000
1709291888.336,51.270,21.973,-64.941,20.020,0.000
1709291888.340,49.316,24.902,-64.453,21.973,0.000
1709291888.344,46.875,22.461,-63.477,25.391,0.000
1709291888.347,42.969,20.996,-61.523,34.668,0.000
1709291888.351,36.133,20.508,-61.523,32.227,0.000
1709291888.355,41.504,19.531,-62.500,23.438,0.000
1709291888.359,41.504,16.113,-62.500,17.090,0.000
1709291888.363,33.203,12.695,-62.500,9.766,0.000
1709291888.367,19.043,9.277,-58.594,6.836,0.000
1709291888.371,20.508,10.254,-54.688,14.160,0.000
1709291888.375,19.531,4.395,-56.641,7.812,0.000
1709291888.379,18.066,1.465,-54.199,-2.930,0.000
1709291888.382,9.766,0.488,-49.805,-10.254,0.000
1709291888.386,-2.441,-6.348,-51.270,-7.812,0.000
1709291888.390,2.441,-7.812,-46.875,-0.977,0.000
1709291888.394,3.906,-8.301,-43.945,3.418,0.000
1709291888.398,0.977,-7.324,-46.387,3.418,0.000
1709291888.402,-3.418,-7.812,-46.387,-8.789,0.000
1709291888.406,-10.254,-13.672,-44.922,-14.160,0.000
1709291888.410,-7.812,-13.184,-44.434,-13.184,0.000
1709291888.413,-0.977,-10.254,-41.992,-16.602,0.000
1709291888.417,0.977,-8.789,-41.016,-18.555,0.000
1709291888.421,-0.488,-8.301,-41.016,-15.625,0.000
1709291888.425,-6.348,-8.301,-39.062,-13.672,0.000
1709291888.429,-3.418,-11.719,-41.016,-11.719,0.000
1709291888.433,7.324,-10.254,-43.457,-10.254,0.000
1709291888.437,16.113,-4.883,-39.551,2.930,0.000
1709291888.441,9.766,-3.418,-35.156,14.160,0.000
1709291888.445,1.465,-1.953,-37.109,9.766,0.000
1709291888.448,-1.465,-4.883,-39.551,1.465,0.000
1709291888.452,-1.953,-5.371,-38.086,3.418,0.000
1709291888.456,-3.906,-12.695,-36.621,6.348,0.000
1709291888.460,-7.812,-24.414,-39.551,-1.465,0.000
1709291888.464,-12.695,-24.902,-37.109,-11.230,0.000
1709291888.468,-21.973,-20.996,-31.250,-12.207,0.000
1709291888.471,-29.785,-23.926,-32.227,-10.742,0.000
1709291888.475,-19.531,-23.438,-34.180,-10.742,0.000
1709291888.479,-5.859,-23.438,-32.227,-10.742,0.000
1709291888.483,-11.230,-29.297,-33.203,-7.324,0.000
1709291888.487,-22.461,-23.438,-31.250,-6.836,0.000
1709291888.491,-29.785,-20.020,-27.832,-14.160,0.000
1709291888.495,-28.320,-20.508,-32.715,-23.926,0.000
1709291888.499,-17.578,-18.066,-31.738,-21.973,0.000
1709291888.503,-14.160,-20.508,-30.762,-16.113,0.000
1709291888.506,-19.043,-17.578,-30.273,-19.531,0.000
1709291888.510,-16.602,-16.113,-26.367,-15.625,0.000
1709291888.514,-7.324,-16.602,-23.438,-13.184,0.000
1709291888.518,-4.883,-15.137,-26.367,-15.137,0.000
1709291888.522,-8.789,-20.020,-28.320,-18.555,0.000
1709291888.525,-17.578,-24.902,-29.785,-11.719,0.000
1709291888.529,-18.555,-22.461,-35.645,-10.254,0.000
1709291888.533,-15.137,-20.508,-39.551,-20.508,0.000
1709291888.537,-13.184,-20.020,-40.039,-24.902,0.000
1709291888.541,-20.020,-22.461,-39.062,-24.902,0.000
1709291888.545,-23.926,-27.832,-40.527,-35.156,0.000
1709291888.549,-26.855,-26.367,-40.039,-35.645,0.000
1709291888.554,-26.367,-22.461,-31.738,-23.926,0.000
1709291888.557,-17.578,-25.879,-28.320,-21.973,0.000
1709291888.561,-22.461,-23.438,-33.203,-31.250,0.000
1709291888.565,-31.250,-24.414,-35.645,-33.203,0.000
1709291888.569,-34.180,-31.738,-33.691,-24.414,0.000
1709291888.573,-26.855,-31.250,-29.297,-14.160,0.000
1709291888.577,-24.902,-27.344,-28.809,-13.672,0.000
1709291888.581,-37.598,-29.297,-35.645,-19.531,0.000
1709291888.585,-36.133,-32.715,-33.691,-17.090,0.000
1709291888.589,-35.645,-34.180,-32.715,-15.137,0.000
1709291888.593,-33.203,-32.227,-34.180,-17.578,0.000
1709291888.596,-21.973,-25.391,-31.738,-14.160,0.000
1709291888.601,-23.926,-25.879,-37.109,-15.625,0.000
1709291888.605,-22.461,-26.855,-39.062,-26.855,0.000
1709291888.609,-19.043,-22.461,-33.203,-30.762,0.000
1709291888.613,-20.996,-28.809,-34.180,-26.367,0.000
1709291888.617,-19.531,-30.273,-36.621,-20.996,0.000
1709291888.620,-17.090,-29.297,-37.598,-22.949,0.000
1709291888.624,-18.066,-28.320,-36.133,-26.855,0.000
1709291888.628,-31.738,-30.762,-38.086,-35.645,0.000
1709291888.632,-36.133,-32.227,-35.645,-32.715,0.000
1709291888.636,-15.625,-28.320,-29.297,-19.531,0.000
1709291888.640,-12.207,-22.949,-32.227,-20.508,0.000
1709291888.644,-25.391,-23.438,-38.086,-25.879,0.000
1709291888.648,-25.391,-26.367,-38.574,-23.926,0.000
1709291888.652,-24.902,-28.809,-37.598,-15.625,0.000
1709291888.656,-26.367,-35.645,-39.551,-20.020,0.000
1709291888.660,-24.414,-37.598,-41.504,-25.879,0.000
1709291888.664,-27.344,-34.668,-39.062,-25.879,0.000
1709291888.668,-33.203,-33.691,-41.016,-25.391,0.000
1709291888.672,-30.273,-33.203,-42.480,-23.926,0.000
1709291888.676,-20.996,-31.738,-39.062,-22.461,0.000
1709291888.679,-16.602,-27.832,-38.574,-16.602,0.000
1709291888.683,-19.531,-27.344,-40.527,-24.902,0.000
1709291888.687,-26.855,-29.785,-42.969,-33.203,0.000
1709291888.691,-29.785,-31.250,-44.434,-31.738,0.000
1709291888.695,-23.926,-33.203,-41.992,-25.879,0.000
1709291888.699,-14.160,-30.273,-40.527,-19.043,0.000
1709291888.703,-19.043,-30.273,-45.410,-31.738,0.000
1709291888.707,-24.414,-29.785,-44.434,-32.715,0.000
1709291888.711,-27.344,-30.762,-44.434,-25.879,0.000
1709291888.715,-24.414,-29.297,-46.875,-31.250,0.000
1709291888.719,-18.555,-26.367,-45.898,-32.715,0.000
1709291888.722,-23.926,-26.855,-41.504,-26.855,0.000
1709291888.726,-34.668,-24.902,-43.457,-16.113,0.000
1709291888.730,-42.969,-30.273,-43.945,-23.926,0.000
1709291888.734,-26.367,-29.785,-37.598,-26.855,0.000
1709291888.738,-13.184,-22.949,-36.621,-20.996,0.000
1709291888.742,-17.090,-27.344,-35.645,-17.090,0.000
1709291888.746,-15.625,-25.879,-42.480,-15.625,0.000
1709291888.750,-20.996,-18.555,-45.410,-31.250,0.000
1709291888.754,-25.391,-19.043,-41.504,-36.133,0.000
1709291888.757,-24.414,-19.531,-40.039,-37.598,0.000
1709291888.761,-28.809,-25.391,-36.133,-40.527,0.000
1709291888.765,-31.250,-26.855,-37.598,-37.598,0.000
1709291888.769,-32.715,-25.879,-37.598,-33.203,0.000
1709291888.773,-28.320,-31.250,-39.551,-32.227,0.000
1709291888.777,-23.438,-29.297,-41.504,-40.527,0.000
1709291888.781,-28.320,-29.297,-41.504,-42.969,0.000
1709291888.785,-29.785,-29.785,-42.480,-38.574,0.000
1709291888.790,-33.691,-27.832,-39.062,-28.320,0.000
1709291888.794,-34.668,-26.855,-38.086,-23.926,0.000
1709291888.798,-28.809,-28.809,-37.598,-20.020,0.000
1709291888.802,-23.926,-30.273,-36.621,-17.578,0.000
1709291888.806,-27.832,-31.738,-39.551,-20.020,0.000
1709291888.810,-39.062,-34.668,-40.039,-20.508,0.000
1709291888.814,-33.691,-31.738,-32.227,-11.230,0.000
1709291888.818,-25.879,-30.273,-30.273,-12.695,0.000
1709291888.821,-25.391,-30.762,-35.156,-28.809,0.000
1709291888.825,-37.598,-37.598,-40.039,-38.574,0.000
1709291888.829,-41.016,-42.480,-39.062,-45.898,0.000
1709291888.833,-33.691,-31.250,-34.668,-41.016,0.000
1709291888.836,-33.691,-28.320,-34.180,-29.785,0.000
1709291888.840,-30.762,-25.391,-31.250,-23.438,0.000
1709291888.844,-31.738,-22.949,-31.250,-23.926,0.000
1709291888.848,-40.039,-31.738,-29.785,-28.809,0.000
1709291888.852,-42.480,-31.738,-28.320,-24.414,0.000
1709291888.856,-34.668,-29.785,-27.344,-19.043,0.000
1709291888.860,-24.414,-26.367,-28.320,-16.602,0.000
1709291888.864,-26.855,-21.484,-30.762,-24.902,0.000
1709291888.868,-41.016,-18.555,-28.320,-31.250,0.000
1709291888.872,-42.969,-19.531,-28.809,-26.367,0.000
1709291888.875,-37.598,-17.578,-31.250,-19.531,0.000
1709291888.879,-37.109,-16.602,-31.250,-22.461,0.000
1709291888.882,-37.598,-19.043,-33.203,-32.715,0.000
1709291888.886,-32.227,-16.602,-35.156,-38.086,0.000
1709291888.890,-30.273,-17.090,-30.273,-36.621,0.000
1709291888.894,-30.762,-20.996,-32.715,-34.180,0.000
1709291888.898,-22.949,-19.531,-31.738,-31.738,0.000
1709291888.902,-27.832,-16.602,-28.809,-25.879,0.000
1709291888.906,-38.574,-15.625,-32.227,-22.461,0.000
1709291888.910,-40.039,-15.625,-30.762,-35.645,0.000
1709291888.914,-36.621,-12.695,-31.250,-38.086,0.000
1709291888.918,-26.855,-9.766,-33.691,-35.156,0.000
1709291888.921,-25.879,-18.066,-34.180,-37.109,0.000
1709291888.925,-28.320,-12.207,-28.320,-33.691,0.000
1709291888.930,-33.691,-7.812,-28.809,-31.738,0.000
1709291888.934,-26.367,-15.625,-30.273,-27.832,0.000
1709291888.938,-13.184,-15.137,-30.762,-29.297,0.000
1709291888.942,-24.902,-16.113,-39.551,-36.133,0.000
1709291888.946,-30.762,-19.531,-40.527,-32.715,0.000
1709291888.949,-39.551,-22.949,-41.504,-35.156,0.000
1709291888.953,-45.410,-25.879,-45.410,-44.434,0.000
1709291888.957,-30.762,-23.926,-45.410,-36.133,0.000
1709291888.961,-18.066,-20.508,-43.945,-23.926,0.000
1709291888.965,-23.926,-17.090,-44.434,-31.250,0.000
1709291888.969,-34.668,-15.137,-43.945,-32.715,0.000
1709291888.973,-25.879,-18.066,-40.527,-23.926,0.000
1709291888.977,-19.043,-21.484,-45.410,-19.531,0.000
1709291888.981,-27.344,-22.949,-43.945,-25.879,0.000
1709291888.985,-25.391,-23.926,-34.668,-25.391,0.000
1709291888.989,-19.043,-22.461,-29.297,-13.672,0.000
1709291888.993,-19.531,-19.043,-28.809,-18.066,0.000
1709291888.997,-17.090,-16.602,-27.344,-18.555,0.000
1709291889.001,-11.230,-18.066,-26.367,-16.113,0.000
1709291889.005,-15.137,-22.461,-29.297,-18.066,0.000
1709291889.008,-20.508,-24.414,-29.297,-9.277,0.000
1709291889.012,-22.949,-24.414,-28.809,-9.766,0.000
1709291889.016,-31.250,-23.438,-33.691,-23.438,0.000
1709291889.020,-30.762,-25.879,-35.645,-25.879,0.000
1709291889.024,-30.273,-32.715,-30.762,-21.484,0.000
1709291889.028,-34.668,-34.180,-31.250,-17.578,0.000
1709291889.032,-27.344,-25.391,-29.785,-16.113,0.000
1709291889.036,-16.113,-25.391,-29.297,-16.113,0.000
1709291889.040,-24.902,-30.273,-30.762,-18.066,0.000
1709291889.044,-33.691,-32.227,-33.691,-24.414,0.000
1709291889.048,-37.598,-26.855,-31.738,-21.973,0.000
1709291889.052,-34.668,-21.484,-30.273,-14.648,0.000
1709291889.055,-24.902,-27.832,-33.691,-7.324,0.000
1709291889.059,-22.949,-32.715,-32.715,-18.066,0.000
1709291889.063,-25.391,-28.320,-32.227,-34.180,0.000
1709291889.067,-29.297,-29.297,-38.086,-24.902,0.000
1709291889.071,-35.645,-32.715,-35.645,-24.902,0.000
1709291889.075,-28.809,-33.691,-32.227,-29.297,0.000
1709291889.079,-17.578,-31.250,-36.621,-25.879,0.000
1709291889.083,-20.020,-30.273,-34.668,-27.344,0.000
1709291889.087,-29.785,-33.203,-32.715,-27.832,0.000
1709291889.091,-38.086,-27.344,-33.203,-24.902,0.000
1709291889.094,-43.457,-29.785,-35.156,-20.996,0.000
1709291889.098,-37.109,-37.109,-34.668,-20.996,0.000
1709291889.102,-33.691,-33.691,-36.133,-17.578,0.000
1709291889.106,-42.969,-34.668,-39.551,-27.832,0.000
1709291889.110,-46.387,-34.668,-36.133,-31.738,0.000
1709291889.114,-37.109,-31.250,-31.250,-25.391,0.000
1709291889.118,-28.320,-30.273,-32.715,-25.391,0.000
1709291889.121,-26.367,-37.109,-35.156,-30.762,0.000
1709291889.125,-36.133,-36.621,-33.203,-34.668,0.000
1709291889.129,-37.598,-30.762,-34.180,-29.297,0.000
1709291889.133,-25.391,-28.809,-33.691,-28.809,0.000
1709291889.137,-23.438,-28.809,-30.762,-28.809,0.000
1709291889.141,-17.090,-28.809,-28.809,-23.438,0.000
1709291889.145,-25.391,-28.809,-28.809,-13.672,0.000
1709291889.149,-34.668,-27.832,-30.273,-20.020,0.000
1709291889.153,-32.715,-25.879,-31.250,-36.133,0.000
1709291889.157,-28.320,-28.809,-35.645,-34.668,0.000
1709291889.161,-29.785,-34.180,-36.133,-29.785,0.000
1709291889.164,-40.527,-37.109,-34.180,-35.645,0.000
1709291889.168,-40.527,-35.645,-34.668,-37.109,0.000
1709291889.172,-34.180,-28.809,-36.621,-29.297,0.000
1709291889.176,-31.250,-32.715,-41.016,-36.621,0.000
1709291889.180,-21.973,-32.715,-38.086,-39.551,0.000
1709291889.184,-26.855,-26.367,-34.180,-40.039,0.000
1709291889.188,-41.016,-33.203,-37.109,-36.621,0.000
1709291889.192,-38.086,-33.691,-39.062,-27.344,0.000
1709291889.195,-29.785,-29.785,-41.504,-31.738,0.000
1709291889.199,-19.531,-26.367,-39.062,-26.367,0.000
1709291889.203,-23.438,-28.320,-38.086,-31.738,0.000
1709291889.207,-35.156,-32.715,-41.992,-41.016,0.000
1709291889.210,-35.156,-33.691,-41.016,-45.898,0.000
1709291889.214,-29.297,-35.645,-41.016,-45.410,0.000
1709291889.218,-27.832,-26.855,-41.016,-40.527,0.000
1709291889.222,-30.273,-26.855,-42.969,-44.922,0.000
1709291889.226,-35.156,-35.645,-42.969,-45.410,0.000
1709291889.230,-36.621,-31.738,-40.527,-44.922,0.000
1709291889.234,-30.273,-28.320,-39.062,-35.645,0.000
1709291889.238,-24.414,-33.203,-35.156,-32.227,0.000
1709291889.242,-26.367,-36.133,-35.156,-35.156,0.000
1709291889.246,-45.898,-39.551,-36.133,-37.598,0.000
1709291889.250,-52.734,-41.016,-35.645,-41.992,0.000
1709291889.253,-47.363,-40.039,-35.156,-39.551,0.000
1709291889.257,-41.016,-41.504,-33.691,-39.062,0.000
1709291889.261,-37.598,-39.551,-36.621,-36.133,0.000
1709291889.264,-36.133,-35.645,-38.574,-28.809,0.000
1709291889.268,-37.598,-34.668,-37.598,-29.785,0.000
1709291889.272,-46.875,-35.645,-37.109,-32.715,0.000
1709291889.276,-39.062,-33.691,-35.156,-21.973,0.000
1709291889.280,-34.180,-26.367,-28.809,-16.113,0.000
1709291889.284,-34.180,-27.832,-27.344,-23.926,0.000
1709291889.288,-26.367,-34.180,-27.832,-20.508,0.000
1709291889.292,-27.344,-31.250,-28.320,-4.395,0.000
1709291889.296,-29.297,-31.250,-31.250,-9.766,0.000
1709291889.300,-30.762,-34.180,-33.203,-19.531,0.000
1709291889.304,0.000,-34.180,-34.180,-19.043,0.000
1709291889.308,0.000,-37.109,-32.227,-19.043,0.000
1709291889.312,0.000,-37.598,-30.273,-16.602,0.000
1709291889.316,0.000,-33.203,-25.391,-21.973,0.000
1709291889.320,0.000,-33.203,-23.926,-25.391,0.000
1709291889.324,0.000,-34.668,-28.809,-25.879,0.000
1709291889.328,0.000,-36.621,-29.785,-25.879,0.000
1709291889.332,0.000,-40.039,-29.785,-24.902,0.000
1709291889.336,0.000,-34.668,-31.738,-26.855,0.000
1709291889.339,0.000,-33.691,-30.273,-27.344,0.000
1709291889.343,0.000,-34.180,-27.832,-29.785,0.000
1709291889.347,0.000,-33.691,-32.227,-29.785,0.000
1709291889.352,-35.645,-39.062,-34.668,-29.785,0.000
1709291889.356,-28.809,-39.062,-29.297,-27.344,0.000
1709291889.360,-22.949,-41.016,-29.297,-28.320,0.000
1709291889.363,-25.879,-39.551,-27.832,-34.668,0.000
1709291889.367,-33.203,-32.227,-24.902,-34.180,0.000
1709291889.371,-34.180,-29.785,-24.902,-31.250,0.000
1709291889.375,-32.715,-29.785,-23.926,-28.809,0.000
1709291889.379,-28.809,-33.691,-34.180,-28.809,0.000
1709291889.383,-27.832,-39.551,-40.039,-25.879,0.000
1709291889.387,-43.945,-40.039,-41.016,-25.391,0.000
1709291889.391,-38.574,-27.832,-40.039,-27.344,0.000
1709291889.395,-20.996,-25.879,-33.203,-20.996,0.000
1709291889.399,-14.648,-29.297,-34.668,-16.113,0.000
1709291889.403,-10.742,-27.344,-36.621,-26.367,0.000
1709291889.407,-18.066,-30.273,-34.668,-32.227,0.000
1709291889.411,-31.738,-31.738,-37.598,-29.785,0.000
1709291889.414,-30.273,-36.133,-37.598,-34.180,0.000
1709291889.418,-26.855,-36.621,-36.133,-36.621,0.000
1709291889.422,-33.203,-32.227,-35.156,-36.133,0.000
1709291889.426,-33.691,-34.668,-35.645,-43.945,0.000
1709291889.430,-42.480,-35.156,-38.574,-39.551,0.000
1709291889.434,-51.270,-37.598,-37.598,-31.738,0.000
1709291889.438,-31.250,-37.109,-40.039,-36.621,0.000
1709291889.442,-20.996,-29.297,-41.504,-31.250,0.000
1709291889.446,-32.715,-29.297,-36.133,-30.762,0.000
1709291889.450,-37.598,-27.344,-35.156,-35.156,0.000
1709291889.453,-32.227,-24.902,-37.598,-29.785,0.000
1709291889.457,-26.855,-30.762,-39.551,-25.879,0.000
1709291889.461,-26.367,-31.738,-39.062,-25.879,0.000
1709291889.465,-33.203,-30.273,-40.039,-25.879,0.000
1709291889.469,-32.227,-29.297,-39.062,-28.320,0.000
1709291889.473,-31.738,-33.691,-39.062,-24.414,0.000
1709291889.477,-25.879,-36.621,-39.551,-20.996,0.000
1709291889.481,-20.020,-28.320,-33.691,-28.809,0.000
1709291889.485,-24.414,-24.902,-26.367,-29.785,0.000
1709291889.489,-32.715,-29.785,-31.738,-30.273,0.000
1709291889.492,-36.621,-29.785,-41.992,-28.320,0.000
1709291889.496,-31.738,-29.785,-38.086,-27.832,0.000
1709291889.500,-31.738,-26.855,-34.668,-32.227,0.000
1709291889.504,-36.133,-20.996,-36.621,-30.273,0.000
1709291889.508,-37.109,-28.320,-36.133,-28.320,0.000
1709291889.512,-32.227,-28.809,-34.668,-22.461,0.000
1709291889.516,-25.879,-26.855,-33.203,-14.648,0.000
1709291889.520,-18.066,-24.414,-29.785,-2.930,0.000
1709291889.524,-19.531,-21.973,-29.297,-4.395,0.000
1709291889.528,-30.273,-24.902,-36.133,-15.625,0.000
1709291889.531,-39.551,-27.832,-39.551,-23.926,0.000
1709291889.535,-33.203,-32.715,-39.062,-30.762,0.000
1709291889.539,-24.902,-28.809,-38.086,-32.227,0.000
1709291889.543,-27.344,-25.879,-32.227,-28.320,0.000
1709291889.547,-31.250,-29.785,-29.297,-25.391,0.000
1709291889.551,-36.621,-31.250,-32.227,-32.227,0.000
1709291889.554,-27.344,-25.879,-31.738,-24.902,0.000
1709291889.558,-23.926,-25.391,-32.227,-24.414,0.000
1709291889.562,-25.879,-28.320,-32.227,-34.180,0.000
1709291889.566,-23.926,-29.297,-30.762,-25.879,0.000
1709291889.570,-33.203,-29.297,-35.156,-23.438,0.000
1709291889.574,-32.227,-29.297,-36.133,-21.973,0.000
1709291889.578,-29.785,-29.297,-30.273,-26.367,0.000
1709291889.582,-33.691,-30.273,-31.738,-36.621,0.000
1709291889.585,-37.598,-32.715,-30.762,-31.250,0.000
1709291889.589,-35.156,-33.691,-29.785,-29.297,0.000
1709291889.593,-27.344,-29.785,-33.691,-27.344,0.000
1709291889.597,-22.461,-23.926,-31.250,-26.855,0.000
1709291889.601,-28.320,-25.391,-36.133,-38.574,0.000
1709291889.605,-34.180,-26.367,-38.086,-35.645,0.000
1709291889.609,-29.297,-29.297,-31.738,-26.367,0.000
1709291889.613,-22.949,-25.391,-31.738,-27.832,0.000
1709291889.616,-29.297,-20.508,-36.133,-37.598,0.000
1709291889.620,-23.926,-17.090,-35.156,-38.574,0.000
1709291889.624,-22.461,-18.555,-30.762,-30.273,0.000
1709291889.628,-33.691,-21.973,-33.691,-33.203,0.000
1709291889.631,-33.203,-19.531,-38.574,-35.645,0.000
1709291889.635,-19.043,-19.531,-33.691,-20.996,0.000
1709291889.639,-16.113,-20.020,-30.273,-19.043,0.000
1709291889.643,-28.809,-19.531,-31.250,-28.809,0.000
1709291889.647,-34.180,-20.020,-31.738,-29.785,0.000
1709291889.651,-31.250,-24.414,-29.297,-28.320,0.000
1709291889.655,-24.902,-27.832,-33.203,-23.926,0.000
1709291889.659,-15.137,-24.902,-34.180,-27.344,0.000
1709291889.663,-11.719,-24.902,-28.320,-23.926,0.000
1709291889.667,-20.508,-24.414,-28.320,-19.043,0.000
1709291889.670,-24.902,-22.949,-28.809,-25.879,0.000
1709291889.674,-25.879,-22.949,-29.297,-27.832,0.000
1709291889.679,-17.578,-23.926,-30.762,-20.508,0.000
1709291889.683,-24.902,-25.879,-28.320,-19.043,0.000
1709291889.687,-41.016,-25.879,-27.832,-26.367,0.000
1709291889.691,-32.227,-26.367,-28.809,-29.785,0.000
1709291889.695,-18.555,-24.414,-30.762,-22.949,0.000
1709291889.699,-12.695,-28.320,-32.715,-26.367,0.000
1709291889.702,-20.020,-29.785,-33.691,-33.203,0.000
1709291889.706,-31.738,-26.855,-34.668,-35.645,0.000
1709291889.710,-34.180,-31.250,-35.156,-38.574,0.000
1709291889.714,-30.273,-30.762,-34.180,-25.391,0.000
1709291889.718,-20.508,-26.855,-37.598,-20.996,0.000
1709291889.722,-19.531,-28.320,-39.062,-27.344,0.000
1709291889.726,-24.414,-30.762,-31.738,-34.668,0.000
1709291889.730,-32.715,-28.809,-32.227,-43.945,0.000
1709291889.734,-24.902,-29.785,-36.621,-40.527,0.000
1709291889.738,-14.160,-29.297,-32.715,-34.180,0.000
1709291889.742,-27.344,-28.320,-30.762,-32.227,0.000
1709291889.746,-31.738,-26.855,-31.738,-29.785,0.000
1709291889.750,-28.320,-30.273,-33.203,-27.832,0.000
1709291889.754,-18.555,-32.227,-29.297,-25.879,0.000
1709291889.758,-10.254,-32.227,-29.785,-24.902,0.000
1709291889.762,-12.207,-32.227,-29.297,-34.668,0.000
1709291889.765,-18.555,-24.414,-30.273,-47.363,0.000
1709291889.769,-31.250,-23.926,-33.691,-48.340,0.000
1709291889.774,-41.504,-19.043,-29.785,-46.875,0.000
1709291889.777,-33.691,-18.555,-26.855,-42.969,0.000
1709291889.781,-22.461,-20.508,-31.250,-38.086,0.000
1709291889.785,-16.113,-15.625,-31.250,-35.156,0.000
1709291889.789,-31.250,-20.996,-32.227,-41.016,0.000
1709291889.793,-38.086,-23.438,-34.668,-34.180,0.000
1709291889.797,-20.996,-21.484,-33.691,-26.367,0.000
1709291889.801,-15.625,-21.973,-33.691,-35.156,0.000
1709291889.805,-22.461,-23.926,-39.062,-38.086,0.000
1709291889.809,-31.250,-28.320,-41.504,-37.598,0.000
1709291889.813,-35.156,-25.391,-36.621,-36.621,0.000
1709291889.816,-27.344,-19.043,-32.227,-32.227,0.000
1709291889.820,-19.043,-18.066,-36.133,-31.738,0.000
1709291889.824,-21.484,-17.578,-35.645,-36.621,0.000
1709291889.828,-29.297,-20.020,-33.691,-39.062,0.000
1709291889.832,-37.598,-24.414,-34.668,-37.109,0.000
1709291889.836,-29.297,-23.926,-34.180,-36.621,0.000
1709291889.840,-25.391,-27.832,-38.086,-35.156,0.000
1709291889.844,-24.902,-30.762,-41.016,-29.297,0.000
1709291889.848,-25.879,-29.297,-36.133,-15.625,0.000
1709291889.852,-23.438,-21.973,-31.250,-8.301,0.000
1709291889.856,-19.531,-13.184,-27.832,-16.113,0.000
1709291889.859,-22.461,-19.531,-29.297,-19.531,0.000
1709291889.863,-24.414,-27.344,-33.203,-15.625,0.000
1709291889.867,-27.832,-27.832,-28.809,-9.277,0.000
1709291889.871,-31.250,-24.902,-23.926,-10.254,0.000
1709291889.875,-27.344,-23.438,-23.926,-8.301,0.000
1709291889.879,-18.555,-22.949,-24.902,-10.254,0.000
1709291889.883,-24.414,-24.902,-32.715,-23.926,0.000
1709291889.887,-37.598,-23.926,-36.621,-25.391,0.000
1709291889.891,-38.086,-22.949,-34.668,-25.391,0.000
1709291889.894,-39.062,-22.461,-37.598,-19.043,0.000
1709291889.898,-31.250,-19.043,-34.668,-8.301,0.000
1709291889.902,-20.996,-20.996,-28.809,-20.996,0.000
1709291889.906,-28.320,-23.438,-30.273,-35.645,0.000
1709291889.910,-28.320,-24.414,-31.738,-34.180,0.000
1709291889.914,-22.949,-21.973,-31.738,-31.738,0.000
1709291889.918,-27.344,-23.926,-36.621,-29.785,0.000
1709291889.921,-34.668,-27.832,-36.133,-29.297,0.000
1709291889.925,-36.621,-25.391,-33.203,-33.691,0.000
1709291889.929,-29.785,-22.949,-34.180,-35.645,0.000
1709291889.933,-22.461,-23.926,-33.203,-34.180,0.000
1709291889.937,-21.973,-26.855,-32.715,-26.367,0.000
1709291889.941,-23.926,-26.367,-33.691,-19.043,0.000
1709291889.945,-34.180,-23.926,-34.180,-34.180,0.000
1709291889.949,-47.363,-26.855,-34.180,-35.156,0.000
1709291889.953,-41.504,-28.320,-35.645,-26.367,0.000
1709291889.957,-27.832,-24.902,-31.738,-26.367,0.000
1709291889.960,-28.809,-27.344,-29.297,-30.273,0.000
1709291889.964,-39.551,-29.785,-34.180,-33.203,0.000
1709291889.968,-50.781,-29.297,-41.504,-27.344,0.000
1709291889.972,-51.758,-28.320,-42.969,-27.344,0.000
1709291889.976,-36.621,-26.367,-41.016,-25.879,0.000
1709291889.979,-34.180,-29.785,-50.293,-40.039,0.000
1709291889.983,-27.344,-25.391,-55.664,-25.879,0.000
1709291889.987,-20.508,-25.391,-33.203,3.906,0.000
1709291889.991,-40.527,-35.156,-15.625,-10.254,0.000
1709291889.995,-50.781,-38.574,-25.879,-32.715,0.000
1709291889.999,-46.387,-40.527,-27.832,-39.062,0.000
1709291890.003,-48.828,-42.969,-25.879,-38.574,0.000
1709291890.006,-52.734,-45.410,-34.180,-35.645,0.000
1709291890.010,-48.828,-47.852,-35.156,-24.414,0.000
1709291890.014,-51.758,-48.340,-32.715,-28.809,0.000
1709291890.018,-43.457,-44.434,-28.809,-29.785,0.000
1709291890.022,-29.785,-39.551,-24.414,-27.832,0.000
1709291890.026,-29.785,-39.062,-25.879,-22.949,0.000
1709291890.030,-36.621,-38.086,-28.320,-17.578,0.000
1709291890.033,-27.832,-32.227,-29.785,-23.438,0.000
1709291890.037,-15.625,-33.203,-29.297,-24.414,0.000
1709291890.041,-23.926,-35.645,-27.832,-20.508,0.000
1709291890.045,-28.320,-35.156,-31.250,-18.555,0.000
1709291890.049,-25.391,-37.598,-30.273,-15.625,0.000
1709291890.054,-22.461,-37.109,-21.973,-11.719,0.000
1709291890.058,-17.090,-35.645,-20.996,-18.066,0.000
1709291890.062,-16.113,-35.156,-25.391,-25.391,0.000
1709291890.066,-23.438,-33.203,-25.391,-25.879,0.000
1709291890.070,-28.809,-33.691,-20.508,-17.578,0.000
1709291890.073,-28.809,-35.645,-20.996,-19.043,0.000
1709291890.077,-26.855,-32.715,-29.297,-21.973,0.000
1709291890.081,-25.391,-28.320,-29.297,-20.508,0.000
1709291890.085,-34.180,-31.738,-29.785,-25.879,0.000
1709291890.089,-40.039,-33.203,-30.273,-14.648,0.000
1709291890.093,-36.133,-32.227,-35.156,-16.113,0.000
1709291890.097,-33.691,-36.133,-34.180,-29.785,0.000
1709291890.101,-30.762,-33.203,-31.738,-25.879,0.000
1709291890.105,-30.762,-33.203,-36.621,-27.832,0.000
1709291890.109,-28.320,-34.668,-35.645,-24.902,0.000
1709291890.113,-22.949,-28.809,-34.180,-18.555,0.000
1709291890.117,-14.648,-29.297,-29.785,-13.184,0.000
1709291890.121,-12.207,-34.180,-31.250,-11.230,0.000
1709291890.125,-20.508,-33.203,-31.250,-14.648,0.000
1709291890.129,-28.320,-31.738,-26.367,-13.672,0.000
1709291890.133,-33.203,-34.668,-31.738,-17.090,0.000
1709291890.136,-26.367,-34.180,-28.809,-12.207,0.000
1709291890.140,-14.160,-30.273,-25.391,-6.348,0.000
1709291890.144,-18.066,-33.203,-27.344,-15.137,0.000
1709291890.148,0.000,-30.273,-25.879,-22.949,0.000
1709291890.152,0.000,-32.227,-27.344,-24.414,0.000
1709291890.156,0.000,-33.691,-36.621,-26.367,0.000
1709291890.160,0.000,-28.809,-34.668,-19.043,0.000
1709291890.164,0.000,-28.809,-29.785,-25.391,0.000
1709291890.168,0.000,-27.832,-33.691,-34.668,0.000
1709291890.172,0.000,-32.227,-34.180,-26.855,0.000
1709291890.176,0.000,-33.203,-34.180,-25.879,0.000
1709291890.180,0.000,-30.762,-37.109,-19.531,0.000
1709291890.184,0.000,-33.203,-37.598,-20.020,0.000
1709291890.188,0.000,-36.621,-38.574,-31.250,0.000
1709291890.191,0.000,-33.203,-36.621,-28.320,0.000
1709291890.194,-25.879,-33.691,-33.203,0.000,0.000
1709291890.198,-31.738,-33.203,-33.691,0.000,0.000
1709291890.202,-35.645,-32.715,-36.621,0.000,0.000
1709291890.206,-24.414,-34.180,-34.668,0.000,0.000
1709291890.210,-25.879,-29.297,-32.227,0.000,0.000
1709291890.214,-38.086,-30.273,-35.645,0.000,0.000
1709291890.218,-37.598,-34.180,-34.180,0.000,0.000
1709291890.221,-31.738,-34.180,-29.785,0.000,0.000
1709291890.225,-21.973,-28.320,-29.297,0.000,0.000
1709291890.229,-23.926,-28.320,-33.203,0.000,0.000
1709291890.233,-35.156,-32.227,-34.180,0.000,0.000
1709291890.237,-40.039,-27.344,-28.809,0.000,0.000
1709291890.241,-32.715,-30.762,-30.273,-30.762,0.000
1709291890.245,-37.109,-34.180,-30.762,-39.062,0.000
1709291890.249,-41.016,-28.320,-26.367,-36.621,0.000
1709291890.253,-37.598,-28.320,-25.391,-36.133,0.000
1709291890.257,-29.785,-29.785,-31.738,-34.668,0.000
1709291890.260,-33.203,-27.832,-29.785,-30.762,0.000
1709291890.264,-36.133,-26.855,-26.367,-30.273,0.000
1709291890.268,-24.414,-22.949,-26.855,-15.137,0.000
1709291890.272,-29.785,-18.066,-26.367,-21.484,0.000
1709291890.276,-29.297,-13.184,-31.250,-44.434,0.000
1709291890.280,-28.809,-16.113,-31.738,-36.133,0.000
1709291890.284,-33.691,-24.414,-35.156,-29.297,0.000
1709291890.288,0.000,-29.297,-38.086,-35.645,0.000
1709291890.292,0.000,-27.344,-30.762,-30.762,0.000
1709291890.295,0.000,-20.996,-24.902,-22.461,0.000
1709291890.299,0.000,-25.879,-28.320,-20.508,0.000
1709291890.303,0.000,-29.785,-31.738,-26.367,0.000
1709291890.307,0.000,-25.879,-28.809,-26.367,0.000
1709291890.311,0.000,-30.762,-28.809,-16.113,0.000
1709291890.315,0.000,-27.344,-33.203,-9.277,0.000
1709291890.319,0.000,-19.531,-33.691,-18.555,0.000
1709291890.323,0.000,-14.160,-30.273,-20.020,0.000
1709291890.327,0.000,-12.695,-33.691,-19.043,0.000
1709291890.331,0.000,-23.438,-37.109,-26.855,0.000
1709291890.334,-27.832,-25.879,-36.133,-25.879,0.000
1709291890.338,-16.602,-18.066,-38.574,-27.344,0.000
1709291890.342,-18.066,-14.160,-39.062,-29.785,0.000
1709291890.346,-23.926,-10.254,-35.645,-29.785,0.000
1709291890.350,-26.855,-13.672,-40.527,-38.086,0.000
1709291890.354,-27.344,-18.066,-37.598,-42.969,0.000
1709291890.358,-27.344,-18.555,-31.250,-32.227,0.000
1709291890.361,-24.902,-17.090,-34.180,-26.855,0.000
1709291890.365,-27.832,-14.648,-33.691,-32.715,0.000
1709291890.369,-33.691,-17.578,-37.109,-33.691,0.000
1709291890.373,-26.367,-18.555,-37.598,-30.762,0.000
1709291890.377,-19.043,-12.207,-38.086,-30.762,0.000
1709291890.380,-22.949,-17.090,-42.480,-34.668,0.000
1709291890.384,-31.250,-25.391,-41.504,-33.203,0.000
1709291890.388,-29.785,-25.879,-43.945,-29.297,0.000
1709291890.392,-23.926,-25.879,-45.898,-25.391,0.000
1709291890.396,-13.672,-26.855,-47.852,-29.297,0.000
1709291890.400,-9.766,-23.438,-49.316,-30.273,0.000
1709291890.404,-33.691,-21.484,-50.293,-25.879,0.000
1709291890.408,-35.156,-31.738,-49.805,-29.297,0.000
1709291890.412,-13.184,-27.344,-42.480,-21.973,0.000
1709291890.416,-5.371,-23.438,-42.969,-17.578,0.000
1709291890.419,-9.277,-24.902,-41.504,-21.484,0.000
1709291890.423,-22.461,-21.973,-36.621,-23.438,0.000
1709291890.428,-29.297,-22.949,-37.598,-24.902,0.000
1709291890.432,-21.973,-24.414,-37.598,-17.090,0.000
1709291890.436,-11.230,-26.855,-36.621,-27.832,0.000
1709291890.440,-8.789,-33.691,-36.621,-28.809,0.000
1709291890.444,-14.160,-30.273,-31.738,-12.207,0.000
1709291890.448,-21.973,-27.344,-30.273,-17.578,0.000
1709291890.452,-23.438,-30.273,-37.598,-16.602,0.000
1709291890.455,-16.602,-30.273,-35.645,-12.695,0.000
1709291890.459,-15.137,-28.809,-33.691,-14.160,0.000
1709291890.463,-18.555,-23.926,-37.598,-7.324,0.000
1709291890.467,-18.555,-23.438,-34.668,-15.625,0.000
1709291890.471,-19.531,-24.902,-33.691,-26.855,0.000
1709291890.476,-22.949,-26.855,-32.715,-24.414,0.000
1709291890.479,-20.508,-25.879,-31.738,-23.438,0.000
1709291890.483,-25.879,-23.438,-35.645,-23.926,0.000
1709291890.487,-31.738,-27.344,-31.250,-20.996,0.000
1709291890.491,-24.414,-28.809,-28.809,-23.438,0.000
1709291890.495,-19.043,-25.879,-29.297,-24.414,0.000
1709291890.499,-18.555,-30.273,-34.668,-30.762,0.000
1709291890.503,-20.508,-33.691,-38.574,-33.203,0.000
1709291890.507,-27.832,-33.203,-34.180,-21.973,0.000
1709291890.511,-29.297,-36.133,-34.180,-18.066,0.000
1709291890.515,-21.973,-32.227,-35.645,-29.297,0.000
1709291890.518,-17.578,-26.367,-35.645,-34.668,0.000
1709291890.523,-26.855,-27.344,-36.133,-37.109,0.000
1709291890.527,-33.691,-25.879,-33.691,-35.156,0.000
1709291890.530,-35.156,-20.508,-32.715,-36.133,0.000
1709291890.534,-28.809,-26.855,-36.133,-40.039,0.000
1709291890.538,-21.484,-27.832,-38.086,-40.039,0.000
1709291890.542,-23.926,-23.438,-42.480,-43.945,0.000
1709291890.546,-38.086,-28.320,-44.922,-38.086,0.000
1709291890.550,-43.945,-25.391,-40.527,-31.250,0.000
1709291890.554,-29.785,-22.461,-40.039,-20.020,0.000
1709291890.558,-21.484,-24.414,-42.969,-19.043,0.000
1709291890.562,-30.273,-23.926,-45.410,-29.297,0.000
1709291890.566,-36.133,-23.926,-38.574,-32.227,0.000
1709291890.570,-35.645,-26.367,-39.551,-35.645,0.000
1709291890.574,-32.227,-31.738,-48.828,-32.227,0.000
1709291890.578,-24.902,-34.668,-47.852,-30.273,0.000
1709291890.582,-24.414,-35.156,-44.434,-32.715,0.000
1709291890.586,-37.598,-34.668,-45.410,-33.203,0.000
1709291890.589,-47.852,-35.645,-44.434,-29.785,0.000
1709291890.593,-39.551,-30.762,-43.945,-26.855,0.000
1709291890.597,-26.367,-26.367,-44.922,-23.926,0.000
1709291890.601,-30.762,-31.250,-41.504,-25.879,0.000
1709291890.605,-41.504,-30.273,-43.457,-38.574,0.000
1709291890.609,-38.574,-31.738,-47.852,-44.922,0.000
1709291890.613,-36.133,-32.715,-42.480,-40.039,0.000
1709291890.617,-36.621,-30.762,-37.109,-36.133,0.000
1709291890.621,-34.180,-26.855,-35.645,-37.109,0.000
1709291890.625,-35.645,-22.949,-36.621,-34.180,0.000
1709291890.628,-45.898,-25.391,-41.504,-32.227,0.000
1709291890.632,-41.992,-25.879,-38.574,-34.668,0.000
1709291890.636,-32.227,-20.508,-34.180,-27.832,0.000
1709291890.640,-31.250,-24.414,-34.668,-33.203,0.000
1709291890.644,-26.855,-28.320,-37.109,-29.785,0.000
1709291890.648,-27.344,-27.344,-43.457,-27.344,0.000
1709291890.652,-37.598,-23.438,-40.039,-31.250,0.000
1709291890.656,-29.297,-25.879,-32.715,-23.926,0.000
1709291890.660,-17.090,-26.367,-35.645,-21.973,0.000
1709291890.663,-25.391,-22.949,-37.598,-21.973,0.000
1709291890.667,-27.344,-19.531,-32.715,-17.090,0.000
1709291890.671,-23.438,-20.996,-31.250,-11.230,0.000
1709291890.675,-13.672,-20.996,-26.367,-10.742,0.000
1709291890.679,-12.207,-22.461,-25.391,-11.719,0.000
1709291890.683,-24.902,-28.320,-25.879,-21.484,0.000
1709291890.687,-33.203,-28.320,-25.391,-28.320,0.000
1709291890.691,-33.691,-28.320,-27.832,-10.254,0.000
1709291890.694,-23.926,-21.484,-28.809,-9.766,0.000
1709291890.698,-6.836,-17.578,-29.297,-13.184,0.000
1709291890.702,-2.441,-21.484,-36.133,-6.348,0.000
1709291890.706,-25.879,-24.414,-42.969,-21.973,0.000
1709291890.710,-35.156,-26.367,-41.016,-28.809,0.000
1709291890.714,-24.414,-26.855,-34.668,-22.949,0.000
1709291890.717,-27.832,-28.809,-33.691,-24.414,0.000
1709291890.721,-32.227,-31.738,-35.645,-30.273,0.000
1709291890.725,-30.762,-27.832,-38.086,-36.621,0.000
1709291890.729,-32.227,-27.832,-35.156,-39.062,0.000
1709291890.733,-25.879,-30.273,-30.273,-25.391,0.000
1709291890.737,-11.719,-30.273,-35.156,-18.555,0.000
1709291890.741,-16.113,-26.855,-42.480,-30.273,0.000
1709291890.745,-30.273,-28.809,-41.992,-34.668,0.000
1709291890.749,-36.133,-36.133,-41.992,-32.227,0.000
1709291890.753,-26.367,-33.691,-41.016,-27.344,0.000
1709291890.756,-15.625,-28.809,-39.551,-25.391,0.000
1709291890.760,-14.648,-32.227,-40.527,-26.367,0.000
1709291890.764,-25.879,-35.645,-43.945,-33.691,0.000
1709291890.768,-35.645,-31.250,-49.316,-31.738,0.000
1709291890.771,-27.344,-28.809,-45.410,-22.461,0.000
1709291890.775,-16.113,-28.320,-41.504,-25.879,0.000
1709291890.779,-15.625,-29.297,-42.480,-32.227,0.000
1709291890.783,-19.531,-25.879,-41.016,-31.738,0.000
1709291890.787,-17.578,-21.973,-40.527,-40.527,0.000
1709291890.791,-18.066,-24.414,-41.016,-34.180,0.000
1709291890.795,-26.855,-30.762,-41.504,-18.066,0.000
1709291890.799,-25.391,-33.203,-40.527,-30.273,0.000
1709291890.803,-21.484,-31.738,-32.227,-34.180,0.000
1709291890.807,-33.203,-31.738,-30.762,-32.227,0.000
1709291890.811,-23.438,-31.738,-31.250,-30.273,0.000
1709291890.815,-8.301,-28.809,-34.668,-22.461,0.000
1709291890.819,-10.742,-30.762,-38.574,-25.391,0.000
1709291890.823,-23.438,-29.297,-36.133,-26.367,0.000
1709291890.827,-37.109,-26.855,-39.062,-19.531,0.000
1709291890.831,-32.227,-26.367,-37.598,-17.578,0.000
1709291890.835,-15.625,-23.926,-35.645,-16.602,0.000
1709291890.839,-13.184,-23.926,-40.039,-14.160,0.000
1709291890.843,-15.137,-23.926,-41.504,-20.020,0.000
1709291890.846,-24.414,-27.344,-38.574,-28.809,0.000
1709291890.851,-29.297,-26.855,-35.156,-24.902,0.000
1709291890.855,-18.555,-26.855,-34.180,-22.461,0.000
1709291890.859,-15.137,-31.250,-34.668,-26.855,0.000
1709291890.863,-21.484,-31.738,-36.133,-22.461,0.000
1709291890.866,-27.344,-28.809,-37.598,-23.926,0.000
1709291890.870,-25.879,-27.344,-33.691,-20.996,0.000
1709291890.874,-27.344,-35.156,-36.133,-28.320,0.000
1709291890.878,-31.250,-31.250,-40.039,-33.691,0.000
1709291890.882,-31.738,-25.879,-40.039,-20.020,0.000
1709291890.886,-33.203,-27.344,-41.016,-16.602,0.000
1709291890.890,-30.273,-26.367,-39.551,-23.926,0.000
1709291890.894,-22.949,-24.414,-36.621,-20.508,0.000
1709291890.898,-22.949,-25.391,-39.551,-20.020,0.000
1709291890.902,-19.043,-24.902,-41.504,-21.973,0.000
1709291890.906,-24.414,-20.020,-39.551,-21.484,0.000
1709291890.910,-30.273,-23.926,-41.504,-28.320,0.000
1709291890.914,-25.879,-25.879,-38.086,-25.879,0.000
1709291890.918,-22.461,-22.461,-33.203,-8.301,0.000
1709291890.921,-28.809,-26.855,-33.691,-12.695,0.000
1709291890.925,-36.621,-26.855,-34.180,-16.602,0.000
1709291890.929,-39.551,-27.832,-35.156,-6.348,0.000
1709291890.933,-29.785,-23.926,-34.180,-7.812,0.000
1709291890.937,-12.207,-20.508,-30.762,-18.555,0.000
1709291890.941,-18.555,-26.855,-31.738,-25.391,0.000
1709291890.945,-28.320,-26.367,-35.156,-23.438,0.000
1709291890.949,-26.855,-23.926,-34.180,-27.344,0.000
1709291890.953,-26.855,-26.855,-41.504,-38.574,0.000
1709291890.957,-26.855,-34.180,-40.527,-34.668,0.000
1709291890.961,-20.996,-35.645,-34.668,-26.367,0.000
1709291890.964,-27.832,-35.156,-39.551,-34.180,0.000
1709291890.968,-39.551,-34.668,-43.457,-42.969,0.000
1709291890.972,-34.668,-33.691,-37.109,-29.297,0.000
1709291890.976,-20.508,-30.273,-32.715,-15.137,0.000
1709291890.980,-18.066,-27.344,-41.992,-24.902,0.000
1709291890.984,-24.902,-30.273,-44.922,-32.227,0.000
1709291890.988,-39.551,-33.691,-43.457,-28.320,0.000
1709291890.992,-46.387,-31.738,-42.480,-27.344,0.000
1709291890.996,-36.133,-26.367,-42.969,-30.273,0.000
1709291890.999,-33.203,-28.809,-40.039,-34.180,0.000
1709291891.003,-34.180,-26.367,-39.551,-40.527,0.000
1709291891.007,-38.574,-23.926,-41.992,-40.039,0.000
1709291891.011,-35.645,-20.020,-39.062,-32.227,0.000
1709291891.015,-30.762,-17.578,-35.645,-31.738,0.000
1709291891.019,-19.531,-20.996,-29.785,-21.484,0.000
1709291891.023,-15.625,-22.949,-23.438,-16.602,0.000
1709291891.027,-26.367,-23.438,-32.715,-24.902,0.000
1709291891.031,-31.250,-19.043,-39.062,-33.691,0.000
1709291891.035,-37.598,-20.508,-37.598,-46.387,0.000
1709291891.038,-35.156,-23.438,-42.480,-41.504,0.000
1709291891.042,-25.391,-21.484,-39.551,-34.668,0.000
1709291891.046,-25.391,-17.578,-31.738,-30.762,0.000
1709291891.050,-37.598,-12.695,-29.297,-26.855,0.000
1709291891.054,-41.504,-16.602,-27.344,-28.809,0.000
1709291891.058,-30.273,-22.461,-24.414,-29.297,0.000
1709291891.062,-22.949,-25.879,-24.414,-21.973,0.000
1709291891.065,-19.531,-19.531,-25.879,-20.020,0.000
1709291891.069,-20.508,-12.207,-20.996,-19.043,0.000
1709291891.073,-18.555,-18.066,-23.926,-22.461,0.000
1709291891.077,-15.137,-19.531,-25.879,-27.344,0.000
1709291891.081,-18.066,-18.066,-23.438,-23.438,0.000
1709291891.085,0.000,-20.996,-22.949,-20.508,0.000
1709291891.089,0.000,-29.785,-24.414,-18.555,0.000
1709291891.092,0.000,-30.273,-28.809,-18.555,0.000
1709291891.096,0.000,-22.949,-31.250,-23.438,0.000
1709291891.100,0.000,-31.738,-28.320,-27.832,0.000
1709291891.104,0.000,-34.668,-27.344,-29.297,0.000
1709291891.108,0.000,-34.180,-35.645,-23.926,0.000
1709291891.112,0.000,-36.133,-34.180,-16.602,0.000
1709291891.116,0.000,-31.250,-29.297,-19.531,0.000
1709291891.120,0.000,-27.344,-26.855,-16.602,0.000
1709291891.124,0.000,-29.785,-28.320,-12.207,0.000
1709291891.128,0.000,-32.227,-29.785,-12.207,0.000
1709291891.131,-36.621,-29.297,-29.297,-16.113,0.000
1709291891.135,-33.691,-29.785,-32.227,-17.090,0.000
1709291891.139,-28.320,-30.762,-32.227,-16.602,0.000
1709291891.143,-32.227,-27.344,-33.203,-16.602,0.000
1709291891.147,-45.410,-26.367,-36.621,-25.879,0.000
1709291891.150,-44.434,-30.273,-37.598,-29.297,0.000
1709291891.154,-37.598,-31.738,-39.551,-30.273,0.000
1709291891.158,-29.785,-26.855,-39.062,-43.457,0.000
1709291891.162,-29.785,-29.297,-38.574,-45.410,0.000
1709291891.166,-40.527,-31.738,-41.016,-37.109,0.000
1709291891.170,-43.457,-30.762,-41.504,-31.250,0.000
1709291891.174,-34.180,-30.762,-44.434,-34.668,0.000
1709291891.179,-32.227,-27.832,-43.457,-45.898,0.000
1709291891.182,-30.273,-23.926,-36.621,-36.621,0.000
1709291891.186,-33.691,-27.832,-37.598,-30.273,0.000
1709291891.190,-40.527,-29.297,-40.527,-35.156,0.000
1709291891.194,-37.109,-26.367,-42.480,-32.715,0.000
1709291891.198,-25.391,-28.320,-44.922,-32.715,0.000
1709291891.202,-22.949,-30.273,-46.387,-28.809,0.000
1709291891.206,-29.297,-29.297,-42.969,-24.902,0.000
1709291891.210,-32.715,-35.645,-34.668,-25.391,0.000
1709291891.214,-29.785,-32.715,-32.227,-20.996,0.000
1709291891.218,-18.555,-27.344,-39.551,-21.484,0.000
1709291891.222,-20.020,-25.391,-34.668,-27.832,0.000
1709291891.226,-24.902,-22.949,-26.855,-23.438,0.000
1709291891.230,-24.902,-23.438,-28.320,-16.113,0.000
1709291891.234,-17.578,-21.973,-27.832,-14.160,0.000
1709291891.238,-13.672,-23.438,-31.738,-24.414,0.000
1709291891.242,-11.230,-25.879,-30.762,-26.855,0.000
1709291891.246,-19.043,-22.949,-30.762,-29.297,0.000
1709291891.250,-28.809,-21.973,-31.250,-32.227,0.000
1709291891.253,-21.484,-21.973,-27.344,-28.320,0.000
1709291891.257,-17.578,-28.809,-27.832,-24.414,0.000
1709291891.261,-20.996,-29.297,-27.832,-20.996,0.000
1709291891.265,-32.715,-32.227,-32.227,-31.738,0.000
1709291891.269,-42.969,-34.668,-35.645,-27.344,0.000
1709291891.274,-43.457,-27.344,0.000,0.000,0.000
1709291891.277,-35.645,-32.227,0.000,0.000,0.000
1709291891.281,-27.832,-32.715,0.000,0.000,0.000
1709291891.285,-29.297,-24.902,0.000,0.000,0.000
1709291891.289,-21.484,-24.902,0.000,0.000,0.000
1709291891.293,-11.719,-23.438,0.000,0.000,0.000
1709291891.297,-14.648,-20.996,0.000,0.000,0.000
1709291891.301,-13.184,-21.484,0.000,0.000,0.000
1709291891.305,-17.090,-15.625,0.000,0.000,0.000
1709291891.309,-22.949,-18.555,0.000,0.000,0.000
1709291891.313,-25.391,-30.273,0.000,0.000,0.000
1709291891.317,-24.902,-28.320,0.000,0.000,0.000
1709291891.320,-20.996,-29.785,-38.086,-32.227,0.000
1709291891.324,-22.949,-28.809,-41.016,-45.410,0.000
1709291891.328,-24.414,-22.949,-43.457,-39.551,0.000
1709291891.332,-24.414,-20.996,-41.992,-28.809,0.000
1709291891.336,-22.461,-23.926,-37.109,-23.926,0.000
1709291891.340,-27.832,-27.832,-31.250,-24.414,0.000
1709291891.344,-41.504,-32.227,-30.273,-40.527,0.000
1709291891.348,-48.340,-33.691,-36.621,-43.457,0.000
1709291891.352,-39.062,-27.832,-37.109,-20.996,0.000
1709291891.356,-25.391,-28.320,-39.551,-23.438,0.000
1709291891.360,-23.438,-32.715,-43.457,-34.668,0.000
1709291891.363,-25.391,-32.227,-35.645,-31.250,0.000
1709291891.369,-26.855,-30.273,-35.156,-28.320,0.000
1709291891.373,-27.832,-29.297,-36.621,-29.297,0.000
1709291891.377,-17.578,-27.344,-31.250,-19.043,0.000
1709291891.380,-11.719,-26.855,-32.715,-19.043,0.000
1709291891.384,-16.602,-26.367,-34.668,-26.855,0.000
1709291891.388,-28.320,-26.367,-36.621,-25.391,0.000
1709291891.392,-37.109,-28.320,-37.109,-24.414,0.000
1709291891.396,-32.715,-28.320,-38.574,-14.160,0.000
1709291891.400,-26.367,-25.879,-39.062,-9.766,0.000
1709291891.404,-24.902,-29.785,-41.016,-24.902,0.000
1709291891.408,-25.879,-31.250,-41.016,-30.273,0.000
1709291891.412,-29.297,-27.344,-34.180,-32.715,0.000
1709291891.415,-29.785,-21.973,-37.598,-32.227,0.000
1709291891.419,-28.320,-21.973,-41.504,-19.043,0.000
1709291891.423,-27.344,-33.691,-37.598,-23.926,0.000
1709291891.427,-33.691,-33.691,-36.133,-30.273,0.000
1709291891.431,-42.969,-31.250,-37.109,-28.320,0.000
1709291891.435,-42.480,-33.691,-39.062,-26.855,0.000
1709291891.439,-28.320,-37.598,-38.086,-24.414,0.000
1709291891.443,-23.926,-36.133,-34.668,-26.367,0.000
1709291891.447,-27.832,-34.668,-36.133,-27.344,0.000
1709291891.450,-29.785,-34.180,-33.691,-21.973,0.000
1709291891.454,-36.133,-32.715,-31.738,-12.207,0.000
1709291891.458,-41.504,-36.133,-37.598,-11.230,0.000
1709291891.462,-28.809,-33.691,-37.598,-19.531,0.000
1709291891.465,-25.391,-34.668,-32.715,-20.996,0.000
1709291891.469,-39.551,-34.668,-35.645,-21.484,0.000
1709291891.473,-41.504,-35.156,-38.086,-23.926,0.000
1709291891.477,-33.691,-40.039,-32.227,-20.996,0.000
1709291891.481,-23.926,-34.180,-31.738,-19.043,0.000
1709291891.485,-28.809,-34.668,-34.180,-20.508,0.000
1709291891.489,-33.691,-28.809,-34.180,-25.879,0.000
1709291891.493,-36.133,-22.949,-35.156,-25.879,0.000
1709291891.497,-31.250,-25.879,-33.691,-21.973,0.000
1709291891.501,-24.414,-24.902,-32.715,-31.250,0.000
1709291891.504,-30.273,-28.320,-32.227,-31.738,0.000
1709291891.508,-41.504,-29.785,-31.250,-27.832,0.000
1709291891.511,-31.738,-30.762,-30.273,-28.320,0.000
1709291891.515,-22.461,-25.879,-28.809,-25.879,0.000
1709291891.519,-30.273,-24.414,-30.762,-36.133,0.000
1709291891.523,-26.367,-31.738,-31.738,-39.551,0.000
1709291891.527,-24.414,-32.227,-27.344,-23.926,0.000
1709291891.531,-24.902,-31.738,-24.902,-15.137,0.000
1709291891.535,-20.020,-27.344,-30.273,-27.832,0.000
1709291891.539,-19.043,-28.809,-31.250,-33.691,0.000
1709291891.543,-22.461,-33.203,-30.273,-30.273,0.000
1709291891.547,-31.250,-36.621,-35.645,-29.297,0.000
1709291891.551,-33.691,-37.598,-38.086,-30.762,0.000
1709291891.555,-35.645,-37.598,-36.621,-29.297,0.000
1709291891.559,-44.922,-41.992,-38.574,-28.320,0.000
1709291891.563,-44.922,-43.945,-43.457,-30.762,0.000
1709291891.567,-40.527,-40.039,-40.527,-38.574,0.000
1709291891.571,-40.039,-39.062,-36.621,-35.156,0.000
1709291891.575,-29.297,-38.574,-35.645,-25.879,0.000
1709291891.578,-22.949,-35.645,-34.180,-22.949,0.000
1709291891.582,-28.809,-31.738,-41.992,-31.738,0.000
1709291891.586,-31.738,-24.902,-41.016,-34.180,0.000
1709291891.590,-30.273,-25.879,-33.691,-26.855,0.000
1709291891.594,-27.344,-31.738,-38.086,-27.832,0.000
1709291891.598,-22.461,-28.809,-36.133,-32.227,0.000
1709291891.602,-26.855,-28.320,-33.203,-28.809,0.000
1709291891.606,-36.133,-32.227,-41.016,-23.438,0.000
1709291891.610,-38.574,-35.156,-42.480,-26.367,0.000
1709291891.614,-41.016,-40.039,-37.598,-27.344,0.000
1709291891.618,-31.250,-39.062,-39.062,-22.461,0.000
1709291891.622,-23.438,-35.645,-40.527,-19.043,0.000
1709291891.626,-32.227,-33.691,-42.480,-27.344,0.000
1709291891.630,-34.180,-29.297,-43.457,-31.738,0.000
1709291891.633,-23.438,-31.738,-38.086,-21.973,0.000
1709291891.637,-26.855,-33.691,-37.109,-8.301,0.000
1709291891.641,-28.809,-32.227,-39.551,-16.113,0.000
1709291891.645,-28.320,-34.668,-38.086,-22.949,0.000
1709291891.649,-34.668,-35.645,-41.016,-18.066,0.000
1709291891.653,-36.133,-36.621,-41.992,-20.996,0.000
1709291891.657,-31.738,-34.668,-43.945,-21.973,0.000
1709291891.661,-26.367,-36.621,-43.945,-25.391,0.000
1709291891.665,-20.508,-39.062,-39.551,-23.438,0.000
1709291891.669,-29.785,-37.598,-38.574,-24.414,0.000
1709291891.673,-37.598,-40.527,-39.551,-31.738,0.000
1709291891.677,-28.809,-42.480,-40.039,-33.691,0.000
1709291891.680,-26.367,-41.016,-42.480,-27.344,0.000
1709291891.684,-31.738,-35.645,-42.480,-28.809,0.000
1709291891.688,-34.668,-31.738,-38.574,-36.621,0.000
1709291891.692,-39.551,-29.297,-39.551,-34.180,0.000
1709291891.696,-35.645,-28.809,-35.156,-24.414,0.000
1709291891.700,-20.996,-27.344,-34.668,-24.414,0.000
1709291891.704,-28.320,-25.879,-37.598,-34.668,0.000
1709291891.708,-39.551,-28.320,-35.156,-41.504,0.000
1709291891.712,-28.320,-25.391,-32.715,-33.691,0.000
1709291891.716,-18.066,-24.414,-33.691,-23.438,0.000
1709291891.719,-15.625,-21.484,-33.203,-19.043,0.000
1709291891.723,-12.695,-19.043,-33.203,-17.090,0.000
1709291891.727,-23.438,-22.949,-34.668,-22.949,0.000
1709291891.731,-23.926,-19.531,-36.621,-32.715,0.000
1709291891.735,-21.973,-20.508,-33.691,-31.250,0.000
1709291891.739,-33.203,-26.855,-32.715,-33.203,0.000
1709291891.743,-31.738,-26.367,-31.738,-37.109,0.000
1709291891.747,-25.391,-23.438,-29.297,-31.738,0.000
1709291891.751,-37.598,-28.320,-32.227,-33.203,0.000
1709291891.754,-44.922,-35.645,-41.504,-38.086,0.000
1709291891.758,-33.691,-33.691,-47.363,-41.504,0.000
1709291891.762,-32.227,-29.297,-43.457,-40.527,0.000
1709291891.766,-44.434,-29.297,-44.434,-43.945,0.000
1709291891.770,-37.109,-34.180,-47.852,-36.621,0.000
1709291891.774,-29.785,-37.598,-48.828,-32.715,0.000
1709291891.778,-25.391,-30.273,-41.504,-35.156,0.000
1709291891.782,-13.672,-25.879,-34.668,-29.297,0.000
1709291891.786,-28.320,-30.762,-41.016,-34.668,0.000
1709291891.789,-43.457,-33.691,-45.410,-33.203,0.000
1709291891.793,-32.227,-30.762,-37.598,-28.809,0.000
1709291891.797,-26.367,-27.344,-36.133,-29.297,0.000
1709291891.801,-29.785,-30.273,-40.039,-33.203,0.000
1709291891.805,-27.344,-27.832,-33.691,-32.715,0.000
1709291891.809,-27.832,-26.367,-31.250,-36.133,0.000
1709291891.813,-30.762,-31.738,-32.715,-32.227,0.000
1709291891.816,-33.691,-28.809,-29.297,-16.113,0.000
1709291891.820,-31.738,-26.367,-36.133,-28.809,0.000
1709291891.824,-35.156,-27.344,-39.062,-37.598,0.000
1709291891.828,-38.086,-27.832,-35.645,-28.320,0.000
1709291891.832,-35.645,-32.227,-37.109,-26.855,0.000
1709291891.835,-30.762,-30.762,-39.551,-32.715,0.000
1709291891.839,-25.391,-27.832,-39.062,-33.691,0.000
1709291891.843,-29.785,-30.273,-33.203,-34.180,0.000
1709291891.847,-37.598,-29.297,-33.203,-37.598,0.000
1709291891.851,-40.039,-28.320,-37.598,-32.715,0.000
1709291891.855,-34.668,-33.203,-36.133,-32.227,0.000
1709291891.859,-30.273,-37.598,-39.062,-27.832,0.000
1709291891.863,-33.691,-31.250,-41.992,-26.855,0.000
1709291891.867,-39.551,-28.809,-40.039,-40.039,0.000
1709291891.871,-41.016,-28.809,-36.133,-31.738,0.000
1709291891.874,-40.039,-26.367,-37.109,-21.484,0.000
1709291891.878,-40.527,-26.367,-39.062,-20.508,0.000
1709291891.882,-39.062,-25.391,-37.598,-25.391,0.000
1709291891.886,-41.992,-26.855,-35.645,-38.574,0.000
1709291891.889,-47.363,-30.762,-34.180,-42.969,0.000
1709291891.893,-40.039,-32.227,-36.133,-36.133,0.000
1709291891.897,-30.762,-33.203,-37.109,-29.785,0.000
1709291891.901,-26.367,-31.738,-33.691,-21.484,0.000
1709291891.905,-34.668,-30.273,-35.156,-25.879,0.000
1709291891.909,-46.387,-33.691,-38.086,-38.574,0.000
1709291891.913,-41.016,-30.273,-35.156,-30.273,0.000
1709291891.917,-32.715,-27.832,-29.785,-16.602,0.000
1709291891.921,-26.855,-34.180,-30.273,-20.996,0.000
1709291891.925,-36.621,-35.156,-32.227,-42.480,0.000
1709291891.929,-40.039,-33.691,-31.738,-44.434,0.000
1709291891.933,-33.203,-32.715,-37.109,-32.715,0.000
1709291891.937,-32.227,-35.156,-36.133,-28.320,0.000
1709291891.941,-31.250,-34.180,-34.180,-31.250,0.000
1709291891.945,-37.598,-33.203,-36.133,-37.109,0.000
1709291891.949,-45.898,-35.645,-37.109,-38.086,0.000
1709291891.953,-41.992,-37.109,-37.109,-38.574,0.000
1709291891.957,-35.645,-34.180,-35.645,-40.039,0.000
1709291891.961,-42.480,-32.227,-35.156,-37.598,0.000
1709291891.964,-52.734,-35.156,-32.715,-34.668,0.000
1709291891.968,-52.246,-36.133,-37.109,-41.016,0.000
1709291891.972,-42.480,-36.133,-41.504,-32.227,0.000
1709291891.977,-31.738,-36.133,-38.086,-28.320,0.000
1709291891.980,-28.809,-37.109,-34.668,-39.062,0.000
1709291891.984,-31.738,-35.645,-34.668,-34.668,0.000
1709291891.988,-37.598,-34.668,-34.180,-34.668,0.000
1709291891.992,-39.551,-39.062,-30.762,-30.762,0.000
1709291891.996,-37.109,-36.621,-29.297,-22.461,0.000
1709291892.000,-24.902,-34.180,-33.691,-24.902,0.000
1709291892.004,-31.738,-37.598,-36.133,-32.715,0.000
1709291892.008,-47.852,-40.039,-37.598,-26.855,0.000
1709291892.012,-42.480,-40.527,-36.133,-23.926,0.000
1709291892.016,-34.180,-35.156,-36.621,-33.691,0.000
1709291892.020,-29.297,-32.715,-38.086,-34.180,0.000
1709291892.024,-37.598,-27.344,-37.109,-27.832,0.000
1709291892.028,-43.945,-23.926,-34.668,-30.762,0.000
1709291892.031,-41.016,-31.250,-34.668,-33.691,0.000
1709291892.035,-31.250,-31.738,-31.738,-27.344,0.000
1709291892.039,-30.762,-29.785,-31.250,-31.738,0.000
1709291892.043,-28.809,-26.855,-33.203,-33.203,0.000
1709291892.047,-30.273,-24.902,-32.227,-28.809,0.000
1709291892.051,-43.945,-31.738,-32.715,-37.598,0.000
1709291892.055,-41.504,-31.250,-31.250,-27.344,0.000
1709291892.059,-29.297,-32.227,-34.180,-20.508,0.000
1709291892.063,-29.785,-33.691,-35.645,-33.691,0.000
1709291892.067,-34.180,-31.250,-32.715,-25.879,0.000
1709291892.071,-38.086,-34.180,-32.715,-22.461,0.000
1709291892.074,-32.715,-38.574,-36.621,-28.809,0.000
1709291892.078,-29.785,-39.551,-41.504,-24.902,0.000
1709291892.082,-28.320,-36.133,-42.969,-21.973,0.000
1709291892.086,-31.738,-35.156,-39.062,-25.391,0.000
1709291892.090,-43.457,-32.715,-35.156,-27.832,0.000
1709291892.094,-35.156,-31.738,-37.598,-35.645,0.000
1709291892.098,-26.367,-35.156,-41.016,-31.250,0.000
1709291892.102,-29.297,-37.598,-43.457,-22.949,0.000
1709291892.106,-28.320,-32.227,-41.992,-23.438,0.000
1709291892.110,-31.738,-28.809,-41.992,-27.832,0.000
1709291892.113,-33.203,-34.668,-41.992,-25.391,0.000
1709291892.117,-31.250,-32.715,-45.410,-25.879,0.000
1709291892.121,-22.949,-31.250,-42.480,-32.227,0.000
1709291892.125,-28.320,-33.203,-38.574,-34.180,0.000
1709291892.129,-35.156,-31.250,-38.086,-31.738,0.000
1709291892.133,-32.227,-33.203,-35.156,-22.949,0.000
1709291892.137,-38.574,-37.109,-35.156,-22.949,0.000
1709291892.141,-36.133,-36.621,-35.645,-23.926,0.000
1709291892.145,-26.367,-39.062,-33.691,-12.695,0.000
1709291892.148,-34.180,-41.016,-33.691,-16.602,0.000
1709291892.152,-41.504,-38.086,-33.203,-25.391,0.000
1709291892.156,-27.344,-37.598,-31.250,-22.461,0.000
1709291892.160,-23.438,-41.504,-29.785,-20.996,0.000
1709291892.164,-31.738,-41.992,-31.250,-18.555,0.000
1709291892.168,-33.203,-41.992,-33.203,-17.578,0.000
1709291892.171,-32.227,-36.133,-30.273,-18.555,0.000
1709291892.175,-28.809,-31.250,-30.762,-25.391,0.000
1709291892.179,-26.367,-30.273,-31.250,-30.273,0.000
1709291892.183,-30.273,-28.320,-33.203,-34.668,0.000
1709291892.187,-28.320,-26.855,-33.691,-30.273,0.000
1709291892.191,-28.320,-23.926,-34.180,-14.648,0.000
1709291892.195,-35.645,-27.344,-40.039,-24.414,0.000
1709291892.199,-30.273,-25.391,-37.109,-34.180,0.000
1709291892.203,-22.949,-20.508,-31.738,-29.297,0.000
1709291892.207,-25.391,-23.926,-35.156,-30.273,0.000
1709291892.210,-35.156,-27.832,-38.574,-32.715,0.000
1709291892.214,-28.809,-27.832,-35.156,-28.809,0.000
1709291892.218,-10.742,-21.484,-34.180,-26.367,0.000
1709291892.222,-20.020,-20.508,-36.133,-27.344,0.000
1709291892.226,-31.738,-25.391,-35.156,-29.297,0.000
1709291892.230,-28.320,-21.973,-35.156,-30.273,0.000
1709291892.233,-26.855,-25.879,-32.715,-19.043,0.000
1709291892.237,-26.855,-25.391,-31.738,-22.461,0.000
1709291892.241,-24.902,-19.531,-28.320,-20.020,0.000
1709291892.245,-25.879,-25.391,-31.250,-21.484,0.000
1709291892.249,-33.691,-28.809,-36.621,-31.738,0.000
1709291892.253,-28.809,-29.297,-31.738,-25.391,0.000
1709291892.256,-23.926,-28.320,-31.250,-24.902,0.000
1709291892.260,-27.832,-30.273,-33.691,-28.320,0.000
1709291892.264,-31.250,-29.297,-32.715,-32.227,0.000
1709291892.268,-36.621,-24.902,-37.598,-36.133,0.000
1709291892.272,-34.180,-26.367,-36.133,-25.879,0.000
1709291892.276,-25.879,-33.203,-35.645,-17.090,0.000
1709291892.280,-25.879,-30.762,-36.621,-19.043,0.000
1709291892.284,-32.227,-25.879,-33.203,-27.344,0.000
1709291892.287,-38.574,-25.879,-30.762,-32.227,0.000
1709291892.291,-39.551,-30.762,-27.832,-31.738,0.000
1709291892.295,-30.273,-31.738,-36.133,-30.762,0.000
1709291892.299,-32.227,-29.785,-41.016,-31.250,0.000
1709291892.304,-39.062,-29.785,-34.668,-34.180,0.000
1709291892.308,-37.109,-29.297,-32.715,-24.414,0.000
1709291892.312,-30.273,-27.344,-28.320,-16.113,0.000
1709291892.316,-20.996,-28.320,-30.273,-28.809,0.000
1709291892.319,-18.555,-25.879,-32.715,-29.785,0.000
1709291892.323,-26.367,-19.531,-27.344,-25.879,0.000
1709291892.327,-34.668,-20.508,-29.785,-36.133,0.000
1709291892.331,-34.180,-27.344,-36.621,-40.527,0.000
1709291892.335,-23.926,-27.344,-35.645,-33.203,0.000
1709291892.339,-21.973,-25.391,-34.180,-28.809,0.000
1709291892.343,-26.855,-30.273,-39.551,-31.738,0.000
1709291892.347,-35.645,-32.227,-41.992,-38.086,0.000
1709291892.351,-38.574,-31.738,-37.598,-46.875,0.000
1709291892.355,-25.879,-29.785,-37.598,-42.969,0.000
1709291892.359,-24.414,-30.273,-37.598,-34.180,0.000
1709291892.363,-27.344,-27.344,-29.297,-29.785,0.000
1709291892.367,-28.809,-25.879,-32.715,-26.855,0.000
1709291892.371,-24.902,-25.391,-31.738,-29.297,0.000
1709291892.375,-23.926,-19.043,-24.414,-24.414,0.000
1709291892.379,-20.508,-20.020,-18.555,-23.438,0.000
1709291892.382,-19.043,-23.926,-20.508,-24.902,0.000
1709291892.386,-23.438,-20.020,-24.902,-21.973,0.000
1709291892.390,-23.438,-16.602,-29.785,-30.273,0.000
1709291892.394,-19.043,-21.484,-32.227,-40.039,0.000
1709291892.398,-16.602,-24.414,-32.715,-37.598,0.000
1709291892.402,-25.391,-26.855,-34.180,-35.645,0.000
1709291892.406,-33.203,-21.973,-28.809,-37.598,0.000
1709291892.410,-30.762,-21.973,-28.320,-35.156,0.000
1709291892.414,-25.391,-24.414,-33.691,-28.809,0.000
1709291892.418,-20.996,-23.926,-34.180,-20.508,0.000
1709291892.422,-22.949,-24.902,-37.109,-27.344,0.000
1709291892.426,-33.203,-25.879,-37.109,-35.156,0.000
1709291892.430,-38.086,-28.809,-34.668,-21.484,0.000
1709291892.434,-38.574,-32.715,-38.574,-20.996,0.000
1709291892.437,-33.203,-29.785,-42.480,-29.297,0.000
1709291892.441,-27.344,-25.391,-38.574,-24.414,0.000
1709291892.445,-29.785,-28.320,-37.109,-20.508,0.000
1709291892.449,-21.484,-27.344,-44.922,-13.184,0.000
1709291892.453,-10.742,-25.391,-41.992,-2.930,0.000
1709291892.457,-22.461,-36.133,-34.180,-13.672,0.000
1709291892.461,-38.086,-40.527,-35.645,-38.574,0.000
1709291892.465,-47.363,-37.598,-39.551,-40.527,0.000
1709291892.469,-58.105,-37.598,-44.922,-43.457,0.000
1709291892.473,-57.617,-37.109,-45.898,-48.828,0.000
1709291892.476,-37.598,-35.156,-45.410,-34.668,0.000
1709291892.480,-26.855,-31.738,-46.387,-34.180,0.000
1709291892.484,-28.809,-36.621,-42.969,-37.109,0.000
1709291892.488,-40.527,-40.039,-43.457,-36.621,0.000
1709291892.492,-41.016,-35.156,-44.434,-36.133,0.000
1709291892.496,-26.367,-28.809,-38.574,-25.879,0.000
1709291892.500,-25.879,-29.297,-39.062,-23.926,0.000
1709291892.504,-34.180,-31.250,-44.434,-30.762,0.000
1709291892.508,-37.109,-30.762,-41.992,-28.320,0.000
1709291892.511,-35.645,-32.715,-35.156,-28.809,0.000
1709291892.515,-30.273,-30.762,-34.668,-26.367,0.000
1709291892.519,-19.531,-28.809,-34.180,-16.113,0.000
1709291892.523,-20.508,-30.762,-32.227,-21.484,0.000
1709291892.527,-24.902,-29.785,-31.250,-22.461,0.000
1709291892.531,-34.180,-26.367,-34.180,-19.043,0.000
1709291892.535,-40.527,-27.344,-41.504,-23.438,0.000
1709291892.538,-27.832,-32.715,-44.434,-22.461,0.000
1709291892.542,-24.414,-33.691,-42.969,-28.809,0.000
1709291892.546,-33.691,-31.738,-42.969,-31.250,0.000
1709291892.550,-29.785,-28.320,-45.410,-24.414,0.000
1709291892.554,-23.926,-27.344,-45.898,-23.926,0.000
1709291892.558,-23.438,-29.297,-45.410,-29.297,0.000
1709291892.562,-25.391,-31.738,-46.387,-27.832,0.000
1709291892.566,-38.574,-33.691,-44.434,-24.902,0.000
1709291892.570,-38.086,-33.203,-48.828,-30.273,0.000
1709291892.574,-27.344,-31.738,-47.363,-33.691,0.000
1709291892.578,-34.180,-36.133,-43.457,-32.715,0.000
1709291892.581,-37.109,-34.180,-42.480,-27.344,0.000
1709291892.585,-36.133,-27.832,-36.133,-21.484,0.000
1709291892.589,-32.227,-30.273,-33.691,-20.996,0.000
1709291892.593,-30.762,-30.273,-36.621,-27.344,0.000
1709291892.597,-29.785,-29.785,-37.109,-22.949,0.000
1709291892.601,-26.367,-29.297,-37.598,-23.438,0.000
1709291892.604,-27.832,-32.227,-36.621,-32.715,0.000
1709291892.608,-27.832,-30.273,-32.227,-18.066,0.000
1709291892.612,-30.762,-24.414,-37.598,-7.324,0.000
1709291892.616,-20.508,-22.461,-38.574,-12.695,0.000
1709291892.620,-12.207,-15.625,-35.156,-16.602,0.000
1709291892.624,-15.625,-16.113,-35.645,-18.555,0.000
1709291892.628,-28.809,-26.855,-31.250,-19.531,0.000
