timestamps,TP9,AF7,AF8,TP10,Right AUX
1709215143.368,-49.805,-35.156,-34.180,-46.875,0.000
1709215143.372,-41.504,-46.875,-33.691,-49.805,0.000
1709215143.376,-33.203,-50.781,-41.504,-45.410,0.000
1709215143.380,-45.898,-45.410,-44.922,-50.781,0.000
1709215143.384,-52.246,-47.363,-43.457,-52.246,0.000
1709215143.388,-40.527,-50.293,-38.574,-41.504,0.000
1709215143.392,-35.156,-38.574,-35.156,-33.203,0.000
1709215143.395,-36.133,-25.391,-31.738,-29.785,0.000
1709215143.399,-36.621,-33.691,-35.645,-29.297,0.000
1709215143.403,-32.715,-33.203,-33.691,-20.508,0.000
1709215143.407,-26.855,-30.762,-31.738,-23.438,0.000
1709215143.411,-26.855,-38.086,-35.645,-31.738,0.000
1709215143.415,-26.855,-35.156,-34.180,-28.320,0.000
1709215143.419,-29.297,-41.016,-40.039,-36.133,0.000
1709215143.423,-34.668,-45.410,-42.969,-45.898,0.000
1709215143.427,-35.156,-38.574,-30.762,-42.969,0.000
1709215143.431,-42.480,-44.434,-34.180,-45.410,0.000
1709215143.435,-45.410,-52.734,-34.668,-38.574,0.000
1709215143.439,-46.875,-52.734,-32.227,-40.039,0.000
1709215143.443,-47.363,-45.898,-44.434,-49.316,0.000
1709215143.446,-39.551,-37.598,-38.574,-40.039,0.000
1709215143.450,-33.203,-33.691,-23.438,-36.133,0.000
1709215143.454,-42.480,-43.457,-30.273,-48.340,0.000
1709215143.458,-41.016,-57.129,-33.691,-49.316,0.000
1709215143.462,-36.133,-54.688,-32.715,-47.363,0.000
1709215143.466,-41.016,-44.922,-33.203,-56.152,0.000
1709215143.470,-40.527,-48.828,-36.621,-48.340,0.000
1709215143.474,-40.527,-47.852,-41.016,-38.574,0.000
1709215143.478,-41.992,-35.645,-37.109,-37.598,0.000
1709215143.482,-44.434,-37.598,-33.691,-41.016,0.000
1709215143.486,-54.199,-47.852,-40.527,-58.594,0.000
1709215143.489,-51.270,-48.828,-37.598,-53.711,0.000
1709215143.493,-45.898,-40.039,-33.691,-32.227,0.000
1709215143.497,-48.340,-37.598,-38.574,-42.969,0.000
1709215143.501,-45.898,-41.504,-46.387,-54.688,0.000
1709215143.505,-38.086,-42.480,-48.828,-53.223,0.000
1709215143.509,-30.762,-35.645,-38.086,-49.316,0.000
1709215143.513,-32.715,-32.715,-30.762,-44.922,0.000
1709215143.517,-40.039,-40.039,-34.180,-41.504,0.000
1709215143.521,-46.387,-42.480,-30.762,-45.898,0.000
1709215143.525,-50.781,-47.363,-29.297,-50.293,0.000
1709215143.529,-52.246,-54.688,-35.645,-46.875,0.000
1709215143.532,-48.828,-53.711,-41.016,-44.434,0.000
1709215143.536,-51.758,-41.016,-37.598,-37.598,0.000
1709215143.540,-63.477,-39.062,-39.062,-43.945,0.000
1709215143.544,-68.359,-45.898,-45.410,-59.570,0.000
1709215143.548,-62.500,-42.480,-45.898,-60.547,0.000
1709215143.552,-55.176,-41.016,-42.969,-42.480,0.000
1709215143.556,-45.898,-41.504,-41.992,-33.203,0.000
1709215143.560,-42.969,-55.176,-42.969,-43.457,0.000
1709215143.564,-38.086,-61.035,-42.969,-46.875,0.000
1709215143.568,-32.227,-35.645,-38.086,-41.504,0.000
1709215143.571,-34.668,-32.227,-33.691,-44.922,0.000
1709215143.575,-30.273,-42.969,-33.203,-42.969,0.000
1709215143.579,-35.645,-48.828,-32.715,-37.109,0.000
1709215143.583,-41.992,-49.805,-35.645,-32.227,0.000
1709215143.587,-36.133,-43.945,-32.715,-33.691,0.000
1709215143.591,-41.504,-45.898,-36.621,-36.133,0.000
1709215143.595,-43.945,-46.387,-39.551,-34.180,0.000
1709215143.599,-41.504,-47.852,-37.109,-33.203,0.000
1709215143.602,-38.574,-49.805,-33.203,-39.062,0.000
1709215143.606,-38.574,-44.434,-39.062,-48.828,0.000
1709215143.610,-33.691,-44.922,-38.086,-39.062,0.000
1709215143.614,-28.809,-56.641,-34.668,-36.621,0.000
1709215143.618,-34.180,-51.270,-39.551,-41.016,0.000
1709215143.622,-34.668,-43.945,-44.434,-44.434,0.000
1709215143.626,-35.645,-44.434,-45.898,-38.574,0.000
1709215143.630,-43.457,-38.086,-40.039,-30.762,0.000
1709215143.634,-46.387,-35.645,-36.621,-34.668,0.000
1709215143.638,-40.039,-42.969,-29.297,-31.250,0.000
1709215143.642,-41.016,-45.898,-29.297,-42.480,0.000
1709215143.645,-46.875,-46.387,-40.527,-53.711,0.000
1709215143.649,-42.480,-46.387,-45.410,-52.246,0.000
1709215143.653,-37.598,-50.781,-41.016,-48.828,0.000
1709215143.657,-33.691,-45.898,-41.016,-42.969,0.000
1709215143.661,-34.180,-40.039,-47.363,-50.781,0.000
1709215143.665,-24.414,-43.945,-45.898,-53.223,0.000
1709215143.669,-13.672,-45.898,-38.574,-45.410,0.000
1709215143.673,-20.508,-40.039,-41.504,-34.668,0.000
1709215143.676,-26.855,-50.781,-48.828,-42.480,0.000
1709215143.680,-28.809,-53.711,-47.363,-48.340,0.000
1709215143.684,-32.715,-44.922,-39.551,-50.293,0.000
1709215143.688,-29.297,-40.527,-38.086,-46.387,0.000
1709215143.692,-28.320,-49.805,-37.598,-44.922,0.000
1709215143.698,-34.180,-49.805,-43.945,-44.922,0.000
1709215143.702,-33.203,-34.180,-41.992,-41.016,0.000
1709215143.706,-34.180,-30.273,-34.180,-44.434,0.000
1709215143.709,-37.109,-40.039,-42.480,-50.781,0.000
1709215143.713,-38.086,-46.387,-41.992,-46.387,0.000
1709215143.717,-37.598,-49.316,-34.668,-38.086,0.000
1709215143.721,-36.133,-49.316,-28.320,-37.109,0.000
1709215143.725,-39.551,-47.852,-30.762,-37.109,0.000
1709215143.729,-37.598,-47.852,-29.785,-32.715,0.000
1709215143.733,-33.691,-46.875,-19.043,-19.531,0.000
1709215143.737,-44.434,-58.105,-25.391,-28.320,0.000
1709215143.741,-43.945,-50.781,-28.809,-44.434,0.000
1709215143.745,-39.062,-39.551,-27.344,-43.457,0.000
1709215143.749,-40.039,-43.945,-36.133,-44.922,0.000
1709215143.753,-39.062,-34.180,-37.598,-41.016,0.000
1709215143.756,-31.250,-30.762,-30.273,-28.809,0.000
1709215143.760,-30.273,-35.156,-31.738,-29.785,0.000
1709215143.764,-39.062,-31.738,-28.809,-31.250,0.000
1709215143.768,-40.039,-32.715,-22.949,-35.156,0.000
1709215143.772,-40.527,-35.645,-35.156,-36.133,0.000
1709215143.776,-41.016,-48.828,-38.574,-21.973,0.000
1709215143.780,-45.410,-52.734,-30.762,-14.160,0.000
1709215143.784,-43.457,-49.805,-29.297,-28.809,0.000
1709215143.788,-41.992,-38.086,-33.203,-42.480,0.000
1709215143.792,-41.504,-31.738,-34.668,-41.016,0.000
1709215143.796,-39.551,-41.016,-37.598,-40.527,0.000
1709215143.800,-44.434,-46.875,-45.898,-45.410,0.000
1709215143.803,-37.109,-38.574,-46.875,-43.457,0.000
1709215143.807,-33.691,-38.086,-42.480,-43.945,0.000
1709215143.811,-41.016,-42.969,-52.246,-50.781,0.000
1709215143.815,-41.504,-36.133,-54.199,-48.340,0.000
1709215143.819,-40.527,-35.156,-45.898,-41.504,0.000
1709215143.823,-42.480,-41.504,-47.363,-38.086,0.000
1709215143.827,-37.598,-35.156,-45.898,-45.898,0.000
1709215143.831,-29.785,-41.016,-36.133,-46.387,0.000
1709215143.835,-31.250,-57.129,-33.203,-36.133,0.000
1709215143.839,-38.086,-47.852,-31.250,-28.320,0.000
1709215143.842,-35.645,-43.945,-25.391,-31.250,0.000
1709215143.846,-36.133,-50.781,-35.156,-45.898,0.000
1709215143.850,-43.457,-47.363,-39.062,-52.734,0.000
1709215143.854,-40.039,-44.922,-35.156,-42.969,0.000
1709215143.858,-41.016,-48.828,-37.598,-44.434,0.000
1709215143.862,-47.852,-44.922,-39.062,-55.664,0.000
1709215143.866,-41.992,-38.086,-37.598,-53.711,0.000
1709215143.870,-37.598,-38.086,-46.387,-43.945,0.000
1709215143.874,-33.691,-39.551,-43.457,-46.387,0.000
1709215143.878,-26.367,-45.898,-35.156,-44.922,0.000
1709215143.882,-25.879,-47.852,-38.574,-44.434,0.000
1709215143.885,0.000,-48.340,0.000,-49.805,0.000
1709215143.889,0.000,-43.945,0.000,-44.922,0.000
1709215143.893,0.000,-39.551,0.000,-33.691,0.000
1709215143.897,0.000,-39.551,0.000,-27.832,0.000
1709215143.901,0.000,-37.598,0.000,-32.227,0.000
1709215143.905,0.000,-34.668,0.000,-38.086,0.000
1709215143.909,0.000,-35.156,0.000,-41.016,0.000
1709215143.913,0.000,-38.574,0.000,-32.715,0.000
1709215143.917,0.000,-41.992,0.000,-29.297,0.000
1709215143.921,0.000,-47.363,0.000,-37.109,0.000
1709215143.925,0.000,-45.898,0.000,-38.574,0.000
1709215143.928,0.000,-39.062,0.000,-35.645,0.000
1709215143.932,-44.434,-38.574,-46.387,-39.062,0.000
1709215143.936,-45.898,-42.480,-48.340,-38.086,0.000
1709215143.940,-45.410,-40.527,-44.434,-37.109,0.000
1709215143.944,-47.852,-37.598,-50.293,-49.805,0.000
1709215143.948,-37.109,-37.109,-56.152,-48.828,0.000
1709215143.952,-30.762,-41.504,-49.805,-40.039,0.000
1709215143.956,-27.832,-44.434,-49.316,-32.227,0.000
1709215143.960,-27.832,-46.875,-52.246,-20.508,0.000
1709215143.963,-29.785,-47.363,-45.898,-31.250,0.000
1709215143.967,-32.715,-46.875,-46.387,-42.969,0.000
1709215143.971,-30.273,-49.805,-49.805,-36.621,0.000
1709215143.975,-21.484,-48.340,-42.969,-24.414,0.000
1709215143.979,-25.391,-47.852,-45.410,-29.297,0.000
1709215143.983,-30.273,-41.992,-50.781,-39.062,0.000
1709215143.987,-28.809,-36.621,-41.504,-39.551,0.000
1709215143.990,-36.133,-36.133,-41.504,-38.086,0.000
1709215143.994,-36.133,-41.016,-45.898,-26.367,0.000
1709215143.998,-31.250,-47.363,-38.086,-20.020,0.000
1709215144.002,-47.363,-42.480,-41.992,-31.738,0.000
1709215144.006,-52.246,-27.832,-51.758,-42.480,0.000
1709215144.010,-39.551,-20.508,-52.734,-44.434,0.000
1709215144.014,-36.621,-18.555,-48.828,-33.203,0.000
1709215144.018,-39.551,-14.160,-53.223,-33.691,0.000
1709215144.022,-36.133,-6.348,-55.664,-44.434,0.000
1709215144.025,-29.785,4.395,-49.805,-49.805,0.000
1709215144.029,-24.902,3.906,-56.152,-46.387,0.000
1709215144.033,-17.090,11.719,-63.965,-43.945,0.000
1709215144.037,-17.090,20.020,-64.453,-43.945,0.000
1709215144.041,-24.414,21.484,-64.453,-43.457,0.000
1709215144.045,-23.926,23.926,-61.035,-49.805,0.000
1709215144.049,-24.414,18.555,-65.918,-51.270,0.000
1709215144.053,-32.227,14.648,-80.566,-63.965,0.000
1709215144.057,-32.715,32.715,-80.078,-66.895,0.000
1709215144.060,-30.273,46.875,-80.566,-72.266,0.000
1709215144.064,-29.297,58.105,-81.543,-83.008,0.000
1709215144.068,-23.926,62.988,-83.496,-81.055,0.000
1709215144.072,-20.508,53.223,-93.750,-72.266,0.000
1709215144.076,-20.020,60.547,-92.285,-62.988,0.000
1709215144.080,-15.625,74.707,-88.379,-59.570,0.000
1709215144.084,-6.836,78.125,-88.379,-66.406,0.000
1709215144.088,-10.742,72.266,-99.121,-73.730,0.000
1709215144.092,-16.113,65.918,-104.492,-69.336,0.000
1709215144.096,-9.277,71.289,-102.051,-60.547,0.000
1709215144.100,-8.301,78.613,-103.516,-58.594,0.000
1709215144.104,-9.766,72.266,-104.980,-56.152,0.000
1709215144.108,-8.301,66.895,-106.934,-54.199,0.000
1709215144.112,-3.418,74.707,-106.934,-55.664,0.000
1709215144.115,-3.906,72.266,-107.422,-47.852,0.000
1709215144.120,6.836,65.430,-106.445,-37.109,0.000
1709215144.123,5.859,73.730,-105.957,-42.480,0.000
1709215144.127,3.906,73.730,-109.863,-49.805,0.000
1709215144.131,8.301,67.383,-110.840,-41.504,0.000
1709215144.135,2.930,57.129,-107.422,-32.715,0.000
1709215144.139,-6.836,43.945,-111.816,-37.109,0.000
1709215144.143,-0.977,39.062,-101.562,-32.227,0.000
1709215144.147,8.789,28.809,-94.727,-24.902,0.000
1709215144.151,12.695,21.973,-82.031,-12.207,0.000
1709215144.155,18.555,34.668,-74.707,13.184,0.000
1709215144.159,13.184,34.180,-87.891,3.418,0.000
1709215144.163,11.719,23.926,-85.938,-11.719,0.000
1709215144.167,15.625,20.508,-78.125,-6.348,0.000
1709215144.170,9.277,10.254,-73.242,0.977,0.000
1709215144.174,5.371,7.812,-62.500,8.789,0.000
1709215144.178,4.883,10.742,-54.688,6.348,0.000
1709215144.182,-0.977,-1.953,-61.035,-4.395,0.000
1709215144.186,-0.977,-2.930,-62.500,-9.277,0.000
1709215144.190,5.859,3.418,-62.988,-7.324,0.000
1709215144.194,2.441,-0.977,-63.477,-1.953,0.000
1709215144.198,-8.789,-11.719,-63.965,-0.488,0.000
1709215144.202,-10.254,-23.926,-65.430,-9.766,0.000
1709215144.206,-10.742,-28.809,-59.570,-18.066,0.000
1709215144.209,-10.742,-21.973,-61.035,-23.438,0.000
1709215144.213,-6.836,-9.277,-63.477,-13.672,0.000
1709215144.217,-0.977,-1.465,-58.105,-13.184,0.000
1709215144.221,-7.812,-6.348,-59.570,-24.902,0.000
1709215144.225,-20.020,-14.648,-62.988,-32.715,0.000
1709215144.229,-21.973,-15.137,-58.105,-36.621,0.000
1709215144.233,-20.508,-18.555,-61.035,-33.203,0.000
1709215144.237,-21.484,-24.902,-57.129,-25.879,0.000
1709215144.241,-19.531,-23.438,-50.781,-17.090,0.000
1709215144.245,-18.066,-22.461,-49.805,-19.531,0.000
1709215144.249,-26.367,-23.926,-47.363,-30.762,0.000
1709215144.252,-19.531,-26.855,-39.062,-19.043,0.000
1709215144.256,-12.695,-26.855,-32.227,-9.766,0.000
1709215144.260,-18.555,-30.273,-37.109,-13.672,0.000
1709215144.264,-20.996,-32.715,-43.457,-21.484,0.000
1709215144.268,-28.809,-31.738,-43.945,-32.715,0.000
1709215144.272,-30.762,-36.133,-44.434,-31.250,0.000
1709215144.276,-20.020,-36.133,-42.969,-18.066,0.000
1709215144.280,-16.113,-30.273,-39.551,-25.879,0.000
1709215144.284,-15.625,-25.879,-41.992,-33.691,0.000
1709215144.288,-18.066,-34.668,-50.293,-24.902,0.000
1709215144.291,-18.066,-42.969,-49.316,-20.996,0.000
1709215144.295,-17.090,-30.762,-46.875,-21.484,0.000
1709215144.299,-26.855,-30.273,-53.711,-32.715,0.000
1709215144.303,-34.668,-39.062,-55.664,-42.969,0.000
1709215144.307,-25.391,-30.273,-60.547,-41.992,0.000
1709215144.311,-18.066,-20.996,-63.477,-32.227,0.000
1709215144.315,-19.531,-26.367,-55.664,-24.902,0.000
1709215144.319,-21.484,-27.344,-53.711,-33.203,0.000
1709215144.323,-21.973,-20.996,-50.781,-46.875,0.000
1709215144.326,-18.555,-23.438,-45.898,-50.781,0.000
1709215144.330,-17.090,-33.203,-43.945,-33.691,0.000
1709215144.334,-18.066,-37.598,-35.645,-11.230,0.000
1709215144.338,-19.043,-36.133,-32.227,-25.391,0.000
1709215144.342,-31.738,-37.109,-45.898,-56.152,0.000
1709215144.346,-40.527,-34.668,-47.852,-59.082,0.000
1709215144.350,-36.621,-29.297,-37.598,-46.875,0.000
1709215144.354,-37.598,-32.715,-34.180,-37.109,0.000
1709215144.357,-43.945,-42.969,-32.715,-34.668,0.000
1709215144.361,-41.504,-39.551,-31.738,-39.062,0.000
1709215144.365,-39.062,-37.109,-34.180,-43.457,0.000
1709215144.369,-41.992,-41.992,-36.621,-41.016,0.000
1709215144.373,-42.969,-44.922,-34.180,-30.762,0.000
1709215144.377,-40.527,-36.133,-26.855,-17.090,0.000
1709215144.381,-48.340,-36.621,-31.738,-27.832,0.000
1709215144.385,-51.270,-46.387,-41.016,-38.086,0.000
1709215144.389,-38.086,-51.270,-37.598,-30.762,0.000
1709215144.393,-27.832,-47.852,-29.785,-21.484,0.000
1709215144.397,-33.691,-49.316,-30.273,-15.137,0.000
1709215144.400,-36.621,-43.945,-39.062,-21.484,0.000
1709215144.404,-37.598,-21.484,-45.898,-34.668,0.000
1709215144.408,-23.926,-12.207,-46.387,-24.902,0.000
1709215144.412,-17.578,-11.719,-47.363,-17.578,0.000
1709215144.416,-14.648,-12.695,-51.270,-18.066,0.000
1709215144.420,-4.395,-13.672,-50.293,-10.742,0.000
1709215144.424,1.465,-18.555,-54.199,-7.812,0.000
1709215144.428,0.977,-21.484,-51.758,-15.137,0.000
1709215144.431,0.000,-24.414,-43.457,-9.277,0.000
1709215144.435,-5.371,-25.879,-42.969,-7.324,0.000
1709215144.439,-16.602,-22.461,-43.945,-17.578,0.000
1709215144.443,-12.695,-23.926,-41.992,-26.367,0.000
1709215144.447,-12.207,-21.484,-40.039,-38.086,0.000
1709215144.451,-14.648,-27.344,-38.574,-33.691,0.000
1709215144.455,-9.766,-37.598,-35.645,-19.043,0.000
1709215144.459,-22.949,-43.457,-42.969,-25.879,0.000
1709215144.463,-36.621,-36.621,-48.340,-40.527,0.000
1709215144.467,-37.109,-35.156,-45.898,-39.551,0.000
1709215144.471,-36.133,-46.387,-41.504,-47.363,0.000
1709215144.475,-38.086,-45.410,-39.062,-53.223,0.000
1709215144.479,-31.738,-35.156,-35.156,-43.945,0.000
1709215144.482,-31.738,-36.133,-34.668,-38.086,0.000
1709215144.486,-46.387,-38.086,-38.574,-44.922,0.000
1709215144.490,-42.480,-39.551,-40.039,-46.387,0.000
1709215144.495,-32.227,-35.156,-35.645,-27.832,0.000
1709215144.498,-36.133,-34.180,-40.527,-29.785,0.000
1709215144.502,-35.645,-44.434,-47.363,-46.875,0.000
1709215144.506,-33.203,-50.293,-44.922,-48.828,0.000
1709215144.510,-36.133,-48.828,-42.480,-42.480,0.000
1709215144.514,-35.156,-37.109,-44.922,-34.180,0.000
1709215144.518,-30.762,-32.227,-39.062,-31.250,0.000
1709215144.522,-35.645,-42.480,-37.109,-41.016,0.000
1709215144.526,-35.645,-45.410,-35.645,-41.504,0.000
1709215144.530,-33.691,-43.457,-25.879,-42.969,0.000
1709215144.534,-36.621,-41.016,-22.949,-37.598,0.000
1709215144.538,-38.574,-35.645,-27.832,-26.855,0.000
1709215144.542,-44.922,-39.551,-31.738,-35.645,0.000
1709215144.545,-46.387,-42.969,-33.203,-47.363,0.000
1709215144.549,-42.480,-43.945,-35.645,-50.781,0.000
1709215144.553,-33.203,-53.223,-36.133,-36.621,0.000
1709215144.557,-28.809,-52.246,-36.133,-23.438,0.000
1709215144.561,-32.715,-31.250,-39.062,-31.250,0.000
1709215144.565,-33.691,-26.367,-38.086,-36.621,0.000
1709215144.569,-20.996,-29.297,-32.715,-32.227,0.000
1709215144.573,-15.625,-37.109,-28.809,-21.973,0.000
1709215144.577,-25.879,-40.527,-31.738,-23.438,0.000
1709215144.581,-32.227,-33.691,-44.434,-33.691,0.000
1709215144.584,-30.762,-30.762,-45.410,-39.062,0.000
1709215144.588,-32.227,-40.039,-38.086,-34.180,0.000
1709215144.592,-35.156,-47.852,-36.133,-33.203,0.000
1709215144.596,-32.227,-39.551,-37.109,-32.715,0.000
1709215144.600,-39.551,-37.598,-44.922,-33.691,0.000
1709215144.604,-43.457,-36.133,-41.992,-41.504,0.000
1709215144.608,-32.227,-38.574,-36.133,-43.945,0.000
1709215144.612,-29.785,-42.480,-35.645,-39.062,0.000
1709215144.616,-31.250,-42.480,-32.715,-29.785,0.000
1709215144.620,-35.645,-46.875,-39.062,-33.203,0.000
1709215144.624,-43.945,-39.551,-42.969,-46.875,0.000
1709215144.627,-43.945,-36.133,-46.387,-57.617,0.000
1709215144.631,-31.738,-37.598,-43.945,-52.246,0.000
1709215144.636,-31.738,-43.945,-36.621,-41.016,0.000
1709215144.640,-49.316,-51.758,-35.645,-48.828,0.000
1709215144.644,-57.617,-45.410,-37.109,-56.152,0.000
1709215144.648,-50.293,-42.969,-37.598,-46.387,0.000
1709215144.651,-39.551,-45.898,-36.133,-49.316,0.000
1709215144.655,-33.691,-50.293,-31.738,-45.410,0.000
1709215144.659,-45.410,-58.594,-40.039,-42.969,0.000
1709215144.663,-51.270,-55.176,-42.969,-45.410,0.000
1709215144.667,-47.852,-36.621,-35.645,-39.551,0.000
1709215144.671,-43.945,-29.297,-40.039,-42.969,0.000
1709215144.675,-45.898,-43.945,-45.898,-47.363,0.000
1709215144.679,-47.852,-56.152,-41.016,-39.551,0.000
1709215144.683,-45.898,-49.316,-37.109,-38.574,0.000
1709215144.686,-50.781,-49.805,-40.039,-54.199,0.000
1709215144.690,-40.039,-51.270,-36.621,-48.340,0.000
1709215144.694,-31.250,-52.734,-34.180,-34.180,0.000
1709215144.698,-34.180,-58.105,-38.574,-30.762,0.000
1709215144.702,-34.180,-49.805,-40.039,-33.691,0.000
1709215144.706,-39.062,-42.969,-42.969,-39.551,0.000
1709215144.710,-37.109,-43.457,-44.434,-41.504,0.000
1709215144.714,-41.016,-41.992,-41.504,-37.598,0.000
1709215144.718,-55.176,-48.828,-43.945,-36.621,0.000
1709215144.722,-54.688,-61.523,-38.086,-32.715,0.000
1709215144.725,-49.316,-56.152,-26.367,-27.344,0.000
1709215144.729,-52.246,-44.434,-27.832,-35.645,0.000
1709215144.733,-47.363,-36.621,-23.926,-32.715,0.000
1709215144.737,-45.898,-33.691,-26.855,-31.738,0.000
1709215144.741,-60.547,-46.387,-31.738,-42.969,0.000
1709215144.745,-59.570,-46.875,-28.809,-50.781,0.000
1709215144.749,-57.129,-38.574,-32.227,-52.734,0.000
1709215144.753,-61.523,-45.898,-32.715,-46.875,0.000
1709215144.756,-62.988,-52.246,-29.297,-46.387,0.000
1709215144.760,-58.594,-56.152,-23.438,-47.363,0.000
1709215144.764,-56.641,-49.805,-25.879,-51.758,0.000
1709215144.768,-56.641,-37.598,-24.414,-44.922,0.000
1709215144.772,-47.363,-33.203,-21.484,-34.180,0.000
1709215144.776,-54.688,-39.062,-26.855,-37.598,0.000
1709215144.780,-69.824,-49.805,-36.133,-49.805,0.000
1709215144.783,-64.453,-55.664,-37.109,-50.781,0.000
1709215144.787,-52.734,-53.223,-29.785,-46.387,0.000
1709215144.791,-51.758,-46.387,-35.156,-45.898,0.000
1709215144.795,-54.199,-53.223,-35.645,-32.715,0.000
1709215144.799,-51.270,-54.199,-29.785,-16.602,0.000
1709215144.803,-49.805,-35.156,-28.809,-29.297,0.000
1709215144.807,-50.293,-31.738,-26.855,-40.039,0.000
1709215144.811,-48.828,-35.645,-23.438,-28.809,0.000
1709215144.815,-48.828,-41.992,-31.250,-27.832,0.000
1709215144.819,-50.293,-39.062,-39.062,-34.180,0.000
1709215144.823,-41.992,-39.062,-34.668,-34.668,0.000
1709215144.827,-39.551,-45.898,-37.109,-37.598,0.000
1709215144.831,-38.574,-48.828,-36.621,-30.762,0.000
1709215144.835,-40.527,-50.781,-30.762,-36.133,0.000
1709215144.838,-41.016,-48.828,-28.809,-42.480,0.000
1709215144.842,-35.645,-46.875,-28.320,-31.738,0.000
1709215144.846,-42.969,-49.805,-34.180,-35.156,0.000
1709215144.850,-48.828,-46.387,-34.668,-40.039,0.000
1709215144.854,-45.898,-50.293,-31.250,-35.645,0.000
1709215144.858,-40.527,-58.105,-34.668,-30.762,0.000
1709215144.862,-43.945,-50.293,-35.156,-41.016,0.000
1709215144.866,-37.109,-41.016,-29.785,-41.504,0.000
1709215144.870,-30.273,-36.621,-29.297,-37.598,0.000
1709215144.874,-33.691,-33.203,-36.621,-36.133,0.000
1709215144.878,-34.180,-32.715,-37.109,-27.344,0.000
1709215144.882,-40.527,-39.551,-35.156,-33.691,0.000
1709215144.885,-40.527,-46.875,-40.527,-44.434,0.000
1709215144.889,-33.691,-46.387,-40.527,-38.574,0.000
1709215144.893,-34.180,-41.992,-31.738,-29.297,0.000
1709215144.897,-47.363,-46.387,-37.109,-36.621,0.000
1709215144.901,-45.410,-41.504,-37.109,-37.109,0.000
1709215144.905,-40.527,-40.039,-29.785,-28.320,0.000
1709215144.909,-41.504,-41.992,-29.297,-35.156,0.000
1709215144.913,-38.086,-33.203,-29.297,-37.598,0.000
1709215144.917,-40.039,-38.574,-33.203,-32.227,0.000
1709215144.921,-43.945,-49.805,-36.133,-34.668,0.000
1709215144.925,-35.645,-44.922,-33.203,-33.203,0.000
1709215144.929,-38.574,-43.945,-31.250,-36.621,0.000
1709215144.932,-43.945,-45.410,-33.691,-43.457,0.000
1709215144.936,-43.945,-41.504,-36.621,-42.969,0.000
1709215144.940,-46.875,-36.621,-35.156,-42.969,0.000
1709215144.944,-36.621,-46.387,-27.344,-47.852,0.000
1709215144.948,-32.227,-55.176,-29.297,-49.805,0.000
1709215144.952,-41.992,-50.781,-36.133,-47.852,0.000
1709215144.956,-43.457,-46.387,-34.668,-47.363,0.000
1709215144.960,-44.434,-44.434,-37.598,-54.688,0.000
1709215144.964,-45.898,-38.086,-36.621,-59.082,0.000
1709215144.968,-48.828,-49.316,-37.598,-52.246,0.000
1709215144.972,-52.246,-56.152,-42.480,-45.410,0.000
1709215144.975,-48.828,-55.176,-43.945,-37.109,0.000
1709215144.979,-41.992,-58.594,-41.016,-34.180,0.000
1709215144.983,-40.039,-49.316,-40.039,-38.086,0.000
1709215144.987,-40.527,-50.781,-37.109,-41.504,0.000
1709215144.991,-41.992,-45.410,-29.297,-41.016,0.000
1709215144.995,-40.039,-37.598,-29.297,-27.832,0.000
1709215144.999,-39.551,-33.203,-33.691,-32.227,0.000
1709215145.003,-42.969,-37.109,-35.156,-44.434,0.000
1709215145.007,-37.109,-41.992,-31.738,-40.039,0.000
1709215145.011,-31.738,-35.645,-32.715,-38.574,0.000
1709215145.014,-32.227,-32.227,-36.621,-40.039,0.000
1709215145.018,-33.691,-42.480,-34.180,-33.691,0.000
1709215145.022,-40.039,-42.969,-35.156,-35.645,0.000
1709215145.026,-42.969,-32.227,-36.621,-39.062,0.000
1709215145.030,-39.062,-35.156,-38.086,-38.574,0.000
1709215145.034,-40.039,-50.781,-41.992,-45.410,0.000
1709215145.038,-49.316,-50.293,-45.410,-41.016,0.000
1709215145.042,-47.852,-37.598,-37.598,-37.598,0.000
1709215145.046,-46.387,-39.062,-40.039,-56.152,0.000
1709215145.050,-49.316,-38.574,-49.316,-67.383,0.000
1709215145.053,-43.457,-35.645,-47.363,-59.082,0.000
1709215145.057,-41.992,-40.039,-48.340,-53.223,0.000
1709215145.061,-42.480,-41.992,-46.387,-59.570,0.000
1709215145.065,-40.527,-36.133,-47.363,-62.500,0.000
1709215145.069,-33.691,-32.715,-52.734,-60.059,0.000
1709215145.073,-24.414,-33.691,-53.711,-49.316,0.000
1709215145.077,-33.691,-35.645,-54.199,-47.363,0.000
1709215145.081,-38.086,-37.109,-52.246,-52.734,0.000
1709215145.085,-32.715,-48.340,-43.945,-44.922,0.000
1709215145.088,-37.109,-44.922,-46.387,-47.363,0.000
1709215145.092,-37.598,-38.574,-49.805,-53.223,0.000
1709215145.096,-37.109,-35.156,-49.316,-46.387,0.000
1709215145.100,-37.109,-29.785,-49.316,-44.922,0.000
1709215145.104,-32.715,-38.086,-47.363,-46.387,0.000
1709215145.108,-29.785,-41.992,-46.875,-47.363,0.000
1709215145.112,-21.484,-40.039,-43.457,-37.109,0.000
1709215145.116,-20.508,-39.062,-44.434,-26.855,0.000
1709215145.120,-29.785,-36.133,-41.992,-30.762,0.000
1709215145.123,-29.297,-41.504,-36.621,-38.574,0.000
1709215145.127,-32.715,-47.852,-40.527,-36.133,0.000
1709215145.131,-32.715,-42.480,-40.527,-25.391,0.000
1709215145.135,-27.344,-40.039,-42.480,-25.879,0.000
1709215145.139,-32.227,-43.457,-44.434,-22.461,0.000
1709215145.143,-32.227,-39.551,-40.527,-25.391,0.000
1709215145.147,-31.738,-44.434,-43.945,-45.898,0.000
1709215145.150,0.000,-55.176,-48.340,-52.734,0.000
1709215145.154,0.000,-59.570,-42.969,-38.086,0.000
1709215145.158,0.000,-47.852,-40.527,-33.203,0.000
1709215145.162,0.000,-42.969,-40.039,-46.387,0.000
1709215145.166,0.000,-50.781,-41.504,-51.758,0.000
1709215145.170,0.000,-55.664,-42.480,-47.852,0.000
1709215145.174,0.000,-49.805,-38.574,-38.086,0.000
1709215145.178,0.000,-41.504,-42.480,-43.945,0.000
1709215145.182,0.000,-37.598,-43.457,-52.246,0.000
1709215145.186,0.000,-37.109,-37.109,-55.664,0.000
1709215145.190,0.000,-40.039,-38.086,-56.641,0.000
1709215145.193,0.000,-41.016,-39.062,-56.641,0.000
1709215145.198,-41.016,-45.410,-42.969,-45.410,0.000
1709215145.202,-29.785,-39.062,-40.039,-39.062,0.000
1709215145.205,-31.738,-36.621,-34.180,-44.434,0.000
1709215145.209,-26.367,-46.387,-30.273,-42.480,0.000
1709215145.213,-19.043,-50.781,-22.461,-29.297,0.000
1709215145.217,-26.367,-51.758,-23.926,-14.160,0.000
1709215145.221,-26.855,-43.457,-28.320,-27.344,0.000
1709215145.225,-24.902,-36.621,-33.203,-42.480,0.000
1709215145.229,-27.344,-39.062,-35.645,-39.062,0.000
1709215145.233,-23.926,-40.039,-34.180,-24.414,0.000
1709215145.237,-33.203,-41.016,-37.109,-22.949,0.000
1709215145.241,-40.039,-48.828,-38.574,-32.715,0.000
1709215145.245,-36.133,-52.246,-36.621,-38.574,0.000
1709215145.249,-40.527,-52.734,-41.992,-39.551,0.000
1709215145.252,-43.945,-55.176,-46.387,-33.691,0.000
1709215145.256,-39.062,-42.969,-41.016,-32.227,0.000
1709215145.260,-42.969,-43.945,-37.598,-29.785,0.000
1709215145.264,-54.688,-55.176,-41.016,-38.574,0.000
1709215145.268,-56.152,-49.316,-37.598,-42.480,0.000
1709215145.272,-49.316,-43.457,-39.062,-38.574,0.000
1709215145.276,-45.410,-41.504,-39.551,-37.109,0.000
1709215145.280,-46.875,-41.016,-36.133,-31.738,0.000
1709215145.284,-43.945,-38.086,-37.598,-34.668,0.000
1709215145.288,-41.504,-40.527,-37.598,-45.898,0.000
1709215145.292,-41.504,-37.109,-38.574,-45.410,0.000
1709215145.296,-47.363,-40.039,-38.086,-48.828,0.000
1709215145.299,-48.340,-42.480,-36.133,-49.805,0.000
1709215145.303,-47.363,-38.086,-34.668,-50.293,0.000
1709215145.307,-43.945,-41.992,-35.156,-51.758,0.000
1709215145.311,-32.227,-49.805,-29.785,-37.598,0.000
1709215145.315,-35.645,-48.828,-28.809,-34.180,0.000
1709215145.319,-36.133,-45.410,-28.809,-32.227,0.000
1709215145.323,-27.344,-62.500,-25.391,-21.484,0.000
1709215145.327,-27.832,-57.129,-30.762,-19.531,0.000
1709215145.331,-23.438,-41.504,-33.691,-20.508,0.000
1709215145.335,-29.297,-49.316,-32.715,-21.973,0.000
1709215145.339,-37.598,-51.270,-35.156,-20.996,0.000
1709215145.342,-39.551,-39.551,-35.156,-29.785,0.000
1709215145.346,-42.480,-42.480,-34.180,-35.156,0.000
1709215145.350,-41.504,-50.781,-33.691,-31.250,0.000
1709215145.354,-41.016,-40.527,-34.180,-32.715,0.000
1709215145.358,-40.039,-37.109,-36.133,-30.273,0.000
1709215145.362,-51.758,-45.898,-39.062,-37.109,0.000
1709215145.366,-54.688,-49.805,-34.668,-39.062,0.000
1709215145.370,-50.781,-53.711,-35.156,-27.832,0.000
1709215145.374,-44.434,-62.988,-34.668,-22.461,0.000
1709215145.378,-38.086,-49.805,-32.715,-25.879,0.000
1709215145.381,-38.086,-43.457,-37.598,-22.949,0.000
1709215145.385,-30.273,-48.828,-37.109,-25.391,0.000
1709215145.389,-27.832,-41.992,-31.738,-30.762,0.000
1709215145.393,-35.156,-34.668,-37.598,-33.203,0.000
1709215145.397,-34.668,-31.738,-39.062,-36.133,0.000
1709215145.401,-24.902,-45.410,-37.109,-39.551,0.000
1709215145.405,-24.902,-47.363,-40.039,-48.828,0.000
1709215145.409,-21.973,-33.691,-34.668,-56.152,0.000
1709215145.413,-26.367,-34.180,-41.016,-49.316,0.000
1709215145.417,-34.180,-40.527,-46.387,-38.574,0.000
1709215145.420,-30.762,-45.410,-41.504,-37.598,0.000
1709215145.424,-30.762,-39.062,-43.945,-31.250,0.000
1709215145.428,-32.227,-37.598,-42.480,-37.109,0.000
1709215145.432,-33.691,-45.898,-36.621,-41.016,0.000
1709215145.436,-34.668,-41.992,-39.551,-33.691,0.000
1709215145.440,-39.062,-40.039,-36.621,-32.715,0.000
1709215145.444,-43.457,-48.340,-28.320,-35.645,0.000
1709215145.448,-43.457,-45.410,-39.062,-40.527,0.000
1709215145.452,-43.945,-41.504,-39.551,-42.480,0.000
1709215145.455,-45.410,-52.734,-36.133,-41.016,0.000
1709215145.459,-52.246,-52.246,-39.062,-32.715,0.000
1709215145.463,-51.758,-43.945,-42.480,-41.992,0.000
1709215145.467,-41.504,-39.551,-37.109,-45.898,0.000
1709215145.471,-42.969,-41.016,-33.203,-35.645,0.000
1709215145.475,-44.922,-42.969,-32.715,-23.926,0.000
1709215145.479,-34.668,-49.805,-31.250,-25.391,0.000
1709215145.483,-34.668,-60.059,-35.645,-34.180,0.000
1709215145.486,-33.691,-42.969,-40.527,-31.738,0.000
1709215145.490,-22.461,-33.203,-40.039,-26.855,0.000
1709215145.494,-20.508,-34.668,-38.086,-26.855,0.000
1709215145.498,-21.973,-31.738,-35.645,-31.738,0.000
1709215145.502,-18.555,-41.016,-34.180,-33.203,0.000
1709215145.506,-18.066,-38.574,-45.898,-39.062,0.000
1709215145.510,-23.926,-37.109,-51.270,-49.316,0.000
1709215145.514,-28.320,-39.551,-48.340,-45.898,0.000
1709215145.518,-38.574,-32.715,-49.316,-40.527,0.000
1709215145.522,-48.340,-35.156,-41.992,-46.875,0.000
1709215145.525,-42.480,-45.410,-36.133,-55.664,0.000
1709215145.529,-37.109,-48.828,-41.992,-52.734,0.000
1709215145.533,-38.086,-43.457,-46.387,-42.480,0.000
1709215145.537,-45.898,-41.992,-44.434,-41.504,0.000
1709215145.541,-52.734,-50.781,-44.434,-43.945,0.000
1709215145.545,-49.805,-55.664,-43.457,-42.969,0.000
1709215145.549,-51.270,-51.758,-43.457,-41.992,0.000
1709215145.553,-54.688,-41.992,-44.922,-44.922,0.000
1709215145.556,-53.223,-35.156,-45.898,-41.992,0.000
1709215145.560,-49.316,-45.898,-42.480,-34.668,0.000
1709215145.564,-41.504,-50.781,-38.574,-40.039,0.000
1709215145.568,-45.410,-44.922,-38.574,-43.945,0.000
1709215145.572,-44.434,-41.504,-39.551,-39.062,0.000
1709215145.576,-42.480,-42.480,-43.945,-34.668,0.000
1709215145.580,-51.270,-44.922,-44.434,-38.086,0.000
1709215145.584,-55.176,-44.922,-36.133,-41.992,0.000
1709215145.588,-66.895,-47.852,-38.574,-48.340,0.000
1709215145.592,-74.219,-53.223,-48.340,-53.223,0.000
1709215145.596,-64.941,-56.152,-43.945,-52.246,0.000
1709215145.600,-63.477,-50.293,-40.527,-66.895,0.000
1709215145.604,-61.035,-37.598,-41.992,-68.848,0.000
1709215145.608,-51.758,-38.574,-37.109,-56.152,0.000
1709215145.612,-56.152,-44.922,-38.574,-59.570,0.000
1709215145.615,-51.758,-47.852,-41.992,-62.500,0.000
1709215145.620,-40.527,-41.504,-32.715,-53.223,0.000
1709215145.623,-35.156,-39.551,-33.203,-53.711,0.000
1709215145.627,-35.645,-49.316,-41.016,-53.223,0.000
1709215145.631,-27.832,-56.152,-40.039,-41.016,0.000
1709215145.635,-11.719,-47.363,-36.621,-28.320,0.000
1709215145.639,-22.949,-39.551,-39.062,-30.273,0.000
1709215145.643,-36.621,-36.621,-42.969,-38.574,0.000
1709215145.647,-27.832,-40.039,-44.922,-35.156,0.000
1709215145.651,-18.066,-38.574,-43.457,-25.391,0.000
1709215145.655,-24.902,-35.156,-44.434,-10.742,0.000
1709215145.659,-36.621,-39.551,-46.875,-20.508,0.000
1709215145.662,-37.598,-45.410,-43.457,-36.133,0.000
1709215145.666,-32.227,-41.992,-36.621,-42.969,0.000
1709215145.670,-34.180,-37.109,-39.551,-42.969,0.000
1709215145.674,-36.621,-41.992,-42.480,-38.574,0.000
1709215145.678,-41.504,-46.387,-38.574,-40.527,0.000
1709215145.682,-50.293,-46.875,-41.016,-40.527,0.000
1709215145.686,-41.992,-47.852,-41.504,-42.969,0.000
1709215145.690,-39.062,-42.480,-36.621,-46.875,0.000
1709215145.694,-36.133,-31.250,-35.156,-39.062,0.000
1709215145.698,-28.809,-33.203,-38.574,-24.902,0.000
1709215145.702,-37.598,-46.875,-46.387,-36.621,0.000
1709215145.706,-37.109,-43.945,-44.922,-48.340,0.000
1709215145.709,-30.273,-37.598,-37.598,-35.645,0.000
1709215145.714,-28.320,-47.363,0.000,-41.016,0.000
1709215145.718,-26.367,-47.852,0.000,-40.039,0.000
1709215145.722,-27.344,-33.691,0.000,-41.992,0.000
1709215145.726,-29.785,-34.180,0.000,-52.246,0.000
1709215145.730,-26.855,-39.062,0.000,-47.363,0.000
1709215145.734,-28.809,-41.016,0.000,-47.852,0.000
1709215145.738,-34.668,-40.527,0.000,-45.898,0.000
1709215145.741,-34.668,-41.016,0.000,-36.133,0.000
1709215145.745,-31.738,-47.852,0.000,-30.273,0.000
1709215145.749,-25.879,-48.340,0.000,-38.086,0.000
1709215145.753,-31.250,-44.922,0.000,-35.645,0.000
1709215145.757,-35.156,-38.574,0.000,-29.785,0.000
1709215145.761,-34.180,-38.086,-41.504,-32.227,0.000
1709215145.765,-42.969,-40.527,-40.039,-41.016,0.000
1709215145.769,-40.527,-42.480,-36.621,-43.945,0.000
1709215145.773,-29.785,-50.293,-38.086,-33.691,0.000
1709215145.776,-26.855,-55.176,-33.691,-25.391,0.000
1709215145.780,-31.738,-55.664,-40.039,-31.738,0.000
1709215145.784,-39.062,-54.688,-46.387,-43.945,0.000
1709215145.788,-38.574,-53.711,-44.434,-38.574,0.000
1709215145.792,-34.668,-48.340,-45.410,-24.902,0.000
1709215145.796,-34.180,-46.875,-42.969,-23.926,0.000
1709215145.800,-37.109,-49.316,-44.434,-25.391,0.000
1709215145.804,-39.062,-46.875,-44.922,-31.250,0.000
1709215145.808,-32.227,-43.945,-44.922,-35.156,0.000
1709215145.811,-23.926,-43.945,-47.852,-37.109,0.000
1709215145.815,-21.973,-40.039,-48.828,-33.691,0.000
1709215145.819,-24.902,-36.133,-50.781,-35.645,0.000
1709215145.823,-27.832,-28.809,-53.711,-38.086,0.000
1709215145.827,-27.832,-27.344,-56.641,-38.574,0.000
1709215145.831,-21.973,-32.715,-54.199,-36.133,0.000
1709215145.835,-26.855,-36.133,-59.570,-26.855,0.000
1709215145.839,-36.621,-34.668,-60.059,-30.762,0.000
1709215145.843,-38.086,-34.668,-53.223,-41.016,0.000
1709215145.847,-42.480,-33.203,-52.734,-52.246,0.000
1709215145.850,-46.875,-34.668,-49.805,-57.617,0.000
1709215145.854,-39.551,-37.598,-46.875,-50.293,0.000
1709215145.858,-37.109,-38.086,-46.387,-44.922,0.000
1709215145.862,-46.875,-50.781,-47.852,-49.316,0.000
1709215145.866,-49.805,-59.082,-39.551,-48.340,0.000
1709215145.870,-52.734,-53.223,-34.668,-48.828,0.000
1709215145.874,-45.898,-50.293,-39.062,-49.805,0.000
1709215145.878,-44.434,-51.270,-35.156,-39.062,0.000
1709215145.881,-50.293,-59.082,-38.574,-42.969,0.000
1709215145.885,-45.410,-52.734,-39.062,-52.734,0.000
1709215145.889,-43.945,-46.387,-35.156,-52.246,0.000
1709215145.893,-49.805,-46.875,-38.574,-47.852,0.000
1709215145.897,-46.387,-39.551,-38.574,-41.504,0.000
1709215145.901,-42.480,-40.527,-42.480,-37.598,0.000
1709215145.905,-37.598,-41.016,-41.992,-38.086,0.000
1709215145.909,-33.203,-35.156,-33.691,-33.691,0.000
1709215145.912,-38.086,-44.434,-37.109,-32.227,0.000
1709215145.916,-34.668,-50.781,-36.133,-34.180,0.000
1709215145.920,-35.156,-43.457,-35.645,-32.227,0.000
1709215145.924,-41.016,-42.969,-40.527,-31.738,0.000
1709215145.928,-37.598,-41.016,-43.457,-38.574,0.000
1709215145.932,-29.785,-42.969,-47.363,-41.016,0.000
1709215145.936,-26.367,-42.480,-39.551,-40.039,0.000
1709215145.940,-27.344,-39.551,-41.016,-39.551,0.000
1709215145.944,-25.391,-39.062,-40.527,-40.527,0.000
1709215145.948,-26.367,-40.527,-40.039,-44.922,0.000
1709215145.952,-28.320,-40.039,-39.062,-48.340,0.000
1709215145.956,-23.926,-39.551,-28.809,-38.086,0.000
1709215145.960,-16.602,-47.363,-28.320,-29.785,0.000
1709215145.963,-36.133,-41.504,-35.645,-44.434,0.000
1709215145.967,-47.363,-34.180,-35.156,-51.270,0.000
1709215145.971,-34.668,-47.363,-32.715,-39.062,0.000
1709215145.975,-27.832,-46.387,-32.715,-23.926,0.000
1709215145.979,-30.762,-36.621,-34.180,-24.414,0.000
1709215145.983,-34.668,-41.016,-35.156,-37.109,0.000
1709215145.987,-31.250,-37.598,-36.133,-37.598,0.000
1709215145.991,-24.902,-31.738,-38.086,-33.691,0.000
1709215145.995,-26.855,-35.156,-37.598,-33.203,0.000
1709215145.999,-41.016,-45.410,-38.574,-34.180,0.000
1709215146.003,-51.758,-49.316,-45.410,-54.199,0.000
1709215146.007,-50.781,-48.828,-44.434,-62.012,0.000
1709215146.010,-44.434,-46.875,-37.598,-62.012,0.000
1709215146.014,-35.645,-42.969,-34.180,-53.223,0.000
1709215146.018,-33.203,-44.434,-35.645,-42.480,0.000
1709215146.022,-33.691,-51.270,-31.250,-41.992,0.000
1709215146.026,-40.039,-47.363,-28.320,-42.480,0.000
1709215146.030,-44.434,-52.246,-33.691,-43.457,0.000
1709215146.034,-40.527,-48.340,-34.180,-44.922,0.000
1709215146.038,-41.504,-35.156,-33.203,-47.363,0.000
1709215146.042,-49.316,-35.645,-31.738,-46.387,0.000
1709215146.046,-47.363,-46.387,-27.344,-50.781,0.000
1709215146.050,-41.016,-52.734,-30.273,-46.387,0.000
1709215146.054,-47.852,-41.016,-38.086,-33.691,0.000
1709215146.058,-55.176,-40.527,-45.410,-34.668,0.000
1709215146.062,-57.129,-41.992,-43.457,-46.387,0.000
1709215146.065,-57.617,-31.738,-37.109,-52.734,0.000
1709215146.069,-56.641,-32.227,-33.691,-47.363,0.000
1709215146.073,-48.340,-32.715,-34.668,-31.250,0.000
1709215146.077,-48.828,-38.574,-37.598,-27.344,0.000
1709215146.081,-51.270,-41.016,-40.039,-44.434,0.000
1709215146.085,-48.828,-46.875,-41.016,-43.457,0.000
1709215146.089,-43.945,-55.664,-35.645,-47.363,0.000
1709215146.093,-51.758,-44.922,-36.133,-53.223,0.000
1709215146.097,-55.176,-35.156,-35.156,-43.457,0.000
1709215146.101,-52.734,-34.180,-37.598,-42.969,0.000
1709215146.104,-48.340,-36.621,-42.969,-44.434,0.000
1709215146.108,-31.738,-53.223,-35.156,-44.434,0.000
1709215146.112,-33.203,-54.199,-35.645,-50.781,0.000
1709215146.116,-41.504,-41.992,-37.598,-44.434,0.000
1709215146.120,-39.551,-38.574,-35.156,-34.180,0.000
1709215146.124,-34.668,-33.691,-30.273,-32.227,0.000
1709215146.128,-31.738,-34.668,-33.203,-35.156,0.000
1709215146.132,-22.949,-42.969,-32.715,-31.738,0.000
1709215146.136,-22.949,-44.922,-29.785,-22.461,0.000
1709215146.140,-38.574,-40.039,-36.621,-33.203,0.000
1709215146.143,-44.922,-50.293,-42.480,-41.016,0.000
1709215146.147,-41.016,-54.199,-41.016,-34.180,0.000
1709215146.151,-37.109,-42.969,-42.969,-35.156,0.000
1709215146.155,-40.039,-35.645,-43.457,-31.738,0.000
1709215146.159,-37.109,-38.086,-35.645,-24.902,0.000
1709215146.163,-36.133,-45.410,-33.691,-26.855,0.000
1709215146.167,-39.551,-37.598,-39.062,-36.133,0.000
1709215146.171,-35.645,-33.691,-38.086,-37.598,0.000
1709215146.175,-31.250,-42.480,-38.574,-26.367,0.000
1709215146.179,-29.297,-43.457,-40.527,-20.996,0.000
1709215146.182,-29.785,-40.039,-39.551,-31.250,0.000
1709215146.186,-29.785,-38.574,-40.039,-41.504,0.000
1709215146.190,-20.508,-43.945,-35.645,-28.809,0.000
1709215146.194,-20.020,-48.828,-34.668,-11.230,0.000
1709215146.198,-28.809,-46.387,-38.574,-17.578,0.000
1709215146.202,-34.668,-41.016,-39.551,-36.621,0.000
1709215146.206,-38.086,-34.668,-41.016,-40.039,0.000
1709215146.210,-34.668,-38.574,-40.039,-34.180,0.000
1709215146.214,-28.320,-36.133,-31.250,-32.715,0.000
1709215146.217,-28.809,-29.785,-33.203,-31.250,0.000
1709215146.221,-34.180,-34.180,-40.039,-36.133,0.000
1709215146.225,-30.273,-35.156,-41.504,-41.016,0.000
1709215146.229,-22.949,-31.250,-38.574,-40.527,0.000
1709215146.233,-19.043,-32.227,-34.668,-36.621,0.000
1709215146.237,-14.648,-35.156,-41.992,-23.926,0.000
1709215146.241,-14.160,-40.039,-40.527,-21.973,0.000
1709215146.245,-11.719,-46.875,-34.180,-27.832,0.000
1709215146.249,-4.883,-43.457,-27.344,-20.996,0.000
1709215146.252,-11.230,-42.969,-29.785,-26.367,0.000
1709215146.256,-29.297,-42.969,-34.180,-36.621,0.000
1709215146.260,-27.344,-34.668,-32.715,-37.109,0.000
1709215146.264,-16.113,-35.645,-34.180,-41.016,0.000
1709215146.268,-25.391,-41.992,-37.598,-41.504,0.000
1709215146.272,-35.156,-43.457,-40.039,-40.527,0.000
1709215146.276,-38.574,-49.316,-34.668,-37.109,0.000
1709215146.279,-47.363,-50.781,-38.086,-38.086,0.000
1709215146.283,-46.387,-40.039,-35.156,-39.062,0.000
1709215146.287,-43.457,-28.809,-30.273,-33.691,0.000
1709215146.291,-42.969,-31.250,-30.762,-36.621,0.000
1709215146.295,-43.945,-38.086,-30.273,-33.203,0.000
1709215146.299,-51.270,-43.457,-33.203,-25.391,0.000
1709215146.303,-48.828,-44.434,-30.762,-37.598,0.000
1709215146.307,-45.898,-48.828,-35.156,-45.898,0.000
1709215146.311,-48.340,-59.082,-39.062,-38.574,0.000
1709215146.315,-51.270,-57.617,-42.969,-36.621,0.000
1709215146.318,-53.711,-52.246,-45.898,-40.527,0.000
1709215146.323,-48.828,-46.875,-43.457,-34.180,0.000
1709215146.327,-42.480,-37.598,-44.922,-24.902,0.000
1709215146.331,-38.574,-37.109,-42.969,-20.996,0.000
1709215146.334,-36.133,-35.645,-42.969,-20.508,0.000
1709215146.338,-33.691,-34.668,-39.551,-16.113,0.000
1709215146.342,-28.809,-34.180,-39.551,-12.695,0.000
1709215146.346,-26.367,-31.738,-44.434,-24.414,0.000
1709215146.350,-29.297,-37.598,-46.875,-30.762,0.000
1709215146.354,-27.832,-39.551,-43.945,-20.996,0.000
1709215146.358,-30.273,-41.016,-39.062,-12.695,0.000
1709215146.362,-41.992,-41.016,-42.480,-31.738,0.000
1709215146.366,-40.527,-41.016,-41.016,-46.387,0.000
1709215146.370,-26.367,-44.434,-34.180,-31.738,0.000
1709215146.374,-29.785,-47.363,-32.715,-25.879,0.000
1709215146.378,-45.898,-45.410,-36.133,-37.109,0.000
1709215146.381,-52.734,-34.180,-40.527,-50.293,0.000
1709215146.385,-49.316,-33.203,-36.133,-54.199,0.000
1709215146.389,-48.828,-41.992,-30.762,-48.340,0.000
1709215146.393,-47.852,-43.945,-29.297,-39.551,0.000
1709215146.397,-46.387,-40.527,-29.297,-34.180,0.000
1709215146.401,-58.594,-45.410,-32.227,-28.809,0.000
1709215146.405,-64.453,-55.664,-29.785,-17.578,0.000
1709215146.409,-53.223,-58.105,-32.227,-29.785,0.000
1709215146.413,-44.922,-57.129,-40.039,-37.109,0.000
1709215146.417,-42.480,-55.176,-34.180,-20.996,0.000
1709215146.421,-45.410,-60.059,-30.273,-17.090,0.000
1709215146.425,-49.316,-50.293,-30.273,-24.902,0.000
1709215146.428,-54.199,-46.875,-31.738,-31.250,0.000
1709215146.432,-46.875,-49.316,-25.879,-24.902,0.000
1709215146.436,-40.527,-45.898,-23.438,-20.020,0.000
1709215146.440,-46.875,-51.270,-28.809,-32.715,0.000
1709215146.444,-45.898,-58.105,-31.250,-37.109,0.000
1709215146.448,-35.645,-55.664,-27.832,-28.320,0.000
1709215146.452,-36.621,-49.805,-29.297,-33.203,0.000
1709215146.456,-42.969,-45.898,-37.598,-39.062,0.000
1709215146.460,-37.598,-41.016,-38.574,-34.180,0.000
1709215146.464,-26.855,-39.551,-38.574,-34.668,0.000
1709215146.468,-30.762,-45.898,-38.086,-44.434,0.000
1709215146.471,-34.180,-47.363,-40.039,-44.922,0.000
1709215146.475,-29.785,-43.457,-41.504,-37.109,0.000
1709215146.479,-45.410,-43.457,-44.922,-51.270,0.000
1709215146.483,-50.781,-41.016,-41.016,-59.082,0.000
1709215146.487,-43.457,-38.574,-28.320,-42.480,0.000
1709215146.491,-49.316,-43.457,-26.855,-41.504,0.000
1709215146.495,-48.828,-41.504,-29.297,-38.086,0.000
1709215146.499,-49.805,-38.574,-27.832,-39.062,0.000
1709215146.503,-49.316,-40.527,-28.809,-52.734,0.000
1709215146.507,-39.551,-43.457,-25.391,-50.781,0.000
1709215146.510,-36.621,-41.016,-24.902,-41.504,0.000
1709215146.514,-43.945,-41.992,-28.320,-35.645,0.000
1709215146.518,-49.316,-51.758,-23.926,-39.062,0.000
1709215146.522,-51.758,-49.316,-23.926,-40.527,0.000
1709215146.526,-51.270,-47.363,-26.855,-40.527,0.000
1709215146.530,-48.828,-49.805,-24.414,-42.480,0.000
1709215146.534,-50.781,-51.758,-32.227,-35.645,0.000
1709215146.538,-52.734,-47.852,-35.645,-17.578,0.000
1709215146.542,-53.711,-45.898,-36.133,-21.973,0.000
1709215146.546,-43.457,-39.551,-41.992,-41.504,0.000
1709215146.549,-37.109,-41.992,-41.992,-38.086,0.000
1709215146.553,-38.086,-41.992,-42.480,-36.133,0.000
1709215146.557,-36.621,-35.645,-44.922,-37.109,0.000
1709215146.561,-33.691,-40.039,-43.457,-36.621,0.000
1709215146.565,-33.691,-38.086,-38.574,-36.621,0.000
1709215146.569,-38.574,-36.133,-39.062,-38.574,0.000
1709215146.573,-43.457,-36.621,-36.621,-43.457,0.000
1709215146.577,-41.992,-33.203,-28.809,-44.434,0.000
1709215146.581,-44.922,-41.016,-36.133,-47.363,0.000
1709215146.584,-42.969,-52.734,-40.527,-48.340,0.000
1709215146.588,-38.574,-50.781,-38.574,-53.223,0.000
1709215146.592,-40.527,-45.410,-36.621,-50.781,0.000
1709215146.596,-39.551,-40.039,-34.180,-38.574,0.000
1709215146.600,-42.480,-41.992,-33.691,-41.016,0.000
1709215146.604,-41.992,-43.945,-34.180,-42.480,0.000
1709215146.608,-34.668,-40.527,-30.273,-37.598,0.000
1709215146.612,-28.809,-49.316,-22.461,-32.227,0.000
1709215146.616,-39.062,-57.617,-24.414,-33.203,0.000
1709215146.619,-44.434,-48.340,-37.109,-39.551,0.000
1709215146.623,-43.945,-41.504,-39.062,-35.645,0.000
1709215146.627,-41.504,-42.969,-35.156,-21.973,0.000
1709215146.631,-41.016,-47.852,-36.621,-20.020,0.000
1709215146.635,-43.457,-47.852,-38.086,-28.320,0.000
1709215146.639,-41.016,-43.945,-36.133,-28.809,0.000
1709215146.643,-39.551,-51.270,-30.273,-26.855,0.000
1709215146.647,-36.133,-38.574,-26.367,-25.391,0.000
1709215146.650,-33.691,-34.668,-29.297,-23.438,0.000
1709215146.654,-35.645,-49.805,-41.016,-22.949,0.000
1709215146.658,-39.062,-48.340,-38.086,-29.785,0.000
1709215146.662,-43.945,-39.551,-30.273,-35.156,0.000
1709215146.666,-47.852,-35.645,-34.668,-41.016,0.000
1709215146.670,-46.387,-43.457,-45.410,-51.270,0.000
1709215146.674,-44.434,-52.246,-44.434,-30.762,0.000
1709215146.678,-38.086,-46.387,-38.574,-24.902,0.000
1709215146.682,-43.457,-41.016,-40.039,-40.039,0.000
1709215146.686,-41.016,-44.922,-44.434,-36.133,0.000
1709215146.689,-41.016,-43.945,-48.340,-37.598,0.000
1709215146.693,-49.316,-40.527,-43.457,-37.109,0.000
1709215146.698,-39.551,-43.457,-39.551,-23.438,0.000
1709215146.701,-34.668,-49.805,-42.480,-25.879,0.000
1709215146.705,-32.715,-44.922,-44.434,-35.156,0.000
1709215146.709,-33.203,-40.039,-48.828,-40.039,0.000
1709215146.713,-34.180,-46.387,-46.387,-29.297,0.000
1709215146.717,-28.809,-50.781,-34.668,-18.066,0.000
1709215146.721,-30.762,-41.504,-31.738,-35.645,0.000
1709215146.725,-31.250,-30.273,-37.109,-43.945,0.000
1709215146.729,-31.738,-36.621,-37.598,-28.320,0.000
1709215146.733,-31.738,-44.922,-29.785,-18.555,0.000
1709215146.737,-26.367,-37.598,-27.832,-20.996,0.000
1709215146.740,-31.250,-35.645,-32.227,-23.926,0.000
1709215146.745,-32.715,-33.203,-30.762,-27.344,0.000
1709215146.748,-29.785,-38.574,-33.203,-31.738,0.000
1709215146.752,-28.809,-39.551,-39.551,-35.156,0.000
1709215146.756,-26.367,-41.992,-38.574,-40.527,0.000
1709215146.760,-24.902,-43.945,-33.203,-43.457,0.000
1709215146.764,-22.461,-40.039,-32.715,-46.387,0.000
1709215146.768,-23.926,-49.316,-36.133,-42.969,0.000
1709215146.772,-28.320,-45.410,-42.480,-36.621,0.000
1709215146.776,-27.832,-43.945,-41.504,-28.320,0.000
1709215146.780,-28.320,-53.711,-36.621,-20.996,0.000
1709215146.784,-43.457,-50.293,-47.852,-44.434,0.000
1709215146.788,-41.992,-40.527,-53.223,-50.781,0.000
1709215146.792,-34.180,-37.109,-39.551,-34.668,0.000
1709215146.795,-44.922,-38.086,-34.668,-37.109,0.000
1709215146.799,-45.410,-41.016,-30.273,-37.109,0.000
1709215146.803,-39.551,-47.363,-35.156,-49.316,0.000
1709215146.807,-40.039,-44.922,-38.574,-54.199,0.000
1709215146.811,-44.434,-42.969,-37.598,-48.340,0.000
1709215146.815,-47.852,-47.852,-39.551,-41.992,0.000
1709215146.819,-45.410,-44.434,-32.227,-31.250,0.000
1709215146.823,-44.434,-41.504,-31.738,-23.438,0.000
1709215146.827,-47.852,-41.504,-39.062,-28.320,0.000
1709215146.831,-37.109,-41.016,-35.156,-30.762,0.000
1709215146.835,-31.250,-47.852,-34.668,-29.297,0.000
1709215146.838,-36.133,-45.410,-37.598,-24.902,0.000
1709215146.842,-39.062,-33.203,-41.992,-33.203,0.000
1709215146.846,-41.016,-35.156,-46.875,-40.527,0.000
1709215146.850,-42.969,-37.109,-40.039,-32.715,0.000
1709215146.854,-41.504,-37.109,-32.715,-26.855,0.000
1709215146.858,-41.504,-48.340,-33.203,-27.832,0.000
1709215146.862,-47.852,-58.105,-35.645,-39.551,0.000
1709215146.866,-44.922,-53.711,-37.598,-44.922,0.000
1709215146.870,-37.598,-52.246,-38.086,-28.320,0.000
1709215146.874,-36.133,-44.922,-36.133,-25.391,0.000
1709215146.877,-38.086,-42.480,-38.574,-32.227,0.000
1709215146.881,-41.992,-53.223,-43.457,-45.410,0.000
1709215146.885,-38.574,-58.594,-41.016,-42.480,0.000
1709215146.889,-37.598,-61.523,-41.992,-39.062,0.000
1709215146.893,-45.898,-49.805,-45.410,-46.875,0.000
1709215146.897,-41.016,-42.969,-44.434,-37.109,0.000
1709215146.901,-40.039,-43.945,-40.039,-41.016,0.000
1709215146.905,-47.852,-36.621,-39.062,-58.594,0.000
1709215146.909,-51.270,-44.434,-41.992,-71.777,0.000
1709215146.913,-37.109,-54.199,-34.180,-55.176,0.000
1709215146.916,-29.297,-54.199,-29.297,-28.809,0.000
1709215146.920,-37.598,-51.270,-32.715,-36.621,0.000
1709215146.924,-35.645,-45.410,-30.273,-48.340,0.000
1709215146.928,-25.391,-40.527,-29.297,-42.969,0.000
1709215146.932,-34.668,-43.945,-32.227,-40.039,0.000
1709215146.936,-39.062,-39.062,-33.203,-38.574,0.000
1709215146.940,-34.668,-34.180,-33.203,-30.762,0.000
1709215146.944,-38.574,-44.922,-34.180,-33.203,0.000
1709215146.948,-28.320,-47.852,-23.926,-30.762,0.000
1709215146.951,-24.414,-38.574,-24.902,-26.367,0.000
1709215146.955,-25.879,-43.945,-33.203,-21.973,0.000
1709215146.959,-25.391,-44.434,-37.598,-13.672,0.000
1709215146.963,-27.832,-36.621,-41.992,-27.344,0.000
1709215146.967,-25.391,-42.969,-39.062,-37.109,0.000
1709215146.971,-20.996,-45.410,-37.109,-29.785,0.000
1709215146.975,-26.367,-39.062,-39.062,-25.879,0.000
1709215146.979,-34.668,-39.551,-40.527,-28.320,0.000
1709215146.983,-32.715,-39.551,-41.504,-36.621,0.000
1709215146.986,-34.668,-41.992,-41.016,-44.922,0.000
1709215146.990,-35.645,-48.828,-41.504,-42.969,0.000
1709215146.994,-45.410,-55.176,-42.480,-38.574,0.000
1709215146.998,-56.152,-47.363,-42.969,-46.387,0.000
1709215147.002,-54.199,-47.852,-43.945,-45.410,0.000
1709215147.006,-41.992,-51.270,-39.062,-31.250,0.000
1709215147.010,-35.156,-37.598,-36.621,-37.109,0.000
1709215147.014,-27.344,-28.809,-40.039,-40.039,0.000
1709215147.018,-20.508,-38.086,-45.410,-35.156,0.000
1709215147.022,-29.785,-41.016,-51.270,-40.527,0.000
1709215147.025,-25.391,-31.738,-37.598,-33.691,0.000
1709215147.029,-22.949,-33.203,-31.250,-23.438,0.000
1709215147.033,-35.156,-42.969,-41.016,-27.832,0.000
1709215147.037,-36.621,-41.016,-41.016,-30.762,0.000
1709215147.041,-36.621,-41.016,-36.621,-34.180,0.000
1709215147.045,-37.598,-48.828,-34.180,-33.691,0.000
1709215147.049,-33.691,-44.922,-36.621,-29.297,0.000
1709215147.053,-31.250,-31.738,-37.109,-30.273,0.000
1709215147.056,-42.969,-41.016,-36.621,-37.109,0.000
1709215147.060,-43.945,-54.199,-40.527,-46.875,0.000
1709215147.064,-38.086,-44.434,-36.621,-49.316,0.000
1709215147.068,-40.527,-42.969,-36.621,-42.480,0.000
1709215147.072,-39.062,-42.969,-45.898,-33.203,0.000
1709215147.076,-35.156,-48.340,-41.504,-26.855,0.000
1709215147.080,-40.039,-50.781,-35.645,-32.227,0.000
1709215147.084,-45.898,-39.062,-38.574,-38.574,0.000
1709215147.088,-46.875,-32.227,-39.062,-40.039,0.000
1709215147.092,-46.387,-41.992,-42.969,-37.598,0.000
1709215147.096,-43.457,-45.410,-47.852,-38.574,0.000
1709215147.100,-44.434,-41.504,-44.434,-40.527,0.000
1709215147.104,-39.551,-42.969,-38.574,-42.969,0.000
1709215147.108,-32.227,-41.992,-38.086,-36.133,0.000
1709215147.111,-28.809,-44.434,-41.016,-24.902,0.000
1709215147.115,-28.320,-42.480,-38.086,-27.832,0.000
1709215147.120,-27.344,-30.762,-36.133,-27.832,0.000
1709215147.124,-27.344,-28.809,-38.574,-28.809,0.000
1709215147.128,-31.250,-29.785,-37.109,-34.180,0.000
1709215147.132,-32.715,-34.180,-41.992,-27.832,0.000
1709215147.136,-33.203,-38.086,-41.016,-13.672,0.000
1709215147.140,-37.598,-48.340,-32.227,-10.742,0.000
1709215147.144,-44.434,-49.316,-32.715,-25.391,0.000
1709215147.147,-43.945,-48.828,-34.180,-37.598,0.000
1709215147.151,-45.898,-50.781,-32.227,-35.645,0.000
1709215147.155,-51.270,-47.852,-37.109,-20.508,0.000
1709215147.159,-55.664,-51.270,-41.504,-29.297,0.000
1709215147.163,-54.688,-49.805,-42.480,-44.434,0.000
1709215147.167,-41.016,-41.504,-38.086,-36.133,0.000
1709215147.171,-34.668,-37.109,-36.133,-26.855,0.000
1709215147.175,-38.086,-43.457,-43.457,-22.461,0.000
1709215147.179,-39.062,-41.504,-47.852,-22.461,0.000
1709215147.183,-36.133,-34.180,-43.457,-29.785,0.000
1709215147.187,-30.762,-41.016,-41.016,-40.527,0.000
1709215147.190,-30.762,-46.387,-39.062,-47.363,0.000
1709215147.194,-32.715,-46.875,-40.039,-49.805,0.000
1709215147.198,-29.785,-50.781,-40.527,-44.434,0.000
1709215147.202,-31.738,-44.922,-38.574,-45.410,0.000
1709215147.206,-31.250,-30.273,-32.227,-43.945,0.000
1709215147.210,-38.086,-40.527,-37.109,-43.945,0.000
1709215147.214,-38.574,-43.945,-41.016,-31.250,0.000
1709215147.218,-41.504,-35.645,-43.945,-31.250,0.000
1709215147.222,-48.828,-34.668,-48.828,-51.758,0.000
1709215147.226,-45.898,-35.645,-41.992,-55.176,0.000
1709215147.230,-47.363,-35.156,-40.527,-57.617,0.000
1709215147.233,-44.922,-30.273,-38.086,-51.758,0.000
1709215147.237,-44.434,-40.039,-35.645,-45.410,0.000
1709215147.241,-46.875,-47.852,-35.645,-40.039,0.000
1709215147.245,-51.758,-43.457,-41.016,-41.992,0.000
1709215147.249,-52.246,-38.574,-44.922,-49.805,0.000
1709215147.253,-45.898,-38.086,-42.969,-44.922,0.000
1709215147.257,-45.410,-42.969,-39.551,-40.039,0.000
1709215147.261,-44.434,-38.086,-36.621,-35.645,0.000
1709215147.265,-46.387,-38.086,-39.551,-49.316,0.000
1709215147.268,-44.434,-41.504,-41.016,-60.547,0.000
1709215147.272,-41.504,-35.156,-33.691,-37.109,0.000
1709215147.276,-41.504,-41.504,-31.738,-23.926,0.000
1709215147.280,-43.945,-56.641,-33.203,-28.809,0.000
1709215147.284,-41.504,-51.270,-34.668,-37.598,0.000
1709215147.288,-39.551,-41.016,-40.039,-29.785,0.000
1709215147.292,-41.016,-39.551,-40.527,-26.367,0.000
1709215147.296,-36.621,-50.293,-41.016,-31.738,0.000
1709215147.300,-40.039,-57.617,-44.434,-37.598,0.000
1709215147.304,-45.410,-40.527,-38.574,-46.875,0.000
1709215147.307,-39.551,-27.832,-37.109,-46.387,0.000
1709215147.311,-29.297,-37.598,-38.086,-39.551,0.000
1709215147.315,-29.297,-41.016,-36.621,-27.832,0.000
1709215147.319,-35.156,-39.062,-36.133,-28.809,0.000
1709215147.323,-37.109,-39.551,-41.992,-50.293,0.000
1709215147.327,-28.809,-28.809,-41.016,-51.270,0.000
1709215147.331,-17.090,-25.879,-35.156,-30.762,0.000
1709215147.335,-23.926,-38.574,-32.715,-15.137,0.000
1709215147.339,-37.109,-37.109,-41.016,-29.785,0.000
1709215147.343,-34.180,-27.832,-42.480,-42.480,0.000
1709215147.346,-26.855,-29.297,-38.086,-41.504,0.000
1709215147.350,-23.438,-46.387,-43.945,-43.945,0.000
1709215147.354,-25.879,-50.293,-43.457,-34.180,0.000
1709215147.358,-31.738,-44.922,-38.574,-23.438,0.000
1709215147.362,-32.715,-39.062,-38.086,-24.414,0.000
1709215147.366,-36.133,-32.715,-37.598,-30.273,0.000
1709215147.370,-41.016,-39.062,-41.016,-34.180,0.000
1709215147.374,-42.969,-42.480,-48.340,-32.715,0.000
1709215147.377,-45.410,-45.410,-43.945,-25.391,0.000
1709215147.381,-42.969,-45.410,-40.039,-24.902,0.000
1709215147.385,-29.297,-39.062,-39.551,-26.855,0.000
1709215147.389,-25.391,-38.086,-36.621,-30.762,0.000
1709215147.393,-33.203,-48.828,-36.133,-31.250,0.000
1709215147.397,-34.180,-46.875,-34.668,-27.344,0.000
1709215147.401,-35.645,-39.062,-30.273,-35.156,0.000
1709215147.405,-33.203,-44.434,-29.785,-41.992,0.000
1709215147.408,-33.203,-43.945,-32.227,-44.922,0.000
1709215147.412,-32.715,-41.504,-35.156,-43.457,0.000
1709215147.416,-30.762,-39.062,-36.133,-36.133,0.000
1709215147.420,-35.156,-40.039,-32.227,-32.227,0.000
1709215147.424,-38.086,-47.363,-30.762,-32.227,0.000
1709215147.428,-35.645,-50.293,-30.762,-31.738,0.000
1709215147.432,-36.133,-48.340,-33.203,-30.762,0.000
1709215147.436,-37.109,-48.828,-29.297,-21.973,0.000
1709215147.440,-36.621,-40.039,-27.832,-26.855,0.000
1709215147.444,-41.992,-41.016,-42.480,-41.992,0.000
1709215147.448,-39.551,-50.781,-40.039,-36.133,0.000
1709215147.452,-36.133,-51.270,-35.156,-21.484,0.000
1709215147.456,-28.809,-39.062,-36.621,-15.137,0.000
1709215147.459,-33.203,-27.832,-34.180,-20.996,0.000
1709215147.463,-24.414,-28.809,-29.785,-18.555,0.000
1709215147.467,-3.906,-32.715,-24.414,-8.789,0.000
1709215147.471,-8.301,-26.855,-23.926,-3.906,0.000
1709215147.475,-4.883,-22.949,-18.555,0.488,0.000
1709215147.479,-13.184,-41.016,-23.438,-8.301,0.000
1709215147.483,-19.043,-45.410,-32.715,-22.461,0.000
1709215147.487,-14.648,-31.250,-30.762,-36.621,0.000
1709215147.491,-27.832,-36.621,-32.715,-44.434,0.000
1709215147.495,-39.551,-49.805,-36.621,-34.180,0.000
1709215147.499,-39.062,-42.480,-35.645,-28.320,0.000
1709215147.503,-46.875,-49.316,-35.156,-36.621,0.000
1709215147.507,-52.246,-61.523,-36.621,-51.758,0.000
1709215147.510,-45.410,-61.523,-41.016,-55.664,0.000
1709215147.514,-45.410,-52.734,-38.086,-44.922,0.000
1709215147.518,-50.293,-38.086,-34.180,-45.410,0.000
1709215147.522,-47.852,-38.574,-41.504,-52.246,0.000
1709215147.526,-51.270,-39.062,-48.340,-59.082,0.000
1709215147.530,-59.570,-42.480,-36.621,-43.945,0.000
1709215147.534,-48.340,-41.504,-26.855,-35.156,0.000
1709215147.538,-41.016,-41.504,-27.344,-39.551,0.000
1709215147.542,0.000,-49.805,-28.320,-39.551,0.000
1709215147.546,0.000,-59.570,-32.715,-44.922,0.000
1709215147.550,0.000,-49.316,-33.691,-48.828,0.000
1709215147.554,0.000,-39.551,-37.598,-47.363,0.000
1709215147.557,0.000,-42.969,-47.363,-48.340,0.000
1709215147.561,0.000,-56.152,-47.363,-51.758,0.000
1709215147.565,0.000,-63.965,-37.598,-55.176,0.000
1709215147.569,0.000,-43.457,-37.598,-54.688,0.000
1709215147.573,0.000,-34.180,-38.574,-37.109,0.000
1709215147.577,0.000,-48.340,-34.180,-20.508,0.000
1709215147.581,0.000,-48.340,-33.203,-27.832,0.000
1709215147.585,0.000,-39.551,-28.320,-34.668,0.000
1709215147.589,-38.086,-42.969,-33.203,-40.527,0.000
1709215147.593,-35.645,-43.457,-36.621,-36.621,0.000
1709215147.597,-29.297,-39.551,-30.762,-21.973,0.000
1709215147.601,-26.367,-46.875,-34.668,-20.508,0.000
1709215147.604,-21.973,-51.270,-33.203,-34.180,0.000
1709215147.608,-20.996,-51.758,-30.273,-34.180,0.000
1709215147.612,-29.297,-55.664,-33.691,-29.785,0.000
1709215147.616,-37.598,-46.387,-36.621,-30.762,0.000
1709215147.620,-37.109,-31.250,-37.109,-21.973,0.000
1709215147.624,-36.133,-31.250,-38.086,-28.809,0.000
1709215147.628,-33.691,-33.691,-39.551,-34.180,0.000
1709215147.632,-34.180,-32.227,-32.715,-26.855,0.000
1709215147.637,-46.875,-38.574,0.000,-33.691,0.000
1709215147.641,-42.480,-49.316,0.000,-37.598,0.000
1709215147.645,-36.621,-58.105,0.000,-37.109,0.000
1709215147.649,-34.180,-57.617,0.000,-36.621,0.000
1709215147.653,-23.926,-48.340,0.000,-35.645,0.000
1709215147.656,-25.391,-44.434,0.000,-37.109,0.000
1709215147.660,-27.832,-37.598,0.000,-32.227,0.000
1709215147.664,-17.090,-29.297,0.000,-20.996,0.000
1709215147.668,-18.555,-29.785,0.000,-16.602,0.000
1709215147.672,-25.879,-30.273,0.000,-27.832,0.000
1709215147.676,-27.344,-35.156,0.000,-21.484,0.000
1709215147.680,-37.598,-32.715,0.000,-27.344,0.000
1709215147.684,-41.016,-31.250,-34.668,-41.992,0.000
1709215147.687,-33.203,-35.645,-28.320,-38.574,0.000
1709215147.691,-33.203,-41.016,-38.574,-32.715,0.000
1709215147.695,-33.203,-46.387,-41.992,-33.691,0.000
1709215147.699,-37.598,-54.199,-32.715,-33.691,0.000
1709215147.703,-42.969,-54.199,-34.668,-34.180,0.000
1709215147.707,-41.504,-48.828,-36.621,-39.551,0.000
1709215147.711,-41.016,-47.852,-33.691,-40.527,0.000
1709215147.715,-33.691,-45.410,-35.645,-26.367,0.000
1709215147.719,-28.809,-42.480,-41.504,-24.414,0.000
1709215147.723,-28.809,-44.434,-46.387,-37.598,0.000
1709215147.727,-30.762,-43.945,-47.852,-41.992,0.000
1709215147.730,-31.250,-47.363,-47.363,-41.016,0.000
1709215147.734,-29.297,-48.828,-44.434,-39.062,0.000
1709215147.738,-37.598,-50.781,-43.457,-28.809,0.000
1709215147.742,-49.316,-50.293,-41.992,-28.809,0.000
1709215147.746,-47.852,-48.828,-36.133,-50.293,0.000
1709215147.750,-37.109,-47.852,-31.738,-53.223,0.000
1709215147.754,-33.203,-41.992,-35.156,-43.945,0.000
1709215147.758,-38.574,-41.992,-48.340,-45.410,0.000
1709215147.761,-44.434,-41.992,-49.316,-49.316,0.000
1709215147.765,-43.457,-46.387,-42.480,-49.805,0.000
1709215147.769,-34.668,-43.457,-41.992,-38.574,0.000
1709215147.773,-29.297,-35.156,-39.062,-32.715,0.000
1709215147.777,-28.809,-45.898,-37.109,-35.156,0.000
1709215147.781,-30.273,-54.688,-40.039,-34.668,0.000
1709215147.785,-40.039,-49.316,-41.504,-43.457,0.000
1709215147.788,-41.504,-49.316,-47.363,-39.551,0.000
1709215147.792,-33.203,-52.246,-44.922,-33.691,0.000
1709215147.796,-29.297,-41.016,-39.551,-21.484,0.000
1709215147.800,-36.133,-37.109,-41.992,-10.254,0.000
1709215147.804,-41.992,-46.875,-42.480,-27.344,0.000
1709215147.808,-48.828,-46.387,-42.480,-38.574,0.000
1709215147.812,-47.852,-34.180,-37.109,-36.621,0.000
1709215147.816,-47.363,-40.527,-34.668,-35.156,0.000
1709215147.820,-51.270,-48.340,-32.227,-42.480,0.000
1709215147.824,-47.363,-44.434,-24.414,-42.480,0.000
1709215147.828,-45.410,-48.340,-30.762,-39.062,0.000
1709215147.832,-48.828,-46.387,-42.480,-45.898,0.000
1709215147.836,-50.781,-39.062,-38.086,-36.133,0.000
1709215147.839,-46.387,-44.922,-37.598,-30.762,0.000
1709215147.843,-44.434,-41.504,-45.898,-39.551,0.000
1709215147.847,-50.781,-37.598,-46.387,-44.434,0.000
1709215147.851,-46.875,-38.574,-42.480,-41.992,0.000
1709215147.855,-40.039,-37.598,-36.621,-37.598,0.000
1709215147.859,-41.992,-41.504,-33.691,-40.527,0.000
1709215147.863,-49.805,-40.039,-37.109,-47.852,0.000
1709215147.867,-50.293,-38.086,-39.551,-52.734,0.000
1709215147.871,-38.086,-39.551,-32.715,-44.434,0.000
1709215147.875,-38.574,-41.992,-34.180,-34.180,0.000
1709215147.879,-46.387,-42.969,-46.387,-40.039,0.000
1709215147.883,-45.410,-41.016,-48.340,-50.293,0.000
1709215147.886,-40.527,-40.527,-45.410,-50.781,0.000
1709215147.890,-41.992,-44.922,-48.340,-49.316,0.000
1709215147.894,-40.039,-38.086,-46.875,-40.527,0.000
1709215147.898,-36.621,-35.156,-42.969,-42.480,0.000
1709215147.902,-42.969,-43.945,-42.480,-50.293,0.000
1709215147.906,-37.109,-41.992,-42.480,-42.969,0.000
1709215147.910,-35.156,-35.156,-43.945,-49.316,0.000
1709215147.914,-39.062,-41.992,-41.992,-48.828,0.000
1709215147.918,0.000,-43.945,-33.691,-32.715,0.000
1709215147.922,0.000,-45.898,-33.691,-31.250,0.000
1709215147.926,0.000,-49.805,-31.738,-32.227,0.000
1709215147.929,0.000,-44.922,-32.715,-37.598,0.000
1709215147.933,0.000,-44.922,-38.086,-37.109,0.000
1709215147.937,0.000,-41.992,-40.527,-30.273,0.000
1709215147.941,0.000,-35.156,-40.527,-38.086,0.000
1709215147.945,0.000,-39.062,-34.180,-33.691,0.000
1709215147.949,0.000,-48.340,-32.715,-26.367,0.000
1709215147.953,0.000,-47.852,-37.109,-34.668,0.000
1709215147.957,0.000,-45.410,-39.062,-35.645,0.000
1709215147.961,0.000,-41.992,-35.645,-31.250,0.000
1709215147.965,-39.062,-48.340,-35.645,-36.621,0.000
1709215147.968,-35.156,-41.992,-36.621,-41.992,0.000
1709215147.972,-35.645,-39.062,-36.133,-41.016,0.000
1709215147.976,-24.902,-49.316,-38.574,-33.691,0.000
1709215147.980,-30.762,-35.156,-40.039,-36.133,0.000
1709215147.984,-37.598,-25.391,-38.574,-50.781,0.000
1709215147.988,-33.203,-36.133,-38.086,-63.477,0.000
1709215147.992,-34.180,-33.691,-41.504,-52.246,0.000
1709215147.996,-27.832,-27.344,-36.133,-25.879,0.000
1709215148.000,-22.461,-27.832,-34.668,-26.367,0.000
1709215148.004,-34.180,-37.109,-44.434,-41.016,0.000
1709215148.008,-40.527,-45.898,-43.945,-48.340,0.000
1709215148.011,-35.645,-42.480,-41.992,-48.828,0.000
1709215148.015,-32.715,-47.852,-41.504,-39.551,0.000
1709215148.019,-30.273,-47.852,-36.621,-39.062,0.000
1709215148.023,-27.344,-36.621,-40.527,-41.992,0.000
1709215148.027,-27.832,-34.180,-36.133,-40.527,0.000
1709215148.031,-25.879,-41.992,-31.738,-32.715,0.000
1709215148.035,-27.832,-44.434,-36.133,-25.391,0.000
1709215148.039,-28.809,-46.875,-34.668,-23.438,0.000
1709215148.043,-30.762,-57.129,-35.156,-22.461,0.000
1709215148.046,-40.527,-62.012,-40.039,-37.109,0.000
1709215148.050,-48.828,-43.457,-42.969,-42.969,0.000
1709215148.054,-48.828,-33.203,-37.598,-26.855,0.000
1709215148.058,-51.758,-45.410,-39.062,-34.180,0.000
1709215148.062,-53.711,-46.387,-37.598,-52.246,0.000
1709215148.066,-58.594,-46.387,-29.785,-50.781,0.000
1709215148.070,-57.617,-49.805,-33.691,-41.992,0.000
1709215148.074,-58.594,-45.898,-38.086,-32.715,0.000
1709215148.078,-57.617,-49.316,-35.645,-35.156,0.000
1709215148.081,-51.758,-44.922,-36.133,-39.062,0.000
1709215148.085,-50.781,-41.504,-38.574,-32.715,0.000
1709215148.089,-42.480,-46.387,-37.109,-39.062,0.000
1709215148.093,-34.668,-43.945,-34.668,-36.133,0.000
1709215148.097,-38.086,-51.270,-38.086,-35.645,0.000
1709215148.101,-38.086,-54.688,-37.598,-42.969,0.000
1709215148.105,-36.621,-42.480,-39.062,-49.805,0.000
1709215148.109,-39.062,-29.785,-41.016,-49.805,0.000
1709215148.112,-26.855,-24.902,-31.738,-30.762,0.000
1709215148.116,-29.297,-39.062,-38.574,-30.273,0.000
1709215148.120,-39.551,-41.504,-43.457,-47.852,0.000
1709215148.124,-38.086,-34.668,-37.598,-59.082,0.000
1709215148.128,-34.180,-39.062,-37.109,-42.969,0.000
1709215148.132,-28.809,-35.645,-38.574,-30.762,0.000
1709215148.136,-25.879,-31.250,-40.039,-38.574,0.000
1709215148.140,-28.809,-40.527,-35.645,-39.062,0.000
1709215148.144,-28.809,-39.551,-32.227,-31.250,0.000
1709215148.148,-39.062,-40.527,-33.691,-37.109,0.000
1709215148.151,-41.504,-37.598,-33.691,-42.480,0.000
1709215148.155,-41.016,-43.457,-34.180,-32.227,0.000
1709215148.159,-49.805,-47.363,-41.016,-37.109,0.000
1709215148.163,-44.922,-40.039,-41.992,-54.688,0.000
1709215148.167,-43.457,-45.410,-39.062,-58.594,0.000
1709215148.171,-48.340,-50.781,-44.434,-52.734,0.000
1709215148.175,-44.434,-49.316,-43.945,-39.551,0.000
1709215148.178,-45.410,-45.898,-49.316,-35.156,0.000
1709215148.182,-52.734,-33.203,-54.199,-47.852,0.000
1709215148.186,-51.758,-30.762,-46.387,-50.781,0.000
1709215148.190,-42.969,-36.133,-43.945,-41.992,0.000
1709215148.194,-50.293,-37.598,-48.340,-57.617,0.000
1709215148.198,-55.176,-40.039,-47.363,-62.500,0.000
1709215148.202,-52.246,-35.645,-37.598,-54.199,0.000
1709215148.205,-58.105,-41.016,-42.480,-67.383,0.000
1709215148.209,-60.547,-48.340,-50.293,-73.242,0.000
1709215148.213,-57.129,-39.062,-49.316,-61.035,0.000
1709215148.217,-55.664,-44.922,-50.293,-56.641,0.000
1709215148.221,-53.223,-53.711,-46.387,-65.430,0.000
1709215148.225,-46.387,-41.504,-41.504,-65.918,0.000
1709215148.229,-38.086,-32.227,-38.574,-52.734,0.000
1709215148.233,-36.621,-47.852,-36.133,-38.086,0.000
1709215148.237,-38.574,-53.223,-38.086,-39.551,0.000
1709215148.241,-38.574,-45.410,-39.551,-44.434,0.000
1709215148.245,-33.203,-41.992,-40.039,-33.691,0.000
1709215148.249,-34.180,-35.645,-39.062,-17.090,0.000
1709215148.252,-38.086,-43.457,-39.062,-20.020,0.000
1709215148.256,-40.527,-52.734,-37.598,-19.531,0.000
1709215148.260,-34.180,-48.340,-35.156,-11.719,0.000
1709215148.264,-31.250,-46.387,-33.203,-21.973,0.000
1709215148.268,-32.715,-41.992,-30.273,-29.297,0.000
1709215148.272,-31.738,-42.969,-34.180,-26.855,0.000
1709215148.276,-31.738,-47.363,-40.039,-20.020,0.000
1709215148.280,-34.668,-35.156,-41.016,-17.090,0.000
1709215148.284,-41.504,-35.645,-46.387,-33.203,0.000
1709215148.288,-41.504,-49.316,-45.410,-39.062,0.000
1709215148.292,-34.668,-46.387,-39.062,-31.250,0.000
1709215148.296,-33.203,-41.016,-39.062,-30.762,0.000
1709215148.299,-43.457,-40.039,-44.922,-42.969,0.000
1709215148.303,-41.504,-36.621,-45.410,-54.688,0.000
1709215148.307,-36.133,-41.016,-46.387,-51.270,0.000
1709215148.311,-30.273,-39.551,-43.457,-43.945,0.000
1709215148.315,-32.227,-38.574,-41.504,-47.363,0.000
1709215148.319,-52.734,-40.527,-49.316,-54.199,0.000
1709215148.323,-51.270,-43.457,-43.945,-49.805,0.000
1709215148.327,-41.016,-45.410,-36.133,-46.387,0.000
1709215148.331,-37.598,-37.109,-33.203,-39.551,0.000
1709215148.335,-46.875,-45.898,-35.156,-41.504,0.000
1709215148.338,-55.664,-62.012,-39.551,-56.152,0.000
1709215148.342,-45.898,-48.828,-33.203,-52.734,0.000
1709215148.346,-42.969,-37.598,-37.598,-44.922,0.000
1709215148.350,-42.969,-32.715,-41.016,-41.016,0.000
1709215148.354,-44.434,-36.621,-38.086,-31.250,0.000
1709215148.358,-51.758,-43.945,-41.504,-33.691,0.000
1709215148.362,-51.758,-53.711,-38.574,-45.898,0.000
1709215148.366,-53.223,-58.594,-34.668,-47.363,0.000
1709215148.370,-43.945,-53.711,-32.227,-28.320,0.000
1709215148.374,-27.344,-46.387,-28.809,-14.648,0.000
1709215148.378,-25.879,-45.898,-26.855,-21.484,0.000
1709215148.381,-25.391,-47.363,-25.391,-26.855,0.000
1709215148.385,-21.484,-43.457,-28.320,-29.297,0.000
1709215148.389,-20.996,-43.457,-29.785,-23.926,0.000
1709215148.393,-18.555,-48.340,-30.762,-13.184,0.000
1709215148.397,-24.414,-50.781,-35.156,-21.484,0.000
1709215148.401,-35.645,-47.363,-41.992,-35.645,0.000
1709215148.405,-41.016,-40.527,-47.852,-38.574,0.000
1709215148.409,-35.156,-37.598,-48.828,-41.992,0.000
1709215148.413,-29.297,-39.551,-43.945,-30.762,0.000
1709215148.417,-31.250,-41.504,-41.504,-27.832,0.000
1709215148.420,-34.668,-43.945,-42.480,-47.852,0.000
1709215148.424,-34.668,-47.363,-41.992,-50.293,0.000
1709215148.428,-31.250,-44.922,-43.457,-40.039,0.000
