timestamps,TP9,AF7,AF8,TP10,Right AUX
1709212080.210,-36.621,-38.086,-51.758,-48.340,0.000
1709212080.214,-34.180,-40.039,-43.945,-48.340,0.000
1709212080.217,-30.273,-45.410,-42.480,-40.527,0.000
1709212080.221,-30.273,-41.504,-41.992,-39.551,0.000
1709212080.225,-25.391,-41.504,-35.645,-41.016,0.000
1709212080.229,-28.320,-41.504,-40.527,-42.480,0.000
1709212080.233,-46.387,-31.738,-44.434,-32.715,0.000
1709212080.237,-47.363,-23.438,-46.387,-33.691,0.000
1709212080.241,-33.203,-36.133,-43.945,-38.574,0.000
1709212080.245,-30.762,-44.434,-42.480,-48.340,0.000
1709212080.249,-38.574,-36.133,-41.504,-51.270,0.000
1709212080.253,-45.410,-40.527,-40.527,-47.852,0.000
1709212080.257,-38.574,-45.898,-41.992,-41.992,0.000
1709212080.260,-23.438,-49.316,-43.457,-35.645,0.000
1709212080.264,-20.996,-52.734,-39.062,-37.109,0.000
1709212080.268,-31.250,-33.203,-38.086,-47.852,0.000
1709212080.272,-43.457,-28.809,-49.316,-54.688,0.000
1709212080.276,-43.457,-38.086,-47.852,-42.480,0.000
1709212080.280,-34.668,-37.109,-34.668,-41.016,0.000
1709212080.284,-27.832,-37.598,-31.250,-51.270,0.000
1709212080.288,-31.738,-35.156,-26.367,-49.316,0.000
1709212080.292,-38.086,-32.227,-29.297,-47.852,0.000
1709212080.296,-35.156,-34.180,-36.133,-45.410,0.000
1709212080.299,-31.738,-44.922,-39.062,-39.062,0.000
1709212080.303,0.000,-57.129,-40.039,-36.621,0.000
1709212080.307,0.000,-44.922,-41.504,-43.457,0.000
1709212080.311,0.000,-25.391,-41.992,-43.457,0.000
1709212080.315,0.000,-24.902,-41.992,-45.410,0.000
1709212080.319,0.000,-35.645,-46.387,-42.969,0.000
1709212080.323,0.000,-39.551,-52.246,-40.039,0.000
1709212080.327,0.000,-36.133,-51.270,-40.527,0.000
1709212080.331,0.000,-41.504,-47.852,-46.387,0.000
1709212080.335,0.000,-39.551,-44.922,-50.293,0.000
1709212080.339,0.000,-36.133,-41.504,-36.621,0.000
1709212080.342,0.000,-36.133,-46.875,-41.016,0.000
1709212080.346,0.000,-40.039,-51.270,-52.734,0.000
1709212080.350,-46.875,-43.945,-44.434,-52.734,0.000
1709212080.354,-58.105,-36.133,-43.945,-48.828,0.000
1709212080.358,-50.293,-35.156,-44.434,-48.828,0.000
1709212080.362,-38.574,-38.574,-42.480,-51.270,0.000
1709212080.366,-27.344,-43.945,-37.109,-47.363,0.000
1709212080.370,-28.809,-42.480,-40.527,-41.016,0.000
1709212080.374,-37.109,-31.250,-45.410,-40.039,0.000
1709212080.378,-33.203,-28.809,-41.992,-35.156,0.000
1709212080.382,-30.273,-39.551,-42.969,-31.738,0.000
1709212080.385,-39.551,-47.852,-50.781,-43.945,0.000
1709212080.389,-47.363,-40.039,-52.246,-55.664,0.000
1709212080.393,-47.852,-30.273,-43.945,-57.129,0.000
1709212080.397,-48.828,-31.738,-39.551,-57.129,0.000
1709212080.401,-42.480,-34.180,-36.133,-49.805,0.000
1709212080.405,-42.480,-36.133,-37.109,-44.434,0.000
1709212080.409,-47.852,-43.945,-46.875,-49.316,0.000
1709212080.413,-43.457,-40.039,-48.340,-41.016,0.000
1709212080.417,-43.945,-33.691,-38.086,-25.391,0.000
1709212080.421,-40.039,-35.645,-33.691,-20.508,0.000
1709212080.425,-34.668,-51.270,-40.039,-24.414,0.000
1709212080.428,-37.109,-54.688,-40.039,-20.996,0.000
1709212080.432,-47.852,-36.133,-41.504,-29.785,0.000
1709212080.436,-56.152,-29.297,-49.805,-41.016,0.000
1709212080.440,-49.805,-28.320,-48.340,-37.598,0.000
1709212080.444,-35.156,-29.297,-49.805,-34.668,0.000
1709212080.448,-32.715,-35.156,-46.875,-36.133,0.000
1709212080.452,-43.945,-39.551,-37.598,-36.621,0.000
1709212080.456,-45.898,-37.598,-41.992,-27.344,0.000
1709212080.460,-42.480,-31.738,-46.875,-33.691,0.000
1709212080.464,-41.992,-39.551,-47.363,-44.434,0.000
1709212080.467,-47.852,-46.875,-51.758,-49.316,0.000
1709212080.471,-49.805,-43.945,-44.434,-47.852,0.000
1709212080.475,-46.387,-33.203,-41.016,-47.852,0.000
1709212080.479,-43.945,-33.691,-45.898,-55.176,0.000
1709212080.483,-32.715,-35.645,-44.434,-54.688,0.000
1709212080.487,-22.949,-36.621,-39.551,-45.898,0.000
1709212080.491,-21.973,-34.668,-34.668,-31.738,0.000
1709212080.495,-32.715,-36.133,-38.574,-38.574,0.000
1709212080.499,-29.785,-44.434,-40.039,-37.598,0.000
1709212080.503,-18.066,-42.969,-42.480,-26.367,0.000
1709212080.507,-31.738,-45.898,-44.922,-29.297,0.000
1709212080.510,-49.316,-56.641,-44.434,-39.062,0.000
1709212080.514,-53.711,-65.918,-40.527,-42.969,0.000
1709212080.518,-48.340,-62.988,-37.109,-26.367,0.000
1709212080.522,-38.086,-40.527,-36.133,-27.832,0.000
1709212080.526,-43.945,-27.832,-36.133,-38.086,0.000
1709212080.530,-53.711,-41.016,-42.480,-40.039,0.000
1709212080.534,-53.711,-51.758,-45.898,-45.898,0.000
1709212080.538,-45.898,-43.457,-44.922,-45.898,0.000
1709212080.542,-49.316,-44.922,-42.969,-42.969,0.000
1709212080.546,-49.805,-45.410,-49.316,-43.945,0.000
1709212080.549,-49.805,-44.922,-49.316,-53.223,0.000
1709212080.553,-50.781,-49.805,-41.992,-58.594,0.000
1709212080.557,-51.270,-44.434,-38.086,-53.223,0.000
1709212080.561,-53.223,-36.621,-40.039,-51.270,0.000
1709212080.565,-51.758,-33.203,-47.363,-56.641,0.000
1709212080.569,-51.758,-32.227,-45.410,-62.012,0.000
1709212080.573,-52.734,-39.062,-46.875,-60.059,0.000
1709212080.577,-42.969,-39.551,-44.434,-47.852,0.000
1709212080.581,-33.691,-35.645,-39.551,-35.156,0.000
1709212080.585,-31.738,-41.992,-43.945,-36.621,0.000
1709212080.589,-33.203,-48.828,-45.410,-39.551,0.000
1709212080.592,-32.227,-34.180,-38.574,-28.320,0.000
1709212080.596,-34.180,-24.414,-37.109,-20.508,0.000
1709212080.600,-33.203,-30.273,-44.434,-20.508,0.000
1709212080.604,-21.484,-33.691,-40.039,-10.254,0.000
1709212080.608,-25.879,-38.574,-38.086,-11.719,0.000
1709212080.612,-34.668,-39.551,-41.992,-32.715,0.000
1709212080.616,-37.598,-40.527,-39.551,-33.203,0.000
1709212080.620,-30.762,-44.434,-38.574,-22.949,0.000
1709212080.624,-29.785,-44.434,-35.645,-22.461,0.000
1709212080.628,-36.133,-39.062,-39.062,-27.832,0.000
1709212080.631,-39.551,-34.180,-40.039,-32.227,0.000
1709212080.635,-33.691,-31.738,-34.668,-23.438,0.000
1709212080.639,-20.020,-33.203,-38.574,-11.719,0.000
1709212080.643,-25.391,-45.410,-38.086,-18.555,0.000
1709212080.647,-31.250,-54.688,-35.156,-27.832,0.000
1709212080.651,-29.785,-47.363,-38.574,-26.367,0.000
1709212080.655,-30.273,-41.504,-37.109,-21.484,0.000
1709212080.659,-27.832,-41.504,-39.551,-25.391,0.000
1709212080.663,-24.902,-33.691,-38.574,-29.297,0.000
1709212080.667,-33.203,-35.645,-40.039,-31.250,0.000
1709212080.670,-45.410,-41.992,-47.363,-38.574,0.000
1709212080.674,-44.434,-37.109,-41.016,-37.109,0.000
1709212080.678,-39.062,-36.621,-38.086,-29.297,0.000
1709212080.682,-41.016,-59.082,-41.504,-31.738,0.000
1709212080.686,-46.387,-51.758,-39.062,-42.969,0.000
1709212080.690,-42.480,-37.598,-35.156,-43.945,0.000
1709212080.694,-42.969,-49.316,-36.621,-41.992,0.000
1709212080.698,-50.293,-47.852,-37.109,-43.457,0.000
1709212080.702,-52.246,-41.016,-39.551,-45.410,0.000
1709212080.706,-50.781,-40.039,-45.410,-53.711,0.000
1709212080.710,-48.828,-48.340,-54.199,-52.734,0.000
1709212080.713,-50.781,-49.316,-48.340,-44.434,0.000
1709212080.717,-49.316,-32.715,-37.109,-43.457,0.000
1709212080.721,-38.574,-27.344,-38.086,-32.715,0.000
1709212080.725,-37.598,-45.410,-43.945,-30.273,0.000
1709212080.729,-50.293,-53.223,-50.781,-42.969,0.000
1709212080.733,-53.223,-47.852,-48.828,-45.898,0.000
1709212080.737,-42.969,-49.316,-38.574,-34.180,0.000
1709212080.741,-27.832,-51.758,-38.086,-24.414,0.000
1709212080.745,-24.902,-41.992,-48.340,-29.297,0.000
1709212080.749,-27.832,-32.227,-47.363,-29.785,0.000
1709212080.753,-25.879,-27.832,-43.457,-23.926,0.000
1709212080.756,-26.855,-24.902,-50.781,-28.809,0.000
1709212080.760,-22.949,-12.695,-54.199,-23.926,0.000
1709212080.764,-24.414,0.000,-56.152,-25.879,0.000
1709212080.768,-27.832,3.906,-62.500,-30.273,0.000
1709212080.772,-32.715,8.789,-70.801,-32.715,0.000
1709212080.776,-25.879,17.578,-76.172,-38.574,0.000
1709212080.780,-5.371,25.391,-75.195,-30.273,0.000
1709212080.784,-4.883,23.926,-82.031,-29.297,0.000
1709212080.788,-9.277,26.367,-87.402,-44.434,0.000
1709212080.792,-9.277,40.039,-83.496,-44.434,0.000
1709212080.796,-10.254,39.551,-81.543,-37.109,0.000
1709212080.799,-9.277,39.062,-81.543,-33.691,0.000
1709212080.803,-4.395,47.852,-85.938,-26.367,0.000
1709212080.807,-4.883,54.199,-88.867,-31.738,0.000
1709212080.811,-0.488,67.871,-86.914,-29.785,0.000
1709212080.815,2.930,65.918,-96.680,-32.715,0.000
1709212080.819,9.277,62.500,-104.980,-40.527,0.000
1709212080.823,16.602,69.824,-103.027,-44.434,0.000
1709212080.827,8.301,74.219,-99.121,-37.109,0.000
1709212080.831,9.766,77.637,-95.215,-27.344,0.000
1709212080.835,21.484,70.312,-91.797,-24.414,0.000
1709212080.838,22.949,62.988,-93.750,-20.508,0.000
1709212080.842,28.809,68.359,-98.633,-24.414,0.000
1709212080.846,33.691,66.406,-97.168,-13.672,0.000
1709212080.850,22.461,67.383,-96.191,-5.371,0.000
1709212080.854,17.578,70.801,-106.934,-21.484,0.000
1709212080.858,25.879,59.570,-109.375,-21.973,0.000
1709212080.862,33.691,60.547,-99.609,-1.953,0.000
1709212080.866,27.832,67.871,-100.098,-5.859,0.000
1709212080.870,16.602,60.059,-101.562,-19.531,0.000
1709212080.874,17.578,48.340,-95.703,-9.766,0.000
1709212080.878,18.555,41.992,-89.844,-2.441,0.000
1709212080.881,11.719,37.598,-93.750,-5.371,0.000
1709212080.885,13.184,35.156,-89.844,-5.859,0.000
1709212080.889,14.648,21.973,-83.008,-2.930,0.000
1709212080.893,8.789,14.648,-87.402,5.859,0.000
1709212080.897,5.859,24.414,-89.844,1.953,0.000
1709212080.901,13.184,27.832,-90.820,-2.930,0.000
1709212080.905,25.879,26.367,-84.961,-3.906,0.000
1709212080.909,24.902,20.020,-79.102,-7.812,0.000
1709212080.913,23.926,21.973,-78.125,-7.812,0.000
1709212080.917,18.555,16.602,-82.031,-7.324,0.000
1709212080.920,20.996,9.766,-86.914,-8.789,0.000
1709212080.924,29.297,20.508,-84.473,-12.695,0.000
1709212080.928,13.672,20.020,-74.219,-11.719,0.000
1709212080.932,-0.488,6.836,-65.430,-1.465,0.000
1709212080.936,0.977,5.371,-59.082,2.930,0.000
1709212080.940,0.488,7.324,-62.012,-5.371,0.000
1709212080.944,-2.930,2.441,-69.824,-14.648,0.000
1709212080.948,-9.277,-8.789,-67.871,-20.996,0.000
1709212080.952,-7.324,-10.742,-62.012,-22.461,0.000
1709212080.956,-6.348,1.465,-61.523,-24.414,0.000
1709212080.959,-16.113,-2.441,-63.477,-31.738,0.000
1709212080.963,-18.555,-9.277,-58.105,-29.785,0.000
1709212080.967,-20.508,-15.625,-56.641,-29.297,0.000
1709212080.971,-21.973,-18.555,-65.430,-30.762,0.000
1709212080.975,-24.414,-17.578,-65.918,-28.320,0.000
1709212080.979,-31.738,-25.391,-53.711,-27.344,0.000
1709212080.983,-26.855,-20.996,-44.922,-12.695,0.000
1709212080.987,-25.879,-15.137,-48.340,-19.043,0.000
1709212080.991,-41.992,-19.043,-53.223,-35.645,0.000
1709212080.995,-45.898,-9.766,-51.758,-29.785,0.000
1709212080.999,-37.598,-15.625,-52.734,-26.855,0.000
1709212081.002,-31.250,-22.949,-54.688,-33.691,0.000
1709212081.006,-38.086,-22.949,-53.711,-40.527,0.000
1709212081.010,-44.434,-34.180,-50.781,-39.062,0.000
1709212081.014,-41.992,-34.668,-48.828,-28.320,0.000
1709212081.018,-36.621,-27.344,-51.758,-25.391,0.000
1709212081.022,-25.879,-26.367,-50.781,-23.438,0.000
1709212081.026,-23.438,-23.926,-45.898,-27.832,0.000
1709212081.030,-27.344,-24.902,-42.480,-30.273,0.000
1709212081.034,-31.738,-28.320,-48.340,-28.809,0.000
1709212081.037,-29.297,-22.461,-49.805,-23.926,0.000
1709212081.041,-17.090,-26.367,-42.480,-13.672,0.000
1709212081.045,-17.090,-33.691,-42.969,-15.625,0.000
1709212081.049,-31.250,-29.297,-49.316,-20.020,0.000
1709212081.053,-37.598,-26.855,-53.711,-16.602,0.000
1709212081.057,-32.715,-37.109,-50.293,-16.113,0.000
1709212081.061,-28.809,-44.922,-42.969,-16.602,0.000
1709212081.065,-27.832,-39.551,-39.551,-18.555,0.000
1709212081.069,-30.762,-33.691,-42.969,-28.320,0.000
1709212081.073,-36.621,-31.738,-47.852,-28.320,0.000
1709212081.077,-34.180,-32.227,-42.969,-22.949,0.000
1709212081.080,-33.691,-32.715,-37.109,-23.926,0.000
1709212081.084,-38.574,-35.156,-44.922,-30.273,0.000
1709212081.088,-38.086,-46.387,-45.898,-28.809,0.000
1709212081.092,-43.457,-45.410,-43.457,-38.574,0.000
1709212081.096,-43.457,-30.273,-48.340,-45.410,0.000
1709212081.100,-31.738,-29.785,-49.316,-35.645,0.000
1709212081.104,-25.391,-36.621,-40.039,-23.926,0.000
1709212081.108,-30.762,-37.598,-37.598,-26.367,0.000
1709212081.112,-36.621,-42.480,-46.387,-40.527,0.000
1709212081.116,-30.762,-37.109,-49.805,-44.434,0.000
1709212081.120,-31.250,-36.133,-50.781,-43.457,0.000
1709212081.123,-29.785,-42.969,-45.410,-46.875,0.000
1709212081.127,-29.785,-38.574,-38.574,-47.852,0.000
1709212081.131,-39.551,-36.133,-41.504,-38.574,0.000
1709212081.135,-47.363,-35.156,-37.109,-33.691,0.000
1709212081.139,-47.363,-31.738,-35.156,-30.762,0.000
1709212081.143,-41.016,-37.109,-41.504,-26.855,0.000
1709212081.147,-31.738,-32.227,-37.109,-31.250,0.000
1709212081.151,-32.227,-41.504,-33.691,-34.180,0.000
1709212081.155,-38.086,-40.039,-38.086,-31.250,0.000
1709212081.159,-26.855,-26.367,-41.992,-25.391,0.000
1709212081.163,-22.949,-40.039,-43.945,-17.090,0.000
1709212081.166,-32.715,-39.551,-46.875,-23.926,0.000
1709212081.170,-30.762,-20.020,-44.434,-32.715,0.000
1709212081.174,-29.785,-21.973,-41.992,-27.344,0.000
1709212081.178,-29.785,-30.273,-41.992,-17.090,0.000
1709212081.182,-21.973,-31.250,-48.828,-26.367,0.000
1709212081.186,-18.555,-32.227,-51.270,-39.062,0.000
1709212081.190,-26.367,-33.691,-42.969,-44.434,0.000
1709212081.194,-36.133,-42.969,-46.875,-36.133,0.000
1709212081.198,-26.367,-42.480,-49.805,-28.320,0.000
1709212081.202,-16.602,-32.227,-44.434,-33.203,0.000
1709212081.205,-24.902,-31.738,-41.504,-32.227,0.000
1709212081.209,-33.203,-27.344,-40.039,-31.250,0.000
1709212081.213,-33.203,-33.691,-41.992,-29.785,0.000
1709212081.217,-29.785,-43.457,-51.758,-28.809,0.000
1709212081.221,-25.879,-39.062,-54.688,-28.320,0.000
1709212081.225,-29.297,-29.297,-50.781,-26.855,0.000
1709212081.229,-30.273,-24.414,-48.828,-35.156,0.000
1709212081.233,-38.574,-35.156,-46.875,-36.621,0.000
1709212081.237,-47.852,-38.086,-51.270,-44.922,0.000
1709212081.241,-41.016,-33.691,-48.828,-43.457,0.000
1709212081.245,-37.598,-28.320,-41.992,-34.180,0.000
1709212081.248,-43.945,-31.250,-42.969,-43.945,0.000
1709212081.252,-40.039,-28.809,-32.715,-42.480,0.000
1709212081.256,-40.527,-25.879,-36.133,-41.016,0.000
1709212081.260,-47.852,-39.551,-49.316,-53.711,0.000
1709212081.264,-41.992,-45.898,-42.969,-47.852,0.000
1709212081.268,-39.062,-50.293,-44.922,-36.621,0.000
1709212081.272,-51.758,-42.969,-53.711,-51.758,0.000
1709212081.276,-57.129,-32.227,-47.363,-56.641,0.000
1709212081.280,-45.898,-33.203,-48.340,-43.945,0.000
1709212081.284,-39.062,-32.227,-47.852,-50.781,0.000
1709212081.287,-49.805,-43.945,-45.898,-58.594,0.000
1709212081.291,-58.594,-53.223,-42.969,-51.270,0.000
1709212081.295,-48.828,-45.898,-32.227,-39.062,0.000
1709212081.299,-44.434,-36.133,-30.762,-29.785,0.000
1709212081.303,-48.340,-26.855,-39.062,-28.809,0.000
1709212081.307,-45.898,-27.344,-46.387,-35.645,0.000
1709212081.311,-34.668,-29.297,-44.434,-23.926,0.000
1709212081.315,-26.367,-30.762,-31.738,-11.230,0.000
1709212081.319,-27.344,-35.645,-32.715,-22.949,0.000
1709212081.323,-21.973,-46.875,-31.738,-20.996,0.000
1709212081.327,-23.438,-41.016,-27.832,-26.855,0.000
1709212081.330,-27.832,-35.645,-34.180,-35.156,0.000
1709212081.334,-25.879,-47.852,-36.133,-27.344,0.000
1709212081.338,-21.973,-44.922,-34.668,-27.344,0.000
1709212081.342,-19.043,-36.621,-36.621,-30.273,0.000
1709212081.346,-20.020,-36.621,-41.992,-41.504,0.000
1709212081.350,-24.414,-41.992,-42.480,-43.457,0.000
1709212081.354,-22.461,-34.180,-42.969,-39.551,0.000
1709212081.358,-18.066,-28.809,-43.457,-24.902,0.000
1709212081.362,-16.602,-29.785,-41.016,-20.020,0.000
1709212081.366,-15.625,-30.273,-40.527,-46.875,0.000
1709212081.369,-34.180,-42.480,-48.340,-60.547,0.000
1709212081.373,-49.316,-49.316,-53.711,-51.270,0.000
1709212081.377,-50.293,-44.922,-49.805,-48.828,0.000
1709212081.381,-48.828,-42.480,-56.641,-58.105,0.000
1709212081.385,-43.945,-41.504,-59.082,-60.059,0.000
1709212081.389,-44.922,-41.992,-46.875,-55.664,0.000
1709212081.393,-43.457,-37.109,-41.504,-58.105,0.000
1709212081.397,-41.504,-33.203,-40.039,-54.199,0.000
1709212081.401,-41.504,-35.156,-42.480,-40.527,0.000
1709212081.405,-36.133,-45.410,-38.574,-36.133,0.000
1709212081.409,-35.156,-48.340,-39.551,-41.016,0.000
1709212081.412,-45.410,-35.156,-46.875,-46.387,0.000
1709212081.416,-45.410,-35.645,-45.410,-41.504,0.000
1709212081.420,-32.715,-31.250,-42.969,-31.250,0.000
1709212081.424,-32.227,-31.250,-43.457,-29.297,0.000
1709212081.428,-35.156,-40.039,-42.969,-31.738,0.000
1709212081.432,-44.434,-49.805,-38.086,-41.016,0.000
1709212081.436,-40.527,-50.293,-37.109,-38.574,0.000
1709212081.440,-31.738,-39.062,-44.922,-29.297,0.000
1709212081.444,-39.551,-40.039,-44.922,-31.738,0.000
1709212081.448,-44.922,-42.480,-40.527,-43.457,0.000
1709212081.452,-46.387,-37.109,-43.945,-46.387,0.000
1709212081.455,-44.922,-34.668,-47.852,-42.969,0.000
1709212081.459,-35.156,-30.762,-48.828,-36.133,0.000
1709212081.463,-25.879,-30.273,-43.945,-26.367,0.000
1709212081.467,-21.484,-34.180,-38.574,-27.344,0.000
1709212081.471,-26.855,-36.621,-34.668,-38.086,0.000
1709212081.475,-30.762,-34.668,-36.133,-47.363,0.000
1709212081.479,-33.691,-31.738,-35.156,-46.387,0.000
1709212081.483,-39.551,-31.738,-36.133,-47.852,0.000
1709212081.487,-39.551,-33.203,-39.551,-53.223,0.000
1709212081.491,-45.410,-31.250,-37.598,-48.828,0.000
1709212081.495,-50.781,-32.715,-41.016,-50.293,0.000
1709212081.498,-50.781,-42.480,-42.969,-47.363,0.000
1709212081.502,-42.480,-41.504,-42.969,-41.016,0.000
1709212081.506,-39.551,-31.738,-44.922,-35.645,0.000
1709212081.510,-47.852,-37.598,-47.852,-34.180,0.000
1709212081.514,-50.293,-39.062,-45.898,-47.363,0.000
1709212081.518,-42.969,-35.156,-38.574,-51.758,0.000
1709212081.522,-32.227,-42.969,-36.133,-47.852,0.000
1709212081.526,-37.109,-42.969,-41.016,-47.852,0.000
1709212081.530,-44.922,-35.645,-44.922,-44.922,0.000
1709212081.534,-41.016,-30.273,-46.875,-46.387,0.000
1709212081.537,-45.898,-33.691,-49.805,-46.875,0.000
1709212081.541,-38.574,-36.621,-47.363,-36.133,0.000
1709212081.545,-33.691,-37.109,-42.480,-32.227,0.000
1709212081.549,-42.480,-35.156,-41.016,-40.527,0.000
1709212081.553,-42.969,-40.039,-45.898,-37.598,0.000
1709212081.557,-42.969,-44.434,-50.293,-38.086,0.000
1709212081.561,-41.504,-41.016,-46.875,-33.691,0.000
1709212081.565,-34.180,-46.875,-42.969,-28.809,0.000
1709212081.569,-42.480,-55.176,-42.969,-40.039,0.000
1709212081.573,-59.570,-49.316,-42.480,-48.340,0.000
1709212081.577,-56.152,-50.781,-40.527,-44.434,0.000
1709212081.580,-45.898,-49.316,-40.039,-37.598,0.000
1709212081.584,-41.504,-37.109,-45.898,-40.527,0.000
1709212081.588,-45.410,-34.180,-44.922,-40.527,0.000
1709212081.592,-45.410,-31.738,-31.738,-36.133,0.000
1709212081.596,-43.945,-37.109,-37.109,-28.320,0.000
1709212081.600,-41.992,-41.504,-43.457,-29.297,0.000
1709212081.604,-39.062,-45.898,-40.039,-50.781,0.000
1709212081.608,-41.992,-53.223,-38.086,-62.500,0.000
1709212081.612,-47.363,-57.129,-41.992,-58.105,0.000
1709212081.616,-53.223,-46.875,-43.457,-52.246,0.000
1709212081.620,-53.711,-28.320,-46.387,-57.617,0.000
1709212081.624,-48.828,-26.855,-49.805,-60.547,0.000
1709212081.627,-44.922,-29.297,-47.852,-57.617,0.000
1709212081.631,-43.945,-25.879,-38.086,-49.805,0.000
1709212081.635,-47.852,-24.902,-32.227,-46.875,0.000
1709212081.639,-44.434,-29.297,-43.945,-40.527,0.000
1709212081.643,-43.457,-30.762,-52.734,-29.785,0.000
1709212081.647,-48.340,-26.367,-52.246,-51.758,0.000
1709212081.651,-44.922,-29.297,-49.316,-58.594,0.000
1709212081.655,-38.574,-31.738,-44.922,-44.434,0.000
1709212081.659,-39.062,-32.227,-40.039,-31.738,0.000
1709212081.663,-41.016,-29.785,-41.992,-25.391,0.000
1709212081.666,-42.969,-25.879,-47.363,-38.086,0.000
1709212081.670,-47.852,-32.227,-49.805,-41.992,0.000
1709212081.674,-48.828,-40.039,-47.363,-39.062,0.000
1709212081.678,-48.828,-40.527,-48.828,-39.551,0.000
1709212081.682,-46.875,-35.645,-48.828,-41.016,0.000
1709212081.686,-42.969,-33.203,-41.992,-43.457,0.000
1709212081.690,-46.875,-35.645,-41.992,-50.293,0.000
1709212081.694,-54.199,-38.574,-40.039,-53.711,0.000
1709212081.698,-56.152,-43.945,-40.527,-52.734,0.000
1709212081.702,-52.246,-43.457,-45.410,-46.875,0.000
1709212081.705,-57.129,-40.527,-49.316,-46.387,0.000
1709212081.709,-60.547,-33.691,-44.922,-47.363,0.000
1709212081.713,-59.570,-32.227,-40.039,-53.711,0.000
1709212081.717,-58.105,-41.016,-42.969,-55.176,0.000
1709212081.721,-51.270,-41.504,-47.852,-47.363,0.000
1709212081.725,-35.645,-33.203,-43.457,-48.828,0.000
1709212081.729,-34.180,-32.227,-37.109,-43.945,0.000
1709212081.733,-42.480,-49.805,-41.016,-32.715,0.000
1709212081.737,-32.227,-48.828,-44.434,-37.598,0.000
1709212081.741,-34.180,-29.785,-39.062,-50.293,0.000
1709212081.744,-36.621,-28.320,-35.645,-50.293,0.000
1709212081.748,-32.715,-39.062,-39.062,-48.828,0.000
1709212081.752,-38.086,-31.738,-37.109,-46.875,0.000
1709212081.756,-39.062,-30.273,-35.156,-36.621,0.000
1709212081.760,-22.461,-38.086,-38.574,-23.926,0.000
1709212081.764,-20.996,-32.715,-39.551,-28.809,0.000
1709212081.768,-35.645,-26.855,-42.969,-39.551,0.000
1709212081.772,-46.875,-40.039,-47.852,-46.875,0.000
1709212081.776,-52.734,-44.434,-50.293,-51.270,0.000
1709212081.780,-46.875,-36.621,-47.363,-52.246,0.000
1709212081.783,-40.527,-37.109,-47.363,-51.758,0.000
1709212081.787,-45.410,-38.574,-50.293,-51.758,0.000
1709212081.791,-54.199,-41.992,-51.758,-52.246,0.000
1709212081.795,-47.852,-35.156,-48.340,-51.758,0.000
1709212081.799,-35.645,-36.621,-50.293,-62.988,0.000
1709212081.803,-40.039,-42.969,-49.316,-60.059,0.000
1709212081.807,-45.410,-42.969,-46.387,-61.523,0.000
1709212081.811,-44.434,-44.434,-49.805,-72.754,0.000
1709212081.815,-51.758,-40.039,-45.898,-70.801,0.000
1709212081.819,-61.035,-43.945,-40.039,-68.359,0.000
1709212081.823,-47.852,-49.316,-39.551,-62.500,0.000
1709212081.826,-43.457,-41.504,-39.062,-61.523,0.000
1709212081.830,-59.570,-43.945,-49.316,-72.266,0.000
1709212081.834,-56.152,-46.875,-52.246,-73.730,0.000
1709212081.838,-42.969,-49.316,-43.457,-60.547,0.000
1709212081.842,-49.316,-48.340,-46.875,-65.918,0.000
1709212081.846,-46.387,-34.668,-50.293,-75.195,0.000
1709212081.850,-41.992,-27.344,-43.945,-68.848,0.000
1709212081.854,-43.457,-39.551,-44.434,-58.594,0.000
1709212081.858,-39.062,-42.969,-51.270,-61.035,0.000
1709212081.862,-31.738,-39.551,-47.852,-55.176,0.000
1709212081.866,-28.809,-41.016,-47.363,-56.152,0.000
1709212081.869,-33.203,-41.504,-48.340,-57.129,0.000
1709212081.873,-35.645,-43.457,-41.992,-46.875,0.000
1709212081.877,-27.344,-43.457,-48.828,-39.062,0.000
1709212081.881,-22.949,-48.828,-48.340,-25.391,0.000
1709212081.885,-30.273,-49.316,-38.086,-30.273,0.000
1709212081.889,-27.832,-34.180,-42.480,-36.621,0.000
1709212081.893,-18.066,-24.902,-38.574,-27.832,0.000
1709212081.897,-20.996,-34.180,-34.180,-44.434,0.000
1709212081.901,-22.461,-39.551,-35.645,-40.527,0.000
1709212081.905,-18.066,-37.109,-32.227,-32.227,0.000
1709212081.909,-23.926,-28.320,-37.598,-39.062,0.000
1709212081.912,-21.484,-36.621,-42.480,-35.645,0.000
1709212081.916,-18.555,-42.480,-41.016,-31.738,0.000
1709212081.920,-30.273,-40.039,-41.992,-31.250,0.000
1709212081.924,-34.180,-47.363,-43.457,-34.668,0.000
1709212081.928,-31.738,-37.598,-32.715,-27.344,0.000
1709212081.932,-37.598,-27.832,-36.133,-37.109,0.000
1709212081.936,-43.457,-31.738,-46.387,-44.434,0.000
1709212081.940,-49.805,-37.109,-41.016,-41.016,0.000
1709212081.944,-52.734,-47.363,-39.062,-45.410,0.000
1709212081.948,-48.340,-46.875,-47.852,-49.316,0.000
1709212081.951,-54.199,-34.668,-43.945,-51.270,0.000
1709212081.955,-64.453,-36.133,-42.480,-55.664,0.000
1709212081.959,-58.105,-33.691,-43.457,-59.082,0.000
1709212081.963,-39.551,-28.320,-35.645,-48.828,0.000
1709212081.967,-44.434,-34.668,-38.574,-53.223,0.000
1709212081.971,-57.617,-40.527,-45.410,-56.152,0.000
1709212081.975,-47.363,-38.574,-42.480,-39.062,0.000
1709212081.979,-40.039,-35.156,-39.551,-38.086,0.000
1709212081.983,-35.645,-35.645,-36.133,-44.922,0.000
1709212081.987,-37.109,-37.598,-32.227,-43.945,0.000
1709212081.990,-38.574,-39.062,-28.320,-37.109,0.000
1709212081.994,-36.621,-37.598,-27.832,-35.645,0.000
1709212081.998,-26.367,-31.738,-33.203,-41.016,0.000
1709212082.002,-20.508,-43.945,-42.480,-38.574,0.000
1709212082.006,-30.273,-44.434,-42.969,-31.250,0.000
1709212082.010,-40.527,-29.785,-42.969,-34.668,0.000
1709212082.014,-43.945,-32.715,-43.457,-32.227,0.000
1709212082.018,-38.574,-41.016,-40.039,-22.949,0.000
1709212082.022,-38.086,-41.016,-44.434,-40.527,0.000
1709212082.026,-40.039,-34.668,-45.410,-52.734,0.000
1709212082.030,-43.945,-34.180,-43.945,-55.664,0.000
1709212082.033,-46.875,-27.832,-48.828,-56.641,0.000
1709212082.037,-42.969,-25.391,-45.410,-52.734,0.000
1709212082.041,-38.574,-39.551,-45.410,-55.664,0.000
1709212082.045,-30.762,-47.363,-47.363,-59.570,0.000
1709212082.049,-32.227,-50.293,-46.387,-57.617,0.000
1709212082.053,-48.340,-46.875,-45.410,-50.293,0.000
1709212082.057,-46.387,-41.016,-42.480,-44.922,0.000
1709212082.061,-35.156,-42.480,-41.016,-42.969,0.000
1709212082.065,-33.203,-35.645,-42.969,-41.016,0.000
1709212082.069,-37.109,-28.809,-41.016,-53.711,0.000
1709212082.072,-40.039,-36.133,-30.762,-56.641,0.000
1709212082.076,-47.363,-38.574,-36.621,-55.176,0.000
1709212082.080,-42.969,-35.645,-44.434,-51.270,0.000
1709212082.084,-41.992,-35.156,-42.969,-41.016,0.000
1709212082.088,-52.734,-40.039,-41.016,-48.340,0.000
1709212082.092,-47.363,-44.922,-38.086,-51.758,0.000
1709212082.096,-41.504,-44.434,-40.527,-48.340,0.000
1709212082.100,-37.598,-36.133,-42.969,-43.457,0.000
1709212082.104,-33.203,-32.227,-36.133,-31.738,0.000
1709212082.108,-43.945,-46.387,-36.133,-26.367,0.000
1709212082.111,-45.898,-47.363,-41.992,-35.156,0.000
1709212082.115,-37.109,-44.434,-45.410,-52.246,0.000
1709212082.119,-37.109,-43.457,-38.574,-59.082,0.000
1709212082.123,-28.320,-44.434,-33.691,-51.270,0.000
1709212082.127,-32.715,-44.434,-41.016,-49.805,0.000
1709212082.131,-35.156,-46.387,-41.992,-46.875,0.000
1709212082.135,-22.461,-52.246,-39.551,-39.062,0.000
1709212082.139,-26.367,-35.156,-46.387,-41.992,0.000
1709212082.143,-26.855,-27.832,-45.898,-41.992,0.000
1709212082.147,-26.855,-38.086,-46.875,-42.480,0.000
1709212082.150,-28.809,-33.691,-50.293,-46.387,0.000
1709212082.154,-29.785,-31.250,-44.922,-49.316,0.000
1709212082.158,-28.320,-38.574,-41.992,-43.945,0.000
1709212082.162,-21.484,-36.133,-42.969,-36.621,0.000
1709212082.166,-36.133,-37.598,-38.574,-35.645,0.000
1709212082.170,-53.711,-44.434,-42.480,-45.410,0.000
1709212082.174,-53.711,-47.363,-51.270,-62.988,0.000
1709212082.178,-49.316,-49.316,-48.828,-52.734,0.000
1709212082.182,-44.434,-47.852,-41.992,-38.086,0.000
1709212082.186,-46.387,-39.062,-38.574,-51.270,0.000
1709212082.190,-54.199,-39.551,-41.504,-64.453,0.000
1709212082.193,-55.176,-43.945,-46.387,-62.012,0.000
1709212082.197,-44.922,-42.480,-44.922,-50.293,0.000
1709212082.201,-35.156,-45.410,-40.527,-36.133,0.000
1709212082.205,-33.691,-44.434,-40.527,-36.621,0.000
1709212082.209,-39.551,-36.133,-42.480,-53.711,0.000
1709212082.213,-47.852,-31.738,-39.551,-54.199,0.000
1709212082.217,-44.434,-42.480,-45.898,-41.504,0.000
1709212082.221,-39.551,-51.270,-51.758,-39.062,0.000
1709212082.225,-39.062,-41.992,-42.480,-43.457,0.000
1709212082.229,-34.180,-36.621,-38.086,-42.969,0.000
1709212082.233,-45.410,-33.691,-41.016,-43.457,0.000
1709212082.236,-51.758,-36.133,-49.316,-48.340,0.000
1709212082.240,-38.574,-34.180,-48.828,-43.457,0.000
1709212082.244,-26.855,-27.832,-47.852,-42.969,0.000
1709212082.248,-29.297,-29.297,-53.223,-48.340,0.000
1709212082.252,-37.109,-32.227,-50.293,-49.805,0.000
1709212082.256,-36.621,-30.762,-40.527,-41.504,0.000
1709212082.260,-38.574,-35.645,-42.480,-37.109,0.000
1709212082.264,-31.738,-40.527,-38.086,-33.203,0.000
1709212082.268,-24.902,-40.039,-32.715,-35.645,0.000
1709212082.272,-35.156,-30.273,-33.203,-49.316,0.000
1709212082.276,-35.645,-31.738,-31.738,-58.105,0.000
1709212082.279,-33.203,-36.621,-36.133,-60.547,0.000
1709212082.283,-37.109,-36.133,-38.086,-59.082,0.000
1709212082.287,-43.945,-37.109,-35.645,-56.152,0.000
1709212082.291,-57.129,-36.133,-41.992,-59.082,0.000
1709212082.295,-66.895,-43.945,-48.340,-64.453,0.000
1709212082.299,-64.453,-44.434,-47.363,-60.059,0.000
1709212082.303,-51.270,-38.574,-47.852,-41.504,0.000
1709212082.307,-50.293,-38.086,-49.805,-52.734,0.000
1709212082.311,-57.617,-34.180,-48.340,-66.406,0.000
1709212082.315,-62.012,-41.992,-49.316,-60.547,0.000
1709212082.318,-56.641,-51.270,-49.805,-42.480,0.000
1709212082.322,-39.551,-38.574,-48.340,-39.062,0.000
1709212082.326,-22.949,-32.227,-46.875,-49.316,0.000
1709212082.330,-26.367,-45.898,-42.969,-47.363,0.000
1709212082.334,-43.457,-47.852,-42.480,-53.223,0.000
1709212082.338,-44.434,-31.738,-39.062,-47.852,0.000
1709212082.342,-38.086,-26.367,-35.156,-41.504,0.000
1709212082.346,-25.879,-38.086,-39.062,-40.527,0.000
1709212082.350,-19.531,-44.922,-38.574,-32.227,0.000
1709212082.354,-34.668,-39.551,-35.156,-42.969,0.000
1709212082.358,-30.273,-31.738,-35.645,-44.434,0.000
1709212082.361,-20.996,-27.832,-32.715,-31.738,0.000
1709212082.365,-29.297,-29.785,-35.156,-42.480,0.000
1709212082.369,-30.273,-36.621,-39.062,-52.246,0.000
1709212082.373,-31.738,-38.574,-41.504,-45.410,0.000
1709212082.377,-36.621,-37.109,-48.340,-49.316,0.000
1709212082.381,-43.457,-33.691,-50.781,-58.594,0.000
1709212082.385,-50.293,-35.645,-47.852,-63.477,0.000
1709212082.389,-46.387,-39.551,-49.316,-64.453,0.000
1709212082.393,-54.688,-40.527,-47.363,-49.316,0.000
1709212082.397,-54.199,-34.668,-45.898,-56.641,0.000
1709212082.400,-41.016,-29.297,-45.410,-65.918,0.000
1709212082.404,-41.992,-33.203,-41.992,-57.129,0.000
1709212082.408,-47.852,-34.668,-44.434,-63.965,0.000
1709212082.412,-51.270,-30.273,-51.270,-75.684,0.000
1709212082.416,-58.594,-41.504,-52.246,-70.801,0.000
1709212082.420,-54.688,-49.316,-52.246,-64.453,0.000
1709212082.424,-49.805,-42.480,-52.246,-59.082,0.000
1709212082.428,-44.434,-41.504,-43.945,-47.852,0.000
1709212082.432,-52.734,-44.434,-43.457,-59.082,0.000
1709212082.436,-57.617,-43.945,-45.898,-56.641,0.000
1709212082.439,-45.410,-35.645,-39.062,-39.062,0.000
1709212082.443,-43.457,-33.691,-38.574,-48.828,0.000
1709212082.447,-40.039,-35.645,-38.574,-47.363,0.000
1709212082.451,-43.457,-35.645,-39.551,-37.109,0.000
1709212082.455,-51.758,-37.598,-47.852,-38.086,0.000
1709212082.459,-42.969,-39.551,-46.875,-33.203,0.000
1709212082.463,-31.250,-44.434,-43.457,-37.109,0.000
1709212082.467,-32.227,-46.875,-47.363,-47.852,0.000
1709212082.471,-37.109,-41.504,-43.945,-41.016,0.000
1709212082.475,-38.574,-41.992,-42.480,-41.504,0.000
1709212082.479,-29.785,-34.180,-37.598,-37.598,0.000
1709212082.483,-28.320,-31.250,-31.738,-21.973,0.000
1709212082.486,-30.273,-38.574,-34.668,-27.832,0.000
1709212082.490,-34.668,-42.480,-41.504,-46.875,0.000
1709212082.494,-38.574,-35.645,-42.480,-47.852,0.000
1709212082.498,-37.109,-30.273,-41.504,-41.992,0.000
1709212082.502,-34.180,-30.273,-51.270,-50.293,0.000
1709212082.506,-36.133,-32.227,-42.480,-50.293,0.000
1709212082.510,-44.434,-34.180,-34.668,-42.480,0.000
1709212082.514,-47.363,-36.133,-35.645,-50.293,0.000
1709212082.518,-49.805,-40.527,-33.203,-55.176,0.000
1709212082.522,-53.711,-47.852,-43.457,-54.688,0.000
1709212082.525,-52.734,-53.711,-47.852,-61.035,0.000
1709212082.529,-59.570,-53.223,-47.363,-73.242,0.000
1709212082.533,-62.988,-37.598,-51.270,-74.219,0.000
1709212082.537,-49.316,-37.109,-52.734,-72.754,0.000
1709212082.541,-34.668,-52.734,-50.293,-62.012,0.000
1709212082.545,-38.086,-45.898,-48.340,-60.547,0.000
1709212082.549,-49.805,-39.551,-45.898,-74.707,0.000
1709212082.553,-55.664,-37.598,-47.363,-72.754,0.000
1709212082.557,-57.129,-35.645,-47.852,-68.359,0.000
1709212082.561,-53.711,-50.293,-42.969,-62.988,0.000
1709212082.565,-45.410,-60.059,-40.527,-56.152,0.000
1709212082.568,-49.805,-47.852,-45.898,-66.406,0.000
1709212082.572,-51.270,-39.551,-50.781,-68.359,0.000
1709212082.576,-36.621,-45.410,-49.805,-47.852,0.000
1709212082.580,-27.344,-48.828,-49.316,-45.898,0.000
1709212082.584,-20.508,-39.551,-47.363,-41.992,0.000
1709212082.588,-22.461,-30.762,-41.992,-32.715,0.000
1709212082.592,-31.250,-33.691,-41.992,-44.434,0.000
1709212082.596,-31.250,-41.992,-41.016,-53.223,0.000
1709212082.600,-29.297,-39.551,-38.574,-51.758,0.000
1709212082.604,-31.738,-40.039,-43.945,-53.711,0.000
1709212082.608,-36.621,-42.969,-41.992,-66.895,0.000
1709212082.611,-46.387,-46.387,-32.715,-69.824,0.000
1709212082.615,-51.758,-53.711,-37.598,-58.105,0.000
1709212082.619,-39.551,-42.480,-43.457,-51.758,0.000
1709212082.623,-32.715,-37.598,-49.805,-61.523,0.000
1709212082.627,-36.133,-48.828,-47.852,-71.777,0.000
1709212082.631,-39.062,-47.852,-41.504,-71.289,0.000
1709212082.635,-49.316,-35.645,-42.969,-73.242,0.000
1709212082.639,-44.922,-26.367,-44.922,-76.172,0.000
1709212082.643,-36.621,-24.902,-40.039,-65.918,0.000
1709212082.647,-40.527,-30.273,-37.109,-67.871,0.000
1709212082.650,-50.781,-37.109,-45.410,-75.684,0.000
1709212082.654,-58.594,-41.992,-44.922,-70.312,0.000
1709212082.658,-52.246,-40.039,-41.992,-60.059,0.000
1709212082.662,-42.969,-38.086,-45.410,-55.664,0.000
1709212082.666,-41.016,-40.527,-50.293,-57.617,0.000
1709212082.670,-38.574,-34.668,-49.316,-60.059,0.000
1709212082.674,-46.387,-34.668,-44.434,-65.918,0.000
1709212082.678,-47.363,-36.133,-39.551,-53.223,0.000
1709212082.682,-56.152,-37.109,-41.016,-50.293,0.000
1709212082.686,-56.152,-39.551,-38.574,-49.805,0.000
1709212082.690,-53.711,-38.574,-37.598,-50.293,0.000
1709212082.693,-58.594,-42.480,-42.969,-51.758,0.000
1709212082.697,-44.922,-41.992,-41.504,-46.387,0.000
1709212082.701,-25.391,-49.316,-41.504,-46.875,0.000
1709212082.705,-25.879,-47.363,-41.016,-51.758,0.000
1709212082.709,-36.621,-35.645,-37.109,-54.199,0.000
1709212082.713,-43.945,-38.086,-39.062,-59.570,0.000
1709212082.717,-43.945,-24.902,-43.945,-63.965,0.000
1709212082.721,-35.156,-26.367,-40.039,-55.176,0.000
1709212082.725,-33.203,-42.969,-37.109,-52.734,0.000
1709212082.729,-34.180,-50.781,-39.062,-64.941,0.000
1709212082.733,-37.109,-52.246,-44.434,-71.289,0.000
1709212082.736,-41.016,-44.434,-45.410,-69.824,0.000
1709212082.740,-44.434,-40.527,-35.645,-64.941,0.000
1709212082.744,-42.480,-32.715,-36.133,-59.082,0.000
1709212082.748,-42.969,-25.879,-46.387,-62.988,0.000
1709212082.752,-41.016,-32.715,-45.898,-70.801,0.000
1709212082.756,-31.250,-36.621,-39.062,-62.500,0.000
1709212082.760,-21.973,-43.457,-36.133,-55.176,0.000
1709212082.764,-24.902,-49.316,-42.969,-65.918,0.000
1709212082.768,-31.250,-48.340,-49.316,-60.547,0.000
1709212082.772,-37.598,-33.691,-50.293,-55.664,0.000
1709212082.775,-41.016,-28.809,-45.410,-52.734,0.000
1709212082.779,-34.180,-39.062,-45.898,-43.457,0.000
1709212082.783,-25.879,-41.016,-47.363,-51.270,0.000
1709212082.787,-28.320,-41.504,-44.922,-65.918,0.000
1709212082.791,-38.574,-46.875,-42.480,-63.477,0.000
1709212082.795,-48.340,-39.062,-34.180,-64.453,0.000
1709212082.799,-44.922,-33.203,-37.598,-65.918,0.000
1709212082.803,-35.645,-35.645,-35.645,-53.223,0.000
1709212082.807,-35.645,-42.480,-36.133,-55.176,0.000
1709212082.811,-38.086,-49.805,-44.434,-53.223,0.000
1709212082.815,-38.574,-46.387,-44.434,-41.992,0.000
1709212082.818,-45.410,-42.969,-41.504,-55.664,0.000
1709212082.822,-42.480,-41.992,-38.086,-67.871,0.000
1709212082.826,-41.992,-41.504,-41.992,-67.383,0.000
1709212082.830,-48.828,-39.062,-38.574,-69.336,0.000
1709212082.834,-53.711,-36.621,-35.156,-67.871,0.000
1709212082.838,-46.387,-45.410,-39.551,-58.594,0.000
1709212082.842,-35.156,-52.246,-41.992,-53.223,0.000
1709212082.846,-30.273,-32.715,-41.504,-43.945,0.000
1709212082.850,-32.715,-32.227,-39.062,-44.434,0.000
1709212082.854,-39.551,-41.992,-39.062,-54.688,0.000
1709212082.857,-39.062,-33.691,-35.645,-43.457,0.000
1709212082.861,-38.574,-29.785,-36.133,-46.875,0.000
1709212082.865,-36.621,-35.645,-38.574,-58.105,0.000
1709212082.869,-34.180,-40.527,-31.250,-51.758,0.000
1709212082.873,-43.457,-45.410,-30.762,-54.199,0.000
1709212082.877,-43.945,-46.387,-37.598,-62.012,0.000
1709212082.881,-34.668,-50.293,-38.086,-54.688,0.000
1709212082.885,-21.973,-49.805,-41.992,-50.293,0.000
1709212082.889,-28.809,-43.457,-40.039,-56.152,0.000
1709212082.893,-44.434,-54.199,-35.645,-46.875,0.000
1709212082.897,-38.086,-46.387,-36.621,-46.387,0.000
1709212082.900,-23.438,-40.039,-38.574,-48.828,0.000
1709212082.904,-19.531,-42.969,-43.945,-44.922,0.000
1709212082.908,-26.855,-26.855,-44.922,-54.199,0.000
1709212082.912,-28.809,-25.391,-37.109,-48.828,0.000
1709212082.916,-34.180,-55.664,-31.250,-32.715,0.000
1709212082.920,-38.086,-54.199,-33.203,-30.762,0.000
1709212082.924,-38.574,-36.133,-43.457,-54.199,0.000
1709212082.928,-46.387,-40.527,-39.551,-62.500,0.000
1709212082.932,-47.363,-42.969,-27.344,-50.781,0.000
1709212082.936,-54.688,-36.621,-34.668,-54.688,0.000
1709212082.940,-53.711,-34.668,-42.969,-55.664,0.000
1709212082.943,-41.992,-37.109,-41.504,-43.945,0.000
1709212082.947,-41.992,-45.410,-47.852,-52.246,0.000
1709212082.951,-50.293,-55.664,-54.199,-62.500,0.000
1709212082.955,-55.176,-52.246,-46.387,-59.570,0.000
1709212082.959,-58.105,-48.340,-39.062,-46.875,0.000
1709212082.963,-61.523,-54.688,-39.062,-36.621,0.000
1709212082.967,-58.594,-49.316,-38.574,-57.617,0.000
1709212082.971,-56.641,-39.062,-37.598,-65.430,0.000
1709212082.975,-56.152,-35.156,-36.621,-58.105,0.000
1709212082.979,-51.758,-30.273,-41.992,-48.828,0.000
1709212082.983,-49.316,-29.297,-41.992,-46.387,0.000
1709212082.986,-44.922,-34.668,-40.039,-44.434,0.000
1709212082.990,-39.551,-36.621,-41.016,-30.762,0.000
1709212082.994,-38.574,-41.992,-42.969,-30.762,0.000
1709212082.998,-35.156,-39.551,-39.551,-32.715,0.000
1709212083.002,-26.367,-25.879,-30.273,-26.367,0.000
1709212083.006,-22.949,-30.762,-34.180,-20.508,0.000
1709212083.010,-22.461,-29.785,-38.086,-18.555,0.000
1709212083.014,-21.973,-31.250,-31.738,-19.043,0.000
1709212083.018,-23.926,-51.758,-28.809,-11.230,0.000
1709212083.022,-29.297,-49.316,-39.062,-8.301,0.000
1709212083.026,-31.738,-26.367,-41.992,-13.672,0.000
1709212083.029,-33.203,-26.855,-34.668,-33.203,0.000
1709212083.033,-37.598,-41.992,-39.062,-40.527,0.000
1709212083.037,-35.156,-41.016,-44.434,-25.879,0.000
1709212083.041,-31.738,-37.109,-41.016,-11.230,0.000
1709212083.045,-33.691,-42.969,-43.457,-19.043,0.000
1709212083.049,-47.852,-46.387,-53.223,-26.855,0.000
1709212083.053,-48.828,-46.875,-49.805,-15.137,0.000
1709212083.057,-44.434,-50.293,-48.828,-23.926,0.000
1709212083.061,-44.922,-48.340,-50.781,-24.902,0.000
1709212083.065,-41.992,-41.992,-49.805,-20.020,0.000
1709212083.068,-50.293,-39.062,-47.852,-34.180,0.000
1709212083.072,-58.594,-36.621,-47.363,-35.156,0.000
1709212083.076,-53.711,-38.574,-47.852,-23.926,0.000
1709212083.080,-44.434,-41.016,-42.969,-15.625,0.000
1709212083.084,-37.598,-40.527,-42.969,-11.719,0.000
1709212083.088,-39.551,-39.062,-43.945,-14.160,0.000
1709212083.092,-52.246,-41.992,-41.016,-25.879,0.000
1709212083.096,-56.641,-46.387,-40.527,-24.414,0.000
1709212083.100,-48.340,-43.945,-41.016,-18.555,0.000
1709212083.104,-41.016,-31.738,-33.203,-22.949,0.000
1709212083.108,-43.945,-31.250,-28.809,-20.020,0.000
1709212083.111,-44.434,-42.480,-33.203,-28.320,0.000
1709212083.115,-37.109,-39.062,-31.738,-28.320,0.000
1709212083.119,-30.273,-33.203,-35.156,-26.855,0.000
1709212083.123,-31.738,-38.574,-46.387,-35.156,0.000
1709212083.127,-37.598,-39.062,-48.340,-31.738,0.000
1709212083.131,-43.945,-35.156,-37.598,-28.809,0.000
1709212083.135,-45.898,-41.504,-34.180,-31.738,0.000
1709212083.139,-47.363,-47.363,-40.527,-26.855,0.000
1709212083.143,-39.551,-55.176,-37.598,-14.648,0.000
1709212083.147,-35.156,-46.875,-32.715,-15.137,0.000
1709212083.150,-46.387,-35.156,-36.621,-23.438,0.000
1709212083.154,-51.758,-36.133,-37.598,-27.832,0.000
1709212083.158,-47.852,-40.039,-32.715,-22.461,0.000
1709212083.162,-40.039,-44.434,-35.156,-21.973,0.000
1709212083.166,-37.109,-40.039,-41.504,-21.973,0.000
1709212083.170,-39.551,-31.738,-41.504,-14.648,0.000
1709212083.174,-49.316,-41.016,-51.270,-29.785,0.000
1709212083.178,-51.270,-45.898,-55.176,-41.016,0.000
1709212083.182,-42.969,-47.852,-44.434,-32.227,0.000
1709212083.186,-34.668,-50.781,-37.109,-21.973,0.000
1709212083.190,-44.434,-41.016,-36.621,-19.531,0.000
1709212083.193,-58.105,-32.227,-41.016,-27.344,0.000
1709212083.197,-56.641,-35.645,-46.875,-28.320,0.000
1709212083.201,-57.129,-34.668,-46.387,-31.738,0.000
1709212083.205,-50.781,-24.414,-43.457,-40.039,0.000
1709212083.209,-42.480,-25.879,-40.527,-41.016,0.000
1709212083.213,-38.574,-35.156,-40.039,-39.551,0.000
1709212083.217,-47.852,-35.645,-44.434,-40.527,0.000
1709212083.221,-48.340,-44.922,-42.969,-37.598,0.000
1709212083.225,-34.180,-37.598,-38.086,-28.809,0.000
1709212083.229,-34.180,-24.902,-40.527,-24.902,0.000
1709212083.232,-39.062,-33.203,-43.945,-25.391,0.000
1709212083.236,-39.062,-36.133,-39.551,-27.344,0.000
1709212083.240,-35.645,-32.227,-39.551,-24.902,0.000
1709212083.244,-22.461,-35.156,-39.551,-18.066,0.000
1709212083.248,-12.695,-44.434,-41.992,-18.066,0.000
1709212083.252,-7.324,-37.109,-46.875,-22.949,0.000
1709212083.256,-15.137,-31.250,-47.852,-27.832,0.000
1709212083.260,-21.973,-32.715,-47.852,-31.250,0.000
1709212083.264,-28.320,-32.715,-50.781,-37.109,0.000
1709212083.267,-30.273,-34.668,-49.805,-40.039,0.000
1709212083.271,-25.879,-32.227,-44.434,-39.062,0.000
1709212083.275,-25.879,-38.086,-47.363,-39.551,0.000
1709212083.279,-20.508,-39.551,-46.387,-33.691,0.000
1709212083.283,-20.508,-40.039,-39.062,-29.297,0.000
1709212083.287,-29.785,-46.875,-44.434,-37.598,0.000
1709212083.291,-35.645,-48.828,-45.410,-40.039,0.000
1709212083.295,-50.293,-41.504,-43.457,-34.668,0.000
1709212083.299,-50.781,-37.598,-49.805,-44.434,0.000
1709212083.303,-41.016,-40.527,-48.828,-55.664,0.000
1709212083.307,-41.992,-45.898,-40.527,-58.105,0.000
1709212083.311,-47.363,-59.082,-41.504,-60.059,0.000
1709212083.314,-53.223,-62.988,-49.316,-57.617,0.000
1709212083.318,-43.457,-48.828,-49.316,-53.223,0.000
1709212083.322,-35.645,-32.715,-46.875,-49.316,0.000
1709212083.326,-40.527,-39.551,-52.246,-51.270,0.000
1709212083.330,-46.387,-50.293,-49.805,-64.941,0.000
1709212083.334,-50.781,-46.387,-42.480,-62.988,0.000
1709212083.338,-48.828,-41.504,-48.828,-48.828,0.000
1709212083.342,-39.062,-35.156,-56.152,-44.434,0.000
1709212083.346,-33.691,-30.762,-47.363,-42.969,0.000
1709212083.350,-35.645,-30.762,-35.645,-39.062,0.000
1709212083.353,-47.852,-36.621,-41.016,-43.457,0.000
1709212083.357,-53.711,-42.969,-46.387,-49.316,0.000
1709212083.361,-44.922,-39.551,-38.574,-43.945,0.000
1709212083.365,-38.574,-37.598,-33.203,-42.480,0.000
1709212083.369,-38.574,-41.992,-36.133,-53.223,0.000
1709212083.373,-46.387,-39.062,-42.480,-58.594,0.000
1709212083.377,-49.805,-36.133,-36.621,-45.898,0.000
1709212083.381,-38.086,-43.457,-33.203,-24.902,0.000
1709212083.385,-40.039,-41.016,-41.016,-21.973,0.000
1709212083.389,-44.922,-29.785,-42.480,-39.062,0.000
1709212083.393,-45.898,-31.738,-38.086,-47.363,0.000
1709212083.397,-56.641,-39.551,-41.016,-42.480,0.000
1709212083.400,-55.664,-42.480,-46.875,-40.039,0.000
1709212083.404,-50.293,-41.992,-41.504,-39.062,0.000
1709212083.408,-55.176,-50.293,-37.598,-41.016,0.000
1709212083.412,-57.617,-42.969,-37.109,-44.922,0.000
1709212083.416,-52.246,-27.344,-36.621,-45.898,0.000
1709212083.420,-49.805,-28.809,-41.504,-47.852,0.000
1709212083.424,-45.898,-33.691,-42.480,-41.504,0.000
1709212083.428,-41.992,-31.250,-39.551,-19.043,0.000
1709212083.432,-49.316,-33.203,-48.340,-29.297,0.000
1709212083.436,-54.199,-54.199,-48.340,-47.363,0.000
1709212083.439,-55.664,-53.223,-40.527,-38.086,0.000
1709212083.443,-51.270,-42.480,-36.621,-33.203,0.000
1709212083.447,-38.574,-39.551,-33.203,-34.180,0.000
1709212083.451,-45.898,-37.598,-38.574,-37.109,0.000
1709212083.455,-47.852,-38.086,-41.016,-27.344,0.000
1709212083.459,-29.297,-33.203,-37.109,-25.391,0.000
1709212083.463,-35.156,-35.645,-36.133,-28.320,0.000
1709212083.467,-39.062,-35.156,-38.086,-25.879,0.000
1709212083.471,-30.273,-37.109,-37.598,-24.902,0.000
1709212083.475,-41.016,-44.434,-42.480,-29.785,0.000
1709212083.479,-41.504,-41.504,-44.434,-40.039,0.000
1709212083.482,-28.809,-46.875,-37.598,-36.133,0.000
1709212083.486,-32.227,-53.223,-40.039,-34.668,0.000
1709212083.490,-41.016,-45.898,-42.480,-49.316,0.000
1709212083.494,-32.715,-41.504,-41.992,-43.945,0.000
1709212083.498,-29.297,-35.645,-45.410,-31.738,0.000
1709212083.502,-24.902,-27.344,-42.969,-33.203,0.000
1709212083.506,-16.602,-34.180,-44.434,-34.668,0.000
1709212083.510,-20.508,-41.504,-44.922,-44.922,0.000
1709212083.514,-21.973,-38.574,-41.992,-42.480,0.000
1709212083.518,-26.367,-44.922,-45.410,-20.020,0.000
1709212083.521,-27.344,-48.828,-43.945,-18.066,0.000
1709212083.525,-19.043,-51.758,-46.387,-21.484,0.000
1709212083.529,-20.508,-50.781,-43.457,-24.902,0.000
1709212083.533,-36.621,-44.922,-42.480,-28.320,0.000
1709212083.537,-45.898,-47.363,-48.828,-28.320,0.000
1709212083.541,-41.992,-41.504,-46.387,-33.691,0.000
1709212083.545,-36.621,-40.527,-47.363,-35.156,0.000
1709212083.549,-40.527,-41.504,-46.875,-38.086,0.000
1709212083.553,-49.805,-41.504,-44.434,-47.363,0.000
1709212083.557,-48.340,-49.805,-51.758,-42.969,0.000
1709212083.560,-46.387,-50.781,-51.270,-32.227,0.000
1709212083.564,-37.109,-46.387,-43.945,-32.715,0.000
1709212083.568,-33.203,-37.109,-42.969,-41.016,0.000
1709212083.572,-47.852,-34.668,-41.016,-43.945,0.000
1709212083.576,-51.758,-34.668,-44.434,-46.387,0.000
1709212083.580,-47.363,-34.668,-47.852,-47.363,0.000
1709212083.584,-37.109,-32.227,-46.875,-41.992,0.000
1709212083.588,-37.109,-26.367,-43.457,-30.762,0.000
1709212083.592,-48.340,-38.086,-42.969,-20.996,0.000
1709212083.596,-49.805,-40.039,-45.410,-27.344,0.000
1709212083.599,-35.156,-32.227,-45.898,-28.809,0.000
1709212083.603,-23.926,-36.621,-50.293,-23.438,0.000
1709212083.607,-28.320,-41.992,-46.875,-17.090,0.000
1709212083.611,-35.156,-26.855,-34.668,-20.996,0.000
1709212083.615,-39.551,-26.367,-37.598,-25.879,0.000
1709212083.619,-37.598,-48.340,-46.387,-25.391,0.000
1709212083.623,-19.043,-47.852,-49.316,-23.926,0.000
1709212083.627,-19.531,-42.480,-45.898,-28.809,0.000
1709212083.631,-36.621,-41.992,-41.504,-31.250,0.000
1709212083.635,-48.828,-41.016,-42.480,-28.320,0.000
1709212083.638,-37.109,-39.062,-44.434,-21.484,0.000
1709212083.642,-29.297,-42.480,-42.480,-28.320,0.000
1709212083.646,-41.504,-44.434,-44.434,-36.133,0.000
1709212083.650,-40.527,-35.156,-44.922,-34.180,0.000
1709212083.654,-37.109,-33.203,-46.875,-36.133,0.000
1709212083.658,-43.457,-41.016,-45.410,-39.551,0.000
1709212083.662,-42.969,-43.945,-36.133,-36.621,0.000
1709212083.666,-40.527,-39.062,-38.574,-27.832,0.000
1709212083.670,-52.734,-34.668,-42.480,-33.691,0.000
1709212083.674,-51.270,-33.691,-41.504,-40.527,0.000
1709212083.678,-53.711,-33.691,-41.992,-39.062,0.000
1709212083.681,-53.223,-41.016,-48.828,-42.480,0.000
1709212083.685,-57.129,-49.805,-51.758,-41.504,0.000
1709212083.689,-69.336,-44.922,-46.387,-39.551,0.000
1709212083.693,-62.012,-47.363,-41.992,-43.457,0.000
1709212083.697,-57.617,-47.852,-41.504,-42.480,0.000
1709212083.701,-56.152,-39.551,-41.992,-41.992,0.000
1709212083.705,-52.734,-45.898,-42.969,-52.246,0.000
1709212083.709,-50.781,-43.945,-43.457,-50.781,0.000
1709212083.713,-44.434,-39.062,-44.434,-35.645,0.000
1709212083.717,-42.969,-44.434,-48.828,-35.156,0.000
1709212083.721,-43.945,-44.434,-49.316,-34.668,0.000
1709212083.725,-46.387,-45.410,-51.270,-38.574,0.000
1709212083.728,-49.805,-45.410,-52.734,-40.039,0.000
1709212083.732,-50.293,-41.992,-49.316,-41.992,0.000
1709212083.736,-51.270,-46.387,-48.828,-51.270,0.000
1709212083.740,-52.734,-48.828,-46.875,-48.828,0.000
1709212083.744,-47.852,-39.551,-44.434,-41.504,0.000
1709212083.748,-37.109,-43.945,-42.480,-35.156,0.000
1709212083.752,-38.574,-42.969,-42.969,-39.062,0.000
1709212083.756,-37.109,-43.945,-38.086,-36.621,0.000
1709212083.760,-38.086,-54.199,-39.551,-24.902,0.000
1709212083.764,-41.016,-43.945,-47.852,-27.832,0.000
1709212083.767,-46.387,-42.969,-45.410,-32.227,0.000
1709212083.771,-48.828,-34.668,-36.621,-21.484,0.000
1709212083.775,-55.176,-25.391,-40.039,-26.367,0.000
1709212083.779,-53.711,-37.598,-42.480,-28.320,0.000
1709212083.783,-42.480,-36.133,-40.527,-25.391,0.000
1709212083.787,-40.039,-28.320,-40.527,-31.738,0.000
1709212083.791,-36.133,-43.457,-29.297,-32.227,0.000
1709212083.795,-46.387,-48.828,-28.809,-29.785,0.000
1709212083.799,-60.547,-39.062,-42.969,-29.297,0.000
1709212083.803,-53.223,-38.086,-45.898,-16.113,0.000
1709212083.807,-45.410,-26.367,-41.016,-21.484,0.000
1709212083.810,-41.016,-34.180,-39.062,-39.062,0.000
1709212083.814,-37.109,-42.480,-42.480,-39.551,0.000
1709212083.818,-41.504,-31.250,-43.457,-41.992,0.000
1709212083.822,-42.480,-34.180,-45.410,-43.945,0.000
1709212083.826,-42.969,-35.156,-45.410,-44.434,0.000
1709212083.830,-43.945,-39.062,-41.504,-49.316,0.000
1709212083.834,-45.410,-43.945,-39.062,-46.387,0.000
1709212083.838,-42.969,-52.734,-44.922,-40.527,0.000
1709212083.842,-35.645,-49.316,-46.875,-39.551,0.000
1709212083.846,-27.832,-39.551,-45.410,-35.156,0.000
1709212083.849,-20.020,-32.715,-43.457,-34.180,0.000
1709212083.853,-29.785,-27.832,-41.504,-44.434,0.000
1709212083.857,-43.945,-33.203,-41.992,-41.016,0.000
1709212083.861,-34.668,-33.203,-41.504,-24.414,0.000
1709212083.865,-26.367,-34.668,-44.434,-23.438,0.000
1709212083.869,-32.715,-43.457,-43.457,-35.645,0.000
1709212083.873,-32.227,-42.480,-36.621,-36.621,0.000
1709212083.877,-28.809,-38.086,-39.062,-30.273,0.000
1709212083.881,-34.180,-39.062,-56.152,-32.227,0.000
1709212083.885,-43.945,-44.434,-57.617,-43.945,0.000
1709212083.889,-50.293,-50.781,-52.246,-46.875,0.000
1709212083.892,-50.781,-55.664,-54.688,-32.715,0.000
1709212083.896,-48.828,-47.852,-54.199,-32.227,0.000
1709212083.900,-47.852,-34.668,-52.246,-33.203,0.000
1709212083.904,-42.969,-29.297,-49.805,-36.133,0.000
1709212083.908,-35.156,-28.809,-45.898,-41.992,0.000
1709212083.912,-34.180,-30.273,-41.504,-33.203,0.000
1709212083.916,-39.551,-30.762,-46.387,-41.504,0.000
1709212083.920,-40.039,-48.828,-46.387,-44.434,0.000
1709212083.924,-40.039,-48.828,-41.504,-34.180,0.000
1709212083.928,-37.598,-37.109,-39.062,-27.344,0.000
1709212083.931,-41.016,-38.086,-40.527,-40.039,0.000
1709212083.935,-47.852,-39.062,-45.898,-40.527,0.000
1709212083.939,-43.945,-34.668,-46.875,-23.438,0.000
1709212083.943,-45.898,-29.785,-43.945,-34.180,0.000
1709212083.947,-52.246,-30.273,-49.805,-48.340,0.000
1709212083.951,-46.875,-32.715,-49.805,-48.828,0.000
1709212083.955,-42.480,-32.227,-41.504,-43.457,0.000
1709212083.959,-40.039,-28.320,-42.969,-41.504,0.000
1709212083.963,-29.785,-39.062,-44.922,-45.410,0.000
1709212083.967,-39.062,-58.105,-45.898,-49.805,0.000
1709212083.970,-55.664,-47.852,-45.410,-48.340,0.000
1709212083.974,-49.805,-35.645,-41.504,-46.875,0.000
1709212083.978,-40.039,-40.039,-43.457,-32.715,0.000
1709212083.982,-34.668,-49.805,-44.922,-14.160,0.000
1709212083.986,-37.109,-47.363,-43.457,-24.902,0.000
1709212083.990,-44.434,-32.715,-45.898,-48.340,0.000
1709212083.994,-45.898,-33.203,-41.504,-47.852,0.000
1709212083.998,-38.086,-37.598,-36.621,-41.016,0.000
1709212084.002,-33.691,-38.086,-41.992,-33.691,0.000
1709212084.006,-30.762,-40.039,-37.598,-23.926,0.000
1709212084.009,-37.109,-42.969,-33.203,-26.367,0.000
1709212084.013,-41.504,-45.898,-36.133,-39.551,0.000
1709212084.017,-32.715,-40.527,-40.527,-44.434,0.000
1709212084.021,-26.855,-34.668,-39.551,-38.574,0.000
1709212084.025,-25.391,-39.062,-39.551,-35.645,0.000
1709212084.029,-37.109,-44.434,-39.062,-34.668,0.000
1709212084.033,-49.805,-45.410,-40.527,-43.945,0.000
1709212084.037,-40.039,-40.039,-35.645,-44.434,0.000
1709212084.041,-30.273,-39.062,-32.715,-35.156,0.000
1709212084.045,-35.156,-34.180,-43.945,-34.180,0.000
1709212084.049,-38.086,-32.227,-42.969,-26.855,0.000
1709212084.053,-41.016,-41.016,-36.621,-29.297,0.000
1709212084.056,-40.527,-51.270,-40.527,-37.109,0.000
1709212084.060,-41.504,-50.293,-41.504,-36.133,0.000
1709212084.064,-45.898,-36.621,-44.434,-45.410,0.000
1709212084.068,-50.781,-30.762,-51.270,-50.781,0.000
1709212084.072,-53.223,-32.715,-44.434,-43.457,0.000
1709212084.076,-58.105,-29.785,-38.574,-44.434,0.000
1709212084.080,-56.152,-25.879,-37.598,-43.945,0.000
1709212084.084,-43.945,-38.574,-33.203,-41.504,0.000
1709212084.088,-38.086,-41.016,-27.832,-36.621,0.000
1709212084.092,-55.664,-32.715,-32.227,-45.898,0.000
1709212084.096,-63.477,-38.574,-35.156,-50.293,0.000
1709212084.099,-39.551,-39.062,-29.297,-35.156,0.000
1709212084.103,-28.320,-49.805,-30.273,-28.320,0.000
1709212084.107,-31.738,-47.852,-30.762,-28.320,0.000
1709212084.111,-33.691,-41.016,-26.855,-30.762,0.000
1709212084.115,-36.133,-52.246,-27.832,-31.738,0.000
1709212084.119,-36.621,-46.387,-32.715,-26.855,0.000
1709212084.123,-28.320,-25.879,-30.273,-24.414,0.000
1709212084.127,-31.250,-32.227,-29.785,-29.785,0.000
1709212084.131,-39.551,-44.434,-37.109,-39.062,0.000
1709212084.135,-35.645,-46.387,-41.992,-39.062,0.000
1709212084.139,-28.320,-37.109,-45.898,-35.645,0.000
1709212084.142,-28.320,-36.621,-41.016,-27.832,0.000
1709212084.146,-26.367,-64.941,-36.133,-18.066,0.000
1709212084.150,-25.879,-44.922,-35.645,-19.043,0.000
1709212084.154,-32.715,-15.137,-42.480,-29.785,0.000
1709212084.158,-41.016,-25.879,-41.992,-41.504,0.000
1709212084.162,-42.969,-36.621,-37.109,-48.340,0.000
1709212084.166,-40.039,-41.016,-41.504,-51.270,0.000
1709212084.170,-39.551,-38.086,-45.898,-54.688,0.000
1709212084.174,-43.457,-41.016,-39.062,-47.363,0.000
1709212084.178,-36.621,-41.016,-35.156,-36.621,0.000
1709212084.181,-31.250,-33.691,-40.039,-37.109,0.000
1709212084.185,-34.668,-30.273,-38.086,-41.992,0.000
1709212084.189,-41.992,-40.039,-41.016,-51.270,0.000
1709212084.193,-35.156,-53.711,-43.457,-47.363,0.000
1709212084.197,-31.738,-47.363,-42.969,-40.527,0.000
1709212084.201,-42.969,-40.527,-44.434,-42.480,0.000
1709212084.205,-47.852,-50.293,-42.480,-47.852,0.000
1709212084.209,-54.199,-50.781,-43.945,-56.152,0.000
1709212084.213,-56.641,-41.992,-47.363,-50.781,0.000
1709212084.217,-52.246,-41.992,-44.922,-48.828,0.000
1709212084.221,-43.457,-50.293,-44.434,-40.527,0.000
1709212084.224,-37.598,-55.176,-48.828,-30.273,0.000
1709212084.228,-46.387,-45.410,-50.293,-46.387,0.000
1709212084.232,-50.293,-37.109,-42.480,-48.828,0.000
1709212084.236,-43.945,-48.340,-43.945,-41.992,0.000
1709212084.240,-36.133,-56.641,-49.316,-45.410,0.000
1709212084.244,-26.367,-49.316,-45.410,-46.387,0.000
1709212084.248,-22.461,-51.270,-46.387,-40.527,0.000
1709212084.252,-24.902,-53.223,-51.270,-38.574,0.000
1709212084.256,-21.484,-49.805,-43.457,-31.250,0.000
1709212084.260,-17.090,-52.246,-38.086,-32.227,0.000
1709212084.263,-15.137,-42.969,-39.062,-43.457,0.000
1709212084.267,-22.949,-29.297,-42.480,-38.086,0.000
1709212084.271,-37.598,-26.855,-43.457,-46.875,0.000
1709212084.275,-45.898,-39.062,-44.922,-58.105,0.000
1709212084.279,-46.875,-44.434,-45.898,-49.805,0.000
1709212084.283,-43.945,-39.062,-50.293,-41.992,0.000
1709212084.287,-41.016,-43.945,-49.316,-41.016,0.000
1709212084.291,-45.898,-49.316,-46.387,-47.852,0.000
1709212084.295,-53.711,-45.898,-47.852,-47.852,0.000
1709212084.299,-37.109,-41.016,-44.922,-41.504,0.000
1709212084.303,-22.461,-40.039,-41.016,-41.016,0.000
1709212084.306,-46.387,-38.086,-39.551,-41.504,0.000
1709212084.310,-48.828,-34.668,-37.109,-25.879,0.000
1709212084.314,-40.527,-35.156,-33.691,-13.184,0.000
1709212084.318,-41.992,-43.457,-42.969,-26.855,0.000
1709212084.322,-32.715,-47.852,-45.410,-28.320,0.000
1709212084.326,-30.273,-37.109,-37.109,-25.391,0.000
1709212084.330,-36.621,-28.809,-33.691,-43.945,0.000
1709212084.334,-45.898,-27.832,-32.227,-46.387,0.000
1709212084.338,-39.062,-25.879,-33.691,-37.109,0.000
1709212084.342,-34.668,-36.621,-36.621,-34.180,0.000
1709212084.345,-35.645,-45.898,-31.250,-30.762,0.000
1709212084.349,-37.598,-36.133,-33.203,-32.715,0.000
1709212084.353,-44.434,-33.691,-40.527,-40.039,0.000
1709212084.357,-46.387,-43.457,-41.992,-28.809,0.000
1709212084.361,-39.551,-46.875,-42.480,-22.461,0.000
1709212084.365,-42.969,-39.062,-41.992,-31.738,0.000
1709212084.369,-49.316,-31.250,-41.992,-41.504,0.000
1709212084.373,-51.270,-31.250,-42.969,-41.992,0.000
1709212084.377,-49.316,-36.133,-41.504,-37.598,0.000
1709212084.380,-45.898,-45.898,-42.480,-46.875,0.000
1709212084.384,-42.969,-47.852,-41.992,-43.945,0.000
1709212084.388,-47.852,-38.574,-37.598,-39.062,0.000
1709212084.392,-50.293,-39.062,-40.527,-43.457,0.000
1709212084.396,-49.316,-46.875,-40.527,-46.387,0.000
1709212084.400,-50.293,-44.922,-38.086,-42.480,0.000
1709212084.404,-46.387,-43.457,-36.133,-29.785,0.000
1709212084.408,-47.363,-44.434,-39.551,-36.133,0.000
1709212084.412,-48.340,-46.875,-44.922,-52.246,0.000
1709212084.416,-34.180,-47.852,-37.109,-47.852,0.000
1709212084.420,-36.621,-36.133,-36.621,-41.016,0.000
1709212084.423,-49.805,-30.273,-42.969,-45.410,0.000
1709212084.427,0.000,-40.527,0.000,-50.781,0.000
1709212084.431,0.000,-37.598,0.000,-44.434,0.000
1709212084.435,0.000,-30.273,0.000,-39.062,0.000
1709212084.439,0.000,-32.715,0.000,-41.504,0.000
1709212084.443,0.000,-38.574,0.000,-32.715,0.000
1709212084.447,0.000,-40.039,0.000,-29.297,0.000
1709212084.451,0.000,-34.668,0.000,-32.227,0.000
1709212084.455,0.000,-32.227,0.000,-26.367,0.000
1709212084.459,0.000,-36.621,0.000,-18.555,0.000
1709212084.463,0.000,-32.715,0.000,-5.371,0.000
1709212084.467,0.000,-21.973,0.000,-13.184,0.000
1709212084.470,0.000,-32.715,0.000,-22.461,0.000
1709212084.474,-34.668,-37.109,-35.645,-16.602,0.000
1709212084.478,-31.250,-31.738,-37.109,-20.020,0.000
1709212084.482,-33.691,-26.367,-33.691,-23.438,0.000
1709212084.486,-33.203,-24.414,-29.785,-25.391,0.000
1709212084.490,-43.945,-29.297,-33.203,-32.715,0.000
1709212084.494,-46.875,-34.180,-34.668,-29.785,0.000
1709212084.498,-38.086,-32.715,-31.738,-32.227,0.000
1709212084.502,-36.133,-34.668,-34.668,-41.992,0.000
1709212084.506,-37.109,-41.992,-38.086,-32.715,0.000
1709212084.510,-37.598,-40.039,-38.574,-27.344,0.000
1709212084.513,-42.480,-40.527,-40.039,-37.109,0.000
1709212084.517,-49.805,-34.668,-46.387,-44.434,0.000
1709212084.521,-50.781,-29.785,-46.387,-39.551,0.000
1709212084.525,-52.246,-31.250,-43.457,-35.645,0.000
1709212084.529,-50.293,-23.438,-42.480,-46.387,0.000
1709212084.533,-60.547,-34.180,-44.922,-53.711,0.000
1709212084.537,-74.219,-47.852,-49.805,-50.293,0.000
1709212084.541,-61.035,-42.480,-51.758,-43.457,0.000
1709212084.545,-49.316,-47.363,-45.410,-47.363,0.000
1709212084.549,-49.805,-52.246,-38.086,-51.270,0.000
1709212084.553,-50.293,-33.203,-38.574,-40.039,0.000
1709212084.556,-55.176,-28.320,-41.992,-42.480,0.000
1709212084.560,-43.457,-37.598,-48.340,-42.480,0.000
1709212084.564,-34.180,-37.598,-54.199,-36.621,0.000
1709212084.568,-28.809,-36.621,-49.316,-38.574,0.000
1709212084.572,-27.344,-43.945,-42.480,-34.180,0.000
1709212084.576,-27.344,-47.363,-42.480,-26.367,0.000
1709212084.580,-20.508,-35.645,-44.434,-26.855,0.000
1709212084.584,-18.066,-32.715,-44.922,-30.273,0.000
1709212084.588,-26.367,-35.645,-44.434,-36.133,0.000
1709212084.592,-39.551,-38.574,-47.363,-50.781,0.000
1709212084.595,-44.922,-42.969,-50.781,-41.016,0.000
1709212084.599,-44.434,-42.480,-47.363,-23.926,0.000
1709212084.603,-39.551,-26.855,-45.410,-26.855,0.000
1709212084.607,-27.832,-25.391,-41.504,-17.090,0.000
1709212084.611,-33.691,-29.785,-48.828,-19.531,0.000
1709212084.615,-45.410,-30.762,-55.176,-24.414,0.000
1709212084.619,-34.668,-36.133,-51.270,-21.484,0.000
1709212084.623,-21.973,-34.180,-48.340,-20.508,0.000
1709212084.627,-27.344,-35.156,-44.922,-21.484,0.000
1709212084.631,-37.598,-37.109,-39.551,-27.344,0.000
1709212084.634,-40.039,-42.969,-38.574,-36.133,0.000
1709212084.638,-24.902,-42.969,-39.551,-32.715,0.000
1709212084.642,-24.414,-33.203,-38.086,-16.602,0.000
1709212084.646,-31.738,-29.785,-34.180,-17.090,0.000
1709212084.650,-34.668,-32.715,-35.645,-33.691,0.000
1709212084.654,-46.387,-37.598,-39.062,-52.734,0.000
1709212084.658,-42.969,-42.480,-36.621,-50.293,0.000
1709212084.662,-35.156,-40.527,-42.969,-43.945,0.000
1709212084.666,-29.785,-45.410,-37.598,-45.410,0.000
1709212084.670,-24.414,-47.852,-30.762,-40.527,0.000
1709212084.674,-39.551,-34.180,-30.762,-41.016,0.000
1709212084.677,-48.340,-31.250,-32.715,-37.598,0.000
1709212084.681,-40.527,-45.410,-37.598,-37.109,0.000
1709212084.685,-36.621,-46.387,-38.574,-42.480,0.000
1709212084.689,-42.969,-38.574,-38.574,-43.457,0.000
1709212084.693,-49.316,-35.645,-36.133,-48.828,0.000
1709212084.697,-47.852,-31.738,-33.691,-36.133,0.000
1709212084.701,-40.527,-35.156,-41.992,-28.320,0.000
1709212084.705,-38.086,-42.969,-44.434,-36.133,0.000
1709212084.709,-36.133,-43.457,-41.016,-34.180,0.000
1709212084.713,-29.785,-32.715,-37.598,-29.785,0.000
1709212084.716,-23.926,-36.133,-40.039,-25.879,0.000
1709212084.720,-27.832,-36.133,-43.457,-24.902,0.000
1709212084.724,-27.344,-32.227,-42.480,-27.344,0.000
1709212084.728,-27.344,-36.621,-36.621,-26.855,0.000
1709212084.732,-44.922,-48.340,-41.016,-25.879,0.000
1709212084.736,-53.711,-50.293,-49.805,-34.180,0.000
1709212084.740,-48.340,-43.945,-48.340,-35.645,0.000
1709212084.744,-44.434,-42.969,-49.805,-32.227,0.000
1709212084.748,-30.762,-38.574,-44.434,-41.504,0.000
1709212084.752,-28.809,-29.297,-45.898,-49.805,0.000
1709212084.756,-34.668,-34.668,-52.734,-52.734,0.000
1709212084.759,-26.855,-41.992,-49.805,-46.875,0.000
1709212084.763,-28.320,-44.434,-52.246,-47.363,0.000
1709212084.767,-35.645,-41.016,-56.152,-53.223,0.000
1709212084.771,-38.574,-42.480,-47.852,-50.781,0.000
1709212084.775,-47.852,-49.316,-47.363,-50.293,0.000
1709212084.779,-60.059,-51.758,-47.852,-44.922,0.000
1709212084.783,-53.223,-44.922,-39.551,-37.109,0.000
1709212084.787,-45.410,-36.621,-37.598,-39.062,0.000
1709212084.791,-51.758,-38.086,-37.109,-47.852,0.000
1709212084.795,-57.129,-44.434,-39.551,-51.270,0.000
1709212084.799,-52.734,-39.062,-41.016,-41.992,0.000
1709212084.802,-45.898,-41.504,-35.645,-34.180,0.000
1709212084.806,-35.645,-49.805,-35.156,-31.250,0.000
1709212084.810,-36.133,-46.875,-42.969,-36.133,0.000
1709212084.814,-46.875,-46.875,-41.992,-45.410,0.000
1709212084.818,-43.457,-44.434,-40.039,-42.969,0.000
1709212084.822,-41.504,-36.133,-42.969,-34.668,0.000
1709212084.826,-43.945,-39.062,-38.086,-36.621,0.000
1709212084.830,-39.062,-40.527,-33.203,-45.898,0.000
1709212084.834,-48.828,-41.504,-36.133,-50.781,0.000
1709212084.838,-63.477,-46.875,-39.062,-43.945,0.000
1709212084.842,-58.594,-42.969,-39.062,-48.340,0.000
1709212084.845,-51.758,-43.457,-38.574,-54.199,0.000
1709212084.849,-52.734,-53.223,-40.039,-53.223,0.000
1709212084.853,-48.828,-46.387,-40.527,-41.016,0.000
1709212084.857,-53.223,-33.691,-40.039,-37.109,0.000
1709212084.861,-52.734,-37.109,-41.992,-39.551,0.000
1709212084.865,-37.598,-50.293,-36.621,-33.691,0.000
1709212084.869,-40.527,-50.293,-35.645,-30.762,0.000
1709212084.873,-47.852,-44.922,-41.016,-43.457,0.000
1709212084.877,-44.434,-46.387,-38.086,-48.828,0.000
1709212084.881,-36.133,-42.480,-42.480,-37.598,0.000
1709212084.885,-27.344,-35.156,-46.387,-32.715,0.000
1709212084.888,-20.508,-38.574,-45.410,-36.621,0.000
1709212084.892,-28.320,-42.969,-45.410,-37.109,0.000
1709212084.896,-34.668,-31.250,-41.992,-37.598,0.000
1709212084.900,-23.926,-31.738,-36.133,-41.016,0.000
1709212084.904,-22.461,-41.504,-38.086,-46.387,0.000
1709212084.908,-26.367,-40.039,-44.434,-50.781,0.000
1709212084.912,-24.902,-45.410,-36.621,-53.711,0.000
1709212084.916,-30.273,-49.316,-34.668,-53.711,0.000
1709212084.920,-31.250,-41.992,-39.062,-51.270,0.000
1709212084.924,-30.273,-34.180,-41.016,-50.293,0.000
1709212084.927,-29.785,-33.691,-43.945,-41.504,0.000
1709212084.931,-27.344,-37.598,-39.062,-46.387,0.000
1709212084.935,-34.180,-41.992,-40.039,-50.293,0.000
1709212084.939,-36.133,-41.016,-40.039,-47.363,0.000
1709212084.943,-30.273,-41.992,-33.691,-41.016,0.000
1709212084.947,-30.273,-34.668,-32.715,-38.574,0.000
1709212084.951,-41.504,-38.086,-34.668,-50.781,0.000
1709212084.955,-50.293,-46.387,-37.598,-59.570,0.000
1709212084.959,-48.340,-38.574,-38.574,-53.711,0.000
1709212084.963,-38.086,-35.156,-29.297,-43.945,0.000
1709212084.967,-37.598,-45.898,-31.738,-45.898,0.000
1709212084.970,-42.969,-52.734,-43.457,-42.480,0.000
1709212084.974,-49.805,-45.898,-40.527,-41.504,0.000
1709212084.978,-46.875,-35.645,-39.551,-47.852,0.000
1709212084.982,-27.344,-42.969,-38.574,-40.039,0.000
1709212084.986,-23.438,-42.969,-37.109,-34.180,0.000
1709212084.990,-33.691,-37.598,-33.203,-47.363,0.000
1709212084.994,-38.574,-42.480,-33.691,-56.152,0.000
1709212084.998,-38.574,-35.156,-40.527,-50.781,0.000
1709212085.002,-32.227,-33.203,-39.551,-44.434,0.000
1709212085.006,-20.996,-41.504,-38.086,-38.086,0.000
1709212085.009,-25.391,-45.898,-35.645,-37.598,0.000
1709212085.013,-45.410,-45.898,-35.645,-56.641,0.000
1709212085.017,-42.969,-44.922,-33.691,-49.805,0.000
1709212085.021,-34.668,-43.457,-30.762,-36.133,0.000
1709212085.025,-42.480,-41.016,-32.227,-45.410,0.000
1709212085.029,-41.504,-40.039,-34.180,-46.387,0.000
1709212085.033,-40.527,-48.340,-35.156,-39.062,0.000
1709212085.037,-46.875,-52.246,-39.062,-35.156,0.000
1709212085.041,-38.086,-39.062,-41.992,-29.785,0.000
1709212085.045,-38.086,-36.621,-40.039,-39.062,0.000
1709212085.049,-56.152,-45.898,-42.480,-49.316,0.000
1709212085.053,-55.664,-46.387,-37.598,-43.457,0.000
1709212085.056,-55.664,-46.875,-34.180,-36.621,0.000
1709212085.060,-51.270,-47.363,-43.457,-31.738,0.000
1709212085.064,-45.410,-46.387,-39.062,-33.203,0.000
1709212085.068,-46.387,-39.551,-34.180,-40.527,0.000
1709212085.072,-41.016,-30.762,-31.738,-30.762,0.000
1709212085.076,-44.922,-44.434,-34.668,-25.879,0.000
1709212085.080,-43.945,-48.828,-44.922,-28.320,0.000
1709212085.084,-34.180,-41.016,-42.969,-35.645,0.000
1709212085.088,-29.785,-41.992,-42.480,-43.457,0.000
1709212085.092,-27.344,-39.551,-42.480,-36.133,0.000
1709212085.095,-28.320,-37.598,-44.922,-32.227,0.000
1709212085.099,-27.832,-39.551,-44.922,-32.715,0.000
1709212085.103,-22.461,-38.574,-39.551,-30.273,0.000
1709212085.107,-17.090,-37.109,-40.039,-30.762,0.000
1709212085.111,-23.438,-37.109,-44.434,-35.156,0.000
1709212085.115,-34.668,-40.039,-43.945,-34.180,0.000
1709212085.119,-21.973,-42.480,-44.434,-21.973,0.000
1709212085.123,-11.719,-37.598,-40.527,-2.441,0.000
1709212085.127,-20.020,-34.668,-35.156,-16.113,0.000
1709212085.131,-26.855,-40.527,-37.109,-31.250,0.000
1709212085.134,-36.621,-39.062,-44.434,-29.297,0.000
1709212085.138,-38.086,-36.133,-46.387,-32.715,0.000
1709212085.142,-33.691,-32.715,-42.480,-33.691,0.000
1709212085.146,-35.645,-29.297,-39.551,-36.621,0.000
1709212085.150,-49.316,-37.109,-43.457,-38.574,0.000
1709212085.154,-57.617,-44.434,-49.316,-39.551,0.000
1709212085.158,-50.781,-36.621,-49.805,-46.875,0.000
1709212085.162,-43.945,-41.992,-50.781,-47.852,0.000
1709212085.166,-40.527,-53.223,-45.410,-41.016,0.000
1709212085.170,-35.156,-43.457,-38.086,-40.527,0.000
1709212085.173,-41.992,-41.016,-41.016,-49.316,0.000
1709212085.177,-54.688,-35.156,-41.504,-39.551,0.000
1709212085.181,-48.340,-28.809,-42.480,-38.086,0.000
1709212085.185,-36.133,-31.738,-46.387,-44.922,0.000
1709212085.189,-41.016,-31.250,-47.852,-44.922,0.000
1709212085.193,-46.387,-33.691,-44.922,-42.480,0.000
1709212085.197,-41.504,-38.574,-40.039,-37.109,0.000
1709212085.201,-31.250,-38.574,-39.551,-38.086,0.000
1709212085.205,-26.855,-43.457,-45.898,-36.133,0.000
1709212085.209,-23.926,-35.156,-40.527,-22.949,0.000
1709212085.213,-26.367,-38.574,-26.367,-10.742,0.000
1709212085.216,-41.016,-48.340,-37.109,-29.785,0.000
1709212085.220,-43.945,-39.062,-45.410,-39.062,0.000
1709212085.224,-41.504,-31.250,-41.016,-36.133,0.000
1709212085.228,-37.598,-34.668,-41.992,-39.551,0.000
1709212085.232,-31.738,-43.945,-48.340,-41.992,0.000
1709212085.236,-37.598,-45.410,-55.176,-42.969,0.000
1709212085.240,-40.527,-35.156,-50.293,-35.156,0.000
1709212085.244,-34.668,-36.133,-41.992,-27.832,0.000
1709212085.248,-35.156,-38.086,-41.016,-26.855,0.000
1709212085.252,-41.992,-30.273,-46.875,-33.691,0.000
1709212085.256,-44.434,-40.039,-55.176,-31.250,0.000
1709212085.259,-47.363,-44.922,-47.852,-19.043,0.000
1709212085.263,-41.504,-28.809,-41.016,-25.391,0.000
1709212085.267,-39.551,-32.227,-47.363,-34.180,0.000
