timestamps,TP9,AF7,AF8,TP10,Right AUX
1709291763.340,78.125,-30.762,-5.371,81.055,0.000
1709291763.344,70.312,-24.414,-9.277,80.566,0.000
1709291763.348,64.941,-26.367,-12.695,83.496,0.000
1709291763.352,70.312,-31.738,-13.672,81.543,0.000
1709291763.356,68.848,-35.156,-18.066,73.242,0.000
1709291763.360,65.918,-36.133,-16.602,73.242,0.000
1709291763.364,59.082,-38.086,-13.184,70.312,0.000
1709291763.368,56.641,-36.133,-14.160,67.871,0.000
1709291763.372,64.453,-22.949,-15.137,69.824,0.000
1709291763.376,63.965,-23.926,-19.043,62.012,0.000
1709291763.379,59.082,-36.621,-21.484,54.688,0.000
1709291763.383,50.293,-36.621,-18.555,50.293,0.000
1709291763.387,42.969,-33.691,-19.531,46.387,0.000
1709291763.391,44.922,-33.203,-15.625,59.082,0.000
1709291763.395,47.363,-32.715,-16.113,62.988,0.000
1709291763.399,47.363,-29.785,-18.555,52.246,0.000
1709291763.403,42.969,-29.297,-12.695,48.340,0.000
1709291763.407,43.945,-28.320,-9.277,50.293,0.000
1709291763.410,52.734,-30.273,-8.301,56.641,0.000
1709291763.414,44.434,-37.109,-10.254,58.594,0.000
1709291763.418,41.504,-31.738,-12.207,44.434,0.000
1709291763.422,38.574,-31.250,-10.742,31.738,0.000
1709291763.426,20.508,-37.598,-16.113,33.203,0.000
1709291763.430,21.484,-36.133,-18.555,38.574,0.000
1709291763.434,33.691,-31.250,-17.578,36.133,0.000
1709291763.437,29.785,-34.668,-21.973,34.180,0.000
1709291763.441,19.043,-40.039,-21.484,33.691,0.000
1709291763.445,10.254,-37.109,-19.043,29.785,0.000
1709291763.449,13.672,-39.062,-20.508,22.949,0.000
1709291763.453,26.367,-44.434,-22.461,16.113,0.000
1709291763.457,32.227,-44.922,-17.578,19.531,0.000
1709291763.461,19.043,-44.434,-17.090,15.137,0.000
1709291763.465,5.371,-40.527,-22.461,4.395,0.000
1709291763.469,5.371,-37.109,-13.672,9.277,0.000
1709291763.473,18.555,-39.551,-9.277,18.066,0.000
1709291763.476,14.648,-41.992,-19.043,17.578,0.000
1709291763.480,0.000,-50.781,-18.066,15.625,0.000
1709291763.484,5.371,-54.199,-14.648,15.625,0.000
1709291763.488,6.348,-55.664,-18.555,11.719,0.000
1709291763.492,10.254,-52.734,-18.555,7.324,0.000
1709291763.496,21.973,-44.434,-19.043,8.301,0.000
1709291763.499,23.438,-41.016,-20.508,16.602,0.000
1709291763.503,15.137,-38.086,-20.508,22.461,0.000
1709291763.507,10.742,-29.785,-18.555,11.230,0.000
1709291763.511,19.043,-32.227,-20.508,6.348,0.000
1709291763.515,21.484,-28.320,-22.461,15.137,0.000
1709291763.519,21.973,-21.484,-23.926,16.602,0.000
1709291763.523,17.090,-24.414,-25.391,14.648,0.000
1709291763.527,2.930,-29.785,-20.996,17.090,0.000
1709291763.531,4.883,-34.668,-21.973,16.113,0.000
1709291763.535,18.555,-26.855,-23.926,18.066,0.000
1709291763.539,20.020,-21.973,-19.531,11.230,0.000
1709291763.543,14.160,-22.461,-11.230,5.371,0.000
1709291763.547,9.766,-31.250,-9.766,8.301,0.000
1709291763.551,14.160,-36.133,-20.996,6.348,0.000
1709291763.555,10.254,-38.086,-26.855,0.977,0.000
1709291763.559,8.301,-40.039,-17.578,6.836,0.000
1709291763.563,9.766,-45.410,-10.254,18.066,0.000
1709291763.566,3.418,-39.062,-11.719,11.230,0.000
1709291763.570,8.301,-35.645,-9.766,8.789,0.000
1709291763.575,19.043,-41.992,-8.789,12.695,0.000
1709291763.579,23.926,-41.504,-9.766,6.348,0.000
1709291763.582,19.531,-37.598,-12.695,1.953,0.000
1709291763.586,14.648,-36.133,-14.160,5.859,0.000
1709291763.590,9.277,-36.133,-14.160,10.742,0.000
1709291763.594,13.184,-38.574,-16.113,15.137,0.000
1709291763.598,19.531,-38.574,-15.137,11.230,0.000
1709291763.602,12.695,-37.598,-15.625,-0.488,0.000
1709291763.606,7.324,-41.016,-14.160,0.977,0.000
1709291763.610,7.324,-40.527,-16.602,8.789,0.000
1709291763.614,5.859,-40.527,-23.926,-2.930,0.000
1709291763.618,18.066,-41.992,-18.066,-0.488,0.000
1709291763.622,8.789,-47.363,-13.672,5.371,0.000
1709291763.626,-6.836,-47.852,-13.184,-1.953,0.000
1709291763.630,-0.488,-41.016,-11.719,6.348,0.000
1709291763.633,14.648,-39.551,-9.277,16.602,0.000
1709291763.637,20.996,-41.992,-8.789,8.789,0.000
1709291763.641,17.090,-40.039,-11.230,6.348,0.000
1709291763.645,7.324,-39.062,-14.648,4.883,0.000
1709291763.649,2.441,-40.527,-14.648,5.859,0.000
1709291763.653,9.766,-47.852,-7.812,17.578,0.000
1709291763.657,10.254,-42.480,-10.254,11.230,0.000
1709291763.661,8.301,-34.668,-11.230,0.977,0.000
1709291763.665,10.254,-38.086,-7.324,1.465,0.000
1709291763.669,5.371,-40.039,-8.789,4.883,0.000
1709291763.673,11.719,-41.992,-10.254,8.789,0.000
1709291763.676,20.508,-44.434,-8.301,8.301,0.000
1709291763.680,19.043,-41.016,-2.441,2.441,0.000
1709291763.684,6.348,-39.062,-6.348,3.906,0.000
1709291763.688,-8.789,-44.434,-7.812,6.836,0.000
1709291763.692,-3.418,-44.434,-9.766,7.812,0.000
1709291763.696,15.137,-48.828,-6.836,11.719,0.000
1709291763.700,20.020,-45.410,0.000,13.672,0.000
1709291763.704,2.441,-27.832,-0.488,5.859,0.000
1709291763.708,-3.418,-29.297,-5.371,4.883,0.000
1709291763.712,0.000,-36.621,-11.719,13.672,0.000
1709291763.715,3.418,-37.598,-12.695,11.230,0.000
1709291763.719,9.277,-36.133,-11.719,4.395,0.000
1709291763.723,4.395,-37.598,-9.277,-2.441,0.000
1709291763.727,-5.371,-47.852,-7.324,2.930,0.000
1709291763.731,2.930,-53.223,-12.695,6.836,0.000
1709291763.735,16.113,-53.711,-11.230,-4.395,0.000
1709291763.739,12.207,-51.758,-8.789,-5.371,0.000
1709291763.743,-7.324,-53.223,-14.160,1.953,0.000
1709291763.747,-12.695,-51.758,-16.113,0.977,0.000
1709291763.750,-0.977,-44.922,-13.672,-1.953,0.000
1709291763.754,5.859,-45.898,-12.207,-3.418,0.000
1709291763.758,10.742,-48.828,-17.090,-6.348,0.000
1709291763.762,9.766,-41.016,-18.066,-3.418,0.000
1709291763.766,-2.930,-37.598,-17.578,-6.348,0.000
1709291763.770,-9.277,-45.898,-19.043,-12.695,0.000
1709291763.774,1.953,-43.945,-19.043,-8.301,0.000
1709291763.778,9.766,-39.551,-17.578,-1.465,0.000
1709291763.781,1.465,-46.875,-12.695,-3.906,0.000
1709291763.785,-3.906,-49.316,-13.184,-0.977,0.000
1709291763.789,-5.371,-46.875,-14.648,9.766,0.000
1709291763.793,2.930,-46.387,-8.301,-1.953,0.000
1709291763.797,7.812,-43.945,-5.371,-4.395,0.000
1709291763.801,-3.906,-43.457,-5.859,2.441,0.000
1709291763.805,-6.836,-43.945,-4.395,-9.277,0.000
1709291763.808,-2.930,-39.551,-4.883,-9.277,0.000
1709291763.812,14.648,-39.062,-2.441,4.395,0.000
1709291763.816,23.438,-40.527,-0.488,3.418,0.000
1709291763.820,11.230,-38.086,2.441,-3.906,0.000
1709291763.824,-8.301,-40.039,0.000,-7.324,0.000
1709291763.828,-13.184,-45.410,-1.465,-5.859,0.000
1709291763.832,-8.789,-50.781,-4.395,4.395,0.000
1709291763.836,-6.836,-45.410,-10.742,5.371,0.000
1709291763.840,-1.953,-38.574,-10.742,5.859,0.000
1709291763.844,-0.977,-41.016,-5.371,4.883,0.000
1709291763.848,-4.395,-43.457,-0.977,3.906,0.000
1709291763.851,0.000,-42.480,-5.859,7.324,0.000
1709291763.855,5.859,-43.945,-10.742,2.441,0.000
1709291763.859,10.254,-46.875,-10.254,-2.930,0.000
1709291763.863,3.906,-42.480,-5.859,-5.859,0.000
1709291763.867,-5.371,-36.133,-6.836,-4.883,0.000
1709291763.870,0.488,-32.715,-8.789,1.953,0.000
1709291763.874,8.789,-40.039,-2.930,5.859,0.000
1709291763.878,5.859,-45.410,-0.488,11.719,0.000
1709291763.882,-7.812,-41.992,-5.371,4.395,0.000
1709291763.886,-18.066,-44.434,-6.836,-3.906,0.000
1709291763.890,-14.160,-42.969,-4.883,2.930,0.000
1709291763.894,-6.348,-40.039,-10.254,0.977,0.000
1709291763.898,-6.836,-40.039,-16.113,-6.348,0.000
1709291763.902,-8.789,-42.480,-11.230,-12.207,0.000
1709291763.906,-12.695,-50.293,-8.789,-6.836,0.000
1709291763.910,-8.301,-44.922,-12.695,5.859,0.000
1709291763.914,5.859,-35.156,-11.719,5.371,0.000
1709291763.918,9.766,-36.133,-6.836,1.953,0.000
1709291763.922,-0.977,-41.504,-11.230,3.418,0.000
1709291763.926,-10.742,-42.969,-12.207,1.953,0.000
1709291763.930,-16.113,-46.387,-11.230,-0.488,0.000
1709291763.934,-13.672,-46.875,-14.648,6.836,0.000
1709291763.937,-6.348,-45.898,-13.672,17.578,0.000
1709291763.941,-9.277,-38.086,-13.184,12.207,0.000
1709291763.945,-16.602,-38.086,-12.207,-5.371,0.000
1709291763.950,-19.531,-39.551,-8.301,-10.742,0.000
1709291763.954,-4.883,-36.133,-5.371,1.953,0.000
1709291763.957,8.789,-39.551,-10.742,-3.418,0.000
1709291763.961,-4.883,-45.410,-13.672,-19.043,0.000
1709291763.965,-15.625,-44.434,-11.230,-17.578,0.000
1709291763.969,-16.113,-43.945,-11.719,-10.742,0.000
1709291763.973,-6.348,-40.039,-11.719,-5.859,0.000
1709291763.977,6.348,-37.109,-8.789,-4.395,0.000
1709291763.981,2.441,-44.434,-5.859,-0.977,0.000
1709291763.985,-13.184,-50.293,-9.277,5.371,0.000
1709291763.989,-12.207,-43.945,-15.625,-2.441,0.000
1709291763.993,0.000,-41.992,-13.672,-4.883,0.000
1709291763.997,13.184,-44.922,-5.859,1.953,0.000
1709291764.001,6.348,-42.969,-2.930,-1.465,0.000
1709291764.004,-2.930,-39.551,-3.418,-5.371,0.000
1709291764.008,-1.953,-40.527,-6.836,-2.930,0.000
1709291764.012,-4.395,-38.086,-11.719,8.301,0.000
1709291764.016,-1.465,-39.551,-11.719,9.766,0.000
1709291764.020,10.742,-33.691,-4.395,8.301,0.000
1709291764.024,4.883,-28.320,-3.418,3.906,0.000
1709291764.028,-5.859,-36.621,-7.324,11.230,0.000
1709291764.032,1.953,-34.668,-11.719,15.137,0.000
1709291764.036,7.812,-31.250,-15.137,-0.977,0.000
1709291764.040,5.859,-36.133,-14.160,-11.230,0.000
1709291764.044,-1.953,-32.715,-15.625,-7.324,0.000
1709291764.047,-12.695,-26.367,-16.113,-5.859,0.000
1709291764.051,-10.254,-31.250,-11.719,-9.277,0.000
1709291764.055,-7.812,-33.203,-10.742,2.930,0.000
1709291764.059,-0.977,-30.762,-11.719,7.324,0.000
1709291764.063,-3.906,-32.715,-7.324,-11.719,0.000
1709291764.067,-15.625,-37.109,-13.184,-18.066,0.000
1709291764.071,-6.836,-36.133,-21.484,-3.906,0.000
1709291764.075,3.906,-39.551,-20.996,-4.883,0.000
1709291764.079,0.000,-41.504,-23.926,-17.578,0.000
1709291764.083,-3.418,-38.574,-21.973,-16.602,0.000
1709291764.087,-6.836,-40.039,-19.043,-7.324,0.000
1709291764.090,-8.789,-33.691,-21.973,-5.371,0.000
1709291764.094,-4.395,-28.320,-21.484,-7.812,0.000
1709291764.098,-2.441,-32.715,-17.578,-7.324,0.000
1709291764.102,-3.418,-39.062,-10.742,-2.930,0.000
1709291764.106,-6.348,-41.992,-3.906,-0.488,0.000
1709291764.110,-1.953,-43.945,-5.371,5.371,0.000
1709291764.114,1.465,-43.457,-6.836,5.371,0.000
1709291764.118,12.207,-42.969,-5.859,-0.488,0.000
1709291764.122,10.742,-36.133,-7.812,-10.742,0.000
1709291764.125,-1.953,-36.133,-7.324,-11.230,0.000
1709291764.129,-8.789,-41.992,-3.906,-5.371,0.000
1709291764.133,0.488,-38.086,-4.395,-4.395,0.000
1709291764.137,11.719,-36.621,-7.812,-4.395,0.000
1709291764.141,-2.441,-38.086,-10.254,-10.254,0.000
1709291764.145,-16.113,-41.992,-11.230,-10.254,0.000
1709291764.149,-18.555,-43.457,-11.230,-12.207,0.000
1709291764.153,-9.277,-37.598,-13.184,-13.184,0.000
1709291764.156,-3.418,-39.551,-15.625,-10.742,0.000
1709291764.160,-2.930,-40.039,-18.066,-8.301,0.000
1709291764.164,-10.254,-39.551,-18.555,-0.977,0.000
1709291764.168,-21.484,-34.668,-18.555,-7.324,0.000
1709291764.172,-18.555,-35.156,-16.602,-14.648,0.000
1709291764.176,-8.789,-37.598,-15.137,-5.859,0.000
1709291764.180,-14.160,-39.551,-19.043,-13.184,0.000
1709291764.183,-14.648,-40.039,-9.766,-13.672,0.000
1709291764.187,-18.555,-41.016,-6.348,-4.395,0.000
1709291764.191,-14.160,-44.922,-14.648,-6.348,0.000
1709291764.195,0.488,-37.109,-10.742,-4.395,0.000
1709291764.199,-2.441,-36.621,-6.348,-10.254,0.000
1709291764.203,-5.371,-35.645,-10.254,-5.859,0.000
1709291764.207,-7.812,-28.809,-13.672,13.184,0.000
1709291764.211,-0.977,-16.602,-11.230,18.066,0.000
1709291764.215,10.254,-3.906,-8.301,10.254,0.000
1709291764.219,5.859,-5.371,-7.812,-0.488,0.000
1709291764.223,2.441,-3.906,-5.859,-1.953,0.000
1709291764.226,-1.953,-2.441,-8.789,0.488,0.000
1709291764.230,4.883,-7.324,-9.766,9.277,0.000
1709291764.234,11.719,-14.160,-5.371,14.160,0.000
1709291764.238,5.859,-21.484,-2.441,7.812,0.000
1709291764.242,-7.324,-29.297,-5.371,-0.977,0.000
1709291764.246,-14.648,-27.344,-7.812,0.488,0.000
1709291764.250,-7.812,-30.762,-5.371,7.324,0.000
1709291764.254,-0.977,-30.273,-9.277,5.859,0.000
1709291764.258,1.465,-21.484,-15.137,-2.441,0.000
1709291764.261,-11.719,-22.461,-10.742,-10.742,0.000
1709291764.265,-12.695,-22.949,-6.836,-6.836,0.000
1709291764.269,-8.301,-23.926,-9.277,3.418,0.000
1709291764.273,-7.812,-20.020,-8.301,-0.488,0.000
1709291764.278,4.883,-21.973,-12.207,-5.371,0.000
1709291764.281,2.441,-27.344,-15.625,-5.859,0.000
1709291764.285,-15.137,-25.879,-11.719,-8.301,0.000
1709291764.289,-6.348,-18.555,-11.230,3.418,0.000
1709291764.293,12.207,-21.973,-10.742,6.836,0.000
1709291764.297,19.531,-24.902,-9.277,3.418,0.000
1709291764.301,5.371,-19.043,-9.277,0.488,0.000
1709291764.305,-10.254,-27.832,-5.859,-9.277,0.000
1709291764.309,-2.441,-28.320,-1.465,-1.465,0.000
1709291764.313,-1.953,-30.273,-2.930,12.207,0.000
1709291764.317,-3.906,-34.180,-5.859,10.742,0.000
1709291764.321,-0.977,-30.273,-4.883,3.418,0.000
1709291764.325,-10.254,-31.738,-4.395,3.906,0.000
1709291764.329,-18.066,-30.762,0.000,4.395,0.000
1709291764.333,-2.930,-21.484,0.000,4.883,0.000
1709291764.337,10.742,-19.043,-1.465,0.977,0.000
1709291764.340,6.348,-24.414,1.465,0.000,0.000
1709291764.344,2.441,-26.367,4.883,14.160,0.000
1709291764.348,0.488,-22.949,1.465,10.254,0.000
1709291764.352,-1.953,-25.879,-3.418,0.977,0.000
1709291764.356,9.766,-30.762,-3.906,9.766,0.000
1709291764.360,6.348,-33.203,-5.859,17.090,0.000
1709291764.364,-1.953,-29.297,-6.836,12.695,0.000
1709291764.368,1.465,-30.273,-6.348,6.836,0.000
1709291764.372,0.488,-36.133,-5.371,9.277,0.000
1709291764.376,7.812,-29.297,-5.859,10.742,0.000
1709291764.380,12.207,-21.484,-2.930,2.441,0.000
1709291764.384,0.000,-21.973,-5.859,-1.465,0.000
1709291764.388,-3.906,-29.785,-9.766,2.930,0.000
1709291764.391,4.883,-26.855,-11.230,8.301,0.000
1709291764.395,6.836,-21.973,-10.742,6.348,0.000
1709291764.399,7.324,-28.809,-11.230,-2.930,0.000
1709291764.403,4.395,-32.227,-9.766,0.488,0.000
1709291764.407,-3.906,-26.855,-7.324,0.977,0.000
1709291764.411,1.953,-25.391,-11.230,2.930,0.000
1709291764.415,12.207,-29.785,-11.230,10.254,0.000
1709291764.419,4.883,-33.691,-13.184,-0.488,0.000
1709291764.423,0.977,-27.832,-15.625,-7.324,0.000
1709291764.427,6.836,-29.297,-12.695,-5.371,0.000
1709291764.431,9.277,-32.227,-9.766,-0.977,0.000
1709291764.434,10.254,-27.344,-9.277,-5.859,0.000
1709291764.438,10.254,-31.250,-11.719,-10.742,0.000
1709291764.442,5.859,-30.762,-6.348,-2.930,0.000
1709291764.446,-8.301,-28.320,-4.395,0.000,0.000
1709291764.450,-8.301,-26.855,-2.930,11.230,0.000
1709291764.454,8.789,-22.461,-1.953,11.719,0.000
1709291764.458,12.207,-26.367,-2.441,12.695,0.000
1709291764.462,2.441,-31.738,0.488,14.160,0.000
1709291764.466,1.465,-26.855,4.883,8.789,0.000
1709291764.469,-1.953,-24.414,7.324,10.742,0.000
1709291764.473,-0.977,-28.320,2.930,8.789,0.000
1709291764.477,6.836,-31.738,1.465,3.418,0.000
1709291764.481,2.441,-33.691,5.859,-1.953,0.000
1709291764.485,-4.883,-40.527,3.418,-3.906,0.000
1709291764.489,-3.906,-40.527,2.441,-3.906,0.000
1709291764.493,1.465,-40.527,3.418,10.742,0.000
1709291764.497,7.812,-33.203,0.488,12.695,0.000
1709291764.501,6.348,-24.902,1.953,1.465,0.000
1709291764.505,2.930,-26.367,1.953,6.348,0.000
1709291764.508,3.906,-25.879,4.395,11.719,0.000
1709291764.512,2.930,-25.879,5.859,9.766,0.000
1709291764.516,5.371,-27.832,3.418,-2.441,0.000
1709291764.520,6.836,-26.855,4.883,-7.324,0.000
1709291764.524,-11.719,-28.320,4.395,-3.906,0.000
1709291764.528,-12.695,-28.320,7.324,-0.977,0.000
1709291764.532,3.906,-30.762,6.348,-1.465,0.000
1709291764.536,6.348,-35.156,1.953,2.441,0.000
1709291764.540,3.906,-35.645,-2.441,11.719,0.000
1709291764.543,-7.324,-33.203,-9.766,-0.977,0.000
1709291764.547,-9.277,-34.180,-10.254,-0.488,0.000
1709291764.551,-1.465,-36.621,-6.836,-1.465,0.000
1709291764.555,2.930,-34.668,-7.812,-9.277,0.000
1709291764.559,3.418,-35.156,-8.789,-10.742,0.000
1709291764.563,-7.812,-40.527,-10.254,-15.137,0.000
1709291764.566,-13.184,-46.387,-10.254,-8.789,0.000
1709291764.570,-6.348,-42.480,-10.742,-2.441,0.000
1709291764.574,1.953,-38.086,-10.254,-7.812,0.000
1709291764.578,-0.488,-43.457,-13.184,-9.277,0.000
1709291764.582,-12.695,-46.387,-14.160,0.977,0.000
1709291764.586,-24.902,-43.945,-18.555,-3.418,0.000
1709291764.590,-22.949,-43.945,-20.508,-13.184,0.000
1709291764.594,-6.348,-39.551,-10.254,-9.766,0.000
1709291764.598,2.930,-29.297,-4.883,-6.348,0.000
1709291764.602,-3.418,-30.273,-5.859,-8.789,0.000
1709291764.605,-10.254,-32.715,-5.859,-7.812,0.000
1709291764.609,-2.441,-25.879,-7.324,2.441,0.000
1709291764.613,8.301,-25.391,-5.371,4.883,0.000
1709291764.617,11.719,-26.855,-2.441,-0.977,0.000
1709291764.621,2.930,-27.832,-11.230,-5.859,0.000
1709291764.625,-8.789,-35.645,-10.254,-0.977,0.000
1709291764.628,-2.441,-36.133,-1.465,8.301,0.000
1709291764.632,4.395,-32.227,-6.348,2.441,0.000
1709291764.636,9.766,-31.738,-9.766,-11.230,0.000
1709291764.640,6.348,-32.715,-8.301,-11.719,0.000
1709291764.644,-5.371,-37.598,-5.859,-4.883,0.000
1709291764.648,-4.883,-39.551,-4.883,-5.859,0.000
1709291764.652,5.859,-35.156,-4.395,-5.859,0.000
1709291764.656,6.836,-31.738,-3.418,-4.395,0.000
1709291764.660,0.000,-26.855,-7.812,-5.371,0.000
1709291764.664,-6.348,-25.391,-7.812,-2.441,0.000
1709291764.668,-9.277,-28.320,-1.953,0.977,0.000
1709291764.672,2.930,-31.738,-0.977,6.348,0.000
1709291764.676,15.625,-30.762,-4.883,1.465,0.000
1709291764.680,8.301,-30.762,-6.836,-3.418,0.000
1709291764.684,1.953,-31.738,-8.789,4.395,0.000
1709291764.688,0.000,-37.109,-10.742,13.672,0.000
1709291764.692,3.418,-29.785,-8.301,17.090,0.000
1709291764.695,12.695,-21.484,-4.395,14.160,0.000
1709291764.700,8.789,-24.902,-6.348,9.766,0.000
1709291764.704,-1.953,-31.250,-8.789,2.441,0.000
1709291764.707,0.488,-31.738,-8.789,-1.953,0.000
1709291764.711,7.324,-27.832,-10.254,7.812,0.000
1709291764.715,12.695,-28.320,-9.277,12.207,0.000
1709291764.719,12.695,-27.344,-9.277,5.371,0.000
1709291764.723,-2.441,-20.996,-11.230,0.000,0.000
1709291764.727,-17.090,-20.996,-8.301,-0.977,0.000
1709291764.731,-8.301,-26.367,-5.859,11.719,0.000
1709291764.735,4.883,-28.809,-8.301,20.020,0.000
1709291764.739,-2.930,-29.297,-13.672,5.859,0.000
1709291764.743,-8.301,-30.762,-15.625,-1.465,0.000
1709291764.747,-9.766,-29.785,-10.742,5.859,0.000
1709291764.751,-7.324,-29.297,-9.766,4.883,0.000
1709291764.755,14.160,-23.926,-9.277,6.348,0.000
1709291764.759,18.066,-20.020,-8.789,7.324,0.000
1709291764.762,2.441,-24.902,-8.789,5.859,0.000
1709291764.766,-2.930,-24.414,-9.766,6.348,0.000
1709291764.770,-1.953,-18.555,-10.254,8.789,0.000
1709291764.774,10.254,-16.113,-5.859,7.812,0.000
1709291764.778,14.648,-23.438,-3.418,15.137,0.000
1709291764.782,1.953,-19.043,-10.254,6.348,0.000
1709291764.786,-8.789,-15.625,-14.648,1.465,0.000
1709291764.790,-5.859,-20.020,-11.230,7.812,0.000
1709291764.795,5.859,-20.508,-8.789,6.348,0.000
1709291764.799,9.766,-18.066,-7.324,6.836,0.000
1709291764.803,-2.441,-18.066,-7.324,1.953,0.000
1709291764.807,-13.184,-21.484,-6.836,-1.465,0.000
1709291764.811,-10.254,-21.973,-6.348,2.930,0.000
1709291764.815,-3.418,-23.926,-6.348,2.441,0.000
1709291764.819,0.977,-28.320,-6.348,-1.465,0.000
1709291764.823,1.465,-34.180,-6.836,1.465,0.000
1709291764.827,-11.719,-34.668,-8.301,13.184,0.000
1709291764.830,-10.254,-25.391,-8.789,10.254,0.000
1709291764.834,-1.465,-29.297,-8.301,2.441,0.000
1709291764.838,3.418,-31.738,-11.230,0.000,0.000
1709291764.842,2.441,-28.809,-14.160,-5.371,0.000
1709291764.846,-8.301,-26.367,-14.160,-9.766,0.000
1709291764.850,-16.113,-29.297,-20.020,-7.812,0.000
1709291764.854,-13.672,-37.598,-25.879,-10.742,0.000
1709291764.858,-0.977,-33.691,-19.531,-11.719,0.000
1709291764.861,1.953,-33.691,-14.648,-7.812,0.000
1709291764.865,-9.766,-29.297,-17.090,-11.719,0.000
1709291764.869,-16.113,-33.203,-18.555,-5.859,0.000
1709291764.873,-7.324,-38.086,-22.461,-2.930,0.000
1709291764.877,-2.930,-38.086,-27.344,-22.949,0.000
1709291764.881,-3.906,-33.691,-20.996,-23.438,0.000
1709291764.885,-13.184,-27.832,-18.066,-14.648,0.000
1709291764.888,-15.137,-31.250,-19.531,-13.672,0.000
1709291764.892,-4.395,-34.180,-17.578,-16.113,0.000
1709291764.896,-2.930,-38.574,-19.043,-21.484,0.000
1709291764.900,-10.254,-44.434,-27.344,-25.879,0.000
1709291764.904,-9.766,-45.898,-26.855,-25.879,0.000
1709291764.908,-10.254,-44.922,-19.043,-17.578,0.000
1709291764.912,-2.930,-45.410,-16.602,-10.254,0.000
1709291764.916,1.465,-46.387,-16.602,-0.488,0.000
1709291764.920,-6.836,-41.504,-17.090,-1.465,0.000
1709291764.924,-10.742,-43.457,-15.625,-7.812,0.000
1709291764.927,-20.020,-41.992,-16.113,-6.836,0.000
1709291764.931,-20.996,-40.527,-18.066,-5.371,0.000
1709291764.935,-8.301,-39.551,-15.137,-4.883,0.000
1709291764.939,-8.789,-37.109,-11.719,-8.789,0.000
1709291764.943,-15.625,-39.062,-11.719,-9.766,0.000
1709291764.947,-16.113,-41.992,-9.766,-6.348,0.000
1709291764.950,-20.020,-37.598,-9.766,-2.930,0.000
1709291764.954,-11.719,-39.551,-15.625,-5.371,0.000
1709291764.958,-7.324,-54.688,-19.043,-4.883,0.000
1709291764.962,-9.766,-49.316,-18.066,-7.812,0.000
1709291764.966,-17.578,-44.434,-17.578,-14.648,0.000
1709291764.970,-19.043,-48.828,-14.160,-7.812,0.000
1709291764.974,-1.465,-44.922,-8.301,-1.465,0.000
1709291764.978,4.395,-41.992,-11.719,-8.789,0.000
1709291764.981,-9.277,-44.922,-19.531,-12.207,0.000
1709291764.985,-20.508,-49.316,-19.531,-9.766,0.000
1709291764.989,-20.508,-53.711,-20.508,-7.324,0.000
1709291764.993,-5.859,-48.828,-17.090,0.977,0.000
1709291764.997,8.789,-39.551,-14.160,9.766,0.000
1709291765.001,3.906,-46.387,-15.625,2.930,0.000
1709291765.005,-6.836,-51.758,-15.137,6.836,0.000
1709291765.008,-12.695,-41.016,-17.578,0.977,0.000
1709291765.012,-4.883,-38.574,-19.531,-4.395,0.000
1709291765.016,5.859,-44.922,-17.578,0.977,0.000
1709291765.020,-1.465,-44.434,-14.648,-5.859,0.000
1709291765.024,-13.184,-48.340,-16.113,-9.766,0.000
1709291765.028,-13.672,-51.270,-17.090,-5.859,0.000
1709291765.032,-4.395,-53.223,-15.137,1.465,0.000
1709291765.036,-0.977,-53.223,-14.160,4.883,0.000
1709291765.040,-7.324,-51.270,-16.602,-8.301,0.000
1709291765.044,-10.254,-53.711,-12.695,-16.602,0.000
1709291765.048,-11.719,-55.664,-9.277,-7.324,0.000
1709291765.052,-8.789,-53.223,-11.230,-6.348,0.000
1709291765.056,1.953,-49.316,-12.207,-8.301,0.000
1709291765.060,0.977,-48.828,-10.742,-9.766,0.000
1709291765.064,-5.371,-52.734,-9.277,-2.441,0.000
1709291765.068,-11.719,-45.410,-15.137,-3.418,0.000
1709291765.071,-7.812,-41.504,-14.160,-12.695,0.000
1709291765.076,2.930,-40.527,-8.789,-10.254,0.000
1709291765.080,0.000,-34.180,-7.324,-12.207,0.000
1709291765.083,-5.371,-33.203,-7.324,-15.137,0.000
1709291765.087,-4.395,-34.180,-6.348,-14.648,0.000
1709291765.091,4.395,-36.133,-4.883,-6.836,0.000
1709291765.095,3.906,-40.527,-2.930,-2.930,0.000
1709291765.099,9.277,-39.551,0.000,-3.418,0.000
1709291765.103,12.695,-40.039,0.977,-8.789,0.000
1709291765.107,1.953,-47.363,-3.906,-6.348,0.000
1709291765.111,-7.324,-46.387,-5.859,4.395,0.000
1709291765.115,-3.906,-35.156,-9.277,-6.836,0.000
1709291765.119,-1.465,-41.992,-14.648,-14.648,0.000
1709291765.123,-3.418,-47.852,-16.602,-11.719,0.000
1709291765.127,-12.695,-43.945,-20.508,-13.672,0.000
1709291765.130,-13.184,-43.945,-22.949,-18.066,0.000
1709291765.134,-6.836,-44.434,-20.508,-13.672,0.000
1709291765.138,-2.441,-41.992,-14.648,-8.301,0.000
1709291765.142,-0.977,-41.504,-15.625,-17.578,0.000
1709291765.146,-11.719,-40.527,-15.625,-25.391,0.000
1709291765.150,-10.742,-34.180,-14.160,-19.043,0.000
1709291765.154,-4.395,-42.480,-14.160,-7.812,0.000
1709291765.158,-10.742,-46.387,-20.020,-10.254,0.000
1709291765.162,-17.090,-39.062,-20.508,-14.160,0.000
1709291765.166,-22.949,-43.457,-14.648,-13.672,0.000
1709291765.169,-22.461,-42.480,-16.113,-11.230,0.000
1709291765.173,-16.602,-32.715,-16.113,-7.812,0.000
1709291765.177,-13.672,-40.039,-15.137,-11.230,0.000
1709291765.181,-15.137,-43.945,-11.719,-9.277,0.000
1709291765.185,-21.484,-40.039,-9.277,-7.324,0.000
1709291765.189,-23.438,-43.457,-13.672,-9.766,0.000
1709291765.193,-14.160,-40.527,-11.230,-12.695,0.000
1709291765.197,-4.883,-35.156,-2.930,-0.977,0.000
1709291765.201,-5.859,-33.691,-3.906,8.301,0.000
1709291765.205,-9.277,-17.090,-6.348,-7.812,0.000
1709291765.209,-12.695,-1.465,-4.883,-7.812,0.000
1709291765.212,-7.812,9.766,-1.465,-0.488,0.000
1709291765.216,0.000,20.020,-6.348,-3.418,0.000
1709291765.220,0.000,19.531,-6.836,-6.348,0.000
1709291765.224,0.000,16.113,-1.465,-9.766,0.000
1709291765.228,0.000,15.625,-3.418,-0.977,0.000
1709291765.232,0.000,13.672,-3.906,7.812,0.000
1709291765.236,0.000,10.254,-3.418,1.953,0.000
1709291765.240,0.000,11.719,-8.789,-2.441,0.000
1709291765.244,0.000,8.301,-12.207,3.418,0.000
1709291765.248,0.000,17.578,-8.789,-1.465,0.000
1709291765.251,0.000,26.855,-7.812,-7.812,0.000
1709291765.255,0.000,16.602,-9.766,-8.301,0.000
1709291765.259,0.000,10.254,-9.277,-11.719,0.000
1709291765.263,-10.254,12.207,-5.371,-12.207,0.000
1709291765.267,-20.996,9.277,-2.930,-13.672,0.000
1709291765.271,-20.508,5.371,-5.859,-9.277,0.000
1709291765.275,-8.301,5.371,-3.418,-8.789,0.000
1709291765.278,0.977,2.441,-0.488,-12.695,0.000
1709291765.282,-4.395,-2.441,-4.395,-17.090,0.000
1709291765.286,-22.949,-7.812,-11.230,-14.160,0.000
1709291765.290,-20.020,-12.207,-9.277,2.930,0.000
1709291765.294,-5.859,-9.277,-3.906,-3.418,0.000
1709291765.298,0.488,-8.789,-6.836,-13.672,0.000
1709291765.302,-3.906,-12.207,-2.930,-7.812,0.000
1709291765.306,-14.160,-11.719,-1.953,-6.348,0.000
1709291765.309,-11.230,-11.230,-4.883,-8.789,0.000
1709291765.313,2.441,-12.695,-4.395,-3.418,0.000
1709291765.317,8.789,-14.160,-1.465,1.465,0.000
1709291765.321,4.883,-9.277,-1.465,3.418,0.000
1709291765.325,-6.836,-7.812,-1.465,6.348,0.000
1709291765.329,-12.207,-17.578,-3.418,4.395,0.000
1709291765.333,-3.906,-20.508,-9.766,3.906,0.000
1709291765.337,2.930,-15.137,-11.230,1.953,0.000
1709291765.340,0.000,-11.719,-11.719,-5.859,0.000
1709291765.344,-9.277,-16.113,-5.371,-5.371,0.000
1709291765.348,-14.648,-20.996,-1.953,-2.930,0.000
1709291765.352,-7.324,-16.113,-5.371,3.418,0.000
1709291765.356,-1.465,-10.254,-5.859,10.254,0.000
1709291765.359,2.441,-12.695,-3.418,4.395,0.000
1709291765.363,2.441,-20.020,-3.418,-2.441,0.000
1709291765.367,-2.930,-20.996,-8.301,0.000,0.000
1709291765.371,-1.465,-20.020,-9.277,8.789,0.000
1709291765.375,0.977,-18.555,-12.207,11.230,0.000
1709291765.379,3.906,-13.672,-11.230,14.160,0.000
1709291765.383,-3.418,-19.531,-12.207,3.906,0.000
1709291765.387,-9.766,-25.391,-11.230,-0.488,0.000
1709291765.391,-6.348,-26.367,-12.207,4.395,0.000
1709291765.395,6.348,-24.902,-12.695,5.371,0.000
1709291765.399,8.301,-19.043,-9.277,4.395,0.000
1709291765.403,0.488,-22.949,-11.230,-0.977,0.000
1709291765.407,-0.488,-28.320,-7.812,0.000,0.000
1709291765.411,3.906,-27.344,-4.883,3.906,0.000
1709291765.415,12.695,-27.832,-8.789,1.953,0.000
1709291765.419,19.043,-31.738,-8.301,-6.348,0.000
1709291765.422,12.207,-36.621,-7.324,-3.418,0.000
1709291765.426,-8.301,-33.691,-7.812,-5.859,0.000
1709291765.430,-11.719,-30.273,-7.324,-7.812,0.000
1709291765.434,-0.977,-33.691,-9.277,2.441,0.000
1709291765.438,4.883,-40.039,-5.371,3.418,0.000
1709291765.442,-3.418,-39.551,-3.418,-10.742,0.000
1709291765.446,-16.602,-34.180,-9.277,-13.184,0.000
1709291765.450,-15.137,-37.109,-9.766,-11.719,0.000
1709291765.454,-4.883,-39.551,-6.836,-6.348,0.000
1709291765.458,3.906,-34.180,-8.301,0.977,0.000
1709291765.462,1.465,-38.086,-16.602,-4.883,0.000
1709291765.466,-4.395,-40.527,-15.137,-4.883,0.000
1709291765.470,0.977,-41.016,-11.230,4.883,0.000
1709291765.474,3.906,-38.574,-14.160,12.695,0.000
1709291765.478,-1.953,-38.086,-15.137,0.488,0.000
1709291765.481,-10.742,-43.457,-17.090,-3.906,0.000
1709291765.485,-4.395,-41.016,-14.648,10.742,0.000
1709291765.489,-3.418,-33.691,-11.719,5.371,0.000
1709291765.493,-6.836,-41.992,-19.043,-7.324,0.000
1709291765.497,-1.465,-50.293,-24.902,-15.137,0.000
1709291765.501,-0.488,-41.992,-23.438,-14.648,0.000
1709291765.505,-11.719,-40.039,-17.090,-7.812,0.000
1709291765.509,-19.043,-50.781,-8.789,-4.395,0.000
1709291765.513,-1.953,-48.828,-3.906,4.883,0.000
1709291765.517,1.465,-44.922,-1.953,4.395,0.000
1709291765.521,-7.812,-43.945,-4.883,-2.441,0.000
1709291765.525,-14.160,-44.434,-7.812,-6.348,0.000
1709291765.528,-22.949,-53.223,-5.859,-3.418,0.000
1709291765.532,-18.066,-46.875,-2.441,2.441,0.000
1709291765.536,-6.348,-41.504,-1.465,3.906,0.000
1709291765.540,-2.930,-50.781,-2.441,-6.348,0.000
1709291765.544,-7.324,-52.246,-9.766,-18.066,0.000
1709291765.548,-6.348,-36.133,-7.812,-8.301,0.000
1709291765.552,-7.324,-24.414,-1.953,0.977,0.000
1709291765.556,-3.418,-26.855,-2.441,1.953,0.000
1709291765.560,-0.488,-24.902,-6.348,-4.883,0.000
1709291765.564,-10.742,-27.832,-9.766,-16.113,0.000
1709291765.567,-16.602,-27.832,-9.277,-15.625,0.000
1709291765.571,-2.930,-26.367,-6.836,-5.859,0.000
1709291765.575,6.836,-27.832,-2.441,-1.465,0.000
1709291765.579,6.836,-16.602,-2.441,-6.836,0.000
1709291765.583,1.953,-11.719,-6.348,-2.441,0.000
1709291765.587,-4.395,-20.020,-7.324,-3.418,0.000
1709291765.591,-10.742,-22.461,-8.789,-11.719,0.000
1709291765.595,0.000,-21.484,-11.230,1.953,0.000
1709291765.599,11.719,-21.973,-10.742,0.488,0.000
1709291765.602,6.348,-23.438,-10.254,-6.836,0.000
1709291765.606,0.977,-23.438,-7.812,0.488,0.000
1709291765.610,-2.930,-23.926,-7.324,2.930,0.000
1709291765.614,-3.418,-30.762,-10.254,-0.977,0.000
1709291765.618,0.977,-37.109,-8.301,0.488,0.000
1709291765.622,-8.301,-36.621,-4.883,-0.977,0.000
1709291765.626,-14.648,-31.738,-2.930,-8.789,0.000
1709291765.630,-16.602,-36.621,-6.348,-11.230,0.000
1709291765.634,-7.812,-36.621,-4.883,-6.348,0.000
1709291765.637,-2.441,-32.715,0.488,-1.465,0.000
1709291765.641,-10.742,-37.109,-0.977,-7.812,0.000
1709291765.645,-16.602,-38.574,0.000,-7.324,0.000
1709291765.649,-20.020,-38.086,0.000,-5.859,0.000
1709291765.653,-6.836,-39.551,-1.465,-5.371,0.000
1709291765.657,-0.977,-41.504,-7.324,-8.789,0.000
1709291765.661,-3.418,-39.551,-9.277,-10.742,0.000
1709291765.665,-11.230,-41.504,-5.859,-5.859,0.000
1709291765.669,-9.766,-41.992,-6.836,-7.324,0.000
1709291765.672,0.977,-34.180,-8.301,-5.371,0.000
1709291765.676,7.812,-38.574,-8.301,-3.418,0.000
1709291765.680,0.977,-43.945,-11.230,-11.719,0.000
1709291765.684,-8.789,-39.062,-10.254,-10.742,0.000
1709291765.688,-5.859,-40.527,-10.254,-4.395,0.000
1709291765.692,8.789,-42.969,-10.254,1.465,0.000
1709291765.696,20.508,-41.016,-4.883,2.930,0.000
1709291765.699,16.602,-42.480,-5.859,-4.395,0.000
1709291765.703,0.977,-49.316,-12.207,-7.812,0.000
1709291765.707,-15.137,-54.688,-13.184,-3.418,0.000
1709291765.711,-10.254,-49.316,-9.766,0.000,0.000
1709291765.715,0.977,-40.527,-9.277,-5.859,0.000
1709291765.719,1.465,-41.992,-10.254,-4.395,0.000
1709291765.723,-8.789,-48.340,-7.812,-5.371,0.000
1709291765.727,-13.184,-45.410,-7.324,-2.930,0.000
1709291765.730,-7.324,-47.363,-8.301,6.836,0.000
1709291765.734,-7.324,-55.664,-10.254,2.441,0.000
1709291765.738,-2.930,-54.688,-10.742,0.488,0.000
1709291765.742,-2.930,-55.664,-10.254,-3.418,0.000
1709291765.746,-16.113,-59.570,-10.742,-19.043,0.000
1709291765.750,-6.348,-59.570,-8.789,-5.859,0.000
1709291765.754,7.324,-56.152,-5.371,18.555,0.000
1709291765.758,0.488,-52.246,-7.324,1.953,0.000
1709291765.761,-5.371,-50.293,-9.277,-6.836,0.000
1709291765.765,-8.301,-52.734,-10.742,0.000,0.000
1709291765.769,-8.301,-53.223,-13.184,2.930,0.000
1709291765.773,-2.441,-51.270,-9.766,0.000,0.000
1709291765.778,0.000,-55.664,-8.301,-1.465,0.000
1709291765.782,0.000,-56.641,-3.418,4.395,0.000
1709291765.785,0.000,-46.387,-1.953,5.859,0.000
1709291765.789,0.000,-47.363,-4.883,7.812,0.000
1709291765.793,0.000,-52.734,-7.324,6.836,0.000
1709291765.797,0.000,-56.641,-9.277,1.465,0.000
1709291765.801,0.000,-55.664,-10.254,-8.789,0.000
1709291765.805,0.000,-46.875,-9.277,-15.137,0.000
1709291765.809,0.000,-51.270,-2.930,0.488,0.000
1709291765.813,0.000,-64.453,-1.465,12.207,0.000
1709291765.817,0.000,-60.547,-7.812,-2.930,0.000
1709291765.821,0.000,-59.570,-10.742,-19.043,0.000
1709291765.825,-18.066,-66.406,-10.254,-19.043,0.000
1709291765.829,-23.438,-63.965,-7.324,-13.184,0.000
1709291765.833,-12.207,-59.570,-7.812,-13.184,0.000
1709291765.837,-0.977,-55.176,-13.672,-10.742,0.000
1709291765.841,2.441,-53.223,-9.766,-4.883,0.000
1709291765.844,-11.719,-62.988,-6.836,-6.836,0.000
1709291765.848,-26.855,-60.059,-14.648,-5.859,0.000
1709291765.852,-5.371,-51.270,-14.160,3.418,0.000
1709291765.856,9.766,-51.270,-0.488,8.789,0.000
1709291765.860,3.418,-54.688,2.930,10.742,0.000
1709291765.864,0.488,-50.781,-2.930,-0.488,0.000
1709291765.868,-6.836,-53.711,-5.371,-5.859,0.000
1709291765.872,-7.324,-61.035,-4.883,-2.930,0.000
1709291765.876,-3.418,-54.688,-3.418,-4.395,0.000
1709291765.880,-3.906,-50.293,-5.371,-12.207,0.000
1709291765.884,-7.812,-55.664,-5.859,-8.789,0.000
1709291765.888,-5.859,-57.617,1.465,6.836,0.000
1709291765.892,0.488,-48.828,1.465,11.719,0.000
1709291765.895,10.742,-40.527,0.000,8.789,0.000
1709291765.899,8.301,-45.898,2.441,-3.418,0.000
1709291765.903,-9.766,-58.105,-1.465,-3.418,0.000
1709291765.907,-7.324,-49.316,-3.906,3.418,0.000
1709291765.911,-5.859,-46.875,-5.859,-3.418,0.000
1709291765.915,0.977,-54.688,-8.789,-7.812,0.000
1709291765.919,3.906,-48.828,-9.766,-10.254,0.000
1709291765.923,-5.859,-45.898,-15.137,-15.625,0.000
1709291765.927,-10.254,-49.805,-14.648,-14.160,0.000
1709291765.931,-8.789,-52.246,-11.230,-7.324,0.000
1709291765.934,0.977,-46.875,-10.254,-1.953,0.000
1709291765.938,-0.977,-51.270,-6.836,-5.371,0.000
1709291765.942,-3.906,-51.270,-6.836,-4.883,0.000
1709291765.946,-2.441,-46.875,-4.883,7.812,0.000
1709291765.950,-6.348,-47.363,2.930,19.531,0.000
1709291765.954,1.953,-36.621,-1.465,10.254,0.000
1709291765.958,7.324,-38.574,-5.371,-4.395,0.000
1709291765.962,0.000,-44.434,-3.418,-12.207,0.000
1709291765.966,-6.836,-42.480,-6.836,-8.301,0.000
1709291765.969,-12.207,-46.387,-10.254,-6.348,0.000
1709291765.973,-17.090,-52.246,-10.254,-8.301,0.000
1709291765.977,-12.695,-53.711,-12.695,-8.301,0.000
1709291765.981,-11.719,-50.293,-15.137,-12.695,0.000
1709291765.985,-11.230,-51.758,-12.207,-10.742,0.000
1709291765.989,-3.906,-50.293,-5.859,-8.301,0.000
1709291765.993,10.254,-47.852,-4.395,5.371,0.000
1709291765.997,21.973,-41.016,-7.324,8.301,0.000
1709291766.001,8.301,-45.410,-15.625,-9.277,0.000
1709291766.005,-6.348,-52.246,-17.578,-8.301,0.000
1709291766.009,-7.812,-51.758,-12.207,4.883,0.000
1709291766.012,-4.883,-45.410,-10.742,3.906,0.000
1709291766.016,-3.418,-43.945,-11.719,0.488,0.000
1709291766.020,-7.812,-53.711,-12.207,-5.371,0.000
1709291766.024,-9.766,-52.734,-10.742,-6.836,0.000
1709291766.028,-19.043,-49.805,-13.672,-8.789,0.000
1709291766.032,-19.043,-52.246,-16.602,-11.719,0.000
1709291766.036,-4.883,-48.340,-19.531,-6.348,0.000
1709291766.040,-2.441,-50.781,-14.160,4.395,0.000
1709291766.043,-12.207,-47.852,-16.113,-9.277,0.000
1709291766.047,-14.648,-45.410,-16.602,-12.207,0.000
1709291766.051,-11.230,-49.316,-8.789,-2.930,0.000
1709291766.055,-0.488,-46.875,-11.230,-12.207,0.000
1709291766.059,-0.488,-39.062,-9.766,-16.602,0.000
1709291766.063,-9.766,-41.016,-5.859,-15.625,0.000
1709291766.066,-10.742,-42.480,-5.859,-12.207,0.000
1709291766.070,-7.812,-35.156,-6.348,1.953,0.000
1709291766.074,0.977,-35.156,-2.930,3.418,0.000
1709291766.078,2.441,-42.969,-3.906,-3.906,0.000
1709291766.082,-9.277,-47.852,-5.371,-0.488,0.000
1709291766.086,-18.066,-39.551,-6.836,-2.441,0.000
1709291766.090,-12.207,-31.250,-8.301,-5.859,0.000
1709291766.094,-2.441,-37.598,-7.324,-1.465,0.000
1709291766.098,-0.977,-41.992,-6.836,-5.859,0.000
1709291766.102,-14.160,-43.945,-9.766,-14.648,0.000
1709291766.105,-20.508,-41.016,-7.812,-3.418,0.000
1709291766.109,-15.625,-40.039,-5.371,0.488,0.000
1709291766.113,-4.395,-43.457,-4.883,-2.930,0.000
1709291766.117,-0.977,-35.645,-0.977,-6.348,0.000
1709291766.121,-10.742,-29.297,-3.906,-9.766,0.000
1709291766.124,-9.277,-34.668,-4.883,0.488,0.000
1709291766.128,0.000,-41.016,-2.441,13.672,0.000
1709291766.132,9.277,-36.621,-3.906,7.324,0.000
1709291766.136,13.672,-29.785,-9.766,1.953,0.000
1709291766.140,8.301,-40.039,-12.207,-0.977,0.000
1709291766.144,-3.906,-46.387,-13.184,-6.348,0.000
1709291766.148,-9.766,-40.527,-18.066,-8.789,0.000
1709291766.152,-4.395,-39.062,-20.020,-4.883,0.000
1709291766.156,2.441,-46.875,-22.461,2.930,0.000
1709291766.160,5.859,-45.898,-19.531,1.953,0.000
1709291766.164,-8.301,-41.016,-19.043,-2.441,0.000
1709291766.168,-7.812,-46.387,-18.066,-3.418,0.000
1709291766.172,4.395,-49.316,-13.672,3.906,0.000
1709291766.176,12.207,-45.898,-15.137,11.230,0.000
1709291766.180,6.348,-45.410,-16.113,2.930,0.000
1709291766.184,-5.859,-51.758,-18.555,-11.230,0.000
1709291766.188,-9.766,-55.664,-24.902,-2.930,0.000
1709291766.191,-2.930,-45.410,-26.367,4.883,0.000
1709291766.195,9.277,-41.992,-23.926,-4.883,0.000
1709291766.200,4.395,-44.434,-23.926,-9.277,0.000
1709291766.204,-0.977,-35.645,-18.066,-1.953,0.000
1709291766.207,-1.465,-29.297,-17.090,-3.906,0.000
1709291766.211,-5.859,-38.086,-23.926,-8.789,0.000
1709291766.215,5.371,-38.574,-19.531,2.930,0.000
1709291766.219,10.254,-38.086,-16.602,1.953,0.000
1709291766.223,-1.465,-41.016,-21.973,-7.812,0.000
1709291766.227,-1.465,-40.039,-11.719,-2.441,0.000
1709291766.231,4.395,-42.480,-9.766,6.348,0.000
1709291766.235,10.254,-41.504,-12.207,9.277,0.000
1709291766.239,14.160,-32.715,-6.836,5.859,0.000
1709291766.243,3.418,-29.785,-7.324,-1.465,0.000
1709291766.247,0.000,-35.645,-9.277,-2.930,0.000
1709291766.251,0.000,-39.062,-8.301,2.930,0.000
1709291766.255,0.000,-37.109,-11.230,-10.254,0.000
1709291766.259,0.000,-39.551,-9.277,-14.648,0.000
1709291766.263,0.000,-43.457,-8.789,-5.859,0.000
1709291766.266,0.000,-39.551,-13.184,-2.441,0.000
1709291766.270,0.000,-37.598,-11.230,-0.977,0.000
1709291766.274,0.000,-30.273,-5.859,2.441,0.000
1709291766.278,0.000,-34.668,-3.906,3.418,0.000
1709291766.282,0.000,-38.086,-5.859,-8.789,0.000
1709291766.286,0.000,-29.785,-7.324,-11.719,0.000
1709291766.290,0.000,-28.320,-6.348,-2.441,0.000
1709291766.291,-1.953,-30.762,0.000,-1.465,0.000
1709291766.294,0.488,-29.297,1.953,5.371,0.000
1709291766.298,-1.953,-34.180,2.930,4.395,0.000
1709291766.302,2.441,-40.527,1.953,-5.371,0.000
1709291766.306,-0.488,-43.945,-6.348,-6.348,0.000
1709291766.310,-16.602,-46.875,-11.230,-8.789,0.000
1709291766.314,-8.789,-41.992,-8.789,-8.789,0.000
1709291766.318,4.395,-42.969,-11.719,-9.766,0.000
1709291766.322,-6.348,-46.387,-13.184,-3.906,0.000
1709291766.326,-13.184,-36.621,-8.301,-2.930,0.000
1709291766.330,-16.113,-38.574,-7.324,-7.812,0.000
1709291766.333,-18.555,-41.504,-12.207,-4.883,0.000
1709291766.337,-7.812,-42.480,-11.719,-9.277,0.000
1709291766.341,-17.090,-44.922,-6.348,-11.230,0.000
1709291766.345,-20.508,-44.434,-8.301,-6.836,0.000
1709291766.349,-9.766,-41.016,-8.301,-8.301,0.000
1709291766.353,-2.441,-39.062,-10.254,-9.766,0.000
1709291766.357,-14.160,-46.387,-17.090,-19.531,0.000
1709291766.361,-16.113,-54.688,-16.113,-18.555,0.000
1709291766.365,-8.301,-58.105,-14.160,-1.465,0.000
1709291766.369,-4.883,-49.316,-13.184,-0.488,0.000
1709291766.373,0.977,-45.898,-11.230,-9.766,0.000
1709291766.377,-2.930,-50.293,-8.301,-12.207,0.000
1709291766.380,-12.695,-48.340,-5.371,-9.766,0.000
1709291766.384,-15.137,-46.875,-3.418,-0.977,0.000
1709291766.388,-3.418,-50.781,-4.395,-0.488,0.000
1709291766.392,6.348,-49.316,-3.418,-4.395,0.000
1709291766.396,6.348,-46.387,-4.395,-4.395,0.000
1709291766.400,-10.742,-47.852,-9.766,-10.742,0.000
1709291766.404,-23.926,-49.316,-12.695,-18.555,0.000
1709291766.408,-12.207,-48.340,-12.695,-5.859,0.000
1709291766.412,-0.977,-53.223,-9.277,8.301,0.000
1709291766.416,-2.930,-51.270,-9.766,-1.953,0.000
1709291766.419,-6.836,-49.316,-12.207,-8.789,0.000
1709291766.423,-8.789,-55.664,-13.184,-7.324,0.000
1709291766.427,-6.836,-51.270,-13.184,-4.883,0.000
1709291766.431,3.418,-44.922,-12.207,3.906,0.000
1709291766.435,5.371,-47.852,-12.207,0.977,0.000
1709291766.439,-6.836,-48.828,-12.207,-9.277,0.000
1709291766.443,-12.695,-45.410,-16.113,-6.836,0.000
1709291766.447,-8.301,-46.387,-15.137,-1.465,0.000
1709291766.451,2.441,-44.922,-10.254,-0.977,0.000
1709291766.454,9.766,-44.434,-12.695,5.371,0.000
1709291766.458,3.418,-41.992,-13.184,10.254,0.000
1709291766.462,-8.301,-42.969,-11.230,0.488,0.000
1709291766.466,-10.742,-46.387,-11.230,-0.977,0.000
1709291766.470,-4.883,-41.016,-9.277,1.953,0.000
1709291766.474,-2.441,-42.480,-10.742,-5.859,0.000
1709291766.478,-3.418,-41.016,-10.254,-5.371,0.000
1709291766.481,-5.859,-37.598,-7.324,-3.418,0.000
1709291766.485,-13.672,-40.527,-11.230,-6.348,0.000
1709291766.489,3.418,-41.992,-13.184,-0.977,0.000
1709291766.493,20.020,-37.598,-8.789,-1.953,0.000
1709291766.497,-1.953,-45.898,-8.301,-12.207,0.000
1709291766.501,-18.066,-58.105,-8.789,-3.418,0.000
1709291766.505,-9.277,-48.340,-11.719,1.953,0.000
1709291766.509,-2.441,-46.387,-10.254,-1.953,0.000
1709291766.513,9.766,-50.781,-10.742,1.465,0.000
1709291766.517,20.508,-53.223,-18.066,0.000,0.000
1709291766.521,-10.742,-53.223,-16.113,-7.324,0.000
1709291766.525,-45.410,-49.805,-15.625,-6.348,0.000
1709291766.529,8.301,-53.711,-16.113,3.418,0.000
1709291766.533,77.148,-56.152,-15.625,3.906,0.000
1709291766.537,56.152,-50.781,-15.625,-2.441,0.000
1709291766.541,-29.785,-53.223,-20.020,-10.254,0.000
1709291766.545,-80.078,-61.035,-22.949,-5.371,0.000
1709291766.549,-37.598,-53.711,-21.973,2.441,0.000
1709291766.553,48.340,-47.852,-21.484,-2.930,0.000
1709291766.556,51.270,-57.129,-18.066,-12.695,0.000
1709291766.560,-35.645,-62.500,-14.648,-7.812,0.000
1709291766.564,-98.633,-62.500,-15.137,-7.324,0.000
1709291766.568,-51.270,-61.035,-15.137,-8.301,0.000
1709291766.573,42.969,-56.152,-11.230,-4.395,0.000
1709291766.577,57.129,-54.199,-13.184,-3.418,0.000
1709291766.580,-22.461,-52.734,-22.949,-8.301,0.000
1709291766.584,-84.473,-50.781,-24.902,-12.207,0.000
1709291766.588,-41.504,-49.316,-18.555,-9.766,0.000
1709291766.592,42.480,-45.410,-16.602,-0.977,0.000
1709291766.596,61.523,-44.434,-16.602,6.348,0.000
1709291766.600,-5.859,-48.340,-20.996,-2.441,0.000
1709291766.604,-79.590,-53.223,-20.020,-8.301,0.000
1709291766.608,-57.617,-52.734,-13.672,8.301,0.000
1709291766.612,34.180,-47.363,-15.625,14.160,0.000
1709291766.616,70.801,-45.410,-17.578,5.371,0.000
1709291766.620,9.766,-48.340,-16.113,-2.930,0.000
1709291766.624,-67.871,-47.363,-13.184,-17.578,0.000
1709291766.628,-63.965,-45.410,-8.789,-16.113,0.000
1709291766.632,22.461,-46.875,-10.254,-6.836,0.000
1709291766.635,69.824,-48.340,-14.648,-4.883,0.000
1709291766.639,14.648,-47.363,-13.184,-5.371,0.000
1709291766.643,-68.848,-46.875,-15.625,-6.836,0.000
1709291766.647,-71.289,-44.922,-16.602,-7.324,0.000
1709291766.651,6.348,-42.480,-15.137,-1.953,0.000
1709291766.655,62.988,-43.945,-17.090,3.418,0.000
1709291766.659,19.043,-44.922,-19.043,-2.930,0.000
1709291766.663,-66.895,-48.828,-17.090,-8.301,0.000
1709291766.667,-86.914,-51.758,-19.531,-12.207,0.000
1709291766.671,-14.648,-46.875,-25.879,-14.160,0.000
1709291766.675,57.617,-47.363,-28.809,-10.254,0.000
1709291766.679,46.387,-52.246,-29.297,-8.301,0.000
1709291766.683,3.418,-54.199,-27.344,-11.230,0.000
1709291766.686,-9.766,-51.758,-27.832,-6.348,0.000
1709291766.690,-1.465,-52.246,-25.879,-7.812,0.000
1709291766.694,12.207,-53.223,-27.344,-10.254,0.000
1709291766.698,9.277,-55.664,-24.902,-1.953,0.000
1709291766.702,-11.719,-45.898,-20.996,-14.648,0.000
1709291766.706,-17.578,-42.969,-22.949,-20.508,0.000
1709291766.710,-1.465,-45.410,-25.879,-15.137,0.000
1709291766.714,0.000,-40.039,-25.391,-13.672,0.000
1709291766.718,0.000,-45.898,-20.996,-18.555,0.000
1709291766.722,0.000,-52.734,-19.043,-13.672,0.000
1709291766.726,0.000,-53.711,-13.672,-6.836,0.000
1709291766.729,0.000,-50.293,-13.184,-4.395,0.000
1709291766.733,0.000,-52.246,-18.555,-9.766,0.000
1709291766.737,0.000,-55.664,-19.531,-17.578,0.000
1709291766.741,0.000,-47.852,-18.066,-9.277,0.000
1709291766.745,0.000,-44.922,-21.973,-3.906,0.000
1709291766.749,0.000,-42.480,-26.367,-9.277,0.000
1709291766.753,0.000,-46.387,-22.949,-6.836,0.000
1709291766.757,0.000,-50.293,-23.438,-7.324,0.000
1709291766.761,-16.602,-50.293,-24.902,-10.742,0.000
1709291766.764,-26.855,-56.641,-17.578,-13.184,0.000
1709291766.768,-29.785,-57.617,-15.625,-16.602,0.000
1709291766.772,-14.160,-53.711,-18.555,-14.648,0.000
1709291766.776,-1.953,-52.734,-22.949,-13.672,0.000
1709291766.780,-7.324,-52.734,-20.020,-18.555,0.000
1709291766.784,-21.484,-52.246,-12.695,-6.348,0.000
1709291766.788,-20.996,-55.664,-11.230,11.230,0.000
1709291766.792,0.000,-44.922,-12.207,3.418,0.000
1709291766.796,5.859,-41.992,-15.625,-7.324,0.000
1709291766.800,-7.324,-56.152,-19.043,-6.348,0.000
1709291766.804,-10.742,-54.688,-22.461,-6.836,0.000
1709291766.807,-4.883,-48.828,-22.461,-4.883,0.000
1709291766.811,-3.906,-49.805,-18.555,-4.395,0.000
1709291766.815,-1.953,-50.293,-17.090,-3.418,0.000
1709291766.819,-1.953,-45.410,-17.578,-3.906,0.000
1709291766.823,-10.742,-44.922,-17.090,-4.883,0.000
1709291766.827,-7.812,-41.992,-14.648,0.488,0.000
1709291766.831,-0.977,-42.480,-13.672,10.254,0.000
1709291766.834,2.441,-40.527,-15.625,12.695,0.000
1709291766.838,-0.488,-37.109,-16.602,-1.465,0.000
1709291766.842,-3.418,-42.969,-17.090,-11.719,0.000
1709291766.846,-6.836,-45.410,-19.531,-6.836,0.000
1709291766.850,0.488,-40.527,-20.020,0.000,0.000
1709291766.854,11.230,-38.086,-22.461,-7.324,0.000
1709291766.857,13.184,-42.969,-17.578,-5.859,0.000
1709291766.861,0.488,-50.781,-17.578,-6.348,0.000
1709291766.865,-5.371,-51.758,-25.879,-10.254,0.000
1709291766.869,10.254,-50.781,-23.926,0.000,0.000
1709291766.873,10.742,-55.664,-22.461,7.812,0.000
1709291766.877,3.906,-58.594,-26.367,4.395,0.000
1709291766.881,-9.277,-52.246,-26.367,-5.859,0.000
1709291766.885,-17.090,-45.410,-24.902,-6.348,0.000
1709291766.889,-2.930,-40.039,-27.344,-7.324,0.000
1709291766.893,-2.930,-40.527,-27.344,-11.719,0.000
1709291766.897,-11.230,-44.922,-28.320,-8.789,0.000
1709291766.901,-17.090,-42.480,-29.785,-15.137,0.000
1709291766.905,-20.508,-42.480,-24.902,-20.020,0.000
1709291766.909,-15.625,-40.527,-23.926,-10.742,0.000
1709291766.913,-7.324,-40.039,-24.414,-7.812,0.000
1709291766.917,-8.301,-50.293,-21.973,-12.695,0.000
1709291766.921,-20.020,-57.617,-24.414,-21.973,0.000
1709291766.925,-34.180,-53.223,-29.785,-19.043,0.000
1709291766.929,-28.320,-48.828,-28.320,-9.277,0.000
1709291766.932,-13.672,-44.434,-25.879,-14.648,0.000
1709291766.936,-10.254,-49.316,-22.949,-10.254,0.000
1709291766.940,-16.602,-49.316,-21.973,-11.230,0.000
1709291766.944,-22.949,-48.828,-23.926,-20.996,0.000
1709291766.949,-15.625,-54.688,-20.020,-17.090,0.000
1709291766.953,-2.441,-49.805,-22.461,-13.672,0.000
1709291766.956,0.488,-46.875,-25.879,-13.184,0.000
1709291766.960,-8.789,-51.758,-22.461,-16.113,0.000
1709291766.964,-20.020,-49.316,-23.438,-16.113,0.000
1709291766.968,-24.902,-45.898,-25.391,-7.812,0.000
1709291766.972,-19.531,-45.898,-16.113,-2.441,0.000
1709291766.976,-6.836,-44.434,-15.625,-6.348,0.000
1709291766.980,-9.766,-49.805,-20.996,-13.672,0.000
1709291766.984,-24.902,-50.293,-20.508,-8.789,0.000
1709291766.988,-20.020,-39.551,-25.391,-6.348,0.000
1709291766.992,-4.883,-39.062,-28.320,-7.812,0.000
1709291766.996,-0.488,-47.852,-30.273,-16.113,0.000
1709291767.000,1.465,-44.434,-22.949,-15.137,0.000
1709291767.004,-14.160,-39.062,-18.555,-11.230,0.000
1709291767.007,-17.090,-42.480,-20.996,-19.043,0.000
1709291767.011,-1.953,-50.781,-12.207,-4.395,0.000
1709291767.015,-3.906,-51.270,-9.766,3.418,0.000
1709291767.019,-14.648,-46.875,-15.137,-9.277,0.000
1709291767.023,-19.043,-46.387,-11.230,-6.836,0.000
1709291767.027,-16.113,-49.316,-8.301,16.602,0.000
1709291767.031,-11.719,-46.875,-12.695,8.789,0.000
1709291767.035,-3.418,-48.828,-14.160,-2.930,0.000
1709291767.039,-8.789,-50.781,-8.789,7.812,0.000
1709291767.043,-16.113,-46.387,-9.766,11.719,0.000
1709291767.047,-13.184,-42.969,-14.160,3.906,0.000
1709291767.051,-0.977,-42.480,-8.301,1.465,0.000
1709291767.054,10.254,-41.504,-1.953,11.719,0.000
1709291767.058,3.418,-42.480,-2.930,8.301,0.000
1709291767.062,-14.160,-49.805,-6.348,-4.395,0.000
1709291767.066,-21.973,-50.293,-10.742,-1.465,0.000
1709291767.070,-14.648,-54.688,-12.695,2.441,0.000
1709291767.074,1.465,-54.688,-13.184,10.742,0.000
1709291767.078,0.000,-41.016,-12.695,3.906,0.000
1709291767.082,-15.625,-34.180,-10.254,-4.883,0.000
1709291767.086,-20.508,-40.527,-12.695,-3.418,0.000
1709291767.090,-9.766,-39.062,-16.113,-4.395,0.000
1709291767.093,6.348,-38.086,-18.555,-8.301,0.000
1709291767.097,4.395,-38.574,-17.578,-11.719,0.000
1709291767.101,-9.277,-35.156,-15.137,-13.184,0.000
1709291767.105,-22.949,-41.504,-14.648,-16.113,0.000
1709291767.109,-23.438,-44.434,-20.020,-11.719,0.000
1709291767.113,-4.883,-40.039,-15.625,-0.977,0.000
1709291767.117,6.836,-41.504,-10.742,0.977,0.000
1709291767.121,-2.930,-40.527,-13.184,-6.348,0.000
1709291767.125,-13.672,-35.645,-9.766,-10.742,0.000
1709291767.129,-10.742,-36.133,-10.742,-1.953,0.000
1709291767.133,0.977,-39.062,-8.789,-2.441,0.000
1709291767.136,7.324,-32.227,-6.836,-9.277,0.000
1709291767.140,1.465,-31.738,-8.789,-13.672,0.000
1709291767.144,-4.395,-37.598,-10.254,-10.254,0.000
1709291767.148,-0.977,-37.598,-9.277,-3.418,0.000
1709291767.152,4.883,-39.551,-11.230,0.488,0.000
1709291767.156,6.836,-41.992,-15.625,1.953,0.000
1709291767.160,2.930,-44.434,-14.160,-7.324,0.000
1709291767.164,-11.719,-47.852,-11.719,-5.859,0.000
1709291767.168,-21.973,-41.992,-22.461,-12.695,0.000
1709291767.171,-14.160,-41.504,-25.879,-19.531,0.000
1709291767.175,-0.977,-40.039,-17.578,-11.230,0.000
1709291767.179,-6.348,-37.598,-19.043,-14.160,0.000
1709291767.183,-14.160,-39.062,-19.043,-14.160,0.000
1709291767.187,-12.695,-41.016,-12.207,-6.348,0.000
1709291767.191,-7.812,-43.457,-5.371,-0.977,0.000
1709291767.195,3.418,-47.363,-5.859,-1.953,0.000
1709291767.198,0.488,-51.270,-11.719,-7.812,0.000
1709291767.202,-13.184,-50.293,-11.719,-12.695,0.000
1709291767.206,-12.695,-50.781,-13.184,-9.766,0.000
1709291767.210,-4.883,-46.875,-14.648,-6.348,0.000
1709291767.214,-0.977,-47.852,-12.207,-8.789,0.000
1709291767.218,3.906,-57.129,-13.672,-8.301,0.000
1709291767.222,3.418,-55.176,-17.090,-6.348,0.000
1709291767.226,-8.789,-54.199,-18.066,-10.742,0.000
1709291767.229,-10.742,-58.105,-17.578,-20.508,0.000
1709291767.233,-5.371,-58.105,-20.020,-16.113,0.000
1709291767.237,-9.277,-53.223,-23.438,-10.742,0.000
1709291767.241,-13.672,-48.828,-24.902,-22.461,0.000
1709291767.245,-17.578,-50.293,-26.855,-32.227,0.000
1709291767.249,-15.137,-50.293,-23.926,-16.602,0.000
1709291767.253,-9.766,-50.293,-15.625,-1.953,0.000
1709291767.257,-12.207,-47.852,-14.160,-13.184,0.000
1709291767.260,-17.090,-44.922,-16.113,-15.137,0.000
1709291767.264,-21.484,-47.852,-17.578,-17.578,0.000
1709291767.268,-30.762,-58.594,-24.414,-23.438,0.000
1709291767.272,-14.160,-58.594,-23.926,-17.090,0.000
1709291767.275,8.301,-53.223,-23.438,-13.184,0.000
1709291767.279,-41.504,-55.176,-25.879,-12.207,0.000
1709291767.283,-110.352,-58.105,-23.926,-19.531,0.000
1709291767.287,-84.473,-56.641,-20.020,-15.625,0.000
1709291767.291,12.695,-50.293,-17.578,-2.930,0.000
1709291767.295,41.992,-52.246,-18.066,-4.395,0.000
1709291767.299,-16.113,-47.363,-18.066,-9.277,0.000
1709291767.303,-79.102,-40.039,-17.578,-10.254,0.000
1709291767.307,-68.848,-41.992,-17.578,-11.230,0.000
1709291767.311,13.184,-40.527,-15.625,-3.418,0.000
1709291767.315,63.965,-31.738,-20.020,-2.441,0.000
1709291767.318,16.113,-32.715,-21.973,-11.230,0.000
1709291767.323,-69.824,-36.133,-20.508,-14.160,0.000
1709291767.327,-79.590,-38.086,-21.484,-10.254,0.000
1709291767.331,-3.418,-36.621,-21.484,-8.789,0.000
1709291767.335,58.594,-36.133,-19.043,-8.301,0.000
1709291767.339,21.973,-38.574,-20.020,-6.836,0.000
1709291767.343,-62.500,-40.527,-24.414,-10.742,0.000
1709291767.347,-78.613,-40.039,-22.949,-13.672,0.000
1709291767.351,-22.461,-38.574,-22.461,-4.395,0.000
1709291767.354,-12.695,-42.969,-20.996,-3.418,0.000
1709291767.358,-46.875,-50.781,-23.926,-10.742,0.000
1709291767.362,-48.828,-48.828,-26.367,-18.066,0.000
1709291767.366,-35.645,-44.922,-28.320,-17.578,0.000
1709291767.370,-17.090,-45.898,-29.297,-11.230,0.000
1709291767.374,-4.395,-38.086,-20.020,-8.789,0.000
1709291767.378,-12.695,-34.180,-20.508,-11.719,0.000
1709291767.382,-21.973,-43.945,-29.785,-10.254,0.000
1709291767.386,-21.973,-50.781,-38.574,-6.348,0.000
1709291767.390,-11.719,-50.781,-48.340,-5.859,0.000
1709291767.394,-1.953,-49.805,-53.711,-5.371,0.000
1709291767.398,-2.441,-44.922,-54.199,-3.906,0.000
1709291767.402,-15.625,-44.434,-52.734,0.488,0.000
1709291767.406,-25.391,-42.480,-54.688,0.488,0.000
1709291767.409,-12.695,-42.969,-52.246,-3.906,0.000
1709291767.413,3.418,-42.969,-40.527,2.930,0.000
1709291767.417,2.441,-39.062,-35.156,0.000,0.000
1709291767.421,-7.324,-42.480,-39.062,-9.277,0.000
1709291767.425,-15.137,-47.852,-41.016,-11.719,0.000
1709291767.429,-7.324,-50.781,-37.598,-4.395,0.000
1709291767.433,0.488,-51.758,-34.180,-2.930,0.000
1709291767.437,-6.348,-47.363,-33.203,-4.395,0.000
1709291767.441,-15.137,-41.504,-29.785,-6.836,0.000
1709291767.445,-13.672,-37.598,-27.832,-4.883,0.000
1709291767.449,2.441,-37.598,-25.879,11.230,0.000
1709291767.453,17.578,-30.273,-25.391,10.254,0.000
1709291767.456,19.531,-32.227,-25.391,2.441,0.000
1709291767.460,6.836,-33.203,-21.484,0.488,0.000
1709291767.464,0.000,-26.855,-20.996,-1.465,0.000
1709291767.468,0.000,-27.344,-28.809,-4.883,0.000
1709291767.472,0.000,-38.086,-26.367,-2.930,0.000
1709291767.476,0.000,-43.945,-24.414,-6.348,0.000
1709291767.480,0.000,-44.434,-29.297,-14.648,0.000
1709291767.484,0.000,-40.039,-30.273,-11.719,0.000
1709291767.488,0.000,-31.738,-26.855,-10.742,0.000
1709291767.492,0.000,-31.250,-24.902,5.371,0.000
1709291767.496,0.000,-28.320,-24.902,9.277,0.000
1709291767.499,0.000,-27.832,-21.484,-9.277,0.000
1709291767.503,0.000,-26.855,-17.578,-10.254,0.000
1709291767.507,0.000,-23.926,-9.766,-0.977,0.000
1709291767.511,3.418,-29.297,-12.695,-4.395,0.000
1709291767.515,8.301,-35.156,-19.531,-5.371,0.000
1709291767.519,12.207,-32.227,-16.602,-3.418,0.000
1709291767.523,-5.859,-30.762,-15.625,-8.789,0.000
1709291767.527,-5.859,-30.762,-17.090,-9.277,0.000
1709291767.531,1.953,-35.156,-18.555,-7.812,0.000
1709291767.534,11.719,-38.574,-15.137,-1.953,0.000
1709291767.538,13.672,-41.992,-11.230,5.371,0.000
1709291767.542,-2.441,-43.457,-18.066,-1.465,0.000
1709291767.546,-10.742,-46.387,-16.602,-10.742,0.000
1709291767.550,-6.836,-47.852,-10.254,-13.184,0.000
1709291767.554,-2.441,-43.457,-15.625,-14.648,0.000
1709291767.558,-3.906,-44.922,-22.461,-16.602,0.000
1709291767.562,-14.160,-46.875,-24.414,-17.090,0.000
1709291767.565,-23.926,-47.852,-20.996,-12.695,0.000
1709291767.569,-23.438,-46.387,-18.555,-7.324,0.000
1709291767.573,-10.742,-47.363,-19.531,-10.254,0.000
1709291767.577,-8.301,-49.316,-18.066,-13.672,0.000
1709291767.581,-24.414,-52.246,-21.484,-19.531,0.000
1709291767.585,-21.484,-46.875,-23.926,-18.066,0.000
1709291767.589,-19.531,-41.992,-24.414,-15.625,0.000
1709291767.593,-14.160,-45.898,-24.414,-20.508,0.000
1709291767.597,-6.348,-47.363,-23.926,-8.789,0.000
1709291767.601,-12.695,-37.598,-24.902,-6.348,0.000
1709291767.604,-16.602,-37.109,-24.414,-16.113,0.000
1709291767.608,-15.137,-37.598,-22.949,-5.371,0.000
1709291767.612,-4.395,-34.180,-20.996,3.906,0.000
1709291767.616,8.789,-29.785,-23.438,-0.488,0.000
1709291767.620,-4.883,-30.762,-22.461,0.977,0.000
1709291767.624,-22.461,-37.598,-18.555,-4.395,0.000
1709291767.627,-17.090,-35.645,-18.066,-8.789,0.000
1709291767.631,-1.465,-33.691,-18.066,-3.418,0.000
1709291767.635,1.953,-37.598,-18.066,-6.348,0.000
1709291767.639,-9.277,-38.574,-18.555,-10.742,0.000
1709291767.643,-18.066,-39.551,-22.949,-7.812,0.000
1709291767.647,-21.973,-36.621,-25.879,-15.625,0.000
1709291767.652,-8.301,-34.668,-27.344,-14.160,0.000
1709291767.656,1.953,-38.574,-22.949,-4.395,0.000
1709291767.659,-5.859,-44.922,-21.484,-10.254,0.000
1709291767.663,-16.602,-44.434,-26.855,-13.184,0.000
1709291767.667,-13.672,-38.574,-29.785,-10.742,0.000
1709291767.671,-0.977,-41.504,-23.926,-7.812,0.000
1709291767.675,-3.906,-45.410,-24.902,-3.906,0.000
1709291767.679,-10.254,-40.039,-29.297,-9.277,0.000
1709291767.683,-9.766,-36.133,-27.344,-10.742,0.000
1709291767.687,-11.230,-41.992,-22.461,-5.371,0.000
1709291767.691,-4.883,-42.480,-19.531,-7.812,0.000
1709291767.695,9.277,-38.574,-22.949,-9.277,0.000
1709291767.699,-0.488,-42.480,-22.949,-13.672,0.000
1709291767.703,-17.090,-43.457,-16.602,-11.230,0.000
1709291767.707,-10.742,-39.551,-13.184,-3.418,0.000
1709291767.711,0.977,-33.691,-14.648,-3.906,0.000
1709291767.715,0.000,-37.598,-11.230,-7.324,0.000
1709291767.718,-7.324,-44.434,-12.695,-9.766,0.000
1709291767.722,-11.230,-43.945,-18.066,-7.812,0.000
1709291767.726,-16.602,-47.852,-19.043,-14.160,0.000
1709291767.730,-12.207,-50.293,-15.137,-5.371,0.000
1709291767.734,-4.883,-48.340,-12.695,9.277,0.000
1709291767.738,-4.395,-43.945,-15.137,-1.465,0.000
1709291767.742,-14.160,-41.992,-17.090,-13.184,0.000
1709291767.746,-23.926,-47.363,-20.020,-12.695,0.000
1709291767.750,-20.020,-53.711,-26.855,-8.789,0.000
1709291767.754,-14.160,-54.688,-30.273,-9.766,0.000
1709291767.758,-5.371,-56.641,-19.043,-8.301,0.000
1709291767.762,-7.324,-53.223,-14.160,-5.371,0.000
1709291767.766,-16.602,-51.758,-17.090,-1.465,0.000
1709291767.770,-5.371,-50.781,-16.113,4.395,0.000
1709291767.773,5.859,-49.316,-18.555,1.465,0.000
1709291767.777,4.883,-57.129,-20.508,-2.441,0.000
1709291767.781,-3.906,-55.176,-23.438,-7.324,0.000
1709291767.785,-11.230,-51.270,-25.879,-16.602,0.000
1709291767.789,-10.742,-54.199,-22.949,-7.812,0.000
1709291767.793,-1.953,-56.152,-21.973,-8.301,0.000
1709291767.797,-5.371,-62.012,-23.926,-16.602,0.000
1709291767.801,-13.184,-60.059,-22.949,-18.555,0.000
1709291767.805,-15.137,-57.129,-20.996,-18.066,0.000
1709291767.809,-15.137,-54.688,-21.484,-11.230,0.000
1709291767.813,-6.836,-50.293,-23.438,-11.230,0.000
1709291767.816,-0.977,-41.016,-23.926,-21.973,0.000
1709291767.820,-10.742,-46.387,-24.902,-25.879,0.000
1709291767.824,-24.414,-55.664,-30.762,-13.672,0.000
1709291767.828,-30.273,-51.270,-34.180,-22.949,0.000
1709291767.832,-15.625,-48.340,-31.738,-25.391,0.000
1709291767.836,-12.207,-54.199,-29.297,-21.484,0.000
1709291767.840,-20.996,-55.664,-29.297,-31.250,0.000
1709291767.844,-31.250,-47.852,-30.273,-32.715,0.000
1709291767.848,-32.227,-48.340,-30.273,-26.855,0.000
1709291767.852,-18.555,-54.199,-31.738,-15.625,0.000
1709291767.855,-10.742,-54.199,-39.062,-21.484,0.000
1709291767.859,-9.277,-49.316,-41.992,-28.320,0.000
1709291767.863,-22.461,-50.781,-45.410,-30.273,0.000
1709291767.867,-31.738,-56.641,-48.828,-20.508,0.000
1709291767.871,-23.438,-55.176,-48.340,-13.184,0.000
1709291767.875,-18.066,-47.852,-43.457,-25.879,0.000
1709291767.879,-20.020,-46.875,-36.133,-30.762,0.000
1709291767.883,-23.438,-47.363,-29.297,-22.461,0.000
1709291767.886,-29.297,-40.039,-28.320,-15.625,0.000
1709291767.890,-20.996,-36.133,-26.855,-11.230,0.000
1709291767.894,-10.254,-39.551,-25.391,-11.230,0.000
1709291767.898,-19.531,-34.180,-26.855,-15.625,0.000
1709291767.902,-29.785,-31.738,-27.344,-11.230,0.000
1709291767.906,-31.738,-45.898,-24.902,-10.254,0.000
1709291767.910,-18.066,-45.410,-21.484,-13.184,0.000
1709291767.914,-8.301,-39.551,-19.531,-5.371,0.000
1709291767.918,-11.230,-37.109,-21.973,-15.137,0.000
1709291767.922,-15.625,-37.598,-17.090,-25.879,0.000
1709291767.926,-18.555,-42.480,-15.625,-26.367,0.000
1709291767.929,-20.996,-45.410,-18.066,-23.926,0.000
1709291767.933,-16.602,-45.410,-17.090,-20.020,0.000
1709291767.937,-1.953,-43.945,-16.113,-16.113,0.000
1709291767.941,0.488,-48.340,-12.695,-12.695,0.000
1709291767.945,-11.230,-44.434,-14.648,-8.301,0.000
1709291767.949,-3.418,-38.574,-19.043,-2.930,0.000
1709291767.953,14.160,-37.109,-16.113,1.953,0.000
1709291767.956,14.160,-38.086,-12.695,3.418,0.000
1709291767.960,3.418,-31.738,-16.602,-2.930,0.000
1709291767.964,-6.836,-31.738,-20.508,-9.277,0.000
1709291767.968,-6.836,-36.621,-13.184,-0.977,0.000
1709291767.972,-1.953,-35.156,-13.184,-3.906,0.000
1709291767.976,-5.371,-33.203,-21.484,-10.254,0.000
1709291767.979,-7.812,-35.645,-20.996,-8.301,0.000
1709291767.983,-8.789,-38.086,-17.090,-8.301,0.000
1709291767.987,-17.578,-42.969,-18.066,-6.836,0.000
1709291767.991,-8.789,-44.922,-23.926,-3.906,0.000
1709291767.995,9.766,-42.480,-23.438,-5.371,0.000
1709291767.999,8.789,-40.039,-21.973,-6.836,0.000
1709291768.003,-0.488,-37.598,-17.090,3.906,0.000
1709291768.007,-3.906,-28.320,-16.113,2.930,0.000
1709291768.011,0.000,-30.273,-17.090,-3.418,0.000
1709291768.015,2.441,-34.180,-19.531,-12.207,0.000
1709291768.018,-11.719,-31.250,-16.113,-17.578,0.000
1709291768.022,-30.273,-26.367,-9.277,-17.578,0.000
1709291768.026,-24.414,-27.344,-8.789,-16.113,0.000
1709291768.030,-13.184,-38.574,-14.648,-18.555,0.000
1709291768.033,-11.230,-34.668,-24.902,-18.555,0.000
1709291768.037,-3.906,-26.367,-26.855,-14.160,0.000
1709291768.041,-5.859,-28.809,-16.113,-8.789,0.000
1709291768.045,-15.137,-35.645,-11.719,-1.953,0.000
1709291768.049,-12.695,-34.180,-17.090,0.977,0.000
1709291768.053,6.348,-30.762,-20.508,-6.348,0.000
1709291768.057,6.348,-34.668,-16.113,-3.906,0.000
1709291768.061,-9.277,-41.992,-14.648,7.324,0.000
1709291768.065,-14.648,-35.156,-18.066,9.277,0.000
1709291768.069,-12.695,-29.297,-19.043,0.488,0.000
1709291768.073,-6.836,-38.574,-22.949,-11.230,0.000
1709291768.077,-6.836,-42.969,-27.344,-14.160,0.000
1709291768.081,-13.672,-39.551,-21.484,-5.371,0.000
1709291768.085,-15.625,-38.574,-24.414,-8.301,0.000
1709291768.089,-13.184,-41.016,-34.668,-12.207,0.000
1709291768.093,-3.418,-42.969,-31.250,-8.301,0.000
1709291768.097,-1.465,-37.598,-26.367,-21.484,0.000
1709291768.100,-16.113,-34.180,-24.902,-31.250,0.000
1709291768.104,-20.508,-32.715,-21.484,-18.066,0.000
1709291768.108,-6.348,-28.809,-16.602,-5.859,0.000
1709291768.112,-5.371,-30.762,-26.855,-17.578,0.000
1709291768.116,-8.301,-36.133,-29.297,-29.785,0.000
1709291768.120,-15.625,-41.992,-23.438,-22.949,0.000
1709291768.124,-29.785,-38.574,-26.367,-8.301,0.000
1709291768.128,-23.438,-37.109,-27.344,-1.953,0.000
1709291768.132,-10.254,-45.898,-22.461,-4.395,0.000
1709291768.136,-9.277,-47.852,-17.090,-5.371,0.000
1709291768.140,-13.672,-47.363,-14.648,-6.836,0.000
1709291768.144,-20.996,-51.270,-13.672,-13.184,0.000
1709291768.148,-22.949,-43.945,-15.625,-12.207,0.000
1709291768.151,-6.836,-39.062,-19.531,2.441,0.000
1709291768.155,5.371,-34.180,-19.043,5.859,0.000
1709291768.159,-2.930,-31.250,-16.113,-3.906,0.000
1709291768.163,-11.230,-37.109,-12.695,1.953,0.000
1709291768.167,-11.230,-42.969,-15.625,12.695,0.000
1709291768.171,4.883,-36.133,-19.531,2.441,0.000
1709291768.175,16.113,-32.227,-16.113,-7.324,0.000
1709291768.179,2.930,-34.180,-12.207,-9.277,0.000
1709291768.183,-7.812,-34.668,-7.812,-14.160,0.000
1709291768.187,-10.742,-40.527,-9.766,-13.184,0.000
1709291768.191,-5.859,-46.387,-19.531,-9.277,0.000
1709291768.195,-2.441,-46.875,-20.020,-8.789,0.000
1709291768.199,-0.977,-41.992,-12.207,2.930,0.000
1709291768.202,-22.461,-39.062,-18.555,-5.371,0.000
1709291768.206,-31.250,-42.969,-22.461,-10.742,0.000
1709291768.210,-5.859,-42.969,-20.508,-2.930,0.000
1709291768.214,-1.465,-39.551,-21.484,-5.371,0.000
1709291768.218,-1.953,-35.156,-18.555,-6.836,0.000
1709291768.222,-0.488,-34.180,-14.160,-6.348,0.000
1709291768.226,-3.418,-41.016,-18.555,-4.395,0.000
1709291768.230,-2.441,-42.480,-22.461,-2.441,0.000
1709291768.234,4.883,-41.504,-20.996,-3.906,0.000
1709291768.238,3.906,-41.504,-20.996,-11.719,0.000
1709291768.242,-9.277,-43.945,-20.996,-12.207,0.000
1709291768.245,-13.672,-42.480,-19.043,-2.930,0.000
1709291768.249,-9.277,-37.109,-20.996,-5.371,0.000
1709291768.253,-5.371,-42.969,-27.832,-8.789,0.000
1709291768.257,-2.930,-44.922,-26.367,-11.230,0.000
1709291768.261,-7.812,-37.109,-21.484,-14.648,0.000
1709291768.265,-11.230,-31.250,-23.926,-11.230,0.000
1709291768.269,-5.371,-37.109,-24.902,-6.836,0.000
1709291768.273,-0.977,-40.527,-23.926,-11.230,0.000
1709291768.276,-6.836,-38.086,-24.414,-17.090,0.000
1709291768.280,-16.602,-35.156,-18.555,-11.230,0.000
1709291768.284,-24.902,-38.086,-18.555,-6.836,0.000
1709291768.288,-16.113,-46.875,-21.973,-2.930,0.000
1709291768.292,1.465,-36.621,-19.531,-3.906,0.000
1709291768.296,0.977,-37.109,-18.555,-4.883,0.000
1709291768.300,-12.207,-50.293,-22.949,-12.695,0.000
1709291768.304,-20.996,-41.504,-24.902,-14.648,0.000
1709291768.307,-14.648,-37.109,-26.367,-16.602,0.000
1709291768.311,-10.254,-44.434,-30.273,-19.531,0.000
1709291768.315,-12.695,-48.828,-32.715,-20.996,0.000
1709291768.319,-14.160,-50.293,-28.809,-22.461,0.000
1709291768.323,-26.855,-50.781,-23.926,-13.184,0.000
1709291768.327,-29.785,-51.758,-22.461,-2.930,0.000
1709291768.331,-13.184,-53.223,-18.066,1.953,0.000
1709291768.335,-8.789,-51.758,-20.020,0.977,0.000
1709291768.339,-13.184,-46.387,-24.902,-8.301,0.000
1709291768.343,-16.602,-45.410,-24.902,-7.324,0.000
1709291768.346,-17.090,-47.852,-27.832,-1.465,0.000
1709291768.350,-12.695,-41.992,-24.902,3.906,0.000
1709291768.354,-9.277,-40.527,-18.066,0.977,0.000
1709291768.358,-7.324,-40.527,-18.066,-4.395,0.000
1709291768.362,-10.742,-43.945,-19.043,-4.883,0.000
1709291768.366,-16.602,-43.945,-13.184,-7.324,0.000
1709291768.369,-11.230,-37.598,-14.160,-6.348,0.000
1709291768.373,-5.859,-40.039,-14.160,-3.418,0.000
1709291768.377,-11.719,-48.828,-14.648,-0.488,0.000
1709291768.381,-15.137,-42.969,-17.578,-7.812,0.000
1709291768.385,-18.066,-37.598,-17.090,-10.742,0.000
1709291768.389,-15.137,-34.668,-14.648,-8.789,0.000
1709291768.393,-3.906,-37.109,-15.625,-9.277,0.000
1709291768.397,-10.254,-41.016,-18.555,-12.695,0.000
