timestamps,TP9,AF7,AF8,TP10,Right AUX
1709214816.474,-53.711,-42.969,-36.133,-37.598,0.000
1709214816.478,-51.270,-53.711,-38.574,-37.109,0.000
1709214816.482,-51.270,-56.641,-44.922,-45.898,0.000
1709214816.486,-50.293,-47.852,-35.156,-43.945,0.000
1709214816.490,-50.293,-50.781,-35.645,-41.016,0.000
1709214816.494,-46.875,-53.711,-41.992,-37.109,0.000
1709214816.497,-37.109,-45.410,-31.738,-28.809,0.000
1709214816.501,-40.527,-48.828,-37.109,-39.551,0.000
1709214816.505,-55.664,-53.223,-39.062,-43.457,0.000
1709214816.509,-54.688,-44.922,-26.855,-41.016,0.000
1709214816.513,-47.852,-43.945,-32.715,-45.898,0.000
1709214816.517,-47.852,-50.293,-35.645,-47.363,0.000
1709214816.521,-45.410,-52.246,-31.250,-48.340,0.000
1709214816.525,-52.246,-48.828,-32.227,-48.828,0.000
1709214816.529,-47.852,-55.176,-32.715,-54.688,0.000
1709214816.533,-39.551,-56.641,-32.715,-46.387,0.000
1709214816.536,-36.133,-46.875,-37.598,-36.133,0.000
1709214816.540,-26.367,-37.598,-41.992,-38.574,0.000
1709214816.544,-23.438,-34.668,-44.434,-41.992,0.000
1709214816.548,-24.902,-46.875,-34.668,-34.180,0.000
1709214816.552,-30.273,-50.293,-34.668,-20.020,0.000
1709214816.556,-28.320,-50.781,-44.434,-25.391,0.000
1709214816.560,-22.461,-52.246,-48.340,-32.715,0.000
1709214816.564,-20.020,-44.434,-41.016,-34.668,0.000
1709214816.568,-12.207,-41.992,-30.273,-33.203,0.000
1709214816.572,-18.555,-48.340,-35.645,-38.574,0.000
1709214816.575,-29.297,-44.434,-41.016,-39.062,0.000
1709214816.579,-32.227,-40.527,-41.504,-39.551,0.000
1709214816.583,-36.621,-43.457,-45.898,-49.805,0.000
1709214816.587,-42.969,-44.434,-51.270,-51.270,0.000
1709214816.591,-47.363,-47.852,-52.246,-37.598,0.000
1709214816.595,-38.574,-55.664,-46.875,-25.391,0.000
1709214816.599,-34.668,-46.387,-33.691,-29.785,0.000
1709214816.603,-43.945,-32.715,-33.203,-40.039,0.000
1709214816.607,-57.129,-45.898,-40.039,-43.945,0.000
1709214816.611,-60.547,-54.199,-35.645,-43.457,0.000
1709214816.614,-51.270,-41.992,-34.668,-43.945,0.000
1709214816.618,-44.434,-31.738,-41.016,-37.109,0.000
1709214816.622,-43.945,-32.227,-44.434,-42.480,0.000
1709214816.626,-55.664,-34.668,-41.504,-57.129,0.000
1709214816.630,-51.270,-28.809,-39.062,-49.805,0.000
1709214816.634,-37.598,-25.391,-37.598,-45.898,0.000
1709214816.638,-31.738,-35.156,-34.668,-47.363,0.000
1709214816.642,-34.668,-42.480,-41.992,-52.734,0.000
1709214816.646,-46.875,-42.480,-50.781,-69.336,0.000
1709214816.650,-49.316,-43.945,-40.039,-63.965,0.000
1709214816.653,-49.805,-53.223,-34.180,-56.152,0.000
1709214816.657,-46.387,-56.152,-50.293,-49.805,0.000
1709214816.661,-42.969,-51.758,-50.781,-46.387,0.000
1709214816.665,-40.527,-41.016,-37.598,-44.922,0.000
1709214816.669,-47.852,-43.945,-34.180,-43.945,0.000
1709214816.673,-50.293,-48.828,-38.574,-45.410,0.000
1709214816.677,-37.598,-53.223,-41.016,-39.551,0.000
1709214816.681,-30.273,-46.875,-32.715,-29.785,0.000
1709214816.685,-33.203,-36.621,-29.785,-26.855,0.000
1709214816.688,-34.668,-47.852,-41.504,-32.227,0.000
1709214816.692,-32.715,-52.734,-51.758,-35.645,0.000
1709214816.696,-26.367,-39.062,-48.828,-32.715,0.000
1709214816.700,-26.367,-26.367,-37.598,-33.203,0.000
1709214816.704,-31.738,-31.250,-41.016,-40.527,0.000
1709214816.708,-35.156,-40.527,-45.410,-42.480,0.000
1709214816.712,-29.785,-41.016,-40.039,-41.016,0.000
1709214816.716,-17.090,-35.156,-32.715,-35.156,0.000
1709214816.719,-22.461,-40.039,-33.203,-40.039,0.000
1709214816.723,-30.273,-45.410,-37.109,-50.293,0.000
1709214816.727,-36.621,-48.340,-38.574,-43.457,0.000
1709214816.731,-41.992,-50.293,-37.598,-35.645,0.000
1709214816.735,-49.316,-59.570,-37.598,-46.875,0.000
1709214816.739,-54.688,-55.176,-44.922,-53.223,0.000
1709214816.743,-50.293,-41.504,-45.410,-48.828,0.000
1709214816.747,-56.152,-46.875,-33.691,-46.387,0.000
1709214816.751,-55.176,-44.922,-34.668,-44.922,0.000
1709214816.755,-39.062,-38.086,-35.156,-36.621,0.000
1709214816.759,-34.180,-49.805,-36.133,-36.621,0.000
1709214816.763,-40.039,-63.965,-40.039,-47.852,0.000
1709214816.766,-43.457,-52.246,-39.062,-50.293,0.000
1709214816.770,-37.598,-45.410,-41.016,-47.363,0.000
1709214816.774,-28.809,-51.758,-40.039,-38.086,0.000
1709214816.778,-37.598,-41.504,-36.133,-47.363,0.000
1709214816.782,-40.039,-36.621,-38.086,-54.199,0.000
1709214816.786,-35.645,-37.598,-37.598,-46.387,0.000
1709214816.790,-35.645,-36.133,-42.480,-43.457,0.000
1709214816.794,-34.668,-43.945,-41.016,-44.434,0.000
1709214816.798,-40.039,-47.852,-33.691,-43.457,0.000
1709214816.802,-38.086,-46.387,-30.273,-39.551,0.000
1709214816.806,-36.621,-48.340,-33.691,-39.551,0.000
1709214816.809,-36.621,-52.734,-35.645,-43.945,0.000
1709214816.813,-31.250,-50.781,-37.109,-39.551,0.000
1709214816.817,-24.414,-44.922,-35.645,-26.855,0.000
1709214816.821,-25.879,-43.457,-38.574,-20.020,0.000
1709214816.825,-30.273,-41.016,-44.434,-21.973,0.000
1709214816.829,-31.250,-44.434,-43.945,-25.879,0.000
1709214816.833,-24.902,-43.945,-42.969,-15.625,0.000
1709214816.837,-27.832,-41.504,-46.875,-19.531,0.000
1709214816.841,-30.762,-43.945,-43.945,-40.039,0.000
1709214816.845,-33.203,-50.781,-37.598,-49.805,0.000
1709214816.849,-40.039,-54.688,-33.203,-41.992,0.000
1709214816.852,-48.340,-43.457,-32.227,-42.969,0.000
1709214816.856,-47.363,-27.344,-34.180,-50.781,0.000
1709214816.860,-40.039,-32.715,-30.762,-51.758,0.000
1709214816.864,-45.898,-50.293,-29.297,-55.664,0.000
1709214816.868,-54.199,-52.734,-30.273,-56.152,0.000
1709214816.872,-55.176,-41.016,-36.133,-54.688,0.000
1709214816.876,-49.316,-45.898,-33.203,-44.922,0.000
1709214816.880,-53.223,-51.270,-35.156,-45.898,0.000
1709214816.884,-56.152,-47.852,-42.969,-53.223,0.000
1709214816.888,-51.270,-47.363,-58.594,-50.781,0.000
1709214816.892,-51.270,-38.574,-46.875,-40.527,0.000
1709214816.895,-57.129,-39.551,-33.691,-39.551,0.000
1709214816.899,-60.547,-43.945,-37.598,-54.199,0.000
1709214816.903,-54.199,-42.969,-44.922,-46.875,0.000
1709214816.907,-45.410,-41.992,-41.992,-34.180,0.000
1709214816.911,-40.039,-54.688,-33.691,-32.715,0.000
1709214816.915,-31.250,-52.246,-39.062,-30.762,0.000
1709214816.919,-15.625,-37.598,-30.273,-27.832,0.000
1709214816.923,-16.113,-42.480,-27.832,-14.648,0.000
1709214816.927,-34.180,-45.898,-41.016,-20.996,0.000
1709214816.931,-39.551,-36.133,-42.969,-43.457,0.000
1709214816.934,-29.297,-26.855,-41.992,-41.992,0.000
1709214816.938,-33.691,-37.109,-45.898,-47.363,0.000
1709214816.942,-39.551,-47.852,-47.852,-45.898,0.000
1709214816.946,-43.945,-40.527,-42.969,-33.691,0.000
1709214816.950,-34.668,-38.574,-30.762,-31.250,0.000
1709214816.954,-26.855,-50.781,-28.320,-27.832,0.000
1709214816.958,-29.297,-42.969,-36.133,-27.344,0.000
1709214816.962,-28.320,-36.133,-41.016,-33.691,0.000
1709214816.966,-31.738,-48.828,-34.180,-27.344,0.000
1709214816.970,-46.387,-50.781,-40.039,-27.344,0.000
1709214816.973,-50.293,-42.480,-54.688,-36.133,0.000
1709214816.977,-41.016,-42.480,-40.527,-43.457,0.000
1709214816.981,-40.039,-45.410,-29.297,-48.828,0.000
1709214816.985,-41.992,-50.781,-38.574,-50.781,0.000
1709214816.989,-42.969,-49.316,-42.969,-51.758,0.000
1709214816.993,-32.227,-38.574,-31.250,-44.922,0.000
1709214816.997,-32.227,-45.410,-26.855,-42.969,0.000
1709214817.001,-40.039,-55.176,-30.762,-45.898,0.000
1709214817.005,-38.086,-52.246,-42.480,-43.945,0.000
1709214817.009,-35.645,-52.246,-38.086,-41.016,0.000
1709214817.012,-29.297,-48.828,-21.484,-31.250,0.000
1709214817.016,-26.855,-50.293,-31.250,-29.785,0.000
1709214817.020,-25.879,-42.969,-31.250,-40.527,0.000
1709214817.024,-31.738,-46.387,-24.414,-46.387,0.000
1709214817.028,-40.039,-44.434,-26.855,-50.781,0.000
1709214817.032,-44.434,-42.480,-26.855,-49.805,0.000
1709214817.036,0.000,-64.453,-33.691,-45.410,0.000
1709214817.040,0.000,-65.430,-43.945,-51.270,0.000
1709214817.044,0.000,-48.340,-41.992,-50.781,0.000
1709214817.047,0.000,-53.223,-39.551,-54.688,0.000
1709214817.051,0.000,-47.852,-35.645,-60.059,0.000
1709214817.055,0.000,-40.527,-29.785,-53.223,0.000
1709214817.059,0.000,-49.316,-41.504,-51.270,0.000
1709214817.063,0.000,-45.410,-47.852,-48.828,0.000
1709214817.067,0.000,-45.410,-41.992,-47.852,0.000
1709214817.071,0.000,-46.387,-35.645,-48.828,0.000
1709214817.075,0.000,-43.945,-35.645,-47.363,0.000
1709214817.079,0.000,-48.828,-40.527,-55.176,0.000
1709214817.082,-29.785,-55.176,-38.574,-49.805,0.000
1709214817.086,-30.273,-52.246,-40.527,-40.527,0.000
1709214817.090,-36.621,-48.340,-43.457,-43.945,0.000
1709214817.094,-31.250,-48.340,-38.574,-37.598,0.000
1709214817.098,-25.879,-50.293,-38.574,-38.086,0.000
1709214817.102,-29.297,-49.805,-39.551,-43.457,0.000
1709214817.106,-38.574,-40.527,-41.016,-48.340,0.000
1709214817.110,-45.898,-37.109,-46.875,-54.688,0.000
1709214817.114,-52.734,-43.945,-38.086,-57.617,0.000
1709214817.118,-52.734,-49.805,-31.250,-52.246,0.000
1709214817.122,-50.781,-57.617,-33.691,-50.781,0.000
1709214817.125,-54.688,-50.293,-28.809,-53.223,0.000
1709214817.129,-54.199,-37.109,-31.250,-49.805,0.000
1709214817.133,-62.988,-47.363,-40.527,-56.152,0.000
1709214817.137,-60.059,-54.199,-43.457,-57.617,0.000
1709214817.141,-54.199,-54.199,-47.363,-60.059,0.000
1709214817.145,-58.105,-48.828,-49.805,-52.734,0.000
1709214817.149,-49.316,-46.875,-39.062,-43.945,0.000
1709214817.153,-42.969,-50.781,-40.527,-51.270,0.000
1709214817.157,-41.016,-37.109,-45.898,-44.922,0.000
1709214817.161,-37.598,-31.250,-38.086,-31.250,0.000
1709214817.165,-47.852,-46.387,-33.691,-34.668,0.000
1709214817.169,-58.105,-53.711,-35.156,-39.062,0.000
1709214817.172,-55.664,-55.664,-39.551,-41.504,0.000
1709214817.176,-48.828,-48.828,-46.387,-45.898,0.000
1709214817.180,-43.457,-41.016,-54.199,-45.410,0.000
1709214817.184,-37.598,-44.434,-42.969,-38.574,0.000
1709214817.188,-36.621,-53.711,-32.715,-37.598,0.000
1709214817.192,-33.691,-45.410,-33.203,-29.785,0.000
1709214817.196,-31.738,-41.016,-33.203,-29.785,0.000
1709214817.200,-32.715,-53.711,-36.133,-48.828,0.000
1709214817.204,-34.180,-54.688,-40.527,-53.223,0.000
1709214817.208,-32.227,-46.875,-38.086,-37.109,0.000
1709214817.212,-34.180,-38.574,-39.551,-32.227,0.000
1709214817.215,-36.621,-47.363,-45.898,-40.039,0.000
1709214817.219,-43.945,-52.734,-40.527,-42.969,0.000
1709214817.223,-41.992,-40.039,-31.738,-47.363,0.000
1709214817.227,-38.574,-37.109,-35.156,-46.875,0.000
1709214817.231,-44.434,-42.969,-39.551,-47.363,0.000
1709214817.235,-42.969,-46.875,-32.227,-41.992,0.000
1709214817.239,-33.691,-47.852,-23.926,-35.645,0.000
1709214817.243,-27.344,-52.246,-26.367,-42.969,0.000
1709214817.247,-24.902,-54.688,-33.203,-45.410,0.000
1709214817.251,-25.391,-47.363,-43.457,-40.039,0.000
1709214817.255,-29.297,-43.457,-44.434,-41.992,0.000
1709214817.258,-31.250,-36.133,-31.250,-47.852,0.000
1709214817.262,-30.762,-35.645,-27.832,-54.199,0.000
1709214817.266,-25.391,-37.109,-28.320,-51.270,0.000
1709214817.270,-24.902,-27.832,-27.344,-51.270,0.000
1709214817.274,-31.250,-30.762,-33.691,-60.547,0.000
1709214817.278,-33.691,-39.062,-41.504,-55.664,0.000
1709214817.282,-27.832,-36.133,-28.809,-49.805,0.000
1709214817.286,-35.156,-47.852,-31.738,-52.246,0.000
1709214817.290,-46.387,-61.035,-45.410,-53.711,0.000
1709214817.294,-40.039,-52.734,-43.945,-63.477,0.000
1709214817.298,-26.367,-47.363,-39.062,-49.805,0.000
1709214817.301,-30.273,-43.457,-33.203,-37.598,0.000
1709214817.305,-41.992,-36.133,-25.391,-45.898,0.000
1709214817.309,-41.992,-42.969,-27.832,-49.316,0.000
1709214817.313,-27.344,-49.805,-27.344,-41.504,0.000
1709214817.317,-25.879,-38.086,-24.414,-36.621,0.000
1709214817.321,-36.621,-38.086,-33.203,-45.410,0.000
1709214817.325,-32.227,-42.480,-38.574,-35.645,0.000
1709214817.329,-27.344,-44.922,-37.598,-29.297,0.000
1709214817.333,-26.367,-44.434,-33.203,-33.203,0.000
1709214817.337,-29.297,-43.457,-30.762,-29.785,0.000
1709214817.340,-31.250,-46.387,-33.691,-35.156,0.000
1709214817.344,-37.109,-43.945,-33.691,-42.480,0.000
1709214817.348,-42.480,-42.969,-29.297,-42.480,0.000
1709214817.352,-40.527,-53.711,-34.180,-43.945,0.000
1709214817.356,-39.062,-67.383,-40.039,-41.504,0.000
1709214817.360,-38.574,-56.152,-34.180,-41.016,0.000
1709214817.364,-39.062,-39.551,-33.203,-44.434,0.000
1709214817.368,-36.621,-41.504,-33.203,-37.598,0.000
1709214817.372,-36.133,-44.434,-34.668,-30.273,0.000
1709214817.375,-39.062,-44.434,-37.598,-41.992,0.000
1709214817.379,-37.109,-46.387,-39.551,-49.316,0.000
1709214817.383,-33.691,-55.176,-40.527,-44.434,0.000
1709214817.387,-41.504,-56.641,-45.898,-37.598,0.000
1709214817.391,-40.039,-45.410,-47.852,-39.062,0.000
1709214817.395,-35.156,-44.922,-49.805,-51.270,0.000
1709214817.399,-29.297,-41.992,-46.875,-57.129,0.000
1709214817.403,-28.809,-36.133,-38.574,-57.617,0.000
1709214817.407,-37.109,-46.387,-32.715,-48.340,0.000
1709214817.411,-44.434,-52.734,-37.598,-45.898,0.000
1709214817.414,-41.992,-43.945,-43.945,-48.340,0.000
1709214817.418,-35.156,-35.645,-37.109,-43.457,0.000
1709214817.422,-41.992,-45.898,-41.992,-48.828,0.000
1709214817.426,-45.898,-58.105,-56.152,-50.781,0.000
1709214817.430,-37.598,-56.641,-49.316,-44.434,0.000
1709214817.434,-33.691,-46.875,-47.852,-35.156,0.000
1709214817.438,-30.273,-36.621,-50.293,-38.086,0.000
1709214817.442,-24.414,-37.109,-38.086,-46.875,0.000
1709214817.446,-24.902,-39.062,-36.133,-39.062,0.000
1709214817.450,-35.156,-40.527,-43.457,-43.457,0.000
1709214817.453,-30.762,-53.711,-42.480,-37.598,0.000
1709214817.457,-18.066,-53.223,-41.992,-25.391,0.000
1709214817.461,-20.508,-43.457,-41.504,-33.203,0.000
1709214817.465,-24.902,-44.922,-32.227,-37.598,0.000
1709214817.469,-33.691,-47.852,-34.180,-39.062,0.000
1709214817.473,-32.715,-49.805,-35.156,-42.480,0.000
1709214817.477,-21.484,-42.969,-23.438,-32.715,0.000
1709214817.481,-25.391,-52.246,-29.297,-32.715,0.000
1709214817.485,-36.133,-53.223,-39.551,-36.621,0.000
1709214817.488,-42.969,-47.363,-32.227,-41.504,0.000
1709214817.492,-44.922,-55.176,-25.391,-40.527,0.000
1709214817.496,-44.434,-59.082,-25.879,-34.668,0.000
1709214817.500,-47.852,-62.012,-30.762,-39.062,0.000
1709214817.504,-46.875,-49.316,-28.809,-39.062,0.000
1709214817.508,-45.410,-44.922,-23.926,-32.227,0.000
1709214817.512,-45.410,-50.781,-35.156,-34.180,0.000
1709214817.516,-36.621,-46.875,-38.574,-40.039,0.000
1709214817.520,-33.203,-53.711,-35.156,-41.016,0.000
1709214817.524,-39.062,-55.176,-35.156,-41.504,0.000
1709214817.528,-41.016,-46.387,-39.062,-39.062,0.000
1709214817.532,-34.180,-46.387,-39.062,-35.156,0.000
1709214817.535,-21.973,-41.504,-24.414,-37.109,0.000
1709214817.539,-10.254,-39.551,-22.461,-33.691,0.000
1709214817.543,-8.301,-38.574,-30.273,-35.645,0.000
1709214817.547,-16.113,-38.574,-30.762,-41.992,0.000
1709214817.551,-26.367,-49.316,-38.086,-40.039,0.000
1709214817.555,-19.531,-48.340,-44.922,-34.180,0.000
1709214817.559,-14.648,-44.922,-42.480,-28.809,0.000
1709214817.563,-22.949,-49.805,-44.434,-30.762,0.000
1709214817.567,-33.203,-48.828,-41.016,-33.203,0.000
1709214817.571,-39.551,-37.109,-33.203,-28.320,0.000
1709214817.575,-39.062,-35.645,-37.109,-27.344,0.000
1709214817.578,-42.480,-38.086,-54.199,-37.109,0.000
1709214817.582,-43.945,-33.203,-56.641,-41.504,0.000
1709214817.586,-50.781,-35.645,-41.992,-39.062,0.000
1709214817.590,-55.664,-35.156,-29.785,-42.480,0.000
1709214817.594,-42.480,-41.992,-32.715,-35.645,0.000
1709214817.598,-34.668,-59.082,-41.504,-35.156,0.000
1709214817.602,-38.086,-49.805,-38.574,-38.574,0.000
1709214817.606,-41.016,-35.645,-37.598,-41.016,0.000
1709214817.610,-40.039,-37.598,-40.527,-40.039,0.000
1709214817.614,-42.969,-53.711,-44.434,-39.062,0.000
1709214817.618,-48.340,-63.477,-48.340,-47.852,0.000
1709214817.622,-48.828,-52.246,-41.504,-56.641,0.000
1709214817.625,-47.852,-42.969,-41.016,-60.547,0.000
1709214817.629,-49.805,-43.457,-43.945,-57.129,0.000
1709214817.633,-49.316,-41.992,-38.574,-55.176,0.000
1709214817.637,-52.246,-44.922,-41.504,-55.664,0.000
1709214817.641,-47.852,-48.340,-41.504,-48.340,0.000
1709214817.645,-41.992,-48.828,-42.480,-47.852,0.000
1709214817.649,-41.992,-57.129,-38.086,-55.664,0.000
1709214817.653,-34.668,-52.246,-36.133,-46.875,0.000
1709214817.657,-23.438,-43.945,-36.133,-35.156,0.000
1709214817.661,-21.484,-46.387,-38.574,-35.645,0.000
1709214817.664,-27.344,-40.527,-45.898,-40.039,0.000
1709214817.668,-24.902,-33.203,-39.551,-35.645,0.000
1709214817.672,-27.344,-33.691,-38.574,-17.578,0.000
1709214817.676,-25.879,-38.574,-49.316,-15.625,0.000
1709214817.680,-14.648,-35.645,-45.410,-25.879,0.000
1709214817.684,-13.184,-36.621,-34.180,-34.180,0.000
1709214817.688,-20.020,-47.363,-29.785,-36.133,0.000
1709214817.692,-20.020,-43.457,-30.273,-27.832,0.000
1709214817.696,-17.090,-42.480,-41.504,-29.297,0.000
1709214817.700,-14.160,-50.781,-36.621,-29.785,0.000
1709214817.703,-20.508,-54.199,-33.203,-33.203,0.000
1709214817.707,-37.109,-51.270,-40.527,-38.574,0.000
1709214817.711,-40.527,-42.969,-40.527,-33.691,0.000
1709214817.715,-35.645,-40.039,-41.016,-33.691,0.000
1709214817.719,-28.809,-39.062,-34.180,-24.414,0.000
1709214817.723,-28.809,-40.039,-32.227,-26.855,0.000
1709214817.727,-38.086,-43.457,-33.203,-37.109,0.000
1709214817.731,-38.086,-38.574,-31.250,-31.738,0.000
1709214817.735,-33.203,-27.832,-32.715,-33.691,0.000
1709214817.739,-37.598,-31.250,-36.133,-41.992,0.000
1709214817.742,-37.598,-48.340,-36.621,-43.457,0.000
1709214817.746,-36.621,-58.105,-32.227,-41.992,0.000
1709214817.750,-34.668,-51.270,-35.156,-41.016,0.000
1709214817.754,-34.180,-42.969,-33.203,-41.016,0.000
1709214817.758,-31.738,-41.992,-23.926,-38.086,0.000
1709214817.762,-33.691,-45.898,-30.762,-34.180,0.000
1709214817.766,-42.969,-50.293,-45.410,-38.086,0.000
1709214817.770,-43.945,-60.059,-47.363,-41.992,0.000
1709214817.774,-40.527,-62.500,-35.645,-36.133,0.000
1709214817.778,-41.992,-43.457,-33.691,-33.691,0.000
1709214817.781,-47.363,-34.668,-36.621,-39.062,0.000
1709214817.785,-43.945,-47.363,-36.621,-48.340,0.000
1709214817.789,-43.457,-51.758,-36.621,-54.199,0.000
1709214817.793,-40.527,-41.992,-38.574,-50.781,0.000
1709214817.797,-29.785,-41.504,-41.992,-43.457,0.000
1709214817.801,-29.785,-37.109,-41.504,-44.922,0.000
1709214817.805,-38.574,-39.551,-42.480,-55.176,0.000
1709214817.809,-43.945,-45.898,-41.016,-43.457,0.000
1709214817.813,-45.898,-41.016,-39.551,-41.016,0.000
1709214817.816,-45.898,-46.387,-35.645,-46.387,0.000
1709214817.820,-46.387,-43.457,-34.668,-53.223,0.000
1709214817.824,-53.223,-43.945,-42.969,-57.129,0.000
1709214817.828,-56.152,-54.688,-44.434,-58.105,0.000
1709214817.832,0.000,-44.922,-39.551,-56.152,0.000
1709214817.836,0.000,-34.180,-35.156,-47.852,0.000
1709214817.840,0.000,-37.598,-41.504,-55.176,0.000
1709214817.844,0.000,-51.270,-46.875,-52.246,0.000
1709214817.848,0.000,-47.852,-37.598,-46.875,0.000
1709214817.852,0.000,-38.574,-34.180,-46.875,0.000
1709214817.856,0.000,-39.551,-43.945,-44.922,0.000
1709214817.860,0.000,-44.434,-54.688,-45.898,0.000
1709214817.864,0.000,-43.945,-48.340,-42.480,0.000
1709214817.867,0.000,-34.668,-35.156,-32.227,0.000
1709214817.871,0.000,-37.598,-39.062,-28.809,0.000
1709214817.875,0.000,-50.293,-37.109,-30.273,0.000
1709214817.879,-39.551,-48.340,-28.320,-29.785,0.000
1709214817.883,-40.527,-36.133,-27.344,-34.668,0.000
1709214817.887,-52.734,-41.016,-31.738,-39.551,0.000
1709214817.891,-60.547,-57.617,-35.156,-40.039,0.000
1709214817.895,-51.270,-49.805,-31.250,-30.762,0.000
1709214817.899,-46.875,-35.156,-32.715,-35.645,0.000
1709214817.903,-47.363,-40.039,-35.645,-42.480,0.000
1709214817.907,-41.504,-40.527,-34.668,-40.039,0.000
1709214817.911,-32.715,-41.016,-39.062,-36.133,0.000
1709214817.914,-31.738,-38.574,-34.668,-33.203,0.000
1709214817.918,-33.203,-37.109,-20.996,-39.551,0.000
1709214817.922,-32.227,-44.922,-24.414,-41.992,0.000
1709214817.926,-39.551,-51.270,-30.762,-41.016,0.000
1709214817.930,-46.875,-46.387,-33.691,-45.898,0.000
1709214817.934,-44.434,-34.180,-42.969,-50.293,0.000
1709214817.938,-40.527,-40.527,-39.551,-44.434,0.000
1709214817.942,-40.527,-40.527,-31.738,-38.574,0.000
1709214817.946,-41.992,-29.785,-35.645,-38.086,0.000
1709214817.950,-41.992,-36.133,-38.574,-36.621,0.000
1709214817.954,-37.598,-44.434,-40.527,-33.691,0.000
1709214817.957,-33.691,-49.316,-43.457,-29.785,0.000
1709214817.961,-33.691,-45.898,-37.598,-29.297,0.000
1709214817.965,-40.527,-46.875,-35.156,-42.480,0.000
1709214817.969,-42.480,-46.387,-39.062,-46.387,0.000
1709214817.973,-34.668,-41.504,-41.016,-34.180,0.000
1709214817.977,-29.785,-49.805,-38.086,-30.762,0.000
1709214817.981,-35.645,-45.898,-35.645,-36.133,0.000
1709214817.985,-36.133,-46.875,-39.551,-35.645,0.000
1709214817.989,-32.715,-47.852,-42.480,-33.691,0.000
1709214817.993,-32.227,-34.180,-35.156,-30.762,0.000
1709214817.997,-35.156,-40.527,-38.574,-33.691,0.000
1709214818.000,-29.297,-57.129,-42.480,-41.016,0.000
1709214818.004,-32.227,-63.965,-34.180,-34.180,0.000
1709214818.008,-36.133,-48.340,-29.297,-27.832,0.000
1709214818.012,-31.250,-38.086,-33.691,-34.668,0.000
1709214818.016,-37.598,-52.246,-40.527,-45.410,0.000
1709214818.020,-37.109,-53.223,-34.668,-41.016,0.000
1709214818.024,-37.109,-52.734,-24.902,-38.574,0.000
1709214818.028,-34.180,-57.617,-25.879,-45.410,0.000
1709214818.032,-30.273,-46.875,-28.809,-40.039,0.000
1709214818.036,-28.809,-35.156,-30.273,-36.621,0.000
1709214818.040,-20.020,-40.527,-32.227,-34.180,0.000
1709214818.043,-25.391,-44.434,-39.062,-41.992,0.000
1709214818.047,-28.320,-40.527,-48.340,-36.621,0.000
1709214818.051,-25.879,-39.062,-47.852,-22.949,0.000
1709214818.055,-18.066,-39.062,-30.273,-27.832,0.000
1709214818.059,-14.160,-44.922,-20.996,-28.320,0.000
1709214818.063,-20.508,-44.922,-31.738,-31.250,0.000
1709214818.067,-24.902,-49.805,-37.109,-28.809,0.000
1709214818.071,-29.785,-55.176,-33.203,-26.367,0.000
1709214818.075,-27.832,-48.828,-30.273,-38.574,0.000
1709214818.079,-25.879,-36.621,-30.762,-45.898,0.000
1709214818.082,-28.320,-39.551,-39.062,-49.316,0.000
1709214818.086,-39.551,-51.270,-42.480,-44.922,0.000
1709214818.090,-46.387,-46.387,-39.062,-33.203,0.000
1709214818.094,-36.133,-38.574,-41.016,-31.250,0.000
1709214818.098,-36.621,-40.527,-46.387,-40.039,0.000
1709214818.102,-37.598,-46.875,-37.109,-38.086,0.000
1709214818.106,-40.527,-46.387,-26.855,-35.156,0.000
1709214818.110,-48.340,-58.594,-39.062,-39.062,0.000
1709214818.114,-50.293,-58.105,-42.969,-41.992,0.000
1709214818.117,-46.875,-40.527,-34.668,-43.945,0.000
1709214818.121,-42.969,-43.457,-31.738,-41.504,0.000
1709214818.125,-42.480,-57.129,-33.691,-40.527,0.000
1709214818.129,-37.598,-51.270,-39.062,-25.391,0.000
1709214818.133,-34.668,-45.898,-40.039,-24.902,0.000
1709214818.137,-37.598,-45.410,-37.598,-30.273,0.000
1709214818.141,-31.250,-34.180,-37.109,-24.902,0.000
1709214818.145,-41.016,-38.086,-40.039,-36.133,0.000
1709214818.149,-50.781,-45.898,-38.574,-37.598,0.000
1709214818.153,-40.527,-37.598,-33.691,-28.320,0.000
1709214818.157,-35.156,-32.227,-32.715,-24.414,0.000
1709214818.160,-26.855,-36.133,-29.297,-24.902,0.000
1709214818.164,-24.414,-38.086,-26.855,-23.926,0.000
1709214818.168,-34.668,-38.086,-31.738,-31.250,0.000
1709214818.172,-35.645,-44.434,-36.621,-37.598,0.000
1709214818.176,-27.832,-48.828,-37.598,-29.785,0.000
1709214818.180,-27.832,-49.316,-41.504,-36.133,0.000
1709214818.184,-29.785,-43.945,-52.246,-41.504,0.000
1709214818.188,-29.785,-26.367,-49.316,-34.668,0.000
1709214818.192,-33.691,-26.367,-43.457,-42.969,0.000
1709214818.195,-31.250,-38.086,-45.410,-45.410,0.000
1709214818.199,-30.273,-41.504,-43.945,-44.434,0.000
1709214818.203,-37.598,-56.152,-47.363,-54.688,0.000
1709214818.207,-48.340,-57.129,-49.316,-64.941,0.000
1709214818.211,-42.480,-49.316,-41.016,-53.711,0.000
1709214818.215,-42.969,-53.711,-46.387,-46.387,0.000
1709214818.219,-51.270,-53.223,-55.664,-57.129,0.000
1709214818.223,-41.992,-42.969,-50.293,-61.035,0.000
1709214818.227,-44.434,-47.363,-48.828,-59.082,0.000
1709214818.231,-50.293,-61.035,-59.082,-54.199,0.000
1709214818.235,-41.016,-46.875,-57.129,-51.758,0.000
1709214818.239,-38.086,-29.785,-36.133,-54.688,0.000
1709214818.243,-43.945,-40.039,-34.180,-56.152,0.000
1709214818.246,-46.387,-52.246,-41.016,-54.688,0.000
1709214818.250,-48.828,-50.293,-38.574,-54.688,0.000
1709214818.254,-46.387,-56.641,0.000,-55.664,0.000
1709214818.258,-46.387,-50.293,0.000,-49.316,0.000
1709214818.262,-42.480,-38.574,0.000,-51.758,0.000
1709214818.266,-39.062,-40.039,0.000,-54.199,0.000
1709214818.270,-43.457,-41.504,0.000,-43.457,0.000
1709214818.274,-31.738,-35.156,0.000,-33.203,0.000
1709214818.278,-27.344,-37.109,0.000,-37.109,0.000
1709214818.282,-37.109,-51.758,0.000,-46.387,0.000
1709214818.286,-41.016,-52.246,0.000,-41.992,0.000
1709214818.290,-48.340,-43.457,0.000,-32.715,0.000
1709214818.294,-53.223,-44.922,0.000,-33.691,0.000
1709214818.297,-43.457,-57.617,0.000,-36.133,0.000
1709214818.301,-43.945,-46.875,-27.832,-43.457,0.000
1709214818.305,-51.270,-30.273,-33.203,-51.758,0.000
1709214818.309,-42.969,-27.832,-33.203,-50.781,0.000
1709214818.313,-43.457,-39.062,-38.574,-49.316,0.000
1709214818.317,-43.945,-41.992,-40.527,-43.945,0.000
1709214818.321,-41.504,-42.969,-39.551,-47.852,0.000
1709214818.325,-46.875,-49.805,-49.316,-54.199,0.000
1709214818.329,-46.875,-43.945,-49.805,-55.176,0.000
1709214818.333,-40.039,-40.039,-38.086,-49.316,0.000
1709214818.337,-36.621,-39.551,-28.809,-41.504,0.000
1709214818.340,-44.922,-44.922,-37.109,-57.129,0.000
1709214818.344,-53.223,-42.969,-41.504,-64.941,0.000
1709214818.348,-60.547,-37.109,-35.645,-63.965,0.000
1709214818.352,-58.594,-44.922,-33.203,-57.129,0.000
1709214818.356,-54.199,-49.316,-33.203,-50.293,0.000
1709214818.360,-45.410,-35.645,-34.180,-48.340,0.000
1709214818.364,-39.062,-38.574,-27.832,-51.758,0.000
1709214818.368,-55.176,-59.082,-32.227,-64.941,0.000
1709214818.372,-56.152,-46.875,-47.363,-57.617,0.000
1709214818.376,-44.434,-45.410,-46.387,-50.781,0.000
1709214818.380,-40.039,-60.059,-41.504,-55.176,0.000
1709214818.383,-52.734,-53.711,-37.598,-60.547,0.000
1709214818.387,-62.012,-44.922,-39.062,-60.547,0.000
1709214818.391,-58.105,-44.434,-43.945,-55.176,0.000
1709214818.395,-50.293,-43.457,-36.133,-52.246,0.000
1709214818.399,-33.203,-47.852,-35.645,-47.852,0.000
1709214818.403,-30.762,-53.711,-34.180,-40.039,0.000
1709214818.407,-33.203,-50.293,-30.762,-27.832,0.000
1709214818.411,-37.598,-46.387,-41.992,-25.879,0.000
1709214818.415,-34.668,-38.086,-44.922,-31.738,0.000
1709214818.419,-27.832,-40.039,-49.316,-34.668,0.000
1709214818.423,-36.133,-45.410,-40.039,-38.574,0.000
1709214818.426,-36.621,-41.504,-33.691,-41.016,0.000
1709214818.430,-29.785,-44.434,-36.621,-46.875,0.000
1709214818.434,-27.344,-43.945,-34.180,-39.551,0.000
1709214818.438,-22.461,-29.297,-33.203,-21.973,0.000
1709214818.442,-16.602,-25.879,-27.344,-24.902,0.000
1709214818.446,-19.531,-37.598,-30.762,-41.992,0.000
1709214818.450,-26.855,-39.551,-36.133,-45.898,0.000
1709214818.454,-26.855,-42.480,-32.227,-42.969,0.000
1709214818.458,-30.273,-52.734,-34.180,-44.434,0.000
1709214818.462,-33.203,-43.945,-42.969,-53.711,0.000
1709214818.465,-33.691,-34.180,-31.250,-52.734,0.000
1709214818.469,-46.875,-46.875,-27.344,-47.363,0.000
1709214818.473,-47.852,-46.387,-36.621,-57.617,0.000
1709214818.477,-41.016,-41.504,-41.992,-56.641,0.000
1709214818.481,-43.457,-45.898,-41.504,-54.199,0.000
1709214818.485,-42.969,-47.363,-36.621,-52.246,0.000
1709214818.489,-38.574,-55.664,-40.527,-47.852,0.000
1709214818.493,-31.250,-51.758,-41.992,-45.898,0.000
1709214818.497,-28.809,-41.992,-42.480,-42.480,0.000
1709214818.501,-20.508,-36.621,-36.621,-40.039,0.000
1709214818.504,-19.531,-30.273,-37.598,-34.668,0.000
1709214818.508,-31.738,-41.504,-49.316,-40.039,0.000
1709214818.512,-38.086,-53.223,-44.434,-34.180,0.000
1709214818.516,-38.086,-51.758,-44.922,-29.785,0.000
1709214818.520,-34.668,-42.480,-44.434,-34.180,0.000
1709214818.524,-32.227,-37.598,-40.039,-35.156,0.000
1709214818.528,-34.180,-41.992,-41.504,-41.504,0.000
1709214818.532,-34.180,-47.363,-41.992,-45.410,0.000
1709214818.536,0.000,-48.340,-41.504,-50.293,0.000
1709214818.539,0.000,-46.875,-44.434,-48.340,0.000
1709214818.543,0.000,-51.758,-47.363,-43.945,0.000
1709214818.547,0.000,-51.758,-38.574,-38.086,0.000
1709214818.551,0.000,-44.922,-36.133,-36.133,0.000
1709214818.555,0.000,-39.062,-37.598,-36.133,0.000
1709214818.559,0.000,-39.551,-23.438,-33.691,0.000
1709214818.563,0.000,-41.016,-18.555,-41.016,0.000
1709214818.567,0.000,-47.363,-29.785,-58.594,0.000
1709214818.571,0.000,-42.480,-34.668,-53.223,0.000
1709214818.575,0.000,-43.457,-30.273,-45.898,0.000
1709214818.579,0.000,-47.363,-28.320,-49.805,0.000
1709214818.583,-41.504,-46.387,-33.203,-46.875,0.000
1709214818.587,-50.293,-44.434,-34.668,-48.828,0.000
1709214818.590,-49.316,-43.945,-37.109,-51.758,0.000
1709214818.594,-38.086,-44.434,-39.551,-45.410,0.000
1709214818.598,-42.969,-44.434,-34.668,-39.551,0.000
1709214818.602,-47.363,-45.410,-28.320,-31.738,0.000
1709214818.606,-41.504,-45.898,-29.785,-28.320,0.000
1709214818.610,-37.109,-50.293,-30.762,-26.367,0.000
1709214818.614,-33.691,-54.688,-30.762,-26.367,0.000
1709214818.618,-26.855,-44.922,-29.785,-21.973,0.000
1709214818.622,-20.020,-27.832,-28.809,-21.973,0.000
1709214818.626,-27.832,-42.969,-34.668,-31.738,0.000
1709214818.630,-37.109,-54.688,-33.691,-35.645,0.000
1709214818.633,-33.691,-32.715,-30.762,-31.250,0.000
1709214818.637,-28.809,-30.273,-36.621,-35.645,0.000
1709214818.641,-29.785,-37.598,-37.109,-44.922,0.000
1709214818.645,-36.133,-38.086,-23.926,-40.039,0.000
1709214818.649,-29.785,-40.527,-18.066,-17.578,0.000
1709214818.653,-27.832,-51.758,-25.879,-12.207,0.000
1709214818.657,-29.785,-48.828,-29.297,-23.438,0.000
1709214818.661,-23.926,-35.156,-28.320,-31.250,0.000
1709214818.665,-28.320,-43.945,-35.156,-29.785,0.000
1709214818.669,-36.621,-48.340,-36.621,-27.832,0.000
1709214818.673,-37.109,-38.574,-29.785,-40.527,0.000
1709214818.677,-26.367,-40.039,-25.391,-38.086,0.000
1709214818.680,-28.320,-43.457,-32.227,-37.598,0.000
1709214818.684,-39.551,-39.551,-43.457,-57.129,0.000
1709214818.688,-41.504,-35.645,-36.621,-53.711,0.000
1709214818.692,-40.527,-38.086,-29.297,-33.691,0.000
1709214818.696,-31.738,-45.898,-27.344,-31.738,0.000
1709214818.700,-22.949,-41.504,-29.785,-38.574,0.000
1709214818.704,-25.879,-41.016,-41.504,-42.969,0.000
1709214818.708,-30.762,-44.922,-42.969,-42.969,0.000
1709214818.712,-32.715,-38.086,-37.598,-37.109,0.000
1709214818.716,-27.344,-36.621,-39.551,-40.527,0.000
1709214818.719,-23.438,-38.574,-38.086,-46.387,0.000
1709214818.723,-35.645,-39.551,-40.527,-50.781,0.000
1709214818.727,-52.246,-41.016,-58.105,-53.711,0.000
1709214818.731,-48.828,-42.969,-58.594,-49.316,0.000
1709214818.735,-36.133,-41.992,-43.457,-41.504,0.000
1709214818.739,-34.668,-47.852,-46.875,-42.480,0.000
1709214818.743,-36.621,-50.781,-37.109,-40.039,0.000
1709214818.747,-43.457,-47.363,-32.227,-44.922,0.000
1709214818.751,-49.316,-40.527,-42.480,-50.293,0.000
1709214818.755,-42.969,-32.715,-37.598,-34.668,0.000
1709214818.759,-40.527,-39.062,-37.109,-32.715,0.000
1709214818.762,-45.410,-39.062,-43.457,-42.969,0.000
1709214818.766,-42.480,-33.203,-36.133,-40.039,0.000
1709214818.770,-40.527,-40.527,-43.945,-37.598,0.000
1709214818.774,-37.109,-48.340,-45.898,-37.109,0.000
1709214818.778,-30.273,-48.828,-33.691,-34.668,0.000
1709214818.782,-31.738,-53.223,-38.086,-35.645,0.000
1709214818.786,-45.898,-62.988,-32.227,-39.551,0.000
1709214818.790,-50.781,-51.270,-24.414,-38.574,0.000
1709214818.794,-43.945,-36.621,-32.715,-48.340,0.000
1709214818.798,-40.527,-42.969,-35.645,-50.781,0.000
1709214818.802,-44.434,-42.969,-35.645,-43.457,0.000
1709214818.805,-52.246,-46.875,-39.551,-49.316,0.000
1709214818.809,-55.176,-50.781,-33.203,-49.316,0.000
1709214818.813,-47.852,-41.504,-36.133,-46.387,0.000
1709214818.817,-35.645,-53.223,-46.875,-45.898,0.000
1709214818.821,-28.809,-58.105,-41.992,-46.875,0.000
1709214818.825,-36.133,-41.504,-35.156,-54.199,0.000
1709214818.829,-42.480,-41.016,-36.621,-53.711,0.000
1709214818.833,-37.109,-41.504,-36.621,-43.457,0.000
1709214818.837,-29.297,-45.410,-32.715,-46.387,0.000
1709214818.841,-31.738,-44.434,-31.738,-49.805,0.000
1709214818.844,-45.410,-45.410,-28.809,-36.133,0.000
1709214818.848,-50.293,-46.875,-32.227,-34.180,0.000
1709214818.852,-45.410,-44.922,-41.504,-33.203,0.000
1709214818.856,-37.598,-43.945,-41.504,-32.227,0.000
1709214818.860,-32.715,-50.293,-43.457,-35.645,0.000
1709214818.864,-33.691,-54.688,-40.527,-30.762,0.000
1709214818.868,-34.668,-51.270,-37.598,-32.227,0.000
1709214818.872,-31.250,-45.410,-35.645,-32.715,0.000
1709214818.876,-25.879,-41.016,-34.180,-31.738,0.000
1709214818.879,-25.879,-45.898,-34.180,-33.691,0.000
1709214818.883,-25.879,-49.805,-30.762,-41.016,0.000
1709214818.887,-27.832,-44.922,-29.785,-42.480,0.000
1709214818.891,-31.738,-37.109,-35.645,-38.086,0.000
1709214818.895,-30.762,-37.109,-40.527,-36.621,0.000
1709214818.899,-26.855,-43.457,-42.969,-34.668,0.000
1709214818.903,-27.832,-48.828,-45.410,-40.039,0.000
1709214818.907,-39.551,-48.340,-43.945,-46.875,0.000
1709214818.911,-36.133,-32.715,-30.273,-45.898,0.000
1709214818.915,-35.156,-34.668,-24.414,-49.316,0.000
1709214818.919,-37.109,-42.969,-32.227,-51.758,0.000
1709214818.923,-37.109,-41.504,-41.016,-50.293,0.000
1709214818.927,-43.945,-43.457,-43.945,-58.594,0.000
1709214818.930,-39.551,-45.898,-40.039,-57.129,0.000
1709214818.934,-47.363,-45.898,-41.016,-55.664,0.000
1709214818.938,-53.223,-40.527,-33.203,-59.082,0.000
1709214818.942,-46.387,-46.387,-26.855,-61.035,0.000
1709214818.946,-51.270,-49.316,-36.133,-56.641,0.000
1709214818.950,-51.270,-55.664,-33.203,-44.434,0.000
1709214818.954,-43.457,-65.430,-31.738,-40.039,0.000
1709214818.958,-43.945,-52.734,-45.898,-45.410,0.000
1709214818.962,-47.363,-49.316,-44.922,-50.293,0.000
1709214818.965,-40.039,-50.293,-39.062,-51.758,0.000
1709214818.969,-35.156,-45.410,-43.457,-49.805,0.000
1709214818.973,-41.016,-49.316,-48.340,-44.922,0.000
1709214818.977,-38.574,-50.781,-42.969,-47.852,0.000
1709214818.981,-34.668,-49.316,-36.133,-50.293,0.000
1709214818.985,-37.598,-46.387,-33.203,-39.551,0.000
1709214818.989,-46.387,-48.828,-31.250,-43.945,0.000
1709214818.993,-56.152,-63.477,-34.668,-42.969,0.000
1709214818.997,-58.594,-66.406,-32.227,-36.133,0.000
1709214819.001,-55.664,-48.828,-33.203,-44.922,0.000
1709214819.005,-51.270,-41.016,-34.668,-41.504,0.000
1709214819.008,-50.293,-46.387,-26.855,-42.480,0.000
1709214819.012,-48.340,-49.316,-25.391,-46.387,0.000
1709214819.016,-46.387,-52.246,-34.180,-45.410,0.000
1709214819.020,-38.574,-49.316,-34.180,-43.457,0.000
1709214819.024,-30.273,-48.340,-29.297,-35.156,0.000
1709214819.028,-39.551,-50.293,-40.527,-42.969,0.000
1709214819.032,-34.180,-45.898,-42.969,-40.039,0.000
1709214819.036,-31.738,-36.133,-40.039,-32.227,0.000
1709214819.040,-34.180,-31.738,-40.039,-37.109,0.000
1709214819.044,-32.227,-35.156,-41.992,-43.945,0.000
1709214819.048,-30.273,-40.039,-40.527,-42.480,0.000
1709214819.052,-30.273,-43.945,-32.715,-35.645,0.000
1709214819.055,-31.738,-44.434,-34.668,-32.227,0.000
1709214819.059,-25.391,-51.270,-39.062,-42.480,0.000
1709214819.063,-20.508,-52.246,-35.645,-41.504,0.000
1709214819.067,-30.273,-45.898,-42.969,-37.109,0.000
1709214819.071,-35.156,-48.340,-49.316,-26.855,0.000
1709214819.075,-34.668,-52.246,-43.945,-27.832,0.000
1709214819.079,-38.086,-51.758,-39.551,-41.016,0.000
1709214819.083,-38.574,-39.551,-32.227,-31.738,0.000
1709214819.087,-42.480,-34.180,-35.645,-31.738,0.000
1709214819.091,-40.527,-41.992,-44.434,-43.945,0.000
1709214819.094,-32.227,-49.316,-35.645,-44.922,0.000
1709214819.098,-30.762,-49.316,-31.738,-46.875,0.000
1709214819.102,-36.621,-47.363,-44.434,-47.852,0.000
1709214819.106,-34.668,-45.410,-46.387,-48.828,0.000
1709214819.110,-39.062,-45.410,-37.109,-42.480,0.000
1709214819.114,-44.434,-49.316,-39.062,-39.551,0.000
1709214819.118,-38.574,-48.340,-39.551,-39.062,0.000
1709214819.122,-39.551,-57.617,-35.156,-42.480,0.000
1709214819.126,-41.016,-66.406,-40.039,-43.945,0.000
1709214819.130,-48.828,-49.805,-44.922,-34.180,0.000
1709214819.134,-48.340,-35.156,-42.480,-38.086,0.000
1709214819.137,-40.527,-39.551,-47.363,-43.457,0.000
1709214819.141,-34.668,-39.551,-53.223,-39.062,0.000
1709214819.145,-35.156,-41.016,-42.969,-44.922,0.000
1709214819.149,-36.621,-43.945,-32.227,-41.504,0.000
1709214819.153,-31.250,-38.574,-27.832,-37.598,0.000
1709214819.157,-32.227,-35.645,-39.062,-42.480,0.000
1709214819.161,-27.344,-42.480,-43.457,-38.574,0.000
1709214819.165,-24.902,-52.734,-32.715,-34.668,0.000
1709214819.169,-27.344,-52.246,-34.668,-38.574,0.000
1709214819.173,-30.762,-42.969,-36.133,-35.156,0.000
1709214819.177,-22.461,-37.598,-34.668,-29.785,0.000
1709214819.180,-11.230,-35.156,-32.715,-39.551,0.000
1709214819.184,-10.742,-26.855,-30.762,-34.180,0.000
1709214819.188,-17.090,-32.715,-41.504,-34.668,0.000
1709214819.192,-17.578,-54.688,-41.016,-39.062,0.000
1709214819.196,-14.648,-54.688,-29.785,-35.645,0.000
1709214819.200,-24.902,-39.062,-36.621,-41.504,0.000
1709214819.204,-28.809,-33.691,-41.504,-49.805,0.000
1709214819.208,-34.668,-44.434,-39.551,-49.316,0.000
1709214819.212,-35.645,-41.504,-40.039,-42.480,0.000
1709214819.216,-27.832,-32.227,-38.086,-42.969,0.000
1709214819.219,-21.973,-27.832,-42.480,-39.062,0.000
1709214819.223,-26.855,-27.344,-46.875,-43.457,0.000
1709214819.227,-43.457,-37.109,-50.293,-57.617,0.000
1709214819.231,-45.898,-47.852,-50.781,-54.199,0.000
1709214819.235,-43.945,-51.758,-52.246,-49.805,0.000
1709214819.239,-36.621,-47.363,-46.387,-53.711,0.000
1709214819.243,-35.156,-58.594,-41.016,-48.340,0.000
1709214819.247,-40.527,-58.105,-41.992,-45.410,0.000
1709214819.251,-37.109,-33.691,-36.621,-45.898,0.000
1709214819.254,-38.574,-35.156,-38.086,-43.945,0.000
1709214819.258,-37.109,-46.387,-32.715,-41.504,0.000
1709214819.262,-43.457,-46.875,-32.227,-39.551,0.000
1709214819.266,-50.293,-44.922,-37.109,-37.598,0.000
1709214819.270,-47.852,-51.758,-43.457,-41.992,0.000
1709214819.274,-49.316,-51.758,-44.922,-41.504,0.000
1709214819.278,-46.875,-41.016,-39.062,-40.039,0.000
1709214819.282,-42.480,-49.316,-38.086,-41.504,0.000
1709214819.286,-41.504,-48.340,-39.062,-45.410,0.000
1709214819.289,-41.016,-39.062,-38.086,-46.387,0.000
1709214819.293,-43.457,-44.434,-40.527,-42.480,0.000
1709214819.297,-43.457,-48.340,-35.645,-39.551,0.000
1709214819.301,-38.574,-42.969,-31.738,-43.457,0.000
1709214819.305,-42.480,-50.293,-36.133,-45.898,0.000
1709214819.309,-43.945,-55.176,-34.180,-31.738,0.000
1709214819.313,-30.762,-43.945,-34.180,-24.902,0.000
1709214819.317,-28.809,-41.992,-41.992,-35.645,0.000
1709214819.321,-30.762,-47.852,-42.480,-39.062,0.000
1709214819.325,-25.391,-49.805,-32.227,-41.992,0.000
1709214819.329,-30.762,-46.387,-24.414,-36.621,0.000
1709214819.332,-35.645,-52.246,-25.879,-32.227,0.000
1709214819.336,-37.598,-49.805,-32.227,-38.086,0.000
1709214819.340,-35.156,-41.016,-34.668,-32.715,0.000
1709214819.344,-36.133,-43.945,-34.180,-34.180,0.000
1709214819.348,-31.250,-43.457,-30.762,-31.738,0.000
1709214819.352,-30.273,-44.434,-36.133,-25.879,0.000
1709214819.356,-37.109,-57.129,-37.109,-27.344,0.000
1709214819.360,-41.504,-56.641,-30.762,-32.715,0.000
1709214819.364,-50.781,-45.898,-34.180,-41.016,0.000
1709214819.368,-51.270,-48.340,-29.297,-36.133,0.000
1709214819.371,-53.223,-48.828,-26.367,-33.691,0.000
1709214819.375,-55.176,-52.734,-28.320,-46.875,0.000
1709214819.379,-40.527,-60.547,-25.391,-44.434,0.000
1709214819.383,-43.945,-54.688,-32.227,-48.340,0.000
1709214819.387,-59.570,-50.781,-44.922,-63.965,0.000
1709214819.391,-61.035,-50.293,-45.410,-53.223,0.000
1709214819.395,-58.594,-47.363,-42.969,-47.363,0.000
1709214819.399,-47.363,-43.945,-41.992,-57.617,0.000
1709214819.403,-39.062,-39.551,-38.574,-58.105,0.000
1709214819.407,-39.551,-42.480,-39.062,-52.246,0.000
1709214819.411,-45.898,-51.758,-41.504,-50.781,0.000
1709214819.415,-42.480,-41.016,-41.504,-41.992,0.000
1709214819.418,-31.250,-29.785,-38.574,-45.898,0.000
1709214819.422,-31.250,-44.922,-39.062,-59.570,0.000
1709214819.426,-38.086,-54.199,-36.133,-58.105,0.000
1709214819.430,-47.852,-49.805,-35.645,-55.664,0.000
1709214819.434,-50.781,-32.715,-43.457,-49.805,0.000
1709214819.438,-49.316,-25.879,-47.363,-44.922,0.000
1709214819.442,-47.852,-36.133,-46.387,-44.922,0.000
1709214819.446,-39.551,-36.133,-39.062,-35.156,0.000
1709214819.450,-29.785,-33.203,-34.180,-26.855,0.000
1709214819.454,-27.832,-44.922,-41.992,-35.645,0.000
1709214819.458,-22.461,-49.805,-49.805,-25.391,0.000
1709214819.461,-18.066,-52.734,-47.852,-22.949,0.000
1709214819.465,-20.996,-51.270,-40.527,-37.598,0.000
1709214819.469,-25.879,-47.363,-37.109,-36.621,0.000
1709214819.473,-19.531,-49.316,-37.598,-27.344,0.000
1709214819.477,-12.695,-34.180,-32.715,-26.855,0.000
1709214819.481,-19.531,-35.156,-34.668,-29.785,0.000
1709214819.485,-34.180,-49.805,-38.574,-32.227,0.000
1709214819.489,-38.574,-53.223,-30.273,-32.715,0.000
1709214819.493,-36.133,-53.223,-28.809,-32.715,0.000
1709214819.497,-41.992,-44.922,-32.715,-41.016,0.000
1709214819.501,-33.203,-42.969,-32.227,-36.133,0.000
1709214819.504,-29.785,-43.945,-36.621,-22.949,0.000
1709214819.508,-39.062,-42.480,-33.203,-25.391,0.000
1709214819.512,-34.668,-40.527,-21.484,-29.297,0.000
1709214819.516,-33.203,-34.180,-22.949,-30.762,0.000
1709214819.520,-41.992,-35.645,-30.273,-40.039,0.000
1709214819.524,-47.852,-34.668,-40.527,-41.504,0.000
1709214819.528,-51.270,-38.086,-49.316,-49.805,0.000
1709214819.532,-44.434,-37.598,-42.480,-50.293,0.000
1709214819.536,-35.645,-35.156,-32.715,-37.109,0.000
1709214819.540,-33.691,-40.527,-35.156,-36.133,0.000
1709214819.544,-35.156,-44.922,-37.598,-46.875,0.000
1709214819.547,-34.668,-41.016,-40.527,-42.480,0.000
1709214819.551,-29.785,-47.852,-41.992,-30.762,0.000
1709214819.555,-27.832,-43.945,-39.062,-39.062,0.000
1709214819.559,-24.902,-39.062,-39.551,-44.434,0.000
1709214819.563,-20.020,-44.922,-34.668,-43.457,0.000
1709214819.567,-20.996,-38.086,-38.086,-41.992,0.000
1709214819.571,-21.973,-27.832,-41.992,-40.039,0.000
1709214819.575,-19.043,-23.926,-33.691,-32.715,0.000
1709214819.579,-25.879,-29.785,-31.250,-30.762,0.000
1709214819.583,-37.109,-35.645,-38.574,-38.574,0.000
1709214819.586,-39.551,-36.621,-38.574,-46.387,0.000
1709214819.590,-33.691,-44.922,-29.297,-44.434,0.000
1709214819.594,-31.250,-50.293,-24.414,-32.715,0.000
1709214819.598,-35.645,-40.039,-33.691,-36.621,0.000
1709214819.602,-38.574,-38.574,-41.504,-44.434,0.000
1709214819.606,-39.551,-42.480,-30.762,-49.805,0.000
1709214819.610,-42.480,-45.898,-27.344,-46.387,0.000
1709214819.614,-42.480,-42.480,-34.180,-41.992,0.000
1709214819.618,-39.062,-36.133,-29.297,-43.457,0.000
1709214819.621,-46.875,-44.434,-30.762,-48.828,0.000
1709214819.625,-51.758,-58.594,-36.133,-55.664,0.000
1709214819.629,-51.270,-52.246,-31.738,-46.875,0.000
1709214819.633,-51.270,-48.340,-30.762,-36.133,0.000
1709214819.637,-38.086,-57.617,-29.785,-28.809,0.000
1709214819.641,-38.086,-45.898,-30.762,-28.809,0.000
1709214819.645,-48.828,-38.574,-36.621,-39.062,0.000
1709214819.649,-58.105,-49.805,-35.156,-41.992,0.000
1709214819.653,-58.594,-54.688,-35.156,-48.340,0.000
1709214819.657,-51.758,-44.434,-37.598,-53.711,0.000
1709214819.660,-49.805,-38.574,-34.668,-52.246,0.000
1709214819.664,-45.898,-43.945,-27.344,-48.828,0.000
1709214819.668,-41.016,-45.898,-28.320,-51.758,0.000
1709214819.672,-40.527,-46.875,-42.969,-49.805,0.000
1709214819.676,-41.992,-41.992,-46.387,-47.363,0.000
1709214819.680,-40.039,-45.410,-39.551,-64.453,0.000
1709214819.684,-37.598,-61.035,-39.062,-62.012,0.000
1709214819.688,-42.480,-49.805,-42.969,-51.270,0.000
1709214819.692,-43.457,-33.203,-47.852,-48.340,0.000
1709214819.696,-39.062,-43.945,-46.875,-42.480,0.000
1709214819.699,-31.250,-49.316,-32.715,-35.645,0.000
1709214819.703,-31.738,-33.203,-29.785,-34.668,0.000
1709214819.707,-42.480,-29.785,-46.387,-35.645,0.000
1709214819.711,-37.598,-40.039,-44.922,-33.203,0.000
1709214819.715,-28.320,-40.527,-38.574,-33.691,0.000
1709214819.719,-29.297,-34.180,-43.945,-33.691,0.000
1709214819.723,-37.109,-36.621,-46.387,-41.504,0.000
1709214819.727,-33.691,-41.504,-40.527,-33.691,0.000
1709214819.731,-26.855,-41.016,-39.551,-23.438,0.000
1709214819.734,-29.785,-40.039,-45.898,-30.273,0.000
1709214819.738,-30.273,-43.945,-44.434,-42.480,0.000
1709214819.742,-36.133,-42.480,-55.664,-44.434,0.000
1709214819.746,-47.363,-41.992,-62.012,-49.805,0.000
1709214819.750,-45.410,-49.316,-51.270,-53.711,0.000
1709214819.754,-43.457,-55.176,-51.758,-46.387,0.000
1709214819.758,-44.434,-52.734,-50.781,-53.223,0.000
1709214819.762,-49.316,-51.270,-46.875,-61.035,0.000
1709214819.766,-51.270,-56.641,-47.363,-65.430,0.000
1709214819.770,-41.992,-53.711,-44.922,-60.059,0.000
1709214819.774,-34.668,-38.086,-45.898,-51.270,0.000
1709214819.778,-39.551,-46.387,-54.199,-62.012,0.000
1709214819.781,-41.016,-48.828,-53.223,-63.477,0.000
1709214819.785,-39.062,-45.410,-49.316,-53.711,0.000
1709214819.789,-39.551,-48.828,-46.387,-51.270,0.000
1709214819.793,-29.785,-45.410,-50.293,-51.758,0.000
1709214819.797,-25.879,-39.551,-48.828,-48.340,0.000
1709214819.801,-28.809,-41.992,-38.086,-47.852,0.000
1709214819.805,-33.691,-40.039,-38.086,-50.293,0.000
1709214819.809,-29.297,-33.203,-32.227,-43.945,0.000
1709214819.813,-19.043,-30.273,-30.273,-34.668,0.000
1709214819.817,-23.926,-33.691,-40.527,-38.086,0.000
1709214819.821,-21.973,-44.434,-37.598,-37.598,0.000
1709214819.824,-22.461,-41.504,-36.133,-35.156,0.000
1709214819.828,-29.297,-44.434,-35.156,-32.715,0.000
1709214819.832,-27.344,-50.781,-36.133,-18.555,0.000
1709214819.836,-21.973,-44.434,-38.574,-6.348,0.000
1709214819.840,-20.996,-40.039,-37.598,-13.672,0.000
1709214819.844,-27.832,-50.293,-28.809,-18.555,0.000
1709214819.848,-33.691,-52.246,-20.508,-20.020,0.000
1709214819.852,-37.109,-46.875,-27.344,-20.508,0.000
1709214819.856,-41.992,-43.457,-31.250,-32.715,0.000
1709214819.860,-46.387,-42.969,-24.902,-40.527,0.000
1709214819.864,-41.992,-49.316,-27.832,-37.598,0.000
1709214819.867,-41.016,-56.152,-40.039,-46.875,0.000
1709214819.871,-45.898,-62.500,-43.945,-49.316,0.000
1709214819.875,-36.621,-59.570,-36.133,-37.598,0.000
1709214819.879,-26.367,-48.828,-34.668,-30.273,0.000
1709214819.883,-26.855,-50.293,-39.062,-34.180,0.000
1709214819.887,-32.227,-49.805,-43.457,-40.039,0.000
1709214819.891,-31.250,-50.293,-41.992,-39.551,0.000
1709214819.895,-24.902,-62.500,-29.785,-44.434,0.000
1709214819.899,-20.508,-50.781,-28.809,-44.434,0.000
1709214819.903,-27.832,-33.691,-35.645,-48.340,0.000
1709214819.907,-36.133,-40.039,-41.504,-55.664,0.000
1709214819.910,-32.227,-41.992,-37.109,-52.246,0.000
1709214819.914,-31.250,-43.457,-33.203,-51.270,0.000
1709214819.918,-34.180,-46.875,-38.574,-55.176,0.000
1709214819.922,-35.156,-54.688,-45.898,-59.082,0.000
1709214819.926,-38.086,-54.688,-40.527,-51.270,0.000
1709214819.930,-37.109,-44.922,-31.250,-43.945,0.000
1709214819.934,-27.344,-52.734,-31.738,-43.945,0.000
1709214819.938,-27.832,-46.875,-38.086,-52.734,0.000
1709214819.942,-36.133,-34.668,-44.434,-54.199,0.000
1709214819.946,-40.527,-46.387,-39.062,-44.434,0.000
1709214819.950,-39.062,-46.387,-31.250,-37.109,0.000
1709214819.953,-32.715,-33.203,-29.297,-33.691,0.000
1709214819.957,-34.180,-34.668,-33.203,-37.109,0.000
1709214819.961,-31.738,-42.969,-42.969,-37.109,0.000
1709214819.965,-32.227,-41.016,-42.480,-34.180,0.000
1709214819.969,-43.457,-46.387,-43.457,-34.180,0.000
1709214819.973,-42.969,-49.805,-45.410,-38.574,0.000
1709214819.977,-39.062,-47.363,-45.410,-41.992,0.000
1709214819.981,-43.457,-55.664,-47.363,-46.387,0.000
1709214819.985,-36.621,-55.664,-36.621,-44.434,0.000
1709214819.988,-36.133,-38.574,-32.715,-37.598,0.000
1709214819.992,-40.039,-34.180,-43.457,-38.086,0.000
1709214819.996,-32.715,-41.016,-38.574,-37.109,0.000
1709214820.000,-30.273,-41.016,-32.227,-36.621,0.000
1709214820.004,-34.180,-45.410,-35.156,-38.086,0.000
1709214820.008,-40.527,-50.293,-33.203,-42.969,0.000
1709214820.012,-42.969,-49.316,-36.621,-35.156,0.000
1709214820.016,-37.598,-53.711,-38.086,-27.832,0.000
1709214820.020,-36.621,-52.246,-35.645,-38.086,0.000
1709214820.024,-49.805,-53.711,-41.016,-47.852,0.000
1709214820.028,-55.176,-59.570,-38.086,-44.922,0.000
1709214820.031,-45.410,-52.246,-35.156,-35.156,0.000
1709214820.035,-41.992,-44.434,-43.945,-41.504,0.000
1709214820.039,-35.156,-41.504,-39.062,-47.852,0.000
1709214820.043,-27.344,-47.363,-32.715,-45.898,0.000
1709214820.047,-30.273,-46.875,-35.645,-37.598,0.000
1709214820.051,-41.016,-47.852,-37.598,-41.504,0.000
1709214820.055,-45.898,-50.293,-42.480,-47.363,0.000
1709214820.059,-39.551,-49.316,-43.457,-41.016,0.000
1709214820.063,-42.969,-49.316,-34.668,-49.805,0.000
1709214820.066,-49.805,-47.363,-34.668,-56.152,0.000
1709214820.070,-43.945,-49.316,-44.922,-51.758,0.000
1709214820.074,-44.922,-48.828,-38.574,-47.363,0.000
1709214820.078,-41.504,-46.387,-31.738,-37.598,0.000
1709214820.082,-41.016,-50.781,-36.621,-43.945,0.000
1709214820.086,-51.270,-50.293,-31.250,-47.363,0.000
1709214820.090,-47.363,-49.805,-29.785,-45.898,0.000
1709214820.094,-41.992,-51.758,-38.574,-44.922,0.000
1709214820.098,-41.992,-56.641,-37.109,-42.480,0.000
1709214820.101,-40.039,-63.477,-30.762,-35.645,0.000
1709214820.105,-45.410,-51.758,-38.086,-36.133,0.000
1709214820.109,-52.734,-40.527,-43.945,-44.434,0.000
1709214820.113,-38.086,-40.039,-37.109,-34.668,0.000
1709214820.117,-23.926,-49.316,-33.203,-34.180,0.000
1709214820.121,-31.738,-54.199,-35.156,-41.504,0.000
1709214820.125,-38.086,-43.945,-40.039,-39.551,0.000
1709214820.129,-37.109,-44.434,-40.039,-38.086,0.000
1709214820.133,-35.645,-47.852,-36.133,-40.527,0.000
1709214820.137,-32.715,-47.852,-40.039,-41.992,0.000
1709214820.141,-27.344,-49.316,-41.504,-37.598,0.000
1709214820.145,-31.250,-46.387,-31.250,-31.738,0.000
1709214820.148,-37.109,-44.922,-29.297,-32.227,0.000
1709214820.152,-40.039,-48.828,-38.086,-41.504,0.000
1709214820.156,-37.109,-53.711,-34.668,-47.363,0.000
1709214820.160,-37.598,-50.781,-40.039,-50.293,0.000
1709214820.164,-40.527,-42.969,-41.016,-52.246,0.000
1709214820.168,-42.969,-40.527,-36.133,-56.641,0.000
1709214820.172,-46.875,-37.598,-37.109,-48.340,0.000
1709214820.176,-39.551,-33.203,-31.250,-33.691,0.000
1709214820.180,-34.668,-27.344,-27.344,-38.574,0.000
1709214820.184,-39.062,-28.809,-31.738,-54.199,0.000
1709214820.188,-47.363,-39.062,-32.227,-57.617,0.000
1709214820.192,-53.711,-38.086,-36.621,-49.805,0.000
1709214820.195,-51.758,-36.621,-33.203,-42.969,0.000
1709214820.199,-45.898,-36.621,-24.902,-42.969,0.000
1709214820.203,-49.805,-40.527,-32.227,-45.898,0.000
1709214820.207,-57.129,-54.199,-31.250,-39.551,0.000
1709214820.211,-51.270,-33.203,-26.367,-31.250,0.000
1709214820.215,-45.410,-19.531,-29.297,-46.875,0.000
1709214820.219,-44.434,-35.156,-28.320,-61.035,0.000
1709214820.223,-36.133,-40.527,-30.273,-52.734,0.000
1709214820.227,-41.992,-41.504,-39.062,-55.176,0.000
1709214820.231,-50.781,-43.945,-39.551,-56.641,0.000
1709214820.235,-39.062,-48.340,-37.598,-53.711,0.000
1709214820.238,-31.738,-43.457,-34.668,-54.688,0.000
1709214820.242,-27.832,-38.086,-29.785,-48.828,0.000
1709214820.246,-32.227,-36.621,-40.039,-45.410,0.000
1709214820.250,-35.645,-41.016,-41.504,-41.016,0.000
1709214820.254,-30.762,-58.105,-32.715,-34.180,0.000
1709214820.258,-26.367,-66.406,-33.203,-42.480,0.000
1709214820.262,-30.762,-44.434,-31.250,-45.410,0.000
1709214820.266,-40.039,-36.621,-31.738,-41.992,0.000
1709214820.270,-36.621,-42.480,-34.180,-49.316,0.000
1709214820.274,-30.762,-40.039,-34.180,-47.852,0.000
1709214820.277,-29.297,-36.133,-31.250,-44.434,0.000
1709214820.281,-37.109,-42.480,-32.227,-46.387,0.000
1709214820.285,-46.875,-46.875,-39.062,-41.992,0.000
1709214820.289,-45.410,-44.922,-42.969,-41.016,0.000
1709214820.293,-44.922,-47.852,-45.410,-47.852,0.000
1709214820.297,-49.316,-49.316,-44.922,-38.086,0.000
1709214820.301,-51.758,-53.711,-39.062,-36.621,0.000
1709214820.305,-41.504,-55.664,-31.250,-45.898,0.000
1709214820.309,-33.691,-43.945,-25.391,-33.691,0.000
1709214820.313,-41.504,-42.969,-33.203,-30.762,0.000
1709214820.317,-47.852,-50.781,-39.551,-36.621,0.000
1709214820.320,-48.828,-50.781,-34.180,-45.898,0.000
1709214820.324,-48.828,-49.316,-37.598,-55.664,0.000
1709214820.328,-48.340,-48.828,-41.016,-50.781,0.000
1709214820.332,-45.410,-40.039,-34.668,-37.109,0.000
1709214820.336,-41.504,-31.738,-31.250,-27.344,0.000
1709214820.340,-48.340,-36.133,-31.250,-36.133,0.000
1709214820.344,-48.340,-40.527,-38.086,-38.574,0.000
1709214820.348,-47.852,-37.598,-41.992,-40.527,0.000
1709214820.352,-49.316,-43.945,-40.527,-44.434,0.000
1709214820.356,-44.922,-54.688,-37.109,-38.574,0.000
1709214820.359,-41.992,-51.270,-34.668,-41.016,0.000
1709214820.363,-41.504,-48.828,-38.574,-46.875,0.000
1709214820.367,-41.504,-56.641,-37.598,-45.410,0.000
1709214820.371,-37.598,-61.035,-35.156,-41.016,0.000
1709214820.375,-32.715,-51.270,-35.645,-40.527,0.000
1709214820.379,-28.809,-34.668,-34.180,-36.133,0.000
1709214820.383,-33.203,-32.715,-36.133,-43.945,0.000
1709214820.387,-37.109,-41.504,-40.527,-41.504,0.000
1709214820.391,-37.598,-49.805,-47.363,-32.227,0.000
1709214820.395,-32.227,-54.199,-44.434,-51.270,0.000
1709214820.398,-25.879,-48.828,-37.109,-59.082,0.000
1709214820.402,-23.438,-43.945,-38.574,-50.781,0.000
1709214820.406,-22.949,-37.598,-37.109,-50.293,0.000
1709214820.410,-22.949,-40.527,-35.645,-44.434,0.000
1709214820.414,-26.855,-54.688,-41.016,-35.645,0.000
1709214820.418,-35.156,-54.688,-41.504,-41.504,0.000
1709214820.422,-38.574,-42.969,-37.598,-51.758,0.000
1709214820.426,-42.480,-37.109,-41.016,-59.570,0.000
1709214820.430,-38.086,-39.551,-44.434,-44.434,0.000
1709214820.433,-23.926,-45.410,-42.480,-24.414,0.000
1709214820.437,-26.855,-38.574,-34.180,-37.109,0.000
1709214820.441,-40.039,-33.203,-27.344,-52.246,0.000
1709214820.445,-55.664,-41.504,-39.062,-57.129,0.000
1709214820.449,-55.664,-45.898,-43.457,-57.617,0.000
1709214820.453,-51.270,-44.922,-33.203,-52.246,0.000
1709214820.457,-45.898,-46.875,-35.645,-48.828,0.000
1709214820.461,-43.945,-52.246,-37.598,-57.129,0.000
1709214820.465,-49.316,-44.922,-34.668,-57.617,0.000
1709214820.468,-44.922,-43.945,-33.691,-40.527,0.000
1709214820.472,-47.852,-58.105,-36.133,-40.527,0.000
1709214820.476,-46.875,-52.734,-40.527,-47.852,0.000
1709214820.480,-41.504,-47.852,-46.875,-59.570,0.000
1709214820.484,-50.293,-49.805,-52.734,-67.383,0.000
1709214820.488,-52.734,-48.828,-52.246,-60.547,0.000
1709214820.492,-43.945,-43.945,-45.410,-40.527,0.000
1709214820.496,-40.039,-41.504,-40.039,-27.344,0.000
1709214820.500,-35.156,-43.457,-39.551,-39.551,0.000
1709214820.504,-41.504,-48.340,-34.180,-45.898,0.000
1709214820.508,-41.016,-42.480,-34.668,-40.039,0.000
1709214820.512,-28.809,-35.645,-28.809,-34.668,0.000
1709214820.515,-28.809,-47.852,-28.809,-39.062,0.000
1709214820.519,-28.320,-52.734,-30.273,-42.969,0.000
1709214820.523,-25.879,-46.387,-27.832,-37.598,0.000
1709214820.527,-36.621,-41.016,-34.180,-29.297,0.000
1709214820.531,-36.133,-37.598,-35.156,-36.133,0.000
1709214820.535,-26.855,-43.945,-35.645,-39.062,0.000
1709214820.539,-26.367,-45.898,-40.039,-31.250,0.000
1709214820.543,-27.832,-36.621,-38.574,-36.133,0.000
1709214820.547,-28.320,-37.598,-37.109,-38.086,0.000
1709214820.551,-28.320,-46.875,-41.016,-37.598,0.000
1709214820.555,-26.855,-47.852,-41.016,-35.645,0.000
1709214820.559,-20.508,-48.340,-36.621,-39.062,0.000
1709214820.562,-18.066,-55.664,-38.574,-47.363,0.000
1709214820.566,-25.391,-52.734,-48.828,-53.223,0.000
1709214820.570,-31.250,-39.062,-40.527,-48.340,0.000
1709214820.574,-19.531,-32.227,-22.949,-35.156,0.000
1709214820.578,-15.625,-29.297,-22.461,-38.086,0.000
1709214820.582,-31.738,-37.109,-27.832,-39.062,0.000
1709214820.586,-35.645,-43.457,-33.203,-32.715,0.000
1709214820.590,-41.504,-37.109,-35.645,-36.133,0.000
1709214820.594,-39.551,-41.504,-35.645,-41.992,0.000
1709214820.598,-28.320,-50.781,-38.086,-43.945,0.000
1709214820.602,-30.273,-47.852,-36.133,-41.504,0.000
1709214820.605,-37.598,-45.898,-34.180,-47.363,0.000
1709214820.609,-37.109,-43.945,-30.762,-46.875,0.000
1709214820.613,-38.086,-50.293,-32.715,-44.434,0.000
1709214820.617,-41.016,-61.035,-45.410,-38.086,0.000
1709214820.621,-38.086,-54.688,-40.039,-41.504,0.000
1709214820.625,-34.668,-43.945,-25.879,-43.945,0.000
1709214820.629,-37.109,-49.805,-29.297,-30.273,0.000
1709214820.633,-41.016,-53.223,-32.715,-40.527,0.000
1709214820.637,-33.203,-48.828,-31.738,-48.828,0.000
1709214820.641,-22.949,-41.504,-35.156,-40.527,0.000
1709214820.645,-31.250,-35.645,-36.621,-42.969,0.000
1709214820.648,-38.574,-45.410,-40.527,-45.410,0.000
1709214820.652,-27.832,-48.828,-42.969,-41.016,0.000
1709214820.656,-19.531,-45.898,-37.598,-42.480,0.000
1709214820.660,-24.414,-46.387,-40.527,-41.504,0.000
1709214820.664,-29.785,-45.410,-36.133,-32.715,0.000
1709214820.668,-35.156,-47.363,-37.109,-29.297,0.000
1709214820.672,-30.762,-41.016,-47.363,-27.344,0.000
1709214820.676,-31.738,-43.945,-40.527,-29.785,0.000
1709214820.680,-35.645,-52.734,-34.668,-36.621,0.000
1709214820.684,-34.180,-55.176,-33.691,-38.574,0.000
1709214820.687,-37.109,-50.293,-33.203,-38.574,0.000
1709214820.691,-40.527,-45.410,-39.062,-35.645,0.000
1709214820.695,-41.016,-37.109,-38.086,-35.156,0.000
1709214820.699,-41.504,-35.645,-37.598,-38.086,0.000
1709214820.703,-50.781,-46.875,-43.457,-50.293,0.000
1709214820.707,-53.711,-58.594,-38.086,-49.316,0.000
1709214820.711,-46.387,-62.012,-32.227,-43.457,0.000
1709214820.715,-41.504,-42.480,-31.250,-43.945,0.000
1709214820.719,-39.062,-23.926,-32.227,-39.551,0.000
1709214820.723,-41.504,-30.762,-46.875,-45.410,0.000
1709214820.727,-48.340,-39.551,-51.270,-42.480,0.000
1709214820.730,-53.711,-42.969,-34.668,-39.062,0.000
1709214820.734,-51.270,-49.805,-32.715,-44.434,0.000
1709214820.738,-45.898,-48.828,-35.645,-47.852,0.000
1709214820.742,-48.340,-42.969,-31.250,-48.828,0.000
1709214820.746,-46.875,-40.039,-25.879,-43.945,0.000
1709214820.750,-44.922,-44.922,-23.926,-45.410,0.000
1709214820.754,-46.875,-56.152,-25.391,-41.504,0.000
1709214820.758,-43.457,-52.734,-35.645,-39.062,0.000
1709214820.762,-45.898,-46.875,-42.480,-33.203,0.000
1709214820.765,-43.945,-43.457,-43.457,-25.391,0.000
1709214820.769,-43.457,-48.340,-43.945,-37.598,0.000
1709214820.773,-34.668,-55.664,-37.598,-40.527,0.000
1709214820.777,-31.250,-42.480,-29.785,-37.598,0.000
1709214820.781,-39.551,-44.434,-30.762,-46.875,0.000
1709214820.785,-36.621,-51.758,-29.297,-41.016,0.000
1709214820.789,-37.109,-43.457,-29.785,-34.668,0.000
1709214820.793,-40.039,-47.852,-37.598,-38.086,0.000
1709214820.797,-35.645,-44.434,-36.133,-35.156,0.000
1709214820.801,-39.062,-39.062,-41.016,-34.668,0.000
1709214820.804,-48.340,-47.363,-49.805,-33.691,0.000
1709214820.808,-58.105,-62.988,-48.340,-30.762,0.000
1709214820.812,-55.664,-64.453,-40.527,-34.668,0.000
1709214820.816,-45.898,-45.410,-33.203,-50.293,0.000
1709214820.820,-43.945,-41.016,-27.832,-53.711,0.000
1709214820.824,-50.293,-47.363,-26.855,-50.293,0.000
1709214820.828,-55.176,-59.082,-31.738,-47.852,0.000
1709214820.832,-45.898,-56.641,-30.762,-39.551,0.000
1709214820.836,-41.016,-40.527,-30.273,-36.621,0.000
1709214820.839,-42.969,-38.574,-40.039,-42.969,0.000
1709214820.843,-41.992,-42.480,-44.922,-46.387,0.000
1709214820.847,-44.922,-41.504,-39.062,-50.293,0.000
1709214820.851,-41.992,-37.598,-38.574,-35.156,0.000
1709214820.855,-31.250,-39.062,-38.574,-24.902,0.000
1709214820.859,-35.645,-43.945,-40.527,-37.598,0.000
1709214820.863,-31.738,-31.738,-41.992,-37.598,0.000
1709214820.867,-29.785,-26.367,-30.273,-28.809,0.000
1709214820.871,-39.062,-46.875,-29.785,-37.598,0.000
1709214820.875,-31.738,-49.805,-34.668,-48.340,0.000
1709214820.879,-26.855,-58.594,-34.668,-39.551,0.000
1709214820.883,-36.133,-71.289,-35.156,-40.527,0.000
1709214820.886,-38.574,-45.898,-38.086,-37.109,0.000
1709214820.890,-28.809,-30.273,-27.344,-28.809,0.000
1709214820.894,-28.320,-32.227,-24.902,-31.738,0.000
1709214820.898,-28.320,-33.203,-40.527,-36.621,0.000
1709214820.902,-24.414,-29.297,-39.551,-36.621,0.000
1709214820.906,-33.203,-30.273,-42.969,-41.016,0.000
1709214820.910,-40.527,-39.551,-49.316,-37.598,0.000
1709214820.914,-37.109,-41.016,-41.992,-30.762,0.000
1709214820.918,-36.133,-41.992,-34.668,-40.527,0.000
1709214820.922,-36.621,-47.363,-33.203,-48.340,0.000
1709214820.926,-44.922,-53.223,-37.598,-47.852,0.000
1709214820.930,-47.363,-51.270,-37.598,-45.410,0.000
1709214820.933,-40.527,-46.875,-32.227,-43.457,0.000
1709214820.937,-34.668,-46.387,-30.273,-40.527,0.000
1709214820.941,-41.992,-40.527,-34.180,-46.387,0.000
1709214820.945,-46.875,-35.156,-39.551,-54.688,0.000
1709214820.949,-48.340,-50.293,-34.180,-48.828,0.000
1709214820.953,-50.293,-57.129,-39.551,-45.410,0.000
1709214820.957,-44.434,-41.016,-44.434,-37.109,0.000
1709214820.961,-44.922,-41.016,-41.016,-30.762,0.000
1709214820.965,-43.457,-40.527,-37.598,-41.016,0.000
1709214820.969,-40.527,-40.039,-23.438,-38.574,0.000
1709214820.973,-42.480,-48.828,-29.297,-31.738,0.000
1709214820.976,-46.875,-46.387,-42.480,-42.969,0.000
1709214820.980,-41.504,-52.246,-39.551,-43.945,0.000
1709214820.984,-41.016,-62.012,-27.832,-38.574,0.000
1709214820.988,-46.875,-52.246,-32.227,-35.645,0.000
1709214820.992,-45.410,-39.551,-38.574,-37.598,0.000
1709214820.996,-39.062,-38.086,-32.715,-46.875,0.000
1709214821.000,-34.668,-39.062,-31.738,-54.688,0.000
1709214821.004,-37.598,-36.133,-30.273,-41.992,0.000
1709214821.008,-40.039,-39.062,-38.574,-35.645,0.000
1709214821.012,-27.344,-44.434,-44.922,-41.016,0.000
1709214821.016,-19.043,-39.551,-37.598,-40.039,0.000
1709214821.019,-22.949,-36.133,-29.785,-40.039,0.000
1709214821.023,-24.414,-40.039,-38.086,-43.457,0.000
1709214821.027,-33.203,-37.109,-41.992,-48.340,0.000
1709214821.031,-33.203,-44.922,-30.762,-39.062,0.000
1709214821.035,-30.762,-57.617,-26.855,-34.180,0.000
1709214821.039,-38.086,-49.316,-39.062,-47.363,0.000
1709214821.043,-39.551,-35.645,-40.527,-52.246,0.000
1709214821.047,-37.598,-38.574,-31.738,-38.574,0.000
1709214821.051,-36.133,-49.316,-33.691,-28.809,0.000
1709214821.055,-34.668,-40.527,-40.039,-45.410,0.000
1709214821.059,-35.156,-31.738,-37.109,-47.363,0.000
1709214821.062,-44.922,-39.551,-27.344,-47.852,0.000
1709214821.067,-45.898,-43.457,-22.461,-43.945,0.000
1709214821.071,-46.875,-42.480,-27.832,-39.062,0.000
1709214821.074,-43.457,-34.668,-36.133,-37.109,0.000
1709214821.078,-33.691,-38.574,-28.809,-39.062,0.000
1709214821.082,-36.621,-50.781,-29.297,-49.805,0.000
1709214821.086,-47.852,-40.039,-36.133,-52.246,0.000
1709214821.090,-50.781,-43.945,-34.180,-54.688,0.000
1709214821.094,-34.668,-59.570,-32.715,-42.480,0.000
1709214821.098,-35.645,-53.223,-35.156,-42.969,0.000
1709214821.102,-46.875,-37.598,-42.969,-58.105,0.000
1709214821.106,-43.457,-32.227,-39.062,-53.223,0.000
1709214821.110,-41.992,-41.016,-33.691,-42.480,0.000
1709214821.113,-37.598,-42.480,-37.109,-37.109,0.000
1709214821.117,-29.785,-39.551,-39.062,-51.270,0.000
1709214821.121,-29.297,-39.062,-42.480,-59.082,0.000
1709214821.125,-29.297,-39.062,-44.434,-50.781,0.000
1709214821.129,-26.367,-47.363,-44.922,-35.156,0.000
1709214821.133,-18.555,-41.016,-32.227,-24.902,0.000
1709214821.137,-11.719,-37.598,-29.785,-34.180,0.000
1709214821.141,-15.137,-41.992,-31.738,-40.039,0.000
1709214821.145,-27.832,-46.387,-26.367,-40.039,0.000
1709214821.149,-41.504,-49.805,-32.715,-37.598,0.000
1709214821.152,-45.410,-41.504,-45.410,-28.320,0.000
1709214821.156,-42.969,-40.039,-41.504,-32.715,0.000
1709214821.160,-34.180,-41.992,-33.691,-40.039,0.000
1709214821.164,-34.180,-40.527,-33.203,-44.434,0.000
1709214821.168,-41.504,-44.434,-32.715,-50.781,0.000
1709214821.172,-33.203,-54.688,-37.109,-44.922,0.000
1709214821.176,-26.855,-49.805,-33.691,-36.133,0.000
1709214821.180,-33.203,-38.574,-28.809,-28.320,0.000
1709214821.184,-33.691,-36.133,-29.785,-19.531,0.000
1709214821.187,-37.598,-40.527,-28.320,-22.461,0.000
1709214821.191,-40.039,-49.805,-29.785,-28.809,0.000
1709214821.195,-39.551,-51.758,-36.621,-34.180,0.000
1709214821.199,-41.504,-46.387,-37.109,-40.039,0.000
1709214821.203,-40.527,-41.016,-31.738,-44.922,0.000
1709214821.207,-42.969,-48.340,-31.738,-51.270,0.000
1709214821.211,-43.945,-55.176,-31.738,-49.805,0.000
1709214821.215,-35.156,-46.875,-36.621,-49.805,0.000
1709214821.219,-31.738,-46.875,-40.039,-51.270,0.000
1709214821.222,-38.574,-51.758,-38.086,-45.410,0.000
1709214821.226,-41.504,-46.875,-32.715,-36.133,0.000
1709214821.230,-40.527,-36.133,-33.203,-32.227,0.000
1709214821.234,-32.227,-33.203,-36.621,-41.504,0.000
1709214821.238,-27.344,-39.062,-30.762,-46.387,0.000
1709214821.242,-34.180,-38.574,-37.109,-41.504,0.000
1709214821.246,-47.363,-41.016,-40.039,-46.387,0.000
1709214821.250,-52.246,-51.758,-34.668,-58.594,0.000
1709214821.254,-38.574,-41.504,-37.598,-59.570,0.000
1709214821.258,-28.809,-26.855,-40.039,-59.082,0.000
1709214821.262,-33.691,-38.574,-46.387,-62.012,0.000
1709214821.266,-30.762,-44.434,-44.434,-61.035,0.000
1709214821.269,-25.879,-40.527,-39.551,-55.176,0.000
1709214821.273,-35.645,-46.875,-44.434,-55.664,0.000
1709214821.277,-36.621,-40.527,-42.969,-54.688,0.000
1709214821.281,-27.832,-39.551,-35.645,-53.711,0.000
1709214821.285,-30.762,-57.129,-34.668,-53.711,0.000
1709214821.289,-33.203,-52.246,-41.992,-41.016,0.000
1709214821.293,-24.414,-38.086,-37.109,-30.762,0.000
1709214821.297,-22.949,-37.598,-29.297,-30.273,0.000
1709214821.301,-22.949,-45.410,-32.227,-29.785,0.000
1709214821.305,-33.203,-53.711,-36.133,-36.621,0.000
1709214821.309,-40.527,-42.969,-41.016,-34.180,0.000
1709214821.313,-32.715,-43.945,-39.551,-34.668,0.000
1709214821.316,-32.715,-53.223,-41.016,-43.945,0.000
1709214821.320,-30.273,-44.434,-40.039,-44.922,0.000
1709214821.324,-30.273,-35.645,-35.156,-41.016,0.000
1709214821.328,-37.598,-41.992,-34.668,-38.086,0.000
1709214821.332,-37.598,-58.105,-40.039,-33.203,0.000
1709214821.336,-28.809,-53.711,-45.410,-21.484,0.000
1709214821.340,-30.273,-46.875,-41.016,-37.109,0.000
1709214821.344,-46.875,-49.805,-34.180,-55.664,0.000
1709214821.348,0.000,-46.875,-34.668,-47.363,0.000
1709214821.352,0.000,-46.387,-43.457,-50.293,0.000
1709214821.356,0.000,-49.316,-39.551,-53.711,0.000
1709214821.359,0.000,-48.828,-37.109,-54.199,0.000
1709214821.363,0.000,-40.039,-39.551,-54.688,0.000
1709214821.367,0.000,-37.598,-36.133,-51.758,0.000
1709214821.371,0.000,-40.527,-40.039,-50.781,0.000
1709214821.375,0.000,-44.922,-47.363,-44.434,0.000
1709214821.379,0.000,-50.293,-39.551,-36.133,0.000
1709214821.383,0.000,-50.781,-37.109,-44.434,0.000
1709214821.387,0.000,-49.805,-41.504,-54.688,0.000
1709214821.391,0.000,-43.945,-31.738,-46.875,0.000
1709214821.395,-30.273,-42.969,-24.902,-39.062,0.000
1709214821.399,-22.461,-41.504,-26.367,-42.480,0.000
1709214821.402,-26.367,-40.527,-31.738,-44.434,0.000
1709214821.406,-28.320,-46.875,-33.691,-33.691,0.000
1709214821.410,-27.344,-42.969,-35.156,-29.785,0.000
1709214821.414,-25.391,-42.969,-33.691,-27.344,0.000
1709214821.418,-21.484,-48.340,-33.691,-25.879,0.000
1709214821.422,-20.508,-47.363,-38.086,-23.438,0.000
1709214821.426,-28.320,-41.016,-40.527,-22.461,0.000
1709214821.430,-30.762,-38.574,-44.922,-29.297,0.000
1709214821.434,-23.438,-33.203,-37.598,-23.438,0.000
1709214821.438,-22.949,-38.086,-37.109,-22.461,0.000
1709214821.441,-31.250,-47.852,-41.504,-32.715,0.000
1709214821.445,-39.551,-43.457,-41.504,-40.039,0.000
1709214821.449,-36.133,-52.246,-47.363,-41.992,0.000
1709214821.453,-25.391,-57.129,-38.574,-40.039,0.000
1709214821.457,-25.391,-36.621,-26.367,-35.645,0.000
1709214821.461,-31.738,-30.273,-30.762,-36.133,0.000
1709214821.465,-41.992,-45.410,-42.969,-46.875,0.000
1709214821.469,-44.434,-51.758,-41.992,-33.203,0.000
1709214821.473,-41.504,-56.641,-43.945,-29.297,0.000
1709214821.477,-37.109,-58.594,-39.062,-43.457,0.000
1709214821.481,-38.086,-50.781,-34.668,-46.387,0.000
1709214821.484,-51.270,-50.781,-41.016,-50.781,0.000
1709214821.488,-53.711,-54.199,-45.898,-54.688,0.000
1709214821.492,-32.715,-48.340,-41.504,-48.340,0.000
1709214821.496,-29.297,-45.410,-36.621,-40.039,0.000
1709214821.500,-37.109,-48.340,-40.527,-42.480,0.000
1709214821.504,-39.062,-44.434,-45.410,-49.316,0.000
1709214821.508,-43.945,-41.504,-43.945,-55.176,0.000
1709214821.512,-44.922,-39.551,-48.828,-57.129,0.000
1709214821.516,-44.434,-46.875,-47.852,-47.852,0.000
1709214821.520,-35.645,-54.199,-35.645,-40.527,0.000
1709214821.523,-34.180,-36.621,-33.203,-40.527,0.000
1709214821.527,-47.363,-26.855,-37.109,-46.387,0.000
1709214821.531,-42.969,-36.133,-43.945,-45.898,0.000
