timestamps,TP9,AF7,AF8,TP10,Right AUX
1709214917.028,-44.922,-41.016,-39.551,-53.223,0.000
1709214917.032,-56.641,-41.992,-46.387,-53.711,0.000
1709214917.036,-39.551,-42.969,-49.316,-33.691,0.000
1709214917.040,-14.160,-39.551,-35.645,-20.996,0.000
1709214917.044,-19.043,-35.156,-27.344,-24.902,0.000
1709214917.048,-49.805,-48.828,-37.598,-53.223,0.000
1709214917.051,-52.246,-55.176,-35.645,-60.547,0.000
1709214917.055,-40.039,-41.504,-35.645,-45.410,0.000
1709214917.059,-36.133,-34.180,-43.457,-33.203,0.000
1709214917.063,-35.645,-40.039,-38.086,-24.414,0.000
1709214917.067,-55.176,-38.574,-35.156,-34.668,0.000
1709214917.071,-65.430,-41.504,-38.086,-52.734,0.000
1709214917.075,-40.527,-39.062,-33.203,-39.551,0.000
1709214917.079,-24.414,-39.062,-35.156,-24.902,0.000
1709214917.083,-30.762,-44.434,-45.410,-35.156,0.000
1709214917.087,-34.668,-44.434,-39.551,-52.734,0.000
1709214917.091,-41.016,-46.387,-30.273,-62.500,0.000
1709214917.095,-37.598,-38.086,-37.598,-45.898,0.000
1709214917.098,-28.320,-36.621,-39.551,-28.320,0.000
1709214917.102,-30.762,-37.109,-34.668,-30.762,0.000
1709214917.106,-45.898,-43.945,-38.574,-49.316,0.000
1709214917.110,-57.617,-47.363,-35.156,-53.711,0.000
1709214917.114,-47.852,-37.109,-22.949,-35.156,0.000
1709214917.118,-25.391,-40.039,-27.832,-20.508,0.000
1709214917.122,-24.902,-42.969,-33.203,-19.043,0.000
1709214917.126,-44.434,-39.062,-38.574,-39.062,0.000
1709214917.130,-50.781,-37.598,-41.504,-52.734,0.000
1709214917.134,-43.457,-40.039,-37.598,-46.387,0.000
1709214917.138,-31.738,-40.039,-36.133,-25.879,0.000
1709214917.142,-21.484,-25.879,-28.320,-10.742,0.000
1709214917.145,-27.344,-24.902,-27.344,-26.855,0.000
1709214917.149,-36.621,-35.645,-34.668,-48.340,0.000
1709214917.153,-32.227,-42.969,-31.738,-41.504,0.000
1709214917.157,-16.113,-38.574,-30.762,-10.254,0.000
1709214917.161,-9.766,-26.855,-32.715,-10.742,0.000
1709214917.165,-28.320,-47.852,-40.039,-40.039,0.000
1709214917.169,-46.387,-60.059,-44.434,-62.988,0.000
1709214917.173,-42.480,-41.016,-37.109,-60.059,0.000
1709214917.177,-28.320,-28.320,-36.621,-43.945,0.000
1709214917.181,-28.809,-37.109,-36.133,-38.574,0.000
1709214917.185,-27.344,-35.645,-29.297,-38.086,0.000
1709214917.189,-41.504,-40.527,-43.945,-56.152,0.000
1709214917.192,-54.688,-50.293,-46.875,-57.617,0.000
1709214917.196,-36.621,-51.758,-30.273,-33.203,0.000
1709214917.200,-22.949,-48.828,-30.762,-18.555,0.000
1709214917.204,-39.062,-47.363,-38.574,-38.086,0.000
1709214917.208,-59.082,-53.223,-45.410,-68.359,0.000
1709214917.212,-61.035,-54.688,-45.898,-66.406,0.000
1709214917.216,-45.410,-56.641,-38.086,-45.898,0.000
1709214917.220,-31.738,-57.129,-41.504,-38.574,0.000
1709214917.224,-35.645,-42.480,-43.457,-45.410,0.000
1709214917.228,-46.875,-30.762,-32.715,-53.711,0.000
1709214917.231,-57.129,-37.598,-36.133,-62.012,0.000
1709214917.235,-40.039,-41.992,-32.715,-46.875,0.000
1709214917.239,-25.391,-46.387,-38.574,-38.086,0.000
1709214917.243,-28.809,-46.875,-42.480,-39.551,0.000
1709214917.247,-44.922,-43.457,-32.227,-40.527,0.000
1709214917.251,-58.105,-41.016,-25.879,-57.617,0.000
1709214917.255,-39.551,-45.898,-22.949,-55.664,0.000
1709214917.259,-24.414,-56.641,-36.621,-44.922,0.000
1709214917.263,-37.598,-48.340,-47.852,-47.363,0.000
1709214917.267,-51.758,-34.180,-35.645,-58.594,0.000
1709214917.270,-49.316,-28.320,-24.414,-62.988,0.000
1709214917.274,-39.062,-28.809,-34.180,-45.898,0.000
1709214917.278,-27.832,-45.410,-41.992,-29.785,0.000
1709214917.282,-22.461,-54.688,-36.133,-25.879,0.000
1709214917.286,-32.715,-46.875,-35.156,-39.062,0.000
1709214917.290,-51.270,-43.457,-46.387,-59.570,0.000
1709214917.294,-56.641,-48.828,-42.480,-53.223,0.000
1709214917.298,-32.227,-45.898,-32.715,-31.250,0.000
1709214917.302,-35.645,-42.480,-39.062,-32.715,0.000
1709214917.306,-56.152,-43.457,-43.945,-55.664,0.000
1709214917.309,-59.082,-45.898,-38.574,-60.547,0.000
1709214917.313,-49.316,-42.480,-38.086,-47.363,0.000
1709214917.317,-30.762,-34.180,-42.480,-25.391,0.000
1709214917.321,-24.902,-37.598,-47.363,-21.973,0.000
1709214917.325,-39.062,-45.410,-47.363,-44.922,0.000
1709214917.329,-59.570,-45.410,-42.480,-58.105,0.000
1709214917.333,-57.617,-48.340,-40.039,-42.480,0.000
1709214917.337,-35.645,-46.875,-46.387,-14.160,0.000
1709214917.341,-27.832,-40.039,-45.410,-11.719,0.000
1709214917.345,-40.527,-42.480,-32.715,-26.855,0.000
1709214917.348,-59.570,-51.270,-37.598,-41.992,0.000
1709214917.352,-58.594,-56.152,-47.363,-40.039,0.000
1709214917.356,-38.574,-53.711,-40.527,-24.902,0.000
1709214917.360,-23.438,-47.363,-33.203,-13.184,0.000
1709214917.364,-27.344,-37.109,-33.203,-22.461,0.000
1709214917.368,-46.875,-37.598,-35.645,-48.340,0.000
1709214917.372,-57.129,-46.875,-34.668,-54.688,0.000
1709214917.376,-45.898,-53.223,-36.133,-41.016,0.000
1709214917.380,-34.180,-56.152,-36.133,-23.926,0.000
1709214917.383,-42.969,-46.875,-36.133,-31.250,0.000
1709214917.387,-62.012,-41.016,-41.504,-63.477,0.000
1709214917.391,-62.500,-41.992,-45.898,-65.430,0.000
1709214917.395,-41.504,-43.457,-37.109,-35.156,0.000
1709214917.399,-30.273,-61.035,-34.180,-21.973,0.000
1709214917.403,-31.738,-59.570,-37.598,-34.180,0.000
1709214917.407,-45.898,-46.875,-34.180,-49.316,0.000
1709214917.411,-54.688,-46.875,-29.785,-53.223,0.000
1709214917.415,-44.434,-44.434,-34.180,-45.898,0.000
1709214917.418,-24.902,-43.945,-42.969,-28.809,0.000
1709214917.422,-15.625,-44.922,-31.738,-18.066,0.000
1709214917.426,-35.645,-51.758,-41.992,-39.062,0.000
1709214917.430,-55.176,-48.828,-50.781,-58.105,0.000
1709214917.434,-45.898,-43.945,-41.016,-50.781,0.000
1709214917.438,-30.273,-53.223,-47.363,-27.344,0.000
1709214917.442,-24.902,-54.199,-50.293,-14.160,0.000
1709214917.446,-39.062,-52.734,-41.992,-39.551,0.000
1709214917.450,-54.199,-43.457,-39.062,-57.129,0.000
1709214917.454,-39.062,-36.133,-41.992,-43.945,0.000
1709214917.458,-14.160,-41.016,-40.527,-20.508,0.000
1709214917.462,-9.277,-34.180,-40.527,-11.230,0.000
1709214917.465,-22.949,-28.809,-44.434,-31.250,0.000
1709214917.469,-42.969,-39.551,-35.156,-49.316,0.000
1709214917.473,-42.969,-52.734,-31.738,-45.410,0.000
1709214917.477,-20.020,-48.828,-40.527,-26.367,0.000
1709214917.481,-9.766,-40.039,-39.551,-14.160,0.000
1709214917.485,-24.902,-38.086,-29.785,-31.250,0.000
1709214917.489,-41.992,-41.992,-39.551,-53.711,0.000
1709214917.493,-44.922,-49.805,-42.480,-49.805,0.000
1709214917.497,-36.133,-44.434,-32.227,-38.086,0.000
1709214917.501,-40.527,-47.363,-37.109,-27.832,0.000
1709214917.505,-55.664,-47.363,-36.133,-40.039,0.000
1709214917.509,-64.453,-36.621,-28.320,-63.477,0.000
1709214917.513,-66.406,-45.898,-32.715,-60.547,0.000
1709214917.517,-53.711,-63.965,-42.480,-43.945,0.000
1709214917.520,-36.621,-54.688,-39.551,-28.809,0.000
1709214917.524,-41.016,-42.969,-39.062,-39.551,0.000
1709214917.528,-58.105,-52.246,-39.551,-63.477,0.000
1709214917.532,-57.129,-57.129,-33.203,-59.082,0.000
1709214917.536,-40.527,-53.223,-39.551,-44.434,0.000
1709214917.540,-33.203,-50.293,-49.316,-41.992,0.000
1709214917.544,-38.574,-44.922,-35.645,-38.086,0.000
1709214917.548,-56.152,-48.340,-22.461,-41.504,0.000
1709214917.552,-65.918,-50.781,-21.484,-48.340,0.000
1709214917.556,-42.969,-52.734,-15.137,-29.785,0.000
1709214917.560,-21.484,-49.805,-19.043,-4.395,0.000
1709214917.563,-25.391,-47.363,-29.297,-12.207,0.000
1709214917.567,-40.039,-48.340,-31.738,-37.598,0.000
1709214917.571,-46.387,-49.805,-32.227,-48.828,0.000
1709214917.575,-39.551,-41.992,-35.156,-36.133,0.000
1709214917.579,-23.438,-38.086,-33.691,-17.090,0.000
1709214917.583,-22.949,-49.316,-31.738,-27.832,0.000
1709214917.587,-38.574,-41.992,-37.109,-48.340,0.000
1709214917.591,-48.828,-43.457,-41.504,-51.758,0.000
1709214917.595,-42.480,-48.828,-34.668,-41.016,0.000
1709214917.599,-26.855,-42.480,-36.133,-34.180,0.000
1709214917.602,-21.484,-39.551,-37.598,-34.180,0.000
1709214917.606,-32.227,-38.086,-33.203,-41.504,0.000
1709214917.610,-56.641,-49.316,-41.992,-63.965,0.000
1709214917.614,-55.664,-52.246,-42.969,-65.918,0.000
1709214917.618,-34.668,-48.828,-34.668,-41.504,0.000
1709214917.622,-31.250,-44.922,-34.180,-26.855,0.000
1709214917.626,-50.293,-46.387,-44.922,-51.270,0.000
1709214917.630,-65.430,-53.711,-37.598,-68.359,0.000
1709214917.634,-59.082,-40.527,-28.320,-53.711,0.000
1709214917.638,-37.598,-27.344,-32.227,-33.203,0.000
1709214917.641,-20.996,-33.691,-32.715,-19.531,0.000
1709214917.645,-41.016,-45.898,-37.598,-42.480,0.000
1709214917.649,-58.594,-49.316,-41.016,-67.871,0.000
1709214917.653,-51.758,-56.152,-36.133,-55.176,0.000
1709214917.657,-34.180,-56.152,-33.203,-31.738,0.000
1709214917.661,-21.973,-48.340,-37.598,-23.926,0.000
1709214917.665,-38.086,-52.246,-41.016,-37.598,0.000
1709214917.669,-63.477,-58.105,-35.645,-54.199,0.000
1709214917.673,-57.617,-49.316,-35.645,-54.199,0.000
1709214917.677,-38.086,-39.551,-43.945,-37.598,0.000
1709214917.681,-32.715,-42.969,-44.922,-29.297,0.000
1709214917.684,-39.551,-51.270,-51.270,-39.062,0.000
1709214917.688,-50.293,-54.688,-52.246,-50.781,0.000
1709214917.692,-47.852,-51.270,-49.805,-54.688,0.000
1709214917.696,-35.645,-48.828,-54.199,-37.598,0.000
1709214917.700,-28.809,-55.664,-44.434,-26.367,0.000
1709214917.704,-24.902,-52.734,-36.133,-33.691,0.000
1709214917.708,-29.785,-47.852,-34.180,-36.621,0.000
1709214917.712,-37.598,-49.316,-39.551,-28.809,0.000
1709214917.716,-26.367,-41.504,-41.504,-22.949,0.000
1709214917.720,-17.578,-39.551,-39.551,-14.160,0.000
1709214917.723,-14.648,-42.969,-41.504,-10.742,0.000
1709214917.727,-21.973,-39.062,-44.434,-28.809,0.000
1709214917.731,-33.691,-46.387,-45.410,-40.527,0.000
1709214917.735,-24.414,-47.363,-41.992,-22.949,0.000
1709214917.739,-12.695,-35.645,-35.645,-8.789,0.000
1709214917.743,-17.578,-42.480,-35.645,-26.855,0.000
1709214917.747,-35.156,-61.035,-36.621,-42.969,0.000
1709214917.751,-51.270,-59.082,-40.527,-47.363,0.000
1709214917.755,-47.852,-45.410,-37.109,-36.133,0.000
1709214917.758,-28.320,-46.387,-25.391,-9.766,0.000
1709214917.762,-25.879,-42.480,-27.832,-15.625,0.000
1709214917.766,-46.387,-41.504,-31.250,-40.039,0.000
1709214917.770,-57.617,-46.387,-32.715,-49.316,0.000
1709214917.774,-49.316,-43.457,-30.762,-43.945,0.000
1709214917.778,-37.109,-46.387,-32.715,-32.227,0.000
1709214917.782,-36.133,-47.852,-37.598,-26.367,0.000
1709214917.786,-54.688,-51.270,-34.668,-45.410,0.000
1709214917.790,-62.500,-53.711,-32.227,-59.082,0.000
1709214917.793,-53.223,-43.945,-37.109,-50.293,0.000
1709214917.797,-43.945,-41.016,-37.598,-36.621,0.000
1709214917.801,-41.504,-40.039,-39.062,-33.691,0.000
1709214917.805,-55.176,-45.410,-43.457,-48.340,0.000
1709214917.809,-66.895,-49.805,-48.828,-68.848,0.000
1709214917.813,-59.082,-48.828,-42.969,-52.246,0.000
1709214917.817,-42.480,-61.523,-38.086,-22.949,0.000
1709214917.821,-33.203,-50.293,-50.781,-34.668,0.000
1709214917.825,0.000,-40.039,-45.898,-55.664,0.000
1709214917.829,0.000,-39.062,-33.203,-62.988,0.000
1709214917.833,0.000,-33.691,-32.227,-46.875,0.000
1709214917.837,0.000,-47.363,-38.086,-33.691,0.000
1709214917.840,0.000,-55.176,-45.898,-36.133,0.000
1709214917.844,0.000,-46.387,-41.992,-46.875,0.000
1709214917.848,0.000,-49.805,-35.156,-62.500,0.000
1709214917.852,0.000,-50.293,-38.086,-63.477,0.000
1709214917.856,0.000,-49.805,-39.062,-45.898,0.000
1709214917.860,0.000,-59.082,-41.016,-27.832,0.000
1709214917.864,0.000,-49.805,-48.828,-42.969,0.000
1709214917.868,0.000,-27.344,-42.969,-66.895,0.000
1709214917.872,-53.711,-33.691,-38.574,-59.570,0.000
1709214917.876,-33.203,-41.992,-45.410,-41.016,0.000
1709214917.880,-19.043,-40.527,-48.828,-29.297,0.000
1709214917.884,-17.578,-47.363,-34.668,-25.391,0.000
1709214917.887,-31.250,-47.852,-27.832,-38.574,0.000
1709214917.891,-41.016,-41.992,-34.668,-47.852,0.000
1709214917.895,-23.438,-38.086,-37.598,-29.785,0.000
1709214917.899,-3.906,-53.711,-41.016,-19.531,0.000
1709214917.903,-15.137,-64.453,-40.039,-29.785,0.000
1709214917.907,-40.039,-48.828,-44.434,-40.039,0.000
1709214917.911,-50.293,-48.828,-43.457,-47.852,0.000
1709214917.915,-36.133,-48.828,-39.551,-33.691,0.000
1709214917.919,-23.438,-41.992,-35.645,-18.555,0.000
1709214917.923,-32.715,-47.852,-31.738,-27.344,0.000
1709214917.927,-46.387,-52.246,-25.879,-48.828,0.000
1709214917.931,-54.199,-52.246,-27.344,-65.430,0.000
1709214917.934,-45.410,-45.898,-37.109,-51.270,0.000
1709214917.938,-30.762,-53.223,-40.039,-32.227,0.000
1709214917.942,-23.926,-51.270,-38.086,-28.320,0.000
1709214917.946,-37.598,-37.109,-34.180,-41.992,0.000
1709214917.950,-59.570,-45.410,-33.203,-61.035,0.000
1709214917.954,-50.781,-52.734,-30.273,-45.898,0.000
1709214917.958,-28.320,-45.898,-28.320,-27.832,0.000
1709214917.962,-37.109,-51.270,-37.598,-35.645,0.000
1709214917.966,-59.082,-63.477,-47.852,-60.547,0.000
1709214917.970,-67.871,-55.664,-55.664,-74.219,0.000
1709214917.974,-61.035,-53.711,-46.875,-60.547,0.000
1709214917.978,-47.363,-67.383,-41.992,-39.062,0.000
1709214917.982,-35.645,-66.895,-45.410,-35.156,0.000
1709214917.986,-42.969,-49.805,-46.875,-47.363,0.000
1709214917.990,-59.082,-42.969,-46.387,-60.547,0.000
1709214917.993,-57.129,-44.922,-48.828,-59.570,0.000
1709214917.997,-45.410,-42.480,-52.246,-33.691,0.000
1709214918.001,-40.039,-42.480,-44.434,-25.391,0.000
1709214918.005,-46.875,-48.828,-40.039,-42.480,0.000
1709214918.009,-62.500,-42.969,-47.852,-65.918,0.000
1709214918.013,-65.918,-39.062,-47.852,-69.824,0.000
1709214918.017,-38.086,-47.852,-45.410,-43.945,0.000
1709214918.021,-26.367,-47.363,-41.992,-32.227,0.000
1709214918.025,-43.945,-49.805,-42.480,-45.898,0.000
1709214918.029,-55.664,-52.246,-45.898,-70.801,0.000
1709214918.032,-56.152,-43.945,-44.922,-67.871,0.000
1709214918.036,-35.156,-39.551,-35.645,-38.086,0.000
1709214918.040,-22.949,-43.945,-30.762,-19.531,0.000
1709214918.044,-34.180,-50.293,-37.598,-28.809,0.000
1709214918.048,-42.480,-46.875,-41.504,-49.316,0.000
1709214918.052,-42.969,-41.016,-38.086,-50.293,0.000
1709214918.056,-36.133,-40.039,-36.621,-21.973,0.000
1709214918.060,-29.785,-48.340,-40.527,-16.602,0.000
1709214918.064,-34.668,-47.852,-43.457,-30.762,0.000
1709214918.068,-45.410,-42.480,-42.480,-43.457,0.000
1709214918.071,-45.898,-40.039,-47.852,-52.246,0.000
1709214918.075,-28.809,-31.738,-36.133,-26.855,0.000
1709214918.079,-15.137,-28.809,-24.902,-5.371,0.000
1709214918.083,-22.461,-43.945,-35.156,-18.066,0.000
1709214918.087,-36.133,-49.316,-30.762,-30.273,0.000
1709214918.091,-47.852,-38.574,-28.809,-39.062,0.000
1709214918.095,-36.621,-41.992,-41.016,-28.809,0.000
1709214918.099,-15.137,-48.340,-39.062,-9.766,0.000
1709214918.103,-22.949,-47.852,-32.227,-20.508,0.000
1709214918.106,-39.551,-41.992,-31.250,-38.086,0.000
1709214918.110,-44.922,-41.992,-30.273,-41.504,0.000
1709214918.114,-48.828,-41.992,-33.691,-42.969,0.000
1709214918.118,-36.133,-34.180,-38.574,-27.344,0.000
1709214918.122,-30.273,-35.156,-41.992,-23.926,0.000
1709214918.126,-41.992,-41.016,-39.551,-43.945,0.000
1709214918.130,-50.293,-32.715,-29.785,-47.363,0.000
1709214918.134,-49.316,-33.691,-35.156,-41.504,0.000
1709214918.138,-36.621,-45.898,-49.805,-31.250,0.000
1709214918.142,-27.832,-44.922,-42.480,-24.902,0.000
1709214918.145,-29.785,-30.762,-33.203,-35.645,0.000
1709214918.149,-41.992,-30.273,-36.621,-45.898,0.000
1709214918.153,-46.387,-37.109,-31.250,-46.875,0.000
1709214918.157,-31.738,-35.156,-36.133,-29.297,0.000
1709214918.161,-22.461,-31.738,-40.039,-19.531,0.000
1709214918.165,-28.320,-30.762,-38.574,-28.809,0.000
1709214918.169,-37.109,-25.391,-43.457,-39.062,0.000
1709214918.173,-43.457,-27.832,-43.457,-44.434,0.000
1709214918.176,-30.762,-37.598,-38.086,-24.414,0.000
1709214918.180,-19.531,-39.551,-33.691,-9.766,0.000
1709214918.184,-35.645,-51.758,-38.086,-31.250,0.000
1709214918.188,-44.922,-53.223,-45.898,-48.828,0.000
1709214918.192,-41.992,-49.805,-41.992,-39.062,0.000
1709214918.196,-29.785,-47.852,-32.715,-15.625,0.000
1709214918.200,-22.949,-46.875,-35.645,-5.371,0.000
1709214918.204,-28.809,-45.898,-34.180,-17.090,0.000
1709214918.208,-45.410,-41.016,-27.832,-30.273,0.000
1709214918.212,-56.641,-42.969,-34.668,-41.016,0.000
1709214918.216,-42.969,-49.316,-39.062,-31.250,0.000
1709214918.220,-27.832,-58.105,-37.109,-11.230,0.000
1709214918.224,-28.320,-57.617,-42.480,-9.277,0.000
1709214918.227,-40.039,-47.363,-40.527,-38.086,0.000
1709214918.231,-40.527,-37.109,-27.832,-43.457,0.000
1709214918.235,-30.273,-36.133,-22.461,-27.344,0.000
1709214918.239,-20.996,-41.992,-38.086,-18.555,0.000
1709214918.243,-20.996,-46.875,-45.898,-21.973,0.000
1709214918.247,-34.668,-45.898,-42.969,-40.039,0.000
1709214918.251,-52.246,-46.875,-44.434,-56.641,0.000
1709214918.255,-50.293,-50.293,-40.039,-50.293,0.000
1709214918.259,-41.016,-53.223,-41.504,-34.668,0.000
1709214918.263,-37.109,-60.547,-39.062,-37.109,0.000
1709214918.267,-46.875,-59.082,-30.273,-56.641,0.000
1709214918.271,-56.641,-47.852,-37.109,-62.012,0.000
1709214918.274,-44.922,-38.086,-56.641,-50.293,0.000
1709214918.278,-24.414,-35.156,-50.781,-33.691,0.000
1709214918.282,-22.461,-45.898,-32.715,-23.926,0.000
1709214918.286,-37.109,-51.270,-27.832,-36.621,0.000
1709214918.290,-50.781,-42.480,-32.715,-57.129,0.000
1709214918.294,-51.758,-44.922,-36.133,-55.664,0.000
1709214918.298,-32.227,-47.852,-27.344,-37.109,0.000
1709214918.302,-23.438,-43.457,-27.832,-28.809,0.000
1709214918.306,-35.156,-37.109,-31.738,-35.156,0.000
1709214918.310,-49.805,-37.598,-27.344,-49.805,0.000
1709214918.314,-47.363,-50.293,-36.133,-47.852,0.000
1709214918.317,-27.832,-45.410,-36.133,-25.391,0.000
1709214918.321,-27.344,-22.949,-27.344,-19.043,0.000
1709214918.325,-40.527,-29.297,-40.039,-27.832,0.000
1709214918.329,-56.641,-48.340,-43.457,-40.039,0.000
1709214918.333,-53.223,-61.035,-31.250,-42.480,0.000
1709214918.337,-26.367,-56.152,-23.438,-19.043,0.000
1709214918.341,-22.461,-42.480,-23.438,-7.812,0.000
1709214918.345,-32.227,-43.457,-34.180,-24.414,0.000
1709214918.349,-43.945,-52.734,-36.133,-45.410,0.000
1709214918.353,-51.270,-58.105,-41.016,-51.758,0.000
1709214918.357,-40.527,-54.199,-41.992,-39.062,0.000
1709214918.360,-26.855,-48.828,-36.133,-25.879,0.000
1709214918.364,-28.809,-53.223,-38.086,-32.227,0.000
1709214918.368,-39.551,-58.105,-37.598,-50.293,0.000
1709214918.372,-44.434,-52.246,-30.762,-46.875,0.000
1709214918.376,-27.832,-38.574,-35.645,-34.180,0.000
1709214918.380,-12.207,-35.645,-52.246,-28.809,0.000
1709214918.384,-28.320,-45.898,-42.969,-41.504,0.000
1709214918.388,0.000,-44.434,-30.762,-60.547,0.000
1709214918.392,0.000,-38.086,-33.203,-55.176,0.000
1709214918.396,0.000,-33.691,-31.250,-34.668,0.000
1709214918.399,0.000,-34.180,-34.180,-27.344,0.000
1709214918.403,0.000,-42.969,-34.180,-33.203,0.000
1709214918.407,0.000,-39.062,-27.832,-44.434,0.000
1709214918.411,0.000,-38.574,-34.668,-57.617,0.000
1709214918.415,0.000,-49.316,-40.527,-47.852,0.000
1709214918.419,0.000,-42.480,-38.574,-23.926,0.000
1709214918.423,0.000,-38.086,-36.621,-26.855,0.000
1709214918.427,0.000,-42.969,-36.621,-47.363,0.000
1709214918.431,0.000,-44.922,-31.250,-53.711,0.000
1709214918.435,-29.785,-42.480,-31.738,-32.227,0.000
1709214918.438,-23.926,-40.527,-38.086,-20.020,0.000
1709214918.442,-26.367,-46.875,-34.668,-20.020,0.000
1709214918.446,-33.203,-57.129,-34.668,-30.273,0.000
1709214918.450,-51.758,-49.805,-37.598,-41.504,0.000
1709214918.454,-53.223,-43.945,-42.480,-31.250,0.000
1709214918.458,-28.809,-50.293,-42.480,-14.160,0.000
1709214918.462,-16.602,-58.594,-29.297,-2.930,0.000
1709214918.466,-31.738,-63.477,-26.367,-20.020,0.000
1709214918.470,-47.852,-48.340,-38.574,-44.922,0.000
1709214918.474,-43.945,-43.457,-38.086,-39.062,0.000
1709214918.477,-29.785,-44.922,-38.574,-21.973,0.000
1709214918.481,-26.855,-49.805,-41.992,-33.691,0.000
1709214918.485,-36.133,-49.805,-30.762,-57.617,0.000
1709214918.489,-49.805,-36.621,-32.715,-68.359,0.000
1709214918.493,-43.457,-32.715,-39.551,-55.664,0.000
1709214918.497,-27.832,-36.621,-42.969,-35.156,0.000
1709214918.501,-18.555,-41.504,-42.969,-35.156,0.000
1709214918.505,-27.832,-45.898,-38.086,-49.316,0.000
1709214918.509,-49.805,-54.199,-46.387,-65.918,0.000
1709214918.512,-50.293,-59.082,-49.805,-64.453,0.000
1709214918.516,-28.809,-60.059,-38.086,-38.086,0.000
1709214918.520,-18.066,-53.223,-37.109,-27.344,0.000
1709214918.524,-35.645,-38.574,-39.062,-39.551,0.000
1709214918.528,0.000,-31.250,-43.945,-58.105,0.000
1709214918.532,0.000,-29.297,-45.410,-58.105,0.000
1709214918.536,0.000,-32.715,-34.180,-40.039,0.000
1709214918.540,0.000,-39.551,-36.133,-29.297,0.000
1709214918.544,0.000,-44.434,-39.062,-29.785,0.000
1709214918.547,0.000,-50.781,-36.621,-41.992,0.000
1709214918.551,0.000,-49.316,-35.645,-43.945,0.000
1709214918.555,0.000,-41.016,-36.621,-27.832,0.000
1709214918.559,0.000,-51.758,-33.691,-15.625,0.000
1709214918.563,0.000,-61.035,-34.180,-22.461,0.000
1709214918.567,0.000,-47.852,-39.062,-33.203,0.000
1709214918.571,0.000,-30.762,-36.621,-35.156,0.000
1709214918.575,-42.969,-37.598,-38.574,-27.344,0.000
1709214918.579,-21.484,-47.852,-40.527,-9.766,0.000
1709214918.583,-22.949,-52.734,-45.898,-13.184,0.000
1709214918.587,-41.992,-56.152,-41.016,-37.109,0.000
1709214918.591,-47.852,-54.199,-25.391,-40.527,0.000
1709214918.594,-37.598,-48.828,-23.438,-23.438,0.000
1709214918.598,-14.648,-49.316,-27.344,-5.371,0.000
1709214918.602,-15.137,-52.734,-28.809,-16.602,0.000
1709214918.606,-36.621,-43.945,-25.879,-42.969,0.000
1709214918.610,-45.410,-41.992,-35.156,-48.340,0.000
1709214918.614,-38.574,-50.293,-50.781,-47.852,0.000
1709214918.618,-25.879,-49.316,-53.711,-42.480,0.000
1709214918.622,-26.367,-39.062,-48.340,-37.598,0.000
1709214918.626,-42.969,-40.527,-46.387,-55.664,0.000
1709214918.630,-57.617,-52.246,-41.992,-70.312,0.000
1709214918.634,-52.246,-47.852,-38.574,-60.059,0.000
1709214918.638,-33.203,-48.340,-35.156,-38.086,0.000
1709214918.641,-26.855,-52.246,-37.109,-33.203,0.000
1709214918.645,-38.086,-41.992,-43.945,-45.898,0.000
1709214918.649,-57.129,-43.945,-45.898,-69.824,0.000
1709214918.653,-56.641,-55.664,-50.293,-78.613,0.000
1709214918.657,-36.621,-54.199,-49.805,-42.969,0.000
1709214918.661,-22.461,-44.922,-42.480,-32.227,0.000
1709214918.665,-31.738,-44.434,-38.086,-50.293,0.000
1709214918.669,-53.711,-46.387,-38.086,-70.801,0.000
1709214918.673,-49.316,-39.551,-35.645,-65.918,0.000
1709214918.677,-33.203,-45.898,-32.715,-40.527,0.000
1709214918.681,-18.555,-54.199,-33.203,-26.855,0.000
1709214918.685,-30.273,-52.246,-41.504,-38.574,0.000
1709214918.688,-54.199,-49.316,-41.504,-55.664,0.000
1709214918.692,-51.270,-41.992,-35.645,-50.781,0.000
1709214918.696,-32.715,-40.527,-38.574,-26.855,0.000
1709214918.700,-27.344,-46.875,-36.133,-6.836,0.000
1709214918.704,-36.133,-45.898,-40.527,-20.020,0.000
1709214918.708,-44.434,-44.434,-41.016,-47.363,0.000
1709214918.712,-47.852,-43.457,-35.156,-44.922,0.000
1709214918.716,-44.434,-51.758,-48.340,-32.715,0.000
1709214918.720,-34.180,-50.781,-53.711,-26.855,0.000
1709214918.724,-30.273,-44.434,-47.852,-30.762,0.000
1709214918.727,-53.711,-46.387,-46.875,-52.734,0.000
1709214918.731,-64.453,-49.805,-48.340,-67.871,0.000
1709214918.735,-46.387,-47.363,-53.223,-51.270,0.000
1709214918.739,-32.227,-42.480,-44.922,-30.762,0.000
1709214918.743,-35.645,-35.156,-30.273,-36.621,0.000
1709214918.747,-54.199,-49.805,-29.297,-51.270,0.000
1709214918.751,-63.965,-54.688,-39.062,-67.871,0.000
1709214918.755,-53.711,-43.457,-42.969,-65.918,0.000
1709214918.759,-33.691,-37.109,-41.504,-48.828,0.000
1709214918.763,-29.785,-31.250,-38.086,-45.410,0.000
1709214918.766,-52.734,-36.133,-31.738,-53.711,0.000
1709214918.770,-69.336,-52.246,-43.457,-69.336,0.000
1709214918.774,-60.059,-52.246,-44.434,-59.082,0.000
1709214918.778,-38.574,-37.109,-28.809,-30.762,0.000
1709214918.782,-37.598,-47.852,-36.133,-35.645,0.000
1709214918.786,-59.082,-46.387,-45.410,-60.547,0.000
1709214918.790,-74.707,-42.969,-42.969,-62.500,0.000
1709214918.794,-58.594,-55.176,-34.668,-45.898,0.000
1709214918.798,-34.668,-54.199,-37.109,-34.180,0.000
1709214918.802,-25.879,-49.805,-42.969,-31.250,0.000
1709214918.806,-40.039,-37.109,-41.016,-44.922,0.000
1709214918.809,-54.199,-36.621,-41.992,-57.617,0.000
1709214918.813,-38.574,-38.086,-36.133,-55.176,0.000
1709214918.817,-16.113,-30.762,-35.156,-40.527,0.000
1709214918.821,-9.766,-31.250,-46.387,-28.320,0.000
1709214918.825,-20.508,-36.133,-42.480,-36.133,0.000
1709214918.829,-41.016,-39.062,-49.316,-61.035,0.000
1709214918.833,-39.062,-44.922,-59.082,-50.293,0.000
1709214918.837,-20.020,-47.852,-44.922,-16.602,0.000
1709214918.841,-20.020,-45.898,-36.621,-16.113,0.000
1709214918.845,-34.668,-62.500,-36.621,-33.691,0.000
1709214918.848,-41.016,-64.453,-31.738,-41.504,0.000
1709214918.852,-41.504,-47.363,-36.133,-41.992,0.000
1709214918.856,-36.133,-43.457,-43.945,-35.645,0.000
1709214918.860,-24.414,-37.598,-34.668,-19.043,0.000
1709214918.864,-27.832,-41.016,-34.180,-20.996,0.000
1709214918.868,-44.434,-49.805,-39.551,-45.410,0.000
1709214918.872,-47.852,-44.922,-42.480,-44.922,0.000
1709214918.876,-28.320,-36.621,-42.480,-23.926,0.000
1709214918.880,-15.137,-47.363,-35.645,-14.160,0.000
1709214918.883,-29.297,-57.129,-32.227,-28.809,0.000
1709214918.887,-45.410,-51.758,-29.785,-47.363,0.000
1709214918.891,-58.105,-51.758,-33.691,-51.270,0.000
1709214918.895,-51.758,-51.758,-37.598,-39.551,0.000
1709214918.899,-36.133,-40.527,-31.250,-27.344,0.000
1709214918.903,-38.086,-44.434,-36.133,-40.039,0.000
1709214918.907,-53.711,-58.594,-34.668,-58.594,0.000
1709214918.911,-63.965,-48.340,-36.133,-62.012,0.000
1709214918.915,-43.945,-41.504,-33.203,-42.969,0.000
1709214918.919,-30.273,-49.805,-27.832,-24.902,0.000
1709214918.923,-41.504,-47.363,-40.039,-34.180,0.000
1709214918.927,-58.594,-47.852,-44.434,-60.547,0.000
1709214918.931,-70.312,-45.898,-31.250,-71.777,0.000
1709214918.934,-68.359,-42.969,-34.180,-54.199,0.000
1709214918.938,-50.293,-59.082,-41.992,-36.133,0.000
1709214918.942,-48.340,-59.082,-42.969,-44.434,0.000
1709214918.946,-73.242,-52.734,-41.504,-58.105,0.000
1709214918.950,-86.426,-51.270,-44.922,-68.848,0.000
1709214918.954,-73.730,-44.434,-43.945,-62.988,0.000
1709214918.958,-60.547,-47.852,-39.062,-38.086,0.000
1709214918.962,-53.711,-58.594,-42.480,-38.574,0.000
1709214918.966,-53.223,-51.270,-43.457,-56.152,0.000
1709214918.970,-58.594,-38.086,-38.086,-58.105,0.000
1709214918.974,-54.688,-49.316,-28.809,-46.875,0.000
1709214918.978,-37.109,-60.547,-32.227,-33.203,0.000
1709214918.981,-28.320,-56.641,-43.457,-29.785,0.000
1709214918.985,-40.527,-44.434,-39.062,-37.109,0.000
1709214918.989,-54.688,-38.086,-40.527,-48.340,0.000
1709214918.993,-56.152,-33.691,-45.410,-53.711,0.000
1709214918.997,-45.898,-41.504,-40.039,-42.480,0.000
1709214919.001,-34.180,-46.387,-35.645,-36.621,0.000
1709214919.005,-44.922,-50.293,-32.715,-48.828,0.000
1709214919.009,-64.453,-56.152,-37.598,-68.359,0.000
1709214919.013,-67.383,-46.875,-43.457,-72.266,0.000
1709214919.017,-45.898,-45.410,-42.969,-48.340,0.000
1709214919.021,-27.832,-39.551,-43.457,-32.715,0.000
1709214919.025,-32.227,-36.621,-39.551,-41.504,0.000
1709214919.028,-36.133,-54.199,-34.180,-50.781,0.000
1709214919.032,-32.715,-47.363,-24.414,-40.039,0.000
1709214919.036,-21.484,-20.996,-23.438,-32.715,0.000
1709214919.040,-13.184,-27.344,-31.738,-33.691,0.000
1709214919.044,-25.391,-39.551,-29.785,-42.480,0.000
1709214919.048,-42.969,-37.598,-30.273,-64.453,0.000
1709214919.052,-50.293,-40.039,-39.062,-69.824,0.000
1709214919.056,-39.062,-51.758,-47.852,-49.805,0.000
1709214919.060,-20.020,-52.246,-49.805,-38.086,0.000
1709214919.064,-21.484,-39.062,-42.969,-45.898,0.000
1709214919.068,-38.086,-31.738,-41.992,-63.477,0.000
1709214919.071,-44.922,-29.297,-42.969,-66.895,0.000
1709214919.075,-37.109,-38.086,-33.203,-47.852,0.000
1709214919.079,-20.996,-51.758,-30.762,-30.762,0.000
1709214919.083,-21.484,-62.012,-31.250,-37.598,0.000
1709214919.087,-41.016,-52.734,-41.504,-58.105,0.000
1709214919.091,-47.852,-42.969,-41.016,-57.617,0.000
1709214919.095,-43.457,-46.387,-31.738,-42.480,0.000
1709214919.099,-30.762,-36.621,-33.691,-28.809,0.000
1709214919.103,-25.879,-36.621,-30.762,-29.785,0.000
1709214919.107,-43.457,-44.922,-31.250,-49.805,0.000
1709214919.111,-55.176,-46.875,-40.527,-62.988,0.000
1709214919.114,-36.621,-51.270,-39.062,-48.828,0.000
1709214919.118,-19.531,-47.363,-39.551,-24.902,0.000
1709214919.122,-17.090,-38.574,-30.273,-15.137,0.000
1709214919.126,-28.809,-38.574,-29.297,-39.551,0.000
1709214919.130,-40.527,-44.922,-33.691,-53.711,0.000
1709214919.134,-34.668,-57.617,-35.645,-43.945,0.000
1709214919.138,-16.113,-52.734,-33.203,-26.367,0.000
1709214919.142,-15.137,-34.668,-36.621,-28.320,0.000
1709214919.146,-39.551,-31.250,-38.574,-48.828,0.000
1709214919.150,-54.199,-44.434,-38.574,-58.105,0.000
1709214919.153,-44.922,-56.152,-42.969,-43.457,0.000
1709214919.157,-28.809,-55.176,-37.598,-20.020,0.000
1709214919.161,-23.926,-40.527,-36.133,-22.949,0.000
1709214919.165,-38.086,-50.293,-55.176,-37.109,0.000
1709214919.169,-63.965,-63.965,-53.711,-44.922,0.000
1709214919.173,-70.801,-57.617,-35.645,-53.223,0.000
1709214919.177,-41.992,-43.945,-25.391,-26.367,0.000
1709214919.181,-20.508,-34.180,-25.879,-15.625,0.000
1709214919.185,-40.039,-39.551,-39.551,-42.480,0.000
1709214919.188,-57.617,-47.363,-43.457,-58.105,0.000
1709214919.192,-56.152,-44.434,-42.480,-53.711,0.000
1709214919.196,-42.480,-42.480,-38.086,-40.527,0.000
1709214919.200,-27.344,-44.922,-32.715,-28.320,0.000
1709214919.204,-27.832,-47.852,-40.039,-32.715,0.000
1709214919.208,-44.922,-54.199,-41.016,-48.340,0.000
1709214919.212,-58.105,-54.199,-32.715,-46.387,0.000
1709214919.216,-45.898,-50.781,-30.273,-27.344,0.000
1709214919.220,-25.879,-49.805,-32.227,-14.648,0.000
1709214919.224,-32.227,-38.574,-33.691,-23.438,0.000
1709214919.228,-55.176,-41.504,-35.645,-49.805,0.000
1709214919.231,-60.547,-47.363,-41.504,-62.988,0.000
1709214919.235,-45.898,-40.039,-37.109,-36.133,0.000
1709214919.239,-25.879,-43.457,-28.320,-11.719,0.000
1709214919.243,-29.297,-56.152,-39.062,-30.762,0.000
1709214919.247,-43.457,-48.828,-30.762,-52.246,0.000
1709214919.251,-50.781,-43.457,-30.762,-56.641,0.000
1709214919.255,-41.992,-50.293,-44.434,-40.039,0.000
1709214919.259,-28.809,-41.992,-36.133,-16.602,0.000
1709214919.262,-33.691,-46.387,-33.203,-32.715,0.000
1709214919.266,-45.410,-55.664,-37.598,-53.711,0.000
1709214919.270,-49.805,-47.363,-34.668,-52.734,0.000
1709214919.274,-42.969,-40.039,-31.738,-42.969,0.000
1709214919.278,-20.020,-44.434,-34.668,-23.926,0.000
1709214919.282,-12.695,-45.410,-37.598,-19.531,0.000
1709214919.286,-24.902,-44.922,-39.551,-39.062,0.000
1709214919.290,-41.992,-46.875,-38.086,-58.105,0.000
1709214919.294,-45.410,-50.781,-37.109,-52.734,0.000
1709214919.297,-20.996,-58.105,-32.227,-26.367,0.000
1709214919.301,-19.043,-59.570,-39.551,-27.344,0.000
1709214919.305,-39.551,-48.340,-49.805,-51.758,0.000
1709214919.309,-55.176,-44.922,-44.922,-56.641,0.000
1709214919.313,-54.199,-46.875,-39.551,-47.363,0.000
1709214919.317,-29.785,-43.945,-29.785,-21.973,0.000
1709214919.321,-25.391,-40.527,-30.273,-23.926,0.000
1709214919.325,-48.828,-49.805,-42.480,-45.898,0.000
1709214919.329,-57.617,-53.223,-41.992,-50.781,0.000
1709214919.333,-55.664,-55.176,-46.875,-44.434,0.000
1709214919.337,-42.480,-58.594,-48.340,-29.785,0.000
1709214919.341,-30.273,-50.293,-46.387,-20.508,0.000
1709214919.345,-41.504,-37.598,-45.898,-26.855,0.000
1709214919.348,-51.270,-33.691,-33.203,-40.039,0.000
1709214919.352,-42.480,-35.645,-28.809,-48.340,0.000
1709214919.356,-22.949,-37.598,-29.785,-35.645,0.000
1709214919.360,-21.484,-38.574,-40.039,-37.109,0.000
1709214919.364,-38.574,-33.691,-42.480,-46.875,0.000
1709214919.368,-54.688,-38.086,-36.621,-57.617,0.000
1709214919.372,-45.410,-45.410,-32.227,-54.199,0.000
1709214919.376,-30.273,-48.828,-27.832,-31.738,0.000
1709214919.380,-25.879,-45.898,-32.227,-19.043,0.000
1709214919.384,-35.645,-51.270,-35.645,-37.598,0.000
1709214919.388,-52.734,-52.734,-32.227,-57.617,0.000
1709214919.392,-56.152,-41.016,-30.273,-51.270,0.000
1709214919.395,-40.527,-48.828,-38.086,-36.621,0.000
1709214919.399,-28.320,-51.758,-48.340,-28.809,0.000
1709214919.403,-30.762,-47.852,-42.969,-28.320,0.000
1709214919.407,-47.852,-55.176,-38.086,-33.203,0.000
1709214919.411,-58.105,-52.246,-40.039,-45.898,0.000
1709214919.415,-42.480,-54.688,-34.180,-32.227,0.000
1709214919.419,-23.926,-68.359,-27.344,-18.066,0.000
1709214919.423,-20.020,-61.523,-28.809,-23.438,0.000
1709214919.427,-29.785,-37.598,-29.297,-38.086,0.000
1709214919.431,-36.621,-40.527,-25.879,-48.828,0.000
1709214919.435,-32.227,-53.223,-30.762,-34.180,0.000
1709214919.438,-21.484,-44.434,-31.250,-19.531,0.000
1709214919.442,-18.555,-40.527,-30.762,-22.461,0.000
1709214919.446,-33.691,-42.969,-34.668,-40.527,0.000
1709214919.450,-51.758,-41.016,-38.086,-41.992,0.000
1709214919.454,-45.898,-42.969,-40.039,-26.367,0.000
1709214919.458,-18.555,-33.691,-32.715,-15.137,0.000
1709214919.462,-18.066,-29.785,-32.227,-16.113,0.000
1709214919.466,-43.457,-41.992,-38.086,-42.969,0.000
1709214919.470,-56.152,-43.457,-41.992,-62.988,0.000
1709214919.474,-41.016,-38.574,-43.945,-47.852,0.000
1709214919.478,-17.578,-33.691,-40.039,-23.926,0.000
1709214919.481,-17.090,-30.762,-42.480,-23.438,0.000
1709214919.485,-32.715,-34.668,-38.086,-39.062,0.000
1709214919.489,-46.875,-45.898,-38.086,-56.641,0.000
1709214919.493,-37.598,-33.691,-38.574,-44.922,0.000
1709214919.497,-11.719,-23.438,-36.621,-7.324,0.000
1709214919.501,-10.742,-41.504,-41.992,-9.766,0.000
1709214919.505,-33.203,-50.293,-38.086,-34.180,0.000
1709214919.509,-44.434,-45.410,-29.785,-47.363,0.000
1709214919.513,-43.457,-52.246,0.000,-47.852,0.000
1709214919.517,-31.250,-54.199,0.000,-25.879,0.000
1709214919.520,-26.367,-51.270,0.000,-17.090,0.000
1709214919.524,-37.109,-51.758,0.000,-28.809,0.000
1709214919.528,-54.199,-50.781,0.000,-50.293,0.000
1709214919.532,-56.152,-43.945,0.000,-47.363,0.000
1709214919.536,-33.203,-39.551,0.000,-23.926,0.000
1709214919.540,-27.832,-50.293,0.000,-22.949,0.000
1709214919.544,-40.039,-56.152,0.000,-29.785,0.000
1709214919.548,-55.664,-48.828,0.000,-49.805,0.000
1709214919.552,-55.176,-35.156,0.000,-51.270,0.000
1709214919.556,-37.109,-44.922,0.000,-28.320,0.000
1709214919.559,-27.832,-53.711,-30.273,-20.508,0.000
1709214919.563,-32.227,-43.457,-30.273,-21.973,0.000
1709214919.567,-45.898,-36.133,-40.527,-42.969,0.000
1709214919.571,-52.734,-28.320,-34.180,-51.758,0.000
1709214919.575,-47.363,-29.785,-31.738,-36.133,0.000
1709214919.579,-34.668,-33.203,-32.227,-20.020,0.000
1709214919.583,-37.109,-44.434,-29.785,-29.297,0.000
1709214919.587,-56.152,-48.340,-35.156,-50.781,0.000
1709214919.591,-59.082,-48.828,-39.062,-59.570,0.000
1709214919.595,-45.410,-51.758,-37.109,-45.410,0.000
1709214919.598,-33.203,-47.852,-39.551,-25.879,0.000
1709214919.602,-33.691,-49.316,-37.598,-27.832,0.000
1709214919.606,-48.828,-41.504,-37.598,-48.340,0.000
1709214919.610,-65.430,-37.598,-57.129,-60.547,0.000
1709214919.614,-48.340,-36.133,-57.129,-45.898,0.000
1709214919.618,-17.578,-32.227,-40.039,-23.926,0.000
1709214919.622,-23.438,-43.945,-36.621,-30.273,0.000
1709214919.626,-38.086,-52.734,-28.809,-49.805,0.000
1709214919.630,-46.387,-56.152,-32.715,-55.176,0.000
1709214919.634,-34.180,-52.246,-34.180,-34.668,0.000
1709214919.637,-12.207,-51.270,-27.832,-23.438,0.000
1709214919.641,-11.719,-47.852,-32.715,-30.762,0.000
1709214919.645,-29.297,-42.969,-39.062,-47.363,0.000
1709214919.649,-45.410,-46.387,-38.574,-60.059,0.000
1709214919.653,-44.922,-41.504,-37.598,-51.270,0.000
1709214919.657,-28.320,-34.668,-49.316,-26.367,0.000
1709214919.661,-18.555,-29.297,-40.039,-18.555,0.000
1709214919.665,-37.598,-35.645,-20.020,-40.527,0.000
1709214919.668,-57.129,-46.875,-32.227,-58.105,0.000
1709214919.672,-60.059,-51.758,-44.922,-53.223,0.000
1709214919.676,-48.828,-49.316,-42.969,-32.227,0.000
1709214919.680,-35.645,-40.527,-45.898,-25.879,0.000
1709214919.684,-45.410,-39.062,-44.434,-43.457,0.000
1709214919.688,-62.500,-55.176,-41.992,-56.641,0.000
1709214919.692,-52.246,-53.223,-44.922,-38.086,0.000
1709214919.696,-35.645,-45.898,-40.527,-17.578,0.000
1709214919.700,-29.297,-48.340,-31.738,-21.484,0.000
1709214919.704,-31.250,-41.992,-37.598,-36.621,0.000
1709214919.708,-42.969,-43.457,-47.852,-53.711,0.000
1709214919.712,-44.922,-43.457,-48.340,-46.875,0.000
1709214919.716,-38.086,-42.480,-50.293,-27.832,0.000
1709214919.720,-25.879,-42.969,-41.016,-12.695,0.000
1709214919.724,-26.855,-38.086,-30.762,-14.648,0.000
1709214919.728,-51.270,-44.434,-33.203,-45.410,0.000
1709214919.732,-63.965,-52.246,-40.527,-53.711,0.000
1709214919.735,-41.992,-43.457,-34.668,-30.762,0.000
1709214919.739,-31.250,-53.223,-35.156,-23.926,0.000
1709214919.743,-39.551,-57.129,-39.062,-39.551,0.000
1709214919.747,-52.246,-42.480,-39.551,-54.688,0.000
1709214919.751,-62.988,-46.387,-39.551,-59.570,0.000
1709214919.755,-46.875,-49.805,-39.062,-47.363,0.000
1709214919.759,-19.043,-31.738,-39.062,-29.297,0.000
1709214919.763,-20.508,-35.156,-28.320,-30.273,0.000
1709214919.767,-47.363,-47.363,-26.855,-52.734,0.000
1709214919.771,-52.246,-38.086,-30.762,-53.223,0.000
1709214919.775,-37.598,-38.086,-36.621,-31.250,0.000
1709214919.779,-29.297,-39.551,-44.434,-23.926,0.000
1709214919.782,-26.855,-43.457,-41.504,-30.273,0.000
1709214919.786,-38.574,-37.109,-32.227,-47.852,0.000
1709214919.790,-53.223,-34.668,-30.762,-63.477,0.000
1709214919.794,-50.781,-50.293,-28.809,-46.875,0.000
1709214919.798,-34.668,-52.734,-28.809,-18.555,0.000
1709214919.802,-36.621,-39.062,-43.457,-31.250,0.000
1709214919.806,-49.316,-32.227,-48.340,-53.223,0.000
1709214919.810,-53.223,-32.227,-42.969,-64.453,0.000
1709214919.814,-46.387,-30.273,-39.551,-53.223,0.000
1709214919.818,-18.555,-30.273,-29.297,-19.043,0.000
1709214919.822,-17.090,-39.062,-28.809,-15.137,0.000
1709214919.825,-39.062,-43.457,-28.809,-33.203,0.000
1709214919.829,-51.270,-31.738,-27.832,-42.480,0.000
1709214919.833,-45.410,-29.785,-36.133,-43.457,0.000
1709214919.837,-27.344,-44.922,-34.668,-25.879,0.000
1709214919.841,-24.414,-47.852,-38.086,-22.949,0.000
1709214919.845,-35.645,-36.133,-46.387,-50.293,0.000
1709214919.849,-55.176,-36.133,-44.922,-72.754,0.000
1709214919.853,-58.594,-49.316,-46.875,-70.312,0.000
1709214919.857,-29.297,-48.828,-40.527,-41.504,0.000
1709214919.861,-15.137,-39.062,-35.156,-17.090,0.000
1709214919.865,-35.156,-40.527,-42.969,-40.527,0.000
1709214919.868,-50.293,-43.945,-43.945,-66.406,0.000
1709214919.872,-46.875,-47.363,-36.133,-53.711,0.000
1709214919.876,-38.574,-45.898,-38.086,-35.645,0.000
1709214919.880,-28.320,-37.598,-43.457,-28.809,0.000
1709214919.884,-35.645,-45.898,-44.922,-39.062,0.000
1709214919.888,-57.129,-63.965,-39.551,-51.270,0.000
1709214919.892,-64.453,-59.082,-41.016,-59.082,0.000
1709214919.896,-46.387,-45.410,-44.434,-37.109,0.000
1709214919.900,-24.902,-39.062,-45.410,-17.090,0.000
1709214919.904,-28.320,-40.039,-37.598,-23.438,0.000
1709214919.907,-48.340,-47.852,-30.762,-32.227,0.000
1709214919.911,-56.641,-49.805,-27.832,-32.227,0.000
1709214919.915,-41.992,-54.688,-21.973,-16.602,0.000
1709214919.919,-19.043,-59.570,-23.438,8.301,0.000
1709214919.923,-20.996,-46.875,-32.715,-10.254,0.000
1709214919.927,-41.016,-39.062,-36.621,-37.598,0.000
1709214919.931,-47.363,-40.039,-32.227,-37.109,0.000
1709214919.935,-38.574,-51.758,-42.480,-29.297,0.000
1709214919.939,-31.250,-46.875,-41.992,-16.602,0.000
1709214919.942,-32.715,-45.410,-32.715,-23.926,0.000
1709214919.946,-47.363,-54.688,-32.715,-45.410,0.000
1709214919.950,-54.199,-47.852,-34.180,-42.480,0.000
1709214919.954,-44.434,-38.086,-36.133,-24.902,0.000
1709214919.958,-31.250,-41.504,-33.203,-12.695,0.000
1709214919.962,-23.438,-51.270,-26.367,-3.418,0.000
1709214919.966,-41.016,-53.711,-31.250,-27.344,0.000
1709214919.970,-61.035,-44.434,-41.016,-55.664,0.000
1709214919.974,-53.711,-38.574,-45.898,-48.340,0.000
1709214919.978,-35.645,-35.156,-45.898,-20.508,0.000
1709214919.982,-26.367,-33.691,-37.109,-16.602,0.000
1709214919.986,-43.457,-38.574,-35.645,-39.551,0.000
1709214919.990,-57.617,-32.715,-37.109,-40.527,0.000
1709214919.994,-46.875,-30.762,-38.086,-25.879,0.000
1709214919.998,-26.855,-36.621,-41.016,-19.043,0.000
1709214920.002,-26.855,-36.621,-46.387,-24.902,0.000
1709214920.006,-45.898,-40.527,-44.922,-41.992,0.000
1709214920.010,-56.641,-50.293,-38.086,-50.293,0.000
1709214920.013,-57.617,-44.922,-43.945,-55.176,0.000
1709214920.017,-45.410,-41.992,-42.969,-38.574,0.000
1709214920.021,-28.320,-47.363,-32.227,-18.066,0.000
1709214920.025,-31.738,-45.898,-31.250,-26.855,0.000
1709214920.029,-61.035,-45.898,-42.969,-60.059,0.000
1709214920.033,-55.176,-33.203,-37.109,-60.059,0.000
1709214920.037,-28.809,-31.250,-35.645,-37.109,0.000
1709214920.041,-26.855,-40.527,-43.945,-32.715,0.000
1709214920.044,-33.691,-43.457,-40.039,-47.852,0.000
1709214920.048,-41.016,-46.875,-41.504,-65.918,0.000
1709214920.052,-41.992,-46.387,-41.992,-61.523,0.000
1709214920.056,-33.203,-42.480,-37.598,-50.781,0.000
1709214920.060,-26.367,-45.898,-37.598,-40.039,0.000
1709214920.064,-26.855,-36.621,-34.668,-35.156,0.000
1709214920.068,-41.992,-33.691,-34.668,-43.945,0.000
1709214920.072,-51.758,-40.039,-40.039,-51.758,0.000
1709214920.076,-40.527,-34.668,-46.875,-43.945,0.000
1709214920.080,-27.344,-32.227,-45.410,-22.949,0.000
1709214920.084,-28.809,-37.109,-36.621,-14.160,0.000
1709214920.088,-44.922,-47.363,-38.574,-40.527,0.000
1709214920.092,-58.594,-56.152,-48.828,-54.199,0.000
1709214920.095,-42.969,-44.922,-39.062,-29.297,0.000
1709214920.099,-30.273,-38.086,-36.621,-14.160,0.000
1709214920.103,-40.039,-45.410,-48.340,-28.320,0.000
1709214920.107,-50.293,-51.270,-48.828,-51.758,0.000
1709214920.111,-58.594,-61.523,-44.922,-61.035,0.000
1709214920.115,-53.223,-47.852,-40.527,-40.527,0.000
1709214920.119,-35.156,-32.227,-41.016,-16.113,0.000
1709214920.123,-29.297,-37.598,-41.016,-14.160,0.000
1709214920.127,-43.945,-43.457,-28.320,-41.016,0.000
1709214920.131,-50.293,-41.992,-29.785,-55.176,0.000
1709214920.135,-40.527,-49.316,-42.969,-40.039,0.000
1709214920.138,-28.809,-53.711,-39.551,-22.949,0.000
1709214920.142,-26.855,-51.758,-33.691,-24.902,0.000
1709214920.146,-42.480,-49.316,-33.691,-45.898,0.000
1709214920.150,-57.129,-46.387,-35.645,-65.918,0.000
1709214920.154,-55.176,-55.664,-45.410,-60.547,0.000
1709214920.158,-33.203,-52.734,-39.062,-36.621,0.000
1709214920.162,-23.926,-40.039,-28.320,-29.785,0.000
1709214920.166,-38.574,-45.410,-31.250,-50.293,0.000
1709214920.170,-46.875,-43.457,-33.203,-63.477,0.000
1709214920.174,-41.016,-37.598,-30.762,-52.734,0.000
1709214920.178,-24.902,-47.852,-35.156,-34.180,0.000
1709214920.181,-11.230,-50.293,-36.133,-21.973,0.000
1709214920.185,-18.066,-46.387,-30.762,-27.832,0.000
1709214920.189,-34.668,-44.922,-33.203,-42.480,0.000
1709214920.193,-30.273,-49.805,-33.691,-40.527,0.000
1709214920.197,-15.137,-54.199,-43.457,-23.926,0.000
1709214920.201,-4.395,-44.922,-52.734,-8.301,0.000
1709214920.205,-12.207,-41.992,-41.992,-17.090,0.000
1709214920.209,-38.574,-38.574,-39.062,-47.363,0.000
1709214920.213,-37.598,-31.250,-42.480,-50.781,0.000
1709214920.217,-20.020,-34.668,-43.945,-31.250,0.000
1709214920.221,-6.348,-33.691,-45.898,-16.602,0.000
1709214920.224,-13.672,-30.762,-43.945,-26.367,0.000
1709214920.228,-36.133,-36.133,-39.062,-43.945,0.000
1709214920.232,-40.039,-36.133,-36.133,-35.156,0.000
1709214920.236,-34.668,-41.016,-35.156,-17.578,0.000
1709214920.240,-30.273,-46.387,-36.133,-13.672,0.000
1709214920.244,-30.273,-48.340,-34.180,-27.832,0.000
1709214920.248,-46.875,-59.570,-37.598,-38.574,0.000
1709214920.252,-48.340,-50.293,-34.668,-36.133,0.000
1709214920.256,-35.156,-44.922,-34.180,-35.156,0.000
1709214920.260,-20.996,-55.176,-36.621,-26.855,0.000
1709214920.263,-19.043,-53.711,-35.645,-27.344,0.000
1709214920.267,-36.621,-46.875,-36.133,-45.898,0.000
1709214920.271,-47.363,-45.410,-39.062,-55.664,0.000
1709214920.275,-41.992,-45.898,-45.898,-39.551,0.000
1709214920.279,-25.879,-45.410,-43.457,-18.066,0.000
1709214920.283,-19.043,-47.363,-37.598,-20.020,0.000
1709214920.287,-23.438,-44.922,-31.738,-34.668,0.000
1709214920.291,-37.598,-52.734,-31.738,-43.457,0.000
1709214920.295,-35.645,-64.941,-42.480,-31.250,0.000
1709214920.299,-15.137,-55.664,-54.199,-10.742,0.000
1709214920.302,-8.301,-61.523,-48.340,-8.789,0.000
1709214920.306,-17.578,-67.871,-37.109,-20.996,0.000
1709214920.310,-15.625,-51.758,-32.227,-24.902,0.000
1709214920.314,-7.324,-44.922,-24.902,-7.324,0.000
1709214920.318,-1.953,-57.617,-27.832,7.812,0.000
1709214920.322,6.836,-62.500,-30.273,9.766,0.000
1709214920.326,-4.395,-47.852,-30.762,-3.906,0.000
1709214920.330,-36.133,-46.387,-31.738,-29.785,0.000
1709214920.334,-38.086,-52.246,-30.762,-31.738,0.000
1709214920.337,-14.160,-51.758,-33.203,0.000,0.000
1709214920.341,-10.742,-54.688,-34.180,2.441,0.000
1709214920.345,-25.879,-59.570,-35.156,-24.414,0.000
1709214920.349,-41.992,-55.176,-40.527,-38.574,0.000
1709214920.353,-40.039,-48.828,-37.598,-34.668,0.000
1709214920.357,-28.809,-37.598,-35.645,-26.855,0.000
1709214920.361,-21.973,-38.086,-39.551,-20.996,0.000
1709214920.365,-35.156,-55.664,-41.504,-30.762,0.000
1709214920.369,-60.059,-54.688,-41.504,-52.246,0.000
1709214920.372,-57.129,-42.969,-42.969,-54.688,0.000
1709214920.376,-34.668,-48.340,-36.621,-35.645,0.000
1709214920.380,-21.484,-55.176,-31.738,-16.602,0.000
1709214920.384,-33.203,-57.617,-38.574,-20.020,0.000
1709214920.388,-48.340,-56.641,-45.898,-51.270,0.000
1709214920.392,-52.734,-57.129,-42.969,-60.059,0.000
1709214920.396,-29.785,-58.105,-33.203,-35.645,0.000
1709214920.400,-13.184,-49.805,-36.133,-18.555,0.000
1709214920.403,-25.879,-40.527,-38.086,-27.832,0.000
1709214920.407,-41.992,-43.457,-28.320,-39.551,0.000
1709214920.411,-46.875,-49.316,-20.508,-39.062,0.000
1709214920.415,-34.668,-54.199,-21.484,-26.367,0.000
1709214920.419,-19.531,-62.012,-19.531,-10.742,0.000
1709214920.423,-28.320,-62.500,-27.344,-19.043,0.000
1709214920.427,-44.434,-52.734,-38.086,-36.133,0.000
1709214920.431,-53.711,-48.340,-39.062,-49.805,0.000
1709214920.435,-36.133,-41.504,-32.715,-28.320,0.000
1709214920.439,-21.484,-42.480,-30.273,-8.301,0.000
1709214920.443,-26.367,-48.828,-31.250,-13.184,0.000
1709214920.446,-41.016,-50.781,-40.039,-37.598,0.000
1709214920.451,-59.570,-45.410,-43.457,-55.176,0.000
1709214920.454,-47.363,-45.410,-37.598,-38.574,0.000
1709214920.458,-20.996,-45.898,-38.086,-20.996,0.000
1709214920.462,-21.973,-41.016,-41.992,-26.855,0.000
1709214920.466,-41.016,-38.086,-41.016,-50.781,0.000
1709214920.470,-47.363,-43.945,-35.645,-59.082,0.000
1709214920.474,-36.133,-45.898,-39.062,-44.922,0.000
1709214920.478,-23.438,-41.504,-39.062,-37.109,0.000
1709214920.482,-27.344,-51.270,-40.527,-38.086,0.000
1709214920.486,-39.551,-53.711,-41.992,-43.945,0.000
1709214920.490,-49.316,-53.223,-40.527,-52.734,0.000
1709214920.493,-52.246,-52.734,-52.734,-51.270,0.000
1709214920.498,-36.621,-45.898,-45.410,-24.414,0.000
1709214920.501,-24.902,-42.480,-25.879,-14.160,0.000
1709214920.505,-45.410,-48.340,-35.156,-44.922,0.000
1709214920.509,-67.383,-51.270,-40.527,-65.430,0.000
1709214920.513,-65.430,-55.664,-33.203,-50.781,0.000
1709214920.517,-52.246,-54.688,-26.367,-25.879,0.000
1709214920.521,-45.410,-41.504,-31.738,-9.766,0.000
1709214920.525,-50.781,-44.922,-39.551,-23.438,0.000
1709214920.529,-60.059,-57.129,-35.156,-43.457,0.000
1709214920.533,-60.547,-49.316,-38.086,-35.645,0.000
1709214920.537,-50.293,-35.645,-48.828,-35.645,0.000
1709214920.540,-34.180,-28.320,-47.363,-33.203,0.000
1709214920.544,-36.621,-29.785,-37.598,-39.062,0.000
1709214920.548,-51.758,-35.156,-39.062,-63.965,0.000
1709214920.552,-50.293,-37.109,-45.410,-69.336,0.000
1709214920.556,-30.273,-40.527,-44.922,-49.805,0.000
1709214920.560,-14.648,-41.504,-36.133,-33.203,0.000
1709214920.564,-25.391,-32.227,-41.016,-46.387,0.000
1709214920.568,-42.969,-30.273,-44.922,-70.312,0.000
1709214920.572,-49.316,-50.781,-46.387,-73.242,0.000
1709214920.576,-40.527,-60.059,-47.852,-55.664,0.000
1709214920.580,-18.066,-38.574,-38.574,-27.344,0.000
1709214920.584,-23.438,-23.438,-34.180,-33.691,0.000
1709214920.587,-52.246,-32.715,-41.504,-56.641,0.000
1709214920.591,-64.453,-46.875,-49.805,-64.453,0.000
1709214920.595,-44.434,-46.387,-39.551,-46.875,0.000
1709214920.599,-26.367,-41.016,-26.855,-19.531,0.000
1709214920.603,-35.156,-48.340,-26.855,-26.855,0.000
1709214920.607,-56.152,-59.082,-33.203,-48.828,0.000
1709214920.611,-71.289,-64.941,-33.691,-55.176,0.000
1709214920.615,-59.570,-50.781,-21.973,-35.645,0.000
1709214920.619,-40.039,-33.691,-22.949,-13.184,0.000
1709214920.623,-41.016,-41.016,-36.621,-6.348,0.000
1709214920.626,-63.965,-36.621,-36.133,-28.320,0.000
1709214920.630,-77.637,-36.621,-29.297,-50.293,0.000
1709214920.634,-70.312,-49.805,-37.598,-41.016,0.000
1709214920.638,-54.199,-48.340,-45.898,-28.320,0.000
1709214920.642,-44.434,-53.711,-35.645,-27.832,0.000
1709214920.646,-45.898,-61.035,-25.391,-41.992,0.000
1709214920.650,-55.176,-54.199,-24.902,-49.805,0.000
1709214920.654,-60.547,-47.363,-37.598,-41.016,0.000
1709214920.658,-32.715,-40.527,-37.598,-12.695,0.000
1709214920.662,-10.254,-29.297,-28.320,-1.953,0.000
1709214920.665,-29.785,-34.668,-39.062,-27.832,0.000
1709214920.669,-45.410,-47.363,-41.016,-40.527,0.000
1709214920.673,-37.598,-47.363,-36.621,-40.039,0.000
1709214920.677,-19.043,-32.227,-37.109,-20.508,0.000
1709214920.681,-10.254,-34.180,-43.945,-19.531,0.000
1709214920.685,-20.996,-46.387,-48.828,-44.922,0.000
1709214920.689,-39.551,-36.621,-39.062,-63.965,0.000
1709214920.693,-32.227,-35.156,-33.203,-53.223,0.000
1709214920.697,-13.672,-33.691,-36.621,-27.344,0.000
1709214920.701,-17.578,-31.250,-46.387,-27.832,0.000
1709214920.704,-34.180,-31.738,-41.504,-46.875,0.000
1709214920.708,-54.688,-36.621,-36.133,-62.012,0.000
1709214920.712,-54.688,-45.410,-39.551,-43.457,0.000
1709214920.716,-35.156,-38.086,-33.691,-19.531,0.000
1709214920.720,-24.902,-36.133,-37.598,-18.555,0.000
1709214920.724,-30.273,-39.062,-34.668,-21.484,0.000
1709214920.728,-55.176,-44.434,-37.109,-41.016,0.000
1709214920.732,-70.801,-40.039,-45.410,-51.270,0.000
1709214920.736,-54.199,-41.016,-38.086,-35.156,0.000
1709214920.739,-35.645,-43.945,-33.203,-16.113,0.000
1709214920.743,-37.598,-32.227,-33.691,-27.344,0.000
1709214920.747,-52.246,-25.879,-34.180,-51.758,0.000
1709214920.751,-51.270,-28.320,-31.738,-53.711,0.000
1709214920.755,-37.109,-37.598,-34.668,-34.668,0.000
1709214920.759,-17.578,-34.668,-38.086,-1.465,0.000
1709214920.763,-25.391,-41.992,-37.109,-13.184,0.000
1709214920.767,-50.293,-55.664,-31.738,-47.852,0.000
1709214920.771,-57.129,-50.781,-28.809,-60.059,0.000
1709214920.775,-46.387,-50.781,-30.762,-42.480,0.000
1709214920.778,-37.598,-57.129,-42.480,-32.227,0.000
1709214920.782,-37.109,-62.500,-39.062,-44.434,0.000
1709214920.786,-54.199,-55.176,-27.832,-59.570,0.000
1709214920.790,-72.754,-44.434,-41.016,-78.125,0.000
1709214920.794,-60.059,-41.016,-44.434,-75.684,0.000
1709214920.798,-31.250,-46.387,-35.645,-46.875,0.000
1709214920.802,-23.438,-48.828,-38.086,-35.645,0.000
1709214920.806,-40.039,-40.039,-45.898,-60.547,0.000
1709214920.810,-56.641,-42.480,-43.945,-79.102,0.000
1709214920.813,-43.945,-40.527,-30.762,-58.594,0.000
1709214920.817,-28.320,-38.574,-36.133,-35.645,0.000
1709214920.821,-20.020,-44.434,-45.898,-35.156,0.000
1709214920.825,-37.598,-44.434,-45.410,-60.059,0.000
1709214920.829,-54.688,-43.457,-48.828,-76.660,0.000
1709214920.833,-46.387,-41.992,-51.270,-70.801,0.000
1709214920.837,-36.621,-39.062,-45.410,-54.688,0.000
1709214920.841,-33.203,-28.320,-47.363,-43.945,0.000
1709214920.845,-45.410,-27.832,-53.223,-60.059,0.000
1709214920.849,-73.730,-39.551,-56.641,-76.172,0.000
1709214920.853,-79.102,-36.621,-51.758,-67.871,0.000
1709214920.857,-60.059,-40.527,-51.270,-53.223,0.000
1709214920.860,-47.363,-45.410,-56.152,-46.387,0.000
1709214920.864,-50.781,-46.387,-45.410,-59.082,0.000
1709214920.868,-66.895,-50.293,-45.898,-72.266,0.000
1709214920.872,0.000,-43.457,0.000,-64.453,0.000
1709214920.876,0.000,-30.273,0.000,-35.645,0.000
1709214920.880,0.000,-27.832,0.000,-14.648,0.000
1709214920.884,0.000,-39.062,0.000,-27.344,0.000
1709214920.888,0.000,-41.016,0.000,-47.363,0.000
1709214920.892,0.000,-38.574,0.000,-42.969,0.000
1709214920.896,0.000,-39.551,0.000,-20.508,0.000
1709214920.900,0.000,-45.410,0.000,-4.883,0.000
1709214920.904,0.000,-42.480,0.000,-9.277,0.000
1709214920.908,0.000,-37.109,0.000,-24.414,0.000
1709214920.911,0.000,-43.457,0.000,-43.457,0.000
1709214920.915,0.000,-41.992,0.000,-37.598,0.000
1709214920.919,-23.438,-40.527,-41.016,-21.973,0.000
1709214920.923,-35.156,-55.664,-52.246,-34.180,0.000
1709214920.927,-58.105,-55.664,-47.852,-62.500,0.000
1709214920.931,-61.523,-42.480,-43.457,-65.430,0.000
1709214920.935,-40.527,-46.387,-36.621,-41.504,0.000
1709214920.939,-25.391,-51.758,-42.480,-30.273,0.000
1709214920.943,-27.344,-42.969,-46.875,-40.527,0.000
1709214920.947,-39.062,-27.832,-34.180,-51.758,0.000
1709214920.951,-45.410,-33.203,-29.297,-54.199,0.000
1709214920.954,-38.086,-46.387,-29.297,-40.527,0.000
1709214920.958,-25.391,-53.711,-44.434,-24.414,0.000
1709214920.962,-27.832,-55.664,-45.410,-23.438,0.000
1709214920.966,-42.480,-45.898,-33.691,-40.039,0.000
1709214920.970,-44.922,-33.691,-33.203,-43.457,0.000
1709214920.974,-41.016,-33.691,-26.855,-33.691,0.000
1709214920.978,-29.297,-42.969,-21.973,-16.602,0.000
1709214920.982,-24.414,-62.988,-30.762,-6.836,0.000
1709214920.986,-40.039,-49.805,-41.016,-27.344,0.000
1709214920.990,-56.641,-26.855,-36.133,-41.504,0.000
1709214920.994,-56.641,-45.898,-33.691,-36.621,0.000
1709214920.997,-44.922,-65.918,-40.039,-18.066,0.000
1709214921.001,-33.203,-54.199,-48.828,-20.020,0.000
1709214921.005,-42.969,-44.434,-51.270,-40.527,0.000
1709214921.009,-62.988,-44.434,-46.387,-56.641,0.000
1709214921.013,-61.523,-57.617,-42.480,-55.664,0.000
1709214921.017,-28.320,-55.176,-33.691,-27.344,0.000
1709214921.021,-15.625,-39.551,-29.785,-13.672,0.000
1709214921.025,-34.180,-44.922,-20.996,-22.461,0.000
1709214921.029,-54.199,-52.734,-15.625,-35.645,0.000
1709214921.033,-58.594,-64.453,-28.320,-40.039,0.000
1709214921.036,-39.062,-63.965,-36.621,-21.484,0.000
1709214921.040,-21.484,-57.617,-32.227,-7.812,0.000
1709214921.044,-31.738,-61.523,-31.738,-16.113,0.000
1709214921.048,-55.176,-51.758,-35.156,-42.480,0.000
1709214921.052,-57.129,-44.922,-40.039,-43.457,0.000
1709214921.056,-30.273,-43.457,-38.574,-21.484,0.000
1709214921.060,-11.719,-41.504,-37.109,-9.766,0.000
1709214921.064,-26.855,-50.781,-38.574,-26.855,0.000
1709214921.068,-47.852,-56.152,-35.156,-52.246,0.000
1709214921.071,-50.293,-62.500,-35.645,-48.828,0.000
1709214921.075,-29.785,-59.570,-38.086,-29.297,0.000
1709214921.079,-21.973,-50.781,-46.875,-26.855,0.000
1709214921.083,-32.227,-55.176,-44.434,-39.062,0.000
1709214921.087,-45.410,-50.293,-34.180,-41.992,0.000
1709214921.091,-51.270,-54.688,-27.344,-43.945,0.000
1709214921.095,-31.250,-58.594,-23.926,-34.180,0.000
1709214921.099,-10.742,-36.621,-35.645,-13.672,0.000
1709214921.103,-17.090,-28.320,-36.133,-18.555,0.000
1709214921.106,-36.621,-27.344,-32.715,-44.922,0.000
1709214921.110,-41.992,-29.785,-40.527,-51.270,0.000
1709214921.114,-24.902,-40.039,-36.621,-36.621,0.000
1709214921.118,-6.348,-36.621,-34.668,-23.438,0.000
1709214921.122,-12.207,-35.156,-32.227,-25.879,0.000
1709214921.126,-27.344,-40.039,-23.926,-41.016,0.000
1709214921.130,-36.621,-46.387,-26.855,-52.734,0.000
1709214921.134,-36.621,-48.340,-42.480,-43.945,0.000
1709214921.138,-21.484,-39.551,-46.875,-36.133,0.000
1709214921.142,-13.672,-52.246,-41.992,-40.039,0.000
1709214921.146,-25.879,-57.129,-40.039,-51.758,0.000
1709214921.149,-36.621,-36.621,-38.086,-56.641,0.000
1709214921.153,-34.180,-34.668,-41.992,-44.434,0.000
1709214921.157,-18.066,-41.016,-33.691,-24.902,0.000
1709214921.161,-18.066,-42.480,-25.391,-17.578,0.000
1709214921.165,-37.598,-44.922,-39.062,-42.969,0.000
1709214921.169,-46.875,-35.645,-42.969,-62.500,0.000
1709214921.173,-47.363,-33.203,-43.457,-47.852,0.000
1709214921.177,-32.715,-38.086,-44.922,-21.973,0.000
1709214921.181,-22.461,-39.062,-37.109,-21.973,0.000
1709214921.184,-43.945,-44.434,-33.203,-43.945,0.000
1709214921.188,-53.223,-37.109,-31.250,-51.758,0.000
1709214921.192,-56.152,-32.227,-33.691,-45.898,0.000
1709214921.196,-41.504,-38.086,-33.691,-36.133,0.000
1709214921.200,-22.461,-42.480,-33.691,-35.156,0.000
1709214921.204,-43.457,-42.969,-42.969,-57.129,0.000
1709214921.208,-62.500,-40.527,-43.945,-71.289,0.000
1709214921.212,-61.035,-39.062,-43.457,-67.383,0.000
1709214921.216,-42.969,-40.039,-39.062,-50.781,0.000
1709214921.220,-32.227,-42.969,-36.133,-38.086,0.000
1709214921.224,-41.016,-40.527,-47.852,-44.434,0.000
1709214921.228,-58.105,-46.387,-54.688,-76.660,0.000
1709214921.231,-59.570,-59.082,-35.645,-80.566,0.000
1709214921.235,-36.621,-54.688,-30.273,-47.852,0.000
1709214921.239,-27.344,-38.574,-41.504,-32.715,0.000
1709214921.243,-38.574,-36.133,-46.387,-50.781,0.000
1709214921.247,-44.922,-41.992,-48.828,-67.383,0.000
1709214921.251,-51.758,-40.039,-42.969,-64.453,0.000
1709214921.255,-51.758,-36.621,-41.504,-54.199,0.000
1709214921.259,-33.203,-37.109,-44.434,-40.039,0.000
1709214921.263,-36.133,-44.434,-46.387,-43.457,0.000
1709214921.267,-53.223,-50.293,-39.062,-54.688,0.000
1709214921.271,-62.988,-48.340,-34.180,-54.688,0.000
1709214921.275,-51.270,-42.480,-37.109,-40.039,0.000
1709214921.278,-29.297,-53.223,-31.738,-17.578,0.000
1709214921.282,-32.715,-66.895,-36.133,-9.277,0.000
1709214921.286,-50.781,-42.969,-37.598,-32.715,0.000
1709214921.290,-63.477,-34.180,-37.109,-54.199,0.000
1709214921.294,-46.875,-37.598,-26.367,-34.180,0.000
1709214921.298,-30.762,-39.551,-26.367,-18.066,0.000
1709214921.302,-32.715,-49.805,-36.621,-27.344,0.000
1709214921.306,-43.945,-49.805,-30.762,-46.875,0.000
1709214921.310,-59.570,-50.781,-30.273,-57.129,0.000
1709214921.314,-49.805,-46.875,-29.297,-39.551,0.000
1709214921.318,-24.902,-47.363,-22.949,-15.137,0.000
1709214921.321,-30.273,-64.453,-29.785,-29.297,0.000
1709214921.325,-53.711,-57.129,-38.086,-55.176,0.000
1709214921.329,-63.477,-44.922,-37.109,-64.453,0.000
1709214921.333,-58.105,-37.598,-45.410,-60.547,0.000
1709214921.337,-41.016,-41.504,-42.480,-38.574,0.000
1709214921.341,-30.762,-51.758,-35.156,-31.738,0.000
1709214921.345,-46.875,-46.875,-35.156,-53.223,0.000
1709214921.349,-59.082,-33.691,-27.832,-64.453,0.000
1709214921.353,-52.734,-41.992,-26.855,-63.965,0.000
1709214921.357,-30.273,-62.012,-30.273,-43.945,0.000
1709214921.361,-16.113,-62.500,-35.156,-37.598,0.000
1709214921.364,-28.809,-54.199,-36.621,-53.223,0.000
1709214921.368,-47.363,-50.781,-36.621,-61.523,0.000
1709214921.372,-49.805,-62.500,-48.828,-54.688,0.000
1709214921.376,-39.062,-57.617,-56.152,-41.504,0.000
1709214921.380,-22.949,-34.668,-49.316,-31.738,0.000
1709214921.384,-34.668,-35.156,-50.781,-39.551,0.000
1709214921.388,-52.734,-42.480,-46.875,-51.758,0.000
1709214921.392,-53.223,-44.922,-32.715,-51.270,0.000
1709214921.396,-41.504,-52.246,-37.598,-43.457,0.000
1709214921.400,-25.879,-53.711,-44.434,-32.227,0.000
1709214921.403,-26.855,-47.852,-38.086,-32.715,0.000
1709214921.407,-50.781,-43.457,-38.574,-49.805,0.000
1709214921.411,-62.988,-48.828,-48.340,-58.594,0.000
1709214921.415,-50.293,-48.828,-46.875,-33.203,0.000
1709214921.419,-29.297,-32.227,-39.551,-1.465,0.000
1709214921.423,-31.738,-27.832,-44.922,-23.926,0.000
1709214921.427,-45.410,-50.293,-42.480,-50.781,0.000
1709214921.431,-40.527,-52.246,-29.785,-46.387,0.000
1709214921.435,-29.785,-37.109,-29.297,-32.715,0.000
1709214921.439,-18.555,-35.156,-36.133,-16.113,0.000
1709214921.442,-23.438,-38.574,-32.227,-20.508,0.000
1709214921.446,-44.922,-49.805,-32.715,-46.875,0.000
1709214921.450,-53.711,-49.805,-34.668,-54.199,0.000
1709214921.454,-37.109,-43.457,-35.156,-33.691,0.000
1709214921.458,-32.227,-51.758,-39.062,-27.344,0.000
1709214921.462,-35.156,-52.734,-31.250,-24.414,0.000
1709214921.466,-49.805,-46.387,-28.809,-40.527,0.000
1709214921.470,-62.012,-43.457,-30.273,-54.199,0.000
1709214921.474,-51.270,-49.316,-37.598,-40.527,0.000
1709214921.478,-30.762,-50.781,-42.480,-20.020,0.000
1709214921.481,-21.484,-38.086,-39.551,-11.719,0.000
1709214921.485,-37.598,-37.109,-40.527,-27.344,0.000
1709214921.489,-48.340,-45.410,-40.527,-40.039,0.000
1709214921.493,-38.086,-43.945,-40.527,-30.762,0.000
1709214921.497,-21.973,-49.805,-39.062,-10.742,0.000
1709214921.501,-20.020,-50.781,-30.762,-9.277,0.000
1709214921.505,-35.645,-43.945,-25.879,-26.367,0.000
1709214921.509,-55.176,-59.082,-32.227,-35.156,0.000
1709214921.513,-47.852,-59.570,-34.180,-32.227,0.000
1709214921.516,-28.809,-51.270,-39.062,-15.137,0.000
1709214921.520,-24.902,-59.570,-42.480,-8.789,0.000
1709214921.524,-26.367,-57.129,-37.109,-23.926,0.000
1709214921.528,-41.504,-48.340,-29.297,-36.133,0.000
1709214921.532,-47.852,-50.293,-33.691,-41.016,0.000
1709214921.536,-25.391,-43.945,-43.945,-21.484,0.000
1709214921.540,-17.090,-46.387,-44.434,-5.371,0.000
1709214921.544,-29.785,-60.059,-36.133,-22.949,0.000
1709214921.548,-49.805,-57.129,-36.621,-46.875,0.000
1709214921.551,-57.617,-50.293,-40.039,-51.270,0.000
1709214921.555,-41.504,-44.434,-40.527,-33.203,0.000
1709214921.559,-20.996,-41.992,-34.668,-19.043,0.000
1709214921.563,-26.367,-47.363,-30.762,-24.414,0.000
1709214921.567,-48.340,-57.129,-33.203,-34.180,0.000
1709214921.571,-56.152,-58.594,-42.969,-51.270,0.000
1709214921.575,-40.039,-43.945,-44.434,-37.598,0.000
1709214921.579,-23.438,-41.016,-40.527,-14.160,0.000
1709214921.583,-30.762,-48.828,-41.504,-25.391,0.000
1709214921.587,-41.016,-62.012,-41.504,-44.434,0.000
1709214921.591,-47.852,-60.547,-44.434,-52.734,0.000
1709214921.595,-41.016,-39.551,-51.758,-37.109,0.000
1709214921.598,-19.043,-33.203,-40.039,-9.766,0.000
1709214921.602,-24.902,-48.340,-35.156,-27.832,0.000
1709214921.606,-44.922,-54.688,-41.016,-54.688,0.000
1709214921.610,-55.176,-47.363,-41.992,-56.641,0.000
1709214921.614,-46.875,-50.293,-47.852,-45.898,0.000
1709214921.618,-22.461,-43.457,-43.457,-27.832,0.000
1709214921.622,-20.020,-31.250,-41.016,-26.367,0.000
1709214921.626,-36.133,-36.621,-38.574,-44.434,0.000
1709214921.630,-49.805,-44.922,-39.062,-55.664,0.000
1709214921.634,-44.434,-46.387,-38.574,-39.062,0.000
1709214921.638,-22.461,-44.434,-38.086,-20.020,0.000
1709214921.642,-18.555,-40.527,-33.203,-22.949,0.000
1709214921.646,-41.992,-45.898,-40.527,-43.457,0.000
1709214921.650,-59.082,-52.246,-48.340,-56.641,0.000
1709214921.653,-47.363,-48.828,-36.133,-49.805,0.000
1709214921.657,-27.832,-41.992,-32.227,-25.879,0.000
1709214921.661,-20.996,-49.316,-39.551,-21.484,0.000
1709214921.665,-33.203,-59.570,-30.273,-39.551,0.000
1709214921.670,-47.852,-46.875,-20.508,-50.293,0.000
1709214921.674,-50.781,-34.668,-34.180,-54.688,0.000
1709214921.678,-43.457,-41.992,-43.945,-42.480,0.000
1709214921.682,-41.016,-42.480,-42.969,-30.762,0.000
1709214921.685,-49.316,-47.852,-43.457,-41.016,0.000
1709214921.689,-61.035,-43.457,-48.828,-62.988,0.000
1709214921.693,-60.059,-29.297,-41.504,-63.477,0.000
1709214921.697,-44.434,-41.504,-38.574,-45.410,0.000
1709214921.701,-28.320,-41.016,-31.738,-27.344,0.000
1709214921.705,-40.527,-36.133,-35.156,-35.645,0.000
1709214921.709,-62.988,-45.410,-44.434,-62.012,0.000
1709214921.713,-55.176,-45.410,-30.762,-52.734,0.000
1709214921.717,-36.133,-46.875,-32.715,-27.344,0.000
1709214921.721,-29.785,-50.293,-37.109,-24.414,0.000
1709214921.724,-39.062,-51.758,-31.738,-38.086,0.000
1709214921.728,-47.852,-51.270,-34.180,-50.293,0.000
1709214921.732,-49.805,-52.734,-36.133,-57.129,0.000
1709214921.736,-38.574,-45.898,-30.762,-41.504,0.000
1709214921.740,-30.762,-35.645,-32.227,-35.645,0.000
1709214921.744,-32.715,-34.180,-34.180,-40.527,0.000
1709214921.748,-45.898,-41.016,-32.715,-47.363,0.000
1709214921.752,-59.570,-48.340,-44.434,-58.594,0.000
1709214921.756,-38.574,-50.293,-47.852,-41.504,0.000
1709214921.760,-22.461,-51.758,-43.457,-29.297,0.000
1709214921.763,-28.320,-44.434,-44.922,-45.898,0.000
1709214921.767,-40.039,-32.715,-33.203,-53.711,0.000
1709214921.771,-46.875,-37.109,-27.344,-52.246,0.000
1709214921.775,-41.016,-51.270,-38.086,-47.363,0.000
1709214921.779,-25.391,-51.758,-40.527,-30.273,0.000
1709214921.783,-28.809,-47.852,-38.086,-32.715,0.000
1709214921.787,-47.852,-43.457,-42.480,-58.594,0.000
1709214921.791,-59.570,-41.016,-44.434,-63.477,0.000
1709214921.795,-49.316,-43.457,-41.016,-45.898,0.000
1709214921.799,-26.855,-37.109,-37.109,-32.715,0.000
1709214921.803,-22.461,-38.574,-33.203,-28.320,0.000
1709214921.806,-43.457,-42.969,-35.645,-48.828,0.000
1709214921.810,-59.082,-41.016,-39.062,-65.918,0.000
1709214921.814,-45.898,-42.969,-37.598,-53.223,0.000
1709214921.818,-22.949,-43.457,-38.574,-28.809,0.000
1709214921.822,-33.203,-46.875,-40.039,-35.645,0.000
1709214921.826,-54.688,-49.805,-39.551,-60.547,0.000
1709214921.830,-56.641,-51.270,-39.062,-68.848,0.000
1709214921.834,-44.434,-38.574,-31.738,-46.387,0.000
1709214921.838,-36.133,-40.039,-31.738,-14.160,0.000
1709214921.841,-31.738,-42.969,-35.156,-8.789,0.000
1709214921.845,-37.598,-42.480,-31.738,-36.133,0.000
1709214921.849,-47.852,-45.898,-30.762,-52.246,0.000
1709214921.853,-45.410,-39.062,-32.715,-40.527,0.000
1709214921.857,-33.691,-34.180,-34.668,-20.508,0.000
1709214921.861,-33.203,-43.457,-37.109,-24.902,0.000
1709214921.865,-45.898,-50.293,-37.109,-48.340,0.000
1709214921.869,-56.152,-52.734,-37.598,-61.035,0.000
1709214921.873,-51.270,-54.199,-31.738,-53.711,0.000
1709214921.876,-37.598,-47.852,-30.762,-42.480,0.000
1709214921.880,-21.484,-45.898,-35.156,-33.203,0.000
1709214921.884,-20.020,-35.156,-32.227,-26.367,0.000
1709214921.888,-39.062,-35.156,-35.156,-47.363,0.000
1709214921.892,-44.434,-44.434,-44.922,-59.082,0.000
1709214921.896,-26.367,-41.992,-41.016,-33.203,0.000
1709214921.900,-21.973,-48.828,-36.133,-26.855,0.000
1709214921.904,-25.391,-51.270,-31.738,-36.133,0.000
1709214921.908,-47.363,-54.688,-34.180,-51.758,0.000
1709214921.911,-59.082,-54.688,-33.203,-55.664,0.000
1709214921.915,-45.898,-52.246,-41.016,-44.434,0.000
1709214921.919,-40.527,-46.387,-52.246,-38.574,0.000
1709214921.923,-49.805,-50.781,-45.898,-48.340,0.000
1709214921.927,-74.219,-49.805,-44.922,-67.871,0.000
1709214921.931,-80.566,-39.551,-49.805,-69.824,0.000
1709214921.935,-51.758,-35.156,-42.969,-43.945,0.000
1709214921.939,-26.367,-37.598,-35.156,-21.973,0.000
1709214921.943,-26.367,-43.457,-33.691,-20.508,0.000
1709214921.947,-36.133,-41.016,-37.109,-44.922,0.000
1709214921.951,-43.945,-41.992,-44.922,-56.152,0.000
1709214921.955,-32.227,-46.387,-41.504,-39.062,0.000
1709214921.958,-10.254,-51.758,-41.016,-24.902,0.000
1709214921.962,-8.789,-55.664,-46.875,-25.391,0.000
1709214921.966,-26.855,-45.410,-43.457,-42.480,0.000
1709214921.970,-35.645,-30.762,-39.062,-54.688,0.000
1709214921.974,-24.902,-31.250,-29.785,-38.086,0.000
1709214921.978,-10.742,-40.527,-29.785,-18.066,0.000
1709214921.982,-14.648,-49.316,-38.086,-20.996,0.000
1709214921.986,-35.156,-46.387,-42.480,-40.039,0.000
1709214921.990,-44.434,-42.969,-41.016,-52.734,0.000
1709214921.994,-31.250,-38.086,-34.668,-41.504,0.000
1709214921.998,-19.531,-43.457,-33.203,-25.879,0.000
1709214922.002,-17.578,-41.992,-34.180,-19.043,0.000
1709214922.005,-36.133,-48.340,-41.016,-39.062,0.000
1709214922.009,-56.641,-60.547,-45.410,-59.570,0.000
1709214922.013,-55.664,-55.664,-40.527,-47.363,0.000
1709214922.017,-43.945,-61.035,-40.039,-31.250,0.000
1709214922.021,-36.133,-55.176,-33.203,-25.391,0.000
1709214922.025,-38.574,-48.340,-28.809,-40.039,0.000
1709214922.029,-41.016,-46.875,-24.414,-48.340,0.000
1709214922.033,-38.086,-40.527,-18.066,-30.273,0.000
1709214922.037,-20.996,-36.133,-24.414,-15.625,0.000
1709214922.041,-6.836,-33.203,-25.391,-10.742,0.000
1709214922.045,-15.625,-33.203,-30.273,-20.996,0.000
1709214922.048,-36.133,-40.039,-42.969,-37.109,0.000
1709214922.052,-38.574,-51.270,-45.898,-45.898,0.000
1709214922.056,-20.020,-47.852,-39.062,-31.738,0.000
1709214922.060,-4.883,-34.180,-41.504,-20.508,0.000
1709214922.064,-10.254,-31.738,-47.363,-35.156,0.000
1709214922.068,-33.691,-41.016,-41.016,-61.035,0.000
1709214922.072,-40.039,-40.527,-28.809,-60.547,0.000
1709214922.076,-26.367,-39.551,-27.832,-31.250,0.000
1709214922.080,-11.719,-40.039,-34.668,-15.625,0.000
1709214922.084,-16.602,-38.086,-39.551,-30.273,0.000
1709214922.088,-34.180,-44.922,-44.922,-52.246,0.000
