timestamps,TP9,AF7,AF8,TP10,Right AUX
1709212409.809,-44.434,-39.551,-32.227,-44.434,0.000
1709212409.813,-52.246,-42.480,-42.969,-46.387,0.000
1709212409.817,-61.523,-37.109,-40.039,-45.410,0.000
1709212409.821,-61.523,-40.039,-30.762,-46.875,0.000
1709212409.825,-52.734,-29.297,-32.227,-51.758,0.000
1709212409.829,-48.828,-33.691,-41.504,-53.223,0.000
1709212409.833,-55.176,-53.223,-42.969,-40.527,0.000
1709212409.837,-55.664,-40.039,-36.133,-49.805,0.000
1709212409.840,-57.617,-31.250,-32.715,-50.781,0.000
1709212409.844,-62.500,-41.992,-35.156,-44.922,0.000
1709212409.848,-55.176,-44.922,-37.598,-51.270,0.000
1709212409.852,-50.781,-45.410,-35.645,-49.316,0.000
1709212409.856,-56.152,-44.434,-33.691,-47.852,0.000
1709212409.860,-54.688,-41.504,-41.016,-49.805,0.000
1709212409.864,-53.223,-42.480,-47.363,-55.176,0.000
1709212409.868,-55.176,-36.133,-40.527,-52.246,0.000
1709212409.872,-52.734,-33.203,-42.969,-51.270,0.000
1709212409.876,-44.434,-45.410,-44.434,-43.457,0.000
1709212409.880,-37.598,-43.457,-38.086,-40.039,0.000
1709212409.884,-31.250,-33.691,-39.551,-44.434,0.000
1709212409.887,-20.020,-41.992,-42.969,-40.527,0.000
1709212409.891,-24.902,-47.363,-40.039,-33.203,0.000
1709212409.895,-31.250,-39.062,-35.156,-30.273,0.000
1709212409.899,-23.926,-37.109,-37.598,-33.203,0.000
1709212409.904,-22.949,-40.527,-42.480,-35.156,0.000
1709212409.908,-30.273,-41.992,-40.039,-40.039,0.000
1709212409.911,-38.574,-44.434,-35.156,-42.480,0.000
1709212409.915,-43.457,-44.922,-37.598,-35.645,0.000
1709212409.919,-42.969,-40.527,-40.039,-32.227,0.000
1709212409.923,-44.434,-41.992,-36.133,-40.039,0.000
1709212409.927,-39.551,-49.316,-35.156,-39.551,0.000
1709212409.931,-45.410,-46.875,-39.062,-44.434,0.000
1709212409.935,-57.617,-39.062,-34.180,-41.992,0.000
1709212409.939,-59.570,-38.086,-40.039,-27.832,0.000
1709212409.943,-56.641,-37.598,-44.922,-38.086,0.000
1709212409.947,-51.270,-38.574,-43.457,-46.387,0.000
1709212409.951,-45.898,-42.480,-35.156,-40.039,0.000
1709212409.954,-47.363,-48.340,-36.133,-39.551,0.000
1709212409.958,-51.270,-42.480,-44.434,-38.086,0.000
1709212409.962,-45.410,-39.062,-32.715,-29.785,0.000
1709212409.966,-43.457,-42.480,-32.715,-30.762,0.000
1709212409.970,-49.805,-43.457,-41.992,-41.016,0.000
1709212409.974,-55.664,-36.133,-40.039,-39.062,0.000
1709212409.978,-43.945,-25.879,-28.809,-26.367,0.000
1709212409.982,-24.414,-27.832,-26.367,-12.695,0.000
1709212409.986,-26.855,-37.109,-35.156,-19.043,0.000
1709212409.990,-29.297,-38.574,-31.250,-28.809,0.000
1709212409.994,-24.414,-40.039,-27.344,-24.902,0.000
1709212409.997,-27.832,-44.434,-30.273,-22.461,0.000
1709212410.001,-32.227,-47.363,-39.062,-27.344,0.000
1709212410.005,-32.715,-43.457,-40.527,-31.738,0.000
1709212410.009,-26.367,-32.715,-38.086,-34.180,0.000
1709212410.013,-25.879,-35.156,-39.551,-33.691,0.000
1709212410.017,-25.391,-43.457,-37.598,-32.227,0.000
1709212410.021,-23.438,-40.527,-34.180,-30.762,0.000
1709212410.025,-24.902,-33.203,-37.598,-30.762,0.000
1709212410.029,-36.621,-33.691,-41.504,-35.156,0.000
1709212410.033,-46.387,-39.062,-32.227,-42.969,0.000
1709212410.036,-41.992,-45.898,-34.180,-49.316,0.000
1709212410.040,-35.645,-42.480,-39.062,-46.875,0.000
1709212410.044,-37.598,-36.133,-41.992,-42.480,0.000
1709212410.048,-40.039,-40.527,-42.480,-41.992,0.000
1709212410.052,-39.551,-46.875,-37.109,-35.156,0.000
1709212410.056,-40.527,-41.504,-32.715,-30.273,0.000
1709212410.060,-36.621,-38.086,-40.039,-36.621,0.000
1709212410.064,-34.668,-47.363,-47.852,-39.062,0.000
1709212410.068,-31.738,-50.781,-45.898,-34.180,0.000
1709212410.072,-34.180,-39.062,-37.109,-24.902,0.000
1709212410.075,-39.062,-27.344,-40.527,-23.926,0.000
1709212410.079,-40.527,-32.715,-47.363,-32.715,0.000
1709212410.083,-35.645,-38.086,-40.039,-34.180,0.000
1709212410.087,-35.645,-39.062,-43.945,-34.668,0.000
1709212410.091,-39.062,-39.062,-44.922,-42.480,0.000
1709212410.095,-41.504,-39.062,-40.527,-46.875,0.000
1709212410.099,-46.875,-43.945,-41.992,-50.293,0.000
1709212410.103,-44.434,-48.340,-39.551,-45.898,0.000
1709212410.107,-31.738,-55.176,-35.156,-41.992,0.000
1709212410.111,-28.320,-51.758,-35.645,-48.828,0.000
1709212410.115,-35.156,-42.480,-36.133,-54.199,0.000
1709212410.118,-36.133,-49.316,-39.551,-42.969,0.000
1709212410.122,-32.715,-59.082,-47.363,-46.387,0.000
1709212410.126,-28.320,-55.176,-42.480,-45.410,0.000
1709212410.130,-25.391,-49.316,-35.156,-36.133,0.000
1709212410.134,-25.391,-48.828,-32.715,-28.809,0.000
1709212410.138,-27.832,-45.410,-33.691,-25.391,0.000
1709212410.142,-35.645,-42.969,-35.645,-26.855,0.000
1709212410.146,-25.879,-43.945,-35.156,-15.137,0.000
1709212410.150,-17.090,-44.922,-36.133,-15.625,0.000
1709212410.153,-27.832,-36.133,-41.016,-24.902,0.000
1709212410.157,-32.715,-35.156,-42.480,-23.926,0.000
1709212410.161,-36.133,-40.527,-45.410,-20.020,0.000
1709212410.165,-39.062,-40.039,-51.758,-22.949,0.000
1709212410.169,-35.156,-34.668,-43.457,-28.320,0.000
1709212410.173,-33.691,-38.574,-37.109,-26.367,0.000
1709212410.177,-38.574,-43.457,-41.504,-25.391,0.000
1709212410.181,-34.180,-35.156,-38.086,-25.391,0.000
1709212410.185,-29.785,-27.344,-32.715,-26.855,0.000
1709212410.188,-40.039,-33.203,-35.645,-41.016,0.000
1709212410.192,-41.504,-45.898,-36.133,-47.363,0.000
1709212410.196,-46.387,-43.457,-33.691,-40.039,0.000
1709212410.200,-54.199,-32.227,-42.480,-41.992,0.000
1709212410.204,-51.758,-36.133,-43.457,-42.480,0.000
1709212410.208,-46.387,-41.016,-35.645,-28.320,0.000
1709212410.212,-50.293,-35.156,-39.551,-33.203,0.000
1709212410.216,-53.711,-36.133,-39.062,-43.457,0.000
1709212410.220,-44.434,-35.645,-31.250,-40.039,0.000
1709212410.224,-47.363,-36.621,-35.645,-41.992,0.000
1709212410.228,-55.176,-37.109,-42.969,-43.457,0.000
1709212410.232,-53.711,-43.945,-39.551,-38.574,0.000
1709212410.235,-57.129,-57.129,-29.785,-33.691,0.000
1709212410.239,-53.223,-54.199,-27.344,-34.180,0.000
1709212410.243,-48.340,-44.922,-28.809,-33.691,0.000
1709212410.247,-53.223,-39.062,-33.203,-38.574,0.000
1709212410.251,-57.129,-43.457,-36.133,-49.805,0.000
1709212410.255,-55.176,-43.457,-35.645,-50.293,0.000
1709212410.259,-52.246,-38.086,-35.156,-52.734,0.000
1709212410.263,-46.387,-32.715,-33.691,-45.410,0.000
1709212410.267,-40.527,-33.203,-32.227,-32.715,0.000
1709212410.271,-41.992,-30.762,-33.203,-38.574,0.000
1709212410.275,-40.039,-38.574,-35.156,-43.945,0.000
1709212410.279,-28.809,-41.016,-34.668,-35.645,0.000
1709212410.282,-23.438,-28.809,-34.668,-28.320,0.000
1709212410.286,-25.879,-30.273,-37.109,-31.738,0.000
1709212410.290,-22.949,-34.180,-39.551,-41.016,0.000
1709212410.294,-18.066,-27.832,-35.156,-44.922,0.000
1709212410.298,-13.672,-19.043,-31.250,-40.039,0.000
1709212410.302,-18.555,-28.320,-31.738,-32.227,0.000
1709212410.306,-24.902,-39.551,-33.691,-34.668,0.000
1709212410.310,-22.461,-35.645,-31.250,-29.297,0.000
1709212410.314,-24.414,-30.273,-28.809,-11.719,0.000
1709212410.318,-26.855,-34.668,-32.715,-19.531,0.000
1709212410.321,-25.879,-41.504,-36.133,-25.879,0.000
1709212410.325,-23.926,-36.621,-30.273,-22.949,0.000
1709212410.329,-25.391,-32.715,-30.273,-30.762,0.000
1709212410.333,-30.762,-42.969,-38.574,-32.715,0.000
1709212410.337,-33.691,-44.434,-32.227,-30.273,0.000
1709212410.341,-32.715,-37.109,-28.809,-31.738,0.000
1709212410.345,-34.180,-41.504,-33.691,-34.180,0.000
1709212410.349,-38.086,-39.062,-32.715,-37.109,0.000
1709212410.353,-31.738,-36.133,-31.738,-36.133,0.000
1709212410.357,-32.227,-44.922,-38.574,-26.367,0.000
1709212410.361,-34.180,-46.387,-42.480,-28.809,0.000
1709212410.364,-34.668,-47.363,-43.457,-40.527,0.000
1709212410.368,-35.645,-45.410,-42.480,-44.922,0.000
1709212410.372,-34.180,-37.109,-36.621,-46.387,0.000
1709212410.376,-44.434,-34.668,-39.062,-52.246,0.000
1709212410.380,-45.410,-45.898,-45.898,-45.410,0.000
1709212410.384,-41.992,-51.758,-43.945,-40.039,0.000
1709212410.388,-39.062,-44.922,-42.969,-46.875,0.000
1709212410.392,-41.504,-45.898,-45.898,-47.363,0.000
1709212410.396,-45.410,-44.434,-46.875,-55.664,0.000
1709212410.400,-45.898,-41.016,-41.016,-50.293,0.000
1709212410.404,-51.758,-44.922,-41.504,-29.297,0.000
1709212410.407,-54.688,-46.387,-44.922,-33.203,0.000
1709212410.411,-54.688,-41.992,-41.504,-42.480,0.000
1709212410.415,-46.387,-36.621,-37.598,-40.039,0.000
1709212410.419,-42.969,-34.668,-35.645,-33.203,0.000
1709212410.423,-42.480,-38.574,-37.109,-33.691,0.000
1709212410.427,-44.922,-42.969,-39.551,-35.645,0.000
1709212410.431,-40.527,-43.945,-37.598,-32.227,0.000
1709212410.435,-32.715,-44.434,-31.250,-26.367,0.000
1709212410.439,-36.133,-44.434,-31.250,-23.926,0.000
1709212410.443,-38.574,-34.180,-33.691,-29.785,0.000
1709212410.446,-33.203,-36.621,-28.809,-25.879,0.000
1709212410.450,-31.250,-36.621,-23.926,-22.461,0.000
1709212410.454,-38.574,-29.297,-29.297,-31.738,0.000
1709212410.458,-37.109,-41.504,-39.062,-34.180,0.000
1709212410.462,-34.180,-46.875,-45.898,-39.062,0.000
1709212410.466,-25.879,-36.133,-41.016,-26.367,0.000
1709212410.470,-25.879,-34.180,-34.668,-19.531,0.000
1709212410.474,-28.320,-38.574,-32.715,-27.344,0.000
1709212410.478,-30.762,-43.457,-40.527,-33.691,0.000
1709212410.482,-30.273,-45.898,-40.527,-31.738,0.000
1709212410.485,-20.020,-36.621,-29.297,-23.438,0.000
1709212410.489,-21.973,-26.367,-34.180,-26.367,0.000
1709212410.493,-32.227,-33.203,-39.062,-21.484,0.000
1709212410.497,-36.133,-38.086,-41.504,-25.391,0.000
1709212410.501,-32.227,-38.574,-40.527,-28.809,0.000
1709212410.505,-22.949,-46.387,-36.621,-23.926,0.000
1709212410.509,-20.508,-42.480,-36.133,-20.996,0.000
1709212410.513,-30.273,-36.621,-38.086,-24.902,0.000
1709212410.517,-31.738,-40.039,-34.180,-24.902,0.000
1709212410.520,-30.762,-42.969,-27.344,-22.949,0.000
1709212410.524,-27.344,-34.180,-29.297,-19.531,0.000
1709212410.528,-26.367,-26.855,-32.227,-18.066,0.000
1709212410.532,-32.227,-35.645,-35.645,-21.973,0.000
1709212410.536,-26.855,-35.645,-35.156,-18.066,0.000
1709212410.540,-26.855,-29.785,-33.691,-16.113,0.000
1709212410.544,-25.391,-37.598,-29.785,-26.367,0.000
1709212410.548,-18.555,-37.598,-27.832,-22.949,0.000
1709212410.552,-20.996,-35.156,-36.621,-23.438,0.000
1709212410.556,-33.203,-38.086,-40.039,-33.203,0.000
1709212410.559,-28.809,-32.715,-33.203,-29.297,0.000
1709212410.563,-30.762,-30.762,-37.598,-33.203,0.000
1709212410.567,-35.156,-35.645,-45.410,-42.480,0.000
1709212410.571,-32.227,-42.480,-46.875,-41.016,0.000
1709212410.575,-40.039,-39.062,-46.875,-41.504,0.000
1709212410.579,-38.086,-41.992,-46.387,-39.551,0.000
1709212410.583,-21.973,-51.758,-30.273,-25.879,0.000
1709212410.587,-24.902,-45.898,-31.738,-34.180,0.000
1709212410.591,-26.855,-35.645,-41.016,-34.668,0.000
1709212410.595,-28.320,-31.738,-41.992,-37.598,0.000
1709212410.598,-37.598,-37.109,-47.852,-42.969,0.000
1709212410.602,-33.691,-40.039,-46.387,-32.715,0.000
1709212410.606,-33.203,-38.574,-46.875,-40.527,0.000
1709212410.610,-32.715,-42.480,-36.621,-35.156,0.000
1709212410.614,-34.668,-47.852,-26.855,-24.414,0.000
1709212410.618,-36.133,-41.016,-35.156,-30.273,0.000
1709212410.622,-38.574,-37.109,-41.992,-36.133,0.000
1709212410.626,-37.598,-45.410,-40.527,-29.785,0.000
1709212410.630,-32.227,-44.434,-41.504,-28.809,0.000
1709212410.634,-36.133,-37.598,-42.480,-36.133,0.000
1709212410.638,-46.875,-45.898,-45.410,-41.504,0.000
1709212410.642,-38.574,-43.457,-43.457,-28.320,0.000
1709212410.645,-41.016,-39.551,-38.086,-36.621,0.000
1709212410.649,-56.152,-41.504,-36.133,-57.617,0.000
1709212410.653,-51.758,-46.875,-31.250,-49.316,0.000
1709212410.657,-53.223,-49.316,-28.320,-40.527,0.000
1709212410.661,-54.199,-42.969,-32.227,-35.645,0.000
1709212410.665,-47.363,-44.922,-32.715,-33.691,0.000
1709212410.669,-45.410,-40.527,-28.809,-32.227,0.000
1709212410.673,-46.875,-38.574,-29.785,-30.273,0.000
1709212410.677,-42.480,-53.711,-27.344,-31.738,0.000
1709212410.681,-39.551,-47.363,-22.949,-29.297,0.000
1709212410.685,-38.086,-30.273,-26.855,-22.949,0.000
1709212410.688,-34.180,-31.250,-30.273,-19.043,0.000
1709212410.692,-34.180,-35.156,-31.738,-28.320,0.000
1709212410.696,-40.527,-36.621,-32.715,-40.039,0.000
1709212410.700,-38.574,-36.621,-32.227,-34.668,0.000
1709212410.704,-36.133,-38.086,-34.668,-33.691,0.000
1709212410.708,-39.551,-37.109,-42.480,-42.969,0.000
1709212410.712,-35.645,-48.340,-39.062,-41.504,0.000
1709212410.716,-40.039,-53.223,-36.621,-37.598,0.000
1709212410.720,-35.645,-33.691,-27.344,-26.367,0.000
1709212410.724,-35.156,-28.809,-30.273,-32.227,0.000
1709212410.728,-36.621,-24.902,-39.551,-39.062,0.000
1709212410.731,-33.203,-38.086,-38.574,-32.227,0.000
1709212410.735,-33.691,-47.852,-37.598,-35.156,0.000
1709212410.739,-31.738,-37.109,-39.551,-39.062,0.000
1709212410.743,-26.367,-39.551,-41.504,-33.691,0.000
1709212410.747,-23.926,-50.781,-40.039,-28.320,0.000
1709212410.751,-30.762,-47.852,-36.133,-32.715,0.000
1709212410.755,-35.645,-42.969,-36.621,-37.598,0.000
1709212410.759,-45.410,-48.828,-41.992,-45.410,0.000
1709212410.763,-49.316,-48.340,-37.598,-48.340,0.000
1709212410.767,-49.316,-47.852,-38.574,-49.316,0.000
1709212410.771,-54.199,-47.852,-46.875,-54.688,0.000
1709212410.774,-53.711,-47.363,-46.387,-52.246,0.000
1709212410.778,-47.363,-43.457,-36.133,-32.715,0.000
1709212410.782,-42.969,-37.109,-36.621,-42.480,0.000
1709212410.786,-41.504,-41.504,-38.086,-57.129,0.000
1709212410.790,-41.016,-44.922,-41.992,-50.293,0.000
1709212410.794,-43.945,-48.828,-46.875,-48.340,0.000
1709212410.798,-42.480,-45.898,-40.527,-51.270,0.000
1709212410.802,-37.109,-48.828,-31.738,-44.434,0.000
1709212410.806,-43.457,-52.246,-39.062,-44.434,0.000
1709212410.810,-55.176,-46.875,-46.875,-59.082,0.000
1709212410.813,-47.363,-45.898,-42.480,-50.293,0.000
1709212410.817,-47.852,-48.340,-44.434,-42.480,0.000
1709212410.821,-45.410,-53.711,-47.363,-33.691,0.000
1709212410.825,-35.645,-48.340,-40.527,-32.227,0.000
1709212410.829,-38.574,-41.992,-32.227,-45.898,0.000
1709212410.833,-42.969,-43.457,-32.715,-49.316,0.000
1709212410.837,-50.293,-42.480,-38.574,-51.270,0.000
1709212410.841,-50.293,-44.434,-36.621,-43.945,0.000
1709212410.845,-38.086,-46.387,-35.156,-35.645,0.000
1709212410.849,-38.086,-48.828,-32.715,-37.109,0.000
1709212410.852,-49.805,-46.387,-33.691,-36.621,0.000
1709212410.856,-48.340,-40.527,-39.551,-34.668,0.000
1709212410.860,-45.898,-49.805,-42.969,-35.156,0.000
1709212410.864,-38.086,-47.363,-34.180,-25.879,0.000
1709212410.868,-36.621,-46.387,-32.227,-17.578,0.000
1709212410.872,-41.504,-46.387,-38.574,-30.273,0.000
1709212410.876,-40.039,-31.738,-33.691,-31.250,0.000
1709212410.880,-37.109,-36.133,-33.203,-28.809,0.000
1709212410.884,-32.227,-45.410,-32.227,-30.762,0.000
1709212410.887,-33.691,-41.016,-35.645,-35.156,0.000
1709212410.891,-37.109,-37.109,-36.133,-34.180,0.000
1709212410.895,-39.551,-37.598,-33.691,-28.809,0.000
1709212410.899,-38.574,-33.203,-34.668,-30.273,0.000
1709212410.903,-30.762,-39.551,-32.227,-28.320,0.000
1709212410.907,-24.414,-42.480,-38.086,-32.715,0.000
1709212410.911,-20.508,-38.086,-41.504,-25.879,0.000
1709212410.915,-26.855,-41.504,-36.621,-17.090,0.000
1709212410.919,-38.086,-42.969,-39.551,-30.762,0.000
1709212410.923,-29.785,-45.410,-42.969,-31.250,0.000
1709212410.927,-13.672,-35.156,-35.156,-22.461,0.000
1709212410.930,-19.043,-32.227,-36.621,-37.598,0.000
1709212410.934,-28.320,-41.016,-44.434,-48.340,0.000
1709212410.938,-30.273,-43.457,-44.434,-47.363,0.000
1709212410.942,-30.273,-41.016,-41.016,-47.852,0.000
1709212410.946,-32.227,-46.387,-44.922,-50.293,0.000
1709212410.950,-35.156,-51.270,-52.246,-54.199,0.000
1709212410.954,-48.828,-47.852,-53.223,-55.176,0.000
1709212410.958,-56.641,-48.828,-44.434,-35.156,0.000
1709212410.962,-42.969,-43.945,-41.016,-26.367,0.000
1709212410.965,-37.109,-35.645,-43.945,-30.273,0.000
1709212410.969,-40.527,-40.039,-41.504,-27.832,0.000
1709212410.973,-42.480,-48.828,-39.062,-28.809,0.000
1709212410.977,-40.039,-41.504,-34.668,-29.785,0.000
1709212410.981,-40.039,-42.480,-32.715,-28.809,0.000
1709212410.985,-41.016,-44.922,-36.621,-27.832,0.000
1709212410.989,-35.645,-35.156,-38.574,-29.297,0.000
1709212410.993,-39.551,-41.992,-38.086,-36.133,0.000
1709212410.996,-37.598,-40.039,-30.762,-27.344,0.000
1709212411.000,-36.133,-43.457,-31.738,-21.973,0.000
1709212411.004,-40.527,-47.363,-45.410,-28.320,0.000
1709212411.008,-42.969,-39.062,-45.410,-38.086,0.000
1709212411.012,-36.133,-43.457,-36.621,-40.527,0.000
1709212411.016,-33.691,-44.922,-34.180,-30.273,0.000
1709212411.020,-34.180,-37.598,-32.227,-26.367,0.000
1709212411.024,-26.855,-34.180,-29.297,-31.250,0.000
1709212411.028,-27.832,-34.180,-35.156,-37.109,0.000
1709212411.032,-36.621,-33.691,-37.109,-41.016,0.000
1709212411.036,-40.039,-41.992,-40.527,-44.434,0.000
1709212411.040,-44.434,-50.781,-43.945,-47.363,0.000
1709212411.043,-45.410,-45.410,-40.039,-38.086,0.000
1709212411.047,-44.922,-40.039,-38.574,-34.180,0.000
1709212411.051,-41.504,-36.133,-32.715,-34.668,0.000
1709212411.055,-37.598,-36.133,-37.109,-33.203,0.000
1709212411.059,-38.574,-46.875,-45.410,-37.598,0.000
1709212411.063,-36.621,-50.781,-47.363,-34.180,0.000
1709212411.067,-33.203,-48.828,-47.363,-42.480,0.000
1709212411.071,-31.250,-38.574,-39.062,-45.410,0.000
1709212411.075,-34.668,-36.133,-35.645,-32.715,0.000
1709212411.079,-41.504,-40.527,-39.062,-35.645,0.000
1709212411.083,-35.156,-41.504,-36.621,-45.898,0.000
1709212411.086,-35.156,-45.898,-41.992,-51.270,0.000
1709212411.090,-40.527,-46.387,-43.945,-50.781,0.000
1709212411.094,-40.527,-45.898,-36.621,-45.898,0.000
1709212411.098,-44.434,-50.781,-38.574,-45.898,0.000
1709212411.102,-46.387,-48.340,-42.480,-45.410,0.000
1709212411.106,-42.969,-40.039,-33.203,-33.691,0.000
1709212411.110,-46.387,-44.922,-34.180,-40.527,0.000
1709212411.114,-45.410,-44.922,-33.691,-47.363,0.000
1709212411.118,-49.316,-43.945,-31.250,-42.480,0.000
1709212411.122,-46.875,-43.945,-33.203,-52.246,0.000
1709212411.126,-43.457,-41.504,-37.598,-50.293,0.000
1709212411.129,-47.852,-36.133,-35.156,-41.992,0.000
1709212411.133,-47.363,-34.668,-36.133,-43.457,0.000
1709212411.137,-48.340,-39.551,-38.086,-38.574,0.000
1709212411.141,-46.875,-47.363,-41.504,-34.668,0.000
1709212411.145,-36.133,-42.480,-38.086,-28.809,0.000
1709212411.149,-26.367,-26.367,-33.691,-25.879,0.000
1709212411.153,-31.250,-33.691,-35.645,-23.926,0.000
1709212411.157,-40.527,-42.480,-41.504,-40.039,0.000
1709212411.161,-42.969,-33.203,-44.434,-48.340,0.000
1709212411.165,-43.945,-30.273,-39.062,-46.387,0.000
1709212411.168,-45.898,-38.086,-43.945,-54.199,0.000
1709212411.172,-41.992,-37.109,-41.016,-52.246,0.000
1709212411.176,-40.527,-38.574,-35.156,-46.387,0.000
1709212411.180,-40.527,-40.039,-37.598,-42.969,0.000
1709212411.184,-46.387,-36.133,-39.551,-45.410,0.000
1709212411.188,-42.969,-39.551,-34.180,-48.340,0.000
1709212411.192,-35.156,-47.363,-28.809,-45.410,0.000
1709212411.196,-37.598,-51.270,-29.297,-29.785,0.000
1709212411.200,-41.504,-45.898,-32.227,-28.809,0.000
1709212411.204,-36.133,-36.621,-35.645,-38.574,0.000
1709212411.208,-37.109,-34.180,-41.504,-35.645,0.000
1709212411.211,-41.992,-41.504,-42.480,-35.156,0.000
1709212411.215,-47.363,-43.945,-41.992,-41.016,0.000
1709212411.219,-45.410,-36.621,-38.574,-41.992,0.000
1709212411.223,-42.969,-44.434,-35.156,-43.457,0.000
1709212411.227,-40.527,-45.410,-30.273,-40.527,0.000
1709212411.231,-36.133,-30.273,-23.438,-39.551,0.000
1709212411.235,-44.434,-38.086,-27.344,-41.016,0.000
1709212411.239,-43.945,-48.340,-30.762,-35.156,0.000
1709212411.243,-44.434,-50.781,-41.504,-28.320,0.000
1709212411.247,-43.945,-44.434,-43.457,-35.645,0.000
1709212411.250,-39.062,-35.156,-36.621,-42.969,0.000
1709212411.254,-37.109,-31.738,-45.410,-43.457,0.000
1709212411.258,-31.250,-30.762,-49.805,-38.574,0.000
1709212411.262,-25.391,-33.691,-44.434,-36.133,0.000
1709212411.266,-20.508,-34.180,-39.551,-35.645,0.000
1709212411.270,-24.902,-30.273,-39.062,-39.551,0.000
1709212411.274,-29.297,-30.762,-41.016,-41.992,0.000
1709212411.278,-27.832,-30.762,-41.016,-35.645,0.000
1709212411.282,-29.785,-38.574,-40.039,-32.227,0.000
1709212411.285,-32.715,-48.828,-39.551,-31.738,0.000
1709212411.289,-40.039,-41.016,-39.551,-37.109,0.000
1709212411.293,-47.852,-37.109,-40.527,-47.852,0.000
1709212411.297,-45.898,-39.551,-45.898,-41.016,0.000
1709212411.301,-43.945,-32.715,-46.875,-33.203,0.000
1709212411.305,-41.016,-38.086,-41.504,-33.691,0.000
1709212411.309,-47.363,-47.852,-46.387,-45.898,0.000
1709212411.313,-61.523,-47.852,-45.410,-49.805,0.000
1709212411.317,-56.152,-41.504,-38.574,-38.574,0.000
1709212411.320,-51.758,-43.945,-40.527,-34.668,0.000
1709212411.324,-53.711,-50.781,-36.133,-38.574,0.000
1709212411.328,-45.410,-53.711,-26.367,-29.785,0.000
1709212411.332,-38.086,-57.129,-27.344,-19.043,0.000
1709212411.336,-42.969,-52.246,-38.086,-25.879,0.000
1709212411.340,-35.645,-38.086,-38.574,-27.344,0.000
1709212411.344,-26.855,-31.250,-38.086,-26.855,0.000
1709212411.348,-23.438,-36.621,-40.527,-18.555,0.000
1709212411.352,-23.438,-40.527,-34.180,-18.066,0.000
1709212411.355,-17.090,-34.668,0.000,-18.066,0.000
1709212411.359,-15.625,-28.809,0.000,-19.531,0.000
1709212411.363,-23.926,-29.297,0.000,-24.414,0.000
1709212411.367,-15.137,-28.809,0.000,-23.438,0.000
1709212411.371,-20.508,-36.133,0.000,-26.855,0.000
1709212411.375,-32.227,-50.293,0.000,-30.762,0.000
1709212411.379,-33.691,-50.293,0.000,-33.203,0.000
1709212411.383,-38.086,-42.480,0.000,-33.691,0.000
1709212411.387,-41.016,-43.457,0.000,-39.551,0.000
1709212411.391,-38.574,-46.875,0.000,-37.109,0.000
1709212411.394,-40.527,-41.504,0.000,-30.762,0.000
1709212411.398,-50.293,-38.086,0.000,-38.086,0.000
1709212411.402,-48.828,-32.227,-41.992,-38.086,0.000
1709212411.406,-40.039,-30.762,-35.645,-33.203,0.000
1709212411.410,-36.133,-34.180,-33.691,-38.086,0.000
1709212411.414,-37.109,-37.109,-29.785,-36.133,0.000
1709212411.418,-42.480,-45.410,-33.691,-31.250,0.000
1709212411.422,-40.039,-46.875,-40.527,-29.785,0.000
1709212411.426,-30.273,-38.574,-41.504,-28.809,0.000
1709212411.430,-28.809,-37.598,-45.410,-37.109,0.000
1709212411.434,-32.227,-41.016,-43.945,-32.227,0.000
1709212411.438,-28.809,-43.945,-35.156,-16.113,0.000
1709212411.441,-18.555,-34.668,-28.320,-20.020,0.000
1709212411.445,-22.461,-32.227,-32.227,-33.203,0.000
1709212411.449,-33.203,-45.898,-41.504,-39.551,0.000
1709212411.453,-37.109,-50.293,-41.992,-35.645,0.000
1709212411.457,-38.086,-51.270,-39.551,-31.738,0.000
1709212411.461,-32.715,-53.711,-44.434,-34.180,0.000
1709212411.465,-26.367,-44.922,-47.852,-30.762,0.000
1709212411.469,-20.020,-37.109,-46.387,-35.645,0.000
1709212411.473,-18.555,-38.574,-42.969,-38.086,0.000
1709212411.477,-18.555,-37.598,-41.504,-25.879,0.000
1709212411.481,-22.949,-40.039,-51.758,-18.555,0.000
1709212411.484,-21.484,-38.574,-54.688,-12.695,0.000
1709212411.488,-16.113,-37.109,-52.734,-15.625,0.000
1709212411.492,-12.207,-37.598,-48.828,-16.602,0.000
1709212411.496,-8.301,-38.086,-44.434,-5.859,0.000
1709212411.500,-10.254,-43.945,-47.852,-11.719,0.000
1709212411.504,-11.719,-41.504,-45.410,-15.625,0.000
1709212411.508,-8.301,-29.785,-40.527,-5.859,0.000
1709212411.512,-8.789,-31.250,-47.363,-4.883,0.000
1709212411.516,-12.207,-30.273,-52.246,-7.812,0.000
1709212411.520,-11.719,-26.367,-48.340,-11.719,0.000
1709212411.524,-11.719,-40.039,-49.805,-8.789,0.000
1709212411.527,-16.113,-40.039,-43.945,-4.395,0.000
1709212411.531,-22.461,-32.715,-42.969,-14.160,0.000
1709212411.535,-26.367,-35.645,-45.410,-16.602,0.000
1709212411.539,-26.855,-36.133,-43.457,-12.207,0.000
1709212411.543,-23.438,-30.273,-31.250,-5.859,0.000
1709212411.547,-23.438,-33.691,-25.879,-7.324,0.000
1709212411.551,-19.531,-41.016,-31.738,-13.672,0.000
1709212411.555,-20.508,-35.645,-36.133,-17.090,0.000
1709212411.559,-26.855,-27.344,-36.133,-14.648,0.000
1709212411.563,-27.832,-32.227,-39.551,-16.113,0.000
1709212411.566,-29.785,-40.039,-48.828,-31.738,0.000
1709212411.570,-36.621,-34.180,-47.852,-38.086,0.000
1709212411.574,-43.457,-31.738,-46.387,-36.133,0.000
1709212411.578,-49.316,-41.016,-47.852,-41.992,0.000
1709212411.582,-56.641,-43.945,-48.828,-44.434,0.000
1709212411.586,-48.828,-37.598,-41.992,-41.016,0.000
1709212411.590,-45.410,-34.668,-32.227,-39.551,0.000
1709212411.594,-46.875,-37.109,-31.250,-36.133,0.000
1709212411.598,-45.898,-43.457,-38.086,-40.527,0.000
1709212411.602,-51.270,-42.969,-43.457,-44.922,0.000
1709212411.606,-46.387,-41.504,-45.410,-41.504,0.000
1709212411.609,-40.527,-38.574,-44.922,-40.039,0.000
1709212411.613,-36.621,-34.668,-37.109,-29.297,0.000
1709212411.617,-31.250,-37.598,-30.762,-12.695,0.000
1709212411.621,-32.715,-32.227,-30.273,-17.090,0.000
1709212411.625,-36.133,-33.691,-30.273,-25.391,0.000
1709212411.629,-30.273,-32.227,-27.832,-25.879,0.000
1709212411.633,-27.832,-28.809,-21.484,-28.809,0.000
1709212411.637,-34.668,-34.668,-19.531,-27.832,0.000
1709212411.641,-34.180,-35.645,-20.020,-22.461,0.000
1709212411.645,-40.527,-41.504,-26.855,-31.250,0.000
1709212411.648,-42.480,-40.039,-26.367,-31.250,0.000
1709212411.652,-40.527,-37.598,-22.949,-29.785,0.000
1709212411.656,-44.434,-41.504,-25.879,-39.062,0.000
1709212411.660,-47.852,-43.945,-28.809,-41.016,0.000
1709212411.664,-50.781,-40.039,-32.715,-38.086,0.000
1709212411.668,-48.828,-40.039,-38.086,-47.852,0.000
1709212411.672,-42.969,-41.016,-33.203,-49.316,0.000
1709212411.676,-38.574,-36.621,-31.250,-43.457,0.000
1709212411.680,-33.203,-32.227,-36.133,-41.504,0.000
1709212411.683,-24.902,-40.527,-35.156,-37.109,0.000
1709212411.687,-27.832,-47.363,-41.016,-43.945,0.000
1709212411.691,-28.320,-38.574,-40.039,-43.457,0.000
1709212411.695,-21.973,-29.785,-37.598,-31.250,0.000
1709212411.699,-21.484,-34.180,-37.598,-28.809,0.000
1709212411.703,-14.160,-43.457,-31.738,-25.879,0.000
1709212411.707,-14.648,-41.504,-28.809,-15.625,0.000
1709212411.711,-20.996,-41.016,-27.832,-21.484,0.000
1709212411.715,-20.020,-43.457,-25.879,-30.762,0.000
1709212411.719,-26.855,-42.480,-33.691,-40.039,0.000
1709212411.723,-31.738,-37.598,-38.574,-41.992,0.000
1709212411.726,-32.227,-39.551,-29.297,-39.062,0.000
1709212411.730,-37.109,-44.922,-27.344,-47.852,0.000
1709212411.734,-46.387,-47.852,-31.250,-49.316,0.000
1709212411.738,-57.129,-50.293,-32.715,-51.758,0.000
1709212411.742,-52.246,-47.852,-37.109,-52.246,0.000
1709212411.746,-51.758,-50.293,-35.645,-42.969,0.000
1709212411.750,-52.734,-46.387,-29.785,-39.551,0.000
1709212411.754,-60.547,-42.480,-32.715,-47.852,0.000
1709212411.757,-71.777,-53.711,-38.086,-59.082,0.000
1709212411.761,-67.871,-53.711,-38.574,-61.035,0.000
1709212411.765,-59.570,-52.246,-39.551,-50.781,0.000
1709212411.769,-58.594,-46.875,-34.668,-47.852,0.000
1709212411.773,-62.012,-44.922,-33.691,-56.641,0.000
1709212411.777,-55.176,-44.922,-38.086,-58.105,0.000
1709212411.781,-43.457,-45.898,-35.156,-46.875,0.000
1709212411.785,-38.086,-44.434,-38.574,-43.945,0.000
1709212411.789,-41.504,-47.363,-48.828,-47.363,0.000
1709212411.793,-42.969,-51.758,-46.875,-41.504,0.000
1709212411.797,-42.480,-44.434,-45.898,-47.852,0.000
1709212411.801,-39.551,-41.016,-42.480,-51.270,0.000
1709212411.804,-38.574,-43.945,-44.434,-45.410,0.000
1709212411.808,-36.621,-51.758,-47.363,-46.875,0.000
1709212411.812,-41.504,-55.176,-41.504,-40.039,0.000
1709212411.816,-48.340,-45.410,-43.945,-44.434,0.000
1709212411.820,-46.875,-45.410,-43.945,-52.734,0.000
1709212411.824,-50.781,-47.363,-44.434,-53.711,0.000
1709212411.828,-51.270,-41.504,-45.410,-57.617,0.000
1709212411.832,-51.270,-37.109,-44.922,-65.918,0.000
1709212411.836,-56.152,-42.969,-47.363,-70.312,0.000
1709212411.840,-65.918,-52.734,-42.480,-68.848,0.000
1709212411.844,-66.895,-50.293,-37.109,-68.848,0.000
1709212411.848,-61.035,-50.293,-39.062,-68.359,0.000
1709212411.851,-60.059,-59.570,-40.527,-62.988,0.000
1709212411.855,-63.477,-62.012,-40.527,-44.922,0.000
1709212411.859,-68.359,-55.176,-37.598,-33.203,0.000
1709212411.863,-66.406,-45.410,-36.133,-46.387,0.000
1709212411.867,-62.500,-42.480,-37.598,-51.758,0.000
1709212411.871,-62.012,-47.363,-29.297,-48.828,0.000
1709212411.875,-68.359,-53.711,-27.832,-54.199,0.000
1709212411.879,-74.707,-61.523,-29.297,-46.875,0.000
1709212411.883,-73.242,-62.012,-26.367,-42.480,0.000
1709212411.887,-63.477,-55.176,-25.879,-52.246,0.000
1709212411.891,-64.941,-51.758,-25.879,-55.176,0.000
1709212411.894,-71.289,-50.781,-34.180,-69.824,0.000
1709212411.898,-67.871,-51.758,-37.109,-66.895,0.000
1709212411.902,-60.059,-47.363,-32.227,-41.504,0.000
1709212411.906,-55.664,-37.598,-32.227,-52.246,0.000
1709212411.910,-52.246,-36.621,-39.062,-62.988,0.000
1709212411.914,-49.805,-39.062,-39.551,-50.781,0.000
1709212411.918,-51.270,-41.504,-36.621,-53.711,0.000
1709212411.922,-51.758,-41.016,-37.598,-49.805,0.000
1709212411.926,-43.457,-30.273,-36.133,-39.062,0.000
1709212411.930,-34.668,-31.250,-37.598,-44.922,0.000
1709212411.933,-37.109,-36.621,-41.504,-46.875,0.000
1709212411.937,-33.203,-33.203,-33.203,-41.016,0.000
1709212411.941,-21.973,-37.109,-24.414,-36.621,0.000
1709212411.945,-22.461,-51.758,-31.738,-31.738,0.000
1709212411.949,-27.344,-52.734,-37.109,-32.715,0.000
1709212411.953,-23.438,-44.922,-29.297,-37.598,0.000
1709212411.957,-32.715,-41.504,-25.391,-34.180,0.000
1709212411.961,-47.363,-39.062,-25.391,-34.180,0.000
1709212411.965,-50.293,-40.039,-30.762,-43.457,0.000
1709212411.969,-49.316,-41.992,-33.203,-45.898,0.000
1709212411.972,-52.246,-44.434,-21.973,-46.875,0.000
1709212411.976,-55.176,-42.969,-20.996,-43.945,0.000
1709212411.980,-52.246,-39.551,-27.832,-37.109,0.000
1709212411.984,-48.828,-42.969,-24.414,-35.156,0.000
1709212411.988,-49.805,-45.410,-22.949,-27.832,0.000
1709212411.992,-46.387,-39.062,-19.531,-17.578,0.000
1709212411.996,-48.828,-31.250,-22.461,-26.855,0.000
1709212412.000,-45.898,-28.809,-23.438,-24.414,0.000
1709212412.004,-41.016,-35.645,-24.414,-22.461,0.000
1709212412.008,-38.574,-41.992,-30.762,-29.297,0.000
1709212412.011,-41.016,-44.434,-30.762,-35.645,0.000
1709212412.015,-37.598,-32.227,-26.367,-35.156,0.000
1709212412.019,-29.297,-28.320,-20.020,-24.902,0.000
1709212412.023,-27.832,-38.086,-25.879,-26.367,0.000
1709212412.027,-27.832,-33.691,-39.551,-31.738,0.000
1709212412.031,-27.344,-36.133,-41.016,-35.645,0.000
1709212412.035,-27.344,-37.109,-34.180,-28.320,0.000
1709212412.039,-25.391,-34.180,-29.297,-19.043,0.000
1709212412.043,-23.438,-36.621,-33.203,-28.809,0.000
1709212412.047,-29.785,-34.180,-41.992,-41.992,0.000
1709212412.050,-35.156,-36.621,-46.387,-47.852,0.000
1709212412.054,-35.156,-42.480,-47.852,-49.805,0.000
1709212412.058,-35.156,-44.434,-43.457,-37.598,0.000
1709212412.062,-30.762,-39.062,-39.551,-28.320,0.000
1709212412.066,-34.668,-31.250,-44.434,-36.621,0.000
1709212412.070,-38.086,-30.762,-51.270,-41.016,0.000
1709212412.074,-38.086,-35.645,-49.316,-41.016,0.000
1709212412.078,-38.086,-24.414,-40.527,-30.762,0.000
1709212412.082,-40.039,-34.668,-43.945,-29.785,0.000
1709212412.085,-48.828,-48.340,-49.805,-49.316,0.000
1709212412.089,-54.199,-43.457,-51.270,-56.152,0.000
1709212412.093,-49.316,-45.410,-48.828,-47.363,0.000
1709212412.097,-42.480,-43.457,-38.086,-42.969,0.000
1709212412.101,-41.016,-40.039,-33.691,-37.598,0.000
1709212412.105,-37.598,-41.504,-38.086,-35.156,0.000
1709212412.109,-32.715,-38.086,-34.668,-32.715,0.000
1709212412.113,-40.039,-33.691,-36.133,-24.902,0.000
1709212412.117,-48.340,-45.898,-43.457,-25.879,0.000
1709212412.120,-40.039,-51.758,-35.645,-21.973,0.000
1709212412.124,-34.668,-43.945,-30.273,-16.113,0.000
1709212412.128,-38.574,-41.016,-37.109,-26.367,0.000
1709212412.132,-34.668,-43.945,-39.551,-36.621,0.000
1709212412.136,-31.250,-47.852,-38.574,-37.109,0.000
1709212412.140,-32.227,-44.922,-35.156,-31.250,0.000
1709212412.144,-29.297,-39.062,-34.668,-33.691,0.000
1709212412.148,-29.785,-37.598,-37.598,-36.621,0.000
1709212412.152,-40.527,-43.457,-36.133,-39.551,0.000
1709212412.156,-46.875,-45.898,-31.738,-43.457,0.000
1709212412.160,-41.992,-45.898,-32.227,-34.668,0.000
1709212412.164,-36.133,-47.363,-41.992,-38.574,0.000
1709212412.167,-30.273,-43.457,-37.109,-47.852,0.000
1709212412.171,-31.250,-40.527,-28.809,-46.387,0.000
1709212412.175,-30.762,-41.992,-27.832,-45.410,0.000
1709212412.179,-35.156,-39.551,-36.621,-53.223,0.000
1709212412.183,-34.180,-32.715,-41.016,-48.828,0.000
1709212412.187,-24.902,-30.762,-34.180,-38.086,0.000
1709212412.191,-26.367,-33.691,-30.762,-39.062,0.000
1709212412.195,-40.039,-43.945,-40.527,-46.387,0.000
1709212412.199,-42.480,-48.828,-35.156,-45.410,0.000
1709212412.203,-40.527,-41.504,-29.785,-42.969,0.000
1709212412.207,-38.574,-31.738,-30.273,-54.199,0.000
1709212412.210,-44.434,-38.086,-35.156,-56.152,0.000
1709212412.214,-55.664,-48.340,-36.133,-51.270,0.000
1709212412.218,-63.965,-47.363,-37.109,-53.711,0.000
1709212412.222,-61.523,-45.898,-33.691,-50.293,0.000
1709212412.226,-55.664,-43.457,-23.438,-44.922,0.000
1709212412.230,-62.988,-47.852,-31.250,-41.504,0.000
1709212412.234,-63.965,-50.293,-35.645,-42.969,0.000
1709212412.238,-58.105,-47.363,-30.273,-44.922,0.000
1709212412.242,-56.152,-47.363,-31.250,-36.621,0.000
1709212412.246,-52.734,-48.828,-31.250,-37.109,0.000
1709212412.250,-55.664,-48.828,-35.156,-49.316,0.000
1709212412.253,-59.082,-52.246,-41.016,-55.176,0.000
1709212412.257,-52.734,-48.340,-39.062,-45.898,0.000
1709212412.261,-40.527,-36.621,-28.809,-31.738,0.000
1709212412.265,-43.945,-40.039,-30.273,-41.504,0.000
1709212412.269,-52.734,-46.875,-38.574,-56.152,0.000
1709212412.273,-47.363,-40.039,-36.621,-45.898,0.000
1709212412.277,-44.922,-48.828,-35.645,-33.203,0.000
1709212412.281,-44.922,-59.570,-35.156,-41.992,0.000
1709212412.285,-39.551,-47.363,-31.250,-42.969,0.000
1709212412.289,-40.039,-37.109,-31.250,-40.527,0.000
1709212412.293,-42.969,-35.645,-35.156,-42.480,0.000
1709212412.296,-42.480,-29.785,-34.180,-37.598,0.000
1709212412.300,-31.738,-31.738,-25.879,-28.809,0.000
1709212412.304,-33.203,-41.992,-36.133,-32.715,0.000
1709212412.308,-38.086,-41.992,-45.410,-39.551,0.000
1709212412.312,-37.598,-40.527,-38.086,-32.715,0.000
1709212412.316,-42.969,-45.898,-41.504,-36.621,0.000
1709212412.320,-37.598,-43.457,-38.574,-34.668,0.000
1709212412.324,-36.133,-39.062,-36.133,-31.250,0.000
1709212412.328,-33.691,-38.086,-35.156,-32.227,0.000
1709212412.332,-27.832,-37.598,-31.738,-20.020,0.000
1709212412.335,-37.109,-41.992,-33.691,-19.531,0.000
1709212412.340,-39.062,-47.852,-36.133,-22.461,0.000
1709212412.343,-34.180,-43.457,-35.156,-16.113,0.000
1709212412.347,-39.062,-38.574,-34.180,-19.043,0.000
1709212412.351,-39.062,-35.156,-34.180,-23.438,0.000
1709212412.355,-36.133,-35.156,-30.762,-27.832,0.000
1709212412.359,-32.227,-39.551,-28.320,-26.855,0.000
1709212412.363,-34.668,-51.270,-29.785,-28.809,0.000
1709212412.367,-36.133,-48.828,-26.367,-18.066,0.000
1709212412.371,-38.086,-37.109,-26.367,-23.438,0.000
1709212412.375,-37.109,-30.762,-26.855,-31.738,0.000
1709212412.379,-39.062,-33.203,-27.344,-33.203,0.000
1709212412.382,-42.480,-40.039,-32.715,-39.551,0.000
1709212412.386,-35.645,-34.180,-27.832,-39.551,0.000
1709212412.390,-34.180,-40.527,-25.391,-45.898,0.000
1709212412.394,-42.480,-47.363,-32.227,-48.828,0.000
1709212412.398,-41.016,-37.109,-31.738,-44.922,0.000
1709212412.402,-35.645,-36.133,-30.273,-45.898,0.000
1709212412.406,-36.621,-36.133,-30.762,-51.758,0.000
1709212412.410,-33.691,-31.738,-30.273,-42.969,0.000
1709212412.414,-32.715,-44.922,-32.227,-33.203,0.000
1709212412.418,-29.785,-38.086,-30.273,-30.273,0.000
1709212412.421,-36.133,-35.156,-31.738,-36.621,0.000
1709212412.425,-38.574,-47.852,-43.457,-35.156,0.000
1709212412.429,-29.297,-37.598,-43.457,-27.832,0.000
1709212412.433,-36.621,-32.715,-39.062,-35.645,0.000
1709212412.437,-44.922,-36.133,-38.086,-34.668,0.000
1709212412.441,-41.992,-37.598,-37.109,-32.715,0.000
1709212412.445,-38.086,-39.062,-28.320,-34.668,0.000
1709212412.449,-43.457,-39.062,-28.320,-37.598,0.000
1709212412.453,-43.945,-46.387,-40.527,-33.691,0.000
1709212412.456,-33.203,-42.969,-34.180,-13.184,0.000
1709212412.460,-39.062,-41.504,-31.250,-24.902,0.000
1709212412.464,-52.246,-60.547,-40.039,-45.898,0.000
1709212412.468,-52.734,-62.500,-41.016,-43.945,0.000
1709212412.472,-51.758,-41.992,-41.504,-42.969,0.000
1709212412.476,-52.246,-32.715,-39.062,-37.109,0.000
1709212412.480,-51.758,-38.574,-38.086,-27.832,0.000
1709212412.484,-48.340,-41.016,-37.109,-26.367,0.000
1709212412.488,-46.387,-40.039,-36.133,-31.250,0.000
1709212412.491,-48.340,-42.969,-35.156,-34.668,0.000
1709212412.495,-51.270,-56.641,-36.621,-38.574,0.000
1709212412.499,-44.922,-56.641,-38.574,-32.715,0.000
1709212412.503,-39.551,-41.992,-35.156,-22.461,0.000
1709212412.507,-35.645,-31.250,-32.715,-22.461,0.000
1709212412.511,-28.809,-34.668,-33.203,-24.414,0.000
1709212412.515,-26.855,-36.621,-30.273,-18.555,0.000
1709212412.519,-24.902,-32.715,-34.668,-19.531,0.000
1709212412.523,-25.879,-33.203,-33.691,-24.902,0.000
1709212412.527,-22.461,-32.715,-26.855,-23.926,0.000
1709212412.531,-22.461,-27.344,-26.855,-24.414,0.000
1709212412.535,-31.250,-34.668,-33.203,-30.273,0.000
1709212412.538,-34.180,-41.992,-36.133,-32.715,0.000
1709212412.542,-35.156,-39.551,-35.645,-34.668,0.000
1709212412.546,-31.250,-34.668,-34.180,-37.109,0.000
1709212412.550,-27.832,-33.691,-34.180,-42.480,0.000
1709212412.554,-31.250,-32.715,-34.180,-47.363,0.000
1709212412.558,-36.133,-39.551,-36.621,-40.039,0.000
1709212412.562,-38.086,-52.246,-34.180,-29.785,0.000
1709212412.566,-36.621,-42.480,-30.762,-31.738,0.000
1709212412.570,-35.645,-33.203,-30.273,-27.344,0.000
1709212412.574,-41.504,-46.387,-32.227,-27.832,0.000
1709212412.578,-47.852,-52.246,-35.156,-33.203,0.000
1709212412.582,-43.457,-41.016,-39.551,-37.109,0.000
1709212412.585,-41.504,-38.086,-42.480,-38.086,0.000
1709212412.589,-40.527,-35.645,-37.598,-35.645,0.000
1709212412.593,-45.410,-36.133,-35.156,-41.992,0.000
1709212412.597,-52.734,-49.805,-41.992,-40.527,0.000
1709212412.601,-50.293,-54.688,-50.293,-38.574,0.000
1709212412.605,-43.457,-46.387,-44.922,-33.691,0.000
1709212412.609,-45.410,-41.992,-42.969,-41.992,0.000
1709212412.613,-43.945,-32.715,-38.574,-57.617,0.000
1709212412.617,-41.504,-30.762,-33.691,-51.758,0.000
1709212412.621,0.000,-39.062,-39.062,-44.922,0.000
1709212412.624,0.000,-42.969,-46.387,-41.992,0.000
1709212412.628,0.000,-40.527,-47.852,-43.457,0.000
1709212412.632,0.000,-39.062,-39.551,-46.875,0.000
1709212412.636,0.000,-43.457,-38.574,-43.945,0.000
1709212412.640,0.000,-41.992,-43.457,-39.551,0.000
1709212412.644,0.000,-31.738,-42.969,-41.504,0.000
1709212412.648,0.000,-30.762,-41.992,-41.504,0.000
1709212412.652,0.000,-37.598,-38.086,-24.902,0.000
1709212412.656,0.000,-33.691,-30.762,-19.043,0.000
1709212412.660,0.000,-30.762,-30.762,-26.855,0.000
1709212412.664,0.000,-33.203,-32.227,-30.762,0.000
1709212412.667,-35.645,-36.621,-30.762,-34.180,0.000
1709212412.671,-44.434,-42.480,-28.320,-44.434,0.000
1709212412.675,-55.176,-44.434,-26.367,-45.410,0.000
1709212412.679,-52.246,-45.898,-29.785,-37.598,0.000
1709212412.683,-49.805,-44.434,-35.156,-41.992,0.000
1709212412.687,-52.246,-43.457,-38.574,-47.852,0.000
1709212412.691,-53.711,-44.434,-38.086,-48.340,0.000
1709212412.695,-47.363,-43.457,-34.668,-40.527,0.000
1709212412.699,-55.176,-46.875,-41.016,-49.316,0.000
1709212412.703,-59.082,-49.316,-48.340,-58.594,0.000
1709212412.707,-51.270,-47.363,-44.922,-51.758,0.000
1709212412.710,-54.688,-44.434,-41.504,-53.711,0.000
1709212412.714,-57.617,-39.062,-39.062,-57.129,0.000
1709212412.718,-58.594,-34.668,-31.738,-50.293,0.000
1709212412.722,-57.129,-38.086,-31.738,-37.109,0.000
1709212412.726,-53.223,-42.480,-33.691,-33.203,0.000
1709212412.730,-56.641,-45.410,-39.062,-48.340,0.000
1709212412.734,-54.688,-44.922,-35.645,-55.664,0.000
1709212412.738,-51.758,-49.316,-32.715,-49.805,0.000
1709212412.742,-53.223,-53.711,-38.574,-33.691,0.000
1709212412.746,-53.711,-42.480,-46.875,-38.086,0.000
1709212412.749,-50.781,-39.551,-46.387,-56.641,0.000
1709212412.753,-50.293,-44.434,-38.086,-49.316,0.000
1709212412.757,-52.246,-41.992,-37.109,-33.691,0.000
1709212412.761,-41.016,-36.133,-32.715,-25.391,0.000
1709212412.765,-37.109,-38.574,-32.715,-29.785,0.000
1709212412.769,-42.969,-49.805,-41.992,-36.133,0.000
1709212412.773,-39.062,-52.246,-39.062,-25.879,0.000
1709212412.777,-32.715,-45.898,-26.367,-13.184,0.000
1709212412.781,-28.320,-38.574,-26.855,-15.625,0.000
1709212412.784,-23.438,-39.062,-36.621,-12.207,0.000
1709212412.788,-21.484,-39.062,-39.062,-15.137,0.000
1709212412.792,-18.555,-32.715,-33.203,-25.879,0.000
1709212412.796,-21.973,-31.250,-30.762,-24.414,0.000
1709212412.800,-25.391,-32.715,-32.227,-27.344,0.000
1709212412.804,-19.531,-31.738,-35.156,-30.762,0.000
1709212412.808,-14.160,-36.621,-37.109,-36.621,0.000
1709212412.812,-15.137,-40.527,-35.156,-39.062,0.000
1709212412.816,-20.996,-38.086,-38.574,-34.180,0.000
1709212412.820,-22.461,-40.039,-36.621,-37.109,0.000
1709212412.823,-29.297,-34.180,-36.621,-41.504,0.000
1709212412.827,-26.855,-28.320,-32.227,-32.227,0.000
1709212412.831,-19.531,-40.039,-29.785,-23.926,0.000
1709212412.835,-25.391,-47.852,-32.227,-36.133,0.000
1709212412.839,-29.785,-43.945,-35.645,-44.922,0.000
1709212412.843,-34.180,-42.969,-41.016,-51.270,0.000
1709212412.847,-45.410,-54.688,-38.086,-60.547,0.000
1709212412.851,-44.922,-55.664,-31.250,-52.246,0.000
1709212412.854,-41.016,-42.969,-33.203,-42.969,0.000
1709212412.858,-40.039,-41.504,-36.621,-43.457,0.000
1709212412.862,-40.527,-45.410,-34.180,-40.527,0.000
1709212412.866,-40.527,-45.898,-34.668,-39.062,0.000
1709212412.870,-38.574,-41.992,-36.133,-35.156,0.000
1709212412.874,-41.504,-46.875,-35.645,-31.738,0.000
1709212412.878,-43.945,-51.270,-34.180,-32.715,0.000
1709212412.882,-39.062,-47.363,-38.574,-34.668,0.000
1709212412.886,-32.715,-38.574,-34.668,-32.227,0.000
1709212412.890,-39.551,-41.992,-31.250,-28.809,0.000
1709212412.894,-49.316,-52.734,-31.738,-34.180,0.000
1709212412.897,-41.504,-51.758,-27.344,-29.297,0.000
1709212412.901,-31.738,-43.457,-25.391,-19.531,0.000
1709212412.905,-26.367,-43.457,-29.297,-21.484,0.000
1709212412.909,-20.996,-39.062,-33.691,-23.438,0.000
1709212412.913,-21.484,-29.297,-29.297,-21.973,0.000
1709212412.917,-24.414,-34.180,-30.273,-22.949,0.000
1709212412.921,-23.438,-39.551,-35.156,-10.742,0.000
1709212412.925,-22.949,-32.227,-33.691,-13.184,0.000
1709212412.929,-27.344,-31.738,-37.109,-30.273,0.000
1709212412.933,-30.273,-36.133,-43.945,-24.414,0.000
1709212412.937,-36.133,-39.062,-41.504,-19.531,0.000
1709212412.941,-44.434,-45.410,-43.457,-31.250,0.000
1709212412.944,-38.574,-40.527,-41.504,-32.227,0.000
1709212412.948,-37.598,-32.715,-35.645,-30.762,0.000
1709212412.952,-43.457,-31.738,-41.992,-39.062,0.000
1709212412.956,-46.387,-30.273,-40.039,-41.504,0.000
1709212412.960,-49.316,-39.062,-41.016,-38.574,0.000
1709212412.964,-49.805,-44.434,-43.945,-40.527,0.000
1709212412.968,-48.828,-44.434,-42.969,-42.480,0.000
1709212412.972,-45.898,-41.016,-37.109,-37.109,0.000
1709212412.976,-46.875,-38.086,-31.250,-30.762,0.000
1709212412.980,-55.176,-57.617,-34.180,-30.273,0.000
1709212412.984,-58.594,-62.012,-32.227,-37.598,0.000
1709212412.988,-51.270,-45.898,-32.715,-42.480,0.000
1709212412.991,-51.270,-43.945,-36.133,-43.457,0.000
1709212412.995,-63.477,-42.969,-38.086,-41.016,0.000
1709212412.999,-70.312,-43.457,-44.434,-37.598,0.000
1709212413.003,-65.918,-46.387,-46.387,-41.504,0.000
1709212413.007,-61.523,-47.363,-43.945,-51.758,0.000
1709212413.011,-65.918,-48.828,-40.527,-53.223,0.000
1709212413.015,-62.988,-48.828,-35.156,-44.922,0.000
1709212413.019,-60.059,-53.711,-36.621,-46.875,0.000
1709212413.023,-50.293,-47.852,-37.109,-41.992,0.000
1709212413.027,-43.945,-46.387,-33.203,-26.855,0.000
1709212413.031,-42.969,-42.969,-37.598,-34.668,0.000
1709212413.034,-36.133,-32.715,-41.504,-41.992,0.000
1709212413.038,-34.668,-36.133,-41.992,-40.527,0.000
1709212413.042,-34.668,-43.945,-45.898,-35.645,0.000
1709212413.046,-29.785,-48.340,-46.875,-34.180,0.000
1709212413.050,-18.555,-48.340,-36.621,-39.062,0.000
1709212413.054,-20.508,-37.598,-29.297,-38.086,0.000
1709212413.058,-29.785,-36.133,-33.691,-37.598,0.000
1709212413.062,-33.203,-46.875,-40.039,-43.457,0.000
1709212413.066,-38.086,-49.805,-39.062,-49.805,0.000
1709212413.070,-43.457,-51.758,-37.598,-43.457,0.000
1709212413.073,-45.898,-50.781,-40.527,-46.875,0.000
1709212413.077,-47.363,-41.992,-40.527,-60.059,0.000
1709212413.081,-45.410,-42.480,-40.527,-53.711,0.000
1709212413.085,-41.504,-47.363,-40.527,-48.340,0.000
1709212413.089,-39.062,-42.480,-32.715,-42.480,0.000
1709212413.093,-36.133,-35.156,-29.297,-35.156,0.000
1709212413.097,-47.852,-44.434,-35.645,-48.340,0.000
1709212413.101,-58.594,-55.176,-39.062,-54.688,0.000
1709212413.105,-56.152,-49.316,-37.598,-48.828,0.000
1709212413.109,-50.781,-42.480,-31.738,-46.875,0.000
1709212413.112,-55.664,-50.781,-34.180,-45.898,0.000
1709212413.116,-62.988,-50.781,-39.551,-35.156,0.000
1709212413.120,-51.270,-33.691,-35.645,-32.715,0.000
1709212413.124,-45.410,-38.086,-37.109,-33.691,0.000
1709212413.128,-42.969,-36.621,-35.645,-24.414,0.000
1709212413.132,-45.410,-31.250,-39.551,-30.273,0.000
1709212413.136,-54.688,-41.016,-46.387,-41.992,0.000
1709212413.140,-48.340,-42.480,-36.621,-36.621,0.000
1709212413.144,-36.133,-41.016,-33.203,-31.250,0.000
1709212413.148,-38.574,-45.898,-41.016,-34.180,0.000
1709212413.151,-44.922,-50.293,-47.363,-42.969,0.000
1709212413.155,-38.086,-42.969,-44.922,-40.039,0.000
1709212413.159,-35.645,-39.062,-45.410,-35.645,0.000
1709212413.163,-35.645,-42.969,-48.828,-36.621,0.000
1709212413.167,-34.180,-38.086,-41.992,-42.480,0.000
1709212413.171,-38.086,-40.039,-36.621,-44.922,0.000
1709212413.175,-39.551,-46.875,-40.039,-41.992,0.000
1709212413.179,-39.062,-42.480,-39.062,-41.016,0.000
1709212413.183,-34.668,-39.551,-35.645,-41.992,0.000
1709212413.186,-32.715,-41.992,-37.109,-47.363,0.000
1709212413.190,-30.273,-51.270,-34.180,-46.387,0.000
1709212413.194,-30.762,-50.781,-35.645,-43.457,0.000
1709212413.198,-35.645,-33.203,-38.086,-43.945,0.000
1709212413.202,-33.203,-33.203,-38.574,-34.668,0.000
1709212413.206,-29.297,-38.086,-43.457,-27.832,0.000
1709212413.210,-32.715,-36.621,-45.898,-37.109,0.000
1709212413.214,-31.250,-34.180,-38.574,-36.621,0.000
1709212413.218,-32.227,-40.039,-37.598,-41.016,0.000
1709212413.222,-38.574,-47.363,-45.898,-45.898,0.000
1709212413.226,-36.133,-36.133,-47.363,-39.551,0.000
1709212413.230,-33.691,-33.691,-36.133,-36.133,0.000
1709212413.234,-39.551,-42.969,-34.668,-41.504,0.000
1709212413.237,-35.645,-38.086,-37.598,-41.504,0.000
1709212413.241,-33.203,-38.574,-32.227,-41.016,0.000
1709212413.245,-38.086,-47.852,-41.504,-50.293,0.000
1709212413.249,-43.457,-49.316,-43.945,-52.246,0.000
1709212413.253,-52.734,-50.293,-38.574,-49.316,0.000
1709212413.257,-52.734,-51.758,-37.598,-43.945,0.000
1709212413.261,-55.176,-55.176,-41.504,-39.062,0.000
1709212413.265,-60.059,-51.270,-39.551,-31.738,0.000
1709212413.269,-59.570,-45.410,-35.156,-39.551,0.000
1709212413.273,-53.711,-49.805,-37.598,-47.363,0.000
1709212413.277,-48.340,-50.781,-41.016,-35.645,0.000
1709212413.281,-45.410,-47.363,-46.387,-33.203,0.000
1709212413.284,-33.691,-38.574,-42.480,-30.273,0.000
1709212413.288,-21.484,-31.738,-40.039,-25.879,0.000
1709212413.292,-22.461,-34.668,-50.293,-36.621,0.000
1709212413.296,-20.020,-37.598,-52.734,-30.273,0.000
1709212413.300,-16.602,-41.016,-48.340,-20.996,0.000
1709212413.304,-16.113,-40.039,-47.852,-26.855,0.000
1709212413.308,-16.113,-37.598,-39.551,-20.996,0.000
1709212413.312,-15.137,-52.734,-35.156,-12.695,0.000
1709212413.316,-11.230,-48.340,-40.039,-21.973,0.000
1709212413.320,-13.184,-31.738,-43.457,-28.320,0.000
1709212413.324,-11.230,-26.367,-40.527,-14.160,0.000
1709212413.328,-12.207,-27.344,-33.691,-9.766,0.000
1709212413.331,-22.461,-27.832,-32.227,-21.973,0.000
1709212413.335,-25.879,-28.320,-33.203,-36.621,0.000
1709212413.339,-31.738,-36.133,-42.480,-46.875,0.000
1709212413.343,-35.645,-38.086,-47.363,-45.898,0.000
1709212413.347,-28.320,-38.086,-35.156,-44.434,0.000
1709212413.351,-34.668,-44.922,-32.715,-48.340,0.000
1709212413.355,-42.969,-47.852,-38.086,-42.969,0.000
1709212413.359,-37.598,-38.574,-28.809,-33.203,0.000
1709212413.363,-36.133,-33.203,-27.344,-35.156,0.000
1709212413.367,-41.504,-34.180,-30.762,-43.945,0.000
1709212413.371,-42.480,-33.691,-30.762,-50.781,0.000
1709212413.374,-38.574,-34.180,-28.809,-47.852,0.000
1709212413.378,-37.598,-41.504,-30.273,-48.828,0.000
1709212413.382,-43.457,-43.945,-28.809,-48.340,0.000
1709212413.386,-45.898,-44.922,-26.367,-40.527,0.000
1709212413.390,-49.316,-41.504,-30.762,-46.387,0.000
1709212413.394,-53.223,-35.645,-34.180,-50.293,0.000
1709212413.398,-49.316,-44.922,-37.598,-46.875,0.000
1709212413.402,-39.551,-45.898,-37.598,-36.621,0.000
1709212413.406,-35.156,-34.180,-35.156,-38.574,0.000
1709212413.410,-35.156,-39.551,-35.645,-45.898,0.000
1709212413.413,-29.297,-47.852,-36.621,-39.551,0.000
1709212413.417,-25.391,-47.852,-33.203,-30.762,0.000
1709212413.421,-32.715,-48.340,-38.086,-35.156,0.000
1709212413.425,-25.391,-46.875,-39.551,-34.180,0.000
1709212413.429,-18.066,-41.992,-40.527,-26.855,0.000
1709212413.433,-21.484,-46.875,-40.527,-24.414,0.000
1709212413.437,-30.273,-53.223,-43.457,-22.461,0.000
1709212413.441,-36.133,-47.363,-42.969,-20.020,0.000
1709212413.445,-32.715,-49.316,-36.621,-12.695,0.000
1709212413.449,-32.227,-54.688,-41.016,-19.043,0.000
1709212413.453,-35.645,-53.711,-40.527,-39.062,0.000
1709212413.456,-32.227,-53.711,-37.109,-37.109,0.000
1709212413.460,-34.668,-49.316,-41.016,-34.180,0.000
1709212413.465,-40.527,-36.621,-44.434,-41.016,0.000
1709212413.468,-33.203,-38.574,-41.504,-43.945,0.000
1709212413.472,-34.180,-49.805,-41.992,-41.992,0.000
1709212413.476,-39.062,-46.387,-45.410,-40.527,0.000
1709212413.480,-41.992,-41.504,-52.734,-49.805,0.000
1709212413.484,-44.922,-45.410,-51.758,-52.246,0.000
1709212413.488,-50.293,-49.316,-46.387,-55.176,0.000
1709212413.492,-52.246,-53.711,-43.457,-46.875,0.000
1709212413.496,-48.828,-47.852,-43.945,-41.504,0.000
1709212413.500,-49.805,-50.781,-46.875,-42.480,0.000
1709212413.504,-34.668,-55.664,-38.574,-32.715,0.000
1709212413.508,-26.855,-44.434,-38.574,-32.227,0.000
1709212413.511,-33.203,-36.621,-49.805,-32.715,0.000
1709212413.515,-34.180,-38.574,-48.828,-32.715,0.000
1709212413.519,-31.738,-34.668,-41.504,-27.832,0.000
1709212413.523,-30.762,-34.668,-44.434,-29.297,0.000
1709212413.527,-30.762,-46.875,-43.457,-38.574,0.000
1709212413.531,-34.668,-53.223,-45.898,-46.875,0.000
1709212413.535,-44.434,-57.617,-54.199,-46.387,0.000
1709212413.539,-43.457,-55.176,-45.898,-40.039,0.000
1709212413.543,-39.551,-40.527,-34.668,-35.156,0.000
1709212413.547,-41.016,-39.551,-40.527,-40.039,0.000
1709212413.550,-39.551,-43.945,-42.969,-39.551,0.000
1709212413.554,-43.945,-38.574,-39.551,-35.645,0.000
1709212413.558,-48.828,-38.574,-44.922,-40.039,0.000
1709212413.562,-49.316,-48.828,-45.410,-34.180,0.000
1709212413.566,-45.410,-59.082,-38.086,-34.180,0.000
1709212413.570,-42.969,-56.641,-34.668,-34.180,0.000
1709212413.574,-48.828,-43.945,-40.527,-36.621,0.000
1709212413.578,-50.781,-35.645,-42.969,-35.156,0.000
1709212413.582,-51.758,-34.668,-39.062,-29.297,0.000
1709212413.585,-50.781,-37.598,-42.480,-36.621,0.000
1709212413.589,-46.387,-41.992,-43.945,-42.480,0.000
1709212413.593,-47.852,-38.574,-35.156,-44.434,0.000
1709212413.597,-62.012,-41.016,-30.762,-49.316,0.000
1709212413.601,-57.617,-58.594,-31.250,-45.410,0.000
1709212413.605,-49.805,-60.059,-30.273,-41.016,0.000
1709212413.609,-56.152,-42.969,-34.180,-45.410,0.000
1709212413.613,-54.688,-40.039,-36.621,-41.992,0.000
1709212413.617,-54.199,-43.945,-35.156,-38.574,0.000
1709212413.621,-49.805,-42.480,-32.227,-35.156,0.000
1709212413.625,-35.156,-44.434,-29.785,-27.344,0.000
1709212413.629,-34.180,-45.410,-32.715,-28.320,0.000
1709212413.632,-37.598,-46.875,-27.344,-32.227,0.000
1709212413.636,-40.039,-56.152,-33.691,-36.133,0.000
1709212413.640,-39.551,-45.898,-38.086,-37.598,0.000
1709212413.644,-34.668,-33.203,-35.645,-42.969,0.000
1709212413.648,-32.227,-33.203,-35.645,-46.875,0.000
1709212413.652,-34.180,-38.574,-30.762,-41.992,0.000
1709212413.656,-41.992,-38.574,-33.203,-37.109,0.000
1709212413.660,-36.133,-40.039,-41.504,-31.738,0.000
1709212413.664,-29.297,-43.457,-34.180,-35.156,0.000
1709212413.668,-30.273,-37.598,-21.484,-42.969,0.000
1709212413.672,-30.273,-35.156,-25.391,-39.551,0.000
1709212413.676,-31.738,-37.109,-31.250,-32.227,0.000
1709212413.679,-38.086,-38.086,-29.297,-28.809,0.000
1709212413.683,-25.879,-44.434,-23.926,-10.254,0.000
1709212413.687,-20.996,-46.387,-29.297,-2.930,0.000
1709212413.691,-31.738,-41.016,-36.133,-29.297,0.000
1709212413.695,-38.086,-37.598,-34.180,-45.410,0.000
1709212413.699,-43.457,-44.922,-33.203,-45.410,0.000
1709212413.703,-48.828,-54.688,-38.574,-40.527,0.000
1709212413.707,-50.293,-43.457,-37.109,-34.668,0.000
1709212413.711,-44.922,-38.086,-36.621,-32.715,0.000
1709212413.715,-46.387,-52.246,-50.293,-31.250,0.000
1709212413.719,-46.875,-54.688,-50.781,-31.250,0.000
1709212413.723,-41.504,-48.828,-41.992,-36.133,0.000
1709212413.726,-40.527,-39.551,-42.969,-42.969,0.000
1709212413.730,-39.551,-37.598,-46.387,-41.016,0.000
1709212413.734,-42.969,-42.969,-45.898,-37.109,0.000
1709212413.738,-44.922,-43.945,-39.551,-40.527,0.000
1709212413.742,-42.480,-39.551,-39.551,-44.922,0.000
1709212413.746,-37.598,-39.551,-44.434,-47.363,0.000
1709212413.750,-28.320,-37.598,-41.016,-44.922,0.000
1709212413.754,-33.203,-41.016,-33.691,-46.875,0.000
1709212413.758,-42.969,-48.340,-31.738,-34.668,0.000
1709212413.762,-36.621,-42.969,-26.855,-27.344,0.000
1709212413.766,-29.297,-36.133,-27.832,-31.738,0.000
1709212413.769,-24.902,-36.133,-32.227,-29.297,0.000
1709212413.773,-29.785,-34.668,-34.180,-29.785,0.000
1709212413.777,-38.086,-34.668,-29.785,-20.508,0.000
1709212413.781,-35.156,-33.203,-28.809,-23.438,0.000
1709212413.785,-28.809,-27.344,-34.180,-29.785,0.000
1709212413.789,-29.297,-31.738,-40.527,-37.109,0.000
1709212413.793,-20.996,-33.203,-39.062,-32.227,0.000
1709212413.797,-19.531,-28.320,-36.621,-16.113,0.000
1709212413.801,-22.461,-34.180,-41.992,-19.043,0.000
1709212413.805,-21.484,-37.109,-44.434,-22.461,0.000
1709212413.808,-20.996,-31.738,-38.086,-20.020,0.000
1709212413.812,-23.926,-30.762,-36.621,-28.320,0.000
1709212413.816,-26.855,-31.250,-36.133,-31.738,0.000
1709212413.820,-30.273,-35.645,-35.645,-20.020,0.000
1709212413.824,-33.203,-37.109,-37.598,-12.695,0.000
1709212413.828,-21.484,-34.180,-36.133,-14.160,0.000
1709212413.832,-16.113,-31.250,-41.016,-10.742,0.000
1709212413.836,-26.855,-32.227,-49.805,-12.695,0.000
1709212413.840,-29.785,-40.039,-52.246,-21.973,0.000
1709212413.844,-23.926,-37.109,-43.457,-20.996,0.000
1709212413.847,-19.531,-31.738,-39.551,-16.602,0.000
1709212413.851,-16.602,-29.297,-41.504,-19.531,0.000
1709212413.855,-19.531,-25.879,-42.969,-17.578,0.000
1709212413.859,-29.785,-31.250,-47.363,-11.719,0.000
1709212413.863,-23.438,-37.109,-48.340,-11.230,0.000
1709212413.867,-22.949,-34.668,-46.387,-7.324,0.000
1709212413.871,-30.273,-38.086,-36.133,-19.043,0.000
1709212413.875,-33.691,-42.480,-35.645,-26.367,0.000
1709212413.879,-29.785,-37.598,-40.039,-20.508,0.000
1709212413.883,-25.879,-47.363,-31.250,-24.414,0.000
1709212413.886,-24.902,-48.828,-33.691,-26.367,0.000
1709212413.890,-28.320,-38.574,-33.691,-25.879,0.000
1709212413.894,-32.227,-39.062,-26.367,-17.090,0.000
1709212413.898,-32.715,-42.480,-34.668,-19.531,0.000
1709212413.902,-30.273,-37.598,-38.574,-20.508,0.000
1709212413.906,-24.902,-38.086,-37.598,-22.949,0.000
1709212413.910,-28.809,-48.828,-43.945,-27.832,0.000
1709212413.914,-35.156,-48.828,-41.016,-20.996,0.000
1709212413.918,-34.668,-39.062,-35.156,-28.320,0.000
1709212413.922,-37.598,-32.227,-44.922,-38.086,0.000
1709212413.925,-44.434,-38.086,-47.852,-41.992,0.000
1709212413.929,-36.133,-36.621,-44.434,-37.598,0.000
1709212413.933,-30.762,-35.645,-42.480,-31.250,0.000
1709212413.937,-38.086,-40.039,-41.504,-29.785,0.000
1709212413.941,-38.086,-44.434,-43.457,-30.273,0.000
1709212413.945,-24.902,-43.457,-37.598,-24.902,0.000
1709212413.949,-16.602,-36.621,-27.832,-24.902,0.000
1709212413.953,-16.113,-42.480,-28.809,-31.250,0.000
1709212413.957,-15.137,-42.969,-30.762,-18.066,0.000
1709212413.960,-25.391,-40.527,-36.133,-25.391,0.000
1709212413.964,-29.785,-42.969,-37.598,-38.086,0.000
1709212413.968,-25.879,-33.203,-33.691,-37.598,0.000
1709212413.972,-31.250,-32.715,-35.645,-43.945,0.000
1709212413.976,-42.480,-39.062,-40.039,-45.898,0.000
1709212413.980,-45.410,-45.898,-38.086,-40.039,0.000
1709212413.984,-40.527,-51.758,-31.250,-31.738,0.000
1709212413.988,-35.645,-45.410,-31.738,-30.273,0.000
1709212413.991,-39.062,-37.598,-37.109,-32.715,0.000
1709212413.995,-45.410,-38.574,-36.133,-28.320,0.000
1709212413.999,-36.133,-44.922,-32.715,-32.227,0.000
1709212414.003,-35.156,-45.898,-38.574,-37.598,0.000
1709212414.007,-42.969,-42.969,-42.480,-41.992,0.000
1709212414.011,-44.922,-43.945,-40.527,-44.922,0.000
1709212414.015,-48.340,-40.527,-42.969,-42.969,0.000
1709212414.019,-51.270,-33.203,-35.156,-38.574,0.000
1709212414.023,-43.945,-35.156,-25.391,-36.621,0.000
1709212414.027,-47.363,-42.969,-31.738,-45.410,0.000
1709212414.031,-52.246,-43.945,-36.621,-47.363,0.000
1709212414.035,-56.152,-35.645,-32.715,-53.223,0.000
1709212414.038,-60.547,-39.062,-35.156,-64.453,0.000
1709212414.042,-62.988,-45.898,-38.086,-68.848,0.000
1709212414.046,-55.664,-45.410,-39.551,-64.941,0.000
1709212414.050,-53.711,-47.852,-41.016,-64.453,0.000
1709212414.054,-58.594,-41.992,-42.969,-77.637,0.000
1709212414.058,-56.152,-38.574,-43.457,-73.730,0.000
1709212414.062,-56.152,-44.434,-41.016,-62.012,0.000
1709212414.066,-55.176,-42.969,-41.504,-70.312,0.000
1709212414.070,-58.594,-41.504,-40.527,-66.895,0.000
1709212414.074,-58.105,-40.527,-37.598,-69.824,0.000
1709212414.078,-47.852,-40.039,-35.156,-71.289,0.000
1709212414.082,-54.199,-44.434,-39.551,-62.988,0.000
1709212414.085,-56.641,-41.016,-39.062,-58.594,0.000
1709212414.089,-42.969,-41.504,-31.250,-53.711,0.000
1709212414.093,-42.480,-41.504,-29.297,-57.617,0.000
1709212414.097,-44.434,-27.344,-31.738,-53.223,0.000
1709212414.101,-49.316,-30.762,-35.645,-52.246,0.000
1709212414.105,-52.734,-42.480,-41.992,-49.316,0.000
1709212414.109,-52.734,-47.852,-44.922,-43.945,0.000
1709212414.113,-59.570,-42.969,-42.969,-56.152,0.000
1709212414.117,-56.152,-34.668,-41.016,-50.293,0.000
1709212414.121,-45.898,-42.480,-41.992,-43.945,0.000
1709212414.125,-44.922,-39.062,-48.828,-50.781,0.000
1709212414.128,-48.340,-29.785,-43.945,-45.410,0.000
1709212414.132,-53.223,-38.574,-35.156,-43.945,0.000
1709212414.136,-47.852,-41.992,-28.320,-42.480,0.000
1709212414.140,-44.434,-33.691,-31.250,-40.527,0.000
1709212414.144,-44.434,-25.391,-38.574,-45.898,0.000
1709212414.148,-49.805,-36.621,-37.109,-56.152,0.000
1709212414.152,-62.500,-55.176,-42.480,-59.570,0.000
1709212414.156,-77.148,-54.688,-43.457,-69.336,0.000
1709212414.160,-77.637,-50.293,-39.551,-69.336,0.000
1709212414.164,-58.594,-51.758,-35.645,-56.641,0.000
1709212414.168,0.000,-44.434,-36.133,0.000,0.000
1709212414.172,0.000,-41.992,-35.645,0.000,0.000
1709212414.176,0.000,-47.363,-34.180,0.000,0.000
1709212414.180,0.000,-51.270,-38.086,0.000,0.000
1709212414.184,0.000,-52.246,-51.270,0.000,0.000
1709212414.188,0.000,-53.711,-54.199,0.000,0.000
1709212414.191,0.000,-52.246,-48.828,0.000,0.000
1709212414.195,0.000,-46.875,-43.457,0.000,0.000
1709212414.199,0.000,-37.598,-40.039,0.000,0.000
1709212414.203,0.000,-35.156,-42.480,0.000,0.000
1709212414.207,0.000,-40.527,-37.598,0.000,0.000
1709212414.211,0.000,-42.480,-36.621,0.000,0.000
1709212414.214,-56.641,-34.180,0.000,-46.387,0.000
1709212414.218,-62.988,-26.855,0.000,-41.016,0.000
1709212414.222,-58.594,-37.109,0.000,-35.645,0.000
1709212414.226,-53.223,-43.457,0.000,-35.156,0.000
1709212414.230,-61.523,-41.504,0.000,-42.969,0.000
1709212414.234,-62.988,-41.992,0.000,-48.340,0.000
1709212414.238,-52.734,-41.504,0.000,-34.668,0.000
1709212414.242,-47.852,-42.969,0.000,-20.996,0.000
1709212414.246,-46.875,-36.133,0.000,-39.062,0.000
1709212414.249,-40.527,-34.180,0.000,-49.805,0.000
1709212414.253,-36.133,-47.852,0.000,-39.062,0.000
1709212414.257,-43.457,-41.504,0.000,-31.250,0.000
1709212414.261,0.000,-28.809,0.000,-27.344,0.000
1709212414.265,0.000,-33.691,0.000,-25.879,0.000
1709212414.269,0.000,-37.598,0.000,-20.508,0.000
1709212414.273,0.000,-32.227,0.000,-24.902,0.000
1709212414.277,0.000,-32.715,0.000,-27.344,0.000
1709212414.281,0.000,-43.945,0.000,-22.949,0.000
1709212414.285,0.000,-38.086,0.000,-14.160,0.000
1709212414.288,0.000,-29.297,0.000,-9.766,0.000
1709212414.292,0.000,-26.855,0.000,-18.066,0.000
1709212414.296,0.000,-29.785,0.000,-20.020,0.000
1709212414.300,0.000,-39.062,0.000,-16.602,0.000
1709212414.304,0.000,-37.598,0.000,-21.973,0.000
1709212414.308,-46.875,-41.992,-34.668,-29.297,0.000
1709212414.312,-43.457,-43.945,-33.203,-29.785,0.000
1709212414.316,-40.039,-47.852,-36.621,-32.227,0.000
1709212414.320,-39.551,-47.363,-35.156,-26.367,0.000
1709212414.324,-37.109,-48.340,-32.715,-23.926,0.000
1709212414.327,-34.180,-59.570,-31.738,-25.879,0.000
1709212414.331,-35.156,-54.688,-31.738,-17.090,0.000
1709212414.335,-35.645,-44.434,-31.738,-23.926,0.000
1709212414.339,-30.273,-42.969,-36.621,-32.715,0.000
1709212414.343,-28.809,-43.457,-35.156,-22.949,0.000
1709212414.347,-34.180,-47.852,-42.480,-26.855,0.000
1709212414.351,-36.133,-46.387,-46.875,-34.668,0.000
1709212414.355,-31.250,-35.645,-44.434,-34.180,0.000
1709212414.358,-35.156,-39.062,-43.945,-37.598,0.000
1709212414.362,-35.156,-40.527,-37.109,-38.574,0.000
1709212414.366,-26.367,-39.551,-37.598,-38.574,0.000
1709212414.370,-30.762,-42.969,-43.945,-41.016,0.000
1709212414.374,-33.691,-37.598,-36.133,-37.109,0.000
1709212414.378,-32.227,-35.156,-31.250,-30.273,0.000
1709212414.382,-38.574,-38.574,-38.574,-38.086,0.000
1709212414.386,-40.527,-38.086,-41.504,-42.480,0.000
1709212414.390,-39.551,-33.203,-37.598,-36.621,0.000
1709212414.394,-49.316,-32.227,-40.039,-40.527,0.000
1709212414.398,-52.734,-36.621,-34.668,-39.551,0.000
1709212414.402,-53.223,-53.711,-30.273,-31.738,0.000
1709212414.405,-48.340,-57.617,-38.086,-31.738,0.000
1709212414.409,-40.039,-44.922,-33.691,-32.227,0.000
1709212414.413,-41.992,-44.922,-23.926,-30.273,0.000
1709212414.417,-42.969,-58.594,-22.949,-27.832,0.000
1709212414.421,-37.109,-52.734,-24.902,-18.066,0.000
1709212414.425,-34.180,-36.621,-24.902,-12.207,0.000
1709212414.429,-36.133,-42.480,-32.715,-22.461,0.000
1709212414.433,-32.227,-45.898,-36.133,-23.438,0.000
1709212414.437,-32.715,-47.363,-32.227,-13.184,0.000
1709212414.441,-33.691,-43.457,-26.367,-15.625,0.000
1709212414.445,-29.297,-41.992,-27.832,-18.555,0.000
1709212414.449,-29.297,-52.734,-33.691,-16.602,0.000
1709212414.452,-31.738,-54.199,-27.832,-16.602,0.000
1709212414.456,-38.086,-50.293,-30.273,-23.438,0.000
1709212414.460,-41.504,-47.363,-33.203,-25.879,0.000
1709212414.464,-34.180,-50.781,-28.809,-24.414,0.000
1709212414.468,-26.855,-55.176,-29.785,-24.902,0.000
1709212414.472,-30.273,-47.852,-31.738,-32.715,0.000
1709212414.476,-31.738,-42.480,-31.250,-36.621,0.000
1709212414.480,-33.691,-41.992,-43.945,-41.504,0.000
1709212414.484,-30.273,-37.598,-43.457,-39.062,0.000
1709212414.488,-26.367,-43.457,-35.156,-50.781,0.000
1709212414.491,-31.250,-49.316,-33.203,-56.152,0.000
1709212414.495,-43.457,-52.246,-34.668,-52.246,0.000
1709212414.499,-50.293,-50.781,-36.133,-50.293,0.000
1709212414.503,-42.480,-40.527,-31.738,-42.480,0.000
1709212414.507,-38.086,-42.480,-33.691,-46.875,0.000
1709212414.511,-44.434,-54.688,-39.062,-51.270,0.000
1709212414.515,-48.828,-59.082,-43.457,-44.434,0.000
1709212414.519,-45.898,-48.828,-36.621,-36.621,0.000
1709212414.523,-41.016,-40.527,-32.715,-27.832,0.000
1709212414.527,-32.227,-41.016,-35.645,-20.996,0.000
1709212414.531,-30.762,-34.180,-39.062,-23.926,0.000
1709212414.535,-27.832,-36.133,-37.109,-23.926,0.000
1709212414.538,-31.250,-40.527,-37.109,-17.578,0.000
1709212414.542,-31.738,-33.691,-36.133,-16.113,0.000
1709212414.546,-21.973,-31.250,-32.227,-20.020,0.000
1709212414.550,-26.855,-34.668,-36.621,-26.855,0.000
1709212414.554,-41.016,-46.875,-46.875,-35.156,0.000
1709212414.558,-48.340,-55.664,-45.410,-35.645,0.000
1709212414.562,-47.363,-60.059,-39.551,-31.250,0.000
1709212414.566,-45.898,-57.129,-43.457,-34.180,0.000
1709212414.570,-48.340,-49.805,-40.527,-37.109,0.000
1709212414.574,-52.246,-50.293,-37.598,-37.109,0.000
1709212414.577,-47.363,-41.992,-38.574,-41.992,0.000
1709212414.581,-35.156,-32.227,-36.621,-41.504,0.000
1709212414.585,-22.461,-29.297,-38.574,-37.109,0.000
1709212414.589,-35.156,-34.668,-47.852,-49.316,0.000
1709212414.593,-49.805,-39.062,-47.852,-60.059,0.000
1709212414.597,-41.016,-39.551,-47.363,-52.246,0.000
1709212414.601,-32.715,-47.363,-50.781,-44.922,0.000
1709212414.605,-23.926,-41.992,-46.387,-46.875,0.000
1709212414.609,-23.926,-33.691,-43.457,-45.410,0.000
1709212414.613,-31.738,-36.133,-42.969,-43.945,0.000
1709212414.616,-40.527,-32.227,-40.527,-36.133,0.000
1709212414.620,-40.039,-30.762,-40.527,-41.992,0.000
1709212414.624,-37.598,-33.203,-41.504,-51.270,0.000
1709212414.628,-48.828,-38.574,-42.969,-57.129,0.000
1709212414.632,-62.012,-45.898,-44.922,-71.289,0.000
1709212414.636,-69.824,-44.922,-45.898,-72.266,0.000
1709212414.640,-68.359,-46.387,-49.316,-62.012,0.000
1709212414.644,-64.453,-45.898,-52.734,-63.477,0.000
1709212414.648,-64.941,-39.062,-48.828,-66.895,0.000
1709212414.652,-61.523,-41.016,-47.363,-62.012,0.000
1709212414.655,-65.918,-42.480,-43.945,-65.430,0.000
1709212414.659,-62.500,-44.434,-39.062,-48.828,0.000
1709212414.663,-46.875,-44.434,-36.621,-29.785,0.000
1709212414.667,-44.922,-52.246,-38.574,-40.527,0.000
1709212414.671,-48.340,-55.176,-41.504,-42.480,0.000
1709212414.675,-43.457,-44.922,-36.621,-29.297,0.000
1709212414.679,-41.504,-39.062,-31.250,-22.461,0.000
1709212414.683,-52.246,-39.551,-41.992,-27.344,0.000
1709212414.687,-51.270,-49.316,-44.922,-29.785,0.000
1709212414.690,-43.945,-50.293,-38.086,-28.809,0.000
1709212414.694,-33.691,-42.480,-33.691,-19.531,0.000
1709212414.698,-33.203,-37.109,-28.809,-16.602,0.000
1709212414.702,-43.945,-42.480,-28.320,-17.578,0.000
1709212414.706,-42.480,-44.922,-27.832,-8.789,0.000
1709212414.710,-43.457,-36.621,-35.156,-20.020,0.000
1709212414.714,-55.664,-38.086,-40.527,-33.691,0.000
1709212414.718,-62.012,-48.340,-39.062,-33.203,0.000
1709212414.722,-54.688,-54.688,-39.551,-36.621,0.000
1709212414.726,-49.316,-50.293,-39.062,-42.969,0.000
1709212414.729,-45.410,-46.875,-34.180,-45.898,0.000
1709212414.733,-35.156,-54.688,-28.320,-39.062,0.000
1709212414.737,-41.992,-46.875,-34.668,-31.738,0.000
1709212414.741,-39.062,-33.203,-32.715,-31.738,0.000
1709212414.745,-21.973,-28.809,-27.832,-29.297,0.000
1709212414.749,-28.809,-32.715,-38.574,-35.156,0.000
1709212414.753,-34.668,-44.434,-35.156,-39.062,0.000
1709212414.757,-32.227,-51.758,-38.574,-40.039,0.000
1709212414.761,-29.785,-41.504,-37.598,-41.016,0.000
1709212414.764,-17.090,-31.250,-30.762,-35.156,0.000
1709212414.768,-19.043,-33.203,-38.574,-36.133,0.000
1709212414.772,-30.762,-40.039,-41.992,-43.457,0.000
1709212414.776,-36.133,-43.945,-39.551,-36.621,0.000
1709212414.780,-32.227,-43.457,-37.598,-27.344,0.000
1709212414.784,-31.738,-43.457,-40.527,-30.273,0.000
1709212414.788,-23.438,-32.715,-40.527,-37.109,0.000
1709212414.792,-14.160,-25.879,-37.109,-34.668,0.000
1709212414.796,-28.320,-39.062,-37.598,-37.598,0.000
1709212414.800,-36.621,-42.969,-44.922,-45.410,0.000
1709212414.804,-27.344,-37.598,-44.922,-44.922,0.000
1709212414.808,-20.020,-42.480,-44.922,-40.527,0.000
1709212414.811,-24.414,-44.922,-43.457,-30.273,0.000
1709212414.815,-21.484,-40.527,-33.203,-24.902,0.000
1709212414.819,-10.254,-38.086,-30.273,-16.113,0.000
1709212414.823,-14.160,-42.480,-37.109,-17.090,0.000
1709212414.827,-20.508,-38.574,-41.504,-20.020,0.000
1709212414.831,-19.043,-34.180,-35.156,-17.090,0.000
1709212414.835,-21.484,-35.645,-37.598,-21.973,0.000
1709212414.839,-26.367,-33.691,-41.016,-27.344,0.000
1709212414.843,-21.973,-30.762,-35.156,-21.484,0.000
1709212414.847,-22.949,-33.691,-40.527,-26.367,0.000
1709212414.851,-34.180,-36.133,-46.875,-38.086,0.000
1709212414.855,-42.969,-40.039,-49.805,-37.598,0.000
1709212414.858,-43.945,-39.551,-41.504,-26.367,0.000
1709212414.862,-40.527,-35.156,-35.156,-24.902,0.000
1709212414.866,-36.621,-33.203,-35.156,-27.832,0.000
