timestamps,TP9,AF7,AF8,TP10,Right AUX
1709299163.115,-22.949,-30.273,-34.180,-33.691,0.000
1709299163.119,-8.301,-36.621,-34.180,-29.297,0.000
1709299163.122,-12.207,-44.434,-38.574,-41.016,0.000
1709299163.126,-31.250,-39.551,-41.992,-52.246,0.000
1709299163.130,-31.738,-44.434,-34.668,-47.363,0.000
1709299163.134,-29.297,-42.480,-40.039,-41.992,0.000
1709299163.138,-20.020,-26.367,-44.922,-31.250,0.000
1709299163.142,-18.066,-34.668,-43.457,-29.297,0.000
1709299163.146,-31.250,-41.504,-42.480,-35.156,0.000
1709299163.150,-36.133,-29.297,-45.410,-45.410,0.000
1709299163.154,-35.156,-24.414,-49.805,-44.922,0.000
1709299163.158,-30.762,-27.832,-48.828,-46.387,0.000
1709299163.162,-34.180,-35.645,-44.434,-45.898,0.000
1709299163.165,-46.875,-45.410,-41.016,-47.852,0.000
1709299163.169,-58.105,-44.922,-38.086,-48.828,0.000
1709299163.173,-56.152,-41.016,-36.621,-39.062,0.000
1709299163.177,-38.574,-37.598,-37.598,-27.344,0.000
1709299163.181,-36.621,-29.785,-32.227,-26.367,0.000
1709299163.185,-50.781,-34.668,-25.879,-42.969,0.000
1709299163.189,-60.059,-42.969,-30.762,-45.410,0.000
1709299163.193,-58.594,-36.133,-35.645,-28.320,0.000
1709299163.197,-39.062,-34.180,-34.180,-13.184,0.000
1709299163.201,-27.344,-36.133,-28.809,-4.883,0.000
1709299163.205,-38.574,-37.109,-31.250,-20.508,0.000
1709299163.208,-48.828,-41.504,-28.809,-33.203,0.000
1709299163.212,-43.457,-40.039,-30.762,-34.180,0.000
1709299163.216,-34.180,-38.086,-39.062,-32.227,0.000
1709299163.220,-31.250,-46.875,-41.504,-28.320,0.000
1709299163.224,-37.598,-41.016,-39.062,-33.691,0.000
1709299163.228,-43.457,-37.109,-26.367,-49.316,0.000
1709299163.232,-38.086,-39.551,-25.391,-42.480,0.000
1709299163.236,-27.832,-39.551,-31.250,-23.438,0.000
1709299163.240,-22.949,-35.156,-28.809,-24.902,0.000
1709299163.244,-35.645,-35.156,-32.715,-36.621,0.000
1709299163.247,-43.457,-35.645,-33.691,-39.062,0.000
1709299163.251,-41.016,-35.156,-28.320,-34.668,0.000
1709299163.255,-37.109,-44.434,-32.227,-33.203,0.000
1709299163.259,-31.250,-50.781,-36.133,-30.273,0.000
1709299163.263,-37.109,-42.969,-29.785,-38.086,0.000
1709299163.267,-57.617,-46.875,-31.738,-52.246,0.000
1709299163.271,-58.594,-46.387,-37.598,-51.758,0.000
1709299163.275,-47.852,-47.363,-41.992,-47.852,0.000
1709299163.279,-43.457,-46.875,-42.480,-39.551,0.000
1709299163.283,-44.922,-41.504,-52.246,-41.504,0.000
1709299163.287,-47.852,-36.133,-41.504,-53.711,0.000
1709299163.290,-49.805,-23.926,-24.902,-52.734,0.000
1709299163.294,-49.316,-24.414,-31.738,-41.992,0.000
1709299163.298,-41.504,-29.785,-29.297,-33.691,0.000
1709299163.302,-37.109,-36.621,-31.250,-36.621,0.000
1709299163.306,-44.922,-45.898,-35.645,-46.387,0.000
1709299163.310,-50.293,-45.898,-32.715,-51.270,0.000
1709299163.314,-43.945,-41.992,-32.715,-33.691,0.000
1709299163.318,-36.133,-39.551,-34.180,-21.973,0.000
1709299163.322,-28.809,-34.668,-30.762,-28.809,0.000
1709299163.326,-28.809,-27.344,-25.391,-32.715,0.000
1709299163.329,-31.738,-30.762,-24.902,-36.621,0.000
1709299163.333,-27.832,-39.551,-31.738,-37.109,0.000
1709299163.337,-13.184,-29.785,-27.344,-24.414,0.000
1709299163.341,-10.254,-32.715,-26.855,-21.484,0.000
1709299163.345,-28.809,-35.645,-41.992,-38.086,0.000
1709299163.349,-30.762,-34.668,-42.480,-44.922,0.000
1709299163.353,-27.344,-38.574,-37.598,-40.527,0.000
1709299163.357,-20.996,-33.691,-41.992,-40.039,0.000
1709299163.361,-11.230,-32.227,-38.086,-32.227,0.000
1709299163.364,-21.484,-26.855,-35.156,-43.945,0.000
1709299163.368,-32.715,-26.855,-41.504,-57.129,0.000
1709299163.372,-31.738,-30.762,-40.039,-47.852,0.000
1709299163.376,-28.320,-31.738,-37.598,-44.922,0.000
1709299163.380,-29.297,-31.250,-37.598,-44.922,0.000
1709299163.384,-41.992,-32.715,-40.527,-56.641,0.000
1709299163.388,-57.617,-39.551,-42.969,-70.801,0.000
1709299163.392,-53.223,-40.039,-40.039,-68.848,0.000
1709299163.396,-38.574,-35.645,-41.992,-54.199,0.000
1709299163.400,-32.227,-42.480,-43.457,-48.340,0.000
1709299163.404,-36.133,-46.875,-43.457,-55.176,0.000
1709299163.408,-45.898,-40.527,-41.016,-62.012,0.000
1709299163.412,-54.199,-32.227,-38.574,-52.734,0.000
1709299163.415,-47.363,-33.203,-40.039,-38.574,0.000
1709299163.419,-41.992,-40.039,-47.852,-37.109,0.000
1709299163.423,-48.828,-39.551,-50.293,-43.945,0.000
1709299163.427,-63.965,-39.551,-49.316,-57.617,0.000
1709299163.431,-64.941,-46.387,-49.805,-51.270,0.000
1709299163.435,-46.875,-41.992,-42.480,-40.527,0.000
1709299163.439,-36.133,-44.434,-39.062,-37.109,0.000
1709299163.443,-34.668,-48.340,-41.504,-31.738,0.000
1709299163.447,-46.387,-46.875,-41.504,-44.922,0.000
1709299163.451,-52.246,-39.551,-36.133,-48.828,0.000
1709299163.455,-43.945,-27.344,-41.504,-31.738,0.000
1709299163.458,-39.062,-31.738,-43.457,-21.973,0.000
1709299163.462,-36.133,-30.762,-32.715,-28.809,0.000
1709299163.466,-46.387,-34.668,-22.949,-37.109,0.000
1709299163.470,-52.734,-39.062,-34.180,-43.457,0.000
1709299163.474,-39.551,-35.645,-45.410,-32.715,0.000
1709299163.478,-20.020,-37.109,-39.551,-17.090,0.000
1709299163.482,-15.137,-31.250,-39.062,-24.902,0.000
1709299163.486,-25.879,-29.297,-40.039,-38.086,0.000
1709299163.490,-31.738,-40.039,-36.621,-35.156,0.000
1709299163.494,-29.297,-42.969,-36.621,-19.531,0.000
1709299163.498,-23.926,-30.273,-43.945,-15.625,0.000
1709299163.501,-25.879,-25.391,-43.457,-22.949,0.000
1709299163.505,-35.156,-31.250,-35.645,-27.832,0.000
1709299163.509,-41.504,-30.762,-36.621,-33.203,0.000
1709299163.513,-39.551,-35.156,-34.668,-34.668,0.000
1709299163.517,-27.344,-47.363,-35.645,-27.832,0.000
1709299163.521,-23.926,-41.016,-40.039,-20.020,0.000
1709299163.525,-36.133,-26.855,-35.156,-30.762,0.000
1709299163.529,-46.387,-27.832,-30.762,-42.480,0.000
1709299163.533,-36.621,-32.227,-32.227,-32.227,0.000
1709299163.537,-20.020,-41.016,-29.297,-19.531,0.000
1709299163.541,-18.066,-41.016,-30.273,-17.090,0.000
1709299163.544,-33.203,-28.320,-35.645,-30.273,0.000
1709299163.548,-35.645,-20.508,-32.715,-34.180,0.000
1709299163.552,-30.762,-26.855,-28.809,-21.484,0.000
1709299163.556,-23.438,-28.320,-29.297,-19.531,0.000
1709299163.560,-13.672,-20.508,-30.762,-21.484,0.000
1709299163.564,-27.344,-26.367,-37.109,-36.621,0.000
1709299163.568,-45.898,-33.691,-38.086,-49.805,0.000
1709299163.572,-46.875,-34.180,-39.551,-44.922,0.000
1709299163.576,-34.668,-34.180,-34.180,-26.367,0.000
1709299163.580,-25.879,-41.016,-28.809,-8.301,0.000
1709299163.584,-31.738,-49.805,-31.738,-13.184,0.000
1709299163.587,-42.969,-41.992,-30.273,-27.344,0.000
1709299163.591,-46.875,-35.645,-31.250,-26.855,0.000
1709299163.595,-32.227,-29.785,-25.391,-12.695,0.000
1709299163.599,-20.508,-27.832,-24.414,-6.348,0.000
1709299163.603,-25.879,-35.156,-34.668,-19.531,0.000
1709299163.607,-35.645,-43.457,-34.668,-37.109,0.000
1709299163.611,-37.109,-41.504,-33.691,-31.250,0.000
1709299163.615,-28.809,-34.668,-31.250,-18.555,0.000
1709299163.619,-22.949,-39.551,-36.133,-21.973,0.000
1709299163.623,-15.625,-43.945,-38.086,-26.367,0.000
1709299163.626,-21.484,-34.668,-28.320,-30.762,0.000
1709299163.630,-35.156,-32.715,-31.250,-34.180,0.000
1709299163.634,-29.785,-32.715,-41.016,-31.250,0.000
1709299163.638,-17.090,-20.020,-42.480,-24.902,0.000
1709299163.642,-20.996,-10.742,-37.109,-24.902,0.000
1709299163.646,-41.504,-24.414,-36.621,-45.898,0.000
1709299163.650,-45.898,-38.086,-33.691,-48.828,0.000
1709299163.654,-39.062,-34.668,-27.832,-27.344,0.000
1709299163.658,-37.598,-36.621,-31.738,-14.160,0.000
1709299163.662,-41.016,-41.992,-35.156,-31.738,0.000
1709299163.666,-50.293,-49.805,-35.645,-46.387,0.000
1709299163.669,-57.617,-42.480,-34.180,-43.457,0.000
1709299163.673,-48.340,-29.785,-33.691,-36.133,0.000
1709299163.677,-41.992,-28.809,-36.621,-30.273,0.000
1709299163.681,-43.457,-35.156,-34.668,-27.344,0.000
1709299163.685,-51.758,-32.715,-34.180,-38.086,0.000
1709299163.689,-64.941,-32.715,-39.062,-50.293,0.000
1709299163.693,-54.199,-40.527,-37.598,-40.527,0.000
1709299163.697,-41.992,-42.969,-27.832,-28.320,0.000
1709299163.701,-40.527,-45.898,-33.203,-26.855,0.000
1709299163.705,-44.434,-39.551,-38.574,-41.504,0.000
1709299163.708,-47.852,-33.203,-32.715,-57.129,0.000
1709299163.712,-39.062,-42.480,-28.320,-41.504,0.000
1709299163.716,-27.832,-53.711,-28.809,-20.996,0.000
1709299163.720,-22.949,-41.016,-25.391,-16.602,0.000
1709299163.724,-29.297,-32.715,-25.879,-28.809,0.000
1709299163.728,-41.016,-36.133,-31.250,-41.016,0.000
1709299163.732,-37.598,-41.504,-36.621,-34.180,0.000
1709299163.736,-26.367,-47.852,-31.738,-21.484,0.000
1709299163.740,-24.902,-38.086,-34.180,-20.508,0.000
1709299163.743,-30.762,-37.109,-40.527,-33.203,0.000
1709299163.747,-41.016,-40.527,-37.598,-41.992,0.000
1709299163.751,-50.293,-36.133,-40.039,-49.805,0.000
1709299163.755,-37.109,-38.086,-36.133,-41.504,0.000
1709299163.759,-28.809,-43.945,-38.086,-29.297,0.000
1709299163.763,-36.133,-38.086,-32.715,-40.527,0.000
1709299163.767,-47.852,-35.645,-35.156,-59.082,0.000
1709299163.771,0.000,-36.133,-43.457,-56.152,0.000
1709299163.775,0.000,-38.086,-36.133,-39.551,0.000
1709299163.779,0.000,-34.668,-30.762,-24.414,0.000
1709299163.783,0.000,-29.785,-33.691,-25.391,0.000
1709299163.787,0.000,-30.762,-38.574,-42.480,0.000
1709299163.790,0.000,-33.203,-42.480,-44.922,0.000
1709299163.794,0.000,-29.297,-36.133,-30.762,0.000
1709299163.798,0.000,-23.438,-31.250,-29.297,0.000
1709299163.802,0.000,-36.133,-38.574,-43.457,0.000
1709299163.806,0.000,-48.340,-41.504,-49.805,0.000
1709299163.810,0.000,-38.574,-37.109,-55.664,0.000
1709299163.814,0.000,-37.598,-40.527,-51.270,0.000
1709299163.817,-49.805,-37.598,0.000,-37.109,0.000
1709299163.821,-33.691,-33.691,0.000,-42.480,0.000
1709299163.825,-22.949,-31.250,0.000,-54.688,0.000
1709299163.829,-27.344,-27.832,0.000,-52.246,0.000
1709299163.833,-41.016,-19.531,0.000,-31.738,0.000
1709299163.837,-52.246,-19.531,0.000,-18.066,0.000
1709299163.841,-41.504,-30.273,0.000,-23.926,0.000
1709299163.844,-32.227,-49.805,0.000,-47.852,0.000
1709299163.848,-38.086,-55.176,0.000,-53.223,0.000
1709299163.852,-54.199,-40.039,0.000,-27.344,0.000
1709299163.856,-58.594,-24.414,0.000,-26.367,0.000
1709299163.860,-47.852,-26.367,0.000,-37.109,0.000
1709299163.863,-42.969,-31.738,-44.434,-38.574,0.000
1709299163.867,-41.504,-32.715,-42.969,-44.922,0.000
1709299163.871,-57.617,-33.203,-42.480,-37.598,0.000
1709299163.875,-69.824,-26.855,-36.133,-11.230,0.000
1709299163.879,-53.711,-35.156,-37.109,-17.090,0.000
1709299163.883,-38.086,-53.223,-39.062,-35.156,0.000
1709299163.887,-41.016,-59.082,-37.598,-41.992,0.000
1709299163.891,-53.711,-45.410,-38.086,-41.016,0.000
1709299163.895,-61.035,-41.992,-38.086,-24.414,0.000
1709299163.899,-50.781,-46.387,-39.551,-24.902,0.000
1709299163.902,-32.227,-41.992,-49.805,-46.387,0.000
1709299163.906,-30.762,-41.016,-56.152,-51.270,0.000
1709299163.910,-57.129,-37.598,-45.410,-45.898,0.000
1709299163.914,-37.598,-38.574,-37.598,-33.691,0.000
1709299163.918,-24.902,-42.969,-37.598,-26.855,0.000
1709299163.922,-34.668,-43.945,-34.668,-34.668,0.000
1709299163.926,-47.363,-53.711,-28.809,-39.551,0.000
1709299163.930,-40.039,-46.387,-30.762,-29.297,0.000
1709299163.934,-24.414,-36.621,-29.297,-21.973,0.000
1709299163.938,-17.090,-42.480,-29.297,-11.230,0.000
1709299163.942,-23.438,-42.480,-40.527,-8.789,0.000
1709299163.946,-34.668,-37.598,-35.645,-36.133,0.000
1709299163.949,-32.227,-42.969,-19.531,-36.133,0.000
1709299163.953,-20.020,-39.062,-16.602,-23.438,0.000
1709299163.957,-12.695,-33.691,-22.461,-20.020,0.000
1709299163.961,-17.578,-35.156,-19.043,-24.414,0.000
1709299163.965,-32.715,-36.133,-27.344,-41.992,0.000
1709299163.969,-40.039,-44.922,-33.691,-47.363,0.000
1709299163.973,-33.203,-49.316,-24.414,-34.180,0.000
1709299163.977,-20.508,-41.504,-23.926,-21.973,0.000
1709299163.981,-21.484,-38.086,-25.391,-29.785,0.000
1709299163.985,-33.203,-39.551,-25.391,-37.109,0.000
1709299163.988,-50.781,-39.062,-27.832,-45.898,0.000
1709299163.992,-45.898,-37.109,-26.855,-50.293,0.000
1709299163.996,-31.250,-38.574,-28.320,-42.480,0.000
1709299164.000,-33.203,-37.109,-29.785,-45.898,0.000
1709299164.004,-45.410,-31.738,-33.203,-59.570,0.000
1709299164.008,-52.246,-37.109,-37.598,-63.477,0.000
1709299164.012,-45.410,-42.480,-32.715,-48.828,0.000
1709299164.016,-29.785,-33.203,-30.762,-34.180,0.000
1709299164.020,-21.973,-30.762,-30.762,-37.109,0.000
1709299164.024,-27.344,-31.250,-25.391,-44.922,0.000
1709299164.028,-42.480,-30.762,-31.738,-51.758,0.000
1709299164.031,-39.551,-39.551,-32.715,-35.645,0.000
1709299164.035,-25.879,-36.621,-41.016,-30.273,0.000
1709299164.039,-22.949,-30.273,-48.828,-34.180,0.000
1709299164.043,-32.715,-30.273,-39.551,-37.109,0.000
1709299164.047,-45.410,-25.391,-39.551,-48.340,0.000
1709299164.051,-42.480,-27.832,-45.898,-46.387,0.000
1709299164.055,-30.762,-34.668,-39.062,-34.180,0.000
1709299164.059,-23.438,-32.715,-35.156,-28.809,0.000
1709299164.063,-25.391,-30.762,-37.109,-36.133,0.000
1709299164.067,-37.598,-33.691,-41.504,-52.246,0.000
1709299164.070,-41.504,-37.598,-44.434,-55.664,0.000
1709299164.074,-35.156,-41.016,-41.016,-34.180,0.000
1709299164.078,-33.203,-40.039,-41.504,-25.879,0.000
1709299164.082,-39.062,-28.320,-41.016,-45.898,0.000
1709299164.086,-50.781,-26.855,-44.434,-53.223,0.000
1709299164.090,-42.480,-30.273,-39.551,-47.852,0.000
1709299164.094,-22.949,-28.320,-32.227,-39.551,0.000
1709299164.098,-20.020,-38.086,-34.668,-29.785,0.000
1709299164.102,-30.273,-43.457,-33.203,-30.273,0.000
1709299164.106,-44.922,-42.480,-24.902,-39.551,0.000
1709299164.110,-51.270,-39.551,-21.484,-41.992,0.000
1709299164.114,-39.551,-39.062,-32.227,-33.691,0.000
1709299164.117,-26.367,-45.898,-33.691,-23.438,0.000
1709299164.121,-27.832,-43.945,-28.809,-18.555,0.000
1709299164.125,-40.527,-33.203,-30.273,-37.598,0.000
1709299164.129,-45.898,-31.250,-32.715,-44.434,0.000
1709299164.133,-42.480,-34.180,-43.945,-32.715,0.000
1709299164.137,-34.668,-48.340,-48.828,-29.785,0.000
1709299164.141,-38.574,-49.805,-41.992,-36.621,0.000
1709299164.145,-52.246,-36.133,-42.480,-47.363,0.000
1709299164.149,-54.199,-32.227,-37.109,-50.781,0.000
1709299164.153,-45.898,-37.109,-38.086,-39.062,0.000
1709299164.157,-32.227,-36.621,-39.551,-29.297,0.000
1709299164.161,-32.715,-41.992,-41.016,-32.715,0.000
1709299164.165,-40.527,-41.504,-44.922,-43.945,0.000
1709299164.168,-44.922,-30.762,-36.133,-46.387,0.000
1709299164.172,-42.480,-29.785,-32.227,-41.992,0.000
1709299164.176,-28.809,-34.668,-36.133,-32.715,0.000
1709299164.180,-24.414,-36.621,-39.062,-21.484,0.000
1709299164.184,-40.527,-39.551,-34.180,-36.133,0.000
1709299164.188,-61.523,-48.340,-33.203,-52.246,0.000
1709299164.192,-59.570,-45.410,-31.738,-45.410,0.000
1709299164.196,-54.199,-40.527,-33.691,-39.551,0.000
1709299164.200,-56.641,-44.922,-36.621,-42.969,0.000
1709299164.204,-64.941,-48.340,-31.250,-53.711,0.000
1709299164.208,-72.266,-47.852,-25.879,-57.129,0.000
1709299164.211,-70.312,-46.387,-34.668,-52.734,0.000
1709299164.215,-65.918,-43.945,-43.457,-50.781,0.000
1709299164.219,-61.035,-45.898,-38.574,-49.316,0.000
1709299164.223,-58.594,-41.504,-27.344,-43.457,0.000
1709299164.227,-58.594,-38.086,-24.902,-41.016,0.000
1709299164.231,-51.758,-38.574,-34.180,-45.410,0.000
1709299164.235,-37.109,-35.156,-34.668,-33.691,0.000
1709299164.239,-20.996,-40.527,-34.668,-20.508,0.000
1709299164.243,-25.391,-35.156,-32.715,-28.320,0.000
1709299164.247,-38.086,-28.809,-29.297,-39.551,0.000
1709299164.251,-40.039,-40.527,-34.668,-39.551,0.000
1709299164.255,-35.156,-43.945,-37.598,-31.250,0.000
1709299164.258,-22.949,-32.715,-31.250,-21.484,0.000
1709299164.262,-26.855,-33.203,-36.621,-27.832,0.000
1709299164.266,-39.551,-35.156,-36.133,-43.457,0.000
1709299164.270,-42.480,-36.621,-29.785,-36.133,0.000
1709299164.274,-38.086,-35.156,-33.691,-23.926,0.000
1709299164.278,-29.297,-28.320,-33.203,-29.785,0.000
1709299164.282,-31.250,-31.738,-30.273,-45.898,0.000
1709299164.286,-45.898,-33.691,-31.250,-58.105,0.000
1709299164.290,-47.363,-27.344,-29.785,-52.246,0.000
1709299164.294,-34.668,-33.203,-31.738,-39.551,0.000
1709299164.298,-28.809,-43.457,-33.203,-32.227,0.000
1709299164.301,-31.250,-39.551,-27.832,-33.691,0.000
1709299164.305,-38.086,-44.434,-34.668,-43.457,0.000
1709299164.309,-38.574,-41.504,-34.180,-47.852,0.000
1709299164.313,-29.297,-30.273,-20.508,-25.879,0.000
1709299164.317,-20.508,-30.273,-21.973,-6.348,0.000
1709299164.321,-22.461,-35.156,-26.855,-20.020,0.000
1709299164.325,-31.738,-37.598,-27.344,-32.715,0.000
1709299164.329,-42.480,-32.227,-32.715,-41.504,0.000
1709299164.333,-35.645,-27.344,-32.227,-32.227,0.000
1709299164.337,-18.555,-33.691,-33.203,-20.996,0.000
1709299164.340,-25.879,-36.621,-33.691,-27.832,0.000
1709299164.344,-40.039,-34.180,-28.320,-41.992,0.000
1709299164.348,-42.969,-35.645,-28.320,-47.852,0.000
1709299164.352,-44.922,-38.086,-30.762,-38.086,0.000
1709299164.356,-38.574,-33.203,-29.785,-27.832,0.000
1709299164.360,-33.691,-30.762,-25.879,-25.391,0.000
1709299164.364,-40.527,-36.133,-25.391,-34.668,0.000
1709299164.368,-50.293,-44.922,-27.344,-47.363,0.000
1709299164.372,-48.340,-43.945,-28.320,-42.969,0.000
1709299164.376,-35.156,-33.691,-32.715,-24.414,0.000
1709299164.380,-24.902,-36.621,-37.109,-12.207,0.000
1709299164.383,-29.297,-42.969,-35.156,-24.902,0.000
1709299164.387,-43.457,-42.480,-25.879,-40.039,0.000
1709299164.391,-39.551,-35.156,-23.438,-34.180,0.000
1709299164.395,-28.809,-32.715,-33.203,-29.785,0.000
1709299164.399,-27.344,-46.875,-33.203,-30.762,0.000
1709299164.403,-35.645,-45.898,-36.621,-45.410,0.000
1709299164.407,-52.246,-36.133,-40.527,-67.871,0.000
1709299164.411,-55.176,-31.250,-39.062,-68.848,0.000
1709299164.415,-47.363,-33.203,-42.969,-58.594,0.000
1709299164.419,-41.504,-49.316,-45.410,-55.176,0.000
1709299164.423,-42.480,-54.688,-38.086,-56.152,0.000
1709299164.426,-53.223,-38.086,-38.086,-66.406,0.000
1709299164.430,-57.617,-29.785,-42.969,-68.359,0.000
1709299164.434,-41.992,-32.715,-41.992,-52.246,0.000
1709299164.438,-30.273,-40.527,-46.387,-45.898,0.000
1709299164.442,-29.297,-46.875,-46.875,-48.828,0.000
1709299164.446,-33.203,-43.945,-44.434,-55.664,0.000
1709299164.450,-38.086,-35.156,-45.898,-48.828,0.000
1709299164.454,-37.598,-33.203,-45.410,-39.062,0.000
1709299164.458,-27.344,-38.086,-38.086,-30.273,0.000
1709299164.462,-24.902,-38.086,-33.691,-28.809,0.000
1709299164.465,-34.180,-46.875,-35.645,-44.922,0.000
1709299164.469,-37.109,-41.992,-34.180,-46.387,0.000
1709299164.473,-34.180,-26.855,-33.691,-32.227,0.000
1709299164.477,-28.320,-31.250,-45.410,-20.996,0.000
1709299164.481,-30.762,-34.180,-41.504,-23.438,0.000
1709299164.485,-40.039,-36.621,-32.715,-40.527,0.000
1709299164.489,-46.387,-48.340,-30.762,-45.898,0.000
1709299164.493,-49.316,-54.199,-30.762,-34.668,0.000
1709299164.497,-47.363,-51.758,-35.645,-20.020,0.000
1709299164.501,-44.434,-46.387,-41.016,-29.297,0.000
1709299164.504,-55.176,-48.340,-37.598,-46.875,0.000
1709299164.508,-65.918,-48.828,-28.809,-44.922,0.000
1709299164.512,-61.035,-47.363,-24.414,-33.203,0.000
1709299164.516,-54.199,-51.758,-29.785,-29.297,0.000
1709299164.520,-46.875,-45.898,-33.203,-31.250,0.000
1709299164.524,-54.688,-44.434,-35.156,-41.016,0.000
1709299164.528,-63.965,-44.922,-35.645,-49.316,0.000
1709299164.532,-59.570,-45.410,-34.668,-43.457,0.000
1709299164.536,-46.875,-48.340,-39.062,-33.691,0.000
1709299164.540,-37.109,-45.410,-36.621,-29.297,0.000
1709299164.544,-49.316,-41.992,-36.621,-46.875,0.000
1709299164.548,-61.035,-38.574,-37.109,-62.988,0.000
1709299164.551,-60.059,-43.945,-37.598,-59.570,0.000
1709299164.555,-45.898,-45.410,-39.551,-41.016,0.000
1709299164.559,-37.109,-39.551,-41.992,-43.457,0.000
1709299164.563,-38.086,-40.527,-45.898,-59.570,0.000
1709299164.567,-46.387,-35.156,-43.457,-60.059,0.000
1709299164.571,-46.387,-23.926,-44.922,-53.711,0.000
1709299164.575,-26.367,-25.391,-39.551,-42.969,0.000
1709299164.579,-15.625,-33.691,-37.598,-33.203,0.000
1709299164.583,-22.949,-34.668,-38.086,-38.574,0.000
1709299164.587,-35.645,-30.273,-33.691,-51.270,0.000
1709299164.591,-38.086,-33.691,-30.273,-49.316,0.000
1709299164.594,-26.367,-36.621,-31.250,-38.086,0.000
1709299164.598,-19.531,-35.156,-32.715,-29.785,0.000
1709299164.602,-26.367,-26.855,-36.133,-27.344,0.000
1709299164.606,-36.133,-25.391,-39.551,-42.480,0.000
1709299164.610,-37.109,-25.879,-35.645,-40.527,0.000
1709299164.614,-31.738,-25.879,-31.738,-26.855,0.000
1709299164.618,-27.344,-29.785,-29.785,-19.531,0.000
1709299164.622,-27.832,-31.738,-27.344,-21.973,0.000
1709299164.626,-37.109,-31.250,-26.367,-29.785,0.000
1709299164.630,-43.457,-33.203,-32.715,-24.414,0.000
1709299164.634,-45.898,-39.062,-37.109,-17.578,0.000
1709299164.638,-43.457,-47.363,-38.574,-11.719,0.000
1709299164.641,-41.504,-58.105,-41.992,-16.113,0.000
1709299164.645,-47.852,-46.387,-39.062,-24.902,0.000
1709299164.649,-52.734,-37.598,-35.156,-29.785,0.000
1709299164.653,-36.621,-41.016,-33.691,-19.043,0.000
1709299164.657,-24.414,-46.387,-38.086,-10.254,0.000
1709299164.661,-21.973,-53.223,-41.504,-17.090,0.000
1709299164.665,-24.414,-53.223,-40.039,-27.832,0.000
1709299164.669,-35.645,-47.363,-30.762,-37.109,0.000
1709299164.673,-40.527,-54.688,-42.480,-36.621,0.000
1709299164.677,-30.762,-61.035,-53.223,-29.297,0.000
1709299164.681,-26.855,-51.758,-39.062,-28.320,0.000
1709299164.684,-37.598,-50.293,-41.504,-43.457,0.000
1709299164.688,-49.316,-54.688,-50.293,-52.246,0.000
1709299164.692,-45.410,-54.199,-45.410,-34.668,0.000
1709299164.696,-32.227,-45.410,-45.410,-36.621,0.000
1709299164.700,-29.785,-44.922,-50.293,-49.805,0.000
1709299164.704,-26.855,-47.852,-44.922,-54.688,0.000
1709299164.708,-32.715,-40.527,-35.645,-61.035,0.000
1709299164.712,-33.203,-37.109,-28.809,-53.223,0.000
1709299164.716,-24.902,-35.156,-33.203,-41.016,0.000
1709299164.720,-31.250,-34.180,-37.109,-42.969,0.000
1709299164.724,-42.480,-41.504,-32.715,-44.434,0.000
1709299164.727,-56.152,-38.574,-31.738,-55.664,0.000
1709299164.731,-60.059,-33.203,-35.645,-61.523,0.000
1709299164.735,-51.758,-38.574,-42.969,-42.969,0.000
1709299164.739,-43.457,-42.969,-48.340,-37.109,0.000
1709299164.743,-42.969,-38.574,-42.969,-46.875,0.000
1709299164.747,-54.688,-41.504,-35.156,-56.641,0.000
1709299164.751,-67.383,-50.293,-38.574,-54.688,0.000
1709299164.755,-51.758,-41.992,-37.598,-42.969,0.000
1709299164.759,-30.762,-36.621,-31.738,-31.250,0.000
1709299164.763,-33.691,-38.574,-39.551,-33.203,0.000
1709299164.767,-40.527,-41.992,-47.363,-43.457,0.000
1709299164.771,-43.945,-40.527,-40.527,-41.504,0.000
1709299164.775,-28.320,-23.438,-28.809,-27.344,0.000
1709299164.779,-5.859,-19.531,-28.809,-4.883,0.000
1709299164.783,-10.742,-32.227,-39.551,-1.465,0.000
1709299164.786,-25.879,-32.715,-42.480,-31.250,0.000
1709299164.790,-30.762,-31.250,-42.480,-37.598,0.000
1709299164.794,-29.297,-24.414,-39.551,-24.414,0.000
1709299164.798,-28.809,-25.879,-44.434,-25.879,0.000
1709299164.802,-27.832,-37.598,-41.992,-32.715,0.000
1709299164.806,-34.668,-41.992,-40.039,-46.875,0.000
1709299164.810,-34.668,-35.645,-46.875,-53.711,0.000
1709299164.814,-25.879,-32.715,-45.410,-47.363,0.000
1709299164.818,-26.367,-44.434,-44.922,-44.434,0.000
1709299164.822,-27.344,-51.270,-43.457,-40.039,0.000
1709299164.825,-43.945,-55.664,-40.039,-52.246,0.000
1709299164.829,-61.035,-52.734,-34.668,-63.965,0.000
1709299164.833,-47.852,-41.504,-29.785,-56.152,0.000
1709299164.837,-39.551,-41.992,-31.738,-43.945,0.000
1709299164.841,-45.410,-44.434,-38.574,-43.945,0.000
1709299164.845,-62.012,-51.270,-39.062,-63.965,0.000
1709299164.849,-74.219,-47.852,-39.062,-74.707,0.000
1709299164.853,-71.289,-43.457,-40.527,-61.035,0.000
1709299164.857,-57.617,-48.828,-28.809,-34.668,0.000
1709299164.861,-47.852,-40.527,-22.949,-27.344,0.000
1709299164.864,-60.059,-51.758,-26.855,-41.016,0.000
1709299164.868,-67.871,-62.012,-27.344,-44.434,0.000
1709299164.872,-62.988,-53.711,-24.414,-33.203,0.000
1709299164.876,-49.805,-52.246,-28.809,-24.414,0.000
1709299164.880,-35.156,-47.363,-26.367,-23.926,0.000
1709299164.884,-35.156,-50.781,-20.508,-29.785,0.000
1709299164.888,-46.387,-56.641,-22.461,-35.645,0.000
1709299164.892,-40.039,-38.086,-23.926,-34.668,0.000
1709299164.896,-31.250,-25.879,-23.438,-23.438,0.000
1709299164.900,-30.273,-28.809,-30.273,-21.973,0.000
1709299164.904,-21.484,-34.180,-34.180,-23.926,0.000
1709299164.908,-27.344,-42.969,-34.180,-31.250,0.000
1709299164.911,-37.598,-39.551,-36.621,-37.109,0.000
1709299164.915,-27.832,-37.598,-35.156,-27.832,0.000
1709299164.919,-9.766,-34.180,-28.809,-14.648,0.000
1709299164.923,-11.230,-31.738,-27.344,-19.043,0.000
1709299164.927,-24.414,-32.227,-24.414,-32.715,0.000
1709299164.931,-25.879,-38.574,-20.508,-24.902,0.000
1709299164.935,-14.648,-39.551,-26.367,-11.230,0.000
1709299164.939,-3.906,-29.297,-32.227,-11.230,0.000
1709299164.943,-9.277,-32.227,-35.645,-23.926,0.000
1709299164.947,-23.438,-37.598,-36.133,-35.645,0.000
1709299164.951,-28.809,-41.016,-28.320,-37.109,0.000
1709299164.954,-22.461,-38.574,-23.926,-30.762,0.000
1709299164.958,-16.602,-37.109,-24.902,-23.438,0.000
1709299164.962,-19.043,-28.320,-20.996,-31.738,0.000
1709299164.966,-33.691,-22.949,-25.879,-38.086,0.000
1709299164.970,-38.574,-15.625,-26.855,-38.574,0.000
1709299164.974,-32.715,-18.066,-25.879,-36.133,0.000
1709299164.978,-32.227,-31.738,-35.156,-23.438,0.000
1709299164.982,-37.109,-25.879,-38.086,-29.785,0.000
1709299164.986,-46.875,-32.715,-32.227,-46.387,0.000
1709299164.990,-57.129,-40.039,-32.715,-52.246,0.000
1709299164.994,-48.828,-35.645,-23.926,-39.062,0.000
1709299164.998,-35.645,-38.086,-17.090,-28.320,0.000
1709299165.001,-28.320,-32.227,-25.879,-32.227,0.000
1709299165.005,-33.203,-27.344,-36.133,-41.504,0.000
1709299165.009,-39.062,-29.785,-41.504,-44.434,0.000
1709299165.013,-27.832,-32.715,-40.039,-34.668,0.000
1709299165.017,-22.949,-37.109,-44.434,-27.832,0.000
1709299165.021,-28.320,-37.598,-47.363,-16.602,0.000
1709299165.025,-30.762,-38.086,-38.086,-28.809,0.000
1709299165.029,-39.062,-46.875,-28.809,-46.875,0.000
1709299165.033,-39.551,-43.945,-30.762,-35.645,0.000
1709299165.037,0.000,-37.598,-29.297,-21.973,0.000
1709299165.041,0.000,-35.645,-18.066,-12.207,0.000
1709299165.044,0.000,-31.250,-25.879,-17.090,0.000
1709299165.048,0.000,-33.203,-32.227,-28.809,0.000
1709299165.052,0.000,-33.203,-30.762,-27.344,0.000
1709299165.056,0.000,-31.738,-35.645,-21.973,0.000
1709299165.060,0.000,-33.691,-25.391,-19.531,0.000
1709299165.064,0.000,-40.527,-24.414,-23.438,0.000
1709299165.068,0.000,-41.504,-30.762,-31.738,0.000
1709299165.072,0.000,-33.691,-30.273,-42.480,0.000
1709299165.076,0.000,-39.062,-29.785,-38.574,0.000
1709299165.080,0.000,-45.410,-33.691,-34.180,0.000
1709299165.083,-53.711,-39.062,-39.062,-41.504,0.000
1709299165.087,-57.129,-36.621,-39.551,-53.223,0.000
1709299165.091,-59.570,-35.156,-38.086,-61.035,0.000
1709299165.095,-53.711,-33.203,-35.156,-52.246,0.000
1709299165.099,-44.434,-35.156,-40.039,-42.969,0.000
1709299165.103,-47.363,-40.527,-41.992,-45.898,0.000
1709299165.107,-56.152,-42.969,-35.156,-59.082,0.000
1709299165.111,-58.105,-40.527,-39.062,-58.105,0.000
1709299165.115,-46.875,-22.949,-42.969,-43.457,0.000
1709299165.119,-28.809,-20.996,-38.086,-39.062,0.000
1709299165.123,-29.297,-27.832,-33.203,-37.598,0.000
1709299165.126,-39.551,-25.391,-32.715,-42.480,0.000
1709299165.130,-44.922,-22.949,0.000,-46.875,0.000
1709299165.134,-41.504,-28.809,0.000,-32.227,0.000
1709299165.138,-28.320,-36.621,0.000,-25.391,0.000
1709299165.142,-27.832,-39.551,0.000,-28.809,0.000
1709299165.146,-41.504,-42.969,0.000,-39.551,0.000
1709299165.150,-51.270,-33.203,0.000,-53.711,0.000
1709299165.154,-46.387,-33.691,0.000,-45.410,0.000
1709299165.158,-40.039,-41.504,0.000,-31.250,0.000
1709299165.162,-42.969,-40.527,0.000,-37.109,0.000
1709299165.165,-54.688,-41.504,0.000,-45.410,0.000
1709299165.169,-56.152,-32.227,0.000,-39.551,0.000
1709299165.173,-48.340,-36.621,0.000,-31.250,0.000
1709299165.177,-37.109,-45.410,-26.367,-22.949,0.000
1709299165.181,-30.273,-43.945,-30.273,-21.973,0.000
1709299165.185,-38.574,-46.387,-31.250,-31.738,0.000
1709299165.189,-47.852,-41.016,-22.461,-43.945,0.000
1709299165.193,-50.781,-33.691,-28.320,-44.434,0.000
1709299165.197,-40.527,-35.156,-33.203,-31.738,0.000
1709299165.201,-33.203,-39.551,-29.785,-26.367,0.000
1709299165.204,-42.480,-43.457,-25.879,-42.480,0.000
1709299165.208,-49.805,-41.504,-25.879,-60.547,0.000
1709299165.212,-51.270,-41.016,-38.086,-64.453,0.000
1709299165.216,-42.969,-43.945,-40.039,-49.316,0.000
1709299165.220,-38.574,-47.852,-29.297,-40.527,0.000
1709299165.224,-50.781,-47.852,-32.227,-55.664,0.000
1709299165.228,-62.012,-37.598,-39.551,-67.871,0.000
1709299165.232,-57.617,-28.809,-37.598,-63.965,0.000
1709299165.236,-43.945,-24.902,-38.574,-51.270,0.000
1709299165.240,-27.832,-31.738,-35.156,-45.410,0.000
1709299165.243,-32.715,-42.969,-31.738,-49.805,0.000
1709299165.247,-42.480,-45.410,-36.621,-58.594,0.000
1709299165.251,-46.387,-37.598,-43.457,-65.430,0.000
1709299165.255,-45.410,-31.250,-45.410,-55.664,0.000
1709299165.259,-34.668,-33.691,-44.434,-40.527,0.000
1709299165.263,-40.039,-41.504,-46.875,-44.434,0.000
1709299165.267,-56.152,-48.828,-43.457,-61.035,0.000
1709299165.271,-57.617,-42.969,-31.250,-59.082,0.000
1709299165.275,-45.898,-42.969,-29.297,-43.945,0.000
1709299165.279,-29.297,-44.922,-29.297,-37.109,0.000
1709299165.283,-36.133,-43.945,-26.367,-46.387,0.000
1709299165.287,-46.387,-46.387,-29.785,-52.246,0.000
1709299165.290,-41.992,-39.551,-34.180,-41.016,0.000
1709299165.294,-37.598,-34.180,-36.133,-29.297,0.000
1709299165.298,-28.809,-29.785,-36.621,-19.043,0.000
1709299165.302,-20.508,-31.250,-31.250,-11.230,0.000
1709299165.306,-28.320,-33.691,-28.809,-14.160,0.000
1709299165.310,-40.039,-39.062,-36.621,-25.879,0.000
1709299165.314,-29.785,-41.016,-33.691,-23.438,0.000
1709299165.318,-14.160,-32.715,-25.391,-8.301,0.000
1709299165.322,-15.625,-34.180,-29.297,-3.906,0.000
1709299165.326,-25.879,-37.109,-35.645,-21.973,0.000
1709299165.330,-34.668,-38.574,-36.621,-37.109,0.000
1709299165.333,-32.227,-46.875,-35.645,-36.133,0.000
1709299165.337,-22.461,-40.527,-38.086,-20.996,0.000
1709299165.341,-16.113,-29.297,-44.434,-16.602,0.000
1709299165.345,-16.113,-29.297,-42.480,-27.344,0.000
1709299165.349,-18.555,-39.062,-41.504,-27.344,0.000
1709299165.353,-17.090,-32.227,-40.527,-12.695,0.000
1709299165.357,-8.789,-18.066,-30.762,-9.277,0.000
1709299165.361,-11.719,-32.715,-40.527,-16.602,0.000
1709299165.365,-22.949,-36.133,-44.434,-24.902,0.000
1709299165.369,-37.598,-29.297,-40.527,-44.434,0.000
1709299165.373,-47.363,-32.227,-48.340,-51.270,0.000
1709299165.376,-46.387,-41.016,-48.340,-38.086,0.000
1709299165.380,-41.992,-42.969,-38.574,-31.738,0.000
1709299165.384,-51.270,-38.086,-35.156,-46.875,0.000
1709299165.388,-69.336,-36.621,-41.016,-64.453,0.000
1709299165.392,-73.242,-35.156,-36.621,-62.012,0.000
1709299165.396,-64.453,-40.039,-39.551,-41.504,0.000
1709299165.400,-54.199,-44.434,-37.598,-32.715,0.000
1709299165.404,-58.105,-40.039,-39.551,-44.922,0.000
1709299165.408,-68.359,-54.199,-41.016,-50.293,0.000
1709299165.412,-72.266,-62.988,-29.785,-45.898,0.000
1709299165.416,-56.641,-45.410,-31.250,-30.762,0.000
1709299165.419,-36.133,-32.227,-39.062,-20.020,0.000
1709299165.423,-40.527,-30.762,-32.715,-29.785,0.000
1709299165.427,-54.199,-32.715,-34.180,-48.340,0.000
1709299165.431,-57.129,-37.109,-38.086,-47.363,0.000
1709299165.435,-42.480,-40.527,-30.762,-31.738,0.000
1709299165.439,-32.227,-37.598,-28.320,-23.438,0.000
1709299165.443,-38.574,-36.621,-29.785,-22.949,0.000
1709299165.447,-49.316,-57.129,-35.645,-33.203,0.000
1709299165.451,-50.293,-58.594,-30.273,-36.133,0.000
1709299165.455,-45.410,-41.016,-28.809,-24.414,0.000
1709299165.459,-30.762,-24.902,-29.297,-11.719,0.000
1709299165.462,-23.926,-15.625,-20.020,-18.066,0.000
1709299165.466,-34.180,-22.949,-19.043,-29.785,0.000
1709299165.470,-41.504,-24.414,-21.973,-31.738,0.000
1709299165.474,-35.156,-20.996,-27.832,-28.320,0.000
1709299165.478,-27.344,-32.715,-33.691,-31.738,0.000
1709299165.482,-24.902,-42.969,-31.738,-35.156,0.000
1709299165.486,-38.574,-45.410,-42.480,-43.945,0.000
1709299165.490,-49.805,-39.062,-49.805,-56.152,0.000
1709299165.494,-46.387,-44.922,-39.551,-55.664,0.000
1709299165.498,-44.922,-44.434,-37.109,-46.387,0.000
1709299165.502,-43.457,-32.227,-37.598,-49.805,0.000
1709299165.505,-45.898,-31.250,-36.133,-60.547,0.000
1709299165.509,-50.293,-33.203,-38.574,-54.688,0.000
1709299165.513,-47.363,-41.992,-40.039,-43.457,0.000
1709299165.517,-44.922,-44.434,-40.039,-42.480,0.000
1709299165.521,-34.668,-39.062,-40.527,-37.598,0.000
1709299165.525,-39.062,-39.551,-35.645,-46.387,0.000
1709299165.529,-51.270,-41.504,-31.738,-54.199,0.000
1709299165.533,-44.434,-47.363,-37.598,-40.039,0.000
1709299165.537,-30.762,-51.270,-35.156,-34.180,0.000
1709299165.541,-29.297,-49.805,-37.598,-36.133,0.000
1709299165.544,-35.645,-44.922,-39.062,-45.410,0.000
1709299165.548,-41.016,-32.715,-34.668,-53.223,0.000
1709299165.552,-44.922,-33.203,-38.574,-52.246,0.000
1709299165.556,-34.180,-32.227,-36.133,-41.504,0.000
1709299165.560,-27.344,-31.738,-31.738,-32.227,0.000
1709299165.564,-36.621,-37.598,-32.715,-36.133,0.000
1709299165.568,-43.945,-42.480,-32.227,-47.852,0.000
1709299165.572,-41.992,-44.434,-27.832,-48.828,0.000
1709299165.576,-34.180,-53.223,-36.621,-37.598,0.000
1709299165.580,-30.762,-56.152,-48.340,-34.180,0.000
1709299165.583,-39.062,-37.598,-46.387,-41.504,0.000
1709299165.587,-52.246,-29.297,-42.480,-57.129,0.000
1709299165.591,-53.711,-28.809,-41.504,-56.641,0.000
1709299165.595,-38.086,-27.832,-39.551,-44.922,0.000
1709299165.599,-29.297,-36.621,-39.062,-43.457,0.000
1709299165.603,-32.227,-31.738,-33.691,-40.039,0.000
1709299165.607,-35.156,-28.809,-26.367,-37.598,0.000
1709299165.611,-40.527,-41.992,-35.645,-41.992,0.000
1709299165.615,-36.133,-42.480,-44.922,-36.133,0.000
1709299165.618,-22.461,-32.227,-41.504,-11.230,0.000
1709299165.622,-23.926,-36.133,-39.062,-0.977,0.000
1709299165.626,-44.434,-32.227,-44.434,-31.250,0.000
1709299165.630,-51.758,-24.414,-40.527,-38.574,0.000
1709299165.634,-40.039,-26.855,-35.156,-29.297,0.000
1709299165.638,-25.879,-33.691,-38.574,-20.508,0.000
1709299165.642,-24.902,-38.086,-36.133,-18.555,0.000
1709299165.646,-41.016,-38.086,-36.133,-27.832,0.000
1709299165.650,-49.805,-37.109,-41.992,-31.738,0.000
1709299165.654,-39.551,-42.480,-38.574,-21.973,0.000
1709299165.658,-25.879,-45.410,-30.762,-8.301,0.000
1709299165.662,-28.809,-45.898,-36.133,-16.602,0.000
1709299165.665,-40.039,-44.434,-41.016,-32.715,0.000
1709299165.669,-49.805,-39.062,-25.879,-42.969,0.000
1709299165.673,-47.363,-36.133,-22.461,-45.898,0.000
1709299165.677,-35.645,-36.133,-31.250,-33.691,0.000
1709299165.681,-27.344,-39.062,-30.273,-24.902,0.000
1709299165.685,-39.062,-45.898,-39.062,-37.109,0.000
1709299165.689,-52.246,-46.387,-37.109,-48.828,0.000
1709299165.693,-49.316,-38.086,-26.855,-40.039,0.000
1709299165.697,-41.016,-37.109,-28.320,-29.785,0.000
1709299165.701,-34.180,-44.434,-29.785,-25.391,0.000
1709299165.705,-40.527,-50.293,-28.320,-34.668,0.000
1709299165.709,-56.152,-47.363,-21.484,-47.363,0.000
1709299165.712,-54.688,-43.457,-27.832,-45.410,0.000
1709299165.716,-50.293,-46.387,-33.203,-32.227,0.000
1709299165.720,-44.922,-39.551,-30.762,-23.926,0.000
1709299165.724,-40.527,-37.109,-30.273,-27.832,0.000
1709299165.728,-51.270,-47.363,-31.250,-34.668,0.000
1709299165.732,-52.246,-49.805,-38.574,-43.945,0.000
1709299165.736,-39.062,-41.992,-42.480,-34.668,0.000
1709299165.740,-27.832,-41.992,-38.086,-20.020,0.000
1709299165.744,-28.320,-48.340,-32.227,-25.879,0.000
1709299165.748,-42.480,-42.480,-40.039,-49.316,0.000
1709299165.752,-49.316,-38.086,-52.246,-50.781,0.000
1709299165.755,-31.250,-38.574,-45.898,-29.785,0.000
1709299165.759,-20.020,-36.621,-36.133,-21.484,0.000
1709299165.763,-22.949,-29.785,-34.180,-30.273,0.000
1709299165.767,-34.180,-29.297,-30.273,-38.574,0.000
1709299165.771,-42.969,-41.504,-33.203,-38.086,0.000
1709299165.775,-32.227,-39.062,-40.039,-34.180,0.000
1709299165.779,-20.020,-32.715,-37.598,-31.738,0.000
1709299165.783,-22.949,-40.527,-37.598,-40.039,0.000
1709299165.787,-38.574,-57.617,-45.410,-56.641,0.000
1709299165.791,-44.922,-49.805,-43.945,-52.734,0.000
1709299165.795,-33.691,-30.762,-36.133,-40.527,0.000
1709299165.798,-26.367,-34.180,-35.645,-31.250,0.000
1709299165.802,-30.762,-40.039,-35.156,-31.738,0.000
1709299165.806,-49.316,-43.945,-33.203,-45.898,0.000
1709299165.810,-59.082,-43.945,-31.250,-52.246,0.000
1709299165.814,-51.270,-49.316,-24.414,-40.039,0.000
1709299165.818,-41.504,-58.105,-23.438,-16.113,0.000
1709299165.822,-40.527,-54.688,-30.762,-20.508,0.000
1709299165.826,-51.758,-47.363,-32.715,-35.156,0.000
1709299165.830,-63.477,-51.758,-32.227,-38.574,0.000
1709299165.834,-55.664,-52.246,-28.320,-33.203,0.000
1709299165.837,-34.668,-45.410,-32.227,-23.926,0.000
1709299165.841,-32.227,-37.598,-35.156,-27.344,0.000
1709299165.845,-40.039,-35.645,-24.902,-39.551,0.000
1709299165.849,-46.387,-38.574,-26.855,-44.434,0.000
1709299165.853,-45.410,-35.156,-31.738,-39.062,0.000
1709299165.857,-33.691,-39.551,-31.738,-31.250,0.000
1709299165.861,-27.832,-45.898,-31.250,-25.391,0.000
1709299165.865,-36.621,-48.340,-34.668,-40.527,0.000
1709299165.869,-46.387,-45.410,-40.039,-55.664,0.000
1709299165.873,-44.434,-36.133,-39.551,-45.410,0.000
1709299165.877,-25.391,-35.645,-41.992,-31.738,0.000
1709299165.880,-13.672,-41.504,-41.016,-31.250,0.000
1709299165.884,-23.438,-39.062,-35.156,-41.992,0.000
1709299165.888,-36.133,-43.457,-41.016,-50.293,0.000
1709299165.892,-37.109,-50.781,-43.457,-48.340,0.000
1709299165.896,-28.320,-51.270,-40.039,-38.574,0.000
1709299165.900,-26.855,-47.852,-41.992,-31.250,0.000
1709299165.904,-27.344,-41.992,-33.691,-30.273,0.000
1709299165.908,-36.133,-44.922,-29.297,-40.527,0.000
1709299165.912,-43.945,-46.875,-34.668,-45.410,0.000
1709299165.916,-36.621,-47.852,-34.668,-30.762,0.000
1709299165.919,-38.086,-48.340,-37.598,-19.531,0.000
1709299165.923,-47.852,-41.016,-40.527,-25.879,0.000
1709299165.927,-53.711,-30.273,-39.062,-41.992,0.000
1709299165.931,-58.594,-27.344,-36.621,-45.898,0.000
1709299165.935,-54.199,-34.668,-35.156,-34.180,0.000
1709299165.939,-44.434,-42.480,-34.668,-21.484,0.000
1709299165.943,-39.551,-34.668,-32.227,-20.020,0.000
1709299165.947,-47.363,-30.762,-28.809,-39.551,0.000
1709299165.951,-50.781,-37.598,-29.785,-47.363,0.000
1709299165.955,-41.504,-40.527,-29.785,-31.250,0.000
1709299165.959,-37.598,-46.387,-37.598,-22.949,0.000
1709299165.963,-36.133,-49.316,-42.480,-26.855,0.000
1709299165.967,-42.480,-42.480,-39.062,-30.273,0.000
1709299165.970,-50.781,-35.156,-35.645,-35.156,0.000
1709299165.974,-44.434,-26.855,-35.156,-34.668,0.000
1709299165.978,-35.645,-27.344,-35.156,-25.879,0.000
1709299165.982,-38.574,-27.832,-36.621,-27.344,0.000
1709299165.986,-50.293,-29.297,-38.086,-35.645,0.000
1709299165.990,-53.223,-39.551,-36.133,-46.875,0.000
1709299165.994,-44.434,-40.039,-32.715,-43.945,0.000
1709299165.998,-34.180,-43.945,-36.621,-28.809,0.000
1709299166.002,-33.691,-48.828,-40.039,-32.715,0.000
1709299166.005,-44.434,-31.738,-36.133,-41.992,0.000
1709299166.009,-49.316,-23.926,-37.109,-44.434,0.000
1709299166.013,-43.945,-22.949,-30.762,-37.598,0.000
1709299166.017,-32.715,-20.020,-31.738,-37.109,0.000
1709299166.021,-25.879,-29.297,-34.668,-38.086,0.000
1709299166.025,-37.598,-36.133,-25.879,-40.039,0.000
1709299166.029,-47.852,-33.691,-33.691,-52.246,0.000
1709299166.033,-45.410,-40.039,-38.086,-55.664,0.000
1709299166.037,-36.133,-50.781,-30.273,-42.480,0.000
1709299166.041,-25.879,-43.457,-31.250,-31.738,0.000
1709299166.045,-34.180,-44.434,-31.738,-45.410,0.000
1709299166.049,-42.969,-42.480,-31.738,-64.453,0.000
1709299166.052,-36.621,-25.879,-30.273,-54.688,0.000
1709299166.056,-24.414,-23.926,-28.320,-24.902,0.000
1709299166.060,-14.160,-31.738,-30.273,-20.508,0.000
1709299166.064,-20.020,-30.762,-32.715,-35.156,0.000
1709299166.068,-31.250,-28.320,-34.180,-38.086,0.000
1709299166.072,-36.133,-35.645,-31.738,-39.551,0.000
1709299166.076,-34.180,-36.133,-31.250,-28.320,0.000
1709299166.080,-25.391,-25.391,-30.762,-17.090,0.000
1709299166.084,-30.762,-26.855,-27.344,-30.762,0.000
1709299166.088,-43.457,-37.109,-34.180,-46.387,0.000
1709299166.092,-50.293,-37.598,-44.434,-48.828,0.000
1709299166.096,-41.504,-28.320,-43.945,-38.086,0.000
1709299166.099,-28.320,-20.996,-39.062,-23.926,0.000
1709299166.103,-41.504,-32.227,-36.621,-28.809,0.000
1709299166.107,-59.082,-41.504,-36.133,-53.223,0.000
1709299166.111,-62.012,-37.598,-35.645,-54.199,0.000
1709299166.115,-55.664,-29.297,-36.621,-40.527,0.000
1709299166.119,-41.992,-24.414,-37.598,-37.109,0.000
1709299166.123,-46.387,-31.738,-37.598,-50.293,0.000
1709299166.127,-60.059,-38.086,-38.574,-64.941,0.000
1709299166.131,-60.547,-39.062,-38.086,-64.453,0.000
1709299166.135,-54.199,-43.945,-32.227,-59.570,0.000
1709299166.139,-44.434,-41.504,-36.133,-51.270,0.000
1709299166.142,-43.457,-33.203,-44.434,-52.734,0.000
1709299166.146,-57.129,-35.156,-43.945,-60.059,0.000
1709299166.150,-68.848,-40.527,-41.016,-65.918,0.000
1709299166.154,-60.547,-40.527,-41.504,-60.547,0.000
1709299166.158,-43.945,-41.504,-43.945,-49.805,0.000
1709299166.162,-42.969,-43.945,-45.898,-48.340,0.000
1709299166.166,-40.527,-35.645,-41.016,-50.293,0.000
1709299166.170,-31.738,-34.180,-37.109,-45.410,0.000
1709299166.174,-27.344,-44.922,-41.504,-35.645,0.000
1709299166.178,-20.508,-41.016,-33.691,-22.461,0.000
1709299166.182,-17.578,-41.016,-31.250,-16.602,0.000
1709299166.185,-20.508,-42.480,-29.297,-21.973,0.000
1709299166.189,-25.391,-32.715,-21.973,-22.461,0.000
1709299166.193,-31.738,-31.738,-34.180,-16.602,0.000
1709299166.197,-22.461,-35.156,-41.016,-10.742,0.000
1709299166.201,-17.578,-40.039,-36.621,-6.348,0.000
1709299166.205,-25.879,-34.180,-34.668,-14.160,0.000
1709299166.209,-35.156,-30.273,-32.227,-30.273,0.000
1709299166.213,-38.574,-34.668,-36.133,-27.832,0.000
1709299166.217,-20.020,-35.645,-37.109,-10.742,0.000
1709299166.221,-10.254,-40.039,-34.668,-9.277,0.000
1709299166.224,-23.438,-41.992,-38.574,-26.367,0.000
1709299166.228,-36.621,-35.645,-36.133,-39.062,0.000
1709299166.232,-42.480,-35.156,-34.180,-46.387,0.000
1709299166.236,-41.992,-37.598,-37.109,-35.645,0.000
1709299166.240,-36.621,-28.320,-41.016,-30.273,0.000
1709299166.244,-30.273,-19.531,-33.691,-44.922,0.000
1709299166.248,-41.016,-25.391,-29.785,-61.035,0.000
1709299166.252,-43.945,-32.715,-32.715,-62.988,0.000
1709299166.256,-35.645,-39.062,-24.902,-48.340,0.000
1709299166.260,-33.203,-36.621,-28.320,-37.598,0.000
1709299166.263,-34.668,-39.062,-29.297,-42.480,0.000
1709299166.267,-44.922,-46.387,-31.250,-57.617,0.000
1709299166.271,-53.223,-38.086,-47.852,-54.688,0.000
1709299166.275,-49.316,-36.133,-37.598,-44.922,0.000
1709299166.279,-42.480,-39.062,-30.762,-37.109,0.000
1709299166.283,-43.457,-29.785,-30.273,-27.832,0.000
1709299166.287,-52.734,-31.250,-26.367,-41.992,0.000
1709299166.291,-60.547,-36.133,-31.250,-58.594,0.000
1709299166.295,-55.176,-35.156,-34.668,-47.852,0.000
1709299166.299,-35.645,-33.691,-29.785,-28.320,0.000
1709299166.302,-33.203,-33.691,-26.367,-27.832,0.000
1709299166.306,-51.758,-41.504,-33.203,-46.875,0.000
1709299166.310,-58.105,-42.969,-39.062,-48.828,0.000
1709299166.314,-53.711,-29.297,-35.645,-39.062,0.000
1709299166.318,-45.898,-33.691,-30.273,-24.414,0.000
1709299166.322,-41.504,-38.574,-40.039,-17.578,0.000
1709299166.326,-50.781,-31.738,-40.527,-21.484,0.000
1709299166.330,-61.523,-45.898,-34.668,-29.297,0.000
1709299166.334,-51.270,-41.016,-30.273,-33.691,0.000
1709299166.338,-32.227,-27.832,-26.855,-20.508,0.000
1709299166.342,-26.367,-39.551,-33.691,-21.973,0.000
1709299166.345,-35.645,-45.898,-31.250,-35.645,0.000
1709299166.349,-46.875,-38.574,-26.855,-45.898,0.000
1709299166.353,-45.410,-30.762,-31.738,-41.992,0.000
1709299166.357,-36.133,-27.344,-39.062,-30.762,0.000
1709299166.361,-25.879,-34.180,-40.527,-29.297,0.000
1709299166.365,-32.227,-40.039,-34.668,-38.574,0.000
1709299166.369,-48.828,-37.109,-39.062,-48.828,0.000
1709299166.373,-44.922,-34.668,-36.621,-37.109,0.000
1709299166.377,-36.621,-37.109,-29.785,-28.320,0.000
1709299166.381,-30.273,-36.133,-35.156,-25.879,0.000
1709299166.385,-33.691,-34.668,-42.969,-33.203,0.000
1709299166.389,-42.969,-37.109,-37.109,-45.898,0.000
1709299166.392,-38.086,-36.621,-32.715,-41.992,0.000
1709299166.396,0.000,-38.574,-31.250,-22.949,0.000
1709299166.400,0.000,-33.203,-32.715,-11.719,0.000
1709299166.404,0.000,-30.273,-36.133,-23.438,0.000
1709299166.408,0.000,-39.551,-28.809,-34.668,0.000
1709299166.412,0.000,-47.852,-33.691,-32.227,0.000
1709299166.416,0.000,-44.922,-40.527,-29.297,0.000
1709299166.420,0.000,-30.762,-38.086,-25.879,0.000
1709299166.424,0.000,-30.762,-39.551,-30.273,0.000
1709299166.428,0.000,-40.527,-39.551,-34.180,0.000
1709299166.432,0.000,-44.922,-32.715,-28.320,0.000
1709299166.436,0.000,-41.992,-29.785,-27.832,0.000
1709299166.439,0.000,-41.016,-31.250,-18.555,0.000
1709299166.443,-20.508,-46.387,-39.062,-17.578,0.000
1709299166.447,-41.016,-48.340,-39.551,-35.156,0.000
1709299166.451,-41.992,-42.480,-29.785,-31.738,0.000
1709299166.455,-35.156,-39.551,-26.855,-19.043,0.000
1709299166.459,-30.762,-39.551,-27.832,-15.625,0.000
1709299166.463,-31.250,-36.133,-36.133,-22.949,0.000
1709299166.467,-45.410,-34.180,-29.785,-34.668,0.000
1709299166.471,-54.199,-36.133,-22.949,-48.828,0.000
1709299166.475,-42.969,-40.527,-25.879,-38.574,0.000
1709299166.479,-39.062,-48.828,-33.203,-21.973,0.000
1709299166.482,-43.457,-55.176,-44.434,-25.879,0.000
1709299166.486,-46.387,-51.758,-40.039,-34.180,0.000
1709299166.490,-51.758,-56.641,-33.203,-43.457,0.000
1709299166.494,-53.711,-68.359,-32.227,-44.434,0.000
1709299166.498,-47.852,-62.012,-37.109,-35.645,0.000
1709299166.502,-41.504,-46.875,-42.969,-35.645,0.000
1709299166.506,-44.434,-41.016,-41.504,-45.410,0.000
1709299166.510,-53.711,-46.387,-42.969,-44.922,0.000
1709299166.514,-52.246,-44.922,-41.992,-40.039,0.000
1709299166.518,-34.180,-41.504,-37.598,-31.738,0.000
1709299166.522,-23.926,-42.480,-39.062,-18.555,0.000
1709299166.525,-31.738,-37.109,-31.738,-28.809,0.000
1709299166.529,-41.016,-38.574,-26.855,-40.039,0.000
1709299166.533,-37.598,-42.480,-24.902,-32.715,0.000
1709299166.537,-24.414,-38.574,-24.902,-15.625,0.000
1709299166.541,-15.625,-30.273,-25.391,-6.836,0.000
1709299166.545,-19.043,-29.785,-26.367,-22.461,0.000
1709299166.549,-32.227,-27.344,-30.273,-34.668,0.000
1709299166.553,-39.551,-27.832,-30.273,-31.250,0.000
1709299166.557,-34.180,-29.785,-30.762,-20.996,0.000
1709299166.561,-27.832,-35.645,-26.367,-15.137,0.000
1709299166.565,-31.738,-49.316,-27.344,-20.020,0.000
1709299166.568,-43.945,-49.316,-31.738,-28.320,0.000
1709299166.572,-48.340,-38.086,-30.762,-32.715,0.000
1709299166.576,-38.086,-39.062,-33.203,-25.391,0.000
1709299166.580,-24.902,-46.387,-35.156,-22.949,0.000
1709299166.584,-26.367,-45.898,-29.785,-30.273,0.000
1709299166.588,-41.992,-44.922,-33.203,-42.480,0.000
1709299166.592,-50.293,-42.969,-35.156,-48.828,0.000
1709299166.596,-42.969,-43.457,-35.645,-41.016,0.000
1709299166.600,-30.762,-34.668,-38.574,-32.227,0.000
1709299166.604,-29.785,-32.227,-38.086,-35.645,0.000
1709299166.608,-37.109,-33.203,-35.645,-45.410,0.000
1709299166.611,-40.527,-28.809,-32.227,-45.410,0.000
1709299166.615,-37.598,-30.762,-36.133,-39.551,0.000
1709299166.619,-25.391,-33.691,-41.016,-34.668,0.000
1709299166.623,-21.973,-28.320,-33.203,-35.645,0.000
1709299166.627,-38.086,-38.086,-35.645,-45.410,0.000
1709299166.631,-42.969,-50.781,-33.691,-40.527,0.000
1709299166.635,-35.156,-42.480,-27.832,-33.691,0.000
1709299166.639,-30.273,-34.180,-34.668,-35.156,0.000
1709299166.643,-23.438,-30.762,-35.156,-35.156,0.000
1709299166.647,-32.715,-36.621,-33.203,-45.410,0.000
1709299166.650,-51.758,-36.133,-39.551,-55.664,0.000
1709299166.654,-45.410,-31.250,-37.109,-37.109,0.000
1709299166.658,-31.250,-29.785,-32.715,-12.695,0.000
1709299166.662,-25.879,-30.273,-40.039,-18.555,0.000
1709299166.666,-35.645,-32.227,-41.992,-30.273,0.000
1709299166.670,-51.270,-44.434,-42.480,-41.016,0.000
1709299166.674,-57.129,-51.270,-48.828,-48.828,0.000
1709299166.678,-42.969,-46.387,-44.434,-38.086,0.000
1709299166.682,-32.715,-40.039,-32.227,-34.180,0.000
1709299166.686,-47.363,-34.180,-30.762,-51.270,0.000
1709299166.689,-57.617,-30.273,-35.645,-67.871,0.000
1709299166.693,-53.711,-31.250,-40.527,-59.570,0.000
1709299166.697,-41.504,-24.902,-37.598,-45.410,0.000
1709299166.701,-39.062,-25.391,-35.645,-39.062,0.000
1709299166.705,-44.922,-41.504,-42.969,-47.852,0.000
1709299166.709,-57.129,-48.828,-47.363,-61.035,0.000
1709299166.713,-60.059,-47.852,-39.551,-53.711,0.000
1709299166.717,-45.898,-47.852,-35.156,-40.527,0.000
1709299166.721,-38.574,-51.270,-41.016,-36.621,0.000
1709299166.724,-44.434,-56.152,-42.969,-48.828,0.000
1709299166.728,-55.176,-36.133,-38.574,-65.918,0.000
1709299166.732,-58.594,-28.320,-39.551,-63.965,0.000
1709299166.736,-50.781,-34.180,-43.945,-46.875,0.000
1709299166.740,-37.598,-28.320,-41.992,-37.109,0.000
1709299166.744,-44.434,-35.645,-45.410,-41.016,0.000
1709299166.748,-60.547,-49.805,-38.086,-42.480,0.000
1709299166.752,-62.012,-50.781,-35.645,-49.805,0.000
1709299166.756,-46.875,-41.504,-32.227,-37.109,0.000
1709299166.760,-31.250,-40.527,-26.855,-22.461,0.000
1709299166.764,-38.574,-42.969,-27.832,-31.250,0.000
1709299166.767,-53.711,-35.645,-31.738,-45.410,0.000
1709299166.771,0.000,-29.785,0.000,-50.293,0.000
1709299166.775,0.000,-25.391,0.000,-36.133,0.000
1709299166.779,0.000,-25.391,0.000,-23.926,0.000
1709299166.783,0.000,-31.738,0.000,-32.715,0.000
1709299166.787,0.000,-37.109,0.000,-42.969,0.000
1709299166.791,0.000,-39.062,0.000,-44.434,0.000
1709299166.795,0.000,-33.691,0.000,-39.551,0.000
1709299166.799,0.000,-30.273,0.000,-31.250,0.000
1709299166.803,0.000,-39.062,0.000,-30.273,0.000
1709299166.807,0.000,-47.852,0.000,-31.250,0.000
1709299166.810,0.000,-40.527,0.000,-43.945,0.000
1709299166.814,0.000,-28.809,0.000,-42.969,0.000
1709299166.818,-28.809,-30.762,-32.227,-24.414,0.000
1709299166.822,-34.668,-38.086,-30.762,-32.715,0.000
1709299166.826,-51.270,-37.109,-29.785,-47.363,0.000
1709299166.830,-57.129,-38.574,-33.691,-49.316,0.000
1709299166.834,-57.129,-38.086,-41.504,-49.316,0.000
1709299166.838,-53.711,-38.086,-36.621,-42.969,0.000
1709299166.842,-45.898,-31.738,-27.344,-35.645,0.000
1709299166.846,-50.781,-32.227,-31.738,-51.758,0.000
1709299166.850,-58.594,-46.875,-30.762,-64.941,0.000
1709299166.854,-51.270,-43.457,-30.762,-50.293,0.000
1709299166.857,-37.598,-28.809,-39.062,-38.086,0.000
1709299166.861,-39.062,-26.367,-42.480,-37.109,0.000
1709299166.865,-47.363,-31.250,-40.527,-46.387,0.000
1709299166.869,-56.152,-30.762,-38.574,-60.059,0.000
1709299166.873,-60.547,-30.273,-33.691,-59.082,0.000
1709299166.877,-43.457,-31.738,-41.016,-35.156,0.000
1709299166.881,-24.902,-34.180,-41.016,-16.113,0.000
1709299166.885,-26.367,-36.621,-37.109,-24.414,0.000
1709299166.889,-41.016,-39.062,-43.457,-36.621,0.000
1709299166.893,-44.434,-40.527,-41.992,-43.945,0.000
1709299166.897,-32.715,-47.852,-41.992,-30.273,0.000
1709299166.900,-28.809,-47.363,-41.016,-25.391,0.000
1709299166.904,-37.598,-42.969,-35.156,-41.016,0.000
1709299166.908,-44.922,-38.086,-35.645,-47.363,0.000
1709299166.912,-42.480,-34.180,-35.645,-44.922,0.000
1709299166.916,-29.785,-37.109,-37.598,-32.227,0.000
1709299166.920,-24.414,-37.109,-42.969,-22.949,0.000
1709299166.924,-32.715,-40.527,-39.551,-33.203,0.000
1709299166.928,-44.922,-45.898,-35.645,-48.340,0.000
1709299166.932,-50.293,-43.457,-35.645,-46.387,0.000
1709299166.936,-42.969,-40.527,-32.227,-36.133,0.000
1709299166.940,-30.273,-41.504,-32.715,-28.809,0.000
1709299166.943,-32.715,-41.992,-31.738,-23.926,0.000
1709299166.947,-44.922,-40.527,-32.227,-35.645,0.000
1709299166.951,-49.805,-42.969,-32.715,-41.504,0.000
1709299166.955,-42.969,-41.504,-31.250,-34.180,0.000
1709299166.959,-31.738,-33.203,-24.902,-25.391,0.000
1709299166.963,-39.062,-34.668,-24.902,-35.645,0.000
1709299166.967,-51.270,-34.668,-39.551,-53.223,0.000
1709299166.971,-48.828,-35.156,-40.039,-51.270,0.000
1709299166.975,-34.180,-39.062,-34.180,-34.668,0.000
1709299166.979,-28.320,-39.062,-41.992,-18.066,0.000
1709299166.982,-28.809,-50.781,-45.898,-15.137,0.000
1709299166.986,-42.480,-54.688,-38.086,-26.367,0.000
1709299166.990,-59.570,-46.387,-36.621,-39.062,0.000
1709299166.994,-59.082,-39.062,-45.410,-43.457,0.000
1709299166.998,-38.086,-32.227,-41.992,-24.414,0.000
1709299167.002,-33.203,-37.598,-47.852,-19.531,0.000
1709299167.006,-44.434,-35.645,-54.688,-41.992,0.000
1709299167.010,-49.805,-32.227,-48.340,-52.734,0.000
1709299167.014,-43.945,-35.645,-44.434,-43.457,0.000
1709299167.018,-25.391,-29.785,-42.480,-28.320,0.000
1709299167.021,-20.508,-29.297,-42.480,-19.043,0.000
1709299167.025,-32.227,-35.156,-37.598,-32.227,0.000
1709299167.029,-43.457,-41.504,-36.621,-46.875,0.000
1709299167.033,-39.062,-46.875,-40.039,-37.598,0.000
1709299167.037,-25.879,-37.598,-38.574,-35.645,0.000
1709299167.041,-24.414,-29.297,-36.621,-37.598,0.000
1709299167.045,-30.762,-23.926,-39.551,-38.574,0.000
1709299167.049,-41.504,-27.832,-40.527,-48.828,0.000
1709299167.053,-40.527,-39.551,-32.227,-50.781,0.000
1709299167.057,-31.250,-30.762,-30.273,-33.203,0.000
1709299167.061,-27.832,-26.855,-36.133,-19.043,0.000
1709299167.065,-29.297,-28.320,-36.621,-23.438,0.000
1709299167.069,-34.180,-23.438,-35.645,-28.320,0.000
1709299167.072,-39.551,-28.320,-31.738,-26.855,0.000
1709299167.076,-35.645,-41.016,-27.344,-15.137,0.000
1709299167.080,-32.715,-39.062,-32.715,-6.348,0.000
1709299167.084,-37.109,-26.367,-36.133,-20.996,0.000
1709299167.088,-48.340,-26.855,-34.180,-40.527,0.000
1709299167.092,-57.617,-31.738,-33.691,-40.527,0.000
1709299167.096,-52.734,-38.086,-41.992,-30.273,0.000
1709299167.100,-43.457,-35.156,-48.340,-23.438,0.000
1709299167.104,-42.969,-32.715,-34.668,-26.855,0.000
1709299167.107,-52.734,-32.715,-29.785,-38.086,0.000
1709299167.111,-61.523,-30.273,-27.832,-46.387,0.000
1709299167.115,-51.758,-38.574,-24.902,-41.992,0.000
1709299167.119,-33.691,-43.945,-32.227,-25.879,0.000
1709299167.123,-34.180,-38.086,-30.273,-17.578,0.000
1709299167.127,-41.016,-36.133,-26.367,-25.879,0.000
1709299167.131,-46.875,-28.320,-33.203,-33.691,0.000
1709299167.135,-44.922,-31.250,-38.086,-30.762,0.000
1709299167.139,-34.180,-39.551,-41.016,-17.578,0.000
1709299167.143,-25.879,-33.203,-35.156,-26.855,0.000
1709299167.147,-32.227,-32.715,-32.227,-41.504,0.000
1709299167.151,-43.457,-44.434,-41.992,-45.898,0.000
1709299167.154,-41.016,-44.922,-42.969,-43.945,0.000
1709299167.158,-27.344,-40.527,-37.109,-28.320,0.000
1709299167.162,-18.555,-42.969,-30.273,-17.578,0.000
1709299167.166,-28.809,-42.969,-38.086,-29.297,0.000
1709299167.170,-39.062,-30.273,-45.410,-40.527,0.000
1709299167.174,-39.062,-23.438,-42.480,-37.109,0.000
1709299167.178,-34.668,-32.227,-43.457,-20.996,0.000
1709299167.182,-32.715,-40.039,-43.945,-15.625,0.000
1709299167.186,-43.945,-38.574,-44.434,-32.715,0.000
1709299167.190,-63.477,-39.551,-44.922,-46.387,0.000
1709299167.194,-66.406,-47.852,-41.992,-46.875,0.000
1709299167.197,-49.316,-51.758,-42.480,-33.203,0.000
1709299167.201,-38.086,-48.828,-41.016,-23.438,0.000
1709299167.205,-43.457,-44.922,-33.203,-37.109,0.000
1709299167.209,-53.711,-43.945,-29.785,-49.316,0.000
1709299167.213,-52.734,-40.039,-27.832,-42.969,0.000
1709299167.217,-46.875,-32.715,-26.367,-31.250,0.000
1709299167.221,-42.480,-30.762,-28.809,-24.414,0.000
1709299167.225,-47.363,-34.180,-35.156,-34.668,0.000
1709299167.229,-61.523,-32.227,-31.738,-45.898,0.000
1709299167.233,-64.453,-26.367,-27.832,-46.875,0.000
1709299167.237,-52.734,-31.250,-33.203,-39.062,0.000
1709299167.240,-42.969,-36.133,-37.598,-30.273,0.000
1709299167.244,-41.992,-37.109,-37.109,-32.715,0.000
1709299167.248,-52.734,-41.016,-35.156,-43.945,0.000
1709299167.252,-52.246,-45.410,-32.227,-48.340,0.000
1709299167.256,-39.062,-36.133,-31.738,-35.645,0.000
1709299167.260,-31.738,-19.531,-31.738,-26.855,0.000
1709299167.264,-31.738,-17.090,-38.086,-31.738,0.000
1709299167.268,-41.504,-21.484,-36.621,-41.992,0.000
1709299167.272,-50.781,-27.832,-32.227,-43.945,0.000
1709299167.276,-45.410,-36.621,-39.062,-32.715,0.000
1709299167.280,-38.574,-37.109,-38.574,-33.203,0.000
1709299167.283,-39.551,-36.133,-39.551,-42.969,0.000
1709299167.287,-40.527,-38.574,-38.086,-48.340,0.000
1709299167.291,-48.828,-35.645,-34.180,-47.852,0.000
1709299167.295,-51.758,-41.016,-38.086,-44.922,0.000
1709299167.299,-32.227,-50.781,-40.039,-31.738,0.000
1709299167.303,-24.902,-32.227,-39.062,-31.250,0.000
1709299167.307,-41.992,-23.438,-39.551,-46.875,0.000
1709299167.311,-55.664,-31.738,-43.945,-54.199,0.000
1709299167.315,-51.270,-36.133,-41.992,-45.410,0.000
1709299167.319,-34.668,-36.621,-32.715,-29.785,0.000
1709299167.323,-26.367,-36.621,-27.832,-30.762,0.000
1709299167.326,-33.203,-35.156,-27.832,-45.410,0.000
1709299167.330,-43.945,-32.227,-35.156,-56.152,0.000
1709299167.334,-40.039,-34.668,-40.039,-46.875,0.000
1709299167.338,-26.855,-35.645,-41.016,-36.133,0.000
1709299167.342,-21.973,-41.016,-43.945,-32.715,0.000
1709299167.346,-37.109,-45.410,-46.387,-43.457,0.000
1709299167.350,-54.199,-36.133,-40.039,-55.176,0.000
1709299167.354,-56.641,-37.598,-29.297,-52.734,0.000
1709299167.358,-54.199,-48.340,-37.598,-44.434,0.000
1709299167.362,-47.363,-45.898,-46.387,-32.715,0.000
1709299167.365,-44.434,-33.203,-39.062,-34.668,0.000
1709299167.369,-59.082,-35.645,-37.598,-56.152,0.000
1709299167.373,-68.848,-42.480,-46.387,-55.176,0.000
1709299167.377,-55.176,-36.621,-43.457,-37.598,0.000
1709299167.381,-37.109,-30.762,-39.551,-30.762,0.000
1709299167.385,-39.551,-41.992,-42.969,-43.945,0.000
1709299167.389,-54.199,-47.363,-40.527,-54.199,0.000
1709299167.393,-59.570,-45.898,-39.551,-50.781,0.000
1709299167.397,-48.828,-40.039,-39.551,-42.480,0.000
1709299167.401,-38.086,-33.691,-38.574,-33.203,0.000
1709299167.405,-43.457,-38.574,-38.086,-43.457,0.000
1709299167.409,-59.082,-41.016,-35.645,-54.688,0.000
1709299167.413,-59.082,-36.621,-34.180,-55.664,0.000
1709299167.416,-43.945,-39.062,-27.832,-43.945,0.000
1709299167.420,-27.832,-41.504,-27.344,-30.762,0.000
1709299167.424,-28.320,-40.039,-36.133,-35.156,0.000
1709299167.428,-46.875,-46.387,-44.434,-52.246,0.000
1709299167.432,-44.434,-38.086,-35.645,-51.758,0.000
1709299167.436,-28.809,-31.738,-29.785,-35.645,0.000
1709299167.440,-24.414,-35.645,-37.109,-27.832,0.000
1709299167.444,-23.926,-32.715,-36.621,-33.203,0.000
1709299167.448,-38.086,-32.227,-31.250,-50.781,0.000
1709299167.452,-44.922,-34.180,-30.273,-58.594,0.000
1709299167.455,-35.645,-34.180,-38.086,-49.805,0.000
1709299167.459,-30.762,-38.574,-42.969,-39.551,0.000
1709299167.463,-27.344,-42.480,-41.016,-40.039,0.000
1709299167.467,-34.668,-47.363,-32.715,-35.645,0.000
1709299167.471,-46.387,-45.898,-28.320,-38.086,0.000
1709299167.475,-45.410,-31.738,-24.414,-45.898,0.000
1709299167.479,-33.691,-31.738,-23.438,-31.250,0.000
1709299167.483,-29.785,-36.621,-33.203,-30.273,0.000
1709299167.487,-35.156,-37.109,-39.062,-47.852,0.000
1709299167.491,-45.898,-33.691,-37.109,-54.688,0.000
1709299167.495,-46.875,-34.180,-37.109,-47.852,0.000
1709299167.499,-36.621,-41.992,-31.250,-26.367,0.000
1709299167.502,-32.227,-41.992,-28.320,-28.320,0.000
1709299167.506,-38.086,-34.668,-26.855,-38.086,0.000
1709299167.510,-49.805,-35.645,-22.949,-45.898,0.000
1709299167.514,-52.246,-43.945,-28.320,-44.434,0.000
1709299167.518,-42.969,-42.969,-34.180,-30.762,0.000
1709299167.522,-39.551,-38.574,-29.297,-20.996,0.000
1709299167.526,-41.016,-49.316,-28.809,-24.414,0.000
1709299167.530,-47.363,-43.457,-31.738,-32.227,0.000
1709299167.534,-44.434,-33.691,-21.484,-30.273,0.000
1709299167.538,-27.832,-36.133,-20.508,-18.066,0.000
1709299167.542,-21.484,-35.156,-31.250,-8.789,0.000
1709299167.546,-24.414,-32.715,-27.344,-16.113,0.000
1709299167.549,-32.227,-38.574,-27.832,-38.574,0.000
1709299167.553,-40.039,-46.387,-28.809,-51.270,0.000
1709299167.557,-28.320,-47.852,-21.484,-27.832,0.000
1709299167.561,-16.602,-50.781,-28.320,-25.391,0.000
1709299167.565,-21.973,-56.152,-40.039,-47.363,0.000
1709299167.569,-34.668,-48.828,-40.527,-58.105,0.000
1709299167.573,-37.598,-43.945,-35.645,-58.105,0.000
1709299167.577,-26.367,-44.434,-34.668,-45.410,0.000
1709299167.581,-20.020,-35.156,-37.109,-33.691,0.000
1709299167.585,-27.344,-31.250,-36.621,-41.016,0.000
1709299167.589,-45.410,-36.133,-38.086,-54.688,0.000
1709299167.592,-53.223,-37.598,-36.621,-56.641,0.000
1709299167.596,-41.992,-44.434,-30.762,-44.434,0.000
1709299167.600,-38.086,-47.852,-29.785,-33.691,0.000
1709299167.604,-46.387,-46.387,-29.297,-31.250,0.000
1709299167.608,-56.641,-42.480,-31.250,-43.457,0.000
1709299167.612,-59.570,-35.156,-34.180,-51.270,0.000
1709299167.616,-52.734,-32.227,-31.738,-43.457,0.000
1709299167.620,-40.039,-45.898,-34.180,-37.109,0.000
1709299167.624,-40.039,-42.969,-39.062,-39.551,0.000
1709299167.628,-52.246,-36.133,-37.598,-46.387,0.000
1709299167.632,-53.223,-36.621,-38.086,-43.945,0.000
1709299167.635,-44.434,-33.691,-35.645,-35.645,0.000
1709299167.639,-35.645,-32.227,-39.062,-34.180,0.000
1709299167.643,-34.180,-41.992,-45.410,-35.156,0.000
1709299167.647,-40.527,-49.316,-47.363,-38.574,0.000
1709299167.651,-49.316,-36.621,-46.875,-46.387,0.000
1709299167.655,-48.828,-38.086,-41.504,-46.387,0.000
1709299167.659,-36.133,-41.016,-40.527,-39.551,0.000
1709299167.663,-28.809,-35.156,-40.039,-33.203,0.000
1709299167.667,-33.203,-30.273,-38.086,-39.062,0.000
1709299167.671,-36.621,-36.133,-38.086,-47.852,0.000
1709299167.675,-32.715,-41.016,-40.527,-40.039,0.000
1709299167.678,-26.367,-37.109,-44.922,-30.762,0.000
1709299167.682,-26.367,-29.785,-41.992,-30.273,0.000
1709299167.686,-36.133,-25.391,-41.504,-41.016,0.000
1709299167.690,-41.992,-39.062,-38.574,-47.363,0.000
1709299167.694,-41.504,-50.781,-37.598,-34.668,0.000
1709299167.698,-36.133,-40.527,-31.250,-32.227,0.000
1709299167.702,-22.461,-25.879,-23.438,-30.273,0.000
1709299167.706,-28.320,-26.855,-34.668,-43.457,0.000
1709299167.710,-41.992,-35.156,-39.062,-59.082,0.000
1709299167.714,-34.180,-35.645,-29.297,-48.828,0.000
1709299167.717,-16.602,-29.297,-24.902,-26.367,0.000
1709299167.721,-15.137,-33.203,-30.762,-22.461,0.000
1709299167.725,-23.438,-33.203,-32.715,-32.715,0.000
1709299167.729,-32.715,-34.180,-31.738,-42.969,0.000
1709299167.733,-40.527,-41.992,-33.691,-51.758,0.000
1709299167.737,-38.574,-39.551,-28.809,-34.668,0.000
1709299167.741,-27.832,-37.598,-36.133,-22.461,0.000
1709299167.745,-24.902,-46.387,-44.434,-36.133,0.000
1709299167.749,-42.480,-50.293,-45.898,-48.828,0.000
1709299167.753,-54.199,-44.434,-46.387,-49.805,0.000
1709299167.756,-40.527,-36.133,-39.551,-38.086,0.000
1709299167.760,-29.297,-35.156,-39.062,-27.832,0.000
1709299167.764,-30.762,-37.598,-41.016,-33.203,0.000
1709299167.768,-45.898,-43.945,-36.133,-51.758,0.000
1709299167.772,-56.152,-47.852,-40.039,-61.035,0.000
1709299167.776,-45.410,-48.828,-47.852,-54.199,0.000
1709299167.780,-36.621,-48.340,-49.316,-47.363,0.000
1709299167.784,-39.062,-41.504,-41.016,-42.969,0.000
1709299167.788,-44.922,-35.645,-39.062,-52.734,0.000
1709299167.792,-52.734,-38.086,-42.480,-57.617,0.000
1709299167.796,-48.828,-40.527,-38.574,-49.316,0.000
1709299167.799,-31.738,-35.645,-41.504,-36.621,0.000
1709299167.803,-28.320,-39.062,-53.711,-42.480,0.000
1709299167.807,-37.598,-40.527,-47.852,-50.293,0.000
1709299167.811,-40.527,-29.785,-39.062,-45.410,0.000
1709299167.815,-38.086,-27.344,-41.504,-38.574,0.000
1709299167.819,-21.484,-42.969,-41.016,-18.555,0.000
1709299167.823,-7.812,-55.664,-35.156,-12.207,0.000
1709299167.827,-25.879,-46.387,-37.109,-27.832,0.000
1709299167.831,-43.457,-31.250,-41.016,-39.551,0.000
1709299167.835,-40.527,-23.438,-39.551,-34.668,0.000
1709299167.838,-34.668,-30.762,-37.109,-25.391,0.000
1709299167.842,-35.156,-39.551,-38.086,-28.809,0.000
1709299167.846,-42.969,-45.410,-38.574,-36.133,0.000
1709299167.850,-53.223,-40.039,-39.551,-46.875,0.000
1709299167.854,-50.781,-37.598,-38.574,-47.363,0.000
1709299167.858,-42.969,-47.852,-32.227,-35.156,0.000
1709299167.862,-38.086,-42.969,-36.621,-28.809,0.000
1709299167.866,-42.969,-36.621,-36.621,-37.598,0.000
1709299167.870,-57.617,-52.734,-37.109,-43.945,0.000
1709299167.873,-61.035,-51.270,-41.504,-34.180,0.000
1709299167.877,-46.875,-29.785,-35.645,-39.062,0.000
1709299167.881,-39.551,-28.809,-34.668,-46.387,0.000
1709299167.885,-47.363,-42.480,-38.574,-52.246,0.000
1709299167.889,-54.688,-43.945,-35.156,-60.547,0.000
1709299167.893,-55.664,-44.434,-27.832,-54.199,0.000
1709299167.897,-47.363,-43.945,-32.715,-47.852,0.000
1709299167.901,-40.527,-41.016,-46.387,-40.039,0.000
1709299167.905,-40.039,-37.598,-43.945,-35.645,0.000
1709299167.909,-43.945,-35.645,-31.250,-41.992,0.000
1709299167.913,-48.828,-38.086,-34.668,-47.852,0.000
1709299167.917,-35.156,-42.969,-37.598,-41.016,0.000
1709299167.920,-20.996,-35.645,-31.250,-33.203,0.000
1709299167.924,-23.926,-36.621,-33.691,-33.203,0.000
1709299167.928,-38.086,-51.270,-33.203,-45.410,0.000
1709299167.932,-52.246,-44.922,-42.480,-49.316,0.000
1709299167.936,-43.945,-33.691,-47.363,-35.645,0.000
1709299167.940,-31.738,-35.156,-41.504,-32.227,0.000
1709299167.944,-25.879,-44.434,-37.109,-35.645,0.000
1709299167.948,-39.551,-40.527,-37.598,-42.969,0.000
1709299167.952,-51.758,-38.086,-39.062,-47.363,0.000
1709299167.956,-41.992,-37.598,-35.645,-38.086,0.000
1709299167.960,-27.344,-32.715,-31.738,-22.949,0.000
1709299167.963,-26.855,-34.180,-29.785,-18.555,0.000
1709299167.967,-42.480,-37.598,-36.621,-31.738,0.000
1709299167.971,-44.922,-29.785,-30.762,-42.969,0.000
1709299167.975,-42.480,-31.250,-21.973,-41.992,0.000
1709299167.979,-38.086,-34.180,-22.949,-28.320,0.000
1709299167.983,-40.527,-31.738,-26.367,-29.785,0.000
1709299167.987,-54.199,-34.668,-32.715,-37.598,0.000
1709299167.991,-68.848,-38.574,-34.668,-53.223,0.000
1709299167.995,-67.871,-40.039,-31.250,-42.969,0.000
1709299167.999,-48.828,-41.016,-28.809,-21.484,0.000
1709299168.003,-39.062,-38.574,-31.250,-27.344,0.000
1709299168.006,-45.410,-32.227,-34.668,-31.250,0.000
1709299168.010,-52.246,-29.297,-35.156,-37.598,0.000
1709299168.014,-52.734,-31.738,-26.855,-41.992,0.000
1709299168.018,-38.086,-27.344,-18.555,-26.855,0.000
1709299168.022,-32.227,-32.227,-20.020,-13.184,0.000
1709299168.026,-37.598,-41.992,-32.227,-20.508,0.000
1709299168.030,-43.945,-50.781,-33.203,-36.133,0.000
1709299168.034,-43.945,-50.293,-31.250,-40.527,0.000
1709299168.038,-33.203,-34.668,-34.668,-32.227,0.000
1709299168.042,-21.973,-30.762,-32.227,-24.414,0.000
1709299168.046,-21.484,-35.156,-33.203,-24.414,0.000
1709299168.049,-23.926,-27.344,-34.180,-38.574,0.000
1709299168.053,-27.344,-30.273,-31.250,-45.898,0.000
1709299168.057,-22.461,-32.227,-34.180,-31.250,0.000
1709299168.061,-10.254,-26.367,-38.574,-19.531,0.000
1709299168.065,-20.508,-32.715,-41.992,-27.832,0.000
1709299168.069,-33.203,-36.621,-33.203,-33.203,0.000
1709299168.073,-34.668,-37.598,-36.133,-46.387,0.000
1709299168.077,-29.785,-43.457,-45.410,-42.969,0.000
1709299168.081,-17.090,-38.574,-37.109,-30.273,0.000
1709299168.085,-17.578,-32.227,-33.691,-33.203,0.000
1709299168.088,-36.133,-36.621,-36.621,-52.246,0.000
1709299168.092,-43.945,-31.250,-34.668,-59.570,0.000
1709299168.096,-33.691,-38.086,-31.738,-42.969,0.000
1709299168.100,-24.414,-39.062,-40.039,-30.273,0.000
1709299168.104,-21.973,-35.156,-43.945,-31.250,0.000
1709299168.108,-39.062,-40.527,-41.992,-50.781,0.000
1709299168.112,-50.293,-36.621,-36.133,-47.852,0.000
1709299168.116,-40.039,-33.203,-28.320,-30.762,0.000
1709299168.120,-29.297,-37.109,-36.133,-24.414,0.000
1709299168.124,-25.391,-41.016,-41.016,-23.438,0.000
1709299168.128,-39.551,-39.062,-35.645,-39.551,0.000
1709299168.131,-56.641,-31.738,-33.691,-49.316,0.000
1709299168.135,-50.293,-31.250,-37.109,-44.434,0.000
1709299168.139,-36.621,-39.062,-40.527,-31.250,0.000
1709299168.143,-41.016,-36.621,-34.668,-29.785,0.000
1709299168.147,-61.035,-35.156,-32.715,-56.641,0.000
1709299168.151,-61.523,-42.480,-27.344,-61.523,0.000
1709299168.155,-49.805,-47.852,-25.391,-43.945,0.000
1709299168.159,-41.504,-39.062,-33.691,-28.320,0.000
1709299168.163,-41.992,-33.691,-35.645,-35.645,0.000
1709299168.167,-52.246,-36.133,-33.691,-49.805,0.000
1709299168.170,-56.641,-32.227,-30.762,-50.293,0.000
1709299168.174,-49.316,-34.180,-30.762,-48.828,0.000
