timestamps,TP9,AF7,AF8,TP10,Right AUX
1709374159.816,-36.621,-34.668,-41.016,-35.156,0.000
1709374159.820,-22.461,-32.715,-43.945,-25.391,0.000
1709374159.824,-55.176,-21.973,-29.785,-55.664,0.000
1709374159.828,-103.027,-32.715,-38.086,-92.285,0.000
1709374159.832,-118.652,-48.340,-50.781,-103.027,0.000
1709374159.835,-92.773,-34.180,-33.691,-86.914,0.000
1709374159.839,-77.637,-9.766,-22.949,-83.984,0.000
1709374159.843,-116.699,3.418,-22.461,-111.816,0.000
1709374159.847,-180.176,-20.020,-12.695,-166.016,0.000
1709374159.851,-212.891,-41.504,-8.789,-208.008,0.000
1709374159.855,-198.242,-18.555,3.906,-209.473,0.000
1709374159.859,-200.684,-20.996,9.277,-223.633,0.000
1709374159.863,-246.582,-35.645,4.395,-274.414,0.000
1709374159.867,-297.363,-35.645,7.812,-323.242,0.000
1709374159.870,-324.707,-37.109,9.277,-341.309,0.000
1709374159.874,-320.312,-28.809,13.184,-340.332,0.000
1709374159.878,-297.852,-30.273,14.160,-320.801,0.000
1709374159.882,-306.152,-30.273,20.996,-322.754,0.000
1709374159.886,-342.773,-27.344,18.066,-343.750,0.000
1709374159.890,-346.191,-26.855,13.184,-334.473,0.000
1709374159.894,-314.941,-20.996,18.066,-310.547,0.000
1709374159.898,-262.207,-25.391,19.043,-274.414,0.000
1709374159.902,-236.328,-26.367,18.555,-250.000,0.000
1709374159.906,-253.906,-26.367,8.301,-250.000,0.000
1709374159.909,-242.188,-31.738,0.488,-228.516,0.000
1709374159.913,-192.871,-38.086,-2.930,-189.941,0.000
1709374159.917,-140.625,-45.898,-14.160,-145.508,0.000
1709374159.921,-119.141,-49.805,-27.344,-125.977,0.000
1709374159.925,-139.160,-46.875,-34.668,-140.625,0.000
1709374159.929,-138.672,-48.340,-38.574,-131.836,0.000
1709374159.933,-109.863,-58.105,-46.875,-99.609,0.000
1709374159.937,-59.082,-63.965,-49.316,-60.059,0.000
1709374159.941,-30.273,-61.035,-45.410,-35.645,0.000
1709374159.945,-53.223,-59.082,-48.828,-47.363,0.000
1709374159.948,-52.734,-57.617,-46.387,-45.898,0.000
1709374159.952,-25.391,-59.570,-52.734,-24.902,0.000
1709374159.956,18.555,-62.012,-61.523,12.207,0.000
1709374159.960,41.016,-62.012,-57.617,39.062,0.000
1709374159.964,15.137,-60.059,-54.688,25.391,0.000
1709374159.968,11.719,-50.293,-58.594,14.648,0.000
1709374159.972,23.438,-50.781,-61.035,19.043,0.000
1709374159.976,60.059,-52.734,-55.664,57.129,0.000
1709374159.979,94.238,-47.363,-53.711,88.379,0.000
1709374159.983,63.477,-46.875,-51.758,60.547,0.000
1709374159.987,34.668,-48.828,-51.270,45.898,0.000
1709374159.991,51.758,-42.969,-58.594,59.570,0.000
1709374159.995,91.797,-38.574,-64.453,80.078,0.000
1709374159.999,119.141,-40.039,-64.941,100.098,0.000
1709374160.003,94.238,-35.156,-56.152,84.473,0.000
1709374160.007,63.477,-35.645,-59.082,55.176,0.000
1709374160.011,60.059,-37.598,-64.453,55.176,0.000
1709374160.015,88.379,-34.668,-60.547,79.102,0.000
1709374160.019,113.281,-33.203,-58.105,98.633,0.000
1709374160.023,83.008,-31.250,-58.105,74.707,0.000
1709374160.027,53.223,-31.738,-57.617,47.363,0.000
1709374160.031,50.293,-34.668,-62.012,41.016,0.000
1709374160.035,65.918,-35.156,-61.035,49.316,0.000
1709374160.038,89.355,-35.156,-55.176,86.426,0.000
1709374160.042,68.848,-37.598,-55.176,75.684,0.000
1709374160.046,30.273,-34.180,-56.152,35.156,0.000
1709374160.050,29.297,-29.785,-51.270,32.715,0.000
1709374160.054,50.781,-26.367,-43.945,51.270,0.000
1709374160.058,77.148,-30.762,-45.898,75.684,0.000
1709374160.062,64.453,-36.133,-47.852,61.523,0.000
1709374160.066,22.949,-34.180,-43.945,33.691,0.000
1709374160.070,15.137,-36.621,-43.945,28.320,0.000
1709374160.074,43.945,-36.621,-43.945,39.551,0.000
1709374160.078,73.242,-38.086,-47.363,64.453,0.000
1709374160.082,64.941,-41.504,-46.875,64.941,0.000
1709374160.085,24.902,-44.434,-42.480,29.297,0.000
1709374160.089,12.207,-41.992,-48.340,10.742,0.000
1709374160.093,27.344,-37.598,-48.828,20.996,0.000
1709374160.097,58.105,-38.086,-44.434,42.969,0.000
1709374160.101,64.453,-33.691,-45.898,40.527,0.000
1709374160.105,20.508,-27.832,-46.387,6.836,0.000
1709374160.109,0.000,-26.855,-45.410,-3.418,0.000
1709374160.113,6.836,-31.738,-44.922,-0.488,0.000
1709374160.117,37.109,-31.250,-48.828,18.066,0.000
1709374160.121,52.246,-25.879,-48.828,28.809,0.000
1709374160.125,15.137,-28.809,-42.969,-1.465,0.000
1709374160.129,-11.230,-25.879,-43.945,-10.254,0.000
1709374160.132,-0.488,-21.973,-43.457,-0.977,0.000
1709374160.136,25.391,-26.855,-44.434,11.719,0.000
1709374160.140,34.668,-29.297,-42.969,29.297,0.000
1709374160.144,-5.371,-30.762,-37.598,5.859,0.000
1709374160.148,-36.133,-34.180,-38.574,-14.160,0.000
1709374160.152,-34.668,-41.504,-44.922,-15.137,0.000
1709374160.156,-7.324,-42.969,-41.992,7.812,0.000
1709374160.160,19.531,-31.250,-35.156,35.156,0.000
1709374160.164,-11.719,-24.414,-32.715,13.184,0.000
1709374160.168,-44.922,-27.832,-37.109,-19.043,0.000
1709374160.172,-44.922,-36.621,-40.527,-21.973,0.000
1709374160.175,-14.648,-34.668,-34.668,4.883,0.000
1709374160.179,12.207,-37.598,-37.109,18.555,0.000
1709374160.183,-20.508,-45.898,-40.527,-9.766,0.000
1709374160.187,-48.828,-38.574,-38.574,-28.320,0.000
1709374160.191,-43.457,-38.086,-38.086,-22.949,0.000
1709374160.195,-23.926,-45.410,-38.086,-8.301,0.000
1709374160.199,8.301,-45.410,-40.527,11.719,0.000
1709374160.203,-8.789,-40.527,-40.039,-6.836,0.000
1709374160.207,-42.969,-36.621,-36.621,-37.598,0.000
1709374160.211,-41.016,-34.668,-34.668,-28.809,0.000
1709374160.214,-13.184,-35.645,-32.227,-0.488,0.000
1709374160.218,19.531,-32.715,-37.109,31.250,0.000
1709374160.222,-13.672,-33.691,-43.457,-1.953,0.000
1709374160.226,-47.852,-34.668,-40.039,-43.945,0.000
1709374160.230,-47.852,-31.250,-41.504,-39.551,0.000
1709374160.234,-41.016,-29.785,-41.992,-39.062,0.000
1709374160.238,-10.742,-28.320,-41.016,-12.207,0.000
1709374160.242,-18.066,-22.461,-42.480,-15.625,0.000
1709374160.246,-56.152,-18.555,-37.598,-50.781,0.000
1709374160.249,-66.406,-25.391,-36.133,-55.664,0.000
1709374160.253,-50.293,-30.762,-42.480,-47.852,0.000
1709374160.257,-12.695,-25.879,-47.363,-28.809,0.000
1709374160.261,-9.277,-21.484,-45.898,-19.531,0.000
1709374160.265,-52.246,-22.461,-43.457,-46.387,0.000
1709374160.269,-72.754,-26.367,-48.340,-62.988,0.000
1709374160.273,-60.059,-27.344,-52.246,-53.223,0.000
1709374160.277,-19.043,-33.203,-51.758,-34.668,0.000
1709374160.281,-3.906,-31.250,-46.387,-22.461,0.000
1709374160.284,-41.992,-27.344,-48.340,-53.223,0.000
1709374160.288,-60.059,-32.715,-48.340,-66.895,0.000
1709374160.292,-48.340,-35.156,-42.480,-49.805,0.000
1709374160.296,-19.531,-36.133,-43.457,-31.250,0.000
1709374160.300,-5.371,-36.621,-45.410,-24.414,0.000
1709374160.304,-33.203,-34.180,-46.875,-43.945,0.000
1709374160.308,-51.758,-30.762,-47.852,-44.922,0.000
1709374160.312,-41.504,-29.785,-44.434,-41.016,0.000
1709374160.316,-11.719,-40.527,-46.387,-33.691,0.000
1709374160.320,9.766,-44.434,-45.410,-11.230,0.000
1709374160.323,-19.043,-30.762,-38.574,-31.738,0.000
1709374160.327,-53.711,-28.320,-41.992,-53.711,0.000
1709374160.331,0.000,-36.621,-46.387,-47.852,0.000
1709374160.335,0.000,-39.551,-43.945,-27.832,0.000
1709374160.339,0.000,-34.668,-42.480,-4.883,0.000
1709374160.343,0.000,-30.273,-41.016,-21.973,0.000
1709374160.347,0.000,-33.691,-39.062,-47.363,0.000
1709374160.351,0.000,-36.621,-38.086,-45.410,0.000
1709374160.355,0.000,-34.668,-38.086,-21.973,0.000
1709374160.358,0.000,-34.180,-39.551,-0.488,0.000
1709374160.362,0.000,-37.109,-33.691,-18.555,0.000
1709374160.366,0.000,-41.016,-31.738,-47.852,0.000
1709374160.370,0.000,-38.574,-36.133,-46.387,0.000
1709374160.374,0.000,-33.691,-37.598,-27.344,0.000
1709374160.378,-1.465,-35.156,-37.109,1.465,0.000
1709374160.382,-18.066,-36.133,-34.180,-11.719,0.000
1709374160.386,-59.570,-33.203,-34.180,-42.969,0.000
1709374160.390,-65.430,-34.180,-32.715,-43.945,0.000
1709374160.394,-42.480,-36.133,-32.227,-29.785,0.000
1709374160.398,-5.859,-33.203,-29.297,-1.953,0.000
1709374160.402,-19.531,-33.691,-26.367,-8.789,0.000
1709374160.406,-65.430,-39.551,-35.156,-47.852,0.000
1709374160.410,-69.336,-39.551,-43.457,-54.688,0.000
1709374160.414,-48.340,-33.203,-41.504,-36.621,0.000
1709374160.417,-14.160,-36.621,-44.434,-10.742,0.000
1709374160.421,-12.207,-38.574,-45.898,-14.160,0.000
1709374160.425,-47.852,-35.156,-42.969,-46.875,0.000
1709374160.429,-57.129,-34.180,-41.992,-54.199,0.000
1709374160.433,-53.223,-38.086,-47.363,-51.270,0.000
1709374160.437,-21.973,-40.039,-46.875,-22.949,0.000
1709374160.441,-9.277,-36.621,-41.016,-11.230,0.000
1709374160.445,-52.734,-32.715,-42.969,-46.875,0.000
1709374160.449,-72.754,-34.668,-46.387,-62.012,0.000
1709374160.453,-57.617,-33.203,-45.410,-53.711,0.000
1709374160.457,-22.949,-35.156,-41.504,-25.879,0.000
1709374160.461,-7.324,-38.086,-40.527,-11.719,0.000
1709374160.464,-42.969,-32.715,-42.969,-48.828,0.000
1709374160.468,-62.500,-30.762,-41.992,-62.012,0.000
1709374160.472,-53.711,-35.156,-38.574,-49.805,0.000
1709374160.476,-26.855,-37.109,-38.086,-33.691,0.000
1709374160.480,0.488,-31.250,-40.527,-19.531,0.000
1709374160.484,-24.414,-30.273,-37.598,-41.992,0.000
1709374160.488,-55.176,-34.668,-37.109,-62.012,0.000
1709374160.492,-55.664,-39.551,-41.016,-60.059,0.000
1709374160.496,-22.461,-39.551,-40.527,-35.645,0.000
1709374160.500,7.324,-38.086,-40.039,-16.113,0.000
1709374160.504,-18.066,-37.598,-31.738,-27.344,0.000
1709374160.507,-50.293,-42.969,-34.668,-49.805,0.000
1709374160.511,-50.781,-45.410,-37.598,-62.012,0.000
1709374160.515,-25.879,-41.504,-40.039,-44.434,0.000
1709374160.519,2.441,-40.527,-43.457,-19.043,0.000
1709374160.523,-19.531,-38.574,-43.945,-39.062,0.000
1709374160.527,-47.363,-37.109,-43.457,-62.500,0.000
1709374160.531,-56.641,-39.062,-39.551,-62.988,0.000
1709374160.535,-35.645,-45.898,-40.039,-52.246,0.000
1709374160.539,8.789,-46.875,-36.621,-19.531,0.000
1709374160.543,-15.137,-40.039,-34.180,-30.762,0.000
1709374160.547,-54.199,-38.086,-36.133,-59.082,0.000
1709374160.550,-59.082,-40.039,-40.039,-53.223,0.000
1709374160.554,-37.598,-38.086,-41.016,-40.039,0.000
1709374160.558,-0.488,-36.621,-44.922,-19.531,0.000
1709374160.562,-21.484,-38.574,-46.875,-27.344,0.000
1709374160.566,-58.594,-36.133,-41.992,-55.664,0.000
1709374160.570,-63.477,-34.668,-40.527,-60.547,0.000
1709374160.574,-50.293,-35.645,-39.062,-53.223,0.000
1709374160.578,-13.672,-36.133,-37.598,-26.367,0.000
1709374160.582,-11.719,-31.250,-36.621,-22.949,0.000
1709374160.586,-44.434,-27.832,-35.156,-52.734,0.000
1709374160.589,-50.293,-29.785,-30.273,-51.270,0.000
1709374160.593,-34.668,-35.645,-30.762,-35.645,0.000
1709374160.597,-1.465,-38.086,-37.109,-15.625,0.000
1709374160.601,-2.441,-32.715,-39.551,-15.137,0.000
1709374160.605,-46.875,-36.621,-38.086,-41.504,0.000
1709374160.609,-58.594,-41.016,-36.133,-43.945,0.000
1709374160.613,0.000,-36.621,-37.109,-35.156,0.000
1709374160.617,0.000,-31.738,-35.645,-15.137,0.000
1709374160.621,0.000,-33.203,-34.668,-0.977,0.000
1709374160.625,0.000,-35.645,-39.062,-37.598,0.000
1709374160.629,0.000,-39.062,-37.598,-58.105,0.000
1709374160.633,0.000,-41.016,-37.598,-52.734,0.000
1709374160.637,0.000,-40.039,-38.574,-32.227,0.000
1709374160.640,0.000,-45.410,-39.062,-7.324,0.000
1709374160.644,0.000,-45.410,-40.039,-33.203,0.000
1709374160.648,0.000,-40.039,-39.551,-62.988,0.000
1709374160.652,0.000,-40.039,-41.992,-57.617,0.000
1709374160.656,0.000,-38.574,-39.551,-31.250,0.000
1709374160.660,-3.906,-41.504,-39.551,-18.555,0.000
1709374160.664,-38.086,-40.527,-33.691,-37.109,0.000
1709374160.668,-68.848,-40.527,-37.598,-58.594,0.000
1709374160.671,-62.012,-40.527,-41.504,-53.711,0.000
1709374160.675,-26.855,-36.133,-36.133,-27.344,0.000
1709374160.679,0.000,-37.109,-39.062,-16.113,0.000
1709374160.683,-32.715,-34.180,-37.598,-28.320,0.000
1709374160.687,-63.477,-35.156,-36.621,-44.922,0.000
1709374160.691,-59.570,-36.621,-34.668,-49.316,0.000
1709374160.695,-35.645,-35.156,-37.598,-29.297,0.000
1709374160.699,0.977,-29.297,-38.086,-3.906,0.000
1709374160.703,-14.648,-23.926,-35.645,-22.461,0.000
1709374160.706,-47.852,-28.320,-37.109,-52.246,0.000
1709374160.710,-50.781,-31.250,-37.109,-48.340,0.000
1709374160.714,-30.273,-33.691,-38.086,-30.762,0.000
1709374160.718,9.766,-33.203,-35.645,-3.418,0.000
1709374160.722,-4.883,-30.762,-29.297,-13.672,0.000
1709374160.726,-53.223,-31.738,-29.297,-43.457,0.000
1709374160.730,-69.336,-34.180,-37.598,-46.875,0.000
1709374160.734,-51.270,-34.668,-41.016,-30.762,0.000
1709374160.738,-15.137,-37.598,-40.527,-5.371,0.000
1709374160.742,-20.020,-40.039,-40.039,-12.695,0.000
1709374160.745,-49.316,-37.598,-37.598,-39.551,0.000
1709374160.749,-57.617,-37.598,-36.621,-49.316,0.000
1709374160.753,-47.852,-38.574,-37.598,-38.086,0.000
1709374160.757,-5.371,-35.156,-38.574,-9.766,0.000
1709374160.761,4.395,-31.250,-39.062,-6.836,0.000
1709374160.765,-42.480,-29.785,-40.039,-32.715,0.000
1709374160.769,-56.641,-30.762,-41.016,-41.992,0.000
1709374160.773,-37.598,-33.691,-33.203,-35.156,0.000
1709374160.777,-1.953,-31.250,-37.109,-18.066,0.000
1709374160.781,6.836,-33.691,-43.945,-13.672,0.000
1709374160.785,-43.457,-41.016,-43.457,-46.875,0.000
1709374160.789,-63.477,-34.668,-41.992,-56.641,0.000
1709374160.793,-52.734,-35.156,-41.016,-56.152,0.000
1709374160.796,-20.508,-32.227,-34.668,-35.156,0.000
1709374160.801,-7.812,-29.785,-31.250,-17.578,0.000
1709374160.804,-45.410,-32.227,-40.039,-40.039,0.000
1709374160.808,-62.988,-30.762,-38.086,-48.828,0.000
1709374160.812,-63.965,-30.762,-27.344,-48.340,0.000
1709374160.816,-31.738,-33.691,-30.762,-31.250,0.000
1709374160.820,-5.371,-39.062,-33.203,-17.090,0.000
1709374160.824,-38.574,-38.574,-31.738,-45.410,0.000
1709374160.828,-73.242,-38.574,-43.457,-68.848,0.000
1709374160.832,-66.895,-36.133,-39.551,-49.805,0.000
1709374160.836,-33.203,-32.227,-34.180,-21.484,0.000
1709374160.840,-11.230,-37.598,-41.504,-12.695,0.000
1709374160.843,-32.715,-33.691,-36.133,-29.785,0.000
1709374160.847,-52.246,-32.227,-30.762,-46.387,0.000
1709374160.851,-45.898,-37.109,-36.133,-43.945,0.000
1709374160.855,-21.484,-39.551,-40.039,-31.250,0.000
1709374160.859,3.906,-39.062,-41.992,-4.883,0.000
1709374160.863,-14.160,-37.109,-40.527,-9.766,0.000
1709374160.867,-49.316,-38.086,-38.086,-32.715,0.000
1709374160.871,-48.828,-39.551,-38.086,-33.691,0.000
1709374160.875,-22.949,-41.504,-37.598,-20.508,0.000
1709374160.879,10.742,-36.621,-32.715,12.207,0.000
1709374160.883,-10.254,-34.668,-31.738,1.465,0.000
1709374160.887,-43.945,-37.109,-35.156,-40.527,0.000
1709374160.890,-41.016,-35.645,-36.133,-45.898,0.000
1709374160.894,-26.367,-40.039,-37.109,-29.297,0.000
1709374160.898,0.488,-45.410,-42.969,-8.789,0.000
1709374160.902,-10.742,-41.016,-48.340,-21.973,0.000
1709374160.906,-47.852,-39.062,-47.363,-50.293,0.000
1709374160.910,-59.082,-37.598,-43.457,-50.293,0.000
1709374160.914,-44.434,-39.551,-40.039,-38.574,0.000
1709374160.918,-12.695,-44.434,-37.598,-15.625,0.000
1709374160.922,-17.090,-47.852,-37.598,-16.113,0.000
1709374160.926,-57.129,-48.340,-40.039,-43.457,0.000
1709374160.930,-70.801,-50.781,-44.434,-64.453,0.000
1709374160.933,-53.711,-50.781,-41.992,-58.594,0.000
1709374160.937,-18.555,-44.434,-37.109,-28.320,0.000
1709374160.941,-11.719,-37.598,-37.598,-21.973,0.000
1709374160.945,-51.758,-35.645,-38.574,-53.711,0.000
1709374160.949,-68.848,-36.133,-36.621,-62.500,0.000
1709374160.953,-48.340,-38.086,-34.180,-42.480,0.000
1709374160.957,-14.648,-36.621,-38.574,-11.230,0.000
1709374160.961,-2.441,-34.180,-39.551,-5.371,0.000
1709374160.965,-37.598,-30.762,-38.086,-39.062,0.000
1709374160.969,-58.105,-30.273,-37.109,-42.480,0.000
1709374160.972,-52.246,-32.227,-31.250,-31.738,0.000
1709374160.976,-23.438,-32.227,-31.250,-15.625,0.000
1709374160.980,-4.883,-34.180,-35.156,-9.277,0.000
1709374160.984,-38.574,-36.133,-32.227,-39.062,0.000
1709374160.988,-70.801,-39.551,-40.527,-65.430,0.000
1709374160.992,-66.895,-38.086,-41.504,-64.941,0.000
1709374160.996,-36.133,-34.668,-34.180,-34.180,0.000
1709374161.000,-7.812,-34.668,-35.645,-14.648,0.000
1709374161.004,-35.645,-41.016,-32.227,-38.086,0.000
1709374161.007,-65.430,-39.062,-29.297,-56.152,0.000
1709374161.011,-58.105,-33.203,-33.691,-48.340,0.000
1709374161.015,-31.738,-36.133,-39.062,-28.320,0.000
1709374161.019,-9.277,-39.062,-45.410,-23.438,0.000
1709374161.023,-36.133,-33.203,-44.434,-50.781,0.000
1709374161.027,-67.871,-31.738,-39.551,-64.453,0.000
1709374161.031,-62.988,-34.180,-39.551,-56.152,0.000
1709374161.035,-28.809,-32.715,-38.086,-36.621,0.000
1709374161.039,4.395,-30.273,-32.227,-7.812,0.000
1709374161.043,-28.320,-36.133,-33.203,-19.531,0.000
1709374161.046,-79.590,-41.504,-41.016,-42.969,0.000
1709374161.050,-76.660,-42.480,-39.551,-44.434,0.000
1709374161.054,-43.457,-39.551,-35.645,-32.227,0.000
1709374161.058,-10.742,-35.645,-37.598,-6.348,0.000
1709374161.062,-23.926,-33.691,-38.574,-16.602,0.000
1709374161.066,-62.988,-33.203,-38.574,-51.758,0.000
1709374161.070,-66.406,-35.156,-36.133,-54.199,0.000
1709374161.074,-51.270,-34.180,-31.250,-41.992,0.000
1709374161.078,-16.113,-29.785,-32.715,-23.438,0.000
1709374161.081,-19.043,-30.273,-33.691,-28.809,0.000
1709374161.085,-64.941,-37.598,-36.133,-60.059,0.000
1709374161.089,-65.918,-37.109,-37.598,-63.477,0.000
1709374161.093,-44.434,-32.227,-36.133,-47.363,0.000
1709374161.097,-20.508,-34.180,-39.551,-27.832,0.000
1709374161.101,-20.996,-41.992,-40.527,-26.855,0.000
1709374161.105,-51.758,-33.203,-36.133,-46.875,0.000
1709374161.109,-63.477,-25.879,-32.715,-62.012,0.000
1709374161.113,-53.223,-32.715,-36.621,-63.477,0.000
1709374161.116,-24.902,-37.109,-40.527,-38.574,0.000
1709374161.120,-12.695,-37.598,-36.621,-22.461,0.000
1709374161.124,-49.316,-35.645,-34.180,-45.410,0.000
1709374161.128,-67.871,-32.715,-29.785,-51.270,0.000
1709374161.132,-47.852,-32.715,-27.832,-41.016,0.000
1709374161.136,-11.230,-33.691,-29.297,-20.508,0.000
1709374161.140,-1.953,-35.645,-34.180,-5.859,0.000
1709374161.144,-41.504,-36.133,-41.016,-32.227,0.000
1709374161.148,-62.500,-40.527,-40.039,-50.293,0.000
1709374161.152,-53.711,-39.062,-41.504,-52.246,0.000
1709374161.156,-20.508,-32.715,-43.457,-36.621,0.000
1709374161.160,-1.465,-32.715,-40.039,-16.113,0.000
1709374161.164,-37.109,-34.180,-40.039,-42.480,0.000
1709374161.167,-65.430,-32.715,-44.922,-65.918,0.000
1709374161.171,-56.641,-30.762,-46.387,-59.570,0.000
1709374161.175,-24.902,-32.227,-42.480,-39.062,0.000
1709374161.179,-2.930,-32.227,-39.551,-17.090,0.000
1709374161.183,-27.344,-33.203,-36.133,-34.668,0.000
1709374161.187,-58.105,-38.574,-35.156,-58.594,0.000
1709374161.191,-53.223,-32.227,-32.715,-54.688,0.000
1709374161.195,-27.344,-27.832,-29.297,-36.133,0.000
1709374161.199,0.488,-33.203,-30.273,-10.742,0.000
1709374161.203,-21.973,-34.180,-35.156,-27.344,0.000
1709374161.207,-56.152,-34.180,-36.133,-50.781,0.000
1709374161.211,-53.223,-37.109,-34.668,-39.062,0.000
1709374161.215,-35.645,-43.457,-38.574,-29.297,0.000
1709374161.218,1.465,-42.480,-39.551,-12.207,0.000
1709374161.222,-7.812,-34.180,-37.109,-15.625,0.000
1709374161.226,-54.199,-31.250,-37.598,-40.527,0.000
1709374161.230,-62.012,-34.180,-33.691,-38.086,0.000
1709374161.234,-41.504,-33.691,-36.621,-22.461,0.000
1709374161.238,-8.789,-33.691,-39.062,1.953,0.000
1709374161.242,-13.184,-35.156,-40.527,-2.930,0.000
1709374161.246,-58.105,-36.133,-44.434,-41.992,0.000
1709374161.250,-60.059,-36.621,-41.992,-49.805,0.000
1709374161.254,-37.598,-31.250,-38.574,-22.949,0.000
1709374161.258,-6.348,-28.809,-40.039,0.000,0.000
1709374161.261,-5.859,-36.621,-42.969,-14.648,0.000
1709374161.265,-52.734,-40.039,-43.457,-42.480,0.000
1709374161.269,-68.359,-33.203,-40.039,-50.781,0.000
1709374161.273,-47.852,-32.227,-38.086,-42.969,0.000
1709374161.277,-13.184,-39.551,-44.922,-28.809,0.000
1709374161.281,-8.301,-41.504,-47.852,-29.785,0.000
1709374161.285,-45.898,-40.039,-47.852,-54.199,0.000
1709374161.289,-62.012,-36.133,-51.270,-63.477,0.000
1709374161.293,-53.223,-37.598,-50.293,-60.059,0.000
1709374161.297,-25.391,-47.363,-45.410,-37.109,0.000
1709374161.301,-10.254,-50.293,-48.828,-21.484,0.000
1709374161.304,-49.316,-46.387,-51.270,-50.781,0.000
1709374161.308,-67.383,-40.527,-42.969,-59.570,0.000
1709374161.312,-47.363,-38.574,-40.527,-46.875,0.000
1709374161.316,-15.625,-40.527,-41.016,-22.949,0.000
1709374161.320,-2.930,-40.527,-38.086,-8.301,0.000
1709374161.324,-33.691,-36.133,-35.156,-32.227,0.000
1709374161.328,-56.152,-34.668,-36.133,-48.828,0.000
1709374161.332,-50.293,-35.645,-38.574,-42.969,0.000
1709374161.336,-23.926,-37.598,-40.039,-23.438,0.000
1709374161.340,-7.812,-39.062,-36.133,-11.719,0.000
1709374161.343,-42.969,-41.504,-36.621,-30.762,0.000
1709374161.347,-80.078,-46.875,-41.992,-53.223,0.000
1709374161.351,-80.078,-46.875,-38.574,-61.523,0.000
1709374161.355,-47.852,-46.875,-38.574,-44.434,0.000
1709374161.359,-10.742,-49.316,-41.504,-22.461,0.000
1709374161.364,0.000,-45.410,0.000,-41.992,0.000
1709374161.368,0.000,-38.086,0.000,-62.500,0.000
1709374161.372,0.000,-37.109,0.000,-62.988,0.000
1709374161.375,0.000,-41.504,0.000,-49.316,0.000
1709374161.379,0.000,-42.480,0.000,-25.391,0.000
1709374161.383,0.000,-38.574,0.000,-42.969,0.000
1709374161.387,0.000,-35.645,0.000,-61.523,0.000
1709374161.391,0.000,-35.156,0.000,-50.781,0.000
1709374161.395,0.000,-36.621,0.000,-47.363,0.000
1709374161.399,0.000,-35.156,0.000,-27.832,0.000
1709374161.403,0.000,-35.156,0.000,-29.297,0.000
1709374161.407,0.000,-38.574,0.000,-59.570,0.000
1709374161.410,-70.312,-40.527,-40.527,-60.547,0.000
1709374161.414,-52.734,-41.016,-38.086,-46.387,0.000
1709374161.418,-24.902,-43.457,-46.875,-29.785,0.000
1709374161.422,-27.832,-40.039,-45.898,-31.250,0.000
1709374161.426,-64.453,-36.133,-41.016,-58.105,0.000
1709374161.430,-73.730,-32.715,-44.922,-69.824,0.000
1709374161.434,-48.828,-29.785,-45.898,-43.457,0.000
1709374161.438,-17.578,-36.621,-47.852,-16.602,0.000
1709374161.442,-11.719,-34.180,-43.457,-23.926,0.000
1709374161.446,-43.945,-31.738,-36.621,-48.828,0.000
1709374161.449,-60.547,-32.227,-37.598,-54.688,0.000
1709374161.453,-41.992,-28.809,-37.598,-41.992,0.000
1709374161.457,-8.789,-33.203,-40.527,-21.484,0.000
1709374161.461,1.953,-32.715,-42.480,-8.789,0.000
1709374161.465,-35.156,-31.250,-40.039,-35.156,0.000
1709374161.469,-54.199,-32.227,-38.574,-53.223,0.000
1709374161.473,-45.898,-29.297,-35.645,-44.922,0.000
1709374161.476,-26.855,-36.621,-31.250,-25.879,0.000
1709374161.480,-8.301,-38.574,-32.715,-8.789,0.000
1709374161.484,-40.527,-33.203,-35.645,-34.180,0.000
1709374161.488,-62.500,-34.668,-33.691,-56.152,0.000
1709374161.492,-43.457,-34.180,-35.645,-46.875,0.000
1709374161.496,-19.531,-34.668,-41.504,-19.531,0.000
1709374161.500,-1.465,-37.598,-40.527,-7.324,0.000
1709374161.504,-37.109,-41.504,-37.598,-43.945,0.000
1709374161.508,-80.566,-42.969,-40.527,-67.871,0.000
1709374161.512,-72.266,-43.945,-43.945,-60.059,0.000
1709374161.516,-42.480,-45.410,-42.969,-38.574,0.000
1709374161.520,-16.113,-41.016,-44.922,-13.672,0.000
1709374161.524,-38.574,-39.551,-46.875,-30.273,0.000
1709374161.528,-69.336,-38.086,-43.457,-57.129,0.000
1709374161.531,-66.406,-38.574,-42.480,-53.711,0.000
1709374161.535,-40.039,-43.945,-48.828,-37.598,0.000
1709374161.539,-7.812,-41.016,-48.828,-15.137,0.000
1709374161.543,-27.344,-36.133,-44.922,-27.344,0.000
1709374161.547,-62.500,-35.645,-44.434,-59.570,0.000
1709374161.551,-57.129,-38.574,-41.992,-57.129,0.000
1709374161.555,-22.461,-35.645,-38.086,-32.227,0.000
1709374161.559,10.742,-33.203,-37.109,-2.930,0.000
1709374161.563,-13.672,-38.574,-37.598,-20.508,0.000
1709374161.567,-50.293,-38.086,-37.109,-51.270,0.000
1709374161.571,-52.734,-33.203,-34.668,-48.828,0.000
1709374161.575,-41.992,-30.762,-31.250,-34.180,0.000
1709374161.578,-12.695,-31.738,-34.668,-15.625,0.000
1709374161.582,-15.137,-30.762,-32.227,-14.160,0.000
1709374161.586,-60.059,-34.180,-34.180,-40.527,0.000
1709374161.590,-66.895,-36.133,-39.062,-55.664,0.000
1709374161.594,-39.551,-32.227,-39.551,-45.410,0.000
1709374161.598,-11.230,-34.668,-45.410,-21.973,0.000
1709374161.602,-8.789,-39.551,-40.039,-21.484,0.000
1709374161.606,-43.945,-41.504,-32.227,-47.363,0.000
1709374161.610,-61.035,-40.039,-34.180,-49.805,0.000
1709374161.614,-43.945,-35.645,-31.250,-32.227,0.000
1709374161.618,-15.137,-43.945,-31.738,-13.184,0.000
1709374161.621,-17.578,-48.828,-33.203,-5.859,0.000
1709374161.625,-61.523,-43.945,-38.086,-37.598,0.000
1709374161.629,-77.637,-39.062,-38.086,-45.410,0.000
1709374161.633,-57.617,-38.086,-35.645,-34.668,0.000
1709374161.637,-27.344,-41.504,-36.621,-22.461,0.000
1709374161.641,-9.766,-39.551,-37.109,-6.836,0.000
1709374161.645,-34.180,-34.668,-37.109,-31.250,0.000
1709374161.649,-51.270,-36.621,-36.621,-51.270,0.000
1709374161.653,-38.086,-39.062,-37.109,-39.062,0.000
1709374161.657,-8.789,-41.504,-36.133,-17.090,0.000
1709374161.660,14.648,-40.527,-38.086,0.488,0.000
1709374161.664,-18.555,-36.133,-32.227,-22.461,0.000
1709374161.668,-44.922,-35.156,-32.227,-48.340,0.000
1709374161.672,-29.297,-37.598,-33.203,-37.109,0.000
1709374161.676,-3.418,-32.227,-31.250,-17.578,0.000
1709374161.680,12.695,-28.809,-37.109,-11.719,0.000
1709374161.684,-17.090,-31.250,-35.156,-37.109,0.000
1709374161.688,-52.246,-34.668,-32.715,-62.012,0.000
1709374161.692,-54.199,-39.062,-34.668,-62.988,0.000
1709374161.696,-31.738,-38.574,-34.180,-48.340,0.000
1709374161.699,-6.836,-34.668,-34.668,-25.879,0.000
1709374161.703,-31.250,-36.621,-36.621,-43.457,0.000
1709374161.707,-58.105,-35.156,-34.180,-66.895,0.000
1709374161.711,-51.270,-37.598,-29.297,-62.988,0.000
1709374161.715,-31.738,-43.457,-29.785,-47.852,0.000
1709374161.719,0.000,-39.062,-34.668,-4.883,0.000
1709374161.723,-18.555,-35.156,-30.273,-8.301,0.000
1709374161.727,-55.176,-32.227,-27.344,-48.828,0.000
1709374161.731,-60.547,-31.738,-32.715,-52.246,0.000
1709374161.735,-48.340,-31.738,-31.738,-37.598,0.000
1709374161.738,-13.672,-34.180,-33.203,-18.555,0.000
1709374161.742,-19.531,-30.762,-33.203,-27.344,0.000
1709374161.746,-60.547,-31.738,-31.250,-56.641,0.000
1709374161.750,-68.359,-41.504,-36.621,-62.500,0.000
1709374161.754,-45.898,-37.109,-40.527,-45.410,0.000
1709374161.758,-9.277,-33.203,-31.738,-16.113,0.000
1709374161.762,-12.207,-35.645,-26.855,-16.602,0.000
1709374161.766,-48.340,-37.598,-32.715,-37.109,0.000
1709374161.770,-49.805,-40.527,-30.273,-41.992,0.000
1709374161.774,-34.180,-42.969,-32.227,-43.457,0.000
1709374161.777,-0.977,-44.434,-34.180,-26.855,0.000
1709374161.781,10.742,-43.457,-33.203,-19.043,0.000
1709374161.785,-29.785,-39.062,-37.598,-42.969,0.000
1709374161.789,-48.828,-37.109,-37.109,-56.152,0.000
1709374161.793,-29.785,-38.574,-36.133,-39.551,0.000
1709374161.797,2.930,-39.551,-41.016,-20.508,0.000
1709374161.801,12.695,-37.598,-40.527,-19.043,0.000
1709374161.805,-21.484,-36.133,-41.504,-43.457,0.000
1709374161.808,-49.805,-34.668,-39.062,-49.316,0.000
1709374161.812,-50.293,-35.645,-37.598,-38.086,0.000
1709374161.816,-19.043,-34.668,-42.480,-20.020,0.000
1709374161.820,-1.953,-34.668,-42.480,-2.441,0.000
1709374161.824,-34.668,-36.621,-42.480,-34.668,0.000
1709374161.828,-58.594,-31.738,-41.016,-52.734,0.000
1709374161.832,-57.617,-38.086,-38.574,-49.805,0.000
1709374161.836,-36.621,-45.410,-39.551,-36.621,0.000
1709374161.839,-10.742,-36.621,-39.062,-13.672,0.000
1709374161.843,-29.297,-31.250,-35.156,-36.621,0.000
1709374161.847,-64.453,-35.156,-35.156,-59.082,0.000
1709374161.851,-66.406,-38.086,-32.715,-49.805,0.000
1709374161.855,-41.992,-35.645,-36.133,-27.344,0.000
1709374161.859,-20.996,-36.133,-41.016,-7.324,0.000
1709374161.863,-42.480,-38.574,-41.992,-27.832,0.000
1709374161.867,-68.848,-38.574,-41.504,-49.316,0.000
1709374161.871,-61.035,-35.156,-38.086,-45.898,0.000
1709374161.875,-36.621,-38.086,-44.434,-33.203,0.000
1709374161.879,-2.441,-37.109,-41.504,-5.371,0.000
1709374161.883,-14.160,-33.691,-36.133,-18.555,0.000
1709374161.887,-50.781,-34.668,-37.598,-45.410,0.000
1709374161.890,-54.199,-41.992,-35.156,-41.016,0.000
1709374161.894,-25.879,-45.410,-35.156,-27.832,0.000
1709374161.898,10.254,-42.480,-33.691,4.883,0.000
1709374161.902,-8.301,-46.875,-36.621,0.488,0.000
1709374161.906,-44.434,-46.875,-41.992,-35.156,0.000
1709374161.910,-44.922,-43.945,-37.109,-35.156,0.000
1709374161.914,-26.855,-43.457,-35.156,-18.066,0.000
1709374161.918,1.465,-40.039,-37.109,-2.441,0.000
1709374161.922,-6.836,-39.062,-37.598,-17.578,0.000
1709374161.926,-51.758,-41.016,-37.598,-52.246,0.000
1709374161.930,-67.383,-41.504,-35.645,-58.105,0.000
1709374161.934,-48.828,-39.551,-41.992,-51.758,0.000
1709374161.937,-13.672,-33.203,-39.062,-23.926,0.000
1709374161.941,-12.695,-29.785,-29.297,-11.230,0.000
1709374161.945,-53.223,-35.156,-29.297,-40.039,0.000
1709374161.949,-66.406,-39.062,-25.879,-49.805,0.000
1709374161.953,-52.246,-37.109,-27.344,-41.992,0.000
1709374161.957,-17.578,-36.621,-31.250,-14.648,0.000
1709374161.961,-8.789,-40.039,-32.715,-0.977,0.000
1709374161.965,-52.246,-41.016,-41.504,-43.457,0.000
1709374161.969,-73.730,-41.992,-38.086,-58.594,0.000
1709374161.973,-61.523,-47.852,-35.645,-38.086,0.000
1709374161.977,-23.438,-41.016,-39.551,-20.020,0.000
1709374161.981,-7.324,-27.832,-39.062,-13.672,0.000
1709374161.984,-49.805,-36.621,-36.133,-41.992,0.000
1709374161.988,-76.172,-43.457,-34.180,-61.523,0.000
1709374161.992,-62.012,-41.016,-33.691,-56.641,0.000
1709374161.996,-29.785,-44.922,-34.180,-33.691,0.000
1709374162.000,-10.742,-41.992,-36.621,-16.113,0.000
1709374162.004,-38.086,-38.086,-32.715,-26.367,0.000
1709374162.008,-64.453,-40.527,-31.250,-48.340,0.000
1709374162.012,-63.965,-41.992,-30.762,-58.105,0.000
1709374162.016,-38.086,-41.016,-33.691,-37.109,0.000
1709374162.020,-6.836,-41.992,-39.062,-8.789,0.000
1709374162.023,-34.668,-43.945,-34.668,-29.297,0.000
1709374162.027,-70.801,-46.875,-32.715,-60.547,0.000
1709374162.031,-64.453,-48.828,-32.227,-51.758,0.000
1709374162.035,-39.551,-44.922,-31.250,-26.367,0.000
1709374162.039,-10.742,-41.992,-33.203,-6.836,0.000
1709374162.043,-34.180,-42.480,-33.203,-23.438,0.000
1709374162.047,-66.406,-37.598,-37.109,-45.410,0.000
1709374162.051,-63.477,-35.156,-46.875,-45.898,0.000
1709374162.055,-44.434,-36.621,-47.363,-35.645,0.000
1709374162.059,-2.930,-33.203,-43.945,-10.254,0.000
1709374162.063,-15.137,-29.297,-45.898,-24.902,0.000
1709374162.066,-59.082,-31.738,-45.410,-54.199,0.000
1709374162.070,-57.129,-31.738,-40.039,-56.152,0.000
1709374162.074,-34.180,-28.809,-40.527,-41.504,0.000
1709374162.078,-8.789,-32.715,-44.434,-15.625,0.000
1709374162.082,-17.090,-37.109,-42.969,-22.461,0.000
1709374162.086,-50.781,-34.668,-36.133,-48.340,0.000
1709374162.090,-57.129,-34.180,-31.738,-54.199,0.000
1709374162.094,-36.621,-35.645,-32.227,-33.691,0.000
1709374162.098,-7.324,-40.039,-34.180,-3.418,0.000
1709374162.102,-4.395,-35.156,-34.180,-4.883,0.000
1709374162.105,-38.086,-31.250,-31.738,-32.715,0.000
1709374162.109,-56.641,-35.645,-39.062,-48.340,0.000
1709374162.113,-44.434,-34.668,-40.039,-44.922,0.000
1709374162.117,-14.648,-35.645,-35.645,-19.043,0.000
1709374162.121,-12.695,-42.480,-39.062,-11.230,0.000
1709374162.125,-53.711,-36.133,-34.668,-41.992,0.000
1709374162.129,-75.195,-35.156,-32.227,-54.199,0.000
1709374162.133,-64.453,-44.434,-31.738,-47.363,0.000
1709374162.137,-36.133,-44.434,-33.203,-21.973,0.000
1709374162.141,-24.902,-44.922,-41.016,-5.371,0.000
1709374162.144,-66.406,-44.922,-38.574,-44.434,0.000
1709374162.148,-81.055,-44.922,-33.691,-66.895,0.000
1709374162.152,-62.012,-47.852,-35.156,-50.293,0.000
1709374162.156,-34.668,-45.898,-34.668,-29.297,0.000
1709374162.160,0.000,-45.410,-35.645,-13.672,0.000
1709374162.164,0.000,-43.457,-31.738,-36.621,0.000
1709374162.168,0.000,-40.039,-30.273,-62.500,0.000
1709374162.172,0.000,-46.387,-38.086,-64.941,0.000
1709374162.175,0.000,-48.340,-41.504,-41.016,0.000
1709374162.179,0.000,-40.039,-36.133,-20.996,0.000
1709374162.183,0.000,-36.621,-33.203,-37.598,0.000
1709374162.187,0.000,-37.109,-40.039,-55.664,0.000
1709374162.191,0.000,-32.227,-39.551,-51.758,0.000
1709374162.195,0.000,-31.738,-39.062,-29.785,0.000
1709374162.199,0.000,-33.203,-37.598,-4.883,0.000
1709374162.203,0.000,-28.809,-34.180,-20.508,0.000
1709374162.206,-51.758,-30.273,-34.668,-44.922,0.000
1709374162.210,-53.711,-30.762,-36.133,-41.992,0.000
1709374162.214,-21.484,-29.785,-37.109,-19.043,0.000
1709374162.218,12.695,-31.250,-38.574,9.766,0.000
1709374162.222,-7.324,-30.762,-38.574,-11.230,0.000
1709374162.226,-45.410,-31.738,-32.227,-35.645,0.000
1709374162.230,-48.340,-35.156,-33.691,-21.484,0.000
1709374162.234,-26.855,-38.086,-38.086,-17.090,0.000
1709374162.238,3.418,-38.574,-36.621,-3.418,0.000
1709374162.242,-17.090,-37.598,-44.434,-7.324,0.000
1709374162.246,-63.965,-37.598,-51.270,-45.410,0.000
1709374162.249,-76.660,-41.504,-45.898,-63.477,0.000
1709374162.254,-55.176,-44.434,-44.922,-54.688,0.000
1709374162.257,-20.508,-41.016,-42.480,-20.020,0.000
1709374162.261,-26.855,-42.480,-35.156,-18.066,0.000
1709374162.265,-61.523,-43.945,-35.156,-50.293,0.000
1709374162.269,-68.848,-40.039,-31.250,-52.734,0.000
1709374162.273,-51.270,-39.551,-29.297,-38.574,0.000
1709374162.277,-14.648,-41.504,-36.133,-17.090,0.000
1709374162.281,-9.766,-45.410,-32.715,-15.625,0.000
1709374162.285,-46.875,-44.434,-32.715,-50.781,0.000
1709374162.289,-53.711,-35.156,-36.133,-57.129,0.000
1709374162.293,-40.527,-38.086,-39.062,-49.316,0.000
1709374162.297,-8.301,-39.062,-41.016,-28.809,0.000
1709374162.301,7.324,-31.250,-37.109,-10.742,0.000
1709374162.304,-26.855,-30.762,-34.180,-36.621,0.000
1709374162.308,-46.875,-32.715,-34.668,-50.781,0.000
1709374162.312,-41.016,-34.668,-32.715,-41.016,0.000
1709374162.316,-8.301,-33.691,-26.855,-15.137,0.000
1709374162.320,7.812,-34.180,-31.250,-4.395,0.000
1709374162.324,-27.344,-34.668,-36.621,-32.715,0.000
1709374162.328,-48.340,-35.645,-32.227,-48.828,0.000
1709374162.332,-45.898,-36.621,-27.832,-41.504,0.000
1709374162.336,-19.043,-33.691,-28.809,-11.230,0.000
1709374162.340,6.836,-35.156,-30.762,6.836,0.000
1709374162.344,-20.996,-38.086,-36.133,-27.344,0.000
1709374162.348,-50.293,-37.598,-38.086,-52.734,0.000
1709374162.351,-50.293,-34.668,-37.109,-40.527,0.000
1709374162.355,-23.926,-32.715,-38.574,-18.066,0.000
1709374162.359,4.395,-31.738,-36.133,-5.371,0.000
1709374162.363,-21.973,-29.785,-32.227,-26.855,0.000
1709374162.367,-56.152,-32.227,-35.156,-49.316,0.000
1709374162.371,-54.199,-35.645,-35.156,-49.805,0.000
1709374162.375,-26.855,-30.762,-34.668,-37.598,0.000
1709374162.379,0.977,-30.762,-39.062,-12.695,0.000
1709374162.383,-24.414,-31.738,-34.180,-23.926,0.000
1709374162.387,-61.523,-31.250,-39.062,-57.617,0.000
1709374162.390,-56.641,-29.785,-42.480,-57.129,0.000
1709374162.394,-31.250,-32.227,-38.086,-36.621,0.000
1709374162.398,-0.977,-38.086,-40.039,-5.371,0.000
1709374162.402,-15.137,-37.109,-40.039,-15.625,0.000
1709374162.406,-53.711,-39.551,-39.551,-45.410,0.000
1709374162.410,-58.105,-38.574,-41.992,-41.504,0.000
1709374162.414,-41.504,-34.180,-42.480,-29.785,0.000
1709374162.418,-12.695,-39.062,-41.504,-9.766,0.000
1709374162.422,-13.672,-38.574,-40.527,-8.301,0.000
1709374162.426,-50.781,-38.086,-37.598,-30.273,0.000
1709374162.430,-66.406,-39.062,-40.527,-39.551,0.000
1709374162.433,-40.039,-41.504,-41.504,-30.273,0.000
1709374162.437,-4.883,-47.852,-39.062,-3.418,0.000
1709374162.442,-3.418,-48.340,-41.992,4.395,0.000
1709374162.446,-41.016,-43.945,-36.621,-21.484,0.000
1709374162.449,-63.965,-43.457,-38.574,-34.668,0.000
1709374162.453,-51.758,-43.945,-43.945,-31.250,0.000
1709374162.457,-16.602,-38.086,-42.480,-10.254,0.000
1709374162.461,-1.953,-36.133,-46.387,-0.977,0.000
1709374162.465,-30.762,-38.086,-49.316,-27.832,0.000
1709374162.469,-46.875,-37.598,-45.898,-30.762,0.000
1709374162.473,-40.039,-34.180,-39.551,-20.508,0.000
1709374162.477,-6.348,-39.062,-41.992,-15.137,0.000
1709374162.481,18.555,-40.039,-45.410,-1.465,0.000
1709374162.485,-14.648,-33.203,-45.410,-25.879,0.000
1709374162.488,-40.039,-34.180,-48.340,-54.199,0.000
1709374162.492,-27.832,-36.133,-49.316,-49.316,0.000
1709374162.496,1.953,-34.180,-48.828,-33.203,0.000
1709374162.500,18.066,-34.180,-47.852,-25.391,0.000
1709374162.504,-17.090,-36.133,-41.504,-45.410,0.000
1709374162.508,-53.223,-31.250,-40.039,-61.035,0.000
1709374162.512,-53.711,-28.320,-40.527,-52.246,0.000
1709374162.516,-27.832,-32.227,-40.527,-23.926,0.000
1709374162.520,-1.953,-32.715,-39.062,-11.719,0.000
1709374162.524,-26.855,-33.691,-33.691,-33.203,0.000
1709374162.527,-64.453,-37.109,-36.133,-58.105,0.000
1709374162.531,-62.012,-39.551,-43.457,-65.918,0.000
1709374162.535,-30.762,-43.945,-43.457,-48.828,0.000
1709374162.539,-5.371,-46.387,-43.945,-20.020,0.000
1709374162.543,-33.691,-43.457,-44.434,-29.785,0.000
1709374162.547,-68.359,-38.574,-40.527,-52.734,0.000
1709374162.551,-68.359,-40.039,-41.504,-58.594,0.000
1709374162.555,-42.480,-39.062,-42.480,-45.898,0.000
1709374162.558,-14.160,-38.574,-42.480,-13.672,0.000
1709374162.562,-35.645,-39.551,-37.109,-22.461,0.000
1709374162.566,-69.824,-37.598,-33.203,-57.129,0.000
1709374162.570,-65.430,-40.039,-36.133,-60.547,0.000
1709374162.574,-48.828,-42.480,-38.086,-41.504,0.000
1709374162.578,-21.484,-42.480,-41.016,-14.160,0.000
1709374162.582,-25.391,-42.480,-40.527,-26.855,0.000
1709374162.586,-58.105,-41.016,-38.086,-52.734,0.000
1709374162.589,-59.570,-39.062,-39.062,-48.340,0.000
1709374162.593,-36.621,-37.598,-40.527,-41.504,0.000
1709374162.597,-1.465,-34.180,-38.574,-21.484,0.000
1709374162.601,-1.465,-34.668,-33.691,-6.836,0.000
1709374162.605,-45.898,-37.109,-34.668,-30.273,0.000
1709374162.609,-62.988,-37.109,-38.086,-51.758,0.000
1709374162.613,-45.410,-33.203,-39.551,-47.363,0.000
1709374162.617,-17.090,-38.086,-42.480,-26.855,0.000
1709374162.621,-15.137,-35.156,-44.434,-16.602,0.000
1709374162.625,-55.664,-26.367,-41.504,-48.340,0.000
1709374162.629,-74.707,-34.180,-44.922,-70.801,0.000
1709374162.633,-56.152,-35.645,-46.875,-56.641,0.000
1709374162.637,-29.297,-33.691,-46.875,-28.809,0.000
1709374162.640,-25.391,-36.133,-47.363,-24.902,0.000
1709374162.644,-52.734,-35.645,-41.992,-58.105,0.000
1709374162.648,-60.547,-32.227,-38.086,-70.312,0.000
1709374162.652,-46.875,-29.785,-39.551,-65.918,0.000
1709374162.656,-17.578,-33.691,-41.992,-47.363,0.000
1709374162.660,4.395,-35.156,-41.504,-31.738,0.000
1709374162.664,-24.902,-29.297,-39.062,-50.781,0.000
1709374162.668,-57.617,-30.273,-36.621,-69.824,0.000
1709374162.672,-51.758,-26.855,-33.691,-62.012,0.000
1709374162.676,-17.578,-28.320,-32.227,-36.621,0.000
1709374162.680,5.859,-33.203,-34.180,-17.090,0.000
1709374162.684,-27.344,-30.762,-32.715,-40.527,0.000
1709374162.687,-56.152,-28.809,-32.715,-64.453,0.000
1709374162.691,-58.594,-33.203,-36.133,-63.477,0.000
1709374162.695,-36.621,-38.086,-40.039,-44.434,0.000
1709374162.699,-4.395,-35.156,-35.645,-16.602,0.000
1709374162.703,-34.668,-36.133,-34.180,-41.016,0.000
1709374162.707,-74.707,-40.527,-38.574,-63.965,0.000
1709374162.711,-69.336,-38.086,-32.715,-56.641,0.000
1709374162.715,-43.945,-37.109,-31.250,-55.176,0.000
1709374162.719,-8.789,-39.551,-35.156,-35.645,0.000
1709374162.723,-29.785,-37.109,-36.133,-42.480,0.000
1709374162.727,-63.965,-33.203,-33.203,-65.918,0.000
1709374162.731,-56.152,-33.691,-31.738,-65.430,0.000
1709374162.734,-37.109,-38.086,-37.109,-48.340,0.000
1709374162.738,-11.719,-42.969,-39.062,-19.531,0.000
1709374162.742,-24.414,-39.062,-35.645,-23.926,0.000
1709374162.746,-61.035,-36.133,-38.086,-55.176,0.000
1709374162.750,-57.617,-35.645,-34.668,-59.570,0.000
1709374162.754,-31.738,-34.180,-30.273,-36.621,0.000
1709374162.758,-2.441,-34.180,-33.203,-9.277,0.000
1709374162.762,-10.254,-39.551,-33.203,-19.043,0.000
1709374162.766,-46.387,-38.574,-30.273,-48.340,0.000
1709374162.770,-48.828,-39.062,-28.809,-55.176,0.000
1709374162.774,-36.621,-41.504,-31.250,-45.410,0.000
1709374162.777,-9.766,-38.086,-31.250,-14.648,0.000
1709374162.781,-8.789,-38.086,-27.344,-11.719,0.000
1709374162.785,-49.805,-36.621,-26.855,-41.992,0.000
1709374162.789,-60.059,-35.645,-25.391,-43.457,0.000
1709374162.793,-47.852,-42.480,-29.297,-40.039,0.000
1709374162.797,-17.090,-40.039,-36.621,-15.137,0.000
1709374162.801,-4.883,-35.645,-34.180,3.418,0.000
1709374162.805,-46.387,-37.598,-38.086,-33.691,0.000
1709374162.809,-66.406,-34.180,-39.551,-49.805,0.000
1709374162.813,-55.176,-31.250,-32.227,-40.527,0.000
1709374162.816,-17.578,-30.273,-34.180,-19.043,0.000
1709374162.820,-3.418,-31.738,-37.598,-10.254,0.000
1709374162.824,-48.828,-33.691,-35.645,-44.922,0.000
1709374162.828,-67.871,-33.203,-33.203,-60.059,0.000
1709374162.832,-51.270,-33.691,-29.785,-48.828,0.000
1709374162.836,-25.391,-38.086,-31.738,-22.949,0.000
1709374162.840,-5.859,-40.039,-35.156,-6.836,0.000
1709374162.844,-33.691,-33.691,-33.203,-23.438,0.000
1709374162.848,-67.383,-31.738,-28.809,-30.273,0.000
1709374162.852,-55.664,-32.227,-27.344,-31.738,0.000
1709374162.855,-22.949,-36.133,-33.691,-20.020,0.000
1709374162.859,1.953,-40.527,-37.109,-3.906,0.000
1709374162.863,-21.484,-40.039,-30.273,-19.531,0.000
1709374162.867,-52.734,-36.621,-28.809,-42.480,0.000
1709374162.871,-50.781,-34.180,-26.855,-42.969,0.000
1709374162.875,-26.367,-38.086,-30.762,-29.297,0.000
1709374162.879,6.348,-39.551,-38.086,-7.812,0.000
1709374162.883,-20.996,-37.598,-41.016,-22.949,0.000
1709374162.887,-55.176,-31.250,-34.180,-44.434,0.000
1709374162.890,-50.293,-33.691,-34.668,-39.062,0.000
1709374162.894,-34.180,-40.527,-48.340,-37.109,0.000
1709374162.898,2.441,-38.086,-44.434,-11.719,0.000
1709374162.902,-17.090,-41.016,-41.016,-19.531,0.000
1709374162.906,-62.012,-41.504,-41.992,-50.293,0.000
1709374162.910,-63.965,-38.574,-40.527,-51.758,0.000
1709374162.914,-42.969,-41.504,-34.668,-41.992,0.000
1709374162.918,-6.348,-39.062,-29.785,-11.230,0.000
1709374162.922,-15.137,-39.062,-30.762,-12.695,0.000
1709374162.925,-56.641,-41.992,-35.645,-52.246,0.000
1709374162.929,-64.453,-41.504,-39.062,-58.594,0.000
1709374162.933,-50.781,-40.527,-39.551,-40.039,0.000
1709374162.937,-14.160,-39.062,-39.062,-13.672,0.000
1709374162.941,-9.766,-34.668,-40.527,-16.113,0.000
1709374162.945,-46.387,-27.344,-34.180,-41.992,0.000
1709374162.949,-60.059,-28.320,-37.109,-54.688,0.000
1709374162.953,-57.617,-37.109,-44.434,-46.387,0.000
1709374162.956,-28.320,-45.898,-41.504,-22.461,0.000
1709374162.960,-18.555,-41.992,-46.387,-20.508,0.000
1709374162.964,-58.105,-34.668,-51.270,-51.270,0.000
1709374162.968,-74.707,-32.715,-43.945,-59.570,0.000
1709374162.972,-52.734,-31.738,-40.527,-44.922,0.000
1709374162.976,-10.742,-28.809,-38.574,-19.043,0.000
1709374162.980,1.953,-24.902,-33.691,0.977,0.000
1709374162.984,-40.527,-27.344,-38.086,-31.738,0.000
1709374162.988,-60.547,-32.227,-43.457,-58.105,0.000
1709374162.992,-47.852,-33.691,-36.621,-48.340,0.000
1709374162.996,-20.996,-36.621,-36.133,-22.949,0.000
1709374162.999,-0.977,-37.109,-41.016,-10.254,0.000
1709374163.004,-36.621,-37.598,-39.551,-35.156,0.000
1709374163.007,-62.500,-39.551,-36.133,-55.664,0.000
1709374163.011,-51.270,-38.574,-38.086,-58.594,0.000
1709374163.015,-22.461,-36.621,-43.945,-37.109,0.000
1709374163.019,2.930,-39.062,-44.434,-15.137,0.000
1709374163.023,-27.832,-41.016,-41.992,-34.668,0.000
1709374163.027,-62.012,-46.387,-45.898,-61.035,0.000
1709374163.031,-61.035,-49.316,-44.922,-60.547,0.000
1709374163.035,-33.203,-45.898,-36.621,-34.668,0.000
1709374163.039,-5.371,-46.387,-36.133,-10.742,0.000
1709374163.043,-38.086,-44.922,-38.086,-34.668,0.000
1709374163.047,-73.730,-46.387,-35.156,-64.941,0.000
1709374163.051,-64.941,-49.316,-34.180,-57.617,0.000
1709374163.054,-35.156,-42.969,-35.645,-35.645,0.000
1709374163.058,-2.441,-41.504,-37.598,-16.602,0.000
1709374163.062,-17.090,-40.527,-34.668,-25.879,0.000
1709374163.066,-54.199,-37.598,-32.227,-48.340,0.000
1709374163.070,-56.152,-41.016,-34.180,-47.852,0.000
1709374163.074,-40.527,-38.086,-38.086,-32.715,0.000
1709374163.078,-14.160,-33.203,-38.574,-11.719,0.000
1709374163.082,-25.391,-34.668,-33.203,-9.766,0.000
1709374163.086,-63.965,-37.598,-31.250,-27.344,0.000
1709374163.090,-71.289,-41.504,-36.133,-42.969,0.000
1709374163.094,-48.828,-44.434,-37.598,-40.039,0.000
1709374163.098,-7.324,-41.504,-32.715,-14.648,0.000
1709374163.101,-16.602,-36.133,-28.809,-14.160,0.000
1709374163.105,-57.129,-34.180,-25.391,-40.527,0.000
1709374163.109,-57.617,-36.133,-29.297,-50.781,0.000
1709374163.113,-38.086,-35.645,-32.715,-46.875,0.000
1709374163.117,-9.766,-38.086,-32.715,-24.902,0.000
1709374163.121,-9.277,-40.039,-35.645,-24.414,0.000
1709374163.125,-49.316,-38.086,-34.668,-55.176,0.000
1709374163.129,-67.383,-38.086,-34.180,-55.176,0.000
1709374163.133,-55.664,-39.062,-32.715,-48.340,0.000
1709374163.137,-25.391,-41.504,-33.203,-35.645,0.000
1709374163.140,-15.625,-41.504,-40.039,-24.902,0.000
1709374163.144,-44.434,-31.738,-42.480,-53.223,0.000
1709374163.148,-60.547,-27.832,-44.434,-72.266,0.000
1709374163.152,-48.828,-36.133,-43.457,-64.941,0.000
1709374163.156,-12.695,-41.504,-37.109,-35.156,0.000
1709374163.160,3.418,-39.062,-36.133,-17.090,0.000
1709374163.164,-32.715,-30.762,-37.598,-44.434,0.000
1709374163.168,-56.152,-29.785,-38.086,-60.059,0.000
1709374163.172,-51.758,-32.715,-43.457,-44.922,0.000
1709374163.176,-19.531,-32.227,-44.922,-19.043,0.000
1709374163.180,8.301,-31.250,-40.039,-2.441,0.000
1709374163.183,-25.879,-31.738,-35.645,-24.902,0.000
1709374163.187,-59.082,-33.203,-34.180,-49.316,0.000
1709374163.191,-55.176,-38.574,-34.180,-49.316,0.000
1709374163.195,-30.273,-42.969,-35.645,-26.855,0.000
1709374163.199,2.930,-44.434,-36.621,-5.859,0.000
1709374163.203,-19.043,-40.527,-33.203,-31.738,0.000
1709374163.207,-55.664,-35.156,-33.691,-55.664,0.000
1709374163.211,-56.641,-30.762,-32.715,-53.223,0.000
1709374163.215,-30.762,-30.273,-31.738,-37.109,0.000
1709374163.219,3.418,-31.250,-30.273,1.465,0.000
1709374163.222,-20.020,-33.203,-33.203,-14.648,0.000
1709374163.226,-59.570,-36.133,-39.062,-59.082,0.000
1709374163.230,-53.223,-30.762,-35.156,-54.199,0.000
1709374163.234,-32.227,-32.227,-36.621,-38.574,0.000
1709374163.238,-8.301,-42.480,-45.898,-19.531,0.000
1709374163.242,-23.438,-40.527,-46.387,-31.738,0.000
1709374163.246,-62.500,-38.086,-41.016,-66.895,0.000
1709374163.250,-62.012,-39.062,-41.504,-69.824,0.000
1709374163.254,-39.062,-39.551,-41.992,-55.176,0.000
1709374163.257,-10.254,-40.527,-38.086,-27.832,0.000
1709374163.261,-21.484,-39.062,-33.203,-24.902,0.000
1709374163.265,-72.266,-40.527,-37.598,-53.223,0.000
1709374163.269,-88.379,-43.945,-40.527,-65.430,0.000
1709374163.273,-62.012,-44.434,-33.691,-50.293,0.000
1709374163.277,-27.344,-43.457,-35.645,-20.020,0.000
1709374163.281,-28.809,-40.039,-33.203,-21.973,0.000
1709374163.285,-66.406,-38.086,-34.180,-56.641,0.000
1709374163.289,-77.148,-37.598,-33.691,-58.594,0.000
1709374163.292,-61.035,-40.039,-34.668,-42.480,0.000
1709374163.296,-27.344,-42.480,-34.668,-13.672,0.000
1709374163.300,-18.066,-35.156,-31.738,-3.418,0.000
1709374163.304,-53.223,-30.273,-32.227,-27.832,0.000
1709374163.308,-65.430,-33.691,-30.762,-29.297,0.000
1709374163.312,-53.711,-38.574,-36.621,-27.344,0.000
1709374163.316,-21.484,-38.574,-37.598,-15.137,0.000
1709374163.320,2.930,-36.621,-36.133,0.488,0.000
1709374163.324,-31.738,-36.621,-39.062,-21.973,0.000
1709374163.328,-54.199,-37.598,-37.598,-36.621,0.000
1709374163.331,-39.551,-38.086,-35.156,-32.715,0.000
1709374163.335,-10.742,-35.156,-38.086,-18.555,0.000
1709374163.339,7.812,-33.203,-39.551,-6.348,0.000
1709374163.343,-25.391,-36.133,-40.039,-29.297,0.000
1709374163.347,-53.223,-34.180,-43.945,-53.711,0.000
1709374163.351,-52.734,-33.203,-43.945,-53.711,0.000
1709374163.355,-25.879,-31.250,-43.457,-33.691,0.000
1709374163.359,3.906,-27.832,-45.410,-13.672,0.000
1709374163.362,-22.461,-30.273,-45.410,-31.738,0.000
1709374163.366,-51.270,-29.297,-43.945,-57.129,0.000
1709374163.370,-43.457,-25.879,-40.039,-49.805,0.000
1709374163.374,-18.555,-22.461,-41.992,-35.156,0.000
1709374163.378,8.789,-18.555,-45.898,-12.695,0.000
1709374163.382,-18.066,-25.879,-45.898,-25.391,0.000
1709374163.386,-57.129,-32.227,-46.875,-53.711,0.000
1709374163.390,-55.176,-25.391,-49.805,-56.152,0.000
1709374163.394,-27.344,-21.484,-44.922,-37.109,0.000
1709374163.398,7.324,-22.461,-36.133,-9.766,0.000
1709374163.402,-8.301,-25.879,-40.527,-29.297,0.000
1709374163.406,-42.969,-28.809,-42.969,-62.988,0.000
1709374163.410,-43.457,-32.227,-33.691,-63.477,0.000
1709374163.413,-20.020,-31.738,-37.109,-39.062,0.000
1709374163.417,8.301,-34.180,-44.922,-13.672,0.000
1709374163.421,-4.395,-35.645,-34.668,-17.578,0.000
1709374163.425,-45.898,-33.203,-30.273,-41.992,0.000
1709374163.429,-61.035,-36.133,-34.180,-48.340,0.000
1709374163.433,-41.992,-37.109,-33.203,-32.715,0.000
1709374163.437,-3.906,-34.668,-28.809,-5.859,0.000
1709374163.441,-7.324,-38.574,-25.879,-9.766,0.000
1709374163.445,-50.781,-42.969,-29.785,-42.969,0.000
1709374163.449,-61.035,-39.062,-28.809,-42.969,0.000
1709374163.453,-44.434,-40.039,-27.832,-27.344,0.000
1709374163.457,-9.277,-37.598,-28.809,-2.441,0.000
1709374163.461,1.953,-35.156,-26.367,11.719,0.000
1709374163.464,-35.645,-37.598,-29.785,-26.367,0.000
1709374163.468,-57.129,-36.621,-32.227,-46.875,0.000
1709374163.472,-48.828,-42.969,-33.691,-36.621,0.000
1709374163.476,-13.672,-42.480,-35.645,-10.254,0.000
1709374163.480,-3.418,-41.504,-33.691,-6.836,0.000
1709374163.484,-38.086,-40.039,-31.738,-37.598,0.000
1709374163.488,-54.688,-35.156,-33.203,-45.410,0.000
1709374163.492,-48.828,-35.645,-33.691,-40.039,0.000
1709374163.496,-17.578,-32.227,-27.832,-16.602,0.000
1709374163.500,1.465,-31.250,-29.297,-6.836,0.000
1709374163.504,-36.133,-30.762,-31.250,-34.668,0.000
1709374163.507,-53.223,-29.297,-27.832,-40.527,0.000
1709374163.511,-50.293,-35.645,-31.738,-43.945,0.000
1709374163.515,-38.574,-39.551,-39.551,-41.504,0.000
1709374163.519,-11.230,-38.086,-42.969,-26.367,0.000
1709374163.523,-40.527,-36.133,-41.504,-51.758,0.000
1709374163.527,-71.777,-40.039,-38.086,-73.242,0.000
1709374163.531,-66.406,-41.016,-38.086,-63.477,0.000
1709374163.535,-39.551,-40.527,-37.598,-45.410,0.000
1709374163.539,-1.953,-40.527,-38.086,-23.926,0.000
1709374163.543,-31.250,-42.969,-41.992,-47.363,0.000
1709374163.547,-72.266,-43.945,-38.574,-67.383,0.000
1709374163.550,-65.918,-39.062,-37.598,-54.688,0.000
1709374163.554,-41.992,-41.504,-41.992,-45.898,0.000
1709374163.558,-7.324,-42.480,-39.062,-24.902,0.000
1709374163.562,-20.508,-37.598,-38.086,-34.180,0.000
1709374163.566,-58.105,-41.016,-38.574,-56.152,0.000
1709374163.570,-55.176,-37.598,-33.691,-51.758,0.000
1709374163.574,-29.297,-33.691,-34.668,-43.457,0.000
1709374163.578,0.488,-36.133,-41.016,-24.902,0.000
1709374163.582,-9.277,-35.645,-39.551,-26.855,0.000
1709374163.586,-47.363,-38.086,-31.250,-49.805,0.000
1709374163.589,-56.641,-37.109,-33.203,-55.176,0.000
1709374163.593,-36.621,-33.203,-32.715,-26.855,0.000
1709374163.597,-7.324,-39.551,-37.109,1.465,0.000
1709374163.601,-20.508,-44.922,-42.969,-28.320,0.000
1709374163.605,-58.594,-43.945,-39.551,-64.941,0.000
1709374163.609,-63.477,-45.410,-39.062,-66.406,0.000
1709374163.613,-46.387,-46.387,-41.016,-56.152,0.000
1709374163.617,-14.160,-44.922,-43.457,-30.273,0.000
1709374163.621,-18.555,-47.363,-40.039,-30.762,0.000
1709374163.624,-61.523,-44.922,-35.156,-59.570,0.000
1709374163.628,-70.312,-40.527,-32.715,-63.477,0.000
1709374163.632,-46.387,-40.527,-32.715,-53.711,0.000
1709374163.636,-11.230,-43.945,-30.273,-23.438,0.000
1709374163.640,-14.160,-45.898,-35.156,-8.789,0.000
1709374163.644,-58.594,-40.527,-41.016,-47.363,0.000
1709374163.648,-69.336,-39.551,-37.598,-59.570,0.000
1709374163.652,-50.293,-38.574,-33.691,-40.527,0.000
1709374163.656,-16.113,-39.551,-35.156,-17.090,0.000
1709374163.659,0.000,-42.969,-31.738,-0.488,0.000
1709374163.663,0.000,-40.039,-31.250,-29.785,0.000
1709374163.667,0.000,-42.480,-33.691,-56.641,0.000
1709374163.671,0.000,-45.898,-39.062,-56.152,0.000
1709374163.675,0.000,-40.039,-43.457,-34.180,0.000
1709374163.679,0.000,-41.504,-45.410,-19.531,0.000
1709374163.683,0.000,-43.457,-40.039,-40.527,0.000
1709374163.687,0.000,-37.598,-40.527,-54.199,0.000
1709374163.691,0.000,-37.109,-45.410,-58.105,0.000
1709374163.695,0.000,-37.109,-42.969,-40.039,0.000
1709374163.698,0.000,-37.109,-48.340,-14.648,0.000
1709374163.702,0.000,-35.156,-48.828,-35.156,0.000
1709374163.706,-69.824,-35.156,-47.363,-61.035,0.000
1709374163.710,-66.406,-34.180,-47.363,-57.617,0.000
1709374163.714,-37.598,-33.203,-44.922,-35.645,0.000
1709374163.718,-9.766,-32.715,-39.062,-13.672,0.000
1709374163.722,-32.715,-34.668,-34.180,-37.109,0.000
1709374163.726,-57.617,-32.227,-37.598,-58.105,0.000
1709374163.729,-60.547,-34.180,-40.527,-51.758,0.000
1709374163.733,-42.480,-37.109,-40.527,-37.598,0.000
1709374163.737,-5.859,-37.598,-43.457,-12.207,0.000
1709374163.741,-21.484,-31.250,-35.645,-21.484,0.000
1709374163.745,-65.918,-25.879,-36.133,-53.711,0.000
1709374163.749,-69.824,-33.203,-40.039,-63.477,0.000
1709374163.753,-41.504,-36.621,-36.621,-42.480,0.000
1709374163.757,-2.441,-34.668,-39.551,-10.254,0.000
1709374163.761,-8.789,-31.738,-40.039,-15.137,0.000
1709374163.765,-54.688,-33.203,-37.598,-47.852,0.000
1709374163.769,-65.918,-33.203,-39.062,-54.688,0.000
1709374163.773,-48.340,-34.180,-39.551,-38.574,0.000
1709374163.777,-8.789,-34.180,-37.109,-11.230,0.000
1709374163.780,-4.395,-29.297,-37.598,-14.160,0.000
1709374163.784,-41.504,-26.367,-38.086,-42.480,0.000
1709374163.788,-52.734,-31.250,-40.527,-43.945,0.000
1709374163.792,-38.086,-34.180,-39.062,-31.250,0.000
1709374163.796,-0.977,-35.156,-32.715,-8.789,0.000
1709374163.800,7.324,-34.180,-31.738,-3.906,0.000
1709374163.804,-33.691,-32.715,-37.598,-39.062,0.000
1709374163.808,-50.293,-31.250,-37.598,-47.363,0.000
1709374163.812,-37.109,-24.414,-34.180,-34.180,0.000
1709374163.816,-5.859,-24.414,-33.691,-10.742,0.000
1709374163.820,6.836,-26.367,-32.227,2.441,0.000
1709374163.824,-31.738,-27.344,-38.086,-29.297,0.000
1709374163.828,-54.199,-29.297,-41.992,-47.363,0.000
1709374163.831,-41.992,-33.203,-38.574,-47.363,0.000
1709374163.835,-8.301,-40.527,-40.039,-22.949,0.000
1709374163.839,7.324,-39.062,-40.039,-4.883,0.000
1709374163.843,-41.504,-38.574,-40.039,-38.574,0.000
1709374163.847,-69.336,-41.504,-36.621,-59.570,0.000
1709374163.851,-53.223,-42.969,-32.715,-51.758,0.000
1709374163.855,-18.066,-43.457,-35.645,-33.691,0.000
1709374163.859,7.324,-44.434,-38.574,-13.184,0.000
1709374163.863,-20.020,-38.574,-34.668,-28.809,0.000
1709374163.867,-39.062,-23.926,-32.715,-40.039,0.000
1709374163.871,-46.875,-28.809,-38.086,-49.805,0.000
1709374163.874,-35.645,-36.621,-39.551,-51.270,0.000
1709374163.878,-5.371,-28.320,-34.180,-7.324,0.000
1709374163.882,-33.691,-33.203,-32.227,-18.555,0.000
1709374163.886,-69.336,-36.621,-34.668,-59.570,0.000
1709374163.890,-63.965,-33.691,-31.738,-54.688,0.000
1709374163.894,-41.504,-39.551,-27.832,-34.180,0.000
1709374163.898,-10.742,-43.945,-29.297,-7.324,0.000
1709374163.902,-27.344,-43.945,-35.156,-14.160,0.000
1709374163.906,-55.664,-41.016,-30.762,-32.227,0.000
1709374163.910,-53.711,-35.156,-27.344,-31.250,0.000
1709374163.914,-35.156,-36.621,-39.551,-29.785,0.000
1709374163.918,-2.930,-41.504,-42.969,-14.160,0.000
1709374163.921,-7.812,-37.598,-39.551,-16.602,0.000
1709374163.925,-50.781,-31.738,-39.551,-45.410,0.000
1709374163.929,-52.734,-30.273,-37.598,-50.781,0.000
1709374163.933,-26.367,-30.273,-39.062,-37.109,0.000
1709374163.937,5.859,-27.832,-34.180,-10.742,0.000
1709374163.941,11.719,-25.391,-28.320,-8.789,0.000
1709374163.945,-32.227,-28.320,-36.133,-43.945,0.000
1709374163.949,-45.410,-32.227,-34.668,-47.852,0.000
1709374163.953,-27.832,-31.250,-34.180,-35.156,0.000
1709374163.957,0.977,-31.738,-42.480,-16.602,0.000
1709374163.960,-0.488,-34.180,-41.504,-8.789,0.000
1709374163.964,-44.922,-37.109,-40.039,-43.945,0.000
1709374163.968,-59.570,-33.691,-36.621,-48.828,0.000
1709374163.972,-46.387,-34.180,-37.598,-38.086,0.000
1709374163.976,-14.648,-39.062,-39.062,-31.738,0.000
1709374163.980,-5.859,-35.156,-28.320,-18.066,0.000
1709374163.984,-42.480,-29.785,-22.949,-45.410,0.000
1709374163.988,-62.012,-34.668,-30.762,-63.477,0.000
1709374163.992,-63.965,-41.992,-38.574,-52.246,0.000
1709374163.995,-38.574,-40.527,-38.574,-22.949,0.000
1709374163.999,-19.043,-40.527,-34.668,-5.371,0.000
1709374164.003,-48.340,-40.527,-39.062,-36.133,0.000
1709374164.007,-63.965,-41.992,-40.527,-58.105,0.000
1709374164.011,-52.734,-44.922,-34.180,-52.246,0.000
1709374164.015,-15.137,-41.504,-40.527,-22.949,0.000
1709374164.019,7.812,-40.039,-49.805,-8.301,0.000
1709374164.023,-27.344,-36.621,-46.875,-34.180,0.000
1709374164.027,-63.965,-36.133,-44.434,-54.199,0.000
1709374164.031,-57.617,-38.574,-46.387,-47.363,0.000
1709374164.034,-27.832,-43.457,-43.945,-31.738,0.000
1709374164.038,-5.371,-44.922,-40.039,-15.137,0.000
1709374164.042,-26.855,-38.574,-39.551,-31.738,0.000
1709374164.046,-56.641,-38.086,-38.086,-51.758,0.000
1709374164.050,-49.805,-37.598,-43.457,-48.828,0.000
1709374164.054,-26.855,-41.504,-46.387,-34.180,0.000
1709374164.058,-7.324,-41.016,-41.992,-3.906,0.000
1709374164.062,-31.250,-35.156,-40.527,-15.625,0.000
1709374164.066,-63.477,-33.691,-38.086,-46.387,0.000
1709374164.069,-58.105,-32.227,-33.691,-44.922,0.000
1709374164.073,-37.109,-35.156,-32.715,-29.785,0.000
1709374164.077,-8.301,-36.621,-35.645,-4.395,0.000
1709374164.081,-21.973,-36.621,-39.551,-19.531,0.000
1709374164.085,-54.688,-42.480,-39.551,-47.363,0.000
1709374164.089,-63.965,-46.387,-38.086,-49.805,0.000
1709374164.093,-55.176,-36.621,-36.621,-35.645,0.000
1709374164.097,-19.043,-31.250,-36.621,-8.301,0.000
1709374164.100,-20.508,-37.598,-37.109,-11.230,0.000
1709374164.104,-53.223,-34.668,-35.156,-41.992,0.000
1709374164.108,-57.129,-34.668,-41.992,-59.570,0.000
1709374164.112,-44.434,-38.086,-45.898,-49.316,0.000
1709374164.116,-11.719,-34.668,-40.527,-19.043,0.000
1709374164.120,-8.789,-34.668,-40.527,-20.508,0.000
1709374164.124,-49.805,-37.109,-38.574,-57.617,0.000
1709374164.128,-63.965,-40.527,-39.062,-64.941,0.000
1709374164.132,-45.898,-37.109,-36.133,-49.316,0.000
1709374164.136,-13.184,-33.203,-30.273,-19.043,0.000
1709374164.140,-4.883,-34.180,-38.086,-12.695,0.000
1709374164.144,-49.316,-37.109,-42.969,-47.363,0.000
1709374164.148,-63.965,-36.133,-41.016,-58.105,0.000
1709374164.151,-44.434,-33.203,-41.016,-46.387,0.000
1709374164.155,-11.719,-30.762,-37.598,-18.555,0.000
1709374164.159,6.348,-32.227,-32.227,-4.883,0.000
1709374164.163,-33.691,-32.227,-27.344,-25.879,0.000
1709374164.167,-66.406,-30.762,-29.297,-41.992,0.000
1709374164.171,-54.688,-34.668,-35.156,-44.922,0.000
1709374164.175,-22.461,-33.691,-39.551,-26.855,0.000
1709374164.179,-0.977,-33.203,-41.992,-12.207,0.000
1709374164.183,-32.227,-39.062,-38.086,-37.109,0.000
1709374164.187,-61.035,-40.039,-38.086,-49.805,0.000
1709374164.191,-56.641,-38.086,-36.621,-39.551,0.000
1709374164.195,-28.809,-38.086,-36.621,-20.996,0.000
1709374164.199,-6.836,-32.227,-38.086,0.000,0.000
1709374164.202,-36.133,-30.273,-33.691,-25.391,0.000
1709374164.206,-56.152,-29.785,-34.180,-46.875,0.000
1709374164.210,-50.781,-28.809,-40.039,-38.574,0.000
1709374164.214,-20.020,-28.320,-41.504,-28.320,0.000
1709374164.218,16.602,-27.832,-42.969,-8.301,0.000
1709374164.222,-10.742,-28.320,-36.621,-15.137,0.000
1709374164.226,-50.293,-26.367,-36.133,-41.992,0.000
1709374164.230,-50.293,-24.414,-41.504,-48.828,0.000
1709374164.234,-26.367,-29.785,-39.062,-25.391,0.000
1709374164.238,3.418,-32.715,-39.062,0.000,0.000
1709374164.242,-19.043,-36.133,-41.016,-21.484,0.000
1709374164.246,-61.035,-41.016,-45.410,-54.199,0.000
1709374164.250,-67.871,-39.062,-46.387,-58.594,0.000
1709374164.253,-45.410,-43.945,-39.062,-39.062,0.000
1709374164.257,-9.766,-50.781,-36.133,-4.395,0.000
1709374164.261,-23.926,-43.945,-39.551,-16.602,0.000
1709374164.265,-61.523,-41.016,-41.504,-52.734,0.000
1709374164.269,-70.312,-43.457,-42.969,-56.641,0.000
1709374164.273,-51.758,-41.504,-45.898,-38.574,0.000
1709374164.277,-12.695,-38.574,-43.945,-11.719,0.000
1709374164.281,-9.277,-36.133,-39.551,-11.719,0.000
1709374164.285,-47.852,-39.551,-45.898,-42.969,0.000
1709374164.289,-59.570,-36.133,-42.969,-53.223,0.000
1709374164.293,-45.410,-34.668,-36.133,-38.574,0.000
1709374164.296,-13.184,-42.480,-42.480,-11.719,0.000
1709374164.300,-11.719,-41.992,-43.945,-7.324,0.000
1709374164.304,-56.152,-38.086,-42.969,-42.969,0.000
1709374164.308,-70.801,-39.062,-42.480,-59.570,0.000
1709374164.312,-53.223,-35.645,-35.645,-43.945,0.000
1709374164.316,-21.484,-38.086,-34.180,-22.461,0.000
1709374164.320,-8.789,-37.109,-35.645,-23.438,0.000
1709374164.324,-38.574,-29.785,-34.668,-51.270,0.000
1709374164.328,-55.664,-32.227,-35.156,-62.988,0.000
1709374164.332,-50.293,-36.621,-33.203,-49.805,0.000
1709374164.335,-20.020,-37.109,-36.621,-22.949,0.000
1709374164.339,-5.371,-36.133,-42.480,-14.648,0.000
1709374164.343,-36.133,-39.062,-34.668,-26.367,0.000
1709374164.347,-58.594,-36.133,-33.203,-33.203,0.000
1709374164.351,-55.176,-35.156,-35.645,-46.387,0.000
1709374164.355,-28.809,-40.527,-38.086,-33.203,0.000
1709374164.359,-7.324,-42.969,-37.598,-10.742,0.000
1709374164.363,-32.227,-45.410,-34.180,-28.320,0.000
1709374164.367,-58.594,-44.434,-34.180,-48.828,0.000
1709374164.370,-54.688,-43.457,-34.668,-45.898,0.000
1709374164.374,-24.414,-39.062,-36.133,-29.297,0.000
1709374164.378,10.254,-36.621,-36.621,-6.348,0.000
1709374164.382,-14.160,-34.668,-33.203,-21.973,0.000
1709374164.386,-48.828,-33.203,-34.668,-41.992,0.000
1709374164.390,-46.387,-34.668,-33.691,-33.691,0.000
1709374164.394,-28.320,-35.156,-39.062,-31.738,0.000
1709374164.398,0.488,-34.668,-41.504,-20.996,0.000
1709374164.402,-15.625,-34.180,-33.691,-33.691,0.000
1709374164.406,-48.828,-34.180,-38.086,-60.059,0.000
1709374164.409,-50.781,-37.109,-41.992,-58.594,0.000
1709374164.413,-28.809,-39.062,-43.457,-37.598,0.000
1709374164.417,5.859,-39.062,-41.992,-8.301,0.000
1709374164.421,-11.719,-40.527,-35.645,-19.043,0.000
1709374164.425,-54.199,-40.527,-38.086,-46.875,0.000
1709374164.429,-51.270,-37.109,-33.203,-49.316,0.000
1709374164.433,-32.227,-39.062,-35.645,-34.180,0.000
1709374164.437,-4.395,-43.457,-43.945,-14.160,0.000
1709374164.441,-8.789,-40.039,-38.574,-23.438,0.000
1709374164.444,-50.781,-36.621,-36.133,-48.340,0.000
1709374164.448,-59.570,-31.738,-39.062,-55.664,0.000
1709374164.452,-38.574,-31.250,-38.086,-46.875,0.000
1709374164.456,-9.277,-34.668,-36.133,-22.949,0.000
1709374164.460,-16.602,-36.133,-34.668,-18.555,0.000
1709374164.464,-51.270,-29.297,-32.715,-46.387,0.000
1709374164.468,-57.617,-26.855,-28.320,-52.246,0.000
1709374164.472,-44.922,-27.344,-30.273,-45.898,0.000
1709374164.475,-9.277,-28.320,-33.691,-26.367,0.000
1709374164.479,-0.488,-33.203,-32.227,-15.625,0.000
1709374164.483,-41.504,-31.738,-32.715,-45.898,0.000
1709374164.487,-58.105,-28.320,-33.203,-53.711,0.000
1709374164.491,-41.016,-37.109,-36.133,-41.992,0.000
1709374164.495,-6.836,-37.598,-38.574,-14.648,0.000
1709374164.499,2.930,-33.203,-39.551,0.488,0.000
1709374164.503,-32.715,-29.297,-34.180,-26.855,0.000
1709374164.507,-56.641,-28.809,-33.691,-41.016,0.000
1709374164.511,-57.617,-33.203,-35.156,-47.852,0.000
1709374164.515,-29.785,-33.691,-37.109,-33.203,0.000
1709374164.519,-5.859,-37.109,-41.504,-18.555,0.000
1709374164.523,-34.668,-35.156,-34.180,-41.992,0.000
1709374164.527,-58.105,-34.668,-31.738,-56.641,0.000
1709374164.530,-55.176,-39.062,-35.156,-53.223,0.000
1709374164.534,-27.832,-36.621,-32.715,-37.109,0.000
1709374164.538,2.441,-34.668,-30.273,-5.859,0.000
1709374164.542,-29.785,-40.039,-39.551,-30.273,0.000
1709374164.546,-68.848,-41.992,-43.457,-65.918,0.000
1709374164.550,-62.988,-39.551,-36.133,-59.082,0.000
1709374164.554,-30.273,-38.086,-37.598,-40.527,0.000
1709374164.558,-0.488,-37.598,-42.480,-15.137,0.000
1709374164.562,-28.320,-40.527,-41.016,-34.668,0.000
1709374164.566,-61.523,-39.062,-33.691,-56.641,0.000
1709374164.570,-61.035,-37.109,-37.109,-49.316,0.000
1709374164.574,-41.504,-35.156,-42.969,-37.598,0.000
1709374164.577,-3.418,-34.180,-42.480,-13.672,0.000
1709374164.581,-17.090,-31.250,-39.062,-22.461,0.000
1709374164.585,-55.664,-30.273,-37.598,-39.551,0.000
1709374164.589,-54.688,-32.715,-38.086,-40.527,0.000
1709374164.593,-34.668,-32.227,-34.668,-35.156,0.000
1709374164.597,-5.371,-40.039,-31.738,-14.160,0.000
1709374164.601,-9.277,-43.945,-24.902,-19.043,0.000
1709374164.605,-53.223,-41.016,-31.250,-51.270,0.000
1709374164.609,-63.965,-41.016,-36.133,-50.293,0.000
1709374164.613,-42.969,-42.480,-34.180,-35.156,0.000
1709374164.617,-5.859,-42.969,-33.203,-18.066,0.000
1709374164.620,-12.207,-43.945,-38.574,-20.020,0.000
1709374164.624,-55.664,-41.992,-41.016,-54.199,0.000
1709374164.628,-59.570,-37.109,-30.762,-46.875,0.000
1709374164.632,-45.898,-39.062,-33.203,-30.762,0.000
1709374164.636,-15.137,-41.992,-35.645,-19.043,0.000
1709374164.640,-4.883,-39.551,-26.367,-14.160,0.000
1709374164.644,-42.480,-35.645,-28.320,-47.363,0.000
1709374164.648,-63.965,-36.621,-33.203,-62.500,0.000
1709374164.652,-55.664,-39.551,-33.203,-51.270,0.000
1709374164.656,-22.949,-40.039,-34.180,-24.414,0.000
1709374164.660,-11.230,-37.109,-34.180,-16.113,0.000
1709374164.664,-48.340,-41.504,-34.668,-46.875,0.000
1709374164.667,-67.383,-44.434,-34.668,-61.523,0.000
1709374164.671,-52.246,-34.668,-36.133,-50.293,0.000
1709374164.675,-21.484,-29.785,-38.574,-21.973,0.000
1709374164.679,-4.883,-31.738,-37.598,-11.719,0.000
1709374164.683,-38.574,-32.715,-34.668,-39.062,0.000
1709374164.687,-62.988,-32.715,-36.133,-54.199,0.000
1709374164.691,-59.082,-31.250,-38.086,-53.711,0.000
1709374164.695,-33.203,-35.156,-41.992,-38.574,0.000
1709374164.699,-5.371,-36.621,-42.480,-16.113,0.000
1709374164.703,-32.715,-32.715,-38.574,-31.738,0.000
1709374164.706,-67.383,-32.715,-39.551,-60.059,0.000
1709374164.710,-65.430,-34.668,-36.621,-55.664,0.000
1709374164.714,-34.180,-31.250,-36.133,-34.668,0.000
1709374164.718,-4.883,-34.668,-38.574,-10.254,0.000
1709374164.722,-29.785,-41.016,-37.109,-26.855,0.000
1709374164.726,-65.918,-42.480,-39.551,-61.035,0.000
1709374164.730,-62.012,-41.016,-39.551,-59.570,0.000
1709374164.734,-37.598,-39.062,-42.480,-41.992,0.000
1709374164.738,-5.859,-38.086,-42.969,-16.602,0.000
1709374164.741,-22.949,-37.598,-41.016,-32.715,0.000
1709374164.745,-62.012,-39.062,-41.992,-63.965,0.000
1709374164.749,-60.547,-35.156,-39.551,-56.641,0.000
1709374164.753,-34.180,-32.227,-37.598,-32.715,0.000
1709374164.757,-1.953,-34.668,-39.062,-7.812,0.000
1709374164.761,-19.531,-34.668,-35.645,-22.949,0.000
1709374164.765,-59.570,-33.203,-32.227,-52.246,0.000
1709374164.769,-66.406,-35.156,-32.715,-53.223,0.000
1709374164.773,-44.434,-34.668,-31.250,-42.480,0.000
1709374164.777,-8.789,-36.621,-37.109,-19.043,0.000
1709374164.781,-14.648,-39.062,-38.574,-16.113,0.000
1709374164.784,-53.223,-29.785,-36.133,-44.434,0.000
1709374164.788,-64.941,-28.809,-37.109,-54.688,0.000
1709374164.792,-48.340,-32.227,-36.133,-41.016,0.000
1709374164.796,-13.184,-31.250,-33.203,-16.113,0.000
1709374164.800,-12.207,-35.645,-36.133,-11.719,0.000
1709374164.804,-52.734,-32.715,-35.645,-38.574,0.000
1709374164.808,-65.918,-27.832,-32.227,-41.016,0.000
1709374164.812,-45.410,-32.227,-32.227,-29.785,0.000
1709374164.815,-9.766,-33.203,-30.273,-11.719,0.000
1709374164.819,-0.488,-27.832,-26.367,1.953,0.000
1709374164.823,-39.062,-28.809,-28.320,-26.855,0.000
1709374164.827,-55.664,-32.715,-28.809,-47.363,0.000
1709374164.831,-47.852,-32.715,-33.203,-47.852,0.000
1709374164.835,-16.113,-34.668,-34.668,-28.809,0.000
1709374164.839,0.488,-34.180,-31.738,-10.742,0.000
1709374164.843,-41.016,-33.691,-35.156,-39.062,0.000
1709374164.846,-62.012,-32.715,-32.715,-57.617,0.000
1709374164.850,-44.434,-29.785,-28.809,-41.504,0.000
1709374164.854,-15.137,-34.180,-35.645,-16.602,0.000
1709374164.858,-0.488,-36.621,-39.062,-1.953,0.000
1709374164.862,-29.785,-35.156,-39.551,-27.344,0.000
1709374164.866,-60.059,-35.156,-39.551,-51.270,0.000
1709374164.870,-55.664,-36.133,-39.551,-48.340,0.000
1709374164.874,-29.785,-36.621,-42.480,-29.785,0.000
