timestamps,TP9,AF7,AF8,TP10,Right AUX
1709214798.756,-43.945,-70.312,-20.996,-58.105,0.000
1709214798.760,-39.551,-58.105,-29.297,-51.758,0.000
1709214798.764,-31.738,-35.645,-29.785,-54.199,0.000
1709214798.768,-36.133,-29.297,-19.531,-64.941,0.000
1709214798.772,-47.852,-44.922,-26.855,-63.477,0.000
1709214798.776,-51.270,-50.293,-39.551,-60.547,0.000
1709214798.780,-40.527,-44.434,-47.363,-60.547,0.000
1709214798.784,-30.273,-42.480,-36.133,-59.570,0.000
1709214798.787,-27.344,-36.621,-35.645,-46.387,0.000
1709214798.791,-33.691,-37.109,-48.828,-51.270,0.000
1709214798.795,-34.668,-45.898,-41.504,-55.176,0.000
1709214798.799,-32.715,-52.734,-32.715,-37.109,0.000
1709214798.803,-43.457,-44.434,-42.480,-40.039,0.000
1709214798.807,-44.434,-40.039,-45.410,-48.340,0.000
1709214798.811,-40.527,-47.852,-45.410,-49.805,0.000
1709214798.815,-43.457,-48.828,-43.945,-41.992,0.000
1709214798.819,-43.457,-46.387,-39.551,-36.133,0.000
1709214798.823,-38.574,-47.852,-49.805,-40.039,0.000
1709214798.826,-35.156,-41.504,-54.199,-41.504,0.000
1709214798.830,-35.156,-46.875,-43.945,-29.785,0.000
1709214798.834,-43.457,-49.316,-48.828,-27.832,0.000
1709214798.838,-41.016,-36.621,-42.480,-43.945,0.000
1709214798.842,-36.621,-38.086,-31.250,-50.293,0.000
1709214798.846,-40.527,-46.875,-40.039,-49.805,0.000
1709214798.850,-41.504,-44.922,-36.133,-48.340,0.000
1709214798.854,-36.133,-41.992,-26.855,-50.781,0.000
1709214798.858,-34.180,-41.504,-28.809,-43.457,0.000
1709214798.862,-37.598,-35.156,-25.391,-37.109,0.000
1709214798.866,-37.598,-44.434,-30.762,-41.504,0.000
1709214798.869,-34.180,-52.246,-33.691,-45.898,0.000
1709214798.873,-37.598,-47.852,-34.668,-54.688,0.000
1709214798.877,-42.969,-42.480,-46.875,-47.852,0.000
1709214798.881,-38.574,-35.156,-40.527,-40.039,0.000
1709214798.885,-30.273,-33.691,-26.855,-57.129,0.000
1709214798.889,-21.973,-35.156,-16.602,-61.523,0.000
1709214798.893,-26.855,-40.527,-19.531,-51.270,0.000
1709214798.897,-34.180,-43.945,-29.785,-46.387,0.000
1709214798.901,-30.273,-38.086,-29.297,-40.527,0.000
1709214798.905,-36.621,-44.922,-35.645,-47.852,0.000
1709214798.908,-45.898,-53.711,-46.875,-61.035,0.000
1709214798.912,-46.875,-47.363,-43.945,-63.965,0.000
1709214798.916,-37.109,-45.898,-32.715,-50.781,0.000
1709214798.920,-34.180,-41.016,-40.039,-39.551,0.000
1709214798.924,-28.809,-37.109,-46.875,-32.715,0.000
1709214798.928,-29.297,-47.852,-39.551,-39.551,0.000
1709214798.932,-35.156,-52.734,-26.855,-41.992,0.000
1709214798.936,-40.527,-42.969,-25.879,-34.180,0.000
1709214798.940,-39.062,-47.852,-40.527,-38.086,0.000
1709214798.944,-30.273,-50.293,-44.434,-45.898,0.000
1709214798.947,-24.902,-42.480,-48.828,-43.457,0.000
1709214798.951,-14.648,-47.852,-37.109,-39.062,0.000
1709214798.955,-15.625,-40.527,-22.949,-41.016,0.000
1709214798.959,-14.160,-34.668,-32.715,-40.527,0.000
1709214798.963,-17.578,-41.016,-45.410,-44.434,0.000
1709214798.967,-27.832,-42.480,-42.969,-42.480,0.000
1709214798.971,-31.738,-44.434,-38.086,-39.062,0.000
1709214798.975,-31.250,-49.805,-38.086,-39.551,0.000
1709214798.979,-31.738,-51.270,-33.691,-36.133,0.000
1709214798.983,-29.297,-38.574,-34.668,-35.645,0.000
1709214798.987,-36.621,-36.621,-41.504,-46.875,0.000
1709214798.990,-40.527,-40.039,-42.969,-46.875,0.000
1709214798.994,-38.086,-46.387,-41.992,-46.875,0.000
1709214798.998,-39.551,-59.082,-37.598,-51.758,0.000
1709214799.002,-36.621,-48.828,-39.062,-51.758,0.000
1709214799.006,-40.039,-41.992,-42.480,-48.340,0.000
1709214799.010,-47.852,-49.316,-48.340,-43.457,0.000
1709214799.014,-45.898,-42.969,-37.598,-45.410,0.000
1709214799.018,-48.340,-38.086,-37.598,-61.523,0.000
1709214799.022,-46.387,-50.293,-50.293,-68.848,0.000
1709214799.026,-39.551,-52.246,-47.363,-65.430,0.000
1709214799.029,-41.504,-48.340,-48.340,-62.012,0.000
1709214799.033,-51.758,-53.223,-56.152,-64.941,0.000
1709214799.037,-50.293,-47.363,-50.781,-64.453,0.000
1709214799.041,-37.598,-40.039,-47.852,-58.594,0.000
1709214799.045,-29.785,-38.086,-43.457,-57.129,0.000
1709214799.049,-23.438,-32.227,-32.227,-49.805,0.000
1709214799.053,-30.762,-27.832,-34.180,-45.898,0.000
1709214799.057,-36.621,-37.109,-42.969,-45.898,0.000
1709214799.061,-31.738,-42.969,-49.316,-42.969,0.000
1709214799.065,-28.320,-44.922,-44.922,-47.852,0.000
1709214799.069,-29.785,-51.758,-33.691,-50.293,0.000
1709214799.073,-37.598,-56.152,-36.621,-41.992,0.000
1709214799.076,-40.039,-54.688,-39.062,-39.551,0.000
1709214799.080,-36.133,-41.504,-30.762,-44.434,0.000
1709214799.084,-38.574,-49.805,-36.621,-45.410,0.000
1709214799.088,-42.480,-62.012,-42.480,-51.270,0.000
1709214799.092,-37.598,-40.039,-42.480,-57.129,0.000
1709214799.096,-34.180,-28.809,-35.645,-49.805,0.000
1709214799.100,-39.062,-43.457,-35.156,-44.922,0.000
1709214799.104,-44.922,-54.199,-44.434,-49.805,0.000
1709214799.108,-36.133,-52.734,-43.457,-42.969,0.000
1709214799.112,-27.832,-42.480,-40.039,-46.875,0.000
1709214799.116,-36.133,-40.527,-35.645,-58.105,0.000
1709214799.119,-34.180,-51.758,-30.762,-52.246,0.000
1709214799.123,-35.645,-56.152,-36.133,-58.105,0.000
1709214799.127,-40.527,-49.805,-42.480,-62.012,0.000
1709214799.131,-47.852,-47.852,-39.062,-62.500,0.000
1709214799.135,-52.734,-51.758,-37.598,-58.594,0.000
1709214799.139,-48.340,-51.270,-38.574,-51.270,0.000
1709214799.143,-39.062,-50.781,-35.156,-44.922,0.000
1709214799.147,-37.598,-58.105,-39.062,-46.875,0.000
1709214799.151,-44.434,-48.828,-36.133,-55.176,0.000
1709214799.155,-47.363,-41.504,-25.391,-55.664,0.000
1709214799.159,-46.875,-49.316,-27.344,-60.547,0.000
1709214799.163,-41.504,-43.457,-28.809,-42.969,0.000
1709214799.166,-37.109,-46.387,-29.297,-31.250,0.000
1709214799.170,-38.574,-50.293,-29.297,-40.527,0.000
1709214799.174,-36.133,-38.574,-26.367,-41.992,0.000
1709214799.178,-33.203,-39.062,-28.809,-40.039,0.000
1709214799.182,-35.156,-46.387,-33.203,-36.133,0.000
1709214799.186,-35.645,-53.711,-36.621,-41.504,0.000
1709214799.190,-40.527,-55.664,-39.551,-47.852,0.000
1709214799.194,-35.156,-42.480,-40.039,-42.969,0.000
1709214799.198,-31.738,-36.621,-44.434,-37.109,0.000
1709214799.202,-31.738,-41.992,-35.156,-31.250,0.000
1709214799.205,-21.484,-47.363,-23.438,-21.484,0.000
1709214799.209,-24.414,-47.363,-26.855,-24.902,0.000
1709214799.213,-31.250,-48.340,-33.203,-38.574,0.000
1709214799.217,-24.902,-56.641,-30.273,-30.762,0.000
1709214799.221,-25.879,-50.293,-24.414,-30.762,0.000
1709214799.225,-35.156,-40.527,-37.598,-41.992,0.000
1709214799.229,-31.738,-45.410,-39.551,-35.156,0.000
1709214799.233,-29.297,-39.062,-26.855,-31.250,0.000
1709214799.237,-35.156,-36.621,-39.062,-34.668,0.000
1709214799.241,-36.133,-44.434,-43.945,-38.574,0.000
1709214799.245,-39.551,-45.410,-37.598,-37.598,0.000
1709214799.248,-44.922,-46.875,-39.062,-42.969,0.000
1709214799.252,-44.434,-46.875,-33.203,-38.574,0.000
1709214799.256,-39.062,-48.340,-23.926,-22.949,0.000
1709214799.260,-31.250,-58.594,-22.461,-24.902,0.000
1709214799.264,-35.156,-59.570,-31.250,-32.715,0.000
1709214799.268,-42.969,-47.363,-31.250,-43.945,0.000
1709214799.272,-47.363,-53.711,-26.367,-46.875,0.000
1709214799.276,-40.039,-65.430,-29.785,-46.387,0.000
1709214799.280,-31.250,-49.805,-35.645,-48.828,0.000
1709214799.284,-31.250,-41.504,-40.527,-51.758,0.000
1709214799.287,-25.879,-38.574,-36.133,-53.223,0.000
1709214799.291,-33.691,-35.645,-28.320,-55.176,0.000
1709214799.295,-38.574,-46.387,-36.621,-43.457,0.000
1709214799.299,-32.715,-49.805,-37.598,-38.574,0.000
1709214799.303,-28.809,-46.875,-34.668,-45.898,0.000
1709214799.307,-27.344,-44.922,-41.016,-49.316,0.000
1709214799.311,-31.738,-40.039,-45.410,-50.781,0.000
1709214799.315,-31.250,-41.016,-34.180,-45.410,0.000
1709214799.319,-31.250,-39.551,-37.598,-44.434,0.000
1709214799.323,-36.133,-35.645,-44.922,-46.875,0.000
1709214799.326,-31.738,-25.391,-33.691,-46.875,0.000
1709214799.330,-35.645,-20.996,-31.250,-39.551,0.000
1709214799.334,-47.852,-39.062,-44.922,-41.992,0.000
1709214799.338,-40.039,-42.480,-43.457,-52.246,0.000
1709214799.342,-37.109,-35.645,-37.598,-53.711,0.000
1709214799.346,-33.691,-35.156,-36.621,-46.875,0.000
1709214799.350,-34.180,-46.387,-37.598,-56.152,0.000
1709214799.354,-43.457,-50.293,-45.898,-62.988,0.000
1709214799.358,-40.039,-47.363,-45.410,-51.270,0.000
1709214799.362,-36.621,-46.387,-40.527,-46.387,0.000
1709214799.365,-44.922,-36.621,-39.062,-58.594,0.000
1709214799.369,-46.875,-41.992,-41.504,-63.477,0.000
1709214799.373,-47.363,-46.387,-39.551,-57.129,0.000
1709214799.377,-52.246,-43.945,-37.109,-55.176,0.000
1709214799.381,-47.363,-44.434,-39.062,-53.223,0.000
1709214799.385,-40.039,-44.922,-34.668,-40.527,0.000
1709214799.389,-45.898,-49.316,-38.086,-38.574,0.000
1709214799.393,-47.363,-52.734,-41.504,-48.828,0.000
1709214799.397,-45.410,-58.594,-36.133,-49.316,0.000
1709214799.401,-42.969,-55.664,-35.156,-49.805,0.000
1709214799.404,-36.621,-41.504,-39.062,-51.270,0.000
1709214799.408,-43.945,-46.387,-37.109,-58.105,0.000
1709214799.412,-49.316,-50.781,-30.273,-58.594,0.000
1709214799.416,-44.434,-47.852,-33.203,-50.293,0.000
1709214799.420,-42.480,-44.434,-40.527,-58.594,0.000
1709214799.424,-41.992,-39.551,-41.016,-61.523,0.000
1709214799.428,-41.504,-37.598,-44.922,-61.035,0.000
1709214799.432,-42.969,-37.109,-46.387,-59.082,0.000
1709214799.436,-42.969,-44.434,-33.691,-49.316,0.000
1709214799.440,-46.387,-49.316,-27.832,-51.270,0.000
1709214799.444,-49.316,-49.316,-30.273,-53.223,0.000
1709214799.448,-44.434,-41.504,-27.832,-44.922,0.000
1709214799.451,-53.223,-36.133,-41.992,-48.828,0.000
1709214799.455,-58.105,-45.410,-47.852,-58.594,0.000
1709214799.459,-46.875,-46.387,-47.363,-56.152,0.000
1709214799.463,-39.551,-39.551,-46.875,-55.664,0.000
1709214799.467,-41.016,-43.457,-40.527,-58.105,0.000
1709214799.471,-42.480,-54.199,-47.363,-56.641,0.000
1709214799.475,-41.504,-49.805,-44.922,-45.410,0.000
1709214799.479,-33.203,-46.387,-48.340,-33.203,0.000
1709214799.483,-21.973,-47.852,-52.734,-27.344,0.000
1709214799.487,-28.809,-38.574,-44.434,-36.133,0.000
1709214799.491,-30.273,-43.457,-40.527,-32.715,0.000
1709214799.495,-25.391,-48.340,-38.086,-22.461,0.000
1709214799.498,-25.879,-41.992,-37.109,-33.203,0.000
1709214799.502,-22.949,-42.969,-39.551,-34.668,0.000
1709214799.506,-31.250,-49.316,-44.922,-43.945,0.000
1709214799.510,-38.574,-48.828,-43.457,-46.875,0.000
1709214799.514,-37.109,-42.969,-42.969,-32.715,0.000
1709214799.518,-42.480,-45.410,-47.852,-28.320,0.000
1709214799.522,-46.875,-49.316,-47.363,-30.762,0.000
1709214799.526,-41.504,-48.340,-38.086,-32.227,0.000
1709214799.530,-42.480,-50.293,-46.387,-41.992,0.000
1709214799.534,-49.316,-51.758,-49.805,-48.828,0.000
1709214799.538,-48.828,-48.828,-37.109,-35.645,0.000
1709214799.541,-46.387,-41.016,-35.156,-36.621,0.000
1709214799.545,-44.922,-33.691,-24.902,-48.340,0.000
1709214799.549,-45.898,-42.480,-28.809,-51.270,0.000
1709214799.553,-47.852,-52.246,-40.527,-59.082,0.000
1709214799.557,-42.480,-47.852,-39.062,-52.734,0.000
1709214799.561,-36.133,-49.316,-36.133,-43.457,0.000
1709214799.565,-39.062,-48.340,-41.504,-50.293,0.000
1709214799.569,-40.039,-47.363,-34.668,-51.270,0.000
1709214799.573,-34.668,-60.059,-22.949,-43.457,0.000
1709214799.577,-36.133,-56.152,-37.109,-43.457,0.000
1709214799.581,-32.715,-45.410,-43.945,-39.551,0.000
1709214799.584,-34.668,-51.270,-38.574,-38.086,0.000
1709214799.588,-36.621,-54.199,-41.504,-51.758,0.000
1709214799.592,-31.738,-44.922,-36.621,-53.223,0.000
1709214799.596,-30.762,-39.551,-34.668,-45.898,0.000
1709214799.600,-24.414,-49.316,-38.086,-41.504,0.000
1709214799.604,-25.391,-54.688,-35.156,-51.758,0.000
1709214799.608,-26.855,-49.316,-36.621,-47.852,0.000
1709214799.612,-26.855,-50.781,-41.504,-38.574,0.000
1709214799.616,-31.738,-66.406,-40.039,-44.922,0.000
1709214799.620,-42.969,-70.801,-41.992,-52.734,0.000
1709214799.623,-46.875,-58.105,-46.875,-60.547,0.000
1709214799.627,-44.434,-51.270,-46.387,-53.711,0.000
1709214799.631,-56.152,-44.922,-39.062,-53.711,0.000
1709214799.635,-66.406,-34.668,-33.203,-64.453,0.000
1709214799.639,-56.641,-31.738,-30.762,-58.594,0.000
1709214799.643,-53.223,-45.410,-36.621,-55.176,0.000
1709214799.647,-63.477,-54.199,-43.457,-51.270,0.000
1709214799.651,-62.012,-50.293,-44.922,-53.223,0.000
1709214799.655,-53.711,-50.293,-45.410,-55.176,0.000
1709214799.659,-49.805,-56.152,-43.945,-46.875,0.000
1709214799.662,-37.598,-62.500,-36.621,-42.969,0.000
1709214799.666,-36.621,-56.641,-34.668,-46.875,0.000
1709214799.670,-40.527,-45.410,-40.039,-47.363,0.000
1709214799.674,-32.227,-39.551,-42.969,-34.668,0.000
1709214799.678,-36.133,-35.645,-41.504,-41.504,0.000
1709214799.682,-44.922,-39.062,-39.551,-50.293,0.000
1709214799.686,-42.480,-39.551,-38.086,-41.992,0.000
1709214799.690,-42.480,-43.945,-41.504,-43.457,0.000
1709214799.694,-44.434,-39.062,-37.598,-47.363,0.000
1709214799.698,-46.387,-37.109,-26.855,-48.828,0.000
1709214799.701,-47.852,-45.410,-34.668,-50.293,0.000
1709214799.705,-39.551,-52.246,-42.969,-50.293,0.000
1709214799.709,-44.922,-59.082,-44.922,-61.523,0.000
1709214799.713,-59.082,-50.781,-41.504,-64.941,0.000
1709214799.717,-62.988,-42.969,-46.387,-48.828,0.000
1709214799.721,-60.059,-43.945,-47.363,-47.852,0.000
1709214799.725,-50.781,-36.133,-32.715,-58.105,0.000
1709214799.729,-47.363,-32.227,-22.949,-60.059,0.000
1709214799.733,-50.781,-34.668,-31.738,-56.641,0.000
1709214799.737,-53.711,-38.574,-47.363,-50.781,0.000
1709214799.740,-44.434,-41.992,-42.969,-51.758,0.000
1709214799.744,-40.527,-41.504,-40.527,-53.223,0.000
1709214799.748,-49.805,-45.898,-43.457,-56.641,0.000
1709214799.752,-46.875,-40.039,-39.551,-53.223,0.000
1709214799.756,-42.969,-44.434,-40.039,-52.734,0.000
1709214799.760,-42.969,-53.711,-36.621,-56.641,0.000
1709214799.764,-39.551,-43.457,-40.039,-48.340,0.000
1709214799.768,-36.133,-39.062,-50.781,-48.828,0.000
1709214799.772,-38.086,-39.551,-41.992,-55.176,0.000
1709214799.776,-40.039,-40.039,-39.062,-51.270,0.000
1709214799.779,-38.086,-44.434,-35.156,-47.363,0.000
1709214799.783,-26.367,-44.922,-29.785,-48.828,0.000
1709214799.787,-31.738,-51.758,-42.969,-47.852,0.000
1709214799.791,-40.039,-48.340,-47.852,-42.480,0.000
1709214799.795,-36.133,-32.715,-43.945,-42.969,0.000
1709214799.799,-27.832,-38.086,-41.504,-44.434,0.000
1709214799.803,-18.555,-47.852,-39.551,-35.645,0.000
1709214799.807,-20.996,-49.805,-42.480,-31.738,0.000
1709214799.811,-19.531,-48.340,-39.062,-37.109,0.000
1709214799.815,-25.879,-43.457,-42.969,-38.574,0.000
1709214799.819,-26.367,-44.922,-50.293,-38.086,0.000
1709214799.823,-22.949,-47.852,-43.457,-36.621,0.000
1709214799.826,-19.043,-48.340,-34.180,-40.039,0.000
1709214799.830,-20.996,-51.758,-29.297,-42.969,0.000
1709214799.834,-26.855,-47.363,-32.715,-41.504,0.000
1709214799.838,-31.738,-43.457,-46.387,-42.969,0.000
1709214799.842,-29.785,-42.969,-51.270,-42.969,0.000
1709214799.846,-21.973,-42.969,-46.387,-39.062,0.000
1709214799.850,-36.133,-53.223,-47.852,-37.109,0.000
1709214799.854,-52.734,-63.477,-39.062,-41.504,0.000
1709214799.858,-44.922,-51.758,-29.297,-37.109,0.000
1709214799.862,-42.969,-45.410,-32.715,-41.992,0.000
1709214799.866,-42.480,-49.805,-32.715,-43.457,0.000
1709214799.870,-40.527,-49.805,-29.785,-32.227,0.000
1709214799.873,-51.270,-56.152,-31.250,-43.457,0.000
1709214799.877,-51.758,-51.270,-37.109,-47.852,0.000
1709214799.881,-45.898,-41.504,-40.039,-40.039,0.000
1709214799.885,-42.480,-43.945,-38.086,-38.086,0.000
1709214799.889,-41.504,-51.758,-35.645,-39.062,0.000
1709214799.893,-44.922,-56.152,-40.039,-42.969,0.000
1709214799.897,-36.133,-47.852,-41.016,-33.691,0.000
1709214799.901,-26.367,-32.715,-34.180,-21.973,0.000
1709214799.905,-28.320,-42.969,-39.062,-28.809,0.000
1709214799.909,-28.809,-53.223,-41.504,-38.574,0.000
1709214799.913,-30.762,-46.387,-41.016,-29.297,0.000
1709214799.916,-32.227,-42.969,-43.457,-21.973,0.000
1709214799.920,-29.785,-46.387,-40.039,-32.715,0.000
1709214799.924,-29.785,-52.734,-39.062,-40.527,0.000
1709214799.928,-36.621,-46.387,-39.062,-33.691,0.000
1709214799.932,-40.527,-40.527,-39.551,-30.273,0.000
1709214799.936,-40.039,-45.410,-39.551,-40.527,0.000
1709214799.940,-35.645,-50.781,-37.109,-41.016,0.000
1709214799.944,-37.109,-45.898,-42.969,-51.270,0.000
1709214799.948,-38.086,-49.805,-43.457,-58.594,0.000
1709214799.952,-38.086,-55.176,-39.062,-52.246,0.000
1709214799.956,-43.945,-46.387,-37.598,-47.363,0.000
1709214799.959,-41.504,-41.016,-31.250,-34.180,0.000
1709214799.963,-34.180,-39.062,-29.297,-41.992,0.000
1709214799.967,-36.621,-44.922,-40.527,-52.246,0.000
1709214799.971,-40.527,-44.434,-35.645,-41.016,0.000
1709214799.975,-39.062,-41.504,-26.855,-30.273,0.000
1709214799.979,-42.480,-51.758,-34.180,-26.855,0.000
1709214799.983,-38.086,-51.758,-37.598,-29.297,0.000
1709214799.987,-39.551,-59.570,-36.621,-33.691,0.000
1709214799.991,-43.457,-59.082,-35.645,-35.156,0.000
1709214799.995,-37.598,-42.480,-34.668,-28.320,0.000
1709214799.998,-38.574,-42.969,-31.250,-24.414,0.000
1709214800.002,-47.852,-45.410,-34.668,-19.043,0.000
1709214800.006,-47.363,-43.457,-38.574,-18.555,0.000
1709214800.010,-36.621,-49.805,-38.574,-37.109,0.000
1709214800.014,-34.180,-47.363,-41.016,-43.457,0.000
1709214800.018,-34.668,-38.574,-49.805,-43.457,0.000
1709214800.022,-23.438,-41.992,-45.898,-40.039,0.000
1709214800.026,-13.672,-46.387,-30.273,-37.598,0.000
1709214800.030,-17.090,-45.410,-26.855,-40.527,0.000
1709214800.034,-34.180,-62.012,-28.320,-38.574,0.000
1709214800.037,-40.527,-66.406,-29.785,-38.574,0.000
1709214800.041,-43.945,-49.805,-43.457,-45.410,0.000
1709214800.045,-46.387,-46.387,-48.828,-49.805,0.000
1709214800.049,-47.363,-50.293,-39.062,-45.410,0.000
1709214800.053,-58.594,-50.781,-41.504,-51.758,0.000
1709214800.057,-57.617,-40.039,-43.457,-53.223,0.000
1709214800.061,-42.969,-38.086,-34.668,-44.434,0.000
1709214800.065,-44.922,-43.945,-41.504,-52.734,0.000
1709214800.069,-52.734,-44.434,-43.945,-58.594,0.000
1709214800.073,-57.129,-50.293,-38.086,-59.082,0.000
1709214800.076,-57.129,-52.246,-34.180,-63.965,0.000
1709214800.080,-54.199,-47.852,-36.133,-59.082,0.000
1709214800.084,-54.688,-49.805,-44.922,-62.988,0.000
1709214800.088,-54.688,-54.688,-38.086,-74.707,0.000
1709214800.092,-56.152,-47.363,-35.645,-58.105,0.000
1709214800.096,-54.688,-45.898,-39.551,-39.062,0.000
1709214800.100,-46.875,-48.340,-40.527,-41.992,0.000
1709214800.104,-38.086,-43.457,-39.551,-48.828,0.000
1709214800.108,-36.621,-42.969,-40.039,-51.758,0.000
1709214800.112,-44.922,-43.457,-47.852,-47.852,0.000
1709214800.115,-49.316,-38.574,-43.457,-41.504,0.000
1709214800.119,-41.992,-43.457,-30.762,-40.527,0.000
1709214800.123,-43.457,-50.293,-33.691,-41.016,0.000
1709214800.127,-43.457,-47.852,-37.598,-38.574,0.000
1709214800.131,-45.898,-45.898,-41.016,-41.016,0.000
1709214800.135,-50.781,-50.293,-44.922,-41.016,0.000
1709214800.139,-37.109,-55.664,-33.691,-34.668,0.000
1709214800.143,-27.832,-53.711,-29.297,-37.598,0.000
1709214800.147,-27.344,-46.875,-35.156,-36.133,0.000
1709214800.151,-21.973,-34.668,-30.273,-27.832,0.000
1709214800.154,-31.250,-38.574,-27.832,-37.598,0.000
1709214800.158,-34.668,-53.711,-42.480,-41.992,0.000
1709214800.162,-20.508,-42.480,-38.086,-35.156,0.000
1709214800.166,-27.832,-42.480,-33.691,-40.039,0.000
1709214800.170,-36.621,-56.641,-35.156,-47.852,0.000
1709214800.174,-38.086,-56.641,-31.738,-50.293,0.000
1709214800.178,-39.551,-38.574,-35.645,-50.293,0.000
1709214800.182,-29.297,-26.855,-38.086,-49.805,0.000
1709214800.186,-34.180,-34.668,-38.086,-56.152,0.000
1709214800.189,-41.016,-43.457,-31.738,-56.641,0.000
1709214800.193,-41.016,-44.922,-28.809,-53.711,0.000
1709214800.197,-56.641,-53.711,-33.203,-51.270,0.000
1709214800.201,-50.781,-54.199,-33.203,-40.527,0.000
1709214800.205,-35.156,-35.645,-39.551,-43.457,0.000
1709214800.209,-36.133,-30.762,-37.598,-46.387,0.000
1709214800.213,-46.387,-39.551,-30.762,-54.199,0.000
1709214800.217,-46.875,-38.086,-31.738,-56.641,0.000
1709214800.221,-37.598,-44.922,-32.715,-51.758,0.000
1709214800.225,-34.180,-45.898,-28.809,-50.781,0.000
1709214800.229,-34.668,-38.574,-31.738,-48.340,0.000
1709214800.233,-42.480,-39.551,-44.922,-52.734,0.000
1709214800.236,-35.156,-34.180,-42.480,-46.875,0.000
1709214800.240,-27.832,-33.203,-41.016,-33.203,0.000
1709214800.244,-32.715,-39.062,-40.039,-36.621,0.000
1709214800.248,-32.227,-36.133,-33.691,-40.527,0.000
1709214800.252,-27.832,-32.227,-26.367,-31.738,0.000
1709214800.256,-30.762,-38.086,-30.762,-26.855,0.000
1709214800.260,-31.250,-40.527,-28.320,-25.879,0.000
1709214800.264,-32.227,-38.086,-28.320,-41.504,0.000
1709214800.268,-34.180,-32.715,-33.203,-49.316,0.000
1709214800.272,-39.062,-38.574,-32.227,-48.340,0.000
1709214800.276,-46.875,-44.922,-39.062,-46.875,0.000
1709214800.279,-47.852,-50.293,-34.180,-41.992,0.000
1709214800.283,-45.898,-46.387,-27.832,-42.969,0.000
1709214800.287,-53.223,-40.527,-28.809,-38.574,0.000
1709214800.291,-60.059,-41.992,-31.738,-39.551,0.000
1709214800.295,-56.641,-47.852,-35.156,-44.434,0.000
1709214800.299,-45.410,-50.293,-35.156,-37.598,0.000
1709214800.303,-33.203,-45.898,-41.504,-49.316,0.000
1709214800.307,-18.066,-41.992,-46.875,-42.969,0.000
1709214800.311,-19.043,-38.574,-34.668,-41.992,0.000
1709214800.315,-30.273,-39.551,-29.297,-46.387,0.000
1709214800.319,-28.809,-45.410,-36.133,-32.715,0.000
1709214800.322,-22.461,-41.504,-27.832,-30.762,0.000
1709214800.326,-20.508,-39.551,-25.879,-43.457,0.000
1709214800.330,-26.855,-42.969,-34.668,-50.293,0.000
1709214800.334,-29.785,-51.270,-34.180,-37.598,0.000
1709214800.338,-26.367,-46.387,-32.227,-37.598,0.000
1709214800.342,-25.879,-31.250,-28.809,-34.180,0.000
1709214800.346,-27.344,-35.645,-34.180,-29.297,0.000
1709214800.350,-34.668,-48.828,-40.527,-44.434,0.000
1709214800.354,-43.945,-46.387,-44.922,-43.945,0.000
1709214800.358,-43.457,-49.316,-41.504,-42.480,0.000
1709214800.361,-40.527,-45.898,-30.762,-45.410,0.000
1709214800.365,-47.852,-33.691,-33.203,-45.410,0.000
1709214800.369,-52.734,-41.016,-39.062,-56.641,0.000
1709214800.373,-46.387,-46.387,-41.504,-52.246,0.000
1709214800.377,-40.039,-42.480,-39.062,-30.273,0.000
1709214800.381,-42.480,-42.480,-34.668,-33.691,0.000
1709214800.385,-46.875,-49.316,-38.086,-55.664,0.000
1709214800.389,-41.504,-46.387,-40.039,-60.059,0.000
1709214800.393,-42.480,-42.969,-39.062,-56.641,0.000
1709214800.397,-49.805,-47.852,-36.621,-49.316,0.000
1709214800.401,-48.828,-45.410,-39.551,-52.734,0.000
1709214800.404,-52.734,-41.992,-47.852,-60.547,0.000
1709214800.408,-52.734,-37.109,-43.457,-60.059,0.000
1709214800.412,-52.734,-42.969,-32.227,-62.012,0.000
1709214800.416,-56.641,-55.664,-42.480,-68.359,0.000
1709214800.420,-47.363,-51.758,-45.898,-54.688,0.000
1709214800.424,-38.086,-56.152,-41.016,-41.992,0.000
1709214800.428,-30.762,-65.918,-44.922,-49.805,0.000
1709214800.432,-28.320,-53.711,-43.457,-55.176,0.000
1709214800.436,-35.156,-43.457,-42.969,-52.246,0.000
1709214800.440,-25.391,-44.434,-33.203,-41.016,0.000
1709214800.443,-23.926,-41.504,-34.668,-37.109,0.000
1709214800.447,-33.691,-37.598,-46.387,-45.410,0.000
1709214800.451,-32.715,-46.387,-45.410,-44.922,0.000
1709214800.455,-40.039,-49.316,-41.992,-38.086,0.000
1709214800.459,-36.133,-42.969,-41.016,-22.461,0.000
1709214800.463,-26.855,-44.922,-44.434,-20.508,0.000
1709214800.467,-29.297,-49.316,-37.109,-26.855,0.000
1709214800.471,-28.809,-45.410,-28.809,-26.855,0.000
1709214800.475,-24.902,-44.434,-37.598,-26.367,0.000
1709214800.479,-20.996,-47.852,-36.133,-19.531,0.000
1709214800.482,-25.391,-42.969,-30.273,-34.180,0.000
1709214800.486,-33.691,-36.133,-37.598,-50.293,0.000
1709214800.490,-29.785,-36.621,-38.086,-42.480,0.000
1709214800.494,-36.133,-46.875,-38.574,-38.574,0.000
1709214800.498,-39.551,-44.434,-36.621,-37.598,0.000
1709214800.502,-37.598,-37.598,-37.598,-43.945,0.000
1709214800.506,-37.109,-35.156,-38.574,-46.387,0.000
1709214800.510,-48.340,-41.504,-37.109,-44.434,0.000
1709214800.514,-52.734,-49.316,-39.062,-43.945,0.000
1709214800.518,-45.410,-57.129,-43.945,-44.434,0.000
1709214800.522,-40.039,-62.012,-48.340,-47.852,0.000
1709214800.526,-34.180,-47.852,-42.969,-36.133,0.000
1709214800.529,-34.668,-44.434,-40.039,-41.016,0.000
1709214800.533,-35.645,-42.969,-36.621,-48.828,0.000
1709214800.537,-34.180,-36.133,-31.250,-37.598,0.000
1709214800.541,-29.785,-36.621,-33.691,-33.203,0.000
1709214800.545,-28.809,-36.133,-41.016,-41.016,0.000
1709214800.549,-33.691,-38.574,-40.527,-48.828,0.000
1709214800.553,-36.133,-37.598,-37.109,-41.992,0.000
1709214800.557,-30.762,-43.945,-37.598,-41.992,0.000
1709214800.561,-31.738,-50.781,-36.621,-47.852,0.000
1709214800.564,-34.180,-48.340,-33.203,-48.340,0.000
1709214800.568,-40.039,-43.945,-35.645,-52.246,0.000
1709214800.572,-48.340,-39.551,-45.410,-52.734,0.000
1709214800.576,-41.992,-43.945,-38.086,-42.969,0.000
1709214800.580,-41.992,-43.945,-27.832,-44.922,0.000
1709214800.584,-50.293,-43.457,-34.180,-59.570,0.000
1709214800.588,-51.758,-56.641,-42.969,-59.570,0.000
1709214800.592,-50.781,-56.152,-37.109,-41.992,0.000
1709214800.596,-47.363,-43.457,-33.203,-40.527,0.000
1709214800.600,-49.805,-45.898,-40.527,-45.898,0.000
1709214800.604,-53.711,-58.594,-41.016,-39.062,0.000
1709214800.608,-58.105,-56.641,-36.621,-40.039,0.000
1709214800.611,-64.453,-45.410,-41.016,-49.316,0.000
1709214800.615,-62.988,-42.969,-37.109,-41.504,0.000
1709214800.619,-53.711,-42.969,-38.086,-31.738,0.000
1709214800.623,-54.199,-41.992,-46.387,-42.969,0.000
1709214800.627,-53.223,-43.945,-33.691,-41.016,0.000
1709214800.631,-49.805,-48.340,-22.949,-29.297,0.000
1709214800.635,-46.387,-47.852,-30.762,-27.344,0.000
1709214800.639,-42.480,-48.340,-36.621,-27.832,0.000
1709214800.643,-39.062,-47.852,-35.645,-32.715,0.000
1709214800.647,-40.527,-45.898,-35.645,-47.852,0.000
1709214800.651,-42.480,-48.828,-36.133,-52.734,0.000
1709214800.654,-42.969,-49.805,-39.062,-45.898,0.000
1709214800.658,-41.016,-41.992,-44.434,-41.016,0.000
1709214800.662,-39.062,-43.457,-43.945,-37.109,0.000
1709214800.666,-44.434,-46.875,-45.410,-45.898,0.000
1709214800.670,-44.922,-36.133,-40.039,-52.734,0.000
1709214800.674,-38.086,-32.227,-36.621,-42.969,0.000
1709214800.678,-41.016,-44.922,-51.270,-43.945,0.000
1709214800.682,-37.598,-42.480,-42.969,-40.039,0.000
1709214800.686,-29.297,-37.109,-33.691,-35.156,0.000
1709214800.690,-36.133,-44.922,-34.180,-36.621,0.000
1709214800.694,-38.086,-44.434,-31.250,-31.738,0.000
1709214800.697,-35.156,-51.270,-31.738,-31.738,0.000
1709214800.701,-33.203,-50.293,-31.738,-36.621,0.000
1709214800.705,-31.250,-41.016,-35.645,-37.109,0.000
1709214800.709,-40.039,-46.875,-46.387,-38.086,0.000
1709214800.713,-52.734,-48.828,-52.734,-47.363,0.000
1709214800.717,-51.270,-49.805,-41.992,-51.758,0.000
1709214800.721,-46.387,-49.805,-34.180,-51.270,0.000
1709214800.725,-41.992,-44.434,-38.574,-55.664,0.000
1709214800.729,-41.016,-35.645,-38.086,-57.617,0.000
1709214800.733,-40.527,-31.738,-38.574,-49.805,0.000
1709214800.737,-39.551,-37.598,-29.297,-39.062,0.000
1709214800.740,-42.480,-45.898,-23.926,-38.086,0.000
1709214800.744,-43.945,-48.828,-41.504,-44.434,0.000
1709214800.748,-38.086,-36.621,-42.480,-49.805,0.000
1709214800.752,-38.574,-29.785,-34.180,-44.434,0.000
1709214800.756,-38.086,-39.551,-34.668,-37.598,0.000
1709214800.760,-40.527,-47.363,-30.762,-49.805,0.000
1709214800.764,-43.945,-47.363,-33.691,-52.246,0.000
1709214800.768,-46.387,-48.828,-41.992,-50.781,0.000
1709214800.772,-46.875,-52.734,-41.992,-55.664,0.000
1709214800.776,-38.086,-43.945,-39.551,-48.340,0.000
1709214800.779,-42.480,-35.645,-46.387,-51.270,0.000
1709214800.783,-57.617,-40.527,-46.875,-58.594,0.000
1709214800.787,-60.059,-41.504,-46.875,-60.547,0.000
1709214800.791,-54.199,-35.156,-46.387,-60.547,0.000
1709214800.795,-48.828,-38.086,-35.645,-47.852,0.000
1709214800.799,-44.922,-43.457,-40.039,-41.992,0.000
1709214800.803,-36.621,-42.969,-48.340,-48.340,0.000
1709214800.807,-33.203,-43.457,-42.969,-49.316,0.000
1709214800.811,-41.016,-46.387,-41.504,-53.223,0.000
1709214800.815,-41.504,-47.363,-40.039,-54.688,0.000
1709214800.818,-32.715,-48.340,-34.668,-51.270,0.000
1709214800.822,-27.344,-52.734,-41.016,-54.688,0.000
1709214800.826,-34.180,-48.828,-52.246,-62.988,0.000
1709214800.830,-41.016,-38.574,-46.875,-65.918,0.000
1709214800.834,-35.645,-39.062,-34.668,-48.828,0.000
1709214800.838,-29.785,-45.410,-31.738,-39.062,0.000
1709214800.842,-28.809,-51.270,-43.945,-29.785,0.000
1709214800.846,-25.391,-52.734,-47.852,-27.832,0.000
1709214800.850,-28.809,-47.852,-38.086,-43.457,0.000
1709214800.854,-32.715,-54.688,-41.504,-47.852,0.000
1709214800.857,-29.785,-54.688,-44.434,-48.340,0.000
1709214800.861,-32.715,-46.875,-43.457,-53.711,0.000
1709214800.865,-37.598,-44.922,-46.875,-53.711,0.000
1709214800.869,-43.457,-44.434,-42.969,-52.246,0.000
1709214800.873,-43.457,-41.992,-35.156,-45.410,0.000
1709214800.877,-38.574,-36.133,-42.480,-33.203,0.000
1709214800.881,-35.645,-42.969,-44.434,-40.039,0.000
1709214800.885,-29.297,-46.875,-34.180,-40.039,0.000
1709214800.889,-25.391,-43.457,-27.832,-37.109,0.000
1709214800.893,-35.156,-51.758,-29.297,-46.875,0.000
1709214800.896,-41.504,-53.711,-36.133,-49.805,0.000
1709214800.900,-24.902,-44.922,-29.785,-37.109,0.000
1709214800.904,-25.391,-43.945,-30.762,-36.133,0.000
1709214800.908,-38.086,-46.387,-43.945,-51.270,0.000
1709214800.912,-37.598,-47.852,-40.527,-53.711,0.000
1709214800.916,-36.621,-49.316,-35.156,-46.387,0.000
1709214800.920,-36.133,-45.410,-39.062,-44.434,0.000
1709214800.924,-32.715,-36.621,-42.969,-44.434,0.000
1709214800.928,-26.855,-38.086,-36.621,-40.527,0.000
1709214800.932,-30.762,-40.039,-35.156,-38.574,0.000
1709214800.935,-34.180,-33.203,-41.504,-38.086,0.000
1709214800.939,-29.785,-38.574,-50.293,-35.645,0.000
1709214800.943,-27.832,-46.387,-56.152,-34.668,0.000
1709214800.947,-30.762,-53.223,-63.477,-38.574,0.000
1709214800.951,-27.344,-50.781,-60.059,-36.133,0.000
1709214800.955,-27.344,-41.504,-55.176,-37.109,0.000
1709214800.959,-28.320,-38.574,-61.035,-35.645,0.000
1709214800.963,-20.020,-28.320,-44.434,-26.367,0.000
1709214800.967,-22.949,-31.250,-39.551,-23.926,0.000
1709214800.971,-25.391,-42.480,-51.758,-27.832,0.000
1709214800.975,-29.785,-42.480,-55.664,-27.344,0.000
1709214800.978,-27.832,-48.340,-56.152,-23.926,0.000
1709214800.982,-17.578,-44.922,-43.457,-17.090,0.000
1709214800.986,-23.438,-43.457,-35.156,-27.832,0.000
1709214800.990,-28.320,-50.293,-41.504,-31.738,0.000
1709214800.994,-33.203,-47.363,-42.480,-24.414,0.000
1709214800.998,-31.738,-34.180,-40.039,-26.367,0.000
1709214801.002,-28.809,-38.574,-44.922,-35.156,0.000
1709214801.006,-34.180,-52.246,-46.875,-38.086,0.000
1709214801.010,-41.016,-51.758,-49.316,-40.039,0.000
1709214801.014,-44.434,-49.805,-52.734,-45.410,0.000
1709214801.018,-41.504,-41.016,-41.992,-41.016,0.000
1709214801.022,-32.227,-36.133,-31.250,-34.668,0.000
1709214801.025,-25.879,-49.316,-27.832,-39.551,0.000
1709214801.029,-35.156,-48.340,-33.691,-50.293,0.000
1709214801.033,-44.922,-40.039,-31.738,-54.199,0.000
1709214801.037,-41.016,-45.898,-27.832,-44.434,0.000
1709214801.041,-35.156,-46.875,-36.621,-42.969,0.000
1709214801.045,-25.391,-50.781,-37.598,-51.758,0.000
1709214801.049,-20.020,-51.758,-29.785,-45.410,0.000
1709214801.053,-24.902,-39.062,-32.715,-36.133,0.000
1709214801.057,-30.762,-45.410,-40.527,-32.715,0.000
1709214801.061,-32.715,-47.363,-33.691,-32.227,0.000
1709214801.065,-29.785,-40.527,-33.203,-31.250,0.000
1709214801.068,-34.180,-45.410,-34.180,-28.809,0.000
1709214801.072,-34.668,-48.828,-28.809,-28.809,0.000
1709214801.076,-33.691,-39.062,-30.762,-32.715,0.000
1709214801.080,-33.203,-32.227,-27.832,-31.738,0.000
1709214801.084,-23.438,-37.109,-24.414,-32.227,0.000
1709214801.088,-31.250,-52.734,-37.598,-49.316,0.000
1709214801.092,-37.598,-55.664,-41.992,-51.270,0.000
1709214801.096,-31.250,-49.805,-36.621,-42.480,0.000
1709214801.100,-24.414,-43.457,-28.809,-38.574,0.000
1709214801.104,-24.414,-31.250,-32.227,-42.969,0.000
1709214801.107,-20.996,-26.367,-37.598,-42.480,0.000
1709214801.111,-24.902,-32.227,-35.645,-51.758,0.000
1709214801.115,-29.785,-25.879,-42.969,-55.176,0.000
1709214801.119,-33.691,-30.762,-48.340,-39.551,0.000
1709214801.123,-36.133,-46.387,-35.645,-37.598,0.000
1709214801.127,-31.250,-45.898,-33.691,-37.598,0.000
1709214801.131,-34.180,-43.945,-32.715,-33.203,0.000
1709214801.135,-33.203,-48.340,-28.809,-42.480,0.000
1709214801.139,-27.832,-48.828,-36.621,-38.574,0.000
1709214801.143,-24.902,-44.434,-33.203,-29.785,0.000
1709214801.146,-28.320,-42.480,-25.879,-36.621,0.000
1709214801.150,-39.062,-41.016,-34.668,-49.316,0.000
1709214801.154,-36.133,-30.273,-33.691,-47.852,0.000
1709214801.158,-37.598,-28.809,-24.902,-43.945,0.000
1709214801.162,-40.527,-39.062,-34.180,-47.852,0.000
1709214801.166,-30.273,-37.598,-43.457,-45.898,0.000
1709214801.170,-29.297,-32.715,-33.691,-43.945,0.000
1709214801.174,-34.668,-39.062,-25.879,-38.574,0.000
1709214801.178,-30.762,-38.086,-28.320,-34.668,0.000
1709214801.182,-34.668,-37.598,-32.715,-39.062,0.000
1709214801.186,-37.598,-41.992,-34.668,-42.480,0.000
1709214801.189,-46.875,-46.387,-38.086,-44.434,0.000
1709214801.193,-47.363,-45.410,-37.109,-41.016,0.000
1709214801.197,-33.691,-41.016,-31.250,-37.109,0.000
1709214801.201,-31.250,-45.898,-34.668,-38.574,0.000
1709214801.205,-29.297,-45.410,-35.156,-38.086,0.000
1709214801.209,-33.691,-34.668,-33.203,-35.156,0.000
1709214801.213,-41.992,-44.922,-35.156,-39.062,0.000
1709214801.217,-35.156,-64.941,-36.133,-39.062,0.000
1709214801.221,-31.738,-57.617,-34.668,-37.109,0.000
1709214801.225,-38.574,-44.434,-30.273,-50.781,0.000
1709214801.228,-47.363,-44.922,-35.645,-59.082,0.000
1709214801.232,-50.781,-42.969,-37.109,-54.688,0.000
1709214801.236,-53.711,-59.082,-37.109,-58.105,0.000
1709214801.240,-50.781,-63.965,-38.086,-58.594,0.000
1709214801.244,-52.246,-50.293,-34.668,-63.477,0.000
1709214801.248,-52.246,-53.711,-32.227,-67.871,0.000
1709214801.252,-44.922,-51.758,-27.832,-54.688,0.000
1709214801.256,-43.945,-45.898,-32.227,-48.828,0.000
1709214801.260,-39.062,-46.875,-38.086,-42.480,0.000
1709214801.264,-31.738,-43.945,-38.574,-37.598,0.000
1709214801.267,-29.785,-55.664,-29.297,-41.016,0.000
1709214801.271,-28.809,-53.223,-30.273,-43.457,0.000
1709214801.275,-22.949,-36.621,-24.902,-28.809,0.000
1709214801.279,-26.367,-41.504,-22.461,-28.809,0.000
1709214801.283,-33.691,-52.734,-34.180,-44.434,0.000
1709214801.287,-37.598,-54.688,-39.551,-40.527,0.000
1709214801.291,-45.898,-43.945,-38.086,-41.016,0.000
1709214801.295,-51.758,-35.645,-35.156,-44.434,0.000
1709214801.299,-50.293,-36.133,-41.992,-43.945,0.000
1709214801.302,-41.504,-42.480,-48.340,-54.688,0.000
1709214801.306,-41.016,-46.875,-41.992,-59.082,0.000
1709214801.310,-46.875,-50.293,-39.062,-48.340,0.000
1709214801.314,-49.316,-55.664,-39.551,-50.781,0.000
1709214801.318,-42.969,-56.152,-29.785,-53.223,0.000
1709214801.322,-43.457,-62.988,-33.203,-43.457,0.000
1709214801.326,-51.758,-53.711,-42.969,-42.969,0.000
1709214801.330,-57.617,-35.645,-39.062,-49.316,0.000
1709214801.334,-62.500,-40.527,-36.621,-47.363,0.000
1709214801.338,-55.664,-46.875,-48.340,-46.875,0.000
1709214801.342,-57.129,-47.363,-53.223,-54.199,0.000
1709214801.346,-55.664,-47.363,-44.434,-58.594,0.000
1709214801.349,-50.781,-47.852,-35.645,-49.805,0.000
1709214801.353,-54.199,-56.152,-38.086,-50.293,0.000
1709214801.357,-43.945,-53.223,-41.504,-48.340,0.000
1709214801.361,-38.574,-50.293,-46.875,-42.969,0.000
1709214801.365,-42.480,-62.012,-41.992,-44.922,0.000
1709214801.369,-49.316,-57.617,-33.203,-43.457,0.000
1709214801.373,-50.781,-41.504,-38.086,-47.363,0.000
1709214801.377,-44.922,-41.992,-36.133,-41.992,0.000
1709214801.381,-52.246,-51.758,-28.320,-42.969,0.000
1709214801.385,-55.176,-54.199,-21.484,-54.199,0.000
1709214801.389,-54.199,-48.828,-19.531,-46.387,0.000
1709214801.392,-57.617,-42.969,-21.973,-34.668,0.000
1709214801.396,-53.223,-41.016,-30.273,-33.691,0.000
1709214801.400,-46.387,-57.129,-35.645,-39.551,0.000
1709214801.404,-42.969,-61.523,-27.344,-41.504,0.000
1709214801.408,-45.898,-47.852,-26.367,-40.039,0.000
1709214801.412,-46.875,-53.223,-32.715,-34.180,0.000
1709214801.416,-41.992,-48.828,-38.086,-32.715,0.000
1709214801.420,-43.457,-45.410,-37.109,-42.969,0.000
1709214801.424,-40.527,-44.922,-34.180,-42.969,0.000
1709214801.428,-34.668,-35.156,-37.598,-46.387,0.000
1709214801.432,-42.969,-41.504,-44.434,-50.781,0.000
1709214801.435,-48.828,-42.969,-46.875,-50.293,0.000
1709214801.439,-36.621,-35.156,-40.527,-42.969,0.000
1709214801.443,-37.109,-39.551,-42.480,-42.969,0.000
1709214801.447,-45.410,-62.500,-46.875,-49.316,0.000
1709214801.451,-41.016,-58.105,-39.062,-43.457,0.000
1709214801.455,-43.457,-39.551,-32.227,-36.621,0.000
1709214801.459,-41.016,-34.668,-34.180,-35.156,0.000
1709214801.463,-32.227,-38.574,-39.551,-45.410,0.000
1709214801.467,-28.809,-40.039,-29.297,-42.480,0.000
1709214801.471,-33.691,-38.086,-23.438,-35.156,0.000
1709214801.475,0.000,-41.504,-27.344,-33.691,0.000
1709214801.478,0.000,-39.062,-29.297,-39.062,0.000
1709214801.482,0.000,-43.457,-34.180,-52.246,0.000
1709214801.486,0.000,-42.480,-36.133,-51.270,0.000
1709214801.490,0.000,-37.598,-28.809,-52.246,0.000
1709214801.494,0.000,-49.316,-28.320,-51.270,0.000
1709214801.498,0.000,-39.551,-36.621,-41.992,0.000
1709214801.502,0.000,-30.762,-38.086,-31.738,0.000
1709214801.506,0.000,-43.457,-40.527,-40.039,0.000
1709214801.510,0.000,-41.992,-39.551,-51.758,0.000
1709214801.514,0.000,-41.992,-36.133,-44.434,0.000
1709214801.517,0.000,-38.574,-34.180,-40.039,0.000
1709214801.521,-32.227,-40.039,-29.297,-41.016,0.000
1709214801.525,-32.715,-46.387,-22.949,-43.945,0.000
1709214801.529,-30.273,-50.293,-26.367,-44.434,0.000
1709214801.533,-34.668,-61.035,-41.016,-37.109,0.000
1709214801.537,-38.574,-51.758,-44.922,-38.086,0.000
1709214801.541,-35.645,-36.133,-40.527,-41.504,0.000
1709214801.545,-34.668,-38.574,-39.551,-44.922,0.000
1709214801.549,-41.992,-41.992,-41.504,-46.387,0.000
1709214801.553,-44.922,-45.898,-41.504,-47.852,0.000
1709214801.557,-42.969,-39.551,-38.086,-52.246,0.000
1709214801.560,-45.410,-32.227,-42.480,-63.477,0.000
1709214801.564,-45.410,-36.133,-45.410,-68.359,0.000
1709214801.568,-44.922,-41.992,-46.875,-56.152,0.000
1709214801.572,-47.852,-54.199,-44.434,-56.152,0.000
1709214801.576,-50.293,-56.152,-39.062,-66.406,0.000
1709214801.580,-49.805,-49.316,-39.551,-63.965,0.000
1709214801.584,-43.945,-46.387,-32.227,-57.617,0.000
1709214801.588,-39.062,-38.574,-32.227,-59.082,0.000
1709214801.592,-41.504,-33.691,-35.156,-45.410,0.000
1709214801.595,-53.711,-38.086,-30.762,-42.969,0.000
1709214801.599,-44.434,-47.363,-33.203,-54.688,0.000
1709214801.603,-41.992,-55.664,-38.086,-59.082,0.000
1709214801.607,-55.176,-62.988,-41.504,-65.430,0.000
1709214801.611,-51.270,-67.871,-38.574,-59.570,0.000
1709214801.615,-44.434,-50.293,-41.504,-50.293,0.000
1709214801.619,-33.691,-34.180,-46.875,-45.410,0.000
1709214801.623,-30.762,-43.457,-43.945,-50.781,0.000
1709214801.627,-41.992,-49.316,-34.668,-49.316,0.000
1709214801.631,-42.480,-44.922,-27.832,-43.945,0.000
1709214801.634,-48.828,-52.734,-31.250,-49.316,0.000
1709214801.638,-51.758,-57.129,-34.180,-40.039,0.000
1709214801.642,-36.133,-52.734,-41.992,-35.645,0.000
1709214801.646,-30.762,-50.781,-41.992,-45.898,0.000
1709214801.650,-36.133,-55.176,-38.574,-54.688,0.000
1709214801.654,-40.039,-54.688,-39.551,-53.711,0.000
1709214801.658,-41.016,-47.363,-47.852,-57.129,0.000
1709214801.662,-44.434,-50.293,-47.363,-57.129,0.000
1709214801.666,-49.805,-45.410,-47.363,-52.246,0.000
1709214801.670,-45.898,-42.480,-43.457,-45.898,0.000
1709214801.673,-41.016,-44.434,-38.574,-42.480,0.000
1709214801.677,-37.109,-39.551,-37.598,-40.039,0.000
1709214801.681,-33.691,-44.434,-33.203,-38.574,0.000
1709214801.685,-32.227,-54.688,-28.809,-42.480,0.000
1709214801.689,-35.645,-49.316,-24.414,-41.016,0.000
1709214801.693,-45.410,-43.945,-31.250,-43.457,0.000
1709214801.697,-46.875,-43.457,-27.344,-41.016,0.000
1709214801.701,-47.363,-42.480,-27.832,-45.898,0.000
1709214801.705,-46.875,-58.105,-33.203,-56.152,0.000
1709214801.709,-42.480,-50.293,-28.320,-48.340,0.000
1709214801.713,-42.480,-31.250,-27.832,-37.598,0.000
1709214801.717,-39.062,-34.668,-35.156,-41.504,0.000
1709214801.720,-31.250,-40.527,-35.645,-48.340,0.000
1709214801.724,-27.832,-47.363,-34.180,-49.805,0.000
1709214801.728,-22.461,-42.480,-39.062,-39.551,0.000
1709214801.732,-18.555,-41.504,-33.691,-31.250,0.000
1709214801.736,-22.949,-41.016,-30.762,-38.574,0.000
1709214801.740,-14.160,-43.945,-35.645,-33.203,0.000
1709214801.744,-13.184,-49.316,-35.156,-24.902,0.000
1709214801.748,-27.832,-42.969,-35.156,-40.527,0.000
1709214801.752,-30.273,-38.086,-36.133,-43.457,0.000
1709214801.756,-30.273,-40.039,-32.715,-37.598,0.000
1709214801.760,-31.738,-44.434,-38.086,-38.574,0.000
1709214801.763,-28.320,-41.504,-44.922,-38.574,0.000
1709214801.767,-25.879,-39.062,-43.945,-32.715,0.000
1709214801.771,-32.715,-42.969,-38.086,-33.691,0.000
1709214801.775,-38.086,-48.828,-35.645,-38.574,0.000
1709214801.779,-36.621,-52.246,-39.551,-31.250,0.000
1709214801.783,-35.156,-57.617,-42.480,-33.691,0.000
1709214801.787,-37.109,-65.430,-35.645,-32.715,0.000
1709214801.791,-44.434,-58.594,-36.133,-25.391,0.000
1709214801.795,-46.875,-49.805,-36.621,-39.551,0.000
1709214801.799,-35.645,-42.480,-33.203,-44.922,0.000
1709214801.803,-29.297,-35.156,-37.598,-51.758,0.000
1709214801.806,-32.715,-41.504,-39.551,-51.758,0.000
1709214801.810,-38.574,-36.133,-40.039,-49.316,0.000
1709214801.814,-43.945,-33.691,-38.574,-51.270,0.000
1709214801.818,-32.227,-42.480,-33.203,-41.992,0.000
1709214801.822,-28.809,-44.434,-34.180,-48.340,0.000
1709214801.826,-39.062,-36.621,-36.133,-55.664,0.000
1709214801.830,-39.062,-35.156,-35.645,-53.223,0.000
1709214801.834,-45.410,-41.504,-42.969,-48.828,0.000
1709214801.838,-48.340,-42.480,-47.363,-49.805,0.000
1709214801.842,-42.480,-44.434,-43.457,-55.664,0.000
1709214801.846,-41.992,-43.457,-41.504,-57.129,0.000
1709214801.849,-45.410,-38.086,-38.574,-62.500,0.000
1709214801.853,-47.852,-45.898,-40.039,-67.383,0.000
1709214801.857,-45.898,-53.223,-42.480,-60.059,0.000
1709214801.861,-47.363,-42.969,-41.016,-50.293,0.000
1709214801.865,-48.340,-51.758,-31.738,-47.363,0.000
1709214801.869,-46.387,-48.828,-32.715,-52.246,0.000
1709214801.873,-49.316,-28.320,-41.504,-49.805,0.000
1709214801.877,-44.922,-39.062,-35.645,-32.227,0.000
1709214801.881,-41.992,-53.711,-46.875,-39.551,0.000
1709214801.885,-41.504,-40.527,-53.223,-51.270,0.000
1709214801.888,-42.969,-34.668,-42.969,-47.852,0.000
1709214801.892,-50.781,-45.410,-44.434,-50.781,0.000
1709214801.896,-48.828,-52.246,-46.875,-56.152,0.000
1709214801.900,-41.504,-52.734,-44.922,-48.828,0.000
1709214801.904,-41.016,-48.828,-43.945,-47.852,0.000
1709214801.908,-42.969,-43.457,-36.133,-54.688,0.000
1709214801.912,-44.922,-35.645,-21.484,-47.363,0.000
1709214801.916,-44.434,-36.621,-16.113,-46.875,0.000
1709214801.920,-43.945,-49.316,-29.297,-51.758,0.000
1709214801.924,-41.504,-54.688,-33.203,-49.316,0.000
1709214801.927,-41.504,-52.734,-35.645,-56.152,0.000
1709214801.931,-43.457,-53.711,-41.992,-60.059,0.000
1709214801.935,-33.691,-54.199,-46.875,-54.688,0.000
1709214801.939,-27.344,-50.781,-43.457,-48.828,0.000
1709214801.943,-26.855,-39.062,-41.016,-50.293,0.000
1709214801.947,-28.809,-26.855,-45.898,-48.828,0.000
1709214801.951,-36.621,-32.715,-44.922,-39.062,0.000
1709214801.955,-37.598,-46.387,-46.875,-47.852,0.000
1709214801.959,-36.621,-42.969,-35.645,-55.176,0.000
1709214801.963,-28.320,-43.945,-30.273,-50.293,0.000
1709214801.966,-22.949,-48.340,-35.156,-41.992,0.000
1709214801.970,-29.297,-40.527,-31.250,-39.062,0.000
1709214801.974,-33.691,-49.316,-30.762,-39.551,0.000
1709214801.978,-38.086,-52.734,-30.273,-33.691,0.000
1709214801.982,-35.156,-51.270,-30.273,-37.109,0.000
1709214801.986,-37.598,-59.570,-34.668,-43.945,0.000
1709214801.990,-42.480,-50.781,-38.086,-45.410,0.000
1709214801.994,-41.016,-38.086,-41.992,-46.387,0.000
1709214801.998,-40.039,-39.551,-34.180,-40.039,0.000
1709214802.002,-29.297,-46.387,-20.020,-30.762,0.000
1709214802.006,-31.738,-55.664,-23.926,-34.180,0.000
1709214802.010,-37.598,-45.410,-34.180,-39.551,0.000
1709214802.014,-32.715,-33.691,-29.297,-32.227,0.000
1709214802.017,-30.762,-39.062,-24.414,-35.645,0.000
1709214802.021,-26.855,-42.969,-26.367,-38.574,0.000
1709214802.025,-25.879,-42.480,-24.902,-35.156,0.000
1709214802.029,-25.391,-40.527,-22.949,-29.785,0.000
1709214802.033,-28.320,-38.574,-33.691,-31.738,0.000
1709214802.037,-28.320,-28.809,-41.016,-32.227,0.000
1709214802.041,-30.762,-33.203,-33.203,-31.250,0.000
1709214802.045,-42.480,-48.340,-30.273,-38.574,0.000
1709214802.049,-46.875,-43.945,-30.762,-37.598,0.000
1709214802.053,-42.969,-38.574,-33.691,-42.969,0.000
1709214802.057,-38.086,-41.016,-32.227,-41.016,0.000
1709214802.061,-33.691,-38.086,-33.203,-38.574,0.000
1709214802.064,-36.621,-40.527,-41.504,-46.875,0.000
1709214802.068,-37.109,-41.504,-40.039,-41.016,0.000
1709214802.072,-38.574,-33.691,-43.945,-28.320,0.000
1709214802.076,-40.039,-42.969,-52.734,-33.203,0.000
1709214802.080,-40.527,-56.641,-50.293,-48.340,0.000
1709214802.084,-37.109,-51.270,-45.410,-38.574,0.000
1709214802.088,-33.691,-43.457,-53.711,-32.227,0.000
1709214802.092,-39.062,-35.645,-53.223,-42.969,0.000
1709214802.096,-33.691,-31.738,-40.527,-42.480,0.000
1709214802.100,-26.855,-36.621,-40.527,-41.504,0.000
1709214802.104,-24.414,-49.316,-51.758,-45.898,0.000
1709214802.108,-20.508,-48.828,-53.711,-44.922,0.000
1709214802.111,-29.785,-41.992,-42.969,-45.898,0.000
1709214802.115,-37.109,-53.223,-43.457,-44.434,0.000
1709214802.119,-40.527,-50.293,-60.547,-39.062,0.000
1709214802.123,-34.180,-41.016,-58.105,-41.016,0.000
1709214802.127,-25.879,-38.086,-41.992,-37.109,0.000
1709214802.131,0.000,-36.621,-46.875,-31.250,0.000
1709214802.135,0.000,-44.922,-46.875,-24.902,0.000
1709214802.139,0.000,-53.223,-48.828,-19.531,0.000
1709214802.143,0.000,-44.434,-52.734,-23.438,0.000
1709214802.147,0.000,-35.645,-35.645,-19.043,0.000
1709214802.151,0.000,-41.504,-31.738,-14.648,0.000
1709214802.154,0.000,-47.852,-40.527,-23.438,0.000
1709214802.158,0.000,-36.621,-45.410,-33.203,0.000
1709214802.162,0.000,-34.668,-44.922,-28.809,0.000
1709214802.166,0.000,-41.016,-42.480,-33.203,0.000
1709214802.170,0.000,-38.574,-34.180,-38.086,0.000
1709214802.174,0.000,-35.645,-32.715,-34.668,0.000
1709214802.178,-37.598,-36.621,-43.945,-35.645,0.000
1709214802.182,-29.785,-33.203,-38.086,-37.109,0.000
1709214802.186,-36.133,-35.645,-33.203,-50.293,0.000
1709214802.190,-49.316,-43.457,-39.062,-59.082,0.000
1709214802.194,-49.805,-50.781,-36.621,-54.688,0.000
1709214802.197,-43.945,-45.410,-31.738,-45.898,0.000
1709214802.201,-43.945,-41.992,-31.738,-45.410,0.000
1709214802.205,-48.828,-47.363,-34.180,-48.340,0.000
1709214802.209,-53.711,-43.457,-35.645,-48.828,0.000
1709214802.213,-55.176,-47.363,-25.879,-50.293,0.000
1709214802.217,-53.223,-51.758,-26.367,-45.898,0.000
1709214802.221,-51.270,-50.293,-38.086,-48.828,0.000
1709214802.225,-43.457,-50.293,-33.691,-53.223,0.000
1709214802.229,-39.551,-59.570,-34.180,-52.734,0.000
1709214802.233,-28.320,-46.875,-31.738,-39.551,0.000
1709214802.237,-29.297,-31.250,-33.691,-35.156,0.000
1709214802.240,-39.551,-40.527,-38.086,-37.109,0.000
1709214802.244,-39.551,-42.969,-37.109,-33.691,0.000
1709214802.248,-41.504,-47.363,-38.574,-40.039,0.000
1709214802.252,-35.156,-57.617,-30.762,-34.180,0.000
1709214802.256,-34.180,-48.828,-27.832,-27.832,0.000
1709214802.260,-32.227,-38.086,-31.738,-32.715,0.000
1709214802.264,-33.691,-42.969,-38.086,-40.039,0.000
1709214802.268,-38.574,-40.527,-41.992,-42.480,0.000
1709214802.272,-45.410,-47.363,-48.340,-55.176,0.000
1709214802.276,-48.828,-57.617,-45.898,-59.082,0.000
1709214802.279,-41.016,-44.922,-42.969,-49.316,0.000
1709214802.283,-28.320,-33.691,-31.250,-41.992,0.000
1709214802.287,-26.367,-44.434,-27.344,-38.086,0.000
1709214802.291,-29.785,-55.664,-31.250,-40.039,0.000
1709214802.295,-24.902,-45.898,-23.926,-32.227,0.000
1709214802.299,-14.648,-31.250,-21.484,-19.531,0.000
1709214802.303,-12.207,-39.551,-31.738,-33.203,0.000
1709214802.307,-18.066,-50.781,-44.922,-47.852,0.000
1709214802.311,-29.785,-44.922,-42.480,-43.457,0.000
1709214802.315,-28.320,-46.387,-30.273,-39.551,0.000
1709214802.318,-19.043,-45.410,-26.367,-40.039,0.000
1709214802.322,-25.879,-39.062,-30.273,-49.316,0.000
1709214802.326,-34.668,-41.992,-37.109,-56.152,0.000
1709214802.330,-38.086,-48.340,-41.992,-54.199,0.000
1709214802.334,-36.621,-44.434,-34.180,-43.945,0.000
1709214802.338,-39.062,-41.992,-29.297,-42.480,0.000
1709214802.342,-41.992,-46.387,-30.273,-39.062,0.000
1709214802.346,-39.551,-45.410,-26.367,-29.297,0.000
1709214802.350,-45.898,-49.805,-40.039,-39.551,0.000
1709214802.354,-49.316,-52.246,-39.551,-46.875,0.000
1709214802.358,-43.945,-46.387,-35.645,-44.922,0.000
1709214802.361,-46.875,-49.316,-45.898,-50.293,0.000
1709214802.365,-50.781,-49.805,-41.016,-54.199,0.000
1709214802.369,-49.805,-43.945,-38.086,-45.898,0.000
1709214802.373,-47.852,-37.598,-43.457,-40.039,0.000
1709214802.377,-42.480,-36.133,-42.480,-39.551,0.000
1709214802.381,-34.668,-40.039,-47.852,-37.598,0.000
1709214802.385,-22.461,-44.922,-46.387,-27.344,0.000
1709214802.389,-25.879,-41.016,-32.715,-20.508,0.000
1709214802.393,-33.691,-36.133,-35.645,-33.691,0.000
1709214802.396,-35.645,-44.434,-37.598,-38.574,0.000
1709214802.400,-36.133,-54.688,-31.738,-36.133,0.000
1709214802.404,-32.227,-55.176,-33.203,-43.457,0.000
1709214802.408,-33.691,-41.992,-36.621,-47.363,0.000
1709214802.412,-41.016,-35.156,-33.691,-44.434,0.000
1709214802.416,-46.387,-43.945,-30.762,-41.992,0.000
1709214802.420,-39.551,-47.363,-29.297,-41.016,0.000
1709214802.424,-38.086,-49.316,-36.621,-53.711,0.000
1709214802.428,-38.086,-51.758,-36.133,-65.430,0.000
1709214802.431,-37.598,-60.059,-30.273,-52.734,0.000
1709214802.435,-41.504,-47.852,-37.109,-48.340,0.000
1709214802.439,-44.922,-30.762,-38.086,-49.805,0.000
1709214802.443,-41.504,-37.598,-30.273,-51.758,0.000
1709214802.447,-46.387,-40.527,-30.273,-59.570,0.000
1709214802.451,-43.945,-36.621,-31.738,-53.223,0.000
1709214802.455,-43.457,-43.945,-31.250,-46.387,0.000
1709214802.459,-49.316,-58.105,-36.133,-47.363,0.000
1709214802.463,-41.016,-58.594,-33.203,-48.828,0.000
1709214802.467,-34.180,-49.316,-26.855,-45.410,0.000
1709214802.471,-41.992,-46.387,-36.133,-45.898,0.000
1709214802.475,-48.828,-47.852,-44.434,-50.293,0.000
1709214802.478,-36.621,-58.594,-40.039,-49.805,0.000
1709214802.482,-23.438,-60.547,-44.434,-49.805,0.000
1709214802.486,-29.297,-43.457,-42.480,-50.293,0.000
1709214802.490,-44.922,-42.480,-32.715,-51.758,0.000
1709214802.494,-45.410,-47.852,-31.250,-45.410,0.000
1709214802.498,-32.227,-39.062,-30.762,-35.156,0.000
1709214802.502,-37.598,-46.387,-32.715,-49.805,0.000
1709214802.506,-54.199,-65.918,-36.133,-59.082,0.000
1709214802.510,-58.594,-50.293,-39.551,-48.828,0.000
1709214802.514,-49.805,-35.645,-34.668,-41.504,0.000
1709214802.518,-44.434,-41.016,-27.344,-37.109,0.000
1709214802.521,-43.945,-44.922,-31.250,-33.203,0.000
1709214802.525,-36.621,-41.992,-27.832,-32.227,0.000
1709214802.529,-42.480,-43.945,-42.969,-37.598,0.000
1709214802.533,-40.527,-51.270,-45.410,-35.156,0.000
1709214802.537,-29.297,-42.480,-29.785,-28.809,0.000
1709214802.541,-24.414,-32.227,-30.762,-23.926,0.000
1709214802.545,-15.625,-34.180,-24.902,-23.438,0.000
1709214802.549,-21.973,-42.969,-31.738,-31.250,0.000
1709214802.553,-27.832,-44.922,-35.645,-32.227,0.000
1709214802.557,-28.809,-38.574,-30.273,-25.391,0.000
1709214802.561,-36.133,-39.551,-34.668,-34.180,0.000
1709214802.564,-35.156,-45.898,-39.551,-41.992,0.000
1709214802.568,-36.621,-46.875,-39.551,-41.504,0.000
1709214802.572,-36.133,-44.434,-40.039,-40.527,0.000
1709214802.576,-33.691,-43.457,-54.199,-38.574,0.000
1709214802.580,-22.461,-37.598,-46.387,-28.809,0.000
1709214802.584,-20.508,-33.691,-26.367,-22.949,0.000
1709214802.588,-38.574,-47.363,-37.109,-36.133,0.000
1709214802.592,-40.527,-49.316,-41.992,-46.387,0.000
1709214802.596,-31.738,-38.574,-43.457,-40.527,0.000
1709214802.600,-24.902,-37.598,-44.434,-41.504,0.000
1709214802.604,-26.855,-41.504,-39.062,-48.828,0.000
1709214802.607,-30.273,-47.363,-34.668,-41.504,0.000
1709214802.611,-34.668,-48.340,-39.551,-41.016,0.000
1709214802.615,-45.410,-45.898,-51.758,-47.363,0.000
1709214802.619,-45.410,-44.922,-50.293,-44.434,0.000
1709214802.623,-32.715,-45.898,-48.340,-49.316,0.000
1709214802.627,-33.203,-49.805,-54.688,-51.270,0.000
1709214802.631,-39.551,-35.645,-42.480,-41.504,0.000
1709214802.635,-33.691,-17.090,-32.715,-46.875,0.000
1709214802.639,-30.273,-22.461,-31.738,-48.828,0.000
1709214802.643,-36.621,-41.504,-33.691,-48.340,0.000
1709214802.646,-40.527,-45.410,-41.992,-46.875,0.000
1709214802.650,-39.062,-41.504,-44.922,-45.898,0.000
1709214802.654,-30.273,-44.922,-33.203,-49.805,0.000
1709214802.658,-28.320,-47.852,-40.527,-50.293,0.000
1709214802.662,-30.273,-49.316,-47.363,-43.945,0.000
1709214802.666,-31.738,-50.293,-34.668,-40.527,0.000
1709214802.670,-28.320,-44.922,-26.855,-39.551,0.000
1709214802.674,-20.996,-41.504,-35.645,-29.785,0.000
1709214802.678,-23.926,-41.504,-42.480,-34.668,0.000
1709214802.682,-23.438,-44.434,-37.598,-40.039,0.000
1709214802.685,-21.973,-53.223,-34.180,-30.762,0.000
1709214802.689,-27.832,-45.898,-34.180,-29.785,0.000
1709214802.693,-30.273,-38.086,-44.434,-31.738,0.000
1709214802.697,-28.809,-54.199,-41.992,-30.273,0.000
1709214802.701,-22.461,-57.129,-41.504,-27.832,0.000
1709214802.705,-22.461,-44.434,-50.781,-33.691,0.000
1709214802.709,-21.973,-52.246,-48.828,-37.598,0.000
1709214802.713,-22.949,-55.664,-42.969,-37.109,0.000
1709214802.717,-28.320,-47.852,-55.664,-33.203,0.000
1709214802.721,-32.227,-41.016,-52.246,-35.645,0.000
1709214802.724,-33.203,-40.527,-39.062,-50.293,0.000
1709214802.728,-27.832,-37.598,-38.574,-47.363,0.000
1709214802.732,-37.109,-41.504,-41.992,-46.387,0.000
1709214802.736,-48.340,-53.223,-44.922,-49.316,0.000
1709214802.740,-49.316,-51.270,-38.086,-44.922,0.000
1709214802.744,-43.945,-49.316,-41.016,-46.875,0.000
1709214802.748,-48.828,-48.828,-46.875,-46.387,0.000
1709214802.752,-52.246,-49.805,-41.016,-49.316,0.000
1709214802.756,-36.133,-46.387,-27.344,-46.875,0.000
1709214802.760,-43.457,-46.387,-33.691,-43.457,0.000
1709214802.763,-56.152,-55.664,-50.781,-51.758,0.000
1709214802.767,-51.758,-55.176,-50.781,-53.711,0.000
1709214802.771,-46.387,-50.781,-42.969,-41.992,0.000
1709214802.775,-44.922,-51.758,-32.715,-38.086,0.000
1709214802.779,-46.387,-49.805,-30.273,-41.992,0.000
1709214802.783,-42.969,-45.898,-29.785,-36.133,0.000
1709214802.787,-41.992,-46.875,-28.809,-34.668,0.000
1709214802.791,-42.480,-51.758,-28.809,-29.785,0.000
1709214802.795,-38.086,-50.293,-31.250,-24.414,0.000
1709214802.798,-34.180,-53.711,-34.180,-22.461,0.000
1709214802.802,-34.180,-56.152,-37.109,-27.344,0.000
1709214802.806,-37.109,-48.340,-31.738,-33.203,0.000
1709214802.810,-40.527,-39.551,-26.367,-29.297,0.000
1709214802.814,-37.598,-46.875,-41.016,-31.250,0.000
1709214802.818,-29.785,-56.152,-41.016,-33.691,0.000
1709214802.822,-34.180,-55.664,-25.391,-30.762,0.000
1709214802.826,-46.387,-51.758,-30.762,-40.039,0.000
1709214802.830,-46.875,-50.781,-41.992,-53.223,0.000
1709214802.834,-40.527,-52.246,-41.016,-54.688,0.000
1709214802.838,-33.691,-43.457,-34.668,-45.898,0.000
1709214802.842,-36.621,-40.527,-39.551,-43.945,0.000
1709214802.845,-37.598,-45.410,-42.969,-48.828,0.000
1709214802.849,-38.086,-50.293,-38.574,-48.340,0.000
1709214802.853,-42.480,-57.129,-40.527,-42.969,0.000
1709214802.857,-41.016,-47.363,-40.527,-34.180,0.000
1709214802.861,-40.527,-40.039,-38.574,-35.156,0.000
1709214802.865,-38.574,-42.969,-40.039,-41.504,0.000
1709214802.869,-38.574,-41.504,-41.016,-43.457,0.000
1709214802.873,-40.039,-38.574,-41.504,-46.387,0.000
1709214802.877,-46.875,-42.969,-41.016,-48.828,0.000
1709214802.881,-51.270,-45.898,-38.574,-49.316,0.000
1709214802.885,-45.410,-49.805,-36.133,-55.664,0.000
1709214802.888,-41.992,-46.875,-31.250,-50.781,0.000
1709214802.892,-45.898,-50.293,-27.344,-43.945,0.000
1709214802.896,-36.133,-43.945,-30.273,-32.715,0.000
1709214802.900,-33.203,-42.969,-27.344,-27.832,0.000
1709214802.904,-41.504,-61.035,-28.320,-38.086,0.000
1709214802.908,-40.039,-46.387,-31.738,-40.039,0.000
1709214802.912,-31.738,-35.156,-30.762,-24.902,0.000
1709214802.916,-32.715,-33.203,-34.668,-20.996,0.000
1709214802.920,-31.250,-26.855,-31.738,-28.809,0.000
1709214802.924,-25.879,-37.109,-31.738,-28.320,0.000
1709214802.928,-30.273,-47.363,-33.691,-33.691,0.000
1709214802.931,-31.250,-41.992,-23.926,-37.109,0.000
1709214802.935,-26.367,-35.156,-27.344,-40.039,0.000
1709214802.939,-20.996,-37.598,-31.250,-37.109,0.000
1709214802.943,-20.508,-49.805,-35.645,-34.180,0.000
1709214802.947,-26.855,-49.805,-39.551,-39.551,0.000
1709214802.951,-27.344,-34.180,-26.367,-34.180,0.000
1709214802.955,-20.508,-36.133,-29.297,-36.621,0.000
1709214802.959,-26.855,-42.480,-39.062,-32.227,0.000
1709214802.963,-28.320,-33.203,-30.762,-26.855,0.000
1709214802.967,-30.273,-35.645,-29.297,-39.062,0.000
1709214802.970,-37.109,-44.434,-30.762,-42.480,0.000
1709214802.974,-34.668,-45.898,-31.738,-39.551,0.000
1709214802.978,-38.086,-43.457,-40.039,-30.762,0.000
1709214802.982,-34.668,-48.340,-37.598,-33.203,0.000
1709214802.986,-32.227,-53.223,-41.016,-43.457,0.000
1709214802.990,-34.668,-52.246,-41.992,-47.852,0.000
1709214802.994,-35.645,-49.316,-28.809,-46.387,0.000
1709214802.998,-36.621,-43.945,-31.250,-50.293,0.000
1709214803.002,-31.250,-39.551,-33.691,-46.387,0.000
1709214803.006,-29.785,-45.898,-32.715,-35.645,0.000
1709214803.010,-31.738,-47.852,-37.109,-44.922,0.000
1709214803.013,-35.156,-51.270,-40.039,-55.664,0.000
1709214803.017,-34.180,-61.035,-41.016,-49.316,0.000
1709214803.021,-33.203,-58.594,-41.016,-41.504,0.000
1709214803.025,-34.180,-51.270,-43.945,-48.828,0.000
1709214803.029,-42.480,-52.734,-48.828,-47.363,0.000
1709214803.033,-45.898,-59.082,-43.945,-41.992,0.000
1709214803.037,-38.574,-44.434,-31.738,-42.480,0.000
1709214803.041,-42.480,-32.715,-28.809,-48.340,0.000
1709214803.045,-47.852,-35.156,-33.691,-49.805,0.000
1709214803.049,-49.316,-42.969,-38.574,-44.434,0.000
1709214803.052,-45.898,-41.504,-39.062,-43.457,0.000
1709214803.056,-43.457,-42.480,-39.062,-46.875,0.000
1709214803.060,-48.828,-49.805,-44.434,-52.734,0.000
1709214803.064,-37.598,-39.062,-35.645,-42.969,0.000
1709214803.068,-36.133,-32.715,-32.227,-42.969,0.000
1709214803.072,-50.781,-41.992,-41.016,-51.758,0.000
1709214803.076,-47.852,-49.316,-37.109,-38.086,0.000
1709214803.080,-41.992,-46.875,-46.387,-40.527,0.000
1709214803.084,-42.969,-35.156,-56.152,-51.270,0.000
1709214803.088,-49.316,-33.203,-46.875,-52.246,0.000
1709214803.091,-56.152,-40.039,-39.551,-41.992,0.000
1709214803.095,-52.246,-43.457,-39.551,-35.156,0.000
1709214803.099,-38.574,-40.527,-41.016,-43.945,0.000
1709214803.103,-35.645,-41.992,-39.062,-41.992,0.000
1709214803.107,-34.668,-51.758,-40.527,-37.109,0.000
1709214803.111,-35.156,-47.363,-41.504,-31.738,0.000
1709214803.115,-33.691,-46.875,-46.387,-27.344,0.000
1709214803.119,-32.227,-66.406,-47.852,-34.668,0.000
1709214803.123,-37.109,-53.223,-43.945,-47.363,0.000
1709214803.127,-33.691,-35.645,-42.969,-42.969,0.000
1709214803.130,-35.645,-40.527,-48.340,-41.016,0.000
1709214803.134,-40.039,-40.527,-51.270,-45.410,0.000
1709214803.138,-32.715,-47.852,-42.480,-33.203,0.000
1709214803.142,-31.250,-51.758,-39.551,-35.645,0.000
1709214803.146,-32.715,-49.316,-36.133,-40.039,0.000
1709214803.150,-34.668,-48.340,-33.203,-33.203,0.000
1709214803.154,-33.203,-37.598,-33.203,-33.691,0.000
1709214803.158,-31.250,-33.203,-35.645,-34.668,0.000
1709214803.162,-29.297,-36.133,-40.527,-31.250,0.000
1709214803.165,-37.109,-42.480,-43.945,-37.109,0.000
1709214803.169,-41.504,-55.664,-42.969,-43.945,0.000
1709214803.173,-42.969,-51.758,-41.992,-42.969,0.000
1709214803.177,-42.969,-38.086,-41.016,-41.992,0.000
1709214803.181,-34.668,-34.668,-41.016,-31.738,0.000
1709214803.185,-35.156,-36.621,-42.969,-33.691,0.000
1709214803.189,-43.945,-40.527,-37.598,-47.363,0.000
1709214803.193,-40.527,-38.574,-38.086,-45.898,0.000
1709214803.197,-32.227,-46.875,-39.062,-36.133,0.000
1709214803.201,-29.297,-56.152,-34.668,-41.504,0.000
1709214803.204,-29.785,-42.969,-28.320,-43.945,0.000
1709214803.209,-36.133,-43.457,-33.691,-52.246,0.000
1709214803.212,-27.832,-46.875,-28.809,-47.852,0.000
1709214803.216,-26.367,-44.434,-25.391,-35.645,0.000
1709214803.220,-40.039,-49.316,-34.668,-39.062,0.000
1709214803.224,-43.945,-51.270,-39.062,-47.363,0.000
1709214803.228,-37.598,-47.852,-35.645,-39.551,0.000
1709214803.232,-44.434,-50.293,-42.969,-35.645,0.000
1709214803.236,-54.688,-44.922,-48.340,-39.062,0.000
1709214803.240,-53.223,-47.852,-38.086,-33.691,0.000
1709214803.244,-55.176,-52.246,-33.691,-31.250,0.000
1709214803.248,-50.781,-43.457,-28.320,-40.527,0.000
1709214803.251,-52.246,-42.969,-27.832,-35.645,0.000
1709214803.255,-53.711,-47.363,-29.785,-28.809,0.000
1709214803.259,-43.457,-50.293,-27.344,-38.574,0.000
1709214803.263,-38.086,-43.945,-25.879,-39.551,0.000
1709214803.267,-36.133,-41.504,-30.273,-39.062,0.000
1709214803.271,-37.109,-48.828,-41.016,-49.805,0.000
1709214803.275,-33.691,-44.434,-39.551,-53.711,0.000
1709214803.279,-32.227,-48.828,-34.668,-45.898,0.000
1709214803.283,-33.203,-57.129,-38.086,-43.457,0.000
1709214803.287,-37.109,-44.922,-48.828,-32.227,0.000
1709214803.291,-33.691,-30.762,-34.180,-20.020,0.000
1709214803.295,-33.203,-34.668,-26.855,-33.691,0.000
1709214803.298,-33.203,-49.316,-38.086,-47.852,0.000
1709214803.302,-34.668,-50.293,-44.922,-55.664,0.000
1709214803.306,-41.016,-45.410,-50.293,-60.059,0.000
1709214803.310,-47.363,-41.016,-51.270,-53.223,0.000
1709214803.314,-51.270,-51.758,-46.387,-49.316,0.000
1709214803.318,-50.293,-56.641,-40.039,-55.664,0.000
1709214803.322,-45.410,-46.387,-42.480,-61.035,0.000
1709214803.326,-44.922,-53.711,-43.945,-58.105,0.000
1709214803.330,-51.758,-50.293,-38.574,-58.594,0.000
1709214803.334,-56.641,-50.293,-31.250,-56.641,0.000
1709214803.338,-54.688,-61.523,-39.062,-54.688,0.000
1709214803.341,-50.293,-49.805,-43.945,-59.082,0.000
1709214803.345,-47.852,-36.133,-36.621,-57.617,0.000
1709214803.349,0.000,-34.180,-38.086,-46.875,0.000
1709214803.353,0.000,-33.691,-36.621,-46.387,0.000
1709214803.357,0.000,-41.504,-38.086,-44.434,0.000
1709214803.361,0.000,-50.781,-45.898,-48.340,0.000
1709214803.365,0.000,-44.922,-39.062,-51.270,0.000
1709214803.369,0.000,-49.316,-38.574,-44.922,0.000
1709214803.373,0.000,-48.340,-41.992,-47.363,0.000
1709214803.377,0.000,-44.922,-42.480,-40.039,0.000
1709214803.381,0.000,-48.340,-51.758,-32.715,0.000
1709214803.384,0.000,-43.945,-49.316,-43.945,0.000
1709214803.388,0.000,-38.574,-36.621,-49.316,0.000
1709214803.392,0.000,-42.969,-40.527,-51.758,0.000
1709214803.396,-35.645,-55.664,-40.527,0.000,0.000
1709214803.400,-31.738,-51.270,-32.715,0.000,0.000
1709214803.404,-28.809,-45.410,-34.668,0.000,0.000
1709214803.408,-26.367,-47.852,-34.180,0.000,0.000
1709214803.412,-23.926,-53.711,-36.621,0.000,0.000
1709214803.416,-26.367,-53.223,-44.922,0.000,0.000
1709214803.420,-27.832,-54.688,-50.781,0.000,0.000
1709214803.424,-25.879,-55.664,-46.875,0.000,0.000
1709214803.427,-21.484,-45.898,-43.457,0.000,0.000
1709214803.431,-29.785,-52.246,-48.828,0.000,0.000
1709214803.435,-35.645,-53.711,-52.734,0.000,0.000
1709214803.439,-28.320,-43.945,-41.504,0.000,0.000
1709214803.443,-28.809,-37.109,-41.992,-42.969,0.000
1709214803.447,-31.250,-36.621,-43.945,-45.898,0.000
1709214803.451,-37.109,-46.875,-37.598,-41.016,0.000
1709214803.455,-41.992,-58.594,-44.434,-43.457,0.000
1709214803.459,-38.574,-61.035,-45.898,-51.758,0.000
1709214803.463,-36.133,-67.383,-41.504,-57.129,0.000
1709214803.466,-37.598,-57.617,-42.480,-52.246,0.000
1709214803.470,-41.992,-41.992,-46.387,-47.363,0.000
1709214803.474,-46.875,-48.340,-45.410,-50.293,0.000
1709214803.478,-36.133,-44.922,-35.156,-39.062,0.000
1709214803.482,-33.203,-40.039,-34.180,-38.574,0.000
1709214803.486,-40.039,-43.945,-42.480,-42.480,0.000
1709214803.490,-35.156,-42.480,-41.016,-41.992,0.000
1709214803.494,-32.227,-47.363,-40.039,-45.410,0.000
1709214803.498,-34.668,-55.176,-43.945,-39.551,0.000
1709214803.501,-39.062,-53.223,-42.969,-39.551,0.000
1709214803.505,-43.945,-41.016,-40.039,-42.969,0.000
1709214803.509,-48.828,-45.410,-37.598,-44.922,0.000
1709214803.513,-46.387,-50.781,-36.133,-38.086,0.000
1709214803.517,-42.969,-42.969,-37.598,-32.715,0.000
1709214803.521,-41.016,-47.852,-41.504,-33.203,0.000
1709214803.525,-36.133,-44.434,-38.574,-29.785,0.000
1709214803.529,-26.855,-36.133,-34.668,-20.020,0.000
1709214803.533,-24.414,-36.621,-30.273,-27.344,0.000
1709214803.537,-27.344,-42.969,-36.133,-35.645,0.000
1709214803.541,-22.949,-50.781,-50.781,-32.715,0.000
1709214803.545,-21.484,-49.316,-45.410,-34.180,0.000
1709214803.548,-25.391,-43.457,-29.297,-30.762,0.000
1709214803.552,-25.879,-40.039,-24.902,-29.297,0.000
1709214803.556,-27.832,-43.457,-31.738,-29.297,0.000
1709214803.560,-35.156,-45.898,-41.992,-33.691,0.000
1709214803.564,-32.715,-41.016,-45.898,-46.387,0.000
1709214803.568,-26.855,-39.551,-44.434,-46.387,0.000
1709214803.572,-33.691,-40.527,-39.551,-38.574,0.000
1709214803.576,-41.016,-42.969,-41.992,-38.574,0.000
1709214803.580,-33.203,-48.340,-41.016,-35.645,0.000
1709214803.584,-31.738,-45.898,-34.668,-37.598,0.000
1709214803.588,-36.133,-38.086,-27.832,-27.344,0.000
1709214803.592,-37.598,-39.062,-32.715,-24.414,0.000
1709214803.595,-39.551,-41.016,-36.621,-33.203,0.000
1709214803.599,-40.039,-46.387,-38.086,-37.598,0.000
1709214803.603,-43.945,-52.246,-46.387,-46.875,0.000
1709214803.607,-54.688,-43.945,-41.992,-49.805,0.000
1709214803.611,-58.594,-47.363,-38.086,-49.805,0.000
1709214803.615,-52.246,-60.059,-43.457,-44.922,0.000
1709214803.619,-44.922,-55.176,-45.410,-37.109,0.000
1709214803.623,-36.621,-50.293,-31.738,-47.363,0.000
1709214803.627,-39.062,-51.270,-30.273,-57.129,0.000
1709214803.631,-42.480,-52.246,-33.691,-47.363,0.000
1709214803.635,-42.480,-42.480,-28.809,-36.621,0.000
1709214803.639,-49.805,-41.016,-36.133,-49.316,0.000
1709214803.642,-44.434,-59.570,-38.086,-53.223,0.000
1709214803.646,-40.039,-54.199,-36.621,-52.246,0.000
1709214803.650,-46.875,-43.457,-43.945,-55.176,0.000
1709214803.654,-39.062,-40.527,-46.387,-45.898,0.000
1709214803.658,-19.043,-48.340,-27.344,-33.691,0.000
1709214803.662,-22.949,-59.082,-18.555,-31.250,0.000
1709214803.666,-36.133,-53.223,-34.180,-42.969,0.000
1709214803.670,-37.598,-47.363,-41.016,-50.781,0.000
1709214803.674,-38.086,-46.875,-37.598,-47.363,0.000
1709214803.678,-37.109,-47.363,-30.273,-44.434,0.000
1709214803.682,-34.668,-56.641,-33.691,-50.781,0.000
1709214803.685,-37.109,-54.199,-37.598,-54.199,0.000
1709214803.689,-35.645,-42.969,-26.367,-39.551,0.000
1709214803.693,-40.527,-44.434,-31.250,-35.645,0.000
1709214803.697,-48.828,-59.082,-38.574,-47.363,0.000
1709214803.701,-47.363,-58.594,-40.039,-50.293,0.000
1709214803.705,-46.875,-48.828,-45.898,-43.945,0.000
1709214803.709,-49.805,-47.852,-35.645,-34.180,0.000
1709214803.713,-55.176,-51.270,-27.832,-39.062,0.000
1709214803.717,-51.270,-48.340,-30.762,-46.387,0.000
1709214803.721,-44.434,-50.781,-32.715,-40.039,0.000
1709214803.724,-39.062,-52.246,-32.715,-34.180,0.000
1709214803.728,-47.363,-40.527,-37.598,-41.992,0.000
1709214803.732,-44.434,-41.016,-34.668,-46.875,0.000
1709214803.736,-39.062,-51.270,-34.180,-47.852,0.000
1709214803.740,-38.574,-54.688,-40.527,-48.340,0.000
1709214803.744,-36.133,-54.199,-40.039,-42.480,0.000
1709214803.748,-40.527,-45.410,-37.598,-44.434,0.000
1709214803.752,-45.898,-38.086,-42.480,-44.434,0.000
1709214803.756,-41.992,-42.969,-50.781,-41.016,0.000
1709214803.760,-31.250,-40.527,-41.016,-42.969,0.000
1709214803.764,-34.668,-43.945,-28.809,-46.387,0.000
1709214803.767,-41.504,-49.805,-27.832,-44.922,0.000
1709214803.771,-34.668,-47.852,-26.855,-40.039,0.000
1709214803.775,-29.785,-45.898,-31.250,-45.410,0.000
1709214803.779,-36.133,-40.527,-36.621,-47.852,0.000
1709214803.783,-33.691,-42.969,-42.480,-45.410,0.000
1709214803.787,-27.832,-53.223,-42.480,-42.969,0.000
1709214803.791,-37.109,-50.781,-41.504,-44.434,0.000
1709214803.795,-32.227,-33.203,-34.668,-34.668,0.000
1709214803.799,-24.414,-32.715,-31.738,-22.461,0.000
1709214803.803,-30.273,-46.875,-38.086,-33.691,0.000
1709214803.806,-34.668,-53.223,-45.410,-48.828,0.000
1709214803.810,-41.992,-47.363,-41.992,-44.922,0.000
1709214803.814,-49.805,-42.480,-46.875,-45.410,0.000
