timestamps,TP9,AF7,AF8,TP10,Right AUX
1709214883.365,-25.391,-52.246,-32.227,-42.480,0.000
1709214883.369,-24.414,-51.758,-35.645,-39.551,0.000
1709214883.373,-22.949,-44.922,-40.039,-38.574,0.000
1709214883.377,-24.414,-36.133,-36.133,-37.109,0.000
1709214883.380,-31.738,-45.410,-37.109,-42.969,0.000
1709214883.384,-37.598,-47.852,-39.551,-45.898,0.000
1709214883.388,-32.227,-47.363,-40.527,-35.645,0.000
1709214883.392,-37.109,-54.688,-52.734,-38.574,0.000
1709214883.396,-41.504,-57.129,-50.781,-61.035,0.000
1709214883.400,-44.434,-49.805,-40.039,-62.500,0.000
1709214883.404,-43.457,-51.758,-37.109,-54.199,0.000
1709214883.408,-31.250,-48.340,-42.969,-46.875,0.000
1709214883.412,-29.297,-38.086,-41.992,-46.875,0.000
1709214883.415,-38.086,-47.363,-45.410,-57.617,0.000
1709214883.419,-47.363,-69.824,-54.199,-60.059,0.000
1709214883.423,-45.410,-62.988,-47.852,-55.664,0.000
1709214883.427,-34.180,-48.828,-41.016,-48.828,0.000
1709214883.431,-28.809,-42.480,-45.898,-45.410,0.000
1709214883.435,-31.738,-41.992,-44.922,-41.016,0.000
1709214883.439,-34.668,-49.805,-41.992,-37.598,0.000
1709214883.443,-28.809,-39.551,-36.133,-34.668,0.000
1709214883.447,-24.902,-35.156,-28.320,-30.762,0.000
1709214883.451,-21.973,-37.598,-29.297,-24.414,0.000
1709214883.454,-24.414,-50.781,-33.203,-27.344,0.000
1709214883.458,-37.598,-61.523,-39.551,-36.621,0.000
1709214883.462,-44.434,-52.734,-41.992,-32.227,0.000
1709214883.466,-40.527,-54.199,-45.410,-30.762,0.000
1709214883.470,-38.574,-47.363,-40.527,-32.715,0.000
1709214883.474,-36.133,-34.180,-26.855,-25.391,0.000
1709214883.478,-35.156,-36.133,-29.297,-24.414,0.000
1709214883.482,-32.227,-43.457,-36.621,-33.691,0.000
1709214883.486,-27.344,-47.852,-38.574,-42.969,0.000
1709214883.489,-25.391,-45.410,-44.434,-39.551,0.000
1709214883.493,-28.809,-50.781,-44.434,-35.645,0.000
1709214883.497,-39.551,-50.293,-30.762,-38.574,0.000
1709214883.501,-45.898,-47.852,-23.438,-37.598,0.000
1709214883.505,-34.180,-48.340,-30.273,-30.762,0.000
1709214883.509,-31.250,-41.504,-38.086,-35.156,0.000
1709214883.513,-38.086,-39.062,-40.527,-47.852,0.000
1709214883.517,-39.062,-36.621,-31.738,-45.898,0.000
1709214883.521,-49.316,-47.852,-32.715,-42.969,0.000
1709214883.525,-49.805,-54.688,-36.133,-39.551,0.000
1709214883.529,-42.969,-47.363,-28.809,-36.133,0.000
1709214883.533,-40.039,-50.781,-27.344,-41.504,0.000
1709214883.536,-40.527,-62.012,-28.809,-43.457,0.000
1709214883.540,-37.598,-62.988,-32.715,-31.250,0.000
1709214883.544,-27.832,-50.293,-35.156,-22.461,0.000
1709214883.548,-26.855,-43.945,-36.133,-30.762,0.000
1709214883.552,-29.297,-49.805,-38.574,-40.527,0.000
1709214883.556,-37.109,-52.246,-42.480,-45.410,0.000
1709214883.560,-39.062,-43.457,-41.992,-44.922,0.000
1709214883.564,-34.180,-41.992,-41.992,-33.203,0.000
1709214883.568,-34.180,-62.012,-36.133,-31.738,0.000
1709214883.572,-29.297,-66.406,-38.086,-32.715,0.000
1709214883.576,-24.902,-53.223,-43.457,-32.227,0.000
1709214883.579,-35.156,-50.781,-41.992,-39.551,0.000
1709214883.583,-45.898,-46.875,-48.340,-34.668,0.000
1709214883.587,-40.039,-46.387,-52.734,-32.715,0.000
1709214883.591,-35.645,-47.852,-46.387,-38.574,0.000
1709214883.595,-39.551,-45.898,-47.363,-49.316,0.000
1709214883.599,-43.457,-40.039,-50.781,-53.223,0.000
1709214883.603,-40.039,-43.945,-46.875,-45.898,0.000
1709214883.607,-30.762,-47.852,-39.062,-41.016,0.000
1709214883.611,-33.691,-56.641,-38.574,-45.410,0.000
1709214883.615,-37.598,-58.594,-43.945,-48.340,0.000
1709214883.619,-51.758,-53.711,-44.922,-55.664,0.000
1709214883.622,-58.105,-56.641,-41.504,-54.199,0.000
1709214883.626,-42.480,-60.059,-36.133,-44.434,0.000
1709214883.630,-44.434,-56.152,-33.203,-40.039,0.000
1709214883.634,-53.223,-44.434,-36.133,-46.387,0.000
1709214883.638,-54.688,-43.945,-39.551,-54.199,0.000
1709214883.642,-52.246,-43.457,-35.156,-46.387,0.000
1709214883.646,-45.898,-37.598,-28.809,-40.527,0.000
1709214883.650,-47.363,-49.805,-39.062,-53.711,0.000
1709214883.654,-50.293,-62.988,-37.598,-65.430,0.000
1709214883.658,-52.246,-61.035,-25.879,-62.500,0.000
1709214883.662,-57.617,-54.199,-31.738,-59.082,0.000
1709214883.665,-48.828,-48.340,-31.250,-49.316,0.000
1709214883.669,-35.645,-52.734,-30.273,-49.805,0.000
1709214883.673,-40.039,-53.711,-35.156,-43.945,0.000
1709214883.677,-47.363,-45.410,-40.039,-41.504,0.000
1709214883.681,-48.340,-39.062,-36.621,-52.734,0.000
1709214883.685,-43.457,-44.434,-35.645,-46.875,0.000
1709214883.689,-33.691,-44.434,-38.574,-41.016,0.000
1709214883.693,-31.738,-33.203,-34.668,-38.574,0.000
1709214883.697,-38.574,-31.250,-29.297,-41.504,0.000
1709214883.701,-41.992,-41.992,-35.156,-46.875,0.000
1709214883.704,-38.574,-47.363,-36.621,-30.273,0.000
1709214883.708,-33.691,-36.621,-28.809,-20.508,0.000
1709214883.712,-33.691,-37.109,-23.926,-34.668,0.000
1709214883.716,-44.922,-56.152,-19.043,-47.363,0.000
1709214883.720,-40.039,-56.152,-20.020,-30.273,0.000
1709214883.724,-25.879,-34.668,-23.438,-25.391,0.000
1709214883.728,-29.297,-32.715,-32.715,-31.738,0.000
1709214883.732,-28.809,-47.363,-32.227,-30.762,0.000
1709214883.736,-28.320,-40.039,-32.227,-32.715,0.000
1709214883.740,-40.039,-36.621,-38.574,-38.574,0.000
1709214883.743,-49.316,-44.434,-39.062,-42.969,0.000
1709214883.747,-43.457,-44.434,-38.574,-33.691,0.000
1709214883.751,-35.645,-42.969,-35.645,-33.691,0.000
1709214883.755,-38.574,-46.387,-33.203,-41.504,0.000
1709214883.759,-42.969,-55.664,-37.598,-43.945,0.000
1709214883.763,-41.992,-52.734,-39.551,-40.039,0.000
1709214883.767,-29.785,-38.574,-29.297,-30.273,0.000
1709214883.771,-24.902,-30.762,-33.691,-41.016,0.000
1709214883.775,-36.133,-40.039,-45.898,-57.129,0.000
1709214883.779,-45.410,-45.410,-41.016,-61.523,0.000
1709214883.782,-42.480,-43.945,-39.062,-53.711,0.000
1709214883.786,-32.715,-51.270,-38.574,-50.293,0.000
1709214883.790,-30.273,-56.641,-41.992,-52.246,0.000
1709214883.794,-42.969,-46.875,-40.039,-47.852,0.000
1709214883.798,-43.457,-21.973,-33.203,-46.875,0.000
1709214883.802,-39.062,-19.043,-32.715,-52.734,0.000
1709214883.806,-41.992,-34.180,-46.875,-53.711,0.000
1709214883.810,-36.621,-45.898,-48.828,-36.133,0.000
1709214883.814,-43.945,-52.246,-43.457,-39.062,0.000
1709214883.817,-43.945,-40.527,-38.086,-48.828,0.000
1709214883.821,-38.574,-37.598,-34.180,-46.875,0.000
1709214883.825,-37.109,-45.898,-41.504,-41.504,0.000
1709214883.829,-36.621,-42.480,-48.340,-37.598,0.000
1709214883.833,-35.645,-52.734,-44.434,-35.156,0.000
1709214883.837,-36.133,-50.781,-32.715,-33.203,0.000
1709214883.841,-40.039,-33.203,-41.992,-38.574,0.000
1709214883.845,-38.574,-41.992,-47.363,-34.180,0.000
1709214883.849,-39.062,-41.504,-44.434,-32.715,0.000
1709214883.852,-45.898,-41.992,-40.527,-31.250,0.000
1709214883.856,-47.852,-47.852,-43.945,-32.715,0.000
1709214883.860,-46.387,-52.246,-39.062,-41.992,0.000
1709214883.864,-40.527,-49.805,-25.391,-26.855,0.000
1709214883.868,-43.457,-41.016,-29.785,-22.949,0.000
1709214883.872,-47.852,-42.480,-37.109,-35.645,0.000
1709214883.876,-44.434,-56.641,-32.227,-48.828,0.000
1709214883.880,-41.504,-57.617,-22.949,-47.852,0.000
1709214883.884,-44.922,-47.363,-28.320,-38.086,0.000
1709214883.888,-38.086,-46.387,-30.273,-30.762,0.000
1709214883.892,-36.621,-37.109,-23.926,-33.203,0.000
1709214883.896,-42.480,-41.504,-22.949,-33.691,0.000
1709214883.899,-48.340,-57.129,-28.320,-41.504,0.000
1709214883.903,-42.480,-60.059,-29.297,-44.922,0.000
1709214883.907,-25.879,-58.105,-32.715,-38.574,0.000
1709214883.911,-28.320,-52.246,-47.363,-40.527,0.000
1709214883.915,-32.715,-37.598,-38.086,-41.504,0.000
1709214883.919,-32.227,-39.062,-25.879,-43.457,0.000
1709214883.923,-31.738,-50.781,-37.598,-41.016,0.000
1709214883.927,-26.855,-52.246,-44.922,-33.691,0.000
1709214883.931,-15.137,-40.527,-29.297,-19.531,0.000
1709214883.935,-22.949,-34.180,-25.879,-27.344,0.000
1709214883.939,-37.598,-39.062,-36.133,-33.203,0.000
1709214883.943,-31.250,-43.457,-35.156,-24.902,0.000
1709214883.946,-27.832,-40.039,-35.156,-29.297,0.000
1709214883.950,-29.785,-47.363,-36.621,-31.738,0.000
1709214883.954,-32.715,-56.152,-34.180,-32.227,0.000
1709214883.958,-46.875,-48.340,-36.621,-35.645,0.000
1709214883.962,-57.129,-46.387,-37.598,-47.852,0.000
1709214883.966,-48.828,-48.340,-30.273,-49.805,0.000
1709214883.970,-41.016,-51.270,-34.180,-43.945,0.000
1709214883.974,-41.504,-43.457,-41.504,-53.711,0.000
1709214883.978,-46.875,-31.738,-39.062,-55.176,0.000
1709214883.982,-47.852,-33.691,-34.668,-48.828,0.000
1709214883.986,-39.062,-38.086,-33.691,-44.434,0.000
1709214883.989,-34.180,-42.480,-35.645,-35.645,0.000
1709214883.993,-44.434,-54.688,-38.086,-36.133,0.000
1709214883.997,-47.852,-44.922,-37.598,-41.504,0.000
1709214884.001,-45.898,-39.062,-41.016,-45.898,0.000
1709214884.005,-41.992,-49.316,-46.875,-36.621,0.000
1709214884.009,-35.156,-44.922,-39.062,-24.902,0.000
1709214884.013,-36.621,-43.945,-37.109,-32.227,0.000
1709214884.017,-42.480,-47.852,-35.645,-37.109,0.000
1709214884.021,-41.504,-44.434,-30.762,-39.551,0.000
1709214884.025,-36.621,-40.039,-36.621,-35.156,0.000
1709214884.028,-36.621,-42.480,-43.945,-34.668,0.000
1709214884.032,-35.645,-59.082,-51.270,-41.016,0.000
1709214884.036,-39.062,-62.500,-45.898,-47.363,0.000
1709214884.040,-46.875,-48.828,-43.945,-54.688,0.000
1709214884.044,-46.875,-41.992,-47.852,-59.082,0.000
1709214884.048,-38.574,-54.688,-40.527,-49.316,0.000
1709214884.052,-41.504,-65.918,-48.340,-52.246,0.000
1709214884.056,-45.410,-46.875,-54.199,-69.336,0.000
1709214884.060,-44.922,-31.738,-40.527,-54.688,0.000
1709214884.064,-43.457,-49.805,-42.969,-42.480,0.000
1709214884.067,-37.109,-65.918,-45.410,-48.340,0.000
1709214884.071,-31.738,-57.617,-41.016,-50.293,0.000
1709214884.075,-34.668,-48.340,-42.480,-50.293,0.000
1709214884.079,-44.922,-49.316,-44.922,-45.410,0.000
1709214884.083,-45.410,-48.340,-46.387,-45.898,0.000
1709214884.087,-35.645,-39.551,-40.527,-47.852,0.000
1709214884.091,-41.016,-48.828,-43.945,-63.477,0.000
1709214884.095,-47.363,-53.223,-46.387,-62.988,0.000
1709214884.099,-40.527,-49.316,-42.969,-50.293,0.000
1709214884.103,-47.363,-53.711,-38.574,-53.711,0.000
1709214884.107,-42.480,-59.082,-38.086,-49.316,0.000
1709214884.110,-30.273,-55.664,-36.621,-41.504,0.000
1709214884.114,-34.180,-47.852,-31.738,-45.410,0.000
1709214884.118,-42.480,-41.504,-28.320,-54.199,0.000
1709214884.122,-42.480,-40.527,-34.668,-44.434,0.000
1709214884.126,-36.133,-49.805,-39.062,-34.668,0.000
1709214884.130,-32.715,-60.059,-33.691,-35.645,0.000
1709214884.134,-30.762,-54.688,-37.109,-37.109,0.000
1709214884.138,-37.109,-48.828,-41.504,-36.133,0.000
1709214884.142,-29.297,-59.082,-32.227,-24.902,0.000
1709214884.145,-20.508,-52.246,-16.602,-17.578,0.000
1709214884.149,-29.297,-41.504,-22.461,-23.926,0.000
1709214884.153,-34.180,-42.969,-35.645,-31.738,0.000
1709214884.157,-38.086,-44.434,-44.434,-37.109,0.000
1709214884.161,-29.785,-37.109,-33.691,-33.691,0.000
1709214884.165,-21.973,-38.086,-25.391,-28.320,0.000
1709214884.169,-20.020,-43.945,-31.738,-28.809,0.000
1709214884.173,-24.414,-40.039,-31.250,-29.297,0.000
1709214884.177,-38.574,-47.363,-26.855,-31.250,0.000
1709214884.181,-43.457,-48.340,-24.414,-31.250,0.000
1709214884.184,-41.992,-51.758,-27.832,-26.367,0.000
1709214884.188,-43.945,-55.176,-35.156,-23.926,0.000
1709214884.192,-41.016,-46.387,-38.574,-29.785,0.000
1709214884.196,-50.293,-52.734,-41.992,-42.969,0.000
1709214884.200,-58.105,-55.664,-45.410,-47.363,0.000
1709214884.204,-48.340,-47.363,-42.480,-42.969,0.000
1709214884.208,-47.363,-49.316,-41.016,-41.992,0.000
1709214884.212,-50.781,-47.852,-34.180,-49.805,0.000
1709214884.216,-54.688,-40.527,-32.715,-52.246,0.000
1709214884.219,-55.176,-45.898,-29.297,-47.363,0.000
1709214884.223,-46.875,-47.852,-28.809,-46.387,0.000
1709214884.227,-39.062,-47.363,-33.203,-39.062,0.000
1709214884.231,-31.738,-53.711,-28.320,-30.762,0.000
1709214884.235,-33.691,-53.223,-30.273,-38.574,0.000
1709214884.239,-41.016,-47.363,-35.156,-41.504,0.000
1709214884.243,-38.086,-30.762,-31.738,-27.344,0.000
1709214884.247,-28.320,-37.109,-26.855,-23.926,0.000
1709214884.251,-26.367,-50.293,-31.250,-30.273,0.000
1709214884.255,-34.668,-38.574,-39.062,-32.715,0.000
1709214884.259,-46.387,-43.457,-44.434,-39.551,0.000
1709214884.262,-45.898,-54.199,-39.551,-41.016,0.000
1709214884.266,-39.551,-52.734,-37.109,-41.992,0.000
1709214884.270,-36.621,-46.387,-26.855,-40.039,0.000
1709214884.274,-37.598,-39.551,-25.391,-41.992,0.000
1709214884.278,-36.133,-49.316,-40.039,-47.363,0.000
1709214884.282,-42.969,-53.223,-46.875,-41.504,0.000
1709214884.286,-39.551,-45.898,-40.039,-28.320,0.000
1709214884.290,-28.320,-40.039,-28.809,-22.461,0.000
1709214884.294,-37.109,-31.738,-34.668,-38.574,0.000
1709214884.298,-41.504,-41.504,-39.551,-49.316,0.000
1709214884.302,-47.363,-45.898,-39.551,-48.828,0.000
1709214884.306,-49.805,-45.410,-43.457,-47.363,0.000
1709214884.309,-49.316,-51.270,-51.270,-50.781,0.000
1709214884.313,-43.945,-49.805,-53.223,-52.246,0.000
1709214884.317,-34.180,-38.086,-37.109,-49.316,0.000
1709214884.321,-41.992,-50.293,-31.250,-47.363,0.000
1709214884.325,-42.969,-65.430,-33.203,-43.457,0.000
1709214884.329,-37.109,-52.246,-32.227,-42.480,0.000
1709214884.333,-36.133,-39.551,-29.297,-35.645,0.000
1709214884.337,-45.898,-36.621,-35.645,-40.039,0.000
1709214884.341,-53.711,-35.645,-38.086,-46.875,0.000
1709214884.345,-43.457,-37.109,-26.855,-37.598,0.000
1709214884.349,0.000,-40.039,-30.273,-38.574,0.000
1709214884.352,0.000,-47.852,-36.621,-43.945,0.000
1709214884.356,0.000,-54.688,-35.156,-49.316,0.000
1709214884.360,0.000,-60.547,-33.203,-49.805,0.000
1709214884.364,0.000,-64.453,-36.133,-44.434,0.000
1709214884.368,0.000,-49.316,-47.852,-39.551,0.000
1709214884.372,0.000,-37.109,-45.410,-42.969,0.000
1709214884.376,0.000,-35.156,-29.297,-41.016,0.000
1709214884.380,0.000,-37.109,-29.785,-30.762,0.000
1709214884.384,0.000,-41.992,-40.527,-34.668,0.000
1709214884.388,0.000,-45.898,-42.969,-41.504,0.000
1709214884.392,0.000,-51.270,-40.527,-47.852,0.000
1709214884.395,-37.109,-45.898,-34.668,-48.828,0.000
1709214884.399,-45.410,-43.945,-34.180,-41.016,0.000
1709214884.403,-44.434,-58.594,-34.180,-33.203,0.000
1709214884.407,-29.297,-48.828,-28.320,-24.414,0.000
1709214884.411,-29.785,-47.852,-33.203,-41.504,0.000
1709214884.415,-48.340,-59.570,-45.410,-62.012,0.000
1709214884.419,-50.293,-38.086,-39.551,-63.477,0.000
1709214884.423,-42.969,-32.227,-34.180,-48.828,0.000
1709214884.427,-36.621,-38.574,-46.875,-35.645,0.000
1709214884.431,-29.297,-36.133,-46.387,-43.457,0.000
1709214884.435,-32.227,-37.598,-41.016,-47.852,0.000
1709214884.438,-33.203,-36.621,-41.016,-46.387,0.000
1709214884.442,-30.762,-33.203,-35.156,-41.016,0.000
1709214884.446,-28.809,-32.227,-32.227,-32.227,0.000
1709214884.450,-23.926,-47.363,-31.250,-30.273,0.000
1709214884.454,-28.809,-49.805,-35.156,-36.621,0.000
1709214884.458,-40.527,-32.715,-37.598,-38.574,0.000
1709214884.462,-41.504,-39.062,-36.621,-41.016,0.000
1709214884.466,-34.668,-41.016,-41.504,-43.457,0.000
1709214884.470,-34.180,-30.762,-48.340,-25.391,0.000
1709214884.474,-41.504,-33.203,-34.180,-31.738,0.000
1709214884.477,-41.504,-32.227,-29.297,-50.781,0.000
1709214884.481,-38.574,-29.785,-36.621,-44.922,0.000
1709214884.485,-34.668,-33.203,-28.320,-35.645,0.000
1709214884.489,0.000,-40.527,-27.832,-31.738,0.000
1709214884.493,0.000,-48.828,-41.992,-44.922,0.000
1709214884.497,0.000,-53.711,-39.551,-45.898,0.000
1709214884.501,0.000,-50.293,-33.203,-43.457,0.000
1709214884.505,0.000,-50.293,-37.598,-40.527,0.000
1709214884.509,0.000,-41.016,-31.250,-26.855,0.000
1709214884.513,0.000,-35.156,-32.227,-32.715,0.000
1709214884.516,0.000,-44.434,-43.457,-49.316,0.000
1709214884.520,0.000,-41.992,-40.527,-50.781,0.000
1709214884.524,0.000,-42.480,-33.691,-36.133,0.000
1709214884.528,0.000,-47.852,-36.133,-40.039,0.000
1709214884.532,0.000,-43.457,-35.645,-57.129,0.000
1709214884.536,-47.852,-37.598,-33.203,-58.594,0.000
1709214884.540,-44.434,-41.992,-30.273,-46.387,0.000
1709214884.544,-35.645,-42.480,-32.227,-37.109,0.000
1709214884.548,-33.691,-30.762,-38.574,-35.156,0.000
1709214884.551,-30.273,-30.762,-36.133,-37.598,0.000
1709214884.555,-29.785,-39.551,-40.039,-41.016,0.000
1709214884.559,-38.574,-40.527,-53.223,-39.062,0.000
1709214884.563,-44.922,-37.109,-51.270,-40.527,0.000
1709214884.567,-41.504,-44.434,-49.805,-42.480,0.000
1709214884.571,-36.133,-46.387,-49.316,-36.133,0.000
1709214884.575,-38.574,-32.715,-41.016,-41.992,0.000
1709214884.579,-42.480,-31.738,-38.574,-49.805,0.000
1709214884.583,-34.180,-36.621,-29.297,-39.062,0.000
1709214884.586,-29.297,-43.945,-27.832,-28.320,0.000
1709214884.590,-34.180,-43.945,-37.109,-33.691,0.000
1709214884.594,-41.016,-37.598,-37.109,-45.410,0.000
1709214884.598,-44.434,-35.156,-32.715,-55.176,0.000
1709214884.602,-42.480,-44.434,-33.691,-47.852,0.000
1709214884.606,-31.738,-54.199,-34.180,-35.645,0.000
1709214884.610,-22.461,-42.969,-26.367,-39.062,0.000
1709214884.614,-28.809,-36.621,-27.832,-53.223,0.000
1709214884.618,-45.898,-44.434,-32.715,-60.059,0.000
1709214884.622,-48.828,-47.363,-35.645,-43.945,0.000
1709214884.626,-34.668,-46.875,-35.645,-33.203,0.000
1709214884.630,-23.438,-44.922,-31.738,-34.180,0.000
1709214884.633,-34.180,-40.039,-28.809,-35.156,0.000
1709214884.637,-35.156,-41.992,-25.391,-29.297,0.000
1709214884.641,-22.461,-33.203,-22.461,-27.344,0.000
1709214884.645,-27.344,-41.016,-26.367,-42.480,0.000
1709214884.649,-32.227,-61.035,-35.645,-46.875,0.000
1709214884.653,-34.668,-46.387,-40.039,-50.293,0.000
1709214884.657,-38.086,-37.109,-43.457,-49.805,0.000
1709214884.661,-39.062,-46.875,-36.621,-41.504,0.000
1709214884.665,-34.668,-49.316,-36.621,-30.273,0.000
1709214884.669,-20.996,-34.668,-37.109,-24.902,0.000
1709214884.673,-17.090,-31.738,-41.504,-35.156,0.000
1709214884.677,-22.461,-38.086,-46.387,-34.668,0.000
1709214884.680,-30.273,-43.945,-42.969,-41.016,0.000
1709214884.684,-36.133,-45.898,-37.109,-47.852,0.000
1709214884.688,-29.297,-56.641,-30.762,-31.738,0.000
1709214884.692,-36.621,-58.105,-37.598,-39.551,0.000
1709214884.696,-52.734,-37.598,-45.410,-57.617,0.000
1709214884.700,-56.152,-33.691,-41.504,-60.547,0.000
1709214884.704,-50.293,-49.805,-45.898,-57.617,0.000
1709214884.708,-44.434,-55.176,-51.758,-46.875,0.000
1709214884.712,-43.945,-37.598,-42.969,-37.109,0.000
1709214884.716,-43.457,-24.414,-38.574,-39.551,0.000
1709214884.719,-50.781,-38.086,-46.387,-44.434,0.000
1709214884.723,-47.852,-57.129,-40.527,-38.086,0.000
1709214884.727,-35.645,-55.664,-33.691,-38.574,0.000
1709214884.731,-37.109,-45.898,-33.203,-51.758,0.000
1709214884.735,-41.992,-50.293,-29.785,-60.547,0.000
1709214884.739,-52.246,-56.152,-33.203,-60.547,0.000
1709214884.743,-53.223,-52.734,-39.062,-58.105,0.000
1709214884.747,-43.945,-46.875,-42.480,-55.176,0.000
1709214884.751,-37.598,-47.852,-29.785,-48.828,0.000
1709214884.755,-39.062,-51.270,-31.738,-45.898,0.000
1709214884.759,-46.875,-41.016,-40.527,-56.152,0.000
1709214884.762,-42.969,-31.738,-31.738,-54.688,0.000
1709214884.766,-37.109,-41.016,-42.480,-51.270,0.000
1709214884.770,-34.668,-56.152,-43.945,-50.293,0.000
1709214884.774,-49.805,-51.270,-32.227,-57.129,0.000
1709214884.778,-62.012,-43.945,-36.621,-67.383,0.000
1709214884.782,-56.641,-44.434,-43.457,-63.965,0.000
1709214884.786,-50.781,-53.711,-41.992,-58.594,0.000
1709214884.790,-43.945,-58.105,-39.551,-59.082,0.000
1709214884.794,-45.410,-42.480,-43.457,-58.594,0.000
1709214884.798,-47.363,-39.551,-42.969,-43.457,0.000
1709214884.802,-52.246,-41.504,-34.180,-28.320,0.000
1709214884.805,-42.480,-35.156,-29.297,-33.203,0.000
1709214884.809,-23.926,-38.086,-29.297,-35.156,0.000
1709214884.813,-32.227,-47.852,-35.645,-45.898,0.000
1709214884.817,-41.992,-50.781,-39.062,-52.246,0.000
1709214884.821,-41.992,-43.945,-39.062,-42.969,0.000
1709214884.825,-30.762,-46.875,-33.203,-36.133,0.000
1709214884.829,-22.949,-51.758,-29.785,-42.480,0.000
1709214884.833,-29.297,-55.176,-40.527,-52.734,0.000
1709214884.837,-37.598,-50.293,-37.598,-40.039,0.000
1709214884.841,-38.574,-41.504,-35.645,-33.691,0.000
1709214884.844,-30.762,-39.551,-35.645,-26.855,0.000
1709214884.848,-20.508,-41.016,-34.668,-28.320,0.000
1709214884.852,-24.414,-57.129,-45.410,-41.016,0.000
1709214884.856,-38.086,-58.105,-46.875,-42.480,0.000
1709214884.860,-33.203,-40.039,-35.156,-39.062,0.000
1709214884.864,-20.996,-34.668,-32.227,-31.250,0.000
1709214884.868,-25.879,-45.410,-41.992,-37.109,0.000
1709214884.872,-24.902,-45.898,-41.992,-33.691,0.000
1709214884.876,-32.227,-54.199,-41.504,-44.922,0.000
1709214884.880,-37.598,-55.664,-54.688,-48.340,0.000
1709214884.883,-27.832,-49.316,-50.781,-39.551,0.000
1709214884.887,-19.531,-49.805,-30.273,-30.762,0.000
1709214884.891,-17.578,-41.016,-32.227,-18.555,0.000
1709214884.895,-34.180,-42.969,-48.340,-28.320,0.000
1709214884.899,-37.109,-46.875,-41.016,-36.133,0.000
1709214884.903,-28.809,-36.133,-38.086,-41.992,0.000
1709214884.907,-40.039,-38.086,-45.410,-48.340,0.000
1709214884.911,-47.852,-43.457,-40.527,-50.781,0.000
1709214884.915,-47.363,-43.945,-32.227,-54.688,0.000
1709214884.919,-38.574,-47.363,-39.551,-52.734,0.000
1709214884.922,-32.227,-46.387,-49.316,-46.875,0.000
1709214884.926,-25.879,-38.574,-43.945,-34.180,0.000
1709214884.930,-20.020,-36.621,-40.039,-36.621,0.000
1709214884.934,-31.250,-44.922,-41.992,-46.387,0.000
1709214884.938,-40.039,-45.410,-42.480,-44.922,0.000
1709214884.942,-30.273,-43.457,-40.039,-47.363,0.000
1709214884.946,-22.949,-36.133,-41.016,-44.434,0.000
1709214884.950,-17.090,-39.551,-38.086,-39.551,0.000
1709214884.954,-18.555,-48.828,-30.762,-36.133,0.000
1709214884.957,-26.855,-47.852,-34.668,-38.086,0.000
1709214884.961,-20.996,-41.992,-35.156,-29.785,0.000
1709214884.965,-12.207,-29.297,-31.250,-22.949,0.000
1709214884.969,-19.531,-23.438,-34.668,-23.438,0.000
1709214884.973,-26.367,-31.250,-31.738,-31.738,0.000
1709214884.977,-29.297,-38.574,-30.273,-32.715,0.000
1709214884.981,-39.062,-40.039,-37.109,-34.668,0.000
1709214884.985,-39.062,-42.480,-39.551,-39.551,0.000
1709214884.989,-36.133,-40.039,-28.320,-30.273,0.000
1709214884.993,-48.828,-40.527,-30.273,-33.203,0.000
1709214884.996,-58.105,-46.387,-42.480,-53.711,0.000
1709214885.000,-49.805,-57.129,-49.805,-56.152,0.000
1709214885.004,-42.969,-56.641,-48.828,-41.504,0.000
1709214885.008,-37.109,-41.504,-44.434,-43.457,0.000
1709214885.012,-30.273,-39.062,-44.922,-43.457,0.000
1709214885.016,-39.062,-38.574,-45.410,-42.480,0.000
1709214885.020,-41.016,-33.203,-37.598,-37.598,0.000
1709214885.024,-36.621,-41.504,-33.691,-31.738,0.000
1709214885.028,-36.133,-58.105,-35.156,-33.691,0.000
1709214885.032,-41.016,-62.988,-41.992,-41.016,0.000
1709214885.036,-45.898,-55.176,-39.551,-45.898,0.000
1709214885.040,-41.504,-48.828,-29.785,-39.062,0.000
1709214885.043,-39.551,-43.457,-32.715,-44.434,0.000
1709214885.047,-31.738,-35.156,-31.250,-48.340,0.000
1709214885.051,-38.574,-41.992,-29.785,-38.574,0.000
1709214885.055,-47.363,-52.734,-37.109,-39.551,0.000
1709214885.059,-41.016,-47.852,-39.551,-44.434,0.000
1709214885.063,-35.645,-44.434,-37.598,-43.457,0.000
1709214885.067,-31.738,-46.875,-34.180,-44.434,0.000
1709214885.071,-24.414,-50.293,-33.691,-48.828,0.000
1709214885.075,-22.949,-56.152,-39.062,-49.316,0.000
1709214885.079,-30.762,-43.945,-38.086,-43.457,0.000
1709214885.083,-37.598,-45.410,-29.297,-38.574,0.000
1709214885.087,-33.203,-54.688,-32.715,-37.109,0.000
1709214885.090,-25.879,-41.016,-34.668,-39.062,0.000
1709214885.094,-33.691,-41.992,-26.855,-46.387,0.000
1709214885.098,-49.316,-47.852,-31.250,-47.852,0.000
1709214885.102,-43.945,-48.340,-32.227,-38.574,0.000
1709214885.106,-29.785,-44.922,-29.785,-38.574,0.000
1709214885.110,-31.738,-44.434,-37.598,-48.340,0.000
1709214885.114,-30.762,-37.109,-36.133,-47.363,0.000
1709214885.118,-34.668,-36.133,-36.133,-45.410,0.000
1709214885.122,-44.922,-47.363,-42.480,-50.293,0.000
1709214885.126,-40.527,-46.875,-44.922,-42.969,0.000
1709214885.130,-42.969,-48.340,-40.527,-36.133,0.000
1709214885.133,-52.246,-46.387,-34.180,-43.457,0.000
1709214885.137,-47.363,-33.691,-36.133,-41.016,0.000
1709214885.141,-41.016,-31.738,-37.109,-34.668,0.000
1709214885.145,-43.457,-43.945,-36.621,-37.598,0.000
1709214885.149,-38.086,-38.086,-38.086,-31.738,0.000
1709214885.153,-36.133,-35.645,-41.504,-36.133,0.000
1709214885.157,-44.922,-45.898,-42.969,-41.016,0.000
1709214885.161,-47.363,-46.387,-43.945,-39.551,0.000
1709214885.165,-41.504,-47.363,-39.551,-35.645,0.000
1709214885.169,-38.086,-48.340,-29.785,-34.668,0.000
1709214885.173,-44.434,-46.387,-43.945,-42.480,0.000
1709214885.176,-45.410,-40.039,-42.969,-46.387,0.000
1709214885.180,-45.898,-37.109,-29.297,-47.363,0.000
1709214885.184,-46.387,-39.551,-28.809,-45.410,0.000
1709214885.188,-44.434,-39.551,-29.785,-58.105,0.000
1709214885.192,-48.828,-41.504,-39.551,-62.988,0.000
1709214885.196,-50.293,-42.480,-40.039,-58.594,0.000
1709214885.200,-55.176,-47.363,-37.109,-65.430,0.000
1709214885.204,-48.828,-53.223,-35.156,-56.641,0.000
1709214885.208,-44.922,-50.781,-39.551,-46.875,0.000
1709214885.212,-49.805,-50.293,-36.133,-50.293,0.000
1709214885.215,-51.270,-44.434,-36.621,-48.828,0.000
1709214885.219,-57.129,-33.691,-46.875,-45.410,0.000
1709214885.223,-52.246,-34.668,-42.969,-42.969,0.000
1709214885.227,-40.039,-45.898,-37.109,-37.598,0.000
1709214885.231,-35.156,-43.945,-31.738,-33.203,0.000
1709214885.235,-44.434,-33.203,-37.109,-42.969,0.000
1709214885.239,-49.805,-37.598,-43.945,-48.828,0.000
1709214885.243,-38.086,-36.621,-34.180,-38.086,0.000
1709214885.247,-30.762,-36.133,-32.715,-32.715,0.000
1709214885.251,-32.227,-40.527,-39.062,-35.645,0.000
1709214885.254,-42.480,-43.457,-38.574,-39.062,0.000
1709214885.258,-50.781,-54.199,-41.992,-43.457,0.000
1709214885.262,-47.852,-55.664,-42.480,-28.809,0.000
1709214885.266,-44.434,-56.152,-41.504,-23.438,0.000
1709214885.270,-35.645,-33.691,-41.992,-32.227,0.000
1709214885.274,-41.016,-14.648,-29.785,-37.109,0.000
1709214885.278,-46.387,-29.297,-31.250,-41.992,0.000
1709214885.282,-34.668,-33.203,-39.551,-39.551,0.000
1709214885.286,-41.992,-45.898,-45.898,-48.828,0.000
1709214885.289,-46.387,-57.129,-44.922,-50.293,0.000
1709214885.293,-39.062,-53.223,-40.039,-44.434,0.000
1709214885.297,-42.969,-50.781,-39.551,-48.340,0.000
1709214885.301,-47.852,-46.875,-41.992,-45.898,0.000
1709214885.305,-41.016,-43.945,-37.598,-38.086,0.000
1709214885.309,-29.785,-38.574,-31.738,-29.785,0.000
1709214885.313,-35.645,-33.203,-35.645,-43.945,0.000
1709214885.317,-47.363,-32.715,-36.621,-59.082,0.000
1709214885.321,-43.457,-40.039,-36.133,-54.688,0.000
1709214885.325,-38.574,-52.734,-44.434,-54.199,0.000
1709214885.329,-32.715,-45.898,-40.527,-50.781,0.000
1709214885.332,-32.227,-43.457,-36.621,-45.410,0.000
1709214885.336,-43.457,-53.223,-39.551,-52.734,0.000
1709214885.340,-45.898,-47.852,-41.016,-50.781,0.000
1709214885.344,-41.504,-42.969,-42.969,-42.969,0.000
1709214885.348,-40.527,-47.363,-41.992,-47.852,0.000
1709214885.352,-37.598,-48.340,-37.598,-44.434,0.000
1709214885.356,-46.387,-54.199,-45.410,-37.109,0.000
1709214885.360,-46.387,-44.434,-44.922,-36.621,0.000
1709214885.364,-41.016,-36.133,-37.598,-34.668,0.000
1709214885.367,-27.832,-39.551,-31.738,-32.227,0.000
1709214885.371,-28.320,-55.176,-37.109,-38.086,0.000
1709214885.375,-47.363,-62.012,-45.898,-54.199,0.000
1709214885.379,-49.805,-39.551,-29.297,-50.781,0.000
1709214885.383,-47.363,-41.504,-22.949,-44.434,0.000
1709214885.387,-50.781,-60.547,-36.621,-57.129,0.000
1709214885.391,-52.734,-53.711,-39.551,-62.988,0.000
1709214885.395,-60.547,-51.270,-34.180,-61.035,0.000
1709214885.399,-67.383,-55.176,-29.297,-51.758,0.000
1709214885.403,-53.711,-52.734,-32.227,-43.457,0.000
1709214885.407,-41.016,-44.434,-38.574,-44.434,0.000
1709214885.411,-35.156,-37.598,-32.715,-48.340,0.000
1709214885.414,-38.086,-51.758,-31.250,-60.547,0.000
1709214885.418,-43.457,-60.059,-38.574,-69.336,0.000
1709214885.422,-39.062,-50.293,-39.551,-59.082,0.000
1709214885.426,0.000,-44.434,-35.156,-45.410,0.000
1709214885.430,0.000,-39.551,-34.668,-50.293,0.000
1709214885.434,0.000,-37.598,-36.133,-46.875,0.000
1709214885.438,0.000,-41.016,-31.738,-34.180,0.000
1709214885.442,0.000,-43.457,-34.180,-42.969,0.000
1709214885.446,0.000,-50.293,-35.645,-47.363,0.000
1709214885.450,0.000,-49.805,-37.598,-39.062,0.000
1709214885.454,0.000,-44.434,-42.480,-39.062,0.000
1709214885.458,0.000,-43.945,-40.039,-41.016,0.000
1709214885.461,0.000,-34.180,-37.598,-41.016,0.000
1709214885.465,0.000,-32.715,-37.598,-43.945,0.000
1709214885.469,0.000,-40.527,-30.762,-41.504,0.000
1709214885.473,-37.109,-36.133,-26.367,-42.969,0.000
1709214885.477,-47.363,-40.039,-33.691,-45.898,0.000
1709214885.481,-54.688,-54.199,-32.227,-45.410,0.000
1709214885.485,-52.246,-50.781,-28.809,-38.574,0.000
1709214885.489,-46.387,-41.504,-35.645,-32.715,0.000
1709214885.493,-41.504,-40.039,-42.480,-41.992,0.000
1709214885.497,-44.922,-42.969,-38.574,-48.340,0.000
1709214885.501,-42.969,-35.645,-31.738,-38.574,0.000
1709214885.504,-33.691,-29.785,-29.785,-21.973,0.000
1709214885.508,-34.668,-38.574,-36.133,-27.344,0.000
1709214885.512,-39.062,-52.734,-41.504,-49.316,0.000
1709214885.516,-42.480,-53.711,-36.133,-44.922,0.000
1709214885.520,-42.969,-49.316,-33.203,-35.156,0.000
1709214885.524,-39.551,-56.641,-39.062,-30.762,0.000
1709214885.528,-35.156,-45.410,-37.598,-33.691,0.000
1709214885.532,-32.715,-34.668,-37.598,-40.527,0.000
1709214885.536,-41.992,-43.945,-56.152,-44.922,0.000
1709214885.540,-48.828,-51.270,-58.594,-52.734,0.000
1709214885.544,-41.016,-55.664,-34.180,-51.270,0.000
1709214885.547,-39.551,-62.988,-29.297,-50.781,0.000
1709214885.551,-43.945,-54.199,-37.109,-54.199,0.000
1709214885.555,-43.945,-58.105,-30.762,-58.594,0.000
1709214885.559,-40.039,-59.570,-32.715,-49.316,0.000
1709214885.563,-33.203,-44.922,-31.738,-40.039,0.000
1709214885.567,-30.762,-49.316,-28.809,-39.551,0.000
1709214885.571,-30.762,-53.223,-36.621,-42.969,0.000
1709214885.575,-35.156,-52.734,-35.645,-49.316,0.000
1709214885.579,-36.133,-56.641,-36.133,-48.828,0.000
1709214885.583,-33.203,-58.594,-51.270,-45.410,0.000
1709214885.586,-36.621,-53.223,-45.410,-40.039,0.000
1709214885.590,-32.715,-51.270,-26.367,-47.363,0.000
1709214885.594,-43.457,-40.527,-23.438,-50.781,0.000
1709214885.598,-54.688,-37.598,-28.320,-48.340,0.000
1709214885.602,-40.039,-45.898,-31.250,-45.410,0.000
1709214885.606,-35.645,-45.898,-40.039,-44.922,0.000
1709214885.610,-41.992,-39.551,-43.457,-56.152,0.000
1709214885.614,-52.734,-46.875,-45.410,-66.895,0.000
1709214885.618,-56.152,-62.500,-46.875,-62.012,0.000
1709214885.622,-44.434,-63.477,-37.109,-43.945,0.000
1709214885.625,-34.180,-46.875,-38.574,-33.203,0.000
1709214885.629,-29.785,-42.480,-40.039,-38.086,0.000
1709214885.633,-31.738,-49.805,-35.156,-47.852,0.000
1709214885.637,-39.062,-44.922,-33.691,-44.434,0.000
1709214885.641,-35.645,-41.016,-30.273,-26.855,0.000
1709214885.645,-24.902,-39.551,-31.738,-26.855,0.000
1709214885.649,-19.043,-36.133,-35.645,-34.180,0.000
1709214885.653,-21.973,-37.598,-31.738,-41.016,0.000
1709214885.657,-22.949,-43.945,-28.320,-37.109,0.000
1709214885.661,-27.344,-54.688,-31.738,-40.527,0.000
1709214885.664,-33.203,-55.664,-36.621,-42.969,0.000
1709214885.668,-32.715,-56.641,-32.715,-46.387,0.000
1709214885.672,-41.016,-51.758,-30.762,-54.688,0.000
1709214885.676,-43.945,-44.922,-38.086,-55.176,0.000
1709214885.680,-49.316,-58.594,-39.551,-62.500,0.000
1709214885.684,-41.992,-46.387,-26.855,-41.992,0.000
1709214885.688,-29.785,-27.344,-22.949,-31.738,0.000
1709214885.692,-37.109,-40.527,-30.273,-50.781,0.000
1709214885.696,-47.852,-49.805,-39.551,-59.570,0.000
1709214885.700,-46.875,-44.434,-47.363,-47.852,0.000
1709214885.704,-40.527,-43.457,-43.457,-40.039,0.000
1709214885.707,-41.504,-51.270,-34.180,-42.969,0.000
1709214885.711,-41.504,-56.641,-30.273,-44.434,0.000
1709214885.715,-43.945,-49.805,-37.598,-49.805,0.000
1709214885.719,-34.668,-37.598,-35.645,-47.363,0.000
1709214885.723,-30.762,-40.527,-26.367,-46.875,0.000
1709214885.727,-32.715,-47.852,-26.367,-40.039,0.000
1709214885.731,-28.320,-44.434,-35.156,-31.738,0.000
1709214885.735,-33.203,-43.945,-40.039,-40.039,0.000
1709214885.739,-43.945,-51.270,-43.945,-45.410,0.000
1709214885.742,-39.062,-56.641,-43.945,-40.039,0.000
1709214885.746,-29.297,-46.875,-40.527,-35.645,0.000
1709214885.750,-28.809,-39.551,-32.715,-38.574,0.000
1709214885.754,-38.574,-43.457,-31.738,-48.340,0.000
1709214885.758,-48.340,-48.340,-41.016,-43.945,0.000
1709214885.762,-42.969,-48.340,-47.852,-38.086,0.000
1709214885.766,-44.434,-47.363,-46.387,-50.781,0.000
1709214885.770,-49.316,-47.852,-39.551,-54.199,0.000
1709214885.774,-51.270,-48.828,-39.551,-52.246,0.000
1709214885.778,-52.734,-50.781,-46.875,-54.688,0.000
1709214885.782,-48.340,-41.992,-52.246,-48.828,0.000
1709214885.786,-36.621,-45.410,-45.898,-40.527,0.000
1709214885.789,-36.621,-57.129,-38.574,-40.527,0.000
1709214885.793,-48.340,-50.781,-40.039,-44.922,0.000
1709214885.797,-52.734,-39.551,-40.527,-47.363,0.000
1709214885.801,-48.828,-36.133,-45.410,-46.387,0.000
1709214885.805,-41.504,-49.805,-52.246,-43.457,0.000
1709214885.809,-39.062,-46.875,-41.504,-46.875,0.000
1709214885.813,-45.410,-34.180,-40.527,-55.664,0.000
1709214885.817,-51.270,-33.203,-41.016,-53.711,0.000
1709214885.821,-45.410,-40.527,-31.738,-46.875,0.000
1709214885.825,-36.133,-36.621,-37.598,-39.551,0.000
1709214885.829,-35.645,-36.621,-41.016,-48.828,0.000
1709214885.833,-31.250,-46.387,-31.250,-42.480,0.000
1709214885.836,-33.691,-35.645,-33.203,-32.715,0.000
1709214885.840,-41.016,-35.156,-40.039,-49.805,0.000
1709214885.844,-41.016,-40.039,-48.828,-53.223,0.000
1709214885.848,-36.621,-37.109,-50.781,-46.387,0.000
1709214885.852,-30.762,-36.133,-36.133,-35.645,0.000
1709214885.856,-39.062,-39.062,-32.227,-39.062,0.000
1709214885.860,-43.945,-49.316,-38.086,-44.922,0.000
1709214885.864,-37.598,-46.387,-43.457,-43.457,0.000
1709214885.868,-25.391,-34.668,-37.598,-33.691,0.000
1709214885.872,-24.414,-35.645,-29.785,-33.203,0.000
1709214885.876,-35.645,-40.039,-35.645,-52.734,0.000
1709214885.879,-41.992,-41.992,-39.062,-49.316,0.000
1709214885.883,-37.109,-48.828,-38.574,-39.551,0.000
1709214885.887,-36.621,-49.805,-34.668,-40.039,0.000
1709214885.891,-41.992,-42.480,-42.480,-39.551,0.000
1709214885.895,-40.039,-39.551,-43.945,-46.875,0.000
1709214885.899,-38.086,-40.527,-22.461,-45.410,0.000
1709214885.903,-39.062,-40.039,-25.391,-41.504,0.000
1709214885.907,-34.180,-42.480,-37.109,-43.457,0.000
1709214885.911,-38.574,-55.176,-35.645,-39.062,0.000
1709214885.915,-46.875,-57.129,-40.527,-41.016,0.000
1709214885.918,-41.504,-49.316,-38.574,-41.504,0.000
1709214885.922,-42.480,-58.105,-38.574,-28.809,0.000
1709214885.926,-55.664,-52.734,-47.363,-23.926,0.000
1709214885.930,-57.129,-44.922,-46.387,-36.133,0.000
1709214885.934,-41.992,-44.434,-40.527,-44.434,0.000
1709214885.938,-36.133,-39.062,-37.598,-47.363,0.000
1709214885.942,-38.086,-32.715,-44.922,-41.992,0.000
1709214885.946,-31.738,-27.832,-44.922,-33.203,0.000
1709214885.950,-38.086,-41.016,-41.504,-39.551,0.000
1709214885.954,-45.898,-47.852,-36.621,-56.641,0.000
1709214885.958,-43.457,-53.223,-31.738,-62.012,0.000
1709214885.961,-45.410,-64.453,-41.504,-55.176,0.000
1709214885.965,-44.434,-40.527,-48.828,-46.387,0.000
1709214885.969,-41.504,-25.879,-51.758,-42.969,0.000
1709214885.973,-45.898,-38.086,-50.293,-52.734,0.000
1709214885.977,-50.293,-49.805,-48.828,-56.152,0.000
1709214885.981,-42.969,-53.223,-55.176,-46.387,0.000
1709214885.985,-42.480,-44.434,-53.223,-44.434,0.000
1709214885.989,-47.852,-48.340,-40.039,-46.875,0.000
1709214885.993,-42.480,-61.523,-35.156,-47.363,0.000
1709214885.997,-49.316,-55.664,-36.133,-49.316,0.000
1709214886.000,-48.340,-53.223,-39.062,-39.062,0.000
1709214886.004,-38.086,-58.105,-44.434,-28.809,0.000
1709214886.008,-31.738,-50.293,-45.898,-30.762,0.000
1709214886.012,-32.227,-43.457,-43.457,-28.809,0.000
1709214886.016,-40.039,-39.551,-44.434,-26.367,0.000
1709214886.020,-41.504,-40.527,-43.457,-31.250,0.000
1709214886.024,-35.156,-53.711,-31.250,-26.367,0.000
1709214886.028,-29.785,-47.363,-38.574,-31.250,0.000
1709214886.032,-31.250,-30.762,-47.852,-41.016,0.000
1709214886.035,-32.715,-34.180,-25.879,-43.457,0.000
1709214886.039,-27.832,-38.574,-16.602,-45.410,0.000
1709214886.043,-27.832,-39.062,-28.809,-37.598,0.000
1709214886.047,-36.133,-43.457,-34.180,-37.598,0.000
1709214886.051,-34.668,-38.086,-34.668,-43.457,0.000
1709214886.055,-32.227,-36.133,-38.574,-43.945,0.000
1709214886.059,-32.715,-41.504,-30.273,-30.762,0.000
1709214886.063,-28.809,-39.551,-27.832,-28.809,0.000
1709214886.067,-30.273,-41.992,-37.598,-40.527,0.000
1709214886.071,-28.809,-45.898,-35.156,-41.992,0.000
1709214886.075,-23.926,-41.016,-39.062,-42.969,0.000
1709214886.078,-28.320,-39.062,-38.086,-41.504,0.000
1709214886.082,-29.297,-35.156,-30.762,-33.691,0.000
1709214886.086,-23.438,-36.133,-37.109,-36.133,0.000
1709214886.090,-21.484,-38.086,-35.156,-41.504,0.000
1709214886.094,-35.645,-41.504,-35.156,-48.828,0.000
1709214886.098,-50.293,-48.340,-38.574,-53.223,0.000
1709214886.102,-43.457,-52.734,-38.086,-41.016,0.000
1709214886.106,-32.715,-58.594,-35.645,-27.832,0.000
1709214886.110,-32.715,-46.875,-32.227,-36.621,0.000
1709214886.113,-37.109,-43.945,-33.203,-46.387,0.000
1709214886.117,-37.109,-51.270,-43.457,-44.434,0.000
1709214886.121,-29.297,-46.875,-51.270,-35.156,0.000
1709214886.125,-24.414,-46.387,-49.316,-33.203,0.000
1709214886.129,-27.832,-37.109,-37.598,-36.621,0.000
1709214886.133,-41.504,-31.250,-38.086,-46.875,0.000
1709214886.137,-44.434,-42.480,-39.551,-44.922,0.000
1709214886.141,-43.457,-48.828,-30.273,-35.645,0.000
1709214886.145,-39.551,-47.852,-26.367,-31.250,0.000
1709214886.149,-37.109,-53.223,-33.691,-29.785,0.000
1709214886.153,-37.598,-53.711,-37.598,-37.109,0.000
1709214886.157,-35.156,-47.363,-39.551,-49.316,0.000
1709214886.160,-29.785,-41.016,-36.621,-43.945,0.000
1709214886.164,-35.156,-55.664,-28.809,-29.785,0.000
1709214886.168,-40.527,-59.570,-38.086,-40.527,0.000
1709214886.172,-34.668,-42.969,-39.062,-41.992,0.000
1709214886.176,-43.457,-45.898,-29.297,-45.410,0.000
1709214886.180,-49.316,-46.387,-29.297,-60.059,0.000
1709214886.184,-33.691,-44.922,-26.367,-54.688,0.000
1709214886.188,-23.926,-51.758,-32.715,-44.434,0.000
1709214886.192,-28.809,-41.016,-44.434,-45.898,0.000
1709214886.196,-32.227,-34.668,-33.691,-45.898,0.000
1709214886.200,-32.715,-40.527,-30.762,-41.992,0.000
1709214886.204,-29.785,-35.645,-31.250,-38.574,0.000
1709214886.207,-23.438,-38.086,-22.461,-23.926,0.000
1709214886.211,-24.414,-41.992,-28.320,-23.438,0.000
1709214886.215,-32.227,-43.457,-31.738,-39.551,0.000
1709214886.219,-29.297,-46.387,-24.414,-38.086,0.000
1709214886.223,-20.996,-31.738,-25.879,-33.691,0.000
1709214886.227,-20.996,-21.484,-35.645,-41.016,0.000
1709214886.231,-19.043,-31.738,-33.203,-41.504,0.000
1709214886.235,-25.391,-44.434,-37.109,-41.016,0.000
1709214886.239,-41.504,-45.410,-35.645,-47.852,0.000
1709214886.243,-38.574,-41.504,-28.809,-44.434,0.000
1709214886.247,-26.367,-54.199,-33.691,-36.133,0.000
1709214886.250,-27.344,-53.223,-33.691,-35.645,0.000
1709214886.254,-40.039,-40.039,-45.410,-39.062,0.000
1709214886.258,-48.340,-40.527,-56.152,-49.316,0.000
1709214886.262,-43.945,-44.922,-52.734,-52.246,0.000
1709214886.266,-36.133,-50.781,-43.945,-44.922,0.000
1709214886.270,-36.621,-51.758,-45.410,-52.246,0.000
1709214886.274,-37.109,-44.922,-46.387,-58.594,0.000
1709214886.278,-37.109,-40.039,-41.016,-55.176,0.000
1709214886.282,-38.574,-40.527,-42.480,-48.828,0.000
1709214886.286,-39.551,-41.504,-42.480,-45.410,0.000
1709214886.290,-41.504,-35.645,-42.969,-43.457,0.000
1709214886.294,-43.457,-33.691,-47.852,-48.828,0.000
1709214886.298,-39.551,-35.156,-54.688,-51.758,0.000
1709214886.302,-37.109,-32.715,-42.480,-39.551,0.000
1709214886.305,-33.203,-33.691,-35.156,-41.504,0.000
1709214886.309,-22.461,-40.527,-41.504,-44.922,0.000
1709214886.313,-29.297,-38.086,-31.250,-45.898,0.000
1709214886.317,-52.246,-40.527,-33.691,-54.199,0.000
1709214886.321,-50.293,-49.805,-32.715,-55.176,0.000
1709214886.325,-40.039,-49.805,-24.414,-46.875,0.000
1709214886.329,-34.668,-58.594,-31.250,-43.457,0.000
1709214886.333,-32.715,-63.965,-32.715,-40.039,0.000
1709214886.337,-39.551,-42.969,-28.320,-44.434,0.000
1709214886.341,-48.340,-34.668,-33.203,-47.852,0.000
1709214886.344,-37.109,-40.039,-38.574,-38.574,0.000
1709214886.348,-21.484,-36.621,-33.691,-29.785,0.000
1709214886.352,-27.344,-38.086,-27.344,-32.227,0.000
1709214886.356,-38.574,-38.086,-25.879,-34.180,0.000
1709214886.360,-42.969,-52.246,-23.438,-32.227,0.000
1709214886.364,-35.156,-53.711,-28.320,-36.621,0.000
1709214886.368,-36.621,-40.527,-40.527,-50.293,0.000
1709214886.372,-31.250,-53.711,-42.480,-45.410,0.000
1709214886.376,-35.156,-62.012,-44.922,-46.875,0.000
1709214886.380,-50.781,-45.410,-44.922,-56.641,0.000
1709214886.383,-46.387,-38.086,-41.992,-54.199,0.000
1709214886.387,-35.156,-52.246,-41.016,-41.504,0.000
1709214886.391,-33.203,-51.270,-44.434,-38.574,0.000
1709214886.395,-35.156,-41.504,-42.480,-58.594,0.000
1709214886.399,-41.504,-55.664,-34.668,-59.570,0.000
1709214886.403,-35.156,-53.223,-34.180,-49.316,0.000
1709214886.407,-16.602,-22.949,-36.133,-42.969,0.000
1709214886.411,-21.484,-33.691,-33.203,-46.875,0.000
1709214886.415,-33.203,-55.176,-35.645,-55.664,0.000
1709214886.419,-36.133,-54.199,-42.480,-54.688,0.000
1709214886.422,-35.156,-54.199,-43.457,-44.922,0.000
1709214886.426,-31.738,-45.898,-36.621,-41.016,0.000
1709214886.430,-35.156,-46.387,-39.551,-44.434,0.000
1709214886.434,-35.645,-40.527,-45.898,-35.645,0.000
1709214886.438,-40.039,-33.203,-45.410,-31.250,0.000
1709214886.442,-37.598,-39.062,-41.992,-34.180,0.000
1709214886.446,-28.809,-38.574,-36.621,-30.762,0.000
1709214886.450,-28.809,-38.574,-35.645,-31.738,0.000
1709214886.454,-43.945,-48.340,-32.227,-37.598,0.000
1709214886.457,-50.781,-57.617,-33.691,-40.527,0.000
1709214886.461,-37.109,-43.945,-30.273,-33.691,0.000
1709214886.465,-28.320,-34.668,-23.438,-32.227,0.000
1709214886.469,-26.367,-39.551,-27.344,-33.691,0.000
1709214886.473,-30.273,-38.574,-34.180,-40.527,0.000
1709214886.477,-44.434,-39.551,-40.039,-49.316,0.000
1709214886.481,-49.805,-47.363,-44.434,-44.434,0.000
1709214886.485,-41.016,-43.457,-48.340,-37.598,0.000
1709214886.489,-35.645,-41.992,-40.527,-33.203,0.000
1709214886.493,-34.668,-47.852,-32.227,-31.250,0.000
1709214886.496,-43.945,-48.340,-36.133,-32.227,0.000
1709214886.500,-51.270,-44.922,-34.180,-37.109,0.000
1709214886.504,-38.086,-40.527,-26.367,-29.297,0.000
1709214886.508,-31.250,-33.203,-25.391,-25.391,0.000
1709214886.512,-41.016,-36.133,-35.156,-39.551,0.000
1709214886.516,-45.410,-47.363,-31.250,-46.875,0.000
1709214886.520,-45.898,-42.480,-21.484,-44.922,0.000
1709214886.524,-47.363,-38.086,-30.273,-40.527,0.000
1709214886.528,-47.852,-38.086,-46.387,-38.574,0.000
1709214886.532,-47.852,-40.527,-40.527,-42.480,0.000
1709214886.536,-48.340,-43.457,-29.785,-45.410,0.000
1709214886.540,-56.641,-50.293,-39.062,-40.039,0.000
1709214886.543,-51.758,-58.105,-40.527,-35.156,0.000
1709214886.547,-43.457,-46.875,-38.574,-45.898,0.000
1709214886.551,-49.805,-50.293,-37.109,-56.641,0.000
1709214886.555,-57.617,-55.176,-33.203,-52.734,0.000
1709214886.559,-63.965,-41.504,-34.668,-50.293,0.000
1709214886.563,-59.570,-41.504,-36.621,-55.664,0.000
1709214886.567,-49.316,-44.922,-30.273,-55.176,0.000
1709214886.571,-49.316,-41.992,-32.715,-56.641,0.000
1709214886.575,-51.270,-42.969,-44.434,-61.035,0.000
1709214886.579,-54.199,-45.898,-45.898,-63.965,0.000
1709214886.583,-50.293,-41.504,-49.316,-53.711,0.000
1709214886.587,-32.715,-34.668,-49.316,-37.109,0.000
1709214886.590,-27.344,-43.945,-32.715,-42.480,0.000
1709214886.594,-27.832,-52.246,-22.949,-46.875,0.000
1709214886.598,-31.738,-38.086,-26.367,-48.340,0.000
1709214886.602,-28.809,-27.832,-31.250,-49.316,0.000
1709214886.606,-24.902,-31.738,-38.086,-44.922,0.000
1709214886.610,-27.344,-44.434,-41.992,-43.945,0.000
1709214886.614,-33.691,-48.828,-43.945,-41.016,0.000
1709214886.618,-39.551,-49.316,-43.945,-43.457,0.000
1709214886.622,-37.109,-46.875,-40.527,-46.387,0.000
1709214886.626,-36.133,-46.387,-35.156,-41.504,0.000
1709214886.630,-39.551,-53.223,-37.598,-31.738,0.000
1709214886.633,-38.574,-50.781,-41.504,-32.715,0.000
1709214886.637,-42.969,-41.016,-40.039,-44.922,0.000
1709214886.641,-54.199,-41.016,-41.992,-46.387,0.000
1709214886.645,-40.527,-43.945,-41.016,-29.785,0.000
1709214886.649,-32.227,-45.410,-42.969,-25.879,0.000
1709214886.653,-43.945,-55.664,-38.574,-41.016,0.000
1709214886.657,-46.387,-53.223,-30.762,-44.922,0.000
1709214886.661,-43.457,-42.969,-31.250,-37.109,0.000
1709214886.665,-36.621,-34.180,-36.621,-34.668,0.000
1709214886.669,-28.809,-35.156,-32.227,-40.039,0.000
1709214886.673,-36.621,-45.410,-33.203,-44.922,0.000
1709214886.676,-53.223,-55.664,-58.105,-51.270,0.000
1709214886.680,-54.688,-58.105,-54.688,-53.711,0.000
1709214886.684,-47.363,-50.293,-35.645,-40.527,0.000
1709214886.688,-40.039,-48.340,-33.691,-36.621,0.000
1709214886.692,-40.039,-47.363,-28.320,-48.340,0.000
1709214886.696,-35.645,-45.410,-21.973,-46.875,0.000
1709214886.700,-37.109,-51.758,-35.645,-43.945,0.000
1709214886.704,-39.551,-59.082,-44.922,-41.016,0.000
1709214886.708,-35.156,-49.805,-44.434,-32.227,0.000
1709214886.712,-30.273,-36.621,-42.480,-36.133,0.000
1709214886.715,-39.062,-35.645,-36.133,-45.898,0.000
1709214886.719,-43.457,-39.062,-41.504,-49.316,0.000
1709214886.723,-41.504,-46.387,-48.828,-50.293,0.000
1709214886.727,-45.410,-50.293,-44.434,-51.758,0.000
1709214886.731,-50.293,-48.828,-33.203,-43.945,0.000
1709214886.735,-52.734,-52.246,-36.133,-34.668,0.000
1709214886.739,-49.316,-54.688,-39.551,-41.992,0.000
1709214886.743,-48.340,-52.246,-40.527,-36.133,0.000
1709214886.747,-38.574,-43.945,-38.086,-24.902,0.000
1709214886.751,-26.855,-42.480,-27.832,-33.691,0.000
1709214886.754,-38.574,-45.410,-36.621,-48.340,0.000
1709214886.758,-39.062,-39.551,-40.039,-42.969,0.000
1709214886.762,-24.902,-40.039,-34.180,-25.391,0.000
1709214886.766,-18.555,-39.062,-33.203,-7.812,0.000
1709214886.770,-20.996,-36.133,-38.574,-6.836,0.000
1709214886.774,-28.809,-33.203,-43.945,-20.996,0.000
1709214886.778,-34.180,-32.227,-37.598,-30.762,0.000
1709214886.782,-25.391,-50.293,-29.297,-24.414,0.000
1709214886.786,-16.602,-45.898,-21.973,-20.020,0.000
1709214886.790,-21.484,-33.203,-26.367,-24.902,0.000
1709214886.793,-30.762,-41.016,-36.133,-25.879,0.000
1709214886.797,-37.598,-41.016,-39.062,-31.738,0.000
1709214886.801,-35.645,-37.109,-41.016,-33.691,0.000
1709214886.805,-20.508,-34.668,-41.016,-36.133,0.000
1709214886.809,-14.648,-34.668,-38.086,-31.250,0.000
1709214886.813,-32.227,-37.598,-37.109,-50.293,0.000
1709214886.817,-31.738,-38.574,-32.227,-59.570,0.000
1709214886.821,-27.344,-45.410,-36.133,-48.828,0.000
1709214886.825,-29.297,-43.457,-41.016,-47.363,0.000
1709214886.829,-29.297,-26.855,-29.785,-43.457,0.000
1709214886.832,-35.645,-30.273,-27.344,-51.758,0.000
1709214886.836,-38.086,-35.156,-34.668,-55.176,0.000
1709214886.840,-35.645,-40.527,-40.527,-47.363,0.000
1709214886.844,-39.551,-52.246,-49.316,-47.363,0.000
1709214886.848,-31.250,-48.340,-42.969,-42.969,0.000
1709214886.852,-29.297,-51.270,-43.457,-36.621,0.000
1709214886.856,-34.180,-53.223,-41.504,-36.133,0.000
1709214886.860,-32.227,-47.363,-27.344,-37.598,0.000
1709214886.864,-27.832,-42.480,-37.109,-34.180,0.000
1709214886.867,-20.996,-29.785,-42.969,-33.203,0.000
1709214886.871,-30.762,-27.344,-37.109,-42.969,0.000
1709214886.875,-37.598,-36.133,-36.621,-48.340,0.000
1709214886.879,-36.621,-35.156,-36.133,-46.875,0.000
1709214886.883,-41.504,-35.156,-42.969,-46.387,0.000
1709214886.887,-30.762,-44.922,-39.062,-35.156,0.000
1709214886.891,-22.949,-42.969,-29.785,-34.668,0.000
1709214886.895,-33.691,-39.062,-33.691,-45.898,0.000
1709214886.899,-34.180,-43.457,-35.156,-41.016,0.000
1709214886.903,-28.809,-39.062,-31.738,-41.016,0.000
1709214886.907,-29.785,-39.551,-32.715,-47.363,0.000
1709214886.911,-32.227,-43.457,-43.457,-43.945,0.000
1709214886.914,-43.945,-40.039,-54.688,-48.828,0.000
1709214886.918,-42.969,-34.180,-43.945,-46.875,0.000
1709214886.922,-32.227,-30.273,-29.785,-30.273,0.000
1709214886.926,-31.250,-40.527,-41.016,-27.832,0.000
1709214886.930,-33.691,-51.270,-45.410,-32.715,0.000
1709214886.934,-40.527,-53.711,-40.527,-39.062,0.000
1709214886.938,-48.828,-57.129,-44.922,-54.688,0.000
1709214886.942,-42.969,-59.570,-41.504,-51.758,0.000
1709214886.946,-34.668,-43.457,-36.133,-36.133,0.000
1709214886.950,-36.133,-33.203,-38.086,-31.738,0.000
1709214886.954,-41.016,-41.016,-31.250,-36.133,0.000
1709214886.958,-40.527,-34.668,-32.715,-35.645,0.000
1709214886.961,-38.574,-39.551,-48.340,-30.273,0.000
1709214886.965,-35.156,-45.898,-46.875,-32.715,0.000
1709214886.969,-29.785,-42.480,-39.551,-34.180,0.000
1709214886.973,-37.598,-46.387,-37.109,-43.457,0.000
1709214886.977,-36.621,-53.223,-37.598,-43.945,0.000
1709214886.981,-31.738,-58.105,-44.434,-40.527,0.000
1709214886.985,-33.691,-58.105,-45.898,-41.992,0.000
1709214886.989,-20.996,-39.062,-30.762,-35.156,0.000
1709214886.993,-20.508,-26.367,-28.320,-40.039,0.000
1709214886.997,-28.320,-27.832,-40.039,-50.293,0.000
1709214887.001,-23.438,-34.180,-45.898,-46.387,0.000
1709214887.004,-25.391,-45.410,-56.152,-38.574,0.000
1709214887.008,-30.273,-49.316,-58.594,-38.574,0.000
1709214887.012,-30.762,-42.969,-49.805,-49.316,0.000
1709214887.016,-41.992,-45.410,-42.480,-59.570,0.000
1709214887.020,-51.270,-50.293,-40.527,-46.875,0.000
1709214887.024,-45.898,-47.852,-43.945,-36.133,0.000
1709214887.028,-39.551,-47.852,-41.992,-42.480,0.000
1709214887.032,-34.180,-35.645,-33.691,-38.086,0.000
1709214887.036,-37.598,-38.574,-31.250,-32.715,0.000
1709214887.040,-43.945,-59.082,-37.109,-48.340,0.000
1709214887.043,-40.039,-45.898,-34.180,-46.387,0.000
1709214887.047,-34.668,-39.062,-35.156,-33.691,0.000
1709214887.051,-32.227,-44.434,-47.852,-35.645,0.000
1709214887.055,-32.715,-34.180,-40.039,-39.551,0.000
1709214887.059,-44.922,-35.645,-33.203,-45.898,0.000
1709214887.063,-45.898,-50.293,-39.062,-46.387,0.000
1709214887.067,-38.574,-49.805,-37.109,-34.668,0.000
1709214887.071,-44.922,-46.875,-36.133,-35.645,0.000
1709214887.075,-48.828,-52.734,-40.527,-41.016,0.000
1709214887.079,-44.434,-60.059,-41.992,-43.945,0.000
1709214887.083,-36.621,-47.363,-28.809,-41.016,0.000
1709214887.086,-35.156,-30.762,-31.250,-35.645,0.000
1709214887.090,-40.039,-40.527,-40.527,-41.016,0.000
1709214887.094,-48.340,-47.363,-38.086,-43.945,0.000
1709214887.098,-54.199,-48.828,-44.922,-50.781,0.000
1709214887.102,-49.316,-49.316,-45.410,-53.711,0.000
1709214887.106,-42.969,-46.387,-43.457,-48.828,0.000
1709214887.110,-43.945,-45.410,-39.062,-44.922,0.000
1709214887.114,-43.945,-37.109,-30.273,-43.945,0.000
1709214887.118,-45.898,-42.969,-25.391,-51.758,0.000
1709214887.122,-37.598,-59.082,-35.156,-46.875,0.000
1709214887.125,-29.297,-56.152,-42.480,-41.504,0.000
1709214887.129,-30.762,-43.945,-39.551,-43.945,0.000
1709214887.133,-39.551,-33.691,-36.133,-45.410,0.000
1709214887.137,-50.293,-50.781,-35.156,-42.969,0.000
1709214887.141,-54.199,-59.570,-35.645,-34.668,0.000
1709214887.145,-50.293,-40.039,-35.156,-39.062,0.000
1709214887.149,-44.434,-39.062,-36.621,-41.016,0.000
1709214887.153,-45.410,-45.410,-45.898,-39.062,0.000
1709214887.157,-37.109,-41.016,-41.016,-41.016,0.000
1709214887.161,-25.391,-45.898,-31.250,-34.180,0.000
1709214887.164,-24.902,-56.152,-38.574,-26.855,0.000
1709214887.168,-28.809,-57.617,-42.969,-26.367,0.000
1709214887.172,-32.715,-53.223,-37.598,-32.227,0.000
1709214887.176,-40.039,-62.012,-40.527,-50.781,0.000
1709214887.180,-39.551,-57.617,-35.645,-49.316,0.000
1709214887.184,-38.574,-39.551,-36.133,-33.203,0.000
1709214887.188,-33.691,-34.180,-39.062,-33.203,0.000
1709214887.192,-29.297,-37.109,-41.992,-44.434,0.000
1709214887.196,-35.645,-35.156,-54.688,-47.852,0.000
1709214887.200,-29.785,-27.832,-45.410,-38.086,0.000
1709214887.203,-28.809,-40.527,-35.645,-39.551,0.000
1709214887.207,-32.715,-51.270,-35.156,-42.969,0.000
1709214887.211,-31.250,-48.340,-26.855,-37.598,0.000
1709214887.215,-35.156,-60.059,-26.855,-29.297,0.000
1709214887.219,-37.109,-53.223,-36.133,-31.738,0.000
1709214887.223,-33.691,-27.344,-38.574,-40.039,0.000
1709214887.227,-22.461,-23.926,-31.738,-29.785,0.000
1709214887.231,-24.902,-35.156,-41.016,-32.715,0.000
1709214887.235,-38.086,-45.898,-46.387,-48.828,0.000
1709214887.238,-35.645,-45.898,-39.551,-52.734,0.000
1709214887.242,-35.156,-41.016,-38.086,-40.039,0.000
1709214887.246,-31.738,-39.551,-33.691,-32.227,0.000
1709214887.250,-27.344,-45.898,-33.691,-39.062,0.000
1709214887.254,-35.156,-47.852,-34.668,-42.480,0.000
1709214887.258,-39.062,-41.992,-31.738,-40.039,0.000
1709214887.262,-33.691,-50.293,-35.156,-38.086,0.000
1709214887.266,-30.762,-46.387,-41.992,-41.504,0.000
1709214887.270,-33.203,-40.039,-41.016,-44.922,0.000
1709214887.274,-41.504,-44.434,-41.992,-49.316,0.000
1709214887.278,-37.109,-42.969,-40.039,-47.363,0.000
1709214887.282,-31.738,-37.109,-36.621,-40.527,0.000
1709214887.285,-33.691,-43.457,-43.457,-41.992,0.000
1709214887.289,-31.250,-53.223,-53.223,-35.645,0.000
1709214887.293,-38.086,-43.945,-58.105,-43.457,0.000
1709214887.297,-48.828,-37.598,-50.293,-52.734,0.000
1709214887.301,-45.898,-44.922,-39.062,-44.434,0.000
1709214887.305,-36.621,-46.387,-39.551,-37.109,0.000
1709214887.309,-31.738,-43.457,-38.086,-33.203,0.000
1709214887.313,-30.273,-51.758,-35.645,-34.180,0.000
1709214887.317,-32.227,-56.641,-36.133,-38.086,0.000
1709214887.321,-35.156,-43.457,-33.203,-33.691,0.000
1709214887.325,-32.715,-37.109,-34.668,-29.785,0.000
1709214887.329,-24.414,-39.062,-39.551,-26.855,0.000
1709214887.332,-29.297,-37.598,-40.039,-19.043,0.000
1709214887.336,-41.016,-39.551,-37.598,-24.414,0.000
1709214887.340,-44.434,-35.156,-29.785,-37.598,0.000
1709214887.344,-44.434,-35.645,-21.973,-40.527,0.000
1709214887.348,-41.016,-41.992,-22.949,-34.668,0.000
1709214887.352,-43.945,-41.016,-33.691,-34.180,0.000
1709214887.356,-42.480,-46.875,-31.738,-36.621,0.000
1709214887.360,-31.738,-56.641,-20.996,-29.785,0.000
1709214887.364,-31.250,-51.758,-25.391,-29.785,0.000
1709214887.368,-33.691,-40.039,-37.598,-39.551,0.000
1709214887.372,-34.180,-39.062,-35.156,-37.598,0.000
1709214887.375,-42.969,-43.945,-30.762,-41.504,0.000
1709214887.379,-48.828,-49.316,-35.645,-43.945,0.000
1709214887.383,-49.805,-49.316,-34.668,-40.527,0.000
1709214887.387,-45.410,-41.016,-26.367,-34.180,0.000
1709214887.391,-45.898,-42.969,-25.879,-36.133,0.000
1709214887.395,-56.641,-47.852,-35.645,-49.805,0.000
1709214887.399,-57.129,-46.387,-39.551,-49.316,0.000
1709214887.403,-43.457,-39.551,-28.809,-40.527,0.000
1709214887.407,-33.203,-41.016,-28.809,-32.715,0.000
1709214887.411,-39.551,-41.016,-47.363,-40.527,0.000
1709214887.415,-51.758,-42.969,-52.246,-50.781,0.000
1709214887.418,-48.340,-43.945,-41.016,-45.410,0.000
1709214887.422,-38.574,-44.922,-41.992,-30.762,0.000
1709214887.426,-40.039,-54.199,-42.480,-24.902,0.000
1709214887.430,-45.410,-48.340,-36.621,-43.457,0.000
1709214887.434,-49.316,-47.852,-35.645,-59.082,0.000
1709214887.438,-48.340,-54.688,-30.273,-56.641,0.000
1709214887.442,0.000,-51.270,-38.086,-47.852,0.000
1709214887.446,0.000,-49.805,-46.387,-41.992,0.000
1709214887.450,0.000,-43.457,-42.480,-41.016,0.000
1709214887.454,0.000,-44.922,-44.922,-42.969,0.000
1709214887.458,0.000,-45.898,-46.387,-47.852,0.000
1709214887.462,0.000,-38.574,-44.922,-41.504,0.000
1709214887.466,0.000,-31.250,-47.363,-30.762,0.000
1709214887.470,0.000,-39.551,-49.805,-26.855,0.000
1709214887.473,0.000,-50.781,-41.992,-29.297,0.000
1709214887.477,0.000,-45.410,-41.992,-38.574,0.000
1709214887.481,0.000,-42.969,-41.016,-36.133,0.000
1709214887.485,0.000,-43.945,-35.156,-32.715,0.000
1709214887.489,-28.809,-43.945,-31.738,-31.250,0.000
1709214887.493,-36.133,-47.852,-29.785,-39.062,0.000
1709214887.497,-44.434,-46.875,-31.738,-44.434,0.000
1709214887.501,-43.457,-40.527,-32.227,-35.156,0.000
1709214887.505,-42.969,-39.062,-30.762,-33.691,0.000
1709214887.509,-33.203,-33.203,-28.809,-37.598,0.000
1709214887.512,-27.832,-35.156,-34.668,-38.086,0.000
1709214887.516,-38.574,-42.969,-38.574,-43.945,0.000
1709214887.520,-41.016,-41.992,-34.180,-51.270,0.000
1709214887.524,-28.809,-39.551,-23.438,-37.598,0.000
1709214887.528,-22.461,-36.621,-24.902,-26.367,0.000
1709214887.532,-38.574,-39.062,-38.574,-41.992,0.000
1709214887.536,-44.922,-49.316,-37.109,-54.199,0.000
1709214887.540,-44.434,-59.082,-36.621,-53.223,0.000
1709214887.544,-48.340,-44.922,-39.551,-52.734,0.000
1709214887.547,-41.992,-33.691,-33.691,-46.875,0.000
1709214887.551,-35.156,-40.039,-35.645,-43.945,0.000
1709214887.555,-42.480,-41.016,-40.039,-57.617,0.000
1709214887.559,-52.246,-38.574,-36.621,-50.781,0.000
1709214887.563,-44.434,-38.574,-44.922,-33.691,0.000
1709214887.567,-31.250,-49.805,-43.945,-30.762,0.000
1709214887.571,-30.273,-57.129,-39.551,-30.273,0.000
1709214887.575,-35.645,-50.781,-41.992,-31.738,0.000
1709214887.579,-41.504,-41.504,-39.062,-41.016,0.000
1709214887.583,-41.504,-36.621,-32.715,-46.387,0.000
1709214887.586,-33.203,-37.109,-31.250,-42.480,0.000
1709214887.590,-32.715,-37.598,-35.156,-49.805,0.000
1709214887.594,-44.922,-54.199,-39.551,-58.594,0.000
1709214887.598,-49.805,-68.848,-48.340,-49.805,0.000
1709214887.602,-35.645,-53.223,-41.992,-32.227,0.000
1709214887.606,-23.926,-34.180,-31.738,-26.855,0.000
1709214887.610,-19.043,-28.809,-29.785,-30.762,0.000
1709214887.614,-25.391,-27.832,-36.621,-34.668,0.000
1709214887.618,-44.434,-42.969,-41.992,-41.504,0.000
1709214887.622,-44.922,-51.270,-28.320,-34.180,0.000
1709214887.626,-35.645,-46.875,-28.809,-32.227,0.000
1709214887.630,-34.180,-48.340,-33.691,-34.180,0.000
1709214887.633,-40.527,-52.246,-36.133,-40.039,0.000
1709214887.637,-44.434,-54.199,-34.668,-42.480,0.000
1709214887.641,-37.598,-48.340,-24.414,-32.715,0.000
1709214887.645,-28.320,-44.922,-26.367,-26.367,0.000
1709214887.649,-26.367,-45.410,-27.344,-27.344,0.000
1709214887.653,-36.133,-51.758,-30.273,-34.180,0.000
1709214887.657,-38.574,-47.363,-33.203,-39.062,0.000
1709214887.661,-39.062,-36.133,-35.156,-33.203,0.000
1709214887.665,-44.434,-39.551,-42.969,-27.344,0.000
1709214887.669,-41.504,-40.527,-35.156,-34.668,0.000
1709214887.672,-34.668,-40.039,-24.902,-41.992,0.000
1709214887.676,-38.086,-41.504,-29.785,-39.551,0.000
1709214887.680,-46.387,-46.875,-38.574,-44.922,0.000
1709214887.684,-44.434,-44.434,-32.715,-45.898,0.000
1709214887.688,-47.363,-35.156,-35.645,-48.828,0.000
1709214887.692,-53.711,-41.504,-45.410,-60.059,0.000
1709214887.696,-52.734,-52.246,-37.109,-69.336,0.000
1709214887.700,-45.410,-54.199,-31.738,-64.941,0.000
1709214887.704,-40.527,-44.434,-35.645,-58.594,0.000
1709214887.708,-37.109,-39.062,-36.621,-54.199,0.000
1709214887.712,-37.598,-48.828,-46.387,-50.781,0.000
1709214887.716,-40.039,-50.293,-39.062,-57.129,0.000
1709214887.719,-32.715,-38.086,-22.949,-45.410,0.000
1709214887.723,-33.203,-39.551,-28.809,-36.133,0.000
1709214887.727,-37.598,-49.805,-37.598,-47.852,0.000
1709214887.731,-35.156,-44.922,-32.715,-44.922,0.000
1709214887.735,-38.086,-51.270,-30.762,-45.898,0.000
1709214887.739,-37.598,-53.223,-41.504,-53.223,0.000
1709214887.743,-38.574,-40.527,-41.504,-46.875,0.000
1709214887.747,-39.062,-40.527,-34.668,-43.945,0.000
1709214887.751,-33.203,-53.223,-41.504,-45.898,0.000
1709214887.755,-37.598,-64.453,-45.898,-45.410,0.000
1709214887.759,-46.875,-51.758,-32.227,-51.758,0.000
1709214887.762,-41.504,-47.363,-26.367,-44.434,0.000
1709214887.766,-33.203,-42.480,-25.879,-36.621,0.000
1709214887.770,-33.691,-31.250,-29.297,-46.875,0.000
1709214887.774,-45.410,-44.922,-38.086,-54.688,0.000
1709214887.778,-48.828,-50.293,-32.227,-51.270,0.000
1709214887.782,-44.434,-45.410,-36.621,-43.457,0.000
1709214887.786,-43.457,-52.734,-34.180,-41.016,0.000
1709214887.790,-45.410,-55.176,-35.156,-42.480,0.000
1709214887.794,-46.387,-40.527,-45.898,-44.922,0.000
1709214887.798,-52.246,-37.598,-34.668,-47.852,0.000
1709214887.802,-61.035,-43.457,-30.273,-49.316,0.000
1709214887.805,-54.688,-40.527,-30.273,-46.387,0.000
1709214887.809,-38.574,-40.527,-34.180,-38.574,0.000
1709214887.813,-32.227,-39.551,-36.133,-38.086,0.000
1709214887.817,-35.645,-41.992,-32.227,-35.645,0.000
1709214887.821,-37.109,-39.551,-44.922,-41.992,0.000
1709214887.825,-33.691,-32.715,-48.340,-46.387,0.000
1709214887.829,-27.344,-39.062,-42.480,-45.410,0.000
1709214887.833,-27.832,-39.551,-38.086,-46.387,0.000
1709214887.837,-38.086,-37.598,-39.062,-46.387,0.000
1709214887.841,-38.574,-45.898,-44.434,-44.434,0.000
1709214887.844,-23.926,-48.340,-33.691,-21.484,0.000
1709214887.848,-15.625,-46.875,-27.832,-23.438,0.000
1709214887.852,-23.926,-42.480,-30.762,-45.898,0.000
1709214887.856,-41.504,-44.434,-34.180,-44.434,0.000
1709214887.860,-47.363,-52.734,-32.715,-34.180,0.000
1709214887.864,-45.898,-48.828,-37.109,-34.180,0.000
1709214887.868,-43.457,-42.969,-41.504,-41.992,0.000
1709214887.872,-37.109,-38.086,-36.133,-40.039,0.000
1709214887.876,-45.410,-40.527,-29.785,-43.945,0.000
1709214887.880,-53.223,-53.711,-32.715,-40.527,0.000
1709214887.883,-40.039,-56.641,-36.133,-29.297,0.000
1709214887.887,-28.809,-44.922,-45.410,-25.391,0.000
1709214887.891,-30.762,-48.340,-45.898,-23.926,0.000
1709214887.895,-43.457,-54.688,-33.203,-35.645,0.000
1709214887.899,-41.016,-40.527,-30.273,-39.551,0.000
1709214887.903,-27.832,-34.180,-34.180,-30.762,0.000
1709214887.907,-16.602,-31.250,-35.645,-25.391,0.000
1709214887.911,-12.207,-24.902,-32.715,-23.438,0.000
1709214887.915,-26.855,-33.203,-30.762,-28.320,0.000
1709214887.918,-38.574,-48.340,-39.062,-36.621,0.000
1709214887.922,-37.109,-55.176,-42.480,-37.598,0.000
1709214887.926,-32.715,-53.223,-43.945,-35.645,0.000
1709214887.930,-31.738,-39.551,-44.434,-28.320,0.000
1709214887.934,-39.551,-51.758,-43.945,-25.391,0.000
1709214887.938,-49.316,-61.035,-42.969,-29.785,0.000
1709214887.942,-42.969,-48.340,-33.203,-31.250,0.000
1709214887.946,-30.273,-40.039,-24.902,-16.602,0.000
1709214887.950,-34.668,-43.457,-36.133,-28.320,0.000
1709214887.954,-33.203,-50.293,-46.387,-43.945,0.000
1709214887.957,-30.762,-45.898,-39.062,-39.551,0.000
1709214887.961,-32.227,-42.480,-37.109,-32.227,0.000
1709214887.965,-19.531,-44.434,-40.039,-24.414,0.000
1709214887.969,-14.648,-41.016,-33.691,-25.391,0.000
1709214887.973,-25.391,-47.852,-31.250,-31.738,0.000
1709214887.977,-32.715,-52.246,-30.273,-32.227,0.000
1709214887.981,-36.133,-37.598,-37.598,-31.738,0.000
1709214887.985,-34.180,-27.832,-44.434,-34.180,0.000
1709214887.989,-33.203,-40.527,-44.922,-39.062,0.000
1709214887.993,-33.203,-47.852,-42.480,-41.992,0.000
1709214887.996,-29.785,-41.016,-40.039,-42.480,0.000
1709214888.000,-32.227,-37.109,-41.016,-44.434,0.000
1709214888.004,-29.785,-34.668,-36.621,-36.133,0.000
1709214888.008,-14.648,-31.250,-30.273,-30.762,0.000
1709214888.012,-18.555,-35.645,-35.645,-43.457,0.000
1709214888.016,-33.203,-50.293,-46.875,-49.316,0.000
1709214888.020,-38.574,-46.387,-51.270,-42.480,0.000
1709214888.024,-30.762,-44.922,-47.852,-34.180,0.000
1709214888.028,-19.531,-46.387,-42.969,-30.273,0.000
1709214888.032,-28.320,-31.738,-38.574,-38.574,0.000
1709214888.036,-37.109,-27.344,-27.832,-40.039,0.000
1709214888.040,-43.457,-40.039,-35.156,-39.551,0.000
1709214888.043,-51.758,-55.664,-42.969,-41.992,0.000
1709214888.047,-41.992,-45.410,-36.133,-37.109,0.000
1709214888.051,-28.809,-36.621,-36.621,-36.133,0.000
1709214888.055,-33.203,-39.551,-37.598,-43.457,0.000
1709214888.059,-38.574,-40.527,-29.785,-41.504,0.000
1709214888.063,-30.273,-56.152,-35.156,-27.832,0.000
1709214888.067,-22.461,-58.594,-42.480,-25.391,0.000
1709214888.071,-14.160,-39.551,-24.902,-17.090,0.000
1709214888.075,-27.832,-46.387,-29.297,-22.949,0.000
1709214888.079,-47.363,-53.711,-36.621,-34.180,0.000
1709214888.083,-43.457,-41.016,-28.809,-24.902,0.000
1709214888.086,-40.527,-41.016,-31.738,-22.949,0.000
1709214888.090,-43.457,-43.457,-39.062,-36.133,0.000
1709214888.094,-52.734,-54.199,-41.992,-51.758,0.000
1709214888.098,-53.223,-64.941,-49.805,-58.594,0.000
1709214888.102,-36.621,-51.758,-45.898,-42.480,0.000
1709214888.106,-25.391,-40.527,-32.227,-34.180,0.000
1709214888.110,-22.949,-48.340,-30.273,-37.598,0.000
1709214888.114,-24.414,-54.199,-27.832,-41.016,0.000
1709214888.118,-30.273,-48.340,-29.297,-39.551,0.000
1709214888.122,-26.367,-41.992,-34.180,-33.691,0.000
1709214888.126,-24.414,-44.922,-40.527,-35.156,0.000
1709214888.130,-31.250,-48.828,-38.574,-36.133,0.000
1709214888.133,-41.016,-49.316,-38.086,-47.852,0.000
1709214888.137,-48.340,-44.434,-37.109,-59.570,0.000
1709214888.141,-46.387,-47.363,-29.297,-50.293,0.000
1709214888.145,-41.992,-46.875,-21.973,-43.945,0.000
1709214888.149,-43.945,-52.734,-26.855,-50.293,0.000
1709214888.153,-59.570,-67.871,-36.133,-58.105,0.000
1709214888.157,-65.430,-62.012,-33.691,-49.805,0.000
1709214888.161,-57.617,-54.199,-30.273,-43.457,0.000
1709214888.165,-54.199,-49.805,-33.203,-42.969,0.000
1709214888.169,-42.480,-36.133,-30.273,-38.086,0.000
1709214888.172,-41.504,-33.691,-31.738,-42.480,0.000
1709214888.176,-54.199,-45.410,-41.992,-39.551,0.000
1709214888.180,-52.246,-49.316,-47.363,-42.969,0.000
1709214888.184,-44.434,-50.781,-41.504,-43.457,0.000
1709214888.188,-40.527,-45.898,-32.227,-37.598,0.000
1709214888.192,-41.992,-47.363,-32.227,-50.293,0.000
1709214888.196,-42.480,-52.246,-35.156,-54.688,0.000
1709214888.200,-40.039,-48.340,-30.273,-46.387,0.000
1709214888.204,-42.969,-45.898,-35.645,-47.363,0.000
1709214888.208,-43.945,-47.852,-44.922,-42.969,0.000
1709214888.211,-42.969,-48.828,-48.828,-46.875,0.000
1709214888.215,-47.852,-39.551,-52.246,-60.059,0.000
1709214888.219,-48.340,-34.668,-48.340,-51.758,0.000
1709214888.223,-41.992,-36.621,-42.480,-48.828,0.000
1709214888.227,-47.363,-42.969,-45.410,-56.641,0.000
1709214888.231,-51.270,-44.922,-48.828,-44.434,0.000
1709214888.235,-49.805,-45.410,-42.480,-38.086,0.000
1709214888.239,-55.176,-49.316,-35.156,-44.434,0.000
1709214888.243,-49.316,-51.758,-36.621,-47.363,0.000
1709214888.247,-38.086,-57.129,-36.621,-45.898,0.000
1709214888.251,-38.574,-48.340,-34.668,-43.945,0.000
1709214888.254,-36.621,-43.945,-32.715,-41.992,0.000
1709214888.258,-41.992,-42.969,-31.738,-46.387,0.000
1709214888.262,-39.551,-20.996,-32.227,-34.180,0.000
1709214888.266,-34.668,-20.996,-32.715,-23.926,0.000
1709214888.270,-43.945,-27.832,-32.227,-37.598,0.000
1709214888.274,-47.852,-27.344,-35.645,-44.922,0.000
1709214888.278,-44.434,-37.598,-43.457,-48.828,0.000
1709214888.282,-34.180,-40.527,-29.297,-40.039,0.000
1709214888.286,-37.109,-55.664,-26.367,-36.621,0.000
1709214888.289,-45.410,-59.570,-33.203,-42.969,0.000
1709214888.293,-51.270,-44.434,-30.762,-41.992,0.000
1709214888.297,-55.664,-41.016,-30.762,-37.109,0.000
1709214888.301,-50.293,-41.992,-27.832,-28.809,0.000
1709214888.305,-38.086,-50.293,-27.832,-25.391,0.000
1709214888.309,-41.992,-55.176,-30.762,-23.926,0.000
1709214888.313,-58.594,-52.246,-37.598,-36.133,0.000
1709214888.317,-55.664,-41.016,-45.898,-48.828,0.000
1709214888.321,-47.852,-34.180,-44.922,-41.992,0.000
1709214888.325,-36.621,-43.457,-41.016,-34.668,0.000
1709214888.329,-26.367,-44.434,-30.273,-28.320,0.000
1709214888.332,-33.691,-37.598,-29.785,-35.156,0.000
1709214888.336,-38.574,-42.480,-36.133,-48.828,0.000
1709214888.340,-37.598,-44.922,-31.250,-43.457,0.000
1709214888.344,-35.645,-44.434,-29.297,-39.062,0.000
1709214888.348,-31.250,-53.223,-30.273,-42.480,0.000
1709214888.352,-36.133,-59.082,-42.480,-36.621,0.000
1709214888.356,-44.922,-46.875,-45.410,-36.621,0.000
1709214888.360,-46.387,-35.156,-37.109,-46.875,0.000
1709214888.364,-36.621,-33.691,-36.133,-42.480,0.000
1709214888.367,-27.344,-41.016,-41.016,-37.109,0.000
1709214888.371,-31.250,-48.340,-40.039,-42.969,0.000
1709214888.375,-39.551,-43.945,-27.344,-49.805,0.000
1709214888.379,-38.574,-43.945,-28.320,-51.758,0.000
1709214888.383,-30.762,-43.945,-30.273,-52.246,0.000
1709214888.387,-35.645,-43.457,-39.551,-56.641,0.000
1709214888.391,-35.156,-41.016,-41.992,-49.316,0.000
1709214888.395,-39.551,-44.922,-39.551,-58.105,0.000
1709214888.399,-53.223,-50.781,-43.457,-68.848,0.000
1709214888.403,-50.293,-49.805,-38.574,-52.734,0.000
1709214888.407,-42.480,-47.363,-34.180,-45.410,0.000
1709214888.411,-30.273,-36.133,-35.645,-43.457,0.000
1709214888.414,-31.250,-36.621,-46.875,-36.621,0.000
1709214888.418,-45.898,-46.875,-41.992,-38.574,0.000
1709214888.422,-39.062,-41.016,-28.320,-37.109,0.000
