timestamps,TP9,AF7,AF8,TP10,Right AUX
1709214622.000,-41.504,-68.848,-45.898,-36.133,0.000
1709214622.004,-39.551,-48.340,-41.992,-37.109,0.000
1709214622.008,-38.086,-32.715,-39.062,-39.062,0.000
1709214622.012,-37.109,-29.297,-42.969,-44.922,0.000
1709214622.016,-43.457,-34.668,-47.852,-49.316,0.000
1709214622.019,-36.621,-31.250,-42.969,-38.574,0.000
1709214622.023,-28.809,-31.250,-36.133,-21.973,0.000
1709214622.027,-34.180,-39.551,-43.457,-25.391,0.000
1709214622.031,-33.691,-58.594,-42.480,-35.645,0.000
1709214622.035,-34.180,-65.918,-42.480,-41.016,0.000
1709214622.039,-39.551,-36.133,-44.922,-38.086,0.000
1709214622.043,-43.945,-33.691,-38.086,-37.598,0.000
1709214622.047,-40.527,-47.363,-36.621,-42.480,0.000
1709214622.051,-30.762,-41.992,-32.715,-34.668,0.000
1709214622.055,-31.738,-43.457,-31.738,-30.273,0.000
1709214622.059,-38.574,-38.574,-34.180,-29.297,0.000
1709214622.063,-38.574,-41.504,-29.785,-25.391,0.000
1709214622.066,-43.457,-59.570,-38.086,-24.414,0.000
1709214622.070,-44.922,-52.734,-36.621,-24.902,0.000
1709214622.074,-46.875,-35.156,-26.367,-37.598,0.000
1709214622.078,-51.758,-34.668,-26.367,-34.668,0.000
1709214622.082,-46.875,-37.598,-25.879,-17.090,0.000
1709214622.086,-38.086,-31.738,-28.320,-28.320,0.000
1709214622.090,-35.645,-36.133,-30.273,-43.457,0.000
1709214622.094,-36.621,-36.133,-22.461,-40.039,0.000
1709214622.098,-44.434,-38.574,-30.273,-44.922,0.000
1709214622.102,-41.504,-45.898,-34.668,-41.992,0.000
1709214622.106,-38.574,-50.781,-34.180,-39.551,0.000
1709214622.109,-35.156,-41.992,-35.645,-41.992,0.000
1709214622.113,-32.227,-35.645,-33.691,-48.340,0.000
1709214622.117,-38.574,-41.992,-42.969,-46.387,0.000
1709214622.121,-44.922,-46.387,-41.504,-38.086,0.000
1709214622.125,-45.410,-49.316,-34.180,-30.762,0.000
1709214622.129,-36.133,-42.969,-34.668,-37.109,0.000
1709214622.133,-32.227,-36.133,-36.133,-49.805,0.000
1709214622.137,-48.828,-41.504,-46.387,-56.641,0.000
1709214622.141,-62.012,-50.293,-49.316,-64.453,0.000
1709214622.145,-51.758,-54.688,-41.504,-57.129,0.000
1709214622.149,-44.922,-54.199,-36.621,-52.734,0.000
1709214622.152,-53.223,-52.734,-41.016,-58.594,0.000
1709214622.156,-48.828,-45.898,-41.992,-51.270,0.000
1709214622.160,-47.363,-42.969,-41.992,-45.410,0.000
1709214622.164,-50.781,-42.480,-42.480,-46.387,0.000
1709214622.168,-45.898,-39.062,-41.016,-43.945,0.000
1709214622.172,-45.898,-41.016,-43.457,-44.434,0.000
1709214622.176,-51.270,-45.410,-45.898,-59.082,0.000
1709214622.180,-49.805,-45.898,-42.480,-50.781,0.000
1709214622.184,-41.504,-53.711,-40.039,-41.016,0.000
1709214622.188,-39.062,-54.199,-41.504,-40.039,0.000
1709214622.192,-31.738,-28.320,-45.410,-32.715,0.000
1709214622.195,-34.180,-30.273,-42.480,-32.715,0.000
1709214622.199,-38.574,-44.434,-44.434,-36.621,0.000
1709214622.203,-37.109,-39.551,-43.945,-36.621,0.000
1709214622.207,-41.504,-34.180,-30.762,-34.180,0.000
1709214622.211,-39.551,-40.527,-40.039,-43.945,0.000
1709214622.215,-39.062,-45.410,-47.852,-44.922,0.000
1709214622.219,-52.246,-40.527,-41.504,-49.805,0.000
1709214622.223,-51.270,-40.527,-42.480,-51.270,0.000
1709214622.227,-43.945,-38.086,-39.551,-36.621,0.000
1709214622.231,-49.316,-33.691,-43.457,-38.086,0.000
1709214622.235,-48.828,-33.203,-44.434,-46.387,0.000
1709214622.238,-50.293,-44.434,-46.387,-45.410,0.000
1709214622.242,-48.828,-50.293,-42.969,-40.039,0.000
1709214622.246,-45.898,-32.715,-34.180,-36.621,0.000
1709214622.250,-46.875,-46.387,-40.039,-36.133,0.000
1709214622.254,-46.387,-53.223,-37.109,-35.156,0.000
1709214622.258,-48.828,-31.250,-35.156,-32.227,0.000
1709214622.262,-54.199,-35.645,-45.898,-33.203,0.000
1709214622.266,-51.270,-41.016,-51.270,-41.992,0.000
1709214622.270,-42.969,-34.668,-41.992,-41.504,0.000
1709214622.274,-41.992,-32.715,-36.621,-40.039,0.000
1709214622.277,-39.551,-38.574,-42.480,-39.551,0.000
1709214622.281,-31.738,-35.156,-38.574,-25.391,0.000
1709214622.285,-23.926,-35.645,-32.227,-22.461,0.000
1709214622.289,-21.484,-41.992,-30.273,-30.273,0.000
1709214622.293,-21.484,-41.016,-31.738,-33.691,0.000
1709214622.297,-25.879,-38.574,-44.922,-40.039,0.000
1709214622.301,-29.785,-34.180,-50.781,-41.016,0.000
1709214622.305,-31.250,-33.203,-41.016,-29.297,0.000
1709214622.309,-34.668,-34.668,-39.062,-31.738,0.000
1709214622.313,-37.109,-36.133,-41.504,-42.480,0.000
1709214622.317,-41.016,-36.621,-41.504,-44.434,0.000
1709214622.320,-40.527,-35.645,-39.551,-41.016,0.000
1709214622.324,-34.668,-37.598,-32.715,-33.691,0.000
1709214622.328,-29.785,-45.410,-32.715,-36.621,0.000
1709214622.332,-31.250,-46.875,-38.574,-41.016,0.000
1709214622.336,-34.180,-47.363,-41.504,-41.016,0.000
1709214622.340,-38.574,-30.762,-39.551,-45.410,0.000
1709214622.344,-42.480,-17.090,-36.621,-54.688,0.000
1709214622.348,-42.480,-29.785,-35.645,-46.875,0.000
1709214622.352,-44.434,-35.156,-33.203,-37.109,0.000
1709214622.356,-42.480,-33.691,-32.227,-44.922,0.000
1709214622.359,-36.621,-37.598,-30.762,-45.898,0.000
1709214622.363,-30.273,-44.434,-35.645,-43.457,0.000
1709214622.367,-24.902,-43.945,-38.086,-35.645,0.000
1709214622.371,-26.855,-27.832,-35.156,-42.969,0.000
1709214622.375,-31.738,-30.762,-37.598,-50.781,0.000
1709214622.379,-38.086,-46.875,-42.480,-50.781,0.000
1709214622.383,-39.551,-46.387,-48.340,-49.805,0.000
1709214622.387,-34.668,-37.109,-50.293,-45.898,0.000
1709214622.391,-31.250,-37.598,-46.387,-40.527,0.000
1709214622.395,-29.297,-39.062,-38.574,-36.133,0.000
1709214622.399,-29.297,-40.527,-33.691,-32.227,0.000
1709214622.403,-32.227,-46.875,-42.480,-24.902,0.000
1709214622.406,-18.066,-45.410,-36.621,-18.555,0.000
1709214622.410,-17.578,-51.270,-27.344,-18.555,0.000
1709214622.414,-28.809,-53.223,-40.527,-27.832,0.000
1709214622.418,-32.715,-44.434,-43.457,-31.738,0.000
1709214622.422,-32.715,-47.363,-42.969,-29.297,0.000
1709214622.426,-30.762,-46.875,-44.434,-27.832,0.000
1709214622.430,-35.156,-43.945,-44.922,-31.250,0.000
1709214622.434,-38.086,-47.852,-41.504,-42.480,0.000
1709214622.438,-42.969,-50.293,-33.203,-43.457,0.000
1709214622.442,-47.363,-57.129,-37.109,-39.062,0.000
1709214622.446,-43.457,-55.664,-38.574,-38.086,0.000
1709214622.449,-41.504,-53.711,-39.062,-52.734,0.000
1709214622.453,-50.781,-55.176,-35.645,-57.129,0.000
1709214622.457,-59.082,-57.129,-38.574,-47.852,0.000
1709214622.461,-53.223,-58.105,-38.574,-47.852,0.000
1709214622.465,-37.109,-42.969,-31.738,-41.504,0.000
1709214622.469,-26.367,-36.621,-37.598,-43.945,0.000
1709214622.473,-22.461,-42.480,-37.598,-52.734,0.000
1709214622.477,-30.273,-29.785,-42.480,-52.246,0.000
1709214622.481,-35.645,-20.020,-40.527,-41.992,0.000
1709214622.485,-34.180,-23.926,-32.227,-42.969,0.000
1709214622.489,-37.109,-35.156,-39.062,-45.898,0.000
1709214622.493,-35.645,-37.598,-40.039,-44.922,0.000
1709214622.496,-27.832,-32.715,-36.133,-44.434,0.000
1709214622.500,-28.809,-43.945,-33.203,-34.180,0.000
1709214622.504,-39.551,-49.805,-35.645,-29.785,0.000
1709214622.508,-34.668,-41.016,-41.504,-42.480,0.000
1709214622.512,-26.855,-30.273,-37.109,-47.363,0.000
1709214622.516,-28.809,-29.297,0.000,-45.410,0.000
1709214622.520,-26.367,-34.180,0.000,-40.527,0.000
1709214622.524,-24.902,-31.738,0.000,-31.250,0.000
1709214622.528,-23.438,-29.785,0.000,-31.250,0.000
1709214622.532,-22.461,-33.203,0.000,-41.992,0.000
1709214622.536,-34.180,-36.621,0.000,-47.852,0.000
1709214622.539,-45.898,-35.156,0.000,-48.340,0.000
1709214622.543,-54.199,-41.016,0.000,-37.109,0.000
1709214622.547,-39.551,-51.270,0.000,-17.578,0.000
1709214622.551,-30.762,-39.551,0.000,-32.227,0.000
1709214622.555,-37.109,-25.879,0.000,-51.758,0.000
1709214622.559,-37.598,-28.320,0.000,-51.758,0.000
1709214622.563,-40.039,-36.621,-47.852,-46.875,0.000
1709214622.567,-40.527,-37.598,-45.898,-44.922,0.000
1709214622.571,-36.621,-34.668,-47.363,-41.016,0.000
1709214622.575,-36.133,-36.621,-45.898,-41.992,0.000
1709214622.579,-40.527,-44.434,-31.738,-38.574,0.000
1709214622.582,-43.945,-54.688,-27.344,-33.691,0.000
1709214622.586,-42.480,-56.641,-35.645,-39.062,0.000
1709214622.590,-35.156,-56.641,-36.621,-35.156,0.000
1709214622.594,-35.645,-41.016,-33.203,-34.668,0.000
1709214622.598,-39.062,-31.250,-34.668,-42.480,0.000
1709214622.602,-45.410,-46.387,-39.551,-41.016,0.000
1709214622.606,-47.852,-45.898,-40.039,-41.992,0.000
1709214622.610,-45.410,-35.156,-40.527,-40.039,0.000
1709214622.614,-45.898,-39.062,-45.410,-43.945,0.000
1709214622.618,-42.480,-49.316,-34.668,-48.340,0.000
1709214622.621,-45.898,-52.734,-35.645,-45.898,0.000
1709214622.625,-46.387,-45.898,-46.875,-44.922,0.000
1709214622.629,-37.109,-42.480,-34.180,-45.410,0.000
1709214622.633,-39.062,-44.922,-31.250,-36.133,0.000
1709214622.637,-44.434,-42.480,-38.574,-27.344,0.000
1709214622.641,-47.363,-42.969,-38.574,-34.180,0.000
1709214622.645,-48.828,-39.551,-41.992,-34.668,0.000
1709214622.649,-41.016,-46.875,-44.922,-32.715,0.000
1709214622.653,-32.715,-42.480,-44.922,-37.598,0.000
1709214622.657,-34.180,-34.668,-44.922,-41.504,0.000
1709214622.661,-32.715,-40.527,-46.875,-43.457,0.000
1709214622.664,-32.227,-28.809,-38.574,-44.434,0.000
1709214622.668,-31.250,-24.414,-33.203,-43.457,0.000
1709214622.672,-28.320,-33.203,-37.109,-44.434,0.000
1709214622.676,-32.715,-53.223,-38.574,-58.105,0.000
1709214622.680,-34.668,-54.199,-31.738,-48.340,0.000
1709214622.684,-35.156,-41.992,-34.668,-41.016,0.000
1709214622.688,-35.645,-37.109,-51.270,-54.199,0.000
1709214622.692,-24.902,-44.434,-44.434,-42.480,0.000
1709214622.696,-20.020,-52.246,-23.438,-38.574,0.000
1709214622.700,-29.785,-38.574,-29.297,-48.828,0.000
1709214622.703,-31.738,-31.738,-30.273,-48.340,0.000
1709214622.707,-24.902,-38.086,-26.367,-39.551,0.000
1709214622.711,-25.879,-52.246,-33.203,-38.574,0.000
1709214622.715,-32.715,-53.223,-34.668,-48.828,0.000
1709214622.719,-32.227,-41.504,-32.227,-48.340,0.000
1709214622.723,-31.738,-40.039,-34.180,-37.109,0.000
1709214622.727,-32.715,-49.316,-40.039,-29.297,0.000
1709214622.731,-25.879,-44.434,-40.527,-34.180,0.000
1709214622.735,-25.391,-45.410,-31.738,-37.109,0.000
1709214622.739,-24.902,-49.316,-25.879,-23.438,0.000
1709214622.743,-23.438,-37.598,-32.227,-18.066,0.000
1709214622.746,-27.832,-31.738,-31.250,-31.738,0.000
1709214622.750,-24.414,-37.598,0.000,-42.969,0.000
1709214622.754,-29.785,-45.410,0.000,-47.363,0.000
1709214622.758,-41.992,-43.457,0.000,-45.410,0.000
1709214622.762,-35.645,-35.645,0.000,-42.969,0.000
1709214622.766,-32.227,-33.203,0.000,-40.039,0.000
1709214622.770,-33.203,-45.898,0.000,-38.574,0.000
1709214622.774,-32.715,-49.805,0.000,-50.781,0.000
1709214622.778,-39.551,-31.250,0.000,-58.594,0.000
1709214622.782,-43.945,-33.691,0.000,-48.828,0.000
1709214622.786,-31.250,-41.504,0.000,-29.785,0.000
1709214622.789,-32.227,-39.551,0.000,-36.621,0.000
1709214622.793,-43.945,-40.527,0.000,-50.293,0.000
1709214622.797,-43.457,-45.410,-36.133,-45.898,0.000
1709214622.801,-40.039,-42.969,-33.691,-41.992,0.000
1709214622.805,-40.039,-36.133,-34.668,-40.039,0.000
1709214622.809,-39.551,-39.062,-42.480,-42.480,0.000
1709214622.813,-38.574,-42.969,-44.922,-41.992,0.000
1709214622.817,-42.969,-43.457,-38.086,-38.086,0.000
1709214622.821,-36.621,-39.551,-31.250,-31.738,0.000
1709214622.825,-22.949,-34.180,-30.273,-30.273,0.000
1709214622.829,-32.715,-43.945,-46.875,-38.086,0.000
1709214622.833,-47.363,-53.711,-43.457,-38.086,0.000
1709214622.836,-47.363,-40.039,-38.086,-41.504,0.000
1709214622.840,-44.922,-33.203,-40.039,-39.551,0.000
1709214622.844,-37.598,-38.574,-32.715,-34.180,0.000
1709214622.848,-26.367,-37.598,-34.668,-33.691,0.000
1709214622.852,-31.250,-37.109,-38.086,-35.645,0.000
1709214622.856,-38.574,-41.504,-37.598,-40.039,0.000
1709214622.860,-38.574,-35.645,-34.668,-36.621,0.000
1709214622.864,-39.062,-35.156,-30.762,-31.250,0.000
1709214622.868,-28.809,-35.156,-33.203,-26.367,0.000
1709214622.872,-22.949,-36.133,-35.645,-32.715,0.000
1709214622.876,-26.855,-41.992,-33.203,-33.691,0.000
1709214622.879,-38.086,-40.527,-37.109,-40.039,0.000
1709214622.883,-38.086,-42.969,-39.062,-41.504,0.000
1709214622.887,-29.297,-52.246,-40.039,-39.551,0.000
1709214622.891,-34.180,-39.062,-43.457,-49.805,0.000
1709214622.895,-35.645,-22.949,-34.180,-53.711,0.000
1709214622.899,-38.086,-28.809,-26.367,-50.781,0.000
1709214622.903,-37.598,-31.250,-29.297,-37.598,0.000
1709214622.907,-31.250,-33.203,-33.203,-32.715,0.000
1709214622.911,-31.738,-37.598,-27.832,-41.992,0.000
1709214622.915,-34.668,-33.203,-35.645,-45.410,0.000
1709214622.919,-37.109,-30.762,-44.434,-34.180,0.000
1709214622.922,-29.297,-41.016,-40.039,-28.809,0.000
1709214622.926,-27.344,-44.434,-43.945,-32.715,0.000
1709214622.930,-35.156,-29.297,-43.945,-37.598,0.000
1709214622.934,-35.645,-20.996,-33.691,-46.387,0.000
1709214622.938,-35.645,-29.785,-35.645,-41.016,0.000
1709214622.942,-36.133,-41.992,-29.785,-30.762,0.000
1709214622.946,-38.086,-48.828,-21.484,-32.227,0.000
1709214622.950,-37.109,-43.945,-28.809,-44.434,0.000
1709214622.954,-34.668,-34.668,-31.250,-47.363,0.000
1709214622.958,-39.551,-38.574,-34.668,-38.086,0.000
1709214622.962,-41.016,-40.527,-42.480,-32.227,0.000
1709214622.965,-34.668,-36.133,-39.551,-30.762,0.000
1709214622.969,-34.668,-47.852,-28.809,-29.785,0.000
1709214622.973,-35.645,-49.805,-27.344,-34.668,0.000
1709214622.977,-37.598,-42.480,-30.273,-38.086,0.000
1709214622.981,-42.969,-45.898,-33.203,-36.133,0.000
1709214622.985,-42.480,-50.781,-37.109,-32.227,0.000
1709214622.989,-41.016,-55.176,-34.180,-33.691,0.000
1709214622.993,-40.039,-46.875,-35.156,-45.410,0.000
1709214622.997,-43.457,-41.504,-35.645,-44.922,0.000
1709214623.001,-47.363,-43.945,-39.062,-41.504,0.000
1709214623.005,-48.340,-45.898,-41.992,-49.805,0.000
1709214623.008,-42.969,-54.199,-37.598,-39.551,0.000
1709214623.012,-40.527,-55.664,-40.527,-33.203,0.000
1709214623.016,-50.781,-55.664,-42.480,-52.246,0.000
1709214623.020,-56.152,-55.176,-47.852,-53.223,0.000
1709214623.024,-49.805,-51.758,-58.105,-47.852,0.000
1709214623.028,-36.621,-56.641,-50.781,-44.434,0.000
1709214623.032,-38.574,-55.176,-37.598,-47.363,0.000
1709214623.036,-46.875,-48.340,-39.551,-56.152,0.000
1709214623.040,-46.875,-50.293,-39.551,-50.293,0.000
1709214623.044,-39.062,-48.340,-40.527,-44.434,0.000
1709214623.048,-36.133,-41.016,-38.574,-45.410,0.000
1709214623.052,-41.504,-43.945,-43.457,-51.270,0.000
1709214623.055,-48.828,-50.781,-49.805,-46.875,0.000
1709214623.059,-55.664,-54.688,-47.363,-39.551,0.000
1709214623.063,-43.457,-48.828,-37.109,-39.062,0.000
1709214623.067,-27.832,-43.945,-32.227,-33.691,0.000
1709214623.071,-22.461,-41.016,-35.156,-24.414,0.000
1709214623.075,-26.855,-41.016,-29.297,-28.809,0.000
1709214623.079,-38.574,-43.945,-30.762,-42.969,0.000
1709214623.083,-38.574,-41.504,-42.969,-36.621,0.000
1709214623.087,-36.133,-40.039,-45.410,-30.273,0.000
1709214623.091,-36.621,-36.621,-29.297,-39.062,0.000
1709214623.094,-41.016,-37.598,-26.367,-43.457,0.000
1709214623.098,-51.270,-36.621,-32.715,-46.387,0.000
1709214623.102,-46.387,-37.109,-28.320,-42.969,0.000
1709214623.106,-33.203,-44.922,-35.156,-41.016,0.000
1709214623.110,-28.320,-57.617,-40.039,-46.387,0.000
1709214623.114,-32.227,-55.176,-34.180,-51.758,0.000
1709214623.118,-37.109,-55.664,-41.992,-57.617,0.000
1709214623.122,-39.551,-51.270,-43.457,-54.199,0.000
1709214623.126,-42.969,-42.480,-47.852,-56.152,0.000
1709214623.130,-36.621,-42.480,-50.293,-55.176,0.000
1709214623.134,-27.344,-40.039,-52.246,-49.805,0.000
1709214623.137,-41.016,-42.969,-61.523,-52.734,0.000
1709214623.141,-45.898,-36.621,-58.594,-40.039,0.000
1709214623.145,-33.203,-29.785,-53.223,-31.250,0.000
1709214623.149,-28.809,-39.062,-47.363,-36.621,0.000
1709214623.153,-23.926,-48.340,-47.852,-34.668,0.000
1709214623.157,-31.738,-39.551,-52.734,-34.668,0.000
1709214623.161,-28.320,-38.086,-41.016,-20.996,0.000
1709214623.165,-24.414,-36.621,-29.297,-13.184,0.000
1709214623.169,-31.738,-36.621,-38.086,-20.996,0.000
1709214623.173,-30.762,-44.434,-44.922,-26.367,0.000
1709214623.177,-29.297,-32.715,-37.598,-33.203,0.000
1709214623.181,-35.156,-20.020,-43.457,-31.738,0.000
1709214623.184,-35.645,-31.738,-39.551,-25.391,0.000
1709214623.188,-30.273,-42.480,-26.367,-23.438,0.000
1709214623.192,-20.508,-35.645,-22.461,-22.461,0.000
1709214623.196,-24.902,-40.039,-26.855,-28.809,0.000
1709214623.200,-34.668,-53.711,-39.062,-37.598,0.000
1709214623.204,-31.250,-57.617,-40.039,-29.297,0.000
1709214623.208,-28.809,-49.805,-37.598,-24.414,0.000
1709214623.212,-25.879,-39.551,-40.527,-39.062,0.000
1709214623.216,-16.602,-30.762,-37.598,-41.016,0.000
1709214623.220,-21.484,-37.598,-38.574,-44.922,0.000
1709214623.224,-33.691,-39.062,-44.922,-44.434,0.000
1709214623.227,-22.461,-31.738,-41.504,-40.527,0.000
1709214623.231,-22.949,-39.062,-40.039,-50.293,0.000
1709214623.235,-30.762,-47.852,-47.363,-55.176,0.000
1709214623.239,-33.691,-46.875,-51.758,-44.922,0.000
1709214623.243,-38.086,-47.363,-48.828,-35.645,0.000
1709214623.247,-35.156,-49.316,-43.945,-35.156,0.000
1709214623.251,-24.414,-37.109,-32.715,-21.484,0.000
1709214623.255,-30.273,-23.926,-33.691,-24.414,0.000
1709214623.259,-43.457,-30.273,-37.598,-35.645,0.000
1709214623.263,-41.016,-41.992,-34.180,-26.367,0.000
1709214623.267,-33.203,-37.109,-29.785,-22.949,0.000
1709214623.270,-35.645,-36.133,-35.156,-32.715,0.000
1709214623.274,-33.691,-34.668,-45.898,-32.227,0.000
1709214623.278,-37.109,-35.645,-39.551,-30.762,0.000
1709214623.282,-46.387,-48.828,-23.438,-27.344,0.000
1709214623.286,-37.109,-48.828,-26.367,-22.949,0.000
1709214623.290,-18.555,-36.133,-27.832,-21.973,0.000
1709214623.294,-16.113,-38.086,-27.344,-16.113,0.000
1709214623.298,-28.809,-40.039,-35.645,-20.020,0.000
1709214623.302,-30.273,-27.832,-36.621,-17.578,0.000
1709214623.306,-20.996,-24.414,-30.273,-14.160,0.000
1709214623.309,-18.066,-40.039,-31.250,-21.484,0.000
1709214623.313,-23.926,-42.969,-28.809,-26.855,0.000
1709214623.317,-23.926,-28.809,-26.367,-31.738,0.000
1709214623.321,-25.391,-23.926,-27.344,-34.180,0.000
1709214623.325,-29.297,-24.414,-31.738,-32.715,0.000
1709214623.329,-21.973,-29.297,-36.133,-32.715,0.000
1709214623.333,-14.648,-35.645,-33.691,-38.574,0.000
1709214623.337,-20.996,-40.527,-27.344,-37.598,0.000
1709214623.341,-24.902,-26.367,-28.809,-24.414,0.000
1709214623.345,-21.484,-18.066,-36.621,-28.320,0.000
1709214623.349,-16.113,-27.832,-35.645,-34.668,0.000
1709214623.352,-12.695,-30.273,-23.926,-26.367,0.000
1709214623.356,-25.391,-36.133,-24.902,-28.320,0.000
1709214623.360,0.000,-42.969,-24.902,-30.273,0.000
1709214623.364,0.000,-32.715,-26.855,-23.926,0.000
1709214623.368,0.000,-28.320,-34.180,-25.391,0.000
1709214623.372,0.000,-34.668,-33.691,-34.668,0.000
1709214623.376,0.000,-41.016,-30.273,-37.109,0.000
1709214623.380,0.000,-44.434,-29.297,-40.527,0.000
1709214623.384,0.000,-49.805,-29.785,-34.668,0.000
1709214623.388,0.000,-50.293,-35.156,-36.621,0.000
1709214623.392,0.000,-34.180,-35.645,-57.129,0.000
1709214623.395,0.000,-27.344,-28.809,-54.688,0.000
1709214623.399,0.000,-26.367,-33.691,-46.387,0.000
1709214623.403,0.000,-34.180,-41.992,-44.922,0.000
1709214623.407,-33.691,-44.434,-42.969,-42.480,0.000
1709214623.411,-31.250,-47.363,-34.668,-44.434,0.000
1709214623.415,-30.762,-47.852,-30.273,-46.387,0.000
1709214623.419,-33.691,-52.734,-32.227,-41.016,0.000
1709214623.423,-34.180,-53.711,-30.762,-37.598,0.000
1709214623.427,-29.297,-48.340,-35.645,-39.062,0.000
1709214623.431,-29.785,-47.363,-40.039,-24.414,0.000
1709214623.434,-35.156,-48.340,-45.410,-32.715,0.000
1709214623.438,-45.898,-43.945,-49.316,-53.223,0.000
1709214623.442,-46.875,-40.039,-52.246,-50.781,0.000
1709214623.446,-43.457,-38.574,-51.758,-46.875,0.000
1709214623.450,-35.156,-41.504,-34.668,-40.527,0.000
1709214623.454,-25.391,-44.922,-31.738,-41.016,0.000
1709214623.458,-26.367,-42.969,-31.738,-43.945,0.000
1709214623.462,-35.156,-47.852,-29.297,-47.363,0.000
1709214623.466,-31.738,-47.852,-27.832,-45.898,0.000
1709214623.470,-27.344,-40.527,-26.367,-56.152,0.000
1709214623.474,-25.879,-33.691,-29.297,-54.688,0.000
1709214623.477,-28.320,-45.410,-31.738,-39.551,0.000
1709214623.481,-37.109,-52.734,-41.016,-44.434,0.000
1709214623.485,-36.133,-43.945,-46.875,-46.387,0.000
1709214623.489,-34.180,-43.945,-41.016,-38.574,0.000
1709214623.493,-36.133,-42.480,-48.340,-38.086,0.000
1709214623.497,-37.109,-29.785,-51.758,-41.016,0.000
1709214623.501,-38.086,-31.738,-42.969,-40.039,0.000
1709214623.505,-41.992,-41.504,-50.293,-46.387,0.000
1709214623.509,-40.527,-44.434,-54.688,-48.828,0.000
1709214623.513,-38.574,-50.781,-48.828,-54.688,0.000
1709214623.517,-55.664,-46.875,-37.109,-61.035,0.000
1709214623.520,-55.664,-47.363,-36.133,-49.805,0.000
1709214623.524,-47.852,-48.828,-41.504,-41.992,0.000
1709214623.528,-51.270,-40.527,-36.133,-39.062,0.000
1709214623.532,-50.781,-44.922,-37.109,-42.480,0.000
1709214623.536,-53.223,-47.363,-41.992,-41.504,0.000
1709214623.540,-58.105,-41.016,-35.156,-42.480,0.000
1709214623.544,-57.617,-48.340,-41.016,-54.199,0.000
1709214623.548,0.000,-47.363,0.000,-48.340,0.000
1709214623.552,0.000,-47.363,0.000,-44.434,0.000
1709214623.556,0.000,-57.617,0.000,-46.387,0.000
1709214623.560,0.000,-54.199,0.000,-43.945,0.000
1709214623.564,0.000,-50.293,0.000,-39.062,0.000
1709214623.567,0.000,-50.293,0.000,-35.156,0.000
1709214623.571,0.000,-46.387,0.000,-44.922,0.000
1709214623.575,0.000,-49.316,0.000,-57.129,0.000
1709214623.579,0.000,-50.781,0.000,-50.293,0.000
1709214623.583,0.000,-43.945,0.000,-45.410,0.000
1709214623.587,0.000,-40.527,0.000,-50.781,0.000
1709214623.591,0.000,-46.875,0.000,-51.270,0.000
1709214623.595,-44.434,-54.688,-43.457,-51.270,0.000
1709214623.599,-43.457,-46.387,-44.922,-48.340,0.000
1709214623.603,-43.457,-37.598,-46.875,-41.504,0.000
1709214623.607,-42.969,-40.527,-45.898,-37.598,0.000
1709214623.610,-35.156,-41.016,-41.504,-41.504,0.000
1709214623.614,-28.320,-42.969,-39.551,-41.992,0.000
1709214623.618,-26.855,-43.457,-41.504,-39.551,0.000
1709214623.622,-21.973,-46.387,-34.668,-33.203,0.000
1709214623.626,-24.902,-53.711,-33.203,-22.461,0.000
1709214623.630,-26.367,-44.922,-40.039,-28.320,0.000
1709214623.634,-32.227,-38.086,-41.016,-40.527,0.000
1709214623.638,-33.691,-34.180,-31.250,-36.621,0.000
1709214623.642,-28.809,-42.969,-26.855,-32.227,0.000
1709214623.646,-38.574,-53.223,-33.203,-29.297,0.000
1709214623.650,-35.645,-38.574,-37.598,-33.691,0.000
1709214623.653,-37.109,-36.621,-46.387,-48.340,0.000
1709214623.657,-48.828,-46.875,-41.504,-48.828,0.000
1709214623.661,-49.805,-45.898,-39.062,-44.922,0.000
1709214623.665,-46.875,-47.363,-37.598,-45.898,0.000
1709214623.669,-46.875,-45.410,-29.297,-41.016,0.000
1709214623.673,-48.340,-40.039,-28.320,-32.227,0.000
1709214623.677,-42.969,-38.086,-32.227,-38.086,0.000
1709214623.681,-50.781,-34.180,-31.738,-52.246,0.000
1709214623.685,-53.711,-40.039,-33.203,-60.547,0.000
1709214623.689,-45.898,-44.922,-39.062,-61.523,0.000
1709214623.693,-46.387,-48.828,-47.852,-69.336,0.000
1709214623.696,-51.270,-51.758,-48.828,-63.965,0.000
1709214623.700,-58.594,-55.176,-45.898,-52.734,0.000
1709214623.704,-51.758,-56.152,-43.945,-54.199,0.000
1709214623.708,-44.434,-43.945,-39.551,-48.828,0.000
1709214623.712,-46.387,-43.457,-40.527,-45.898,0.000
1709214623.716,-48.828,-45.898,-39.551,-35.156,0.000
1709214623.720,-52.734,-40.527,-39.551,-37.598,0.000
1709214623.724,-55.664,-46.387,-41.504,-52.734,0.000
1709214623.728,-56.641,-46.875,-41.504,-44.434,0.000
1709214623.732,-52.246,-41.016,-42.480,-43.457,0.000
1709214623.736,-51.270,-53.711,-44.922,-51.270,0.000
1709214623.739,-42.969,-56.152,-38.086,-45.898,0.000
1709214623.743,-38.574,-43.457,-32.227,-41.016,0.000
1709214623.747,-42.969,-45.410,-36.621,-40.039,0.000
1709214623.751,-42.480,-46.387,-46.875,-37.598,0.000
1709214623.755,-42.969,-44.434,-44.922,-47.852,0.000
1709214623.759,-46.875,-55.176,-37.598,-45.410,0.000
1709214623.763,-43.945,-64.453,-40.527,-41.016,0.000
1709214623.767,-33.691,-45.898,-38.086,-50.293,0.000
1709214623.771,-36.133,-38.574,-44.434,-56.152,0.000
1709214623.775,-39.062,-44.434,-42.969,-57.129,0.000
1709214623.778,-40.039,-46.875,-31.738,-47.363,0.000
1709214623.782,-33.203,-39.062,-31.250,-38.086,0.000
1709214623.786,-28.809,-33.203,-33.203,-37.109,0.000
1709214623.790,-31.250,-42.480,-39.062,-40.039,0.000
1709214623.794,-27.832,-38.086,-39.551,-50.293,0.000
1709214623.798,-33.203,-36.133,-41.016,-57.617,0.000
1709214623.802,-42.969,-39.062,-41.992,-50.293,0.000
1709214623.806,-35.645,-40.039,-40.039,-38.574,0.000
1709214623.810,-30.762,-45.410,-37.109,-32.715,0.000
1709214623.814,-31.738,-42.480,-34.180,-38.574,0.000
1709214623.818,-29.785,-30.762,-35.156,-40.039,0.000
1709214623.821,-34.668,-34.668,-37.109,-39.062,0.000
1709214623.825,-40.039,-46.875,-37.598,-40.527,0.000
1709214623.829,-32.715,-37.598,-44.922,-41.016,0.000
1709214623.833,-38.086,-36.621,-44.434,-46.875,0.000
1709214623.837,-51.270,-41.992,-44.922,-47.852,0.000
1709214623.841,-47.852,-41.992,-43.457,-44.434,0.000
1709214623.845,-45.410,-43.945,-42.969,-43.945,0.000
1709214623.849,-43.945,-42.969,-48.828,-48.828,0.000
1709214623.853,-37.598,-49.316,-42.969,-45.898,0.000
1709214623.857,-36.621,-46.387,-40.039,-42.480,0.000
1709214623.860,-37.598,-33.691,-44.434,-41.992,0.000
1709214623.864,-31.738,-40.039,-40.527,-36.133,0.000
1709214623.868,-31.738,-40.527,-34.180,-36.621,0.000
1709214623.872,-36.133,-30.762,-37.598,-42.969,0.000
1709214623.876,0.000,-28.320,0.000,-37.598,0.000
1709214623.880,0.000,-42.480,0.000,-37.109,0.000
1709214623.884,0.000,-50.293,0.000,-30.762,0.000
1709214623.888,0.000,-43.457,0.000,-29.297,0.000
1709214623.892,0.000,-42.480,0.000,-28.320,0.000
1709214623.896,0.000,-43.945,0.000,-22.461,0.000
1709214623.900,0.000,-38.574,0.000,-29.297,0.000
1709214623.904,0.000,-35.645,0.000,-31.738,0.000
1709214623.908,0.000,-43.945,0.000,-30.273,0.000
1709214623.911,0.000,-48.340,0.000,-32.227,0.000
1709214623.915,0.000,-41.992,0.000,-35.645,0.000
1709214623.919,0.000,-39.062,0.000,-41.016,0.000
1709214623.923,-46.387,-41.504,-37.598,-42.969,0.000
1709214623.927,-29.297,-36.621,-37.109,-30.762,0.000
1709214623.931,-27.344,-39.551,-36.133,-32.715,0.000
1709214623.935,-31.738,-39.551,-36.621,-37.598,0.000
1709214623.939,-28.809,-36.621,-33.691,-29.297,0.000
1709214623.943,-36.133,-46.387,-41.016,-32.715,0.000
1709214623.947,-39.062,-38.086,-54.199,-39.551,0.000
1709214623.951,-34.668,-33.203,-46.875,-42.969,0.000
1709214623.954,-26.855,-37.109,-29.785,-31.250,0.000
1709214623.958,-31.250,-37.598,-33.691,-29.297,0.000
1709214623.962,-36.133,-39.551,-44.922,-41.504,0.000
1709214623.966,-27.832,-38.086,-46.875,-37.598,0.000
1709214623.970,-24.902,-36.621,-43.945,-36.133,0.000
1709214623.974,-25.391,-36.621,-43.457,-37.109,0.000
1709214623.978,-32.227,-45.410,-40.527,-38.086,0.000
1709214623.982,-44.434,-54.688,-38.574,-43.945,0.000
1709214623.986,-45.410,-58.105,-38.574,-43.457,0.000
1709214623.990,-44.922,-50.781,-41.016,-34.668,0.000
1709214623.994,-45.410,-41.992,-43.457,-47.363,0.000
1709214623.997,-42.480,-42.480,-41.992,-57.129,0.000
1709214624.001,-46.387,-45.898,-41.992,-41.016,0.000
1709214624.005,-53.711,-38.574,-39.551,-33.203,0.000
1709214624.009,-45.410,-32.715,-36.621,-37.598,0.000
1709214624.013,-32.715,-35.645,-34.180,-34.668,0.000
1709214624.017,-37.598,-34.180,-32.227,-44.434,0.000
1709214624.021,-41.016,-33.203,-33.203,-40.527,0.000
1709214624.025,-40.039,-37.109,-41.504,-33.203,0.000
1709214624.029,-37.109,-44.434,-35.645,-31.250,0.000
1709214624.033,-37.109,-48.828,-33.203,-32.715,0.000
1709214624.037,-50.293,-41.016,-36.133,-43.945,0.000
1709214624.040,-53.711,-39.551,-38.574,-38.574,0.000
1709214624.044,-47.363,-44.922,-40.527,-28.809,0.000
1709214624.048,-48.828,-41.016,-34.668,-27.832,0.000
1709214624.052,-47.363,-39.551,-31.738,-32.227,0.000
1709214624.056,-36.621,-42.969,-24.902,-30.762,0.000
1709214624.060,-33.691,-44.434,-29.297,-32.715,0.000
1709214624.064,-34.668,-43.945,-34.668,-31.250,0.000
1709214624.068,-33.203,-41.992,-38.574,-34.668,0.000
1709214624.072,-37.109,-47.852,-43.945,-30.273,0.000
1709214624.076,-36.133,-52.734,-39.062,-20.508,0.000
1709214624.080,-36.621,-46.387,-31.738,-25.879,0.000
1709214624.083,-40.527,-40.527,-35.645,-34.668,0.000
1709214624.087,-41.016,-41.504,-40.527,-31.738,0.000
1709214624.091,-36.621,-44.922,-34.668,-22.461,0.000
1709214624.095,-35.156,-44.922,-36.621,-32.227,0.000
1709214624.099,-33.691,-42.480,-30.273,-42.969,0.000
1709214624.103,-34.668,-48.340,-27.344,-36.133,0.000
1709214624.107,-45.898,-49.316,-36.621,-41.016,0.000
1709214624.111,-46.387,-37.109,-40.039,-53.223,0.000
1709214624.115,-45.898,-38.086,-40.527,-62.500,0.000
1709214624.119,-48.828,-41.504,-32.715,-57.129,0.000
1709214624.123,-49.316,-38.086,-22.461,-50.293,0.000
1709214624.126,-47.363,-41.016,-31.738,-48.828,0.000
1709214624.130,-51.270,-47.852,-41.016,-54.688,0.000
1709214624.134,-49.805,-49.316,-32.227,-56.641,0.000
1709214624.138,-47.363,-51.758,-28.809,-36.621,0.000
1709214624.142,-44.434,-49.805,-37.109,-39.062,0.000
1709214624.146,-37.109,-40.527,-35.645,-45.898,0.000
1709214624.150,-30.762,-37.109,-34.668,-40.527,0.000
1709214624.154,-30.273,-40.039,-29.785,-41.992,0.000
1709214624.158,-30.762,-51.270,-26.855,-45.410,0.000
1709214624.162,-26.367,-45.898,-32.227,-41.504,0.000
1709214624.165,-23.926,-36.133,-33.691,-35.156,0.000
1709214624.169,-20.996,-40.527,-33.691,-32.227,0.000
1709214624.173,-13.672,-43.945,-31.250,-35.645,0.000
1709214624.177,-10.254,-51.270,-30.273,-32.227,0.000
1709214624.181,-11.719,-52.734,-36.133,-10.254,0.000
1709214624.185,-15.137,-39.551,-35.156,-8.301,0.000
1709214624.189,-9.766,-28.809,-36.621,-19.531,0.000
1709214624.193,-6.348,-30.273,-35.645,-22.949,0.000
1709214624.197,-17.578,-42.480,-38.086,-27.344,0.000
1709214624.201,-25.879,-42.480,-36.133,-26.855,0.000
1709214624.204,-24.902,-38.086,-29.785,-21.484,0.000
1709214624.208,-29.297,-54.688,-36.133,-19.043,0.000
1709214624.212,-30.273,-67.383,-31.738,-20.508,0.000
1709214624.216,-37.109,-49.316,-38.574,-30.762,0.000
1709214624.220,-47.363,-34.180,-45.410,-44.434,0.000
1709214624.224,-43.457,-40.039,-35.645,-41.504,0.000
1709214624.228,-35.156,-46.387,-35.156,-21.484,0.000
1709214624.232,-31.250,-40.527,-39.551,-34.668,0.000
1709214624.236,-28.809,-32.227,-42.480,-47.363,0.000
1709214624.240,-36.133,-33.691,-44.434,-33.691,0.000
1709214624.244,-41.504,-40.039,-48.828,-30.762,0.000
1709214624.247,-37.109,-48.340,-41.016,-32.715,0.000
1709214624.251,-33.691,-45.410,-35.645,-31.250,0.000
1709214624.255,-37.109,-41.016,-41.504,-41.992,0.000
1709214624.259,-39.551,-44.434,-42.969,-47.852,0.000
1709214624.263,-44.922,-35.645,-39.062,-41.504,0.000
1709214624.267,-48.828,-35.645,-37.598,-38.574,0.000
1709214624.271,-45.410,-41.992,-41.016,-42.969,0.000
1709214624.275,-47.852,-38.086,-45.898,-44.922,0.000
1709214624.279,-51.758,-37.598,-47.363,-47.363,0.000
1709214624.283,-48.340,-47.363,-39.062,-47.363,0.000
1709214624.287,-42.969,-44.922,-32.715,-43.457,0.000
1709214624.290,-42.969,-38.086,-41.016,-48.340,0.000
1709214624.294,-50.781,-49.316,-47.852,-50.781,0.000
1709214624.298,-54.688,-54.688,-42.480,-47.363,0.000
1709214624.302,-55.176,-44.434,-39.551,-48.340,0.000
1709214624.306,-46.387,-34.668,-40.039,-49.316,0.000
1709214624.310,-40.039,-38.574,-44.434,-49.805,0.000
1709214624.314,-39.062,-47.363,-49.805,-50.293,0.000
1709214624.318,-44.922,-46.875,-41.504,-41.504,0.000
1709214624.322,-47.363,-49.805,-32.715,-32.715,0.000
1709214624.326,-36.133,-45.898,-34.668,-37.598,0.000
1709214624.330,-27.832,-40.527,-35.156,-30.762,0.000
1709214624.334,-35.156,-37.598,-34.668,-30.273,0.000
1709214624.337,-41.504,-33.203,-46.875,-44.922,0.000
1709214624.341,-34.180,-34.668,-46.875,-31.738,0.000
1709214624.345,-28.320,-40.039,-40.527,-19.043,0.000
1709214624.349,-26.367,-44.922,-40.039,-31.250,0.000
1709214624.353,-19.043,-42.480,-32.715,-42.480,0.000
1709214624.357,-17.090,-34.180,-33.203,-41.016,0.000
1709214624.361,-26.367,-31.738,-34.668,-38.086,0.000
1709214624.365,-24.414,-47.363,-30.273,-26.855,0.000
1709214624.369,-18.066,-52.246,-33.203,-21.973,0.000
1709214624.373,-17.090,-38.086,-39.062,-36.133,0.000
1709214624.377,-17.578,-34.668,-42.969,-36.133,0.000
1709214624.380,-24.902,-38.574,-43.945,-29.297,0.000
1709214624.384,-25.391,-35.156,-39.062,-34.180,0.000
1709214624.388,-19.043,-34.180,-34.180,-35.645,0.000
1709214624.392,-17.090,-41.992,-37.109,-36.133,0.000
1709214624.396,-26.367,-39.062,-33.691,-38.574,0.000
1709214624.400,-32.715,-40.039,-29.785,-40.527,0.000
1709214624.404,-35.645,-45.898,-29.785,-43.457,0.000
1709214624.408,-32.715,-44.922,-28.320,-41.992,0.000
1709214624.412,-33.203,-43.457,-33.203,-39.551,0.000
1709214624.416,-36.621,-38.574,-36.133,-42.480,0.000
1709214624.420,-35.156,-38.086,-37.598,-39.551,0.000
1709214624.423,-40.039,-45.898,-39.551,-25.391,0.000
1709214624.427,-39.062,-49.805,-42.969,-26.855,0.000
1709214624.431,-38.086,-43.945,-37.598,-30.273,0.000
1709214624.435,-36.621,-42.480,-24.902,-22.949,0.000
1709214624.439,-36.133,-40.527,-28.809,-24.902,0.000
1709214624.443,-38.574,-40.527,-40.039,-26.855,0.000
1709214624.447,-38.574,-50.781,-39.062,-22.949,0.000
1709214624.451,-34.180,-55.664,-44.922,-27.344,0.000
1709214624.455,-27.344,-41.504,-42.480,-29.785,0.000
1709214624.459,-28.809,-35.645,-35.156,-38.574,0.000
1709214624.463,-31.738,-44.434,-39.551,-40.039,0.000
1709214624.466,-31.738,-52.246,-30.762,-32.227,0.000
1709214624.470,-25.391,-46.387,-23.438,-28.809,0.000
1709214624.474,-29.297,-41.992,-34.180,-34.180,0.000
1709214624.478,-28.809,-46.387,-41.016,-37.598,0.000
1709214624.482,-26.855,-41.992,-41.992,-34.668,0.000
1709214624.486,-27.832,-35.645,-44.434,-37.109,0.000
1709214624.490,-31.250,-35.645,-45.898,-48.340,0.000
1709214624.494,-41.992,-45.898,-47.852,-56.152,0.000
1709214624.498,-41.016,-45.410,-45.898,-53.711,0.000
1709214624.502,-47.363,-41.504,-43.457,-55.664,0.000
1709214624.505,-47.852,-41.504,-39.062,-62.500,0.000
1709214624.509,-38.574,-40.039,-33.203,-55.664,0.000
1709214624.513,-33.203,-41.016,-31.738,-48.828,0.000
1709214624.517,-36.133,-42.480,-39.551,-70.312,0.000
1709214624.521,-31.738,-39.062,-44.922,-69.336,0.000
1709214624.525,-22.461,-28.809,-40.039,-48.340,0.000
1709214624.529,-22.949,-37.598,-43.457,-46.387,0.000
1709214624.533,-23.438,-47.852,-41.504,-49.805,0.000
1709214624.537,-25.879,-36.621,-35.156,-40.527,0.000
1709214624.541,-31.738,-34.180,-32.227,-41.992,0.000
1709214624.545,-38.574,-44.434,-33.691,-52.246,0.000
1709214624.548,-33.691,-37.109,-32.715,-44.922,0.000
1709214624.552,-33.691,-39.551,-32.715,-47.363,0.000
1709214624.556,-42.969,-51.270,-42.969,-41.504,0.000
1709214624.560,-48.340,-41.504,-41.016,-36.621,0.000
1709214624.564,-47.363,-30.273,-33.203,-41.016,0.000
1709214624.568,-46.387,-37.598,-32.715,-34.668,0.000
1709214624.572,-48.828,-46.387,-36.133,-44.922,0.000
1709214624.576,-51.758,-41.016,-37.109,-47.363,0.000
1709214624.580,-58.105,-35.645,-34.668,-41.992,0.000
1709214624.584,-59.570,-39.551,-35.645,-46.387,0.000
1709214624.587,-54.199,-45.410,-36.133,-50.293,0.000
1709214624.591,-49.805,-49.316,-40.039,-53.711,0.000
1709214624.595,-44.922,-46.875,-38.574,-53.711,0.000
1709214624.599,-45.898,-32.227,-34.180,-47.363,0.000
1709214624.603,-44.922,-34.180,-41.992,-50.293,0.000
1709214624.607,-34.668,-37.109,-42.969,-57.617,0.000
1709214624.611,-30.273,-32.227,-34.180,-46.875,0.000
1709214624.615,-32.715,-36.621,-35.645,-41.504,0.000
1709214624.619,-36.621,-42.969,-32.227,-44.922,0.000
1709214624.623,-40.527,-44.434,-30.762,-48.340,0.000
1709214624.627,-39.062,-37.598,-38.574,-49.316,0.000
1709214624.631,-38.574,-36.133,-34.668,-49.805,0.000
1709214624.634,-44.922,-47.852,-40.039,-50.781,0.000
1709214624.638,-54.688,-41.992,-43.945,-49.805,0.000
1709214624.642,-52.246,-37.598,-38.086,-49.805,0.000
1709214624.646,-44.434,-43.945,-33.203,-42.969,0.000
1709214624.650,-41.016,-42.969,-28.320,-40.527,0.000
1709214624.654,-38.086,-41.992,-36.133,-52.246,0.000
1709214624.658,-42.969,-34.180,-37.598,-49.805,0.000
1709214624.662,-38.086,-30.762,-38.086,-31.250,0.000
1709214624.666,-28.809,-36.621,-42.969,-29.297,0.000
1709214624.670,-36.133,-43.945,-38.086,-28.320,0.000
1709214624.674,-41.504,-52.734,-36.133,-29.785,0.000
1709214624.677,-47.852,-53.223,-38.086,-39.062,0.000
1709214624.681,-54.199,-37.109,-39.551,-39.062,0.000
1709214624.685,-45.410,-41.504,-35.645,-40.039,0.000
1709214624.689,-34.668,-50.293,-35.156,-39.551,0.000
1709214624.693,-36.133,-40.527,-44.434,-42.480,0.000
1709214624.697,-36.621,-35.645,-41.016,-39.062,0.000
1709214624.701,-32.227,-27.832,-34.180,-36.621,0.000
1709214624.705,-36.133,-30.273,-39.062,-36.133,0.000
1709214624.709,-30.762,-41.016,-41.992,-20.996,0.000
1709214624.713,-26.367,-42.969,-47.852,-30.273,0.000
1709214624.716,-31.738,-46.875,-51.270,-50.781,0.000
1709214624.720,-37.598,-44.922,-46.387,-46.875,0.000
1709214624.724,-35.156,-33.691,-38.086,-33.203,0.000
1709214624.728,-28.809,-33.691,-33.203,-28.809,0.000
1709214624.732,-28.809,-38.574,-39.551,-29.297,0.000
1709214624.736,-30.762,-39.062,-37.109,-39.551,0.000
1709214624.740,-34.668,-40.527,-34.668,-44.922,0.000
1709214624.744,-40.039,-42.480,-37.109,-47.363,0.000
1709214624.748,-44.434,-53.711,-36.133,-46.387,0.000
1709214624.752,-32.227,-51.758,-41.992,-35.645,0.000
1709214624.756,-29.785,-36.133,-51.758,-41.504,0.000
1709214624.759,-38.086,-34.180,-43.457,-48.340,0.000
1709214624.763,-36.621,-34.180,-32.715,-36.621,0.000
1709214624.767,-36.133,-41.504,-39.062,-30.762,0.000
1709214624.771,-37.598,-45.410,-43.945,-35.645,0.000
1709214624.775,-46.387,-48.340,-43.457,-47.852,0.000
1709214624.779,-50.781,-44.922,-45.410,-49.316,0.000
1709214624.783,-47.363,-39.062,-42.969,-42.969,0.000
1709214624.787,-41.992,-54.199,-42.969,-48.828,0.000
1709214624.791,-39.062,-52.734,-44.434,-48.340,0.000
1709214624.795,-35.156,-41.016,-37.598,-37.109,0.000
1709214624.799,-33.203,-40.039,-32.227,-32.715,0.000
1709214624.802,-36.133,-37.109,-34.180,-37.598,0.000
1709214624.806,-33.691,-31.250,-36.621,-32.715,0.000
1709214624.810,-34.180,-29.297,-39.062,-29.785,0.000
1709214624.814,-39.551,-33.203,-36.133,-33.203,0.000
1709214624.818,-37.598,-39.551,-31.250,-29.785,0.000
1709214624.822,-34.668,-38.574,-38.086,-31.250,0.000
1709214624.826,-37.598,-39.062,-40.527,-35.156,0.000
1709214624.830,-31.250,-48.828,-34.180,-33.203,0.000
1709214624.834,-24.414,-47.852,-32.715,-43.457,0.000
1709214624.838,-24.902,-33.691,-34.668,-49.805,0.000
1709214624.842,-26.855,-36.133,-33.203,-35.156,0.000
1709214624.845,-25.879,-35.156,-33.691,-29.297,0.000
1709214624.849,-25.391,-24.902,-33.203,-39.551,0.000
1709214624.853,-23.438,-32.715,-21.973,-39.062,0.000
1709214624.857,-27.832,-39.062,-24.902,-38.086,0.000
1709214624.861,-34.668,-40.039,0.000,-41.992,0.000
1709214624.865,-30.762,-33.203,0.000,-38.086,0.000
1709214624.869,-17.090,-18.066,0.000,-27.832,0.000
1709214624.873,-25.879,-26.855,0.000,-36.621,0.000
1709214624.877,-35.645,-45.898,0.000,-42.969,0.000
1709214624.881,-32.715,-48.828,0.000,-41.992,0.000
1709214624.885,-26.367,-42.480,0.000,-37.109,0.000
1709214624.888,-20.020,-38.574,0.000,-33.203,0.000
1709214624.892,-23.926,-39.062,0.000,-39.062,0.000
1709214624.896,-33.691,-43.945,0.000,-45.410,0.000
1709214624.900,-38.574,-45.898,0.000,-49.316,0.000
1709214624.904,-43.945,-50.293,0.000,-48.828,0.000
1709214624.908,-31.738,-58.105,-32.715,-36.133,0.000
1709214624.912,-23.926,-45.898,-34.180,-37.598,0.000
1709214624.916,-35.645,-29.297,-40.527,-51.270,0.000
1709214624.920,-35.645,-30.273,-37.109,-49.316,0.000
1709214624.924,-33.203,-35.645,-38.086,-43.457,0.000
1709214624.927,-33.203,-39.551,-34.668,-41.504,0.000
1709214624.931,-27.344,-43.457,-32.227,-38.086,0.000
1709214624.935,-25.391,-48.340,-35.156,-38.574,0.000
1709214624.939,-38.086,-70.801,-31.738,-40.527,0.000
1709214624.943,-34.668,-67.871,-32.227,-38.086,0.000
1709214624.947,-25.391,-35.156,-36.621,-39.062,0.000
1709214624.951,-23.438,-34.180,-29.297,-35.156,0.000
1709214624.955,-16.113,-47.363,-25.391,-31.738,0.000
1709214624.959,-24.414,-43.945,-31.250,-35.156,0.000
1709214624.963,-36.133,-35.645,-37.109,-38.574,0.000
1709214624.967,-39.551,-42.969,-34.180,-37.598,0.000
1709214624.971,-42.480,-50.781,-32.715,-35.156,0.000
1709214624.974,-37.109,-44.922,-41.504,-31.250,0.000
1709214624.978,-30.762,-52.246,-40.527,-37.598,0.000
1709214624.982,-33.203,-60.059,-33.203,-41.016,0.000
1709214624.986,-37.109,-46.875,-40.527,-31.738,0.000
1709214624.990,-41.016,-35.156,-44.922,-32.227,0.000
1709214624.994,-39.551,-35.645,-42.480,-39.062,0.000
1709214624.998,-38.086,-43.457,-39.551,-44.922,0.000
1709214625.002,-49.316,-38.574,-39.551,-48.340,0.000
1709214625.006,-53.223,-37.109,-40.527,-49.805,0.000
1709214625.010,-48.340,-41.992,-41.016,-53.223,0.000
1709214625.014,-49.805,-47.363,-48.340,-56.641,0.000
1709214625.018,-55.664,-46.875,-47.363,-53.711,0.000
1709214625.021,-53.223,-45.898,-41.504,-44.922,0.000
1709214625.025,-52.246,-46.875,-40.039,-45.410,0.000
1709214625.029,-52.734,-44.434,-40.039,-50.781,0.000
1709214625.033,-54.688,-47.363,-41.992,-53.711,0.000
1709214625.037,-57.129,-44.922,-42.969,-49.316,0.000
1709214625.041,-53.223,-42.969,-37.598,-42.969,0.000
1709214625.045,-53.711,-49.805,-39.551,-38.086,0.000
1709214625.049,-47.852,-52.246,-40.527,-34.180,0.000
1709214625.053,-45.898,-49.316,-36.621,-39.551,0.000
1709214625.057,-46.875,-39.551,-35.645,-41.504,0.000
1709214625.061,-41.504,-33.203,-37.598,-34.180,0.000
1709214625.064,-38.086,-42.480,-41.992,-36.621,0.000
1709214625.068,-40.039,-41.504,-30.273,-38.086,0.000
1709214625.072,-43.457,-33.691,-22.949,-31.250,0.000
1709214625.076,-42.969,-38.086,-35.156,-41.016,0.000
1709214625.080,-49.316,-46.387,-37.109,-41.016,0.000
1709214625.084,-51.758,-53.223,-33.203,-31.738,0.000
1709214625.088,-48.340,-51.758,-37.109,-37.109,0.000
1709214625.092,-39.551,-41.504,-39.551,-39.062,0.000
1709214625.096,-30.762,-33.203,-40.039,-35.645,0.000
1709214625.100,-35.645,-46.875,-39.551,-45.410,0.000
1709214625.104,-44.434,-59.082,-41.016,-47.852,0.000
1709214625.107,-39.062,-41.504,-40.039,-41.504,0.000
1709214625.111,-37.598,-35.645,-45.898,-49.805,0.000
1709214625.115,-48.340,-43.945,-52.734,-61.523,0.000
1709214625.119,-53.223,-46.387,-44.922,-59.082,0.000
1709214625.123,-57.617,-44.922,-38.086,-55.664,0.000
1709214625.127,-51.270,-40.039,-39.551,-41.016,0.000
1709214625.131,-46.875,-36.133,-46.875,-38.574,0.000
1709214625.135,-45.410,-42.969,-45.898,-48.340,0.000
1709214625.139,-47.363,-49.805,-43.457,-58.105,0.000
1709214625.143,-51.758,-37.598,-43.457,-53.711,0.000
1709214625.147,-44.922,-28.320,-44.922,-32.227,0.000
1709214625.150,-38.086,-40.039,-39.551,-30.273,0.000
1709214625.154,-39.062,-50.293,-35.645,-42.969,0.000
1709214625.158,-43.945,-35.156,-36.621,-38.086,0.000
1709214625.162,-46.387,-34.180,-40.527,-37.598,0.000
1709214625.166,-34.180,-39.551,-36.133,-31.738,0.000
1709214625.170,-29.297,-35.645,-29.297,-27.344,0.000
1709214625.174,-31.250,-40.039,-27.344,-24.902,0.000
1709214625.178,-33.203,-38.574,-26.855,-29.785,0.000
1709214625.182,-40.039,-37.109,-33.203,-46.875,0.000
1709214625.186,-49.316,-36.133,-32.715,-42.969,0.000
1709214625.190,-41.504,-38.574,-35.645,-32.227,0.000
1709214625.193,-37.109,-50.293,-37.109,-37.109,0.000
1709214625.197,-43.457,-42.480,-35.156,-42.480,0.000
1709214625.201,-42.969,-36.621,-44.922,-42.480,0.000
1709214625.205,-43.457,-39.062,-41.504,-40.527,0.000
1709214625.209,-41.992,-28.809,-31.738,-37.598,0.000
1709214625.213,-29.785,-28.809,-31.738,-36.621,0.000
1709214625.217,-24.902,-24.902,-34.668,-22.461,0.000
1709214625.221,-33.691,-27.832,-38.574,-28.809,0.000
1709214625.225,-34.668,-34.668,-38.086,-42.969,0.000
1709214625.229,-34.180,-40.527,-33.691,-36.621,0.000
1709214625.233,-35.645,-47.852,-43.457,-46.387,0.000
1709214625.236,-42.969,-49.805,-59.082,-60.059,0.000
1709214625.240,-48.340,-51.270,-55.176,-55.664,0.000
1709214625.244,-42.480,-47.852,-41.504,-45.410,0.000
1709214625.248,-37.598,-45.898,-34.180,-37.598,0.000
1709214625.252,-34.180,-34.668,-38.086,-41.016,0.000
1709214625.256,-37.109,-31.738,-37.598,-42.480,0.000
1709214625.260,-47.852,-47.363,-37.598,-34.668,0.000
1709214625.264,-47.852,-47.852,-39.062,-32.715,0.000
1709214625.268,-34.180,-39.062,-36.621,-33.203,0.000
1709214625.272,-29.297,-41.992,-42.480,-28.809,0.000
1709214625.275,-24.902,-44.922,-53.711,-33.691,0.000
1709214625.279,-23.926,-41.992,-49.805,-34.668,0.000
1709214625.283,-28.320,-42.480,-43.945,-24.902,0.000
1709214625.287,-16.113,-33.203,-37.598,-8.301,0.000
1709214625.291,-8.789,-30.273,-34.180,-13.672,0.000
1709214625.295,-18.555,-30.762,-42.969,-21.973,0.000
1709214625.299,-25.879,-35.156,-39.551,-20.996,0.000
1709214625.303,-29.785,-39.062,-39.551,-35.645,0.000
1709214625.307,-30.762,-39.062,-48.340,-27.832,0.000
1709214625.311,-22.949,-44.434,-55.176,-23.438,0.000
1709214625.315,-16.113,-38.086,-51.270,-30.273,0.000
1709214625.318,-22.949,-29.297,-47.363,-23.926,0.000
1709214625.322,-29.785,-35.156,-48.828,-18.066,0.000
1709214625.326,-33.691,-33.203,-43.945,-19.043,0.000
1709214625.330,-38.086,-33.203,-46.875,-35.645,0.000
1709214625.334,-35.156,-35.156,-39.551,-40.039,0.000
1709214625.338,-40.039,-35.645,-35.156,-34.180,0.000
1709214625.342,-49.316,-49.316,-43.945,-45.898,0.000
1709214625.346,-50.781,-55.176,-43.945,-53.711,0.000
1709214625.350,-42.480,-47.363,-41.016,-43.945,0.000
1709214625.354,-36.133,-41.016,-41.016,-37.109,0.000
1709214625.357,-40.039,-36.133,-44.434,-44.922,0.000
1709214625.361,-39.551,-33.691,-40.527,-38.086,0.000
1709214625.365,-39.062,-37.109,-44.922,-20.508,0.000
1709214625.369,-37.109,-42.480,-46.387,-28.809,0.000
1709214625.373,-34.180,-43.457,-38.086,-34.668,0.000
1709214625.377,-27.344,-38.086,-36.133,-28.809,0.000
1709214625.381,-25.879,-39.062,-36.621,-31.738,0.000
1709214625.385,-19.043,-43.945,-39.551,-25.879,0.000
1709214625.389,-8.789,-41.016,-39.062,-19.043,0.000
1709214625.393,-13.672,-38.086,-41.504,-25.391,0.000
1709214625.397,-13.184,-39.062,-46.875,-29.785,0.000
1709214625.401,-16.113,-41.992,-42.969,-29.297,0.000
1709214625.404,-19.531,-39.551,-38.574,-20.996,0.000
1709214625.408,-18.066,-43.457,-47.363,-20.996,0.000
1709214625.412,-27.832,-46.387,-46.875,-31.738,0.000
1709214625.416,-36.621,-49.805,-41.992,-40.039,0.000
1709214625.420,-38.086,-48.828,-47.852,-45.410,0.000
1709214625.424,-40.039,-45.410,-43.457,-50.781,0.000
1709214625.428,-33.203,-52.734,-40.527,-49.805,0.000
1709214625.432,-27.832,-47.363,-46.875,-42.969,0.000
1709214625.436,-31.250,-41.016,-44.434,-49.316,0.000
1709214625.440,-35.156,-33.691,-40.039,-51.758,0.000
1709214625.444,-30.762,-30.273,-34.180,-37.598,0.000
1709214625.447,-22.461,-50.293,-31.738,-34.668,0.000
1709214625.451,-24.414,-52.734,-33.691,-44.434,0.000
1709214625.455,-33.203,-42.480,-37.109,-39.551,0.000
1709214625.459,-31.738,-46.875,-35.156,-37.598,0.000
1709214625.463,-30.762,-39.062,-25.879,-44.922,0.000
1709214625.467,-27.832,-33.203,-29.785,-32.715,0.000
1709214625.471,-23.438,-41.992,-39.551,-32.715,0.000
1709214625.475,-22.461,-39.062,-40.527,-42.969,0.000
1709214625.479,-24.414,-33.203,-44.434,-41.992,0.000
1709214625.483,-29.297,-39.062,-44.434,-38.574,0.000
1709214625.487,-29.297,-45.898,-45.898,-35.156,0.000
1709214625.490,-18.066,-46.387,-46.387,-26.855,0.000
1709214625.494,-22.461,-51.758,-41.992,-26.367,0.000
1709214625.498,-33.203,-42.480,-38.574,-26.855,0.000
1709214625.502,-36.133,-36.133,-36.133,-24.414,0.000
1709214625.506,-33.691,-45.410,-31.738,-24.414,0.000
1709214625.510,-31.738,-41.016,-25.391,-28.320,0.000
1709214625.514,-35.645,-37.109,-32.227,-39.062,0.000
1709214625.518,-39.062,-44.434,-35.156,-41.504,0.000
1709214625.522,-41.016,-42.969,-29.785,-36.133,0.000
1709214625.526,-34.180,-39.062,-34.668,-30.762,0.000
1709214625.530,-31.738,-50.293,-40.039,-26.855,0.000
1709214625.533,-29.785,-53.223,-29.297,-32.227,0.000
1709214625.537,-36.621,-46.875,-22.949,-41.016,0.000
1709214625.541,-45.898,-46.875,-27.832,-35.156,0.000
1709214625.545,-43.945,-44.434,-30.762,-27.344,0.000
1709214625.549,-52.246,-54.688,-38.574,-26.855,0.000
1709214625.553,-56.152,-62.988,-44.434,-48.340,0.000
1709214625.557,-53.711,-58.594,-41.504,-60.059,0.000
1709214625.561,-63.965,-52.734,-38.086,-55.664,0.000
1709214625.565,-62.500,-44.922,-33.691,-52.246,0.000
1709214625.569,-58.105,-44.434,-36.621,-53.711,0.000
1709214625.573,-57.129,-42.969,-37.598,-53.711,0.000
1709214625.576,-52.246,-41.992,-24.902,-41.016,0.000
1709214625.580,-53.711,-41.992,-26.367,-32.715,0.000
1709214625.584,-57.129,-43.945,-36.133,-31.738,0.000
1709214625.588,-51.270,-41.992,-27.832,-37.109,0.000
1709214625.592,-41.016,-45.898,-24.414,-24.902,0.000
1709214625.596,-40.527,-53.711,-26.855,-27.832,0.000
1709214625.600,-48.828,-56.641,-28.809,-45.898,0.000
1709214625.604,-42.969,-45.410,-32.715,-35.156,0.000
1709214625.608,-29.297,-35.156,-28.809,-22.949,0.000
1709214625.612,-17.578,-28.809,-21.484,-22.461,0.000
1709214625.615,-22.461,-33.691,-21.973,-30.273,0.000
1709214625.619,-44.922,-47.363,-35.156,-43.457,0.000
1709214625.623,-52.734,-47.363,-38.086,-52.734,0.000
1709214625.627,-44.922,-43.945,-32.227,-46.875,0.000
1709214625.631,-35.156,-41.016,-34.668,-45.898,0.000
1709214625.635,-30.273,-37.598,-34.180,-40.527,0.000
1709214625.639,-36.133,-39.062,-32.715,-34.668,0.000
1709214625.643,-34.668,-41.992,-38.086,-32.715,0.000
1709214625.647,-26.367,-39.062,-34.180,-24.414,0.000
1709214625.651,-22.949,-37.109,-27.832,-23.926,0.000
1709214625.655,-25.391,-46.875,-28.320,-25.391,0.000
1709214625.658,-28.320,-46.875,-28.809,-20.996,0.000
1709214625.662,-24.902,-40.039,-34.668,-22.461,0.000
1709214625.666,-25.879,-49.805,-35.645,-24.414,0.000
1709214625.670,-33.203,-47.852,-34.668,-32.715,0.000
1709214625.674,-31.250,-36.133,-36.621,-35.645,0.000
1709214625.678,-30.273,-29.297,-40.039,-37.598,0.000
1709214625.682,-43.457,-31.738,-41.992,-42.969,0.000
1709214625.686,-38.574,-33.203,-37.598,-41.016,0.000
1709214625.690,-26.367,-25.879,-35.645,-42.969,0.000
1709214625.694,-33.691,-31.738,-39.551,-41.992,0.000
1709214625.697,-40.039,-41.016,-37.598,-39.062,0.000
1709214625.701,-42.969,-41.504,-36.621,-39.551,0.000
1709214625.705,-43.945,-42.480,-44.922,-44.434,0.000
1709214625.709,-35.156,-44.922,-48.828,-44.922,0.000
1709214625.713,-27.832,-40.527,-41.504,-43.457,0.000
1709214625.717,-29.785,-37.598,-38.086,-40.527,0.000
1709214625.721,-33.203,-48.828,-36.133,-35.645,0.000
1709214625.725,-30.273,-56.641,-30.762,-22.461,0.000
1709214625.729,-25.879,-52.246,-31.250,-20.508,0.000
1709214625.733,-21.973,-40.527,-30.273,-28.809,0.000
1709214625.736,-25.391,-37.598,-31.250,-38.574,0.000
1709214625.740,-31.738,-38.574,-37.598,-49.805,0.000
1709214625.744,-30.762,-33.203,-33.691,-44.434,0.000
1709214625.748,-32.227,-34.668,-35.156,-40.039,0.000
1709214625.752,-31.738,-33.203,-38.086,-36.621,0.000
1709214625.756,-39.551,-35.645,-39.062,-41.016,0.000
1709214625.760,-53.223,-39.551,-41.992,-54.199,0.000
1709214625.764,-54.199,-38.574,-45.410,-55.176,0.000
1709214625.768,-53.223,-41.504,-38.574,-47.363,0.000
1709214625.772,-58.594,-51.758,-35.156,-49.805,0.000
1709214625.776,-53.711,-52.246,-35.645,-53.223,0.000
1709214625.780,-48.828,-46.875,-32.227,-45.898,0.000
1709214625.783,-50.781,-49.805,-36.621,-39.551,0.000
1709214625.787,-45.410,-47.363,-41.504,-33.203,0.000
1709214625.791,-46.387,-35.156,-46.875,-30.273,0.000
1709214625.795,-40.527,-30.762,-43.457,-33.691,0.000
1709214625.799,-31.738,-41.504,-33.203,-29.785,0.000
1709214625.803,-36.133,-48.828,-28.809,-18.555,0.000
1709214625.807,-32.715,-47.363,-26.855,-23.438,0.000
1709214625.811,-24.414,-50.293,-29.785,-24.414,0.000
1709214625.815,-27.344,-59.082,-30.762,-25.391,0.000
1709214625.819,-26.855,-52.734,-30.762,-33.691,0.000
1709214625.823,-27.344,-39.062,-24.902,-30.273,0.000
1709214625.826,-37.598,-40.039,-31.250,-39.551,0.000
1709214625.830,-37.109,-42.480,-34.668,-27.832,0.000
1709214625.834,-41.992,-55.176,-33.691,-20.996,0.000
1709214625.838,-43.457,-43.945,-32.227,-35.156,0.000
1709214625.842,-36.621,-25.391,-29.297,-35.645,0.000
1709214625.846,-37.598,-34.180,-36.133,-33.203,0.000
1709214625.850,-32.715,-36.133,-27.344,-28.809,0.000
1709214625.854,-25.391,-39.551,-22.949,-28.320,0.000
1709214625.858,-36.133,-40.527,-33.203,-34.668,0.000
1709214625.862,-41.016,-39.062,-35.156,-38.086,0.000
1709214625.866,-41.992,-46.875,-38.086,-42.969,0.000
1709214625.869,-39.062,-49.316,-39.551,-43.945,0.000
1709214625.873,-28.320,-46.387,-40.039,-43.457,0.000
1709214625.877,-34.668,-42.480,-41.504,-30.762,0.000
1709214625.881,-39.062,-47.852,-38.574,-34.668,0.000
1709214625.885,-29.297,-50.293,-35.645,-44.434,0.000
1709214625.889,-23.438,-35.645,-43.945,-35.156,0.000
1709214625.893,-18.066,-23.926,-42.969,-42.480,0.000
1709214625.897,-27.832,-37.598,-32.715,-44.434,0.000
1709214625.901,-41.016,-52.246,-27.832,-47.363,0.000
1709214625.905,-42.480,-45.898,-31.250,-42.969,0.000
1709214625.909,-41.504,-41.992,-38.574,-36.133,0.000
1709214625.912,-44.922,-43.945,-44.434,-45.898,0.000
1709214625.916,-47.852,-47.852,-51.758,-60.059,0.000
1709214625.920,-50.293,-46.875,-45.898,-57.129,0.000
1709214625.924,-52.734,-41.992,-43.457,-40.527,0.000
1709214625.928,-50.293,-43.945,-45.898,-42.480,0.000
1709214625.932,-37.598,-40.039,-40.039,-49.316,0.000
1709214625.936,-30.273,-43.457,-39.062,-46.387,0.000
1709214625.940,-36.133,-58.594,-41.016,-48.828,0.000
1709214625.944,-43.457,-63.477,-35.645,-46.387,0.000
1709214625.948,-44.434,-52.734,-35.156,-35.645,0.000
1709214625.952,-38.574,-44.922,-40.039,-35.156,0.000
1709214625.955,-34.180,-40.039,-36.621,-42.480,0.000
1709214625.959,-43.457,-32.715,-34.668,-41.992,0.000
1709214625.963,-45.898,-39.551,-35.645,-40.527,0.000
1709214625.967,-38.086,-32.715,-32.715,-27.832,0.000
1709214625.971,-38.086,-34.180,-40.039,-26.855,0.000
1709214625.975,-31.250,-39.062,-42.969,-37.598,0.000
1709214625.979,-28.320,-35.645,-33.691,-28.809,0.000
1709214625.983,-35.156,-47.363,-39.062,-33.691,0.000
1709214625.987,-40.039,-53.711,-53.223,-39.551,0.000
1709214625.991,-40.039,-46.875,-43.457,-38.086,0.000
1709214625.994,-35.645,-38.086,-36.621,-33.203,0.000
1709214625.998,-35.645,-30.273,-41.504,-40.039,0.000
1709214626.002,-45.898,-40.039,-37.598,-42.969,0.000
1709214626.006,-45.898,-48.828,-35.156,-38.574,0.000
1709214626.010,-40.527,-46.387,-47.363,-37.598,0.000
1709214626.014,-42.480,-41.016,-50.293,-35.645,0.000
1709214626.018,-39.551,-33.691,-41.016,-41.016,0.000
1709214626.022,-45.410,-41.016,-45.410,-42.969,0.000
1709214626.026,-46.875,-39.551,-45.410,-40.527,0.000
1709214626.030,-34.668,-49.316,-35.156,-39.551,0.000
1709214626.034,-30.762,-53.711,-29.297,-38.086,0.000
1709214626.037,-35.156,-39.551,-36.621,-41.504,0.000
1709214626.041,-39.551,-42.969,-40.039,-41.992,0.000
1709214626.045,-40.039,-41.504,-30.762,-32.227,0.000
1709214626.049,-37.598,-41.016,-24.902,-30.273,0.000
1709214626.053,-33.203,-42.969,-33.203,-36.621,0.000
1709214626.057,-34.668,-38.086,-38.086,-29.297,0.000
1709214626.061,-41.504,-40.527,-38.086,-31.250,0.000
1709214626.065,-37.109,-40.039,-35.156,-36.133,0.000
1709214626.069,-23.926,-34.180,-24.902,-28.809,0.000
1709214626.073,-18.555,-31.738,-33.203,-31.738,0.000
1709214626.076,-22.949,-39.062,-37.109,-38.086,0.000
1709214626.080,-30.762,-51.270,-28.320,-39.062,0.000
1709214626.084,-27.344,-41.504,-31.738,-28.809,0.000
1709214626.088,-27.832,-31.250,-31.738,-26.855,0.000
1709214626.092,-26.367,-34.668,-37.109,-28.809,0.000
1709214626.096,-16.113,-38.574,-39.551,-29.297,0.000
1709214626.100,-16.113,-42.969,-28.320,-25.391,0.000
1709214626.104,-26.367,-40.039,-29.785,-20.020,0.000
1709214626.108,-29.785,-33.691,-34.668,-23.926,0.000
1709214626.112,-22.949,-33.691,-28.809,-26.855,0.000
1709214626.116,-20.508,-36.133,-30.273,-29.297,0.000
1709214626.119,-24.902,-41.504,-33.691,-31.250,0.000
1709214626.123,-29.297,-42.969,-28.320,-40.039,0.000
1709214626.127,-31.738,-32.715,-28.320,-38.086,0.000
1709214626.131,-37.109,-32.715,-33.691,-39.062,0.000
1709214626.135,-36.621,-36.133,-34.180,-47.852,0.000
1709214626.139,-41.992,-32.715,-37.598,-51.270,0.000
1709214626.143,-53.711,-42.480,-37.598,-54.199,0.000
1709214626.147,-48.828,-45.898,-35.645,-45.898,0.000
1709214626.151,-43.457,-39.551,-36.133,-43.945,0.000
1709214626.155,-44.434,-40.527,-31.250,-50.293,0.000
1709214626.159,-45.410,-41.992,-33.691,-48.828,0.000
1709214626.162,-44.434,-42.969,-34.668,-35.645,0.000
1709214626.166,-41.504,-50.781,-38.086,-34.668,0.000
1709214626.170,-36.621,-37.598,-42.480,-42.969,0.000
1709214626.174,-24.902,-31.250,-39.551,-37.598,0.000
1709214626.178,-23.438,-39.551,-44.434,-42.969,0.000
1709214626.182,-33.691,-34.668,-38.574,-44.922,0.000
1709214626.186,-34.668,-32.715,-30.273,-33.691,0.000
1709214626.190,-32.227,-30.273,-33.203,-30.762,0.000
1709214626.194,-26.367,-29.785,-39.551,-33.691,0.000
1709214626.198,-30.273,-30.273,-42.969,-48.340,0.000
1709214626.202,-37.109,-32.227,-41.504,-57.129,0.000
1709214626.205,-38.086,-40.039,-42.969,-43.945,0.000
1709214626.209,-37.109,-43.945,-43.457,-40.039,0.000
1709214626.213,-28.320,-40.039,-35.156,-47.363,0.000
1709214626.217,-23.438,-36.621,-36.621,-49.805,0.000
1709214626.221,-30.762,-39.551,-43.457,-48.828,0.000
1709214626.225,-34.180,-37.598,-41.992,-42.969,0.000
1709214626.229,-28.320,-34.668,-37.109,-42.969,0.000
1709214626.233,-30.762,-41.016,-35.645,-46.387,0.000
1709214626.237,-36.133,-36.133,-38.086,-45.898,0.000
1709214626.241,-42.480,-37.598,-44.434,-45.898,0.000
1709214626.245,-51.270,-44.434,-42.480,-40.527,0.000
1709214626.248,-56.152,-41.016,-35.156,-36.133,0.000
1709214626.252,-55.176,-47.852,-41.016,-36.133,0.000
1709214626.256,-43.457,-52.246,-40.039,-33.203,0.000
1709214626.260,-41.504,-46.875,-33.203,-42.480,0.000
1709214626.264,-48.828,-38.086,-37.598,-42.480,0.000
1709214626.268,-49.805,-38.086,-41.016,-36.133,0.000
1709214626.272,-43.945,-45.410,-41.992,-40.039,0.000
1709214626.276,-37.598,-45.898,-41.992,-44.922,0.000
1709214626.280,-34.180,-50.293,-43.457,-43.457,0.000
1709214626.284,-36.621,-60.059,-46.387,-43.457,0.000
1709214626.288,-41.016,-43.457,-49.805,-44.434,0.000
1709214626.291,-39.551,-24.902,-45.898,-40.039,0.000
1709214626.295,-37.598,-37.109,-42.480,-33.691,0.000
1709214626.299,-44.434,-40.527,-45.898,-34.180,0.000
1709214626.303,-48.828,-35.645,-43.945,-45.410,0.000
1709214626.307,-41.016,-41.016,-33.691,-41.504,0.000
1709214626.311,-33.203,-47.363,-33.203,-37.109,0.000
1709214626.315,-36.133,-43.457,-36.133,-40.527,0.000
1709214626.319,-39.062,-38.574,-39.551,-48.340,0.000
1709214626.323,-34.668,-39.551,-36.621,-50.293,0.000
1709214626.327,-33.203,-43.945,-26.855,-30.273,0.000
1709214626.331,-26.367,-50.293,-24.414,-20.020,0.000
1709214626.334,-26.367,-41.992,-32.227,-35.156,0.000
1709214626.338,-31.738,-38.086,-34.668,-44.922,0.000
1709214626.342,-31.250,-35.156,-31.738,-27.344,0.000
1709214626.346,-26.855,-35.645,-34.668,-15.137,0.000
1709214626.350,-29.297,-45.410,-41.504,-26.855,0.000
1709214626.354,-33.203,-42.480,-41.504,-25.879,0.000
1709214626.358,-32.715,-50.781,-40.527,-33.203,0.000
1709214626.362,-38.086,-52.734,-36.621,-38.574,0.000
1709214626.366,-37.109,-47.363,-28.809,-36.621,0.000
1709214626.370,-34.180,-43.457,-34.668,-41.016,0.000
1709214626.374,-24.902,-35.156,-39.551,-36.621,0.000
1709214626.377,-27.344,-34.668,-41.016,-45.410,0.000
1709214626.381,-35.645,-41.016,-33.691,-51.270,0.000
1709214626.385,-31.250,-36.621,-38.574,-41.504,0.000
1709214626.389,-30.273,-30.762,-43.457,-39.551,0.000
1709214626.393,-30.273,-33.203,-33.203,-45.410,0.000
1709214626.397,-22.949,-28.320,-33.203,-46.387,0.000
1709214626.401,-27.344,-33.203,-38.086,-51.270,0.000
1709214626.405,-40.039,-48.340,-35.645,-41.992,0.000
1709214626.409,-37.109,-56.152,-40.527,-38.574,0.000
1709214626.413,-31.250,-43.457,-48.828,-49.805,0.000
1709214626.416,-33.691,-32.227,-44.434,-51.758,0.000
1709214626.420,-41.016,-39.551,-48.828,-50.781,0.000
1709214626.424,-45.410,-44.434,-48.828,-52.246,0.000
1709214626.428,-41.016,-44.434,-39.551,-51.758,0.000
1709214626.432,-29.297,-36.133,-38.574,-34.668,0.000
1709214626.436,-28.809,-32.715,-39.062,-29.297,0.000
1709214626.440,-37.109,-38.574,-38.086,-50.781,0.000
1709214626.444,-30.762,-40.527,-32.227,-44.922,0.000
1709214626.448,-27.832,-39.062,-27.344,-26.855,0.000
1709214626.452,-31.738,-32.227,-30.273,-35.156,0.000
1709214626.455,-33.203,-34.668,-32.227,-48.828,0.000
1709214626.459,-30.762,-41.016,-26.367,-38.574,0.000
1709214626.463,-28.320,-30.762,-23.926,-29.297,0.000
1709214626.467,-31.250,-30.273,-29.297,-29.297,0.000
1709214626.471,-28.320,-43.945,-32.715,-25.879,0.000
1709214626.475,-25.879,-41.016,-30.762,-21.973,0.000
1709214626.479,-26.855,-34.668,-27.832,-23.438,0.000
1709214626.483,-30.273,-41.504,-29.297,-32.227,0.000
1709214626.487,-36.133,-42.480,-30.762,-37.598,0.000
1709214626.491,-35.156,-44.922,-27.832,-32.715,0.000
1709214626.495,-38.574,-46.875,-30.273,-33.691,0.000
1709214626.498,-50.781,-41.504,-38.086,-49.805,0.000
1709214626.502,-56.641,-39.551,-47.852,-45.898,0.000
1709214626.506,-45.898,-40.039,-44.434,-43.945,0.000
1709214626.510,-45.898,-53.711,-40.527,-53.711,0.000
1709214626.514,-50.781,-63.965,-41.504,-52.734,0.000
1709214626.518,-51.758,-68.848,-40.039,-53.223,0.000
1709214626.522,-52.246,-62.988,-49.805,-52.246,0.000
1709214626.526,-49.316,-53.223,-54.688,-54.199,0.000
1709214626.530,-45.410,-49.316,-37.598,-53.711,0.000
1709214626.534,-42.969,-54.199,-34.668,-52.734,0.000
1709214626.538,-40.527,-51.758,-39.062,-41.992,0.000
1709214626.541,-42.969,-38.574,-41.016,-41.504,0.000
1709214626.545,-45.410,-38.574,-39.551,-48.340,0.000
1709214626.549,-40.039,-44.922,-39.062,-40.039,0.000
1709214626.553,-38.086,-48.828,-41.992,-41.016,0.000
1709214626.557,-35.645,-41.992,-33.203,-42.969,0.000
1709214626.561,-37.598,-43.945,-33.203,-46.875,0.000
1709214626.565,-43.457,-43.457,-36.621,-41.992,0.000
1709214626.569,-36.621,-49.316,-37.598,-24.414,0.000
1709214626.573,-37.109,-55.176,-46.875,-25.391,0.000
1709214626.577,-38.574,-44.434,-44.434,-34.668,0.000
1709214626.581,-37.598,-42.480,-40.039,-29.297,0.000
1709214626.584,-46.387,-43.457,-42.969,-22.949,0.000
1709214626.588,-39.062,-36.621,-34.180,-27.344,0.000
1709214626.592,-33.203,-29.785,-27.832,-26.855,0.000
1709214626.596,-46.387,-38.086,-33.691,-34.668,0.000
1709214626.600,-57.617,-46.387,-34.668,-42.480,0.000
1709214626.604,-53.711,-55.176,-31.738,-36.621,0.000
1709214626.608,-46.387,-50.781,-32.715,-33.691,0.000
1709214626.612,-42.480,-36.133,-35.645,-36.133,0.000
1709214626.616,-49.316,-43.457,-40.039,-42.969,0.000
1709214626.620,-48.340,-48.340,-35.645,-41.504,0.000
1709214626.624,-39.062,-34.668,-32.715,-31.738,0.000
1709214626.627,-37.598,-30.762,-34.668,-25.391,0.000
1709214626.631,-22.949,-22.461,-30.273,-24.902,0.000
1709214626.635,-16.602,-20.020,-29.785,-26.367,0.000
1709214626.639,-29.785,-31.738,-33.203,-30.273,0.000
1709214626.643,-36.621,-35.156,-40.527,-33.691,0.000
1709214626.647,-33.691,-41.016,-42.480,-25.879,0.000
1709214626.651,-32.715,-48.340,-34.668,-27.344,0.000
1709214626.655,-41.504,-42.969,-33.203,-38.574,0.000
1709214626.659,-44.434,-33.203,-37.109,-48.340,0.000
1709214626.663,-41.016,-30.762,-31.738,-46.875,0.000
1709214626.667,-48.340,-41.016,-36.621,-45.410,0.000
1709214626.670,-45.410,-55.664,-43.457,-38.574,0.000
1709214626.674,-35.645,-48.340,-39.551,-34.180,0.000
1709214626.678,-37.109,-47.852,-40.527,-48.340,0.000
1709214626.682,-39.551,-58.105,-39.551,-48.340,0.000
1709214626.686,-41.992,-56.641,-40.039,-45.898,0.000
1709214626.690,-30.762,-44.434,-35.645,-39.551,0.000
1709214626.694,-25.391,-27.344,-29.297,-32.715,0.000
1709214626.698,-28.320,-33.203,-32.715,-42.969,0.000
1709214626.702,-36.621,-42.969,-41.504,-38.574,0.000
1709214626.706,-40.039,-38.574,-48.340,-35.645,0.000
1709214626.710,-30.273,-36.133,-42.969,-36.621,0.000
1709214626.713,-34.180,-39.551,-43.457,-38.086,0.000
1709214626.717,-39.551,-39.551,-50.293,-29.297,0.000
1709214626.721,-42.969,-38.574,-44.922,-23.926,0.000
1709214626.725,-44.434,-39.062,-36.621,-41.504,0.000
1709214626.729,-45.410,-37.598,-30.273,-44.434,0.000
1709214626.733,-50.781,-37.109,-30.762,-41.992,0.000
1709214626.737,-58.594,-43.457,-37.109,-50.781,0.000
1709214626.741,-60.547,-42.969,-39.551,-56.152,0.000
1709214626.745,-56.152,-40.039,-39.551,-48.340,0.000
1709214626.749,-51.758,-32.715,-35.156,-40.039,0.000
1709214626.753,-47.852,-34.180,-36.133,-44.922,0.000
1709214626.756,-53.223,-44.434,-41.504,-55.176,0.000
1709214626.760,-59.570,-42.480,-41.992,-55.176,0.000
1709214626.764,-53.223,-38.086,-36.621,-35.645,0.000
1709214626.768,-41.992,-42.969,-27.832,-27.344,0.000
1709214626.772,-41.992,-50.781,-24.902,-31.250,0.000
1709214626.776,-43.457,-48.340,-27.344,-26.367,0.000
1709214626.780,-39.062,-42.969,-21.484,-25.879,0.000
1709214626.784,-36.621,-43.457,-24.902,-29.297,0.000
1709214626.788,-30.762,-43.945,-36.133,-22.949,0.000
1709214626.792,-25.879,-36.621,-37.598,-22.461,0.000
1709214626.795,-28.809,-40.039,-39.062,-34.180,0.000
1709214626.799,-30.273,-40.039,-38.086,-34.180,0.000
1709214626.803,-32.715,-37.598,-35.156,-38.574,0.000
1709214626.807,-36.133,-42.969,-39.551,-38.086,0.000
1709214626.811,-34.180,-50.781,-48.828,-40.039,0.000
1709214626.815,-41.504,-55.176,-53.711,-56.641,0.000
1709214626.819,-42.969,-56.641,-45.410,-55.176,0.000
1709214626.823,-45.898,-53.711,-38.086,-51.758,0.000
1709214626.827,-44.434,-51.758,-41.016,-48.828,0.000
1709214626.831,-40.527,-55.664,-40.527,-50.293,0.000
1709214626.834,-42.969,-47.363,-39.062,-54.688,0.000
1709214626.838,-40.039,-39.062,-34.180,-50.781,0.000
1709214626.842,-46.387,-37.109,-36.133,-52.734,0.000
1709214626.846,-55.664,-45.898,-43.945,-53.711,0.000
1709214626.850,-48.340,-46.387,-42.480,-50.781,0.000
1709214626.854,-41.992,-49.805,-42.480,-45.410,0.000
1709214626.858,-47.363,-47.852,-45.410,-44.434,0.000
1709214626.862,-50.293,-40.039,-45.410,-50.781,0.000
1709214626.866,-52.246,-41.504,-42.480,-47.852,0.000
1709214626.870,-43.457,-39.062,-38.574,-30.762,0.000
1709214626.874,-39.551,-33.691,-42.480,-33.691,0.000
1709214626.878,-49.316,-28.809,-47.363,-54.199,0.000
1709214626.881,-45.410,-42.480,-41.504,-51.270,0.000
1709214626.885,-42.480,-51.758,-36.133,-36.621,0.000
1709214626.889,-44.922,-37.109,-34.180,-28.320,0.000
1709214626.893,-40.527,-39.062,-36.621,-26.855,0.000
1709214626.897,-40.527,-47.852,-39.062,-26.855,0.000
1709214626.901,-49.316,-41.992,-39.062,-27.344,0.000
1709214626.905,-43.945,-39.062,-34.180,-18.066,0.000
1709214626.909,-30.273,-38.086,-25.879,-12.695,0.000
1709214626.913,-24.414,-38.086,-26.855,-10.254,0.000
1709214626.917,-22.461,-37.598,-29.297,-9.766,0.000
1709214626.920,-27.344,-37.109,-26.367,-19.043,0.000
1709214626.924,-33.203,-39.551,-33.691,-22.461,0.000
1709214626.928,-29.785,-42.480,-39.062,-26.367,0.000
1709214626.932,-26.855,-46.387,-39.551,-35.645,0.000
1709214626.936,-28.320,-42.480,-34.180,-39.062,0.000
1709214626.940,-29.297,-42.969,-29.297,-35.156,0.000
1709214626.944,-30.273,-49.316,-33.691,-31.250,0.000
1709214626.948,-33.691,-43.457,-35.645,-31.250,0.000
1709214626.952,-36.621,-38.086,-39.062,-41.016,0.000
1709214626.956,-41.992,-46.387,-44.434,-44.434,0.000
1709214626.960,-38.086,-55.176,-38.574,-35.645,0.000
1709214626.963,-36.621,-54.199,-36.133,-41.504,0.000
1709214626.967,-31.250,-43.457,-41.504,-43.457,0.000
1709214626.971,-32.227,-44.922,-43.945,-45.898,0.000
1709214626.975,-34.180,-48.828,-34.668,-50.781,0.000
1709214626.979,-33.203,-46.875,-38.574,-52.246,0.000
1709214626.983,-42.969,-46.387,-42.480,-57.129,0.000
1709214626.987,-44.922,-49.316,-41.016,-53.711,0.000
1709214626.991,-34.668,-44.922,-41.016,-49.316,0.000
1709214626.995,-31.250,-34.180,-38.574,-55.176,0.000
1709214626.999,-38.574,-36.621,-44.434,-62.988,0.000
1709214627.003,-46.387,-47.852,-44.434,-53.223,0.000
1709214627.007,-52.734,-46.387,-38.574,-53.223,0.000
1709214627.010,-49.805,-41.504,-32.227,-63.477,0.000
1709214627.014,-42.969,-48.340,-34.668,-59.570,0.000
1709214627.018,-42.480,-47.363,-31.738,-54.688,0.000
1709214627.022,-45.410,-50.293,-30.273,-50.293,0.000
1709214627.026,-47.363,-53.223,-34.180,-45.410,0.000
1709214627.030,-43.457,-45.410,-34.180,-35.156,0.000
1709214627.034,-44.434,-40.039,-34.668,-32.227,0.000
1709214627.038,-44.922,-44.434,-38.574,-42.480,0.000
1709214627.042,-47.852,-50.293,-42.480,-47.852,0.000
1709214627.046,-42.969,-51.270,-38.086,-39.551,0.000
1709214627.049,-34.180,-51.758,-36.133,-26.367,0.000
1709214627.053,-31.738,-46.875,-35.645,-39.062,0.000
1709214627.057,-29.785,-41.504,-35.645,-46.387,0.000
1709214627.061,-33.203,-36.133,-36.133,-37.109,0.000
