timestamps,TP9,AF7,AF8,TP10,Right AUX
1709212374.235,0.000,-35.156,-36.621,0.000,0.000
1709212374.239,0.000,-42.480,-43.457,0.000,0.000
1709212374.243,0.000,-45.410,-44.434,0.000,0.000
1709212374.247,0.000,-47.363,-44.434,0.000,0.000
1709212374.250,0.000,-41.504,-42.969,0.000,0.000
1709212374.254,0.000,-36.621,-35.156,0.000,0.000
1709212374.258,0.000,-38.574,-38.574,0.000,0.000
1709212374.262,0.000,-39.062,-46.387,0.000,0.000
1709212374.266,0.000,-42.969,-41.992,0.000,0.000
1709212374.270,0.000,-40.039,-34.180,0.000,0.000
1709212374.274,0.000,-40.527,-35.645,0.000,0.000
1709212374.278,0.000,-46.875,-38.574,0.000,0.000
1709212374.282,-33.203,-39.551,-27.832,-30.273,0.000
1709212374.286,-36.133,-40.039,-33.203,-39.551,0.000
1709212374.290,-38.574,-43.945,-39.551,-40.039,0.000
1709212374.293,-30.762,-36.621,-33.203,-33.691,0.000
1709212374.297,-30.273,-36.621,-31.250,-28.809,0.000
1709212374.301,-38.574,-48.828,-35.156,-32.227,0.000
1709212374.305,-36.621,-48.828,-32.227,-34.180,0.000
1709212374.309,-35.645,-43.945,-26.855,-24.902,0.000
1709212374.313,-38.086,-44.922,-30.273,-24.414,0.000
1709212374.317,-38.574,-42.969,-36.133,-39.551,0.000
1709212374.321,-43.457,-41.504,-34.668,-45.898,0.000
1709212374.325,-42.480,-40.527,-36.621,-41.504,0.000
1709212374.329,-52.246,-45.410,-43.945,-43.457,0.000
1709212374.332,-49.805,-52.734,-41.016,-39.062,0.000
1709212374.336,-43.945,-58.594,-41.992,-35.645,0.000
1709212374.340,-43.457,-51.270,-42.969,-38.574,0.000
1709212374.344,-46.875,-41.992,-38.574,-37.598,0.000
1709212374.348,-61.035,-45.898,-34.180,-33.691,0.000
1709212374.352,-54.199,-37.109,-32.227,-32.715,0.000
1709212374.356,-46.387,-37.109,-36.621,-31.250,0.000
1709212374.360,-50.781,-41.992,-38.086,-35.645,0.000
1709212374.364,-51.758,-40.039,-36.133,-42.969,0.000
1709212374.368,-52.246,-42.480,-37.598,-45.898,0.000
1709212374.371,-54.199,-38.086,-37.598,-43.457,0.000
1709212374.375,-57.129,-38.574,-41.016,-43.457,0.000
1709212374.379,-54.199,-42.480,-37.598,-39.062,0.000
1709212374.383,-53.711,-36.621,-30.273,-36.133,0.000
1709212374.387,-58.594,-33.203,-25.879,-41.504,0.000
1709212374.391,-57.617,-37.598,-33.203,-38.574,0.000
1709212374.395,-58.594,-44.922,-40.527,-38.574,0.000
1709212374.399,-51.758,-49.316,-40.039,-35.645,0.000
1709212374.403,-46.387,-53.711,-43.457,-35.156,0.000
1709212374.407,-51.758,-44.434,-37.109,-42.969,0.000
1709212374.410,-48.340,-34.668,-33.203,-41.016,0.000
1709212374.414,-43.945,-41.016,-37.109,-42.969,0.000
1709212374.418,-41.504,-41.016,-32.715,-46.387,0.000
1709212374.422,-47.363,-38.086,-30.762,-45.410,0.000
1709212374.426,-50.293,-38.574,-34.180,-41.016,0.000
1709212374.430,-46.875,-41.992,-34.180,-34.180,0.000
1709212374.434,-42.969,-44.922,-34.668,-30.273,0.000
1709212374.438,-39.062,-51.270,-41.016,-34.180,0.000
1709212374.442,-38.574,-60.059,-43.945,-45.898,0.000
1709212374.445,-40.039,-54.199,-36.133,-43.945,0.000
1709212374.449,-40.039,-40.527,-31.250,-40.527,0.000
1709212374.453,-37.109,-38.086,-33.691,-46.387,0.000
1709212374.457,-36.621,-35.645,-37.598,-52.734,0.000
1709212374.461,-34.668,-32.715,-37.598,-52.246,0.000
1709212374.465,-37.598,-40.039,-37.598,-44.922,0.000
1709212374.469,-40.527,-44.922,-37.109,-38.086,0.000
1709212374.473,-38.574,-43.457,-39.062,-41.504,0.000
1709212374.477,-38.574,-38.574,-39.062,-42.480,0.000
1709212374.480,-41.504,-43.457,-40.527,-44.434,0.000
1709212374.484,-40.039,-44.434,-46.387,-50.293,0.000
1709212374.488,-40.039,-33.691,-46.387,-46.875,0.000
1709212374.492,-37.598,-42.480,-41.992,-36.621,0.000
1709212374.496,-31.738,-44.434,-38.086,-35.645,0.000
1709212374.500,-31.738,-34.668,-33.691,-38.086,0.000
1709212374.504,-33.691,-35.645,-38.086,-34.180,0.000
1709212374.508,-39.551,-32.715,-41.504,-37.598,0.000
1709212374.512,-42.969,-31.738,-34.668,-42.969,0.000
1709212374.516,-39.062,-37.109,-30.762,-41.504,0.000
1709212374.520,-30.762,-42.480,-41.016,-38.086,0.000
1709212374.524,-33.691,-45.898,-43.945,-39.062,0.000
1709212374.527,-41.992,-50.293,-36.133,-41.016,0.000
1709212374.531,-40.527,-45.410,-33.203,-34.668,0.000
1709212374.535,-40.039,-40.527,-37.109,-32.715,0.000
1709212374.539,-38.086,-46.875,-38.574,-31.738,0.000
1709212374.543,-38.574,-41.016,-34.180,-31.250,0.000
1709212374.547,-45.410,-41.504,-32.227,-36.621,0.000
1709212374.551,-50.293,-53.711,-36.133,-34.180,0.000
1709212374.555,-47.363,-46.875,-38.574,-31.250,0.000
1709212374.559,-42.480,-43.457,-36.133,-32.227,0.000
1709212374.563,-39.062,-53.711,-39.551,-35.156,0.000
1709212374.567,-44.434,-57.129,-42.969,-40.527,0.000
1709212374.570,-51.270,-52.734,-40.527,-40.527,0.000
1709212374.574,-47.363,-48.828,-38.574,-39.551,0.000
1709212374.578,-39.551,-38.086,-36.133,-42.480,0.000
1709212374.582,-39.551,-38.086,-35.645,-44.434,0.000
1709212374.586,-50.781,-45.898,-35.156,-51.270,0.000
1709212374.590,-58.594,-41.992,-36.133,-57.617,0.000
1709212374.594,-59.082,-49.316,-41.016,-49.805,0.000
1709212374.598,-56.152,-41.992,-39.062,-44.434,0.000
1709212374.602,-51.270,-41.992,-36.133,-49.316,0.000
1709212374.606,-53.711,-55.664,-41.992,-47.363,0.000
1709212374.610,-55.176,-51.758,-40.527,-49.805,0.000
1709212374.614,-52.734,-44.922,-35.156,-56.641,0.000
1709212374.617,-46.387,-36.621,-29.297,-48.828,0.000
1709212374.621,-46.387,-37.598,-31.738,-48.828,0.000
1709212374.625,-46.387,-41.016,-35.156,-44.434,0.000
1709212374.629,-41.504,-40.527,-32.227,-35.645,0.000
1709212374.633,-36.621,-33.691,-34.668,-34.180,0.000
1709212374.637,-30.273,-34.668,-40.039,-33.691,0.000
1709212374.641,-31.738,-44.434,-35.156,-26.855,0.000
1709212374.645,-36.133,-43.457,-37.598,-34.668,0.000
1709212374.649,-35.645,-43.457,-43.945,-41.504,0.000
1709212374.653,-25.391,-41.504,-37.598,-32.227,0.000
1709212374.656,-13.184,-34.180,-35.156,-26.855,0.000
1709212374.660,-18.066,-32.715,-41.504,-33.203,0.000
1709212374.664,-18.066,-31.738,-39.062,-31.738,0.000
1709212374.668,-12.695,-39.551,-37.598,-28.320,0.000
1709212374.672,-16.602,-52.246,-35.156,-31.250,0.000
1709212374.676,-14.160,-48.828,-29.297,-25.879,0.000
1709212374.680,-14.648,-34.668,-35.156,-28.809,0.000
1709212374.684,-20.020,-38.086,-35.645,-28.320,0.000
1709212374.688,-32.715,-47.852,-36.621,-25.391,0.000
1709212374.692,-45.410,-40.039,-33.691,-38.086,0.000
1709212374.696,-46.875,-41.992,-31.738,-40.527,0.000
1709212374.699,-46.387,-52.734,-41.016,-48.340,0.000
1709212374.704,-48.828,-47.363,-43.945,-57.129,0.000
1709212374.708,-63.477,-43.457,-45.410,-57.617,0.000
1709212374.711,-63.965,-48.340,-48.828,-57.129,0.000
1709212374.715,-53.223,-45.410,-46.875,-52.734,0.000
1709212374.719,-64.941,-41.992,-45.898,-54.199,0.000
1709212374.723,-71.777,-38.086,-45.410,-61.523,0.000
1709212374.727,-73.730,-42.480,-44.434,-63.965,0.000
1709212374.731,-74.707,-53.711,-44.434,-51.270,0.000
1709212374.735,-73.242,-55.176,-41.016,-60.547,0.000
1709212374.739,-68.848,-44.922,-43.457,-75.684,0.000
1709212374.743,-66.895,-44.922,-49.316,-72.266,0.000
1709212374.747,-73.730,-48.828,-50.781,-71.289,0.000
1709212374.750,-68.359,-41.504,-46.875,-63.965,0.000
1709212374.754,-54.199,-40.527,-40.039,-46.875,0.000
1709212374.758,-45.898,-41.504,-34.180,-36.133,0.000
1709212374.762,-34.668,-32.227,-27.344,-27.832,0.000
1709212374.766,-32.715,-36.621,-33.691,-26.855,0.000
1709212374.770,-34.668,-45.898,-37.109,-26.367,0.000
1709212374.774,-28.809,-38.574,-37.598,-23.438,0.000
1709212374.778,-22.461,-36.133,-43.945,-22.461,0.000
1709212374.782,-23.438,-42.969,-48.828,-23.438,0.000
1709212374.786,-28.809,-39.551,-47.363,-24.414,0.000
1709212374.789,-30.762,-30.762,-37.109,-13.184,0.000
1709212374.793,-21.973,-30.273,-32.715,-5.371,0.000
1709212374.797,-25.391,-39.551,-39.551,-20.508,0.000
1709212374.801,-31.250,-46.387,-43.457,-27.832,0.000
1709212374.805,-33.691,-52.246,-39.551,-23.926,0.000
1709212374.809,-42.969,-53.711,-40.527,-30.273,0.000
1709212374.813,-40.527,-42.969,-40.527,-29.297,0.000
1709212374.817,-27.832,-41.016,-37.109,-23.438,0.000
1709212374.821,-25.391,-42.480,-37.109,-21.484,0.000
1709212374.824,-32.715,-34.180,-36.621,-28.809,0.000
1709212374.828,-34.180,-30.273,-33.691,-33.203,0.000
1709212374.832,-37.109,-39.551,-34.668,-28.809,0.000
1709212374.836,-41.016,-57.129,-39.062,-27.832,0.000
1709212374.840,-40.039,-56.152,-42.480,-34.668,0.000
1709212374.844,-41.992,-42.969,-41.504,-41.016,0.000
1709212374.848,-39.551,-38.086,-37.109,-38.574,0.000
1709212374.852,-33.203,-44.922,-36.133,-33.203,0.000
1709212374.856,-37.598,-46.875,-39.551,-33.691,0.000
1709212374.859,-35.645,-37.598,-37.598,-32.715,0.000
1709212374.863,-28.320,-37.109,-36.133,-24.902,0.000
1709212374.867,-33.691,-43.457,-39.062,-22.949,0.000
1709212374.871,-32.227,-47.852,-33.691,-29.297,0.000
1709212374.875,-29.297,-48.340,-30.762,-31.250,0.000
1709212374.879,-31.738,-40.039,-37.109,-34.668,0.000
1709212374.883,-32.715,-44.434,-41.016,-38.574,0.000
1709212374.887,-30.273,-52.734,-38.086,-38.574,0.000
1709212374.891,-35.156,-41.016,-35.645,-37.598,0.000
1709212374.895,-30.762,-31.738,-39.551,-32.715,0.000
1709212374.899,-20.020,-30.273,-40.527,-31.738,0.000
1709212374.903,-20.508,-30.762,-40.527,-34.668,0.000
1709212374.906,-22.949,-28.809,-37.109,-29.785,0.000
1709212374.910,-26.855,-31.250,-38.086,-28.809,0.000
1709212374.914,-29.297,-40.527,-42.969,-30.762,0.000
1709212374.918,-19.043,-36.133,-43.457,-28.320,0.000
1709212374.922,-16.602,-45.898,-35.645,-23.926,0.000
1709212374.926,-30.762,-57.129,-31.250,-20.508,0.000
1709212374.930,-40.527,-46.387,-33.691,-29.785,0.000
1709212374.934,-40.039,-31.250,-33.691,-35.645,0.000
1709212374.938,-38.574,-26.367,-35.156,-39.062,0.000
1709212374.942,-40.039,-30.273,-32.715,-42.480,0.000
1709212374.946,-50.293,-35.156,-36.133,-51.270,0.000
1709212374.950,-53.223,-38.574,-35.645,-49.316,0.000
1709212374.953,-51.270,-47.363,-34.668,-43.457,0.000
1709212374.957,-51.758,-62.500,-37.109,-47.852,0.000
1709212374.961,-55.664,-57.617,-38.574,-46.387,0.000
1709212374.965,-62.500,-46.387,-40.039,-49.316,0.000
1709212374.969,-60.059,-46.875,-34.180,-42.969,0.000
1709212374.973,-62.500,-40.527,-38.086,-33.203,0.000
1709212374.977,-57.129,-36.621,-37.598,-33.203,0.000
1709212374.981,-49.805,-41.016,-34.180,-34.180,0.000
1709212374.985,-51.758,-51.758,-41.016,-43.457,0.000
1709212374.989,-48.828,-52.734,-41.016,-36.621,0.000
1709212374.993,-45.898,-49.316,-38.574,-28.809,0.000
1709212374.996,-34.668,-50.781,-39.551,-24.414,0.000
1709212375.000,-28.809,-55.664,-40.527,-23.438,0.000
1709212375.004,-32.227,-47.363,-35.645,-24.902,0.000
1709212375.008,-35.645,-43.457,-27.832,-23.926,0.000
1709212375.012,-38.574,-48.828,-28.809,-25.391,0.000
1709212375.016,-29.297,-43.945,-28.809,-14.160,0.000
1709212375.020,-27.832,-40.527,-31.738,-16.113,0.000
1709212375.024,-32.227,-41.992,-33.691,-27.832,0.000
1709212375.028,-40.039,-37.109,-34.668,-31.738,0.000
1709212375.032,-40.527,-27.832,-36.621,-27.344,0.000
1709212375.035,-33.203,-35.645,-37.598,-28.809,0.000
1709212375.039,-29.785,-40.527,-33.203,-32.227,0.000
1709212375.043,-29.297,-38.086,-31.250,-31.250,0.000
1709212375.047,-30.762,-42.969,-33.203,-32.227,0.000
1709212375.051,-33.203,-49.316,-31.738,-31.738,0.000
1709212375.055,-39.551,-44.434,-36.133,-34.180,0.000
1709212375.059,-36.133,-40.527,-40.039,-33.203,0.000
1709212375.063,-34.180,-38.086,-42.480,-30.762,0.000
1709212375.067,-40.527,-31.738,-37.598,-37.598,0.000
1709212375.071,-35.156,-36.621,-31.250,-37.109,0.000
1709212375.075,-26.367,-43.945,-31.738,-27.344,0.000
1709212375.078,-28.320,-48.828,-40.039,-34.180,0.000
1709212375.082,-31.738,-50.781,-42.480,-43.457,0.000
1709212375.086,-37.109,-47.363,-43.945,-49.805,0.000
1709212375.090,-36.133,-45.898,-43.945,-47.363,0.000
1709212375.094,-41.992,-47.363,-44.922,-41.504,0.000
1709212375.098,-41.992,-41.504,-46.875,-38.574,0.000
1709212375.102,-31.250,-37.598,-42.969,-41.992,0.000
1709212375.106,-31.738,-43.457,-38.086,-30.273,0.000
1709212375.110,-43.945,-43.457,-35.156,-29.785,0.000
1709212375.114,-44.434,-40.039,-36.621,-40.527,0.000
1709212375.117,-29.297,-35.156,-40.039,-33.691,0.000
1709212375.121,-30.762,-33.203,-44.434,-37.598,0.000
1709212375.125,-36.133,-40.527,-48.828,-43.457,0.000
1709212375.129,-33.203,-41.504,-46.875,-41.992,0.000
1709212375.133,-30.762,-41.016,-43.457,-42.969,0.000
1709212375.137,-31.250,-41.016,-43.945,-43.457,0.000
1709212375.141,-31.738,-38.086,-45.898,-41.016,0.000
1709212375.145,-29.297,-38.086,-47.852,-44.922,0.000
1709212375.149,-31.738,-35.156,-42.969,-44.434,0.000
1709212375.153,-41.992,-39.551,-37.109,-36.133,0.000
1709212375.156,-41.016,-41.504,-43.457,-40.039,0.000
1709212375.160,-34.668,-40.527,-40.527,-46.387,0.000
1709212375.164,-32.715,-43.457,-28.320,-45.410,0.000
1709212375.168,-41.992,-46.387,-30.762,-50.293,0.000
1709212375.172,-49.316,-43.945,-32.715,-51.758,0.000
1709212375.176,-44.922,-42.969,-33.691,-45.898,0.000
1709212375.180,-45.410,-44.922,-33.203,-54.199,0.000
1709212375.184,-52.734,-36.133,-30.762,-54.199,0.000
1709212375.188,-62.012,-45.410,-37.598,-53.223,0.000
1709212375.192,-68.848,-60.059,-40.039,-57.129,0.000
1709212375.196,-67.383,-56.641,-41.016,-47.852,0.000
1709212375.200,-65.430,-56.152,-42.480,-43.945,0.000
1709212375.204,-66.406,-56.152,-37.598,-44.922,0.000
1709212375.207,-60.059,-47.363,-35.156,-35.645,0.000
1709212375.211,-50.781,-38.574,-33.691,-34.668,0.000
1709212375.215,-47.852,-40.039,-36.621,-34.668,0.000
1709212375.219,-39.551,-44.922,-34.668,-29.297,0.000
1709212375.223,-35.645,-40.527,-28.809,-32.715,0.000
1709212375.227,-37.598,-42.969,-33.691,-35.645,0.000
1709212375.231,-34.668,-51.270,-37.109,-32.715,0.000
1709212375.235,-40.527,-49.805,-45.410,-44.922,0.000
1709212375.239,-41.504,-47.852,-51.758,-53.223,0.000
1709212375.242,-34.180,-40.527,-43.457,-42.480,0.000
1709212375.246,-30.273,-31.738,-35.645,-36.133,0.000
1709212375.250,-39.062,-38.086,-41.992,-40.039,0.000
1709212375.254,-39.551,-48.340,-46.875,-39.551,0.000
1709212375.258,-28.809,-53.223,-39.062,-32.227,0.000
1709212375.262,-28.320,-43.457,-40.039,-37.109,0.000
1709212375.266,-39.062,-45.410,-43.945,-43.945,0.000
1709212375.270,-46.875,-48.340,-42.480,-45.410,0.000
1709212375.274,-41.016,-39.551,-37.109,-38.086,0.000
1709212375.278,-36.621,-40.527,-35.156,-38.086,0.000
1709212375.282,-31.738,-40.039,-37.598,-39.551,0.000
1709212375.286,-32.715,-44.922,-41.016,-38.574,0.000
1709212375.289,-48.340,-57.617,-41.016,-41.504,0.000
1709212375.293,-48.828,-47.363,-34.180,-35.645,0.000
1709212375.297,-41.016,-40.039,-32.227,-27.832,0.000
1709212375.301,-43.945,-51.758,-35.156,-27.832,0.000
1709212375.305,-49.316,-41.504,-35.645,-32.715,0.000
1709212375.309,-48.340,-28.809,-32.227,-36.133,0.000
1709212375.313,-42.969,-39.062,-32.715,-32.715,0.000
1709212375.317,-41.504,-46.387,-33.203,-26.367,0.000
1709212375.321,-38.086,-43.945,-31.250,-29.297,0.000
1709212375.325,-41.504,-40.527,-27.832,-30.762,0.000
1709212375.329,-44.922,-37.598,-26.367,-35.156,0.000
1709212375.332,-45.898,-37.109,-31.250,-37.598,0.000
1709212375.336,-45.898,-42.480,-32.227,-38.086,0.000
1709212375.340,-48.828,-48.828,-34.668,-45.410,0.000
1709212375.344,-50.293,-52.734,-39.062,-46.387,0.000
1709212375.348,-44.922,-50.293,-45.410,-38.086,0.000
1709212375.352,-42.480,-42.480,-46.875,-36.133,0.000
1709212375.356,-30.762,-41.504,-34.180,-32.227,0.000
1709212375.360,-18.066,-41.992,-28.809,-27.344,0.000
1709212375.364,-18.066,-39.551,-34.180,-30.273,0.000
1709212375.368,-25.879,-38.086,-39.551,-34.180,0.000
1709212375.372,-30.273,-41.992,-41.016,-38.086,0.000
1709212375.375,-20.996,-49.805,-35.156,-34.668,0.000
1709212375.379,-16.602,-52.246,-33.691,-32.715,0.000
1709212375.383,-16.602,-39.062,-37.109,-33.203,0.000
1709212375.387,-15.137,-31.738,-43.945,-31.738,0.000
1709212375.391,-24.414,-37.109,-44.922,-25.391,0.000
1709212375.395,-34.668,-33.691,-41.504,-28.809,0.000
1709212375.399,-35.156,-37.109,-46.875,-37.598,0.000
1709212375.403,-35.645,-46.875,-45.410,-44.434,0.000
1709212375.407,-44.434,-48.828,-44.922,-47.852,0.000
1709212375.411,-51.758,-48.340,-46.875,-40.527,0.000
1709212375.415,-46.875,-50.781,-42.480,-31.738,0.000
1709212375.418,-43.457,-53.711,-45.410,-28.809,0.000
1709212375.422,-46.387,-43.945,-47.852,-34.668,0.000
1709212375.426,-50.293,-42.480,-44.434,-36.133,0.000
1709212375.430,-56.152,-47.363,-39.551,-35.156,0.000
1709212375.434,-53.711,-41.504,-32.715,-26.855,0.000
1709212375.438,-49.316,-41.504,-35.645,-24.414,0.000
1709212375.442,-43.457,-43.945,-35.156,-37.109,0.000
1709212375.446,-41.016,-47.852,-40.039,-42.969,0.000
1709212375.450,-48.828,-49.805,-46.387,-41.016,0.000
1709212375.454,-44.922,-49.316,-39.062,-34.180,0.000
1709212375.457,-38.574,-52.734,-37.109,-29.785,0.000
1709212375.461,-37.598,-47.852,-37.598,-26.855,0.000
1709212375.465,-40.039,-41.504,-32.227,-26.855,0.000
1709212375.469,-48.828,-28.809,-34.180,-33.691,0.000
1709212375.473,-50.293,-22.461,-34.668,-28.320,0.000
1709212375.477,-47.852,-29.785,-35.156,-30.762,0.000
1709212375.481,-41.992,-37.109,-42.480,-28.320,0.000
1709212375.485,-37.598,-43.457,-44.434,-26.855,0.000
1709212375.489,-40.527,-49.805,-39.062,-41.992,0.000
1709212375.493,-33.691,-47.363,-41.016,-41.016,0.000
1709212375.497,-29.297,-41.504,-42.969,-36.133,0.000
1709212375.500,-29.785,-31.738,-38.086,-36.133,0.000
1709212375.504,-27.344,-25.879,-36.621,-31.738,0.000
1709212375.508,-24.414,-21.484,-37.109,-27.344,0.000
1709212375.512,-34.668,-22.949,-37.598,-31.738,0.000
1709212375.516,-43.457,-33.203,-42.480,-37.109,0.000
1709212375.520,-38.574,-42.969,-47.363,-35.645,0.000
1709212375.524,-35.156,-46.875,-48.340,-33.203,0.000
1709212375.528,-32.715,-44.434,-45.410,-20.020,0.000
1709212375.532,-35.156,-42.480,-41.992,-22.461,0.000
1709212375.536,-35.645,-43.945,-37.598,-21.973,0.000
1709212375.539,-30.273,-45.898,-33.203,-22.461,0.000
1709212375.543,-22.949,-41.016,-33.691,-36.621,0.000
1709212375.547,-24.414,-37.109,-34.668,-40.527,0.000
1709212375.551,-42.480,-39.551,-38.086,-42.969,0.000
1709212375.555,-45.898,-36.621,-41.016,-39.062,0.000
1709212375.559,-43.945,-41.504,-44.434,-40.527,0.000
1709212375.563,-43.945,-48.828,-38.086,-46.875,0.000
1709212375.567,-49.316,-40.527,-36.621,-48.340,0.000
1709212375.571,-50.293,-35.645,-34.668,-41.016,0.000
1709212375.574,-46.875,-53.223,-33.203,-42.969,0.000
1709212375.578,-45.898,-58.594,-38.086,-52.734,0.000
1709212375.582,-41.504,-42.969,-37.109,-42.480,0.000
1709212375.586,-43.457,-37.109,-36.621,-40.039,0.000
1709212375.590,-51.758,-29.297,-39.062,-44.434,0.000
1709212375.594,-49.805,-30.762,-42.480,-43.457,0.000
1709212375.598,-34.180,-37.109,-36.621,-42.480,0.000
1709212375.602,-26.367,-40.527,-27.832,-40.039,0.000
1709212375.606,-29.297,-43.457,-26.855,-42.969,0.000
1709212375.609,-33.691,-45.410,-25.391,-40.527,0.000
1709212375.613,-33.203,-51.758,-28.320,-30.762,0.000
1709212375.617,-35.645,-40.527,-31.250,-30.762,0.000
1709212375.621,-37.109,-36.621,-31.250,-35.645,0.000
1709212375.625,-36.133,-45.410,-39.062,-37.109,0.000
1709212375.629,-33.691,-51.270,-40.527,-34.180,0.000
1709212375.633,-38.086,-47.363,-33.203,-27.832,0.000
1709212375.637,-39.062,-42.480,-29.785,-29.785,0.000
1709212375.641,-32.227,-45.410,-35.156,-32.715,0.000
1709212375.645,-34.180,-49.805,-38.574,-37.109,0.000
1709212375.649,-36.621,-43.945,-34.180,-37.598,0.000
1709212375.653,-39.551,-42.480,-35.156,-34.668,0.000
1709212375.656,-41.992,-44.434,-38.086,-34.180,0.000
1709212375.660,-37.109,-39.062,-32.715,-35.645,0.000
1709212375.664,-35.645,-39.551,-34.180,-45.898,0.000
1709212375.668,-43.457,-44.922,-39.062,-50.293,0.000
1709212375.672,-50.293,-44.922,-44.434,-47.363,0.000
1709212375.676,-43.457,-35.645,-38.574,-31.738,0.000
1709212375.680,-47.363,-35.156,-36.621,-41.504,0.000
1709212375.684,-48.340,-37.598,-35.645,-46.387,0.000
1709212375.688,-49.316,-46.875,-33.691,-28.809,0.000
1709212375.692,-55.176,-52.734,-41.504,-31.738,0.000
1709212375.696,-47.852,-38.574,-37.598,-32.227,0.000
1709212375.699,-43.945,-37.598,-30.273,-34.668,0.000
1709212375.703,-47.363,-43.457,-33.691,-41.016,0.000
1709212375.707,-48.828,-35.645,-31.250,-37.109,0.000
1709212375.711,-51.758,-34.180,-28.809,-28.809,0.000
1709212375.715,-46.387,-41.504,-32.715,-26.855,0.000
1709212375.719,-32.715,-47.363,-32.227,-23.438,0.000
1709212375.723,-30.273,-48.828,-29.785,-17.578,0.000
1709212375.727,-29.297,-39.062,-27.832,-15.137,0.000
1709212375.731,-26.855,-36.133,-25.391,-19.531,0.000
1709212375.735,-31.250,-35.156,-29.297,-24.902,0.000
1709212375.739,-36.621,-29.297,-33.691,-24.902,0.000
1709212375.742,-43.457,-37.598,-42.969,-32.715,0.000
1709212375.746,-37.598,-39.062,-40.039,-32.715,0.000
1709212375.750,-39.062,-35.156,-36.621,-35.645,0.000
1709212375.754,-46.387,-45.410,-43.457,-41.992,0.000
1709212375.758,-43.457,-47.852,-41.992,-37.598,0.000
1709212375.762,-41.016,-40.039,-40.527,-36.621,0.000
1709212375.766,-51.270,-40.527,-41.504,-41.504,0.000
1709212375.770,-58.105,-36.133,-41.504,-47.363,0.000
1709212375.774,-53.223,-35.645,-33.691,-44.922,0.000
1709212375.778,-51.758,-38.086,-32.227,-41.504,0.000
1709212375.782,-43.457,-29.297,-36.621,-42.480,0.000
1709212375.785,-43.457,-29.785,-36.133,-43.457,0.000
1709212375.789,-47.363,-45.898,-34.668,-45.898,0.000
1709212375.793,-43.945,-53.711,-33.691,-44.922,0.000
1709212375.797,-46.387,-46.875,-38.574,-44.434,0.000
1709212375.801,-49.805,-39.551,-38.086,-47.363,0.000
1709212375.805,-51.270,-43.945,-39.062,-48.340,0.000
1709212375.809,-55.664,-56.152,-45.898,-48.340,0.000
1709212375.813,-56.152,-47.852,-40.527,-38.574,0.000
1709212375.817,-48.828,-33.691,-35.156,-33.203,0.000
1709212375.821,-43.945,-42.480,-38.086,-34.180,0.000
1709212375.825,-42.969,-49.805,-40.039,-38.086,0.000
1709212375.828,-48.340,-41.504,-39.551,-44.922,0.000
1709212375.832,-57.129,-34.668,-40.527,-44.434,0.000
1709212375.836,-54.199,-41.504,-42.480,-37.109,0.000
1709212375.840,-48.340,-49.805,-38.574,-36.621,0.000
1709212375.844,-49.316,-44.922,-41.016,-46.387,0.000
1709212375.848,-46.387,-42.969,-40.527,-49.316,0.000
1709212375.852,-45.898,-48.828,-38.574,-46.875,0.000
1709212375.856,-49.805,-46.875,-42.969,-36.133,0.000
1709212375.860,-46.387,-36.621,-45.898,-38.574,0.000
1709212375.864,-37.109,-36.133,-46.875,-44.434,0.000
1709212375.867,-36.133,-39.062,-45.410,-39.551,0.000
1709212375.871,-46.387,-41.504,-46.387,-46.387,0.000
1709212375.875,-51.758,-45.898,-43.945,-40.527,0.000
1709212375.879,-49.316,-59.082,-45.410,-37.109,0.000
1709212375.883,-47.363,-61.035,-43.457,-37.598,0.000
1709212375.887,-49.316,-50.781,-39.062,-34.668,0.000
1709212375.891,-50.781,-42.969,-39.062,-36.133,0.000
1709212375.895,-47.852,-35.156,-39.551,-31.738,0.000
1709212375.899,-43.945,-38.086,-40.527,-24.414,0.000
1709212375.903,-54.199,-48.828,-50.293,-35.156,0.000
1709212375.906,-59.570,-42.480,-52.246,-58.105,0.000
1709212375.910,-57.129,-39.062,-52.734,-65.918,0.000
1709212375.914,-55.664,-44.434,-54.199,-63.477,0.000
1709212375.918,-44.434,-42.969,-49.316,-55.176,0.000
1709212375.922,-45.898,-52.734,-48.340,-56.152,0.000
1709212375.926,-46.387,-47.852,-38.574,-55.176,0.000
1709212375.930,-38.086,-34.180,-42.480,-46.875,0.000
1709212375.934,-36.133,-35.156,-53.711,-42.969,0.000
1709212375.938,-30.762,-36.133,-45.898,-42.480,0.000
1709212375.941,-27.832,-38.086,-44.434,-46.875,0.000
1709212375.945,-30.762,-51.270,-55.176,-43.457,0.000
1709212375.949,-35.156,-45.410,-54.688,-42.480,0.000
1709212375.953,-35.645,-32.715,-48.828,-43.945,0.000
1709212375.957,-28.809,-35.645,-40.039,-33.691,0.000
1709212375.961,-25.879,-32.715,-35.645,-29.785,0.000
1709212375.965,-31.250,-35.156,-42.480,-36.621,0.000
1709212375.969,-40.039,-49.805,-47.852,-33.203,0.000
1709212375.973,-42.480,-53.223,-48.340,-25.391,0.000
1709212375.977,-32.715,-46.875,-48.828,-20.996,0.000
1709212375.981,-24.414,-41.016,-52.246,-24.902,0.000
1709212375.985,-24.902,-40.527,-48.340,-34.180,0.000
1709212375.989,-28.320,-49.805,-40.527,-28.320,0.000
1709212375.992,-34.668,-49.805,-36.621,-25.879,0.000
1709212375.996,-35.645,-40.527,-39.551,-36.133,0.000
1709212376.000,-24.414,-42.480,-41.992,-39.551,0.000
1709212376.004,-23.438,-54.199,-39.062,-39.551,0.000
1709212376.008,-26.855,-49.805,-37.109,-42.480,0.000
1709212376.012,-23.438,-37.109,-37.109,-44.434,0.000
1709212376.016,-29.785,-34.180,-40.527,-42.480,0.000
1709212376.020,-38.086,-37.109,-43.945,-41.992,0.000
1709212376.024,-34.180,-35.156,-44.922,-41.016,0.000
1709212376.028,-38.086,-38.574,-41.016,-45.898,0.000
1709212376.032,-42.969,-45.898,-41.016,-41.504,0.000
1709212376.036,-37.109,-41.992,-42.480,-36.621,0.000
1709212376.039,-30.273,-41.992,-35.156,-33.203,0.000
1709212376.043,-20.996,-41.992,-29.785,-31.738,0.000
1709212376.047,-21.973,-35.645,-27.344,-22.949,0.000
1709212376.051,-29.785,-41.504,-34.180,-10.742,0.000
1709212376.055,-27.832,-37.598,-43.457,-20.996,0.000
1709212376.059,-21.484,-24.414,-35.156,-20.508,0.000
1709212376.063,-21.484,-33.691,-33.691,-24.414,0.000
1709212376.067,-18.555,-35.645,-38.574,-30.273,0.000
1709212376.071,-19.531,-33.691,-40.039,-23.438,0.000
1709212376.075,-19.531,-39.062,-37.598,-22.461,0.000
1709212376.079,-16.602,-32.227,-29.785,-16.113,0.000
1709212376.082,-21.484,-33.691,-27.832,-14.160,0.000
1709212376.086,-18.066,-37.598,-25.391,-18.066,0.000
1709212376.090,-17.090,-31.250,-24.414,-22.461,0.000
1709212376.094,-15.137,-28.809,-18.066,-7.324,0.000
1709212376.098,-15.137,-33.691,-28.320,-5.371,0.000
1709212376.102,-10.742,-24.902,-32.227,-19.043,0.000
1709212376.106,-0.977,-19.531,-24.902,-12.207,0.000
1709212376.110,-4.395,-28.809,-27.832,-6.836,0.000
1709212376.114,-7.812,-30.273,-27.344,-7.324,0.000
1709212376.118,-5.859,-26.855,-30.273,-4.395,0.000
1709212376.122,-15.625,-31.738,-24.902,-10.254,0.000
1709212376.126,-25.879,-46.875,-23.438,-21.973,0.000
1709212376.129,-26.855,-41.504,-26.367,-23.438,0.000
1709212376.133,-27.344,-27.344,-22.949,-20.996,0.000
1709212376.137,-26.855,-33.203,-25.391,-28.320,0.000
1709212376.141,-33.691,-45.898,-30.273,-20.508,0.000
1709212376.145,-49.316,-45.410,-29.297,-26.855,0.000
1709212376.149,-46.875,-43.457,-30.762,-42.480,0.000
1709212376.153,-48.340,-46.875,-27.344,-43.457,0.000
1709212376.157,-54.688,-49.316,-20.020,-42.969,0.000
1709212376.161,-48.340,-50.293,-20.996,-39.062,0.000
1709212376.165,-46.387,-59.570,-25.879,-35.645,0.000
1709212376.168,-47.363,-58.105,-27.832,-33.203,0.000
1709212376.172,-40.039,-43.945,-26.367,-22.461,0.000
1709212376.176,-27.832,-36.133,-26.855,-9.766,0.000
1709212376.180,-16.113,-34.668,-23.438,-7.812,0.000
1709212376.184,-15.137,-42.969,-22.949,-14.160,0.000
1709212376.188,-23.438,-36.621,-25.391,-8.789,0.000
1709212376.192,-22.949,-28.320,-25.879,-7.324,0.000
1709212376.196,-22.461,-36.133,-21.973,-17.578,0.000
1709212376.200,-25.391,-46.387,-17.090,-20.508,0.000
1709212376.204,-34.668,-47.363,-16.602,-28.320,0.000
1709212376.207,-46.387,-49.805,-19.043,-41.992,0.000
1709212376.211,-54.199,-56.641,-28.320,-45.410,0.000
1709212376.215,-50.293,-48.828,-32.227,-45.410,0.000
1709212376.219,-40.527,-41.504,-22.949,-39.062,0.000
1709212376.223,-44.922,-46.387,-21.484,-39.551,0.000
1709212376.227,-56.641,-52.246,-36.621,-44.922,0.000
1709212376.231,-60.059,-59.082,-37.109,-34.180,0.000
1709212376.235,-52.246,-58.105,-33.691,-33.691,0.000
1709212376.239,-44.922,-54.199,-33.203,-37.598,0.000
1709212376.243,-42.480,-64.941,-33.691,-37.598,0.000
1709212376.247,-39.062,-66.895,-41.992,-39.551,0.000
1709212376.250,-41.016,-51.270,-45.410,-44.922,0.000
1709212376.254,-40.039,-41.504,-40.039,-34.180,0.000
1709212376.258,-36.621,-40.527,-39.551,-32.715,0.000
1709212376.262,-34.668,-37.109,-39.062,-31.738,0.000
1709212376.266,-35.156,-35.645,-35.645,-29.785,0.000
1709212376.270,-39.551,-41.504,-31.738,-35.156,0.000
1709212376.274,-43.457,-49.805,-29.785,-30.273,0.000
1709212376.278,-39.062,-52.246,-29.785,-20.996,0.000
1709212376.282,-36.133,-52.734,-33.691,-29.297,0.000
1709212376.285,-33.691,-49.805,-31.738,-36.133,0.000
1709212376.289,-28.320,-39.551,-29.785,-28.809,0.000
1709212376.293,-30.273,-40.527,-36.133,-26.855,0.000
1709212376.297,-32.227,-43.945,-36.133,-28.809,0.000
1709212376.301,-32.715,-44.922,-35.156,-27.832,0.000
1709212376.305,-45.410,-55.664,-40.039,-41.992,0.000
1709212376.309,-57.129,-52.246,-42.969,-54.688,0.000
1709212376.313,-58.594,-41.504,-42.480,-51.270,0.000
1709212376.317,-58.594,-44.922,-41.992,-41.504,0.000
1709212376.321,-51.758,-47.363,-42.480,-28.320,0.000
1709212376.324,-44.434,-45.898,-41.992,-33.203,0.000
1709212376.328,-45.898,-46.875,-35.156,-41.504,0.000
1709212376.332,-46.387,-52.246,-34.180,-32.227,0.000
1709212376.336,-40.527,-39.551,-32.715,-28.809,0.000
1709212376.340,-30.762,-28.320,-31.738,-30.762,0.000
1709212376.344,-26.855,-35.156,-32.715,-31.738,0.000
1709212376.348,-36.621,-40.039,-36.621,-31.738,0.000
1709212376.352,-38.086,-36.133,-38.574,-32.227,0.000
1709212376.355,-32.227,-36.621,-37.109,-31.250,0.000
1709212376.359,-31.250,-38.574,-37.109,-34.668,0.000
1709212376.363,-33.203,-40.039,-34.668,-37.109,0.000
1709212376.367,-36.621,-48.828,-36.621,-33.691,0.000
1709212376.371,-39.551,-42.969,-41.016,-33.691,0.000
1709212376.375,-42.480,-42.480,-41.992,-35.156,0.000
1709212376.379,-43.945,-50.781,-43.945,-42.969,0.000
1709212376.383,-45.410,-39.551,-38.574,-45.898,0.000
1709212376.387,-50.293,-31.738,-34.668,-52.734,0.000
1709212376.391,-59.570,-42.480,-48.828,-64.453,0.000
1709212376.395,-61.523,-41.016,-45.410,-55.176,0.000
1709212376.399,-57.129,-39.551,-39.551,-53.223,0.000
1709212376.403,-62.988,-54.199,-45.410,-63.965,0.000
1709212376.406,-61.523,-47.852,-38.086,-54.199,0.000
1709212376.410,-57.617,-43.457,-35.645,-51.270,0.000
1709212376.414,-60.547,-51.270,-38.574,-52.734,0.000
1709212376.418,-50.293,-47.852,-31.738,-44.434,0.000
1709212376.422,-41.016,-43.945,-29.785,-40.527,0.000
1709212376.426,-45.410,-42.969,-37.598,-34.180,0.000
1709212376.430,-56.152,-48.340,-43.457,-43.457,0.000
1709212376.434,-55.176,-47.852,-38.574,-48.828,0.000
1709212376.438,-45.410,-39.551,-40.039,-37.109,0.000
1709212376.442,-48.340,-39.551,-37.598,-30.762,0.000
1709212376.446,-54.199,-45.410,-28.320,-34.180,0.000
1709212376.449,-59.570,-57.129,-32.227,-43.457,0.000
1709212376.453,-57.129,-57.129,-39.551,-45.898,0.000
1709212376.457,-49.805,-48.828,-41.992,-41.016,0.000
1709212376.461,-47.852,-45.410,-41.016,-39.062,0.000
1709212376.465,-47.363,-35.156,-40.039,-42.480,0.000
1709212376.469,-45.410,-32.227,-32.715,-39.062,0.000
1709212376.473,-47.363,-44.922,-39.551,-39.062,0.000
1709212376.477,-42.969,-43.457,-38.574,-42.480,0.000
1709212376.481,-31.250,-37.598,-26.367,-42.969,0.000
1709212376.485,-25.391,-45.898,-31.738,-43.945,0.000
1709212376.489,-35.645,-46.387,-34.668,-44.434,0.000
1709212376.492,-34.180,-39.062,-30.273,-41.992,0.000
1709212376.496,-32.227,-38.086,-35.156,-38.086,0.000
1709212376.500,-40.039,-33.691,-32.715,-41.016,0.000
1709212376.504,-41.504,-33.691,-35.645,-48.828,0.000
1709212376.508,-45.410,-34.668,-42.480,-56.641,0.000
1709212376.512,-44.434,-31.738,-40.527,-57.129,0.000
1709212376.516,-42.969,-41.992,-35.156,-46.387,0.000
1709212376.520,-42.480,-52.246,-32.227,-43.945,0.000
1709212376.524,-34.668,-44.434,-34.180,-46.875,0.000
1709212376.528,-35.645,-42.969,-35.156,-40.527,0.000
1709212376.532,-40.039,-50.781,-37.109,-35.645,0.000
1709212376.535,-36.621,-40.527,-39.062,-36.133,0.000
1709212376.539,-32.227,-43.945,-40.039,-34.668,0.000
1709212376.543,-29.297,-49.316,-34.668,-30.762,0.000
1709212376.547,-34.180,-45.410,-28.809,-31.250,0.000
1709212376.551,-40.039,-48.340,-33.691,-32.227,0.000
1709212376.555,-41.992,-48.828,-41.504,-31.250,0.000
1709212376.559,-40.527,-51.270,-39.062,-27.344,0.000
1709212376.563,-41.016,-56.152,-39.062,-20.508,0.000
1709212376.567,-40.527,-51.758,-36.621,-26.367,0.000
1709212376.571,-34.668,-46.387,-28.320,-27.832,0.000
1709212376.575,-31.250,-42.480,-27.832,-23.926,0.000
1709212376.578,-25.391,-44.922,-30.273,-29.785,0.000
1709212376.582,-22.461,-40.527,-28.320,-27.832,0.000
1709212376.586,-28.809,-38.574,-27.832,-19.531,0.000
1709212376.590,-32.715,-45.410,-30.273,-25.879,0.000
1709212376.594,-30.273,-46.387,-35.645,-34.668,0.000
1709212376.598,-33.203,-47.363,-36.621,-37.109,0.000
1709212376.602,-33.203,-49.316,-39.062,-36.621,0.000
1709212376.606,-32.227,-52.246,-37.109,-34.180,0.000
1709212376.610,-41.992,-46.875,-34.668,-38.574,0.000
1709212376.614,-40.039,-49.316,-33.203,-33.203,0.000
1709212376.617,-27.344,-60.059,-24.414,-24.902,0.000
1709212376.621,-22.949,-59.570,-27.832,-29.297,0.000
1709212376.625,-25.879,-55.664,-38.574,-36.133,0.000
1709212376.629,-24.902,-45.898,-34.180,-34.668,0.000
1709212376.633,-26.855,-40.039,-27.344,-24.414,0.000
1709212376.637,-28.320,-39.551,-34.668,-23.926,0.000
1709212376.641,-25.879,-35.156,-37.598,-34.668,0.000
1709212376.645,-29.785,-34.180,-36.133,-41.992,0.000
1709212376.649,-39.551,-37.109,-38.574,-45.410,0.000
1709212376.652,-45.898,-41.504,-41.016,-36.621,0.000
1709212376.656,-45.898,-37.598,-37.109,-40.527,0.000
1709212376.660,-47.852,-35.645,-44.922,-50.293,0.000
1709212376.664,-53.223,-40.039,-48.340,-52.734,0.000
1709212376.668,-62.012,-37.598,-47.852,-61.523,0.000
1709212376.672,-55.176,-24.902,-44.922,-60.547,0.000
1709212376.676,-48.340,-32.227,-39.551,-54.199,0.000
1709212376.680,-45.898,-44.434,-39.551,-48.828,0.000
1709212376.684,-49.316,-45.898,-43.945,-55.664,0.000
1709212376.688,-54.688,-43.945,-43.945,-62.500,0.000
1709212376.691,-47.363,-42.480,-44.922,-54.688,0.000
1709212376.695,-40.039,-41.504,-49.805,-45.410,0.000
1709212376.699,-42.969,-43.945,-54.688,-52.734,0.000
1709212376.703,-44.922,-42.969,-54.688,-62.988,0.000
1709212376.707,-44.434,-32.227,-48.828,-56.152,0.000
1709212376.711,-40.527,-23.438,-49.316,-41.992,0.000
1709212376.715,-35.156,-24.902,-48.828,-34.668,0.000
1709212376.719,-32.227,-27.832,-44.434,-41.504,0.000
1709212376.722,-24.414,-32.227,-39.062,-45.410,0.000
1709212376.726,-34.180,-36.133,-36.133,-35.156,0.000
1709212376.730,-48.828,-33.203,-39.551,-33.691,0.000
1709212376.734,-40.039,-29.297,-36.621,-34.668,0.000
1709212376.738,-37.109,-34.180,-30.762,-29.297,0.000
1709212376.742,-36.621,-35.156,-35.645,-36.133,0.000
1709212376.746,-37.598,-24.902,-39.551,-49.805,0.000
1709212376.750,-46.875,-28.320,-36.133,-48.828,0.000
1709212376.754,-54.199,-38.574,-41.992,-48.340,0.000
1709212376.758,-41.992,-38.086,-41.016,-44.434,0.000
1709212376.762,-37.109,-42.969,-32.715,-42.969,0.000
1709212376.766,-47.363,-52.246,-39.551,-55.176,0.000
1709212376.770,-52.246,-53.223,-39.551,-58.105,0.000
1709212376.773,-52.246,-45.410,-38.574,-49.805,0.000
1709212376.777,-41.504,-33.203,-37.109,-44.434,0.000
1709212376.781,-39.062,-32.227,-38.574,-40.039,0.000
1709212376.785,-47.363,-36.133,-42.969,-41.016,0.000
1709212376.789,-46.387,-39.062,-34.180,-46.387,0.000
1709212376.793,-41.016,-43.945,-32.715,-47.852,0.000
1709212376.797,-35.645,-47.363,-35.645,-38.086,0.000
1709212376.801,-28.809,-48.828,-30.273,-22.949,0.000
1709212376.805,-30.762,-43.457,-35.156,-30.762,0.000
1709212376.809,-33.691,-39.062,-38.574,-44.434,0.000
1709212376.813,-27.832,-35.156,-36.133,-34.180,0.000
1709212376.816,-23.438,-31.738,-38.086,-31.738,0.000
1709212376.820,-20.996,-32.715,-33.691,-36.133,0.000
1709212376.824,-27.344,-34.668,-35.645,-34.180,0.000
1709212376.828,-31.738,-27.344,-31.250,-37.109,0.000
1709212376.832,-22.949,-31.738,-25.391,-38.086,0.000
1709212376.836,-15.625,-44.434,-27.832,-29.785,0.000
1709212376.840,-19.043,-41.992,-30.273,-35.156,0.000
1709212376.844,-22.461,-41.016,-28.320,-45.410,0.000
1709212376.848,-31.250,-41.992,-25.879,-43.457,0.000
1709212376.852,-42.480,-45.410,-33.691,-42.480,0.000
1709212376.856,-45.410,-53.223,-35.156,-42.969,0.000
1709212376.860,-42.480,-48.340,-33.203,-42.969,0.000
1709212376.863,-42.480,-43.945,-33.203,-41.504,0.000
1709212376.867,-42.969,-38.086,-29.785,-40.527,0.000
1709212376.871,-40.527,-38.086,-28.809,-41.992,0.000
1709212376.875,-34.180,-41.992,-27.832,-34.180,0.000
1709212376.879,-32.227,-42.480,-29.785,-26.855,0.000
1709212376.883,-34.180,-39.551,-34.180,-31.250,0.000
1709212376.887,-37.109,-31.250,-38.574,-36.621,0.000
1709212376.891,-43.945,-34.180,-43.945,-42.480,0.000
1709212376.895,-46.875,-36.621,-38.086,-48.828,0.000
1709212376.899,-43.945,-35.645,-34.180,-51.270,0.000
1709212376.902,-44.922,-39.062,-34.668,-53.711,0.000
1709212376.906,-55.176,-41.992,-36.133,-64.453,0.000
1709212376.910,-59.082,-33.203,-36.621,-62.988,0.000
1709212376.914,-49.805,-30.762,-35.645,-52.246,0.000
1709212376.918,-43.457,-40.527,-34.180,-40.039,0.000
1709212376.922,-39.551,-37.598,-37.598,-32.227,0.000
1709212376.926,-44.922,-41.016,-43.457,-40.527,0.000
1709212376.930,-50.781,-49.805,-38.574,-38.086,0.000
1709212376.934,-44.434,-48.340,-37.598,-28.809,0.000
1709212376.938,-30.762,-41.992,-42.480,-17.578,0.000
1709212376.942,-23.926,-42.969,-38.574,-25.391,0.000
1709212376.945,-17.090,-43.457,-29.297,-25.879,0.000
1709212376.949,-12.695,-34.668,-27.832,-20.020,0.000
1709212376.953,-11.230,-34.180,-30.762,-19.043,0.000
1709212376.957,-6.348,-38.086,-33.691,-18.555,0.000
1709212376.961,-6.836,-30.762,-39.551,-20.508,0.000
1709212376.965,-19.531,-26.855,-41.504,-24.414,0.000
1709212376.969,-27.832,-36.133,-37.109,-22.949,0.000
1709212376.973,-31.250,-43.457,-37.109,-18.066,0.000
1709212376.977,-41.992,-43.457,-37.598,-24.414,0.000
1709212376.981,-39.551,-41.992,-30.273,-16.602,0.000
1709212376.984,-39.551,-44.434,-29.785,-21.484,0.000
1709212376.988,-46.875,-53.711,-38.086,-45.898,0.000
1709212376.992,-45.410,-53.711,-34.180,-41.992,0.000
1709212376.996,-42.480,-55.664,-32.227,-39.062,0.000
1709212377.000,-43.945,-52.734,-34.180,-45.410,0.000
1709212377.004,-43.945,-42.969,-29.785,-44.922,0.000
1709212377.008,-55.664,-47.852,-31.738,-52.734,0.000
1709212377.012,-61.523,-52.246,-38.086,-49.316,0.000
1709212377.016,-55.176,-51.758,-33.691,-44.922,0.000
1709212377.020,-52.246,-44.922,-29.297,-48.340,0.000
1709212377.023,-49.805,-41.504,-42.480,-47.852,0.000
1709212377.027,-47.852,-42.969,-47.852,-44.434,0.000
1709212377.031,-44.922,-44.922,-44.922,-49.316,0.000
1709212377.035,-40.527,-46.387,-45.898,-47.363,0.000
1709212377.039,-29.297,-54.199,-44.922,-36.621,0.000
1709212377.043,-11.230,-37.109,-35.645,-24.902,0.000
1709212377.047,-7.812,-14.160,-29.297,-19.043,0.000
1709212377.051,-18.555,-27.832,-37.109,-24.414,0.000
1709212377.055,-20.508,-36.133,-38.086,-24.902,0.000
1709212377.058,-13.672,-31.738,-33.691,-18.555,0.000
1709212377.062,-17.090,-41.504,-33.691,-18.555,0.000
1709212377.066,-24.902,-51.270,-42.480,-26.855,0.000
1709212377.070,-30.762,-51.758,-38.086,-25.391,0.000
1709212377.074,-37.109,-50.293,-28.809,-20.996,0.000
1709212377.078,-38.086,-42.480,-30.762,-25.391,0.000
1709212377.082,-38.086,-47.363,-31.738,-28.809,0.000
1709212377.086,-41.992,-48.828,-34.668,-36.621,0.000
1709212377.090,-41.992,-31.250,-35.645,-39.062,0.000
1709212377.093,-41.016,-27.344,-32.715,-35.645,0.000
1709212377.097,-44.434,-38.574,-36.133,-35.645,0.000
1709212377.101,-43.945,-42.480,-39.551,-31.250,0.000
1709212377.105,-51.758,-43.945,-36.621,-29.785,0.000
1709212377.109,-57.617,-49.316,-38.574,-35.156,0.000
1709212377.113,-59.570,-51.758,-37.109,-30.762,0.000
1709212377.117,-50.781,-52.734,-31.250,-22.949,0.000
1709212377.121,-43.457,-51.758,-34.180,-29.785,0.000
1709212377.125,-44.922,-45.898,-34.180,-30.273,0.000
1709212377.129,-42.969,-37.109,-27.344,-22.949,0.000
1709212377.132,-47.363,-31.250,-33.203,-25.879,0.000
1709212377.136,-40.527,-32.715,-34.668,-34.668,0.000
1709212377.140,-34.668,-40.527,-35.156,-40.039,0.000
1709212377.144,-39.062,-43.945,-31.738,-37.109,0.000
1709212377.148,-46.875,-49.316,-28.320,-44.434,0.000
1709212377.152,-48.340,-59.082,-32.227,-56.152,0.000
1709212377.156,-52.246,-55.176,-40.527,-59.082,0.000
1709212377.160,-44.434,-41.016,-40.039,-43.457,0.000
1709212377.164,-39.551,-40.527,-41.016,-43.457,0.000
1709212377.168,-46.387,-36.133,-41.504,-52.246,0.000
1709212377.172,-45.898,-30.762,-39.062,-45.898,0.000
1709212377.176,-45.410,-39.551,-43.457,-34.668,0.000
1709212377.180,-35.156,-41.992,-43.945,-31.738,0.000
1709212377.183,-30.762,-45.898,-43.945,-45.410,0.000
1709212377.187,-36.621,-44.434,-44.922,-47.852,0.000
1709212377.191,-38.086,-40.527,-43.945,-41.016,0.000
1709212377.195,-32.227,-42.969,-43.457,-39.062,0.000
1709212377.199,-23.438,-41.992,-36.133,-30.273,0.000
1709212377.203,-21.973,-38.574,-27.832,-28.320,0.000
1709212377.207,-18.555,-29.297,-24.414,-24.902,0.000
1709212377.211,-27.832,-35.645,-31.738,-26.855,0.000
1709212377.215,-34.668,-40.039,-40.527,-34.668,0.000
1709212377.219,-29.785,-32.227,-37.109,-31.250,0.000
1709212377.223,-37.109,-40.039,-39.062,-28.320,0.000
1709212377.227,-44.922,-34.180,-40.527,-38.574,0.000
1709212377.230,-48.340,-28.320,-33.203,-37.598,0.000
1709212377.234,-50.293,-36.621,-31.738,-37.598,0.000
1709212377.238,-47.852,-41.504,-34.668,-45.410,0.000
1709212377.242,-47.852,-51.270,-38.574,-48.828,0.000
1709212377.246,-46.387,-52.734,-37.598,-49.316,0.000
1709212377.250,-41.504,-39.062,-33.203,-44.434,0.000
1709212377.254,-44.434,-43.457,-32.715,-43.945,0.000
1709212377.258,-48.828,-49.316,-38.574,-50.293,0.000
1709212377.262,-46.875,-47.363,-45.410,-50.781,0.000
1709212377.266,-50.781,-46.387,-41.016,-38.086,0.000
1709212377.270,-57.129,-36.621,-35.645,-37.598,0.000
1709212377.274,-49.805,-31.250,-31.250,-34.668,0.000
1709212377.277,-40.039,-34.180,-28.320,-24.902,0.000
1709212377.281,-42.969,-38.086,-33.691,-28.320,0.000
1709212377.285,-48.828,-41.016,-39.551,-39.551,0.000
1709212377.289,-56.152,-41.016,-38.574,-41.504,0.000
1709212377.293,-57.129,-46.875,-35.645,-36.621,0.000
1709212377.297,-52.246,-45.898,-34.180,-38.574,0.000
1709212377.301,-47.363,-45.898,-33.203,-41.016,0.000
1709212377.305,-41.016,-48.828,-29.785,-40.527,0.000
1709212377.309,-43.945,-47.363,-29.297,-37.109,0.000
1709212377.313,-47.852,-41.504,-29.297,-30.762,0.000
1709212377.316,-45.410,-37.109,-26.855,-28.809,0.000
1709212377.320,-39.551,-41.992,-37.598,-32.715,0.000
1709212377.324,-29.297,-40.527,-37.598,-30.762,0.000
1709212377.328,-24.902,-37.109,-32.227,-23.438,0.000
1709212377.332,-29.785,-45.410,-38.574,-28.320,0.000
1709212377.336,-28.809,-51.758,-39.062,-32.715,0.000
1709212377.340,-21.484,-44.434,-30.762,-22.949,0.000
1709212377.344,-24.902,-41.992,-32.715,-21.484,0.000
1709212377.348,-29.297,-41.504,-36.133,-28.320,0.000
1709212377.352,-25.879,-29.785,-38.574,-29.785,0.000
1709212377.355,-24.414,-23.438,-40.039,-24.414,0.000
1709212377.359,-21.484,-16.602,-35.645,-18.066,0.000
1709212377.363,-21.973,-15.625,-38.086,-23.926,0.000
1709212377.367,-26.855,-20.508,-42.969,-28.320,0.000
1709212377.371,-30.762,-23.926,-36.133,-27.344,0.000
1709212377.375,-35.156,-37.109,-30.762,-27.832,0.000
1709212377.379,-35.156,-42.969,-36.621,-25.879,0.000
1709212377.383,-35.645,-41.992,-41.992,-28.320,0.000
1709212377.387,-42.480,-41.992,-41.504,-41.016,0.000
1709212377.391,-45.410,-35.645,-32.715,-42.480,0.000
1709212377.394,-42.480,-29.785,-29.785,-34.180,0.000
1709212377.398,-40.039,-37.109,-34.180,-34.180,0.000
1709212377.402,-43.457,-54.199,-37.598,-31.738,0.000
1709212377.406,-47.852,-55.664,-36.621,-33.691,0.000
1709212377.410,-47.363,-41.016,-40.527,-36.621,0.000
1709212377.414,-45.410,-44.922,-52.734,-41.992,0.000
1709212377.418,-43.945,-45.410,-49.316,-44.434,0.000
1709212377.422,-37.598,-32.227,-39.551,-43.945,0.000
1709212377.426,-32.715,-30.273,-41.504,-43.945,0.000
1709212377.429,-34.668,-36.133,-42.969,-46.387,0.000
1709212377.433,-29.785,-42.969,-41.504,-42.480,0.000
1709212377.437,-26.855,-53.711,-40.039,-34.668,0.000
1709212377.441,-27.832,-43.457,-40.527,-29.297,0.000
1709212377.445,-35.156,-30.273,-49.316,-30.762,0.000
1709212377.449,-41.992,-36.133,-52.734,-40.039,0.000
1709212377.453,-35.156,-42.969,-41.016,-42.480,0.000
1709212377.457,-40.039,-45.898,-44.434,-43.457,0.000
1709212377.461,-48.340,-43.945,-47.363,-46.387,0.000
1709212377.465,-42.969,-45.898,-35.645,-47.852,0.000
1709212377.468,-40.527,-49.316,-35.156,-47.363,0.000
1709212377.472,-44.434,-53.223,-37.109,-42.969,0.000
1709212377.476,-46.387,-54.199,-36.621,-40.527,0.000
1709212377.480,-45.410,-46.875,-37.598,-37.109,0.000
1709212377.484,-48.340,-42.969,-35.156,-40.527,0.000
1709212377.488,-52.246,-45.410,-38.086,-44.922,0.000
1709212377.492,-49.805,-42.480,-41.992,-39.551,0.000
1709212377.496,-50.293,-40.527,-41.992,-41.504,0.000
1709212377.500,-41.992,-37.598,-34.180,-35.156,0.000
1709212377.504,-30.762,-30.273,-28.320,-30.273,0.000
1709212377.507,-36.133,-41.992,-30.273,-39.551,0.000
1709212377.511,-33.691,-55.176,-29.297,-39.062,0.000
1709212377.515,-33.691,-47.363,-31.738,-38.086,0.000
1709212377.519,-35.645,-34.180,-39.551,-37.598,0.000
1709212377.523,-30.273,-27.344,-34.668,-32.227,0.000
1709212377.527,-31.738,-32.227,-26.367,-35.156,0.000
1709212377.531,-28.809,-33.691,-27.344,-39.551,0.000
1709212377.535,-20.508,-38.086,-26.855,-31.738,0.000
1709212377.539,-20.020,-45.410,-30.273,-31.250,0.000
1709212377.543,-17.578,-44.922,-32.715,-32.227,0.000
1709212377.547,-21.484,-46.875,-27.832,-34.668,0.000
1709212377.551,-32.227,-48.340,-29.785,-28.320,0.000
1709212377.555,-40.527,-41.504,-35.156,-36.621,0.000
1709212377.558,-46.387,-37.598,-33.691,-48.340,0.000
1709212377.562,-43.457,-41.016,-30.273,-38.574,0.000
1709212377.566,-46.875,-44.434,-31.738,-41.992,0.000
1709212377.570,-57.617,-48.828,-37.598,-50.293,0.000
1709212377.574,-58.105,-48.828,-35.645,-45.410,0.000
1709212377.578,-54.199,-50.293,-33.691,-44.434,0.000
1709212377.582,-49.805,-47.852,-29.785,-41.504,0.000
1709212377.586,-52.246,-44.922,-30.273,-45.410,0.000
1709212377.590,-56.641,-51.270,-33.691,-44.922,0.000
1709212377.594,-53.223,-57.617,-32.227,-36.621,0.000
1709212377.598,-47.852,-46.875,-31.250,-28.320,0.000
1709212377.602,-40.039,-31.738,-33.691,-20.508,0.000
1709212377.605,-38.086,-29.785,-28.320,-24.902,0.000
1709212377.609,-42.480,-41.504,-28.809,-22.949,0.000
1709212377.613,-49.316,-49.805,-40.527,-16.113,0.000
1709212377.617,-53.223,-49.805,-42.969,-27.832,0.000
1709212377.621,-46.387,-55.664,-38.086,-28.320,0.000
1709212377.625,-39.551,-61.035,-32.715,-20.508,0.000
1709212377.629,-45.898,-55.176,-28.320,-20.996,0.000
1709212377.633,-47.852,-43.945,-28.320,-25.391,0.000
1709212377.637,-33.203,-37.598,-34.180,-24.902,0.000
1709212377.641,-26.855,-39.551,-35.645,-21.484,0.000
1709212377.645,-35.156,-42.969,-38.086,-33.691,0.000
1709212377.648,-38.086,-41.504,-38.086,-36.133,0.000
1709212377.652,-37.598,-46.875,-40.527,-33.691,0.000
1709212377.656,-32.227,-52.734,-38.574,-29.785,0.000
1709212377.660,-26.367,-51.270,-34.180,-19.531,0.000
1709212377.664,-24.414,-37.598,-35.645,-22.949,0.000
1709212377.668,-30.273,-32.715,-43.945,-33.691,0.000
1709212377.672,-35.645,-35.156,-47.852,-36.133,0.000
1709212377.676,-37.109,-39.062,-48.340,-37.598,0.000
1709212377.680,-36.621,-43.945,-51.270,-43.945,0.000
1709212377.684,-32.715,-42.969,-48.340,-39.062,0.000
1709212377.687,-36.621,-44.434,-39.551,-32.227,0.000
1709212377.691,-48.340,-45.410,-41.992,-44.434,0.000
1709212377.695,-45.410,-51.270,-37.598,-41.504,0.000
1709212377.699,-40.527,-55.176,-29.785,-37.109,0.000
1709212377.703,-40.527,-46.387,-31.250,-41.504,0.000
1709212377.707,-42.969,-42.969,-34.668,-41.504,0.000
1709212377.711,-46.387,-43.457,-38.086,-47.852,0.000
1709212377.715,-47.363,-42.969,-42.480,-52.734,0.000
1709212377.719,-43.457,-36.621,-43.945,-41.992,0.000
1709212377.723,-46.387,-36.621,-41.504,-41.504,0.000
1709212377.727,-46.875,-42.480,-34.180,-46.875,0.000
1709212377.730,-41.992,-38.574,-29.785,-33.691,0.000
1709212377.734,-51.758,-46.387,-34.668,-41.504,0.000
1709212377.738,-52.734,-49.805,-33.203,-47.852,0.000
1709212377.742,-50.293,-41.504,-34.668,-43.457,0.000
1709212377.746,-50.781,-41.016,-40.039,-47.363,0.000
1709212377.750,-50.781,-37.109,-41.016,-46.875,0.000
1709212377.754,-55.664,-34.180,-41.504,-41.016,0.000
1709212377.758,-46.387,-32.715,-42.969,-34.180,0.000
1709212377.762,-36.133,-33.691,-35.645,-31.250,0.000
1709212377.766,-35.645,-40.039,-36.133,-34.180,0.000
1709212377.770,-37.598,-36.133,-39.551,-43.457,0.000
1709212377.774,-33.203,-28.809,-38.086,-36.133,0.000
1709212377.778,-25.391,-30.273,-38.574,-18.555,0.000
1709212377.782,-25.879,-34.180,-38.086,-31.738,0.000
1709212377.785,-24.902,-32.715,-34.668,-36.621,0.000
1709212377.789,-23.438,-35.645,-30.762,-31.250,0.000
1709212377.793,-21.484,-38.574,-35.645,-33.203,0.000
1709212377.797,-15.625,-42.969,-40.039,-25.879,0.000
1709212377.801,-10.742,-42.480,-41.992,-23.438,0.000
1709212377.805,-10.254,-36.621,-37.598,-27.344,0.000
1709212377.809,-20.508,-31.738,-31.250,-28.320,0.000
1709212377.813,-27.832,-30.273,-36.133,-27.832,0.000
1709212377.817,-28.809,-39.062,-39.062,-26.367,0.000
1709212377.820,-25.879,-38.086,-37.109,-32.227,0.000
1709212377.824,-26.367,-28.809,-37.109,-38.086,0.000
1709212377.828,-39.551,-32.715,-35.156,-45.898,0.000
1709212377.832,-36.621,-32.715,-29.297,-39.062,0.000
1709212377.836,-35.645,-37.109,-30.762,-30.273,0.000
1709212377.840,-40.527,-40.039,-35.645,-38.574,0.000
1709212377.844,-38.574,-37.598,-31.738,-44.434,0.000
1709212377.848,-40.527,-35.645,-27.344,-42.480,0.000
1709212377.851,-44.434,-36.133,-32.715,-40.527,0.000
1709212377.855,-40.527,-41.016,-38.574,-44.922,0.000
1709212377.859,-29.785,-39.551,-32.715,-36.133,0.000
1709212377.863,-34.180,-32.715,-30.273,-28.809,0.000
1709212377.867,-45.410,-34.180,-41.016,-38.574,0.000
1709212377.871,-40.527,-30.762,-38.086,-38.574,0.000
1709212377.875,-33.691,-31.738,-28.320,-29.297,0.000
1709212377.879,-34.180,-39.551,-34.180,-31.250,0.000
1709212377.883,-32.227,-36.133,-39.062,-40.039,0.000
1709212377.887,-34.180,-30.762,-37.598,-42.480,0.000
1709212377.891,0.000,-31.250,0.000,-37.598,0.000
1709212377.895,0.000,-30.273,0.000,-36.621,0.000
1709212377.899,0.000,-33.691,0.000,-33.203,0.000
1709212377.902,0.000,-40.039,0.000,-32.227,0.000
1709212377.906,0.000,-46.875,0.000,-35.156,0.000
1709212377.910,0.000,-52.734,0.000,-32.227,0.000
1709212377.914,0.000,-47.363,0.000,-29.785,0.000
1709212377.918,0.000,-43.945,0.000,-32.715,0.000
1709212377.922,0.000,-42.969,0.000,-31.250,0.000
1709212377.926,0.000,-43.945,0.000,-22.949,0.000
1709212377.930,0.000,-47.363,0.000,-30.762,0.000
1709212377.934,0.000,-49.805,0.000,-35.645,0.000
1709212377.938,-26.855,-44.434,-33.203,-21.973,0.000
1709212377.942,-30.273,-41.016,-38.086,-22.949,0.000
1709212377.946,-30.762,-48.340,-37.598,-36.621,0.000
1709212377.949,-34.668,-47.363,-34.180,-39.062,0.000
1709212377.953,-39.062,-37.109,-35.156,-41.016,0.000
1709212377.957,-33.691,-40.039,-33.203,-44.922,0.000
1709212377.961,-41.992,-53.711,-31.738,-51.270,0.000
1709212377.965,-47.363,-48.828,-35.156,-50.781,0.000
1709212377.969,-45.898,-40.527,-29.297,-36.133,0.000
1709212377.973,-54.199,-47.363,-34.180,-34.180,0.000
1709212377.977,-47.852,-41.016,-38.086,-41.504,0.000
1709212377.981,-43.457,-43.945,-33.691,-37.598,0.000
1709212377.985,-46.875,-55.664,-41.992,-38.574,0.000
1709212377.989,-43.457,-41.504,-46.875,-41.992,0.000
1709212377.992,-34.180,-32.715,-40.527,-34.180,0.000
1709212377.996,-32.227,-41.504,-41.504,-34.668,0.000
1709212378.000,-24.902,-40.039,-37.598,-29.297,0.000
1709212378.004,-22.461,-36.621,-33.691,-28.809,0.000
1709212378.008,-31.738,-40.527,-40.039,-37.109,0.000
1709212378.012,-31.250,-36.621,-45.898,-40.039,0.000
1709212378.016,-22.461,-36.133,-44.922,-34.180,0.000
1709212378.020,-19.531,-31.250,-42.480,-33.691,0.000
1709212378.024,-27.832,-31.738,-45.898,-41.992,0.000
1709212378.028,-32.227,-35.645,-38.574,-41.504,0.000
1709212378.032,-34.180,-39.551,-41.992,-41.016,0.000
1709212378.035,-30.273,-40.039,-46.875,-40.527,0.000
1709212378.039,-22.949,-31.738,-42.480,-41.016,0.000
1709212378.043,-27.832,-37.598,-40.039,-48.340,0.000
1709212378.047,-41.992,-36.621,-41.992,-51.758,0.000
1709212378.051,-51.270,-34.180,-42.969,-52.246,0.000
1709212378.055,-55.664,-44.922,-42.480,-54.199,0.000
1709212378.059,-58.594,-49.805,-45.410,-52.246,0.000
1709212378.063,-60.059,-50.293,-48.828,-41.504,0.000
1709212378.067,-65.918,-51.758,-46.387,-53.223,0.000
1709212378.071,-74.219,-58.594,-43.457,-65.918,0.000
1709212378.075,-73.730,-54.688,-41.504,-61.035,0.000
1709212378.078,-63.477,-42.480,-36.621,-51.270,0.000
1709212378.082,-52.246,-46.387,-36.133,-50.293,0.000
1709212378.086,-52.734,-51.270,-32.227,-49.805,0.000
1709212378.090,-58.105,-44.922,-27.832,-47.852,0.000
1709212378.094,-53.711,-44.922,-28.320,-45.410,0.000
1709212378.098,-46.875,-57.617,-32.227,-41.992,0.000
1709212378.102,-42.969,-57.129,-39.062,-42.480,0.000
1709212378.106,-37.598,-39.062,-40.527,-31.738,0.000
1709212378.110,-38.574,-34.180,-38.086,-26.855,0.000
1709212378.114,-37.598,-36.133,-41.016,-35.645,0.000
1709212378.117,-26.855,-34.668,-41.504,-43.457,0.000
1709212378.121,-26.855,-41.016,-42.969,-52.246,0.000
1709212378.125,-28.320,-45.898,-46.875,-58.105,0.000
1709212378.129,-20.996,-38.574,-41.992,-56.641,0.000
1709212378.133,-30.273,-38.574,-44.434,-55.176,0.000
1709212378.137,-41.016,-45.410,-51.270,-58.105,0.000
1709212378.141,-41.992,-45.410,-50.781,-60.547,0.000
1709212378.145,-43.945,-42.480,-43.945,-62.012,0.000
1709212378.149,-43.945,-38.086,-37.109,-57.617,0.000
1709212378.153,-43.945,-34.180,-38.086,-51.270,0.000
1709212378.156,-42.969,-40.039,-39.551,-57.129,0.000
1709212378.160,-37.598,-48.828,-35.645,-48.828,0.000
1709212378.164,-36.621,-48.340,-36.621,-43.945,0.000
1709212378.168,-43.457,-41.992,-37.598,-44.434,0.000
1709212378.172,-50.781,-43.945,-36.133,-37.109,0.000
1709212378.176,-49.316,-52.734,-34.668,-36.621,0.000
1709212378.180,-45.898,-54.688,-35.645,-39.551,0.000
1709212378.184,-43.945,-48.828,-41.016,-41.992,0.000
1709212378.188,-51.270,-46.387,-45.410,-48.828,0.000
1709212378.191,-64.941,-51.270,-43.457,-51.758,0.000
1709212378.195,-66.406,-52.734,-43.457,-39.551,0.000
1709212378.199,-58.594,-49.316,-45.410,-33.203,0.000
1709212378.203,-52.734,-48.828,-41.504,-38.086,0.000
1709212378.207,-54.199,-48.340,-31.738,-34.180,0.000
1709212378.211,-64.941,-51.270,-32.715,-30.273,0.000
1709212378.215,-68.359,-55.664,-35.156,-35.645,0.000
1709212378.219,-61.523,-61.035,-39.551,-38.086,0.000
1709212378.222,-54.199,-64.941,-43.457,-29.297,0.000
1709212378.226,-48.340,-55.176,-41.992,-31.738,0.000
1709212378.230,-44.434,-42.480,-42.969,-35.645,0.000
1709212378.234,-39.551,-46.387,-44.922,-38.574,0.000
1709212378.238,-27.832,-54.688,-41.016,-31.250,0.000
1709212378.242,-28.809,-54.199,-40.039,-20.996,0.000
1709212378.246,-27.344,-43.945,-36.621,-33.691,0.000
1709212378.250,-27.344,-38.574,-35.156,-42.969,0.000
1709212378.254,-29.785,-40.527,-36.621,-40.039,0.000
1709212378.258,-27.344,-40.039,-41.016,-38.086,0.000
1709212378.262,-26.855,-30.762,-46.387,-34.668,0.000
1709212378.266,-31.250,-30.273,-39.551,-33.691,0.000
1709212378.270,-40.039,-45.410,-36.133,-36.621,0.000
1709212378.273,-41.016,-53.711,-40.039,-36.621,0.000
1709212378.277,-32.715,-42.480,-32.715,-29.785,0.000
1709212378.281,-28.320,-35.156,-25.391,-26.855,0.000
1709212378.285,-31.250,-39.551,-26.855,-30.762,0.000
1709212378.289,-37.598,-41.016,-36.133,-37.109,0.000
1709212378.293,-34.180,-35.156,-34.668,-30.273,0.000
1709212378.297,-22.949,-37.598,-32.227,-22.949,0.000
1709212378.301,-24.902,-45.898,-37.598,-16.113,0.000
1709212378.305,-30.273,-39.062,-35.156,-24.414,0.000
1709212378.309,-29.785,-35.645,-31.738,-36.133,0.000
1709212378.313,-36.133,-41.016,-37.109,-38.086,0.000
1709212378.317,-37.598,-42.480,-32.227,-33.203,0.000
1709212378.320,-39.062,-46.875,-34.180,-40.039,0.000
1709212378.324,-40.039,-45.898,-35.156,-42.969,0.000
1709212378.328,-47.363,-40.527,-35.645,-43.945,0.000
1709212378.332,-63.965,-43.457,-42.480,-48.828,0.000
1709212378.336,-69.824,-42.969,-42.969,-42.969,0.000
1709212378.340,-60.547,-41.992,-39.551,-48.340,0.000
1709212378.344,-62.012,-50.781,-41.992,-56.152,0.000
1709212378.348,-73.242,-53.711,-48.828,-54.199,0.000
1709212378.352,-81.055,-45.410,-51.758,-64.941,0.000
1709212378.356,-71.289,-39.062,-48.828,-62.012,0.000
1709212378.360,-49.316,-35.645,-37.109,-49.316,0.000
1709212378.363,-36.133,-32.715,-34.180,-45.410,0.000
1709212378.367,-31.738,-26.367,-35.645,-47.852,0.000
1709212378.371,-34.180,-21.973,-34.668,-46.875,0.000
1709212378.375,-28.809,-30.762,-39.551,-41.016,0.000
1709212378.379,-22.461,-41.992,-44.922,-41.504,0.000
1709212378.383,-25.391,-48.828,-48.340,-48.340,0.000
1709212378.387,-28.809,-40.039,-48.828,-47.363,0.000
1709212378.391,-28.809,-25.391,-45.410,-28.809,0.000
1709212378.395,-28.320,-20.020,-41.504,-29.297,0.000
1709212378.399,-34.180,-27.344,-49.805,-42.480,0.000
1709212378.402,-33.203,-34.668,-52.246,-35.645,0.000
1709212378.406,-31.250,-41.504,-46.387,-36.621,0.000
1709212378.410,-35.645,-41.504,-37.109,-41.504,0.000
1709212378.414,-42.480,-44.434,-41.504,-53.711,0.000
1709212378.418,-39.062,-41.992,-44.434,-61.523,0.000
1709212378.422,-38.574,-40.039,-41.504,-62.988,0.000
1709212378.426,-39.062,-45.410,-35.645,-59.570,0.000
1709212378.430,-40.039,-42.480,-31.738,-61.035,0.000
1709212378.434,-49.805,-42.969,-33.691,-64.453,0.000
1709212378.438,-59.082,-50.293,-34.180,-58.105,0.000
1709212378.442,-54.688,-46.875,-34.180,-67.383,0.000
1709212378.445,-54.199,-48.340,-31.250,-69.824,0.000
1709212378.449,-60.547,-53.711,-27.344,-65.430,0.000
1709212378.453,-63.965,-56.152,-26.855,-64.941,0.000
1709212378.457,-60.059,-56.152,-30.762,-52.734,0.000
1709212378.461,-41.504,-46.875,-33.203,-44.922,0.000
1709212378.465,-28.320,-44.434,-31.738,-44.434,0.000
1709212378.469,-23.438,-42.969,-27.832,-44.922,0.000
1709212378.473,-30.762,-32.715,-22.461,-44.434,0.000
1709212378.477,-35.156,-31.738,-31.738,-42.480,0.000
1709212378.481,-22.949,-33.691,-34.180,-25.879,0.000
1709212378.484,-24.414,-32.227,-33.203,-22.949,0.000
1709212378.488,-32.715,-29.785,-36.133,-32.227,0.000
1709212378.492,-32.227,-42.480,-38.086,-30.273,0.000
1709212378.496,-32.715,-55.176,-40.527,-29.297,0.000
1709212378.500,-21.973,-46.875,-40.039,-20.508,0.000
1709212378.504,-11.230,-38.574,-38.086,-14.648,0.000
1709212378.508,-21.484,-41.016,-34.180,-13.184,0.000
1709212378.512,-29.785,-40.527,-35.645,-11.230,0.000
1709212378.516,-25.391,-36.133,-39.062,-10.742,0.000
1709212378.520,-22.949,-39.551,-36.133,0.488,0.000
1709212378.523,-23.926,-54.199,-35.156,9.766,0.000
1709212378.527,-26.367,-55.176,-37.109,6.348,0.000
1709212378.531,-35.645,-41.504,-37.598,-8.301,0.000
1709212378.535,-41.016,-39.551,-37.109,-9.277,0.000
1709212378.539,-35.645,-46.387,-34.668,-7.324,0.000
1709212378.543,-36.621,-60.547,-38.574,-16.113,0.000
1709212378.547,-36.133,-52.734,-37.109,-17.090,0.000
1709212378.551,-40.527,-46.387,-37.109,-22.949,0.000
1709212378.555,-41.992,-40.527,-37.109,-25.879,0.000
1709212378.558,-37.109,-32.227,-41.016,-29.785,0.000
1709212378.562,-44.434,-39.062,-48.340,-50.293,0.000
1709212378.566,-57.129,-43.945,-52.246,-67.383,0.000
1709212378.570,-64.453,-37.109,-46.387,-65.918,0.000
1709212378.574,-64.941,-37.598,-37.109,-49.805,0.000
1709212378.578,-55.176,-43.945,-35.156,-48.340,0.000
1709212378.582,-42.969,-38.574,-36.133,-56.641,0.000
1709212378.586,-42.480,-38.574,-43.945,-60.059,0.000
1709212378.590,-43.457,-34.180,-49.805,-59.082,0.000
1709212378.593,-39.551,-24.902,-42.969,-51.758,0.000
1709212378.597,-43.457,-35.645,-47.363,-49.805,0.000
1709212378.601,-43.945,-43.457,-52.246,-40.527,0.000
1709212378.605,-37.598,-35.156,-40.527,-28.809,0.000
1709212378.609,-46.875,-32.715,-41.992,-41.504,0.000
1709212378.613,-50.781,-38.086,-48.340,-39.551,0.000
1709212378.617,-44.922,-41.504,-43.457,-18.555,0.000
1709212378.621,-48.340,-41.016,-45.898,-26.367,0.000
1709212378.625,-51.270,-39.062,-51.270,-35.645,0.000
1709212378.629,-55.176,-38.574,-49.316,-36.133,0.000
1709212378.632,-52.734,-31.738,-45.898,-31.250,0.000
1709212378.636,-44.922,-27.344,-41.504,-31.250,0.000
1709212378.640,-38.086,-31.738,-38.086,-37.598,0.000
1709212378.644,-36.621,-38.574,-37.109,-36.133,0.000
1709212378.648,-36.621,-35.645,-36.133,-28.809,0.000
1709212378.652,-33.203,-35.645,-28.809,-22.949,0.000
1709212378.656,-33.691,-43.457,-27.832,-20.020,0.000
1709212378.660,-28.320,-44.922,-40.039,-20.508,0.000
1709212378.664,-20.508,-47.363,-40.527,-28.809,0.000
1709212378.668,-23.438,-42.480,-40.039,-32.715,0.000
1709212378.672,-24.902,-33.203,-38.086,-27.832,0.000
1709212378.676,-15.137,-31.250,-30.273,-7.812,0.000
1709212378.680,-12.207,-28.320,-37.598,-12.695,0.000
1709212378.683,-13.184,-29.785,-45.410,-28.320,0.000
1709212378.687,-11.230,-36.133,-35.645,-26.855,0.000
1709212378.691,-20.996,-36.133,-34.180,-32.715,0.000
1709212378.695,-32.715,-34.180,-42.480,-37.109,0.000
1709212378.699,-34.668,-38.086,-41.992,-38.086,0.000
1709212378.703,-31.250,-42.969,-35.156,-40.527,0.000
1709212378.707,-35.156,-47.852,-30.762,-47.363,0.000
1709212378.711,-48.340,-49.805,-40.527,-61.523,0.000
1709212378.715,-49.316,-49.316,-41.504,-60.547,0.000
1709212378.719,-46.875,-51.758,-38.086,-55.176,0.000
1709212378.723,-51.270,-50.293,-45.410,-49.805,0.000
1709212378.727,-58.594,-41.992,-50.781,-60.059,0.000
1709212378.730,-62.500,-42.480,-46.875,-59.082,0.000
1709212378.734,-61.035,-45.898,-45.410,-49.805,0.000
1709212378.738,-53.711,-43.457,-43.457,-44.434,0.000
1709212378.742,-50.293,-46.875,-39.551,-43.945,0.000
1709212378.746,-55.664,-55.176,-39.062,-49.316,0.000
1709212378.750,-55.664,-49.805,-32.715,-46.875,0.000
1709212378.754,-48.828,-41.016,-30.762,-44.922,0.000
1709212378.758,-44.434,-36.621,-32.715,-38.574,0.000
1709212378.762,-42.480,-36.133,-37.109,-38.574,0.000
1709212378.766,-42.480,-40.039,-41.016,-33.203,0.000
1709212378.770,-39.551,-39.062,-45.898,-27.344,0.000
1709212378.773,-39.551,-39.062,-42.969,-34.668,0.000
1709212378.777,-30.762,-42.480,-38.574,-34.180,0.000
1709212378.781,0.000,-46.875,-39.062,-31.738,0.000
1709212378.785,0.000,-44.922,-41.992,-32.227,0.000
1709212378.789,0.000,-37.598,-43.945,-29.785,0.000
1709212378.793,0.000,-35.156,-44.922,-28.809,0.000
1709212378.797,0.000,-27.832,-36.621,-20.508,0.000
1709212378.801,0.000,-27.344,-35.645,-18.555,0.000
1709212378.805,0.000,-35.156,-43.945,-22.949,0.000
1709212378.809,0.000,-32.227,-38.574,-19.043,0.000
1709212378.813,0.000,-26.855,-35.156,-15.137,0.000
1709212378.816,0.000,-24.414,-37.598,-21.484,0.000
1709212378.820,0.000,-26.855,-43.945,-24.414,0.000
1709212378.824,0.000,-33.691,-46.387,-20.508,0.000
1709212378.828,-20.508,-38.574,-40.039,-20.996,0.000
1709212378.832,-27.344,-30.762,-36.621,-28.809,0.000
1709212378.836,-28.320,-24.414,-39.062,-30.273,0.000
1709212378.840,-26.367,-25.879,-32.715,-25.391,0.000
1709212378.844,-32.227,-33.203,-35.156,-34.180,0.000
1709212378.848,-38.086,-42.480,-37.109,-38.574,0.000
1709212378.852,-48.340,-51.270,-32.227,-42.969,0.000
1709212378.855,-55.176,-57.129,-34.668,-41.016,0.000
1709212378.859,-42.969,-51.758,-33.691,-36.133,0.000
1709212378.863,-36.621,-47.363,-30.762,-43.457,0.000
1709212378.867,-38.086,-48.828,-32.227,-44.434,0.000
1709212378.871,-44.434,-46.387,-33.203,-39.551,0.000
1709212378.875,-39.062,-46.875,-29.785,-34.180,0.000
1709212378.879,-36.621,-45.410,-33.691,-31.250,0.000
1709212378.883,-39.062,-50.293,-34.180,-32.227,0.000
1709212378.887,-34.180,-48.340,-32.715,-34.180,0.000
1709212378.890,-32.715,-39.551,-30.762,-32.715,0.000
1709212378.894,-28.809,-43.945,-30.273,-27.344,0.000
1709212378.898,-26.367,-47.852,-37.109,-21.484,0.000
1709212378.902,-31.738,-49.805,-41.504,-15.137,0.000
1709212378.906,-30.273,-48.828,-44.434,-25.879,0.000
1709212378.910,-26.855,-42.969,-41.992,-29.785,0.000
1709212378.914,-28.320,-47.363,-44.434,-29.297,0.000
1709212378.918,-25.391,-51.270,-49.805,-38.574,0.000
1709212378.922,-18.555,-38.086,-43.945,-36.621,0.000
1709212378.926,-22.461,-31.738,-44.434,-35.645,0.000
1709212378.929,-34.180,-39.062,-54.199,-44.922,0.000
1709212378.933,-32.227,-33.203,-55.176,-45.410,0.000
1709212378.937,-26.367,-27.832,-49.805,-39.062,0.000
1709212378.941,-32.715,-40.039,-56.152,-38.086,0.000
1709212378.945,-39.062,-41.504,-56.152,-33.691,0.000
1709212378.949,-45.410,-36.133,-54.199,-38.574,0.000
1709212378.953,-45.410,-38.086,-54.199,-49.805,0.000
1709212378.957,-34.668,-43.945,-47.852,-41.504,0.000
1709212378.961,-30.762,-45.410,-54.199,-44.434,0.000
1709212378.965,-33.203,-43.457,-55.664,-49.805,0.000
1709212378.968,-40.039,-41.992,-46.875,-43.945,0.000
1709212378.972,-41.504,-33.691,-49.316,-45.898,0.000
1709212378.976,-37.109,-30.273,-48.340,-40.527,0.000
1709212378.980,-35.645,-37.109,-41.992,-31.250,0.000
1709212378.984,-36.133,-39.551,-40.527,-37.598,0.000
1709212378.988,-41.504,-41.504,-41.992,-40.039,0.000
1709212378.992,-45.410,-45.410,-42.480,-31.250,0.000
1709212378.996,-47.363,-42.969,-43.945,-37.109,0.000
1709212379.000,-49.316,-39.551,-42.969,-42.480,0.000
1709212379.003,-46.387,-33.691,-43.457,-44.434,0.000
1709212379.007,-47.363,-42.480,-44.434,-52.246,0.000
1709212379.011,-55.176,-59.082,-47.363,-60.547,0.000
1709212379.015,-51.758,-47.363,-41.504,-50.781,0.000
1709212379.019,-43.945,-36.133,-35.645,-38.574,0.000
1709212379.023,-38.574,-44.434,-31.250,-38.574,0.000
1709212379.027,-37.109,-44.434,-34.180,-43.945,0.000
1709212379.031,-40.039,-41.992,-31.738,-44.434,0.000
1709212379.035,-44.922,-48.828,-27.832,-47.852,0.000
1709212379.039,-40.039,-51.270,-30.273,-49.805,0.000
1709212379.043,-33.691,-54.688,-32.227,-47.852,0.000
1709212379.047,-35.645,-53.223,-36.621,-46.387,0.000
1709212379.050,-34.668,-44.922,-33.203,-34.668,0.000
1709212379.054,-37.109,-38.086,-37.598,-33.691,0.000
1709212379.058,-33.203,-36.621,-41.992,-32.715,0.000
1709212379.062,-27.344,-36.133,-46.387,-30.273,0.000
1709212379.066,-32.715,-35.645,-55.176,-28.320,0.000
1709212379.070,-33.203,-35.156,-54.688,-24.902,0.000
1709212379.074,-33.691,-41.504,-53.711,-28.320,0.000
1709212379.078,-33.691,-41.016,-55.664,-26.367,0.000
1709212379.082,-27.344,-29.297,-59.082,-24.414,0.000
1709212379.086,-26.367,-26.367,-61.523,-25.879,0.000
1709212379.090,-29.785,-35.645,-56.152,-27.344,0.000
1709212379.094,-21.973,-37.109,-53.223,-16.602,0.000
1709212379.097,-11.719,-27.344,-60.547,-1.953,0.000
1709212379.101,-14.648,-26.855,-62.500,-18.066,0.000
1709212379.105,-19.531,-26.855,-61.035,-29.297,0.000
1709212379.109,-28.320,-28.320,-66.406,-36.621,0.000
1709212379.113,-32.715,-28.809,-67.383,-46.875,0.000
1709212379.117,-30.762,-33.691,-65.430,-48.340,0.000
1709212379.121,-25.879,-40.039,-60.059,-41.992,0.000
1709212379.125,-32.715,-42.480,-55.176,-42.480,0.000
1709212379.129,-43.457,-41.016,-56.152,-52.246,0.000
1709212379.133,-34.668,-32.715,-49.316,-51.270,0.000
1709212379.137,-28.809,-28.809,-46.875,-44.434,0.000
1709212379.141,-33.203,-35.645,-49.805,-35.645,0.000
1709212379.144,-32.227,-32.227,-38.574,-31.738,0.000
1709212379.148,-43.457,-35.156,-36.621,-45.898,0.000
1709212379.152,-47.852,-45.410,-34.668,-43.945,0.000
1709212379.156,-40.039,-47.363,-23.926,-27.344,0.000
1709212379.160,-39.551,-48.340,-20.996,-32.227,0.000
1709212379.164,-41.504,-56.641,-20.996,-41.992,0.000
1709212379.168,-49.316,-46.875,-21.484,-43.457,0.000
1709212379.172,-47.852,-30.762,-14.160,-37.109,0.000
1709212379.176,-48.828,-50.293,-15.625,-38.086,0.000
1709212379.180,-50.781,-53.711,-25.391,-45.410,0.000
1709212379.184,-46.387,-41.992,-31.738,-43.945,0.000
1709212379.187,-44.922,-41.504,-34.180,-29.297,0.000
1709212379.191,-49.805,-39.551,-35.645,-35.645,0.000
1709212379.195,-51.758,-58.105,-33.691,-45.898,0.000
1709212379.199,-45.898,-61.035,-31.738,-37.598,0.000
1709212379.203,-43.945,-43.457,-40.039,-34.180,0.000
1709212379.207,-48.340,-44.922,-41.504,-38.574,0.000
1709212379.211,-47.852,-36.133,-42.969,-37.109,0.000
1709212379.215,-50.781,-28.809,-45.410,-41.016,0.000
1709212379.219,-41.504,-37.109,-33.691,-41.016,0.000
1709212379.223,-29.785,-41.016,-23.438,-35.645,0.000
1709212379.226,-37.598,-42.480,-20.508,-37.109,0.000
1709212379.230,-46.875,-49.805,-24.414,-29.785,0.000
1709212379.234,-49.316,-52.734,-31.250,-36.133,0.000
1709212379.238,-45.898,-42.969,-28.320,-42.480,0.000
1709212379.242,-42.969,-42.969,-17.578,-27.832,0.000
1709212379.246,-46.875,-55.664,-13.184,-25.391,0.000
1709212379.250,-55.176,-56.641,-19.531,-41.992,0.000
1709212379.254,-54.688,-54.199,-26.855,-42.480,0.000
1709212379.258,-51.758,-54.199,-25.879,-31.738,0.000
1709212379.261,-47.363,-61.523,-23.438,-31.250,0.000
1709212379.265,-49.805,-63.965,-27.832,-45.410,0.000
1709212379.269,-58.594,-54.688,-31.250,-53.711,0.000
1709212379.273,-59.082,-49.805,-29.785,-45.410,0.000
1709212379.277,-50.293,-56.152,-29.297,-31.738,0.000
1709212379.281,-50.781,-59.570,-33.203,-40.527,0.000
1709212379.285,-48.828,-45.410,-33.691,-44.434,0.000
1709212379.289,-45.410,-43.457,-38.574,-44.922,0.000
1709212379.293,-52.734,-49.805,-45.410,-48.340,0.000
