timestamps,TP9,AF7,AF8,TP10,Right AUX
1709297684.648,-7.812,-29.297,-32.715,-44.922,0.000
1709297684.652,-53.711,-25.879,-33.691,-64.453,0.000
1709297684.656,-69.336,-29.297,-35.645,-56.152,0.000
1709297684.660,-33.203,-30.273,-29.785,-17.578,0.000
1709297684.663,0.000,-30.273,-27.344,-0.488,0.000
1709297684.667,-14.648,-34.668,-28.320,-25.879,0.000
1709297684.671,-56.152,-35.156,-24.902,-50.293,0.000
1709297684.675,-73.730,-34.180,-24.902,-49.805,0.000
1709297684.679,-36.133,-32.715,-25.391,-16.113,0.000
1709297684.683,5.859,-33.691,-24.414,8.789,0.000
1709297684.687,5.371,-33.691,-24.414,-10.254,0.000
1709297684.691,-33.691,-31.738,-25.879,-33.203,0.000
1709297684.695,-65.918,-33.203,-23.438,-29.785,0.000
1709297684.699,-43.945,-33.691,-21.484,-7.324,0.000
1709297684.703,4.395,-30.762,-22.949,9.277,0.000
1709297684.706,3.418,-30.273,-23.438,0.488,0.000
1709297684.710,-37.598,-31.738,-28.320,-32.715,0.000
1709297684.714,-62.012,-30.762,-27.344,-42.480,0.000
1709297684.718,-35.156,-27.344,-29.297,-13.672,0.000
1709297684.722,19.531,-25.391,-32.227,7.812,0.000
1709297684.726,27.832,-28.320,-33.203,-6.348,0.000
1709297684.730,-20.508,-29.785,-36.133,-36.621,0.000
1709297684.734,-57.617,-29.297,-33.691,-44.922,0.000
1709297684.738,-39.551,-29.785,-35.645,-26.367,0.000
1709297684.742,-5.859,-36.133,-38.574,-5.371,0.000
1709297684.746,0.977,-37.598,-42.969,-20.508,0.000
1709297684.749,-31.250,-33.203,-47.852,-57.617,0.000
1709297684.753,-65.918,-36.133,-39.551,-54.199,0.000
1709297684.757,-60.547,-37.109,-32.715,-22.949,0.000
1709297684.761,-15.137,-30.273,-35.156,-5.371,0.000
1709297684.765,9.766,-32.227,-35.645,-15.625,0.000
1709297684.769,-20.996,-39.551,-37.109,-38.086,0.000
1709297684.773,-64.453,-35.645,-39.551,-45.410,0.000
1709297684.777,-51.758,-30.762,-34.180,-34.180,0.000
1709297684.781,-11.230,-33.691,-33.691,-16.602,0.000
1709297684.785,11.719,-32.715,-33.691,-20.020,0.000
1709297684.788,-16.602,-32.715,-33.691,-46.387,0.000
1709297684.792,-60.059,-30.273,-36.133,-66.406,0.000
1709297684.796,-55.664,-27.344,-34.180,-42.480,0.000
1709297684.800,-18.555,-28.809,-31.738,-4.883,0.000
1709297684.804,15.625,-25.879,-30.762,-4.395,0.000
1709297684.808,-2.441,-27.344,-26.855,-36.133,0.000
1709297684.812,-51.270,-31.250,-26.367,-63.965,0.000
1709297684.816,-60.059,-31.738,-27.344,-51.270,0.000
1709297684.820,-20.508,-25.879,-28.320,-27.344,0.000
1709297684.824,16.602,-24.902,-28.809,-27.832,0.000
1709297684.828,-3.906,-28.320,-27.832,-47.852,0.000
1709297684.831,-55.176,-30.273,-29.297,-68.848,0.000
1709297684.835,0.000,-26.855,-31.250,-62.012,0.000
1709297684.839,0.000,-21.484,-26.367,-29.297,0.000
1709297684.843,0.000,-25.879,-22.949,-9.766,0.000
1709297684.847,0.000,-26.367,-25.879,-25.391,0.000
1709297684.851,0.000,-22.461,-24.902,-42.480,0.000
1709297684.855,0.000,-26.855,-23.438,-37.598,0.000
1709297684.859,0.000,-26.367,-22.461,-10.254,0.000
1709297684.863,0.000,-22.949,-19.043,12.695,0.000
1709297684.867,0.000,-30.273,-20.508,-4.883,0.000
1709297684.871,0.000,-33.203,-26.855,-41.016,0.000
1709297684.874,0.000,-31.738,-30.762,-47.363,0.000
1709297684.878,0.000,-34.180,-32.227,-23.438,0.000
1709297684.882,-22.461,-34.668,-30.273,-10.742,0.000
1709297684.886,-18.066,-36.621,-25.391,-18.066,0.000
1709297684.890,-58.105,-41.016,-24.414,-28.320,0.000
1709297684.894,-92.773,-38.086,-28.809,-40.527,0.000
1709297684.898,-77.637,-38.086,-31.738,-34.180,0.000
1709297684.902,-43.457,-38.086,-33.691,-24.414,0.000
1709297684.906,-30.762,-39.062,-36.133,-36.621,0.000
1709297684.910,-63.477,-41.016,-36.133,-66.895,0.000
1709297684.913,-100.586,-38.574,-35.645,-77.637,0.000
1709297684.917,-84.473,-36.621,-38.086,-53.223,0.000
1709297684.921,-41.016,-39.062,-36.621,-16.602,0.000
1709297684.925,-16.602,-33.691,-31.738,-18.066,0.000
1709297684.929,-36.133,-30.273,-35.156,-52.734,0.000
1709297684.933,-74.707,-36.621,-38.574,-63.477,0.000
1709297684.937,-70.801,-35.156,-31.738,-35.645,0.000
1709297684.941,-24.902,-33.203,-27.344,-11.719,0.000
1709297684.945,-0.977,-34.668,-28.809,-15.137,0.000
1709297684.949,-28.809,-39.062,-31.250,-37.598,0.000
1709297684.953,-75.684,-39.062,-39.062,-51.758,0.000
1709297684.956,-80.078,-37.109,-42.969,-44.434,0.000
1709297684.960,-32.715,-38.086,-38.574,-21.484,0.000
1709297684.964,-0.488,-38.086,-36.621,-6.348,0.000
1709297684.968,-21.484,-35.156,-37.109,-18.555,0.000
1709297684.972,-61.523,-33.691,-35.645,-40.039,0.000
1709297684.976,-60.059,-34.180,-29.297,-23.926,0.000
1709297684.980,-18.066,-31.250,-25.391,6.836,0.000
1709297684.984,9.277,-30.273,-27.832,1.465,0.000
1709297684.988,-10.742,-36.621,-31.738,-24.414,0.000
1709297684.992,-52.246,-38.574,-29.785,-42.969,0.000
1709297684.995,-71.289,-37.598,-27.832,-35.156,0.000
1709297684.999,-42.969,-38.574,-34.180,-18.066,0.000
1709297685.003,-6.836,-38.086,-34.180,-21.973,0.000
1709297685.007,-15.137,-37.109,-30.273,-42.480,0.000
1709297685.011,-52.734,-34.180,-30.273,-62.500,0.000
1709297685.015,-74.707,-34.180,-31.250,-45.898,0.000
1709297685.019,-41.992,-38.574,-35.645,-19.531,0.000
1709297685.023,4.395,-41.016,-35.645,-16.113,0.000
1709297685.027,0.000,-44.434,-35.156,-34.180,0.000
1709297685.031,-42.480,-47.852,-35.645,-59.570,0.000
1709297685.035,-64.453,-43.945,-30.273,-54.199,0.000
1709297685.038,-40.039,-41.504,-29.297,-30.762,0.000
1709297685.042,1.465,-47.852,-35.645,-21.973,0.000
1709297685.046,1.465,-43.457,-36.621,-34.180,0.000
1709297685.050,-37.109,-37.598,-36.621,-65.918,0.000
1709297685.054,-67.871,-40.039,-39.551,-67.871,0.000
1709297685.058,-47.363,-42.480,-40.527,-20.508,0.000
1709297685.062,3.418,-41.504,-40.039,3.906,0.000
1709297685.066,9.277,-41.504,-38.574,-21.484,0.000
1709297685.070,-27.344,-40.527,-38.086,-40.039,0.000
1709297685.074,-60.059,-38.574,-35.645,-51.758,0.000
1709297685.078,-41.016,-37.109,-36.133,-55.176,0.000
1709297685.081,10.742,-35.645,-38.086,-27.832,0.000
1709297685.085,24.414,-35.645,-41.016,-30.273,0.000
1709297685.089,-19.043,-34.668,-42.480,-60.059,0.000
1709297685.093,-62.988,-33.203,-40.039,-68.359,0.000
1709297685.097,-49.805,-32.715,-41.992,-48.340,0.000
1709297685.101,0.977,-34.180,-42.969,-12.695,0.000
1709297685.105,22.461,-33.203,-40.527,-8.789,0.000
1709297685.109,-5.371,-36.621,-42.969,-40.527,0.000
1709297685.113,-46.875,-38.086,-41.016,-57.129,0.000
1709297685.117,-52.734,-39.551,-39.062,-45.898,0.000
1709297685.120,-10.254,-42.969,-42.480,-23.438,0.000
1709297685.124,22.949,-40.527,-43.457,-13.672,0.000
1709297685.128,-1.465,-39.062,-41.504,-30.273,0.000
1709297685.132,-42.969,-37.109,-39.551,-39.062,0.000
1709297685.136,-37.598,-39.551,-39.551,-20.020,0.000
1709297685.140,-0.977,-34.180,-36.621,-0.977,0.000
1709297685.144,27.832,-32.227,-28.809,9.766,0.000
1709297685.148,-0.977,-39.551,-28.809,-11.230,0.000
1709297685.152,-57.617,-41.016,-32.715,-54.199,0.000
1709297685.156,-65.918,-36.133,-33.691,-44.922,0.000
1709297685.160,-27.344,-33.203,-32.227,-6.348,0.000
1709297685.163,11.719,-32.227,-36.133,2.930,0.000
1709297685.167,-5.859,-30.762,-41.504,-32.227,0.000
1709297685.171,-48.828,-34.180,-36.133,-63.965,0.000
1709297685.175,-65.918,-39.062,-36.133,-58.105,0.000
1709297685.179,-38.574,-38.086,-37.598,-23.926,0.000
1709297685.183,8.301,-36.133,-31.250,-13.184,0.000
1709297685.187,2.930,-39.551,-29.785,-34.668,0.000
1709297685.191,-51.270,-46.387,-35.156,-51.758,0.000
1709297685.195,-83.984,-45.410,-36.133,-55.176,0.000
1709297685.199,-62.988,-45.410,-39.062,-41.992,0.000
1709297685.203,-23.926,-50.293,-43.945,-25.879,0.000
1709297685.206,-30.762,-53.223,-47.852,-32.715,0.000
1709297685.210,-68.848,-57.617,-50.781,-56.641,0.000
1709297685.214,-87.891,-57.129,-52.246,-71.777,0.000
1709297685.218,-67.383,-52.734,-54.199,-61.523,0.000
1709297685.222,-32.227,-62.988,-56.641,-44.922,0.000
1709297685.226,-27.832,-62.988,-56.152,-56.152,0.000
1709297685.230,-54.688,-53.711,-52.246,-78.613,0.000
1709297685.234,-83.008,-57.129,-47.363,-77.148,0.000
1709297685.238,-75.684,-58.594,-48.340,-45.410,0.000
1709297685.242,-25.879,-59.570,-52.734,-33.691,0.000
1709297685.245,-13.672,-59.082,-51.270,-48.340,0.000
1709297685.249,-55.664,-58.105,-50.293,-61.035,0.000
1709297685.253,-93.262,-56.641,-53.223,-60.547,0.000
1709297685.257,-83.008,-54.688,-56.152,-46.875,0.000
1709297685.261,-32.227,-55.664,-56.152,-21.484,0.000
1709297685.265,-1.465,-54.199,-52.246,-12.695,0.000
1709297685.269,-27.344,-52.246,-49.805,-42.480,0.000
1709297685.273,-71.777,-52.246,-52.734,-64.453,0.000
1709297685.277,-72.266,-54.199,-51.270,-42.480,0.000
1709297685.281,-33.691,-50.781,-47.852,-5.859,0.000
1709297685.285,-10.742,-46.387,-49.316,-2.441,0.000
1709297685.288,-36.133,-46.387,-51.758,-32.227,0.000
1709297685.292,-72.754,-50.781,-50.293,-47.363,0.000
1709297685.296,-71.777,-49.805,-54.199,-32.715,0.000
1709297685.300,-29.297,-44.434,-55.664,-10.742,0.000
1709297685.304,9.277,-43.457,-47.363,-2.441,0.000
1709297685.308,-12.695,-44.922,-45.898,-25.391,0.000
1709297685.312,-57.617,-44.434,-46.387,-50.781,0.000
1709297685.316,-66.406,-37.598,-40.527,-32.227,0.000
1709297685.320,-21.973,-43.457,-37.109,1.953,0.000
1709297685.324,14.648,-52.734,-41.504,11.719,0.000
1709297685.328,-9.766,-49.805,-43.945,-12.207,0.000
1709297685.331,-56.152,-49.316,-40.527,-32.715,0.000
1709297685.335,-65.430,-46.387,-40.039,-19.043,0.000
1709297685.339,-31.738,-47.363,-41.992,12.695,0.000
1709297685.343,-4.395,-52.246,-42.969,33.691,0.000
1709297685.347,-13.672,-51.758,-44.922,6.348,0.000
1709297685.351,-54.688,-45.898,-46.387,-25.879,0.000
1709297685.355,-79.590,-45.410,-43.945,-24.902,0.000
1709297685.359,-50.293,-44.434,-40.527,-1.465,0.000
1709297685.363,-9.277,-39.551,-44.434,4.395,0.000
1709297685.367,-11.230,-39.062,-52.246,-27.832,0.000
1709297685.370,-48.340,-41.504,-51.758,-50.781,0.000
1709297685.374,-72.754,-44.922,-49.316,-42.969,0.000
1709297685.378,-43.457,-46.875,-46.387,-20.996,0.000
1709297685.382,7.324,-45.410,-44.434,-1.953,0.000
1709297685.386,5.371,-44.434,-43.457,-1.465,0.000
1709297685.390,-40.039,-47.852,-44.434,-33.203,0.000
1709297685.394,-70.312,-46.387,-45.898,-47.852,0.000
1709297685.398,-50.293,-44.922,-49.316,-17.578,0.000
1709297685.402,-12.207,-50.293,-52.734,-0.488,0.000
1709297685.406,-9.766,-47.363,-46.387,-9.277,0.000
1709297685.410,-44.434,-44.434,-45.410,-26.855,0.000
1709297685.413,-83.008,-49.805,-49.805,-32.715,0.000
1709297685.417,-74.707,-45.898,-46.387,-11.230,0.000
1709297685.421,-23.438,-34.180,-44.434,-0.977,0.000
1709297685.425,1.465,-35.645,-46.875,-15.625,0.000
1709297685.429,-27.832,-40.527,-45.898,-13.184,0.000
1709297685.433,-66.406,-47.363,-45.410,-6.836,0.000
1709297685.437,-59.570,-46.875,-44.434,-20.020,0.000
1709297685.441,-20.996,-40.527,-44.434,-31.250,0.000
1709297685.445,-4.395,-41.992,-49.805,-58.594,0.000
1709297685.449,-38.086,-43.457,-52.734,-82.031,0.000
1709297685.453,-72.266,-37.598,-51.270,-83.984,0.000
1709297685.456,-62.012,-38.086,-49.805,-56.641,0.000
1709297685.460,-22.949,-41.504,-48.340,-20.020,0.000
1709297685.464,8.301,-39.062,-47.363,-8.789,0.000
1709297685.468,-20.508,-40.039,-44.922,-29.785,0.000
1709297685.472,-79.590,-42.480,-43.457,-49.316,0.000
1709297685.476,-89.844,-40.527,-40.039,-17.090,0.000
1709297685.480,-51.758,-37.598,-41.016,14.160,0.000
1709297685.484,-22.949,-39.551,-42.969,4.883,0.000
1709297685.488,-48.828,-44.434,-40.039,-13.672,0.000
1709297685.492,-91.797,-44.922,-36.621,-26.367,0.000
1709297685.495,-102.539,-47.363,-38.086,-20.508,0.000
1709297685.499,-73.242,-52.246,-42.969,4.883,0.000
1709297685.503,-34.180,-55.176,-36.621,17.090,0.000
1709297685.507,-36.133,-52.246,-30.762,-2.930,0.000
1709297685.511,-77.637,-46.875,-37.598,-29.785,0.000
1709297685.515,-89.844,-44.922,-33.691,-35.156,0.000
1709297685.519,-59.570,-46.387,-30.762,-11.719,0.000
1709297685.523,-18.066,-45.898,-36.133,11.719,0.000
1709297685.527,-16.113,-39.062,-34.180,-20.020,0.000
1709297685.531,-56.641,-41.992,-36.621,-50.293,0.000
1709297685.535,-79.102,-40.039,-40.039,-47.852,0.000
1709297685.538,-45.898,-35.645,-39.551,-32.227,0.000
1709297685.542,-0.488,-37.109,-40.039,-15.625,0.000
1709297685.546,-3.418,-38.574,-43.457,-34.668,0.000
1709297685.550,-44.434,-39.062,-44.434,-58.594,0.000
1709297685.554,-74.219,-42.969,-43.945,-49.805,0.000
1709297685.558,-44.922,-43.457,-39.551,-22.949,0.000
1709297685.562,-0.488,-43.457,-42.480,-16.113,0.000
1709297685.566,-0.977,-43.457,-46.875,-25.879,0.000
1709297685.570,-35.156,-40.039,-48.340,-51.270,0.000
1709297685.574,-63.965,-41.016,-46.875,-68.359,0.000
1709297685.577,-49.316,-38.574,-50.781,-50.293,0.000
1709297685.581,-6.348,-43.457,-55.664,-22.461,0.000
1709297685.585,6.348,-52.246,-54.199,-26.367,0.000
1709297685.589,-22.461,-53.711,-51.758,-48.340,0.000
1709297685.593,-55.664,-51.758,-51.758,-51.270,0.000
1709297685.597,-41.504,-51.758,-48.828,-27.344,0.000
1709297685.601,6.836,-52.246,-48.828,-8.301,0.000
1709297685.605,23.926,-54.688,-52.246,-21.484,0.000
1709297685.609,-14.160,-55.664,-52.734,-46.387,0.000
1709297685.613,-64.453,-56.641,-53.223,-48.340,0.000
1709297685.617,-56.152,-52.734,-46.387,-47.363,0.000
1709297685.620,0.488,-47.363,-35.156,-21.484,0.000
1709297685.624,28.809,-52.734,-34.180,-9.277,0.000
1709297685.628,2.930,-52.734,-37.109,-48.828,0.000
1709297685.632,-38.574,-50.293,-41.016,-69.824,0.000
1709297685.636,-43.457,-52.734,-40.527,-57.129,0.000
1709297685.640,-5.859,-51.758,-37.598,-27.344,0.000
1709297685.644,21.973,-49.805,-38.574,-18.066,0.000
1709297685.648,3.906,-49.805,-38.574,-40.527,0.000
1709297685.652,-32.715,-44.434,-34.180,-54.199,0.000
1709297685.656,-36.621,-42.480,-34.180,-37.109,0.000
1709297685.660,5.371,-40.527,-39.551,-9.277,0.000
1709297685.663,39.551,-39.551,-47.363,-9.277,0.000
1709297685.667,20.508,-39.062,-51.758,-38.574,0.000
1709297685.671,-24.902,-42.480,-48.340,-59.570,0.000
1709297685.675,-32.715,-37.598,-40.527,-46.875,0.000
1709297685.679,0.000,-34.180,-43.945,-19.531,0.000
1709297685.683,34.668,-37.598,-42.969,-4.395,0.000
1709297685.687,28.809,-34.668,-38.574,-26.367,0.000
1709297685.691,-17.578,-38.574,-39.062,-53.711,0.000
1709297685.695,-43.457,-40.039,-37.109,-55.176,0.000
1709297685.699,-21.973,-37.109,-40.039,-38.574,0.000
1709297685.702,12.207,-37.109,-41.992,-16.113,0.000
1709297685.706,15.137,-32.715,-41.992,-37.598,0.000
1709297685.710,-22.949,-39.551,-41.016,-66.406,0.000
1709297685.714,-55.176,-46.387,-44.434,-61.523,0.000
1709297685.718,-32.715,-45.410,-49.316,-41.016,0.000
1709297685.722,12.207,-44.434,-49.805,-24.902,0.000
1709297685.726,14.648,-46.387,-49.316,-33.203,0.000
1709297685.730,-26.855,-46.875,-48.340,-57.617,0.000
1709297685.734,-64.453,-47.852,-48.340,-66.895,0.000
1709297685.738,-47.852,-48.340,-46.387,-42.969,0.000
1709297685.742,-4.883,-46.387,-45.898,-15.625,0.000
1709297685.745,-3.418,-51.758,-47.852,-36.133,0.000
1709297685.749,-40.527,-48.828,-47.852,-80.078,0.000
1709297685.753,-74.219,-45.898,-42.480,-86.914,0.000
1709297685.757,-56.641,-47.852,-39.551,-58.594,0.000
1709297685.761,-6.836,-49.316,-40.527,-24.902,0.000
1709297685.765,0.977,-47.852,-42.969,-40.527,0.000
1709297685.769,-32.227,-38.086,-49.316,-78.613,0.000
1709297685.773,-63.965,-42.480,-45.410,-74.707,0.000
1709297685.777,-63.477,-47.363,-41.016,-51.758,0.000
1709297685.781,-23.926,-42.480,-42.480,-25.391,0.000
1709297685.785,-0.488,-42.480,-43.457,-20.996,0.000
1709297685.788,-35.645,-44.434,-48.340,-48.340,0.000
1709297685.792,-82.520,-44.922,-50.293,-66.895,0.000
1709297685.796,-83.496,-44.922,-48.340,-53.711,0.000
1709297685.800,-41.504,-43.457,-49.316,-31.250,0.000
1709297685.804,-4.395,-42.969,-49.316,-16.602,0.000
1709297685.808,-30.762,-48.828,-48.828,-28.320,0.000
1709297685.812,-70.801,-47.363,-47.363,-64.941,0.000
1709297685.816,-68.848,-44.434,-44.922,-56.152,0.000
1709297685.820,-31.250,-46.387,-45.410,-18.555,0.000
1709297685.824,-3.418,-44.434,-45.898,-10.742,0.000
1709297685.827,-20.508,-39.062,-47.852,-35.156,0.000
1709297685.831,-66.406,-43.945,-43.457,-53.711,0.000
1709297685.835,-90.332,-46.387,-41.016,-45.898,0.000
1709297685.839,-58.105,-46.875,-44.922,-26.367,0.000
1709297685.843,-19.531,-44.434,-41.992,-18.066,0.000
1709297685.847,-30.762,-39.062,-41.992,-37.598,0.000
1709297685.851,-70.801,-39.551,-41.016,-57.617,0.000
1709297685.855,-88.867,-36.621,-36.621,-56.641,0.000
1709297685.859,-54.688,-36.133,-38.086,-48.340,0.000
1709297685.863,-17.578,-42.480,-39.551,-33.203,0.000
1709297685.867,-23.438,-40.039,-37.598,-44.922,0.000
1709297685.870,-60.547,-35.645,-39.551,-68.848,0.000
1709297685.874,-81.543,-35.645,-36.621,-55.176,0.000
1709297685.878,-57.617,-36.133,-35.645,-27.344,0.000
1709297685.882,-14.648,-36.133,-38.574,-17.090,0.000
1709297685.886,-20.020,-35.645,-40.039,-38.574,0.000
1709297685.890,-63.477,-38.574,-39.551,-67.871,0.000
1709297685.894,-83.984,-43.945,-36.133,-61.523,0.000
1709297685.898,-61.523,-41.992,-38.086,-22.949,0.000
1709297685.902,-14.648,-37.109,-38.574,-18.066,0.000
1709297685.906,0.977,-36.621,-36.621,-31.250,0.000
1709297685.909,-33.203,-32.715,-33.203,-38.574,0.000
1709297685.913,-66.406,-32.227,-31.738,-37.109,0.000
1709297685.917,-51.758,-35.156,-36.621,-16.113,0.000
1709297685.921,-16.602,-36.621,-38.086,-8.789,0.000
1709297685.925,-3.906,-37.109,-40.039,-18.066,0.000
1709297685.929,-32.227,-39.062,-44.434,-43.945,0.000
1709297685.933,-69.824,-39.551,-45.898,-54.688,0.000
1709297685.937,-66.895,-36.621,-45.410,-39.551,0.000
1709297685.941,-23.926,-38.086,-45.410,-21.484,0.000
1709297685.945,-3.906,-37.109,-43.945,-19.043,0.000
1709297685.949,-27.344,-33.203,-42.969,-37.598,0.000
1709297685.952,-67.871,-34.180,-46.387,-51.758,0.000
1709297685.956,-74.707,-33.203,-47.363,-38.086,0.000
1709297685.960,-31.738,-31.250,-44.434,-15.625,0.000
1709297685.964,-2.441,-30.762,-45.410,-11.719,0.000
1709297685.968,-29.297,-33.691,-47.363,-33.203,0.000
1709297685.972,-73.730,-43.457,-47.363,-56.641,0.000
1709297685.976,-68.359,-46.875,-46.387,-38.574,0.000
1709297685.980,-31.738,-43.945,-43.945,-5.371,0.000
1709297685.984,-1.953,-43.457,-42.480,2.930,0.000
1709297685.988,-20.020,-43.457,-41.504,-17.578,0.000
1709297685.992,-65.430,-37.109,-38.574,-44.922,0.000
1709297685.995,-69.824,-33.203,-39.062,-43.457,0.000
1709297685.999,-34.668,-36.133,-43.945,-15.625,0.000
1709297686.003,3.418,-33.691,-40.039,-0.977,0.000
1709297686.007,-3.906,-34.180,-40.039,-31.250,0.000
1709297686.011,-50.293,-36.621,-44.922,-68.848,0.000
1709297686.015,-63.965,-41.992,-45.898,-63.965,0.000
1709297686.019,-24.414,-44.922,-44.922,-34.180,0.000
1709297686.023,13.184,-38.086,-43.945,-21.484,0.000
1709297686.027,0.977,-33.691,-43.945,-32.715,0.000
1709297686.031,-42.480,-35.156,-41.504,-44.434,0.000
1709297686.034,-73.242,-37.109,-38.574,-45.410,0.000
1709297686.038,-47.363,-38.574,-43.945,-31.738,0.000
1709297686.042,-2.930,-41.992,-40.527,-7.812,0.000
1709297686.046,-7.324,-43.945,-38.574,-20.020,0.000
1709297686.050,-50.781,-45.898,-42.480,-51.270,0.000
1709297686.054,-66.895,-48.828,-42.480,-48.340,0.000
1709297686.058,-35.645,-46.875,-46.387,-21.973,0.000
1709297686.062,4.395,-44.434,-45.410,-0.977,0.000
1709297686.066,14.160,-39.551,-38.086,-8.789,0.000
1709297686.070,-18.555,-37.109,-37.598,-35.156,0.000
1709297686.074,-63.965,-38.574,-40.039,-51.270,0.000
1709297686.077,-61.035,-40.039,-39.551,-21.484,0.000
1709297686.081,-17.578,-42.969,-37.598,-5.859,0.000
1709297686.085,-6.836,-38.086,-33.691,-27.344,0.000
1709297686.089,-40.527,-35.156,-32.227,-48.340,0.000
1709297686.093,-74.707,-41.016,-32.227,-54.688,0.000
1709297686.097,-63.965,-39.062,-34.668,-30.762,0.000
1709297686.101,-18.555,-37.109,-36.133,0.000,0.000
1709297686.105,-2.441,-38.574,-35.645,-2.441,0.000
1709297686.109,-37.109,-36.133,-39.551,-30.273,0.000
1709297686.113,-67.383,-31.738,-40.527,-48.340,0.000
1709297686.117,-56.152,-33.203,-41.016,-30.762,0.000
1709297686.120,-13.672,-36.133,-42.969,-1.465,0.000
1709297686.124,6.348,-38.574,-44.434,-14.160,0.000
1709297686.128,-23.438,-39.551,-39.551,-44.922,0.000
1709297686.132,-64.941,-39.062,-37.598,-56.152,0.000
1709297686.136,-65.430,-39.062,-35.156,-32.715,0.000
1709297686.140,-22.461,-37.109,-33.203,-16.602,0.000
1709297686.144,1.953,-37.109,-36.133,-20.996,0.000
1709297686.148,-23.926,-38.574,-40.527,-38.574,0.000
1709297686.152,-70.801,-37.109,-41.016,-61.035,0.000
1709297686.156,-73.730,-35.645,-39.062,-51.758,0.000
1709297686.159,-26.855,-35.156,-37.598,-11.719,0.000
1709297686.163,1.953,-41.016,-43.457,-3.418,0.000
1709297686.167,-14.648,-43.457,-46.387,-30.273,0.000
1709297686.171,-48.340,-41.016,-43.945,-44.922,0.000
1709297686.175,-60.059,-39.062,-43.945,-30.762,0.000
1709297686.179,-29.297,-41.504,-43.945,-5.859,0.000
1709297686.183,5.859,-39.551,-42.969,6.348,0.000
1709297686.187,5.859,-30.273,-40.527,-14.648,0.000
1709297686.191,-29.297,-35.645,-41.504,-47.852,0.000
1709297686.195,-57.617,-44.434,-44.922,-46.387,0.000
1709297686.199,-24.902,-42.480,-48.340,-16.602,0.000
1709297686.202,14.160,-37.109,-44.922,-2.930,0.000
1709297686.206,-3.906,-40.527,-41.504,-16.113,0.000
1709297686.210,-42.969,-42.480,-38.086,-31.738,0.000
1709297686.214,-66.406,-38.086,-35.156,-18.066,0.000
1709297686.218,-34.668,-39.062,-34.668,11.719,0.000
1709297686.222,13.672,-39.551,-34.180,40.039,0.000
1709297686.226,16.113,-35.645,-37.598,26.855,0.000
1709297686.230,-21.973,-32.715,-39.062,-14.648,0.000
1709297686.234,-51.758,-33.203,-40.527,-26.367,0.000
1709297686.238,-33.691,-36.133,-43.945,-9.766,0.000
1709297686.242,7.812,-38.086,-40.527,8.301,0.000
1709297686.245,20.020,-36.621,-37.598,0.977,0.000
1709297686.249,-18.555,-37.109,-37.598,-30.273,0.000
1709297686.253,-60.547,-39.062,-37.598,-41.992,0.000
1709297686.257,-43.945,-34.180,-38.086,-22.461,0.000
1709297686.261,5.371,-30.273,-34.668,1.953,0.000
1709297686.265,22.461,-30.762,-34.180,-7.812,0.000
1709297686.269,-10.254,-35.645,-38.086,-38.086,0.000
1709297686.273,-51.270,-42.480,-37.598,-38.574,0.000
1709297686.277,-41.016,-36.621,-33.691,-19.043,0.000
1709297686.281,4.395,-32.227,-33.691,-0.488,0.000
1709297686.284,23.438,-38.086,-36.133,-7.324,0.000
1709297686.288,-8.789,-43.945,-38.574,-31.250,0.000
1709297686.292,-50.781,-43.457,-39.551,-45.410,0.000
1709297686.296,-45.898,-43.945,-36.621,-31.738,0.000
1709297686.300,-3.418,-47.852,-39.551,-5.371,0.000
1709297686.304,22.949,-46.875,-41.504,-16.113,0.000
1709297686.308,3.906,-45.898,-38.574,-45.898,0.000
1709297686.312,-39.062,-41.992,-36.621,-65.430,0.000
1709297686.316,-52.246,-44.434,-36.133,-44.922,0.000
1709297686.320,-9.766,-47.363,-36.133,-12.695,0.000
1709297686.324,29.297,-42.480,-34.668,-11.719,0.000
1709297686.327,-3.906,-40.039,-36.133,-32.715,0.000
1709297686.331,-60.547,-43.945,-45.410,-63.477,0.000
1709297686.335,-71.289,-45.410,-50.781,-63.965,0.000
1709297686.339,-32.227,-41.992,-51.270,-35.156,0.000
1709297686.343,3.418,-38.086,-49.316,-24.902,0.000
1709297686.347,-9.277,-30.762,-44.922,-40.527,0.000
1709297686.351,-51.270,-31.738,-41.992,-59.570,0.000
1709297686.355,-70.801,-39.551,-40.527,-52.734,0.000
1709297686.359,-43.457,-36.621,-42.480,-18.066,0.000
1709297686.363,-7.324,-42.969,-45.410,-6.348,0.000
1709297686.366,-11.230,-41.992,-45.410,-40.527,0.000
1709297686.370,-46.875,-34.180,-41.504,-69.336,0.000
1709297686.374,-66.895,-35.645,-32.227,-62.012,0.000
1709297686.378,-44.434,-30.762,-28.320,-28.809,0.000
1709297686.382,-7.324,-32.227,-33.203,-2.930,0.000
1709297686.386,-2.930,-39.062,-30.762,-16.602,0.000
1709297686.390,-43.457,-39.551,-30.762,-56.152,0.000
1709297686.394,-84.961,-42.480,-36.133,-60.059,0.000
1709297686.398,-64.453,-44.922,-38.574,-39.062,0.000
1709297686.402,-21.973,-46.387,-45.898,-20.020,0.000
1709297686.406,-15.137,-46.387,-46.387,-25.879,0.000
1709297686.409,-54.199,-42.969,-42.969,-65.430,0.000
1709297686.413,-88.379,-39.551,-40.527,-75.684,0.000
1709297686.417,-67.383,-38.086,-37.598,-36.133,0.000
1709297686.421,-29.785,-36.621,-42.480,-14.648,0.000
1709297686.425,-17.578,-35.645,-43.457,-28.809,0.000
1709297686.429,-49.805,-34.180,-39.062,-61.523,0.000
1709297686.433,-90.820,-39.062,-40.527,-72.754,0.000
1709297686.437,-75.195,-45.410,-43.457,-56.152,0.000
1709297686.441,-27.832,-46.875,-47.363,-43.457,0.000
1709297686.445,-2.930,-39.062,-42.480,-34.668,0.000
1709297686.449,-25.879,-39.062,-35.645,-42.969,0.000
1709297686.452,-73.242,-41.992,-38.574,-51.758,0.000
1709297686.456,-63.477,-33.203,-40.527,-46.387,0.000
1709297686.460,-12.695,-32.715,-34.668,-21.973,0.000
1709297686.464,13.184,-36.621,-32.715,-20.996,0.000
1709297686.468,-13.672,-34.668,-36.133,-52.246,0.000
1709297686.472,-60.547,-37.109,-38.086,-68.359,0.000
1709297686.476,-62.012,-42.480,-39.062,-46.875,0.000
1709297686.480,-20.020,-37.598,-34.180,-12.695,0.000
1709297686.484,10.254,-35.645,-31.250,-3.418,0.000
1709297686.488,-8.301,-38.574,-34.180,-29.785,0.000
1709297686.491,-58.594,-42.480,-34.668,-49.316,0.000
1709297686.495,-68.359,-43.945,-34.180,-37.598,0.000
1709297686.499,-25.391,-39.062,-35.156,-12.207,0.000
1709297686.503,6.836,-35.645,-34.668,-1.465,0.000
1709297686.507,-8.789,-38.086,-38.574,-21.484,0.000
1709297686.511,-53.223,-43.945,-39.062,-36.621,0.000
1709297686.515,-71.289,-42.480,-39.062,-31.738,0.000
1709297686.519,-39.062,-41.992,-43.945,-16.602,0.000
1709297686.523,-1.953,-45.410,-43.945,-7.324,0.000
1709297686.527,-14.160,-50.293,-43.457,-27.344,0.000
1709297686.531,-50.293,-46.387,-39.551,-40.039,0.000
1709297686.534,-64.941,-42.480,-35.156,-30.762,0.000
1709297686.538,-37.109,-46.387,-39.062,-19.531,0.000
1709297686.542,0.000,-46.387,-41.504,-17.090,0.000
1709297686.546,-0.977,-41.504,-39.551,-25.391,0.000
1709297686.550,-41.504,-40.527,-39.062,-51.758,0.000
1709297686.554,-75.684,-41.992,-38.086,-64.453,0.000
1709297686.558,-47.852,-41.992,-39.062,-30.273,0.000
1709297686.562,-1.953,-45.898,-39.062,-16.113,0.000
1709297686.566,-0.977,-45.898,-36.133,-34.180,0.000
1709297686.570,-39.551,-43.457,-36.133,-55.176,0.000
1709297686.574,-71.289,-47.363,-37.598,-60.059,0.000
1709297686.577,-47.363,-42.480,-38.086,-32.715,0.000
1709297686.581,5.371,-35.156,-34.180,-4.883,0.000
1709297686.585,9.766,-36.133,-35.156,-15.137,0.000
1709297686.589,-32.227,-37.109,-39.062,-44.434,0.000
1709297686.593,-63.965,-34.180,-37.598,-53.711,0.000
1709297686.597,-49.316,-33.691,-36.621,-37.109,0.000
1709297686.601,-13.184,-37.598,-37.598,-15.137,0.000
1709297686.605,-2.930,-37.598,-37.109,-15.625,0.000
1709297686.609,-26.367,-38.086,-37.109,-51.758,0.000
1709297686.613,-58.105,-40.039,-40.039,-66.406,0.000
1709297686.616,-60.059,-44.922,-46.387,-42.480,0.000
1709297686.620,-8.789,-43.457,-47.852,-13.672,0.000
1709297686.624,16.602,-35.645,-43.457,-14.648,0.000
1709297686.628,-10.742,-40.527,-45.898,-41.992,0.000
1709297686.632,-57.129,-40.039,-46.875,-59.082,0.000
1709297686.636,-69.824,-35.645,-45.410,-45.898,0.000
1709297686.640,-31.738,-38.086,-43.945,-18.066,0.000
1709297686.644,0.000,-42.969,-44.922,-23.438,0.000
1709297686.648,-22.461,-43.945,-43.457,-37.109,0.000
1709297686.652,-66.895,-44.922,-41.992,-55.176,0.000
1709297686.656,-67.383,-42.969,-43.457,-48.340,0.000
1709297686.659,-25.391,-36.133,-40.527,-21.973,0.000
1709297686.663,1.465,-35.645,-36.133,-19.043,0.000
1709297686.667,-17.578,-41.992,-37.109,-32.715,0.000
1709297686.671,-62.012,-41.992,-39.062,-48.828,0.000
1709297686.675,-81.055,-42.969,-37.109,-38.574,0.000
1709297686.679,-39.551,-48.340,-40.039,-10.254,0.000
1709297686.683,2.930,-48.340,-40.527,-7.324,0.000
1709297686.687,-13.672,-48.340,-41.504,-38.574,0.000
1709297686.691,-64.941,-47.363,-41.504,-58.105,0.000
1709297686.695,-87.402,-42.969,-40.527,-41.016,0.000
1709297686.699,-55.664,-45.410,-44.434,-15.137,0.000
1709297686.702,-12.695,-48.340,-43.945,2.930,0.000
1709297686.706,-15.137,-44.434,-44.434,-11.230,0.000
1709297686.710,-59.570,-42.480,-43.457,-51.270,0.000
1709297686.714,-82.520,-44.434,-36.621,-60.547,0.000
1709297686.718,-60.059,-41.992,-36.133,-31.738,0.000
1709297686.722,-20.508,-38.086,-36.621,-10.742,0.000
1709297686.726,-11.719,-39.551,-33.203,-24.414,0.000
1709297686.730,-55.176,-44.434,-39.062,-59.082,0.000
1709297686.734,-88.379,-46.875,-42.480,-62.012,0.000
1709297686.738,-58.105,-41.016,-38.086,-35.645,0.000
1709297686.741,-9.766,-37.109,-41.016,-8.789,0.000
1709297686.745,1.953,-41.016,-43.945,-18.066,0.000
1709297686.749,-32.715,-41.016,-39.062,-46.387,0.000
1709297686.753,-70.312,-38.086,-37.598,-42.480,0.000
1709297686.757,-53.223,-37.109,-41.504,-26.367,0.000
1709297686.761,-5.371,-32.715,-39.551,-2.930,0.000
1709297686.765,1.465,-36.621,-38.574,-12.695,0.000
1709297686.769,-36.133,-40.527,-39.062,-49.316,0.000
1709297686.773,-61.523,-33.691,-37.109,-43.457,0.000
1709297686.777,-53.223,-34.180,-35.645,-18.555,0.000
1709297686.781,-23.926,-41.992,-37.109,-7.324,0.000
1709297686.784,-8.301,-41.016,-40.527,-13.672,0.000
1709297686.788,-35.645,-40.039,-37.109,-46.875,0.000
1709297686.792,-77.637,-42.969,-34.180,-69.824,0.000
1709297686.796,-68.848,-41.992,-34.180,-47.852,0.000
1709297686.800,-21.973,-38.574,-29.297,-9.766,0.000
1709297686.804,6.348,-40.039,-30.762,-11.719,0.000
1709297686.808,-14.160,-41.992,-38.086,-42.969,0.000
1709297686.812,-61.523,-38.574,-37.598,-55.664,0.000
1709297686.816,-62.988,-37.109,-31.738,-39.062,0.000
1709297686.820,-29.785,-37.109,-34.180,-20.508,0.000
1709297686.823,-14.648,-37.598,-40.039,-22.949,0.000
1709297686.827,-32.715,-43.457,-39.551,-39.551,0.000
1709297686.831,-62.012,-36.621,-39.062,-63.965,0.000
1709297686.835,-74.707,-34.180,-39.062,-58.105,0.000
1709297686.839,-46.387,-36.621,-38.574,-18.555,0.000
1709297686.843,-6.348,-32.227,-41.992,-22.949,0.000
1709297686.847,-11.719,-35.645,-42.480,-61.035,0.000
1709297686.851,-53.711,-40.527,-37.598,-75.195,0.000
1709297686.855,-69.824,-38.086,-35.156,-56.152,0.000
1709297686.859,-37.598,-40.039,-38.574,-30.762,0.000
1709297686.863,-2.441,-41.992,-39.551,-23.926,0.000
1709297686.866,-17.578,-38.574,-40.527,-36.133,0.000
1709297686.870,-65.430,-39.062,-36.133,-48.828,0.000
1709297686.874,-83.984,-40.527,-36.133,-46.875,0.000
1709297686.878,-55.176,-38.086,-40.527,-28.320,0.000
1709297686.882,-15.137,-40.039,-42.969,-10.742,0.000
1709297686.886,-7.812,-41.992,-38.574,-19.043,0.000
1709297686.890,-40.039,-39.551,-37.109,-43.457,0.000
1709297686.894,-67.871,-35.156,-39.062,-41.504,0.000
1709297686.898,-42.969,-32.227,-32.715,-17.578,0.000
1709297686.902,3.906,-35.645,-31.250,1.465,0.000
1709297686.906,8.789,-35.156,-37.598,-17.578,0.000
1709297686.909,-26.855,-33.691,-36.621,-44.434,0.000
1709297686.913,-61.523,-39.062,-38.574,-45.898,0.000
1709297686.917,-45.898,-40.527,-39.062,-22.461,0.000
1709297686.921,6.836,-36.133,-37.109,-6.836,0.000
1709297686.925,18.066,-33.203,-41.016,-25.391,0.000
1709297686.929,-16.113,-34.668,-40.527,-56.641,0.000
1709297686.933,-48.340,-42.969,-42.969,-62.500,0.000
1709297686.937,-29.785,-41.504,-40.039,-27.832,0.000
1709297686.941,9.277,-35.645,-39.551,-5.371,0.000
1709297686.945,11.719,-41.992,-43.945,-15.625,0.000
1709297686.949,-26.855,-43.457,-40.039,-32.715,0.000
1709297686.952,-64.453,-34.668,-39.551,-53.223,0.000
1709297686.956,-61.523,-33.691,-40.527,-43.457,0.000
1709297686.960,-24.902,-37.109,-38.086,-15.625,0.000
1709297686.964,-10.254,-35.645,-38.086,-20.020,0.000
1709297686.968,-32.715,-31.250,-36.133,-40.527,0.000
1709297686.972,-64.941,-30.273,-35.645,-54.199,0.000
1709297686.976,-67.383,-32.715,-37.598,-40.527,0.000
1709297686.980,-23.926,-34.668,-39.062,-12.695,0.000
1709297686.984,5.859,-35.645,-39.062,-7.324,0.000
1709297686.988,-20.996,-38.086,-41.504,-38.086,0.000
1709297686.991,0.000,-39.551,-40.039,-59.570,0.000
1709297686.995,0.000,-42.480,-38.086,-41.504,0.000
1709297686.999,0.000,-44.922,-38.574,-15.625,0.000
1709297687.003,0.000,-42.480,-36.133,-7.812,0.000
1709297687.007,0.000,-38.574,-35.645,-33.203,0.000
1709297687.011,0.000,-40.039,-41.016,-55.664,0.000
1709297687.015,0.000,-46.387,-42.480,-48.340,0.000
1709297687.019,0.000,-44.922,-39.551,-21.484,0.000
1709297687.023,0.000,-46.387,-39.062,-5.859,0.000
1709297687.027,0.000,-48.828,-35.156,-38.086,0.000
1709297687.031,0.000,-49.805,-36.621,-70.312,0.000
1709297687.034,0.000,-49.316,-36.621,-58.105,0.000
1709297687.038,-34.180,-47.852,-35.645,-18.066,0.000
1709297687.042,-8.789,-48.340,-38.574,0.977,0.000
1709297687.046,-18.066,-49.805,-40.527,-12.695,0.000
1709297687.050,-52.246,-52.734,-41.016,-25.391,0.000
1709297687.054,-81.055,-52.246,-38.086,-32.227,0.000
1709297687.058,-52.734,-52.734,-37.598,-11.719,0.000
1709297687.062,-7.812,-49.805,-39.062,10.254,0.000
1709297687.066,-7.812,-44.434,-38.574,-2.441,0.000
1709297687.070,-38.574,-38.574,-37.109,-25.391,0.000
1709297687.074,-59.570,-39.062,-37.598,-32.227,0.000
1709297687.077,-40.039,-38.574,-39.551,-7.324,0.000
1709297687.081,0.977,-38.086,-40.039,12.207,0.000
1709297687.085,12.695,-40.039,-41.016,-2.441,0.000
1709297687.089,-22.949,-35.645,-44.434,-23.438,0.000
1709297687.093,-63.965,-31.250,-45.898,-23.438,0.000
1709297687.097,-50.293,-31.738,-43.945,3.906,0.000
1709297687.101,-7.812,-33.203,-46.875,21.484,0.000
1709297687.105,-1.465,-33.203,-52.246,4.883,0.000
1709297687.109,-35.645,-36.133,-49.316,-20.996,0.000
1709297687.113,-74.219,-35.645,-46.387,-26.855,0.000
1709297687.116,-54.199,-34.668,-46.875,-6.348,0.000
1709297687.120,-4.395,-38.574,-46.387,10.742,0.000
1709297687.124,7.324,-39.551,-42.480,5.371,0.000
1709297687.128,-19.043,-39.551,-40.527,-28.320,0.000
1709297687.132,-59.082,-41.016,-44.922,-56.641,0.000
1709297687.136,-66.406,-41.016,-45.410,-45.898,0.000
1709297687.140,-21.484,-40.527,-44.922,-17.578,0.000
1709297687.144,6.836,-40.527,-44.434,-17.090,0.000
1709297687.148,-19.043,-41.992,-38.574,-33.691,0.000
1709297687.152,-57.129,-45.410,-36.621,-39.551,0.000
1709297687.156,-65.918,-42.480,-37.598,-24.902,0.000
1709297687.159,-25.879,-37.109,-40.039,2.441,0.000
1709297687.163,11.719,-35.645,-44.434,0.488,0.000
1709297687.167,-14.648,-36.621,-44.922,-28.320,0.000
1709297687.171,-64.453,-43.457,-40.527,-44.434,0.000
1709297687.175,-69.336,-46.875,-38.574,-35.645,0.000
1709297687.179,-24.902,-44.434,-39.551,-8.301,0.000
1709297687.183,16.113,-46.387,-35.645,-0.977,0.000
1709297687.187,-5.371,-48.340,-34.180,-25.879,0.000
1709297687.191,-53.711,-47.363,-37.598,-44.434,0.000
1709297687.195,-66.895,-43.945,-35.645,-31.738,0.000
1709297687.198,-41.992,-46.875,-36.133,2.441,0.000
1709297687.202,-9.277,-50.293,-38.574,12.207,0.000
1709297687.206,-18.066,-46.387,-40.527,-23.926,0.000
1709297687.210,-60.547,-42.480,-39.551,-54.688,0.000
1709297687.214,-76.172,-40.039,-39.551,-55.664,0.000
1709297687.218,-44.434,-39.551,-41.016,-29.297,0.000
1709297687.222,0.977,-41.016,-41.016,-8.789,0.000
1709297687.226,0.000,-42.480,-41.016,-27.344,0.000
1709297687.230,0.000,-45.410,-43.457,-58.105,0.000
1709297687.234,0.000,-43.457,-46.387,-64.453,0.000
1709297687.238,0.000,-41.016,-43.457,-35.156,0.000
1709297687.241,0.000,-39.551,-43.945,-16.602,0.000
1709297687.245,0.000,-40.039,-46.387,-22.461,0.000
1709297687.249,0.000,-41.016,-42.480,-45.410,0.000
1709297687.253,0.000,-41.504,-36.621,-54.199,0.000
1709297687.257,0.000,-43.945,-39.062,-30.762,0.000
1709297687.261,0.000,-45.410,-40.527,-5.371,0.000
1709297687.265,0.000,-43.457,-38.086,-13.672,0.000
1709297687.269,0.000,-45.410,-40.527,-54.199,0.000
1709297687.273,-79.590,-46.387,-39.062,-66.406,0.000
1709297687.277,-63.965,-41.992,-35.645,-37.109,0.000
1709297687.281,-24.414,-42.969,-41.992,-28.809,0.000
1709297687.284,-6.836,-48.828,-39.062,-40.527,0.000
1709297687.288,-32.715,-46.387,-34.180,-55.176,0.000
1709297687.292,-70.312,-45.898,-41.016,-65.430,0.000
1709297687.296,-64.941,-45.898,-43.457,-50.293,0.000
1709297687.300,-22.949,-40.527,-40.527,-26.367,0.000
1709297687.304,-1.465,-43.945,-38.574,-16.113,0.000
1709297687.308,-31.738,-46.387,-39.062,-42.969,0.000
1709297687.312,-74.219,-43.457,-38.086,-74.219,0.000
1709297687.316,-70.801,-45.898,-36.133,-54.688,0.000
1709297687.320,-24.414,-48.828,-40.527,-23.926,0.000
1709297687.323,9.277,-43.457,-41.016,-26.855,0.000
1709297687.327,-17.090,-41.992,-36.133,-49.316,0.000
1709297687.331,-63.477,-45.410,-37.598,-62.500,0.000
1709297687.335,-74.219,-47.852,-41.016,-54.688,0.000
1709297687.339,-41.992,-45.898,-37.598,-36.133,0.000
1709297687.343,-8.789,-42.969,-38.086,-32.227,0.000
1709297687.347,-28.320,-42.480,-40.527,-50.781,0.000
1709297687.351,-76.172,-43.457,-36.621,-62.012,0.000
1709297687.355,-82.520,-42.480,-40.527,-53.223,0.000
1709297687.359,-51.270,-43.945,-40.527,-28.809,0.000
1709297687.363,-24.414,-50.781,-39.551,-19.043,0.000
1709297687.366,-28.320,-51.270,-39.551,-36.133,0.000
1709297687.370,-65.918,-48.828,-36.133,-61.523,0.000
1709297687.374,-89.844,-48.340,-41.016,-69.336,0.000
1709297687.378,-63.477,-48.340,-46.875,-45.410,0.000
1709297687.382,-26.855,-45.898,-44.434,-25.879,0.000
1709297687.386,-28.320,-46.387,-41.016,-36.621,0.000
1709297687.390,-70.801,-44.434,-42.480,-63.965,0.000
1709297687.394,-104.980,-45.898,-41.992,-62.500,0.000
1709297687.398,-83.008,-50.293,-41.504,-31.738,0.000
1709297687.402,-32.715,-42.969,-40.527,-25.391,0.000
1709297687.406,-25.879,-37.598,-41.504,-45.410,0.000
1709297687.409,-60.059,-41.016,-44.434,-62.500,0.000
1709297687.413,-84.961,-41.504,-42.969,-60.547,0.000
1709297687.417,-66.406,-42.480,-44.434,-41.992,0.000
1709297687.421,-13.672,-45.410,-45.898,-27.832,0.000
1709297687.425,-0.977,-52.734,-44.434,-30.762,0.000
1709297687.429,-37.109,-45.898,-43.945,-46.875,0.000
1709297687.433,-67.871,-40.527,-43.457,-56.152,0.000
1709297687.437,-54.688,-46.387,-42.480,-42.969,0.000
1709297687.441,-8.789,-44.922,-45.898,-17.090,0.000
1709297687.445,4.883,-44.434,-51.270,-25.391,0.000
1709297687.448,-27.344,-43.945,-51.758,-59.082,0.000
1709297687.452,-64.453,-42.969,-51.758,-63.965,0.000
1709297687.456,-57.617,-46.875,-53.223,-38.086,0.000
1709297687.460,-18.555,-51.758,-48.340,-11.230,0.000
1709297687.464,-4.883,-49.805,-48.340,-22.461,0.000
1709297687.468,-30.273,-51.758,-47.363,-56.641,0.000
1709297687.472,-66.895,-54.688,-43.945,-67.383,0.000
1709297687.476,-65.918,-50.293,-46.387,-44.434,0.000
1709297687.480,-22.461,-46.875,-42.969,-1.465,0.000
1709297687.484,7.812,-41.992,-40.039,6.348,0.000
1709297687.488,-11.719,-39.551,-41.504,-17.090,0.000
1709297687.491,-50.781,-40.039,-40.527,-33.203,0.000
1709297687.495,-53.711,-41.504,-42.969,-17.090,0.000
1709297687.499,-3.418,-40.039,-38.086,3.906,0.000
1709297687.503,32.715,-37.598,-35.645,-0.977,0.000
1709297687.507,2.930,-34.668,-39.551,-22.949,0.000
1709297687.511,-46.875,-35.645,-41.992,-41.504,0.000
1709297687.515,-60.547,-34.668,-41.992,-43.457,0.000
1709297687.519,-26.855,-31.250,-42.969,-26.855,0.000
1709297687.523,14.648,-30.273,-45.410,-9.766,0.000
1709297687.527,2.441,-30.762,-43.457,-27.344,0.000
1709297687.531,-51.270,-37.598,-41.504,-47.852,0.000
1709297687.534,-78.613,-45.410,-47.852,-46.387,0.000
1709297687.538,-41.016,-40.039,-45.898,-30.762,0.000
1709297687.542,3.906,-33.203,-42.969,-15.625,0.000
1709297687.546,-2.441,-32.227,-43.457,-25.879,0.000
1709297687.550,-46.387,-33.691,-39.062,-55.176,0.000
1709297687.554,-73.730,-32.715,-39.551,-50.781,0.000
1709297687.558,-42.969,-36.621,-39.551,-6.348,0.000
1709297687.562,-4.395,-39.551,-38.086,8.301,0.000
1709297687.566,-15.625,-40.527,-44.922,-24.414,0.000
1709297687.570,-52.734,-41.504,-48.340,-52.246,0.000
1709297687.573,-83.984,-43.457,-44.434,-43.945,0.000
1709297687.577,-71.289,-50.781,-43.945,-11.230,0.000
1709297687.581,-17.090,-50.293,-45.898,1.465,0.000
1709297687.585,-3.418,-45.410,-45.898,-19.531,0.000
1709297687.589,-41.992,-44.434,-43.945,-44.922,0.000
1709297687.593,-75.684,-43.945,-39.062,-52.734,0.000
1709297687.597,-63.965,-44.922,-37.109,-29.785,0.000
1709297687.601,-25.391,-43.945,-37.598,-15.625,0.000
1709297687.605,-9.277,-44.922,-40.527,-24.414,0.000
1709297687.609,-36.621,-41.504,-37.598,-36.621,0.000
1709297687.613,-73.242,-39.551,-36.133,-48.828,0.000
1709297687.616,-60.547,-43.945,-39.062,-21.484,0.000
1709297687.620,-8.789,-43.457,-38.086,11.719,0.000
1709297687.624,3.906,-42.480,-39.551,-6.348,0.000
1709297687.628,-28.809,-44.922,-41.016,-35.645,0.000
1709297687.632,-60.547,-45.410,-38.574,-45.898,0.000
1709297687.636,-67.383,-47.363,-38.574,-31.738,0.000
1709297687.640,-29.297,-43.457,-39.062,-2.930,0.000
1709297687.644,0.977,-35.156,-37.109,-7.324,0.000
1709297687.648,-26.855,-39.062,-39.551,-42.969,0.000
1709297687.652,-62.012,-41.992,-41.504,-54.199,0.000
1709297687.656,-57.617,-40.039,-44.434,-47.852,0.000
1709297687.659,-24.414,-35.645,-48.828,-24.414,0.000
1709297687.663,-2.441,-39.551,-47.852,-28.320,0.000
1709297687.667,-27.344,-44.434,-43.457,-58.105,0.000
1709297687.671,-70.312,-40.039,-40.527,-76.660,0.000
1709297687.675,-84.961,-40.527,-44.922,-70.801,0.000
1709297687.679,-56.152,-41.992,-45.898,-50.293,0.000
1709297687.683,-25.879,-41.016,-41.504,-35.156,0.000
1709297687.687,-40.039,-41.504,-43.457,-62.988,0.000
1709297687.691,-83.496,-43.457,-43.457,-93.750,0.000
1709297687.695,-94.238,-43.457,-40.527,-81.055,0.000
1709297687.698,-51.270,-41.504,-41.992,-53.223,0.000
1709297687.702,-11.719,-35.156,-40.527,-36.621,0.000
1709297687.706,-24.902,-36.621,-39.062,-48.828,0.000
1709297687.710,-62.988,-44.434,-37.598,-72.266,0.000
1709297687.714,-79.102,-45.410,-41.504,-59.082,0.000
1709297687.718,-59.082,-42.480,-47.363,-38.086,0.000
1709297687.722,-12.695,-38.086,-39.551,-33.203,0.000
1709297687.726,-12.695,-33.203,-38.086,-37.109,0.000
1709297687.730,-52.734,-36.621,-43.945,-62.012,0.000
1709297687.734,-71.289,-45.410,-40.527,-70.312,0.000
1709297687.738,-54.688,-46.875,-41.016,-39.551,0.000
1709297687.741,-10.254,-43.945,-41.504,-21.484,0.000
1709297687.745,4.395,-37.598,-41.504,-28.809,0.000
1709297687.749,-29.297,-39.551,-46.387,-44.922,0.000
1709297687.753,-63.477,-42.480,-49.805,-52.246,0.000
1709297687.757,-43.945,-41.016,-46.875,-26.367,0.000
1709297687.761,7.324,-40.527,-41.992,4.395,0.000
1709297687.765,29.785,-39.062,-40.039,1.465,0.000
1709297687.769,-5.859,-41.992,-40.039,-21.484,0.000
1709297687.773,-56.641,-47.363,-39.062,-17.090,0.000
1709297687.777,-46.875,-45.410,-41.504,-3.906,0.000
1709297687.780,-2.441,-43.945,-41.016,4.395,0.000
1709297687.784,3.418,-43.945,-44.922,-3.906,0.000
1709297687.788,-27.832,-39.062,-49.316,-31.250,0.000
1709297687.792,-58.594,-38.086,-45.410,-41.504,0.000
1709297687.796,-49.805,-37.598,-40.527,-20.996,0.000
1709297687.800,-4.883,-35.156,-39.551,2.441,0.000
1709297687.804,11.230,-41.992,-45.898,-3.906,0.000
1709297687.808,-19.531,-46.387,-46.387,-25.391,0.000
1709297687.812,-55.664,-44.922,-42.480,-33.691,0.000
1709297687.816,-58.594,-43.945,-42.480,-14.160,0.000
1709297687.820,-22.949,-41.504,-41.016,11.719,0.000
1709297687.823,11.719,-44.922,-37.598,0.000,0.000
1709297687.827,-12.207,-48.828,-42.969,-28.320,0.000
1709297687.831,-60.547,-48.828,-45.898,-39.062,0.000
1709297687.835,-59.570,-41.992,-41.016,-24.414,0.000
1709297687.839,-20.020,-41.992,-38.574,-1.953,0.000
1709297687.843,7.812,-44.434,-38.086,-1.953,0.000
1709297687.847,-9.766,-43.457,-41.504,-21.484,0.000
1709297687.851,-49.805,-38.574,-42.480,-41.504,0.000
1709297687.855,-57.129,-38.086,-41.992,-32.715,0.000
1709297687.859,-12.695,-40.039,-38.574,3.906,0.000
1709297687.863,18.555,-33.203,-33.203,27.344,0.000
1709297687.866,-7.324,-32.715,-37.598,-7.324,0.000
1709297687.870,-51.270,-37.109,-39.062,-41.504,0.000
1709297687.874,-66.895,-36.621,-37.598,-34.180,0.000
1709297687.878,-37.598,-40.039,-38.574,-15.625,0.000
1709297687.882,2.441,-40.527,-44.434,-12.695,0.000
1709297687.886,-5.371,-41.016,-47.852,-37.109,0.000
1709297687.890,-46.875,-44.922,-44.434,-52.734,0.000
1709297687.894,-62.500,-36.621,-41.992,-50.781,0.000
1709297687.898,-31.250,-34.668,-42.480,-29.297,0.000
1709297687.902,7.812,-43.457,-42.480,-9.766,0.000
1709297687.905,9.766,-44.922,-44.434,-21.973,0.000
1709297687.909,-29.297,-40.039,-45.898,-41.504,0.000
1709297687.913,-51.758,-38.574,-46.387,-44.922,0.000
1709297687.917,-25.391,-37.109,-45.898,-22.461,0.000
1709297687.921,12.695,-36.621,-44.434,3.906,0.000
1709297687.925,17.578,-38.086,-47.852,-11.230,0.000
1709297687.929,-25.391,-40.527,-52.246,-46.875,0.000
1709297687.933,-61.523,-41.504,-50.781,-58.105,0.000
1709297687.937,-51.758,-41.016,-47.363,-37.109,0.000
1709297687.941,-8.789,-41.016,-47.363,-14.648,0.000
1709297687.945,10.254,-40.039,-46.875,-29.297,0.000
1709297687.948,-34.180,-40.527,-42.969,-55.664,0.000
1709297687.952,-74.219,-42.480,-37.598,-54.199,0.000
1709297687.956,-51.758,-40.039,-35.645,-33.691,0.000
1709297687.960,-10.254,-39.062,-39.062,-10.742,0.000
1709297687.964,1.953,-37.598,-41.016,-16.113,0.000
1709297687.968,-24.414,-40.527,-40.039,-40.527,0.000
1709297687.972,-63.477,-41.992,-44.922,-60.059,0.000
1709297687.976,-57.129,-41.016,-45.410,-43.945,0.000
1709297687.980,-21.973,-41.504,-41.992,-13.672,0.000
1709297687.984,1.465,-36.621,-35.645,-8.301,0.000
1709297687.988,-9.277,-32.227,-30.273,-32.715,0.000
1709297687.991,-46.875,-37.109,-32.715,-50.293,0.000
1709297687.995,-51.270,-36.133,-36.133,-24.414,0.000
1709297687.999,-10.254,-32.715,-36.621,1.953,0.000
1709297688.003,23.438,-32.715,-34.180,6.348,0.000
1709297688.007,6.836,-30.273,-32.715,-4.883,0.000
1709297688.011,-42.480,-31.250,-31.738,-21.973,0.000
1709297688.015,-58.105,-28.809,-33.203,-19.531,0.000
1709297688.019,-15.137,-26.367,-31.250,5.371,0.000
1709297688.023,20.020,-29.785,-31.250,17.578,0.000
1709297688.027,-3.906,-31.738,-35.156,-10.254,0.000
1709297688.030,-54.199,-33.203,-39.551,-38.574,0.000
1709297688.034,-65.430,-33.203,-37.598,-31.250,0.000
1709297688.038,-21.484,-32.227,-31.738,-1.465,0.000
1709297688.042,15.137,-35.156,-34.668,11.230,0.000
1709297688.046,8.301,-36.621,-43.945,-17.090,0.000
1709297688.050,-33.203,-34.668,-45.410,-50.293,0.000
1709297688.054,-57.617,-33.691,-43.457,-42.480,0.000
1709297688.058,-26.367,-32.227,-41.992,-7.324,0.000
1709297688.062,17.578,-33.691,-37.598,5.371,0.000
1709297688.066,13.672,-32.227,-34.668,-14.160,0.000
1709297688.070,-38.086,-28.809,-36.133,-41.992,0.000
1709297688.073,-65.430,-34.668,-33.691,-43.457,0.000
1709297688.077,-38.574,-34.180,-36.621,-18.066,0.000
1709297688.081,3.418,-32.227,-35.156,0.000,0.000
1709297688.085,3.906,-36.621,-33.691,-20.508,0.000
1709297688.089,-38.086,-41.016,-40.039,-56.641,0.000
1709297688.093,-68.848,-40.039,-39.062,-61.523,0.000
1709297688.097,-49.805,-37.109,-37.598,-33.691,0.000
1709297688.101,-10.742,-36.621,-39.062,-8.789,0.000
1709297688.105,-1.953,-31.738,-40.527,-11.719,0.000
1709297688.109,-35.156,-30.273,-43.457,-48.340,0.000
1709297688.113,-72.266,-36.133,-46.387,-61.035,0.000
1709297688.116,-60.059,-38.574,-45.410,-41.504,0.000
1709297688.120,-14.160,-39.062,-41.504,-26.367,0.000
1709297688.124,1.953,-37.109,-41.992,-30.273,0.000
1709297688.128,-22.461,-39.062,-43.945,-49.805,0.000
1709297688.132,-53.711,-40.039,-43.945,-56.152,0.000
1709297688.136,-46.875,-34.668,-40.039,-34.668,0.000
1709297688.140,-4.883,-32.715,-36.621,-20.020,0.000
1709297688.144,17.090,-36.621,-40.039,-25.879,0.000
1709297688.148,-11.719,-39.062,-39.062,-47.852,0.000
1709297688.152,-49.805,-34.668,-40.039,-68.359,0.000
1709297688.155,-48.340,-30.762,-40.527,-55.664,0.000
1709297688.159,-13.672,-31.250,-41.992,-33.691,0.000
1709297688.163,12.207,-31.738,-40.039,-31.738,0.000
1709297688.167,-14.160,-30.273,-41.992,-60.547,0.000
1709297688.171,-61.035,-29.785,-48.340,-81.055,0.000
1709297688.175,-63.477,-32.715,-49.316,-63.477,0.000
1709297688.179,-27.832,-37.598,-48.828,-36.621,0.000
1709297688.183,-5.371,-39.062,-46.875,-41.016,0.000
1709297688.187,-28.809,-42.480,-46.387,-63.965,0.000
1709297688.191,-61.523,-41.016,-41.992,-73.242,0.000
1709297688.195,-74.707,-42.480,-43.457,-69.336,0.000
1709297688.198,-41.504,-41.992,-45.410,-51.270,0.000
1709297688.202,-5.859,-42.480,-45.410,-37.598,0.000
1709297688.206,-26.367,-44.922,-46.387,-57.129,0.000
1709297688.210,-72.754,-41.992,-44.434,-87.402,0.000
1709297688.214,-83.008,-43.945,-41.016,-82.031,0.000
1709297688.218,-58.594,-42.480,-44.434,-62.012,0.000
1709297688.222,-27.832,-38.086,-47.363,-58.105,0.000
1709297688.226,-30.762,-44.922,-47.852,-83.008,0.000
1709297688.230,-74.707,-50.781,-47.363,-114.746,0.000
1709297688.234,-99.609,-48.828,-45.410,-110.840,0.000
1709297688.238,-73.242,-48.340,-42.969,-76.172,0.000
1709297688.241,-24.414,-42.480,-41.016,-59.570,0.000
1709297688.245,-23.438,-40.527,-40.527,-71.289,0.000
1709297688.249,-65.430,-41.504,-41.016,-83.984,0.000
1709297688.253,-91.309,-48.828,-43.945,-83.496,0.000
1709297688.257,-72.266,-54.199,-47.363,-61.035,0.000
1709297688.261,-25.879,-51.270,-48.828,-37.109,0.000
1709297688.265,-8.789,-45.410,-48.340,-42.480,0.000
1709297688.269,-37.598,-41.504,-44.922,-64.941,0.000
1709297688.273,-67.383,-45.898,-43.457,-68.848,0.000
1709297688.277,-49.316,-54.199,-45.898,-45.410,0.000
1709297688.280,0.488,-52.734,-45.410,-16.113,0.000
1709297688.284,12.695,-49.316,-43.945,-21.973,0.000
1709297688.288,-15.625,-51.270,-46.875,-60.059,0.000
1709297688.292,-48.828,-51.270,-46.875,-71.777,0.000
1709297688.296,-44.434,-55.664,-46.387,-51.758,0.000
1709297688.300,8.789,-47.363,-45.898,-22.949,0.000
1709297688.304,34.180,-40.039,-50.293,-20.508,0.000
1709297688.308,0.000,-47.363,-52.246,-47.852,0.000
1709297688.312,-43.457,-46.387,-43.945,-56.641,0.000
1709297688.316,-37.109,-38.086,-40.527,-32.227,0.000
1709297688.320,1.465,-36.621,-39.551,-8.789,0.000
1709297688.323,32.227,-38.086,-36.621,-5.859,0.000
1709297688.327,11.719,-40.039,-36.133,-13.672,0.000
1709297688.331,-35.156,-39.551,-39.551,-40.527,0.000
1709297688.335,-33.691,-40.039,-39.551,-34.180,0.000
1709297688.339,-3.418,-45.410,-41.504,0.977,0.000
1709297688.343,16.602,-44.922,-47.852,-5.859,0.000
1709297688.347,2.441,-41.992,-47.852,-31.738,0.000
1709297688.351,-36.133,-42.480,-46.875,-50.293,0.000
1709297688.355,-43.945,-41.992,-49.805,-42.969,0.000
1709297688.359,-11.719,-42.969,-50.781,-14.160,0.000
1709297688.362,16.602,-42.969,-41.992,-2.930,0.000
1709297688.366,4.883,-42.480,-39.062,-23.438,0.000
1709297688.370,-39.551,-41.504,-45.898,-38.086,0.000
1709297688.374,-54.688,-40.527,-45.410,-35.156,0.000
1709297688.378,-13.672,-35.156,-44.434,-18.066,0.000
1709297688.382,27.344,-27.832,-38.574,6.348,0.000
1709297688.386,18.066,-32.715,-34.668,-10.254,0.000
1709297688.390,-25.391,-36.621,-38.574,-42.969,0.000
1709297688.394,-45.898,-38.574,-40.527,-43.457,0.000
1709297688.398,-24.902,-42.480,-40.527,-19.043,0.000
1709297688.402,6.836,-44.434,-42.969,-4.395,0.000
1709297688.405,4.883,-42.969,-42.969,-15.137,0.000
1709297688.409,-36.133,-36.133,-38.086,-36.133,0.000
1709297688.413,-59.570,-38.086,-38.086,-35.645,0.000
1709297688.417,-38.574,-42.969,-42.969,-9.277,0.000
1709297688.421,7.324,-41.992,-41.016,3.418,0.000
1709297688.425,17.090,-45.898,-38.574,-14.160,0.000
1709297688.429,-25.391,-50.293,-40.039,-37.598,0.000
1709297688.433,-66.406,-48.340,-38.574,-36.621,0.000
1709297688.437,-55.664,-45.410,-39.062,-16.602,0.000
1709297688.441,-12.207,-41.504,-38.574,3.418,0.000
1709297688.445,-1.465,-37.109,-37.109,-18.066,0.000
1709297688.448,-40.527,-38.086,-41.504,-47.363,0.000
1709297688.452,-77.148,-43.945,-47.363,-59.570,0.000
1709297688.456,-65.430,-43.945,-44.434,-38.574,0.000
1709297688.460,-20.508,-41.504,-38.086,-7.812,0.000
1709297688.464,-4.395,-39.551,-36.133,-11.230,0.000
1709297688.468,-40.527,-39.551,-37.598,-41.016,0.000
1709297688.472,-78.613,-38.086,-37.598,-52.734,0.000
1709297688.476,-80.566,-44.922,-43.945,-36.621,0.000
1709297688.480,-48.828,-52.246,-47.363,-19.043,0.000
1709297688.484,-19.043,-48.828,-44.922,-24.902,0.000
1709297688.487,-36.621,-48.828,-40.527,-39.551,0.000
1709297688.491,-85.938,-45.410,-39.062,-54.199,0.000
1709297688.495,-86.426,-42.969,-42.969,-44.434,0.000
1709297688.499,-38.086,-42.480,-46.387,-20.996,0.000
1709297688.503,-12.695,-38.574,-42.969,-17.090,0.000
1709297688.507,-27.832,-38.574,-38.574,-38.574,0.000
1709297688.511,-62.988,-40.039,-40.039,-54.688,0.000
1709297688.515,-70.312,-37.109,-35.645,-47.852,0.000
1709297688.519,-39.062,-39.551,-34.668,-28.320,0.000
1709297688.523,-7.324,-41.016,-35.645,-6.348,0.000
1709297688.527,-21.973,-40.527,-41.504,-36.133,0.000
1709297688.530,-68.359,-41.504,-45.898,-69.336,0.000
1709297688.534,-78.125,-38.086,-42.480,-53.711,0.000
1709297688.538,-41.016,-41.504,-42.480,-23.438,0.000
1709297688.542,-10.254,-52.246,-40.527,-4.395,0.000
1709297688.546,-18.555,-52.734,-40.527,-27.344,0.000
1709297688.550,-57.129,-48.828,-43.457,-54.199,0.000
1709297688.554,-81.543,-45.410,-41.992,-52.246,0.000
1709297688.558,-45.410,-36.621,-40.527,-37.109,0.000
1709297688.562,-4.883,-39.062,-43.457,-36.621,0.000
1709297688.566,-20.996,-43.457,-40.039,-53.223,0.000
1709297688.570,-68.848,-38.086,-40.039,-76.660,0.000
1709297688.573,-87.402,-35.156,-41.504,-79.590,0.000
1709297688.577,-59.570,-37.109,-37.598,-40.527,0.000
1709297688.581,-21.484,-41.504,-41.504,-16.602,0.000
1709297688.585,-13.184,-42.480,-41.016,-32.227,0.000
1709297688.589,-46.387,-41.504,-39.062,-57.617,0.000
1709297688.593,-76.660,-36.621,-38.086,-65.918,0.000
1709297688.597,-55.176,-34.668,-36.133,-41.504,0.000
1709297688.601,-16.113,-40.527,-39.551,-26.855,0.000
1709297688.605,-3.418,-40.039,-37.109,-36.621,0.000
1709297688.609,-36.133,-38.086,-36.621,-54.688,0.000
1709297688.612,-76.172,-42.480,-37.598,-53.711,0.000
1709297688.616,-58.105,-41.016,-42.480,-28.320,0.000
1709297688.620,-6.836,-44.434,-48.828,-8.301,0.000
1709297688.624,11.230,-44.922,-41.504,-10.742,0.000
1709297688.628,-20.020,-38.574,-37.598,-32.227,0.000
1709297688.632,-62.500,-42.969,-38.086,-48.340,0.000
1709297688.636,-62.500,-49.316,-42.969,-37.598,0.000
1709297688.640,-18.555,-44.922,-45.410,-17.090,0.000
1709297688.644,9.766,-44.434,-41.992,-15.625,0.000
1709297688.648,-11.719,-44.434,-37.109,-35.645,0.000
1709297688.652,-54.688,-47.852,-36.621,-50.293,0.000
1709297688.655,-61.035,-48.828,-41.016,-29.785,0.000
1709297688.659,-20.508,-41.992,-39.062,-2.441,0.000
1709297688.663,7.812,-39.551,-38.574,-7.324,0.000
1709297688.667,-22.461,-41.504,-40.039,-37.109,0.000
1709297688.671,-71.289,-44.434,-37.598,-60.059,0.000
1709297688.675,-66.406,-45.410,-34.180,-46.875,0.000
1709297688.679,-27.344,-47.852,-38.574,-26.855,0.000
1709297688.683,-3.418,-49.316,-44.434,-18.555,0.000
1709297688.687,-20.508,-43.457,-39.551,-41.016,0.000
1709297688.691,-62.012,-44.434,-40.527,-62.012,0.000
1709297688.695,-64.941,-46.875,-43.457,-48.340,0.000
1709297688.698,-23.926,-41.992,-41.016,-23.438,0.000
1709297688.702,-2.441,-42.969,-41.504,-3.418,0.000
1709297688.706,-24.902,-49.316,-45.410,-25.879,0.000
1709297688.710,-61.523,-48.828,-46.387,-55.664,0.000
1709297688.714,-78.125,-42.969,-41.992,-40.527,0.000
1709297688.718,-52.734,-43.945,-38.574,-9.766,0.000
1709297688.722,-6.836,-40.039,-42.480,-4.883,0.000
1709297688.726,-6.836,-38.086,-40.527,-24.902,0.000
1709297688.730,-48.828,-37.598,-37.598,-51.758,0.000
1709297688.734,-66.895,-30.762,-41.504,-53.223,0.000
1709297688.737,-38.574,-32.715,-42.969,-25.879,0.000
1709297688.741,-3.418,-33.691,-43.457,-12.695,0.000
1709297688.745,-11.719,-37.109,-48.828,-28.809,0.000
1709297688.749,-49.316,-40.527,-48.340,-45.898,0.000
1709297688.753,-68.848,-38.086,-43.945,-47.852,0.000
1709297688.757,-47.363,-41.016,-38.574,-19.043,0.000
1709297688.761,-16.113,-44.922,-38.086,3.418,0.000
1709297688.765,-13.672,-42.480,-40.039,-18.066,0.000
1709297688.769,-46.387,-42.969,-39.551,-53.223,0.000
1709297688.773,-78.125,-45.410,-41.016,-53.223,0.000
1709297688.777,-64.941,-47.363,-41.992,-36.621,0.000
1709297688.780,-17.578,-47.852,-44.434,-21.973,0.000
1709297688.784,0.488,-41.992,-43.945,-26.367,0.000
1709297688.788,-35.156,-41.992,-41.504,-52.734,0.000
1709297688.792,-77.637,-47.852,-41.992,-63.965,0.000
1709297688.796,-64.453,-45.898,-39.551,-40.039,0.000
1709297688.800,-21.484,-41.504,-38.086,-14.160,0.000
1709297688.804,-6.836,-41.504,-40.039,-14.160,0.000
1709297688.808,-33.691,-38.086,-36.621,-27.832,0.000
1709297688.812,-72.754,-39.062,-35.645,-43.457,0.000
1709297688.816,-62.500,-38.574,-36.621,-24.902,0.000
1709297688.820,-16.602,-38.574,-37.109,-2.441,0.000
1709297688.823,6.836,-41.992,-41.016,-11.719,0.000
1709297688.827,-18.066,-39.551,-43.945,-44.922,0.000
1709297688.831,-61.523,-36.621,-44.434,-64.453,0.000
1709297688.835,-63.477,-39.551,-41.992,-36.133,0.000
1709297688.839,-21.484,-40.039,-39.551,-0.977,0.000
1709297688.843,4.395,-37.598,-41.992,-0.977,0.000
1709297688.847,-14.160,-39.062,-39.551,-29.297,0.000
1709297688.851,-47.852,-37.598,-30.762,-25.879,0.000
1709297688.855,-47.852,-33.203,-31.250,-11.719,0.000
1709297688.859,-9.277,-35.645,-35.645,-1.465,0.000
1709297688.862,21.973,-37.598,-33.203,10.254,0.000
1709297688.866,7.812,-35.645,-34.668,-9.766,0.000
1709297688.870,-38.574,-35.645,-38.574,-38.086,0.000
1709297688.874,-53.711,-41.992,-39.062,-28.809,0.000
1709297688.878,-15.625,-45.898,-38.086,2.441,0.000
1709297688.882,19.043,-42.969,-41.016,5.859,0.000
1709297688.886,9.766,-40.527,-39.062,-9.277,0.000
1709297688.890,-29.297,-38.086,-35.156,-27.344,0.000
1709297688.894,-50.781,-36.621,-39.062,-21.973,0.000
1709297688.898,-22.949,-38.574,-39.551,15.625,0.000
1709297688.902,14.648,-34.668,-39.551,18.066,0.000
1709297688.905,13.672,-29.785,-38.086,-6.836,0.000
1709297688.909,-30.273,-34.180,-35.645,-33.691,0.000
1709297688.913,-67.383,-37.109,-39.551,-39.062,0.000
1709297688.917,-39.062,-39.551,-44.434,-8.789,0.000
1709297688.921,6.836,-41.992,-44.922,1.465,0.000
1709297688.925,10.742,-37.598,-47.852,-20.996,0.000
1709297688.929,-24.902,-32.715,-41.504,-38.574,0.000
1709297688.933,-67.383,-34.668,-36.621,-38.086,0.000
1709297688.937,-50.781,-38.086,-42.969,-23.926,0.000
1709297688.941,-4.883,-42.969,-43.457,0.977,0.000
1709297688.944,5.859,-43.457,-41.504,-5.371,0.000
1709297688.948,-24.902,-43.945,-43.457,-38.574,0.000
1709297688.952,-61.523,-43.945,-41.504,-45.410,0.000
1709297688.956,-50.781,-42.480,-38.086,-23.438,0.000
1709297688.960,-7.324,-46.875,-36.133,0.488,0.000
1709297688.964,9.766,-50.781,-38.086,-5.371,0.000
1709297688.968,-19.043,-52.246,-44.434,-26.855,0.000
1709297688.972,-55.176,-46.875,-44.434,-35.645,0.000
1709297688.976,-48.828,-41.504,-45.898,-25.879,0.000
1709297688.980,-1.953,-40.039,-48.340,-5.859,0.000
1709297688.984,28.320,-34.180,-43.457,-1.953,0.000
1709297688.987,-1.465,-31.250,-43.457,-22.949,0.000
1709297688.991,-41.504,-31.738,-46.875,-51.270,0.000
1709297688.995,-47.852,-36.133,-42.480,-41.016,0.000
1709297688.999,-12.207,-40.039,-43.457,-8.301,0.000
1709297689.003,17.090,-39.062,-46.875,-10.742,0.000
1709297689.007,-5.859,-40.039,-45.898,-35.156,0.000
1709297689.011,-51.270,-37.109,-44.434,-48.340,0.000
1709297689.015,-57.617,-34.180,-40.039,-33.203,0.000
1709297689.019,-15.625,-35.645,-40.039,-7.812,0.000
1709297689.023,16.602,-35.645,-37.598,-4.883,0.000
1709297689.027,-7.812,-40.039,-38.086,-29.297,0.000
1709297689.030,-62.500,-47.363,-41.992,-42.480,0.000
1709297689.034,-83.008,-47.363,-43.945,-30.762,0.000
1709297689.038,-43.945,-43.457,-41.992,-20.996,0.000
1709297689.042,-8.301,-49.316,-41.992,-20.508,0.000
1709297689.046,-21.973,-48.828,-36.133,-39.062,0.000
1709297689.050,-63.477,-41.992,-40.527,-61.035,0.000
1709297689.054,-79.590,-41.016,-42.480,-55.176,0.000
1709297689.058,-54.199,-43.945,-37.109,-32.715,0.000
1709297689.062,-10.742,-40.039,-41.992,-15.137,0.000
1709297689.066,-7.812,-37.109,-44.434,-34.668,0.000
1709297689.069,-54.199,-43.457,-44.922,-62.988,0.000
1709297689.073,-79.102,-46.875,-41.016,-56.152,0.000
1709297689.077,-62.988,-49.805,-40.527,-20.996,0.000
1709297689.081,-23.438,-46.875,-44.922,-7.324,0.000
1709297689.085,-12.207,-40.527,-43.457,-31.738,0.000
1709297689.089,-49.316,-36.133,-40.039,-55.664,0.000
1709297689.093,-76.660,-34.668,-38.574,-50.293,0.000
1709297689.097,-59.082,-37.598,-40.039,-31.738,0.000
1709297689.101,-15.137,-36.133,-41.504,-10.742,0.000
1709297689.105,-2.930,-35.156,-38.574,-7.812,0.000
1709297689.109,-45.898,-35.645,-36.621,-41.504,0.000
1709297689.112,-70.801,-36.133,-32.715,-49.316,0.000
1709297689.116,-50.293,-35.645,-35.156,-20.996,0.000
1709297689.120,-8.789,-35.645,-36.621,-2.930,0.000
1709297689.124,6.348,-30.273,-32.227,-10.742,0.000
1709297689.128,-27.344,-25.391,-32.715,-41.992,0.000
1709297689.132,-70.801,-32.715,-41.016,-60.059,0.000
1709297689.136,-63.965,-37.598,-41.504,-28.320,0.000
1709297689.140,-14.648,-40.039,-42.969,-3.906,0.000
1709297689.144,13.184,-37.109,-42.969,-10.742,0.000
1709297689.148,-12.207,-32.227,-36.133,-31.738,0.000
1709297689.152,-52.734,-35.156,-41.016,-43.457,0.000
1709297689.155,-56.152,-41.504,-45.898,-29.297,0.000
1709297689.159,-23.438,-46.387,-41.992,-18.555,0.000
1709297689.163,-0.488,-45.898,-42.969,-20.508,0.000
1709297689.167,-28.809,-46.387,-45.898,-37.598,0.000
1709297689.171,-76.172,-42.969,-48.828,-55.176,0.000
1709297689.175,-81.055,-37.598,-46.875,-38.086,0.000
1709297689.179,-36.621,-40.527,-44.922,-10.742,0.000
1709297689.183,-4.883,-41.016,-47.852,2.930,0.000
1709297689.187,-11.719,-32.227,-44.922,-16.602,0.000
1709297689.191,-45.410,-31.738,-40.039,-47.852,0.000
1709297689.194,-56.641,-35.156,-35.156,-32.715,0.000
1709297689.198,-21.973,-37.598,-37.109,-0.488,0.000
1709297689.202,10.254,-41.504,-41.016,3.906,0.000
1709297689.206,-3.906,-41.016,-40.039,-27.832,0.000
1709297689.210,-38.086,-38.574,-37.109,-51.758,0.000
1709297689.214,-58.105,-39.551,-35.156,-40.039,0.000
1709297689.218,-26.367,-36.133,-37.109,-12.695,0.000
1709297689.222,18.066,-34.668,-36.133,4.395,0.000
1709297689.226,5.371,-39.062,-32.715,-9.277,0.000
1709297689.230,-37.109,-36.621,-39.551,-34.668,0.000
1709297689.234,-54.688,-33.691,-41.016,-38.086,0.000
1709297689.237,-29.785,-34.180,-35.645,-5.859,0.000
1709297689.241,7.812,-36.621,-36.621,5.371,0.000
1709297689.245,6.836,-37.109,-38.086,-26.855,0.000
1709297689.249,-37.109,-40.527,-41.504,-62.500,0.000
1709297689.253,-67.383,-39.551,-42.480,-64.941,0.000
1709297689.257,-45.898,-37.109,-41.016,-31.250,0.000
1709297689.261,-2.441,-37.109,-41.504,-6.836,0.000
1709297689.265,8.301,-37.598,-43.945,-27.344,0.000
1709297689.269,-22.949,-41.016,-44.922,-52.246,0.000
1709297689.273,-63.965,-39.062,-42.480,-45.410,0.000
1709297689.277,-50.781,-34.180,-40.527,-33.691,0.000
1709297689.280,-9.766,-40.527,-38.574,-21.484,0.000
1709297689.284,-5.371,-47.852,-41.992,-33.691,0.000
1709297689.288,-41.016,-43.457,-49.805,-65.430,0.000
1709297689.292,-78.613,-46.387,-53.711,-72.754,0.000
1709297689.296,-75.684,-49.316,-49.805,-53.711,0.000
1709297689.300,-30.762,-41.504,-47.852,-23.438,0.000
1709297689.304,-8.301,-41.016,-49.805,-24.902,0.000
1709297689.308,-37.598,-42.480,-46.387,-48.828,0.000
1709297689.312,-74.219,-41.016,-43.457,-64.453,0.000
1709297689.316,-72.754,-43.457,-41.504,-42.969,0.000
1709297689.319,-28.809,-38.574,-43.457,-9.277,0.000
1709297689.323,-0.977,-32.227,-40.039,-17.090,0.000
1709297689.327,-34.668,-40.527,-37.598,-54.199,0.000
1709297689.331,-80.078,-42.480,-38.574,-62.988,0.000
1709297689.335,-74.707,-36.133,-40.527,-46.387,0.000
1709297689.339,-33.203,-37.598,-39.062,-27.344,0.000
1709297689.343,-6.836,-36.621,-38.574,-17.578,0.000
1709297689.347,-25.879,-38.086,-41.016,-31.250,0.000
1709297689.351,-65.918,-39.062,-39.062,-42.969,0.000
1709297689.355,-72.754,-35.156,-39.062,-29.297,0.000
1709297689.359,-33.203,-36.133,-38.086,-2.441,0.000
1709297689.362,-1.465,-39.551,-36.621,15.625,0.000
1709297689.366,-15.625,-39.062,-40.039,-17.090,0.000
1709297689.370,-62.012,-40.527,-37.109,-56.152,0.000
1709297689.374,-85.449,-44.434,-37.109,-52.246,0.000
1709297689.378,-53.223,-44.922,-47.363,-28.809,0.000
1709297689.382,-11.230,-41.504,-49.316,-16.602,0.000
1709297689.386,-18.555,-39.062,-45.410,-33.691,0.000
1709297689.390,-58.594,-39.062,-45.410,-52.246,0.000
1709297689.394,-67.871,-34.668,-47.363,-44.922,0.000
1709297689.398,-35.645,-33.203,-45.898,-18.555,0.000
1709297689.402,0.000,-35.645,-39.062,-4.883,0.000
1709297689.405,-10.254,-38.086,-43.945,-30.273,0.000
1709297689.409,-57.617,-39.551,-47.852,-65.430,0.000
1709297689.413,-87.402,-39.062,-45.410,-73.242,0.000
1709297689.417,-68.848,-44.922,-46.875,-44.434,0.000
1709297689.421,-23.926,-45.410,-41.992,-18.555,0.000
1709297689.425,-9.766,-37.109,-38.086,-29.297,0.000
1709297689.429,-44.922,-39.551,-43.457,-56.641,0.000
1709297689.433,-78.613,-42.480,-45.410,-52.734,0.000
1709297689.437,-53.223,-38.086,-47.852,-20.020,0.000
1709297689.441,0.977,-40.039,-48.340,2.441,0.000
1709297689.444,8.301,-42.480,-43.945,-21.973,0.000
1709297689.448,-32.227,-44.434,-43.457,-64.453,0.000
1709297689.452,-81.055,-48.340,-42.480,-63.965,0.000
1709297689.456,-70.312,-47.363,-39.551,-39.551,0.000
1709297689.460,-20.508,-47.852,-44.922,-20.996,0.000
1709297689.464,-9.766,-44.434,-46.875,-24.414,0.000
1709297689.468,-38.086,-45.410,-42.969,-57.129,0.000
1709297689.472,-68.848,-46.387,-40.527,-69.824,0.000
1709297689.476,-62.012,-40.039,-37.598,-54.199,0.000
1709297689.480,-19.531,-42.969,-39.062,-39.551,0.000
1709297689.484,4.395,-41.992,-41.016,-34.668,0.000
1709297689.487,-20.020,-36.133,-40.039,-51.758,0.000
1709297689.491,-60.059,-38.086,-39.062,-69.336,0.000
1709297689.495,-66.406,-42.480,-42.480,-49.316,0.000
1709297689.499,-32.715,-44.922,-45.410,-23.926,0.000
1709297689.503,-5.859,-49.316,-42.480,-30.762,0.000
1709297689.507,-28.809,-47.852,-38.086,-52.246,0.000
1709297689.511,-75.195,-49.805,-38.574,-59.082,0.000
1709297689.515,-79.102,-51.270,-43.457,-40.527,0.000
1709297689.519,-30.273,-47.363,-45.410,-15.137,0.000
1709297689.523,0.000,-48.340,-43.945,-11.230,0.000
1709297689.527,0.000,-44.434,-40.527,-29.297,0.000
1709297689.530,0.000,-35.645,-39.551,-39.551,0.000
1709297689.534,0.000,-44.434,-39.551,-34.668,0.000
1709297689.538,0.000,-52.734,-40.039,-20.996,0.000
1709297689.542,0.000,-52.246,-45.410,-17.578,0.000
1709297689.546,0.000,-53.711,-47.363,-50.293,0.000
1709297689.550,0.000,-49.805,-49.805,-78.125,0.000
1709297689.554,0.000,-45.898,-48.828,-63.477,0.000
1709297689.558,0.000,-47.363,-47.363,-19.043,0.000
1709297689.562,0.000,-44.922,-50.293,-13.184,0.000
1709297689.566,0.000,-41.504,-51.270,-37.109,0.000
1709297689.569,-46.875,-42.969,-48.340,-58.594,0.000
1709297689.573,-72.754,-43.457,-53.711,-62.988,0.000
1709297689.577,-47.852,-39.062,-54.688,-42.969,0.000
1709297689.581,-7.812,-39.062,-49.805,-22.949,0.000
1709297689.585,-9.277,-41.992,-49.805,-34.180,0.000
1709297689.589,-54.199,-45.410,-47.852,-55.664,0.000
1709297689.593,-82.520,-47.363,-45.410,-48.828,0.000
1709297689.597,-56.641,-44.434,-40.527,-24.902,0.000
1709297689.601,-11.719,-40.039,-37.598,0.488,0.000
1709297689.605,-3.418,-38.086,-40.527,-6.348,0.000
1709297689.609,-34.668,-36.621,-45.410,-41.504,0.000
1709297689.612,-69.336,-37.598,-43.457,-55.176,0.000
1709297689.616,-59.082,-39.062,-43.457,-34.668,0.000
1709297689.620,-9.277,-34.180,-44.434,-9.277,0.000
1709297689.624,2.930,-32.227,-39.551,-8.301,0.000
1709297689.628,-38.574,-35.156,-36.621,-28.320,0.000
1709297689.632,-77.148,-41.992,-35.645,-43.457,0.000
1709297689.636,-57.129,-42.969,-35.156,-31.738,0.000
1709297689.640,-15.137,-39.551,-40.039,-12.695,0.000
1709297689.644,-4.395,-38.574,-41.992,-9.766,0.000
1709297689.648,-35.156,-40.039,-44.434,-25.879,0.000
1709297689.652,-67.383,-35.645,-47.852,-43.945,0.000
1709297689.655,-68.848,-37.598,-44.434,-32.715,0.000
1709297689.659,-34.180,-38.086,-43.945,-10.254,0.000
1709297689.663,0.977,-33.691,-41.016,-15.625,0.000
1709297689.667,-24.902,-39.551,-42.969,-47.852,0.000
1709297689.671,-65.918,-44.434,-44.434,-53.223,0.000
1709297689.675,-60.547,-44.434,-39.062,-28.320,0.000
1709297689.679,-15.137,-38.574,-39.062,-5.859,0.000
1709297689.683,10.254,-37.109,-42.969,-9.766,0.000
1709297689.687,-15.137,-36.133,-39.062,-34.180,0.000
1709297689.691,-60.059,-37.598,-41.504,-47.363,0.000
1709297689.694,-72.266,-40.039,-44.922,-29.785,0.000
1709297689.698,-34.180,-37.109,-41.992,-8.789,0.000
1709297689.702,4.883,-40.527,-42.480,-4.883,0.000
1709297689.706,-4.883,-39.062,-39.551,-24.414,0.000
