timestamps,TP9,AF7,AF8,TP10,Right AUX
1709214586.139,-35.156,-34.668,-42.969,-48.340,0.000
1709214586.142,-38.574,-37.109,-40.039,-34.668,0.000
1709214586.146,-41.992,-30.273,-39.551,-32.715,0.000
1709214586.150,-36.621,-24.902,-36.133,-32.227,0.000
1709214586.154,-33.203,-26.855,-33.691,-34.180,0.000
1709214586.158,-29.297,-30.762,-35.645,-34.668,0.000
1709214586.162,-29.785,-25.879,-35.645,-37.109,0.000
1709214586.166,-37.598,-30.273,-36.621,-51.270,0.000
1709214586.170,-32.227,-41.992,-34.668,-51.758,0.000
1709214586.174,-25.391,-39.062,-29.785,-51.270,0.000
1709214586.178,-28.809,-32.715,-32.715,-49.316,0.000
1709214586.181,-36.621,-27.344,-44.922,-48.828,0.000
1709214586.185,-36.133,-22.461,-33.203,-41.016,0.000
1709214586.189,-32.227,-26.367,-22.461,-40.039,0.000
1709214586.193,-35.645,-34.180,-34.180,-51.270,0.000
1709214586.197,-38.086,-35.156,-35.156,-53.223,0.000
1709214586.201,-32.227,-28.320,-30.273,-44.922,0.000
1709214586.205,-33.203,-25.391,-30.273,-31.250,0.000
1709214586.209,-31.250,-32.715,-29.297,-28.809,0.000
1709214586.213,-24.414,-39.551,-26.367,-29.785,0.000
1709214586.217,-29.785,-39.551,-23.926,-28.809,0.000
1709214586.221,-36.621,-38.574,-28.809,-25.391,0.000
1709214586.225,-31.738,-46.387,-35.645,-22.949,0.000
1709214586.228,-22.461,-41.992,-39.551,-29.785,0.000
1709214586.232,-14.160,-26.855,-39.062,-28.320,0.000
1709214586.236,-10.254,-26.855,-34.180,-26.855,0.000
1709214586.240,-23.438,-31.250,-39.551,-33.691,0.000
1709214586.244,-27.832,-35.645,-41.016,-24.902,0.000
1709214586.248,-24.902,-41.504,-34.180,-23.926,0.000
1709214586.252,-28.809,-44.434,-34.668,-28.809,0.000
1709214586.256,-23.926,-41.992,-40.039,-30.273,0.000
1709214586.260,-28.320,-48.340,-48.828,-34.180,0.000
1709214586.264,-40.527,-62.988,-45.898,-23.438,0.000
1709214586.268,-33.203,-53.711,-43.457,-12.695,0.000
1709214586.271,-37.598,-34.668,-44.922,-25.391,0.000
1709214586.275,-39.062,-34.180,-38.574,-31.738,0.000
1709214586.279,-36.621,-33.691,-33.691,-24.414,0.000
1709214586.283,-48.340,-33.691,-36.133,-29.785,0.000
1709214586.287,-42.480,-40.039,-33.203,-33.691,0.000
1709214586.291,-32.715,-38.086,-35.645,-31.738,0.000
1709214586.295,-31.250,-38.086,-36.133,-38.574,0.000
1709214586.299,-38.086,-41.016,-31.738,-38.086,0.000
1709214586.303,-43.945,-37.598,-38.574,-34.180,0.000
1709214586.307,-38.086,-35.645,-41.016,-30.273,0.000
1709214586.311,-28.809,-37.109,-37.109,-23.926,0.000
1709214586.314,-28.320,-37.598,-40.039,-25.879,0.000
1709214586.318,-26.367,-43.457,-37.598,-35.645,0.000
1709214586.322,-33.203,-39.062,-38.574,-43.945,0.000
1709214586.326,-41.992,-36.133,-43.945,-40.527,0.000
1709214586.330,-30.273,-31.250,-35.645,-39.062,0.000
1709214586.334,-26.855,-26.367,-35.156,-37.109,0.000
1709214586.338,-29.785,-36.621,-40.527,-40.527,0.000
1709214586.342,-29.785,-36.621,-36.621,-45.410,0.000
1709214586.346,-36.621,-36.133,-38.086,-45.898,0.000
1709214586.350,-39.551,-36.133,-39.062,-46.875,0.000
1709214586.353,-38.086,-40.527,-31.738,-39.062,0.000
1709214586.357,-41.504,-43.457,-36.133,-35.645,0.000
1709214586.361,-44.922,-41.992,-44.434,-44.922,0.000
1709214586.365,-52.734,-47.852,-43.457,-52.734,0.000
1709214586.369,-52.246,-39.062,-35.645,-57.129,0.000
1709214586.373,-47.852,-32.715,-41.992,-57.129,0.000
1709214586.377,-48.340,-32.227,-42.969,-53.711,0.000
1709214586.381,-43.945,-32.227,-33.203,-49.316,0.000
1709214586.385,-38.086,-32.715,-39.062,-44.922,0.000
1709214586.389,-39.551,-29.297,-39.062,-43.945,0.000
1709214586.393,-44.434,-30.762,-30.762,-40.527,0.000
1709214586.396,-52.734,-37.598,-37.109,-45.410,0.000
1709214586.400,-60.059,-42.480,-36.133,-54.688,0.000
1709214586.404,-57.617,-49.805,-33.203,-53.223,0.000
1709214586.408,-58.594,-55.176,-34.180,-56.641,0.000
1709214586.412,-59.082,-50.781,-31.738,-56.641,0.000
1709214586.416,-62.988,-42.969,-35.645,-64.941,0.000
1709214586.420,-62.500,-30.273,-40.527,-67.871,0.000
1709214586.424,-50.293,-33.691,-38.086,-55.176,0.000
1709214586.428,-46.875,-38.574,-35.645,-52.246,0.000
1709214586.432,-55.664,-39.551,-41.992,-60.547,0.000
1709214586.435,-55.176,-42.969,-42.480,-62.012,0.000
1709214586.439,-58.594,-49.805,-44.922,-66.406,0.000
1709214586.443,-58.105,-45.898,-46.875,-60.547,0.000
1709214586.447,-52.734,-30.762,-42.969,-57.129,0.000
1709214586.451,-51.758,-24.902,-47.852,-68.359,0.000
1709214586.455,-47.852,-32.715,-51.270,-62.012,0.000
1709214586.459,-59.082,-45.898,-48.828,-67.383,0.000
1709214586.463,-59.082,-41.504,-43.945,-66.406,0.000
1709214586.467,-48.340,-35.156,-48.340,-54.688,0.000
1709214586.471,-42.480,-36.133,-42.480,-57.129,0.000
1709214586.474,-38.574,-38.086,-34.180,-64.941,0.000
1709214586.478,-44.434,-43.945,-37.109,-70.801,0.000
1709214586.482,-51.758,-42.480,-33.203,-60.059,0.000
1709214586.486,-46.875,-34.180,-37.598,-47.852,0.000
1709214586.490,-45.410,-35.645,-51.270,-47.852,0.000
1709214586.494,-45.410,-36.621,-47.852,-53.711,0.000
1709214586.498,-41.992,-38.086,-38.574,-56.152,0.000
1709214586.502,-38.086,-37.598,-38.086,-51.758,0.000
1709214586.506,-40.039,-36.621,-41.992,-56.152,0.000
1709214586.510,-33.691,-45.898,-38.574,-53.711,0.000
1709214586.513,-19.531,-34.180,-33.691,-41.016,0.000
1709214586.517,-24.902,-27.832,-39.062,-51.270,0.000
1709214586.521,-40.039,-41.504,-44.434,-59.570,0.000
1709214586.525,-35.156,-38.574,-41.992,-45.898,0.000
1709214586.529,-31.250,-31.250,-39.062,-41.992,0.000
1709214586.533,-32.227,-33.203,-35.156,-37.598,0.000
1709214586.537,-39.551,-36.133,-39.551,-38.086,0.000
1709214586.541,-48.828,-34.180,-39.062,-42.480,0.000
1709214586.545,-40.527,-33.691,-29.297,-30.273,0.000
1709214586.549,-43.457,-43.945,-37.109,-32.227,0.000
1709214586.552,-57.129,-56.152,-51.270,-47.363,0.000
1709214586.556,-55.664,-51.758,-49.316,-50.781,0.000
1709214586.560,-50.293,-53.223,-51.758,-47.363,0.000
1709214586.564,-53.711,-52.246,-53.711,-45.898,0.000
1709214586.568,-46.875,-36.621,-43.945,-45.410,0.000
1709214586.572,-34.180,-26.367,-36.133,-41.016,0.000
1709214586.576,-35.156,-27.344,-39.062,-50.293,0.000
1709214586.580,-41.016,-33.691,-41.992,-58.105,0.000
1709214586.584,-38.574,-32.715,-39.551,-50.293,0.000
1709214586.588,-36.133,-30.273,-37.109,-45.410,0.000
1709214586.592,-33.203,-27.832,-36.621,-39.062,0.000
1709214586.595,-23.438,-28.809,-41.016,-38.086,0.000
1709214586.599,-34.180,-33.203,-47.363,-51.758,0.000
1709214586.603,-49.316,-39.551,-42.480,-54.199,0.000
1709214586.607,-45.410,-42.480,-38.086,-45.898,0.000
1709214586.611,-42.969,-33.691,-41.504,-52.246,0.000
1709214586.615,-39.062,-24.902,-45.898,-63.477,0.000
1709214586.619,-42.969,-26.855,-48.340,-57.617,0.000
1709214586.623,-45.410,-27.832,-41.016,-35.645,0.000
1709214586.627,-41.504,-29.785,-36.621,-34.668,0.000
1709214586.631,-43.457,-34.668,-43.457,-48.340,0.000
1709214586.635,-42.480,-30.273,-44.922,-57.129,0.000
1709214586.638,-41.992,-38.574,-38.086,-45.898,0.000
1709214586.642,-47.852,-42.480,-36.621,-35.645,0.000
1709214586.646,-50.293,-41.504,-41.016,-49.316,0.000
1709214586.650,-50.293,-41.016,-38.574,-51.758,0.000
1709214586.654,-48.828,-30.762,-39.551,-48.340,0.000
1709214586.658,-53.711,-35.156,-35.645,-46.387,0.000
1709214586.662,-61.035,-38.574,-30.762,-45.410,0.000
1709214586.666,-63.477,-33.203,-36.621,-38.574,0.000
1709214586.670,-52.734,-38.574,-40.527,-38.574,0.000
1709214586.674,-41.504,-46.875,-32.715,-40.039,0.000
1709214586.678,-41.992,-49.805,-30.273,-36.621,0.000
1709214586.681,-43.945,-43.457,-30.762,-35.645,0.000
1709214586.685,-48.828,-39.062,-31.250,-24.902,0.000
1709214586.689,-49.316,-41.992,-31.250,-27.344,0.000
1709214586.693,-49.316,-49.805,-38.086,-40.039,0.000
1709214586.697,-52.734,-44.434,-41.016,-42.480,0.000
1709214586.701,-52.246,-36.621,-39.551,-38.574,0.000
1709214586.705,-54.199,-39.062,-42.969,-41.992,0.000
1709214586.709,-50.781,-43.945,-38.574,-46.387,0.000
1709214586.713,-36.133,-44.922,-29.297,-41.016,0.000
1709214586.717,-30.273,-37.109,-27.344,-40.527,0.000
1709214586.721,-39.551,-40.527,-33.691,-38.574,0.000
1709214586.724,-41.992,-50.781,-36.133,-34.668,0.000
1709214586.728,-32.227,-48.340,-36.133,-26.367,0.000
1709214586.732,-27.344,-46.387,-36.133,-21.973,0.000
1709214586.736,-30.762,-44.434,-41.992,-33.203,0.000
1709214586.740,-35.645,-34.180,-44.922,-41.504,0.000
1709214586.744,-29.785,-30.273,-38.574,-29.785,0.000
1709214586.748,-29.785,-31.250,-41.016,-25.391,0.000
1709214586.752,-35.156,-38.574,-44.922,-44.434,0.000
1709214586.756,-28.809,-36.621,-45.410,-45.898,0.000
1709214586.760,-33.691,-36.621,-46.387,-40.039,0.000
1709214586.763,-36.621,-45.410,-44.922,-38.574,0.000
1709214586.767,-20.508,-42.969,-40.039,-27.832,0.000
1709214586.771,-16.602,-33.203,-38.086,-22.949,0.000
1709214586.775,-26.367,-34.180,-34.180,-21.484,0.000
1709214586.779,-29.297,-50.293,-35.156,-26.855,0.000
1709214586.783,-26.367,-39.062,-38.574,-26.855,0.000
1709214586.787,-23.926,-26.367,-26.855,-15.625,0.000
1709214586.791,-35.645,-33.691,-31.738,-29.297,0.000
1709214586.795,-35.645,-32.227,-35.645,-31.250,0.000
1709214586.799,-34.180,-28.809,-31.738,-26.855,0.000
1709214586.802,-41.504,-35.156,-38.086,-29.785,0.000
1709214586.806,-42.480,-41.504,-37.598,-28.809,0.000
1709214586.810,-43.945,-42.969,-34.180,-30.273,0.000
1709214586.814,-40.039,-39.062,-30.762,-26.855,0.000
1709214586.818,-41.504,-34.180,-36.621,-23.926,0.000
1709214586.822,-44.922,-36.621,-37.109,-16.113,0.000
1709214586.826,-43.457,-42.480,-32.715,-21.973,0.000
1709214586.830,-36.621,-30.762,-36.621,-33.691,0.000
1709214586.834,-21.973,-23.926,-41.016,-39.062,0.000
1709214586.838,-19.531,-33.691,-44.434,-41.992,0.000
1709214586.842,-20.996,-32.227,-41.992,-39.551,0.000
1709214586.846,-14.160,-30.762,-39.551,-43.457,0.000
1709214586.849,-7.812,-33.691,-42.969,-41.016,0.000
1709214586.853,-5.371,-30.273,-38.574,-32.715,0.000
1709214586.857,-12.207,-30.273,-37.109,-41.992,0.000
1709214586.861,-23.926,-37.598,-40.527,-42.480,0.000
1709214586.865,-23.926,-46.387,-37.598,-26.367,0.000
1709214586.869,-19.531,-43.457,-39.062,-31.250,0.000
1709214586.873,-28.320,-34.180,-44.922,-42.969,0.000
1709214586.877,-35.645,-34.180,-44.922,-40.527,0.000
1709214586.881,-33.691,-29.297,-41.504,-35.156,0.000
1709214586.885,-38.086,-34.180,-50.781,-37.109,0.000
1709214586.888,0.000,-37.598,-51.270,-36.133,0.000
1709214586.892,0.000,-37.109,-40.527,-41.504,0.000
1709214586.896,0.000,-47.852,-39.551,-47.363,0.000
1709214586.900,0.000,-50.781,-42.480,-47.852,0.000
1709214586.904,0.000,-41.504,-46.875,-38.574,0.000
1709214586.908,0.000,-33.691,-42.480,-29.785,0.000
1709214586.912,0.000,-29.785,-36.621,-37.109,0.000
1709214586.916,0.000,-35.645,-40.039,-46.875,0.000
1709214586.920,0.000,-39.062,-41.016,-47.363,0.000
1709214586.924,0.000,-36.133,-40.527,-28.809,0.000
1709214586.927,0.000,-44.922,-42.480,-20.020,0.000
1709214586.931,0.000,-52.246,-54.199,-36.621,0.000
1709214586.935,-34.668,-42.480,-54.688,-40.527,0.000
1709214586.939,-36.133,-35.156,-45.410,-36.621,0.000
1709214586.943,-43.457,-38.086,-43.945,-41.504,0.000
1709214586.947,-35.645,-28.320,-44.434,-44.434,0.000
1709214586.951,-26.367,-30.762,-46.875,-37.109,0.000
1709214586.955,-32.715,-41.504,-48.340,-53.711,0.000
1709214586.959,-49.805,-33.691,-48.340,-64.941,0.000
1709214586.963,-44.922,-31.250,-50.293,-45.410,0.000
1709214586.967,-35.645,-38.086,-53.711,-44.434,0.000
1709214586.970,-41.016,-41.016,-51.270,-47.852,0.000
1709214586.974,-41.992,-41.992,-46.875,-52.246,0.000
1709214586.978,-40.527,-47.363,-48.340,-54.688,0.000
1709214586.982,-42.480,-41.504,-44.434,-45.898,0.000
1709214586.986,-42.969,-32.715,-47.363,-43.945,0.000
1709214586.990,-32.715,-32.227,-55.176,-42.480,0.000
1709214586.994,-28.320,-34.180,-54.688,-40.527,0.000
1709214586.998,-43.457,-38.086,-46.875,-52.246,0.000
1709214587.002,-55.176,-37.109,-47.363,-55.176,0.000
1709214587.006,-45.410,-37.598,-50.293,-48.340,0.000
1709214587.010,-37.109,-41.016,-43.945,-50.293,0.000
1709214587.014,-33.691,-46.875,-35.156,-37.109,0.000
1709214587.017,-31.250,-44.434,-28.320,-21.973,0.000
1709214587.021,-37.598,-36.133,-32.227,-30.762,0.000
1709214587.025,-44.922,-49.805,-42.480,-41.504,0.000
1709214587.029,-40.039,-54.688,-45.898,-34.668,0.000
1709214587.033,-32.227,-53.223,-43.457,-28.809,0.000
1709214587.037,-33.203,-49.805,-40.039,-30.762,0.000
1709214587.041,-40.039,-28.320,-45.410,-31.738,0.000
1709214587.045,-37.109,-16.602,-43.945,-23.926,0.000
1709214587.049,-24.414,-21.973,-41.504,-20.508,0.000
1709214587.053,-21.973,-29.297,-53.711,-24.902,0.000
1709214587.057,-28.320,-30.273,-52.734,-26.367,0.000
1709214587.060,-32.227,-33.691,-45.898,-16.602,0.000
1709214587.064,-30.273,-37.598,-51.270,-22.461,0.000
1709214587.068,-28.809,-35.645,-46.875,-32.715,0.000
1709214587.072,-24.414,-33.691,-40.527,-25.879,0.000
1709214587.076,-20.996,-31.738,-40.039,-20.508,0.000
1709214587.080,-31.250,-39.062,-38.574,-28.320,0.000
1709214587.084,-31.738,-40.527,-37.598,-38.574,0.000
1709214587.088,-28.320,-38.574,-39.062,-42.480,0.000
1709214587.092,-24.902,-37.109,-31.738,-41.016,0.000
1709214587.096,-24.414,-29.785,-27.832,-42.969,0.000
1709214587.099,-27.832,-41.016,-37.109,-47.363,0.000
1709214587.103,-24.902,-44.434,-33.691,-32.227,0.000
1709214587.107,-24.902,-34.180,-30.273,-29.785,0.000
1709214587.111,-26.367,-30.273,-41.504,-45.898,0.000
1709214587.115,-22.461,-34.180,-42.969,-38.086,0.000
1709214587.119,-22.461,-41.016,-34.180,-27.344,0.000
1709214587.123,-25.391,-48.828,-32.227,-25.879,0.000
1709214587.127,-17.578,-49.316,-39.062,-21.484,0.000
1709214587.131,-13.672,-49.316,-44.922,-15.137,0.000
1709214587.135,-25.879,-41.992,-43.945,-16.113,0.000
1709214587.138,-34.668,-35.645,-42.969,-17.578,0.000
1709214587.142,-31.738,-35.645,-43.945,-13.184,0.000
1709214587.146,-31.250,-31.738,-47.363,-21.973,0.000
1709214587.150,-29.785,-31.738,-45.410,-16.113,0.000
1709214587.154,-24.902,-28.320,-34.180,-16.113,0.000
1709214587.158,-24.902,-26.367,-32.227,-30.273,0.000
1709214587.162,-29.297,-42.480,-41.992,-27.344,0.000
1709214587.166,-20.020,-49.316,-37.598,-22.461,0.000
1709214587.170,-19.043,-38.086,-33.203,-23.438,0.000
1709214587.174,-24.414,-36.621,-41.016,-25.391,0.000
1709214587.178,-25.391,-45.898,-38.086,-24.414,0.000
1709214587.181,-32.227,-43.457,-26.367,-19.043,0.000
1709214587.185,-41.016,-35.645,-29.785,-23.438,0.000
1709214587.189,-43.457,-38.086,-26.855,-25.879,0.000
1709214587.193,-50.781,-44.434,-32.227,-21.484,0.000
1709214587.197,-56.152,-41.992,-38.574,-20.996,0.000
1709214587.201,-48.828,-49.805,-27.344,-22.461,0.000
1709214587.205,-45.898,-57.617,-21.973,-20.508,0.000
1709214587.209,-41.016,-50.293,-19.531,-10.254,0.000
1709214587.213,-33.203,-42.480,-20.996,-8.301,0.000
1709214587.217,-39.062,-32.715,-26.855,-19.531,0.000
1709214587.220,-42.480,-33.691,-31.250,-17.578,0.000
1709214587.224,-35.645,-39.062,-25.391,-14.160,0.000
1709214587.228,-30.273,-42.969,-23.926,-13.184,0.000
1709214587.232,-32.715,-46.875,-24.414,-13.184,0.000
1709214587.236,-20.508,-37.598,-20.996,-14.160,0.000
1709214587.240,-15.137,-28.320,-24.414,-12.207,0.000
1709214587.244,-26.367,-37.598,-34.668,-17.578,0.000
1709214587.248,-22.461,-40.039,-37.109,-19.531,0.000
1709214587.252,-18.066,-28.809,-34.180,-23.438,0.000
1709214587.256,-20.020,-26.855,-39.062,-28.320,0.000
1709214587.259,-23.438,-31.250,-37.598,-22.461,0.000
1709214587.263,-23.438,-30.762,-28.809,-16.113,0.000
1709214587.267,-24.414,-31.738,-33.203,-20.508,0.000
1709214587.271,-19.531,-36.133,-36.621,-28.320,0.000
1709214587.275,-20.508,-35.156,-30.762,-30.273,0.000
1709214587.279,-28.809,-31.738,-28.320,-29.297,0.000
1709214587.283,-23.926,-34.180,-31.250,-18.555,0.000
1709214587.287,-21.973,-46.387,-34.180,-18.555,0.000
1709214587.291,-27.344,-43.945,-36.133,-36.621,0.000
1709214587.295,-31.738,-32.715,-37.109,-52.734,0.000
1709214587.298,-37.598,-33.691,-33.691,-57.617,0.000
1709214587.302,-40.039,-33.203,-28.320,-57.617,0.000
1709214587.306,-42.480,-37.598,-33.691,-57.617,0.000
1709214587.310,-40.527,-36.133,-34.180,-51.270,0.000
1709214587.314,-34.180,-28.809,-30.273,-52.734,0.000
1709214587.318,-34.668,-22.949,-33.691,-50.293,0.000
1709214587.322,-38.086,-24.902,-38.086,-50.293,0.000
1709214587.326,-38.086,-34.180,-36.621,-47.852,0.000
1709214587.330,-33.203,-39.551,-33.691,-46.387,0.000
1709214587.334,-31.738,-29.297,-37.109,-59.082,0.000
1709214587.338,-32.227,-31.738,-38.574,-59.082,0.000
1709214587.341,-30.273,-38.086,-40.039,-44.922,0.000
1709214587.345,-24.414,-22.461,-38.086,-34.668,0.000
1709214587.349,-20.020,-16.602,-40.039,-42.480,0.000
1709214587.353,-26.855,-24.902,-51.270,-56.152,0.000
1709214587.357,-25.879,-28.809,-48.828,-54.199,0.000
1709214587.361,-27.832,-27.344,-41.016,-47.363,0.000
1709214587.365,-34.668,-33.203,-56.152,-53.711,0.000
1709214587.369,-18.555,-30.762,-61.523,-52.246,0.000
1709214587.373,-11.719,-30.273,-36.621,-38.574,0.000
1709214587.377,-20.996,-26.367,-22.461,-37.109,0.000
1709214587.381,-25.879,-32.227,-29.785,-43.945,0.000
1709214587.384,-31.738,-51.270,-36.133,-41.992,0.000
1709214587.388,-26.855,-41.992,-30.762,-33.203,0.000
1709214587.392,-25.879,-27.344,-29.785,-44.434,0.000
1709214587.396,-35.645,-24.902,-28.320,-65.430,0.000
1709214587.400,-44.434,-22.461,-24.414,-61.035,0.000
1709214587.404,-47.363,-23.926,0.000,-48.828,0.000
1709214587.408,-39.551,-23.438,0.000,-47.852,0.000
1709214587.412,-40.527,-31.250,0.000,-53.223,0.000
1709214587.416,-49.316,-41.016,0.000,-55.176,0.000
1709214587.420,-57.617,-39.062,0.000,-61.035,0.000
1709214587.424,-61.035,-40.527,0.000,-63.965,0.000
1709214587.427,-56.641,-42.480,0.000,-63.965,0.000
1709214587.431,-48.828,-41.504,0.000,-62.012,0.000
1709214587.435,-48.340,-37.598,0.000,-57.617,0.000
1709214587.439,-49.316,-29.297,0.000,-54.688,0.000
1709214587.443,-40.527,-20.508,0.000,-58.594,0.000
1709214587.447,-39.062,-27.344,0.000,-59.082,0.000
1709214587.451,-37.109,-28.809,-55.176,-53.711,0.000
1709214587.455,-34.668,-31.738,-48.828,-51.270,0.000
1709214587.459,-37.598,-37.598,-49.316,-51.758,0.000
1709214587.463,-40.527,-34.180,-53.223,-41.016,0.000
1709214587.467,-33.691,-35.156,-46.875,-31.738,0.000
1709214587.470,-33.691,-36.133,-39.551,-50.293,0.000
1709214587.474,-38.086,-39.062,-38.574,-62.500,0.000
1709214587.478,-45.410,-37.598,-41.016,-51.270,0.000
1709214587.482,-52.734,-34.180,-46.875,-39.062,0.000
1709214587.486,-48.340,-42.969,-43.457,-41.016,0.000
1709214587.490,-41.504,-40.527,-38.574,-43.945,0.000
1709214587.494,-39.551,-27.832,-33.203,-44.922,0.000
1709214587.498,-50.781,-29.297,-38.086,-53.223,0.000
1709214587.502,-47.852,-28.320,-39.551,-49.805,0.000
1709214587.506,-40.039,-31.250,-38.574,-38.086,0.000
1709214587.509,-45.898,-34.668,-41.504,-44.434,0.000
1709214587.513,-40.039,-38.086,-36.621,-48.828,0.000
1709214587.517,-38.574,-39.551,-40.527,-51.758,0.000
1709214587.521,-44.434,-35.645,-38.574,-51.758,0.000
1709214587.525,-41.992,-36.133,-36.621,-44.434,0.000
1709214587.529,-39.551,-44.434,-35.645,-44.922,0.000
1709214587.533,-39.062,-47.363,-33.691,-46.875,0.000
1709214587.537,-39.551,-39.062,-39.062,-52.246,0.000
1709214587.541,-39.062,-34.668,-36.133,-49.316,0.000
1709214587.545,-44.922,-40.527,-28.320,-43.457,0.000
1709214587.548,-45.410,-41.016,-24.414,-36.133,0.000
1709214587.552,-44.922,-35.156,-31.250,-38.574,0.000
1709214587.556,-53.223,-37.598,-36.621,-50.293,0.000
1709214587.560,-58.594,-36.621,-45.898,-51.758,0.000
1709214587.564,-57.617,-32.715,-42.969,-49.316,0.000
1709214587.568,-51.270,-32.715,-31.250,-40.039,0.000
1709214587.572,-43.457,-33.203,-36.621,-39.551,0.000
1709214587.576,-40.039,-38.574,-37.598,-57.129,0.000
1709214587.580,-42.480,-36.621,-30.273,-55.664,0.000
1709214587.584,-43.945,-22.949,-32.227,-50.293,0.000
1709214587.588,-44.922,-26.855,-43.945,-52.734,0.000
1709214587.591,-38.574,-26.367,-46.387,-51.758,0.000
1709214587.595,-36.621,-36.133,-44.922,-42.969,0.000
1709214587.599,-40.527,-44.922,-42.480,-46.387,0.000
1709214587.603,-43.457,-27.832,-42.480,-52.734,0.000
1709214587.607,-40.527,-19.531,-43.945,-46.387,0.000
1709214587.611,-31.250,-26.367,-42.969,-41.992,0.000
1709214587.615,-27.832,-27.344,-36.621,-35.156,0.000
1709214587.619,-36.133,-25.879,-40.527,-42.969,0.000
1709214587.623,-43.457,-37.598,-51.758,-58.594,0.000
1709214587.627,-41.504,-39.551,-49.805,-56.641,0.000
1709214587.630,-37.109,-37.598,-46.387,-57.617,0.000
1709214587.634,-43.457,-37.598,-42.969,-67.871,0.000
1709214587.638,-52.734,-41.016,-41.016,-68.848,0.000
1709214587.642,-53.711,-41.992,-47.852,-62.500,0.000
1709214587.646,-62.500,-44.434,-42.969,-66.406,0.000
1709214587.650,-61.523,-36.133,-34.668,-62.500,0.000
1709214587.654,-51.758,-32.715,-31.250,-56.152,0.000
1709214587.658,-54.688,-34.668,-37.598,-56.641,0.000
1709214587.662,-53.711,-37.598,-41.992,-51.270,0.000
1709214587.666,-45.898,-40.039,-37.598,-55.176,0.000
1709214587.669,-38.574,-36.133,-38.086,-53.223,0.000
1709214587.673,-42.969,-35.645,-36.133,-48.828,0.000
1709214587.677,-40.039,-37.598,-35.645,-45.898,0.000
1709214587.681,-26.367,-44.434,-39.551,-37.598,0.000
1709214587.685,-31.738,-45.898,-40.527,-38.574,0.000
1709214587.689,-41.992,-44.922,-39.551,-40.527,0.000
1709214587.693,-38.086,-47.363,-37.109,-40.039,0.000
1709214587.697,-38.574,-43.945,-39.062,-47.363,0.000
1709214587.701,-46.387,-41.992,-40.039,-50.293,0.000
1709214587.705,-35.645,-45.898,-38.086,-34.180,0.000
1709214587.709,-33.691,-39.062,-38.574,-29.785,0.000
1709214587.712,-41.016,-34.668,-43.457,-41.016,0.000
1709214587.716,-38.574,-39.062,-43.457,-44.922,0.000
1709214587.720,-37.109,-35.156,-40.039,-36.133,0.000
1709214587.724,-40.527,-32.227,-41.992,-35.645,0.000
1709214587.728,-42.969,-36.133,-52.734,-51.270,0.000
1709214587.732,-40.527,-44.922,-57.617,-59.082,0.000
1709214587.736,-46.875,-48.340,-45.898,-61.523,0.000
1709214587.740,-42.480,-35.645,-32.715,-55.664,0.000
1709214587.744,-37.109,-41.504,-35.156,-59.082,0.000
1709214587.748,-40.039,-46.875,-42.969,-59.082,0.000
1709214587.752,-44.922,-31.738,-39.551,-50.293,0.000
1709214587.755,-39.062,-29.297,-29.297,-41.016,0.000
1709214587.759,-32.227,-32.227,-34.180,-39.062,0.000
1709214587.763,-35.645,-38.086,-38.574,-34.180,0.000
1709214587.767,-28.320,-41.016,-35.156,-26.367,0.000
1709214587.771,-24.902,-38.574,-38.086,-42.969,0.000
1709214587.775,-34.180,-34.668,-41.992,-52.246,0.000
1709214587.779,-33.203,-34.180,-36.133,-37.109,0.000
1709214587.783,-26.367,-43.945,-40.527,-35.645,0.000
1709214587.787,-33.203,-39.062,-47.852,-40.527,0.000
1709214587.791,-29.785,-25.879,-37.109,-29.785,0.000
1709214587.795,-19.531,-26.367,-36.621,-30.762,0.000
1709214587.798,-27.344,-31.738,-43.457,-38.086,0.000
1709214587.802,-34.668,-30.762,-42.480,-33.203,0.000
1709214587.806,-40.527,-29.785,-42.480,-35.156,0.000
1709214587.810,-40.039,-28.809,-48.828,-33.203,0.000
1709214587.814,-37.109,-30.762,-51.270,-36.133,0.000
1709214587.818,-31.250,-46.875,-43.945,-39.551,0.000
1709214587.822,-29.785,-51.758,-44.434,-35.645,0.000
1709214587.826,-27.344,-39.062,-45.898,-43.457,0.000
1709214587.830,-23.438,-31.250,-44.922,-43.457,0.000
1709214587.834,-13.672,-20.508,-47.363,-34.180,0.000
1709214587.838,-10.254,-16.602,-50.293,-30.273,0.000
1709214587.841,-16.602,-28.320,-49.805,-30.762,0.000
1709214587.845,-14.160,-25.879,-48.340,-27.832,0.000
1709214587.849,-5.859,-27.832,-47.852,-24.902,0.000
1709214587.853,-8.301,-38.574,-42.969,-21.484,0.000
1709214587.857,-17.090,-33.691,-41.504,-24.414,0.000
1709214587.861,-23.926,-21.484,-35.156,-32.227,0.000
1709214587.865,-25.879,-21.484,-24.902,-27.344,0.000
1709214587.869,-27.344,-41.992,-26.367,-27.832,0.000
1709214587.873,-29.785,-50.781,-30.762,-28.809,0.000
1709214587.877,-38.574,-42.969,-34.668,-37.109,0.000
1709214587.880,-50.781,-44.434,-38.086,-44.922,0.000
1709214587.884,-46.875,-49.805,-30.273,-39.062,0.000
1709214587.888,-40.527,-43.457,-34.668,-30.762,0.000
1709214587.892,-27.832,-39.062,-36.621,-23.926,0.000
1709214587.896,-28.809,-35.156,-33.203,-30.273,0.000
1709214587.900,-38.574,-24.902,-35.645,-35.156,0.000
1709214587.904,-43.457,-23.926,-31.738,-31.250,0.000
1709214587.908,-49.316,-37.598,-45.898,-39.062,0.000
1709214587.912,-48.828,-46.387,-53.711,-40.039,0.000
1709214587.916,-47.852,-47.363,-46.875,-41.992,0.000
1709214587.919,-50.781,-41.992,-50.293,-52.734,0.000
1709214587.923,-47.363,-24.902,-51.270,-41.992,0.000
1709214587.927,-39.551,-20.508,-48.340,-38.574,0.000
1709214587.931,-38.574,-34.180,-51.758,-52.734,0.000
1709214587.935,-38.574,-35.156,-50.293,-57.617,0.000
1709214587.939,-43.945,-23.438,-50.781,-64.941,0.000
1709214587.943,-59.570,-31.250,-58.594,-63.477,0.000
1709214587.947,-57.617,-42.969,-58.105,-56.152,0.000
1709214587.951,-42.480,-30.762,-49.805,-58.105,0.000
1709214587.955,-50.781,-32.715,-51.270,-69.824,0.000
1709214587.959,-54.199,-44.434,-52.734,-73.730,0.000
1709214587.962,-45.410,-40.527,-49.805,-59.570,0.000
1709214587.966,-35.156,-32.715,-47.363,-40.527,0.000
1709214587.970,-20.996,-22.949,-40.039,-37.598,0.000
1709214587.974,-16.113,-27.344,-39.551,-40.039,0.000
1709214587.978,-17.090,-26.855,-42.969,-43.457,0.000
1709214587.982,-20.508,-19.531,-45.410,-40.527,0.000
1709214587.986,-21.484,-25.879,-43.457,-27.832,0.000
1709214587.990,-25.391,-31.250,-35.156,-20.508,0.000
1709214587.994,-34.180,-32.715,-35.645,-30.762,0.000
1709214587.998,-37.109,-39.062,-30.762,-34.668,0.000
1709214588.001,-47.363,-44.434,-26.367,-31.738,0.000
1709214588.005,-50.293,-39.551,-22.461,-35.156,0.000
1709214588.009,-40.039,-41.992,-16.113,-32.715,0.000
1709214588.013,-42.969,-41.504,-22.461,-41.504,0.000
1709214588.017,-56.152,-31.250,-31.738,-52.734,0.000
1709214588.021,-62.500,-36.133,-33.203,-52.246,0.000
1709214588.025,-60.547,-44.434,-38.086,-47.363,0.000
1709214588.029,-58.105,-44.434,-41.992,-51.758,0.000
1709214588.033,-51.758,-36.133,-37.109,-52.246,0.000
1709214588.036,-40.527,-30.273,-31.738,-41.016,0.000
1709214588.040,-37.109,-37.109,-35.645,-51.758,0.000
1709214588.044,-41.016,-43.945,-45.410,-62.012,0.000
1709214588.048,-44.922,-40.527,-54.199,-55.176,0.000
1709214588.052,-46.387,-27.832,-58.594,-54.688,0.000
1709214588.056,-36.621,-28.320,-45.410,-47.852,0.000
1709214588.060,-35.645,-35.645,-39.551,-41.992,0.000
1709214588.064,-38.086,-36.133,-49.316,-38.086,0.000
1709214588.068,-40.527,-35.645,-51.758,-33.203,0.000
1709214588.072,-38.574,-19.043,-46.387,-34.180,0.000
1709214588.076,-34.668,-21.484,-48.340,-34.668,0.000
1709214588.080,-35.645,-44.434,-54.199,-39.551,0.000
1709214588.084,-36.133,-36.133,-55.664,-39.062,0.000
1709214588.087,-33.691,-24.902,-56.641,-32.227,0.000
1709214588.091,-27.344,-33.691,-49.805,-24.414,0.000
1709214588.095,-30.273,-37.598,-42.969,-25.879,0.000
1709214588.099,-27.832,-40.527,-50.781,-38.574,0.000
1709214588.103,-27.344,-44.434,-43.945,-28.809,0.000
1709214588.107,-39.062,-41.016,-36.621,-22.949,0.000
1709214588.111,-42.480,-41.504,-41.504,-38.574,0.000
1709214588.115,-36.621,-36.133,-44.434,-46.387,0.000
1709214588.119,-37.109,-35.156,-43.945,-43.945,0.000
1709214588.123,-35.645,-41.992,-41.016,-39.062,0.000
1709214588.127,-33.691,-44.922,-33.691,-34.180,0.000
1709214588.130,-34.668,-29.297,-34.180,-42.480,0.000
1709214588.134,-33.691,-17.578,-35.156,-58.594,0.000
1709214588.138,-38.574,-34.668,-32.227,-55.176,0.000
1709214588.142,-44.434,-46.875,-34.180,-48.340,0.000
1709214588.146,-36.621,-37.109,-26.367,-53.223,0.000
1709214588.150,-30.762,-34.668,-21.973,-48.340,0.000
1709214588.154,-37.598,-32.227,-27.344,-48.828,0.000
1709214588.158,-33.203,-32.227,-29.785,-48.340,0.000
1709214588.162,-25.391,-42.969,-26.855,-35.156,0.000
1709214588.166,-24.414,-34.668,-29.297,-31.738,0.000
1709214588.170,-28.809,-22.461,-35.156,-36.133,0.000
1709214588.173,-34.668,-20.996,-40.527,-46.387,0.000
1709214588.177,-37.598,-28.809,-39.062,-52.246,0.000
1709214588.181,-38.574,-38.086,-35.156,-45.410,0.000
1709214588.185,-43.945,-36.621,-39.062,-34.668,0.000
1709214588.189,-35.156,-27.832,-43.945,-37.598,0.000
1709214588.193,-32.227,-38.574,-44.922,-45.898,0.000
1709214588.197,-42.480,-47.852,-39.551,-45.410,0.000
1709214588.201,-44.922,-54.688,-36.621,-50.781,0.000
1709214588.205,-45.410,-53.223,-38.574,-49.805,0.000
1709214588.209,-39.062,-26.367,-43.457,-48.340,0.000
1709214588.212,-36.133,-24.902,-38.574,-52.246,0.000
1709214588.216,-34.668,-24.414,-28.809,-53.223,0.000
1709214588.220,-40.039,-21.484,-24.902,-55.176,0.000
1709214588.224,-49.316,-32.715,-40.527,-58.594,0.000
1709214588.228,-40.039,-37.598,-48.828,-51.758,0.000
1709214588.232,-39.551,-39.551,-32.715,-48.340,0.000
1709214588.236,-43.945,-38.574,-28.320,-57.129,0.000
1709214588.240,-45.410,-46.387,-31.250,-53.223,0.000
1709214588.244,-45.410,-48.340,-26.367,-38.574,0.000
1709214588.248,-33.203,-35.156,-27.344,-31.738,0.000
1709214588.252,-24.902,-31.738,-28.809,-37.598,0.000
1709214588.255,-26.855,-38.574,-31.250,-44.922,0.000
1709214588.259,-35.156,-40.039,-27.832,-42.480,0.000
1709214588.263,-43.457,-36.621,-24.414,-39.551,0.000
1709214588.267,-41.992,-36.621,-30.273,-44.434,0.000
1709214588.271,-46.387,-36.133,-33.691,-53.711,0.000
1709214588.275,-41.992,-30.762,-27.832,-39.062,0.000
1709214588.279,-34.668,-31.250,-33.203,-35.156,0.000
1709214588.283,-44.922,-36.133,-40.039,-42.480,0.000
1709214588.287,-45.410,-41.016,-31.250,-36.133,0.000
1709214588.291,-44.922,-40.527,-25.879,-39.062,0.000
1709214588.294,-48.340,-35.645,-27.832,-40.039,0.000
1709214588.298,-47.363,-36.133,-32.715,-34.180,0.000
1709214588.302,-49.805,-37.598,-35.156,-28.809,0.000
1709214588.306,-47.363,-43.457,-35.645,-25.391,0.000
1709214588.310,-41.016,-37.598,-31.738,-28.320,0.000
1709214588.314,-45.898,-29.785,-30.273,-39.062,0.000
1709214588.318,-57.617,-35.156,-36.133,-31.738,0.000
1709214588.322,-57.129,-39.062,-34.668,-28.320,0.000
1709214588.326,-54.688,-46.387,-34.668,-40.039,0.000
1709214588.330,-48.340,-48.340,-33.203,-38.574,0.000
1709214588.333,-34.668,-39.551,-30.273,-39.062,0.000
1709214588.337,-36.133,-40.527,-38.086,-42.969,0.000
1709214588.341,-36.621,-32.227,-43.457,-47.363,0.000
1709214588.345,-34.180,-24.414,-39.062,-45.410,0.000
1709214588.349,-28.320,-36.133,-39.062,-41.504,0.000
1709214588.353,-25.391,-42.969,-46.387,-45.410,0.000
1709214588.357,-39.062,-36.621,-46.387,-63.477,0.000
1709214588.361,-40.527,-24.902,-42.969,-64.941,0.000
1709214588.365,-35.645,-19.043,-41.992,-44.922,0.000
1709214588.369,-35.156,-21.973,-38.574,-48.828,0.000
1709214588.372,-37.598,-32.715,-36.133,-53.711,0.000
1709214588.376,-41.016,-39.551,-38.086,-42.480,0.000
1709214588.380,-43.457,-42.969,-39.062,-42.480,0.000
1709214588.384,-41.504,-39.062,-33.691,-37.598,0.000
1709214588.388,-37.598,-45.898,-33.691,-33.203,0.000
1709214588.392,-46.875,-51.270,-41.504,-35.645,0.000
1709214588.396,-48.340,-45.410,-40.527,-33.691,0.000
1709214588.400,-53.711,-51.758,-39.062,-34.180,0.000
1709214588.404,-58.594,-52.246,-40.039,-36.133,0.000
1709214588.408,-41.016,-39.062,-43.457,-24.902,0.000
1709214588.411,-33.691,-35.156,-46.875,-21.484,0.000
1709214588.415,-34.180,-36.621,-40.039,-34.180,0.000
1709214588.419,-40.039,-43.457,-43.457,-36.621,0.000
1709214588.423,-42.969,-51.270,-46.387,-32.227,0.000
1709214588.427,-34.180,-47.363,-31.738,-21.973,0.000
1709214588.431,-35.156,-40.039,-33.691,-25.879,0.000
1709214588.435,-44.922,-41.992,-43.945,-41.992,0.000
1709214588.439,-48.340,-48.340,-48.340,-43.945,0.000
1709214588.443,-48.828,-41.992,-45.898,-40.527,0.000
1709214588.447,-44.922,-31.738,-42.969,-39.551,0.000
1709214588.451,-42.969,-32.715,-40.527,-49.316,0.000
1709214588.454,-45.410,-37.598,-36.621,-59.082,0.000
1709214588.458,-45.898,-34.180,-39.551,-56.641,0.000
1709214588.462,-41.016,-32.715,-42.969,-46.387,0.000
1709214588.466,-43.945,-38.574,-47.852,-44.434,0.000
1709214588.470,-39.062,-32.715,-48.340,-37.598,0.000
1709214588.474,-24.414,-32.227,-41.992,-35.645,0.000
1709214588.478,-23.438,-35.645,-30.762,-47.363,0.000
1709214588.482,-29.785,-40.527,-29.297,-46.875,0.000
1709214588.486,-30.762,-45.898,-35.645,-40.527,0.000
1709214588.490,-22.949,-36.621,-37.109,-36.133,0.000
1709214588.494,-24.414,-34.668,-34.668,-38.086,0.000
1709214588.498,-32.227,-33.203,-38.086,-36.133,0.000
1709214588.501,-34.180,-27.344,-36.133,-29.785,0.000
1709214588.505,-35.645,-26.367,-32.715,-26.855,0.000
1709214588.509,-41.992,-34.668,-36.133,-27.832,0.000
1709214588.513,-40.527,-41.016,-39.551,-31.738,0.000
1709214588.517,-27.832,-28.809,-36.133,-28.809,0.000
1709214588.521,-23.926,-25.879,-33.691,-32.227,0.000
1709214588.525,-20.020,-40.527,-44.434,-33.203,0.000
1709214588.529,-16.602,-39.551,-44.434,-28.809,0.000
1709214588.533,-12.695,-26.367,-42.480,-27.344,0.000
1709214588.537,-11.719,-22.461,-46.875,-26.367,0.000
1709214588.540,-20.508,-29.785,-36.621,-21.973,0.000
1709214588.544,-23.438,-34.668,-33.203,-13.672,0.000
1709214588.548,-27.832,-38.574,-41.016,-13.672,0.000
1709214588.552,-21.973,-36.133,-34.668,-13.184,0.000
1709214588.556,-20.508,-30.762,-34.180,-15.625,0.000
1709214588.560,-34.668,-43.945,-41.504,-16.602,0.000
1709214588.564,-34.668,-55.664,-42.969,-18.555,0.000
1709214588.568,-30.762,-43.945,-38.574,-26.855,0.000
1709214588.572,-27.344,-34.180,-29.297,-26.367,0.000
1709214588.576,-27.344,-35.645,-19.043,-23.438,0.000
1709214588.580,-28.809,-32.227,-18.555,-29.297,0.000
1709214588.583,-30.273,-37.109,-27.344,-42.480,0.000
1709214588.587,-31.250,-49.316,-26.855,-41.504,0.000
1709214588.591,-29.785,-51.758,-33.203,-41.016,0.000
1709214588.595,-28.320,-51.270,-41.016,-41.504,0.000
1709214588.599,-31.250,-51.270,-33.691,-36.133,0.000
1709214588.603,-31.738,-48.828,-26.855,-26.855,0.000
1709214588.607,-29.297,-44.434,-34.180,-21.484,0.000
1709214588.611,-24.902,-41.504,-36.621,-31.250,0.000
1709214588.615,-30.273,-48.828,-42.480,-34.668,0.000
1709214588.619,-37.109,-41.016,-43.945,-35.156,0.000
1709214588.622,-38.574,-32.715,-36.621,-31.738,0.000
1709214588.626,-37.109,-38.574,-37.109,-20.508,0.000
1709214588.630,-30.762,-38.574,-36.621,-20.996,0.000
1709214588.634,-30.762,-37.598,-33.691,-28.320,0.000
1709214588.638,-33.691,-36.621,-35.156,-29.785,0.000
1709214588.642,-34.668,-32.715,-40.039,-29.297,0.000
1709214588.646,-34.180,-36.621,-43.457,-23.926,0.000
1709214588.650,-32.227,-40.039,-32.715,-14.648,0.000
1709214588.654,-28.809,-35.645,-32.715,-18.066,0.000
1709214588.658,-36.133,-43.945,-45.410,-36.621,0.000
1709214588.662,-43.945,-47.363,-42.969,-42.480,0.000
1709214588.665,-43.945,-40.039,-41.016,-38.574,0.000
1709214588.669,-41.992,-37.598,-44.922,-46.387,0.000
1709214588.673,-40.527,-32.227,-46.387,-52.734,0.000
1709214588.677,-36.621,-27.344,-43.457,-45.410,0.000
1709214588.681,-30.762,-27.832,-41.016,-39.062,0.000
1709214588.685,-32.715,-26.367,-37.598,-38.574,0.000
1709214588.689,-38.086,-23.926,-46.387,-50.293,0.000
1709214588.693,-33.691,-28.809,-48.828,-50.293,0.000
1709214588.697,-35.645,-35.645,-45.410,-44.922,0.000
1709214588.701,-47.852,-36.621,-44.922,-59.082,0.000
1709214588.704,-44.922,-41.016,-40.039,-59.082,0.000
1709214588.708,-41.992,-50.781,-47.852,-45.898,0.000
1709214588.712,-45.410,-44.434,-54.199,-44.922,0.000
1709214588.716,-38.574,-32.227,-47.852,-48.828,0.000
1709214588.720,-42.480,-29.297,-42.480,-48.340,0.000
1709214588.724,-51.270,-39.551,-43.945,-41.992,0.000
1709214588.728,-40.527,-42.969,-41.504,-32.715,0.000
1709214588.732,-31.250,-27.832,-41.504,-32.715,0.000
1709214588.736,-41.992,-28.320,-45.410,-35.156,0.000
1709214588.740,-49.316,-37.109,-43.457,-26.855,0.000
1709214588.743,-37.109,-24.902,-31.738,-20.020,0.000
1709214588.747,-38.574,-23.438,-41.016,-36.133,0.000
1709214588.751,-39.062,-46.875,-48.828,-42.969,0.000
1709214588.755,-41.016,-47.363,-36.133,-36.133,0.000
1709214588.759,-49.805,-32.715,-39.551,-42.969,0.000
1709214588.763,-45.410,-32.715,-41.992,-45.410,0.000
1709214588.767,-39.062,-40.039,-40.527,-45.898,0.000
1709214588.771,-38.086,-30.762,-42.480,-41.504,0.000
1709214588.775,-37.109,-26.855,-44.922,-39.062,0.000
1709214588.779,-35.645,-38.574,-46.387,-43.457,0.000
1709214588.782,-35.645,-39.551,-41.016,-34.180,0.000
1709214588.786,-36.133,-46.387,-43.457,-27.832,0.000
1709214588.790,-42.480,-48.828,-49.316,-32.715,0.000
1709214588.794,-41.992,-39.062,-51.270,-36.133,0.000
1709214588.798,-36.133,-39.062,-43.457,-35.156,0.000
1709214588.802,-36.133,-43.945,-41.504,-40.039,0.000
1709214588.806,-39.551,-41.016,-44.922,-45.410,0.000
1709214588.810,-41.016,-35.645,-42.969,-41.504,0.000
1709214588.814,-35.645,-36.133,-36.133,-40.039,0.000
1709214588.818,-38.086,-33.691,-30.273,-46.875,0.000
1709214588.822,-41.016,-33.691,-32.227,-46.387,0.000
1709214588.825,-34.180,-32.715,-33.203,-34.668,0.000
1709214588.829,-37.598,-36.133,-40.527,-39.062,0.000
1709214588.833,-44.922,-50.781,-43.457,-52.734,0.000
1709214588.837,-42.969,-48.828,-38.574,-55.176,0.000
1709214588.841,-46.387,-37.598,-35.645,-48.340,0.000
1709214588.845,-37.598,-38.574,-23.926,-39.062,0.000
1709214588.849,-29.785,-41.504,-20.508,-39.062,0.000
1709214588.853,-36.133,-37.109,-32.227,-48.340,0.000
1709214588.857,-34.180,-35.645,-30.762,-42.969,0.000
1709214588.861,-47.363,-42.480,-37.109,-48.340,0.000
1709214588.865,-57.617,-43.457,-42.969,-55.664,0.000
1709214588.868,-52.246,-39.062,-36.621,-52.734,0.000
1709214588.872,-51.758,-37.598,-40.527,-58.594,0.000
1709214588.876,-53.223,-41.016,-50.781,-57.129,0.000
1709214588.880,-49.316,-36.133,-40.527,-45.410,0.000
1709214588.884,-47.363,-34.180,-35.156,-46.387,0.000
1709214588.888,-49.805,-47.852,-48.828,-47.852,0.000
1709214588.892,-40.039,-53.223,-46.875,-33.691,0.000
1709214588.896,-36.133,-41.504,-39.551,-32.715,0.000
1709214588.900,-43.457,-43.457,-45.898,-39.551,0.000
1709214588.904,-38.574,-36.621,-43.457,-29.785,0.000
1709214588.908,-35.156,-24.902,-40.039,-19.043,0.000
1709214588.911,-29.785,-29.785,-43.457,-25.391,0.000
1709214588.915,-21.484,-38.086,-36.133,-34.180,0.000
1709214588.919,-23.926,-41.016,-38.086,-30.273,0.000
1709214588.923,-23.438,-40.527,-45.898,-25.879,0.000
1709214588.927,-28.809,-37.109,-42.969,-26.855,0.000
1709214588.931,-28.320,-34.668,-32.715,-23.926,0.000
1709214588.935,-17.578,-43.945,-25.391,-11.719,0.000
1709214588.939,-22.461,-48.340,-27.344,-12.207,0.000
1709214588.943,-25.391,-43.457,-34.180,-20.508,0.000
1709214588.947,-22.949,-39.062,-31.738,-24.902,0.000
1709214588.951,-19.043,-35.645,-30.762,-22.461,0.000
1709214588.954,-13.672,-29.297,-29.297,-26.367,0.000
1709214588.958,-23.926,-26.367,-34.668,-31.738,0.000
1709214588.962,-27.344,-26.855,-39.062,-23.926,0.000
1709214588.966,-28.809,-30.762,-37.109,-27.344,0.000
1709214588.970,-33.203,-29.297,-34.180,-31.738,0.000
1709214588.974,-30.273,-25.391,-31.738,-37.598,0.000
1709214588.978,-27.832,-25.879,-33.691,-33.691,0.000
1709214588.982,-27.344,-32.715,-33.691,-30.273,0.000
1709214588.986,-35.156,-33.691,-36.621,-41.504,0.000
1709214588.990,-39.062,-33.203,-39.551,-41.016,0.000
1709214588.993,-36.621,-35.645,-35.156,-48.340,0.000
1709214588.997,-32.715,-28.320,-34.668,-46.875,0.000
1709214589.001,-34.180,-28.320,-35.645,-40.527,0.000
1709214589.005,-35.156,-28.320,-35.156,-36.621,0.000
1709214589.009,-39.062,-26.367,-35.156,-35.156,0.000
1709214589.013,-43.457,-30.273,-31.250,-34.180,0.000
1709214589.017,-44.922,-41.504,-33.691,-31.738,0.000
1709214589.021,-41.504,-43.945,-36.133,-31.738,0.000
1709214589.025,-37.109,-41.016,-36.133,-23.926,0.000
1709214589.029,-38.574,-41.016,-36.621,-27.344,0.000
1709214589.033,-33.203,-38.086,-28.809,-34.180,0.000
1709214589.036,-34.668,-37.109,-34.180,-28.320,0.000
1709214589.040,-40.039,-33.691,-40.039,-26.367,0.000
1709214589.044,-37.598,-28.809,-31.738,-29.297,0.000
1709214589.048,-29.297,-25.879,-37.598,-31.738,0.000
1709214589.052,-26.367,-24.902,-51.758,-36.133,0.000
1709214589.056,-24.414,-33.691,-48.340,-39.062,0.000
1709214589.060,-26.367,-37.598,-38.574,-33.691,0.000
1709214589.064,-30.762,-29.785,-38.574,-32.227,0.000
1709214589.068,-30.273,-34.180,-42.969,-28.320,0.000
1709214589.072,-35.645,-34.668,-38.574,-33.203,0.000
1709214589.075,-37.109,-36.133,-33.203,-42.480,0.000
1709214589.079,-30.762,-44.434,-37.598,-31.738,0.000
1709214589.083,-30.762,-41.992,-36.621,-22.949,0.000
1709214589.087,-42.480,-36.621,-36.621,-26.855,0.000
1709214589.091,-45.410,-41.504,-36.133,-32.227,0.000
1709214589.095,-37.598,-46.875,-33.691,-28.320,0.000
1709214589.099,-35.645,-34.180,-34.668,-24.902,0.000
1709214589.103,-38.086,-25.391,-33.691,-20.508,0.000
1709214589.107,-33.691,-36.133,-31.250,-16.113,0.000
1709214589.111,-33.203,-40.527,-36.621,-23.438,0.000
1709214589.114,-34.180,-32.227,-37.109,-17.090,0.000
1709214589.118,-30.762,-26.367,-39.062,-18.555,0.000
1709214589.122,-31.738,-33.203,-40.039,-30.762,0.000
1709214589.126,-34.180,-43.945,-39.062,-31.738,0.000
1709214589.130,-30.273,-34.180,-52.246,-29.785,0.000
1709214589.134,-23.926,-31.250,-41.992,-27.344,0.000
1709214589.138,-30.762,-36.133,-34.668,-37.109,0.000
1709214589.142,-29.297,-33.691,-40.039,-39.062,0.000
1709214589.146,-21.973,-35.156,-39.062,-33.691,0.000
1709214589.150,-15.137,-37.598,-36.133,-30.762,0.000
1709214589.153,-21.484,-36.133,-35.156,-35.645,0.000
1709214589.157,-35.645,-33.203,-38.574,-42.969,0.000
1709214589.161,-38.086,-31.738,-31.738,-42.969,0.000
1709214589.165,-42.969,-21.973,-26.855,-40.527,0.000
1709214589.169,-41.992,-22.461,-33.203,-45.898,0.000
1709214589.173,-37.598,-38.574,-38.574,-53.223,0.000
1709214589.177,-37.598,-36.621,-42.969,-55.176,0.000
1709214589.181,-39.551,-26.855,-42.480,-50.781,0.000
1709214589.185,-36.621,-28.809,-38.574,-39.551,0.000
1709214589.189,-33.691,-34.180,-38.574,-40.527,0.000
1709214589.193,-25.879,-36.133,-37.598,-37.598,0.000
1709214589.196,-28.320,-35.645,-35.645,-36.621,0.000
1709214589.200,-40.527,-39.062,-40.527,-42.969,0.000
1709214589.204,-38.086,-35.156,-39.062,-26.855,0.000
1709214589.208,-39.551,-39.551,-33.203,-18.555,0.000
1709214589.212,-42.480,-42.969,-36.621,-28.809,0.000
1709214589.216,-44.434,-40.039,-35.645,-25.879,0.000
1709214589.220,-44.434,-35.156,-20.020,-14.160,0.000
1709214589.224,-49.316,-21.973,-18.066,-14.160,0.000
1709214589.228,-50.781,-26.855,-28.320,-21.484,0.000
1709214589.232,-47.363,-34.668,-34.668,-31.250,0.000
1709214589.236,-45.410,-30.762,-38.574,-34.180,0.000
1709214589.239,-46.387,-30.273,-35.645,-33.203,0.000
1709214589.243,-42.969,-34.668,-36.133,-35.156,0.000
1709214589.247,-35.156,-32.227,-36.133,-35.156,0.000
1709214589.251,-36.133,-31.250,-40.527,-39.062,0.000
1709214589.255,-43.457,-24.902,-46.387,-50.293,0.000
1709214589.259,-47.852,-23.438,-47.852,-58.594,0.000
1709214589.263,-47.852,-30.762,-48.340,-46.875,0.000
1709214589.267,-48.828,-35.645,-51.758,-41.016,0.000
1709214589.271,-43.945,-41.992,-55.664,-50.293,0.000
1709214589.275,-33.203,-34.180,-43.945,-46.387,0.000
1709214589.279,-31.738,-35.156,-39.551,-40.527,0.000
1709214589.282,-36.133,-40.527,-45.410,-35.156,0.000
1709214589.286,-33.203,-33.691,-41.992,-33.691,0.000
1709214589.290,-26.855,-28.320,-39.551,-33.691,0.000
1709214589.294,-26.367,-36.621,-43.457,-38.086,0.000
1709214589.298,-26.367,-43.945,-45.410,-37.598,0.000
1709214589.302,-34.180,-43.457,-46.387,-36.133,0.000
1709214589.306,-34.180,-38.086,-44.434,-29.297,0.000
1709214589.310,-29.297,-33.203,-46.387,-21.484,0.000
1709214589.314,-32.227,-37.109,-48.340,-26.855,0.000
1709214589.318,-33.203,-45.410,-38.574,-28.320,0.000
1709214589.321,-29.297,-49.805,-33.203,-18.555,0.000
1709214589.325,-32.227,-37.109,-29.297,-13.672,0.000
1709214589.329,-27.832,-30.273,-35.645,-22.461,0.000
1709214589.333,-24.902,-43.945,-38.574,-24.902,0.000
1709214589.337,-32.227,-51.758,-35.645,-24.902,0.000
1709214589.341,-31.250,-42.969,-39.551,-23.926,0.000
1709214589.345,-28.320,-34.668,-38.574,-20.996,0.000
1709214589.349,-27.832,-28.809,-36.621,-28.320,0.000
1709214589.353,-23.438,-29.785,-33.691,-28.809,0.000
1709214589.357,-20.020,-35.156,-40.039,-22.461,0.000
1709214589.361,-22.461,-38.086,-45.898,-25.391,0.000
1709214589.364,-11.719,-42.480,-34.180,-19.531,0.000
1709214589.368,-8.301,-40.039,-35.645,-30.762,0.000
1709214589.372,-14.648,-25.879,-41.016,-40.527,0.000
1709214589.376,-15.625,-14.648,-40.527,-41.016,0.000
1709214589.380,-22.461,-19.043,-47.363,-41.504,0.000
1709214589.384,-29.785,-29.785,-47.852,-30.762,0.000
1709214589.388,-28.320,-32.227,-41.016,-36.621,0.000
1709214589.392,-19.531,-33.203,-33.203,-41.992,0.000
1709214589.396,-22.949,-34.180,-33.691,-42.969,0.000
1709214589.400,-34.180,-36.621,-34.180,-45.410,0.000
1709214589.404,-40.039,-44.434,-35.645,-46.387,0.000
1709214589.407,-44.434,-61.523,-41.992,-61.523,0.000
1709214589.411,-44.922,-52.734,-42.480,-64.941,0.000
1709214589.415,-41.016,-35.645,-47.363,-60.059,0.000
1709214589.419,-43.945,-31.738,-51.270,-61.035,0.000
1709214589.423,-41.992,-35.645,-41.016,-52.246,0.000
1709214589.427,-30.762,-35.156,-34.668,-39.551,0.000
1709214589.431,-31.738,-29.785,-37.598,-45.898,0.000
1709214589.435,-29.785,-28.320,-34.668,-47.363,0.000
1709214589.439,-31.738,-34.668,-38.086,-46.875,0.000
1709214589.443,-35.645,-40.039,-39.551,-36.133,0.000
1709214589.446,-26.367,-37.109,-35.645,-17.090,0.000
1709214589.450,-24.414,-33.691,-37.109,-26.367,0.000
1709214589.454,-26.367,-22.461,-31.738,-30.273,0.000
1709214589.458,-29.785,-20.508,-36.621,-28.809,0.000
1709214589.462,-33.691,-23.438,-41.016,-25.391,0.000
1709214589.466,-34.668,-29.785,-39.551,-22.461,0.000
1709214589.470,-36.621,-32.715,-46.387,-20.996,0.000
1709214589.474,-36.621,-26.855,-40.527,-18.066,0.000
1709214589.478,-34.180,-14.648,-24.902,-14.160,0.000
1709214589.482,-40.527,-16.602,-28.320,-18.066,0.000
1709214589.485,-40.039,-34.668,-41.504,-27.832,0.000
1709214589.489,-38.086,-41.992,-40.039,-19.043,0.000
1709214589.493,-35.645,-36.133,-37.598,-19.531,0.000
1709214589.497,-30.762,-27.832,-38.086,-41.504,0.000
1709214589.501,-33.203,-19.043,-38.086,-46.875,0.000
1709214589.505,-37.598,-18.555,-41.016,-34.668,0.000
1709214589.509,-37.598,-23.926,-42.480,-42.969,0.000
1709214589.513,-31.250,-23.926,-40.527,-53.223,0.000
1709214589.517,-22.949,-35.156,-42.480,-52.734,0.000
1709214589.521,-30.762,-40.527,-45.898,-51.758,0.000
1709214589.524,-35.156,-26.855,-35.645,-46.875,0.000
1709214589.528,-33.691,-25.391,-32.227,-47.852,0.000
1709214589.532,-44.922,-33.691,-42.969,-47.852,0.000
1709214589.536,-45.410,-38.574,-49.805,-42.969,0.000
1709214589.540,-45.410,-32.227,-44.922,-50.781,0.000
1709214589.544,-47.363,-31.738,-41.016,-51.270,0.000
1709214589.548,-40.527,-40.527,-39.551,-34.180,0.000
1709214589.552,-41.016,-30.762,-37.109,-37.109,0.000
1709214589.556,-36.133,-30.273,-40.527,-45.410,0.000
1709214589.560,-32.227,-41.016,-42.969,-37.109,0.000
1709214589.564,-40.039,-37.598,-37.109,-35.156,0.000
1709214589.567,-40.039,-44.434,-39.062,-38.574,0.000
1709214589.571,-39.551,-45.410,-40.527,-40.527,0.000
1709214589.575,-41.016,-31.738,-34.180,-35.645,0.000
1709214589.579,-41.016,-30.762,-32.227,-29.785,0.000
1709214589.583,-39.551,-31.738,-28.320,-24.902,0.000
1709214589.587,-40.527,-34.180,-28.809,-29.297,0.000
1709214589.591,-37.109,-46.875,-32.227,-27.344,0.000
1709214589.595,-30.762,-55.176,-29.297,-24.414,0.000
1709214589.599,-35.645,-42.969,-25.879,-32.715,0.000
1709214589.603,-36.621,-38.574,-34.668,-27.344,0.000
1709214589.607,-34.668,-49.805,-40.527,-21.973,0.000
1709214589.610,-41.016,-45.410,-39.062,-32.227,0.000
1709214589.614,-39.062,-31.250,-42.969,-41.992,0.000
1709214589.618,-39.062,-30.762,-41.504,-49.316,0.000
1709214589.622,-49.316,-44.434,-41.504,-48.340,0.000
1709214589.626,-49.316,-52.734,-38.086,-43.945,0.000
1709214589.630,-52.734,-55.176,-37.598,-42.480,0.000
1709214589.634,-53.711,-49.316,-43.457,-52.734,0.000
1709214589.638,-45.410,-47.852,-39.551,-49.805,0.000
1709214589.642,-38.086,-61.035,-32.715,-39.551,0.000
1709214589.646,-32.715,-56.641,-34.180,-45.410,0.000
1709214589.650,-36.133,-48.828,-35.645,-52.734,0.000
1709214589.653,-41.504,-51.270,-40.039,-66.406,0.000
1709214589.657,-49.316,-50.293,-41.504,-76.172,0.000
1709214589.661,-58.105,-59.082,-40.039,-71.777,0.000
1709214589.665,-53.223,-56.641,-43.457,-58.105,0.000
1709214589.669,-49.316,-41.016,-40.039,-48.828,0.000
1709214589.673,-44.434,-35.156,-36.621,-46.875,0.000
1709214589.677,-45.410,-39.062,-42.480,-49.805,0.000
1709214589.681,-53.711,-41.992,-48.828,-54.199,0.000
1709214589.685,-45.898,-42.480,-42.969,-39.062,0.000
1709214589.689,-37.109,-41.504,-34.668,-38.086,0.000
1709214589.693,-36.621,-38.086,-34.668,-46.387,0.000
1709214589.696,-43.457,-35.156,-38.574,-47.852,0.000
1709214589.700,-49.805,-38.086,-45.898,-56.641,0.000
1709214589.704,-49.316,-35.156,-48.340,-48.340,0.000
1709214589.708,-50.293,-27.832,-44.922,-42.969,0.000
1709214589.712,-46.875,-32.227,-40.527,-46.387,0.000
1709214589.716,-50.293,-35.156,-39.551,-46.875,0.000
1709214589.720,-49.805,-35.156,-41.504,-43.457,0.000
1709214589.724,-48.828,-38.574,-38.574,-41.016,0.000
1709214589.728,-48.828,-39.062,-33.691,-38.086,0.000
1709214589.732,-38.574,-41.504,-32.227,-27.832,0.000
1709214589.735,-36.621,-40.527,-34.668,-28.320,0.000
1709214589.739,-50.293,-29.785,-39.062,-39.551,0.000
1709214589.743,-53.223,-24.902,-42.969,-39.062,0.000
1709214589.747,0.000,-26.367,0.000,-39.062,0.000
1709214589.751,0.000,-32.715,0.000,-45.898,0.000
1709214589.755,0.000,-37.109,0.000,-41.504,0.000
1709214589.759,0.000,-34.668,0.000,-47.363,0.000
1709214589.763,0.000,-26.367,0.000,-49.805,0.000
1709214589.767,0.000,-28.320,0.000,-45.410,0.000
1709214589.771,0.000,-39.062,0.000,-59.570,0.000
1709214589.775,0.000,-48.340,0.000,-57.617,0.000
1709214589.779,0.000,-48.828,0.000,-53.711,0.000
1709214589.782,0.000,-31.738,0.000,-62.012,0.000
1709214589.786,0.000,-23.926,0.000,-63.477,0.000
1709214589.790,0.000,-30.762,0.000,-64.941,0.000
1709214589.794,-51.270,-37.109,-38.086,-62.500,0.000
1709214589.798,-50.781,-32.715,-41.992,-62.988,0.000
1709214589.802,-55.176,-35.645,-46.387,-68.359,0.000
1709214589.806,-49.316,-40.527,-41.016,-68.359,0.000
1709214589.810,-39.551,-37.109,-39.062,-65.430,0.000
1709214589.814,-37.598,-32.715,-44.434,-56.152,0.000
1709214589.818,-44.434,-40.527,-44.922,-55.176,0.000
1709214589.821,-53.223,-41.504,-43.457,-58.105,0.000
1709214589.825,-44.434,-34.668,-43.457,-55.176,0.000
1709214589.829,-30.762,-36.621,-34.180,-48.340,0.000
1709214589.833,-29.785,-38.086,-31.250,-46.875,0.000
1709214589.837,-32.227,-32.227,-37.598,-52.246,0.000
1709214589.841,-32.715,-24.902,-39.551,-54.199,0.000
1709214589.845,-33.691,-29.297,-40.527,-45.410,0.000
1709214589.849,-30.273,-35.156,-38.086,-34.668,0.000
1709214589.853,-24.414,-41.992,-36.621,-33.691,0.000
1709214589.857,-24.902,-39.551,-31.250,-32.715,0.000
1709214589.860,-35.645,-33.203,-28.809,-37.598,0.000
1709214589.864,-27.832,-22.949,-24.902,-21.484,0.000
1709214589.868,-19.531,-20.996,-26.855,-14.648,0.000
1709214589.872,-20.508,-29.297,-33.691,-33.691,0.000
1709214589.876,-20.020,-35.645,-35.645,-30.273,0.000
1709214589.880,-26.367,-30.762,-39.062,-27.344,0.000
1709214589.884,-27.832,-32.715,-32.715,-32.715,0.000
1709214589.888,-20.020,-39.062,-25.879,-35.645,0.000
1709214589.892,-19.531,-28.809,-21.973,-28.809,0.000
1709214589.896,-26.367,-37.109,-27.832,-26.855,0.000
1709214589.899,-36.133,-45.410,-35.156,-39.062,0.000
1709214589.903,-40.527,-37.109,-36.621,-41.992,0.000
1709214589.907,-46.387,-35.645,-34.180,-32.715,0.000
1709214589.911,-50.781,-43.457,-32.227,-35.156,0.000
1709214589.915,-50.781,-47.363,-35.156,-51.758,0.000
1709214589.919,-56.641,-53.223,-39.062,-53.223,0.000
1709214589.923,-52.734,-51.270,-35.156,-37.598,0.000
1709214589.927,-43.945,-41.992,-31.250,-26.855,0.000
1709214589.931,-45.898,-44.922,-39.062,-35.156,0.000
1709214589.935,-45.898,-51.758,-41.992,-42.969,0.000
1709214589.939,-40.527,-51.270,-36.133,-42.969,0.000
1709214589.942,-46.387,-51.758,-37.109,-44.922,0.000
1709214589.946,-44.434,-38.086,-35.156,-42.480,0.000
1709214589.950,-33.691,-30.273,-36.621,-42.969,0.000
1709214589.954,-31.738,-30.762,-35.645,-44.434,0.000
1709214589.958,-34.668,-30.762,-33.203,-46.387,0.000
1709214589.962,-30.273,-36.621,-38.574,-47.852,0.000
1709214589.966,-14.648,-33.203,-36.621,-39.062,0.000
1709214589.970,-11.230,-34.668,-34.668,-35.645,0.000
1709214589.974,-14.648,-37.598,-40.039,-41.992,0.000
1709214589.978,-19.043,-32.715,-43.945,-46.387,0.000
1709214589.982,-19.531,-32.715,-44.922,-39.551,0.000
1709214589.985,-26.367,-45.410,-45.410,-37.598,0.000
1709214589.989,-25.391,-44.434,-46.387,-43.457,0.000
1709214589.993,-20.996,-41.504,-48.828,-46.387,0.000
1709214589.997,-25.879,-38.574,-44.922,-44.434,0.000
1709214590.001,-25.879,-28.320,-41.992,-41.992,0.000
1709214590.005,-28.320,-29.297,-50.293,-39.551,0.000
1709214590.009,-23.438,-30.762,-50.781,-39.551,0.000
1709214590.013,-12.207,-32.227,-38.574,-29.297,0.000
1709214590.017,-13.672,-29.785,-29.297,-18.066,0.000
1709214590.021,-27.832,-34.180,-32.715,-36.133,0.000
1709214590.025,-28.320,-42.480,-41.992,-40.527,0.000
1709214590.028,-26.367,-38.574,-40.039,-26.855,0.000
1709214590.032,-28.809,-35.156,-29.297,-29.785,0.000
1709214590.036,-30.273,-30.273,-29.297,-38.574,0.000
1709214590.040,-34.180,-30.762,-39.551,-28.809,0.000
1709214590.044,-35.645,-33.691,-35.156,-18.066,0.000
1709214590.048,-38.086,-30.273,-38.086,-21.973,0.000
1709214590.052,-40.527,-23.926,-37.598,-25.391,0.000
1709214590.056,-41.016,-14.648,-37.109,-31.738,0.000
1709214590.060,-41.992,-20.020,-43.945,-29.785,0.000
1709214590.064,-49.316,-29.297,-43.457,-32.715,0.000
1709214590.068,-49.316,-30.762,-49.316,-52.246,0.000
1709214590.071,-42.969,-34.668,-47.852,-53.711,0.000
1709214590.075,-45.898,-33.691,-45.410,-46.387,0.000
1709214590.079,-54.199,-36.621,-51.270,-47.852,0.000
1709214590.083,-50.781,-44.922,-46.387,-43.457,0.000
1709214590.087,-41.016,-45.410,-46.875,-38.574,0.000
1709214590.091,-33.203,-38.086,-43.457,-35.645,0.000
1709214590.095,-31.250,-42.969,-38.574,-37.598,0.000
1709214590.099,-34.668,-44.922,-41.992,-43.457,0.000
1709214590.103,-32.227,-39.551,-41.016,-28.320,0.000
1709214590.107,-30.273,-37.109,-34.180,-23.438,0.000
1709214590.111,-30.762,-34.180,-39.551,-44.434,0.000
1709214590.114,-27.344,-35.156,-36.133,-40.039,0.000
1709214590.118,-30.273,-34.668,-35.156,-33.691,0.000
1709214590.122,-33.203,-37.598,-47.852,-35.645,0.000
1709214590.126,-33.691,-28.320,-50.781,-32.227,0.000
1709214590.130,-30.762,-36.621,-49.316,-41.016,0.000
1709214590.134,-25.391,-41.992,-47.363,-46.387,0.000
1709214590.138,-30.762,-36.133,-42.969,-43.945,0.000
1709214590.142,-44.922,-49.805,-47.852,-51.270,0.000
1709214590.146,-51.270,-50.781,-52.734,-48.828,0.000
1709214590.150,-45.898,-45.898,-42.969,-35.156,0.000
1709214590.153,-42.969,-42.969,-40.039,-38.574,0.000
1709214590.157,-48.340,-41.016,-51.758,-47.363,0.000
1709214590.161,-45.898,-47.363,-45.898,-39.062,0.000
1709214590.165,-43.945,-48.340,-33.203,-34.180,0.000
1709214590.169,-50.781,-49.316,-36.621,-40.527,0.000
1709214590.173,-52.246,-54.688,-40.527,-43.945,0.000
1709214590.177,-48.828,-49.805,-36.133,-33.691,0.000
1709214590.181,-40.527,-44.434,-32.715,-25.879,0.000
1709214590.185,-37.598,-45.410,-30.762,-20.508,0.000
1709214590.189,-28.809,-37.598,-27.832,-16.602,0.000
1709214590.192,-14.160,-28.809,-29.297,-16.602,0.000
1709214590.196,-19.531,-36.621,-36.133,-13.672,0.000
1709214590.200,-37.598,-40.527,-41.016,-19.531,0.000
1709214590.204,-37.598,-37.598,-40.527,-24.414,0.000
1709214590.208,-22.461,-34.668,-34.180,-25.879,0.000
1709214590.212,-20.996,-30.273,-34.180,-30.273,0.000
1709214590.216,-31.738,-27.832,-38.086,-41.992,0.000
1709214590.220,-41.992,-35.156,-42.480,-40.527,0.000
1709214590.224,-34.180,-38.086,-42.969,-30.273,0.000
1709214590.228,-33.691,-31.250,-39.551,-27.832,0.000
1709214590.231,-44.434,-41.016,-42.969,-41.504,0.000
1709214590.235,-45.410,-38.086,-45.410,-57.129,0.000
1709214590.239,-45.898,-36.621,-43.457,-46.387,0.000
1709214590.243,-47.852,-41.016,-46.387,-38.086,0.000
1709214590.247,-57.617,-40.039,-42.969,-51.270,0.000
1709214590.251,-57.129,-36.621,-36.133,-47.363,0.000
1709214590.255,-54.688,-40.527,-39.062,-49.316,0.000
1709214590.259,-59.082,-55.664,-42.969,-52.246,0.000
1709214590.263,-65.918,-54.199,-42.480,-50.293,0.000
1709214590.267,-67.383,-43.945,-42.969,-49.805,0.000
1709214590.270,-62.012,-41.504,-40.527,-41.992,0.000
1709214590.274,-60.059,-42.969,-34.668,-38.574,0.000
1709214590.278,-63.965,-38.574,-34.668,-41.992,0.000
1709214590.282,-71.777,-42.969,-40.527,-47.852,0.000
1709214590.286,-72.754,-54.688,-48.828,-47.852,0.000
1709214590.290,-70.312,-42.480,-46.387,-51.270,0.000
1709214590.294,-62.988,-28.809,-38.574,-49.805,0.000
1709214590.298,-64.453,-33.203,-38.574,-44.922,0.000
1709214590.302,-69.336,-36.621,-42.969,-44.922,0.000
1709214590.306,-64.941,-41.992,-46.387,-49.316,0.000
1709214590.310,-56.152,-35.156,-33.691,-44.434,0.000
1709214590.313,-47.363,-26.367,-25.391,-43.457,0.000
1709214590.317,-43.457,-44.922,-26.855,-49.316,0.000
1709214590.321,-42.480,-61.035,-31.738,-49.805,0.000
1709214590.325,-36.133,-43.457,-31.738,-34.180,0.000
1709214590.329,-30.273,-34.668,-25.879,-21.484,0.000
1709214590.333,-22.949,-39.551,-25.879,-32.227,0.000
1709214590.337,-19.043,-30.762,-35.156,-35.645,0.000
1709214590.341,-11.230,-25.391,-31.250,-25.879,0.000
1709214590.345,-9.766,-23.926,-20.996,-18.066,0.000
1709214590.349,-14.648,-35.645,-22.949,-16.113,0.000
1709214590.353,-18.066,-45.898,-26.855,-21.484,0.000
1709214590.357,-20.996,-35.645,-35.156,-24.414,0.000
1709214590.360,-13.672,-25.879,-33.203,-14.648,0.000
1709214590.364,-16.113,-25.879,-28.809,-10.742,0.000
1709214590.368,-26.367,-29.297,-39.062,-24.902,0.000
1709214590.372,-25.391,-25.391,-44.434,-31.250,0.000
1709214590.376,-26.367,-25.879,-36.621,-34.668,0.000
1709214590.380,-44.922,-36.133,-35.156,-43.945,0.000
1709214590.384,-44.922,-48.340,-38.574,-45.898,0.000
1709214590.388,-39.062,-40.527,-41.504,-43.457,0.000
1709214590.392,-46.875,-25.391,-52.734,-46.875,0.000
1709214590.396,-47.852,-27.344,-49.316,-55.664,0.000
1709214590.399,-44.922,-31.250,-34.668,-46.875,0.000
1709214590.403,-43.945,-30.762,-34.668,-37.109,0.000
1709214590.407,-44.434,-37.598,-40.527,-35.645,0.000
1709214590.411,-45.410,-43.945,-45.898,-47.363,0.000
1709214590.415,-46.875,-46.387,-44.922,-50.781,0.000
1709214590.419,-48.828,-50.293,-36.621,-46.875,0.000
1709214590.423,-44.434,-54.199,-34.180,-40.527,0.000
1709214590.427,-39.551,-43.457,-38.086,-38.574,0.000
1709214590.431,-34.668,-29.297,-34.180,-45.898,0.000
1709214590.435,-30.273,-26.855,-29.785,-40.039,0.000
1709214590.439,-30.762,-27.832,-42.480,-39.062,0.000
1709214590.442,-28.320,-33.203,-49.316,-40.039,0.000
1709214590.446,-24.902,-33.203,-42.480,-33.691,0.000
1709214590.450,-22.461,-32.715,-34.668,-30.762,0.000
1709214590.454,-19.043,-34.668,-38.574,-33.203,0.000
1709214590.458,-18.066,-34.668,-44.434,-27.344,0.000
1709214590.462,-20.996,-40.039,-31.738,-17.090,0.000
1709214590.466,-16.602,-42.480,-28.809,-12.207,0.000
1709214590.470,-19.531,-35.645,-39.062,-18.555,0.000
1709214590.474,-24.902,-40.527,-33.203,-28.809,0.000
1709214590.478,-28.809,-42.969,-31.738,-26.855,0.000
1709214590.482,-29.785,-34.668,-34.668,-16.602,0.000
1709214590.485,-28.809,-27.832,-31.738,-23.926,0.000
1709214590.489,-25.391,-29.785,-29.297,-23.438,0.000
1709214590.493,-21.484,-40.039,-28.320,-20.508,0.000
1709214590.497,-20.996,-35.645,-29.297,-26.855,0.000
1709214590.501,-24.414,-34.180,-33.203,-24.414,0.000
1709214590.505,-20.508,-34.668,-34.180,-19.043,0.000
1709214590.509,-19.531,-22.949,-36.133,-19.531,0.000
1709214590.513,-28.320,-21.973,-36.133,-32.227,0.000
1709214590.517,-33.691,-21.484,-38.086,-43.945,0.000
1709214590.521,-39.551,-20.020,-39.551,-44.922,0.000
1709214590.524,-51.758,-36.133,-41.016,-39.551,0.000
1709214590.528,-57.129,-43.945,-37.109,-39.062,0.000
1709214590.532,-49.316,-39.551,-42.969,-46.875,0.000
1709214590.536,-41.992,-29.785,-47.852,-44.922,0.000
1709214590.540,-44.434,-28.320,-43.945,-47.363,0.000
1709214590.544,-47.363,-37.598,0.000,-46.875,0.000
1709214590.548,-32.227,-39.062,0.000,-35.156,0.000
1709214590.552,-27.344,-30.762,0.000,-32.715,0.000
1709214590.556,-30.762,-22.461,0.000,-33.691,0.000
1709214590.560,-33.203,-34.180,0.000,-34.180,0.000
1709214590.564,-40.527,-38.574,0.000,-32.227,0.000
1709214590.567,-43.945,-35.156,0.000,-27.344,0.000
1709214590.571,-42.969,-43.457,0.000,-29.297,0.000
1709214590.575,-38.086,-39.062,0.000,-39.551,0.000
1709214590.579,-36.621,-37.598,0.000,-35.645,0.000
1709214590.583,-43.945,-43.945,0.000,-34.180,0.000
1709214590.587,-41.992,-50.781,0.000,-38.086,0.000
1709214590.591,-35.645,-49.805,-39.551,-39.062,0.000
1709214590.595,-39.551,-40.039,-40.039,-47.363,0.000
1709214590.599,-39.062,-40.039,-44.922,-43.945,0.000
1709214590.603,-44.434,-39.062,-41.016,-36.133,0.000
1709214590.606,-36.133,-29.297,-38.574,-28.320,0.000
1709214590.610,-27.344,-31.250,-41.992,-30.762,0.000
1709214590.614,-31.250,-38.086,-39.551,-24.414,0.000
1709214590.618,-33.691,-40.039,-37.109,-14.648,0.000
1709214590.622,-38.086,-33.691,-34.668,-20.996,0.000
1709214590.626,-39.062,-41.992,-33.691,-19.043,0.000
1709214590.630,-41.504,-47.363,-36.133,-26.367,0.000
1709214590.634,-38.574,-37.598,-41.504,-32.715,0.000
1709214590.638,-35.645,-24.902,-41.992,-32.715,0.000
1709214590.642,-47.852,-22.461,-45.410,-34.180,0.000
1709214590.645,-55.664,-35.156,-50.293,-39.062,0.000
1709214590.649,-55.176,-35.156,-48.340,-40.039,0.000
1709214590.653,-49.316,-37.598,-42.480,-44.434,0.000
1709214590.657,-43.457,-43.945,-49.316,-44.922,0.000
1709214590.661,-38.086,-38.086,-41.504,-34.668,0.000
1709214590.665,-43.945,-29.785,-32.227,-43.945,0.000
1709214590.669,-53.223,-41.016,-41.504,-56.152,0.000
1709214590.673,-48.828,-54.688,-37.598,-44.434,0.000
1709214590.677,-43.457,-48.340,-31.250,-44.434,0.000
1709214590.681,-48.828,-31.738,-31.738,-52.734,0.000
1709214590.685,-52.734,-27.344,-36.133,-48.340,0.000
1709214590.688,-52.734,-37.109,-37.598,-45.410,0.000
1709214590.692,-60.547,-42.969,-43.945,-46.875,0.000
1709214590.696,-56.641,-36.621,-37.109,-48.340,0.000
1709214590.700,-51.270,-39.062,-30.273,-52.734,0.000
1709214590.704,-43.945,-50.781,-31.738,-50.293,0.000
1709214590.708,-39.551,-46.387,-36.133,-48.828,0.000
1709214590.712,-44.922,-41.016,-46.387,-51.758,0.000
1709214590.716,-45.898,-37.598,-42.969,-53.223,0.000
1709214590.720,-43.457,-40.527,-38.574,-55.664,0.000
1709214590.724,-39.062,-41.992,-40.039,-50.293,0.000
1709214590.728,-36.133,-36.621,-47.363,-54.199,0.000
1709214590.731,-36.621,-38.086,-47.852,-65.430,0.000
1709214590.735,-34.668,-30.273,-45.410,-63.965,0.000
1709214590.739,-37.598,-24.414,-40.527,-57.129,0.000
1709214590.743,-40.039,-24.414,-41.016,-60.547,0.000
1709214590.747,-36.133,-32.227,-46.387,-61.035,0.000
1709214590.751,-27.344,-36.133,-36.133,-55.176,0.000
1709214590.755,-17.090,-19.531,-34.180,-42.969,0.000
1709214590.759,-29.297,-18.555,-41.504,-43.457,0.000
1709214590.763,-41.504,-36.621,-40.527,-33.203,0.000
1709214590.767,-41.016,-41.992,-44.434,-20.996,0.000
1709214590.771,-36.133,-36.133,-51.270,-35.645,0.000
1709214590.774,-41.992,-28.320,-51.758,-35.156,0.000
1709214590.778,-60.059,-32.227,-50.781,-38.574,0.000
1709214590.782,-57.129,-38.086,-43.457,-41.016,0.000
1709214590.786,-48.340,-41.504,-38.574,-35.645,0.000
1709214590.790,-47.363,-51.758,-36.133,-41.992,0.000
1709214590.794,-46.875,-47.852,-36.621,-51.270,0.000
1709214590.798,-49.805,-45.898,-39.062,-52.734,0.000
1709214590.802,-46.387,-45.410,-36.621,-39.551,0.000
1709214590.806,-50.293,-32.715,-36.133,-38.574,0.000
1709214590.810,-53.711,-37.598,-39.551,-38.086,0.000
1709214590.814,-49.316,-45.898,-47.363,-42.480,0.000
1709214590.817,-44.434,-36.621,-44.922,-46.875,0.000
1709214590.821,-40.039,-36.133,-32.227,-36.621,0.000
1709214590.825,-30.762,-41.504,-31.250,-38.086,0.000
1709214590.829,-34.180,-34.668,-40.527,-49.805,0.000
1709214590.833,-39.551,-38.574,-50.293,-59.570,0.000
1709214590.837,-37.109,-40.527,-49.316,-58.105,0.000
1709214590.841,-43.457,-25.391,-42.480,-59.570,0.000
1709214590.845,-45.898,-21.484,-35.156,-51.758,0.000
1709214590.849,-37.598,-23.438,-39.062,-46.875,0.000
1709214590.853,-33.691,-41.504,-40.039,-49.805,0.000
1709214590.856,-37.109,-52.246,-35.156,-41.016,0.000
1709214590.860,-41.504,-41.992,-42.480,-46.875,0.000
1709214590.864,-36.621,-42.480,-40.527,-44.434,0.000
1709214590.868,-31.250,-41.016,-37.598,-32.715,0.000
1709214590.872,-24.902,-30.273,-41.992,-35.156,0.000
1709214590.876,-16.602,-30.273,-37.598,-34.668,0.000
1709214590.880,-19.531,-34.180,-38.086,-30.762,0.000
1709214590.884,-27.832,-35.156,-45.410,-31.738,0.000
1709214590.888,-30.762,-39.551,-47.852,-33.203,0.000
1709214590.892,-24.414,-44.434,-41.992,-22.949,0.000
1709214590.896,-29.785,-47.363,-44.922,-22.461,0.000
1709214590.899,-40.527,-34.668,-47.852,-18.555,0.000
1709214590.903,-38.086,-22.949,-41.016,-6.348,0.000
1709214590.907,-26.367,-19.043,-29.297,-19.043,0.000
1709214590.911,-23.438,-21.484,-28.809,-28.809,0.000
1709214590.915,-26.855,-35.645,-31.250,-35.645,0.000
1709214590.919,-29.297,-38.086,-30.273,-35.645,0.000
1709214590.923,-40.039,-41.016,-40.039,-33.203,0.000
1709214590.927,-41.016,-39.551,-43.457,-39.062,0.000
1709214590.931,-39.062,-40.527,-31.250,-42.969,0.000
1709214590.935,-49.805,-44.922,-34.668,-47.852,0.000
1709214590.938,-55.176,-34.668,-42.480,-57.129,0.000
1709214590.942,-48.340,-26.367,-41.016,-48.828,0.000
1709214590.946,-52.734,-37.109,-45.410,-44.922,0.000
1709214590.950,-47.852,-38.574,-49.316,-62.012,0.000
1709214590.954,-41.504,-34.668,-46.387,-71.289,0.000
1709214590.958,-51.270,-42.480,-46.875,-76.172,0.000
1709214590.962,-47.852,-52.246,-43.945,-71.777,0.000
1709214590.966,-44.434,-45.898,-41.992,-69.336,0.000
1709214590.970,-48.828,-32.227,-44.922,-68.359,0.000
1709214590.974,-43.457,-37.598,-44.922,-69.824,0.000
1709214590.977,-39.062,-43.457,-51.758,-69.336,0.000
1709214590.981,-39.551,-46.387,-49.316,-60.547,0.000
1709214590.985,-41.504,-48.828,-39.551,-61.035,0.000
1709214590.989,-35.645,-42.480,-38.574,-56.641,0.000
1709214590.993,-28.320,-35.645,-45.410,-53.223,0.000
1709214590.997,-23.926,-38.086,-41.504,-51.270,0.000
1709214591.001,-31.738,-40.527,-39.062,-48.828,0.000
1709214591.005,-32.715,-34.668,-49.805,-49.316,0.000
1709214591.009,-22.461,-29.297,-47.852,-41.504,0.000
1709214591.013,-27.344,-37.109,-44.434,-37.598,0.000
1709214591.016,-31.250,-42.969,-40.527,-38.574,0.000
1709214591.020,-32.227,-33.203,-36.133,-39.551,0.000
1709214591.024,-35.645,-30.762,-38.574,-40.039,0.000
1709214591.028,-39.551,-32.227,-39.062,-40.527,0.000
1709214591.032,-32.227,-37.109,-35.156,-36.133,0.000
1709214591.036,-31.738,-38.086,-39.551,-33.203,0.000
1709214591.040,-46.387,-36.133,-42.480,-37.598,0.000
1709214591.044,-44.922,-35.645,-38.574,-28.320,0.000
1709214591.048,-34.668,-41.016,-39.062,-17.578,0.000
1709214591.052,-29.297,-45.410,-38.574,-15.625,0.000
1709214591.056,-36.621,-40.527,-39.062,-25.879,0.000
1709214591.059,-41.016,-39.551,-34.180,-30.273,0.000
1709214591.063,-35.645,-34.180,-24.414,-25.879,0.000
1709214591.067,-38.574,-27.832,-26.855,-36.133,0.000
1709214591.071,-43.945,-27.832,-42.969,-46.387,0.000
1709214591.075,-40.527,-31.250,-39.062,-43.945,0.000
1709214591.079,-50.781,-39.062,-31.250,-48.828,0.000
1709214591.083,-58.594,-51.270,-28.320,-56.152,0.000
1709214591.087,-48.340,-41.992,-26.367,-53.223,0.000
1709214591.091,-39.551,-28.320,-35.645,-43.457,0.000
1709214591.095,-37.598,-31.738,-34.668,-37.598,0.000
1709214591.099,-43.945,-27.832,-34.180,-45.410,0.000
1709214591.102,-44.434,-30.273,-37.598,-50.781,0.000
1709214591.106,-38.086,-38.086,-37.598,-44.922,0.000
1709214591.110,-37.598,-35.156,-34.180,-44.434,0.000
1709214591.114,-27.832,-31.738,-34.180,-40.039,0.000
1709214591.118,-18.555,-34.668,-37.598,-39.551,0.000
1709214591.122,-28.809,-34.180,-33.203,-32.715,0.000
1709214591.126,-41.016,-32.715,-40.527,-27.344,0.000
1709214591.130,-38.086,-37.109,-42.480,-33.203,0.000
1709214591.134,-28.809,-33.691,-37.109,-29.785,0.000
1709214591.138,-27.832,-35.645,-38.086,-25.391,0.000
1709214591.142,-37.598,-34.180,-43.457,-25.879,0.000
1709214591.145,-37.598,-30.273,-44.922,-25.879,0.000
1709214591.149,-30.762,-42.480,-44.434,-20.508,0.000
1709214591.153,-31.250,-51.270,-45.898,-25.391,0.000
1709214591.157,-38.574,-46.387,-45.898,-33.691,0.000
1709214591.161,-40.527,-31.738,-44.434,-37.598,0.000
1709214591.165,-34.180,-29.297,-44.922,-34.668,0.000
1709214591.169,-35.156,-37.598,-39.551,-33.691,0.000
1709214591.173,-40.039,-38.574,-32.715,-38.086,0.000
1709214591.177,-38.574,-37.598,-39.062,-40.527,0.000
1709214591.181,-44.434,-45.410,-43.945,-44.922,0.000
1709214591.185,-57.129,-46.875,-45.898,-37.109,0.000
1709214591.188,-55.664,-44.434,-47.852,-29.297,0.000
1709214591.192,-47.363,-53.711,-49.316,-37.598,0.000
1709214591.196,-42.969,-46.875,-42.969,-42.969,0.000
