timestamps,TP9,AF7,AF8,TP10,Right AUX
1709214950.213,-19.531,-46.875,-40.527,-27.344,0.000
1709214950.216,-10.742,-49.316,-33.203,-15.137,0.000
1709214950.220,-20.996,-52.246,-38.574,-29.785,0.000
1709214950.224,-41.992,-45.410,-46.875,-50.781,0.000
1709214950.228,-47.852,-41.016,-33.691,-45.410,0.000
1709214950.232,-38.086,-45.410,-24.414,-34.180,0.000
1709214950.236,-22.461,-46.875,-28.809,-23.438,0.000
1709214950.240,-29.785,-45.898,-39.551,-39.551,0.000
1709214950.244,-56.641,-46.387,-41.016,-54.199,0.000
1709214950.248,-59.570,-41.504,-31.250,-39.062,0.000
1709214950.252,-44.922,-53.711,-34.180,-39.062,0.000
1709214950.255,-34.668,-61.523,-31.738,-32.227,0.000
1709214950.259,-38.086,-55.176,-31.738,-29.785,0.000
1709214950.263,-51.270,-58.594,-37.109,-44.922,0.000
1709214950.267,-61.035,-54.199,-31.738,-53.711,0.000
1709214950.271,-51.270,-52.734,-28.320,-41.992,0.000
1709214950.275,-29.785,-53.223,-27.832,-22.949,0.000
1709214950.279,-35.156,-51.270,-37.109,-30.273,0.000
1709214950.283,-52.734,-41.992,-34.668,-50.781,0.000
1709214950.287,-56.152,-46.875,-28.809,-62.012,0.000
1709214950.291,-44.922,-60.059,-35.156,-37.598,0.000
1709214950.295,-29.297,-51.270,-35.645,-11.719,0.000
1709214950.299,-25.391,-51.758,-30.273,-16.602,0.000
1709214950.302,-41.992,-50.293,-28.809,-33.691,0.000
1709214950.306,-59.082,-39.551,-35.645,-47.852,0.000
1709214950.310,-51.270,-48.828,-31.250,-38.086,0.000
1709214950.314,-33.203,-55.176,-32.715,-25.391,0.000
1709214950.318,-19.043,-41.016,-33.203,-21.973,0.000
1709214950.322,-24.414,-44.434,-41.504,-35.156,0.000
1709214950.326,-39.551,-54.199,-47.852,-54.688,0.000
1709214950.330,-41.016,-47.363,-54.199,-57.617,0.000
1709214950.334,-21.484,-45.898,-48.340,-30.273,0.000
1709214950.338,-13.672,-44.922,-38.574,-15.625,0.000
1709214950.342,-33.203,-51.758,-45.410,-41.992,0.000
1709214950.345,-54.199,-51.758,-41.992,-56.152,0.000
1709214950.349,-52.734,-42.480,-40.527,-50.293,0.000
1709214950.353,-35.156,-41.016,-39.551,-35.156,0.000
1709214950.357,-29.785,-43.457,-37.109,-34.180,0.000
1709214950.361,-41.992,-43.945,-33.691,-46.387,0.000
1709214950.365,-60.547,-54.199,-36.133,-63.965,0.000
1709214950.369,-59.082,-50.781,-42.969,-60.059,0.000
1709214950.373,-39.062,-40.527,-44.434,-42.480,0.000
1709214950.377,-36.133,-54.199,-34.668,-39.062,0.000
1709214950.381,-48.340,-53.711,-40.527,-40.039,0.000
1709214950.384,-58.594,-35.645,-48.340,-53.711,0.000
1709214950.388,-64.453,-43.457,-41.504,-62.500,0.000
1709214950.392,-50.293,-50.293,-43.945,-45.410,0.000
1709214950.396,-38.574,-45.898,-41.992,-32.715,0.000
1709214950.400,-49.805,-43.945,-39.062,-35.645,0.000
1709214950.404,-64.941,-47.852,-39.551,-46.387,0.000
1709214950.408,-73.730,-56.152,-44.434,-55.664,0.000
1709214950.412,-54.688,-43.945,-38.086,-40.039,0.000
1709214950.416,-28.809,-43.457,-33.203,-19.043,0.000
1709214950.419,-29.785,-48.340,-33.203,-20.508,0.000
1709214950.423,-53.711,-40.527,-26.855,-31.250,0.000
1709214950.427,-66.406,-40.039,-34.180,-38.574,0.000
1709214950.431,-45.898,-42.480,-40.527,-29.785,0.000
1709214950.435,-20.020,-45.410,-36.621,-15.625,0.000
1709214950.439,-14.648,-43.945,-42.969,-25.879,0.000
1709214950.443,-36.621,-38.574,-47.852,-50.781,0.000
1709214950.447,-41.016,-37.109,-46.387,-52.246,0.000
1709214950.451,-10.254,-38.574,-40.039,-23.438,0.000
1709214950.454,5.371,-43.457,-35.645,-6.348,0.000
1709214950.458,-7.812,-42.480,-42.480,-20.508,0.000
1709214950.462,-28.809,-38.086,-39.551,-46.875,0.000
1709214950.466,-37.109,-41.992,-34.668,-59.082,0.000
1709214950.470,-30.273,-48.828,-45.898,-28.809,0.000
1709214950.474,-20.996,-55.664,-54.199,-9.277,0.000
1709214950.478,-23.438,-59.082,-42.480,-23.926,0.000
1709214950.482,-37.598,-49.316,-31.738,-37.598,0.000
1709214950.486,-46.387,-45.898,-35.645,-54.199,0.000
1709214950.490,-37.598,-51.270,-40.039,-51.758,0.000
1709214950.493,-21.484,-48.828,-37.598,-32.227,0.000
1709214950.497,-23.926,-51.270,-39.551,-35.156,0.000
1709214950.501,-36.621,-47.852,-42.480,-50.781,0.000
1709214950.505,-49.805,-35.645,-43.945,-61.523,0.000
1709214950.509,-52.246,-37.598,-44.922,-55.664,0.000
1709214950.513,-37.109,-50.293,-54.688,-36.133,0.000
1709214950.517,-30.762,-56.152,-50.781,-32.715,0.000
1709214950.521,-44.922,-45.410,-32.715,-43.457,0.000
1709214950.525,-56.641,-37.598,-26.855,-52.734,0.000
1709214950.528,-45.898,-43.945,-18.066,-36.133,0.000
1709214950.532,-28.809,-55.176,-15.137,-15.137,0.000
1709214950.536,-28.809,-53.711,-27.344,-15.625,0.000
1709214950.540,-45.898,-49.805,-39.551,-33.203,0.000
1709214950.544,-59.082,-52.246,-39.551,-52.734,0.000
1709214950.548,-62.988,-51.270,-30.273,-54.688,0.000
1709214950.552,-44.922,-51.758,-35.645,-38.574,0.000
1709214950.556,-23.438,-53.223,-39.551,-23.438,0.000
1709214950.560,-27.344,-46.875,-25.391,-32.227,0.000
1709214950.564,-38.086,-39.551,-24.414,-40.039,0.000
1709214950.568,-43.457,-50.781,-40.527,-53.223,0.000
1709214950.572,-32.715,-57.617,-51.270,-48.828,0.000
1709214950.576,-15.625,-53.711,-49.316,-20.020,0.000
1709214950.579,-24.902,-49.316,-47.852,-31.250,0.000
1709214950.583,-39.551,-48.828,-40.039,-48.340,0.000
1709214950.587,-46.875,-52.734,-39.551,-50.293,0.000
1709214950.591,-41.504,-50.781,-46.875,-40.527,0.000
1709214950.595,-27.832,-39.062,-52.734,-22.949,0.000
1709214950.599,-27.832,-39.551,-52.734,-23.926,0.000
1709214950.603,-38.086,-49.316,-46.387,-44.922,0.000
1709214950.607,-49.805,-48.828,-43.945,-57.617,0.000
1709214950.611,-42.969,-42.480,-39.062,-38.574,0.000
1709214950.615,-28.809,-41.992,-40.039,-23.926,0.000
1709214950.619,-23.926,-40.039,-38.086,-17.578,0.000
1709214950.623,-34.668,-38.086,-36.133,-23.438,0.000
1709214950.626,-53.223,-51.270,-36.621,-46.387,0.000
1709214950.630,-54.688,-55.176,-37.109,-42.480,0.000
1709214950.634,-35.156,-35.645,-36.133,-17.090,0.000
1709214950.638,-38.086,-39.551,-40.039,-15.625,0.000
1709214950.642,-55.664,-59.082,-30.273,-41.016,0.000
1709214950.646,-63.965,-50.293,-28.320,-54.199,0.000
1709214950.650,-60.059,-44.922,-30.762,-40.039,0.000
1709214950.654,-42.480,-53.223,-26.367,-19.531,0.000
1709214950.658,-41.992,-52.734,-38.086,-21.484,0.000
1709214950.662,-52.734,-53.711,-38.086,-36.133,0.000
1709214950.666,-65.918,-58.105,-33.691,-43.457,0.000
1709214950.670,-67.383,-51.758,-34.180,-41.016,0.000
1709214950.673,-43.457,-46.387,-26.855,-24.414,0.000
1709214950.677,-31.250,-46.875,-28.809,-17.578,0.000
1709214950.681,-32.227,-41.504,-29.297,-29.785,0.000
1709214950.685,-47.852,-44.922,-25.879,-43.945,0.000
1709214950.689,-60.547,-61.523,-32.715,-44.434,0.000
1709214950.693,-39.551,-59.082,-43.945,-26.855,0.000
1709214950.697,-23.438,-50.293,-40.039,-16.602,0.000
1709214950.701,-36.133,-61.035,-32.715,-42.480,0.000
1709214950.705,-51.758,-66.895,-42.969,-64.453,0.000
1709214950.709,-46.387,-51.270,-38.086,-47.852,0.000
1709214950.712,-31.250,-42.969,-35.645,-25.391,0.000
1709214950.716,-24.902,-46.387,-41.504,-25.879,0.000
1709214950.720,-33.691,-39.062,-33.203,-33.203,0.000
1709214950.724,-44.922,-35.156,-31.250,-46.875,0.000
1709214950.728,-40.039,-41.016,-37.598,-54.688,0.000
1709214950.732,-18.555,-38.574,-30.273,-36.133,0.000
1709214950.736,-5.859,-33.203,-21.973,-14.160,0.000
1709214950.740,-21.973,-41.504,-29.297,-30.762,0.000
1709214950.744,-37.109,-47.852,-34.668,-45.898,0.000
1709214950.748,-43.457,-43.457,-33.203,-45.410,0.000
1709214950.751,-35.645,-38.574,-41.504,-29.785,0.000
1709214950.755,-13.672,-35.156,-42.480,-5.371,0.000
1709214950.759,-20.996,-28.320,-44.922,-26.855,0.000
1709214950.763,-41.504,-39.062,-49.316,-59.082,0.000
1709214950.767,-44.922,-41.992,-45.410,-63.477,0.000
1709214950.771,-34.668,-35.645,-48.340,-46.387,0.000
1709214950.775,-20.508,-41.016,-45.410,-31.738,0.000
1709214950.779,-22.949,-46.387,-31.738,-37.598,0.000
1709214950.783,-42.480,-46.875,-32.227,-53.223,0.000
1709214950.787,-53.223,-47.363,-35.645,-53.223,0.000
1709214950.790,-33.691,-49.316,-31.250,-37.598,0.000
1709214950.794,-20.508,-42.969,-38.086,-23.926,0.000
1709214950.798,-32.227,-41.016,-48.828,-28.320,0.000
1709214950.802,-41.504,-34.180,-43.945,-29.785,0.000
1709214950.806,-45.410,-35.156,-35.645,-48.828,0.000
1709214950.810,-42.969,-53.223,-36.621,-48.340,0.000
1709214950.814,-25.879,-57.129,-41.992,-28.320,0.000
1709214950.818,-20.996,-48.828,-42.480,-30.273,0.000
1709214950.822,-31.738,-42.480,-37.598,-45.898,0.000
1709214950.826,-48.828,-47.852,-39.551,-63.965,0.000
1709214950.830,-44.434,-41.992,-39.551,-52.734,0.000
1709214950.834,-17.578,-35.156,-40.527,-36.133,0.000
1709214950.838,-8.789,-37.109,-43.457,-31.250,0.000
1709214950.842,-33.691,-34.180,-38.574,-44.922,0.000
1709214950.845,-58.105,-34.668,-33.691,-51.758,0.000
1709214950.849,-47.363,-37.598,-41.016,-46.387,0.000
1709214950.853,-22.949,-41.504,-39.062,-28.809,0.000
1709214950.857,-18.066,-45.898,-44.434,-26.855,0.000
1709214950.861,-27.832,-41.992,-40.527,-40.039,0.000
1709214950.865,-39.551,-49.805,-23.926,-48.340,0.000
1709214950.869,-46.875,-52.734,-26.855,-50.293,0.000
1709214950.873,-33.691,-38.086,-34.180,-31.250,0.000
1709214950.876,-24.414,-49.316,-39.062,-28.320,0.000
1709214950.880,-37.598,-60.547,-40.527,-49.316,0.000
1709214950.884,-55.664,-36.133,-41.016,-58.105,0.000
1709214950.888,-62.012,-31.250,-33.203,-52.734,0.000
1709214950.892,-49.316,-49.316,-32.715,-35.645,0.000
1709214950.896,-35.156,-45.898,-39.551,-17.578,0.000
1709214950.900,-41.504,-34.668,-36.133,-28.320,0.000
1709214950.904,-55.176,-47.852,-40.039,-40.039,0.000
1709214950.908,-52.734,-58.105,-34.668,-32.715,0.000
1709214950.912,-36.621,-48.340,-30.762,-20.996,0.000
1709214950.916,-23.438,-44.434,-32.715,-8.789,0.000
1709214950.920,-23.438,-43.457,-24.902,-11.719,0.000
1709214950.924,-41.016,-42.480,-26.855,-33.691,0.000
1709214950.927,-48.828,-45.410,-30.273,-48.340,0.000
1709214950.931,-38.574,-44.434,-22.461,-35.645,0.000
1709214950.935,-23.438,-51.270,-22.949,-15.625,0.000
1709214950.939,-26.367,-61.523,-30.273,-25.879,0.000
1709214950.943,-48.828,-54.199,-37.598,-52.734,0.000
1709214950.947,-62.012,-49.316,-42.480,-62.012,0.000
1709214950.951,-52.246,-46.875,-31.738,-43.945,0.000
1709214950.955,-38.574,-49.805,-29.785,-25.391,0.000
1709214950.959,-36.133,-52.246,-41.016,-32.227,0.000
1709214950.963,-37.109,-52.734,-39.551,-46.387,0.000
1709214950.967,-46.387,-57.617,-29.785,-59.082,0.000
1709214950.971,-47.852,-55.664,-35.645,-54.688,0.000
1709214950.974,-32.715,-53.223,-41.016,-33.691,0.000
1709214950.978,-23.926,-47.852,-37.109,-32.715,0.000
1709214950.982,-29.297,-43.945,-26.855,-42.969,0.000
1709214950.986,-41.992,-37.598,-22.461,-54.199,0.000
1709214950.990,-42.969,-37.598,-39.551,-47.363,0.000
1709214950.994,-22.461,-47.852,-47.363,-12.695,0.000
1709214950.998,-9.277,-51.270,-35.645,-8.789,0.000
1709214951.002,-22.949,-39.551,-26.367,-39.551,0.000
1709214951.006,-39.551,-39.551,-27.832,-54.688,0.000
1709214951.010,0.000,-41.992,-33.691,-41.504,0.000
1709214951.014,0.000,-36.133,-36.621,-20.020,0.000
1709214951.017,0.000,-40.039,-31.250,-25.879,0.000
1709214951.021,0.000,-46.875,-31.738,-39.062,0.000
1709214951.025,0.000,-49.316,-32.227,-45.898,0.000
1709214951.029,0.000,-54.199,-25.879,-46.387,0.000
1709214951.033,0.000,-52.246,-43.457,-31.250,0.000
1709214951.037,0.000,-38.086,-51.758,-25.391,0.000
1709214951.041,0.000,-38.086,-31.250,-31.738,0.000
1709214951.045,0.000,-55.176,-36.621,-62.500,0.000
1709214951.049,0.000,-55.176,-34.180,-69.824,0.000
1709214951.053,0.000,-54.199,-24.902,-50.293,0.000
1709214951.057,-38.574,-61.523,-30.273,-50.293,0.000
1709214951.060,-40.527,-51.758,-31.250,-54.199,0.000
1709214951.064,-48.340,-45.898,-36.621,-64.941,0.000
1709214951.068,-58.594,-48.340,-42.969,-66.895,0.000
1709214951.072,-40.039,-34.180,-38.574,-46.875,0.000
1709214951.076,-16.113,-33.691,-33.203,-33.203,0.000
1709214951.080,-26.367,-50.293,-41.504,-40.527,0.000
1709214951.084,-47.852,-48.340,-46.387,-47.852,0.000
1709214951.088,-53.223,-37.598,-33.691,-47.852,0.000
1709214951.092,-31.250,-40.527,-26.855,-37.109,0.000
1709214951.096,-14.160,-54.688,-35.156,-16.602,0.000
1709214951.100,-17.578,-56.152,-31.738,-24.902,0.000
1709214951.103,-32.227,-41.504,-27.832,-54.199,0.000
1709214951.107,-50.293,-40.527,-35.156,-63.477,0.000
1709214951.111,-46.875,-45.410,-34.668,-50.293,0.000
1709214951.115,-33.203,-45.410,-36.133,-37.109,0.000
1709214951.119,-37.598,-41.992,-41.504,-40.527,0.000
1709214951.123,-48.340,-38.574,-40.039,-61.035,0.000
1709214951.127,-55.176,-40.527,-43.945,-71.777,0.000
1709214951.131,-50.781,-45.898,-34.668,-46.875,0.000
1709214951.135,-29.297,-56.152,-30.762,-23.926,0.000
1709214951.139,-21.973,-55.176,-31.738,-26.855,0.000
1709214951.142,-33.691,-42.969,-26.367,-38.574,0.000
1709214951.146,-41.992,-40.039,-23.926,-50.781,0.000
1709214951.150,-31.250,-42.480,-28.809,-41.504,0.000
1709214951.154,-13.672,-37.598,-32.715,-32.227,0.000
1709214951.158,-13.672,-35.156,-33.691,-33.203,0.000
1709214951.162,-29.785,-37.109,-42.969,-51.758,0.000
1709214951.166,-48.828,-37.598,-44.434,-71.289,0.000
1709214951.170,-42.969,-46.875,-44.922,-57.617,0.000
1709214951.174,-25.879,-44.922,-47.363,-25.879,0.000
1709214951.177,-22.461,-33.203,-31.250,-10.254,0.000
1709214951.181,-43.457,-33.691,-31.250,-36.133,0.000
1709214951.185,-63.477,-44.434,-40.527,-59.570,0.000
1709214951.189,-51.270,-50.781,-35.645,-49.805,0.000
1709214951.193,-38.574,-42.480,-34.668,-34.668,0.000
1709214951.197,-24.902,-37.109,-40.527,-24.902,0.000
1709214951.201,-29.297,-41.992,-45.410,-32.227,0.000
1709214951.205,-52.246,-42.480,-39.551,-52.246,0.000
1709214951.209,-44.434,-38.086,-38.574,-47.363,0.000
1709214951.212,-24.414,-42.480,-39.062,-31.250,0.000
1709214951.216,-22.461,-44.922,-36.621,-36.621,0.000
1709214951.220,-31.250,-36.133,-35.645,-47.363,0.000
1709214951.224,-51.758,-35.645,-43.945,-66.895,0.000
1709214951.228,-68.359,-41.504,-50.293,-88.867,0.000
1709214951.232,-58.105,-41.504,-45.898,-80.078,0.000
1709214951.236,-32.715,-26.367,-39.551,-55.176,0.000
1709214951.240,-43.457,-21.973,-36.133,-61.523,0.000
1709214951.243,-74.707,-36.133,-53.711,-82.031,0.000
1709214951.247,-74.219,-35.645,-55.664,-74.219,0.000
1709214951.251,-57.617,-41.504,-40.527,-58.594,0.000
1709214951.255,-43.457,-42.969,-39.062,-52.246,0.000
1709214951.259,-38.574,-48.340,-42.480,-53.711,0.000
1709214951.263,-47.363,-60.547,-44.434,-62.500,0.000
1709214951.267,-62.012,-48.340,-39.551,-72.266,0.000
1709214951.271,-51.270,-37.109,-46.875,-57.617,0.000
1709214951.275,-30.762,-47.852,-49.805,-39.062,0.000
1709214951.279,-27.344,-54.199,-33.203,-40.039,0.000
1709214951.283,-44.922,-44.434,-35.645,-59.082,0.000
1709214951.286,-53.711,-46.387,-38.086,-69.824,0.000
1709214951.291,-37.109,-47.852,-37.598,-54.688,0.000
1709214951.294,-15.625,-43.945,-37.109,-30.762,0.000
1709214951.298,-13.184,-48.828,-35.156,-25.391,0.000
1709214951.302,-26.367,-42.969,-41.992,-47.363,0.000
1709214951.306,-42.480,-34.180,-46.875,-65.430,0.000
1709214951.310,-44.922,-37.109,-49.316,-57.129,0.000
1709214951.314,-26.367,-40.039,-49.316,-35.156,0.000
1709214951.318,-17.090,-44.922,-44.434,-29.297,0.000
1709214951.322,-19.043,-53.711,-42.480,-40.527,0.000
1709214951.326,-36.621,-48.340,-43.457,-50.293,0.000
1709214951.330,-43.457,-42.480,-36.621,-41.992,0.000
1709214951.333,-17.578,-41.992,-26.855,-18.555,0.000
1709214951.338,-9.277,-56.641,-32.227,-16.113,0.000
1709214951.341,-28.809,-60.059,-36.621,-32.715,0.000
1709214951.345,-44.922,-53.711,-27.344,-44.922,0.000
1709214951.349,-50.293,-66.406,-32.715,-44.434,0.000
1709214951.353,-40.039,-57.129,-41.992,-26.367,0.000
1709214951.357,-28.320,-40.527,-41.504,-16.602,0.000
1709214951.361,-35.645,-39.062,-35.156,-30.273,0.000
1709214951.365,-53.223,-47.852,-39.062,-53.711,0.000
1709214951.369,-56.152,-61.523,-46.387,-50.293,0.000
1709214951.373,-38.086,-52.246,-42.969,-23.438,0.000
1709214951.377,-30.273,-41.992,-42.480,-20.508,0.000
1709214951.380,-39.551,-43.945,-41.992,-40.527,0.000
1709214951.384,-52.734,-51.758,-37.598,-63.477,0.000
1709214951.388,-52.246,-56.641,-31.250,-59.082,0.000
1709214951.392,-29.297,-43.945,-24.414,-29.297,0.000
1709214951.396,-7.324,-51.270,-21.973,-11.719,0.000
1709214951.400,-11.230,-51.758,-32.227,-26.367,0.000
1709214951.404,-33.691,-41.016,-39.551,-50.781,0.000
1709214951.408,-39.062,-38.574,-28.320,-50.781,0.000
1709214951.412,-31.738,-43.457,-34.668,-40.039,0.000
1709214951.416,-25.391,-43.457,-39.062,-23.438,0.000
1709214951.420,-28.320,-36.621,-30.762,-24.902,0.000
1709214951.424,-49.316,-41.504,-40.527,-55.664,0.000
1709214951.427,-53.711,-42.480,-38.574,-61.523,0.000
1709214951.431,-41.992,-43.945,-22.461,-42.480,0.000
1709214951.435,-30.762,-50.293,-25.879,-24.414,0.000
1709214951.439,-28.809,-46.875,-29.297,-23.926,0.000
1709214951.443,-41.504,-38.574,-26.367,-42.969,0.000
1709214951.447,-57.129,-47.363,-31.250,-51.758,0.000
1709214951.451,-51.758,-54.199,-32.715,-37.109,0.000
1709214951.455,-23.438,-48.828,-30.762,-17.090,0.000
1709214951.459,-21.973,-41.992,-36.621,-13.672,0.000
1709214951.463,-49.805,-40.527,-34.668,-33.691,0.000
1709214951.466,-62.500,-41.016,-37.109,-57.129,0.000
1709214951.470,-51.270,-47.363,-45.898,-49.805,0.000
1709214951.474,-36.621,-43.945,-33.203,-35.645,0.000
1709214951.478,-36.133,-36.133,-29.297,-35.156,0.000
1709214951.482,-43.945,-42.969,-28.809,-41.992,0.000
1709214951.486,-57.617,-40.527,-24.414,-57.129,0.000
1709214951.490,-60.547,-28.320,-30.273,-61.523,0.000
1709214951.494,-38.574,-34.668,-35.156,-43.945,0.000
1709214951.498,-30.273,-48.340,-35.156,-38.574,0.000
1709214951.502,-41.992,-48.828,-29.785,-56.152,0.000
1709214951.505,-58.594,-49.316,-35.156,-64.453,0.000
1709214951.509,-52.734,-46.387,-35.645,-45.898,0.000
1709214951.513,-31.738,-41.992,-34.180,-28.809,0.000
1709214951.517,-14.648,-40.039,-42.969,-21.973,0.000
1709214951.521,-23.438,-55.176,-36.621,-33.691,0.000
1709214951.525,-42.969,-50.781,-28.320,-54.688,0.000
1709214951.529,-47.852,-36.133,-24.902,-52.734,0.000
1709214951.533,-30.273,-33.691,-21.484,-30.273,0.000
1709214951.537,-21.484,-34.180,-34.668,-27.344,0.000
1709214951.541,-32.227,-43.457,-41.016,-42.480,0.000
1709214951.544,-45.898,-52.246,-32.715,-59.082,0.000
1709214951.548,-58.594,-44.434,-27.344,-54.199,0.000
1709214951.552,-50.781,-39.551,-32.227,-34.668,0.000
1709214951.556,-30.273,-47.363,-30.762,-30.762,0.000
1709214951.560,-36.133,-42.969,-33.691,-40.039,0.000
1709214951.564,-52.246,-54.688,-39.551,-52.246,0.000
1709214951.568,-55.176,-53.223,-27.344,-47.852,0.000
1709214951.572,-43.945,-38.574,-21.973,-35.645,0.000
1709214951.575,-35.156,-42.480,-35.645,-29.785,0.000
1709214951.579,-37.109,-46.387,-36.133,-38.086,0.000
1709214951.583,-41.504,-44.434,-32.227,-52.734,0.000
1709214951.587,-55.664,-47.363,-39.551,-68.359,0.000
1709214951.591,-45.410,-47.852,-34.668,-52.734,0.000
1709214951.595,-16.602,-42.969,-26.367,-13.184,0.000
1709214951.599,-20.508,-45.898,-32.227,-15.625,0.000
1709214951.603,-42.969,-48.828,-35.156,-46.875,0.000
1709214951.607,-46.387,-49.805,-29.297,-49.316,0.000
1709214951.611,-31.250,-46.875,-41.504,-39.062,0.000
1709214951.615,-12.695,-35.645,-46.875,-19.043,0.000
1709214951.618,-12.695,-36.621,-30.273,-12.207,0.000
1709214951.622,-37.109,-49.805,-27.832,-41.016,0.000
1709214951.626,-48.828,-47.852,-34.180,-60.059,0.000
1709214951.630,-37.598,-36.621,-32.227,-49.805,0.000
1709214951.634,-26.367,-34.180,-33.203,-32.715,0.000
1709214951.638,-23.438,-44.922,-35.156,-27.344,0.000
1709214951.642,-31.250,-61.523,-27.344,-40.527,0.000
1709214951.646,-43.945,-56.641,-30.273,-57.129,0.000
1709214951.649,-41.016,-42.969,-39.062,-49.805,0.000
1709214951.653,-19.043,-41.504,-41.504,-14.160,0.000
1709214951.657,-13.672,-44.922,-45.898,-1.953,0.000
1709214951.661,-23.926,-43.945,-35.156,-32.227,0.000
1709214951.665,-39.062,-32.227,-24.414,-44.922,0.000
1709214951.669,-50.293,-41.504,-31.250,-39.062,0.000
1709214951.673,-39.551,-45.898,-24.414,-20.508,0.000
1709214951.677,-27.832,-37.109,-27.832,-11.719,0.000
1709214951.681,-30.273,-46.875,-30.273,-27.344,0.000
1709214951.685,-47.852,-49.805,-26.367,-41.504,0.000
1709214951.689,-54.688,-41.504,-31.738,-47.363,0.000
1709214951.693,-42.969,-48.828,-31.250,-38.086,0.000
1709214951.697,-28.809,-54.688,-33.203,-18.555,0.000
1709214951.700,-37.109,-41.992,-32.715,-24.902,0.000
1709214951.704,-67.383,-41.016,-39.062,-54.199,0.000
1709214951.708,-69.336,-42.969,-41.504,-54.199,0.000
1709214951.712,-44.922,-44.434,-21.484,-31.738,0.000
1709214951.716,-32.715,-51.758,-20.020,-18.555,0.000
1709214951.720,-38.086,-48.340,-31.738,-30.273,0.000
1709214951.724,-50.293,-41.992,-34.180,-53.711,0.000
1709214951.728,-51.270,-32.715,-36.133,-57.129,0.000
1709214951.732,-37.598,-31.250,-36.621,-41.016,0.000
1709214951.736,-30.762,-43.945,-35.156,-25.391,0.000
1709214951.740,-36.133,-50.781,-31.738,-36.621,0.000
1709214951.744,-50.781,-51.758,-31.250,-49.316,0.000
1709214951.748,-59.082,-50.293,-36.621,-50.293,0.000
1709214951.751,-50.293,-36.621,-34.180,-46.387,0.000
1709214951.755,-40.527,-37.109,-31.738,-33.203,0.000
1709214951.759,-42.480,-51.270,-37.109,-38.574,0.000
1709214951.763,-56.152,-53.223,-36.621,-48.828,0.000
1709214951.767,-71.777,-55.664,-35.645,-55.176,0.000
1709214951.771,-57.129,-45.898,-29.297,-41.016,0.000
1709214951.775,-30.762,-39.062,-29.785,-19.043,0.000
1709214951.779,-24.902,-56.641,-35.645,-24.414,0.000
1709214951.783,-41.504,-58.594,-37.598,-44.922,0.000
1709214951.787,-59.570,-46.387,-33.691,-54.199,0.000
1709214951.791,-50.293,-49.805,-31.738,-42.480,0.000
1709214951.794,-34.180,-48.340,-45.898,-32.227,0.000
1709214951.798,-25.879,-41.504,-41.016,-33.203,0.000
1709214951.802,-34.180,-44.922,-28.809,-42.480,0.000
1709214951.806,-48.340,-35.645,-32.715,-50.781,0.000
1709214951.810,-46.387,-38.086,-32.715,-49.805,0.000
1709214951.814,-37.598,-52.246,-30.762,-29.785,0.000
1709214951.818,-30.762,-49.316,-40.527,-20.020,0.000
1709214951.822,-32.715,-31.738,-36.621,-35.156,0.000
1709214951.826,-54.199,-34.668,-39.062,-53.711,0.000
1709214951.830,-48.340,-42.480,-37.598,-42.969,0.000
1709214951.834,-28.809,-34.668,-30.762,-13.672,0.000
1709214951.837,-20.020,-33.691,-30.273,-4.883,0.000
1709214951.841,-22.949,-41.016,-24.902,-24.414,0.000
1709214951.845,-37.598,-42.969,-23.438,-40.039,0.000
1709214951.849,-43.945,-44.434,-40.527,-49.316,0.000
1709214951.853,-34.668,-54.199,-47.852,-40.527,0.000
1709214951.857,-19.531,-53.711,-27.344,-21.973,0.000
1709214951.861,-29.785,-41.016,-26.367,-32.227,0.000
1709214951.865,-45.898,-38.574,-29.785,-56.641,0.000
1709214951.869,-46.387,-41.016,-29.297,-57.617,0.000
1709214951.873,-31.250,-36.133,-31.250,-32.227,0.000
1709214951.876,-17.090,-32.715,-27.832,-13.672,0.000
1709214951.880,-19.531,-33.691,-28.320,-17.578,0.000
1709214951.884,-33.203,-41.504,-27.832,-29.785,0.000
1709214951.888,-41.992,-45.898,-33.203,-32.715,0.000
1709214951.892,-31.250,-48.340,-37.109,-16.602,0.000
1709214951.896,-25.391,-48.340,-37.598,-13.672,0.000
1709214951.900,-31.738,-50.293,-44.434,-24.902,0.000
1709214951.904,-46.875,-62.012,-32.227,-48.828,0.000
1709214951.908,-52.246,-62.988,-18.066,-56.152,0.000
1709214951.911,-46.387,-48.828,-28.320,-40.039,0.000
1709214951.915,-35.645,-33.691,-41.992,-29.785,0.000
1709214951.919,-31.738,-33.203,-40.527,-33.691,0.000
1709214951.923,-48.828,-49.805,-37.109,-59.082,0.000
1709214951.927,-59.570,-57.617,-36.621,-66.895,0.000
1709214951.931,-47.852,-47.363,-36.133,-52.734,0.000
1709214951.935,-38.086,-40.039,-38.574,-34.668,0.000
1709214951.939,-35.645,-40.527,-42.969,-29.785,0.000
1709214951.943,-41.016,-55.664,-38.086,-37.109,0.000
1709214951.946,-49.805,-55.664,-33.691,-54.688,0.000
1709214951.950,-42.480,-43.457,-41.016,-49.316,0.000
1709214951.954,-26.855,-49.805,-43.945,-30.273,0.000
1709214951.958,-14.648,-39.551,-35.645,-14.160,0.000
1709214951.962,-32.715,-41.016,-32.227,-28.320,0.000
1709214951.966,-56.641,-48.340,-31.250,-57.617,0.000
1709214951.970,-55.664,-36.621,-32.227,-43.945,0.000
1709214951.974,-35.156,-37.109,-33.203,-25.391,0.000
1709214951.978,-23.438,-35.645,-39.551,-27.832,0.000
1709214951.982,-34.180,-50.293,-47.363,-43.945,0.000
1709214951.986,-44.922,-63.965,-38.574,-61.035,0.000
1709214951.989,-39.551,-43.457,-33.203,-56.641,0.000
1709214951.993,-17.578,-30.762,-31.250,-30.762,0.000
1709214951.997,-2.441,-38.086,-28.320,-9.766,0.000
1709214952.001,-8.789,-29.785,-31.738,-19.531,0.000
1709214952.005,-29.785,-33.203,-33.691,-38.086,0.000
1709214952.009,-31.738,-44.434,-33.203,-37.109,0.000
1709214952.013,-24.414,-43.457,-46.387,-19.531,0.000
1709214952.017,-23.438,-40.527,-46.875,-6.836,0.000
1709214952.020,-38.086,-42.969,-40.527,-24.902,0.000
1709214952.024,-54.688,-61.523,-41.504,-46.875,0.000
1709214952.028,-52.734,-60.547,-26.855,-38.574,0.000
1709214952.032,-48.340,-32.715,-22.949,-18.066,0.000
1709214952.036,-38.574,-24.414,-26.367,-13.184,0.000
1709214952.040,-42.969,-28.320,-18.066,-21.484,0.000
1709214952.044,-68.359,-36.621,-16.602,-42.480,0.000
1709214952.048,-69.336,-41.504,-27.344,-49.316,0.000
1709214952.052,-50.293,-41.992,-39.551,-34.668,0.000
1709214952.056,-31.738,-42.969,-30.762,-19.043,0.000
1709214952.060,-30.273,-48.828,-23.438,-28.809,0.000
1709214952.064,-54.688,-59.082,-41.016,-58.105,0.000
1709214952.068,-62.988,-53.223,-45.410,-59.082,0.000
1709214952.071,-48.340,-53.711,-38.574,-40.527,0.000
1709214952.075,-34.180,-45.898,-39.062,-24.902,0.000
1709214952.079,-39.062,-28.809,-37.109,-35.645,0.000
1709214952.083,-48.340,-30.273,-21.973,-48.340,0.000
1709214952.087,-57.129,-43.457,-25.879,-51.270,0.000
1709214952.091,-59.570,-46.387,-45.898,-51.758,0.000
1709214952.095,-30.762,-41.016,-36.621,-30.273,0.000
1709214952.099,-33.203,-49.805,-31.250,-38.574,0.000
1709214952.103,-56.641,-53.711,-30.762,-58.105,0.000
1709214952.107,-63.477,-48.340,-42.480,-60.547,0.000
1709214952.111,-58.594,-45.898,-51.758,-52.734,0.000
1709214952.115,-35.645,-60.547,-39.551,-38.574,0.000
1709214952.118,-20.020,-59.082,-32.715,-25.391,0.000
1709214952.122,-32.227,-40.039,-36.621,-31.250,0.000
1709214952.126,-53.223,-40.527,-58.594,-59.570,0.000
1709214952.130,-53.223,-43.945,-61.035,-54.199,0.000
1709214952.134,-36.621,-47.852,-45.410,-33.691,0.000
1709214952.138,-30.273,-49.316,-47.363,-34.180,0.000
1709214952.142,-42.969,-40.527,-45.898,-45.410,0.000
1709214952.146,-49.316,-34.668,-42.480,-51.758,0.000
1709214952.150,-40.527,-41.016,-52.246,-46.387,0.000
1709214952.154,-31.250,-54.688,-46.387,-32.227,0.000
1709214952.158,-24.902,-44.922,-31.250,-22.949,0.000
1709214952.162,-32.227,-40.039,-37.598,-42.969,0.000
1709214952.165,-55.664,-49.805,-41.504,-67.383,0.000
1709214952.169,-52.246,-36.621,-40.527,-65.918,0.000
1709214952.173,-28.320,-27.832,-41.992,-46.875,0.000
1709214952.177,-16.113,-27.344,-40.527,-29.297,0.000
1709214952.181,-19.531,-31.250,-46.387,-42.969,0.000
1709214952.185,-30.273,-39.551,-43.457,-54.199,0.000
1709214952.189,-31.738,-42.480,-41.016,-49.805,0.000
1709214952.193,-18.066,-50.293,-33.203,-29.297,0.000
1709214952.197,-3.418,-46.387,-25.879,-11.719,0.000
1709214952.201,-13.672,-23.438,-32.715,-26.855,0.000
1709214952.204,-38.086,-31.250,-29.785,-48.828,0.000
1709214952.208,-51.270,-55.176,-35.156,-48.340,0.000
1709214952.212,-42.969,-45.410,-43.945,-29.297,0.000
1709214952.216,-30.273,-32.715,-40.527,-28.809,0.000
1709214952.220,-31.738,-35.156,-43.457,-41.504,0.000
1709214952.224,-46.875,-42.480,-44.434,-52.246,0.000
1709214952.228,-45.898,-48.828,-46.387,-63.477,0.000
1709214952.232,-28.809,-52.246,-50.293,-46.387,0.000
1709214952.236,-21.484,-63.965,-41.016,-15.625,0.000
1709214952.240,-30.273,-58.594,-35.156,-22.461,0.000
1709214952.243,-46.387,-42.480,-37.109,-44.922,0.000
1709214952.247,-47.852,-32.715,-38.086,-52.734,0.000
1709214952.251,-35.156,-39.062,-38.574,-43.457,0.000
1709214952.255,-17.578,-47.852,-39.062,-20.996,0.000
1709214952.259,-19.531,-53.711,-37.109,-13.184,0.000
1709214952.263,-32.227,-48.828,-44.922,-30.762,0.000
1709214952.267,-43.945,-37.598,-41.016,-41.992,0.000
1709214952.271,-41.504,-38.574,-28.809,-28.320,0.000
1709214952.275,-23.926,-47.363,-36.133,-6.836,0.000
1709214952.279,-24.902,-46.875,-45.410,-6.836,0.000
1709214952.282,-39.551,-42.480,-49.805,-30.762,0.000
1709214952.286,-47.852,-41.504,-47.363,-42.969,0.000
1709214952.290,-37.598,-35.645,-36.621,-30.273,0.000
1709214952.294,-25.391,-39.062,-38.086,-14.648,0.000
1709214952.298,-28.809,-60.547,-36.621,-12.207,0.000
1709214952.302,-39.551,-58.105,-35.156,-24.902,0.000
1709214952.306,-56.641,-48.340,-38.574,-47.852,0.000
1709214952.310,-54.199,-47.852,-32.227,-45.898,0.000
1709214952.314,-32.227,-41.016,-39.551,-25.879,0.000
1709214952.318,-29.297,-50.293,-45.410,-28.320,0.000
1709214952.321,-43.457,-49.805,-35.645,-42.480,0.000
1709214952.325,-57.617,-38.574,-30.273,-52.246,0.000
1709214952.329,-55.176,-44.922,-32.715,-46.387,0.000
1709214952.333,-29.785,-55.664,-31.250,-18.066,0.000
1709214952.337,-17.090,-53.223,-31.250,-11.719,0.000
1709214952.341,-32.227,-54.199,-37.598,-38.574,0.000
1709214952.345,-59.082,-55.664,-34.668,-54.199,0.000
1709214952.349,-67.871,-49.316,-32.227,-59.570,0.000
1709214952.353,-53.711,-40.039,-37.109,-50.781,0.000
1709214952.356,-41.504,-48.340,-32.227,-33.691,0.000
1709214952.360,-43.945,-51.758,-35.156,-50.293,0.000
1709214952.364,-52.246,-39.062,-34.668,-67.871,0.000
1709214952.368,-63.477,-41.992,-36.621,-65.918,0.000
1709214952.372,-50.293,-62.988,-38.574,-41.016,0.000
1709214952.376,-23.926,-55.176,-28.809,-20.508,0.000
1709214952.380,-29.785,-46.387,-39.062,-27.344,0.000
1709214952.384,-51.270,-51.270,-51.758,-43.457,0.000
1709214952.388,-60.547,-45.410,-41.016,-53.711,0.000
1709214952.391,-42.480,-48.828,-28.809,-40.527,0.000
1709214952.395,-23.926,-62.988,-28.809,-22.949,0.000
1709214952.399,-29.297,-60.059,-31.250,-27.832,0.000
1709214952.403,-45.898,-50.293,-31.738,-48.828,0.000
1709214952.407,-47.852,-41.504,-29.297,-45.410,0.000
1709214952.411,-33.203,-36.133,-29.297,-32.227,0.000
1709214952.415,-18.066,-38.086,-32.715,-20.996,0.000
1709214952.419,-16.602,-42.969,-34.668,-18.066,0.000
1709214952.423,-32.227,-47.363,-40.039,-38.086,0.000
1709214952.427,-42.969,-38.574,-44.434,-56.641,0.000
1709214952.431,-32.715,-45.898,-33.203,-45.410,0.000
1709214952.435,-20.508,-53.711,-30.273,-25.879,0.000
1709214952.438,-14.648,-57.617,-34.180,-25.391,0.000
1709214952.442,-29.785,-41.504,-27.832,-43.457,0.000
1709214952.446,-54.199,-36.621,-36.621,-61.035,0.000
1709214952.450,-55.664,-46.387,-47.363,-56.641,0.000
1709214952.454,-41.016,-48.340,-39.551,-43.457,0.000
1709214952.458,-30.762,-44.434,-39.551,-37.598,0.000
1709214952.462,-39.062,-46.875,-33.203,-46.387,0.000
1709214952.466,-57.129,-43.457,-30.273,-67.871,0.000
1709214952.470,-54.199,-41.016,-33.691,-69.824,0.000
1709214952.474,-41.992,-56.641,-38.574,-50.781,0.000
1709214952.478,-42.969,-61.035,-41.016,-43.457,0.000
1709214952.482,-57.617,-50.781,-34.668,-58.594,0.000
1709214952.486,-62.988,-52.734,-24.902,-72.266,0.000
1709214952.489,-54.688,-46.875,-32.227,-60.547,0.000
1709214952.493,-41.992,-40.527,-40.039,-37.109,0.000
1709214952.497,-34.180,-49.805,-41.016,-26.367,0.000
1709214952.501,-38.574,-51.758,-43.945,-36.621,0.000
1709214952.505,-56.152,-48.340,-44.922,-51.270,0.000
1709214952.509,-66.406,-42.969,-37.598,-50.781,0.000
1709214952.513,-45.410,-44.434,-29.297,-26.367,0.000
1709214952.517,-18.555,-39.551,-35.156,-10.742,0.000
1709214952.521,-24.902,-39.551,-32.227,-18.555,0.000
1709214952.525,-50.781,-52.246,-37.598,-43.457,0.000
1709214952.529,-54.688,-41.504,-47.852,-49.805,0.000
1709214952.532,-42.480,-33.691,-42.480,-33.691,0.000
1709214952.536,-30.762,-51.758,-43.945,-24.902,0.000
1709214952.540,-37.109,-58.105,-45.898,-30.273,0.000
1709214952.544,-56.152,-44.922,-51.758,-55.664,0.000
1709214952.548,-58.594,-43.457,-60.059,-64.453,0.000
1709214952.552,-49.316,-48.340,-40.527,-46.875,0.000
1709214952.556,-41.016,-46.875,-27.832,-35.645,0.000
1709214952.560,-37.598,-49.316,-28.809,-35.156,0.000
1709214952.564,-50.293,-48.340,-38.086,-49.316,0.000
1709214952.568,-61.035,-41.504,-42.969,-60.547,0.000
1709214952.572,-49.805,-44.434,-45.898,-54.688,0.000
1709214952.575,-30.762,-55.176,-51.270,-35.645,0.000
1709214952.579,-30.762,-48.828,-41.504,-33.691,0.000
1709214952.583,-55.176,-41.504,-37.109,-51.758,0.000
1709214952.587,-57.617,-41.016,-41.504,-54.688,0.000
1709214952.591,-40.039,-41.992,-36.621,-48.828,0.000
1709214952.595,-28.809,-41.016,-42.969,-40.527,0.000
1709214952.599,-22.461,-40.039,-50.781,-42.969,0.000
1709214952.603,-34.668,-54.199,-47.852,-51.758,0.000
1709214952.607,-49.316,-40.527,-41.504,-57.617,0.000
1709214952.611,-36.621,-32.227,-37.598,-50.293,0.000
1709214952.615,-22.949,-43.945,-41.016,-28.809,0.000
1709214952.618,-21.973,-36.621,-36.133,-26.367,0.000
1709214952.622,-33.691,-33.691,-32.227,-53.711,0.000
1709214952.626,-46.875,-44.434,-33.203,-65.918,0.000
1709214952.630,-43.945,-48.340,-36.133,-46.875,0.000
1709214952.634,-28.320,-43.457,-36.133,-26.367,0.000
1709214952.638,-20.996,-54.688,-39.062,-22.949,0.000
1709214952.642,-34.668,-64.941,-38.574,-36.133,0.000
1709214952.646,-50.293,-47.363,-41.504,-46.387,0.000
1709214952.650,-40.527,-27.832,-28.809,-30.762,0.000
1709214952.654,-29.297,-45.898,-25.391,-23.438,0.000
1709214952.657,-29.785,-56.641,-39.062,-23.438,0.000
1709214952.661,-34.180,-47.363,-33.691,-25.391,0.000
1709214952.665,-44.922,-41.992,-33.203,-41.016,0.000
1709214952.669,-49.316,-50.781,-35.156,-44.434,0.000
1709214952.673,-30.273,-72.754,-34.180,-21.973,0.000
1709214952.677,-10.254,-58.105,-33.203,-1.465,0.000
1709214952.681,-18.066,-36.133,-33.691,-17.090,0.000
1709214952.685,-32.715,-40.039,-31.250,-38.086,0.000
1709214952.689,-32.227,-34.180,-33.691,-35.645,0.000
1709214952.693,-22.461,-32.227,-40.527,-16.602,0.000
1709214952.696,-11.719,-38.574,-32.715,-4.883,0.000
1709214952.700,-27.832,-39.062,-15.625,-16.602,0.000
1709214952.704,-52.734,-42.969,-18.555,-33.691,0.000
1709214952.708,-60.547,-58.594,-32.715,-43.457,0.000
1709214952.712,-50.781,-61.035,-34.180,-40.527,0.000
1709214952.716,-40.527,-48.340,-41.016,-29.297,0.000
1709214952.720,-41.504,-40.527,-44.434,-27.344,0.000
1709214952.724,-51.758,-33.203,-44.922,-50.781,0.000
1709214952.728,-63.477,-34.668,-51.270,-64.453,0.000
1709214952.731,-50.781,-35.645,-53.223,-45.898,0.000
1709214952.735,-33.691,-41.992,-59.570,-34.180,0.000
1709214952.739,-36.133,-48.828,-58.594,-41.504,0.000
1709214952.743,-47.363,-51.270,-34.180,-64.941,0.000
1709214952.747,-62.500,-56.641,-25.391,-74.707,0.000
1709214952.751,-56.641,-42.480,-39.062,-62.012,0.000
1709214952.755,-28.809,-37.109,-32.227,-43.457,0.000
1709214952.759,-22.461,-39.551,-30.273,-37.109,0.000
1709214952.763,-49.316,-34.180,-39.062,-62.988,0.000
1709214952.767,-64.453,-44.434,-40.039,-80.566,0.000
1709214952.770,-51.270,-42.969,-42.480,-61.523,0.000
1709214952.774,-41.992,-33.691,-43.945,-44.434,0.000
1709214952.778,-33.691,-47.852,-40.527,-33.691,0.000
1709214952.782,-46.875,-60.547,-36.621,-44.434,0.000
1709214952.786,-61.523,-42.969,-38.086,-64.941,0.000
1709214952.790,-41.992,-38.086,-40.527,-42.480,0.000
1709214952.794,-25.391,-45.898,-32.227,-23.438,0.000
1709214952.798,-27.832,-37.598,-37.109,-33.691,0.000
1709214952.802,-33.691,-31.250,-36.621,-42.969,0.000
1709214952.806,-39.062,-41.016,-33.691,-44.922,0.000
1709214952.810,-41.504,-45.410,-41.016,-36.621,0.000
1709214952.814,-31.250,-42.969,-30.273,-22.949,0.000
1709214952.818,-21.973,-48.828,-36.133,-13.184,0.000
1709214952.821,-32.227,-41.016,-44.922,-25.879,0.000
1709214952.825,-58.594,-45.898,-28.320,-48.828,0.000
1709214952.829,-62.988,-55.176,-45.410,-48.828,0.000
1709214952.833,-38.574,-43.457,-64.941,-28.320,0.000
1709214952.837,-20.508,-27.344,-42.480,-19.531,0.000
1709214952.841,-28.320,-32.227,-34.180,-38.574,0.000
1709214952.845,-49.316,-40.039,-46.387,-58.594,0.000
1709214952.849,-42.969,-40.039,-47.852,-57.129,0.000
1709214952.853,-22.949,-47.363,-33.203,-41.016,0.000
1709214952.857,-13.184,-41.016,-25.879,-32.227,0.000
1709214952.861,-24.414,-37.598,-32.715,-45.410,0.000
1709214952.865,-41.504,-42.480,-34.668,-66.406,0.000
1709214952.868,-41.016,-33.203,-27.832,-57.617,0.000
1709214952.872,-32.715,-28.320,-33.691,-29.297,0.000
1709214952.876,-17.090,-34.668,-40.527,-23.926,0.000
1709214952.880,-18.066,-47.363,-40.039,-41.504,0.000
1709214952.884,-39.551,-58.594,-34.668,-55.664,0.000
1709214952.888,-47.852,-62.988,-27.832,-58.105,0.000
1709214952.892,-35.156,-48.340,-41.016,-53.223,0.000
1709214952.896,-19.531,-44.922,-52.246,-39.062,0.000
1709214952.900,-20.996,-51.758,-40.527,-30.762,0.000
1709214952.904,-43.457,-45.898,-36.621,-48.340,0.000
1709214952.908,-65.918,-41.992,-33.691,-68.359,0.000
1709214952.911,-45.410,-40.039,-25.879,-53.711,0.000
1709214952.915,-20.996,-35.645,-38.086,-20.996,0.000
1709214952.919,-25.879,-35.645,-44.434,-20.508,0.000
1709214952.923,-41.504,-53.711,-42.480,-51.270,0.000
1709214952.927,-58.594,-57.129,-45.898,-68.359,0.000
1709214952.931,-59.570,-40.527,-48.828,-59.082,0.000
1709214952.935,-35.645,-40.039,-46.387,-34.668,0.000
1709214952.939,-23.926,-43.457,-36.621,-31.250,0.000
1709214952.943,-33.691,-53.711,-31.250,-40.039,0.000
1709214952.947,-53.711,-54.199,-40.527,-51.270,0.000
1709214952.951,-51.758,-45.898,-47.363,-45.410,0.000
1709214952.954,-32.227,-45.410,-50.293,-28.320,0.000
1709214952.958,-22.461,-46.387,-45.898,-21.973,0.000
1709214952.962,-33.203,-51.270,-39.551,-32.715,0.000
1709214952.966,-51.758,-56.152,-47.363,-59.082,0.000
1709214952.970,-45.898,-57.129,-49.316,-56.152,0.000
1709214952.974,-24.902,-36.621,-37.109,-34.180,0.000
1709214952.978,-19.043,-37.109,-38.574,-25.879,0.000
1709214952.982,-35.156,-47.852,-40.039,-45.410,0.000
1709214952.986,-54.688,-56.152,-32.227,-62.012,0.000
1709214952.990,-55.176,-63.965,-42.969,-57.129,0.000
1709214952.993,-37.598,-52.246,-41.992,-41.504,0.000
1709214952.997,-26.855,-53.223,-35.645,-31.250,0.000
1709214953.001,-47.852,-64.941,-45.410,-50.781,0.000
1709214953.005,-65.918,-60.547,-48.828,-72.266,0.000
1709214953.009,-60.547,-45.898,-40.527,-66.895,0.000
1709214953.013,-41.016,-37.109,-34.180,-48.828,0.000
1709214953.017,-24.414,-39.062,-36.621,-38.574,0.000
1709214953.021,-28.320,-56.152,-42.969,-44.434,0.000
1709214953.025,-39.062,-60.059,-47.363,-60.547,0.000
1709214953.028,-47.852,-50.293,-55.176,-51.758,0.000
1709214953.032,-31.738,-63.477,-45.898,-30.273,0.000
1709214953.036,-14.648,-59.082,-36.621,-30.762,0.000
1709214953.040,-23.926,-38.086,-44.922,-31.738,0.000
1709214953.044,-41.504,-39.551,-27.344,-41.992,0.000
1709214953.048,-51.758,-45.410,-25.391,-48.828,0.000
1709214953.052,-35.645,-39.551,-42.969,-30.762,0.000
1709214953.056,-15.137,-49.316,-38.086,-22.949,0.000
1709214953.060,-25.879,-54.688,-29.785,-27.832,0.000
1709214953.064,-45.410,-44.434,-37.109,-44.922,0.000
1709214953.068,-39.062,-35.645,-36.621,-54.199,0.000
1709214953.071,-24.414,-40.039,-19.531,-42.969,0.000
1709214953.075,-15.137,-48.340,-20.996,-21.973,0.000
1709214953.079,-21.973,-39.551,-35.645,-21.973,0.000
1709214953.083,-51.758,-38.574,-44.434,-56.152,0.000
1709214953.087,-68.359,-46.875,-40.039,-70.312,0.000
1709214953.091,-54.688,-51.758,-31.250,-44.922,0.000
1709214953.095,-34.668,-47.363,-34.180,-19.043,0.000
1709214953.099,-29.785,-44.922,-34.180,-26.855,0.000
1709214953.103,-44.922,-48.828,-33.691,-53.711,0.000
1709214953.106,-61.035,-52.246,-31.738,-65.430,0.000
1709214953.110,-54.688,-52.734,-26.855,-55.176,0.000
1709214953.114,-43.945,-43.457,-33.691,-39.551,0.000
1709214953.118,-42.969,-44.434,-35.156,-33.691,0.000
1709214953.122,-61.523,-62.500,-33.691,-55.176,0.000
1709214953.126,-80.566,-51.758,-46.387,-74.219,0.000
1709214953.130,-68.359,-38.086,-41.992,-64.941,0.000
1709214953.134,-47.363,-47.363,-36.621,-47.363,0.000
1709214953.137,-41.992,-53.711,-44.922,-35.156,0.000
1709214953.141,-45.410,-52.246,-40.527,-48.828,0.000
1709214953.145,-55.176,-50.781,-28.809,-67.383,0.000
1709214953.149,-48.340,-40.039,-13.672,-54.199,0.000
1709214953.153,-36.133,-33.691,-21.973,-28.809,0.000
1709214953.157,-30.762,-34.668,-39.062,-14.648,0.000
1709214953.161,-40.039,-40.039,-43.945,-31.738,0.000
1709214953.165,-54.688,-47.363,-42.969,-47.363,0.000
1709214953.169,-48.340,-51.758,-51.270,-48.340,0.000
1709214953.173,-25.879,-47.852,-46.387,-30.273,0.000
1709214953.177,-4.395,-39.062,-29.785,-12.207,0.000
1709214953.181,-10.254,-47.363,-29.297,-20.508,0.000
1709214953.185,-29.297,-61.035,-33.203,-39.551,0.000
1709214953.188,-33.203,-36.621,-25.391,-46.387,0.000
1709214953.192,-22.461,-21.973,-29.785,-29.785,0.000
1709214953.196,-13.184,-32.715,-43.457,-11.719,0.000
1709214953.200,-25.879,-39.062,-33.203,-20.020,0.000
1709214953.204,-45.898,-35.156,-30.273,-45.898,0.000
1709214953.208,-51.270,-38.086,-42.969,-69.336,0.000
1709214953.212,-44.922,-42.969,-34.668,-51.758,0.000
1709214953.216,-40.527,-50.293,-31.250,-27.832,0.000
1709214953.220,-38.086,-49.805,-33.203,-38.086,0.000
1709214953.224,-57.617,-42.969,-27.832,-58.105,0.000
1709214953.228,-71.777,-46.387,-46.875,-70.801,0.000
1709214953.232,-55.664,-41.504,-47.363,-59.082,0.000
1709214953.235,-33.691,-48.828,-33.691,-35.156,0.000
1709214953.239,-25.879,-49.805,-36.621,-31.250,0.000
1709214953.243,-48.828,-46.387,-39.062,-49.316,0.000
1709214953.247,-61.035,-51.270,-35.156,-56.152,0.000
1709214953.251,-41.504,-56.152,-26.855,-40.039,0.000
1709214953.255,-26.367,-60.547,-24.414,-18.555,0.000
1709214953.259,-21.484,-41.016,-27.832,-17.090,0.000
1709214953.263,-21.484,-24.902,-21.484,-34.180,0.000
1709214953.267,-29.785,-33.691,-25.879,-43.457,0.000
1709214953.271,-27.832,-53.223,-40.039,-30.273,0.000
1709214953.275,-17.090,-50.293,-46.875,-17.578,0.000
1709214953.279,-16.602,-40.039,-46.875,-17.578,0.000
1709214953.282,-31.250,-46.387,-39.062,-31.738,0.000
1709214953.286,-45.898,-47.852,-38.574,-44.434,0.000
1709214953.290,-41.992,-43.945,-37.109,-32.715,0.000
1709214953.294,-21.484,-36.133,-29.785,-17.578,0.000
1709214953.298,-13.672,-37.109,-21.973,-15.137,0.000
1709214953.302,-33.691,-34.180,-25.391,-36.133,0.000
1709214953.306,-40.527,-40.039,-40.039,-57.617,0.000
1709214953.310,-29.785,-47.363,-44.922,-50.781,0.000
1709214953.314,-18.555,-46.875,-51.270,-38.086,0.000
1709214953.318,-15.625,-34.180,-46.875,-29.297,0.000
1709214953.322,-30.762,-32.715,-43.457,-41.504,0.000
1709214953.325,-44.922,-43.945,-33.203,-59.082,0.000
1709214953.329,-51.270,-36.621,-28.809,-55.176,0.000
1709214953.333,-41.992,-27.832,-34.180,-32.227,0.000
1709214953.337,-32.715,-44.922,-27.832,-15.625,0.000
1709214953.341,-35.645,-47.852,-29.297,-34.180,0.000
1709214953.345,-53.223,-38.086,-41.016,-59.570,0.000
1709214953.349,-64.453,-48.828,-48.340,-65.430,0.000
1709214953.353,-38.086,-42.969,-41.504,-46.387,0.000
1709214953.357,-18.555,-29.785,-26.367,-29.297,0.000
1709214953.361,-36.133,-41.016,-27.344,-37.109,0.000
1709214953.364,-50.293,-57.129,-35.645,-51.758,0.000
1709214953.368,-52.734,-48.828,-35.156,-43.945,0.000
1709214953.372,-41.504,-39.062,-38.574,-23.438,0.000
1709214953.376,-27.832,-33.691,-40.039,-15.625,0.000
1709214953.380,-26.855,-36.133,-39.551,-9.766,0.000
1709214953.384,-33.691,-43.457,-34.668,-17.090,0.000
1709214953.388,-37.598,-47.363,-38.574,-36.621,0.000
1709214953.392,-31.250,-53.711,-41.992,-36.621,0.000
1709214953.396,-17.090,-62.988,-38.086,-21.484,0.000
1709214953.399,-17.578,-56.152,-38.086,-21.484,0.000
1709214953.403,-39.062,-38.086,-41.992,-44.434,0.000
1709214953.407,-54.688,-30.273,-36.621,-57.617,0.000
1709214953.411,-44.922,-41.992,-32.227,-42.969,0.000
1709214953.415,-31.250,-50.781,-50.781,-25.879,0.000
1709214953.419,-22.949,-45.410,-46.875,-24.902,0.000
1709214953.423,-32.715,-51.270,-49.805,-34.668,0.000
1709214953.427,-47.852,-50.293,-51.758,-51.270,0.000
1709214953.431,-44.434,-41.992,-28.809,-55.176,0.000
1709214953.435,-26.367,-42.480,-29.785,-41.016,0.000
1709214953.439,-17.578,-47.852,-38.086,-33.203,0.000
1709214953.442,-34.668,-39.062,-35.156,-57.129,0.000
1709214953.446,-61.523,-27.832,0.000,-74.219,0.000
1709214953.450,-69.824,-39.062,0.000,-68.848,0.000
1709214953.454,-52.246,-47.363,0.000,-57.129,0.000
1709214953.458,-40.527,-48.340,0.000,-50.781,0.000
1709214953.462,-55.664,-54.688,0.000,-67.871,0.000
1709214953.466,-64.453,-58.105,0.000,-77.637,0.000
1709214953.470,-60.547,-63.477,0.000,-51.270,0.000
1709214953.473,-53.223,-60.547,0.000,-35.156,0.000
1709214953.477,-37.598,-41.992,0.000,-41.504,0.000
1709214953.481,-38.574,-31.738,0.000,-44.922,0.000
1709214953.485,-58.594,-35.645,0.000,-59.082,0.000
1709214953.489,-61.035,-37.598,0.000,-54.199,0.000
1709214953.493,-45.410,-45.410,-43.945,-36.621,0.000
1709214953.497,-28.809,-56.641,-39.551,-27.832,0.000
1709214953.501,-33.203,-53.711,-36.621,-39.551,0.000
1709214953.505,-50.293,-46.387,-39.062,-60.547,0.000
1709214953.508,-47.852,-47.852,-46.387,-61.035,0.000
1709214953.512,-32.715,-43.945,-44.434,-35.645,0.000
1709214953.516,-23.438,-33.691,-36.133,-20.996,0.000
1709214953.520,-30.762,-33.691,-36.621,-39.062,0.000
1709214953.524,-40.039,-36.133,-35.156,-56.152,0.000
1709214953.528,-36.621,-39.062,-36.133,-46.875,0.000
1709214953.532,-28.320,-40.527,-40.527,-20.508,0.000
1709214953.536,-9.766,-31.250,-35.156,-8.301,0.000
1709214953.540,-10.254,-44.922,-37.109,-17.090,0.000
1709214953.544,-30.273,-59.570,-38.086,-30.273,0.000
1709214953.548,-42.969,-47.852,-30.273,-38.574,0.000
1709214953.552,-42.480,-43.945,-37.109,-36.621,0.000
1709214953.556,-24.414,-43.945,-40.039,-14.160,0.000
1709214953.559,-24.902,-38.574,-32.715,-13.672,0.000
1709214953.563,-45.898,-38.086,-56.152,-42.480,0.000
1709214953.567,-56.641,-37.598,-59.082,-60.547,0.000
1709214953.571,-51.758,-42.969,-30.273,-49.316,0.000
1709214953.575,-34.180,-54.199,-28.809,-16.602,0.000
1709214953.579,-23.438,-64.453,-20.020,-14.648,0.000
1709214953.583,-41.992,-56.641,-23.926,-43.457,0.000
1709214953.587,-59.082,-47.852,-37.598,-64.941,0.000
1709214953.591,-42.969,-41.992,-38.086,-54.199,0.000
1709214953.595,-25.879,-31.738,-38.086,-26.367,0.000
1709214953.599,-26.367,-33.691,-49.316,-26.855,0.000
1709214953.603,-40.039,-40.039,-50.293,-47.363,0.000
1709214953.606,-58.105,-49.316,-37.109,-68.848,0.000
1709214953.610,-56.152,-56.152,-39.551,-62.500,0.000
1709214953.614,-34.180,-50.781,-30.273,-36.133,0.000
1709214953.618,-25.879,-46.875,-18.066,-22.461,0.000
1709214953.622,-47.852,-54.199,-30.762,-38.086,0.000
1709214953.626,-63.477,-52.246,-40.039,-59.570,0.000
1709214953.630,-57.129,-45.898,-41.016,-52.734,0.000
1709214953.635,-45.898,-49.805,-42.480,-38.086,0.000
1709214953.639,-35.156,-39.062,-40.527,-38.574,0.000
1709214953.643,-40.527,-41.016,-48.340,-54.199,0.000
1709214953.646,-60.059,-51.758,-44.434,-72.754,0.000
1709214953.650,-59.082,-45.410,-31.738,-69.824,0.000
1709214953.654,-34.180,-45.410,-33.203,-38.574,0.000
1709214953.658,-20.508,-48.340,-34.668,-28.320,0.000
1709214953.662,-31.738,-46.875,-38.574,-45.410,0.000
1709214953.666,-48.828,-47.852,-34.180,-49.805,0.000
1709214953.670,-51.758,-49.316,-43.945,-48.340,0.000
1709214953.674,-39.062,-45.898,-49.805,-29.785,0.000
1709214953.678,-25.391,-48.340,-35.156,-6.836,0.000
1709214953.682,-26.855,-44.434,-30.762,-24.414,0.000
1709214953.685,-40.527,-38.574,-26.855,-39.062,0.000
1709214953.689,-47.363,-48.340,-23.926,-46.387,0.000
1709214953.693,-42.969,-47.363,-23.926,-40.039,0.000
1709214953.697,-27.344,-46.875,-29.785,-21.973,0.000
1709214953.701,-21.973,-57.617,-38.086,-28.809,0.000
1709214953.705,-44.922,-48.828,-45.898,-46.875,0.000
1709214953.709,-55.664,-39.551,-47.363,-47.363,0.000
1709214953.713,-39.062,-44.434,-29.297,-32.715,0.000
1709214953.717,-26.367,-51.758,-23.438,-23.926,0.000
1709214953.721,-24.902,-49.316,-31.250,-26.367,0.000
1709214953.725,-36.621,-43.945,-41.992,-51.758,0.000
1709214953.728,-51.270,-43.945,-35.156,-62.012,0.000
1709214953.732,-31.250,-48.340,-21.973,-32.715,0.000
1709214953.736,-7.324,-52.246,-29.297,-10.742,0.000
1709214953.740,-16.113,-45.898,-41.016,-21.973,0.000
1709214953.744,-30.762,-36.621,-39.062,-41.504,0.000
1709214953.748,-33.203,-37.598,-32.715,-44.434,0.000
1709214953.752,-25.879,-37.109,-25.391,-31.738,0.000
1709214953.756,-10.254,-41.992,-27.832,-4.883,0.000
1709214953.760,-9.766,-51.758,-35.645,-2.930,0.000
1709214953.764,-29.297,-50.781,-38.574,-37.109,0.000
1709214953.767,-45.410,-45.898,-32.227,-58.594,0.000
1709214953.771,-39.062,-45.410,-21.973,-45.410,0.000
1709214953.775,-23.438,-42.969,-30.273,-18.555,0.000
1709214953.779,-17.578,-33.691,-48.340,-16.602,0.000
1709214953.783,-30.273,-34.668,-44.922,-32.227,0.000
1709214953.787,-43.457,-33.691,-32.227,-34.668,0.000
1709214953.791,-31.738,-39.551,-37.598,-26.367,0.000
1709214953.795,-18.555,-42.969,-41.992,-18.555,0.000
1709214953.799,-15.137,-41.016,-34.180,-4.883,0.000
1709214953.802,-26.367,-41.016,-37.598,-8.789,0.000
1709214953.806,-46.387,-37.598,-43.457,-42.480,0.000
1709214953.810,-47.852,-39.551,-33.203,-50.781,0.000
1709214953.814,-29.785,-41.992,-28.809,-25.879,0.000
1709214953.818,-20.508,-61.035,-38.086,-18.066,0.000
1709214953.822,-34.180,-59.570,0.000,-36.133,0.000
1709214953.826,-52.734,-35.156,0.000,-59.082,0.000
1709214953.830,-53.223,-33.203,0.000,-62.500,0.000
1709214953.834,-33.203,-32.715,0.000,-34.180,0.000
1709214953.837,-20.508,-35.645,0.000,-22.949,0.000
1709214953.841,-28.809,-48.340,0.000,-41.992,0.000
1709214953.845,-46.875,-61.523,0.000,-49.805,0.000
1709214953.849,-49.805,-63.477,0.000,-49.805,0.000
1709214953.853,-39.062,-46.387,0.000,-53.711,0.000
1709214953.857,-31.738,-37.598,0.000,-35.645,0.000
1709214953.861,-39.551,-50.781,0.000,-33.203,0.000
1709214953.865,-52.246,-48.340,0.000,-48.340,0.000
1709214953.868,-55.176,-34.180,-42.969,-48.340,0.000
1709214953.872,-41.992,-33.203,-40.527,-30.273,0.000
1709214953.876,-27.832,-35.156,-31.250,-8.301,0.000
1709214953.880,-28.320,-38.574,-41.992,-19.043,0.000
1709214953.884,-45.410,-47.363,-42.969,-45.898,0.000
1709214953.888,-64.453,-56.641,-39.551,-54.199,0.000
1709214953.892,-56.152,-51.758,-35.645,-41.016,0.000
1709214953.896,-41.992,-47.852,-36.621,-33.691,0.000
1709214953.900,-40.039,-66.895,-40.039,-38.086,0.000
1709214953.904,-53.223,-69.336,-35.645,-52.734,0.000
1709214953.907,-67.383,-47.852,-35.645,-62.012,0.000
1709214953.911,-60.059,-47.363,-36.621,-57.617,0.000
1709214953.916,-47.852,-44.922,-33.203,-38.574,0.000
1709214953.919,-47.363,-32.715,-26.367,-42.969,0.000
1709214953.923,-50.293,-28.320,-20.996,-62.012,0.000
1709214953.927,-56.641,-30.762,-29.297,-63.965,0.000
1709214953.931,-52.734,-36.621,-33.691,-56.152,0.000
1709214953.935,-43.457,-52.246,-38.086,-38.086,0.000
1709214953.939,-37.598,-56.641,-41.504,-29.297,0.000
1709214953.943,-47.852,-47.363,-39.062,-56.641,0.000
1709214953.947,-61.035,-39.062,-35.156,-73.242,0.000
1709214953.951,-57.129,-37.109,-30.273,-51.758,0.000
1709214953.955,-40.039,-35.156,-32.715,-26.367,0.000
1709214953.958,-19.531,-35.156,-33.691,-13.672,0.000
1709214953.963,-22.461,-40.039,-41.016,-25.879,0.000
1709214953.966,-45.898,-48.828,-41.992,-52.734,0.000
1709214953.970,-48.340,-52.734,-28.320,-44.922,0.000
1709214953.974,-29.785,-58.105,-29.297,-19.043,0.000
1709214953.978,-15.137,-44.434,-27.832,-2.930,0.000
1709214953.982,-28.809,-23.926,-31.738,-18.066,0.000
1709214953.986,-55.176,-34.180,-37.598,-51.270,0.000
1709214953.990,-50.293,-49.805,-29.297,-45.410,0.000
1709214953.994,-27.832,-48.828,-30.762,-12.695,0.000
1709214953.998,-11.719,-44.922,-34.180,2.930,0.000
1709214954.002,-12.207,-39.551,-34.180,-14.648,0.000
1709214954.005,-39.062,-36.621,-26.855,-38.574,0.000
1709214954.009,-52.734,-44.434,-24.414,-48.828,0.000
1709214954.013,-41.992,-51.270,-28.320,-41.016,0.000
1709214954.017,-33.203,-55.176,-29.297,-33.691,0.000
1709214954.021,-48.828,-42.480,-40.039,-44.922,0.000
1709214954.025,-73.730,-37.598,-49.316,-69.336,0.000
1709214954.029,-78.125,-47.852,-36.621,-74.707,0.000
1709214954.033,-70.801,-50.781,-28.320,-61.523,0.000
1709214954.037,-55.176,-52.734,-50.293,-43.457,0.000
1709214954.041,-44.922,-39.551,-47.363,-39.062,0.000
1709214954.045,-63.965,-36.133,-22.461,-63.477,0.000
1709214954.049,-74.707,-50.293,-34.668,-78.613,0.000
1709214954.052,-62.988,-52.734,-43.457,-68.359,0.000
1709214954.056,-49.316,-62.500,-40.039,-45.898,0.000
1709214954.060,-40.527,-63.477,-35.156,-40.527,0.000
1709214954.064,-49.316,-41.504,-27.832,-65.430,0.000
1709214954.068,-62.012,-34.668,-31.738,-77.148,0.000
1709214954.072,-51.270,-34.180,-37.109,-60.059,0.000
1709214954.076,-32.227,-32.715,-44.922,-35.645,0.000
1709214954.080,-25.391,-42.969,-35.645,-25.879,0.000
1709214954.084,-36.621,-54.688,-22.949,-37.109,0.000
1709214954.088,-55.664,-58.105,-32.715,-49.316,0.000
1709214954.091,-46.387,-50.781,-40.527,-40.039,0.000
1709214954.095,-13.672,-42.480,-41.016,-14.648,0.000
1709214954.099,-16.113,-46.387,-46.387,-14.160,0.000
1709214954.103,-34.668,-34.668,-41.504,-32.715,0.000
1709214954.107,-33.691,-33.203,-20.020,-36.133,0.000
1709214954.111,-29.297,-47.363,-13.672,-26.367,0.000
1709214954.115,-24.902,-54.688,-30.762,-20.996,0.000
1709214954.119,-14.160,-59.082,-34.668,-16.602,0.000
1709214954.123,-23.926,-56.641,-35.156,-29.785,0.000
1709214954.127,-45.898,-40.527,-37.598,-52.246,0.000
1709214954.130,-45.410,-36.621,-31.250,-31.250,0.000
1709214954.134,-28.809,-38.574,-39.551,-9.766,0.000
1709214954.138,-22.949,-39.062,-41.992,-18.066,0.000
1709214954.142,-23.438,-29.785,-25.391,-22.461,0.000
1709214954.146,-51.270,-41.992,-22.949,-47.852,0.000
1709214954.150,-62.988,-52.734,-27.832,-64.453,0.000
1709214954.154,-46.387,-41.504,-33.203,-48.340,0.000
1709214954.158,-36.133,-42.480,-43.945,-35.156,0.000
1709214954.162,-38.086,-45.410,-51.270,-51.758,0.000
1709214954.165,-54.688,-55.176,-30.762,-77.637,0.000
1709214954.169,-58.105,-58.594,-20.996,-75.684,0.000
1709214954.173,-49.805,-42.480,-37.598,-54.199,0.000
1709214954.177,-39.551,-37.598,-39.062,-37.598,0.000
1709214954.181,-35.156,-35.645,-26.855,-46.875,0.000
1709214954.185,-49.805,-34.180,-25.879,-65.918,0.000
1709214954.189,-65.430,-41.504,-36.133,-72.266,0.000
1709214954.193,-55.664,-45.898,-45.410,-62.012,0.000
1709214954.198,-30.762,-41.504,-38.574,-39.062,0.000
1709214954.201,-27.344,-46.875,-35.156,-28.809,0.000
1709214954.205,-41.016,-58.594,-49.805,-50.293,0.000
1709214954.209,-45.898,-55.664,-49.805,-58.105,0.000
1709214954.213,-36.621,-44.434,-36.133,-38.574,0.000
1709214954.217,-27.344,-35.645,-31.738,-25.391,0.000
1709214954.221,-32.715,-41.504,-37.109,-29.297,0.000
1709214954.225,-42.969,-49.316,-36.621,-37.598,0.000
1709214954.229,-48.340,-52.734,-31.738,-44.434,0.000
1709214954.233,-31.738,-38.574,-27.344,-31.250,0.000
1709214954.237,-19.043,-43.457,-24.902,-18.066,0.000
1709214954.241,-25.879,-56.152,-32.227,-23.926,0.000
1709214954.244,-41.016,-49.805,-39.551,-45.410,0.000
1709214954.248,-57.617,-60.547,-37.598,-57.129,0.000
1709214954.252,-54.688,-63.965,-26.367,-43.457,0.000
1709214954.256,-34.180,-64.453,-32.715,-27.344,0.000
1709214954.260,-24.414,-69.824,-37.598,-21.973,0.000
1709214954.264,-38.574,-52.734,-30.273,-37.109,0.000
1709214954.268,-52.734,-47.363,-33.203,-48.828,0.000
1709214954.271,-49.805,-52.246,-39.062,-39.062,0.000
1709214954.275,-33.203,-38.086,-44.434,-28.320,0.000
1709214954.279,-23.926,-31.738,-45.898,-16.602,0.000
1709214954.283,-40.039,-31.738,-46.387,-31.738,0.000
1709214954.287,-58.594,-44.922,-44.922,-58.594,0.000
1709214954.291,-53.711,-44.922,-42.969,-58.105,0.000
1709214954.295,-39.551,-37.598,-41.504,-40.039,0.000
1709214954.299,-28.809,-52.734,-38.574,-22.949,0.000
1709214954.303,-41.992,-58.594,-46.387,-40.039,0.000
1709214954.307,-63.965,-49.805,-51.270,-57.617,0.000
1709214954.311,-57.129,-52.246,-44.434,-55.176,0.000
1709214954.315,-31.250,-61.523,-41.992,-35.645,0.000
1709214954.319,-21.484,-47.363,-38.086,-25.879,0.000
1709214954.322,-26.367,-31.738,-32.715,-38.086,0.000
1709214954.326,-37.109,-46.387,-35.156,-46.875,0.000
1709214954.330,-43.945,-55.176,-39.062,-56.152,0.000
1709214954.334,-27.344,-49.316,-41.992,-53.711,0.000
1709214954.338,-15.137,-46.875,-43.457,-28.809,0.000
1709214954.342,-21.484,-49.316,-40.039,-28.320,0.000
1709214954.346,-29.785,-55.176,-37.598,-48.340,0.000
1709214954.350,-39.062,-58.105,-34.180,-53.711,0.000
1709214954.354,-29.297,-47.852,-30.762,-34.180,0.000
1709214954.358,-20.020,-47.363,-25.879,-24.414,0.000
1709214954.362,-34.668,-52.734,-24.414,-39.062,0.000
1709214954.366,-52.734,-51.270,-31.250,-66.406,0.000
1709214954.369,-55.664,-44.434,-39.062,-64.941,0.000
1709214954.373,-40.039,-47.852,-48.828,-38.086,0.000
1709214954.377,-29.297,-49.316,-44.922,-38.086,0.000
1709214954.381,-33.203,-57.129,-42.969,-47.363,0.000
1709214954.385,0.000,-61.523,-41.504,-57.617,0.000
1709214954.389,0.000,-47.363,-38.086,-68.359,0.000
1709214954.393,0.000,-43.457,-32.227,-53.223,0.000
1709214954.397,0.000,-49.805,-27.832,-32.227,0.000
1709214954.401,0.000,-52.246,-28.809,-32.715,0.000
1709214954.405,0.000,-43.457,-34.180,-53.711,0.000
1709214954.409,0.000,-39.062,-43.457,-68.359,0.000
1709214954.412,0.000,-43.945,-38.086,-56.641,0.000
1709214954.416,0.000,-58.594,-39.062,-34.668,0.000
1709214954.420,0.000,-55.176,-49.316,-36.621,0.000
1709214954.424,0.000,-37.598,-47.363,-63.477,0.000
1709214954.428,0.000,-33.203,-38.086,-70.312,0.000
1709214954.432,-44.434,-40.527,-39.062,-61.523,0.000
1709214954.436,-23.926,-42.480,-47.852,-40.527,0.000
1709214954.440,-8.789,-44.922,-41.504,-31.250,0.000
1709214954.444,-21.973,-48.828,-33.691,-46.387,0.000
1709214954.448,-39.062,-36.621,-31.738,-64.453,0.000
1709214954.451,-32.227,-34.180,-35.645,-58.105,0.000
1709214954.455,-8.301,-40.039,-31.250,-30.762,0.000
1709214954.459,-0.488,-38.574,-29.785,-12.207,0.000
1709214954.463,-6.348,-45.898,-37.109,-17.090,0.000
1709214954.467,-20.996,-43.945,-44.922,-44.434,0.000
1709214954.471,-28.320,-33.203,-41.992,-48.828,0.000
1709214954.475,-15.625,-34.180,-41.016,-28.809,0.000
1709214954.479,-8.301,-35.645,-44.434,-25.391,0.000
1709214954.483,-16.602,-34.668,-34.180,-33.691,0.000
1709214954.487,-30.273,-44.922,-35.645,-41.992,0.000
1709214954.490,-47.852,-45.410,-36.621,-41.504,0.000
1709214954.494,-43.945,-31.738,-41.504,-32.227,0.000
1709214954.498,-31.250,-36.621,-41.504,-20.020,0.000
1709214954.502,-46.875,-48.828,-33.203,-32.715,0.000
1709214954.506,-64.453,-55.176,-41.992,-50.293,0.000
1709214954.510,-72.266,-51.758,-42.480,-57.617,0.000
1709214954.514,-63.477,-41.504,-34.668,-50.293,0.000
1709214954.518,-46.875,-44.922,-42.969,-32.227,0.000
1709214954.522,-45.898,-45.898,-41.504,-40.039,0.000
1709214954.526,-50.293,-54.688,-14.160,-50.781,0.000
1709214954.529,-51.270,-56.152,-8.789,-51.270,0.000
1709214954.533,-45.410,-43.457,-26.855,-35.156,0.000
1709214954.537,-28.809,-36.621,-34.180,-17.578,0.000
1709214954.541,-31.738,-40.039,-36.621,-20.508,0.000
1709214954.545,-49.316,-43.945,-37.598,-41.504,0.000
1709214954.549,-59.570,-51.270,-38.086,-53.711,0.000
1709214954.553,-49.316,-53.711,-43.457,-31.250,0.000
1709214954.557,-27.832,-48.340,-41.016,-18.066,0.000
1709214954.561,-17.578,-47.852,-31.738,-23.438,0.000
1709214954.565,-29.297,-47.363,-27.344,-35.645,0.000
1709214954.568,-43.945,-48.828,-20.996,-49.805,0.000
1709214954.572,-40.039,-42.480,-22.461,-37.109,0.000
1709214954.576,-23.926,-32.227,-36.621,-15.137,0.000
1709214954.580,-18.066,-41.992,-39.551,-10.742,0.000
1709214954.584,-31.250,-48.340,-29.785,-19.043,0.000
1709214954.588,-46.387,-39.062,-38.086,-34.668,0.000
1709214954.592,-41.504,-37.109,-48.828,-28.320,0.000
1709214954.596,-25.391,-42.969,-36.133,-1.465,0.000
1709214954.600,-26.855,-54.199,-23.438,3.418,0.000
1709214954.603,-38.086,-56.641,-26.855,-20.996,0.000
1709214954.607,-51.758,-56.152,-34.180,-48.828,0.000
1709214954.611,-56.641,-58.105,-38.086,-49.805,0.000
1709214954.615,-40.039,-42.969,-31.250,-27.832,0.000
1709214954.619,-34.180,-36.621,-20.020,-22.461,0.000
1709214954.623,-49.805,-44.434,-22.461,-31.250,0.000
1709214954.627,-74.219,-51.270,-35.156,-44.922,0.000
1709214954.631,-73.730,-64.941,-34.180,-45.898,0.000
1709214954.634,-51.758,-59.570,-30.762,-27.832,0.000
1709214954.638,-48.340,-49.805,-24.902,-21.973,0.000
1709214954.642,-60.059,-54.688,-23.926,-39.062,0.000
1709214954.646,-73.242,-48.340,-36.621,-62.988,0.000
1709214954.650,-72.266,-41.992,-38.086,-69.824,0.000
1709214954.654,-51.270,-50.293,-40.039,-53.223,0.000
1709214954.658,-33.691,-53.711,-45.410,-35.645,0.000
1709214954.662,-38.086,-44.922,-47.852,-44.922,0.000
1709214954.666,-54.199,-41.504,-33.691,-64.453,0.000
1709214954.670,-52.734,-45.410,-26.855,-64.941,0.000
1709214954.674,-36.133,-41.016,-30.762,-44.434,0.000
1709214954.678,-20.996,-36.621,-26.855,-17.578,0.000
1709214954.681,-27.344,-46.875,-24.902,-23.926,0.000
1709214954.685,-45.410,-54.688,-31.738,-45.410,0.000
1709214954.689,-48.340,-46.387,-32.227,-53.223,0.000
1709214954.693,-35.645,-39.551,-32.227,-46.387,0.000
1709214954.697,-16.602,-41.992,-35.645,-30.762,0.000
1709214954.701,-19.531,-41.992,-32.715,-25.879,0.000
1709214954.705,-40.527,-40.527,-39.062,-48.828,0.000
1709214954.709,-50.293,-34.668,-49.805,-56.641,0.000
1709214954.713,-41.016,-43.945,-34.668,-28.809,0.000
1709214954.717,-25.391,-62.012,-23.438,-12.695,0.000
1709214954.721,-24.414,-52.246,-34.668,-22.461,0.000
1709214954.725,-44.922,-50.293,-41.504,-35.645,0.000
1709214954.728,-59.082,-53.223,-31.250,-44.922,0.000
1709214954.732,-48.828,-41.992,-27.832,-40.039,0.000
1709214954.736,-32.227,-42.480,-37.598,-27.344,0.000
1709214954.740,-23.926,-40.039,-41.504,-32.227,0.000
1709214954.744,-34.180,-32.715,-42.480,-41.504,0.000
1709214954.748,-49.805,-30.273,-42.480,-50.781,0.000
1709214954.752,-52.246,-36.133,-43.457,-60.547,0.000
1709214954.756,-30.273,-53.711,-36.621,-38.574,0.000
1709214954.760,-22.461,-59.082,-33.691,-36.133,0.000
1709214954.764,-42.969,-34.180,-36.133,-66.406,0.000
1709214954.768,-53.223,-29.785,-35.645,-71.777,0.000
1709214954.771,-56.641,-45.410,-31.250,-61.523,0.000
1709214954.775,-42.480,-35.645,-28.320,-53.223,0.000
1709214954.779,-27.344,-43.457,-42.480,-49.316,0.000
1709214954.783,-38.574,-56.641,-45.898,-62.988,0.000
1709214954.787,-55.176,-48.828,-37.109,-79.102,0.000
1709214954.791,-52.246,-54.199,-34.668,-65.430,0.000
1709214954.795,-34.668,-45.410,-36.621,-41.992,0.000
1709214954.799,-30.762,-37.109,-31.250,-39.062,0.000
1709214954.803,-41.504,-36.621,-27.832,-44.922,0.000
1709214954.807,-54.199,-34.668,-39.062,-57.129,0.000
1709214954.811,-58.594,-47.363,-42.480,-61.523,0.000
1709214954.814,-39.551,-53.223,-38.086,-39.551,0.000
1709214954.818,-22.461,-53.223,-41.016,-10.742,0.000
1709214954.822,-27.832,-53.223,-40.527,-12.207,0.000
1709214954.826,-42.480,-40.527,-34.180,-33.203,0.000
1709214954.830,-54.199,-32.227,-33.203,-44.434,0.000
1709214954.834,-42.969,-49.316,-29.297,-31.738,0.000
1709214954.838,-29.297,-50.293,-28.809,-22.461,0.000
1709214954.842,-29.297,-35.645,-25.879,-31.250,0.000
1709214954.846,-47.363,-36.621,-27.832,-50.781,0.000
1709214954.850,-58.105,-40.527,-32.227,-53.711,0.000
1709214954.853,-35.156,-42.969,-36.621,-31.250,0.000
1709214954.857,-17.090,-35.645,-50.781,-20.020,0.000
1709214954.861,-24.414,-33.203,-42.480,-19.531,0.000
1709214954.865,-39.551,-41.992,-30.273,-27.832,0.000
1709214954.869,-45.898,-58.594,-34.668,-36.133,0.000
1709214954.873,-33.203,-59.082,-32.715,-27.832,0.000
1709214954.877,-9.277,-45.898,-28.809,-12.695,0.000
1709214954.881,-9.277,-44.434,-34.668,-16.602,0.000
1709214954.885,-21.484,-37.598,-38.086,-41.016,0.000
1709214954.889,-32.715,-31.738,-44.434,-59.570,0.000
1709214954.893,-33.203,-38.574,-49.805,-62.012,0.000
1709214954.896,-19.043,-43.945,-52.734,-46.875,0.000
1709214954.900,-17.578,-51.758,-43.945,-35.645,0.000
1709214954.904,-31.250,-51.758,-46.387,-53.711,0.000
1709214954.908,-40.527,-41.504,-59.082,-64.941,0.000
1709214954.912,-39.062,-50.293,-45.410,-52.734,0.000
1709214954.916,-25.391,-57.129,-36.133,-34.668,0.000
1709214954.920,-20.020,-39.551,-37.598,-22.461,0.000
1709214954.924,-33.691,-34.668,-39.551,-33.203,0.000
1709214954.928,-53.223,-39.062,-45.898,-47.852,0.000
1709214954.931,-51.758,-43.457,-51.758,-51.270,0.000
1709214954.935,-30.762,-48.340,-42.969,-34.180,0.000
1709214954.939,-16.602,-40.527,-35.156,-19.043,0.000
1709214954.943,-29.785,-48.340,-42.969,-37.109,0.000
1709214954.947,-49.805,-56.152,-47.363,-52.246,0.000
1709214954.951,-59.082,-47.363,-36.621,-58.105,0.000
1709214954.955,-42.480,-45.898,-35.156,-41.992,0.000
1709214954.959,-26.367,-42.480,-44.922,-23.926,0.000
1709214954.963,-46.387,-39.551,-41.016,-43.457,0.000
1709214954.966,-60.547,-33.691,-34.668,-63.965,0.000
1709214954.970,-60.059,-38.574,-44.922,-57.129,0.000
1709214954.974,-49.805,-50.781,-50.781,-39.062,0.000
1709214954.978,-31.250,-43.457,-41.504,-30.273,0.000
1709214954.982,-31.738,-40.527,-37.598,-33.691,0.000
1709214954.986,-41.504,-46.387,-45.898,-49.316,0.000
1709214954.990,-47.363,-55.664,-39.551,-52.734,0.000
1709214954.994,-35.156,-55.176,-23.438,-36.133,0.000
1709214954.997,-20.508,-51.758,-28.809,-19.531,0.000
1709214955.001,-31.250,-40.527,-35.645,-28.809,0.000
1709214955.005,-52.246,-33.691,-34.180,-48.828,0.000
1709214955.009,-56.641,-41.504,-46.387,-51.270,0.000
1709214955.013,-36.621,-49.316,-49.316,-29.785,0.000
1709214955.017,-11.719,-46.875,-34.180,-14.648,0.000
1709214955.021,-10.742,-46.387,-25.391,-24.414,0.000
1709214955.025,-27.344,-50.293,-26.367,-42.480,0.000
1709214955.029,-37.109,-54.199,-30.762,-46.387,0.000
1709214955.033,-34.180,-51.270,-33.203,-32.227,0.000
1709214955.036,-22.461,-54.199,-34.668,-21.484,0.000
1709214955.041,-22.949,-56.152,-34.668,-25.879,0.000
1709214955.044,-50.293,-57.617,-43.457,-52.734,0.000
1709214955.048,-66.406,-62.012,-49.805,-67.871,0.000
1709214955.052,-58.105,-41.992,-41.992,-56.152,0.000
1709214955.056,-43.945,-29.297,-35.156,-40.527,0.000
1709214955.060,-37.109,-35.645,-40.527,-35.645,0.000
1709214955.064,-48.828,-40.039,-45.898,-52.734,0.000
1709214955.068,-59.570,-39.551,-45.898,-71.777,0.000
1709214955.072,-54.199,-43.945,-39.551,-63.477,0.000
1709214955.076,-38.086,-53.711,-41.504,-42.480,0.000
1709214955.080,-29.785,-46.387,-38.574,-37.598,0.000
1709214955.084,-44.434,-32.715,-42.969,-60.547,0.000
1709214955.088,-63.965,-40.527,-59.570,-78.125,0.000
1709214955.091,-60.547,-37.109,-46.387,-64.453,0.000
1709214955.095,-46.387,-29.785,-38.086,-43.457,0.000
1709214955.099,-30.273,-27.832,-41.992,-26.367,0.000
1709214955.103,-32.227,-28.320,-40.527,-32.227,0.000
1709214955.107,-45.410,-34.668,-32.715,-52.734,0.000
1709214955.111,-44.434,-38.574,-35.645,-55.664,0.000
1709214955.115,-34.180,-38.574,-43.945,-40.527,0.000
1709214955.119,-24.414,-43.457,-35.645,-25.391,0.000
1709214955.123,-35.156,-43.457,-32.715,-24.902,0.000
1709214955.127,-46.875,-28.809,-46.387,-41.016,0.000
1709214955.131,-47.363,-30.762,-40.039,-38.086,0.000
1709214955.135,-38.086,-46.387,-31.738,-17.090,0.000
1709214955.138,-26.367,-51.270,-28.809,0.488,0.000
1709214955.142,-29.785,-47.852,-30.273,-13.184,0.000
1709214955.146,-48.340,-38.086,-33.203,-42.480,0.000
1709214955.150,-52.734,-32.715,-36.133,-42.480,0.000
1709214955.154,-36.621,-36.133,-41.992,-35.645,0.000
1709214955.158,-22.461,-38.086,-37.598,-31.738,0.000
1709214955.162,-18.555,-45.410,-34.180,-29.297,0.000
1709214955.166,-41.992,-58.105,-40.527,-41.992,0.000
1709214955.170,-57.617,-44.922,-36.621,-46.387,0.000
1709214955.174,-34.668,-31.250,-18.555,-26.367,0.000
1709214955.177,-18.066,-37.109,-15.137,-14.648,0.000
1709214955.181,-23.926,-41.016,-27.344,-30.273,0.000
1709214955.185,-42.969,-41.504,-38.086,-56.641,0.000
1709214955.189,-62.988,-43.457,-42.969,-65.430,0.000
1709214955.193,-56.641,-48.828,-40.039,-46.875,0.000
1709214955.197,-31.250,-53.711,-30.762,-24.414,0.000
1709214955.201,-26.855,-52.734,-38.574,-26.855,0.000
1709214955.205,-48.340,-45.410,-51.270,-55.176,0.000
1709214955.209,-58.105,-48.828,-36.621,-61.035,0.000
1709214955.213,-47.852,-50.293,-29.297,-42.480,0.000
1709214955.217,-24.414,-45.410,-34.180,-30.762,0.000
1709214955.220,-17.578,-45.410,-40.527,-32.227,0.000
1709214955.224,-40.039,-47.363,-44.434,-59.570,0.000
1709214955.229,-50.781,-51.758,-34.180,-70.801,0.000
1709214955.233,-41.016,-55.664,-27.832,-56.641,0.000
1709214955.237,-26.855,-52.246,-41.992,-33.691,0.000
1709214955.240,-25.879,-55.176,-56.641,-29.785,0.000
1709214955.244,-42.480,-59.570,-40.039,-53.711,0.000
1709214955.248,-55.176,-53.711,-29.297,-66.406,0.000
1709214955.252,-48.340,-51.758,-33.203,-55.664,0.000
1709214955.256,-32.715,-46.387,-38.574,-27.832,0.000
1709214955.260,-24.414,-34.668,-40.527,-17.090,0.000
1709214955.264,-30.762,-39.062,-31.738,-41.016,0.000
1709214955.268,-49.316,-52.734,-33.203,-57.617,0.000
1709214955.272,-46.875,-55.176,-37.109,-44.922,0.000
