timestamps,TP9,AF7,AF8,TP10,Right AUX
1709299147.127,-57.617,-34.668,-33.691,-38.574,0.000
1709299147.131,-54.199,-33.691,-33.203,-26.855,0.000
1709299147.135,-43.945,-35.645,-38.086,-19.043,0.000
1709299147.139,-40.527,-36.621,-36.621,-26.855,0.000
1709299147.143,-47.852,-40.039,-30.762,-41.016,0.000
1709299147.146,-52.246,-48.828,-37.598,-48.340,0.000
1709299147.150,-51.758,-42.480,-40.527,-40.527,0.000
1709299147.154,-37.598,-31.250,-34.180,-23.926,0.000
1709299147.158,-28.809,-39.062,-33.691,-18.066,0.000
1709299147.162,-42.969,-41.992,-43.945,-37.598,0.000
1709299147.166,-53.711,-29.785,-45.898,-52.246,0.000
1709299147.170,-43.457,-24.414,-41.504,-41.992,0.000
1709299147.174,-28.320,-26.367,-44.922,-32.715,0.000
1709299147.178,-25.879,-36.133,-45.898,-31.738,0.000
1709299147.182,-39.062,-36.133,-41.992,-38.086,0.000
1709299147.186,-46.875,-34.668,-32.715,-46.875,0.000
1709299147.189,-41.504,-37.109,-29.297,-43.457,0.000
1709299147.193,-37.109,-29.297,-38.574,-26.855,0.000
1709299147.197,-31.738,-32.227,-45.410,-22.461,0.000
1709299147.201,-35.645,-37.598,-42.480,-32.227,0.000
1709299147.205,-45.410,-38.574,-38.574,-39.062,0.000
1709299147.209,-47.852,-37.109,-47.363,-41.992,0.000
1709299147.213,-39.551,-30.762,-43.457,-29.297,0.000
1709299147.217,-33.203,-31.250,-30.762,-19.531,0.000
1709299147.221,-39.551,-38.086,-28.320,-28.320,0.000
1709299147.225,-55.664,-40.527,-32.227,-38.574,0.000
1709299147.228,-57.129,-39.062,-32.715,-38.086,0.000
1709299147.232,-41.016,-43.945,-25.391,-24.902,0.000
1709299147.236,-34.668,-41.016,-30.273,-18.555,0.000
1709299147.240,-36.621,-32.227,-29.785,-31.250,0.000
1709299147.244,-49.316,-41.992,-30.273,-42.969,0.000
1709299147.248,-54.688,-47.363,-41.016,-33.203,0.000
1709299147.252,-43.945,-36.621,-38.574,-22.461,0.000
1709299147.256,-26.367,-31.250,-29.785,-16.113,0.000
1709299147.260,-26.367,-35.645,-24.902,-18.066,0.000
1709299147.264,-36.133,-36.621,-25.391,-27.344,0.000
1709299147.267,-28.809,-37.109,-30.273,-21.973,0.000
1709299147.271,-12.207,-38.574,-30.762,-10.254,0.000
1709299147.275,-7.324,-37.109,-35.156,-11.230,0.000
1709299147.279,-17.090,-45.410,-41.016,-20.996,0.000
1709299147.283,-35.156,-37.598,-36.133,-34.668,0.000
1709299147.287,-50.781,-31.738,-36.621,-52.246,0.000
1709299147.291,-44.434,-37.598,-35.156,-48.340,0.000
1709299147.295,-30.273,-32.715,-38.574,-31.738,0.000
1709299147.299,-31.738,-35.645,-36.133,-36.133,0.000
1709299147.303,-45.410,-44.434,-33.691,-46.875,0.000
1709299147.306,-50.293,-43.945,-33.691,-49.805,0.000
1709299147.310,-36.133,-39.062,-30.273,-33.203,0.000
1709299147.314,-26.855,-35.156,-36.621,-27.344,0.000
1709299147.318,-19.043,-37.598,-34.180,-29.297,0.000
1709299147.322,-33.691,-41.992,-39.062,-48.340,0.000
1709299147.326,-51.270,-32.715,-46.387,-55.176,0.000
1709299147.330,-41.992,-29.785,-33.203,-41.504,0.000
1709299147.334,-28.320,-36.133,-27.832,-32.227,0.000
1709299147.338,-27.832,-49.316,-31.738,-22.949,0.000
1709299147.342,-39.551,-54.199,-30.273,-31.738,0.000
1709299147.345,-48.828,-42.480,-28.320,-38.086,0.000
1709299147.349,-40.527,-35.156,-26.367,-28.320,0.000
1709299147.353,-21.973,-33.691,-27.344,-18.555,0.000
1709299147.357,-20.020,-38.086,-33.691,-17.578,0.000
1709299147.361,-34.180,-48.340,-41.504,-37.109,0.000
1709299147.365,-48.828,-42.969,-41.016,-48.340,0.000
1709299147.369,-41.016,-30.273,-29.785,-32.227,0.000
1709299147.373,-27.832,-37.598,-30.762,-20.020,0.000
1709299147.377,-32.227,-44.434,-32.227,-26.367,0.000
1709299147.380,-35.645,-37.109,-31.250,-31.738,0.000
1709299147.384,-37.598,-36.133,-33.203,-38.086,0.000
1709299147.388,-42.480,-34.180,-39.062,-48.340,0.000
1709299147.392,-29.297,-28.320,-46.875,-43.457,0.000
1709299147.396,-18.555,-27.832,-43.457,-32.715,0.000
1709299147.400,-27.344,-37.598,-29.785,-36.133,0.000
1709299147.404,-41.992,-36.133,-25.391,-48.340,0.000
1709299147.408,-48.340,-32.227,-35.645,-47.363,0.000
1709299147.412,-39.551,-36.621,-37.598,-36.621,0.000
1709299147.416,-27.344,-35.156,-37.598,-34.668,0.000
1709299147.420,-27.344,-28.320,-36.133,-39.062,0.000
1709299147.424,-36.621,-31.250,-38.086,-50.293,0.000
1709299147.427,-51.270,-42.969,-46.875,-55.664,0.000
1709299147.431,-51.758,-34.668,-45.898,-45.898,0.000
1709299147.435,-35.645,-35.156,-47.852,-30.273,0.000
1709299147.439,-30.273,-41.504,-40.527,-23.926,0.000
1709299147.443,-41.016,-40.527,-36.133,-32.715,0.000
1709299147.447,-44.922,-40.039,-36.621,-40.039,0.000
1709299147.451,-40.039,-28.809,-32.227,-31.738,0.000
1709299147.455,-29.785,-25.391,-33.203,-18.066,0.000
1709299147.459,-35.156,-34.180,-37.598,-26.367,0.000
1709299147.463,-47.363,-40.527,-33.203,-40.527,0.000
1709299147.467,-50.293,-42.480,-37.598,-44.434,0.000
1709299147.470,-41.016,-38.574,-34.180,-31.250,0.000
1709299147.474,-25.391,-43.945,-26.367,-19.043,0.000
1709299147.478,-27.344,-41.992,-28.320,-18.555,0.000
1709299147.482,-41.504,-37.598,-29.297,-31.738,0.000
1709299147.486,-51.758,-45.898,-30.273,-43.945,0.000
1709299147.490,-43.945,-38.086,-30.273,-25.879,0.000
1709299147.494,-33.691,-31.738,-32.715,-19.043,0.000
1709299147.498,-34.180,-44.922,-38.086,-28.320,0.000
1709299147.502,-38.086,-44.434,0.000,-33.203,0.000
1709299147.506,-50.293,-35.645,0.000,-44.922,0.000
1709299147.510,-48.340,-37.109,0.000,-46.875,0.000
1709299147.513,-36.621,-43.457,0.000,-29.297,0.000
1709299147.517,-32.715,-47.363,0.000,-24.902,0.000
1709299147.521,-46.387,-50.293,0.000,-41.992,0.000
1709299147.525,-59.082,-41.504,0.000,-51.270,0.000
1709299147.529,-43.457,-31.738,0.000,-45.410,0.000
1709299147.533,-25.879,-40.039,0.000,-27.344,0.000
1709299147.537,-21.973,-41.504,0.000,-17.090,0.000
1709299147.541,-24.902,-35.156,0.000,-35.156,0.000
1709299147.545,-34.180,-34.180,0.000,-45.898,0.000
1709299147.549,-37.109,-27.832,-47.363,-40.039,0.000
1709299147.552,-31.738,-33.691,-40.527,-34.668,0.000
1709299147.556,-19.043,-45.410,-36.621,-25.879,0.000
1709299147.560,-20.020,-37.109,-38.574,-32.715,0.000
1709299147.564,-39.062,-23.926,-34.180,-50.781,0.000
1709299147.568,-47.852,-32.715,-34.180,-55.664,0.000
1709299147.572,-39.551,-42.969,-40.039,-45.898,0.000
1709299147.576,-30.762,-41.992,-38.086,-36.133,0.000
1709299147.580,-37.109,-41.016,-36.621,-38.086,0.000
1709299147.584,-53.223,-34.180,-38.086,-54.688,0.000
1709299147.588,-55.664,-33.203,-34.668,-54.688,0.000
1709299147.592,-41.016,-33.203,-30.762,-38.086,0.000
1709299147.595,-34.180,-40.527,-38.574,-34.668,0.000
1709299147.599,-36.621,-47.363,-41.016,-46.875,0.000
1709299147.603,-43.457,-44.922,-31.250,-53.711,0.000
1709299147.607,-52.246,-40.527,-39.062,-52.734,0.000
1709299147.611,-45.898,-30.762,-37.598,-44.434,0.000
1709299147.615,-31.250,-32.715,-31.738,-36.133,0.000
1709299147.619,-36.133,-40.527,-37.109,-43.945,0.000
1709299147.623,-49.805,-37.109,-35.645,-46.875,0.000
1709299147.627,-51.270,-30.762,-39.062,-52.734,0.000
1709299147.631,-47.363,-35.645,-42.480,-51.758,0.000
1709299147.634,-37.598,-47.363,-37.598,-36.133,0.000
1709299147.638,-33.691,-41.504,-37.598,-32.715,0.000
1709299147.642,-46.875,-34.668,-53.223,0.000,0.000
1709299147.646,-50.781,-32.227,-47.363,0.000,0.000
1709299147.650,-41.504,-28.809,-34.180,0.000,0.000
1709299147.654,-40.039,-30.762,-32.715,0.000,0.000
1709299147.658,-38.086,-31.738,-32.715,0.000,0.000
1709299147.662,-45.410,-39.551,-40.039,0.000,0.000
1709299147.666,-61.523,-43.945,-42.969,0.000,0.000
1709299147.670,-59.570,-55.176,-40.039,0.000,0.000
1709299147.673,-48.340,-52.734,-42.480,0.000,0.000
1709299147.677,-46.875,-36.133,-44.922,0.000,0.000
1709299147.681,-55.664,-33.203,-44.434,0.000,0.000
1709299147.685,-59.082,-36.621,-42.480,0.000,0.000
1709299147.689,-56.641,-38.086,-37.598,-43.457,0.000
1709299147.693,-43.945,-35.645,-36.133,-35.645,0.000
1709299147.697,-37.598,-42.480,-41.016,-37.598,0.000
1709299147.701,-49.805,-47.363,-32.715,-42.480,0.000
1709299147.705,-58.594,-38.086,-34.180,-45.898,0.000
1709299147.709,-53.223,-45.898,-44.434,-42.969,0.000
1709299147.712,-46.387,-46.387,-38.086,-28.320,0.000
1709299147.716,-43.457,-29.785,-33.203,-20.996,0.000
1709299147.720,-46.875,-27.832,-40.527,-38.086,0.000
1709299147.724,-56.152,-43.457,-42.480,-51.758,0.000
1709299147.728,-53.223,-49.805,-36.133,-46.387,0.000
1709299147.732,-36.621,-35.645,-34.180,-31.738,0.000
1709299147.736,-28.809,-32.715,-39.551,-21.973,0.000
1709299147.740,-41.504,-38.086,-43.945,-34.180,0.000
1709299147.744,-47.363,-41.992,-43.945,-44.922,0.000
1709299147.747,-42.480,-54.199,-46.387,-37.598,0.000
1709299147.751,-35.645,-46.387,-45.410,-30.273,0.000
1709299147.755,-24.902,-44.434,-41.992,-27.344,0.000
1709299147.759,-25.391,-49.805,-34.668,-17.578,0.000
1709299147.763,-41.992,-38.086,-36.133,-33.691,0.000
1709299147.767,-47.363,-33.691,-39.551,-45.410,0.000
1709299147.771,-31.250,-35.645,-35.645,-29.297,0.000
1709299147.775,-22.461,-27.344,-30.273,-15.625,0.000
1709299147.779,-28.809,-32.715,-32.227,-25.391,0.000
1709299147.783,-36.621,-50.781,-38.574,-41.016,0.000
1709299147.787,-46.387,-56.152,-35.645,-43.457,0.000
1709299147.791,-45.410,-41.992,-37.598,-40.527,0.000
1709299147.794,-38.086,-41.992,-34.180,-32.227,0.000
1709299147.798,-39.062,-41.016,-28.809,-33.203,0.000
1709299147.802,-47.363,-41.016,-37.598,-49.316,0.000
1709299147.806,-54.688,-48.828,-36.621,-59.570,0.000
1709299147.810,-47.852,-42.480,-32.227,-51.270,0.000
1709299147.814,-35.645,-36.133,-47.852,-36.621,0.000
1709299147.818,-31.738,-39.551,-48.828,-28.320,0.000
1709299147.822,-38.574,-43.945,-33.691,-45.898,0.000
1709299147.826,-49.316,-50.293,-34.180,-60.059,0.000
1709299147.830,-45.898,-45.898,-40.039,-54.199,0.000
1709299147.834,-38.574,-41.992,-40.527,-42.480,0.000
1709299147.837,-38.086,-40.039,-34.180,-31.738,0.000
1709299147.841,-36.621,-32.227,-24.414,-33.691,0.000
1709299147.845,-36.621,-37.109,-24.414,-44.434,0.000
1709299147.849,-33.203,-38.086,-36.133,-39.551,0.000
1709299147.853,-25.391,-26.367,-39.062,-26.367,0.000
1709299147.857,-25.879,-35.156,-41.504,-26.855,0.000
1709299147.861,-35.156,-40.527,-44.922,-35.645,0.000
1709299147.865,-55.176,-34.668,-45.410,-39.551,0.000
1709299147.869,-56.152,-30.762,-39.551,-41.504,0.000
1709299147.873,-42.969,-32.715,-39.551,-30.273,0.000
1709299147.877,-37.109,-39.062,-42.969,-22.461,0.000
1709299147.880,-46.387,-35.156,-35.645,-36.621,0.000
1709299147.884,-52.246,-29.785,-31.250,-42.480,0.000
1709299147.888,-55.664,-39.551,-34.180,-41.992,0.000
1709299147.892,-53.711,-49.805,-42.480,-35.645,0.000
1709299147.896,-38.086,-44.434,-43.945,-26.367,0.000
1709299147.900,-35.645,-37.109,-36.621,-26.855,0.000
1709299147.904,-49.316,-37.109,-34.668,-36.133,0.000
1709299147.908,-50.293,-45.898,-33.203,-32.227,0.000
1709299147.912,-44.922,-39.062,-36.133,-28.320,0.000
1709299147.916,-42.969,-31.250,-40.527,-30.273,0.000
1709299147.919,-43.945,-38.574,-38.574,-30.762,0.000
1709299147.923,-59.082,-40.039,-37.598,-45.898,0.000
1709299147.927,-64.941,-38.086,-40.039,-52.734,0.000
1709299147.931,-50.781,-41.992,-34.668,-41.016,0.000
1709299147.935,-34.180,-46.387,-36.621,-32.715,0.000
1709299147.939,-36.621,-47.852,-35.645,-34.180,0.000
1709299147.943,-45.410,-41.504,-31.738,-41.016,0.000
1709299147.947,-42.969,-30.273,-30.762,-44.434,0.000
1709299147.951,-35.156,-45.410,-38.086,-38.086,0.000
1709299147.955,-27.832,-43.457,-40.527,-27.832,0.000
1709299147.959,-34.180,-29.785,-39.062,-35.645,0.000
1709299147.962,-43.945,-40.527,-37.598,-48.828,0.000
1709299147.966,-44.922,-50.781,-37.109,-49.805,0.000
1709299147.970,-42.480,-46.387,-41.016,-43.945,0.000
1709299147.974,-29.785,-40.039,-33.203,-31.250,0.000
1709299147.978,-23.438,-44.922,-26.855,-23.926,0.000
1709299147.982,-34.668,-52.734,-34.180,-41.504,0.000
1709299147.986,-39.062,-40.039,-38.086,-52.734,0.000
1709299147.990,-30.762,-38.086,-37.109,-36.621,0.000
1709299147.994,-20.996,-44.434,-40.039,-25.879,0.000
1709299147.998,-20.020,-36.621,-35.156,-28.320,0.000
1709299148.001,-32.715,-30.273,-34.668,-37.598,0.000
1709299148.005,-44.922,-35.645,-39.062,-49.805,0.000
1709299148.009,-57.129,-51.758,-42.480,-51.270,0.000
1709299148.013,-52.246,-47.852,-45.898,-41.992,0.000
1709299148.017,-41.016,-46.875,-45.410,-39.551,0.000
1709299148.021,-41.992,-52.734,-45.410,-45.410,0.000
1709299148.025,-50.781,-41.504,-42.480,-46.875,0.000
1709299148.029,-46.875,-45.410,-36.133,-40.039,0.000
1709299148.033,-41.504,-44.434,-47.363,-33.203,0.000
1709299148.037,-34.668,-34.180,-52.734,-27.832,0.000
1709299148.040,-37.109,-37.598,-48.828,-32.227,0.000
1709299148.044,-54.199,-42.480,-48.340,-37.109,0.000
1709299148.048,-54.688,-47.363,-45.898,-40.527,0.000
1709299148.052,-40.527,-47.852,-39.551,-30.762,0.000
1709299148.056,-37.109,-49.316,-40.527,-23.438,0.000
1709299148.060,-42.480,-40.039,-39.551,-28.809,0.000
1709299148.064,-53.223,-39.062,-36.621,-40.527,0.000
1709299148.068,-64.941,-43.945,-38.574,-50.293,0.000
1709299148.072,-58.594,-42.480,-40.039,-39.551,0.000
1709299148.076,-42.480,-47.363,-42.480,-33.691,0.000
1709299148.080,-40.527,-52.246,-41.016,-44.922,0.000
1709299148.084,-46.387,-47.363,-41.992,-50.293,0.000
1709299148.087,-52.246,-42.969,-47.852,-41.016,0.000
1709299148.091,-53.223,-45.898,-43.945,-33.203,0.000
1709299148.095,-41.992,-44.434,-39.551,-26.855,0.000
1709299148.099,-39.551,-38.086,-44.922,-29.785,0.000
1709299148.103,-49.316,-34.668,-40.527,-40.527,0.000
1709299148.107,-50.293,-36.133,-37.109,-43.945,0.000
1709299148.111,-43.457,-33.691,-40.527,-38.086,0.000
1709299148.115,-33.691,-33.203,-42.969,-28.809,0.000
1709299148.119,-33.691,-36.133,-47.363,-32.227,0.000
1709299148.123,-47.363,-37.598,-49.805,-45.410,0.000
1709299148.127,-51.758,-38.086,-50.293,-41.992,0.000
1709299148.131,-43.457,-38.574,-41.992,-31.738,0.000
1709299148.134,-30.273,-37.598,-31.250,-23.438,0.000
1709299148.138,-27.832,-32.715,-35.156,-22.949,0.000
1709299148.142,-36.133,-37.598,-40.039,-38.086,0.000
1709299148.146,-39.062,-41.016,-38.086,-46.387,0.000
1709299148.150,-39.062,-35.645,-40.527,-34.668,0.000
1709299148.154,-27.832,-36.133,-41.992,-35.156,0.000
1709299148.158,-26.855,-45.410,-46.387,-46.875,0.000
1709299148.162,-38.086,-40.527,-40.527,-55.664,0.000
1709299148.166,-47.363,-36.133,-38.574,-65.918,0.000
1709299148.170,-51.270,-38.574,-47.852,-56.152,0.000
1709299148.174,-41.504,-43.457,-49.316,-39.062,0.000
1709299148.178,-36.621,-41.992,-44.922,-36.133,0.000
1709299148.181,-46.875,-35.156,-32.227,-40.039,0.000
1709299148.185,-59.570,-47.363,-27.344,-49.316,0.000
1709299148.189,-60.547,-53.711,-33.203,-47.852,0.000
1709299148.193,-42.480,-42.969,-37.598,-18.066,0.000
1709299148.197,-27.344,-30.273,-34.180,-6.348,0.000
1709299148.201,-33.691,-25.879,-32.227,-28.320,0.000
1709299148.205,-46.387,-33.203,-28.320,-42.480,0.000
1709299148.209,-47.363,-33.203,-37.109,-45.410,0.000
1709299148.213,-38.086,-29.297,-41.992,-30.762,0.000
1709299148.217,-23.926,-24.414,-31.250,-16.602,0.000
1709299148.221,-25.391,-32.227,-29.785,-29.297,0.000
1709299148.224,-41.016,-41.992,-31.250,-43.945,0.000
1709299148.228,-44.434,-34.668,-34.668,-41.992,0.000
1709299148.232,-30.273,-26.367,-27.832,-29.297,0.000
1709299148.236,-13.184,-28.320,-25.879,-16.602,0.000
1709299148.240,-17.090,-33.203,-27.344,-19.531,0.000
1709299148.244,-31.738,-29.297,-29.785,-39.062,0.000
1709299148.248,-33.691,-25.391,-34.668,-34.180,0.000
1709299148.252,-25.391,-20.996,-32.715,-14.160,0.000
1709299148.256,-20.996,-25.391,-32.227,-12.695,0.000
1709299148.260,-27.832,-37.109,-31.250,-25.879,0.000
1709299148.264,-40.527,-43.457,-26.855,-45.898,0.000
1709299148.267,-57.617,-42.969,-32.715,-58.594,0.000
1709299148.271,-48.828,-35.645,-35.156,-47.852,0.000
1709299148.275,-29.785,-37.598,-35.156,-32.715,0.000
1709299148.279,-35.156,-44.922,-34.180,-36.621,0.000
1709299148.283,-42.480,-38.086,-30.273,-45.410,0.000
1709299148.287,-45.410,-29.297,-33.203,-49.316,0.000
1709299148.291,-39.062,-35.156,-33.691,-41.504,0.000
1709299148.295,-24.414,-40.039,-38.574,-29.297,0.000
1709299148.299,-18.555,-32.227,-33.203,-25.879,0.000
1709299148.303,-31.250,-33.691,-30.762,-37.598,0.000
1709299148.307,-40.527,-38.574,-39.062,-44.922,0.000
1709299148.311,-34.668,-32.715,-36.621,-44.922,0.000
1709299148.315,-30.273,-35.645,-33.203,-39.062,0.000
1709299148.318,-32.715,-46.387,-36.133,-37.109,0.000
1709299148.322,-39.551,-43.457,-33.691,-46.387,0.000
1709299148.326,-44.434,-40.527,-23.926,-43.457,0.000
1709299148.330,-41.992,-45.410,-24.414,-30.273,0.000
1709299148.334,-33.691,-42.480,-31.738,-30.762,0.000
1709299148.338,-26.367,-37.598,-34.180,-29.297,0.000
1709299148.342,-30.273,-35.156,-46.875,-32.715,0.000
1709299148.346,-38.086,-36.133,-46.875,-42.969,0.000
1709299148.350,-38.574,-33.691,-31.250,-40.527,0.000
1709299148.354,-26.855,-41.504,-30.273,-26.855,0.000
1709299148.357,-26.855,-47.852,-27.344,-24.902,0.000
1709299148.361,-32.715,-42.969,-22.949,-27.832,0.000
1709299148.365,-34.668,-44.434,-25.879,-38.086,0.000
1709299148.369,-41.016,-42.480,-34.180,-48.828,0.000
1709299148.373,-31.738,-34.180,-34.668,-38.086,0.000
1709299148.377,-26.367,-33.691,-38.574,-27.832,0.000
1709299148.381,-40.039,-36.621,-43.457,-38.574,0.000
1709299148.385,-44.434,-30.762,-35.156,-53.223,0.000
1709299148.389,-36.621,-35.645,-25.879,-40.527,0.000
1709299148.393,-26.367,-41.016,-27.344,-24.902,0.000
1709299148.396,-18.066,-30.762,-30.273,-22.949,0.000
1709299148.400,-28.809,-25.391,-29.785,-33.691,0.000
1709299148.404,-56.641,-30.762,-35.156,-49.805,0.000
1709299148.408,-64.941,-35.156,-39.551,-52.734,0.000
1709299148.412,-45.410,-36.133,-43.457,-38.574,0.000
1709299148.416,-33.203,-40.039,-38.574,-24.414,0.000
1709299148.420,-36.621,-44.922,-20.020,-24.414,0.000
1709299148.424,-41.504,-41.504,-24.414,-40.527,0.000
1709299148.428,-44.922,-29.297,-33.203,-51.270,0.000
1709299148.432,-36.621,-37.598,-29.785,-37.598,0.000
1709299148.435,-25.879,-36.133,-33.691,-20.020,0.000
1709299148.440,-25.879,-25.879,-36.133,-28.809,0.000
1709299148.444,-37.598,-33.691,-37.598,-41.016,0.000
1709299148.448,-41.504,-36.621,-33.203,-34.668,0.000
1709299148.451,-36.133,-43.457,-32.227,-30.762,0.000
1709299148.455,-23.926,-38.086,-35.156,-26.855,0.000
1709299148.459,-18.555,-32.227,-35.156,-23.438,0.000
1709299148.463,-32.227,-39.062,-34.180,-31.250,0.000
1709299148.467,-48.828,-32.715,-35.645,-40.039,0.000
1709299148.471,-44.922,-34.180,-31.738,-37.109,0.000
1709299148.475,-32.715,-48.828,-33.203,-23.926,0.000
1709299148.479,-40.039,-43.945,-32.227,-26.367,0.000
1709299148.483,-46.875,-35.645,-28.809,-35.156,0.000
1709299148.486,-56.152,-36.133,-40.039,-41.992,0.000
1709299148.490,-59.082,-36.133,-41.504,-43.945,0.000
1709299148.494,-43.457,-38.574,-32.227,-31.250,0.000
1709299148.498,-39.062,-44.434,-38.574,-30.762,0.000
1709299148.502,-41.504,-36.621,-42.969,-42.969,0.000
1709299148.506,-53.223,-36.621,-45.898,-59.570,0.000
1709299148.510,-58.594,-36.621,-42.969,-55.176,0.000
1709299148.514,-39.551,-39.551,-33.691,-26.367,0.000
1709299148.518,-26.367,-42.480,-35.645,-19.531,0.000
1709299148.522,-41.504,-36.621,-39.551,-36.133,0.000
1709299148.526,-56.152,-37.598,-34.180,-55.664,0.000
1709299148.529,-54.688,-35.645,-41.016,-58.105,0.000
1709299148.533,-36.621,-36.133,-47.363,-35.156,0.000
1709299148.537,-26.855,-44.434,-35.645,-20.996,0.000
1709299148.541,-38.086,-39.551,-38.086,-27.344,0.000
1709299148.545,-52.246,-33.691,-41.504,-42.480,0.000
1709299148.549,-48.828,-36.621,-28.320,-36.621,0.000
1709299148.553,-36.621,-43.945,-27.832,-25.391,0.000
1709299148.557,-27.344,-41.504,-28.809,-23.926,0.000
1709299148.561,-30.273,-26.367,-26.855,-29.297,0.000
1709299148.565,-37.598,-27.832,-32.227,-38.574,0.000
1709299148.569,-40.527,-33.691,-28.320,-37.109,0.000
1709299148.573,-40.039,-35.645,-24.414,-30.273,0.000
1709299148.576,-36.133,-38.574,-28.320,-25.391,0.000
1709299148.580,-39.551,-35.645,-28.809,-34.668,0.000
1709299148.584,-48.828,-38.574,-30.762,-50.781,0.000
1709299148.588,-51.758,-35.156,-32.227,-44.434,0.000
1709299148.592,-47.852,-35.645,-32.227,-35.645,0.000
1709299148.596,-38.086,-41.992,-38.086,-31.738,0.000
1709299148.600,-32.227,-45.898,-42.969,-35.645,0.000
1709299148.604,-41.992,-44.434,-41.016,-49.316,0.000
1709299148.608,-51.758,-38.086,-42.480,-54.199,0.000
1709299148.612,-46.387,-42.480,-45.898,-43.945,0.000
1709299148.616,-38.574,-44.434,-41.504,-28.320,0.000
1709299148.619,-38.086,-39.062,-42.969,-35.156,0.000
1709299148.623,-42.480,-39.062,-38.086,-48.828,0.000
1709299148.627,-47.363,-37.598,-23.926,-46.875,0.000
1709299148.631,-44.434,-36.133,-31.250,-44.922,0.000
1709299148.635,-32.715,-37.598,-31.738,-38.574,0.000
1709299148.639,-29.785,-39.062,-29.785,-28.320,0.000
1709299148.643,-39.062,-43.457,-36.133,-35.156,0.000
1709299148.647,-46.387,-42.480,-28.320,-44.434,0.000
1709299148.651,-48.340,-33.691,-31.250,-41.992,0.000
1709299148.655,-35.645,-35.156,-36.621,-29.785,0.000
1709299148.659,-32.227,-43.457,-32.227,-20.020,0.000
1709299148.662,-41.992,-29.785,-37.109,-33.203,0.000
1709299148.666,-58.594,-25.391,-44.922,-59.082,0.000
1709299148.670,-56.152,-35.156,-43.945,-57.617,0.000
1709299148.674,-35.645,-35.156,-39.062,-34.668,0.000
1709299148.678,-32.715,-30.762,-41.992,-28.809,0.000
1709299148.682,-41.504,-30.762,-42.969,-42.969,0.000
1709299148.686,-55.176,-28.320,-39.062,-54.688,0.000
1709299148.690,-57.129,-22.949,-42.480,-52.246,0.000
1709299148.694,-43.457,-31.738,-43.945,-42.480,0.000
1709299148.698,-39.062,-43.457,-46.875,-35.156,0.000
1709299148.701,-44.434,-40.039,-42.480,-43.945,0.000
1709299148.705,-53.711,-31.250,-26.367,-50.781,0.000
1709299148.709,-56.152,-34.668,-25.391,-52.246,0.000
1709299148.713,-53.711,-43.945,-37.109,-38.086,0.000
1709299148.717,-49.805,-38.086,-41.504,-28.320,0.000
1709299148.721,-45.410,-38.086,-36.621,-38.574,0.000
1709299148.725,-57.129,-41.016,-40.039,-57.617,0.000
1709299148.729,-59.570,-31.738,-45.410,-63.477,0.000
1709299148.733,-41.504,-33.691,-38.574,-42.480,0.000
1709299148.737,-20.996,-36.621,-34.180,-28.809,0.000
1709299148.741,-21.973,-29.297,-42.480,-40.039,0.000
1709299148.744,-37.109,-28.809,-46.875,-55.664,0.000
1709299148.748,-45.898,-29.297,-40.039,-53.223,0.000
1709299148.752,-40.039,-34.668,-40.039,-43.457,0.000
1709299148.756,-27.344,-48.340,-41.992,-29.785,0.000
1709299148.760,-32.715,-46.387,-35.156,-25.879,0.000
1709299148.764,-43.945,-39.551,-35.156,-41.504,0.000
1709299148.768,-45.898,-33.203,-45.898,-51.758,0.000
1709299148.772,-37.109,-26.855,-46.387,-39.062,0.000
1709299148.776,-29.785,-34.668,-36.133,-25.879,0.000
1709299148.780,-26.855,-43.945,-30.273,-31.250,0.000
1709299148.783,-34.668,-39.062,-28.809,-40.039,0.000
1709299148.787,-48.828,-33.691,-36.621,-42.969,0.000
1709299148.791,-42.969,-37.109,-30.762,-28.809,0.000
1709299148.795,-34.668,-39.551,-21.973,-17.090,0.000
1709299148.799,-43.457,-42.969,-31.738,-33.203,0.000
1709299148.803,-54.688,-46.387,-40.039,-54.199,0.000
1709299148.807,-62.988,-43.945,-35.156,-62.500,0.000
1709299148.811,-63.965,-43.945,-41.504,-54.688,0.000
1709299148.815,-49.805,-38.574,-49.805,-44.922,0.000
1709299148.819,-38.574,-35.645,-44.434,-41.992,0.000
1709299148.823,-40.527,-42.969,-42.969,-43.945,0.000
1709299148.827,-48.828,-41.504,-44.434,-50.293,0.000
1709299148.831,-40.039,-32.715,-36.133,-44.922,0.000
1709299148.835,-20.020,-31.250,-32.715,-34.668,0.000
1709299148.839,-17.578,-42.969,-30.762,-25.879,0.000
1709299148.843,-29.297,-49.805,-41.504,-32.715,0.000
1709299148.846,-39.062,-40.039,-56.152,-46.387,0.000
1709299148.850,-41.504,-33.203,-36.621,-42.480,0.000
1709299148.854,-33.691,-34.668,-23.926,-33.203,0.000
1709299148.858,-30.273,-35.645,-31.250,-32.227,0.000
1709299148.862,-39.551,-38.086,-30.273,-43.457,0.000
1709299148.866,-48.340,-34.668,-24.902,-55.664,0.000
1709299148.870,-46.387,-31.250,-28.320,-48.340,0.000
1709299148.874,-40.039,-41.016,-33.203,-37.109,0.000
1709299148.878,-32.715,-38.086,-32.227,-31.250,0.000
1709299148.882,-39.062,-37.598,-33.203,-32.227,0.000
1709299148.885,-58.594,-41.992,-39.551,-45.898,0.000
1709299148.889,-60.059,-41.992,-45.410,-48.828,0.000
1709299148.893,-51.758,-49.316,-54.688,-45.898,0.000
1709299148.897,-41.504,-41.016,-51.270,-35.156,0.000
1709299148.901,-39.551,-39.062,-43.457,-32.227,0.000
1709299148.905,-50.293,-38.086,-35.645,-55.664,0.000
1709299148.909,-55.176,-39.062,-38.086,-62.012,0.000
1709299148.913,-41.016,-46.387,-37.109,-52.246,0.000
1709299148.917,-25.879,-41.992,-26.855,-38.574,0.000
1709299148.921,-27.832,-41.504,-22.949,-38.086,0.000
1709299148.925,-41.016,-52.246,-28.320,-50.781,0.000
1709299148.928,-50.781,-47.363,-34.180,-52.246,0.000
1709299148.932,-47.363,-37.109,-41.504,-50.293,0.000
1709299148.936,-29.297,-37.598,-41.504,-45.898,0.000
1709299148.940,-23.926,-39.551,-36.621,-42.969,0.000
1709299148.944,-30.762,-49.316,-39.551,-43.945,0.000
1709299148.948,-38.086,-47.852,-36.133,-52.246,0.000
1709299148.952,-36.133,-44.434,-35.156,-53.711,0.000
1709299148.956,-23.926,-41.016,-32.227,-38.086,0.000
1709299148.960,-19.531,-38.086,-28.320,-33.203,0.000
1709299148.964,-26.367,-52.734,-29.785,-42.480,0.000
1709299148.968,-34.180,-56.152,-32.715,-49.805,0.000
1709299148.971,-30.762,-32.715,-29.785,-40.527,0.000
1709299148.975,-25.879,-26.367,-28.809,-27.344,0.000
1709299148.979,-29.785,-31.738,-31.250,-26.855,0.000
1709299148.983,-45.410,-29.297,-30.762,-44.434,0.000
1709299148.987,-46.875,-32.227,-25.391,-57.617,0.000
1709299148.991,-48.828,-39.551,-24.902,-48.340,0.000
1709299148.995,-39.551,-32.715,-39.551,-37.598,0.000
1709299148.999,-24.902,-27.832,-47.852,-28.320,0.000
1709299149.003,-31.250,-30.762,0.000,-29.785,0.000
1709299149.007,-47.852,-39.551,0.000,-41.016,0.000
1709299149.011,-50.293,-42.480,0.000,-39.551,0.000
1709299149.014,-40.527,-30.762,0.000,-30.762,0.000
1709299149.018,-36.133,-29.297,0.000,-32.715,0.000
1709299149.022,-40.039,-35.645,0.000,-41.992,0.000
1709299149.026,-54.688,-44.434,0.000,-50.293,0.000
1709299149.030,-62.012,-50.293,0.000,-53.711,0.000
1709299149.034,-48.828,-45.410,0.000,-32.227,0.000
1709299149.038,-38.574,-44.922,0.000,-20.996,0.000
1709299149.042,-45.898,-45.898,0.000,-37.598,0.000
1709299149.046,-56.152,-50.293,0.000,-45.410,0.000
1709299149.050,-59.082,-57.617,-43.945,-42.480,0.000
1709299149.053,-50.781,-48.828,-36.133,-37.109,0.000
1709299149.057,-42.969,-43.457,-35.156,-34.668,0.000
1709299149.061,-41.016,-46.875,-37.598,-35.645,0.000
1709299149.065,-49.805,-44.434,-38.574,-49.805,0.000
1709299149.069,-62.988,-50.293,-48.340,-61.035,0.000
1709299149.073,-49.316,-50.293,-50.781,-52.734,0.000
1709299149.077,-37.598,-38.574,-42.969,-41.992,0.000
1709299149.081,-36.133,-46.875,-42.969,-38.086,0.000
1709299149.085,-41.504,-44.434,-47.852,-55.664,0.000
1709299149.089,-41.992,-36.133,-46.875,-58.105,0.000
1709299149.093,-24.902,-38.574,-37.598,-40.527,0.000
1709299149.096,-17.578,-38.086,-41.992,-37.598,0.000
1709299149.100,-16.602,-29.785,-43.457,-39.062,0.000
1709299149.104,-16.602,-29.785,-32.715,-40.527,0.000
1709299149.108,-28.809,-36.133,-33.203,-44.922,0.000
1709299149.112,-32.227,-48.340,-40.527,-35.645,0.000
1709299149.116,-19.043,-47.363,-46.387,-18.066,0.000
1709299149.120,-18.066,-39.062,-36.621,-15.625,0.000
1709299149.124,-30.273,-37.598,-29.297,-21.973,0.000
1709299149.128,-42.969,-35.156,-38.086,-36.621,0.000
1709299149.132,-41.016,-32.715,-41.992,-38.086,0.000
1709299149.135,-25.879,-32.227,-34.180,-18.555,0.000
1709299149.139,-23.926,-34.180,-36.621,-13.672,0.000
1709299149.143,-38.086,-41.992,-40.527,-33.203,0.000
1709299149.147,-49.316,-44.922,-38.086,-45.898,0.000
1709299149.151,-49.805,-45.898,-44.922,-37.598,0.000
1709299149.155,-36.133,-53.223,-44.922,-21.484,0.000
1709299149.159,-28.320,-45.410,-35.156,-18.066,0.000
1709299149.163,-36.621,-36.621,-31.250,-35.156,0.000
1709299149.167,-49.316,-43.457,-31.250,-46.875,0.000
1709299149.170,-47.363,-47.852,-36.133,-37.109,0.000
1709299149.174,-36.133,-32.715,-42.480,-26.855,0.000
1709299149.178,-30.273,-26.367,-41.016,-27.344,0.000
1709299149.182,-39.551,-36.133,-40.039,-40.527,0.000
1709299149.186,-56.152,-41.504,-42.969,-56.152,0.000
1709299149.190,-54.199,-35.156,-41.992,-56.641,0.000
1709299149.194,-42.480,-32.227,-42.480,-46.387,0.000
1709299149.198,-37.598,-42.969,-38.086,-37.109,0.000
1709299149.202,-43.457,-45.410,-35.645,-45.410,0.000
1709299149.206,-57.617,-45.410,-38.086,-66.895,0.000
1709299149.209,-58.594,-41.016,-33.203,-63.965,0.000
1709299149.213,-42.969,-29.297,-23.438,-41.504,0.000
1709299149.217,-35.156,-32.715,-27.832,-35.156,0.000
1709299149.221,-40.039,-42.480,-38.086,-44.434,0.000
1709299149.225,-53.711,-40.039,-31.738,-54.688,0.000
1709299149.229,-60.547,-32.227,-33.203,-59.570,0.000
1709299149.233,-46.387,-29.785,-41.992,-35.645,0.000
1709299149.237,-39.551,-32.715,-35.156,-20.996,0.000
1709299149.241,-40.527,-41.992,-27.832,-33.203,0.000
1709299149.244,-41.016,-45.410,-27.344,-35.645,0.000
1709299149.248,-37.598,-42.969,-22.949,-28.809,0.000
1709299149.252,-26.367,-36.621,-23.438,-16.602,0.000
1709299149.256,-21.973,-32.715,-27.832,-7.812,0.000
1709299149.260,-26.367,-37.109,-28.320,-8.301,0.000
1709299149.264,-42.480,-38.574,-28.809,-27.344,0.000
1709299149.268,-56.152,-41.992,-31.250,-41.016,0.000
1709299149.272,-54.688,-40.039,-36.133,-37.109,0.000
1709299149.276,-46.875,-35.645,-38.574,-31.738,0.000
1709299149.280,-41.992,-37.598,-39.062,-34.668,0.000
1709299149.284,-43.457,-41.504,-36.621,-42.480,0.000
1709299149.288,-43.945,-39.551,-38.086,-44.922,0.000
1709299149.291,-36.133,-37.109,-46.875,-35.645,0.000
1709299149.295,-28.809,-37.109,-46.875,-26.855,0.000
1709299149.299,-28.809,-26.855,-41.504,-23.438,0.000
1709299149.303,-37.109,-21.484,-34.668,-26.855,0.000
1709299149.307,-52.246,-31.250,-33.203,-41.016,0.000
1709299149.311,-53.223,-38.574,-34.180,-45.898,0.000
1709299149.315,-39.062,-35.156,-33.691,-33.203,0.000
1709299149.319,-35.156,-33.203,-46.387,-23.926,0.000
1709299149.323,-46.387,-33.691,-43.457,-40.527,0.000
1709299149.327,-47.852,-34.180,-27.344,-45.410,0.000
1709299149.331,-43.945,-41.016,-31.250,-35.645,0.000
1709299149.334,-37.598,-40.527,-37.598,-26.367,0.000
1709299149.338,-27.832,-38.574,-38.574,-20.508,0.000
1709299149.342,-30.273,-36.133,-42.969,-30.273,0.000
1709299149.346,-39.062,-29.785,-42.969,-44.922,0.000
1709299149.350,-39.062,-26.367,-39.551,-35.156,0.000
1709299149.354,-27.832,-25.391,-44.434,-17.090,0.000
1709299149.358,-17.578,-34.180,-38.086,-11.719,0.000
1709299149.362,-14.648,-42.480,-28.809,-10.742,0.000
1709299149.366,-28.320,-36.621,-29.785,-16.113,0.000
1709299149.370,-35.156,-25.391,-25.879,-27.832,0.000
1709299149.373,-22.949,-34.180,-24.902,-19.043,0.000
1709299149.377,-22.461,-45.898,-29.785,-10.254,0.000
1709299149.381,-34.180,-39.062,-35.156,-26.367,0.000
1709299149.385,-43.945,-40.527,-40.039,-41.016,0.000
1709299149.389,-50.781,-43.457,-41.992,-38.086,0.000
1709299149.393,-43.945,-43.945,-40.039,-27.344,0.000
1709299149.397,-29.297,-42.480,-41.992,-25.879,0.000
1709299149.401,-21.973,-38.574,-33.691,-23.926,0.000
1709299149.405,-38.086,-41.504,-36.133,-37.598,0.000
1709299149.409,-51.270,-40.527,-43.945,-44.434,0.000
1709299149.413,-38.086,-34.668,-44.434,-38.574,0.000
1709299149.416,-20.020,-37.109,-43.945,-36.621,0.000
1709299149.420,-26.855,-33.203,-37.109,-32.227,0.000
1709299149.424,-43.945,-36.621,-41.992,-45.898,0.000
1709299149.428,-41.504,-38.086,-43.457,-52.734,0.000
1709299149.432,-27.344,-28.809,-38.574,-40.527,0.000
1709299149.436,-18.066,-29.297,-41.504,-25.879,0.000
1709299149.440,-13.184,-31.250,-44.434,-26.855,0.000
1709299149.444,-18.555,-25.391,-42.969,-45.898,0.000
1709299149.448,-27.832,-27.344,-42.969,-49.805,0.000
1709299149.452,-24.414,-41.016,-41.016,-34.668,0.000
1709299149.455,-12.695,-35.645,-39.551,-10.742,0.000
1709299149.459,-8.789,-26.367,-36.133,-11.230,0.000
1709299149.463,-23.926,-37.598,-34.180,-30.273,0.000
1709299149.467,-40.039,-41.016,-41.016,-44.434,0.000
1709299149.471,0.000,-28.809,-42.480,0.000,0.000
1709299149.475,0.000,-21.484,-32.715,0.000,0.000
1709299149.479,0.000,-26.855,-28.809,0.000,0.000
1709299149.483,0.000,-39.551,-36.621,0.000,0.000
1709299149.487,0.000,-45.410,-41.992,0.000,0.000
1709299149.491,0.000,-46.387,-43.945,0.000,0.000
1709299149.495,0.000,-50.293,-43.945,0.000,0.000
1709299149.498,0.000,-47.363,-41.016,0.000,0.000
1709299149.502,0.000,-34.668,-34.180,0.000,0.000
1709299149.506,0.000,-31.738,-32.715,0.000,0.000
1709299149.510,0.000,-31.738,-35.156,0.000,0.000
1709299149.514,0.000,-28.809,-31.250,0.000,0.000
1709299149.518,-22.461,-27.344,-30.762,-23.438,0.000
1709299149.522,-30.762,-35.645,-35.645,-34.180,0.000
1709299149.526,-40.039,-49.316,-42.969,-53.711,0.000
1709299149.530,-42.969,-47.363,-38.086,-50.781,0.000
1709299149.534,-33.691,-39.062,-37.598,-35.645,0.000
1709299149.538,-24.414,-36.133,-37.598,-30.273,0.000
1709299149.542,-29.785,-43.945,-32.227,-36.621,0.000
1709299149.545,-43.945,-41.992,-27.344,-36.133,0.000
1709299149.549,-45.410,-30.273,-29.297,-36.621,0.000
1709299149.553,-40.039,-28.320,-37.109,-35.156,0.000
1709299149.557,-32.715,-35.645,-29.785,-19.043,0.000
1709299149.561,-34.668,-43.457,-28.320,-22.949,0.000
1709299149.565,-43.945,-39.062,-34.180,-41.992,0.000
1709299149.569,-45.410,-41.992,-29.785,-41.992,0.000
1709299149.573,-32.227,-40.527,-24.414,-28.809,0.000
1709299149.577,-28.320,-32.227,-24.414,-21.973,0.000
1709299149.580,-37.109,-34.180,-25.879,-21.484,0.000
1709299149.584,-43.457,-33.691,-19.531,-27.832,0.000
1709299149.588,-55.664,-41.992,-23.438,-37.109,0.000
1709299149.592,-61.035,-37.598,-31.250,-39.062,0.000
1709299149.596,-55.176,-33.203,-36.133,-33.203,0.000
1709299149.600,-46.875,-34.668,-35.156,-26.367,0.000
1709299149.604,-54.688,-37.109,-26.855,-28.320,0.000
1709299149.608,-68.848,-35.156,-30.762,-37.109,0.000
1709299149.612,-57.617,-37.598,-30.762,-37.598,0.000
1709299149.616,-36.133,-41.992,-28.809,-20.996,0.000
1709299149.619,-40.039,-41.992,-32.715,-24.414,0.000
1709299149.623,-55.176,-52.734,-37.109,-40.039,0.000
1709299149.627,-62.988,-53.711,-35.645,-52.734,0.000
1709299149.631,-55.176,-51.758,-32.227,-48.340,0.000
1709299149.635,-36.621,-49.316,-37.109,-18.066,0.000
1709299149.639,-33.691,-37.598,-42.480,-15.137,0.000
1709299149.643,-38.086,-41.016,-35.156,-34.180,0.000
1709299149.647,-37.109,-40.527,-32.227,-35.156,0.000
1709299149.651,-37.109,-32.227,-44.922,-27.832,0.000
1709299149.655,-24.902,-30.273,-40.039,-19.531,0.000
1709299149.659,-20.020,-26.367,-30.273,-18.555,0.000
1709299149.662,-37.109,-43.457,-30.762,-36.621,0.000
1709299149.666,-51.758,-52.734,-29.297,-48.828,0.000
1709299149.670,-57.129,-42.480,-37.109,-50.781,0.000
1709299149.674,-48.828,-43.457,-41.992,-42.480,0.000
1709299149.678,-40.039,-34.668,-39.551,-30.762,0.000
1709299149.682,-49.805,-34.180,-43.945,-42.480,0.000
1709299149.686,-62.012,-37.109,-45.898,-61.523,0.000
1709299149.690,-58.594,-36.621,-41.504,-50.781,0.000
1709299149.694,-39.062,-38.086,-37.109,-18.555,0.000
1709299149.698,-29.297,-41.504,-33.203,-20.508,0.000
1709299149.702,-34.180,-38.086,-31.250,-33.203,0.000
1709299149.705,-42.480,-39.062,-31.738,-34.668,0.000
1709299149.709,-52.246,-50.781,-36.621,-46.387,0.000
1709299149.713,-38.574,-46.387,-32.715,-35.156,0.000
1709299149.717,-24.902,-46.875,-33.203,-23.926,0.000
1709299149.721,-29.297,-46.387,-39.062,-32.227,0.000
1709299149.725,-34.180,-39.551,-36.621,-45.898,0.000
1709299149.729,-36.133,-32.715,-37.598,-47.852,0.000
1709299149.733,-19.531,-29.297,-41.016,-32.227,0.000
1709299149.737,-6.836,-30.762,-37.598,-17.578,0.000
1709299149.741,-17.578,-32.715,-33.691,-16.602,0.000
1709299149.745,-36.621,-43.945,-44.922,-42.969,0.000
1709299149.748,-50.781,-43.457,-50.781,-58.594,0.000
1709299149.752,-51.270,-29.297,-40.527,-49.805,0.000
1709299149.756,-42.969,-28.320,-35.645,-38.086,0.000
1709299149.760,-43.457,-39.062,-37.598,-44.434,0.000
1709299149.764,-50.293,-41.504,-35.156,-51.758,0.000
1709299149.768,-48.340,-35.645,-25.391,-45.410,0.000
1709299149.772,-42.480,-39.062,-29.785,-34.180,0.000
1709299149.776,-32.227,-36.133,-38.574,-29.785,0.000
1709299149.780,-28.809,-27.344,-34.668,-32.227,0.000
1709299149.784,-39.551,-28.809,-28.809,-36.133,0.000
1709299149.787,-60.059,-27.832,-33.691,-44.922,0.000
1709299149.791,-52.734,-30.273,-37.109,-45.898,0.000
1709299149.795,-31.250,-37.109,-32.227,-34.180,0.000
1709299149.799,-29.785,-38.574,-37.109,-29.297,0.000
1709299149.803,-39.062,-37.109,-42.969,-39.062,0.000
1709299149.807,-44.434,-38.086,-36.133,-45.410,0.000
1709299149.811,-40.039,-35.645,-26.367,-31.250,0.000
1709299149.815,-29.785,-31.738,-38.086,-22.949,0.000
1709299149.819,-22.949,-36.621,-43.945,-20.996,0.000
1709299149.823,-27.344,-37.109,-37.109,-25.391,0.000
1709299149.827,-41.992,-32.715,-38.086,-42.969,0.000
1709299149.830,-45.898,-37.109,-42.969,-42.969,0.000
1709299149.834,-42.480,-34.668,-41.992,-32.715,0.000
1709299149.838,-43.457,-30.762,-38.086,-31.250,0.000
1709299149.842,-42.969,-44.434,-31.250,-42.480,0.000
1709299149.846,-55.176,-50.781,-31.250,-56.152,0.000
1709299149.850,-62.012,-43.945,-37.109,-59.082,0.000
1709299149.854,-53.223,-44.922,-41.504,-49.316,0.000
1709299149.858,-39.551,-43.945,-43.457,-38.574,0.000
1709299149.862,-37.598,-39.551,-44.434,-37.598,0.000
1709299149.866,-51.270,-45.898,-40.527,-48.828,0.000
1709299149.869,-46.875,-52.246,-37.598,-50.781,0.000
1709299149.873,-30.762,-44.922,-30.273,-26.855,0.000
1709299149.877,-22.461,-35.156,-29.785,-15.625,0.000
1709299149.881,-20.020,-34.180,-36.133,-28.809,0.000
1709299149.885,-29.297,-35.156,-34.180,-39.062,0.000
1709299149.889,-34.668,-34.668,-30.762,-40.039,0.000
1709299149.893,0.000,-35.645,-33.691,-35.645,0.000
1709299149.897,0.000,-35.156,-39.551,-37.598,0.000
1709299149.901,0.000,-42.480,-45.410,-44.922,0.000
1709299149.904,0.000,-37.598,-41.016,-53.711,0.000
1709299149.908,0.000,-26.855,-40.039,-65.430,0.000
1709299149.912,0.000,-30.273,-43.457,-60.059,0.000
1709299149.916,0.000,-20.996,-41.504,-40.527,0.000
1709299149.920,0.000,-16.602,-38.086,-32.715,0.000
1709299149.924,0.000,-22.461,-43.457,-55.176,0.000
1709299149.928,0.000,-28.320,-48.828,-69.336,0.000
1709299149.932,0.000,-39.062,-47.363,-57.617,0.000
1709299149.936,0.000,-33.691,-41.992,-42.969,0.000
1709299149.940,-44.434,-36.133,-38.086,-37.109,0.000
1709299149.943,-51.758,-41.992,-42.969,-50.781,0.000
1709299149.947,-57.617,-37.109,-47.852,-64.453,0.000
1709299149.951,-56.152,-36.621,-41.504,-56.641,0.000
1709299149.955,-45.410,-33.203,-37.109,-42.480,0.000
1709299149.959,-41.016,-30.273,-41.016,-38.086,0.000
1709299149.963,-42.480,-27.832,-40.527,-41.504,0.000
1709299149.967,-51.270,-33.203,-45.898,-53.223,0.000
1709299149.971,-51.758,-40.039,-45.410,-55.664,0.000
1709299149.975,-40.527,-36.621,-34.180,-41.504,0.000
1709299149.979,-29.785,-44.434,-36.621,-32.715,0.000
1709299149.982,-38.086,-44.922,-42.480,-44.434,0.000
1709299149.986,-54.199,-30.762,-34.180,-57.617,0.000
1709299149.990,-56.641,-31.738,-37.598,-53.711,0.000
1709299149.994,-51.758,-34.180,-48.828,-46.875,0.000
1709299149.998,-43.945,-37.109,-49.316,-39.062,0.000
1709299150.002,-42.969,-42.480,-41.992,-40.039,0.000
1709299150.006,-56.641,-42.480,-41.016,-53.711,0.000
1709299150.010,-51.758,-41.016,-43.945,-39.551,0.000
1709299150.014,-29.785,-46.387,-34.180,-24.902,0.000
1709299150.018,-25.391,-43.945,-29.785,-27.832,0.000
1709299150.021,-32.227,-35.156,-26.855,-34.668,0.000
1709299150.025,-40.527,-37.109,-23.926,-43.945,0.000
1709299150.029,-41.504,-34.668,-26.855,-40.039,0.000
1709299150.033,-32.227,-37.109,-31.738,-33.203,0.000
1709299150.037,-18.555,-34.180,-36.133,-26.367,0.000
1709299150.041,-20.508,-26.367,-27.832,-29.785,0.000
1709299150.045,-35.645,-36.133,-24.902,-50.781,0.000
1709299150.049,-37.109,-47.363,-28.320,-53.223,0.000
1709299150.053,-33.203,-41.504,-27.344,-35.645,0.000
1709299150.057,-24.902,-32.715,-29.785,-21.973,0.000
1709299150.061,-30.273,-37.109,-35.645,-21.973,0.000
1709299150.064,-48.828,-43.945,-30.762,-37.598,0.000
1709299150.068,-55.664,-42.480,-31.250,-43.945,0.000
1709299150.072,-51.270,-37.109,-39.062,-39.062,0.000
1709299150.076,-40.039,-28.809,-36.621,-26.367,0.000
1709299150.080,-39.551,-37.109,-38.086,-24.414,0.000
1709299150.084,-59.082,-48.828,-39.551,-41.504,0.000
1709299150.088,-68.359,-41.504,-31.738,-46.875,0.000
1709299150.092,-62.012,-37.109,-31.738,-47.363,0.000
1709299150.096,-49.316,-40.039,-35.156,-38.086,0.000
1709299150.100,-47.363,-33.691,-35.156,-37.109,0.000
1709299150.104,-58.594,-33.691,-36.621,-49.316,0.000
1709299150.107,-70.801,-42.480,-33.203,-56.641,0.000
1709299150.111,-67.383,-39.062,-36.621,-46.387,0.000
1709299150.115,-53.711,-37.109,-36.133,-26.367,0.000
1709299150.119,-50.781,-36.621,-36.621,-30.762,0.000
1709299150.123,-65.918,-37.598,-38.086,-53.223,0.000
1709299150.127,-70.801,-36.133,-30.762,-60.059,0.000
1709299150.131,-57.617,-30.273,-39.062,-52.734,0.000
1709299150.135,-43.945,-37.109,-41.504,-39.551,0.000
1709299150.139,-28.809,-42.480,-32.227,-29.785,0.000
1709299150.143,-26.367,-47.363,-38.574,-33.691,0.000
1709299150.147,-32.227,-44.434,-38.574,-37.109,0.000
1709299150.151,-27.344,-41.016,-27.832,-29.785,0.000
1709299150.155,-9.766,-43.945,-27.344,-21.973,0.000
1709299150.159,-1.953,-31.250,-29.297,-14.160,0.000
1709299150.162,-14.648,-23.926,-27.344,-20.020,0.000
1709299150.166,-33.203,-22.949,-35.645,-36.621,0.000
1709299150.170,-40.527,-26.855,-39.062,-39.062,0.000
1709299150.174,-35.156,-30.762,-40.039,-26.367,0.000
1709299150.178,-28.809,-33.691,-40.527,-24.902,0.000
1709299150.182,-34.180,-43.457,-39.551,-38.574,0.000
1709299150.186,-50.293,-54.688,-37.598,-44.922,0.000
1709299150.190,-59.082,-57.617,-32.227,-42.480,0.000
1709299150.194,-50.293,-48.340,-32.715,-34.668,0.000
1709299150.198,-42.480,-39.551,-26.855,-27.344,0.000
1709299150.201,-45.410,-43.945,-24.902,-36.621,0.000
1709299150.205,-56.152,-43.945,-29.297,-46.875,0.000
1709299150.209,-57.617,-44.922,-31.250,-51.270,0.000
1709299150.213,-46.875,-41.016,-33.203,-48.828,0.000
1709299150.217,-39.062,-35.156,-31.738,-30.273,0.000
1709299150.221,-42.969,-40.527,-31.250,-23.926,0.000
1709299150.225,-52.246,-43.457,-33.203,-46.875,0.000
1709299150.229,-58.594,-53.223,-38.574,-58.594,0.000
1709299150.233,-50.781,-55.176,-37.598,-46.387,0.000
1709299150.237,-40.527,-47.852,-34.180,-38.086,0.000
1709299150.240,-36.133,-49.805,-33.203,-31.738,0.000
1709299150.244,-41.992,-45.898,-27.344,-41.504,0.000
1709299150.248,-49.316,-38.086,-29.785,-47.852,0.000
1709299150.252,-46.875,-37.109,-41.016,-41.016,0.000
1709299150.256,-31.250,-41.504,-39.551,-32.227,0.000
1709299150.260,-22.949,-36.621,-39.062,-27.832,0.000
1709299150.264,-29.297,-33.691,-43.945,-36.621,0.000
1709299150.268,0.000,-45.410,-45.410,-48.828,0.000
1709299150.272,0.000,-44.922,-47.363,-40.039,0.000
1709299150.276,0.000,-40.527,-47.363,-26.367,0.000
1709299150.279,0.000,-40.039,-40.527,-30.273,0.000
1709299150.283,0.000,-33.691,-39.551,-38.086,0.000
1709299150.287,0.000,-37.109,-41.504,-50.781,0.000
1709299150.291,0.000,-43.945,-41.016,-55.664,0.000
1709299150.295,0.000,-36.621,-43.945,-35.156,0.000
1709299150.299,0.000,-33.691,-40.527,-31.250,0.000
1709299150.303,0.000,-40.039,-40.527,-43.945,0.000
1709299150.307,0.000,-45.898,-39.062,-47.363,0.000
1709299150.311,0.000,-52.246,-37.109,-43.945,0.000
1709299150.314,-41.504,-42.480,-40.527,-41.992,0.000
1709299150.318,-40.039,-38.574,-42.480,-39.062,0.000
1709299150.322,-46.387,-46.875,-46.387,-46.387,0.000
1709299150.326,-61.523,-48.828,-46.387,-61.523,0.000
1709299150.330,-63.965,-43.945,-45.410,-57.129,0.000
1709299150.334,-44.922,-37.598,-42.969,-41.992,0.000
1709299150.338,-32.227,-42.969,-41.504,-28.809,0.000
1709299150.342,-33.691,-45.898,-40.039,-33.691,0.000
1709299150.346,-35.156,-35.645,-34.180,-48.340,0.000
1709299150.350,-35.645,-38.574,-31.250,-52.246,0.000
1709299150.354,-29.785,-47.363,-28.320,-43.457,0.000
1709299150.357,-26.855,-37.109,-37.598,-35.645,0.000
1709299150.361,-26.367,-27.344,-42.969,-36.133,0.000
1709299150.365,-29.297,-33.691,-36.621,-40.039,0.000
1709299150.369,-39.551,-37.109,-40.039,-44.434,0.000
1709299150.373,-33.691,-35.156,-37.598,-37.109,0.000
1709299150.377,-17.090,-41.016,-34.668,-32.715,0.000
1709299150.381,-22.949,-36.133,-34.180,-33.203,0.000
1709299150.385,-44.922,-35.645,-37.109,-33.691,0.000
1709299150.389,-58.594,-47.363,-41.992,-45.898,0.000
1709299150.392,-54.688,-44.434,-33.203,-48.828,0.000
1709299150.396,-43.457,-35.156,-30.273,-34.180,0.000
1709299150.400,-41.992,-37.109,-30.273,-31.250,0.000
1709299150.404,-50.781,-40.527,-28.320,-44.922,0.000
1709299150.408,-55.664,-42.480,-32.715,-53.711,0.000
1709299150.412,-50.781,-41.016,-32.227,-44.434,0.000
1709299150.416,-42.969,-40.527,-41.016,-36.133,0.000
1709299150.420,-40.039,-39.062,-51.270,-41.504,0.000
1709299150.424,-45.898,-44.922,-39.551,-51.270,0.000
1709299150.427,-58.105,-49.316,-23.438,-52.734,0.000
1709299150.431,-61.035,-46.875,-26.855,-54.199,0.000
1709299150.435,-54.688,-42.969,-32.227,-48.340,0.000
1709299150.439,-51.758,-44.434,-35.156,-47.363,0.000
1709299150.443,-57.617,-43.457,-33.203,-55.176,0.000
1709299150.447,-59.570,-43.945,-35.156,-58.105,0.000
1709299150.451,-51.270,-41.992,-41.504,-48.828,0.000
1709299150.455,-41.504,-31.250,-38.086,-29.785,0.000
1709299150.459,-33.203,-30.273,-35.156,-24.902,0.000
1709299150.463,-41.016,-45.410,-41.504,-39.062,0.000
1709299150.467,-47.852,-48.828,-40.039,-49.316,0.000
1709299150.471,-46.387,-35.156,-34.180,-44.434,0.000
1709299150.475,-37.598,-33.691,-37.109,-28.320,0.000
1709299150.479,-26.855,-40.039,-37.109,-26.855,0.000
1709299150.482,-28.320,-36.621,-35.645,-32.227,0.000
1709299150.486,-45.410,-34.668,-41.992,-47.363,0.000
1709299150.490,-53.223,-39.551,-41.504,-53.223,0.000
1709299150.494,-41.504,-42.480,-47.852,-42.969,0.000
1709299150.498,-35.645,-38.086,-55.176,-42.480,0.000
1709299150.502,-39.062,-41.504,-38.574,-52.246,0.000
1709299150.506,-46.875,-50.293,-31.250,-63.477,0.000
1709299150.510,-50.293,-39.551,-33.691,-56.152,0.000
1709299150.514,-39.551,-35.156,-30.762,-45.898,0.000
1709299150.518,-24.902,-43.457,-29.785,-37.109,0.000
1709299150.522,-25.879,-46.387,-31.738,-36.621,0.000
1709299150.525,-36.133,-46.875,-33.691,-54.199,0.000
1709299150.529,-37.598,-34.180,-37.598,-57.129,0.000
1709299150.533,-30.273,-25.391,-41.504,-41.504,0.000
1709299150.537,-24.414,-28.809,-43.945,-30.762,0.000
1709299150.541,-23.438,-33.203,-41.016,-29.297,0.000
1709299150.545,-27.344,-29.297,-34.668,-32.227,0.000
1709299150.549,-40.039,-35.156,-41.016,-34.180,0.000
1709299150.553,-38.086,-36.133,-47.363,-27.344,0.000
1709299150.557,-21.484,-33.203,-44.922,-22.949,0.000
1709299150.561,-28.809,-42.480,-49.316,-30.762,0.000
1709299150.564,-38.574,-49.805,-52.246,-38.086,0.000
1709299150.568,-37.109,-46.387,-47.363,-40.527,0.000
1709299150.572,-32.715,-37.109,-44.434,-37.598,0.000
1709299150.576,-25.879,-38.086,-39.551,-28.320,0.000
1709299150.580,-27.344,-47.363,-31.738,-15.137,0.000
1709299150.584,-39.062,-39.551,-35.156,-24.902,0.000
1709299150.588,-50.293,-27.344,-36.621,-42.969,0.000
1709299150.592,-44.434,-35.156,-34.668,-46.387,0.000
1709299150.596,-36.621,-48.340,-41.504,-40.039,0.000
1709299150.600,-31.250,-38.574,-34.668,-37.109,0.000
1709299150.603,-37.109,-31.250,-30.762,-54.688,0.000
1709299150.607,-48.340,-41.504,-32.715,-62.012,0.000
1709299150.611,-41.504,-44.922,-27.832,-48.828,0.000
1709299150.615,-33.691,-31.738,-27.344,-36.133,0.000
1709299150.619,-28.320,-30.273,-33.203,-33.691,0.000
1709299150.623,-28.809,-43.945,-26.855,-33.203,0.000
1709299150.627,-41.504,-41.504,-26.367,-32.715,0.000
1709299150.631,-44.434,-34.180,-36.133,-38.086,0.000
1709299150.635,-33.691,-33.203,-36.133,-24.414,0.000
1709299150.639,-29.297,-37.109,-35.156,-19.531,0.000
1709299150.643,-42.480,-41.504,-33.691,-42.480,0.000
1709299150.647,-51.758,-45.410,-34.180,-58.105,0.000
1709299150.651,-48.828,-41.016,-32.715,-56.152,0.000
1709299150.654,-39.551,-36.621,-30.273,-47.363,0.000
1709299150.658,-36.621,-39.062,-30.273,-43.945,0.000
1709299150.662,-38.574,-36.133,-30.273,-54.688,0.000
1709299150.666,-46.875,-35.156,-36.621,-71.777,0.000
1709299150.670,-52.246,-39.062,-41.992,-61.523,0.000
1709299150.674,-42.480,-39.551,-45.410,-48.828,0.000
1709299150.678,-38.086,-35.645,-50.293,-48.828,0.000
1709299150.682,-42.969,-42.969,-43.945,-49.316,0.000
1709299150.686,-50.781,-53.223,-39.062,-51.270,0.000
1709299150.689,-54.199,-46.875,-38.086,-52.734,0.000
1709299150.693,-41.992,-43.945,-31.250,-43.457,0.000
1709299150.697,-28.320,-43.945,-28.809,-25.391,0.000
1709299150.701,-26.367,-31.738,-34.668,-23.438,0.000
1709299150.705,-41.016,-29.297,-37.598,-42.480,0.000
1709299150.709,-44.434,-33.203,-41.504,-49.316,0.000
1709299150.713,-31.250,-39.062,-36.621,-39.062,0.000
1709299150.717,-26.855,-42.480,-36.621,-28.320,0.000
1709299150.721,-37.109,-48.340,-43.457,-33.691,0.000
1709299150.725,-45.898,-46.387,-35.156,-47.852,0.000
1709299150.729,-54.199,-27.832,-28.320,-50.781,0.000
1709299150.732,-56.641,-25.879,-29.785,-48.828,0.000
1709299150.736,-39.062,-28.809,-30.762,-36.621,0.000
1709299150.740,-32.227,-23.926,-32.715,-35.645,0.000
1709299150.744,-44.434,-24.414,-38.574,-44.434,0.000
1709299150.748,-54.199,-30.273,-44.922,-46.875,0.000
1709299150.752,-47.363,-31.738,-43.945,-46.875,0.000
1709299150.756,-26.855,-27.344,-33.691,-34.180,0.000
1709299150.760,-18.066,-20.020,-28.320,-26.855,0.000
1709299150.764,-24.902,-17.090,-33.203,-46.387,0.000
1709299150.767,-26.855,-18.066,-30.762,-52.734,0.000
1709299150.771,-26.855,-29.297,-30.273,-46.387,0.000
1709299150.775,-22.461,-35.645,-35.645,-38.574,0.000
1709299150.779,-20.508,-31.250,-29.785,-39.062,0.000
1709299150.783,-36.621,-27.832,-25.879,-50.293,0.000
1709299150.787,-53.711,-31.250,-31.738,-65.918,0.000
1709299150.791,-46.875,-39.551,-34.180,-57.129,0.000
1709299150.795,-38.574,-39.551,-25.879,-33.203,0.000
1709299150.799,-38.086,-32.227,-20.996,-27.344,0.000
1709299150.802,-41.016,-33.203,-29.785,-33.203,0.000
1709299150.806,-54.688,-38.086,-26.367,-36.621,0.000
1709299150.810,-54.688,-31.738,-25.391,-29.297,0.000
1709299150.814,-36.133,-27.832,-28.320,-15.625,0.000
1709299150.818,-33.203,-38.574,-31.738,-7.812,0.000
1709299150.822,-41.992,-36.621,-32.715,-22.461,0.000
1709299150.826,-51.270,-29.785,-34.180,-42.480,0.000
1709299150.830,-57.617,-38.086,-33.691,-43.945,0.000
1709299150.834,-51.758,-50.293,-32.715,-29.785,0.000
1709299150.838,-42.969,-51.758,-28.809,-24.902,0.000
1709299150.842,-44.434,-40.039,-27.832,-32.715,0.000
1709299150.845,-56.641,-37.109,-31.250,-41.016,0.000
1709299150.849,-60.059,-31.250,-29.785,-41.992,0.000
1709299150.853,-49.805,-23.926,-29.785,-39.551,0.000
1709299150.857,-43.457,-38.086,-41.992,-38.574,0.000
1709299150.861,-36.133,-41.504,-40.527,-38.086,0.000
1709299150.865,-40.039,-32.715,-29.785,-47.852,0.000
1709299150.869,-59.082,-31.738,-32.227,-62.500,0.000
1709299150.873,-56.641,-40.527,-43.945,-57.617,0.000
1709299150.877,-35.645,-53.711,-48.828,-46.387,0.000
1709299150.881,-36.621,-40.039,-45.410,-48.828,0.000
1709299150.885,-48.340,-27.344,-37.109,-57.617,0.000
1709299150.888,-52.734,-33.691,-39.062,-67.383,0.000
1709299150.892,-43.945,-41.016,-45.898,-54.199,0.000
1709299150.896,-31.250,-44.922,-43.945,-36.133,0.000
1709299150.900,-33.203,-39.551,-33.691,-36.133,0.000
1709299150.904,-47.852,-37.109,-32.715,-46.875,0.000
1709299150.908,-57.129,-44.434,-37.598,-51.270,0.000
1709299150.912,-47.363,-41.504,-32.715,-41.992,0.000
1709299150.916,-33.203,-33.691,-36.133,-34.180,0.000
1709299150.920,-23.438,-24.902,-31.250,-28.809,0.000
1709299150.924,0.000,-22.461,-27.832,-31.250,0.000
1709299150.927,0.000,-28.320,-34.180,-43.457,0.000
1709299150.931,0.000,-28.809,-36.133,-37.109,0.000
1709299150.935,0.000,-31.738,-37.109,-19.043,0.000
1709299150.939,0.000,-35.156,-29.297,-22.461,0.000
1709299150.943,0.000,-37.598,-32.715,-37.109,0.000
1709299150.947,0.000,-43.945,-32.227,-41.992,0.000
1709299150.951,0.000,-47.852,-26.855,-28.320,0.000
1709299150.955,0.000,-36.621,-34.668,-17.090,0.000
1709299150.959,0.000,-26.855,-32.715,-26.367,0.000
1709299150.963,0.000,-32.715,-25.391,-37.109,0.000
1709299150.967,0.000,-41.016,-26.855,-43.945,0.000
1709299150.971,-46.875,-44.922,-30.273,-49.316,0.000
1709299150.975,-35.645,-38.574,-31.250,-37.109,0.000
1709299150.979,-31.250,-39.551,-30.273,-29.297,0.000
1709299150.983,-43.945,-34.668,-32.227,-35.156,0.000
1709299150.987,-56.641,-39.062,-35.156,-48.340,0.000
1709299150.991,-56.152,-55.176,-34.668,-50.781,0.000
1709299150.994,-44.434,-38.086,-31.738,-42.969,0.000
1709299150.998,-33.691,-19.043,-34.180,-29.785,0.000
1709299151.002,-37.598,-22.461,-40.039,-31.250,0.000
1709299151.006,-47.363,-25.879,-34.668,-48.828,0.000
1709299151.010,-59.570,-33.203,-33.691,-50.781,0.000
1709299151.014,-57.617,-40.039,-34.668,-39.551,0.000
1709299151.018,-43.457,-40.039,-35.156,-29.785,0.000
1709299151.022,-44.434,-39.062,-46.875,-36.133,0.000
1709299151.026,-48.828,-42.480,-39.551,-43.945,0.000
1709299151.029,-48.828,-56.152,-24.902,-40.527,0.000
1709299151.033,-40.039,-46.387,-29.297,-27.832,0.000
1709299151.037,-28.320,-24.902,-32.227,-15.137,0.000
1709299151.041,-27.832,-21.973,-27.344,-15.625,0.000
1709299151.045,-36.621,-32.227,-38.574,-29.785,0.000
1709299151.049,-42.480,-29.297,-39.551,-34.668,0.000
1709299151.053,-42.480,-28.320,-36.621,-36.133,0.000
1709299151.057,-34.180,-31.738,-44.434,-29.297,0.000
1709299151.061,-27.344,-36.621,-34.668,-21.973,0.000
1709299151.065,-46.387,-55.664,-37.109,-43.945,0.000
1709299151.068,-61.035,-42.969,-44.434,-56.641,0.000
1709299151.072,-55.664,-25.391,-38.574,-51.758,0.000
1709299151.076,-41.504,-32.227,-33.691,-41.504,0.000
1709299151.080,-33.203,-28.809,-31.738,-29.785,0.000
1709299151.084,-47.852,-29.297,-34.180,-39.062,0.000
1709299151.088,-57.617,-39.551,-30.273,-41.504,0.000
1709299151.092,-56.152,-40.039,-32.715,-37.109,0.000
1709299151.096,-56.641,-39.551,-37.109,-45.410,0.000
1709299151.100,-50.781,-39.551,-27.344,-40.527,0.000
1709299151.104,-49.805,-49.316,-35.645,-46.387,0.000
1709299151.107,-58.105,-52.246,-43.457,-57.617,0.000
1709299151.111,-53.711,-45.410,-38.574,-51.270,0.000
1709299151.115,-34.180,-41.504,-35.645,-33.203,0.000
1709299151.119,-32.227,-34.180,-42.480,-29.785,0.000
1709299151.123,-35.156,-30.762,-45.898,-40.527,0.000
1709299151.127,-40.527,-41.504,-47.852,-49.316,0.000
1709299151.131,-52.246,-46.875,-52.246,-44.922,0.000
1709299151.135,-34.668,-37.598,-44.922,-13.672,0.000
1709299151.139,-17.578,-42.480,-44.434,-9.277,0.000
1709299151.143,-23.438,-49.316,-42.969,-24.414,0.000
1709299151.146,-34.180,-39.062,-41.504,-29.297,0.000
1709299151.150,-39.062,-32.227,-38.574,-29.297,0.000
1709299151.154,-28.809,-35.156,-31.250,-26.855,0.000
1709299151.158,-23.438,-34.180,-33.691,-23.438,0.000
1709299151.162,-26.367,-30.273,-39.551,-27.832,0.000
1709299151.166,-42.969,-35.645,-47.363,-48.828,0.000
1709299151.170,-50.781,-40.039,-45.898,-56.641,0.000
1709299151.174,-42.480,-43.945,-38.574,-46.875,0.000
1709299151.178,-42.480,-47.852,-36.133,-35.156,0.000
1709299151.182,-48.340,-49.316,-39.551,-44.922,0.000
1709299151.186,-59.570,-40.039,-36.621,-55.176,0.000
1709299151.189,-62.988,-32.227,-37.598,-46.875,0.000
1709299151.193,-50.781,-37.598,-35.156,-30.273,0.000
1709299151.197,-41.504,-37.598,-33.691,-26.855,0.000
1709299151.201,-42.480,-35.645,-33.691,-31.250,0.000
1709299151.205,-50.293,-44.922,-39.062,-41.504,0.000
1709299151.209,-55.664,-47.363,-41.504,-45.410,0.000
1709299151.213,-41.016,-39.551,-29.297,-31.250,0.000
1709299151.217,-23.926,-34.668,-20.996,-17.578,0.000
1709299151.221,-30.762,-35.645,-35.156,-21.973,0.000
1709299151.225,-43.457,-42.969,-44.922,-37.109,0.000
1709299151.229,-47.852,-38.086,-37.598,-45.898,0.000
1709299151.232,-41.504,-28.320,-31.250,-40.527,0.000
1709299151.236,-23.926,-32.715,-35.156,-21.484,0.000
1709299151.240,-19.531,-37.109,-44.434,-10.254,0.000
1709299151.244,-26.367,-33.203,-40.039,-25.879,0.000
1709299151.248,-32.715,-41.016,-34.668,-41.016,0.000
1709299151.252,-31.250,-43.457,-36.621,-36.133,0.000
1709299151.256,-22.461,-33.203,-36.621,-29.785,0.000
1709299151.260,-15.137,-20.996,-39.551,-37.598,0.000
1709299151.264,-20.996,-15.625,-41.992,-49.805,0.000
1709299151.268,-33.203,-22.949,-38.574,-49.805,0.000
1709299151.272,-25.879,-31.250,-32.227,-40.039,0.000
1709299151.275,-20.020,-37.109,-46.387,-31.738,0.000
1709299151.279,-23.438,-38.574,-50.781,-27.344,0.000
1709299151.283,-32.715,-53.711,-37.598,-31.738,0.000
1709299151.287,-49.316,-58.105,-33.203,-46.387,0.000
1709299151.291,-47.852,-37.598,-26.367,-41.016,0.000
1709299151.295,-33.203,-27.344,-21.484,-23.926,0.000
1709299151.299,-27.344,-29.297,-28.320,-16.602,0.000
1709299151.303,-36.621,-37.598,-28.809,-24.414,0.000
1709299151.307,-52.246,-43.945,-27.344,-39.062,0.000
1709299151.311,-53.711,-42.480,-34.668,-38.574,0.000
1709299151.314,-47.852,-43.457,-38.086,-36.621,0.000
1709299151.318,-45.898,-54.199,-36.621,-38.086,0.000
1709299151.322,-46.387,-54.199,-37.598,-40.527,0.000
1709299151.326,-57.129,-45.410,-39.551,-56.152,0.000
1709299151.330,-62.500,-41.016,-45.898,-61.523,0.000
1709299151.334,-48.340,-28.809,-46.387,-48.340,0.000
1709299151.338,-38.086,-27.832,-40.527,-40.039,0.000
1709299151.342,-39.551,-34.180,-34.180,-49.805,0.000
1709299151.346,-47.852,-41.504,-42.480,-60.059,0.000
1709299151.350,-53.223,-45.898,-54.688,-60.547,0.000
1709299151.353,-39.551,-41.504,-42.480,-47.852,0.000
1709299151.357,-19.531,-50.781,-26.855,-22.461,0.000
1709299151.361,-20.508,-56.641,-25.391,-18.066,0.000
1709299151.365,-32.715,-37.109,-34.668,-39.551,0.000
1709299151.369,-30.273,-25.879,-38.086,-44.434,0.000
1709299151.373,-23.438,-35.645,-36.133,-23.926,0.000
1709299151.377,-18.555,-46.387,-37.598,-4.395,0.000
1709299151.381,-12.207,-38.086,-33.691,-5.859,0.000
1709299151.385,-25.391,-34.668,-34.180,-25.879,0.000
1709299151.389,-40.039,-46.875,-34.668,-35.156,0.000
1709299151.392,-30.273,-44.434,-30.273,-23.438,0.000
1709299151.396,-21.484,-39.062,-26.367,-17.090,0.000
1709299151.400,-32.227,-40.527,-27.344,-23.926,0.000
1709299151.404,-40.527,-40.039,-26.855,-31.738,0.000
1709299151.408,-51.758,-39.551,-33.203,-46.387,0.000
1709299151.412,-57.129,-40.039,-46.387,-42.480,0.000
1709299151.416,-46.387,-37.109,-41.992,-29.297,0.000
1709299151.420,-40.527,-35.645,-34.668,-20.996,0.000
1709299151.424,-55.664,-29.297,-34.668,-42.969,0.000
1709299151.428,-73.730,-32.227,-31.250,-73.730,0.000
1709299151.432,-68.848,-47.852,-33.203,-63.477,0.000
1709299151.435,-57.617,-55.176,-42.969,-48.340,0.000
1709299151.439,-47.852,-40.527,-46.387,-54.199,0.000
1709299151.443,-49.316,-40.039,-43.945,-62.500,0.000
1709299151.447,-60.547,-43.457,-45.410,-69.824,0.000
1709299151.451,-60.547,-36.621,-47.363,-68.359,0.000
1709299151.455,-48.340,-36.621,-48.340,-51.758,0.000
1709299151.459,-36.621,-44.434,-49.805,-37.109,0.000
1709299151.463,-34.668,-42.969,-42.969,-38.086,0.000
1709299151.467,-42.969,-31.738,-38.086,-41.504,0.000
1709299151.470,-43.457,-36.621,-39.062,-37.109,0.000
1709299151.474,-30.762,-44.922,-42.969,-26.367,0.000
1709299151.478,-16.113,-43.945,-51.758,-20.508,0.000
1709299151.482,-11.719,-39.551,-49.805,-25.391,0.000
1709299151.486,-21.484,-35.156,-35.645,-28.320,0.000
1709299151.490,-21.484,-34.668,-27.344,-19.043,0.000
1709299151.494,-9.277,-42.480,-25.879,-10.742,0.000
1709299151.498,-10.742,-50.781,-42.969,-11.719,0.000
1709299151.502,-22.461,-41.504,-41.992,-20.020,0.000
1709299151.505,-26.855,-39.551,-23.438,-27.344,0.000
1709299151.509,-35.645,-48.828,-35.156,-30.273,0.000
1709299151.513,-32.715,-46.875,-44.434,-25.879,0.000
1709299151.517,-27.344,-41.992,-39.551,-21.973,0.000
1709299151.521,-40.527,-36.133,-35.645,-27.832,0.000
1709299151.525,-61.035,-31.738,-33.691,-40.039,0.000
1709299151.529,-68.359,-36.133,-35.156,-44.922,0.000
1709299151.533,-49.316,-43.945,-26.367,-31.738,0.000
1709299151.537,-40.039,-41.016,-33.691,-26.855,0.000
1709299151.541,-44.922,-36.621,-40.039,-34.668,0.000
1709299151.545,-52.734,-35.645,-26.367,-42.969,0.000
1709299151.549,-66.406,-33.691,-35.156,-58.594,0.000
1709299151.552,-64.453,-32.715,-43.457,-51.270,0.000
1709299151.556,-57.617,-36.621,-35.645,-38.574,0.000
1709299151.560,-55.176,-41.504,-29.785,-42.969,0.000
1709299151.564,-61.035,-37.109,-33.203,-55.176,0.000
1709299151.568,-68.359,-34.180,-35.156,-52.734,0.000
1709299151.572,-61.035,-41.016,-31.738,-46.387,0.000
1709299151.576,-48.828,-30.762,-27.832,-41.016,0.000
1709299151.580,-47.852,-27.344,-31.250,-35.645,0.000
1709299151.584,-52.734,-31.738,-37.598,-47.363,0.000
1709299151.588,-59.082,-19.531,-37.109,-58.105,0.000
1709299151.592,-60.059,-24.414,-41.504,-58.105,0.000
1709299151.595,-47.852,-34.668,-43.945,-45.898,0.000
1709299151.599,-38.086,-29.297,-41.016,-36.621,0.000
1709299151.603,-45.898,-25.879,-45.898,-46.875,0.000
1709299151.607,-60.547,-28.809,-44.434,-57.129,0.000
1709299151.611,-56.152,-37.598,-35.645,-41.504,0.000
1709299151.615,-41.992,-32.227,-34.668,-19.531,0.000
1709299151.619,-32.227,-27.832,-40.039,-19.043,0.000
1709299151.623,-31.250,-33.691,-43.945,-33.691,0.000
1709299151.627,-43.945,-39.551,-40.527,-44.922,0.000
1709299151.631,-42.480,-44.922,-31.250,-31.738,0.000
1709299151.635,-24.414,-40.527,-25.391,-12.695,0.000
1709299151.638,-15.137,-38.574,-22.949,-3.418,0.000
1709299151.642,-24.902,-35.156,-28.320,-12.207,0.000
1709299151.646,-32.227,-30.273,-30.762,-33.691,0.000
1709299151.650,-37.598,-34.668,-36.133,-39.062,0.000
1709299151.654,-26.367,-35.156,-30.273,-23.926,0.000
1709299151.658,-16.602,-37.109,-26.855,-19.043,0.000
1709299151.662,-25.879,-36.621,-27.344,-26.855,0.000
1709299151.666,-38.574,-30.273,-25.879,-39.551,0.000
1709299151.670,-46.387,-27.832,-31.250,-46.875,0.000
1709299151.674,-41.016,-36.621,-32.715,-28.809,0.000
1709299151.677,-28.809,-43.457,-37.598,-13.672,0.000
1709299151.681,-30.273,-36.133,-39.062,-27.832,0.000
1709299151.685,-49.316,-38.574,-40.527,-44.434,0.000
1709299151.689,-51.758,-39.062,-35.645,-43.457,0.000
1709299151.693,-40.527,-30.762,-30.273,-32.227,0.000
1709299151.697,-33.203,-36.133,-36.621,-31.250,0.000
1709299151.701,-29.297,-36.133,-32.227,-35.156,0.000
1709299151.705,-42.480,-35.156,-30.762,-36.621,0.000
1709299151.709,-54.688,-33.203,-31.738,-51.270,0.000
1709299151.713,-51.270,-34.668,-35.156,-54.199,0.000
1709299151.717,-42.480,-38.574,-41.016,-42.480,0.000
1709299151.720,0.000,-45.410,-38.086,0.000,0.000
1709299151.724,0.000,-44.434,-41.016,0.000,0.000
1709299151.728,0.000,-31.738,-41.504,0.000,0.000
1709299151.732,0.000,-34.668,-34.668,0.000,0.000
1709299151.736,0.000,-47.852,-31.738,0.000,0.000
1709299151.740,0.000,-43.457,-37.598,0.000,0.000
1709299151.744,0.000,-40.039,-39.062,0.000,0.000
1709299151.748,0.000,-45.898,-34.668,0.000,0.000
1709299151.752,0.000,-49.805,-40.527,0.000,0.000
1709299151.756,0.000,-50.781,-38.574,0.000,0.000
1709299151.760,0.000,-52.246,-29.297,0.000,0.000
1709299151.763,0.000,-49.316,-27.832,0.000,0.000
1709299151.767,-33.691,-42.480,-32.715,-27.344,0.000
1709299151.771,-27.344,-44.922,-29.785,-21.484,0.000
1709299151.775,-18.066,-43.457,-27.832,-11.719,0.000
1709299151.779,-23.438,-30.273,-32.227,-12.207,0.000
1709299151.783,-41.016,-28.320,-34.668,-24.414,0.000
1709299151.787,-51.758,-34.180,-30.762,-38.574,0.000
1709299151.791,-55.176,-32.715,-33.203,-41.016,0.000
1709299151.795,-49.805,-35.645,-35.156,-24.902,0.000
1709299151.799,-41.992,-39.062,-39.551,-25.879,0.000
1709299151.803,-49.805,-41.504,-47.852,-42.969,0.000
1709299151.806,-53.223,-40.527,-39.062,-55.664,0.000
1709299151.810,-51.758,-39.062,-34.180,-54.688,0.000
1709299151.814,-42.480,-25.391,-36.133,-31.738,0.000
1709299151.818,-31.250,-25.879,-35.156,-31.250,0.000
1709299151.822,-33.691,-35.645,-39.551,-49.805,0.000
1709299151.826,-40.527,-37.598,-38.086,-54.199,0.000
1709299151.830,-48.828,-39.062,-32.227,-57.617,0.000
1709299151.834,-45.410,-39.062,-30.273,-52.734,0.000
1709299151.838,-31.250,-47.852,-30.762,-36.621,0.000
1709299151.842,-36.133,-40.039,-34.668,-41.504,0.000
1709299151.845,-52.734,-37.598,-42.969,-55.664,0.000
1709299151.849,-56.152,-45.898,-36.621,-53.223,0.000
1709299151.853,-45.898,-34.668,-25.391,-40.039,0.000
1709299151.857,-35.645,-30.273,-36.621,-33.203,0.000
1709299151.861,-28.809,-37.598,-40.527,-36.133,0.000
1709299151.865,-33.691,-40.527,-32.227,-41.992,0.000
1709299151.869,-41.992,-43.457,-36.133,-41.016,0.000
1709299151.873,-30.273,-40.527,-45.898,-29.785,0.000
1709299151.877,-20.508,-32.715,-49.316,-14.160,0.000
1709299151.880,-19.043,-38.086,-47.852,-9.766,0.000
1709299151.884,-23.926,-47.852,-41.992,-16.113,0.000
1709299151.888,-33.691,-41.016,-36.133,-25.879,0.000
1709299151.892,-30.273,-32.227,-40.039,-23.926,0.000
1709299151.896,-17.090,-32.715,-39.551,-22.461,0.000
1709299151.900,-12.695,-30.762,-31.738,-22.949,0.000
1709299151.904,-20.020,-36.621,-30.273,-26.367,0.000
1709299151.908,-40.039,-37.109,-33.691,-41.992,0.000
1709299151.912,-49.805,-33.203,-36.621,-50.781,0.000
1709299151.916,-38.086,-41.016,-49.316,-46.875,0.000
1709299151.920,-36.133,-45.410,-47.363,-41.992,0.000
1709299151.923,-43.945,-37.598,-27.344,-54.688,0.000
1709299151.927,-50.293,-35.156,-30.762,-63.477,0.000
1709299151.931,-53.711,-41.992,-34.180,-60.059,0.000
1709299151.935,-47.363,-36.621,-36.133,-55.664,0.000
1709299151.939,-39.551,-29.785,-41.016,-47.852,0.000
1709299151.943,-41.992,-37.598,-37.109,-43.945,0.000
1709299151.947,-52.734,-38.574,-32.715,-52.734,0.000
1709299151.951,-55.664,-30.273,-37.109,-57.617,0.000
1709299151.955,-49.316,-33.203,-41.016,-38.574,0.000
1709299151.959,-43.457,-42.480,-35.156,-32.715,0.000
1709299151.963,-44.434,-36.133,-33.691,-46.387,0.000
1709299151.967,-51.758,-29.297,-33.203,-53.711,0.000
1709299151.970,-47.852,-35.156,-31.250,-53.711,0.000
1709299151.974,-35.645,-35.156,-32.715,-39.551,0.000
1709299151.978,-23.926,-29.785,-36.621,-23.438,0.000
1709299151.982,-27.832,-31.250,-33.691,-23.438,0.000
1709299151.986,-43.457,-32.227,-24.902,-30.273,0.000
1709299151.990,-50.293,-35.156,-23.926,-27.832,0.000
1709299151.994,-41.992,-26.855,-30.273,-15.625,0.000
1709299151.998,-30.762,-29.785,-30.762,-6.836,0.000
1709299152.002,-38.086,-35.645,-29.297,-14.648,0.000
1709299152.006,-51.758,-33.691,-25.391,-30.762,0.000
1709299152.009,-49.805,-37.109,-23.438,-43.457,0.000
1709299152.013,-40.527,-33.203,-26.367,-41.992,0.000
1709299152.017,-33.691,-37.109,-27.344,-31.250,0.000
1709299152.021,-28.320,-43.457,-29.785,-29.297,0.000
1709299152.025,-35.156,-33.203,-30.273,-44.434,0.000
1709299152.029,-42.480,-31.738,-29.785,-48.828,0.000
1709299152.033,-44.434,-37.598,-38.086,-36.133,0.000
1709299152.037,-31.738,-41.504,-39.551,-23.438,0.000
1709299152.041,-21.484,-36.621,-34.180,-29.297,0.000
1709299152.045,-35.645,-38.086,-36.133,-45.898,0.000
1709299152.049,-42.480,-31.738,-40.527,-51.270,0.000
1709299152.052,-38.574,-25.879,-41.016,-50.781,0.000
1709299152.056,-37.109,-37.598,-33.203,-46.875,0.000
1709299152.060,-37.109,-49.805,-32.227,-44.434,0.000
1709299152.064,-52.246,-50.781,-36.621,-59.082,0.000
1709299152.068,-59.570,-39.551,-38.086,-66.895,0.000
1709299152.072,-49.805,-38.086,-41.992,-62.500,0.000
1709299152.076,-39.551,-37.109,-41.992,-53.223,0.000
1709299152.080,-42.969,-38.574,-39.551,-39.062,0.000
1709299152.084,-58.105,-43.945,-46.387,-53.711,0.000
1709299152.088,-62.012,-34.180,-47.852,-62.988,0.000
1709299152.092,-58.105,-35.645,-48.340,-53.711,0.000
1709299152.095,-44.922,-49.316,-48.828,-46.387,0.000
1709299152.099,-31.250,-46.875,-47.363,-37.598,0.000
1709299152.103,-39.062,-38.086,-41.504,-41.504,0.000
1709299152.107,-53.711,-36.133,-42.969,-53.711,0.000
1709299152.111,-52.734,-31.250,-43.945,-54.199,0.000
1709299152.115,-43.945,-31.250,-34.180,-34.668,0.000
1709299152.119,-39.062,-31.738,-39.551,-31.738,0.000
1709299152.123,-40.039,-37.109,-43.457,-41.992,0.000
1709299152.127,-48.828,-43.945,-34.180,-43.457,0.000
1709299152.131,-49.805,-36.133,-31.738,-42.480,0.000
1709299152.134,-36.133,-43.457,-36.621,-34.180,0.000
1709299152.138,-25.879,-58.105,-34.668,-17.578,0.000
1709299152.142,-31.738,-51.758,-35.156,-16.602,0.000
1709299152.146,-41.992,-43.457,-35.645,-37.598,0.000
1709299152.150,-49.805,-36.133,-33.691,-41.016,0.000
1709299152.154,-45.898,-37.109,-40.039,-32.715,0.000
1709299152.158,-40.527,-44.922,-45.898,-34.668,0.000
1709299152.162,-38.086,-33.203,-40.527,-31.738,0.000
1709299152.166,-43.457,-32.227,-41.992,-41.992,0.000
1709299152.170,-54.688,-42.480,-47.852,-52.246,0.000
1709299152.173,-43.457,-41.016,-42.969,-41.016,0.000
1709299152.177,-31.250,-48.828,-42.480,-35.156,0.000
1709299152.181,-36.621,-45.410,-45.410,-49.805,0.000
1709299152.185,-48.340,-36.133,-41.504,-64.941,0.000
