timestamps,TP9,AF7,AF8,TP10,Right AUX
1709214832.737,-11.719,-54.199,-38.086,-40.039,0.000
1709214832.741,-23.438,-46.875,-36.133,-50.293,0.000
1709214832.745,-34.180,-44.922,-34.668,-41.504,0.000
1709214832.749,-34.668,-41.016,-33.203,-34.668,0.000
1709214832.753,-37.109,-47.363,-38.086,-38.086,0.000
1709214832.757,-40.527,-58.594,-38.086,-40.039,0.000
1709214832.760,-41.504,-60.547,-32.715,-42.480,0.000
1709214832.764,-41.504,-48.828,-31.738,-35.156,0.000
1709214832.768,-44.434,-40.527,-33.691,-30.273,0.000
1709214832.772,-38.086,-38.086,-44.922,-30.273,0.000
1709214832.776,-31.250,-38.086,-48.828,-24.414,0.000
1709214832.780,-27.344,-44.434,-37.598,-25.391,0.000
1709214832.784,-30.762,-46.387,-36.621,-35.645,0.000
1709214832.788,-36.133,-37.598,-40.527,-31.250,0.000
1709214832.792,-29.297,-41.016,-29.785,-24.902,0.000
1709214832.795,-30.762,-51.758,-30.762,-37.598,0.000
1709214832.799,-38.086,-42.969,-36.133,-46.875,0.000
1709214832.803,-41.504,-40.039,-36.133,-47.363,0.000
1709214832.807,-34.668,-43.945,-35.156,-36.621,0.000
1709214832.811,-28.320,-41.992,-37.109,-30.762,0.000
1709214832.815,-39.551,-41.016,-45.410,-43.945,0.000
1709214832.819,-42.969,-46.875,-46.875,-55.664,0.000
1709214832.823,-43.457,-43.945,-43.457,-51.758,0.000
1709214832.827,-37.598,-47.852,-39.062,-40.039,0.000
1709214832.830,-35.645,-47.363,-32.715,-43.457,0.000
1709214832.834,-42.480,-40.039,-32.227,-44.922,0.000
1709214832.838,-40.039,-48.828,-30.273,-46.875,0.000
1709214832.842,-39.551,-56.641,-25.391,-45.410,0.000
1709214832.846,-44.922,-54.199,-35.156,-43.945,0.000
1709214832.850,-49.316,-50.781,-43.945,-47.852,0.000
1709214832.854,-52.734,-49.316,-39.062,-41.992,0.000
1709214832.858,-49.805,-40.527,-39.062,-38.086,0.000
1709214832.862,-50.293,-39.062,-40.527,-41.016,0.000
1709214832.866,-47.363,-42.969,-36.621,-41.016,0.000
1709214832.870,-44.434,-39.551,-37.598,-35.156,0.000
1709214832.873,-45.410,-36.133,-45.410,-32.227,0.000
1709214832.877,-36.621,-41.992,-39.062,-31.738,0.000
1709214832.881,-34.668,-46.875,-28.809,-37.598,0.000
1709214832.885,-42.480,-58.594,-35.645,-33.691,0.000
1709214832.889,-43.457,-61.523,-37.109,-29.297,0.000
1709214832.893,-38.574,-49.805,-31.250,-29.785,0.000
1709214832.897,-35.156,-42.480,-33.691,-29.785,0.000
1709214832.901,-36.621,-37.109,-34.668,-32.715,0.000
1709214832.905,-42.969,-35.156,-36.133,-40.039,0.000
1709214832.908,-41.504,-32.227,-38.574,-40.527,0.000
1709214832.912,-35.645,-31.738,-39.551,-30.762,0.000
1709214832.916,-36.621,-40.527,-47.852,-46.875,0.000
1709214832.920,-37.109,-44.434,-52.246,-63.965,0.000
1709214832.924,-37.598,-42.480,-50.781,-49.805,0.000
1709214832.928,-40.527,-52.734,-41.992,-49.805,0.000
1709214832.932,-44.922,-52.246,-29.785,-57.129,0.000
1709214832.936,-43.457,-37.598,-28.320,-57.129,0.000
1709214832.940,-37.598,-26.855,-27.832,-53.223,0.000
1709214832.944,-47.852,-28.320,-32.715,-50.781,0.000
1709214832.948,-54.688,-37.598,-37.598,-59.082,0.000
1709214832.952,-45.898,-43.457,-39.551,-66.406,0.000
1709214832.955,-41.016,-41.016,-40.527,-59.570,0.000
1709214832.959,-40.527,-30.273,-35.645,-55.176,0.000
1709214832.963,-42.480,-32.227,-28.320,-64.453,0.000
1709214832.967,-41.504,-34.668,-32.227,-63.965,0.000
1709214832.971,-38.574,-41.016,-35.156,-58.105,0.000
1709214832.975,-32.715,-46.387,-33.203,-60.547,0.000
1709214832.979,-33.691,-36.621,-40.527,-63.477,0.000
1709214832.983,-39.062,-38.086,-38.086,-57.617,0.000
1709214832.987,-47.363,-42.969,-34.668,-46.875,0.000
1709214832.991,-45.898,-41.016,-38.086,-42.480,0.000
1709214832.995,-33.691,-33.691,-34.668,-40.527,0.000
1709214832.999,-38.086,-35.156,-38.086,-53.223,0.000
1709214833.002,-44.434,-42.480,-40.527,-55.176,0.000
1709214833.006,-42.480,-41.504,-33.203,-39.062,0.000
1709214833.010,-46.875,-41.504,-28.320,-37.598,0.000
1709214833.014,-46.875,-45.410,-27.344,-33.691,0.000
1709214833.018,-45.898,-44.922,-27.832,-38.574,0.000
1709214833.022,-47.852,-39.062,-28.809,-47.363,0.000
1709214833.026,-52.246,-41.016,-37.109,-54.688,0.000
1709214833.030,-50.293,-48.340,-32.715,-59.082,0.000
1709214833.034,-48.340,-50.293,-24.902,-56.641,0.000
1709214833.038,-51.270,-52.246,-32.715,-60.547,0.000
1709214833.041,-55.664,-53.223,-33.691,-62.012,0.000
1709214833.045,-59.570,-59.570,-37.109,-60.547,0.000
1709214833.049,-45.410,-57.129,-36.133,-47.363,0.000
1709214833.053,-41.016,-51.758,-38.574,-44.434,0.000
1709214833.057,-43.457,-52.734,-39.551,-49.316,0.000
1709214833.061,-28.809,-47.363,-34.668,-45.898,0.000
1709214833.065,-37.598,-41.992,-41.016,-50.781,0.000
1709214833.069,-47.852,-50.781,-40.039,-61.523,0.000
1709214833.073,-27.344,-52.734,-33.691,-46.875,0.000
1709214833.077,-17.578,-45.410,-41.504,-34.180,0.000
1709214833.081,-31.250,-51.270,-49.805,-49.316,0.000
1709214833.084,-35.156,-49.805,-43.945,-49.316,0.000
1709214833.088,-29.297,-38.086,-37.109,-38.574,0.000
1709214833.092,-27.832,-34.668,-37.598,-31.738,0.000
1709214833.096,-25.391,-36.133,-41.016,-36.621,0.000
1709214833.100,-26.855,-42.969,-40.527,-50.781,0.000
1709214833.104,-29.785,-47.363,-41.504,-45.410,0.000
1709214833.108,-29.785,-54.199,-43.945,-33.691,0.000
1709214833.112,-33.691,-62.012,-37.598,-30.273,0.000
1709214833.116,-36.621,-51.270,-36.621,-38.574,0.000
1709214833.120,-36.133,-37.598,-41.992,-41.992,0.000
1709214833.123,-45.410,-35.156,-43.457,-38.086,0.000
1709214833.127,-46.387,-37.598,-45.410,-37.598,0.000
1709214833.131,-37.598,-36.133,-40.527,-28.809,0.000
1709214833.135,-45.410,-56.641,-39.062,-29.785,0.000
1709214833.139,-52.734,-67.871,-41.016,-39.062,0.000
1709214833.143,-51.270,-52.246,-44.434,-45.410,0.000
1709214833.147,-47.852,-50.293,-48.340,-43.457,0.000
1709214833.151,-46.875,-49.805,-46.875,-38.086,0.000
1709214833.155,-35.645,-47.363,-41.504,-41.504,0.000
1709214833.159,-28.320,-42.480,-38.574,-43.945,0.000
1709214833.162,-34.180,-46.875,-35.645,-46.387,0.000
1709214833.166,-37.109,-46.875,-35.156,-45.898,0.000
1709214833.170,-36.621,-34.668,-41.504,-40.039,0.000
1709214833.174,-30.762,-34.180,-39.551,-49.805,0.000
1709214833.178,-29.785,-37.109,-36.133,-59.570,0.000
1709214833.182,-40.039,-41.992,-36.133,-57.617,0.000
1709214833.186,-39.062,-46.387,-37.109,-52.734,0.000
1709214833.190,-30.273,-43.457,-33.203,-61.035,0.000
1709214833.194,-27.832,-44.434,-33.691,-54.688,0.000
1709214833.198,-22.949,-41.992,-36.133,-44.434,0.000
1709214833.201,-26.855,-34.668,-32.227,-55.664,0.000
1709214833.205,-35.156,-48.828,-33.691,-57.617,0.000
1709214833.209,-31.738,-66.406,-35.645,-46.387,0.000
1709214833.213,-27.344,-54.199,-34.668,-40.039,0.000
1709214833.217,-28.320,-41.016,-31.738,-41.504,0.000
1709214833.221,-31.250,-43.945,-33.203,-45.898,0.000
1709214833.225,-41.992,-45.410,-38.086,-44.922,0.000
1709214833.229,-43.945,-39.551,-24.902,-25.879,0.000
1709214833.233,-30.273,-38.086,-24.414,-24.902,0.000
1709214833.237,-25.879,-46.875,-28.320,-36.133,0.000
1709214833.240,-26.855,-50.293,-20.508,-31.250,0.000
1709214833.244,-31.738,-52.246,-24.414,-26.855,0.000
1709214833.248,-32.715,-52.246,-30.762,-26.367,0.000
1709214833.252,-33.203,-48.340,-28.809,-31.738,0.000
1709214833.256,-29.785,-51.270,-24.414,-33.691,0.000
1709214833.260,-35.156,-53.711,-28.809,-41.992,0.000
1709214833.264,-41.016,-42.480,-33.691,-46.387,0.000
1709214833.268,-33.203,-36.621,-33.691,-43.457,0.000
1709214833.272,-25.391,-41.992,-32.715,-34.180,0.000
1709214833.275,-23.438,-43.457,-43.945,-32.715,0.000
1709214833.279,-39.062,-46.387,-50.781,-42.480,0.000
1709214833.283,-46.387,-48.340,-44.434,-46.875,0.000
1709214833.287,-41.504,-40.039,-40.039,-41.992,0.000
1709214833.291,-42.480,-40.527,-37.109,-37.598,0.000
1709214833.295,-45.410,-47.852,-39.062,-44.922,0.000
1709214833.299,-46.875,-51.270,-37.109,-50.781,0.000
1709214833.303,-46.387,-43.945,-32.227,-48.340,0.000
1709214833.307,-55.176,-46.875,-41.504,-47.852,0.000
1709214833.311,-53.223,-52.734,-47.363,-49.805,0.000
1709214833.315,-42.480,-40.039,-50.781,-48.340,0.000
1709214833.319,-41.992,-41.992,-57.617,-54.688,0.000
1709214833.322,-44.922,-50.781,-50.781,-56.641,0.000
1709214833.326,-43.945,-56.641,-46.387,-52.734,0.000
1709214833.330,-44.922,-52.734,-52.734,-50.781,0.000
1709214833.334,-42.480,-37.109,-48.828,-43.945,0.000
1709214833.338,-34.668,-37.109,-40.527,-50.781,0.000
1709214833.342,-35.645,-43.457,-39.062,-55.664,0.000
1709214833.346,-49.316,-44.434,-38.574,-62.012,0.000
1709214833.350,-56.152,-57.129,-44.434,-59.570,0.000
1709214833.354,-50.293,-55.664,-48.828,-46.875,0.000
1709214833.358,-41.504,-39.062,-41.016,-49.316,0.000
1709214833.362,-37.598,-40.527,-36.133,-50.293,0.000
1709214833.365,-42.969,-48.828,-35.645,-47.852,0.000
1709214833.369,-40.527,-46.875,-35.645,-45.410,0.000
1709214833.373,-33.691,-39.062,-39.062,-40.039,0.000
1709214833.377,-37.109,-43.457,-39.062,-29.785,0.000
1709214833.381,-43.457,-56.152,-46.387,-33.203,0.000
1709214833.385,-43.457,-55.664,-43.945,-38.574,0.000
1709214833.389,-40.527,-48.828,-32.715,-29.297,0.000
1709214833.393,-33.691,-51.270,-36.621,-30.762,0.000
1709214833.397,-33.203,-48.340,-37.109,-31.738,0.000
1709214833.401,-41.016,-45.410,-34.668,-39.062,0.000
1709214833.405,-45.410,-49.805,-29.297,-43.945,0.000
1709214833.408,-38.574,-53.223,-26.367,-28.320,0.000
1709214833.412,-40.039,-46.875,-27.344,-28.809,0.000
1709214833.416,-39.062,-40.039,-31.250,-42.480,0.000
1709214833.420,-33.203,-35.156,-30.762,-42.969,0.000
1709214833.424,-38.086,-40.039,-33.691,-47.852,0.000
1709214833.428,-47.363,-50.293,-40.527,-56.152,0.000
1709214833.432,-48.828,-48.828,-46.387,-54.199,0.000
1709214833.436,-35.156,-48.828,-39.551,-45.410,0.000
1709214833.440,-31.738,-54.199,-34.180,-43.457,0.000
1709214833.444,-41.992,-44.922,-40.039,-53.711,0.000
1709214833.448,-45.410,-35.156,-37.109,-51.758,0.000
1709214833.451,-38.574,-41.016,-31.738,-44.434,0.000
1709214833.455,-30.273,-48.828,-35.645,-52.734,0.000
1709214833.459,-31.738,-40.527,-42.480,-55.664,0.000
1709214833.463,-41.504,-34.180,-35.156,-50.293,0.000
1709214833.467,-47.852,-41.992,-35.156,-41.504,0.000
1709214833.471,-44.922,-39.551,-37.109,-35.645,0.000
1709214833.475,-37.109,-38.574,-33.203,-44.434,0.000
1709214833.479,-36.621,-54.199,-35.156,-54.199,0.000
1709214833.483,-41.016,-59.082,-42.480,-58.105,0.000
1709214833.487,-39.551,-49.316,-40.527,-47.363,0.000
1709214833.490,-34.668,-45.410,-35.156,-41.504,0.000
1709214833.494,-30.762,-47.363,-34.668,-42.480,0.000
1709214833.498,-36.133,-43.945,-31.738,-41.992,0.000
1709214833.502,-41.016,-46.387,-31.250,-36.133,0.000
1709214833.506,-38.574,-48.828,-28.809,-30.273,0.000
1709214833.510,-35.645,-44.434,-24.414,-25.391,0.000
1709214833.514,-40.039,-41.992,-30.273,-19.043,0.000
1709214833.518,-42.969,-43.457,-38.086,-38.086,0.000
1709214833.522,-47.363,-49.805,-42.480,-52.246,0.000
1709214833.526,-45.410,-54.688,-42.969,-43.945,0.000
1709214833.530,-34.180,-53.223,-41.016,-33.203,0.000
1709214833.533,-30.762,-56.152,-39.551,-38.574,0.000
1709214833.537,-26.367,-49.805,-40.527,-45.898,0.000
1709214833.541,-24.902,-35.156,-41.992,-38.574,0.000
1709214833.545,-24.902,-29.785,-37.109,-32.227,0.000
1709214833.549,-26.367,-38.086,-32.227,-32.715,0.000
1709214833.553,-23.438,-40.527,-31.250,-31.738,0.000
1709214833.557,-25.391,-41.016,-32.715,-24.902,0.000
1709214833.561,-34.180,-42.969,-34.180,-23.926,0.000
1709214833.565,-35.645,-33.691,-34.668,-36.133,0.000
1709214833.569,-37.598,-42.969,-35.156,-41.016,0.000
1709214833.572,-41.992,-55.176,-30.762,-35.645,0.000
1709214833.576,-46.875,-53.223,-34.668,-38.086,0.000
1709214833.580,-45.898,-58.105,-37.109,-39.062,0.000
1709214833.584,-44.434,-48.828,-34.180,-40.527,0.000
1709214833.588,-48.828,-41.992,-43.945,-47.852,0.000
1709214833.592,-41.016,-43.945,-43.457,-47.852,0.000
1709214833.596,-39.551,-46.875,-33.691,-46.875,0.000
1709214833.600,-37.109,-44.434,-34.668,-43.945,0.000
1709214833.604,-35.156,-41.016,-38.574,-33.691,0.000
1709214833.607,-38.574,-41.504,-37.109,-34.180,0.000
1709214833.611,-33.691,-44.922,-32.715,-37.598,0.000
1709214833.615,-29.297,-59.570,-32.715,-32.227,0.000
1709214833.619,-30.273,-59.082,-26.367,-35.156,0.000
1709214833.623,-43.945,-46.387,-22.949,-42.969,0.000
1709214833.627,-49.316,-41.992,-30.273,-47.363,0.000
1709214833.631,-41.016,-35.156,-32.715,-34.668,0.000
1709214833.635,-41.016,-26.855,-34.180,-30.273,0.000
1709214833.639,-43.945,-34.668,-34.668,-45.898,0.000
1709214833.643,-39.062,-41.016,-37.598,-43.945,0.000
1709214833.647,-40.039,-47.363,-34.668,-30.273,0.000
1709214833.651,-34.668,-50.293,-21.973,-26.855,0.000
1709214833.654,-30.762,-51.758,-20.996,-30.762,0.000
1709214833.658,-35.156,-57.129,-27.344,-40.039,0.000
1709214833.662,-33.203,-61.523,-33.691,-39.062,0.000
1709214833.666,-31.738,-50.781,-35.156,-34.180,0.000
1709214833.670,-34.180,-33.691,-36.133,-32.715,0.000
1709214833.674,-35.156,-38.086,-44.922,-41.992,0.000
1709214833.678,-27.832,-45.410,-42.480,-48.828,0.000
1709214833.682,-27.344,-43.945,-35.156,-48.340,0.000
1709214833.686,-31.738,-43.457,-43.945,-51.758,0.000
1709214833.690,-27.344,-41.504,-47.852,-46.875,0.000
1709214833.694,-24.902,-38.574,-41.016,-44.434,0.000
1709214833.698,-24.902,-43.457,-42.480,-40.527,0.000
1709214833.701,-25.879,-52.734,-41.992,-45.898,0.000
1709214833.705,-28.809,-48.828,-39.551,-48.340,0.000
1709214833.709,-36.133,-53.711,-43.457,-41.504,0.000
1709214833.713,-43.945,-56.641,-42.969,-50.293,0.000
1709214833.717,-40.527,-42.969,-37.109,-56.152,0.000
1709214833.721,-41.504,-40.527,-41.992,-54.199,0.000
1709214833.725,-46.875,-42.480,-44.922,-48.828,0.000
1709214833.729,-43.945,-45.898,-41.992,-41.504,0.000
1709214833.733,-32.715,-56.152,-39.551,-37.109,0.000
1709214833.737,-29.785,-56.152,-41.504,-40.039,0.000
1709214833.741,-28.320,-30.762,-44.434,-37.598,0.000
1709214833.745,-32.715,-26.855,-41.504,-33.203,0.000
1709214833.748,-35.645,-39.062,-38.574,-31.738,0.000
1709214833.752,-36.133,-46.387,-37.598,-25.879,0.000
1709214833.756,-36.621,-52.246,-39.062,-30.273,0.000
1709214833.760,-31.250,-43.945,-41.992,-41.504,0.000
1709214833.764,-32.715,-41.504,-42.480,-43.457,0.000
1709214833.768,-34.180,-45.410,-36.133,-42.969,0.000
1709214833.772,-34.180,-41.992,-31.250,-38.086,0.000
1709214833.776,-39.062,-46.387,-33.691,-46.387,0.000
1709214833.780,-36.133,-48.828,-38.086,-52.734,0.000
1709214833.784,-37.109,-41.992,-41.504,-45.410,0.000
1709214833.788,-39.062,-41.504,-41.016,-41.504,0.000
1709214833.791,-31.738,-48.828,-40.527,-42.480,0.000
1709214833.795,-32.227,-55.176,-35.645,-50.781,0.000
1709214833.799,-35.645,-52.246,-29.297,-45.410,0.000
1709214833.803,-41.992,-46.875,-32.227,-45.410,0.000
1709214833.807,-45.410,-44.434,-34.180,-44.922,0.000
1709214833.811,-38.086,-50.293,-33.203,-32.227,0.000
1709214833.815,-37.598,-55.176,-32.715,-40.527,0.000
1709214833.819,-35.645,-53.223,-35.645,-46.387,0.000
1709214833.823,-32.227,-49.316,-36.133,-38.574,0.000
1709214833.827,-32.227,-50.781,-32.227,-41.016,0.000
1709214833.830,-34.180,-45.410,-28.809,-52.246,0.000
1709214833.834,-37.109,-33.691,-30.762,-48.340,0.000
1709214833.838,-36.621,-41.016,-37.109,-41.504,0.000
1709214833.842,-42.969,-51.758,-36.621,-40.527,0.000
1709214833.846,-45.410,-53.223,-35.156,-41.504,0.000
1709214833.850,-41.504,-41.992,-38.574,-48.828,0.000
1709214833.854,-38.574,-31.738,-34.668,-49.316,0.000
1709214833.858,-37.598,-30.762,-26.367,-41.504,0.000
1709214833.862,-44.922,-39.551,-33.691,-46.387,0.000
1709214833.866,-52.246,-42.969,-41.016,-50.781,0.000
1709214833.870,-57.617,-39.062,-41.992,-50.293,0.000
1709214833.873,-51.758,-38.574,-39.551,-52.734,0.000
1709214833.877,-40.527,-42.480,-40.039,-46.875,0.000
1709214833.881,-36.621,-47.363,-37.109,-34.180,0.000
1709214833.885,-43.457,-46.387,-29.785,-31.250,0.000
1709214833.889,-44.434,-36.133,-38.574,-30.762,0.000
1709214833.893,-38.086,-32.227,-48.828,-35.645,0.000
1709214833.897,-39.551,-43.945,-46.875,-47.363,0.000
1709214833.901,-41.992,-43.457,-41.504,-52.246,0.000
1709214833.905,-41.016,-38.086,-40.039,-50.293,0.000
1709214833.908,-41.504,-42.969,-37.109,-42.969,0.000
1709214833.912,-40.527,-45.410,-34.668,-35.645,0.000
1709214833.916,-33.691,-38.086,-30.273,-38.574,0.000
1709214833.920,-42.969,-43.945,-30.762,-44.922,0.000
1709214833.924,-45.410,-48.828,-29.297,-40.039,0.000
1709214833.928,-40.039,-43.945,-31.738,-42.480,0.000
1709214833.932,-38.574,-46.875,-40.039,-38.086,0.000
1709214833.936,-37.598,-47.852,-40.039,-31.250,0.000
1709214833.940,-40.039,-54.688,-44.434,-49.805,0.000
1709214833.944,-39.062,-51.270,-41.992,-54.199,0.000
1709214833.948,-42.969,-41.016,-33.203,-43.945,0.000
1709214833.951,-48.828,-52.246,-38.086,-41.992,0.000
1709214833.955,-46.387,-56.152,-35.645,-48.340,0.000
1709214833.959,-44.922,-60.547,-34.668,-56.641,0.000
1709214833.963,-41.992,-62.988,-34.180,-51.758,0.000
1709214833.967,-43.457,-51.758,-35.156,-48.828,0.000
1709214833.971,-41.504,-48.828,-38.086,-47.363,0.000
1709214833.975,-33.691,-52.734,-35.645,-48.340,0.000
1709214833.979,-31.738,-44.922,-29.297,-42.969,0.000
1709214833.983,-34.180,-44.922,-36.621,-41.504,0.000
1709214833.986,-41.016,-57.617,-37.598,-50.293,0.000
1709214833.990,-43.945,-50.781,-35.156,-48.828,0.000
1709214833.994,-42.480,-42.969,-46.387,-45.898,0.000
1709214833.998,-39.062,-46.387,-40.039,-46.387,0.000
1709214834.002,-33.691,-46.875,-25.391,-43.945,0.000
1709214834.006,-34.668,-42.969,-31.738,-41.016,0.000
1709214834.010,-37.598,-36.621,-35.645,-36.133,0.000
1709214834.014,-41.504,-37.598,-33.203,-38.086,0.000
1709214834.018,-45.898,-39.551,-38.086,-50.293,0.000
1709214834.021,-43.945,-41.992,-37.598,-59.570,0.000
1709214834.025,-48.340,-47.363,-43.457,-63.477,0.000
1709214834.029,-52.734,-45.898,-46.875,-57.617,0.000
1709214834.033,-55.176,-49.316,-44.922,-54.199,0.000
1709214834.037,-56.641,-52.734,-44.922,-50.781,0.000
1709214834.041,-56.641,-38.574,-49.805,-43.945,0.000
1709214834.045,-56.152,-41.992,-48.340,-52.246,0.000
1709214834.049,-55.176,-48.828,-38.574,-53.711,0.000
1709214834.053,-54.688,-43.945,-37.109,-51.270,0.000
1709214834.057,-58.105,-51.758,-41.992,-52.246,0.000
1709214834.061,-53.223,-58.105,-41.504,-55.664,0.000
1709214834.065,-45.898,-53.711,-42.480,-49.805,0.000
1709214834.068,-46.387,-41.504,-44.922,-45.898,0.000
1709214834.072,-39.062,-27.344,-35.645,-41.504,0.000
1709214834.076,-37.109,-38.086,-39.062,-43.457,0.000
1709214834.080,-33.203,-52.246,-40.527,-47.852,0.000
1709214834.084,-28.320,-42.969,-32.227,-25.879,0.000
1709214834.088,-29.297,-38.574,-31.738,-18.555,0.000
1709214834.092,-24.902,-45.410,-39.062,-24.902,0.000
1709214834.096,-23.926,-42.480,-37.598,-24.902,0.000
1709214834.100,-26.367,-33.203,-29.785,-22.949,0.000
1709214834.104,-22.461,-34.180,-28.320,-24.414,0.000
1709214834.108,-23.438,-45.410,-32.715,-33.691,0.000
1709214834.112,-28.320,-42.969,-34.180,-33.691,0.000
1709214834.115,-22.949,-35.156,-24.414,-30.762,0.000
1709214834.119,-23.926,-31.738,-23.438,-34.668,0.000
1709214834.123,-30.273,-40.527,-28.809,-39.062,0.000
1709214834.127,-24.902,-49.805,-25.391,-25.391,0.000
1709214834.131,-26.855,-37.109,-31.250,-20.020,0.000
1709214834.135,-33.691,-36.621,-33.203,-35.645,0.000
1709214834.139,-37.109,-47.852,-29.785,-38.086,0.000
1709214834.143,-45.410,-52.246,-39.551,-39.551,0.000
1709214834.147,-47.852,-49.805,-36.621,-39.551,0.000
1709214834.151,-44.922,-49.316,-24.902,-38.574,0.000
1709214834.155,-39.551,-53.711,-31.738,-41.992,0.000
1709214834.158,-38.574,-55.176,-39.062,-47.363,0.000
1709214834.162,-47.363,-50.781,-37.598,-53.223,0.000
1709214834.166,-42.480,-40.039,-32.227,-51.270,0.000
1709214834.170,-38.086,-42.480,-41.504,-50.293,0.000
1709214834.174,-41.992,-46.387,-51.270,-51.758,0.000
1709214834.178,-40.039,-39.062,-43.945,-49.316,0.000
1709214834.182,-39.551,-45.410,-39.551,-60.547,0.000
1709214834.186,-29.297,-52.734,-40.039,-49.316,0.000
1709214834.190,-26.367,-49.316,-45.898,-38.086,0.000
1709214834.194,-23.438,-51.758,-43.945,-41.992,0.000
1709214834.198,-13.184,-53.711,-40.039,-33.691,0.000
1709214834.201,-9.766,-42.969,-36.133,-22.461,0.000
1709214834.205,-22.461,-34.180,-38.574,-23.438,0.000
1709214834.209,-28.320,-33.203,-41.016,-28.320,0.000
1709214834.213,-20.996,-31.250,-40.039,-25.879,0.000
1709214834.217,-23.926,-39.062,-43.457,-21.484,0.000
1709214834.221,-29.785,-44.922,-44.922,-22.949,0.000
1709214834.225,-32.715,-39.551,-42.480,-30.762,0.000
1709214834.229,-30.762,-35.156,-38.086,-33.203,0.000
1709214834.233,-29.785,-39.551,-43.457,-37.109,0.000
1709214834.237,-28.809,-40.039,-47.363,-36.621,0.000
1709214834.240,-27.832,-33.691,-47.852,-39.062,0.000
1709214834.244,-35.156,-48.340,-41.992,-43.945,0.000
1709214834.248,-40.527,-63.965,-34.180,-48.828,0.000
1709214834.252,-43.945,-51.270,-34.180,-50.781,0.000
1709214834.256,-42.969,-48.828,-35.645,-50.781,0.000
1709214834.260,-36.133,-56.152,-34.668,-51.270,0.000
1709214834.264,-33.691,-40.527,-35.156,-46.875,0.000
1709214834.268,-38.086,-25.391,-39.551,-49.316,0.000
1709214834.272,-37.109,-24.902,-40.039,-53.711,0.000
1709214834.276,-39.062,-34.180,-42.480,-50.781,0.000
1709214834.280,-50.781,-41.992,-49.316,-60.547,0.000
1709214834.283,-48.828,-35.645,-50.781,-63.965,0.000
1709214834.287,-46.387,-45.410,-55.176,-60.547,0.000
1709214834.291,-55.176,-47.852,-49.805,-63.965,0.000
1709214834.295,-52.246,-34.668,-42.969,-73.242,0.000
1709214834.299,-44.922,-32.715,-38.086,-73.242,0.000
1709214834.303,-48.340,-43.945,-33.203,-64.941,0.000
1709214834.307,-61.035,-53.223,-40.039,-56.641,0.000
1709214834.311,-64.453,-44.922,-48.340,-50.781,0.000
1709214834.315,-55.664,-41.504,-44.922,-57.617,0.000
1709214834.318,-51.270,-44.434,-41.504,-61.523,0.000
1709214834.322,-49.805,-42.969,-42.480,-57.129,0.000
1709214834.326,-46.387,-46.875,-41.992,-51.270,0.000
1709214834.330,-39.062,-50.293,-45.898,-43.457,0.000
1709214834.334,-41.016,-51.270,-42.480,-41.992,0.000
1709214834.338,-36.621,-51.270,-22.949,-41.992,0.000
1709214834.342,-40.527,-47.852,-28.809,-34.180,0.000
1709214834.346,-48.340,-54.688,-39.551,-30.762,0.000
1709214834.350,-43.945,-64.453,-33.691,-29.785,0.000
1709214834.354,-44.922,-67.383,-32.715,-21.973,0.000
1709214834.357,-42.480,-60.547,-33.691,-22.949,0.000
1709214834.361,-42.969,-53.711,-34.668,-33.691,0.000
1709214834.365,-53.223,-51.758,-39.551,-50.293,0.000
1709214834.369,-57.617,-56.641,-43.945,-49.316,0.000
1709214834.373,-51.270,-60.059,-41.992,-39.062,0.000
1709214834.377,-49.316,-50.781,-41.992,-47.852,0.000
1709214834.381,-57.129,-50.781,-56.152,-58.594,0.000
1709214834.385,-53.711,-50.781,-49.805,-56.641,0.000
1709214834.389,-49.316,-52.734,-34.668,-50.781,0.000
1709214834.392,-52.246,-55.664,-34.668,-57.617,0.000
1709214834.396,-44.922,-42.969,-32.715,-49.805,0.000
1709214834.400,-41.504,-32.227,-32.227,-47.852,0.000
1709214834.404,-46.875,-34.180,-30.762,-56.152,0.000
1709214834.408,-47.852,-41.016,-30.273,-53.711,0.000
1709214834.412,-49.316,-49.805,-30.273,-48.828,0.000
1709214834.416,-47.852,-53.711,-39.062,-58.105,0.000
1709214834.420,-45.410,-49.316,-41.504,-67.383,0.000
1709214834.424,-44.434,-42.969,-37.109,-60.547,0.000
1709214834.428,-43.945,-46.875,-44.922,-54.688,0.000
1709214834.432,-37.598,-49.805,-49.316,-47.852,0.000
1709214834.436,-33.691,-40.527,-40.527,-47.363,0.000
1709214834.439,-34.668,-38.086,-35.156,-46.387,0.000
1709214834.443,-35.156,-48.340,-29.785,-42.969,0.000
1709214834.447,-37.598,-48.828,-27.832,-47.363,0.000
1709214834.451,-29.297,-44.922,-34.180,-44.434,0.000
1709214834.455,-27.832,-44.434,-34.180,-41.992,0.000
1709214834.459,-35.156,-44.434,-32.227,-44.922,0.000
1709214834.463,-43.457,-48.340,-33.691,-48.340,0.000
1709214834.467,-47.363,-40.039,-39.551,-41.504,0.000
1709214834.471,-38.574,-36.133,-38.574,-39.062,0.000
1709214834.475,-42.969,-42.480,-36.621,-45.898,0.000
1709214834.479,-44.922,-45.410,-38.086,-49.316,0.000
1709214834.482,-42.969,-41.504,-37.598,-47.363,0.000
1709214834.486,-58.594,-45.410,-40.527,-55.176,0.000
1709214834.490,-58.105,-54.199,-36.621,-46.387,0.000
1709214834.494,-49.805,-51.270,-33.203,-30.273,0.000
1709214834.498,-53.711,-44.922,-40.527,-45.410,0.000
1709214834.502,-60.547,-53.223,-45.898,-45.410,0.000
1709214834.506,-53.223,-51.758,-41.992,-33.691,0.000
1709214834.510,-52.734,-46.387,-45.898,-47.852,0.000
1709214834.514,-51.270,-54.688,-41.992,-51.758,0.000
1709214834.518,-49.316,-58.594,-41.016,-54.199,0.000
1709214834.522,-53.711,-49.805,-56.641,-57.617,0.000
1709214834.525,-54.688,-43.457,-53.223,-54.688,0.000
1709214834.529,-50.781,-45.410,-37.598,-52.734,0.000
1709214834.533,-51.758,-48.340,-38.086,-51.270,0.000
1709214834.537,-50.293,-54.199,-40.039,-53.223,0.000
1709214834.541,-48.828,-61.523,-38.574,-52.734,0.000
1709214834.545,-53.711,-47.852,-39.551,-48.828,0.000
1709214834.549,-59.082,-41.504,-35.156,-40.039,0.000
1709214834.553,-51.758,-47.852,-32.227,-46.875,0.000
1709214834.557,-38.086,-46.387,-25.879,-47.852,0.000
1709214834.561,-33.691,-46.387,-21.973,-42.969,0.000
1709214834.565,-34.668,-49.805,-27.344,-44.922,0.000
1709214834.568,-36.621,-48.828,-34.668,-41.992,0.000
1709214834.572,-41.016,-38.574,-32.715,-41.504,0.000
1709214834.576,-44.922,-38.574,-29.785,-41.504,0.000
1709214834.580,-41.992,-40.039,-37.598,-49.316,0.000
1709214834.584,-36.621,-45.410,-36.133,-49.316,0.000
1709214834.588,-34.180,-45.898,-34.668,-46.875,0.000
1709214834.592,-34.180,-42.969,-43.945,-37.109,0.000
1709214834.596,-33.203,-45.410,-44.922,-22.461,0.000
1709214834.600,-33.691,-41.992,-44.434,-36.133,0.000
1709214834.604,-36.133,-47.363,-48.340,-48.340,0.000
1709214834.607,-32.715,-44.434,-43.457,-37.598,0.000
1709214834.611,-27.832,-34.668,-33.691,-23.926,0.000
1709214834.615,-30.762,-36.133,-39.551,-24.902,0.000
1709214834.619,-34.668,-44.434,-47.363,-40.527,0.000
1709214834.623,-33.203,-52.246,-37.598,-50.781,0.000
1709214834.627,-35.645,-53.711,-38.086,-48.340,0.000
1709214834.631,-37.598,-42.480,-43.945,-45.410,0.000
1709214834.635,-41.016,-34.668,-42.969,-47.363,0.000
1709214834.639,-48.828,-44.922,-42.969,-49.316,0.000
1709214834.643,-46.387,-49.805,-40.527,-51.270,0.000
1709214834.647,-50.781,-41.504,-39.062,-58.594,0.000
1709214834.650,-51.270,-45.898,-36.621,-57.129,0.000
1709214834.654,-41.504,-52.734,-34.668,-50.781,0.000
1709214834.658,-40.527,-47.852,-33.203,-50.781,0.000
1709214834.662,-36.133,-43.945,-33.691,-43.457,0.000
1709214834.666,-40.527,-49.805,-40.527,-49.805,0.000
1709214834.670,-44.434,-39.551,-39.551,-54.199,0.000
1709214834.674,-37.598,-39.551,-37.109,-51.758,0.000
1709214834.678,-44.434,-50.293,-36.621,-54.199,0.000
1709214834.682,-45.898,-48.828,-29.297,-47.363,0.000
1709214834.686,-43.945,-45.898,-30.762,-45.898,0.000
1709214834.689,-39.551,-38.086,-31.250,-47.363,0.000
1709214834.693,-26.855,-35.156,-25.391,-44.434,0.000
1709214834.697,-23.926,-48.340,-33.691,-42.480,0.000
1709214834.701,-15.137,-48.340,-38.574,-43.457,0.000
1709214834.705,-14.160,-27.832,-39.551,-40.527,0.000
1709214834.709,-26.855,-28.320,-44.434,-47.852,0.000
1709214834.713,-16.602,-37.598,-43.945,-41.016,0.000
1709214834.717,-3.906,-39.062,-41.504,-32.715,0.000
1709214834.721,-11.719,-39.551,-36.133,-38.574,0.000
1709214834.724,-16.113,-44.434,-37.109,-34.668,0.000
1709214834.728,-11.719,-35.645,-30.762,-7.812,0.000
1709214834.732,-13.672,-27.832,-21.973,2.441,0.000
1709214834.736,-21.973,-36.133,-29.297,-9.277,0.000
1709214834.740,-31.738,-40.527,-35.156,-15.137,0.000
1709214834.744,-35.645,-44.434,-28.320,-21.484,0.000
1709214834.748,-32.227,-48.828,-26.855,-24.414,0.000
1709214834.752,-24.902,-39.551,-26.367,-25.879,0.000
1709214834.756,-20.996,-37.598,-26.367,-25.879,0.000
1709214834.759,-33.203,-40.039,-30.273,-28.320,0.000
1709214834.763,-46.387,-51.270,-37.109,-39.062,0.000
1709214834.767,-51.270,-57.617,-39.062,-46.875,0.000
1709214834.771,-57.129,-50.781,-40.527,-45.898,0.000
1709214834.775,-49.316,-51.270,-41.016,-46.875,0.000
1709214834.779,-38.086,-54.688,-38.086,-52.734,0.000
1709214834.783,-40.039,-68.359,-33.691,-51.758,0.000
1709214834.787,-44.922,-54.199,-29.297,-48.828,0.000
1709214834.791,-38.574,-28.809,-28.320,-48.340,0.000
1709214834.795,-39.551,-38.086,-30.762,-46.387,0.000
1709214834.799,-43.457,-46.875,-33.203,-45.410,0.000
1709214834.803,-46.387,-49.805,-49.805,-54.688,0.000
1709214834.806,-56.152,-57.129,-55.176,-56.641,0.000
1709214834.810,-52.246,-60.547,-38.086,-50.293,0.000
1709214834.814,-51.758,-59.570,-38.574,-53.711,0.000
1709214834.818,-51.270,-56.152,-41.504,-60.547,0.000
1709214834.822,-33.203,-42.480,-27.832,-51.758,0.000
1709214834.826,-30.273,-46.875,-18.555,-35.156,0.000
1709214834.830,-33.203,-55.664,-24.902,-28.809,0.000
1709214834.834,-28.809,-35.156,-32.715,-25.879,0.000
1709214834.838,-23.926,-27.344,-34.180,-32.715,0.000
1709214834.842,-19.531,-30.273,-30.273,-39.062,0.000
1709214834.846,-32.715,-39.062,-33.203,-41.504,0.000
1709214834.850,-37.598,-39.551,-28.809,-43.457,0.000
1709214834.853,-38.574,-32.715,-38.086,-45.898,0.000
1709214834.857,-36.133,-40.527,-41.992,-45.898,0.000
1709214834.861,-25.391,-42.480,-28.320,-40.527,0.000
1709214834.865,-27.344,-45.898,-31.738,-38.574,0.000
1709214834.869,-31.250,-47.852,-30.762,-28.320,0.000
1709214834.873,-28.809,-31.738,-36.133,-21.484,0.000
1709214834.877,-27.832,-29.785,-37.598,-17.090,0.000
1709214834.881,-29.297,-47.363,-34.180,-27.832,0.000
1709214834.885,-31.738,-44.922,-28.809,-35.156,0.000
1709214834.889,-31.250,-39.062,-26.367,-23.926,0.000
1709214834.893,-29.297,-48.828,-31.250,-27.832,0.000
1709214834.896,-32.227,-49.316,-37.598,-32.715,0.000
1709214834.900,-29.297,-52.734,-31.738,-38.086,0.000
1709214834.904,-34.180,-58.594,-29.785,-37.598,0.000
1709214834.908,-37.598,-46.875,-30.273,-41.016,0.000
1709214834.912,-35.156,-40.527,-21.484,-53.711,0.000
1709214834.916,-40.039,-44.434,-25.391,-54.688,0.000
1709214834.920,-44.922,-45.410,-31.738,-60.059,0.000
1709214834.924,-38.086,-43.457,-28.320,-53.711,0.000
1709214834.928,-38.086,-49.316,-26.855,-54.199,0.000
1709214834.932,-42.480,-49.316,-29.297,-55.176,0.000
1709214834.935,-31.738,-40.039,-36.133,-47.852,0.000
1709214834.939,0.000,-44.922,-41.504,-52.246,0.000
1709214834.943,0.000,-45.898,-41.504,-53.711,0.000
1709214834.947,0.000,-30.273,-42.969,-49.316,0.000
1709214834.951,0.000,-33.691,-40.527,-50.293,0.000
1709214834.955,0.000,-44.434,-26.855,-51.270,0.000
1709214834.959,0.000,-54.199,-26.367,-56.152,0.000
1709214834.963,0.000,-58.594,-34.180,-56.152,0.000
1709214834.967,0.000,-55.176,-40.527,-38.574,0.000
1709214834.971,0.000,-53.711,-40.039,-35.645,0.000
1709214834.975,0.000,-47.852,-39.551,-48.828,0.000
1709214834.978,0.000,-42.969,-42.969,-45.898,0.000
1709214834.982,0.000,-40.039,-41.504,-43.945,0.000
1709214834.986,-38.086,-36.133,-40.039,-55.176,0.000
1709214834.990,-43.945,-37.598,-33.691,-47.363,0.000
1709214834.994,-41.504,-40.039,-39.062,-38.574,0.000
1709214834.998,-38.574,-46.387,-47.852,-45.410,0.000
1709214835.002,-44.922,-55.176,-38.574,-51.270,0.000
1709214835.006,-46.387,-56.641,-35.645,-46.875,0.000
1709214835.010,-44.434,-48.340,-46.875,-47.852,0.000
1709214835.014,-54.688,-45.898,-50.293,-43.457,0.000
1709214835.017,-48.340,-41.504,-41.504,-38.086,0.000
1709214835.021,-46.387,-37.598,-43.457,-42.480,0.000
1709214835.025,-58.105,-48.828,-43.945,-44.922,0.000
1709214835.029,-54.199,-46.875,-30.273,-39.551,0.000
1709214835.033,-51.270,-49.805,-30.762,-35.156,0.000
1709214835.037,-53.223,-53.223,-34.668,-37.109,0.000
1709214835.041,-49.805,-49.316,-35.156,-47.852,0.000
1709214835.045,-49.316,-48.340,-43.945,-48.340,0.000
1709214835.049,-50.781,-52.246,-40.527,-38.574,0.000
1709214835.053,-40.527,-54.688,-29.297,-36.621,0.000
1709214835.056,-39.551,-51.270,-30.273,-29.297,0.000
1709214835.060,-49.805,-53.223,-33.203,-30.273,0.000
1709214835.064,-49.805,-47.852,-31.738,-37.109,0.000
1709214835.068,-43.457,-46.387,-36.133,-39.062,0.000
1709214835.072,-41.992,-53.223,-42.480,-43.945,0.000
1709214835.076,-37.109,-47.363,-40.527,-45.898,0.000
1709214835.080,-23.438,-35.156,-30.762,-37.109,0.000
1709214835.084,-35.156,-43.945,-31.250,-40.527,0.000
1709214835.088,-46.387,-54.199,-42.480,-47.852,0.000
1709214835.091,-35.645,-56.152,-40.527,-39.551,0.000
1709214835.095,-25.879,-57.617,-34.668,-37.598,0.000
1709214835.099,-29.785,-45.898,-31.250,-42.969,0.000
1709214835.103,-41.504,-46.387,-30.273,-41.016,0.000
1709214835.107,-39.551,-42.480,-32.715,-37.109,0.000
1709214835.111,-32.715,-35.645,-42.969,-44.434,0.000
1709214835.115,-29.297,-36.621,-43.945,-41.016,0.000
1709214835.119,-28.809,-41.992,-35.645,-40.527,0.000
1709214835.123,-37.109,-39.551,-42.480,-45.410,0.000
1709214835.127,-47.363,-43.457,-49.805,-41.992,0.000
1709214835.131,-41.992,-49.805,-36.133,-35.645,0.000
1709214835.135,-38.574,-52.246,-22.949,-38.574,0.000
1709214835.139,-41.992,-61.035,-24.902,-46.875,0.000
1709214835.142,-47.852,-62.012,-35.645,-54.199,0.000
1709214835.146,-57.617,-47.852,-48.340,-54.688,0.000
1709214835.150,-66.406,-39.551,-45.410,-59.570,0.000
1709214835.154,-58.105,-44.434,-42.480,-65.918,0.000
1709214835.158,-45.410,-46.387,-49.316,-59.082,0.000
1709214835.162,-44.922,-46.875,-48.340,-44.922,0.000
1709214835.166,-48.828,-52.246,-41.016,-46.387,0.000
1709214835.170,-47.363,-45.898,-38.086,-53.711,0.000
1709214835.174,-40.527,-37.598,-37.109,-49.805,0.000
1709214835.178,-37.598,-47.852,-39.551,-51.758,0.000
1709214835.182,-42.480,-61.523,-36.621,-50.781,0.000
1709214835.186,-54.688,-60.547,-37.598,-46.875,0.000
1709214835.189,-56.152,-57.617,-42.969,-44.434,0.000
1709214835.193,-42.480,-55.664,-37.109,-33.691,0.000
1709214835.197,-33.203,-45.410,-31.250,-32.715,0.000
1709214835.201,-36.621,-44.922,-27.344,-43.945,0.000
1709214835.205,-39.551,-51.758,-35.156,-45.410,0.000
1709214835.209,-33.203,-47.363,-34.180,-31.250,0.000
1709214835.213,-30.762,-43.457,-30.273,-41.504,0.000
1709214835.217,-26.367,-47.852,-38.086,-49.805,0.000
1709214835.221,-15.137,-42.480,-26.367,-37.109,0.000
1709214835.225,-18.066,-34.668,-25.879,-42.480,0.000
1709214835.229,-27.832,-41.016,-44.922,-50.781,0.000
1709214835.233,-26.855,-46.387,-43.945,-44.434,0.000
1709214835.236,-21.484,-45.898,-38.574,-41.016,0.000
1709214835.240,-22.949,-44.922,-41.504,-51.270,0.000
1709214835.244,-26.367,-46.875,-46.387,-55.176,0.000
1709214835.248,-29.297,-54.688,-45.898,-50.781,0.000
1709214835.252,-27.344,-54.688,-40.527,-37.109,0.000
1709214835.256,-24.902,-43.945,-42.480,-28.320,0.000
1709214835.260,-31.738,-43.945,-33.691,-45.410,0.000
1709214835.264,-40.527,-48.828,-35.645,-51.270,0.000
1709214835.268,-40.039,-47.363,-45.410,-44.434,0.000
1709214835.272,-31.250,-49.316,-40.527,-41.504,0.000
1709214835.276,-33.203,-50.293,-35.645,-40.039,0.000
1709214835.279,-43.457,-59.082,-41.016,-42.480,0.000
1709214835.283,-49.316,-57.617,-44.434,-42.969,0.000
1709214835.287,-51.758,-50.293,-39.551,-45.898,0.000
1709214835.291,-56.152,-51.758,-41.016,-49.316,0.000
1709214835.295,-62.500,-56.641,-44.922,-53.711,0.000
1709214835.299,-54.688,-57.129,-30.762,-44.434,0.000
1709214835.303,-53.711,-48.340,-30.273,-43.945,0.000
1709214835.307,-61.523,-52.246,-43.457,-50.781,0.000
1709214835.311,-62.012,-53.223,-37.598,-43.457,0.000
1709214835.315,-61.035,-50.293,0.000,0.000,0.000
1709214835.319,-58.594,-41.992,0.000,0.000,0.000
1709214835.322,-47.363,-36.133,0.000,0.000,0.000
1709214835.326,-41.504,-60.547,0.000,0.000,0.000
1709214835.330,-41.504,-65.918,0.000,0.000,0.000
1709214835.334,-33.691,-44.922,0.000,0.000,0.000
1709214835.338,-33.691,-40.527,0.000,0.000,0.000
1709214835.342,-37.598,-55.176,0.000,0.000,0.000
1709214835.346,-38.574,-64.941,0.000,0.000,0.000
1709214835.350,-36.133,-37.109,0.000,0.000,0.000
1709214835.354,-20.508,-24.414,0.000,0.000,0.000
1709214835.358,-17.578,-39.062,0.000,0.000,0.000
1709214835.362,-32.715,-32.715,-29.785,-30.273,0.000
1709214835.365,-31.250,-27.344,-22.949,-28.320,0.000
1709214835.369,-34.180,-41.016,-31.250,-28.809,0.000
1709214835.373,-41.016,-44.922,-45.898,-28.809,0.000
1709214835.377,-35.645,-39.062,-44.922,-43.945,0.000
1709214835.381,-38.574,-47.852,-40.039,-56.152,0.000
1709214835.385,-33.203,-45.898,-32.715,-49.316,0.000
1709214835.389,-26.367,-48.340,-37.109,-34.668,0.000
1709214835.393,-24.414,-50.293,-42.969,-30.273,0.000
1709214835.397,-12.207,-27.344,-34.668,-33.203,0.000
1709214835.401,-12.695,-23.438,-31.250,-35.156,0.000
1709214835.404,-23.438,-35.156,-32.227,-33.691,0.000
1709214835.408,-21.484,-56.641,-30.273,-24.414,0.000
1709214835.412,-23.438,-64.941,-39.551,-26.855,0.000
1709214835.416,-35.156,-41.992,-45.898,-40.527,0.000
1709214835.420,-40.039,-31.738,-41.504,-59.082,0.000
1709214835.424,-41.504,-36.621,-40.527,-66.406,0.000
1709214835.428,-45.898,-44.922,-41.016,-66.406,0.000
1709214835.432,-53.223,-52.734,-48.828,-72.266,0.000
1709214835.436,-51.758,-51.270,-51.758,-78.125,0.000
1709214835.440,-47.852,-54.199,-41.504,-78.125,0.000
1709214835.443,-58.105,-48.828,-40.039,-73.730,0.000
1709214835.447,-58.105,-41.504,-28.320,-63.477,0.000
1709214835.451,-51.758,-45.898,-21.484,-57.129,0.000
1709214835.455,-58.105,-48.340,-37.109,-71.289,0.000
1709214835.459,-56.152,-46.875,-43.457,-70.801,0.000
1709214835.463,-50.781,-44.922,-46.387,-62.012,0.000
1709214835.467,-47.852,-41.992,-45.898,-60.059,0.000
1709214835.471,-45.898,-46.875,-38.086,-52.734,0.000
1709214835.475,-42.969,-62.500,-44.434,-46.387,0.000
1709214835.478,-42.480,-62.500,-47.852,-37.109,0.000
1709214835.482,-43.457,-42.480,-38.574,-38.574,0.000
1709214835.486,-41.992,-40.039,-37.109,-43.457,0.000
1709214835.490,-41.016,-54.688,-40.527,-33.203,0.000
1709214835.494,-32.227,-59.082,-40.039,-28.809,0.000
1709214835.498,-29.297,-47.363,-42.969,-33.691,0.000
1709214835.502,-29.785,-38.086,-45.898,-31.250,0.000
1709214835.506,-24.902,-39.062,-42.480,-22.949,0.000
1709214835.510,-33.203,-46.875,-39.551,-29.785,0.000
1709214835.514,-34.180,-57.129,-40.527,-31.738,0.000
1709214835.517,-27.344,-52.246,-38.574,-34.180,0.000
1709214835.521,-24.902,-36.621,-35.156,-34.180,0.000
1709214835.525,-30.273,-37.598,-39.551,-37.109,0.000
1709214835.529,-37.598,-47.852,-35.645,-46.387,0.000
1709214835.533,-34.180,-54.688,-35.645,-49.805,0.000
1709214835.537,-26.855,-51.270,-38.574,-44.922,0.000
1709214835.541,-34.180,-47.363,-38.086,-47.852,0.000
1709214835.545,-39.551,-48.828,-40.039,-57.617,0.000
1709214835.549,-40.527,-43.945,-32.227,-48.828,0.000
1709214835.553,-38.086,-45.410,-25.391,-46.875,0.000
1709214835.557,-32.715,-44.922,-28.809,-46.387,0.000
1709214835.561,-29.297,-45.898,-34.668,-50.781,0.000
1709214835.564,-29.785,-45.410,-38.574,-52.246,0.000
1709214835.568,-33.691,-38.086,-45.898,-47.852,0.000
1709214835.572,-25.879,-33.691,-44.922,-43.457,0.000
1709214835.576,-20.020,-32.715,-35.156,-49.316,0.000
1709214835.580,-21.973,-44.434,-35.645,-54.688,0.000
1709214835.584,-24.902,-58.105,-34.668,-38.574,0.000
1709214835.588,-25.879,-58.105,-34.180,-39.062,0.000
1709214835.592,-30.762,-43.945,-39.551,-45.410,0.000
1709214835.596,-35.156,-41.992,-45.898,-49.805,0.000
1709214835.600,-35.156,-39.551,-45.410,-57.129,0.000
1709214835.604,-32.715,-33.203,-37.109,-61.523,0.000
1709214835.607,-34.180,-38.086,-37.598,-61.523,0.000
1709214835.611,-29.297,-42.969,-48.340,-55.176,0.000
1709214835.615,-26.367,-52.246,-49.805,-47.852,0.000
1709214835.619,-33.691,-53.223,-50.781,-48.828,0.000
1709214835.623,-34.180,-60.547,-51.758,-48.828,0.000
1709214835.627,-34.180,-60.059,-43.457,-30.273,0.000
1709214835.631,-42.480,-40.527,-48.340,-23.926,0.000
1709214835.635,-29.297,-39.062,-49.805,-27.832,0.000
1709214835.639,-13.184,-42.969,-37.598,-24.902,0.000
1709214835.643,-23.438,-29.785,-38.086,-29.297,0.000
1709214835.647,-37.109,-28.809,-49.805,-39.551,0.000
1709214835.650,-34.668,-42.480,-51.270,-40.039,0.000
1709214835.654,-30.273,-50.781,-53.223,-38.574,0.000
1709214835.658,-30.762,-48.340,-53.223,-45.898,0.000
1709214835.662,-29.785,-47.852,-40.527,-43.457,0.000
1709214835.666,-40.039,-55.664,-32.715,-44.922,0.000
1709214835.670,-40.527,-45.898,-30.762,-40.527,0.000
1709214835.674,-34.180,-41.504,-36.133,-31.738,0.000
1709214835.678,-36.133,-44.434,-39.551,-41.992,0.000
1709214835.682,-41.504,-39.551,-36.133,-47.852,0.000
1709214835.686,-43.945,-38.086,-34.668,-47.363,0.000
1709214835.690,-40.039,-41.016,-37.598,-50.293,0.000
1709214835.693,-42.969,-43.457,-40.039,-58.594,0.000
1709214835.697,-44.434,-39.062,-33.691,-61.523,0.000
1709214835.701,-43.457,-37.109,-32.227,-54.688,0.000
1709214835.705,-54.199,-49.316,-41.016,-56.152,0.000
1709214835.709,-55.664,-62.988,-45.410,-62.500,0.000
1709214835.713,-47.363,-58.105,-51.270,-61.523,0.000
1709214835.717,-33.203,-50.293,-42.480,-48.828,0.000
1709214835.721,-36.621,-53.711,-37.109,-45.898,0.000
1709214835.725,-36.133,-46.387,-43.457,-48.828,0.000
1709214835.729,-25.391,-35.645,-32.715,-32.227,0.000
1709214835.733,-29.785,-39.551,-26.855,-26.367,0.000
1709214835.736,-35.645,-47.363,-32.715,-33.203,0.000
1709214835.740,-35.645,-51.758,-35.156,-31.738,0.000
1709214835.744,-34.668,-55.176,-42.969,-29.785,0.000
1709214835.748,-31.738,-53.223,-42.480,-26.855,0.000
1709214835.752,-33.691,-67.383,-34.180,-21.973,0.000
1709214835.756,-28.320,-60.059,-32.227,-15.625,0.000
1709214835.760,-32.715,-48.340,-36.621,-19.531,0.000
1709214835.764,-47.363,-53.711,-31.250,-24.902,0.000
1709214835.768,-47.363,-40.527,-32.227,-30.762,0.000
1709214835.772,-41.992,-43.457,-42.969,-39.551,0.000
1709214835.775,-45.898,-51.270,-44.434,-41.992,0.000
1709214835.779,-51.270,-50.781,-47.852,-52.246,0.000
1709214835.783,-50.293,-54.688,-48.340,-59.082,0.000
1709214835.787,-48.828,-42.480,-36.133,-44.434,0.000
1709214835.791,-54.199,-42.480,-29.297,-33.691,0.000
1709214835.795,-51.270,-52.734,-36.133,-37.109,0.000
1709214835.799,-44.434,-44.922,-36.133,-42.969,0.000
1709214835.803,-45.410,-49.316,-34.180,-46.387,0.000
1709214835.807,-43.945,-55.176,-38.086,-45.410,0.000
1709214835.811,-42.480,-50.781,-34.180,-47.852,0.000
1709214835.814,-36.621,-44.434,-30.762,-49.805,0.000
1709214835.818,-31.738,-39.062,-34.668,-52.246,0.000
1709214835.822,-38.574,-37.598,-41.504,-59.570,0.000
1709214835.826,-44.434,-41.992,-45.898,-56.641,0.000
1709214835.830,-51.270,-44.434,-45.410,-58.105,0.000
1709214835.834,-43.457,-40.039,-41.504,-56.152,0.000
1709214835.838,-35.156,-45.410,-41.992,-50.781,0.000
1709214835.842,-36.621,-41.504,-42.480,-43.457,0.000
1709214835.846,-38.574,-38.086,-47.363,-42.969,0.000
1709214835.849,-32.715,-43.457,-37.598,-40.039,0.000
1709214835.853,-26.367,-47.852,-37.598,-34.180,0.000
1709214835.857,-29.297,-44.434,-59.082,-34.180,0.000
1709214835.861,-39.062,-42.480,-50.293,-36.133,0.000
1709214835.865,-42.480,-42.969,-36.133,-33.203,0.000
1709214835.869,-31.738,-39.551,-31.738,-24.902,0.000
1709214835.873,-25.391,-36.133,-33.691,-26.855,0.000
1709214835.877,-22.949,-31.250,-33.691,-30.273,0.000
1709214835.881,-26.367,-35.156,-32.715,-26.855,0.000
1709214835.884,-28.809,-53.711,-33.203,-35.645,0.000
1709214835.888,-26.855,-55.664,-29.297,-42.480,0.000
1709214835.892,-27.832,-41.504,-28.320,-36.621,0.000
1709214835.896,-31.250,-37.598,-31.738,-29.785,0.000
1709214835.900,-33.691,-37.109,-32.227,-31.738,0.000
1709214835.904,-33.691,-30.762,-39.551,-36.621,0.000
1709214835.908,-26.367,-27.832,-38.086,-29.785,0.000
1709214835.912,-28.320,-36.133,-34.180,-25.879,0.000
1709214835.916,-37.598,-43.457,-42.480,-37.598,0.000
1709214835.920,-37.109,-44.434,-40.527,-45.898,0.000
1709214835.924,-38.086,-46.387,-40.039,-38.574,0.000
1709214835.928,-31.738,-43.457,-38.086,-34.668,0.000
1709214835.931,-27.832,-36.621,-43.945,-40.527,0.000
1709214835.935,-26.855,-32.715,-46.387,-32.715,0.000
1709214835.939,-24.414,-38.086,-37.598,-26.367,0.000
1709214835.943,-28.320,-43.945,-38.574,-38.574,0.000
1709214835.947,-37.598,-44.922,-43.945,-44.922,0.000
1709214835.951,-45.410,-45.410,-45.898,-42.480,0.000
1709214835.955,-47.363,-44.922,-50.781,-42.969,0.000
1709214835.959,-46.387,-50.293,-49.805,-44.922,0.000
1709214835.963,-46.875,-52.246,-39.062,-48.340,0.000
1709214835.967,-50.293,-46.387,-31.738,-53.711,0.000
1709214835.971,-42.480,-41.992,-34.180,-48.340,0.000
1709214835.975,-33.691,-46.875,-37.598,-42.480,0.000
1709214835.978,-36.133,-51.758,-33.691,-47.363,0.000
1709214835.982,-37.109,-51.270,-38.086,-50.293,0.000
1709214835.986,-38.086,-54.688,-41.992,-48.340,0.000
1709214835.990,-44.434,-50.781,-35.645,-45.410,0.000
1709214835.994,-47.363,-43.945,-35.156,-43.945,0.000
1709214835.998,-40.039,-41.992,-29.297,-53.223,0.000
1709214836.002,-29.785,-44.434,-27.344,-34.180,0.000
1709214836.006,-35.645,-39.551,-38.574,-21.484,0.000
1709214836.010,-47.852,-33.203,-27.832,-41.016,0.000
1709214836.014,-44.922,-43.945,-20.020,-40.527,0.000
1709214836.018,-36.133,-49.805,-24.902,-28.320,0.000
1709214836.022,-32.227,-51.270,-28.809,-30.273,0.000
1709214836.025,-37.109,-50.293,-38.086,-42.480,0.000
1709214836.029,-38.086,-40.039,-31.250,-40.039,0.000
1709214836.033,-32.227,-35.645,-25.879,-30.273,0.000
1709214836.037,-25.391,-42.480,-28.320,-33.203,0.000
1709214836.041,-37.109,-50.781,-29.785,-47.852,0.000
1709214836.045,-52.246,-46.387,-36.621,-53.223,0.000
1709214836.049,-48.828,-45.410,-39.551,-39.551,0.000
1709214836.053,-46.387,-52.246,-45.898,-40.039,0.000
1709214836.057,-48.340,-49.805,-52.734,-48.828,0.000
1709214836.061,-47.363,-45.898,-42.969,-52.246,0.000
1709214836.065,-43.945,-41.504,-27.832,-45.410,0.000
1709214836.068,-41.992,-36.133,-25.879,-39.551,0.000
1709214836.072,-38.574,-42.969,-31.250,-44.434,0.000
1709214836.076,-39.062,-41.504,-35.156,-55.176,0.000
1709214836.080,-37.109,-41.016,-40.527,-60.547,0.000
1709214836.084,-34.180,-41.992,-33.203,-55.664,0.000
1709214836.088,-35.645,-42.480,-31.738,-54.199,0.000
1709214836.092,-36.621,-43.457,-40.527,-49.805,0.000
1709214836.096,-31.738,-33.691,-44.922,-45.410,0.000
1709214836.100,-24.902,-36.133,-51.270,-63.477,0.000
1709214836.104,-28.320,-55.176,-54.199,-80.078,0.000
1709214836.107,-30.762,-50.293,-41.504,-70.312,0.000
1709214836.111,-32.227,-39.551,-35.156,-56.152,0.000
1709214836.115,-41.992,-42.969,-39.062,-56.152,0.000
1709214836.119,-44.434,-41.992,-39.062,-57.129,0.000
1709214836.123,-39.551,-47.363,-34.180,-49.805,0.000
1709214836.127,-48.828,-54.688,-32.227,-48.340,0.000
1709214836.131,-52.246,-51.270,-34.180,-43.945,0.000
1709214836.135,-47.363,-48.340,-30.762,-38.574,0.000
1709214836.139,-49.805,-52.734,-29.297,-35.645,0.000
1709214836.143,-47.852,-52.246,-32.715,-34.668,0.000
1709214836.146,-42.480,-61.035,-41.016,-38.086,0.000
1709214836.150,-41.504,-56.641,-36.621,-34.668,0.000
1709214836.154,-36.133,-33.203,-28.809,-27.832,0.000
1709214836.158,-32.715,-36.621,-34.180,-26.367,0.000
1709214836.162,-34.180,-37.598,-33.691,-35.156,0.000
1709214836.166,-39.551,-36.621,-38.086,-46.387,0.000
1709214836.170,-43.457,-47.852,-49.805,-52.246,0.000
1709214836.174,-41.504,-44.922,-45.410,-47.852,0.000
1709214836.178,-38.574,-45.410,-40.039,-43.457,0.000
1709214836.182,-40.527,-45.410,-40.527,-37.598,0.000
1709214836.185,-44.434,-44.922,-40.527,-36.621,0.000
1709214836.189,-43.457,-51.758,-35.156,-44.922,0.000
1709214836.193,-37.598,-57.129,-33.691,-39.551,0.000
1709214836.197,-36.133,-47.852,-38.086,-37.598,0.000
1709214836.201,-37.598,-41.992,-34.180,-52.246,0.000
1709214836.205,-45.410,-41.992,-36.621,-64.941,0.000
1709214836.209,-50.293,-41.992,-39.062,-63.965,0.000
1709214836.213,-47.363,-43.457,-39.551,-67.383,0.000
1709214836.217,-42.480,-44.922,-44.434,-69.336,0.000
1709214836.221,-41.504,-44.922,-38.086,-66.406,0.000
1709214836.224,-52.246,-50.781,-37.109,-71.777,0.000
1709214836.228,-48.828,-59.570,-42.480,-59.082,0.000
1709214836.232,-40.039,-52.246,-39.062,-46.875,0.000
1709214836.236,-42.480,-62.012,-45.410,-63.965,0.000
1709214836.240,-43.457,-62.012,-49.805,-69.336,0.000
1709214836.244,-45.898,-39.551,-39.062,-65.430,0.000
1709214836.248,-43.945,-36.133,-41.992,-64.941,0.000
1709214836.252,-38.086,-40.039,-44.922,-58.594,0.000
1709214836.256,-38.086,-41.504,-31.250,-52.246,0.000
1709214836.260,-35.156,-48.340,-23.438,-45.410,0.000
1709214836.264,-35.156,-46.875,-26.855,-41.016,0.000
1709214836.267,-42.969,-43.457,-31.250,-38.086,0.000
1709214836.271,-48.340,-57.617,-36.133,-31.738,0.000
1709214836.275,-38.574,-60.059,-35.156,-25.391,0.000
1709214836.279,-34.180,-54.688,-38.086,-27.344,0.000
1709214836.283,-28.320,-45.898,-41.504,-31.738,0.000
1709214836.287,-22.949,-40.039,-36.133,-34.668,0.000
1709214836.291,-19.531,-41.992,-33.691,-28.809,0.000
1709214836.295,-16.602,-37.598,-33.691,-24.902,0.000
1709214836.299,-18.555,-31.738,-28.809,-20.508,0.000
1709214836.303,-20.996,-38.086,-31.738,-22.949,0.000
1709214836.307,-19.531,-45.898,-32.715,-28.809,0.000
1709214836.311,-17.578,-46.875,-39.551,-31.250,0.000
1709214836.314,-23.438,-51.758,-48.340,-44.922,0.000
1709214836.318,-27.832,-45.410,-44.922,-47.852,0.000
1709214836.322,-29.297,-29.297,-43.945,-43.945,0.000
1709214836.326,-26.855,-31.250,-44.434,-41.504,0.000
1709214836.330,-32.715,-42.480,-49.805,-35.156,0.000
1709214836.334,-37.109,-46.387,-50.781,-36.621,0.000
1709214836.338,-37.109,-51.270,-45.898,-55.176,0.000
1709214836.342,-41.992,-47.363,-44.434,-62.012,0.000
1709214836.346,-46.875,-50.293,-41.016,-63.477,0.000
1709214836.350,-46.387,-51.270,-41.016,-67.383,0.000
1709214836.354,-41.016,-47.852,-35.156,-60.059,0.000
1709214836.358,-41.016,-44.434,-27.344,-65.430,0.000
1709214836.361,-46.387,-36.133,-35.156,-66.406,0.000
1709214836.365,-49.805,-39.062,-40.527,-64.453,0.000
1709214836.369,-47.852,-45.898,-40.527,-63.477,0.000
1709214836.373,-47.852,-40.039,-37.109,-55.176,0.000
1709214836.377,-50.293,-44.434,-28.809,-41.992,0.000
1709214836.381,-55.664,-54.199,-33.203,-44.434,0.000
1709214836.385,-55.664,-52.246,-34.180,-56.641,0.000
1709214836.389,-49.316,-45.410,-27.344,-46.387,0.000
1709214836.393,-42.969,-40.039,-28.320,-39.551,0.000
1709214836.397,-36.621,-51.758,-31.250,-37.109,0.000
1709214836.401,-45.410,-58.594,-33.203,-41.504,0.000
1709214836.404,-44.434,-42.480,-34.668,-36.133,0.000
1709214836.408,-41.992,-43.945,-35.645,-24.414,0.000
1709214836.412,-43.945,-43.457,-31.738,-23.438,0.000
1709214836.416,-36.133,-41.992,-41.016,-27.832,0.000
1709214836.420,-26.367,-48.828,-43.945,-32.715,0.000
1709214836.424,-25.879,-41.016,-20.996,-11.230,0.000
1709214836.428,-34.668,-37.598,-20.996,-13.672,0.000
1709214836.432,-27.832,-37.109,-30.273,-12.695,0.000
1709214836.436,-20.996,-41.992,-25.391,-11.719,0.000
1709214836.440,-26.855,-46.875,-26.367,-32.227,0.000
1709214836.443,-26.855,-42.969,-27.344,-30.273,0.000
1709214836.447,-26.855,-32.715,-25.879,-23.926,0.000
1709214836.451,-32.227,-29.785,-33.691,-24.902,0.000
1709214836.455,-33.203,-31.738,-42.480,-24.902,0.000
1709214836.459,-33.203,-32.715,-38.574,-27.832,0.000
1709214836.463,-39.551,-42.969,-33.691,-40.039,0.000
1709214836.467,-38.086,-44.434,-33.203,-32.227,0.000
1709214836.471,-37.109,-41.504,-41.504,-26.855,0.000
1709214836.475,-36.621,-45.410,-42.969,-43.457,0.000
1709214836.479,-32.715,-56.641,-28.320,-39.062,0.000
1709214836.483,-30.762,-59.570,-22.949,-38.574,0.000
1709214836.486,-33.203,-42.480,-32.715,-43.457,0.000
1709214836.490,-42.480,-42.480,-31.250,-54.688,0.000
1709214836.494,-46.387,-49.316,-31.738,-57.617,0.000
1709214836.498,-48.340,-47.852,-39.062,-51.758,0.000
1709214836.502,-48.828,-47.852,-41.016,-60.547,0.000
1709214836.506,-53.223,-50.781,-40.039,-62.988,0.000
1709214836.510,-57.617,-53.223,-37.109,-52.734,0.000
1709214836.514,-55.664,-53.223,-37.598,-40.527,0.000
1709214836.518,-46.875,-52.246,-41.016,-48.828,0.000
1709214836.522,-44.434,-50.293,-38.574,-59.082,0.000
1709214836.525,-51.758,-61.523,-30.273,-53.223,0.000
1709214836.529,-49.805,-53.223,-27.344,-47.363,0.000
1709214836.533,-47.852,-44.434,-31.250,-45.898,0.000
1709214836.537,-48.340,-46.875,-36.133,-44.434,0.000
1709214836.541,-54.199,-44.434,-45.898,-45.410,0.000
1709214836.545,-53.223,-42.969,-41.504,-43.945,0.000
1709214836.549,-42.969,-42.480,-29.297,-37.109,0.000
1709214836.553,-41.016,-48.340,-32.227,-33.691,0.000
1709214836.557,-39.062,-55.176,-40.039,-29.297,0.000
1709214836.561,-43.457,-54.199,-50.781,-34.668,0.000
1709214836.564,-47.363,-45.898,-57.617,-44.434,0.000
1709214836.568,-37.598,-49.805,-46.387,-44.434,0.000
1709214836.572,-32.227,-48.340,-42.480,-40.527,0.000
1709214836.576,-32.227,-40.039,-50.293,-39.551,0.000
1709214836.580,-33.691,-38.574,-40.527,-45.410,0.000
1709214836.584,-42.480,-46.387,-40.527,-54.199,0.000
1709214836.588,-45.898,-41.992,-42.969,-58.594,0.000
1709214836.592,-31.738,-38.086,-34.180,-51.758,0.000
1709214836.596,-24.902,-43.457,-37.598,-50.293,0.000
1709214836.600,-27.832,-37.598,-38.574,-47.363,0.000
1709214836.603,-34.180,-39.551,-42.480,-39.062,0.000
1709214836.607,-33.691,-45.410,-38.574,-32.227,0.000
1709214836.611,-29.297,-46.875,-36.621,-32.715,0.000
1709214836.615,-33.691,-44.922,-42.969,-36.621,0.000
1709214836.619,-33.203,-46.875,-39.551,-41.016,0.000
1709214836.623,-32.227,-48.828,-40.527,-46.875,0.000
1709214836.627,-33.203,-54.199,-35.645,-38.574,0.000
1709214836.631,-41.016,-60.059,-26.367,-47.852,0.000
1709214836.635,-49.805,-63.477,-30.762,-66.406,0.000
1709214836.638,-43.945,-57.617,-34.668,-62.500,0.000
1709214836.642,-44.434,-40.527,-29.297,-51.758,0.000
1709214836.646,-53.711,-38.574,-27.832,-42.969,0.000
1709214836.650,-53.711,-48.340,-33.691,-41.992,0.000
1709214836.654,-46.387,-46.387,-38.574,-45.410,0.000
1709214836.658,-39.062,-49.805,-39.062,-35.156,0.000
1709214836.662,-38.574,-62.988,-41.992,-29.785,0.000
1709214836.666,-41.504,-52.734,-42.480,-31.250,0.000
1709214836.670,-42.969,-46.875,-45.898,-29.785,0.000
1709214836.674,-41.016,-54.199,-41.992,-28.809,0.000
1709214836.678,-38.086,-59.570,-26.855,-27.832,0.000
1709214836.682,-43.457,-58.105,-30.273,-27.344,0.000
1709214836.685,-52.734,-49.316,-35.645,-39.551,0.000
1709214836.689,-54.199,-50.293,-37.598,-45.898,0.000
1709214836.693,-43.457,-50.781,-41.504,-38.574,0.000
1709214836.697,-32.227,-41.992,-42.969,-32.227,0.000
1709214836.701,-38.086,-37.598,-41.992,-47.363,0.000
1709214836.705,-41.992,-43.457,-43.945,-54.199,0.000
1709214836.709,-31.250,-48.340,-42.969,-39.551,0.000
1709214836.713,-25.391,-41.016,-35.156,-32.715,0.000
1709214836.717,-34.668,-42.480,-41.992,-40.039,0.000
1709214836.721,-37.109,-57.129,-52.246,-51.270,0.000
1709214836.725,-31.250,-57.129,-57.129,-46.387,0.000
1709214836.728,-27.832,-53.711,-47.363,-42.480,0.000
1709214836.732,-29.785,-48.828,-37.598,-41.504,0.000
1709214836.736,-33.691,-49.316,-41.992,-46.875,0.000
1709214836.740,-31.738,-58.105,-41.016,-56.152,0.000
1709214836.744,-34.180,-59.082,-35.645,-52.734,0.000
1709214836.748,-29.297,-47.852,-37.598,-49.805,0.000
1709214836.752,-23.438,-44.434,-33.203,-41.016,0.000
1709214836.756,-24.414,-45.898,-31.250,-36.133,0.000
1709214836.760,-29.785,-44.434,-39.062,-46.875,0.000
1709214836.764,-35.645,-55.176,-43.457,-55.176,0.000
1709214836.768,-37.109,-53.711,-36.133,-48.340,0.000
1709214836.771,-36.621,-46.387,-30.273,-35.156,0.000
1709214836.775,-34.180,-46.387,-34.180,-30.762,0.000
1709214836.779,-29.297,-47.852,-28.809,-35.645,0.000
1709214836.783,-27.832,-54.688,-29.297,-45.410,0.000
1709214836.787,-29.785,-50.781,-30.273,-47.852,0.000
1709214836.791,-26.367,-44.922,-29.297,-40.039,0.000
1709214836.795,-18.066,-49.316,-28.320,-30.762,0.000
1709214836.799,-14.648,-47.363,-23.438,-19.531,0.000
1709214836.803,-20.020,-40.527,-21.973,-15.137,0.000
1709214836.807,-27.344,-37.109,-23.438,-19.531,0.000
1709214836.811,-27.344,-47.852,-31.250,-15.625,0.000
1709214836.814,-20.508,-54.688,-32.715,-11.719,0.000
1709214836.818,-20.508,-37.109,-26.367,-15.625,0.000
1709214836.822,-26.855,-34.668,-26.855,-20.996,0.000
1709214836.826,-29.785,-53.223,-36.133,-18.066,0.000
1709214836.830,-31.738,-56.152,-45.410,-29.785,0.000
1709214836.834,-35.156,-48.828,-41.016,-33.203,0.000
1709214836.838,-31.250,-48.340,-34.668,-26.855,0.000
1709214836.842,-30.762,-49.316,-36.133,-29.785,0.000
1709214836.846,-35.645,-49.805,-34.180,-31.250,0.000
1709214836.850,-39.062,-49.805,-36.133,-33.203,0.000
1709214836.854,-39.062,-56.641,-41.992,-39.551,0.000
1709214836.857,-38.086,-56.641,-39.551,-44.922,0.000
1709214836.861,-39.062,-41.992,-40.039,-47.363,0.000
1709214836.865,-42.969,-44.434,-45.410,-56.152,0.000
1709214836.869,-46.875,-48.828,-48.828,-53.711,0.000
1709214836.873,-42.480,-40.039,-45.410,-49.805,0.000
1709214836.877,-38.574,-39.062,-42.480,-50.781,0.000
1709214836.881,-46.875,-43.945,-35.156,-53.223,0.000
1709214836.885,-57.129,-42.480,-34.180,-59.082,0.000
1709214836.889,-65.430,-60.547,-47.363,-52.246,0.000
1709214836.893,-62.500,-69.336,-50.293,-49.316,0.000
1709214836.896,-51.758,-55.176,-48.828,-57.129,0.000
1709214836.900,-49.316,-53.711,-49.316,-64.453,0.000
1709214836.904,-46.387,-47.363,-42.480,-62.500,0.000
1709214836.908,-40.527,-34.668,-34.668,-53.711,0.000
1709214836.912,-44.434,-38.086,-39.551,-51.758,0.000
1709214836.916,-47.852,-43.945,-44.434,-49.805,0.000
1709214836.920,-40.039,-43.945,-33.691,-36.133,0.000
1709214836.924,-35.156,-46.387,-34.180,-34.668,0.000
1709214836.928,-40.039,-53.223,-47.363,-42.969,0.000
1709214836.932,-41.016,-51.270,-46.875,-40.527,0.000
1709214836.935,-37.109,-38.574,-36.133,-34.668,0.000
1709214836.939,-28.320,-34.668,-30.273,-40.527,0.000
1709214836.943,-28.320,-41.992,-28.320,-42.480,0.000
1709214836.947,-25.879,-42.969,-22.461,-31.738,0.000
1709214836.951,-21.484,-37.109,-19.043,-34.180,0.000
1709214836.955,-30.762,-50.781,-34.180,-45.410,0.000
1709214836.959,-37.598,-52.246,-43.945,-39.551,0.000
1709214836.963,-34.180,-41.504,-36.621,-40.527,0.000
1709214836.967,-33.691,-36.621,-36.621,-42.969,0.000
1709214836.971,-34.668,-39.062,-37.598,-37.598,0.000
1709214836.974,-31.738,-41.992,-35.156,-38.086,0.000
1709214836.978,-25.879,-34.668,-29.297,-29.297,0.000
1709214836.982,-21.973,-30.273,-24.902,-27.344,0.000
1709214836.986,-27.832,-36.621,-25.391,-39.062,0.000
1709214836.990,-29.785,-40.039,-38.086,-39.551,0.000
1709214836.994,-29.297,-46.875,-50.293,-39.551,0.000
1709214836.998,-25.879,-51.758,-39.551,-37.598,0.000
1709214837.002,-27.832,-42.480,-42.480,-48.340,0.000
1709214837.006,-36.621,-36.621,-41.016,-48.828,0.000
1709214837.009,-40.527,-34.668,-35.156,-41.016,0.000
1709214837.013,-39.551,-30.762,-34.180,-36.133,0.000
1709214837.017,-41.016,-36.621,-35.645,-42.969,0.000
1709214837.021,-33.691,-43.457,-30.273,-36.621,0.000
1709214837.025,-36.133,-40.039,-26.367,-27.344,0.000
1709214837.029,-46.387,-42.480,-31.738,-39.062,0.000
1709214837.033,-42.969,-44.922,-39.551,-41.504,0.000
1709214837.037,-34.180,-45.410,-46.875,-36.133,0.000
1709214837.041,-37.598,-54.688,-47.852,-33.203,0.000
1709214837.045,-41.992,-50.781,-46.875,-44.922,0.000
1709214837.049,-39.062,-34.180,-43.457,-43.457,0.000
1709214837.053,-36.133,-26.367,-44.922,-36.621,0.000
1709214837.056,-39.551,-34.180,-49.316,-41.992,0.000
1709214837.060,-39.062,-42.969,-40.527,-39.062,0.000
1709214837.064,-42.480,-39.551,-33.203,-36.133,0.000
1709214837.068,-45.898,-48.828,-39.062,-35.156,0.000
1709214837.072,-45.898,-64.941,-39.551,-34.668,0.000
1709214837.076,-45.898,-46.387,-35.156,-35.645,0.000
1709214837.080,-45.898,-29.297,-39.062,-38.086,0.000
1709214837.084,-49.805,-43.457,-47.363,-34.180,0.000
1709214837.088,-50.781,-53.711,-50.781,-31.250,0.000
1709214837.092,-43.457,-49.316,-39.551,-23.438,0.000
1709214837.096,-41.016,-49.805,-28.809,-17.578,0.000
1709214837.099,-44.922,-42.969,-35.645,-29.297,0.000
1709214837.103,-38.574,-33.691,-36.133,-33.691,0.000
1709214837.107,-32.227,-41.992,-34.668,-29.297,0.000
1709214837.111,-36.621,-50.293,-36.133,-25.391,0.000
1709214837.115,-52.246,-51.270,-37.598,-28.809,0.000
1709214837.119,-58.105,-47.852,-38.574,-41.504,0.000
1709214837.123,-50.293,-50.293,-42.480,-53.711,0.000
1709214837.127,-51.270,-47.363,-41.504,-45.410,0.000
1709214837.131,-55.664,-44.922,-33.203,-37.109,0.000
1709214837.135,-44.922,-48.340,-30.762,-43.457,0.000
1709214837.139,-36.133,-44.922,-29.297,-39.062,0.000
1709214837.142,-36.621,-40.039,-34.180,-32.715,0.000
1709214837.146,-41.016,-39.551,-40.039,-41.504,0.000
1709214837.150,-47.363,-39.551,-39.551,-47.852,0.000
1709214837.154,-39.062,-43.945,-36.133,-43.457,0.000
1709214837.158,-37.598,-49.316,-31.738,-40.039,0.000
1709214837.162,-39.062,-49.805,-32.715,-44.434,0.000
1709214837.166,-46.875,-47.852,-36.133,-43.457,0.000
1709214837.170,-55.176,-49.805,-37.598,-40.039,0.000
1709214837.174,-45.410,-49.805,-33.691,-31.738,0.000
1709214837.178,-28.320,-38.574,-34.180,-31.250,0.000
1709214837.182,-30.273,-42.480,-40.039,-43.945,0.000
1709214837.185,-41.016,-53.223,-39.551,-47.852,0.000
1709214837.189,-35.645,-44.434,-32.227,-43.945,0.000
1709214837.193,-21.973,-36.621,-32.227,-35.645,0.000
1709214837.197,-23.438,-39.551,-41.504,-40.039,0.000
1709214837.201,-28.320,-56.152,-33.203,-46.875,0.000
1709214837.205,-34.180,-55.176,-32.227,-55.664,0.000
1709214837.209,-42.480,-41.504,-37.109,-58.594,0.000
1709214837.213,-39.062,-44.434,-34.180,-44.922,0.000
1709214837.217,-37.598,-54.199,-37.598,-36.133,0.000
1709214837.221,-41.504,-46.387,-39.551,-41.504,0.000
1709214837.225,-44.434,-40.039,-41.016,-45.898,0.000
1709214837.228,-45.898,-45.898,-35.156,-41.016,0.000
1709214837.232,-42.480,-46.875,-25.879,-38.574,0.000
1709214837.236,0.000,-52.246,-35.156,-48.828,0.000
1709214837.240,0.000,-55.664,-41.504,-56.641,0.000
1709214837.244,0.000,-53.711,-37.109,-55.176,0.000
1709214837.248,0.000,-56.641,-35.156,-60.547,0.000
1709214837.252,0.000,-56.152,-29.297,-61.035,0.000
1709214837.256,0.000,-43.457,-35.156,-57.129,0.000
1709214837.260,0.000,-38.086,-43.945,-52.734,0.000
1709214837.264,0.000,-44.922,-27.832,-42.969,0.000
1709214837.268,0.000,-33.203,-15.625,-41.504,0.000
1709214837.271,0.000,-37.109,-31.738,-49.805,0.000
1709214837.275,0.000,-51.270,-38.086,-45.898,0.000
1709214837.279,0.000,-53.711,-30.762,-39.062,0.000
1709214837.283,-43.457,-56.152,-33.203,-47.363,0.000
1709214837.287,-38.086,-50.781,-33.691,-52.246,0.000
1709214837.291,-33.691,-58.105,-26.855,-39.062,0.000
1709214837.295,-33.691,-55.176,-35.156,-36.621,0.000
1709214837.299,-36.133,-41.504,-39.062,-43.945,0.000
1709214837.303,-40.039,-39.062,-34.668,-45.898,0.000
1709214837.307,-38.574,-45.410,-40.527,-33.691,0.000
1709214837.310,-29.297,-43.945,-43.945,-20.020,0.000
1709214837.314,-28.809,-40.039,-43.945,-35.645,0.000
1709214837.318,-29.297,-40.527,-41.992,-39.062,0.000
1709214837.322,-16.113,-42.480,-37.598,-23.438,0.000
1709214837.326,-23.438,-49.316,-42.969,-30.273,0.000
1709214837.330,-25.391,-45.410,-39.062,-31.250,0.000
1709214837.334,-19.043,-40.527,-35.645,-25.879,0.000
1709214837.338,-27.344,-48.340,-45.898,-33.691,0.000
1709214837.342,-27.832,-47.852,-46.875,-31.250,0.000
1709214837.346,-33.203,-44.434,-45.898,-30.762,0.000
1709214837.349,-45.898,-52.734,-36.133,-33.691,0.000
1709214837.353,-44.434,-52.734,-30.273,-30.273,0.000
1709214837.357,-40.039,-39.062,-31.738,-29.785,0.000
1709214837.361,-41.504,-40.527,-37.109,-42.969,0.000
1709214837.365,-46.387,-57.617,-42.969,-52.246,0.000
1709214837.369,-48.828,-58.594,-40.527,-56.152,0.000
1709214837.373,-45.410,-47.852,-47.852,-56.641,0.000
1709214837.377,-47.852,-46.875,-41.992,-54.688,0.000
1709214837.381,-51.758,-49.805,-37.598,-59.570,0.000
1709214837.384,-54.688,-48.828,-39.062,-63.477,0.000
1709214837.388,-55.664,-47.852,-40.039,-61.523,0.000
1709214837.392,-56.641,-48.828,-50.293,-66.895,0.000
1709214837.396,-55.176,-53.223,-43.945,-63.965,0.000
1709214837.400,-45.898,-51.758,-26.855,-53.223,0.000
1709214837.404,-45.410,-48.340,-24.902,-52.734,0.000
1709214837.408,-50.781,-38.574,-31.738,-51.270,0.000
1709214837.412,-51.758,-41.016,-33.691,-38.086,0.000
1709214837.416,-46.387,-53.223,-37.598,-32.227,0.000
1709214837.420,-40.039,-55.176,-38.574,-42.480,0.000
1709214837.424,-36.621,-52.734,-35.645,-40.527,0.000
1709214837.428,-39.062,-47.852,-32.227,-36.621,0.000
1709214837.431,-34.668,-49.316,-28.809,-31.738,0.000
1709214837.435,-27.832,-49.805,-28.320,-23.438,0.000
1709214837.439,-17.090,-39.551,-19.531,-18.066,0.000
1709214837.443,-21.484,-40.039,-37.109,-26.367,0.000
1709214837.447,-30.273,-49.316,-48.340,-29.785,0.000
1709214837.451,-22.461,-45.410,-30.762,-22.949,0.000
1709214837.455,-33.691,-49.805,-38.574,-32.715,0.000
1709214837.459,-37.109,-52.246,-42.480,-30.273,0.000
1709214837.463,-34.180,-45.898,-42.969,-33.691,0.000
1709214837.467,-32.227,-36.621,-42.969,-41.016,0.000
1709214837.471,-30.762,-31.738,-37.598,-29.297,0.000
1709214837.475,-37.109,-38.086,-38.574,-32.715,0.000
1709214837.478,-32.227,-42.480,-44.922,-37.598,0.000
1709214837.482,-34.180,-44.434,-51.758,-41.992,0.000
1709214837.486,-47.363,-46.875,-51.758,-44.922,0.000
1709214837.490,-49.316,-44.434,-52.246,-40.039,0.000
1709214837.494,-40.527,-38.574,-54.688,-38.574,0.000
1709214837.498,-37.109,-32.715,-47.363,-52.246,0.000
1709214837.502,-36.621,-39.551,-46.875,-53.711,0.000
1709214837.506,-35.645,-49.316,-38.086,-33.691,0.000
1709214837.510,-46.387,-41.992,-33.691,-45.410,0.000
1709214837.514,-43.457,-33.203,-39.551,-45.898,0.000
1709214837.518,-40.039,-34.180,-37.598,-41.992,0.000
1709214837.521,-52.246,-39.551,-38.574,-45.898,0.000
1709214837.525,-62.500,-45.898,-40.039,-46.875,0.000
1709214837.529,-58.105,-48.828,-41.504,-53.223,0.000
1709214837.533,-47.363,-38.574,-38.086,-41.504,0.000
1709214837.537,-48.828,-36.133,-42.969,-43.945,0.000
1709214837.541,-47.852,-49.316,-43.945,-51.758,0.000
1709214837.545,-43.945,-46.875,-43.945,-45.410,0.000
1709214837.549,-35.156,-45.410,-37.109,-38.086,0.000
1709214837.553,-25.391,-52.246,-31.250,-34.180,0.000
1709214837.557,-25.391,-42.969,-41.016,-36.621,0.000
1709214837.560,-22.461,-33.691,-43.945,-38.086,0.000
1709214837.564,-22.949,-39.551,-42.480,-40.039,0.000
1709214837.568,-31.250,-47.852,-49.805,-43.457,0.000
1709214837.572,-30.273,-45.898,-47.852,-45.410,0.000
1709214837.576,-28.809,-40.039,-44.434,-41.016,0.000
1709214837.580,-27.344,-31.738,-41.504,-40.527,0.000
1709214837.584,-26.367,-37.598,-41.504,-47.363,0.000
1709214837.588,-22.949,-45.898,-44.434,-45.898,0.000
1709214837.592,-24.902,-47.852,-36.133,-40.039,0.000
1709214837.596,-28.320,-45.410,-33.691,-34.668,0.000
1709214837.600,-30.273,-38.086,-44.922,-46.875,0.000
1709214837.603,-37.598,-41.016,-40.039,-57.129,0.000
1709214837.607,-45.898,-53.711,-32.715,-55.176,0.000
1709214837.611,-52.246,-55.176,-35.156,-54.688,0.000
1709214837.615,-38.574,-42.969,-36.133,-48.340,0.000
1709214837.619,-28.320,-42.480,-38.574,-41.992,0.000
1709214837.623,-39.062,-51.758,-35.645,-49.805,0.000
1709214837.627,-43.945,-43.945,-37.109,-53.223,0.000
1709214837.631,-38.086,-36.133,-33.203,-42.480,0.000
1709214837.635,-41.504,-45.410,-27.832,-45.410,0.000
1709214837.639,-52.246,-54.688,-27.344,-45.410,0.000
1709214837.642,-52.246,-48.828,-28.809,-44.434,0.000
1709214837.646,-51.758,-48.828,-34.180,-55.664,0.000
1709214837.650,-51.270,-48.340,-38.086,-54.199,0.000
1709214837.654,-47.852,-51.758,-30.762,-46.875,0.000
1709214837.658,-43.945,-49.316,-27.344,-43.457,0.000
1709214837.662,-43.945,-33.691,-37.109,-44.922,0.000
1709214837.666,-49.805,-38.086,-45.410,-51.758,0.000
1709214837.670,-45.410,-54.199,-44.434,-51.270,0.000
1709214837.674,-30.273,-50.293,-35.156,-44.434,0.000
1709214837.678,-25.391,-40.039,-38.574,-43.457,0.000
1709214837.681,-29.297,-48.828,-45.410,-47.363,0.000
1709214837.685,-31.250,-43.945,-41.016,-44.434,0.000
1709214837.689,-21.484,-32.715,-33.203,-40.039,0.000
1709214837.693,-11.719,-34.668,-30.762,-33.691,0.000
1709214837.697,-15.137,-38.086,-41.504,-31.738,0.000
1709214837.701,-16.113,-44.434,-47.363,-36.133,0.000
1709214837.705,-21.973,-52.734,-39.062,-48.340,0.000
1709214837.709,-32.227,-49.805,-35.156,-56.641,0.000
1709214837.713,-31.250,-40.527,-37.598,-53.223,0.000
1709214837.717,-34.180,-40.527,-42.969,-53.711,0.000
1709214837.720,-27.832,-45.898,-43.945,-50.293,0.000
1709214837.724,-20.020,-44.922,-40.039,-43.945,0.000
1709214837.728,-28.320,-41.992,-39.062,-43.945,0.000
1709214837.732,-29.785,-37.109,-41.504,-38.574,0.000
1709214837.736,-30.762,-32.227,-42.969,-48.828,0.000
1709214837.740,-30.273,-31.250,-44.434,-59.570,0.000
1709214837.744,-34.180,-47.852,-44.922,-50.781,0.000
1709214837.748,-38.574,-51.270,-46.387,-44.922,0.000
1709214837.752,-38.574,-38.086,-41.992,-41.504,0.000
1709214837.755,-41.504,-39.551,-28.320,-38.086,0.000
1709214837.759,-36.621,-50.781,-33.691,-36.621,0.000
1709214837.763,-43.457,-62.500,-43.457,-49.316,0.000
1709214837.767,-53.223,-49.805,-37.109,-59.082,0.000
1709214837.771,-52.734,-40.527,-35.645,-54.199,0.000
1709214837.775,-53.711,-49.805,-35.645,-40.527,0.000
1709214837.779,-56.152,-45.898,-32.227,-39.551,0.000
1709214837.783,-51.758,-41.016,-29.785,-41.504,0.000
1709214837.787,-47.852,-47.363,-25.879,-31.738,0.000
1709214837.791,-44.922,-50.781,-33.203,-33.691,0.000
1709214837.795,-39.551,-53.223,-43.457,-38.086,0.000
