timestamps,TP9,AF7,AF8,TP10,Right AUX
1709214967.041,-31.250,-51.270,-41.992,-27.832,0.000
1709214967.045,-22.461,-41.016,-38.574,-20.996,0.000
1709214967.049,-28.320,-42.480,-29.297,-33.691,0.000
1709214967.052,-38.574,-43.945,-31.250,-43.945,0.000
1709214967.056,-35.156,-37.109,-28.809,-37.598,0.000
1709214967.060,-23.438,-39.551,-24.414,-7.324,0.000
1709214967.064,-23.438,-40.039,-23.926,3.418,0.000
1709214967.068,-32.227,-35.156,-32.227,-26.367,0.000
1709214967.072,-47.363,-42.969,-34.668,-50.781,0.000
1709214967.076,-47.363,-49.805,-30.762,-43.945,0.000
1709214967.080,-22.949,-46.875,-34.668,-21.973,0.000
1709214967.084,-18.066,-42.969,-39.551,-22.949,0.000
1709214967.088,-32.227,-44.922,-32.715,-33.691,0.000
1709214967.092,-56.641,-52.734,-34.180,-56.152,0.000
1709214967.096,-65.430,-49.805,-39.062,-63.965,0.000
1709214967.099,-42.969,-46.875,-36.133,-41.992,0.000
1709214967.103,-35.645,-41.504,-42.969,-28.809,0.000
1709214967.107,-50.293,-44.922,-40.527,-41.504,0.000
1709214967.111,-63.477,-43.457,-36.133,-59.082,0.000
1709214967.115,-57.129,-37.109,-41.016,-63.477,0.000
1709214967.119,-39.062,-48.340,-45.410,-52.246,0.000
1709214967.123,-19.531,-44.434,-46.387,-23.926,0.000
1709214967.127,-25.391,-36.621,-39.062,-30.273,0.000
1709214967.131,-45.410,-34.668,-35.156,-58.105,0.000
1709214967.135,-36.621,-40.039,-33.691,-50.781,0.000
1709214967.139,-15.137,-50.781,-30.762,-29.297,0.000
1709214967.142,-17.578,-50.293,-28.809,-18.066,0.000
1709214967.146,-24.902,-45.410,-31.250,-20.508,0.000
1709214967.150,-42.969,-44.922,-36.133,-40.527,0.000
1709214967.154,-58.105,-49.316,-42.480,-52.246,0.000
1709214967.158,-51.270,-52.246,-42.480,-47.852,0.000
1709214967.162,-39.551,-48.340,-40.039,-37.598,0.000
1709214967.166,-44.434,-45.898,-49.316,-31.250,0.000
1709214967.170,-59.082,-41.504,-37.109,-43.457,0.000
1709214967.174,-65.918,-43.945,-28.320,-68.848,0.000
1709214967.178,-56.641,-54.688,-39.551,-57.129,0.000
1709214967.182,-36.621,-61.523,-44.922,-31.250,0.000
1709214967.185,-31.738,-49.805,-44.922,-29.297,0.000
1709214967.189,-39.551,-35.645,-41.504,-38.086,0.000
1709214967.193,-48.340,-43.457,-46.875,-46.875,0.000
1709214967.197,-43.457,-50.293,-51.758,-44.434,0.000
1709214967.201,-26.855,-45.898,-47.363,-28.809,0.000
1709214967.205,-23.926,-43.945,-39.551,-20.020,0.000
1709214967.209,-35.156,-47.852,-38.574,-33.691,0.000
1709214967.213,-44.434,-52.246,-42.969,-38.086,0.000
1709214967.217,-38.086,-52.734,-34.180,-26.367,0.000
1709214967.221,-20.508,-54.688,-15.625,-9.277,0.000
1709214967.225,-12.695,-57.129,-16.602,-4.395,0.000
1709214967.228,-25.879,-55.176,-35.645,-22.949,0.000
1709214967.232,-50.781,-57.617,-32.227,-46.387,0.000
1709214967.236,-48.340,-63.965,-21.484,-41.992,0.000
1709214967.240,-29.297,-62.500,-31.738,-21.973,0.000
1709214967.244,-35.645,-41.992,-40.527,-19.531,0.000
1709214967.248,-47.363,-26.367,-35.645,-40.039,0.000
1709214967.252,-61.035,-31.738,-36.621,-61.523,0.000
1709214967.256,-60.059,-43.457,-47.363,-49.316,0.000
1709214967.260,-40.527,-53.223,-48.340,-28.809,0.000
1709214967.264,-27.344,-44.434,-48.340,-26.855,0.000
1709214967.267,-42.969,-43.457,-49.316,-39.551,0.000
1709214967.271,-62.988,-49.316,-40.527,-60.059,0.000
1709214967.276,0.000,-52.246,-37.109,-55.664,0.000
1709214967.280,0.000,-55.664,-41.016,-44.922,0.000
1709214967.283,0.000,-45.898,-52.734,-37.598,0.000
1709214967.287,0.000,-41.992,-52.734,-37.109,0.000
1709214967.291,0.000,-42.969,-30.762,-51.270,0.000
1709214967.295,0.000,-40.527,-32.227,-55.176,0.000
1709214967.299,0.000,-45.410,-53.223,-43.945,0.000
1709214967.303,0.000,-46.387,-57.129,-25.879,0.000
1709214967.307,0.000,-35.645,-39.551,-34.668,0.000
1709214967.311,0.000,-41.504,-27.832,-53.711,0.000
1709214967.315,0.000,-49.805,-38.086,-50.293,0.000
1709214967.319,0.000,-57.617,-47.363,-35.645,0.000
1709214967.322,-15.137,-58.105,-40.527,-21.484,0.000
1709214967.326,-19.043,-42.480,-35.156,-28.809,0.000
1709214967.330,-45.410,-40.527,-38.086,-47.363,0.000
1709214967.334,-42.480,-45.410,-41.992,-53.711,0.000
1709214967.338,-32.715,-35.645,-44.922,-39.062,0.000
1709214967.342,-37.109,-44.922,-59.082,-32.715,0.000
1709214967.346,-34.668,-51.758,-58.594,-40.039,0.000
1709214967.350,-51.758,-43.945,-48.340,-53.711,0.000
1709214967.354,-62.500,-42.480,-33.691,-59.082,0.000
1709214967.357,-49.805,-39.062,-33.203,-45.898,0.000
1709214967.361,-33.691,-50.781,-39.062,-28.809,0.000
1709214967.365,-24.414,-55.176,-25.879,-22.949,0.000
1709214967.369,-38.086,-41.016,-34.180,-50.293,0.000
1709214967.373,-61.523,-48.340,-48.340,-71.777,0.000
1709214967.377,-65.430,-57.129,-53.223,-65.430,0.000
1709214967.381,-44.922,-40.527,-51.270,-43.457,0.000
1709214967.385,-32.715,-33.203,-49.316,-39.062,0.000
1709214967.389,-49.316,-43.457,-53.711,-63.965,0.000
1709214967.392,-57.617,-38.086,-42.969,-62.988,0.000
1709214967.396,-50.781,-31.738,-39.551,-49.805,0.000
1709214967.400,-31.250,-38.086,-43.945,-39.551,0.000
1709214967.404,-16.113,-44.434,-44.922,-24.902,0.000
1709214967.408,-31.250,-40.039,-38.574,-37.109,0.000
1709214967.412,-50.781,-35.645,-41.016,-62.012,0.000
1709214967.416,-49.805,-46.387,-48.828,-65.918,0.000
1709214967.420,-36.621,-34.180,-38.086,-43.945,0.000
1709214967.424,-21.484,-21.484,-37.109,-24.414,0.000
1709214967.428,-35.645,-40.527,-45.898,-43.945,0.000
1709214967.432,-58.105,-41.016,-32.227,-59.082,0.000
1709214967.436,-61.523,-41.504,-34.668,-43.457,0.000
1709214967.439,-51.270,-50.781,-39.551,-24.902,0.000
1709214967.443,-36.621,-53.223,-34.668,-24.414,0.000
1709214967.447,-49.805,-46.387,-38.574,-31.738,0.000
1709214967.451,-67.871,-42.480,-44.922,-43.945,0.000
1709214967.455,-67.871,-42.480,-46.875,-51.758,0.000
1709214967.459,-44.434,-45.410,-47.363,-34.180,0.000
1709214967.463,-25.391,-52.246,-48.340,-23.926,0.000
1709214967.467,-30.762,-38.086,-33.691,-32.227,0.000
1709214967.471,-49.805,-35.645,-33.691,-49.316,0.000
1709214967.475,-50.781,-40.527,-41.504,-51.758,0.000
1709214967.479,-37.109,-37.109,-31.250,-32.227,0.000
1709214967.482,-30.762,-47.852,-33.691,-22.461,0.000
1709214967.486,-31.250,-48.828,-44.434,-28.320,0.000
1709214967.490,-38.086,-38.086,-43.457,-50.781,0.000
1709214967.494,-41.016,-40.527,-46.387,-59.570,0.000
1709214967.498,-33.691,-47.363,-46.387,-27.344,0.000
1709214967.502,-23.438,-49.805,-44.434,-15.625,0.000
1709214967.506,-30.762,-44.434,-40.039,-34.668,0.000
1709214967.510,-48.828,-41.016,-35.156,-45.898,0.000
1709214967.514,-51.270,-50.293,-32.227,-48.340,0.000
1709214967.518,-42.969,-48.340,-34.668,-43.945,0.000
1709214967.522,-30.762,-41.504,-30.273,-27.344,0.000
1709214967.526,-20.020,-40.039,-31.738,-25.391,0.000
1709214967.529,-37.598,-31.250,-38.574,-43.457,0.000
1709214967.533,-61.035,-30.273,-37.109,-49.805,0.000
1709214967.537,-46.875,-37.598,-32.715,-30.762,0.000
1709214967.541,-26.855,-40.039,-36.621,-5.371,0.000
1709214967.545,-24.902,-38.086,-41.016,-6.836,0.000
1709214967.549,-38.574,-40.527,-45.898,-39.551,0.000
1709214967.553,-43.457,-44.434,-39.062,-48.828,0.000
1709214967.557,-33.203,-42.969,-32.715,-35.645,0.000
1709214967.561,-16.602,-33.691,-35.645,-19.531,0.000
1709214967.565,-14.160,-28.809,-32.227,-15.137,0.000
1709214967.568,-25.391,-30.273,-27.344,-30.273,0.000
1709214967.572,-35.645,-36.621,-33.203,-47.363,0.000
1709214967.576,-34.668,-45.410,-41.016,-46.875,0.000
1709214967.580,-21.973,-43.457,-37.598,-31.738,0.000
1709214967.584,-16.113,-45.898,-37.109,-24.902,0.000
1709214967.588,-22.949,-47.852,-42.480,-23.438,0.000
1709214967.592,-35.156,-41.016,-48.340,-40.039,0.000
1709214967.596,-32.715,-37.598,-38.574,-40.527,0.000
1709214967.600,-18.066,-33.691,-31.250,-14.648,0.000
1709214967.604,-1.953,-39.062,-34.180,1.465,0.000
1709214967.608,-6.836,-40.527,-38.574,-18.555,0.000
1709214967.611,-31.738,-40.039,-43.945,-41.992,0.000
1709214967.615,-28.809,-51.270,-38.086,-23.926,0.000
1709214967.619,-9.766,-52.734,-42.480,-5.371,0.000
1709214967.623,-3.906,-47.852,-59.570,-2.930,0.000
1709214967.627,-7.324,-45.898,-41.016,-4.883,0.000
1709214967.631,-25.391,-43.945,-33.203,-15.625,0.000
1709214967.635,-31.250,-54.688,-29.785,-19.531,0.000
1709214967.639,-31.250,-62.500,-29.297,-22.949,0.000
1709214967.643,-31.250,-55.664,-34.180,-10.254,0.000
1709214967.647,-31.250,-58.105,-31.738,-14.160,0.000
1709214967.650,-49.805,-52.734,-39.551,-46.875,0.000
1709214967.654,-54.199,-44.922,-43.457,-51.270,0.000
1709214967.658,-35.645,-50.781,-39.551,-32.715,0.000
1709214967.662,-24.414,-50.293,-39.062,-17.090,0.000
1709214967.666,-29.297,-51.270,-45.410,-24.902,0.000
1709214967.670,-44.922,-57.129,-45.410,-59.082,0.000
1709214967.674,-59.082,-55.664,-39.062,-79.590,0.000
1709214967.678,-46.387,-47.363,-43.457,-61.035,0.000
1709214967.682,-27.832,-56.641,-43.457,-36.133,0.000
1709214967.686,-30.273,-66.895,-41.992,-33.691,0.000
1709214967.689,-48.828,-48.340,-50.781,-51.758,0.000
1709214967.693,-61.035,-43.945,-47.363,-57.617,0.000
1709214967.697,-51.270,-57.617,-41.016,-50.781,0.000
1709214967.701,-23.926,-45.410,-33.691,-28.320,0.000
1709214967.705,-13.672,-36.133,-31.738,-12.695,0.000
1709214967.709,-29.785,-48.828,-41.016,-37.598,0.000
1709214967.713,-38.574,-44.922,-41.504,-41.992,0.000
1709214967.717,-36.621,-34.668,-39.551,-28.809,0.000
1709214967.721,-27.832,-51.758,-37.598,-12.207,0.000
1709214967.724,-20.508,-67.383,-34.668,-0.488,0.000
1709214967.728,-33.691,-60.059,-41.992,-20.508,0.000
1709214967.732,-46.875,-46.875,-30.762,-38.086,0.000
1709214967.736,-43.945,-38.086,-25.391,-26.855,0.000
1709214967.740,-35.645,-35.645,-34.180,-6.348,0.000
1709214967.744,-20.020,-36.621,-21.973,-3.906,0.000
1709214967.748,-21.973,-38.574,-17.578,-14.160,0.000
1709214967.752,-53.223,-42.969,-33.203,-38.574,0.000
1709214967.756,-58.105,-46.875,-42.969,-46.875,0.000
1709214967.759,-37.109,-56.152,-43.945,-31.738,0.000
1709214967.763,-27.832,-60.547,-34.668,-20.020,0.000
1709214967.767,-40.039,-45.898,-25.391,-24.902,0.000
1709214967.771,-58.105,-42.969,-34.668,-48.828,0.000
1709214967.775,-53.711,-39.551,-34.668,-59.082,0.000
1709214967.779,-40.039,-33.691,-34.180,-48.828,0.000
1709214967.783,-28.809,-44.434,-41.504,-46.387,0.000
1709214967.787,-32.715,-40.039,-41.504,-49.805,0.000
1709214967.791,-44.922,-31.738,-41.016,-56.152,0.000
1709214967.795,-45.410,-34.180,-36.621,-57.129,0.000
1709214967.799,-30.762,-37.598,-34.180,-42.969,0.000
1709214967.803,-15.137,-41.504,-36.133,-32.227,0.000
1709214967.806,-17.090,-38.086,-32.715,-35.645,0.000
1709214967.810,-38.086,-46.387,-27.344,-47.363,0.000
1709214967.814,-47.852,-51.758,-38.086,-52.246,0.000
1709214967.818,-34.180,-39.551,-39.551,-40.527,0.000
1709214967.822,-25.879,-40.527,-39.062,-19.531,0.000
1709214967.826,-33.691,-42.969,-34.180,-21.973,0.000
1709214967.830,-51.270,-40.039,-34.180,-41.992,0.000
1709214967.834,-62.500,-32.715,-27.344,-39.062,0.000
1709214967.838,-56.641,-39.551,-23.438,-23.926,0.000
1709214967.842,-41.992,-46.875,-30.273,-21.973,0.000
1709214967.846,-45.410,-53.223,-25.391,-26.855,0.000
1709214967.850,-61.523,-56.641,-28.320,-40.527,0.000
1709214967.853,-58.594,-53.223,-30.273,-43.945,0.000
1709214967.857,-48.828,-53.711,-32.715,-24.902,0.000
1709214967.861,-40.039,-56.152,-30.273,-15.625,0.000
1709214967.865,-35.645,-59.082,-27.344,-20.996,0.000
1709214967.869,-41.992,-46.387,-16.602,-26.855,0.000
1709214967.873,-49.316,-33.203,-20.020,-27.832,0.000
1709214967.877,-49.316,-40.527,-41.016,-30.273,0.000
1709214967.881,-28.320,-46.875,-40.039,-17.578,0.000
1709214967.885,-12.695,-42.480,-34.180,-10.742,0.000
1709214967.889,-25.879,-38.086,-32.715,-34.180,0.000
1709214967.893,-46.387,-45.898,-35.645,-54.688,0.000
1709214967.896,-50.293,-47.852,-44.922,-58.594,0.000
1709214967.900,-31.250,-33.691,-49.316,-46.875,0.000
1709214967.904,-26.367,-31.250,-36.621,-41.016,0.000
1709214967.908,-42.480,-40.039,-30.762,-54.199,0.000
1709214967.912,-62.012,-47.852,-38.086,-71.289,0.000
1709214967.916,-57.617,-43.945,-39.551,-58.594,0.000
1709214967.920,-31.250,-36.133,-47.363,-27.832,0.000
1709214967.924,-26.367,-31.738,-38.086,-31.738,0.000
1709214967.928,-39.062,-31.250,-36.621,-56.152,0.000
1709214967.932,-60.059,-41.504,-52.246,-78.125,0.000
1709214967.936,-69.336,-49.805,-45.410,-70.801,0.000
1709214967.939,-61.523,-52.734,-47.363,-47.852,0.000
1709214967.943,-50.781,-47.363,-63.477,-39.062,0.000
1709214967.947,-55.664,-49.805,-65.918,-51.270,0.000
1709214967.951,-61.523,-56.152,-41.992,-63.477,0.000
1709214967.955,-60.547,-49.805,-31.250,-57.617,0.000
1709214967.959,-50.781,-49.316,-37.109,-31.738,0.000
1709214967.963,-41.504,-52.246,-36.133,-8.301,0.000
1709214967.967,-42.480,-45.898,-37.109,-17.578,0.000
1709214967.971,-59.082,-44.434,-34.180,-40.527,0.000
1709214967.975,-66.406,-59.570,-29.297,-42.969,0.000
1709214967.978,-54.199,-61.035,-26.855,-27.344,0.000
1709214967.982,-42.969,-47.363,-32.715,-20.020,0.000
1709214967.986,-41.992,-51.758,-46.875,-32.227,0.000
1709214967.990,-59.570,-66.895,-47.852,-47.363,0.000
1709214967.994,-67.383,-54.199,-40.527,-51.758,0.000
1709214967.998,-46.875,-45.898,-33.691,-37.598,0.000
1709214968.002,-23.926,-56.152,-38.086,-19.531,0.000
1709214968.006,-15.625,-57.129,-29.297,-7.324,0.000
1709214968.010,-36.621,-52.246,-26.855,-22.949,0.000
1709214968.014,-54.199,-50.293,-37.109,-47.363,0.000
1709214968.018,-41.504,-50.781,-37.109,-37.598,0.000
1709214968.021,-29.297,-54.199,-37.598,-7.812,0.000
1709214968.025,-18.066,-41.992,-33.203,8.301,0.000
1709214968.029,-31.250,-44.434,-41.504,-25.879,0.000
1709214968.033,-51.758,-54.199,-48.340,-55.176,0.000
1709214968.037,-42.480,-43.945,-53.711,-36.621,0.000
1709214968.041,-23.438,-42.480,-49.805,-11.230,0.000
1709214968.045,-26.855,-50.781,-35.156,-20.020,0.000
1709214968.049,-37.598,-61.035,-40.039,-50.781,0.000
1709214968.053,-57.129,-66.406,-43.457,-57.129,0.000
1709214968.056,-67.383,-62.012,-43.457,-52.734,0.000
1709214968.060,-41.504,-51.758,-57.129,-46.875,0.000
1709214968.064,-23.438,-45.898,-56.152,-36.133,0.000
1709214968.068,-31.738,-40.527,-40.039,-43.945,0.000
1709214968.072,-50.781,-36.133,-36.621,-62.500,0.000
1709214968.076,-53.223,-38.086,-39.062,-59.082,0.000
1709214968.080,-35.645,-49.316,-46.387,-41.992,0.000
1709214968.084,-31.250,-59.082,-44.922,-36.133,0.000
1709214968.088,-42.480,-51.758,-36.621,-41.016,0.000
1709214968.091,-60.059,-47.852,-39.062,-58.105,0.000
1709214968.095,-59.082,-47.363,-43.945,-50.293,0.000
1709214968.099,-37.598,-44.922,-44.434,-26.367,0.000
1709214968.103,-31.738,-62.012,-46.387,-25.879,0.000
1709214968.107,-39.551,-59.570,-47.363,-35.156,0.000
1709214968.111,-55.176,-39.062,-45.410,-52.246,0.000
1709214968.115,-54.688,-37.109,-53.711,-58.105,0.000
1709214968.119,-38.574,-42.480,-55.176,-40.039,0.000
1709214968.123,-23.926,-48.340,-48.828,-23.438,0.000
1709214968.126,-22.949,-45.898,-42.480,-22.461,0.000
1709214968.130,-40.039,-53.223,-37.598,-36.133,0.000
1709214968.134,-45.410,-56.152,-31.250,-38.086,0.000
1709214968.138,-35.645,-41.016,-31.250,-20.020,0.000
1709214968.142,-28.320,-43.945,-41.016,-6.348,0.000
1709214968.146,-26.367,-47.363,-45.410,-16.602,0.000
1709214968.150,-33.691,-37.598,-42.969,-41.016,0.000
1709214968.154,-40.039,-39.551,-41.504,-46.875,0.000
1709214968.158,-26.855,-37.598,-45.410,-31.250,0.000
1709214968.162,-17.578,-32.715,-41.504,-17.578,0.000
1709214968.166,0.000,-31.250,-40.039,0.000,0.000
1709214968.170,0.000,-35.645,-36.133,0.000,0.000
1709214968.174,0.000,-44.434,-27.344,0.000,0.000
1709214968.177,0.000,-46.387,-34.668,0.000,0.000
1709214968.181,0.000,-46.387,-53.223,0.000,0.000
1709214968.185,0.000,-43.945,-57.129,0.000,0.000
1709214968.189,0.000,-42.969,-50.781,0.000,0.000
1709214968.193,0.000,-43.457,-47.852,0.000,0.000
1709214968.197,0.000,-52.734,-47.363,0.000,0.000
1709214968.201,0.000,-44.434,-41.016,0.000,0.000
1709214968.205,0.000,-31.250,-35.156,0.000,0.000
1709214968.209,0.000,-38.574,-57.129,0.000,0.000
1709214968.213,-55.664,-42.480,-64.941,-56.152,0.000
1709214968.217,-45.898,-42.969,-50.293,-44.922,0.000
1709214968.221,-31.250,-51.270,-48.340,-29.297,0.000
1709214968.224,-28.809,-48.340,-57.617,-27.344,0.000
1709214968.228,-40.039,-42.969,-62.500,-42.480,0.000
1709214968.232,-40.527,-33.203,-46.387,-49.805,0.000
1709214968.236,-34.180,-32.715,-47.363,-40.039,0.000
1709214968.240,-34.668,-53.711,-58.105,-30.762,0.000
1709214968.244,-34.180,-51.270,-49.316,-30.762,0.000
1709214968.248,-34.668,-38.574,-43.457,-33.691,0.000
1709214968.252,-50.781,-41.504,-47.852,-57.129,0.000
1709214968.256,-51.758,-45.898,-48.828,-57.617,0.000
1709214968.260,-28.320,-41.016,-33.691,-26.855,0.000
1709214968.264,-12.207,-28.809,-26.855,-12.207,0.000
1709214968.267,-28.809,-33.203,-42.480,-34.180,0.000
1709214968.271,-50.293,-43.457,-47.852,-59.570,0.000
1709214968.275,-46.387,-40.527,-41.016,-48.340,0.000
1709214968.279,-30.762,-45.410,-47.852,-28.320,0.000
1709214968.283,-23.438,-50.781,-51.758,-21.973,0.000
1709214968.287,-33.203,-47.852,-51.270,-38.574,0.000
1709214968.291,-45.410,-41.016,-43.457,-52.734,0.000
1709214968.295,-56.641,-42.969,-45.898,-53.711,0.000
1709214968.299,-45.410,-29.297,-49.805,-47.852,0.000
1709214968.303,-22.949,-19.043,-30.762,-28.809,0.000
1709214968.307,-38.574,-29.785,-23.926,-39.551,0.000
1709214968.310,-63.477,-39.062,-32.715,-64.453,0.000
1709214968.314,-73.730,-51.270,-38.574,-74.707,0.000
1709214968.318,-56.641,-60.547,-37.109,-58.594,0.000
1709214968.322,-39.551,-50.293,-36.133,-41.504,0.000
1709214968.326,-43.457,-41.992,-35.156,-47.852,0.000
1709214968.330,-56.641,-51.270,-35.156,-63.477,0.000
1709214968.334,-64.941,-53.711,-28.320,-64.941,0.000
1709214968.338,-51.270,-46.387,-28.809,-34.180,0.000
1709214968.342,-34.180,-42.969,-35.645,-14.160,0.000
1709214968.346,-30.762,-36.133,-27.344,-19.531,0.000
1709214968.349,-43.457,-33.691,-34.668,-27.832,0.000
1709214968.353,-46.387,-37.598,-37.598,-31.250,0.000
1709214968.357,-32.227,-41.016,-27.344,-19.531,0.000
1709214968.361,-20.020,-52.246,-29.785,-2.441,0.000
1709214968.365,-19.043,-52.246,-32.227,-0.977,0.000
1709214968.369,-38.574,-49.316,-37.109,-32.227,0.000
1709214968.373,-55.176,-50.293,-33.203,-56.152,0.000
1709214968.377,-44.434,-43.945,-21.973,-46.875,0.000
1709214968.381,-21.484,-48.828,-18.555,-23.438,0.000
1709214968.385,-18.555,-52.246,-29.785,-11.719,0.000
1709214968.388,-32.715,-45.410,-31.250,-35.645,0.000
1709214968.392,-49.316,-49.316,-22.461,-50.781,0.000
1709214968.396,-45.410,-55.176,-17.578,-37.109,0.000
1709214968.400,-23.438,-62.012,-30.273,-20.020,0.000
1709214968.404,-12.695,-54.199,-41.016,-8.301,0.000
1709214968.408,-26.855,-39.551,-32.715,-23.438,0.000
1709214968.412,-50.781,-42.969,-33.691,-51.270,0.000
1709214968.416,-44.434,-40.527,-28.320,-45.410,0.000
1709214968.420,-25.391,-41.992,-21.484,-23.926,0.000
1709214968.424,-16.113,-49.805,-30.762,-23.438,0.000
1709214968.427,-26.367,-48.828,-41.992,-37.109,0.000
1709214968.431,-47.852,-49.805,-43.945,-52.734,0.000
1709214968.435,-42.969,-51.270,-31.250,-60.547,0.000
1709214968.439,-27.344,-47.363,-23.926,-43.457,0.000
1709214968.443,-16.113,-37.109,-23.926,-22.949,0.000
1709214968.447,-24.414,-37.598,-21.973,-35.156,0.000
1709214968.451,-45.410,-41.016,-26.367,-57.617,0.000
1709214968.455,-44.434,-33.691,-32.715,-49.805,0.000
1709214968.459,-34.180,-42.480,-41.016,-25.391,0.000
1709214968.462,-15.625,-38.086,-41.504,-8.301,0.000
1709214968.466,-16.602,-31.738,-35.645,-16.113,0.000
1709214968.470,-47.852,-32.227,-35.156,-36.621,0.000
1709214968.474,-55.664,-38.086,-24.902,-36.621,0.000
1709214968.478,-43.457,-55.664,-30.273,-32.227,0.000
1709214968.482,-29.785,-57.617,-34.668,-25.879,0.000
1709214968.486,-25.879,-40.527,-29.785,-22.461,0.000
1709214968.490,-43.457,-26.367,-31.738,-32.715,0.000
1709214968.494,-57.617,-42.480,-34.668,-41.504,0.000
1709214968.498,-49.316,-59.570,-35.156,-31.250,0.000
1709214968.502,-26.855,-41.504,-26.855,-20.020,0.000
1709214968.506,-29.297,-29.785,-31.738,-24.902,0.000
1709214968.510,-54.199,-43.457,-34.668,-49.316,0.000
1709214968.513,-69.824,-49.316,-41.016,-64.941,0.000
1709214968.517,-56.641,-46.387,-49.805,-39.062,0.000
1709214968.521,-30.762,-49.805,-34.180,-17.090,0.000
1709214968.525,-26.367,-41.992,-21.484,-20.996,0.000
1709214968.529,-42.480,-38.574,-30.273,-44.434,0.000
1709214968.533,-50.293,-47.852,-28.320,-53.223,0.000
1709214968.537,-46.387,-44.922,-34.180,-41.016,0.000
1709214968.541,-41.992,-43.945,-45.410,-34.668,0.000
1709214968.545,-39.062,-49.316,-42.480,-31.738,0.000
1709214968.549,-43.945,-47.852,-35.645,-41.504,0.000
1709214968.553,-52.734,-42.480,-34.180,-51.758,0.000
1709214968.557,-59.570,-42.480,-39.551,-51.270,0.000
1709214968.561,-45.410,-41.016,-39.551,-38.574,0.000
1709214968.565,-31.250,-37.109,-31.738,-26.855,0.000
1709214968.569,-44.434,-40.527,-33.203,-42.480,0.000
1709214968.573,-64.453,-43.457,-46.875,-67.871,0.000
1709214968.577,-63.965,-52.246,-44.922,-59.570,0.000
1709214968.580,-49.316,-58.105,-37.109,-38.086,0.000
1709214968.584,-38.086,-43.457,-37.109,-32.715,0.000
1709214968.588,-41.992,-40.039,-40.527,-43.945,0.000
1709214968.592,-54.199,-46.875,-46.387,-66.406,0.000
1709214968.596,-53.223,-45.898,-36.621,-58.594,0.000
1709214968.600,-36.133,-41.504,-27.344,-36.133,0.000
1709214968.604,-28.320,-40.527,-36.133,-26.855,0.000
1709214968.608,-33.691,-41.016,-39.551,-27.344,0.000
1709214968.612,-48.340,-34.180,-33.203,-48.828,0.000
1709214968.616,-50.781,-25.391,-42.480,-55.664,0.000
1709214968.620,-36.133,-32.227,-44.922,-42.480,0.000
1709214968.623,-24.902,-37.109,-35.645,-30.273,0.000
1709214968.627,-28.320,-38.574,-27.344,-26.855,0.000
1709214968.631,-48.828,-41.016,-34.668,-51.758,0.000
1709214968.635,-47.363,-41.992,-30.273,-46.875,0.000
1709214968.639,-40.527,-47.852,-27.344,-27.344,0.000
1709214968.643,-39.062,-38.086,-44.922,-29.297,0.000
1709214968.647,-31.250,-26.367,-42.969,-28.809,0.000
1709214968.651,-49.316,-35.156,-32.715,-49.805,0.000
1709214968.655,-60.547,-45.898,-35.156,-67.871,0.000
1709214968.659,-42.969,-39.551,-38.086,-43.457,0.000
1709214968.663,-28.809,-37.109,-45.898,-32.227,0.000
1709214968.666,-35.645,-42.480,-51.758,-36.621,0.000
1709214968.670,-48.828,-41.016,-44.434,-43.945,0.000
1709214968.674,-52.246,-33.203,-30.273,-56.641,0.000
1709214968.678,-43.457,-37.109,-28.320,-50.781,0.000
1709214968.682,-24.414,-43.457,-36.133,-40.039,0.000
1709214968.686,-27.344,-36.621,-32.715,-36.621,0.000
1709214968.690,-49.805,-39.551,-33.203,-54.688,0.000
1709214968.694,-59.570,-48.828,-49.316,-65.918,0.000
1709214968.698,-52.734,-36.621,-48.340,-56.641,0.000
1709214968.702,-31.738,-34.180,-42.480,-39.062,0.000
1709214968.706,-20.020,-44.434,-46.875,-24.414,0.000
1709214968.709,-37.598,-41.504,-42.480,-36.621,0.000
1709214968.713,-54.199,-41.504,-41.016,-42.969,0.000
1709214968.717,-43.945,-38.574,-34.180,-28.320,0.000
1709214968.721,-20.996,-29.785,-30.762,-13.184,0.000
1709214968.725,-21.484,-38.574,-36.621,-14.648,0.000
1709214968.729,-40.039,-53.223,-34.180,-33.203,0.000
1709214968.733,-55.176,-64.941,-37.109,-49.316,0.000
1709214968.737,-53.223,-54.199,-39.551,-45.410,0.000
1709214968.741,-32.715,-35.645,-38.574,-21.484,0.000
1709214968.745,-20.508,-33.203,-38.574,-12.207,0.000
1709214968.748,-29.297,-36.621,-39.551,-26.855,0.000
1709214968.752,-48.340,-39.062,-34.668,-41.992,0.000
1709214968.756,-46.387,-41.504,-33.691,-37.109,0.000
1709214968.760,-31.250,-45.898,-37.598,-17.090,0.000
1709214968.764,-28.809,-41.504,-35.645,-19.531,0.000
1709214968.768,-40.039,-43.457,-36.133,-33.203,0.000
1709214968.772,-57.129,-44.922,-33.691,-49.805,0.000
1709214968.776,-54.199,-40.527,-34.180,-57.129,0.000
1709214968.780,-36.621,-41.504,-41.016,-40.039,0.000
1709214968.784,-24.902,-39.062,-42.480,-24.414,0.000
1709214968.787,-29.297,-28.809,-37.598,-31.250,0.000
1709214968.791,-55.664,-26.855,-41.992,-54.688,0.000
1709214968.795,-60.059,-37.109,-43.945,-51.758,0.000
1709214968.799,-38.086,-42.480,-40.039,-32.715,0.000
1709214968.803,-22.461,-41.016,-47.363,-13.184,0.000
1709214968.807,-21.484,-40.527,-46.387,-16.113,0.000
1709214968.811,-31.738,-39.551,-37.598,-47.363,0.000
1709214968.815,-40.039,-32.715,-31.738,-53.223,0.000
1709214968.819,-25.391,-33.691,-32.227,-35.156,0.000
1709214968.822,-9.277,-41.504,-45.410,-23.926,0.000
1709214968.826,-13.184,-39.062,-52.734,-28.320,0.000
1709214968.830,-26.855,-32.715,-41.992,-42.480,0.000
1709214968.834,-36.621,-35.645,-30.762,-52.734,0.000
1709214968.838,-28.809,-40.039,-30.273,-41.992,0.000
1709214968.842,-14.648,-41.992,-31.250,-20.508,0.000
1709214968.846,-25.879,-47.852,-36.621,-14.648,0.000
1709214968.850,-41.504,-46.387,-41.016,-24.414,0.000
1709214968.854,-46.387,-46.875,-34.668,-44.922,0.000
1709214968.858,-41.016,-50.781,-19.531,-38.574,0.000
1709214968.861,-33.203,-51.270,-31.250,-21.973,0.000
1709214968.865,-32.715,-51.758,-38.086,-22.461,0.000
1709214968.869,-41.016,-42.969,-34.668,-36.133,0.000
1709214968.873,-55.176,-30.273,-37.109,-53.711,0.000
1709214968.877,-49.805,-35.156,-37.598,-51.758,0.000
1709214968.881,-23.926,-42.969,-38.086,-25.391,0.000
1709214968.885,-12.695,-41.992,-41.992,-19.531,0.000
1709214968.889,-31.738,-42.480,-36.133,-40.039,0.000
1709214968.893,-49.805,-41.504,-29.785,-50.781,0.000
1709214968.896,-52.734,-32.227,-40.527,-53.223,0.000
1709214968.900,-29.785,-28.809,-43.945,-37.598,0.000
1709214968.904,-10.254,-41.016,-37.598,-24.902,0.000
1709214968.908,-25.879,-36.621,-35.156,-33.203,0.000
1709214968.912,-45.898,-32.227,-41.016,-58.594,0.000
1709214968.916,-42.480,-33.691,-45.410,-62.012,0.000
1709214968.920,-20.508,-37.598,-45.410,-33.203,0.000
1709214968.924,-7.812,-47.852,-40.039,-27.344,0.000
1709214968.928,-13.672,-44.922,-41.016,-39.551,0.000
1709214968.932,-34.668,-39.062,-47.852,-54.688,0.000
1709214968.936,-41.016,-40.527,-43.457,-50.781,0.000
1709214968.940,-29.785,-37.598,-35.156,-27.344,0.000
1709214968.943,-20.508,-41.992,-42.480,-15.137,0.000
1709214968.947,-24.902,-59.082,-48.828,-19.531,0.000
1709214968.951,-42.480,-47.852,-30.273,-35.156,0.000
1709214968.955,-46.387,-31.738,-29.297,-40.527,0.000
1709214968.959,-30.273,-41.016,-40.527,-26.367,0.000
1709214968.963,-22.949,-44.922,-33.203,-20.508,0.000
1709214968.967,-26.367,-39.551,-29.297,-23.926,0.000
1709214968.971,-33.691,-41.992,-29.297,-33.691,0.000
1709214968.975,-37.598,-43.945,-25.391,-41.992,0.000
1709214968.979,-25.391,-42.969,-27.344,-26.855,0.000
1709214968.983,-12.695,-60.547,-38.086,-15.625,0.000
1709214968.987,-18.066,-56.152,-38.574,-17.090,0.000
1709214968.990,-41.016,-34.668,-32.715,-29.785,0.000
1709214968.994,-54.688,-41.504,-42.969,-45.898,0.000
1709214968.998,-40.039,-38.574,-39.062,-29.785,0.000
1709214969.002,-23.438,-33.691,-31.250,-20.020,0.000
1709214969.006,-23.438,-38.574,-37.598,-32.227,0.000
1709214969.010,-36.621,-48.828,-39.062,-57.129,0.000
1709214969.014,-45.410,-54.688,-33.203,-67.383,0.000
1709214969.018,-26.367,-40.039,-29.297,-45.898,0.000
1709214969.022,-11.230,-40.039,-33.691,-32.715,0.000
1709214969.026,-6.836,-45.898,-30.273,-32.715,0.000
1709214969.030,-23.926,-50.781,-36.133,-48.340,0.000
1709214969.033,-45.410,-42.969,-36.621,-57.617,0.000
1709214969.037,-43.457,-30.273,-36.133,-46.387,0.000
1709214969.041,-31.738,-40.039,-47.852,-21.484,0.000
1709214969.045,-25.879,-35.156,-42.480,-9.277,0.000
1709214969.049,-41.992,-26.855,-32.227,-34.180,0.000
1709214969.053,-62.988,-33.203,-31.738,-57.617,0.000
1709214969.057,-50.293,-42.969,-39.551,-45.898,0.000
1709214969.061,-20.996,-46.387,-28.320,-7.812,0.000
1709214969.065,-20.996,-41.016,-21.484,-2.441,0.000
1709214969.069,-40.039,-47.363,-32.715,-30.273,0.000
1709214969.072,-54.199,-56.152,-21.973,-43.945,0.000
1709214969.076,-58.105,-58.594,-24.902,-42.480,0.000
1709214969.080,-48.828,-49.805,-36.621,-27.344,0.000
1709214969.084,-33.203,-45.410,-49.316,-23.438,0.000
1709214969.088,-29.297,-39.062,-52.734,-31.250,0.000
1709214969.092,-47.363,-35.645,-32.227,-46.387,0.000
1709214969.096,-59.082,-44.434,-24.902,-55.664,0.000
1709214969.100,-46.875,-49.805,-33.203,-41.504,0.000
1709214969.104,-34.668,-52.246,-34.180,-23.926,0.000
1709214969.108,-41.016,-48.828,-35.156,-29.297,0.000
1709214969.111,-48.340,-43.457,-34.180,-42.969,0.000
1709214969.115,-46.875,-54.688,-28.809,-44.922,0.000
1709214969.119,-41.992,-63.477,-27.832,-34.180,0.000
1709214969.123,-23.438,-54.688,-29.785,-8.301,0.000
1709214969.127,-23.926,-44.434,-33.203,-16.602,0.000
1709214969.131,-43.457,-44.922,-35.156,-35.645,0.000
1709214969.135,-52.246,-45.410,-34.180,-34.668,0.000
1709214969.139,-38.574,-41.992,-35.645,-27.832,0.000
1709214969.143,-23.926,-45.410,-24.902,-18.066,0.000
1709214969.147,-24.902,-45.898,-23.926,-20.996,0.000
1709214969.150,-38.574,-50.781,-34.180,-40.039,0.000
1709214969.154,-55.664,-61.035,-39.551,-54.688,0.000
1709214969.158,-53.223,-57.617,-39.551,-42.480,0.000
1709214969.162,-35.645,-52.246,-39.062,-22.461,0.000
1709214969.166,-33.203,-47.852,-44.434,-23.926,0.000
1709214969.170,-41.992,-50.293,-43.457,-39.062,0.000
1709214969.174,-55.664,-49.805,-43.457,-52.246,0.000
1709214969.178,-52.246,-33.203,-40.039,-35.645,0.000
1709214969.182,-33.691,-30.273,-46.387,-12.695,0.000
1709214969.186,-39.551,-42.969,-48.340,-28.809,0.000
1709214969.189,-56.641,-47.852,-38.086,-57.617,0.000
1709214969.193,-62.012,-47.852,-38.574,-69.336,0.000
1709214969.198,-58.105,-50.781,-41.504,-55.176,0.000
1709214969.201,-45.898,-54.688,-41.504,-37.109,0.000
1709214969.205,-33.691,-53.223,-41.992,-36.133,0.000
1709214969.209,-37.598,-41.504,-38.574,-45.410,0.000
1709214969.213,-46.875,-35.645,-28.320,-60.547,0.000
1709214969.217,-37.109,-45.410,-34.668,-61.523,0.000
1709214969.221,-17.578,-42.480,-44.922,-36.621,0.000
1709214969.225,-9.277,-31.250,-41.016,-23.438,0.000
1709214969.229,-20.508,-33.691,-39.062,-44.922,0.000
1709214969.233,-37.109,-38.574,-46.387,-59.570,0.000
1709214969.237,-33.691,-40.527,-44.434,-51.270,0.000
1709214969.240,-20.508,-42.480,-38.086,-36.133,0.000
1709214969.244,-14.160,-40.039,-36.133,-31.738,0.000
1709214969.248,-23.438,-44.922,-38.086,-45.898,0.000
1709214969.252,-48.340,-45.410,-50.293,-65.430,0.000
1709214969.256,-57.617,-49.805,-52.246,-69.336,0.000
1709214969.260,-36.133,-43.457,-46.875,-45.410,0.000
1709214969.264,-18.555,-42.969,-43.945,-26.855,0.000
1709214969.268,-28.320,-49.805,-36.133,-26.855,0.000
1709214969.272,-47.363,-32.227,-35.156,-40.527,0.000
1709214969.275,-61.523,-36.621,-42.969,-53.223,0.000
1709214969.279,-50.781,-47.363,-52.734,-39.551,0.000
1709214969.283,-30.273,-41.992,-44.434,-9.766,0.000
1709214969.287,-39.062,-43.945,-31.738,-20.508,0.000
1709214969.291,-54.688,-47.363,-32.227,-48.340,0.000
1709214969.295,-51.758,-44.434,-28.809,-43.945,0.000
1709214969.299,-38.574,-51.270,-32.715,-34.668,0.000
1709214969.303,-22.949,-53.711,-42.480,-23.438,0.000
1709214969.307,-24.902,-52.734,-29.785,-20.508,0.000
1709214969.311,-42.480,-49.316,-23.926,-31.738,0.000
1709214969.315,-49.805,-43.945,-33.203,-32.227,0.000
1709214969.319,-39.062,-46.875,-30.762,-24.902,0.000
1709214969.322,-27.832,-44.434,-28.320,-22.461,0.000
1709214969.326,-31.250,-43.457,-34.180,-20.508,0.000
1709214969.330,-37.109,-41.016,-36.621,-34.180,0.000
1709214969.334,-43.945,-30.762,-22.949,-58.105,0.000
1709214969.338,-48.828,-38.574,-27.344,-52.246,0.000
1709214969.342,-33.203,-47.852,-33.203,-36.621,0.000
1709214969.346,-22.949,-49.316,-30.273,-33.691,0.000
1709214969.350,-44.434,-59.082,-41.016,-49.805,0.000
1709214969.354,-55.664,-60.547,-36.621,-58.105,0.000
1709214969.358,-42.969,-53.223,-33.691,-42.969,0.000
1709214969.362,-27.832,-39.551,-41.016,-27.344,0.000
1709214969.365,-20.508,-37.598,-37.109,-19.531,0.000
1709214969.369,-31.738,-38.574,-41.016,-35.156,0.000
1709214969.373,-52.734,-40.527,-44.434,-47.852,0.000
1709214969.377,-46.387,-47.852,-36.133,-38.086,0.000
1709214969.381,-28.809,-51.758,-42.969,-29.297,0.000
1709214969.385,-30.762,-51.758,-41.992,-27.344,0.000
1709214969.389,-41.016,-49.805,-35.156,-35.156,0.000
1709214969.393,-61.035,-45.410,-41.992,-45.898,0.000
1709214969.397,-64.453,-46.387,-40.039,-43.457,0.000
1709214969.401,-41.016,-62.012,-40.039,-18.555,0.000
1709214969.405,-24.902,-49.316,-37.109,-6.348,0.000
1709214969.409,-41.992,-35.156,-38.574,-31.250,0.000
1709214969.412,-67.871,-43.457,-47.852,-55.664,0.000
1709214969.416,-62.012,-52.246,-34.180,-38.574,0.000
1709214969.420,-47.852,-63.477,-35.156,-18.555,0.000
1709214969.424,-44.434,-65.430,-49.805,-22.461,0.000
1709214969.428,-47.852,-58.594,-48.340,-31.738,0.000
1709214969.432,-60.547,-51.758,-47.363,-46.875,0.000
1709214969.436,-53.223,-48.828,-31.250,-39.062,0.000
1709214969.440,-34.668,-54.688,-22.949,-22.461,0.000
1709214969.444,-22.949,-51.758,-35.645,-20.020,0.000
1709214969.448,-19.531,-37.109,-32.227,-22.461,0.000
1709214969.451,-40.039,-37.598,-33.691,-41.992,0.000
1709214969.455,-48.828,-44.434,-37.598,-61.523,0.000
1709214969.459,-29.297,-40.039,-33.203,-45.898,0.000
1709214969.463,-15.625,-31.738,-35.645,-20.996,0.000
1709214969.467,-19.043,-29.297,-42.480,-31.250,0.000
1709214969.471,-32.227,-22.949,-45.898,-54.688,0.000
1709214969.475,-41.504,-39.062,-51.758,-51.270,0.000
1709214969.479,-34.180,-59.570,-38.086,-34.180,0.000
1709214969.483,-27.832,-46.387,-24.902,-26.367,0.000
1709214969.487,-33.203,-37.598,-40.527,-33.203,0.000
1709214969.490,-51.270,-48.340,-40.039,-56.641,0.000
1709214969.494,-62.500,-45.410,-32.227,-58.594,0.000
1709214969.498,-57.129,-39.551,-35.645,-42.480,0.000
1709214969.502,-40.527,-41.992,-31.738,-29.785,0.000
1709214969.506,-41.016,-46.875,-30.273,-20.020,0.000
1709214969.510,-55.664,-40.527,-34.668,-31.738,0.000
1709214969.514,-75.684,-35.645,-46.387,-54.688,0.000
1709214969.518,-75.684,-53.711,-47.852,-47.363,0.000
1709214969.522,-49.805,-50.293,-42.480,-28.809,0.000
1709214969.526,-52.246,-39.062,-59.570,-32.715,0.000
1709214969.529,-66.406,-40.039,-49.805,-44.434,0.000
1709214969.533,-77.148,-43.945,-35.645,-62.988,0.000
1709214969.537,-82.031,-64.941,-42.480,-70.801,0.000
1709214969.541,-65.430,-62.988,-36.621,-41.992,0.000
1709214969.545,-57.617,-48.340,-41.016,-27.344,0.000
1709214969.549,-70.312,-54.199,-45.410,-52.246,0.000
1709214969.553,-81.055,-52.246,-35.645,-64.941,0.000
1709214969.557,-70.312,-43.457,-29.785,-54.688,0.000
1709214969.561,-52.246,-52.246,-31.738,-34.668,0.000
1709214969.565,-37.598,-51.758,-32.715,-16.113,0.000
1709214969.568,-45.898,-42.969,-26.367,-35.645,0.000
1709214969.572,-68.359,-53.223,-36.621,-60.547,0.000
1709214969.576,-68.359,-60.547,-39.551,-52.246,0.000
1709214969.580,-47.852,-52.246,-31.738,-37.598,0.000
1709214969.584,-30.273,-46.875,-32.227,-28.320,0.000
1709214969.588,-29.785,-36.621,-28.809,-33.691,0.000
1709214969.592,-52.246,-38.086,-31.250,-63.477,0.000
1709214969.596,-57.129,-39.062,-37.598,-61.523,0.000
1709214969.600,-41.504,-42.480,-40.527,-31.738,0.000
1709214969.603,-28.809,-50.293,-42.969,-25.879,0.000
1709214969.607,-25.391,-51.270,-39.062,-33.691,0.000
1709214969.611,-39.062,-48.828,-40.527,-45.410,0.000
1709214969.615,-46.875,-38.086,-43.945,-47.363,0.000
1709214969.619,-30.273,-29.297,-41.992,-35.645,0.000
1709214969.623,-17.578,-27.344,-42.480,-14.160,0.000
1709214969.627,-28.809,-31.250,-35.645,-23.438,0.000
1709214969.631,-40.527,-43.457,-30.762,-50.781,0.000
1709214969.635,-50.781,-53.711,-41.016,-52.734,0.000
1709214969.638,-40.039,-43.945,-38.574,-43.945,0.000
1709214969.642,-23.438,-35.645,-41.992,-25.879,0.000
1709214969.646,-23.926,-36.621,-58.105,-21.973,0.000
1709214969.650,-35.645,-40.039,-47.363,-42.969,0.000
1709214969.654,-45.410,-45.898,-41.016,-48.828,0.000
1709214969.658,-39.551,-55.176,-44.922,-31.738,0.000
1709214969.662,-23.926,-47.852,-38.574,-15.137,0.000
1709214969.666,-18.555,-30.762,-39.551,-12.207,0.000
1709214969.670,-38.574,-36.621,-47.363,-35.156,0.000
1709214969.674,-53.711,-39.551,-37.598,-56.641,0.000
1709214969.678,-40.527,-44.922,-29.785,-42.969,0.000
1709214969.682,-29.297,-60.059,-38.574,-28.320,0.000
1709214969.685,-22.461,-46.875,-37.109,-19.531,0.000
1709214969.689,-39.062,-33.691,-35.156,-24.902,0.000
1709214969.693,-46.875,-36.133,-38.086,-41.016,0.000
1709214969.697,-32.715,-33.691,-34.180,-39.062,0.000
1709214969.701,-24.902,-41.016,-45.898,-27.832,0.000
1709214969.705,-21.973,-47.363,-46.875,-18.555,0.000
1709214969.709,-30.762,-45.410,-40.527,-40.039,0.000
1709214969.713,-45.410,-41.504,-43.457,-62.500,0.000
1709214969.717,-48.828,-41.992,-51.270,-53.711,0.000
1709214969.721,-32.715,-48.828,-39.551,-38.574,0.000
1709214969.725,-24.414,-52.246,-28.320,-39.551,0.000
1709214969.729,-34.180,-45.898,-37.598,-53.711,0.000
1709214969.732,-52.734,-39.551,-43.457,-70.312,0.000
1709214969.736,-53.711,-44.434,-42.480,-66.406,0.000
1709214969.740,-36.621,-45.410,-46.875,-50.293,0.000
1709214969.744,-27.832,-34.668,-43.945,-37.109,0.000
1709214969.748,-34.668,-37.598,-38.086,-40.039,0.000
1709214969.752,-52.734,-44.922,-39.062,-63.965,0.000
1709214969.756,-49.805,-48.828,-35.645,-62.988,0.000
1709214969.760,0.000,-49.805,-38.086,-43.945,0.000
1709214969.764,0.000,-44.434,-44.434,-36.133,0.000
1709214969.768,0.000,-46.387,-41.504,-41.016,0.000
1709214969.772,0.000,-43.457,-38.574,-61.035,0.000
1709214969.776,0.000,-43.945,-33.203,-67.383,0.000
1709214969.779,0.000,-41.016,-32.715,-46.387,0.000
1709214969.783,0.000,-35.156,-37.598,-27.832,0.000
1709214969.787,0.000,-33.691,-32.715,-26.855,0.000
1709214969.791,0.000,-35.645,-31.738,-33.203,0.000
1709214969.795,0.000,-41.016,-31.738,-39.551,0.000
1709214969.799,0.000,-33.203,-39.062,-39.062,0.000
1709214969.803,0.000,-33.203,-42.480,-21.973,0.000
1709214969.807,-24.902,-44.434,-44.922,-17.090,0.000
1709214969.811,-50.781,-47.852,-48.340,-39.551,0.000
1709214969.815,-62.988,-42.480,-41.016,-58.105,0.000
1709214969.819,-37.109,-40.039,-43.945,-41.992,0.000
1709214969.822,-19.531,-42.969,-40.039,-20.508,0.000
1709214969.826,-26.855,-38.086,-40.527,-23.926,0.000
1709214969.830,-41.504,-37.598,-39.551,-43.945,0.000
1709214969.834,-48.828,-43.457,-34.180,-59.082,0.000
1709214969.838,-40.527,-43.945,-38.086,-41.504,0.000
1709214969.842,-22.949,-38.086,-42.480,-25.879,0.000
1709214969.846,-18.555,-39.551,-42.969,-36.133,0.000
1709214969.850,-35.156,-45.898,-42.969,-50.781,0.000
1709214969.854,-55.664,-50.293,-48.828,-69.336,0.000
1709214969.858,-53.711,-47.363,-45.898,-63.477,0.000
1709214969.861,-33.203,-43.457,-36.133,-38.086,0.000
1709214969.865,-21.484,-40.039,-35.645,-28.320,0.000
1709214969.869,-43.945,-51.758,-35.156,-43.457,0.000
1709214969.873,-62.012,-55.664,-27.832,-60.059,0.000
1709214969.877,-50.781,-35.156,-26.855,-57.617,0.000
1709214969.881,-34.668,-41.992,-34.668,-33.691,0.000
1709214969.885,-26.855,-63.965,-38.574,-20.996,0.000
1709214969.889,-41.504,-59.570,-37.598,-41.504,0.000
1709214969.893,-53.711,-48.340,-25.391,-52.734,0.000
1709214969.897,-41.992,-50.293,-23.926,-41.504,0.000
1709214969.900,-29.297,-52.246,-41.504,-25.879,0.000
1709214969.904,-25.391,-47.852,-46.387,-20.508,0.000
1709214969.908,-34.668,-47.852,-37.109,-33.691,0.000
1709214969.912,-53.711,-60.059,-23.926,-41.504,0.000
1709214969.916,-57.617,-64.453,-27.344,-39.062,0.000
1709214969.920,-36.621,-55.176,-39.062,-25.879,0.000
1709214969.924,-20.996,-51.270,-35.645,-21.484,0.000
1709214969.928,-22.461,-42.969,-33.691,-26.855,0.000
1709214969.932,-33.203,-35.156,-26.855,-30.273,0.000
1709214969.936,-37.598,-45.898,-29.785,-37.598,0.000
1709214969.939,-23.926,-54.688,-31.250,-23.926,0.000
1709214969.943,-9.766,-51.758,-23.438,-4.883,0.000
1709214969.947,-24.414,-52.734,-30.762,-24.902,0.000
1709214969.951,-50.293,-49.316,-48.340,-49.316,0.000
1709214969.955,-58.594,-53.223,-48.340,-48.828,0.000
1709214969.959,-41.504,-60.547,-36.621,-35.645,0.000
1709214969.963,-25.879,-45.898,-33.691,-17.578,0.000
1709214969.967,-28.320,-42.480,-29.297,-26.855,0.000
1709214969.971,-48.340,-56.641,-33.691,-43.457,0.000
1709214969.974,-49.316,-53.223,-38.574,-42.480,0.000
1709214969.978,-31.738,-44.922,-27.344,-37.109,0.000
1709214969.982,-20.996,-44.434,-20.020,-13.184,0.000
1709214969.986,-22.461,-45.898,-34.668,-18.066,0.000
1709214969.990,-39.062,-44.434,-28.809,-46.387,0.000
1709214969.994,-50.293,-47.852,-29.785,-54.688,0.000
1709214969.998,-47.363,-61.523,-44.922,-37.598,0.000
1709214970.002,-35.645,-59.570,-38.086,-13.672,0.000
1709214970.006,-29.785,-50.293,-38.086,-13.672,0.000
1709214970.009,-40.039,-48.828,-41.504,-30.762,0.000
1709214970.013,-56.152,-52.734,-50.293,-48.828,0.000
1709214970.017,-51.270,-57.129,-42.969,-34.668,0.000
1709214970.021,-25.391,-51.758,-31.250,-20.508,0.000
1709214970.025,-19.043,-49.316,-37.598,-27.832,0.000
1709214970.029,-35.645,-53.223,-44.922,-34.180,0.000
1709214970.033,-46.875,-44.434,-42.969,-40.039,0.000
1709214970.037,-40.527,-41.016,-47.363,-44.434,0.000
1709214970.041,-25.879,-47.852,-57.617,-40.527,0.000
1709214970.045,-16.602,-42.480,-47.852,-28.809,0.000
1709214970.049,-20.020,-43.457,-41.992,-39.551,0.000
1709214970.053,-38.574,-51.270,-48.340,-60.059,0.000
1709214970.056,-41.504,-44.434,-45.898,-62.012,0.000
1709214970.060,-30.762,-44.922,-49.316,-47.363,0.000
1709214970.064,-26.855,-45.898,-53.711,-35.156,0.000
1709214970.068,-35.156,-34.180,-49.805,-49.805,0.000
1709214970.072,-51.270,-35.645,-44.434,-66.895,0.000
1709214970.076,-49.805,-30.762,-40.527,-56.641,0.000
1709214970.080,-28.320,-34.180,-39.551,-34.180,0.000
1709214970.084,-28.809,-50.781,-41.992,-34.668,0.000
1709214970.088,-46.387,-50.781,-44.922,-51.758,0.000
1709214970.092,-61.035,-45.898,-41.504,-59.082,0.000
1709214970.096,-57.617,-35.156,-45.410,-50.293,0.000
1709214970.100,-35.645,-28.320,-43.945,-28.320,0.000
1709214970.103,-19.043,-33.203,-21.973,-10.254,0.000
1709214970.107,-37.109,-42.969,-22.461,-24.902,0.000
1709214970.111,-67.871,-38.086,-31.738,-47.852,0.000
1709214970.115,-67.383,-39.062,-30.273,-52.734,0.000
1709214970.119,-47.852,-47.852,-32.715,-35.645,0.000
1709214970.123,-35.156,-45.898,-37.598,-20.020,0.000
1709214970.127,-33.691,-41.992,-35.645,-24.902,0.000
1709214970.131,-47.852,-41.992,-32.715,-39.551,0.000
1709214970.135,0.000,-43.945,-33.203,-39.551,0.000
1709214970.139,0.000,-40.527,-31.250,-26.855,0.000
1709214970.143,0.000,-35.645,-36.621,-17.578,0.000
1709214970.146,0.000,-34.180,-37.598,-27.832,0.000
1709214970.150,0.000,-44.434,-35.156,-49.805,0.000
1709214970.154,0.000,-54.199,-39.062,-54.199,0.000
1709214970.158,0.000,-42.480,-40.039,-34.180,0.000
1709214970.162,0.000,-39.551,-39.062,-24.902,0.000
1709214970.166,0.000,-47.363,-35.645,-24.902,0.000
1709214970.170,0.000,-44.434,-34.668,-35.645,0.000
1709214970.174,0.000,-46.875,-41.504,-50.293,0.000
1709214970.178,0.000,-47.363,-37.598,-37.598,0.000
1709214970.182,-15.625,-29.297,-28.320,-24.414,0.000
1709214970.186,-14.648,-28.809,-31.738,-27.832,0.000
1709214970.190,-28.809,-45.410,-32.227,-40.039,0.000
1709214970.194,-45.410,-46.875,-39.062,-54.199,0.000
1709214970.198,-38.574,-37.109,-48.828,-47.852,0.000
1709214970.202,-23.926,-32.715,-46.387,-34.180,0.000
1709214970.205,-24.414,-33.691,-41.504,-35.645,0.000
1709214970.209,-42.480,-39.062,-40.039,-47.363,0.000
1709214970.213,-55.664,-55.664,-35.156,-43.945,0.000
1709214970.217,-55.176,-60.547,-46.387,-40.039,0.000
1709214970.221,-35.645,-49.805,-49.316,-33.691,0.000
1709214970.225,-20.508,-42.480,-39.551,-28.320,0.000
1709214970.229,-34.668,-44.922,-38.086,-44.922,0.000
1709214970.233,-53.711,-42.969,-35.645,-50.293,0.000
1709214970.237,-53.223,-38.574,-38.086,-46.387,0.000
1709214970.241,-39.062,-47.852,-36.133,-36.621,0.000
1709214970.244,-35.645,-55.176,-38.574,-26.855,0.000
1709214970.248,-48.828,-55.664,-47.852,-35.156,0.000
1709214970.252,-59.570,-58.105,-38.574,-53.711,0.000
1709214970.256,-61.523,-49.316,-27.344,-54.199,0.000
1709214970.260,-48.828,-33.691,-21.484,-33.203,0.000
1709214970.264,-39.551,-34.180,-26.855,-23.926,0.000
1709214970.268,-39.062,-39.551,-34.668,-32.715,0.000
1709214970.272,-54.199,-41.992,-31.250,-41.992,0.000
1709214970.276,-67.383,-44.434,-40.527,-41.016,0.000
1709214970.279,-60.547,-43.457,-44.922,-37.598,0.000
1709214970.283,-37.598,-41.016,-32.715,-20.020,0.000
1709214970.287,-35.156,-44.434,-28.809,-20.996,0.000
1709214970.291,-57.129,-58.594,-40.527,-42.969,0.000
1709214970.295,-60.059,-65.918,-41.016,-43.457,0.000
1709214970.299,-50.293,-62.012,-34.180,-33.203,0.000
1709214970.303,-28.320,-51.270,-30.762,-16.602,0.000
1709214970.307,-19.043,-43.457,-33.203,-20.020,0.000
1709214970.311,-37.598,-43.945,-33.203,-43.457,0.000
1709214970.315,-51.758,-49.316,-31.250,-50.293,0.000
1709214970.319,-42.969,-51.270,-36.133,-36.621,0.000
1709214970.322,-24.414,-45.898,-35.645,-21.484,0.000
1709214970.326,-17.578,-41.992,-32.227,-17.578,0.000
1709214970.330,-35.156,-41.016,-40.527,-37.109,0.000
1709214970.334,-45.410,-49.805,-48.340,-53.711,0.000
1709214970.338,-31.738,-57.129,-37.109,-41.992,0.000
1709214970.342,-20.996,-41.504,-37.109,-30.762,0.000
1709214970.346,-25.879,-32.227,-34.668,-28.809,0.000
1709214970.350,-33.203,-34.180,-27.344,-32.715,0.000
1709214970.354,-49.316,-30.762,-32.715,-49.805,0.000
1709214970.357,-47.363,-36.133,-40.039,-50.293,0.000
1709214970.361,-24.414,-30.273,-35.645,-18.555,0.000
1709214970.365,-36.621,-34.180,-32.715,-18.066,0.000
1709214970.369,-55.664,-36.133,-33.203,-47.363,0.000
1709214970.373,-59.082,-33.691,-31.250,-52.246,0.000
1709214970.377,-58.105,-46.387,-36.621,-45.898,0.000
1709214970.381,-41.504,-43.457,-46.387,-31.738,0.000
1709214970.385,-37.109,-31.250,-55.664,-31.738,0.000
1709214970.389,-46.875,-25.879,-43.945,-45.410,0.000
1709214970.392,-53.223,-23.438,-38.086,-50.781,0.000
1709214970.396,-47.852,-31.738,-35.156,-49.316,0.000
1709214970.400,-30.273,-38.574,-25.879,-36.133,0.000
1709214970.404,-15.625,-31.250,-26.855,-22.949,0.000
1709214970.408,-18.066,-28.809,-27.832,-30.762,0.000
1709214970.412,-41.504,-38.574,-32.227,-52.734,0.000
1709214970.416,-44.434,-34.180,-32.227,-56.152,0.000
1709214970.420,-27.344,-40.039,-39.062,-40.527,0.000
1709214970.424,-17.578,-51.758,-41.016,-29.297,0.000
1709214970.428,-26.367,-43.945,-39.062,-32.715,0.000
1709214970.432,-47.852,-38.574,-46.387,-49.316,0.000
1709214970.436,-54.199,-40.527,-38.574,-51.270,0.000
1709214970.439,-42.969,-46.387,-26.855,-25.879,0.000
1709214970.443,-28.320,-56.152,-24.902,-17.578,0.000
1709214970.447,-36.621,-52.246,-36.133,-37.109,0.000
1709214970.451,-49.316,-41.992,-34.180,-41.992,0.000
1709214970.455,-59.082,-41.016,-36.621,-43.457,0.000
1709214970.459,-49.805,-50.293,-40.527,-34.668,0.000
1709214970.463,-29.297,-51.758,-28.809,-17.090,0.000
1709214970.467,-37.598,-37.598,-32.227,-34.668,0.000
1709214970.471,-53.223,-43.457,-31.250,-58.594,0.000
1709214970.475,-62.012,-49.316,-35.645,-64.453,0.000
1709214970.479,-55.176,-36.621,-47.363,-52.734,0.000
1709214970.483,-33.691,-32.715,-40.527,-38.574,0.000
1709214970.486,-31.738,-42.480,-41.016,-45.410,0.000
1709214970.490,-48.828,-50.293,-46.387,-67.383,0.000
1709214970.494,-66.895,-47.852,-49.805,-82.031,0.000
1709214970.498,-58.105,-50.781,-43.945,-56.641,0.000
1709214970.502,-32.227,-43.457,-33.203,-27.344,0.000
1709214970.506,-32.227,-35.156,-34.180,-37.598,0.000
1709214970.510,-46.875,-34.668,-32.715,-54.688,0.000
1709214970.514,-52.734,-32.715,-35.156,-59.082,0.000
1709214970.518,-41.504,-43.457,-34.180,-51.270,0.000
1709214970.522,-23.926,-46.387,-27.832,-34.180,0.000
1709214970.526,-21.484,-41.992,-41.504,-34.180,0.000
1709214970.529,-32.227,-38.086,-41.016,-43.945,0.000
1709214970.533,-42.969,-43.457,-29.297,-43.457,0.000
1709214970.537,-36.133,-44.434,-22.461,-39.062,0.000
1709214970.541,-20.996,-48.828,-22.461,-24.414,0.000
1709214970.545,-19.043,-53.711,-35.645,-9.277,0.000
1709214970.549,-34.180,-46.875,-45.898,-34.180,0.000
1709214970.553,-46.875,-47.852,-39.062,-60.547,0.000
1709214970.557,-43.945,-44.922,-38.086,-49.316,0.000
1709214970.561,-31.738,-41.504,-50.293,-28.809,0.000
1709214970.565,-23.438,-43.945,-40.039,-28.320,0.000
1709214970.568,-34.668,-46.875,-37.598,-38.574,0.000
1709214970.572,-47.363,-37.598,-31.738,-48.340,0.000
1709214970.576,-55.176,-47.363,-28.809,-53.711,0.000
1709214970.580,-42.969,-67.383,-33.691,-35.645,0.000
1709214970.584,-22.461,-59.570,-29.297,-20.996,0.000
1709214970.588,-36.133,-40.527,-38.086,-31.250,0.000
1709214970.592,-52.734,-32.227,-39.062,-50.781,0.000
1709214970.596,-49.805,-35.156,-34.180,-50.781,0.000
1709214970.600,-35.156,-37.598,-35.156,-34.180,0.000
1709214970.604,-23.438,-29.297,-23.926,-18.066,0.000
1709214970.607,-38.574,-41.992,-26.367,-34.668,0.000
1709214970.611,-58.105,-57.617,-39.551,-61.523,0.000
1709214970.615,-62.988,-53.711,-44.434,-61.523,0.000
1709214970.619,-48.340,-59.082,-47.363,-52.246,0.000
1709214970.623,-24.902,-67.383,-39.062,-30.762,0.000
1709214970.627,-20.508,-49.316,-32.715,-30.273,0.000
1709214970.631,-45.898,-38.574,-32.227,-52.246,0.000
1709214970.635,-62.012,-40.039,-30.273,-54.688,0.000
1709214970.639,-45.898,-35.156,-36.621,-40.527,0.000
1709214970.643,-23.926,-41.504,-45.898,-26.855,0.000
1709214970.647,-23.926,-51.758,-42.480,-30.273,0.000
1709214970.651,-40.039,-50.293,-42.969,-42.480,0.000
1709214970.655,-46.875,-42.969,-40.039,-46.875,0.000
1709214970.659,-35.156,-47.852,-40.039,-32.715,0.000
1709214970.662,-18.555,-57.617,-45.410,-11.230,0.000
1709214970.666,-19.531,-55.176,-33.691,-20.996,0.000
1709214970.670,-37.109,-42.480,-30.762,-43.945,0.000
1709214970.674,-49.316,-43.945,-36.621,-53.711,0.000
1709214970.678,-42.480,-54.688,-28.320,-34.668,0.000
1709214970.682,-18.555,-43.457,-22.949,-4.395,0.000
1709214970.686,-13.672,-38.574,-38.086,-10.742,0.000
1709214970.690,-30.273,-56.641,-42.969,-31.250,0.000
1709214970.694,-44.434,-54.199,-36.621,-47.363,0.000
1709214970.697,-40.039,-41.016,-25.879,-42.969,0.000
1709214970.701,-21.484,-41.504,-24.902,-16.113,0.000
1709214970.705,-16.602,-53.711,-35.156,-5.859,0.000
1709214970.709,-34.180,-62.988,-45.410,-35.645,0.000
1709214970.713,-53.711,-50.293,-56.152,-59.570,0.000
1709214970.717,-51.758,-45.898,-42.480,-51.758,0.000
1709214970.721,-36.133,-53.223,-41.504,-35.156,0.000
1709214970.725,-29.785,-43.945,-42.969,-24.902,0.000
1709214970.729,-36.621,-42.969,-37.109,-37.109,0.000
1709214970.733,-48.828,-39.551,-40.039,-53.223,0.000
1709214970.737,-41.504,-32.715,-40.527,-45.898,0.000
1709214970.740,-21.973,-36.133,-48.340,-31.250,0.000
1709214970.744,-18.555,-42.969,-55.664,-25.391,0.000
1709214970.748,-23.438,-57.617,-50.293,-30.762,0.000
1709214970.752,-42.969,-61.035,-47.852,-49.805,0.000
1709214970.756,-52.246,-53.711,-53.711,-54.199,0.000
1709214970.760,-42.480,-53.223,-53.711,-36.133,0.000
1709214970.764,-34.668,-43.945,-44.922,-25.391,0.000
1709214970.768,-32.227,-47.363,-43.945,-28.320,0.000
1709214970.771,-44.434,-56.152,-38.574,-41.992,0.000
1709214970.775,-58.594,-37.109,-36.133,-53.711,0.000
1709214970.779,-45.410,-36.133,-39.062,-41.016,0.000
1709214970.783,-34.668,-49.805,-36.133,-27.344,0.000
1709214970.787,-38.574,-57.617,-35.156,-35.645,0.000
1709214970.791,-59.082,-54.199,-35.156,-62.500,0.000
1709214970.795,-70.801,-41.992,-43.945,-69.336,0.000
1709214970.799,-46.875,-33.203,-36.621,-42.480,0.000
1709214970.803,-25.879,-26.367,-33.691,-17.090,0.000
1709214970.807,-38.086,-39.062,-50.781,-22.461,0.000
1709214970.811,-57.617,-46.875,-39.551,-40.527,0.000
1709214970.815,-68.848,-42.969,-34.180,-51.758,0.000
1709214970.818,-61.035,-44.434,-34.668,-44.922,0.000
1709214970.822,-47.852,-43.457,-35.156,-29.297,0.000
1709214970.826,-41.992,-42.969,-26.855,-26.855,0.000
1709214970.830,-54.199,-48.828,-29.785,-40.527,0.000
1709214970.834,-64.453,-50.781,-39.062,-51.270,0.000
1709214970.838,-49.805,-35.156,-33.691,0.000,0.000
1709214970.842,-32.227,-25.879,-34.180,0.000,0.000
1709214970.846,-27.344,-26.855,-33.203,0.000,0.000
1709214970.850,-34.668,-42.969,-40.527,0.000,0.000
1709214970.854,-41.504,-47.363,-47.363,0.000,0.000
1709214970.858,-41.504,-37.598,-42.480,0.000,0.000
1709214970.862,-32.227,-36.133,-34.668,0.000,0.000
1709214970.865,-18.066,-37.598,-34.668,0.000,0.000
1709214970.869,-26.855,-49.316,-32.715,0.000,0.000
1709214970.873,-51.758,-43.457,-29.297,0.000,0.000
1709214970.877,-52.246,-31.738,-38.574,0.000,0.000
1709214970.881,-23.438,-26.855,-39.062,0.000,0.000
1709214970.885,-15.625,-38.574,-35.645,-21.973,0.000
1709214970.889,-33.691,-52.246,-49.316,-45.410,0.000
1709214970.893,-49.316,-47.363,-53.711,-66.895,0.000
1709214970.897,-47.852,-47.363,-47.852,-66.406,0.000
1709214970.901,-32.715,-44.434,-48.828,-31.738,0.000
1709214970.905,-22.949,-48.340,-42.480,-21.973,0.000
1709214970.908,-28.809,-47.852,-31.738,-34.668,0.000
1709214970.912,-49.805,-38.086,-30.273,-46.875,0.000
1709214970.916,-59.082,-49.805,-39.551,-49.805,0.000
1709214970.920,-34.668,-54.199,-35.645,-28.809,0.000
1709214970.924,-25.391,-35.156,-43.945,-30.273,0.000
1709214970.928,-42.969,-32.227,-47.363,-50.781,0.000
1709214970.932,-54.688,-38.086,-42.969,-57.617,0.000
1709214970.936,-48.340,-34.668,-39.062,-50.781,0.000
1709214970.940,-36.621,-38.574,-33.203,-40.039,0.000
1709214970.944,-29.297,-39.551,-39.551,-27.832,0.000
1709214970.948,-30.762,-38.574,-40.527,-34.180,0.000
1709214970.951,-50.781,-47.852,-35.645,-54.688,0.000
1709214970.955,-68.359,-49.316,-47.852,-70.312,0.000
1709214970.959,-51.270,-55.176,-55.664,-63.477,0.000
1709214970.963,-28.320,-49.316,-56.641,-35.645,0.000
1709214970.967,-32.715,-30.273,-42.969,-36.621,0.000
1709214970.971,-46.387,-24.414,-36.133,-62.012,0.000
1709214970.975,-46.387,-26.855,-38.574,-63.477,0.000
1709214970.979,-42.969,-38.086,-38.086,-58.105,0.000
1709214970.983,-35.156,-42.969,-44.434,-47.852,0.000
1709214970.987,-30.762,-49.805,-53.223,-42.480,0.000
1709214970.990,-48.828,-62.500,-52.246,-61.523,0.000
1709214970.994,-62.988,-64.453,-49.805,-76.660,0.000
1709214970.998,-55.664,-62.012,-49.316,-61.523,0.000
1709214971.002,-34.180,-44.922,-37.598,-39.062,0.000
1709214971.006,-22.949,-41.504,-34.668,-31.250,0.000
1709214971.010,-39.551,-51.758,-34.668,-36.621,0.000
1709214971.014,-63.965,-50.781,-32.227,-50.781,0.000
1709214971.018,-57.129,-54.199,-35.156,-49.316,0.000
1709214971.022,-31.738,-47.852,-35.156,-25.391,0.000
1709214971.026,-27.344,-45.410,-37.598,-25.391,0.000
1709214971.029,-41.504,-54.688,-45.898,-49.805,0.000
1709214971.033,-59.082,-63.965,-40.039,-56.152,0.000
1709214971.037,-55.664,-73.730,-41.016,-40.039,0.000
1709214971.041,-36.621,-75.195,-34.180,-13.184,0.000
1709214971.045,-31.250,-60.059,-23.926,-12.207,0.000
1709214971.049,-35.645,-51.270,-37.598,-33.691,0.000
1709214971.053,-49.316,-49.805,-35.156,-40.527,0.000
1709214971.057,-51.758,-46.875,-27.344,-32.227,0.000
1709214971.061,-32.227,-54.688,-34.180,-22.949,0.000
1709214971.065,-23.926,-52.734,-41.016,-23.438,0.000
1709214971.068,-37.109,-51.758,-39.551,-40.039,0.000
1709214971.072,-58.105,-54.688,-36.133,-59.570,0.000
1709214971.076,-67.383,-50.293,-33.691,-61.035,0.000
1709214971.080,-52.246,-52.246,-36.133,-37.109,0.000
1709214971.084,-36.133,-58.594,-45.410,-28.809,0.000
1709214971.088,-38.086,-56.641,-35.156,-41.016,0.000
1709214971.092,-52.246,-47.363,-32.715,-61.035,0.000
1709214971.096,-52.734,-35.645,-36.621,-57.129,0.000
1709214971.100,-35.645,-31.738,-30.273,-24.414,0.000
1709214971.103,-26.855,-41.016,-37.109,-21.973,0.000
1709214971.107,-28.809,-48.828,-40.527,-38.574,0.000
1709214971.111,-38.574,-51.270,-37.109,-47.363,0.000
1709214971.115,-50.781,-57.617,-45.898,-56.152,0.000
1709214971.119,-42.969,-55.176,-46.875,-45.410,0.000
1709214971.123,-16.113,-47.363,-34.180,-18.066,0.000
1709214971.127,-8.789,-51.270,-34.180,-16.602,0.000
1709214971.131,-28.320,-52.734,-43.457,-37.109,0.000
1709214971.135,-43.457,-45.898,-38.574,-46.387,0.000
1709214971.138,-39.062,-50.781,-28.809,-31.738,0.000
1709214971.142,-29.297,-63.477,-34.668,-10.254,0.000
1709214971.146,-31.738,-59.082,-41.504,-18.555,0.000
1709214971.150,-48.828,-47.852,-38.086,-47.852,0.000
1709214971.154,-56.641,-47.363,-31.738,-51.758,0.000
1709214971.158,-46.875,-52.246,-33.691,-42.969,0.000
1709214971.162,-22.949,-55.176,-36.621,-36.133,0.000
1709214971.166,-16.113,-51.758,-31.250,-36.621,0.000
1709214971.170,-38.086,-48.340,-36.621,-52.734,0.000
1709214971.174,-58.594,-58.105,-39.551,-67.871,0.000
1709214971.178,-48.340,-58.105,-35.645,-61.035,0.000
1709214971.182,-24.414,-55.664,-43.457,-41.992,0.000
1709214971.185,-23.438,-56.641,-51.270,-33.203,0.000
1709214971.189,-43.457,-50.293,-47.852,-45.898,0.000
1709214971.193,-65.430,-55.664,-41.992,-64.453,0.000
1709214971.197,-59.570,-48.340,-35.156,-47.363,0.000
1709214971.201,-33.203,-33.691,-35.645,-23.438,0.000
1709214971.205,-20.508,-41.016,-46.387,-24.902,0.000
1709214971.209,-26.855,-44.922,-48.340,-32.715,0.000
1709214971.213,-42.969,-41.504,-36.621,-43.945,0.000
1709214971.217,-45.410,-48.340,-34.668,-41.504,0.000
1709214971.221,-30.762,-49.805,-40.527,-24.902,0.000
1709214971.225,-19.043,-39.551,-39.062,-23.926,0.000
1709214971.229,-32.227,-44.434,-42.969,-34.668,0.000
1709214971.232,-52.734,-55.176,-45.410,-49.316,0.000
1709214971.236,-50.293,-55.176,-36.133,-51.270,0.000
1709214971.240,-38.574,-44.434,-40.527,-45.898,0.000
1709214971.244,-25.391,-39.062,-48.828,-37.598,0.000
1709214971.248,-33.691,-45.410,-47.852,-33.691,0.000
1709214971.252,-49.805,-46.875,-46.387,-50.293,0.000
1709214971.256,-49.316,-43.457,-45.410,-64.453,0.000
1709214971.260,-22.949,-50.781,-39.551,-45.898,0.000
1709214971.264,1.465,-57.129,-35.645,-22.461,0.000
1709214971.268,-14.160,-61.523,-41.016,-32.715,0.000
1709214971.272,-29.785,-53.711,-40.527,-47.363,0.000
1709214971.275,-26.855,-43.945,-36.133,-37.109,0.000
1709214971.279,-17.090,-50.293,-38.086,-22.949,0.000
1709214971.283,-10.254,-49.316,-40.527,-22.949,0.000
1709214971.287,-9.766,-48.828,-31.738,-28.320,0.000
1709214971.291,-27.344,-50.293,-24.902,-31.738,0.000
1709214971.295,-54.688,-38.086,-28.809,-43.457,0.000
1709214971.299,-42.969,-32.227,-27.344,-36.133,0.000
1709214971.303,-18.066,-46.875,-30.762,-15.625,0.000
1709214971.307,-23.926,-44.922,-36.133,-29.297,0.000
1709214971.311,-45.410,-31.738,-31.738,-47.852,0.000
1709214971.315,-57.617,-30.762,-35.645,-49.805,0.000
1709214971.318,-51.270,-42.969,-39.551,-37.109,0.000
1709214971.322,-33.691,-57.617,-47.363,-19.531,0.000
1709214971.326,-30.762,-57.617,-41.504,-18.066,0.000
1709214971.330,-55.176,-45.898,-31.738,-40.527,0.000
1709214971.334,-65.918,-34.668,-35.645,-55.664,0.000
1709214971.338,-51.270,-44.434,-36.621,-39.062,0.000
1709214971.342,-37.109,-52.734,-40.039,-29.297,0.000
1709214971.346,-36.133,-46.387,-38.086,-46.387,0.000
1709214971.350,-52.246,-48.828,-41.016,-62.012,0.000
1709214971.354,-68.848,-47.363,-48.828,-71.289,0.000
1709214971.357,-65.430,-49.316,-45.410,-69.336,0.000
1709214971.361,-48.828,-60.059,-44.434,-50.781,0.000
1709214971.365,-41.016,-57.129,-40.527,-39.551,0.000
1709214971.369,-54.688,-50.293,-40.527,-56.152,0.000
1709214971.373,-60.547,-47.852,-36.621,-69.824,0.000
1709214971.377,-56.152,-61.035,-34.180,-62.500,0.000
1709214971.381,-36.621,-62.500,-34.668,-39.551,0.000
1709214971.385,-30.762,-44.434,-27.344,-20.996,0.000
1709214971.389,-37.598,-39.062,-24.902,-33.203,0.000
1709214971.393,-50.293,-49.316,-31.738,-60.547,0.000
1709214971.396,-58.594,-53.711,-39.551,-63.965,0.000
1709214971.400,-41.016,-52.734,-28.320,-35.645,0.000
1709214971.404,-24.414,-50.293,-30.273,-22.949,0.000
1709214971.408,-34.180,-52.734,-41.504,-40.527,0.000
1709214971.412,-46.387,-62.988,-34.180,-51.270,0.000
1709214971.416,-32.715,-60.059,-28.809,-41.504,0.000
1709214971.420,-21.973,-49.316,-38.086,-26.367,0.000
1709214971.424,-20.020,-46.875,-38.574,-20.508,0.000
1709214971.428,-28.320,-49.805,-28.809,-24.902,0.000
1709214971.432,-50.293,-56.641,-35.156,-50.781,0.000
1709214971.436,-54.688,-48.340,-40.527,-60.059,0.000
1709214971.439,-44.922,-46.387,-32.715,-41.504,0.000
1709214971.443,-24.414,-48.340,-33.203,-26.855,0.000
1709214971.447,-16.113,-49.805,-39.551,-28.320,0.000
1709214971.451,-27.344,-54.199,-36.133,-45.410,0.000
1709214971.455,-37.109,-53.223,-34.668,-51.758,0.000
1709214971.459,-28.809,-46.875,-33.691,-28.320,0.000
1709214971.463,-10.254,-56.152,-35.645,-10.742,0.000
1709214971.467,-6.348,-60.547,-42.480,-21.973,0.000
1709214971.471,-17.578,-53.223,-31.738,-31.250,0.000
1709214971.474,-30.762,-48.828,-31.250,-36.621,0.000
1709214971.478,-15.137,-29.297,-23.926,-21.973,0.000
1709214971.482,-8.789,-43.457,-31.250,-16.602,0.000
1709214971.486,-23.438,-54.199,-51.270,-37.109,0.000
1709214971.490,-33.691,-40.527,-47.363,-53.711,0.000
1709214971.494,-34.668,-39.551,-42.969,-56.641,0.000
1709214971.498,-29.785,-46.387,-39.551,-39.551,0.000
1709214971.502,-12.207,-52.246,-29.785,-20.020,0.000
1709214971.505,-1.953,-40.527,-30.762,-20.020,0.000
1709214971.509,-24.414,-34.668,-38.574,-42.969,0.000
1709214971.513,-50.781,-50.781,-40.039,-62.500,0.000
1709214971.517,-45.410,-52.246,-34.668,-46.875,0.000
1709214971.521,-29.297,-49.316,-37.598,-26.367,0.000
1709214971.525,-27.832,-46.875,-38.086,-28.320,0.000
1709214971.529,-42.480,-45.898,-38.086,-41.992,0.000
1709214971.533,-57.129,-45.898,-34.668,-53.223,0.000
1709214971.537,-56.152,-41.504,-32.227,-45.898,0.000
1709214971.540,-41.992,-44.922,-41.504,-37.598,0.000
1709214971.544,-31.250,-58.105,-41.504,-30.273,0.000
1709214971.548,-52.734,-58.594,-36.621,-40.039,0.000
1709214971.552,-71.777,-51.270,-42.969,-63.965,0.000
1709214971.556,-62.500,-48.828,-51.758,-64.453,0.000
1709214971.560,-50.781,-55.176,-44.434,-47.852,0.000
1709214971.564,-43.457,-60.059,-39.551,-27.832,0.000
1709214971.568,-52.734,-54.688,-37.109,-41.504,0.000
1709214971.572,-57.129,-44.922,-27.832,-59.570,0.000
1709214971.576,-54.199,-49.316,-35.156,-60.059,0.000
1709214971.579,-43.457,-67.871,-47.363,-45.898,0.000
1709214971.583,-28.320,-60.547,-45.410,-31.250,0.000
1709214971.587,-38.086,-43.945,-47.852,-44.434,0.000
1709214971.591,-59.082,-42.969,-50.293,-59.082,0.000
1709214971.595,-58.105,-39.551,-35.645,-53.711,0.000
1709214971.599,-46.875,-38.086,-35.156,-39.062,0.000
1709214971.603,-39.551,-52.246,-41.992,-29.785,0.000
1709214971.607,-36.133,-54.199,-42.480,-26.367,0.000
1709214971.611,-48.340,-46.875,-40.527,-34.668,0.000
1709214971.615,-54.199,-49.316,-33.691,-50.293,0.000
1709214971.619,-37.598,-49.805,-27.832,-35.645,0.000
1709214971.623,-27.344,-47.363,-37.598,-16.113,0.000
1709214971.626,-36.621,-39.551,-51.270,-25.391,0.000
1709214971.630,-50.781,-46.875,-44.434,-49.316,0.000
1709214971.634,-50.781,-52.734,-39.062,-54.199,0.000
1709214971.638,-37.109,-43.945,-38.086,-34.668,0.000
1709214971.642,-28.320,-45.410,-48.828,-22.461,0.000
1709214971.646,-35.156,-49.316,-56.641,-26.367,0.000
1709214971.650,-48.828,-50.781,-53.223,-40.527,0.000
1709214971.654,-57.617,-48.828,-48.340,-49.805,0.000
1709214971.658,-41.016,-54.688,-42.480,-35.156,0.000
1709214971.662,-22.949,-54.688,-38.086,-20.508,0.000
1709214971.666,-16.113,-39.062,-30.762,-10.254,0.000
1709214971.669,-32.715,-41.016,-34.180,-21.973,0.000
1709214971.673,-58.594,-50.781,-41.504,-48.828,0.000
1709214971.677,-52.246,-52.246,-40.039,-43.945,0.000
1709214971.681,-32.715,-47.363,-34.180,-20.020,0.000
1709214971.685,-25.391,-42.969,-32.715,-18.555,0.000
1709214971.689,-38.574,-52.246,-39.551,-41.016,0.000
1709214971.693,-48.828,-54.688,-39.062,-52.734,0.000
1709214971.697,-49.805,-40.039,-34.180,-46.875,0.000
1709214971.701,-41.504,-34.668,-39.551,-34.668,0.000
1709214971.705,-32.715,-36.621,-50.293,-35.156,0.000
1709214971.709,-43.945,-36.621,-47.363,-52.734,0.000
1709214971.712,-56.641,-51.270,-34.668,-54.199,0.000
1709214971.716,-51.758,-51.758,-38.086,-48.828,0.000
1709214971.720,-39.551,-39.062,-45.410,-35.156,0.000
1709214971.724,-27.344,-42.969,-36.133,-11.719,0.000
1709214971.728,-27.832,-43.457,-33.691,-21.973,0.000
1709214971.732,-46.875,-49.316,-43.457,-49.805,0.000
1709214971.736,-53.711,-53.711,-37.598,-57.129,0.000
1709214971.740,-35.645,-41.992,-35.645,-41.504,0.000
1709214971.744,-22.949,-34.668,-31.738,-26.855,0.000
1709214971.748,-32.227,-36.133,-30.762,-31.738,0.000
1709214971.751,-43.945,-41.992,-43.945,-45.898,0.000
1709214971.755,-38.574,-43.945,-35.156,-46.387,0.000
1709214971.759,-32.227,-44.434,-30.273,-33.203,0.000
1709214971.763,-23.438,-52.734,-37.598,-26.367,0.000
1709214971.767,-21.484,-47.363,-36.621,-30.273,0.000
1709214971.771,-38.574,-43.457,-37.109,-51.758,0.000
1709214971.775,-47.363,-48.340,-37.598,-57.617,0.000
1709214971.779,-33.691,-38.574,-38.086,-46.875,0.000
1709214971.783,-25.391,-33.691,-40.527,-39.062,0.000
1709214971.787,-33.691,-34.180,-43.457,-38.086,0.000
1709214971.790,-43.457,-33.203,-33.691,-52.734,0.000
1709214971.794,-58.105,-45.410,-30.273,-68.848,0.000
1709214971.798,-57.617,-44.922,-46.387,-62.012,0.000
1709214971.802,-35.156,-37.598,-42.480,-28.320,0.000
1709214971.806,-30.762,-44.922,-39.551,-29.297,0.000
1709214971.810,-53.711,-41.016,-52.246,-62.500,0.000
1709214971.814,-73.242,-37.598,-43.945,-63.965,0.000
1709214971.818,-57.617,-37.598,-37.109,-43.457,0.000
1709214971.822,-33.203,-30.762,-39.551,-33.691,0.000
1709214971.825,-35.156,-39.551,-33.691,-40.527,0.000
1709214971.829,-51.270,-52.734,-39.062,-53.711,0.000
1709214971.833,-60.547,-51.270,-42.480,-60.059,0.000
1709214971.837,-53.223,-56.152,-39.551,-45.410,0.000
1709214971.841,-42.480,-53.711,-42.969,-30.762,0.000
1709214971.845,-26.855,-44.434,-37.109,-30.762,0.000
1709214971.849,-41.504,-43.457,-46.875,-43.457,0.000
1709214971.853,-63.965,-39.062,-45.410,-60.547,0.000
1709214971.857,-61.523,-41.992,-41.016,-59.082,0.000
1709214971.861,-53.223,-48.340,-42.969,-44.434,0.000
1709214971.865,-43.457,-52.734,-38.574,-40.527,0.000
1709214971.868,-51.758,-55.664,-48.340,-58.105,0.000
1709214971.872,-67.383,-48.340,-45.898,-72.266,0.000
1709214971.876,-57.617,-38.574,-36.621,-62.500,0.000
1709214971.880,-30.273,-47.363,-33.203,-35.156,0.000
1709214971.884,-27.344,-52.246,-37.598,-25.391,0.000
1709214971.888,-35.645,-38.086,-31.250,-42.969,0.000
1709214971.892,-47.363,-44.922,-23.926,-52.246,0.000
1709214971.896,-50.781,-52.246,-45.410,-45.410,0.000
1709214971.900,-36.133,-45.410,-48.828,-34.668,0.000
1709214971.903,-25.391,-45.410,-33.203,-30.273,0.000
1709214971.907,-29.785,-50.781,-41.992,-39.062,0.000
1709214971.911,-43.457,-53.223,-41.504,-45.410,0.000
1709214971.915,-42.969,-54.688,-32.227,-45.898,0.000
1709214971.919,-33.691,-51.758,-34.668,-39.062,0.000
1709214971.923,-26.855,-49.316,-37.598,-23.926,0.000
1709214971.927,-27.832,-47.363,-38.574,-23.438,0.000
1709214971.931,-45.410,-45.898,-38.086,-47.852,0.000
1709214971.935,-63.965,-47.852,-40.039,-58.594,0.000
1709214971.938,-50.293,-52.246,-37.598,-39.551,0.000
1709214971.942,-31.250,-62.500,-49.316,-25.879,0.000
1709214971.946,-28.809,-59.570,-52.734,-28.809,0.000
1709214971.950,-38.574,-49.805,-26.367,-39.062,0.000
1709214971.954,-45.410,-53.223,-27.344,-45.410,0.000
1709214971.958,-33.691,-63.477,-37.598,-32.227,0.000
1709214971.962,-17.090,-55.664,-37.598,-18.066,0.000
1709214971.966,-17.578,-46.387,-40.039,-24.902,0.000
1709214971.970,-36.133,-48.340,-39.062,-45.410,0.000
1709214971.974,-43.457,-44.434,-35.645,-53.223,0.000
1709214971.978,-39.551,-48.828,-37.109,-38.574,0.000
1709214971.982,-22.949,-55.664,-38.574,-15.625,0.000
1709214971.985,-20.020,-50.293,-41.992,-12.695,0.000
1709214971.989,-43.457,-47.852,-53.223,-35.645,0.000
1709214971.993,-47.363,-57.129,-46.387,-42.969,0.000
1709214971.997,-35.645,-62.012,-25.391,-20.020,0.000
1709214972.001,-25.879,-60.059,-21.484,-7.812,0.000
1709214972.005,-22.461,-57.617,-25.879,-19.043,0.000
1709214972.009,-29.785,-44.434,-22.949,-32.227,0.000
1709214972.013,-49.316,-35.645,-27.344,-51.270,0.000
1709214972.017,-47.852,-41.016,-35.645,-47.363,0.000
1709214972.021,-13.672,-40.527,-34.668,-19.531,0.000
1709214972.025,-8.301,-42.480,-39.551,-20.508,0.000
1709214972.028,-32.227,-51.758,-38.574,-42.480,0.000
1709214972.032,-44.922,-48.340,-37.109,-62.988,0.000
1709214972.036,-41.016,-54.199,-44.922,-64.453,0.000
1709214972.040,-21.484,-57.617,-41.992,-36.621,0.000
1709214972.044,-7.812,-44.922,-37.109,-16.113,0.000
1709214972.048,-5.859,-35.156,-36.621,-23.926,0.000
1709214972.052,-25.391,-42.969,-34.180,-41.992,0.000
1709214972.056,-38.574,-43.945,-40.527,-48.828,0.000
1709214972.060,-17.578,-25.391,-41.504,-27.344,0.000
1709214972.064,-8.789,-22.461,-33.691,-10.742,0.000
1709214972.068,-24.414,-35.645,-32.227,-28.320,0.000
1709214972.071,-45.410,-47.852,-40.527,-51.270,0.000
1709214972.075,-46.875,-42.480,-42.969,-44.922,0.000
1709214972.079,-32.227,-36.621,-31.738,-20.508,0.000
1709214972.083,-23.926,-47.852,-35.156,-6.348,0.000
1709214972.087,-29.297,-49.316,-36.133,-4.395,0.000
1709214972.091,-48.828,-41.992,-27.832,-20.508,0.000
1709214972.095,-62.500,-45.410,-32.227,-44.434,0.000
1709214972.099,-51.270,-36.133,-30.273,-33.203,0.000
