timestamps,TP9,AF7,AF8,TP10,Right AUX
1709214734.072,0.000,-48.340,-31.738,-28.320,0.000
1709214734.076,0.000,-47.363,-30.273,-27.344,0.000
1709214734.080,0.000,-61.035,-39.062,-36.621,0.000
1709214734.084,0.000,-52.734,-33.203,-40.527,0.000
1709214734.088,0.000,-44.922,-33.203,-34.668,0.000
1709214734.092,0.000,-43.945,-35.645,-25.879,0.000
1709214734.096,0.000,-41.504,-30.762,-23.926,0.000
1709214734.100,0.000,-42.969,-35.645,-27.344,0.000
1709214734.104,0.000,-41.504,-30.273,-30.762,0.000
1709214734.107,0.000,-46.387,-25.391,-27.832,0.000
1709214734.111,0.000,-48.340,-28.809,-32.227,0.000
1709214734.115,0.000,-41.504,-35.156,-35.645,0.000
1709214734.119,-28.809,-41.504,-30.762,-22.461,0.000
1709214734.123,-37.598,-49.316,-30.273,-24.414,0.000
1709214734.127,-44.434,-44.434,-41.016,-37.109,0.000
1709214734.131,-36.133,-42.480,-28.809,-35.156,0.000
1709214734.135,-28.320,-47.363,-20.996,-25.879,0.000
1709214734.139,-21.484,-44.434,-20.020,-17.578,0.000
1709214734.143,-26.367,-39.062,-23.438,-22.949,0.000
1709214734.147,-29.785,-46.387,-27.832,-30.273,0.000
1709214734.150,-27.344,-52.246,-26.855,-26.367,0.000
1709214734.154,-31.250,-39.062,-35.156,-23.438,0.000
1709214734.158,-25.391,-30.273,-42.969,-27.344,0.000
1709214734.162,-20.508,-39.062,-30.762,-28.320,0.000
1709214734.166,-33.203,-38.086,-27.344,-33.691,0.000
1709214734.170,-36.133,-28.809,-38.574,-41.504,0.000
1709214734.174,-31.738,-35.156,-35.645,-38.086,0.000
1709214734.178,-29.297,-41.504,-30.762,-31.250,0.000
1709214734.182,-27.344,-39.062,-43.457,-32.227,0.000
1709214734.186,-29.785,-41.992,-41.016,-30.273,0.000
1709214734.190,-40.039,-41.016,-40.039,-34.180,0.000
1709214734.193,-42.969,-43.457,-41.504,-40.039,0.000
1709214734.197,-37.598,-44.922,-33.691,-27.832,0.000
1709214734.201,-40.527,-41.504,-37.109,-31.738,0.000
1709214734.205,-42.480,-48.340,-37.598,-47.363,0.000
1709214734.209,-46.387,-50.293,-30.273,-53.711,0.000
1709214734.213,-44.922,-38.086,-30.762,-42.480,0.000
1709214734.217,-37.109,-40.039,-38.574,-41.504,0.000
1709214734.221,-42.480,-58.105,-36.621,-56.641,0.000
1709214734.225,-44.434,-53.223,-32.715,-56.641,0.000
1709214734.229,-43.945,-41.504,-28.320,-44.922,0.000
1709214734.233,-43.457,-44.922,-29.297,-32.715,0.000
1709214734.236,-48.828,-55.664,-32.227,-41.504,0.000
1709214734.240,-62.988,-55.176,-32.227,-47.852,0.000
1709214734.244,-66.406,-46.875,-37.598,-45.898,0.000
1709214734.248,-64.453,-43.945,-34.180,-52.246,0.000
1709214734.252,-62.012,-43.945,-33.691,-46.387,0.000
1709214734.256,-63.965,-42.969,-41.016,-46.875,0.000
1709214734.260,-64.453,-42.480,-39.062,-49.805,0.000
1709214734.264,-63.477,-43.945,-41.504,-48.340,0.000
1709214734.268,-58.594,-46.875,-42.480,-49.316,0.000
1709214734.272,-49.316,-41.504,-31.738,-39.551,0.000
1709214734.275,-48.828,-45.410,-30.762,-37.598,0.000
1709214734.279,-48.340,-42.969,-33.203,-36.621,0.000
1709214734.283,-45.410,-31.250,-30.273,-37.109,0.000
1709214734.287,-47.363,-44.434,-35.645,-38.574,0.000
1709214734.291,-44.922,-57.129,-35.645,-38.574,0.000
1709214734.295,-41.992,-47.852,-40.039,-38.086,0.000
1709214734.299,-43.457,-43.945,-47.852,-40.039,0.000
1709214734.303,-41.016,-48.828,-46.387,-49.805,0.000
1709214734.307,-36.133,-42.480,-44.434,-52.246,0.000
1709214734.311,-36.621,-37.598,-45.410,-52.734,0.000
1709214734.314,-26.855,-40.527,-38.086,-35.645,0.000
1709214734.318,-18.555,-44.922,-36.621,-25.391,0.000
1709214734.322,-17.578,-44.922,-45.410,-35.645,0.000
1709214734.326,-21.484,-41.992,-55.664,-43.945,0.000
1709214734.330,-39.062,-41.992,-52.246,-51.270,0.000
1709214734.334,-33.203,-40.039,-38.574,-38.086,0.000
1709214734.338,-22.949,-42.480,-34.180,-29.297,0.000
1709214734.342,-24.902,-49.805,-34.180,-35.156,0.000
1709214734.346,-30.273,-42.969,-34.668,-33.203,0.000
1709214734.350,-38.574,-41.504,-31.738,-38.086,0.000
1709214734.353,-40.039,-46.875,-30.762,-37.598,0.000
1709214734.357,-42.969,-44.434,-37.109,-35.645,0.000
1709214734.361,-41.992,-40.039,-43.457,-43.457,0.000
1709214734.365,-39.551,-41.016,-38.086,-49.805,0.000
1709214734.369,-41.992,-43.945,-36.133,-47.363,0.000
1709214734.373,-41.504,-45.410,-43.457,-43.457,0.000
1709214734.377,-38.574,-45.410,-38.086,-29.785,0.000
1709214734.381,-37.109,-41.992,-34.180,-29.785,0.000
1709214734.385,-37.109,-41.504,-31.738,-38.574,0.000
1709214734.389,-39.551,-46.875,-26.367,-39.551,0.000
1709214734.393,-49.805,-44.922,-41.504,-47.852,0.000
1709214734.396,-52.246,-36.133,-45.410,-44.922,0.000
1709214734.400,-41.016,-46.875,-33.203,-42.480,0.000
1709214734.404,-38.086,-58.594,-30.762,-43.945,0.000
1709214734.408,-47.852,-49.316,-39.062,-49.805,0.000
1709214734.412,-43.457,-35.645,-41.504,-41.992,0.000
1709214734.416,-33.691,-38.574,-36.621,-30.762,0.000
1709214734.420,-29.785,-51.270,-42.969,-37.109,0.000
1709214734.424,-24.414,-48.340,-46.875,-35.645,0.000
1709214734.428,-28.320,-47.852,-41.992,-40.039,0.000
1709214734.431,-36.133,-49.805,-44.922,-51.270,0.000
1709214734.435,-43.945,-43.457,-53.223,-53.711,0.000
1709214734.439,-38.574,-31.738,-54.199,-45.898,0.000
1709214734.443,-31.738,-27.344,-41.504,-46.387,0.000
1709214734.447,-43.457,-40.527,-39.551,-54.199,0.000
1709214734.451,-40.039,-37.109,-40.527,-43.945,0.000
1709214734.455,-35.156,-41.016,-39.062,-41.504,0.000
1709214734.459,-45.898,-50.293,-47.852,-53.711,0.000
1709214734.463,-45.410,-37.109,-50.781,-56.152,0.000
1709214734.467,-44.922,-31.738,-45.410,-58.105,0.000
1709214734.471,-46.875,-34.668,-39.062,-49.805,0.000
1709214734.475,-49.805,-40.527,-42.480,-49.805,0.000
1709214734.479,-51.758,-48.340,-51.270,-56.641,0.000
1709214734.483,-49.316,-46.387,-47.852,-55.176,0.000
1709214734.486,-51.270,-44.922,-36.621,-60.059,0.000
1709214734.490,-51.758,-46.387,-37.598,-61.523,0.000
1709214734.495,-43.945,-40.039,-40.527,-48.340,0.000
1709214734.499,-43.457,-37.598,-41.992,-45.410,0.000
1709214734.502,-39.551,-37.109,-39.062,-47.363,0.000
1709214734.506,-38.086,-47.363,-34.668,-49.805,0.000
1709214734.510,-43.457,-50.781,-34.668,-44.922,0.000
1709214734.514,-34.180,-41.992,-32.715,-29.785,0.000
1709214734.518,-32.227,-32.227,-34.180,-14.648,0.000
1709214734.522,-34.668,-31.738,-32.715,-24.902,0.000
1709214734.526,-24.902,-43.457,-33.691,-31.738,0.000
1709214734.530,-23.926,-43.457,-33.691,-25.879,0.000
1709214734.534,-32.715,-46.387,-33.203,-38.086,0.000
1709214734.538,-28.320,-51.758,-38.574,-31.250,0.000
1709214734.542,-20.996,-43.457,-40.527,-21.484,0.000
1709214734.546,-27.344,-36.621,-36.133,-30.273,0.000
1709214734.549,-32.715,-43.945,-32.227,-33.691,0.000
1709214734.553,-31.250,-55.176,-33.203,-20.996,0.000
1709214734.557,-32.715,-50.781,-36.621,-20.996,0.000
1709214734.561,-28.809,-41.016,-36.621,-24.902,0.000
1709214734.565,-22.949,-41.016,-34.668,-22.949,0.000
1709214734.569,-26.855,-32.227,-36.621,-35.156,0.000
1709214734.573,-30.273,-38.574,-37.598,-32.715,0.000
1709214734.577,-29.297,-52.246,-41.016,-28.320,0.000
1709214734.581,-30.762,-40.527,-42.480,-35.645,0.000
1709214734.585,-33.203,-33.691,-40.527,-37.109,0.000
1709214734.589,0.000,-38.086,0.000,-39.062,0.000
1709214734.592,0.000,-39.062,0.000,-39.062,0.000
1709214734.596,0.000,-39.062,0.000,-33.691,0.000
1709214734.600,0.000,-47.852,0.000,-31.250,0.000
1709214734.604,0.000,-55.176,0.000,-29.297,0.000
1709214734.608,0.000,-35.645,0.000,-29.297,0.000
1709214734.612,0.000,-31.738,0.000,-30.273,0.000
1709214734.616,0.000,-44.922,0.000,-29.785,0.000
1709214734.620,0.000,-41.504,0.000,-27.344,0.000
1709214734.624,0.000,-38.086,0.000,-41.016,0.000
1709214734.628,0.000,-38.086,0.000,-41.992,0.000
1709214734.631,0.000,-38.574,0.000,-37.109,0.000
1709214734.635,-41.016,-44.922,-33.203,-41.992,0.000
1709214734.639,-40.039,-53.711,-28.320,-38.086,0.000
1709214734.643,-29.785,-56.152,-31.250,-41.992,0.000
1709214734.646,-28.809,-42.969,-29.785,-37.109,0.000
1709214734.650,-24.414,-47.363,-24.902,-29.297,0.000
1709214734.654,-27.832,-57.129,-22.949,-30.762,0.000
1709214734.658,-26.855,-55.664,-25.391,-35.156,0.000
1709214734.662,-22.949,-53.711,-35.156,-33.203,0.000
1709214734.666,-35.645,-36.621,-37.598,-30.762,0.000
1709214734.670,-46.875,-28.320,-35.645,-39.062,0.000
1709214734.674,-42.969,-40.039,-46.387,-45.898,0.000
1709214734.678,-35.156,-46.387,-48.828,-42.480,0.000
1709214734.681,-42.969,-55.664,0.000,-50.293,0.000
1709214734.685,-49.316,-59.570,0.000,-58.105,0.000
1709214734.689,-45.898,-50.293,0.000,-43.457,0.000
1709214734.693,-40.039,-52.734,0.000,-41.016,0.000
1709214734.697,-43.945,-54.688,0.000,-42.480,0.000
1709214734.701,-46.875,-51.758,0.000,-41.504,0.000
1709214734.704,-41.016,-56.641,0.000,-38.574,0.000
1709214734.708,-38.574,-53.711,0.000,-24.902,0.000
1709214734.712,-38.574,-42.969,0.000,-29.785,0.000
1709214734.716,-36.133,-34.668,0.000,-37.109,0.000
1709214734.720,-44.922,-34.180,0.000,-36.621,0.000
1709214734.724,-50.293,-37.109,0.000,-42.969,0.000
1709214734.728,-27.344,-45.410,-47.852,-53.223,0.000
1709214734.732,-25.879,-49.316,-41.992,-42.969,0.000
1709214734.736,-23.438,-43.945,-31.738,-29.297,0.000
1709214734.739,-17.578,-43.945,-29.785,-33.203,0.000
1709214734.743,-21.484,-40.039,-35.645,-44.922,0.000
1709214734.747,-28.809,-33.691,-34.668,-46.875,0.000
1709214734.751,-27.344,-46.387,-41.504,-37.109,0.000
1709214734.755,-28.320,-57.617,-43.945,-33.203,0.000
1709214734.759,-22.461,-53.711,-32.227,-38.574,0.000
1709214734.763,-25.391,-52.246,-31.738,-47.852,0.000
1709214734.767,-29.785,-49.805,-32.227,-50.781,0.000
1709214734.771,-33.691,-46.875,-42.480,-60.059,0.000
1709214734.775,-30.762,-39.551,-43.945,-50.293,0.000
1709214734.779,-31.250,-35.645,-38.574,-35.156,0.000
1709214734.783,-41.016,-52.734,-36.133,-49.805,0.000
1709214734.786,-43.945,-56.641,-35.645,-54.688,0.000
1709214734.790,-42.969,-41.992,-37.598,-42.969,0.000
1709214734.794,-44.922,-42.480,-42.480,-34.180,0.000
1709214734.798,-41.992,-41.016,-45.410,-25.391,0.000
1709214734.802,-32.227,-29.297,-37.109,-38.574,0.000
1709214734.806,-30.273,-34.668,-32.715,-49.805,0.000
1709214734.810,-33.691,-38.086,-33.203,-39.062,0.000
1709214734.814,-22.461,-35.645,-31.250,-28.809,0.000
1709214734.818,-23.438,-47.852,-35.156,-26.855,0.000
1709214734.822,0.000,-48.828,0.000,-36.133,0.000
1709214734.826,0.000,-46.387,0.000,-37.598,0.000
1709214734.830,0.000,-50.293,0.000,-36.621,0.000
1709214734.833,0.000,-51.270,0.000,-36.133,0.000
1709214734.837,0.000,-51.270,0.000,-30.273,0.000
1709214734.841,0.000,-51.270,0.000,-28.320,0.000
1709214734.845,0.000,-48.828,0.000,-38.574,0.000
1709214734.849,0.000,-31.250,0.000,-31.738,0.000
1709214734.853,0.000,-28.809,0.000,-31.738,0.000
1709214734.857,0.000,-46.875,0.000,-35.156,0.000
1709214734.861,0.000,-51.270,0.000,-34.668,0.000
1709214734.865,0.000,-51.270,0.000,-46.387,0.000
1709214734.869,-37.598,-57.129,-37.598,-48.828,0.000
1709214734.873,-39.062,-49.805,-37.109,-37.598,0.000
1709214734.876,-28.320,-38.574,-35.645,-28.320,0.000
1709214734.880,-30.273,-36.621,-37.598,-27.832,0.000
1709214734.884,-33.691,-38.574,-43.945,-34.180,0.000
1709214734.888,-36.621,-41.504,-43.945,-41.504,0.000
1709214734.892,-42.480,-45.898,-38.574,-43.945,0.000
1709214734.896,-39.551,-43.457,-32.715,-41.992,0.000
1709214734.900,-37.598,-44.922,-41.504,-36.133,0.000
1709214734.904,-42.969,-49.805,-51.758,-34.180,0.000
1709214734.908,-34.180,-38.574,-42.969,-33.203,0.000
1709214734.912,-35.156,-37.598,-27.832,-35.645,0.000
1709214734.916,-45.898,-40.527,0.000,-32.715,0.000
1709214734.920,-40.039,-32.715,0.000,-25.879,0.000
1709214734.923,-28.320,-32.715,0.000,-28.320,0.000
1709214734.927,-26.367,-37.109,0.000,-28.320,0.000
1709214734.931,-27.344,-35.156,0.000,-21.484,0.000
1709214734.935,-27.344,-38.574,0.000,-20.508,0.000
1709214734.939,-30.273,-43.945,0.000,-28.809,0.000
1709214734.943,-25.879,-39.062,0.000,-30.273,0.000
1709214734.947,-30.273,-53.223,0.000,-29.297,0.000
1709214734.951,-40.527,-48.828,0.000,-34.668,0.000
1709214734.955,-35.156,-29.785,0.000,-34.180,0.000
1709214734.959,-34.668,-39.062,0.000,-32.227,0.000
1709214734.963,-31.250,-40.039,-26.855,-29.785,0.000
1709214734.966,-32.715,-38.574,-30.273,-29.785,0.000
1709214734.970,-47.363,-48.340,-38.086,-38.086,0.000
1709214734.974,-45.410,-53.711,-32.227,-34.180,0.000
1709214734.978,-41.992,-44.434,-25.391,-26.367,0.000
1709214734.982,-43.457,-49.316,-30.273,-35.156,0.000
1709214734.986,-50.781,-62.500,-38.086,-51.758,0.000
1709214734.990,-61.035,-47.363,-36.133,-49.316,0.000
1709214734.994,-59.570,-40.527,-32.715,-36.133,0.000
1709214734.998,-47.852,-46.387,-41.992,-44.922,0.000
1709214735.002,-43.945,-47.852,-44.922,-56.641,0.000
1709214735.005,-53.711,-46.387,-42.480,-59.082,0.000
1709214735.009,-51.270,-44.434,-48.340,-60.547,0.000
1709214735.013,-48.340,-43.457,-50.293,-53.223,0.000
1709214735.017,-48.828,-41.992,-35.645,-39.551,0.000
1709214735.021,-43.945,-46.387,-27.832,-40.527,0.000
1709214735.025,-53.223,-48.828,-46.387,-49.316,0.000
1709214735.029,-53.711,-56.152,-47.363,-45.410,0.000
1709214735.033,-44.922,-53.223,-28.320,-41.016,0.000
1709214735.037,-52.734,-49.316,-34.668,-41.016,0.000
1709214735.041,-54.199,-43.945,-45.898,-44.434,0.000
1709214735.045,-43.945,-31.250,-43.945,-45.898,0.000
1709214735.048,-43.457,-37.109,-36.621,-41.504,0.000
1709214735.052,-44.922,-41.992,-34.180,-38.086,0.000
1709214735.056,-30.273,-42.969,-29.297,-30.762,0.000
1709214735.060,-24.902,-49.805,-31.738,-27.832,0.000
1709214735.064,-32.227,-52.246,-32.715,-36.621,0.000
1709214735.068,-29.785,-47.852,-18.555,-36.133,0.000
1709214735.072,-34.668,-54.688,-27.832,-31.250,0.000
1709214735.076,-34.180,-57.129,-39.062,-35.156,0.000
1709214735.080,-21.973,-57.129,-33.691,-25.879,0.000
1709214735.084,-27.344,-56.152,-32.227,-15.137,0.000
1709214735.088,-35.645,-46.875,-31.738,-29.297,0.000
1709214735.091,-36.133,-46.875,-31.250,-35.645,0.000
1709214735.095,-38.574,-49.805,-34.180,-29.297,0.000
1709214735.099,-31.738,-38.086,-27.832,-34.668,0.000
1709214735.103,-20.996,-34.180,-20.996,-28.320,0.000
1709214735.107,-31.738,-51.270,-20.508,-28.809,0.000
1709214735.111,-40.527,-55.664,-27.344,-39.551,0.000
1709214735.115,-32.715,-60.059,-34.668,-35.156,0.000
1709214735.119,-30.273,-64.453,-38.086,-34.668,0.000
1709214735.123,-35.156,-50.293,-31.738,-41.504,0.000
1709214735.127,-39.062,-45.410,-29.785,-33.691,0.000
1709214735.130,-40.039,-42.969,-32.715,-17.090,0.000
1709214735.134,-30.273,-29.785,-31.250,-10.254,0.000
1709214735.138,-31.738,-32.715,-35.156,-13.672,0.000
1709214735.142,-35.645,-39.062,-32.715,-18.066,0.000
1709214735.146,-35.156,-41.016,-33.203,-20.020,0.000
1709214735.150,-38.574,-46.387,-36.133,-24.902,0.000
1709214735.154,-42.969,-53.223,-37.598,-27.344,0.000
1709214735.158,-51.270,-56.152,-48.340,-34.180,0.000
1709214735.162,-49.805,-52.734,-50.781,-41.016,0.000
1709214735.166,-47.363,-49.805,-35.156,-44.434,0.000
1709214735.169,-46.875,-50.781,-33.691,-48.340,0.000
1709214735.173,-41.504,-42.969,-38.086,-35.645,0.000
1709214735.177,-49.316,-43.457,-41.016,-34.180,0.000
1709214735.181,-47.363,-44.922,-40.527,-35.156,0.000
1709214735.185,-41.016,-45.410,-36.133,-27.344,0.000
1709214735.189,-49.316,-45.898,-38.086,-31.738,0.000
1709214735.193,-52.246,-41.992,-39.551,-39.551,0.000
1709214735.197,-42.480,-50.781,-36.133,-35.645,0.000
1709214735.201,-34.180,-44.922,-35.156,-27.832,0.000
1709214735.205,-40.039,-52.246,-41.504,-40.039,0.000
1709214735.209,-39.062,-66.406,-42.480,-45.898,0.000
1709214735.213,-38.574,-50.781,-43.945,-40.039,0.000
1709214735.216,-34.180,-40.039,-50.293,-40.527,0.000
1709214735.220,-22.461,-38.574,-42.480,-38.086,0.000
1709214735.224,-28.320,-41.504,-39.551,-38.574,0.000
1709214735.228,-35.645,-36.621,-40.527,-46.387,0.000
1709214735.232,-34.668,-39.062,-41.992,-39.551,0.000
1709214735.236,-33.203,-45.898,-38.574,-25.391,0.000
1709214735.240,-32.227,-40.527,-27.832,-29.785,0.000
1709214735.244,-35.645,-42.969,-25.391,-33.203,0.000
1709214735.248,-41.504,-47.852,-34.668,-27.832,0.000
1709214735.252,-46.875,-55.176,-38.086,-29.785,0.000
1709214735.256,-47.852,-56.641,-34.180,-25.879,0.000
1709214735.259,-41.016,-48.340,-39.551,-30.273,0.000
1709214735.263,-32.715,-42.969,-32.227,-40.039,0.000
1709214735.267,-37.109,-38.086,-26.367,-38.086,0.000
1709214735.271,-36.133,-30.273,-25.879,-29.297,0.000
1709214735.275,-27.832,-33.691,-25.391,-14.160,0.000
1709214735.279,-33.203,-45.898,-26.367,-11.719,0.000
1709214735.283,-39.551,-36.133,-35.156,-35.156,0.000
1709214735.287,-38.086,-37.598,-42.480,-46.875,0.000
1709214735.291,-38.574,-47.852,-42.969,-41.504,0.000
1709214735.295,-37.598,-37.109,-40.527,-44.922,0.000
1709214735.299,-39.062,-34.668,-40.527,-53.711,0.000
1709214735.302,-39.062,-43.457,-38.574,-55.176,0.000
1709214735.306,-35.156,-45.898,-30.762,-48.828,0.000
1709214735.310,-39.062,-45.898,-33.691,-44.434,0.000
1709214735.314,-32.715,-41.504,-41.504,-39.551,0.000
1709214735.318,-30.762,-41.504,-36.621,-32.715,0.000
1709214735.322,-36.133,-39.551,-30.762,-33.691,0.000
1709214735.326,-29.297,-40.039,-36.133,-32.715,0.000
1709214735.330,-36.133,-41.992,-40.039,-39.062,0.000
1709214735.334,-37.109,-54.199,-29.785,-36.621,0.000
1709214735.338,-39.551,-59.570,-23.926,-30.762,0.000
1709214735.342,-37.109,-48.340,-25.879,-40.039,0.000
1709214735.345,-30.273,-46.875,-31.250,-39.551,0.000
1709214735.349,-33.691,-50.293,-29.297,-28.320,0.000
1709214735.353,-40.039,-49.316,-32.227,-32.227,0.000
1709214735.357,-43.457,-47.852,-42.969,-45.410,0.000
1709214735.361,-39.062,-54.688,-43.945,-49.805,0.000
1709214735.365,-47.852,-62.988,-46.875,-50.293,0.000
1709214735.369,-49.805,-52.246,-37.109,-42.969,0.000
1709214735.373,-47.852,-46.875,-38.574,-51.270,0.000
1709214735.377,-51.270,-61.523,-43.945,-55.176,0.000
1709214735.381,-49.805,-60.059,-33.203,-56.152,0.000
1709214735.384,-43.457,-42.969,-31.738,-56.152,0.000
1709214735.388,-38.086,-34.180,-37.598,-49.805,0.000
1709214735.392,-47.363,-36.133,-38.574,-57.617,0.000
1709214735.396,-59.082,-43.457,-36.621,-64.941,0.000
1709214735.400,-59.570,-46.875,-34.180,-61.523,0.000
1709214735.404,-56.152,-48.828,-41.016,-63.477,0.000
1709214735.408,-54.688,-49.805,-43.945,-59.570,0.000
1709214735.412,-44.922,-44.922,-40.527,-35.645,0.000
1709214735.416,-43.945,-47.363,-32.715,-38.086,0.000
1709214735.420,-49.805,-59.570,-28.809,-55.664,0.000
1709214735.424,-37.109,-59.570,-38.574,-43.457,0.000
1709214735.427,-29.785,-44.434,-29.785,-38.086,0.000
1709214735.431,-34.668,-44.922,-23.926,-41.504,0.000
1709214735.435,-30.762,-42.969,-26.367,-36.133,0.000
1709214735.439,-23.926,-50.293,-21.484,-27.344,0.000
1709214735.443,-25.879,-57.617,-19.531,-25.879,0.000
1709214735.447,-29.297,-44.434,-25.879,-33.203,0.000
1709214735.451,-38.086,-59.082,-33.203,-44.434,0.000
1709214735.455,-36.621,-69.824,-39.062,-40.039,0.000
1709214735.459,-27.344,-52.734,-39.062,-35.156,0.000
1709214735.463,-27.832,-45.410,-28.809,-37.109,0.000
1709214735.466,-32.227,-42.969,-28.809,-33.691,0.000
1709214735.470,-37.109,-36.133,-36.133,-33.203,0.000
1709214735.474,-35.156,-35.156,-33.203,-21.484,0.000
1709214735.478,-37.598,-38.574,-29.785,-22.949,0.000
1709214735.482,-39.551,-49.805,-36.621,-35.645,0.000
1709214735.486,-43.945,-48.828,-35.645,-33.691,0.000
1709214735.490,-51.758,-45.410,-23.438,-31.250,0.000
1709214735.494,-43.945,-58.594,-21.973,-33.691,0.000
1709214735.498,-37.598,-46.387,-26.367,-33.691,0.000
1709214735.502,-43.457,-43.457,-29.297,-21.973,0.000
1709214735.505,-45.898,-49.316,-32.715,-24.902,0.000
1709214735.509,-52.734,-36.621,-41.504,-39.062,0.000
1709214735.513,-64.941,-40.039,-39.551,-41.992,0.000
1709214735.517,-52.246,-52.734,-35.156,-41.016,0.000
1709214735.521,-37.598,-56.152,-37.109,-33.203,0.000
1709214735.525,-34.668,-47.852,-37.109,-34.668,0.000
1709214735.529,-32.715,-45.410,-33.203,-32.227,0.000
1709214735.533,-38.086,-44.434,-30.273,-26.855,0.000
1709214735.537,-40.039,-45.410,-34.668,-36.621,0.000
1709214735.541,-32.715,-46.387,-39.062,-37.109,0.000
1709214735.544,-30.273,-45.898,-39.062,-33.203,0.000
1709214735.548,-34.668,-42.480,-48.828,-25.879,0.000
1709214735.552,-41.504,-35.645,-55.664,-28.320,0.000
1709214735.556,-46.875,-42.969,-45.898,-34.668,0.000
1709214735.560,-39.062,-43.457,-41.504,-30.273,0.000
1709214735.564,-33.203,-42.969,-36.133,-31.738,0.000
1709214735.568,-36.133,-45.898,-31.738,-35.156,0.000
1709214735.572,-36.621,-43.945,-37.109,-26.855,0.000
1709214735.576,-25.879,-38.086,-36.133,-9.277,0.000
1709214735.580,-21.484,-31.738,-41.504,-10.742,0.000
1709214735.584,-31.250,-36.133,-38.086,-21.484,0.000
1709214735.587,-36.133,-40.039,-29.785,-23.438,0.000
1709214735.591,-32.227,-50.293,-33.691,-19.043,0.000
1709214735.595,-31.738,-49.316,-38.086,-16.113,0.000
1709214735.599,-33.691,-39.062,-36.621,-21.973,0.000
1709214735.603,-24.414,-36.621,-33.691,-28.809,0.000
1709214735.607,-26.855,-34.668,-41.504,-30.762,0.000
1709214735.611,-38.086,-35.156,-40.527,-36.133,0.000
1709214735.615,-35.645,-45.410,-41.992,-38.574,0.000
1709214735.619,-32.715,-47.363,-37.598,-29.297,0.000
1709214735.623,-35.645,-44.922,-33.203,-35.156,0.000
1709214735.627,-37.109,-44.922,-34.180,-35.645,0.000
1709214735.631,-40.527,-40.527,-28.809,-28.809,0.000
1709214735.634,-28.809,-44.922,-24.414,-18.555,0.000
1709214735.638,-15.137,-43.457,-23.926,-18.066,0.000
1709214735.642,-20.020,-34.180,-24.414,-25.879,0.000
1709214735.646,-22.949,-30.273,-27.832,-24.902,0.000
1709214735.650,-16.602,-31.738,-26.367,-19.531,0.000
1709214735.654,-22.949,-38.574,-29.785,-12.207,0.000
1709214735.658,-28.809,-38.574,-40.039,-16.602,0.000
1709214735.662,-24.902,-33.691,-37.598,-26.855,0.000
1709214735.666,-18.066,-39.062,-32.715,-27.344,0.000
1709214735.670,-27.344,-42.969,-31.738,-32.227,0.000
1709214735.674,-37.109,-32.715,-42.480,-41.016,0.000
1709214735.677,-32.715,-31.250,-48.828,-44.922,0.000
1709214735.681,-31.738,-44.434,-39.551,-44.434,0.000
1709214735.685,-35.156,-45.410,-30.762,-34.180,0.000
1709214735.689,-32.227,-39.551,-30.273,-23.926,0.000
1709214735.693,-29.785,-43.457,-30.273,-21.973,0.000
1709214735.697,-30.273,-41.992,-32.715,-18.066,0.000
1709214735.701,-29.785,-29.297,-39.551,-27.344,0.000
1709214735.705,-36.621,-31.250,-38.086,-43.457,0.000
1709214735.709,-41.504,-39.062,-38.574,-34.668,0.000
1709214735.713,0.000,-44.922,-43.457,-25.879,0.000
1709214735.717,0.000,-46.875,-40.039,-20.020,0.000
1709214735.720,0.000,-41.016,-33.691,-19.531,0.000
1709214735.724,0.000,-48.828,-31.738,-31.738,0.000
1709214735.728,0.000,-63.965,-33.691,-38.086,0.000
1709214735.732,0.000,-50.293,-40.527,-34.180,0.000
1709214735.736,0.000,-38.574,-33.691,-37.109,0.000
1709214735.740,0.000,-46.387,-28.809,-40.039,0.000
1709214735.744,0.000,-46.875,-31.738,-34.180,0.000
1709214735.748,0.000,-37.598,-27.832,-41.992,0.000
1709214735.752,0.000,-33.203,-27.344,-46.387,0.000
1709214735.756,0.000,-44.922,-30.762,-41.504,0.000
1709214735.760,-44.922,-45.410,-31.738,-40.527,0.000
1709214735.764,-49.316,-46.387,-30.762,-46.387,0.000
1709214735.768,-45.410,-63.965,-36.621,-54.199,0.000
1709214735.771,-44.434,-61.523,-43.457,-55.176,0.000
1709214735.775,-45.898,-48.340,-42.480,-54.199,0.000
1709214735.779,-41.992,-42.480,-39.551,-57.617,0.000
1709214735.783,-42.969,-40.527,-37.598,-59.570,0.000
1709214735.787,-47.363,-41.992,-35.156,-43.457,0.000
1709214735.791,-45.898,-45.898,-41.016,-29.785,0.000
1709214735.795,-42.480,-53.223,-42.480,-31.738,0.000
1709214735.799,-44.922,-43.945,-36.133,-36.621,0.000
1709214735.803,-51.270,-41.016,-38.574,-47.363,0.000
1709214735.807,-41.504,-47.363,-46.387,-45.898,0.000
1709214735.810,-40.527,-46.387,-54.688,-42.969,0.000
1709214735.814,-52.246,-50.781,-44.922,-40.039,0.000
1709214735.818,-56.641,-58.105,-37.598,-36.133,0.000
1709214735.822,-50.781,-53.711,-38.574,-38.086,0.000
1709214735.826,-48.340,-41.016,-34.668,-38.574,0.000
1709214735.830,-59.082,-38.574,-35.645,-43.945,0.000
1709214735.834,-60.059,-42.480,-39.062,-47.363,0.000
1709214735.838,-57.617,-46.875,-42.480,-43.457,0.000
1709214735.842,-61.035,-50.293,-44.922,-52.246,0.000
1709214735.846,-63.965,-54.199,-36.621,-51.758,0.000
1709214735.850,-72.266,-53.711,-38.086,-44.922,0.000
1709214735.853,-68.848,-50.781,-40.039,-45.898,0.000
1709214735.857,-54.199,-44.922,-33.691,-37.598,0.000
1709214735.861,-60.059,-47.852,-43.945,-47.363,0.000
1709214735.865,-60.059,-58.594,-46.875,-48.340,0.000
1709214735.869,-54.199,-64.453,-33.691,-36.621,0.000
1709214735.873,-55.176,-63.477,-36.621,-33.691,0.000
1709214735.877,-45.410,-57.617,-42.969,-22.461,0.000
1709214735.881,-43.945,-51.270,-36.133,-25.391,0.000
1709214735.885,-44.434,-42.969,-32.715,-33.691,0.000
1709214735.888,-48.340,-39.062,-39.062,-36.133,0.000
1709214735.892,-51.758,-38.574,-44.922,-37.109,0.000
1709214735.896,-37.109,-42.969,-39.551,-32.227,0.000
1709214735.900,-27.344,-43.457,-44.922,-40.039,0.000
1709214735.904,-22.949,-44.434,-45.898,-48.828,0.000
1709214735.908,-20.996,-48.828,-40.039,-41.992,0.000
1709214735.912,-20.996,-50.781,-37.109,-29.785,0.000
1709214735.916,-21.973,-40.527,-35.645,-25.391,0.000
1709214735.920,-17.578,-29.297,-38.574,-29.785,0.000
1709214735.924,-20.020,-38.574,-41.504,-36.133,0.000
1709214735.927,-33.691,-38.574,-40.039,-41.504,0.000
1709214735.931,-37.598,-33.203,-36.621,-41.016,0.000
1709214735.935,-26.855,-38.086,-42.969,-33.203,0.000
1709214735.939,-29.297,-43.945,-41.016,-30.273,0.000
1709214735.943,-41.504,-43.457,-41.016,-42.480,0.000
1709214735.947,-31.738,-30.762,-35.645,-41.016,0.000
1709214735.951,-29.785,-33.203,-28.320,-33.691,0.000
1709214735.955,-39.062,-55.664,-34.668,-37.598,0.000
1709214735.959,-41.504,-51.758,-34.668,-42.969,0.000
1709214735.963,-44.922,-38.086,-35.156,-51.758,0.000
1709214735.967,-44.434,-35.156,-30.273,-52.734,0.000
1709214735.971,-46.875,-35.156,-27.832,-50.293,0.000
1709214735.974,-48.828,-33.691,-32.227,-44.922,0.000
1709214735.978,-45.898,-36.133,-34.180,-45.898,0.000
1709214735.982,-43.945,-44.922,-37.109,-46.387,0.000
1709214735.986,-47.363,-50.781,-33.203,-39.551,0.000
1709214735.990,-45.898,-50.781,-30.273,-37.109,0.000
1709214735.994,-48.340,-47.852,-34.180,-37.598,0.000
1709214735.998,-41.016,-34.180,-35.156,-31.250,0.000
1709214736.002,-38.086,-44.922,-50.293,-34.668,0.000
1709214736.006,-41.504,-62.012,-50.293,-49.805,0.000
1709214736.010,-42.969,-50.781,-37.598,-48.340,0.000
1709214736.014,-38.574,-39.551,-39.062,-32.227,0.000
1709214736.017,-27.832,-32.227,-41.504,-31.738,0.000
1709214736.021,-30.273,-31.738,-49.805,-45.898,0.000
1709214736.025,-34.668,-38.086,-49.316,-40.527,0.000
1709214736.029,-34.668,-31.738,-37.598,-27.832,0.000
1709214736.033,-26.367,-29.297,-30.273,-20.996,0.000
1709214736.037,-24.414,-40.527,-35.645,-24.902,0.000
1709214736.041,-32.227,-37.598,-40.039,-38.086,0.000
1709214736.045,-30.273,-33.203,-40.039,-36.133,0.000
1709214736.049,-33.691,-43.457,-39.551,-31.738,0.000
1709214736.053,-33.203,-51.270,-35.156,-33.203,0.000
1709214736.057,-29.785,-46.387,-39.062,-33.691,0.000
1709214736.060,-32.715,-36.133,-37.109,-35.156,0.000
1709214736.064,-27.832,-37.109,-34.668,-40.039,0.000
1709214736.068,-30.273,-38.086,-35.645,-45.410,0.000
1709214736.072,-44.434,-44.922,-35.156,-36.621,0.000
1709214736.076,-39.062,-50.781,-34.180,-29.297,0.000
1709214736.080,-28.809,-42.480,-27.832,-29.785,0.000
1709214736.084,-34.180,-39.062,-28.320,-28.809,0.000
1709214736.088,-38.574,-46.387,-29.297,-33.203,0.000
1709214736.092,-37.109,-44.922,-28.320,-33.203,0.000
1709214736.096,-32.715,-45.898,-29.297,-26.855,0.000
1709214736.100,-29.785,-49.805,-28.809,-23.926,0.000
1709214736.103,-30.273,-43.457,-25.879,-27.344,0.000
1709214736.107,-27.832,-37.109,-24.902,-31.738,0.000
1709214736.111,-31.250,-35.156,-23.926,-29.297,0.000
1709214736.115,-32.227,-36.133,-23.438,-19.531,0.000
1709214736.119,-26.367,-42.969,-27.344,-11.230,0.000
1709214736.123,-33.203,-48.340,-34.180,-31.250,0.000
1709214736.127,-37.598,-47.363,-42.480,-47.852,0.000
1709214736.131,-34.668,-45.410,-37.109,-44.434,0.000
1709214736.135,-26.367,-50.293,-30.762,-45.898,0.000
1709214736.139,-24.414,-51.758,-30.273,-46.875,0.000
1709214736.142,-26.855,-46.875,-29.297,-50.293,0.000
1709214736.146,-32.227,-46.387,-34.668,-49.805,0.000
1709214736.150,-43.457,-47.363,-40.039,-52.734,0.000
1709214736.154,-43.457,-54.199,-43.945,-49.316,0.000
1709214736.158,-34.668,-42.480,-39.551,-44.434,0.000
1709214736.162,-34.668,-32.227,-40.039,-43.457,0.000
1709214736.166,-38.574,-36.621,-41.504,-40.039,0.000
1709214736.170,-33.691,-41.016,-41.016,-45.898,0.000
1709214736.174,-30.762,-45.898,-37.109,-40.527,0.000
1709214736.178,-23.926,-49.316,-34.180,-33.203,0.000
1709214736.181,-19.043,-55.176,-34.668,-40.039,0.000
1709214736.185,-35.156,-60.547,-39.551,-53.711,0.000
1709214736.189,-43.945,-58.105,-41.504,-52.734,0.000
1709214736.193,-41.504,-52.734,-44.922,-46.875,0.000
1709214736.197,-42.969,-45.898,-53.223,-49.316,0.000
1709214736.201,-41.504,-49.805,-45.898,-47.363,0.000
1709214736.205,-47.852,-48.340,-40.527,-45.410,0.000
1709214736.209,-43.457,-44.434,-39.551,-38.086,0.000
1709214736.213,-32.715,-49.316,-37.109,-34.180,0.000
1709214736.217,-39.062,-50.293,-36.133,-33.203,0.000
1709214736.221,-35.156,-42.480,-24.902,-29.785,0.000
1709214736.224,-30.273,-40.039,-23.926,-33.691,0.000
1709214736.228,-38.574,-48.828,-35.156,-41.016,0.000
1709214736.232,-36.133,-54.688,-35.156,-31.738,0.000
1709214736.236,-34.180,-54.688,-35.645,-26.367,0.000
1709214736.240,-41.992,-45.410,-45.898,-40.039,0.000
1709214736.244,-44.922,-45.410,-46.875,-44.922,0.000
1709214736.248,-48.340,-49.316,-42.480,-41.504,0.000
1709214736.252,-56.152,-47.363,-53.711,-38.086,0.000
1709214736.256,-52.734,-41.504,-52.246,-26.855,0.000
1709214736.260,-35.645,-34.668,-38.086,-38.086,0.000
1709214736.263,-30.762,-41.992,-32.715,-50.293,0.000
1709214736.267,-39.551,-46.387,-34.180,-44.434,0.000
1709214736.271,-40.039,-34.668,-40.039,-46.875,0.000
1709214736.275,-38.086,-44.922,-40.527,-62.012,0.000
1709214736.279,-37.109,-54.688,-47.852,-61.035,0.000
1709214736.283,-43.457,-41.504,-44.434,-57.129,0.000
1709214736.287,-54.199,-41.992,-34.180,-61.523,0.000
1709214736.291,-60.547,-48.828,-35.645,-58.594,0.000
1709214736.295,-54.199,-41.016,-35.156,-43.945,0.000
1709214736.298,-35.156,-30.273,-32.227,-29.297,0.000
1709214736.302,-38.086,-40.039,-33.691,-43.457,0.000
1709214736.306,-54.199,-44.434,-41.504,-55.176,0.000
1709214736.310,-56.641,-41.016,-40.527,-49.316,0.000
1709214736.314,-52.734,-43.457,-37.598,-46.875,0.000
1709214736.318,-45.410,-53.711,-33.691,-49.316,0.000
1709214736.322,-45.410,-69.336,-44.434,-44.922,0.000
1709214736.326,-45.898,-50.293,-53.223,-44.434,0.000
1709214736.330,-40.039,-29.785,-41.016,-46.875,0.000
1709214736.334,-49.316,-40.039,-42.480,-44.922,0.000
1709214736.338,-44.922,-44.922,-46.875,-45.898,0.000
1709214736.342,-31.738,-41.992,-41.504,-34.668,0.000
1709214736.345,-28.809,-43.945,-36.133,-30.762,0.000
1709214736.349,-22.949,-44.434,-26.855,-34.668,0.000
1709214736.353,-27.344,-48.828,-28.809,-37.598,0.000
1709214736.357,-33.691,-52.734,-45.898,-33.691,0.000
1709214736.361,-30.273,-52.246,-43.945,-33.203,0.000
1709214736.365,-33.203,-63.965,-38.574,-39.551,0.000
1709214736.369,-34.668,-57.617,-38.086,-35.645,0.000
1709214736.373,-33.203,-35.156,-36.133,-27.832,0.000
1709214736.377,-28.809,-41.016,-34.668,-26.367,0.000
1709214736.381,-20.020,-41.016,-34.668,-33.203,0.000
1709214736.385,-15.137,-34.668,-34.180,-30.762,0.000
1709214736.388,-23.926,-38.574,-27.344,-30.273,0.000
1709214736.392,-24.414,-42.480,-25.879,-27.832,0.000
1709214736.396,-28.320,-38.574,-33.691,-30.273,0.000
1709214736.400,-35.645,-43.457,-36.133,-32.715,0.000
1709214736.404,-29.297,-49.805,-35.156,-22.949,0.000
1709214736.408,-35.156,-48.340,-41.016,-28.809,0.000
1709214736.412,-39.551,-42.480,-39.062,-33.691,0.000
1709214736.416,-32.715,-38.086,-38.086,-26.855,0.000
1709214736.420,-23.926,-42.969,-39.062,-22.949,0.000
1709214736.424,-28.320,-57.129,-36.133,-27.832,0.000
1709214736.428,-29.785,-46.387,-25.391,-26.367,0.000
1709214736.431,-28.320,-30.762,-22.949,-21.484,0.000
1709214736.435,-28.809,-32.227,-36.133,-20.996,0.000
1709214736.439,-17.578,-36.133,-39.551,-20.508,0.000
1709214736.443,-16.113,-45.410,-36.621,-24.414,0.000
1709214736.447,-22.949,-51.758,-35.645,-18.066,0.000
1709214736.451,-28.809,-46.875,-35.156,-22.461,0.000
1709214736.455,-34.180,-34.668,-30.762,-28.320,0.000
1709214736.459,-36.621,-44.922,-30.273,-27.832,0.000
1709214736.463,-34.180,-51.270,-32.227,-36.621,0.000
1709214736.467,-44.922,-49.316,-41.504,-48.340,0.000
1709214736.471,-41.992,-54.199,-41.016,-54.688,0.000
1709214736.474,-31.738,-45.898,-29.785,-50.293,0.000
1709214736.478,-42.480,-48.340,-37.109,-52.246,0.000
1709214736.482,-39.062,-57.129,-41.504,-52.246,0.000
1709214736.486,-34.668,-53.223,-30.273,-46.387,0.000
1709214736.490,-40.039,-53.223,-28.809,-41.504,0.000
1709214736.494,-35.156,-47.363,-30.273,-29.785,0.000
1709214736.498,-30.273,-42.480,-38.086,-32.227,0.000
1709214736.502,-29.297,-54.688,-43.457,-36.621,0.000
1709214736.506,-22.949,-57.129,-33.203,-35.645,0.000
1709214736.510,-25.879,-46.875,-28.809,-41.504,0.000
1709214736.513,-32.715,-43.945,-37.109,-41.992,0.000
1709214736.517,-33.203,-47.852,-32.715,-36.133,0.000
1709214736.521,-30.762,-53.223,-25.391,-37.598,0.000
1709214736.525,-31.738,-41.016,-28.320,-38.574,0.000
1709214736.529,-44.434,-33.691,-24.414,-41.504,0.000
1709214736.533,-49.805,-48.340,-27.832,-38.574,0.000
1709214736.537,-40.527,-47.852,-30.273,-21.484,0.000
1709214736.541,-31.250,-37.109,-31.738,-24.902,0.000
1709214736.545,-33.203,-37.109,-33.203,-43.457,0.000
1709214736.549,-33.691,-41.992,-34.668,-43.457,0.000
1709214736.553,-29.785,-41.016,-41.992,-35.645,0.000
1709214736.556,-26.855,-47.363,-41.504,-34.180,0.000
1709214736.560,-22.949,-40.527,-34.180,-30.762,0.000
1709214736.564,-22.949,-26.367,-32.715,-28.320,0.000
1709214736.568,-31.250,-34.668,-39.551,-39.551,0.000
1709214736.572,-24.902,-37.598,-38.086,-40.527,0.000
1709214736.576,-22.949,-39.062,-45.410,-42.480,0.000
1709214736.580,-26.367,-44.434,-54.199,-45.898,0.000
1709214736.584,-22.949,-49.316,-31.738,-36.621,0.000
1709214736.588,-38.086,-53.223,-24.902,-47.852,0.000
1709214736.592,-47.852,-43.457,-38.574,-47.852,0.000
1709214736.595,-41.504,-38.086,-41.504,-30.273,0.000
1709214736.599,-40.527,-32.715,-35.645,-33.691,0.000
1709214736.603,-40.039,-33.203,-33.203,-40.527,0.000
1709214736.607,-35.645,-44.434,-30.273,-43.457,0.000
1709214736.611,-40.527,-44.434,-25.879,-46.875,0.000
1709214736.615,-41.016,-41.504,-31.250,-40.527,0.000
1709214736.619,-31.250,-44.434,-36.133,-33.691,0.000
1709214736.623,-31.250,-52.246,-34.668,-36.621,0.000
1709214736.627,-35.156,-49.316,-37.598,-42.480,0.000
1709214736.631,-43.457,-42.480,-41.504,-39.062,0.000
1709214736.634,-43.457,-41.016,-45.410,-39.551,0.000
1709214736.638,-29.297,-36.133,-42.480,-34.668,0.000
1709214736.642,-30.762,-38.086,-43.457,-36.133,0.000
1709214736.646,-39.551,-42.969,-42.969,-42.969,0.000
1709214736.650,-37.109,-42.969,-34.668,-37.109,0.000
1709214736.654,-29.297,-41.992,-40.527,-30.762,0.000
1709214736.658,-20.508,-36.621,-42.480,-22.461,0.000
1709214736.662,-19.531,-42.969,-39.062,-23.438,0.000
1709214736.666,-20.996,-42.969,-39.551,-26.367,0.000
1709214736.670,-23.438,-37.109,-36.133,-20.020,0.000
1709214736.673,-20.020,-41.504,-34.668,-2.930,0.000
1709214736.677,-17.578,-39.551,-41.504,-7.812,0.000
1709214736.681,-24.414,-30.762,-40.527,-26.855,0.000
1709214736.685,-34.668,-40.527,-33.691,-32.715,0.000
1709214736.689,-35.645,-44.434,-33.691,-30.762,0.000
1709214736.693,-38.574,-42.480,-37.598,-24.414,0.000
1709214736.697,-36.621,-44.922,-44.434,-25.879,0.000
1709214736.701,-35.645,-41.992,-41.016,-34.668,0.000
1709214736.705,-34.180,-38.574,-41.504,-38.086,0.000
1709214736.709,-32.227,-43.945,-49.316,-49.316,0.000
1709214736.713,-38.574,-59.570,-44.922,-55.664,0.000
1709214736.716,-37.598,-58.105,-41.016,-54.199,0.000
1709214736.720,-34.180,-42.480,-44.922,-52.246,0.000
1709214736.724,-38.574,-45.410,-46.387,-60.059,0.000
1709214736.728,-43.457,-58.105,-44.434,-59.570,0.000
1709214736.732,-39.551,-54.199,-41.016,-39.551,0.000
1709214736.736,-33.691,-47.363,-41.016,-41.016,0.000
1709214736.740,-33.203,-55.176,-38.086,-52.246,0.000
1709214736.744,-40.527,-57.617,-41.992,-60.547,0.000
1709214736.748,-40.527,-46.387,-45.898,-57.129,0.000
1709214736.752,-36.133,-40.039,-40.039,-48.828,0.000
1709214736.756,-29.297,-49.805,-40.527,-47.852,0.000
1709214736.759,-18.555,-48.340,-38.086,-42.969,0.000
1709214736.763,-20.020,-39.551,-32.715,-44.922,0.000
1709214736.767,-30.273,-37.598,-38.086,-42.969,0.000
1709214736.771,-36.621,-39.551,-41.016,-33.691,0.000
1709214736.775,-44.434,-48.828,-36.621,-27.832,0.000
1709214736.779,-45.410,-61.035,-40.039,-31.738,0.000
1709214736.783,-42.969,-60.059,-43.945,-49.316,0.000
1709214736.787,-45.898,-41.504,-41.992,-48.340,0.000
1709214736.791,-43.945,-42.969,-38.574,-37.598,0.000
1709214736.795,-44.434,-49.805,-35.156,-37.109,0.000
1709214736.799,-33.203,-31.738,-28.809,-34.180,0.000
1709214736.802,-27.832,-28.320,-28.809,-35.645,0.000
1709214736.806,-36.621,-48.828,-35.645,-42.480,0.000
1709214736.810,-41.992,-57.129,-43.457,-43.457,0.000
1709214736.814,-45.898,-49.316,-45.410,-48.828,0.000
1709214736.818,-35.156,-48.340,-39.062,-50.293,0.000
1709214736.822,-21.484,-57.129,-36.133,-41.016,0.000
1709214736.826,-24.414,-53.223,-34.668,-40.527,0.000
1709214736.830,-35.156,-39.551,-40.039,-43.945,0.000
1709214736.834,-36.133,-36.621,-43.457,-35.156,0.000
1709214736.838,-32.227,-39.062,-38.574,-38.086,0.000
1709214736.842,-37.109,-49.805,-39.062,-45.898,0.000
1709214736.845,-37.109,-56.641,-37.109,-45.898,0.000
1709214736.849,-33.203,-48.340,-38.086,-41.992,0.000
1709214736.853,-43.945,-41.504,-41.992,-39.062,0.000
1709214736.857,-45.410,-41.504,-45.898,-36.621,0.000
1709214736.861,-33.691,-41.504,-41.016,-34.180,0.000
1709214736.865,-32.227,-44.434,-32.227,-30.273,0.000
1709214736.869,-49.316,-47.363,-38.086,-36.621,0.000
1709214736.873,-57.617,-43.945,-43.457,-48.828,0.000
1709214736.877,-44.434,-42.480,-42.969,-43.945,0.000
1709214736.881,-31.738,-39.062,-41.504,-39.551,0.000
1709214736.885,-39.062,-35.156,-39.062,-45.898,0.000
1709214736.888,-51.270,-30.762,-41.992,-51.270,0.000
1709214736.892,-52.246,-46.387,-43.945,-44.922,0.000
1709214736.896,-49.316,-56.152,-37.598,-29.297,0.000
1709214736.900,-41.016,-37.109,-42.480,-29.297,0.000
1709214736.904,-52.246,-38.574,-44.434,-42.969,0.000
1709214736.908,-58.594,-44.922,-38.086,-40.527,0.000
1709214736.912,-51.270,-49.316,-47.363,-32.227,0.000
1709214736.916,-47.363,-47.852,-52.246,-36.133,0.000
1709214736.920,-47.852,-42.480,-39.551,-47.363,0.000
1709214736.924,-47.852,-45.898,-30.762,-43.457,0.000
1709214736.927,-47.363,-46.387,-40.527,-39.062,0.000
1709214736.931,-45.410,-42.480,-40.527,-41.992,0.000
1709214736.935,-48.828,-37.598,-37.109,-45.898,0.000
1709214736.939,-56.641,-45.410,-36.621,-42.480,0.000
1709214736.943,-50.293,-54.199,-37.598,-40.527,0.000
1709214736.947,-42.969,-58.594,-39.062,-41.016,0.000
1709214736.951,-49.316,-56.152,-30.273,-40.039,0.000
1709214736.955,-58.105,-59.570,-36.133,-43.457,0.000
1709214736.959,-49.316,-55.664,-44.434,-44.922,0.000
1709214736.963,-37.109,-31.738,-38.086,-48.340,0.000
1709214736.966,-48.828,-27.832,-39.551,-58.105,0.000
1709214736.970,-55.176,-38.086,-43.945,-57.129,0.000
1709214736.974,-49.805,-32.715,-38.574,-46.387,0.000
1709214736.978,0.000,-32.715,0.000,0.000,0.000
1709214736.982,0.000,-41.016,0.000,0.000,0.000
1709214736.986,0.000,-47.852,0.000,0.000,0.000
1709214736.990,0.000,-54.688,0.000,0.000,0.000
1709214736.994,0.000,-48.828,0.000,0.000,0.000
1709214736.998,0.000,-40.039,0.000,0.000,0.000
1709214737.002,0.000,-44.922,0.000,0.000,0.000
1709214737.006,0.000,-42.969,0.000,0.000,0.000
1709214737.009,0.000,-33.203,0.000,0.000,0.000
1709214737.013,0.000,-41.504,0.000,0.000,0.000
1709214737.017,0.000,-43.457,0.000,0.000,0.000
1709214737.021,0.000,-40.039,0.000,0.000,0.000
1709214737.025,-33.203,-40.039,-27.344,-34.668,0.000
1709214737.029,-34.180,-44.922,-20.996,-24.902,0.000
1709214737.033,-37.109,-52.734,-33.203,-29.297,0.000
1709214737.037,-43.945,-53.711,-33.203,-31.250,0.000
1709214737.041,-49.316,-53.223,-30.762,-29.785,0.000
1709214737.045,-43.457,-43.945,-32.715,-31.738,0.000
1709214737.048,-42.969,-40.039,-32.715,-31.738,0.000
1709214737.052,-46.875,-44.922,-32.715,-32.227,0.000
1709214737.056,-39.062,-38.086,-33.203,-31.738,0.000
1709214737.060,-32.227,-29.297,-34.180,-32.227,0.000
1709214737.064,-34.180,-37.598,-40.527,-31.250,0.000
1709214737.068,-43.457,-51.758,-41.016,-43.457,0.000
1709214737.072,-47.363,-56.152,-41.504,-49.805,0.000
1709214737.076,-38.574,-48.828,-46.875,-29.785,0.000
1709214737.080,-33.691,-46.875,-39.551,-33.203,0.000
1709214737.084,-28.809,-49.316,-26.855,-34.668,0.000
1709214737.088,-38.574,-52.246,-27.344,-36.621,0.000
1709214737.091,-45.898,-53.711,-39.551,-46.387,0.000
1709214737.095,-32.715,-42.969,-36.621,-34.668,0.000
1709214737.099,-32.227,-42.969,-39.062,-34.668,0.000
1709214737.103,-31.738,-38.574,-47.852,-32.715,0.000
1709214737.107,-25.879,-38.574,-45.410,-23.438,0.000
1709214737.111,-26.855,-37.598,-41.016,-26.367,0.000
1709214737.115,-24.902,-36.133,-40.039,-24.902,0.000
1709214737.119,-30.762,-51.758,-47.363,-28.809,0.000
1709214737.123,-32.715,-54.199,-45.898,-31.250,0.000
1709214737.127,-43.457,-56.152,-47.363,-36.133,0.000
1709214737.131,-54.688,-60.059,-41.992,-36.133,0.000
1709214737.135,-56.152,-47.852,-40.039,-37.598,0.000
1709214737.138,-62.988,-39.062,-54.199,-41.992,0.000
1709214737.142,-62.500,-39.551,-54.688,-42.480,0.000
1709214737.146,-50.293,-39.551,-40.039,-46.387,0.000
1709214737.150,-44.434,-36.621,-39.062,-41.992,0.000
1709214737.154,-42.480,-46.387,-32.227,-31.738,0.000
1709214737.158,-38.574,-58.105,-24.414,-32.715,0.000
1709214737.162,-31.250,-40.039,-30.273,-36.621,0.000
1709214737.166,-32.715,-29.297,-31.250,-40.039,0.000
1709214737.170,-40.527,-40.527,-37.109,-34.668,0.000
1709214737.174,-41.992,-44.922,-45.410,-34.180,0.000
1709214737.178,-41.016,-41.504,-41.504,-35.645,0.000
1709214737.181,-33.691,-41.992,-36.621,-38.086,0.000
1709214737.185,-27.344,-41.992,-33.203,-37.109,0.000
1709214737.189,-33.203,-43.945,-42.480,-42.969,0.000
1709214737.193,-39.062,-54.199,-47.363,-45.410,0.000
1709214737.197,-35.645,-56.641,-41.992,-32.715,0.000
1709214737.201,-32.715,-39.551,-40.527,-26.367,0.000
1709214737.205,-38.574,-35.156,-34.180,-40.039,0.000
1709214737.209,-39.062,-39.062,-31.250,-34.668,0.000
1709214737.213,-34.668,-38.574,-38.574,-21.973,0.000
1709214737.217,-36.621,-44.922,-44.434,-27.344,0.000
1709214737.220,-34.668,-44.434,-43.945,-34.180,0.000
1709214737.224,-29.785,-46.387,-37.598,-35.156,0.000
1709214737.228,-32.715,-58.594,-40.039,-35.645,0.000
1709214737.232,-34.180,-54.688,-39.062,-33.203,0.000
1709214737.236,-31.250,-40.039,-30.273,-24.902,0.000
1709214737.240,-27.344,-36.133,-29.785,-19.043,0.000
1709214737.244,-30.762,-38.086,-37.109,-22.949,0.000
1709214737.248,-35.156,-49.805,-42.480,-35.645,0.000
1709214737.252,-28.809,-50.293,-34.668,-39.551,0.000
1709214737.256,-31.250,-38.086,-36.133,-37.109,0.000
1709214737.260,-29.297,-42.480,-36.621,-34.668,0.000
1709214737.263,-26.855,-51.758,-33.203,-34.180,0.000
1709214737.267,-33.203,-45.410,-30.273,-27.832,0.000
1709214737.271,-37.598,-43.945,-32.715,-21.973,0.000
1709214737.275,-42.480,-47.852,-43.457,-29.297,0.000
1709214737.279,-45.410,-47.852,-41.016,-34.668,0.000
1709214737.283,-43.945,-52.734,-38.086,-39.551,0.000
1709214737.287,-44.434,-51.758,-41.016,-31.250,0.000
1709214737.291,-43.457,-49.316,-38.086,-23.438,0.000
1709214737.295,-38.086,-47.852,-26.367,-25.879,0.000
1709214737.299,-39.062,-48.828,-33.203,-34.668,0.000
1709214737.302,-36.621,-49.316,-39.062,-39.062,0.000
1709214737.306,-38.086,-41.504,-34.180,-35.645,0.000
1709214737.310,-38.574,-35.645,-32.715,-39.551,0.000
1709214737.314,-36.621,-41.016,-33.203,-45.898,0.000
1709214737.318,-39.551,-45.410,-39.551,-45.410,0.000
1709214737.322,-27.832,-46.875,-35.645,-43.457,0.000
1709214737.326,-30.273,-46.875,-24.902,-38.086,0.000
1709214737.330,-41.016,-49.805,-24.902,-39.062,0.000
1709214737.334,-43.945,-50.781,-30.762,-36.621,0.000
1709214737.338,-41.992,-39.062,-29.785,-31.250,0.000
1709214737.341,-38.086,-38.086,-32.715,-38.086,0.000
1709214737.345,-42.969,-47.363,-40.039,-40.039,0.000
1709214737.349,-41.016,-51.270,-36.133,-31.738,0.000
1709214737.353,-37.598,-44.434,-39.062,-32.715,0.000
1709214737.357,-33.203,-38.086,-42.969,-31.738,0.000
1709214737.361,-35.645,-41.016,-34.180,-37.598,0.000
1709214737.365,-45.898,-38.574,-27.344,-45.410,0.000
1709214737.369,-41.016,-44.922,-25.879,-32.227,0.000
1709214737.373,-34.180,-49.316,-29.297,-28.809,0.000
1709214737.377,-37.109,-45.410,-39.062,-33.691,0.000
1709214737.380,-39.062,-41.016,-41.016,-37.598,0.000
1709214737.384,-34.668,-42.969,-31.738,-39.551,0.000
1709214737.388,-29.785,-49.316,-27.832,-35.156,0.000
1709214737.392,-31.738,-36.621,-29.785,-27.344,0.000
1709214737.396,-35.645,-31.738,-31.738,-28.320,0.000
1709214737.400,-33.203,-39.062,-34.668,-35.645,0.000
1709214737.404,-38.574,-42.969,-37.109,-39.551,0.000
1709214737.408,-47.363,-44.922,-38.574,-41.992,0.000
1709214737.412,-50.781,-42.480,-42.969,-34.180,0.000
1709214737.416,-54.199,-46.387,-41.504,-36.621,0.000
1709214737.419,-47.363,-56.641,-35.156,-49.805,0.000
1709214737.423,-38.086,-54.688,-31.250,-38.574,0.000
1709214737.427,-37.109,-46.875,-22.461,-35.156,0.000
1709214737.431,-41.504,-55.664,-26.367,-48.340,0.000
1709214737.435,-42.480,-51.758,-37.109,-43.945,0.000
1709214737.439,-31.738,-46.875,-34.668,-40.527,0.000
1709214737.443,-26.855,-50.293,-36.621,-43.457,0.000
1709214737.447,-37.598,-41.016,-41.992,-42.480,0.000
1709214737.451,-42.480,-41.504,-40.039,-39.062,0.000
1709214737.455,-36.621,-44.922,-32.227,-31.738,0.000
1709214737.459,-36.133,-44.434,-38.086,-37.109,0.000
1709214737.463,-32.715,-49.805,-44.434,-43.945,0.000
1709214737.466,-27.832,-49.805,-39.551,-39.062,0.000
1709214737.470,-38.574,-52.734,-33.203,-38.086,0.000
1709214737.474,-44.922,-54.688,-35.156,-42.480,0.000
1709214737.478,-38.574,-39.062,-39.551,-47.852,0.000
1709214737.482,-31.250,-35.156,-49.316,-46.387,0.000
1709214737.486,-40.527,-41.016,-54.688,-50.781,0.000
1709214737.490,-48.828,-38.574,-42.480,-60.059,0.000
1709214737.494,-52.734,-45.898,-38.086,-61.523,0.000
1709214737.498,-56.152,-50.781,-44.922,-53.223,0.000
1709214737.502,-54.688,-43.945,-42.969,-45.898,0.000
1709214737.506,-53.711,-46.387,-42.480,-53.711,0.000
1709214737.509,-49.316,-62.012,-43.457,-53.223,0.000
1709214737.513,-42.480,-56.152,-42.480,-40.527,0.000
1709214737.517,-43.945,-32.715,-50.293,-36.133,0.000
1709214737.521,-43.457,-35.156,-43.945,-36.621,0.000
1709214737.525,-42.969,-43.457,-39.062,-41.504,0.000
1709214737.529,-48.828,-46.387,-40.527,-41.504,0.000
1709214737.533,-41.992,-47.852,-33.203,-46.875,0.000
1709214737.537,-33.691,-53.223,-38.086,-48.828,0.000
1709214737.541,-26.367,-52.734,-39.551,-33.691,0.000
1709214737.545,-30.273,-47.852,-41.504,-27.832,0.000
1709214737.549,-38.574,-57.129,-47.852,-34.180,0.000
1709214737.552,-24.902,-56.152,-42.969,-26.367,0.000
1709214737.556,-21.484,-48.340,-44.922,-18.066,0.000
1709214737.560,-27.832,-43.945,-48.340,-30.273,0.000
1709214737.564,-31.250,-40.039,-42.969,-36.621,0.000
1709214737.568,-46.387,-49.316,-39.062,-31.250,0.000
1709214737.572,-38.574,-49.316,-42.969,-11.230,0.000
1709214737.576,-34.668,-43.457,-48.340,-3.906,0.000
1709214737.580,-39.551,-48.340,-42.480,-19.043,0.000
1709214737.584,-30.273,-44.434,-36.621,-21.484,0.000
1709214737.588,-30.273,-47.363,-40.527,-21.484,0.000
1709214737.592,-33.203,-57.617,-40.527,-20.020,0.000
1709214737.595,-28.809,-54.199,-33.691,-20.996,0.000
1709214737.599,-23.438,-50.781,-33.691,-30.762,0.000
1709214737.603,-31.738,-42.480,-40.039,-34.180,0.000
1709214737.607,-37.109,-32.715,-40.039,-25.391,0.000
1709214737.611,-39.551,-30.762,-39.551,-22.949,0.000
1709214737.615,-26.855,-34.180,-33.203,-21.484,0.000
1709214737.619,-24.902,-38.086,-37.109,-27.344,0.000
1709214737.623,-37.598,-36.133,-40.039,-42.969,0.000
1709214737.627,-41.504,-50.293,-42.969,-49.316,0.000
1709214737.631,-49.805,-56.152,-50.293,-46.387,0.000
1709214737.634,-50.781,-45.898,-41.016,-44.922,0.000
1709214737.638,-41.992,-44.434,-31.738,-50.781,0.000
1709214737.642,-36.133,-52.734,-32.227,-54.199,0.000
1709214737.646,-39.062,-49.316,-30.273,-45.898,0.000
1709214737.650,-42.969,-34.180,-30.762,-35.645,0.000
1709214737.654,-42.969,-37.598,-43.945,-35.645,0.000
1709214737.658,-41.016,-43.457,-42.969,-39.551,0.000
1709214737.662,-45.898,-46.875,-38.086,-43.457,0.000
1709214737.666,-50.293,-46.875,-45.410,-47.852,0.000
1709214737.670,-47.852,-39.551,-48.828,-50.781,0.000
1709214737.674,-41.992,-35.156,-40.527,-40.527,0.000
1709214737.677,-38.086,-38.574,-40.039,-33.203,0.000
1709214737.681,-41.504,-47.363,-39.062,-35.645,0.000
1709214737.685,-38.574,-49.805,-32.227,-36.621,0.000
1709214737.689,-38.086,-57.129,-30.762,-33.691,0.000
1709214737.693,-34.668,-55.176,-27.344,-25.879,0.000
1709214737.697,-27.344,-37.598,-31.738,-18.066,0.000
1709214737.701,-25.391,-31.738,-36.621,-24.902,0.000
1709214737.705,-23.438,-49.316,-30.273,-25.879,0.000
1709214737.709,-32.715,-62.988,-34.180,-19.043,0.000
1709214737.713,-37.109,-45.410,-38.574,-18.066,0.000
1709214737.716,-29.297,-31.738,-28.809,-13.184,0.000
1709214737.720,-31.250,-40.527,-25.879,-20.996,0.000
1709214737.724,-35.645,-51.758,-32.715,-29.297,0.000
1709214737.728,-33.691,-44.434,-32.227,-41.992,0.000
1709214737.732,-31.738,-38.574,-36.133,-47.852,0.000
1709214737.736,-31.738,-47.363,-42.969,-40.527,0.000
1709214737.740,-27.344,-39.062,-31.738,-39.551,0.000
1709214737.744,-27.832,-43.945,-27.832,-39.062,0.000
1709214737.748,-26.855,-53.711,-25.879,-41.016,0.000
1709214737.752,-28.809,-49.316,-22.949,-29.785,0.000
1709214737.755,-34.180,-37.109,-34.180,-23.926,0.000
1709214737.759,-31.738,-32.715,-37.109,-27.832,0.000
1709214737.763,-33.203,-33.691,-27.344,-24.902,0.000
1709214737.767,-37.109,-32.227,-31.738,-24.414,0.000
1709214737.771,-33.203,-37.109,-38.086,-24.902,0.000
1709214737.775,-32.715,-40.039,-36.621,-33.691,0.000
1709214737.779,-32.227,-41.992,-33.203,-41.992,0.000
1709214737.783,-31.738,-49.316,-38.574,-49.316,0.000
1709214737.787,-35.645,-53.711,-34.180,-50.781,0.000
1709214737.790,-43.945,-55.664,-29.785,-45.898,0.000
1709214737.794,-44.922,-45.898,-40.527,-38.086,0.000
1709214737.798,-41.504,-36.621,-50.293,-30.273,0.000
1709214737.802,-45.898,-33.203,-40.527,-32.227,0.000
1709214737.806,-47.852,-32.227,-34.668,-44.434,0.000
1709214737.810,-41.992,-37.109,-41.504,-48.340,0.000
1709214737.814,-38.086,-39.062,-36.621,-39.551,0.000
1709214737.818,-41.992,-42.480,-34.180,-35.156,0.000
1709214737.822,-42.969,-43.945,-32.715,-39.062,0.000
1709214737.826,-32.715,-45.898,-31.738,-31.738,0.000
1709214737.830,-24.414,-56.152,-30.762,-20.996,0.000
1709214737.834,-30.273,-46.875,-34.668,-22.949,0.000
1709214737.837,-29.297,-27.344,-35.645,-23.926,0.000
1709214737.841,-24.902,-31.738,-32.227,-24.902,0.000
1709214737.845,-24.902,-37.598,-45.410,-28.320,0.000
1709214737.849,-26.855,-41.016,-46.387,-32.715,0.000
1709214737.853,-27.832,-42.969,-45.898,-28.320,0.000
1709214737.857,-17.090,-41.504,-46.875,-18.555,0.000
1709214737.861,-16.602,-40.527,-40.527,-22.461,0.000
1709214737.865,-25.879,-38.574,-43.457,-30.273,0.000
1709214737.869,-28.320,-44.922,-36.621,-32.715,0.000
1709214737.873,-31.738,-59.082,-31.250,-27.832,0.000
1709214737.877,-32.715,-60.059,-33.691,-20.508,0.000
1709214737.880,-32.227,-44.922,-39.551,-29.785,0.000
1709214737.884,-28.320,-39.062,-38.086,-38.574,0.000
1709214737.888,-34.668,-46.875,-40.527,-41.504,0.000
1709214737.892,-41.992,-34.668,-33.691,-33.691,0.000
1709214737.896,-35.156,-28.320,-23.438,-31.250,0.000
1709214737.900,-33.691,-38.574,-31.250,-34.668,0.000
1709214737.904,-39.062,-40.527,-38.086,-31.250,0.000
1709214737.908,-37.109,-41.504,-31.738,-43.457,0.000
1709214737.912,-46.875,-51.758,-35.156,-57.617,0.000
1709214737.916,-44.434,-49.805,-50.293,-47.363,0.000
1709214737.920,-31.250,-34.180,-43.945,-39.062,0.000
1709214737.923,-33.203,-27.344,-37.598,-39.062,0.000
1709214737.927,-36.621,-27.344,-39.551,-38.086,0.000
1709214737.931,-41.504,-37.109,-38.086,-43.945,0.000
1709214737.935,-41.016,-48.340,-41.992,-45.898,0.000
1709214737.939,-36.621,-40.527,-40.039,-45.410,0.000
1709214737.943,-37.109,-35.645,-35.645,-43.945,0.000
1709214737.947,-43.945,-52.246,-33.203,-31.250,0.000
1709214737.951,-39.062,-53.223,-33.691,-21.973,0.000
1709214737.955,-31.250,-38.574,-32.715,-25.391,0.000
1709214737.959,-37.109,-46.875,-39.551,-35.645,0.000
1709214737.963,-29.297,-39.062,-43.945,-40.527,0.000
1709214737.966,-24.902,-29.297,-55.664,-35.156,0.000
1709214737.970,-33.203,-38.086,-58.105,-37.109,0.000
1709214737.974,-26.367,-47.363,-37.109,-40.039,0.000
1709214737.978,-20.020,-46.387,-33.203,-37.109,0.000
1709214737.982,-16.113,-43.945,-29.297,-33.203,0.000
1709214737.986,-19.531,-45.898,-34.668,-44.922,0.000
1709214737.990,-30.762,-35.156,-41.504,-47.852,0.000
1709214737.994,-29.297,-33.203,-38.086,-34.668,0.000
1709214737.998,-23.438,-38.574,-38.574,-37.109,0.000
1709214738.002,-29.297,-43.457,-37.598,-38.574,0.000
1709214738.005,-38.574,-44.434,-36.133,-35.645,0.000
1709214738.009,-39.062,-36.621,-34.180,-30.762,0.000
1709214738.013,-35.645,-35.156,-36.133,-26.367,0.000
1709214738.017,-33.203,-36.133,-36.621,-29.785,0.000
1709214738.021,-37.598,-39.551,-38.086,-29.297,0.000
1709214738.025,-41.992,-55.176,-41.992,-28.809,0.000
1709214738.029,-45.410,-48.828,-34.668,-32.227,0.000
1709214738.033,-43.457,-31.250,-26.855,-25.391,0.000
1709214738.037,-48.828,-42.969,-29.297,-20.996,0.000
1709214738.041,-56.641,-49.316,-39.551,-25.879,0.000
1709214738.045,-52.734,-46.387,-39.551,-29.785,0.000
1709214738.048,-51.270,-44.434,-35.156,-34.668,0.000
1709214738.052,-51.758,-48.828,-39.062,-43.457,0.000
1709214738.056,-49.316,-55.664,-44.922,-41.504,0.000
1709214738.060,-41.016,-51.758,-38.574,-35.156,0.000
1709214738.064,-39.062,-53.711,-42.969,-37.109,0.000
1709214738.068,-40.527,-50.293,-43.945,-35.645,0.000
1709214738.072,-25.879,-37.598,-27.344,-24.414,0.000
1709214738.076,-23.438,-35.645,-30.273,-22.461,0.000
1709214738.080,-22.461,-40.039,-41.504,-25.879,0.000
1709214738.084,-13.184,-38.086,-42.969,-19.043,0.000
1709214738.087,-19.043,-29.297,-27.344,-20.996,0.000
1709214738.091,-24.414,-38.574,-30.273,-28.320,0.000
1709214738.095,-16.113,-41.992,-41.016,-25.879,0.000
1709214738.099,-19.531,-42.969,-37.598,-27.832,0.000
1709214738.103,-28.320,-40.039,-34.180,-30.273,0.000
1709214738.107,-22.461,-32.227,-29.297,-24.902,0.000
1709214738.111,-23.926,-49.316,-31.250,-24.902,0.000
1709214738.115,-29.785,-44.922,-32.227,-25.879,0.000
1709214738.119,-24.902,-26.855,-30.762,-16.602,0.000
1709214738.123,-17.578,-29.785,-34.180,-19.043,0.000
1709214738.126,-25.879,-39.551,-37.109,-25.391,0.000
1709214738.130,-41.016,-48.828,-33.691,-14.648,0.000
1709214738.134,-42.480,-53.223,-30.273,-7.324,0.000
1709214738.138,-36.133,-48.828,-33.203,-8.301,0.000
1709214738.142,-34.668,-64.453,-37.598,-21.484,0.000
1709214738.146,-34.180,-73.730,-29.297,-28.320,0.000
1709214738.150,-46.387,-57.617,-30.273,-31.250,0.000
1709214738.154,-46.387,-47.852,-37.598,-32.715,0.000
1709214738.158,-34.668,-53.711,-35.156,-33.691,0.000
1709214738.162,-37.109,-54.199,-35.156,-44.434,0.000
1709214738.165,-42.480,-46.875,-40.039,-52.246,0.000
1709214738.169,-41.016,-45.410,-45.898,-45.898,0.000
1709214738.173,-39.062,-54.688,-48.340,-33.691,0.000
1709214738.177,-34.668,-63.477,-45.898,-35.156,0.000
1709214738.181,-30.762,-59.570,-43.457,-43.945,0.000
1709214738.185,-32.227,-49.805,-42.480,-47.852,0.000
1709214738.189,-36.133,-48.340,-42.480,-51.270,0.000
1709214738.193,-30.273,-48.828,-43.457,-51.758,0.000
1709214738.197,-23.926,-46.875,-50.781,-56.641,0.000
1709214738.201,-23.438,-41.016,-51.270,-56.152,0.000
1709214738.205,-29.785,-55.176,-41.992,-51.270,0.000
1709214738.208,-40.527,-57.617,-38.086,-55.176,0.000
1709214738.212,-39.062,-44.922,-43.945,-56.152,0.000
1709214738.216,-38.086,-49.316,-44.434,-46.875,0.000
1709214738.220,-37.109,-47.852,-40.039,-46.875,0.000
1709214738.224,-33.203,-46.387,-40.039,-50.293,0.000
1709214738.228,-34.668,-49.316,-34.180,-38.574,0.000
1709214738.232,-48.828,-51.270,-33.203,-30.273,0.000
1709214738.236,-47.363,-48.828,-40.527,-37.598,0.000
1709214738.240,-33.203,-41.992,-41.992,-52.734,0.000
1709214738.244,-39.062,-45.898,-32.715,-50.293,0.000
1709214738.248,-45.410,-56.641,-29.297,-45.410,0.000
1709214738.252,-45.410,-54.688,-43.945,-46.387,0.000
1709214738.255,-34.668,-43.945,-41.016,-36.621,0.000
1709214738.259,-26.855,-40.039,-30.762,-34.180,0.000
1709214738.263,-34.180,-46.875,-41.016,-42.480,0.000
1709214738.267,-33.203,-44.434,-38.574,-43.457,0.000
1709214738.271,-33.691,-46.875,-32.715,-47.852,0.000
1709214738.275,-38.574,-52.246,-35.645,-47.363,0.000
1709214738.279,-37.109,-38.574,-36.621,-37.109,0.000
1709214738.283,-38.086,-36.621,-42.480,-45.898,0.000
1709214738.287,-44.434,-44.434,-41.504,-51.758,0.000
1709214738.291,-40.527,-40.039,-33.203,-44.434,0.000
1709214738.295,-35.156,-41.504,-32.227,-41.016,0.000
1709214738.298,-28.809,-41.992,-34.180,-34.180,0.000
1709214738.302,-26.367,-46.875,-35.645,-34.668,0.000
1709214738.306,-41.016,-43.945,-30.762,-47.363,0.000
1709214738.310,-49.805,-41.504,-32.715,-44.434,0.000
1709214738.314,-49.316,-47.852,-41.016,-39.551,0.000
1709214738.318,-51.758,-52.734,-40.527,-41.992,0.000
1709214738.322,-57.617,-50.293,-35.645,-33.203,0.000
1709214738.326,-58.105,-39.062,-35.156,-33.691,0.000
1709214738.330,-51.270,-39.551,-40.039,-34.668,0.000
1709214738.334,-51.758,-41.504,-36.133,-25.879,0.000
1709214738.337,-40.039,-41.504,-24.414,-23.438,0.000
1709214738.341,-32.715,-48.340,-25.391,-22.949,0.000
1709214738.345,-44.434,-51.758,-31.250,-26.367,0.000
1709214738.349,-53.711,-53.711,-36.133,-32.715,0.000
1709214738.353,-48.340,-62.500,-34.180,-18.555,0.000
1709214738.357,-47.852,-52.246,-35.645,-24.902,0.000
1709214738.361,-44.922,-45.410,-40.527,-39.062,0.000
1709214738.365,-34.180,-42.480,-38.574,-28.809,0.000
1709214738.369,-44.434,-42.480,-46.875,-30.762,0.000
1709214738.373,-44.434,-43.457,-52.246,-33.203,0.000
1709214738.377,-30.762,-41.504,-39.551,-33.203,0.000
1709214738.380,-22.949,-42.969,-31.250,-38.574,0.000
1709214738.384,-25.391,-42.480,-37.598,-48.340,0.000
1709214738.388,-40.039,-44.922,-42.969,-55.176,0.000
1709214738.392,-48.340,-51.270,-40.039,-50.293,0.000
1709214738.396,-45.410,-54.199,-45.898,-51.270,0.000
1709214738.400,-41.504,-50.293,-48.340,-46.875,0.000
1709214738.404,-41.992,-39.062,-41.992,-37.598,0.000
1709214738.408,-47.363,-37.109,-38.574,-40.039,0.000
1709214738.412,-46.387,-37.598,-32.227,-25.391,0.000
1709214738.416,-42.969,-38.086,-38.574,-19.531,0.000
1709214738.419,-47.852,-50.293,-50.293,-36.621,0.000
1709214738.423,-43.945,-48.340,-32.715,-35.645,0.000
1709214738.427,-35.156,-48.828,-20.508,-32.227,0.000
1709214738.431,-41.016,-53.223,-35.156,-32.227,0.000
1709214738.435,-46.387,-51.758,-40.527,-32.227,0.000
1709214738.439,-37.598,-53.711,-33.691,-26.367,0.000
1709214738.443,-30.762,-47.852,-25.879,-20.508,0.000
1709214738.447,-31.250,-49.805,-25.879,-29.785,0.000
1709214738.451,-39.551,-59.082,-28.320,-31.738,0.000
1709214738.455,-41.992,-55.176,-33.691,-30.273,0.000
1709214738.459,-38.574,-40.039,-35.645,-31.738,0.000
1709214738.462,-26.855,-34.180,-35.156,-34.180,0.000
1709214738.466,-23.438,-40.527,-37.109,-39.551,0.000
1709214738.470,-35.645,-43.457,-38.086,-41.992,0.000
1709214738.474,-32.227,-49.805,-40.039,-35.156,0.000
1709214738.478,0.000,-49.316,-40.527,0.000,0.000
1709214738.482,0.000,-36.133,-39.062,0.000,0.000
1709214738.486,0.000,-37.109,-29.785,0.000,0.000
1709214738.490,0.000,-37.109,-33.691,0.000,0.000
1709214738.494,0.000,-35.156,-38.086,0.000,0.000
1709214738.498,0.000,-31.738,-35.156,0.000,0.000
1709214738.501,0.000,-25.879,-41.992,0.000,0.000
1709214738.505,0.000,-32.715,-37.598,0.000,0.000
1709214738.509,0.000,-33.691,-41.016,0.000,0.000
1709214738.513,0.000,-32.715,-47.363,0.000,0.000
1709214738.517,0.000,-47.363,-35.645,0.000,0.000
1709214738.521,0.000,-48.340,-40.039,0.000,0.000
1709214738.525,-27.832,-32.227,-41.992,-46.387,0.000
1709214738.529,-24.902,-36.133,-31.738,-35.645,0.000
1709214738.533,-25.391,-42.969,-41.016,-30.273,0.000
1709214738.537,-27.832,-45.898,-44.922,-29.785,0.000
1709214738.540,-31.250,-47.852,-33.203,-39.062,0.000
1709214738.544,-36.133,-44.434,-31.250,-50.781,0.000
1709214738.548,-40.527,-53.223,-34.668,-33.203,0.000
1709214738.552,-33.203,-53.223,-32.227,-25.391,0.000
1709214738.556,-34.180,-41.992,-34.180,-33.203,0.000
1709214738.560,-42.480,-38.574,-33.691,-33.691,0.000
1709214738.564,-40.039,-41.992,-33.203,-37.598,0.000
1709214738.568,-40.527,-41.504,-31.250,-32.227,0.000
1709214738.572,-47.363,-46.387,-33.203,-28.809,0.000
1709214738.576,-50.293,-54.688,-30.762,-31.738,0.000
1709214738.580,-45.410,-50.781,-27.344,-30.273,0.000
1709214738.583,-41.992,-39.551,-34.668,-38.574,0.000
1709214738.587,-43.457,-37.598,-43.457,-36.621,0.000
1709214738.591,-45.410,-40.039,-35.156,-28.320,0.000
1709214738.595,-39.551,-41.992,-25.391,-34.180,0.000
1709214738.599,-31.738,-39.551,-33.203,-32.715,0.000
1709214738.603,-31.250,-43.457,-35.645,-42.480,0.000
1709214738.607,-31.250,-44.922,-31.738,-39.062,0.000
1709214738.611,-25.879,-31.250,-39.062,-26.855,0.000
1709214738.615,-21.484,-34.668,-39.551,-33.203,0.000
1709214738.619,-24.414,-44.434,-34.180,-32.227,0.000
1709214738.623,-21.973,-47.852,-37.109,-30.762,0.000
1709214738.627,-26.855,-41.504,-40.039,-38.574,0.000
1709214738.630,-28.320,-37.598,-42.969,-44.922,0.000
1709214738.634,-22.949,-34.668,-39.062,-39.062,0.000
1709214738.638,-22.461,-50.293,-38.574,-36.133,0.000
1709214738.642,-25.879,-62.988,-44.922,-39.062,0.000
1709214738.646,-29.785,-47.363,-41.504,-34.180,0.000
1709214738.650,-37.598,-47.852,-35.645,-32.715,0.000
1709214738.654,-41.992,-55.176,-26.855,-31.250,0.000
1709214738.658,-37.109,-47.363,-24.902,-32.227,0.000
1709214738.662,-35.645,-40.527,-33.691,-39.551,0.000
1709214738.666,-39.551,-49.316,-37.109,-43.945,0.000
1709214738.670,-42.969,-49.316,-38.086,-44.434,0.000
1709214738.673,-36.133,-37.598,-22.949,-36.133,0.000
1709214738.677,-38.574,-41.016,-20.020,-33.203,0.000
1709214738.681,-46.387,-46.387,-39.551,-41.016,0.000
1709214738.685,-43.945,-39.551,-46.875,-44.922,0.000
1709214738.689,-42.480,-40.527,-48.828,-47.852,0.000
1709214738.693,-41.016,-35.645,-45.410,-42.969,0.000
1709214738.697,-40.039,-35.645,-43.945,-35.645,0.000
1709214738.701,-40.039,-36.621,-49.805,-41.016,0.000
1709214738.705,-41.504,-39.062,-52.734,-55.664,0.000
1709214738.709,-51.758,-42.969,-52.734,-57.129,0.000
1709214738.713,-51.758,-37.109,-56.641,-54.688,0.000
1709214738.716,-41.992,-36.621,-55.176,-52.246,0.000
1709214738.720,-48.340,-37.109,-49.316,-51.758,0.000
1709214738.724,-45.898,-36.621,-46.387,-51.270,0.000
1709214738.728,-43.945,-36.133,-47.363,-43.457,0.000
1709214738.732,-40.527,-42.480,-46.875,-37.109,0.000
1709214738.736,-26.367,-42.969,-44.922,-39.062,0.000
1709214738.740,-23.438,-40.527,-41.504,-36.621,0.000
1709214738.744,-22.949,-39.551,-36.621,-29.297,0.000
1709214738.748,-22.949,-30.762,-32.715,-36.621,0.000
1709214738.752,-24.414,-28.320,-40.039,-39.062,0.000
1709214738.755,-21.484,-31.738,-41.504,-35.156,0.000
1709214738.759,-16.602,-30.762,-31.250,-34.668,0.000
1709214738.763,-18.555,-34.668,-29.785,-26.367,0.000
1709214738.767,-36.133,-40.527,-36.621,-35.645,0.000
1709214738.771,-45.410,-47.363,-38.086,-41.504,0.000
1709214738.775,-58.105,-47.852,-33.691,-34.668,0.000
1709214738.779,-63.477,-44.434,-37.598,-31.250,0.000
1709214738.783,-62.988,-47.363,-40.039,-40.039,0.000
1709214738.787,-64.453,-44.922,-35.156,-33.691,0.000
1709214738.791,-67.383,-50.781,-39.062,-23.438,0.000
1709214738.795,-58.105,-48.340,-40.039,-23.926,0.000
1709214738.798,-41.992,-41.504,-33.203,-23.926,0.000
1709214738.802,-46.875,-53.711,-29.297,-34.180,0.000
1709214738.806,-50.293,-52.734,-27.832,-35.156,0.000
1709214738.810,-45.410,-36.133,-31.738,-29.785,0.000
1709214738.814,-40.527,-38.086,-34.668,-25.391,0.000
1709214738.818,-34.668,-44.922,-30.762,-20.020,0.000
1709214738.822,-41.992,-49.805,-43.457,-27.344,0.000
1709214738.826,-43.457,-44.922,-47.363,-36.621,0.000
1709214738.830,-40.527,-36.621,-38.086,-40.527,0.000
1709214738.834,-42.969,-41.992,-28.809,-27.832,0.000
1709214738.837,-42.969,-45.410,-38.574,-33.691,0.000
1709214738.841,-40.527,-43.457,-45.410,-54.688,0.000
1709214738.845,-38.086,-43.457,-36.133,-61.035,0.000
1709214738.849,-38.086,-48.828,-39.062,-51.270,0.000
1709214738.853,-41.504,-46.387,-41.992,-53.711,0.000
1709214738.857,-45.410,-43.945,-55.176,-65.430,0.000
1709214738.861,-39.551,-52.246,-50.781,-55.664,0.000
1709214738.865,-40.527,-48.828,-41.992,-49.316,0.000
1709214738.869,-46.387,-39.551,-40.527,-46.875,0.000
1709214738.873,-31.250,-45.898,-34.180,-33.691,0.000
1709214738.876,-19.531,-45.898,-38.574,-19.043,0.000
1709214738.880,-25.879,-40.039,-41.504,-23.438,0.000
1709214738.884,-28.809,-32.227,-44.922,-38.086,0.000
1709214738.888,-28.320,-33.203,-39.062,-37.109,0.000
1709214738.892,-41.992,-52.246,-33.203,-37.598,0.000
1709214738.896,-49.805,-63.477,-33.691,-29.785,0.000
1709214738.900,-46.875,-56.641,-35.645,-24.902,0.000
1709214738.904,-46.387,-47.363,-34.180,-37.598,0.000
1709214738.908,-55.664,-41.504,-28.809,-41.992,0.000
1709214738.912,-56.152,-42.969,-26.367,-37.598,0.000
1709214738.915,-50.293,-44.922,-28.809,-33.203,0.000
1709214738.919,-56.641,-40.039,-31.250,-40.527,0.000
1709214738.923,-62.012,-39.551,-40.039,-45.410,0.000
1709214738.927,-58.105,-43.457,-36.621,-38.574,0.000
1709214738.931,-48.828,-54.688,-32.227,-43.457,0.000
1709214738.935,-46.387,-54.688,-41.016,-43.945,0.000
1709214738.939,-51.758,-45.898,-45.898,-42.480,0.000
1709214738.943,-54.199,-41.992,-37.109,-52.734,0.000
1709214738.947,-50.781,-37.598,-31.250,-56.152,0.000
1709214738.950,-54.199,-34.668,-32.227,-56.152,0.000
1709214738.954,-58.594,-39.062,-36.133,-57.617,0.000
1709214738.958,-51.270,-43.457,-39.551,-56.641,0.000
1709214738.962,-35.156,-45.898,-36.621,-48.828,0.000
1709214738.966,-33.691,-47.852,-43.945,-49.316,0.000
1709214738.970,-31.738,-50.293,-41.992,-48.828,0.000
1709214738.974,-26.855,-44.922,-36.133,-45.898,0.000
1709214738.978,-27.344,-28.809,-41.504,-47.852,0.000
1709214738.982,-34.668,-41.992,-46.387,-47.852,0.000
1709214738.986,-45.898,-56.152,-49.805,-52.734,0.000
1709214738.989,-44.434,-50.781,-47.852,-55.176,0.000
1709214738.993,-43.945,-48.828,-41.016,-41.504,0.000
1709214738.997,-46.387,-43.945,-36.133,-36.133,0.000
1709214739.001,-35.156,-48.340,-33.691,-32.715,0.000
1709214739.005,-31.250,-45.898,-27.832,-27.344,0.000
1709214739.009,-35.156,-43.945,-22.949,-23.438,0.000
1709214739.013,-40.039,-57.129,-28.809,-20.020,0.000
1709214739.017,-43.457,-44.434,-32.227,-22.949,0.000
1709214739.021,-31.250,-36.621,-28.809,-23.926,0.000
1709214739.025,-25.879,-56.641,-24.902,-28.809,0.000
1709214739.029,-32.227,-54.688,-22.461,-28.809,0.000
1709214739.033,-30.273,-37.598,-25.879,-26.367,0.000
1709214739.036,-26.855,-30.762,-33.691,-20.020,0.000
1709214739.040,-32.227,-33.691,-32.227,-19.531,0.000
1709214739.044,-38.574,-36.133,-34.180,-29.785,0.000
1709214739.048,-40.527,-36.621,-49.316,-34.668,0.000
1709214739.052,-45.410,-34.668,-40.527,-32.227,0.000
1709214739.056,-52.734,-39.551,-26.367,-30.762,0.000
1709214739.060,-57.617,-42.969,-29.785,-41.504,0.000
1709214739.064,-58.594,-45.410,-39.062,-50.781,0.000
1709214739.068,-61.035,-37.598,-38.574,-53.711,0.000
1709214739.072,-61.523,-33.203,-37.109,-48.828,0.000
1709214739.076,-47.852,-32.227,-34.668,-38.574,0.000
1709214739.079,-42.480,-27.832,-39.551,-39.062,0.000
1709214739.083,-60.059,-38.574,-50.293,-56.641,0.000
1709214739.087,-53.711,-42.969,-43.945,-56.152,0.000
1709214739.091,-34.180,-41.992,-42.480,-45.410,0.000
1709214739.095,-35.156,-42.969,-50.293,-52.734,0.000
1709214739.099,-30.273,-33.203,-42.480,-52.734,0.000
1709214739.103,-23.438,-34.668,-32.227,-46.875,0.000
1709214739.107,-21.484,-45.410,-22.461,-41.504,0.000
1709214739.111,-24.902,-43.945,-33.691,-44.434,0.000
1709214739.115,-28.320,-46.875,-51.270,-42.969,0.000
1709214739.119,-32.227,-53.223,-50.781,-30.273,0.000
1709214739.122,-32.715,-39.062,-43.945,-35.156,0.000
1709214739.126,-34.180,-36.621,-31.250,-48.340,0.000
1709214739.130,-32.227,-48.340,-31.250,-48.340,0.000
