timestamps,TP9,AF7,AF8,TP10,Right AUX
1709298425.455,-9.766,-22.949,-3.906,-0.488,0.000
1709298425.459,-26.855,-11.230,-6.836,-16.113,0.000
1709298425.463,-28.809,-10.254,-5.859,-17.578,0.000
1709298425.467,-18.555,-12.207,-6.348,0.977,0.000
1709298425.471,-6.348,-9.277,0.488,10.254,0.000
1709298425.475,-5.859,-11.230,0.977,2.441,0.000
1709298425.479,-23.926,-14.648,-1.465,-13.672,0.000
1709298425.483,-26.855,-18.555,3.906,-4.883,0.000
1709298425.486,-13.184,-22.949,10.742,16.113,0.000
1709298425.490,-9.277,-16.113,9.277,12.207,0.000
1709298425.494,-3.418,-11.719,3.906,3.906,0.000
1709298425.498,-19.043,-18.555,2.930,-12.207,0.000
1709298425.502,-42.969,-17.578,-0.488,-24.902,0.000
1709298425.506,-34.668,-5.371,1.465,-13.184,0.000
1709298425.510,-15.625,-6.836,6.348,-8.301,0.000
1709298425.514,-8.301,-20.508,6.836,-9.766,0.000
1709298425.518,-26.367,-27.832,2.441,-13.672,0.000
1709298425.521,-42.480,-18.555,-2.930,-31.250,0.000
1709298425.525,-34.668,-11.230,0.488,-13.184,0.000
1709298425.529,-2.930,-20.020,7.812,12.207,0.000
1709298425.533,2.441,-20.508,10.742,2.930,0.000
1709298425.537,-29.297,-11.230,-1.953,-17.090,0.000
1709298425.541,-48.340,-13.184,-8.789,-22.461,0.000
1709298425.545,-49.316,-20.508,-3.418,-7.812,0.000
1709298425.549,-33.203,-13.672,-2.930,7.324,0.000
1709298425.553,-17.578,-10.254,-4.883,2.930,0.000
1709298425.556,-16.602,-12.695,-6.348,-12.695,0.000
1709298425.560,-28.320,-6.836,-4.395,-20.508,0.000
1709298425.564,-22.949,-15.625,-0.977,-12.695,0.000
1709298425.568,-9.277,-18.555,-0.977,0.488,0.000
1709298425.572,-4.395,-15.625,-1.465,9.766,0.000
1709298425.576,-0.488,-23.926,6.836,4.883,0.000
1709298425.580,-10.742,-10.742,1.465,-16.113,0.000
1709298425.584,-16.113,-5.859,-5.859,-9.277,0.000
1709298425.588,-11.230,-12.695,4.883,0.488,0.000
1709298425.592,14.648,-2.930,6.836,7.812,0.000
1709298425.595,29.785,8.789,3.418,7.324,0.000
1709298425.599,-4.395,-4.395,3.906,-5.859,0.000
1709298425.603,-20.996,-6.348,-1.953,2.930,0.000
1709298425.607,-14.648,8.301,-1.953,15.625,0.000
1709298425.611,-1.953,1.465,1.465,15.137,0.000
1709298425.615,1.953,-3.418,6.348,6.348,0.000
1709298425.619,-9.277,-8.301,10.254,-9.766,0.000
1709298425.623,-21.484,-20.508,-0.488,-11.230,0.000
1709298425.627,-14.160,-16.113,-5.371,-8.301,0.000
1709298425.630,4.883,-15.625,1.953,4.395,0.000
1709298425.634,7.812,-17.578,9.277,8.789,0.000
1709298425.638,-8.789,-7.324,9.277,-7.812,0.000
1709298425.642,-22.949,-5.859,4.883,-11.230,0.000
1709298425.646,-23.438,-13.672,4.395,9.277,0.000
1709298425.650,-8.301,-14.648,1.953,22.461,0.000
1709298425.654,-9.766,-13.672,-2.930,4.883,0.000
1709298425.658,-11.719,-20.020,-3.906,-14.648,0.000
1709298425.662,-10.742,-20.996,3.906,-10.254,0.000
1709298425.666,-24.902,-12.207,1.953,11.719,0.000
1709298425.670,-16.602,-17.578,0.000,15.625,0.000
1709298425.674,-14.160,-15.137,-8.301,10.742,0.000
1709298425.678,-20.508,-13.672,-13.184,0.488,0.000
1709298425.682,-15.625,-11.719,5.371,-4.395,0.000
1709298425.685,-12.695,-4.883,-0.488,0.000,0.000
1709298425.690,0.000,-5.371,-8.789,9.277,0.000
1709298425.693,-1.953,0.977,-6.836,5.371,0.000
1709298425.697,-14.160,-4.883,-15.137,-17.578,0.000
1709298425.701,-21.973,-8.789,-12.695,-28.320,0.000
1709298425.705,-14.160,-5.859,-3.418,-10.254,0.000
1709298425.709,-4.395,-16.113,-2.441,4.395,0.000
1709298425.713,-3.906,-22.949,-6.836,-5.371,0.000
1709298425.717,-2.930,-22.949,-9.766,-17.578,0.000
1709298425.721,-6.836,-19.043,-2.441,-15.625,0.000
1709298425.725,-13.672,-1.953,-0.977,-0.977,0.000
1709298425.729,-13.184,3.418,-12.695,5.371,0.000
1709298425.732,3.906,0.488,-5.371,0.000,0.000
1709298425.737,-14.648,-6.836,-9.766,-9.766,0.000
1709298425.740,-52.734,-10.742,-18.066,-22.461,0.000
1709298425.744,-53.223,-4.395,-7.812,-18.066,0.000
1709298425.748,-30.273,-4.883,-10.742,-1.465,0.000
1709298425.752,-6.836,-12.207,-8.301,-1.465,0.000
1709298425.756,-7.812,-15.625,3.906,-14.160,0.000
1709298425.760,-25.391,-16.113,-5.371,-26.367,0.000
1709298425.764,-31.250,-8.301,-14.160,-18.555,0.000
1709298425.768,-19.043,-2.930,-2.441,8.301,0.000
1709298425.772,-5.859,-14.648,-1.465,16.602,0.000
1709298425.776,-11.230,-15.137,-5.859,-1.953,0.000
1709298425.780,-20.020,-4.395,-4.395,-16.602,0.000
1709298425.783,-27.344,-1.953,-7.324,-17.090,0.000
1709298425.787,-16.113,-2.930,-13.184,-5.371,0.000
1709298425.791,-3.906,-5.371,-13.672,-5.371,0.000
1709298425.795,-1.465,-8.789,-10.742,-13.672,0.000
1709298425.799,-10.254,-15.137,-9.766,-26.367,0.000
1709298425.803,-21.484,-7.324,-10.254,-17.578,0.000
1709298425.807,-1.953,0.488,-12.695,-9.766,0.000
1709298425.811,1.953,-0.977,-11.719,-4.883,0.000
1709298425.815,0.000,0.977,-2.930,8.789,0.000
1709298425.819,-4.395,2.930,3.418,-2.930,0.000
1709298425.823,-14.160,2.441,1.465,-13.672,0.000
1709298425.826,-15.625,-7.324,-8.301,-2.441,0.000
1709298425.830,-19.043,-11.230,-17.578,-1.953,0.000
1709298425.834,-13.184,-14.648,-19.043,-8.301,0.000
1709298425.838,-18.555,-23.926,-13.184,-17.090,0.000
1709298425.842,-32.715,-14.648,-5.859,-20.996,0.000
1709298425.846,-28.320,-9.277,-8.301,-10.254,0.000
1709298425.850,-18.066,-12.207,-13.672,0.488,0.000
1709298425.854,-16.113,-9.277,-11.230,-8.789,0.000
1709298425.858,-17.578,-8.301,-9.766,-6.348,0.000
1709298425.862,-22.949,-12.207,-16.602,-5.859,0.000
1709298425.865,-28.809,-6.836,-17.090,-7.812,0.000
1709298425.869,-17.090,-3.418,-16.602,7.324,0.000
1709298425.873,-8.301,-9.277,-9.277,2.930,0.000
1709298425.877,-14.160,-16.602,-1.953,-10.254,0.000
1709298425.881,-21.484,-21.973,-11.719,-20.508,0.000
1709298425.885,-14.648,-15.137,-10.254,-12.207,0.000
1709298425.889,5.859,-4.883,-2.930,6.348,0.000
1709298425.893,11.230,-5.371,-0.977,12.207,0.000
1709298425.897,0.000,-18.066,4.395,0.488,0.000
1709298425.901,-13.184,-19.043,2.441,-9.766,0.000
1709298425.904,-18.066,-19.531,-1.465,-1.953,0.000
1709298425.908,-12.207,-19.043,-8.789,0.977,0.000
1709298425.912,-2.441,-23.926,-12.207,-3.418,0.000
1709298425.916,11.230,-25.391,-1.953,-3.906,0.000
1709298425.920,2.930,-24.414,-8.301,-17.090,0.000
1709298425.924,-23.438,-32.227,-12.207,-14.160,0.000
1709298425.928,-19.531,-32.227,-9.766,4.883,0.000
1709298425.932,-14.648,-24.902,-10.742,4.395,0.000
1709298425.935,-8.789,-17.090,-8.789,-15.137,0.000
1709298425.939,-9.766,-22.949,-14.160,-32.227,0.000
1709298425.943,-15.137,-23.926,-13.184,-24.902,0.000
1709298425.947,-9.277,-17.090,-5.859,-1.465,0.000
1709298425.951,-6.836,-25.879,-5.859,-0.488,0.000
1709298425.955,-11.230,-34.668,-2.441,-23.438,0.000
1709298425.959,-17.090,-29.785,-1.465,-37.109,0.000
1709298425.963,-18.555,-32.715,-4.883,-28.320,0.000
1709298425.967,-13.672,-44.434,-6.348,-19.043,0.000
1709298425.971,-2.441,-34.668,-5.859,-18.066,0.000
1709298425.975,2.930,-25.879,-4.395,-14.160,0.000
1709298425.979,-9.766,-29.297,-0.488,-10.254,0.000
1709298425.983,-22.461,-36.133,-0.488,-20.996,0.000
1709298425.987,-7.324,-36.621,-3.906,-13.184,0.000
1709298425.991,-0.488,-24.414,-8.301,4.395,0.000
1709298425.994,10.742,-13.184,-11.719,5.859,0.000
1709298425.998,7.324,-15.137,-12.207,-12.207,0.000
1709298426.002,-20.996,-18.555,-7.812,-11.230,0.000
1709298426.006,-16.602,-21.973,-8.301,9.277,0.000
1709298426.010,-2.441,-34.180,-9.766,15.137,0.000
1709298426.014,-2.930,-31.250,-4.395,7.324,0.000
1709298426.018,-15.137,-26.367,-7.324,-8.789,0.000
1709298426.022,-32.227,-25.879,-15.137,-19.531,0.000
1709298426.025,-28.320,-23.438,-10.254,-6.836,0.000
1709298426.029,-10.254,-23.926,-2.441,2.930,0.000
1709298426.033,-5.371,-19.043,-5.859,-6.836,0.000
1709298426.037,-17.578,-19.531,-9.277,-9.766,0.000
1709298426.041,-30.273,-26.855,-2.930,-8.789,0.000
1709298426.045,-25.391,-23.926,1.953,-5.859,0.000
1709298426.049,-19.531,-21.484,0.488,-1.465,0.000
1709298426.053,-6.348,-21.973,-4.883,7.812,0.000
1709298426.057,-14.160,-13.184,-14.160,-4.395,0.000
1709298426.061,-17.090,-3.418,-10.254,-26.367,0.000
1709298426.065,-5.859,-8.301,-0.488,-21.484,0.000
1709298426.069,-21.973,-25.391,-0.977,-13.672,0.000
1709298426.072,-18.555,-28.809,-6.348,-5.859,0.000
1709298426.076,-11.719,-19.043,-7.812,-11.719,0.000
1709298426.080,-9.277,-13.184,-6.836,-17.090,0.000
1709298426.084,-14.648,-18.066,-7.324,-9.277,0.000
1709298426.088,-22.461,-22.461,-9.766,0.977,0.000
1709298426.092,-10.254,-29.785,-5.859,-2.930,0.000
1709298426.096,0.977,-33.203,-4.395,-7.324,0.000
1709298426.100,-7.324,-26.367,-5.859,-10.254,0.000
1709298426.104,-18.066,-22.949,0.977,-6.348,0.000
1709298426.108,-5.859,-24.414,0.488,6.348,0.000
1709298426.112,2.441,-26.367,-1.953,11.230,0.000
1709298426.116,-14.160,-29.785,-0.977,10.254,0.000
1709298426.119,-22.949,-32.715,0.977,-3.906,0.000
1709298426.123,-11.719,-27.344,1.465,0.977,0.000
1709298426.127,-0.488,-29.785,-4.395,9.766,0.000
1709298426.131,0.488,-41.016,-8.789,11.719,0.000
1709298426.135,6.836,-29.297,-10.254,7.812,0.000
1709298426.139,-5.371,-24.414,-22.461,-13.672,0.000
1709298426.143,-16.113,-30.762,-16.113,-11.230,0.000
1709298426.147,-14.160,-22.461,-4.883,3.906,0.000
1709298426.151,-13.184,-21.973,-18.555,6.348,0.000
1709298426.155,-2.441,-21.484,-12.695,-0.488,0.000
1709298426.159,6.348,-15.137,-8.789,-12.207,0.000
1709298426.162,-17.090,-15.625,-16.602,-10.254,0.000
1709298426.166,-29.785,-19.043,-9.277,6.836,0.000
1709298426.170,-8.789,-29.297,-6.348,13.672,0.000
1709298426.174,-9.766,-30.762,-10.254,1.465,0.000
1709298426.178,-11.719,-25.391,-7.324,-10.254,0.000
1709298426.182,-8.789,-22.949,-1.465,-2.441,0.000
1709298426.186,-13.184,-17.090,1.465,4.395,0.000
1709298426.190,-2.930,-15.137,-5.859,11.230,0.000
1709298426.194,8.789,-14.160,-10.254,8.789,0.000
1709298426.198,-8.301,-30.273,-1.953,-15.137,0.000
1709298426.202,-22.949,-36.133,3.418,-19.531,0.000
1709298426.205,-22.461,-24.414,0.977,-11.719,0.000
1709298426.209,-19.531,-19.043,-1.465,0.977,0.000
1709298426.213,-9.766,-22.949,-1.465,11.230,0.000
1709298426.217,-20.508,-26.855,5.859,-5.859,0.000
1709298426.221,-23.926,-29.297,3.906,-11.230,0.000
1709298426.225,-6.836,-33.691,-6.836,1.465,0.000
1709298426.229,-8.789,-20.508,-0.488,14.160,0.000
1709298426.233,-1.465,-14.648,14.160,37.598,0.000
1709298426.237,0.000,-20.020,4.883,34.180,0.000
1709298426.241,-19.531,-20.996,-6.836,4.883,0.000
1709298426.244,-16.113,-19.043,5.859,11.719,0.000
1709298426.248,-1.953,-21.484,10.742,21.484,0.000
1709298426.252,0.488,-35.156,5.371,21.484,0.000
1709298426.256,-0.977,-34.180,4.883,16.602,0.000
1709298426.260,-20.508,-21.973,-0.977,-9.766,0.000
1709298426.264,-39.551,-20.020,-11.719,-16.602,0.000
1709298426.268,-17.090,-20.996,-7.812,2.930,0.000
1709298426.272,-8.301,-17.578,-5.859,10.254,0.000
1709298426.276,-20.020,-28.320,-3.906,-4.395,0.000
1709298426.279,-24.414,-39.551,-5.371,-8.789,0.000
1709298426.283,-27.832,-24.414,-1.953,1.465,0.000
1709298426.287,-5.859,-12.207,0.977,14.648,0.000
1709298426.291,-1.953,-24.414,-1.465,15.137,0.000
1709298426.295,-10.742,-40.039,3.906,-4.395,0.000
1709298426.299,-12.695,-40.527,6.348,-14.160,0.000
1709298426.303,-16.113,-20.508,6.348,-10.742,0.000
1709298426.307,-22.949,-12.695,-2.441,2.930,0.000
1709298426.311,-13.184,-18.555,-4.395,5.371,0.000
1709298426.314,-5.859,-17.578,-2.930,-4.395,0.000
1709298426.318,-19.531,-18.066,-1.953,-9.766,0.000
1709298426.322,-17.578,-29.785,5.371,-1.953,0.000
1709298426.326,-13.672,-28.320,4.395,15.137,0.000
1709298426.330,-17.090,-24.414,3.418,11.230,0.000
1709298426.334,-6.348,-27.344,12.207,3.906,0.000
1709298426.338,3.418,-14.648,14.160,-3.418,0.000
1709298426.342,-23.438,-13.184,3.906,-17.578,0.000
1709298426.345,-29.297,-18.066,6.836,-10.742,0.000
1709298426.349,-9.277,-27.832,6.836,1.465,0.000
1709298426.353,-12.695,-24.902,-4.395,-5.371,0.000
1709298426.357,-11.719,-22.949,-8.301,-12.695,0.000
1709298426.361,-22.461,-32.227,-8.301,-20.996,0.000
1709298426.365,-33.203,-22.949,-5.371,-21.484,0.000
1709298426.369,-18.555,-24.414,0.488,-7.812,0.000
1709298426.373,-2.930,-17.578,7.812,-6.348,0.000
1709298426.377,-16.113,-8.789,3.906,-27.832,0.000
1709298426.381,-30.273,0.977,3.906,-28.809,0.000
1709298426.384,-21.973,3.418,-1.465,-17.090,0.000
1709298426.388,-16.602,-16.602,-7.324,-15.625,0.000
1709298426.392,-15.625,-19.531,-3.906,-13.672,0.000
1709298426.396,-11.719,-14.648,-3.418,-14.160,0.000
1709298426.400,-34.180,-14.648,-7.324,-21.484,0.000
1709298426.404,-38.574,-20.020,-8.789,-25.879,0.000
1709298426.408,-21.973,-25.391,-11.230,-15.625,0.000
1709298426.412,-27.344,-19.531,-6.348,0.977,0.000
1709298426.415,-34.668,-2.930,-2.930,-12.695,0.000
1709298426.419,-45.898,-0.488,-13.184,-34.668,0.000
1709298426.423,-49.805,-13.184,-15.625,-32.227,0.000
1709298426.427,-34.180,-17.090,-6.348,-11.230,0.000
1709298426.431,-24.902,-10.254,-2.441,0.000,0.000
1709298426.435,-29.297,-7.324,-5.859,-19.531,0.000
1709298426.439,-25.879,-10.254,0.488,-27.832,0.000
1709298426.443,-24.902,-14.160,0.977,-22.461,0.000
1709298426.447,-19.531,-9.277,-5.859,-12.207,0.000
1709298426.451,0.977,2.930,-0.977,-0.977,0.000
1709298426.455,2.930,0.977,2.441,-1.953,0.000
1709298426.459,-14.160,-5.371,-2.930,-14.160,0.000
1709298426.463,-29.297,-7.324,-11.230,-26.367,0.000
1709298426.466,-7.324,-8.301,-10.254,-13.184,0.000
1709298426.470,4.395,-6.836,-4.883,6.348,0.000
1709298426.474,-11.719,-5.859,3.906,0.977,0.000
1709298426.478,-16.602,-0.488,0.000,-14.160,0.000
1709298426.482,-27.832,1.953,-4.395,-17.090,0.000
1709298426.487,-24.902,-3.418,4.395,-4.883,0.000
1709298426.491,1.465,-3.418,10.254,12.207,0.000
1709298426.495,10.742,-3.418,5.371,7.324,0.000
1709298426.498,-4.883,-8.789,1.465,-8.789,0.000
1709298426.502,-9.277,-1.465,-7.812,-8.301,0.000
1709298426.506,-16.602,5.371,-7.324,3.418,0.000
1709298426.510,-10.254,2.441,5.371,11.719,0.000
1709298426.514,9.277,7.324,5.859,1.953,0.000
1709298426.518,-8.301,5.371,3.906,4.883,0.000
1709298426.522,-25.879,-8.301,2.930,9.766,0.000
1709298426.526,-16.602,-3.906,-2.441,3.906,0.000
1709298426.530,0.000,16.602,-5.371,15.625,0.000
1709298426.534,4.395,20.508,-1.953,20.508,0.000
1709298426.538,-4.883,6.348,-10.742,-1.465,0.000
1709298426.541,-25.879,13.184,-7.812,-17.578,0.000
1709298426.545,-25.879,10.742,0.000,-11.719,0.000
1709298426.549,-3.418,-4.395,-5.371,2.441,0.000
1709298426.553,-0.977,2.930,-6.348,5.371,0.000
1709298426.557,-13.184,5.859,-0.977,-8.789,0.000
1709298426.561,-23.438,3.418,2.441,-22.461,0.000
1709298426.565,-24.902,7.812,1.953,-16.113,0.000
1709298426.569,-17.578,5.371,-3.906,1.953,0.000
1709298426.573,-1.953,7.812,-7.324,5.859,0.000
1709298426.577,-0.977,0.488,-6.348,-3.906,0.000
1709298426.580,-0.977,-2.441,-7.324,-6.836,0.000
1709298426.584,-1.953,7.812,-20.020,-1.953,0.000
1709298426.588,-17.578,11.719,-19.043,12.695,0.000
1709298426.592,-4.395,7.812,0.000,19.043,0.000
1709298426.596,5.859,6.348,-2.930,4.395,0.000
1709298426.600,0.977,4.395,-7.812,-8.301,0.000
1709298426.604,-15.137,-5.859,-4.883,-7.812,0.000
1709298426.608,-10.742,-11.719,-4.883,9.277,0.000
1709298426.612,7.324,-13.672,-4.395,20.996,0.000
1709298426.616,-6.836,-9.277,-5.371,-2.930,0.000
1709298426.619,-29.297,-9.766,-8.789,-17.578,0.000
1709298426.623,-42.969,-17.578,-9.277,-18.555,0.000
1709298426.627,-39.062,-15.625,-5.859,-1.953,0.000
1709298426.631,-19.531,-10.742,-10.254,8.789,0.000
1709298426.635,-18.555,-13.184,-17.090,-7.812,0.000
1709298426.639,-24.902,-20.020,-9.277,-13.184,0.000
1709298426.643,-29.785,-31.738,-2.441,-16.113,0.000
1709298426.647,-14.648,-17.578,0.977,-12.695,0.000
1709298426.651,-3.418,-11.230,-7.812,-9.277,0.000
1709298426.655,-18.066,-24.902,-4.883,-9.277,0.000
1709298426.658,-32.227,-19.043,3.418,-17.090,0.000
1709298426.662,-34.668,-20.020,-0.488,-20.996,0.000
1709298426.666,-25.879,-26.855,-1.953,-5.371,0.000
1709298426.670,-14.160,-22.949,-3.418,8.789,0.000
1709298426.674,-4.883,-20.996,0.000,1.465,0.000
1709298426.678,-11.719,-18.555,0.000,-10.254,0.000
1709298426.682,-29.785,-22.461,0.000,-5.371,0.000
1709298426.686,-19.043,-26.855,0.000,11.230,0.000
1709298426.690,4.395,-29.297,0.000,22.461,0.000
1709298426.694,10.742,-38.574,0.000,6.348,0.000
1709298426.697,2.441,-31.250,0.000,2.441,0.000
1709298426.701,-18.066,-21.973,0.000,3.418,0.000
1709298426.705,-25.391,-21.973,0.000,-1.465,0.000
1709298426.709,2.441,-13.672,0.000,14.648,0.000
1709298426.713,18.555,-10.742,0.000,15.137,0.000
1709298426.717,-7.812,-12.207,0.000,2.930,0.000
1709298426.721,-14.648,-24.414,-2.930,-4.883,0.000
1709298426.725,-13.672,-34.668,-6.348,0.977,0.000
1709298426.729,-15.137,-28.320,-7.324,6.348,0.000
1709298426.733,4.883,-19.043,-4.883,7.812,0.000
1709298426.737,2.930,-21.973,-0.977,-2.441,0.000
1709298426.741,-12.695,-22.461,4.883,-12.695,0.000
1709298426.745,-4.883,-23.926,6.348,10.254,0.000
1709298426.749,-2.930,-12.207,0.000,21.973,0.000
1709298426.752,-5.859,-18.066,2.441,11.719,0.000
1709298426.756,-0.488,-38.086,3.906,7.812,0.000
1709298426.760,-6.348,-34.180,1.953,4.395,0.000
1709298426.764,-18.555,-30.273,-4.883,1.953,0.000
1709298426.768,-4.883,-24.414,-5.371,9.766,0.000
1709298426.772,12.695,-19.531,1.953,20.020,0.000
1709298426.776,18.066,-26.855,-3.418,0.488,0.000
1709298426.780,8.301,-30.273,-9.277,-20.020,0.000
1709298426.783,-16.113,-27.344,0.488,-21.973,0.000
1709298426.787,-12.207,-32.715,0.977,-9.766,0.000
1709298426.791,9.766,-32.715,-0.977,-0.488,0.000
1709298426.795,8.301,-29.785,-5.371,-18.066,0.000
1709298426.799,-7.324,-28.320,-13.184,-36.621,0.000
1709298426.803,-2.930,-32.715,-7.812,-14.160,0.000
1709298426.807,7.324,-24.902,-8.789,0.000,0.000
1709298426.811,11.719,-23.926,-15.625,-15.625,0.000
1709298426.815,6.836,-39.551,-8.301,-12.695,0.000
1709298426.819,-0.977,-37.109,-4.883,-17.578,0.000
1709298426.823,-15.625,-32.227,-16.602,-34.180,0.000
1709298426.827,-11.719,-36.133,-8.301,-20.996,0.000
1709298426.831,5.371,-36.133,-6.348,-1.953,0.000
1709298426.834,11.719,-29.785,-15.137,0.000,0.000
1709298426.838,11.230,-37.598,-7.812,-12.695,0.000
1709298426.842,-2.441,-41.504,-0.488,-20.508,0.000
1709298426.846,-11.719,-38.086,-2.441,-1.953,0.000
1709298426.850,7.324,-39.551,0.000,21.973,0.000
1709298426.854,13.672,-43.457,7.812,17.090,0.000
1709298426.858,3.418,-47.363,6.836,-7.324,0.000
1709298426.862,0.000,-60.059,4.883,-17.578,0.000
1709298426.866,0.000,-62.500,-1.465,-4.395,0.000
1709298426.870,0.000,-50.781,-1.953,13.184,0.000
1709298426.874,0.000,-41.504,3.418,7.812,0.000
1709298426.878,0.000,-36.133,-0.977,-13.672,0.000
1709298426.881,0.000,-35.156,-5.371,-19.531,0.000
1709298426.885,0.000,-38.574,-7.324,-10.742,0.000
1709298426.889,0.000,-43.945,-2.441,-1.465,0.000
1709298426.893,0.000,-47.852,2.441,11.230,0.000
1709298426.897,0.000,-46.387,-7.324,8.789,0.000
1709298426.901,0.000,-46.875,-11.719,-18.066,0.000
1709298426.905,0.000,-50.781,-7.812,-16.113,0.000
1709298426.909,-19.531,-48.828,-3.418,0.488,0.000
1709298426.913,-4.395,-49.805,-7.812,-6.836,0.000
1709298426.917,-10.254,-45.898,-19.043,-28.809,0.000
1709298426.921,-30.273,-40.527,-5.371,-41.016,0.000
1709298426.924,-23.926,-41.016,6.836,-24.902,0.000
1709298426.928,-14.648,-36.133,0.488,0.977,0.000
1709298426.932,-21.973,-32.715,-4.395,5.859,0.000
1709298426.936,-24.414,-44.922,-3.418,-3.418,0.000
1709298426.940,-27.344,-53.223,-5.371,-3.906,0.000
1709298426.944,-32.227,-53.711,-3.418,3.906,0.000
1709298426.948,-26.367,-47.363,-0.488,16.602,0.000
1709298426.952,-16.602,-32.715,-1.953,23.926,0.000
1709298426.956,-16.113,-34.180,-8.789,8.301,0.000
1709298426.960,-24.414,-36.621,-9.766,-0.488,0.000
1709298426.963,-24.902,-42.969,-5.371,-4.883,0.000
1709298426.967,-10.742,-57.129,-7.812,-5.371,0.000
1709298426.971,-11.719,-54.688,-13.184,11.719,0.000
1709298426.975,-17.578,-50.293,-15.625,8.301,0.000
1709298426.979,-18.066,-46.387,-2.441,-4.883,0.000
1709298426.983,-11.230,-41.992,6.836,1.465,0.000
1709298426.987,-15.625,-42.480,0.977,8.301,0.000
1709298426.991,-11.230,-37.109,-5.859,3.906,0.000
1709298426.995,7.324,-34.668,-5.371,1.465,0.000
1709298426.999,4.883,-32.715,-1.953,-13.672,0.000
1709298427.002,-13.672,-32.715,-3.906,-26.367,0.000
1709298427.006,-17.090,-39.062,-3.418,-13.184,0.000
1709298427.010,2.441,-36.621,-2.441,0.000,0.000
1709298427.014,4.883,-33.691,-6.836,-2.930,0.000
1709298427.018,-3.906,-37.109,-5.371,-12.207,0.000
1709298427.022,3.906,-33.691,3.418,-13.672,0.000
1709298427.026,-0.488,-19.531,2.930,-1.953,0.000
1709298427.030,-18.555,-23.438,1.953,17.090,0.000
1709298427.034,-11.230,-27.832,0.488,10.254,0.000
1709298427.037,-23.438,-24.414,-1.953,-15.625,0.000
1709298427.041,-41.016,-29.785,-9.766,-21.484,0.000
1709298427.045,-31.738,-32.715,-5.371,-0.977,0.000
1709298427.049,-15.625,-35.156,-2.441,8.789,0.000
1709298427.053,-9.766,-30.273,-4.883,9.277,0.000
1709298427.057,-15.625,-29.785,-4.883,1.953,0.000
1709298427.061,-22.461,-33.203,-9.766,-13.672,0.000
1709298427.065,-20.508,-36.133,-8.789,-12.207,0.000
1709298427.069,-10.742,-30.762,-6.836,-0.488,0.000
1709298427.072,-2.930,-23.438,-4.395,10.742,0.000
1709298427.076,1.465,-32.227,-4.883,3.418,0.000
1709298427.080,-2.930,-27.832,-9.277,-22.461,0.000
1709298427.084,-28.320,-30.273,-9.277,-10.254,0.000
1709298427.088,-22.461,-43.457,-1.465,8.789,0.000
1709298427.092,-2.930,-28.809,-5.371,1.465,0.000
1709298427.096,-2.930,-19.043,-13.184,-11.719,0.000
1709298427.099,-11.719,-31.250,-9.277,-20.996,0.000
1709298427.103,-22.949,-36.621,-8.789,-27.344,0.000
1709298427.107,-16.113,-25.391,-12.207,-17.578,0.000
1709298427.111,-6.836,-28.809,-6.836,-6.836,0.000
1709298427.115,-9.277,-30.762,-7.324,-12.695,0.000
1709298427.119,-18.555,-25.391,-5.859,-6.836,0.000
1709298427.123,-25.879,-36.621,-1.465,-17.090,0.000
1709298427.127,-15.137,-39.551,-5.371,-18.555,0.000
1709298427.131,1.465,-20.996,-8.301,6.348,0.000
1709298427.135,13.184,-19.043,-2.930,13.672,0.000
1709298427.139,11.230,-29.297,3.906,1.953,0.000
1709298427.142,-16.602,-23.438,5.371,6.348,0.000
1709298427.146,-21.973,-13.184,2.441,24.414,0.000
1709298427.150,1.953,-11.230,3.906,30.273,0.000
1709298427.154,8.301,-18.555,6.836,25.879,0.000
1709298427.158,-7.324,-26.855,-0.977,16.602,0.000
1709298427.162,-27.832,-24.414,-1.953,14.648,0.000
1709298427.166,-22.949,-20.508,6.836,19.531,0.000
1709298427.169,-5.371,-17.578,-1.465,19.531,0.000
1709298427.173,-6.348,-21.484,-10.254,6.348,0.000
1709298427.177,-15.137,-33.691,0.977,-4.883,0.000
1709298427.181,-31.250,-35.156,-4.883,-10.742,0.000
1709298427.185,-25.391,-23.438,-6.836,6.348,0.000
1709298427.189,-4.883,-23.438,-1.465,16.113,0.000
1709298427.193,-1.465,-31.738,-6.836,-6.836,0.000
1709298427.197,-2.930,-26.855,-12.207,-22.949,0.000
1709298427.201,-25.391,-20.508,-8.301,-24.902,0.000
1709298427.205,-31.738,-19.043,3.906,-6.836,0.000
1709298427.209,-6.836,-11.719,1.465,5.859,0.000
1709298427.213,-3.418,-17.090,-14.648,-5.371,0.000
1709298427.217,-9.766,-36.133,-3.418,-14.160,0.000
1709298427.220,-18.555,-33.203,6.348,-19.531,0.000
1709298427.224,-22.461,-26.855,4.883,-6.836,0.000
1709298427.228,-17.578,-30.762,-1.465,0.488,0.000
1709298427.232,-11.230,-38.574,-6.348,-2.930,0.000
1709298427.236,-10.742,-47.852,-7.324,-12.695,0.000
1709298427.240,-20.508,-41.992,-0.488,-10.254,0.000
1709298427.244,-28.320,-31.250,3.418,-10.742,0.000
1709298427.248,-21.484,-35.645,-6.348,-9.766,0.000
1709298427.252,2.930,-40.527,-7.812,12.695,0.000
1709298427.256,-2.930,-44.922,2.930,3.906,0.000
1709298427.260,-34.668,-44.434,-4.395,-19.531,0.000
1709298427.264,-42.969,-32.227,-15.137,-17.090,0.000
1709298427.267,-24.902,-30.762,0.000,5.371,0.000
1709298427.271,-3.906,-33.691,6.348,12.207,0.000
1709298427.275,-8.789,-28.809,-7.324,-7.812,0.000
1709298427.279,-26.855,-28.320,-6.836,-20.996,0.000
1709298427.283,-33.691,-21.973,-0.977,-22.949,0.000
1709298427.287,-20.508,-25.391,-3.906,-12.207,0.000
1709298427.291,-11.230,-34.180,-6.836,-10.742,0.000
1709298427.295,-15.137,-21.484,-3.906,-17.090,0.000
1709298427.299,-19.043,-9.766,-0.488,-24.902,0.000
1709298427.303,-26.855,-12.207,-4.395,-16.602,0.000
1709298427.307,-28.320,-22.461,-8.301,-4.883,0.000
1709298427.310,-11.719,-31.250,-8.789,5.371,0.000
1709298427.314,1.953,-29.785,-2.930,10.254,0.000
1709298427.318,-23.926,-35.645,-1.953,-20.508,0.000
1709298427.322,-42.969,-34.180,-5.859,-30.273,0.000
1709298427.326,-18.555,-24.902,1.465,-8.789,0.000
1709298427.330,-2.930,-7.324,0.000,-2.930,0.000
1709298427.334,-5.859,-1.465,-3.418,-13.184,0.000
1709298427.338,-20.996,-7.324,-1.465,-24.414,0.000
1709298427.342,-23.926,-11.230,-7.812,-18.066,0.000
1709298427.346,-18.066,-22.949,-6.836,-1.953,0.000
1709298427.350,-0.977,-18.066,-1.953,16.113,0.000
1709298427.353,13.672,-6.836,-4.883,14.160,0.000
1709298427.357,-2.930,-15.137,-12.207,6.836,0.000
1709298427.361,-6.836,-10.254,-19.043,-2.930,0.000
1709298427.365,-6.348,-1.953,-11.719,-1.465,0.000
1709298427.369,-23.926,-0.977,-6.348,18.555,0.000
1709298427.373,-12.695,-5.859,-6.836,4.883,0.000
1709298427.377,-7.324,-2.441,-11.719,-10.254,0.000
1709298427.381,-25.879,-2.441,-3.906,-19.043,0.000
1709298427.385,-29.297,-8.789,0.000,-9.766,0.000
1709298427.389,-9.766,-5.859,-5.371,9.766,0.000
1709298427.392,3.418,-8.301,4.883,9.766,0.000
1709298427.396,-10.254,-17.090,-2.441,-1.465,0.000
1709298427.400,-28.320,-13.672,-12.207,-17.578,0.000
1709298427.404,-23.438,-1.953,-6.836,0.000,0.000
1709298427.408,-21.484,-5.859,-9.277,17.090,0.000
1709298427.412,-17.578,-7.812,-9.766,20.020,0.000
1709298427.416,4.395,-12.695,-4.883,7.324,0.000
1709298427.420,-1.953,-36.133,0.488,-9.277,0.000
1709298427.424,-21.484,-25.391,-1.465,-3.906,0.000
1709298427.427,-6.836,-1.465,-1.953,2.930,0.000
1709298427.431,2.441,-8.301,-1.953,10.742,0.000
1709298427.435,-1.465,-10.742,-6.348,3.906,0.000
1709298427.439,-10.742,-13.184,-5.859,-8.789,0.000
1709298427.443,-22.461,-15.137,-7.812,-7.812,0.000
1709298427.447,-20.996,-14.160,-13.184,10.254,0.000
1709298427.451,-12.695,-14.648,-12.695,22.461,0.000
1709298427.455,-13.184,-15.137,-20.996,3.418,0.000
1709298427.459,-19.043,-11.719,-15.625,-13.184,0.000
1709298427.463,-27.344,-18.555,0.977,-2.441,0.000
1709298427.466,-5.859,-30.762,4.883,17.090,0.000
1709298427.470,12.207,-11.230,0.977,10.254,0.000
1709298427.474,-11.230,5.371,-6.348,-2.930,0.000
1709298427.478,-26.855,-2.441,-9.766,-22.461,0.000
1709298427.482,-36.621,-11.719,-15.625,-27.832,0.000
1709298427.486,-31.250,-10.254,-13.184,-11.230,0.000
1709298427.490,-11.719,-1.953,-3.906,8.301,0.000
1709298427.494,-3.906,-12.207,1.465,17.090,0.000
1709298427.497,-17.578,-20.996,0.977,-8.301,0.000
1709298427.501,-28.320,-16.113,-1.465,-29.297,0.000
1709298427.505,-21.973,-19.043,-7.324,-9.277,0.000
1709298427.509,-5.859,-14.648,-4.883,9.277,0.000
1709298427.513,2.930,-11.719,6.836,6.836,0.000
1709298427.517,-17.578,-12.207,3.906,-13.672,0.000
1709298427.521,-38.086,-10.254,2.441,-27.832,0.000
1709298427.524,-13.184,-10.254,3.906,-11.719,0.000
1709298427.528,6.348,-13.184,7.812,3.418,0.000
1709298427.532,2.441,-9.766,9.766,7.812,0.000
1709298427.536,-9.766,-8.301,-0.488,1.465,0.000
1709298427.540,-35.156,-8.789,-0.977,-5.371,0.000
1709298427.544,-32.715,-9.277,3.418,-6.836,0.000
1709298427.548,-9.766,-2.930,2.441,4.883,0.000
1709298427.552,-7.812,1.465,-3.906,4.395,0.000
1709298427.556,-7.812,-6.348,1.953,-2.930,0.000
1709298427.560,-4.883,-6.348,11.230,-2.441,0.000
1709298427.564,-13.672,-7.324,2.930,4.395,0.000
1709298427.568,-3.906,0.000,-0.977,13.672,0.000
1709298427.572,8.789,4.883,5.371,17.090,0.000
1709298427.576,0.488,4.395,1.465,3.906,0.000
1709298427.579,-19.531,6.348,-1.953,-20.020,0.000
1709298427.583,-25.391,-1.465,5.371,-16.113,0.000
1709298427.587,-7.812,0.488,2.441,5.371,0.000
1709298427.591,0.000,14.648,-11.230,1.953,0.000
1709298427.595,1.465,14.160,-20.996,-18.066,0.000
1709298427.599,-9.766,10.742,-11.230,-24.414,0.000
1709298427.603,-18.066,7.324,-8.789,-33.691,0.000
1709298427.607,-4.883,5.371,-16.113,-19.531,0.000
1709298427.611,-0.488,0.000,-7.812,-3.906,0.000
1709298427.615,5.371,-0.488,0.488,-10.254,0.000
1709298427.619,-0.488,13.672,-1.953,-9.766,0.000
1709298427.623,-3.418,13.672,-16.602,-6.836,0.000
1709298427.626,6.348,3.418,-17.090,1.465,0.000
1709298427.630,5.859,2.441,-9.277,16.113,0.000
1709298427.634,4.395,0.000,-3.906,13.672,0.000
1709298427.638,9.277,-5.859,0.977,-5.371,0.000
1709298427.642,4.395,-9.766,2.930,0.488,0.000
1709298427.646,2.441,-15.137,-2.930,10.742,0.000
1709298427.650,12.207,-14.160,-5.371,-3.418,0.000
1709298427.654,16.602,-15.625,0.488,-9.766,0.000
1709298427.658,9.277,-19.531,0.488,-12.695,0.000
1709298427.662,0.488,-24.414,-4.395,-11.230,0.000
1709298427.666,-2.441,-31.738,0.000,-3.418,0.000
1709298427.670,10.254,-27.832,-0.977,8.789,0.000
1709298427.673,12.207,-21.484,-3.418,14.160,0.000
1709298427.677,11.230,-28.320,-5.371,-8.301,0.000
1709298427.681,20.020,-21.973,-3.906,-14.160,0.000
1709298427.685,-4.883,-28.809,1.465,3.906,0.000
1709298427.689,-8.789,-39.062,-1.953,26.855,0.000
1709298427.693,3.418,-19.531,-4.883,20.508,0.000
1709298427.697,0.000,-15.625,0.488,-2.441,0.000
1709298427.701,-11.230,-20.508,-1.465,-14.648,0.000
1709298427.705,-16.113,-17.090,1.953,-6.836,0.000
1709298427.709,-6.348,-18.066,6.836,7.812,0.000
1709298427.713,5.859,-20.508,-0.977,9.766,0.000
1709298427.716,9.277,-18.555,1.465,2.930,0.000
1709298427.720,-8.789,-24.414,8.301,-7.324,0.000
1709298427.724,-15.625,-33.203,12.207,1.465,0.000
1709298427.728,2.930,-31.738,11.230,20.020,0.000
1709298427.732,12.207,-14.160,6.348,20.996,0.000
1709298427.736,0.977,-4.395,3.418,2.441,0.000
1709298427.740,-13.184,-17.090,4.395,-10.254,0.000
1709298427.744,-17.578,-14.648,-0.977,-1.465,0.000
1709298427.748,-6.348,-20.508,-0.488,19.531,0.000
1709298427.751,0.000,-25.391,0.977,21.973,0.000
1709298427.755,3.906,-19.531,-3.418,0.488,0.000
1709298427.759,-7.324,-22.461,2.930,-8.301,0.000
1709298427.763,-33.691,-20.508,3.906,-3.418,0.000
1709298427.767,-27.344,-28.320,-10.254,7.812,0.000
1709298427.771,-15.137,-28.809,-7.324,16.602,0.000
1709298427.775,-9.766,-21.484,4.395,4.883,0.000
1709298427.779,-18.555,-19.043,8.789,-5.371,0.000
1709298427.783,-28.320,-20.996,1.953,-5.371,0.000
1709298427.787,-19.531,-20.020,-2.930,8.301,0.000
1709298427.791,2.930,-15.625,3.418,23.926,0.000
1709298427.794,6.836,-18.555,1.953,14.648,0.000
1709298427.798,-11.719,-27.344,3.418,-0.977,0.000
1709298427.802,-21.484,-27.344,1.465,0.488,0.000
1709298427.806,-18.066,-19.531,3.906,12.207,0.000
1709298427.810,-2.930,-20.020,8.789,21.973,0.000
1709298427.814,4.395,-12.207,10.254,14.648,0.000
1709298427.818,-12.695,-10.742,4.395,-6.836,0.000
1709298427.822,-27.832,-14.160,-12.695,0.977,0.000
1709298427.826,-23.926,-18.066,-9.277,19.531,0.000
1709298427.829,8.301,-7.812,-2.441,9.277,0.000
1709298427.833,10.742,1.465,-10.742,-6.836,0.000
1709298427.837,-22.461,-7.812,-11.719,-6.836,0.000
1709298427.841,-36.133,-12.207,-3.906,-15.137,0.000
1709298427.845,-30.762,-16.113,2.930,-18.066,0.000
1709298427.849,-12.695,-18.555,6.836,1.465,0.000
1709298427.853,-9.277,-17.090,4.883,6.836,0.000
1709298427.857,-21.973,-8.301,0.977,-13.184,0.000
1709298427.860,-32.715,-12.695,-6.348,-23.926,0.000
1709298427.864,-32.227,-12.207,-3.906,-9.766,0.000
1709298427.868,-23.438,-18.555,-2.930,12.695,0.000
1709298427.872,-23.926,-26.367,-8.301,0.977,0.000
1709298427.876,-32.227,-10.742,-7.324,-35.156,0.000
1709298427.880,-36.621,-19.043,3.418,-40.039,0.000
1709298427.884,-31.738,-20.508,7.324,-22.949,0.000
1709298427.888,-14.160,-11.719,0.977,-9.277,0.000
1709298427.891,0.000,-16.602,-5.859,-12.207,0.000
1709298427.895,0.000,-14.648,-6.348,-17.578,0.000
1709298427.899,0.000,-19.531,-2.441,-26.367,0.000
1709298427.903,0.000,-20.508,3.418,-20.508,0.000
1709298427.907,0.000,-24.414,1.465,-0.977,0.000
1709298427.911,0.000,-25.391,-3.906,8.301,0.000
1709298427.915,0.000,-20.996,-1.953,0.977,0.000
1709298427.919,0.000,-27.832,-5.371,-15.625,0.000
1709298427.923,0.000,-22.461,-2.441,-8.789,0.000
1709298427.927,0.000,-33.691,1.953,7.324,0.000
1709298427.930,0.000,-44.434,-2.441,12.695,0.000
1709298427.934,0.000,-31.738,0.977,8.789,0.000
1709298427.939,0.000,-28.320,10.254,-1.953,0.000
1709298427.942,-13.184,-27.832,10.254,1.465,0.000
1709298427.946,6.348,-20.020,2.441,17.090,0.000
1709298427.950,20.020,-12.207,-1.953,17.578,0.000
1709298427.954,0.977,-16.602,0.000,11.230,0.000
1709298427.958,-8.789,-23.926,4.395,3.418,0.000
1709298427.962,-16.602,-19.531,0.000,-7.324,0.000
1709298427.966,-10.254,-18.066,-7.812,-6.348,0.000
1709298427.970,6.836,-29.785,0.000,7.812,0.000
1709298427.974,5.371,-30.762,3.418,10.254,0.000
1709298427.978,-11.719,-25.879,-3.906,-19.531,0.000
1709298427.981,-24.902,-24.414,3.906,-24.902,0.000
1709298427.986,-28.809,-30.273,5.371,-8.301,0.000
1709298427.990,-6.836,-38.086,-5.371,-2.441,0.000
1709298427.994,2.930,-30.762,-5.859,-6.348,0.000
1709298427.998,-20.020,-28.809,6.836,-16.602,0.000
1709298428.002,-34.180,-35.156,10.254,-24.414,0.000
1709298428.006,-19.531,-33.203,9.766,-14.648,0.000
1709298428.010,-6.348,-32.227,4.883,5.371,0.000
1709298428.014,-12.207,-35.645,-2.930,-1.465,0.000
1709298428.017,-20.508,-44.434,13.184,0.488,0.000
1709298428.021,-34.668,-47.852,12.695,-0.977,0.000
1709298428.025,-31.738,-42.480,-10.742,-10.742,0.000
1709298428.029,-16.602,-49.316,-6.836,4.395,0.000
1709298428.033,-15.137,-49.316,10.742,12.695,0.000
1709298428.037,-16.602,-41.016,11.230,-2.441,0.000
1709298428.041,-25.391,-41.016,-0.977,-19.043,0.000
1709298428.045,-28.809,-47.852,2.930,-7.812,0.000
1709298428.049,-15.137,-54.688,3.418,7.324,0.000
1709298428.053,-10.254,-51.758,-9.277,6.348,0.000
1709298428.057,-15.137,-51.270,-7.324,-12.695,0.000
1709298428.060,-17.090,-53.711,0.000,-18.066,0.000
1709298428.064,-18.555,-49.805,4.883,-7.324,0.000
1709298428.068,-10.254,-42.480,6.348,8.301,0.000
1709298428.072,12.207,-46.387,-4.883,16.113,0.000
1709298428.076,11.230,-54.688,-3.418,12.695,0.000
1709298428.080,-10.254,-55.664,-1.953,13.184,0.000
1709298428.084,-16.602,-50.293,-2.441,3.906,0.000
1709298428.088,-6.348,-57.129,6.348,18.066,0.000
1709298428.092,8.789,-58.594,1.465,34.180,0.000
1709298428.096,11.230,-41.992,-2.441,18.555,0.000
1709298428.099,-1.953,-43.457,-3.906,-5.859,0.000
1709298428.103,-13.672,-42.969,1.465,-10.254,0.000
1709298428.107,-6.348,-36.133,-3.418,10.254,0.000
1709298428.111,-2.441,-37.109,-19.043,15.137,0.000
1709298428.115,-4.883,-37.598,-15.625,-10.254,0.000
1709298428.119,-11.719,-44.922,-7.324,-27.832,0.000
1709298428.123,-22.949,-49.805,-5.859,-32.715,0.000
1709298428.127,-12.207,-48.828,-5.859,-25.879,0.000
1709298428.131,-12.695,-39.062,-8.789,-13.672,0.000
1709298428.135,-23.438,-41.016,-8.789,-10.742,0.000
1709298428.138,-23.438,-48.340,-0.488,-21.484,0.000
1709298428.142,-38.574,-46.387,1.465,-26.855,0.000
1709298428.146,-29.785,-44.434,-5.371,-19.043,0.000
1709298428.150,-10.254,-43.457,-4.395,-7.812,0.000
1709298428.154,-8.789,-54.199,-0.977,-1.953,0.000
1709298428.158,-13.184,-51.758,-9.766,-17.578,0.000
1709298428.162,-20.020,-42.969,-10.742,-25.391,0.000
1709298428.166,-8.301,-34.180,-1.465,-3.906,0.000
1709298428.170,8.301,-28.809,-1.465,19.531,0.000
1709298428.173,8.789,-39.551,-2.930,20.508,0.000
1709298428.177,3.906,-33.203,-4.883,7.812,0.000
1709298428.181,-4.883,-36.133,-9.766,12.695,0.000
1709298428.185,9.277,-37.598,-5.371,26.367,0.000
1709298428.189,15.137,-24.902,0.977,29.297,0.000
1709298428.193,-3.418,-30.273,1.465,18.066,0.000
1709298428.197,-10.254,-34.180,3.906,10.742,0.000
1709298428.201,-21.484,-29.785,2.441,2.930,0.000
1709298428.205,-29.297,-29.297,-2.441,-11.719,0.000
1709298428.209,-9.766,-39.551,-4.883,-6.348,0.000
1709298428.212,6.348,-36.621,-6.348,-17.090,0.000
1709298428.216,-12.695,-29.785,-7.324,-52.246,0.000
1709298428.220,-28.320,-33.203,-15.137,-57.129,0.000
1709298428.224,-18.066,-29.297,-18.066,-39.062,0.000
1709298428.228,-6.348,-19.531,-8.789,-20.508,0.000
1709298428.232,-3.906,-13.184,-4.395,-17.090,0.000
1709298428.236,-2.930,-8.301,-4.883,-32.715,0.000
1709298428.240,-16.113,-4.395,-14.160,-33.691,0.000
1709298428.243,-25.391,-7.324,-8.789,-10.742,0.000
1709298428.247,-22.461,-12.695,1.953,-0.488,0.000
1709298428.251,5.371,-9.277,-2.441,-5.859,0.000
1709298428.255,3.906,-17.578,-6.836,-11.230,0.000
1709298428.259,-28.809,-20.020,-9.277,-20.996,0.000
1709298428.263,-27.832,-12.695,-3.906,-11.230,0.000
1709298428.267,-15.137,-10.742,6.348,12.207,0.000
1709298428.271,-2.930,-5.859,0.488,17.578,0.000
1709298428.275,-3.906,-7.812,-12.695,11.719,0.000
1709298428.279,-10.742,-10.742,-4.395,3.906,0.000
1709298428.283,-17.090,-8.789,2.930,7.324,0.000
1709298428.287,-6.836,-9.277,0.977,30.762,0.000
1709298428.291,3.906,-5.859,4.883,40.527,0.000
1709298428.295,0.000,1.953,-2.930,20.996,0.000
1709298428.298,-3.418,-2.930,1.465,7.812,0.000
1709298428.302,-5.859,-10.742,2.441,9.766,0.000
1709298428.306,-6.836,-8.789,-0.977,20.996,0.000
1709298428.310,7.324,2.930,-2.441,22.949,0.000
1709298428.314,1.953,10.254,-9.277,16.113,0.000
1709298428.318,-25.391,7.812,2.441,2.441,0.000
1709298428.322,-32.227,4.395,-1.465,-9.277,0.000
1709298428.326,-25.391,3.906,-11.719,-6.348,0.000
1709298428.330,-15.625,7.324,-3.418,0.488,0.000
1709298428.334,-8.301,10.742,0.000,-4.883,0.000
1709298428.338,-15.137,21.484,-11.230,-16.113,0.000
1709298428.342,-35.645,9.766,-9.277,-22.949,0.000
1709298428.346,-31.738,5.371,2.930,-14.160,0.000
1709298428.349,-13.184,24.902,2.441,4.883,0.000
1709298428.353,-9.766,22.461,-9.277,-2.930,0.000
1709298428.357,-16.602,18.066,-8.301,-21.973,0.000
1709298428.361,-16.602,20.020,0.488,-18.555,0.000
1709298428.365,-20.020,8.301,-9.766,-11.719,0.000
1709298428.369,-2.930,8.789,-13.672,-5.859,0.000
1709298428.373,6.348,17.090,0.977,2.930,0.000
1709298428.377,-12.207,12.207,3.906,8.789,0.000
1709298428.381,-11.230,9.277,-1.465,-2.930,0.000
1709298428.385,-19.043,8.789,-1.465,-13.672,0.000
1709298428.389,-11.230,10.742,0.977,4.395,0.000
1709298428.393,7.812,18.555,3.418,19.531,0.000
1709298428.397,11.230,20.996,0.000,4.395,0.000
1709298428.400,-10.254,13.184,-6.836,-20.508,0.000
1709298428.404,-27.832,13.184,-10.254,-17.578,0.000
1709298428.408,-13.184,5.371,-10.254,4.395,0.000
1709298428.412,4.883,-1.953,-8.301,16.602,0.000
1709298428.416,0.977,6.348,-13.184,-1.953,0.000
1709298428.420,-12.207,15.137,-9.277,-21.484,0.000
1709298428.424,-18.066,13.672,-11.230,-11.230,0.000
1709298428.428,-9.277,1.953,-18.066,2.930,0.000
1709298428.432,12.695,-7.812,-8.301,9.277,0.000
1709298428.436,19.531,-2.930,-10.254,5.371,0.000
1709298428.440,4.395,2.930,-17.090,-12.207,0.000
1709298428.443,-3.418,4.395,-22.461,-27.832,0.000
1709298428.447,11.719,1.953,-20.508,-12.207,0.000
1709298428.451,10.254,-16.602,-9.766,4.883,0.000
1709298428.455,-3.418,-12.207,3.418,-7.324,0.000
1709298428.459,-13.184,-10.742,-9.277,-30.273,0.000
1709298428.463,-29.297,-16.602,-18.066,-34.180,0.000
1709298428.467,-20.020,-11.230,6.348,-18.066,0.000
1709298428.471,-3.418,-15.137,10.742,1.465,0.000
1709298428.475,-2.930,-16.113,9.766,4.883,0.000
1709298428.479,-6.836,-23.926,13.672,-7.812,0.000
1709298428.482,-13.672,-45.898,10.742,-8.789,0.000
1709298428.486,-24.414,-42.480,0.000,7.812,0.000
1709298428.490,-12.695,-22.949,-3.906,16.113,0.000
1709298428.494,8.301,-21.973,0.488,12.695,0.000
1709298428.498,0.977,-24.414,1.465,11.230,0.000
1709298428.502,-9.766,-33.203,-7.324,2.441,0.000
1709298428.506,1.465,-41.992,-12.695,2.441,0.000
1709298428.510,1.465,-30.762,-9.277,22.949,0.000
1709298428.514,0.488,-20.020,-7.812,25.879,0.000
1709298428.518,-2.441,-32.715,1.465,6.836,0.000
1709298428.521,-3.906,-39.551,9.277,-7.324,0.000
1709298428.525,-4.395,-23.438,8.301,-2.441,0.000
1709298428.529,-9.277,-19.531,-5.859,13.672,0.000
1709298428.533,-9.766,-30.273,-13.184,4.395,0.000
1709298428.537,-12.207,-25.391,-12.207,-19.043,0.000
1709298428.541,-22.461,-25.391,-13.184,-21.973,0.000
1709298428.545,-20.020,-34.668,-15.625,-5.859,0.000
1709298428.549,-6.348,-22.949,-16.113,6.348,0.000
1709298428.553,-1.465,-15.625,-8.301,8.301,0.000
1709298428.556,-13.184,-24.414,-1.953,-0.488,0.000
1709298428.560,-9.766,-26.855,-9.277,-7.812,0.000
1709298428.564,0.000,-17.090,-17.090,0.000,0.000
1709298428.568,-17.578,-16.602,-10.254,14.160,0.000
1709298428.572,-10.254,-23.926,-9.766,19.043,0.000
1709298428.576,-14.648,-17.090,-14.648,5.371,0.000
1709298428.580,-31.250,-14.648,-16.602,-27.832,0.000
1709298428.584,-28.809,-25.879,-10.742,-28.809,0.000
1709298428.588,-24.902,-33.691,-7.324,-10.742,0.000
1709298428.592,-26.367,-28.809,-7.812,-7.324,0.000
1709298428.595,-20.020,-15.137,-4.883,-8.789,0.000
1709298428.599,-26.367,-16.113,-3.906,-19.043,0.000
1709298428.603,-44.434,-32.715,-13.184,-21.973,0.000
1709298428.607,-31.738,-32.715,-17.090,-2.930,0.000
1709298428.611,-7.812,-21.484,-13.672,18.555,0.000
1709298428.615,1.465,-20.020,-14.160,17.578,0.000
1709298428.619,-4.395,-15.625,-4.883,12.207,0.000
1709298428.623,-10.742,-5.371,0.488,16.113,0.000
1709298428.626,-7.812,-9.766,-5.859,14.648,0.000
1709298428.630,8.301,-19.531,-6.348,26.855,0.000
1709298428.634,17.578,-16.602,-4.883,20.020,0.000
1709298428.638,0.488,-12.695,-10.254,-4.883,0.000
1709298428.642,-2.441,-11.230,-8.789,-8.301,0.000
1709298428.646,-9.766,-14.648,-10.742,6.836,0.000
1709298428.650,-13.184,-22.461,-6.348,17.090,0.000
1709298428.654,-6.348,-25.391,-3.906,-2.930,0.000
1709298428.658,-14.160,-29.297,-15.625,-22.949,0.000
1709298428.662,-27.344,-23.926,-25.391,-13.672,0.000
1709298428.666,-37.109,-13.184,-20.020,-4.883,0.000
1709298428.670,-26.855,-8.301,-6.836,0.000,0.000
1709298428.674,-19.043,-16.113,-1.953,-4.883,0.000
1709298428.678,-32.227,-19.531,-7.324,-14.648,0.000
1709298428.681,-51.270,-11.230,-13.184,-12.207,0.000
1709298428.685,-49.316,-11.230,-12.695,-5.859,0.000
1709298428.689,-31.250,-14.648,-11.719,3.906,0.000
1709298428.693,-8.301,-18.066,-2.441,7.812,0.000
1709298428.697,-7.324,-12.207,-1.465,-12.207,0.000
1709298428.701,-39.062,-18.555,0.000,-24.902,0.000
1709298428.705,-41.016,-20.508,9.277,-6.836,0.000
1709298428.709,-19.043,-5.859,2.441,11.230,0.000
1709298428.713,-7.324,-11.719,0.488,10.254,0.000
1709298428.717,-6.348,-18.555,5.859,-4.883,0.000
1709298428.721,-9.277,-8.301,10.254,-12.695,0.000
1709298428.725,-16.602,-9.277,6.836,1.465,0.000
1709298428.729,-10.254,-9.766,4.883,13.184,0.000
1709298428.732,12.695,-11.719,16.602,21.973,0.000
1709298428.736,25.391,-14.160,15.137,26.367,0.000
1709298428.740,6.348,-7.812,11.230,14.160,0.000
1709298428.744,-6.348,1.953,17.578,9.766,0.000
1709298428.748,5.371,-8.301,5.859,24.902,0.000
1709298428.752,12.207,-18.555,-4.883,36.133,0.000
1709298428.756,23.926,-20.996,5.371,25.391,0.000
1709298428.760,11.230,-24.902,-1.465,9.766,0.000
1709298428.764,-18.066,-18.555,-2.441,5.371,0.000
1709298428.768,-7.324,-12.207,12.207,31.250,0.000
1709298428.772,10.742,-7.812,13.184,43.457,0.000
1709298428.776,16.113,-6.348,8.301,15.137,0.000
1709298428.779,13.184,-6.836,5.859,-0.977,0.000
1709298428.783,0.000,-7.324,1.953,-5.371,0.000
1709298428.787,0.000,-2.441,-5.371,2.441,0.000
1709298428.791,0.000,1.953,-12.207,14.648,0.000
1709298428.795,0.000,-7.324,-6.348,10.254,0.000
1709298428.799,0.000,-23.438,-5.371,-13.672,0.000
1709298428.803,0.000,-23.438,-8.301,-24.414,0.000
1709298428.807,0.000,-11.230,-14.648,-8.789,0.000
1709298428.811,0.000,-17.090,-12.207,-4.883,0.000
1709298428.815,0.000,-21.484,0.000,-13.184,0.000
1709298428.819,0.000,-19.531,-9.277,-31.250,0.000
1709298428.823,0.000,-11.230,-12.695,-41.504,0.000
1709298428.826,0.000,-8.789,-6.348,-23.438,0.000
1709298428.830,-24.902,-21.484,-15.137,-6.348,0.000
1709298428.834,-10.742,-19.531,-10.254,-2.930,0.000
1709298428.838,-9.766,-11.230,-1.953,-11.719,0.000
1709298428.842,-13.184,-11.719,1.953,-18.555,0.000
1709298428.846,-10.254,-10.742,1.465,-2.930,0.000
1709298428.850,4.395,-9.766,-6.836,14.160,0.000
1709298428.854,16.113,-9.277,0.977,16.113,0.000
1709298428.858,12.695,-15.625,7.812,17.090,0.000
1709298428.862,0.977,-21.484,7.812,16.602,0.000
1709298428.865,-0.977,-10.742,5.371,8.789,0.000
1709298428.869,16.113,-5.859,7.324,21.484,0.000
1709298428.873,18.066,-10.254,-0.977,26.367,0.000
1709298428.877,9.277,-8.301,-8.301,16.113,0.000
1709298428.881,-7.324,-8.789,-0.977,12.207,0.000
1709298428.885,-13.184,-17.578,2.930,13.184,0.000
1709298428.889,2.930,-13.672,0.488,13.672,0.000
1709298428.893,-12.207,-15.625,-3.418,11.230,0.000
1709298428.897,-23.438,-25.391,-6.348,7.324,0.000
1709298428.901,-25.879,-17.090,-3.418,-6.348,0.000
1709298428.904,-29.297,-14.160,-6.348,0.977,0.000
1709298428.908,-24.902,-26.367,-15.137,8.301,0.000
1709298428.912,-24.414,-27.832,-16.113,-0.977,0.000
1709298428.916,-22.949,-18.555,-16.113,-5.859,0.000
1709298428.920,-25.391,-15.137,-9.277,-20.996,0.000
1709298428.924,-31.250,-13.184,1.465,-20.508,0.000
1709298428.928,-27.344,-20.508,-0.488,-5.859,0.000
1709298428.932,-12.207,-30.762,-0.977,-1.465,0.000
1709298428.935,-4.883,-21.973,2.441,-1.953,0.000
1709298428.939,-25.879,-14.648,-6.348,-13.184,0.000
1709298428.943,-34.668,-17.090,-10.742,-24.414,0.000
1709298428.947,-27.832,-16.602,-11.719,-12.207,0.000
1709298428.951,-27.344,-26.367,-10.742,0.977,0.000
1709298428.955,-20.508,-30.273,-14.160,-5.371,0.000
1709298428.959,-25.391,-18.066,-6.348,-5.859,0.000
1709298428.963,-35.645,-14.160,-0.977,-9.766,0.000
1709298428.967,-24.902,-14.648,-10.254,-1.465,0.000
1709298428.970,-12.207,-11.719,-3.418,17.090,0.000
1709298428.974,4.883,-17.090,6.836,16.113,0.000
1709298428.978,5.859,-9.766,-1.953,-2.441,0.000
1709298428.982,-16.113,-2.441,-15.137,-6.836,0.000
1709298428.986,-15.137,-4.883,-19.531,9.766,0.000
1709298428.990,-8.301,-6.348,-8.789,22.949,0.000
1709298428.994,2.441,-10.742,3.906,28.320,0.000
1709298428.998,5.371,-1.465,-3.906,5.859,0.000
1709298429.002,-10.254,16.113,-14.160,-10.254,0.000
1709298429.006,-7.324,13.672,-9.766,0.000,0.000
1709298429.009,6.348,2.441,-3.906,10.742,0.000
1709298429.013,9.766,6.836,-3.906,15.625,0.000
1709298429.017,12.695,6.348,-7.324,1.953,0.000
1709298429.021,-7.324,-4.395,-4.883,-8.301,0.000
1709298429.025,-20.020,-9.277,-3.418,-1.953,0.000
1709298429.029,-9.766,-5.859,-9.766,4.883,0.000
1709298429.033,-10.742,-7.812,-12.207,0.488,0.000
1709298429.036,-8.789,-16.113,-10.742,-3.906,0.000
1709298429.040,-15.625,-6.348,-7.324,-8.301,0.000
1709298429.044,-18.555,4.883,-8.301,-15.625,0.000
1709298429.048,-8.789,-3.418,-15.625,1.465,0.000
1709298429.052,-9.277,-8.789,-9.277,22.949,0.000
1709298429.056,-17.090,-7.812,-9.766,2.441,0.000
1709298429.060,-28.809,-7.324,-16.113,-23.438,0.000
1709298429.064,-31.250,-11.719,-8.789,-13.672,0.000
1709298429.068,-22.461,-15.137,-0.488,2.930,0.000
1709298429.072,-12.695,-5.371,-7.324,7.812,0.000
1709298429.076,-6.348,-3.418,-12.207,-4.883,0.000
1709298429.080,-31.250,-12.695,-9.277,-15.625,0.000
1709298429.084,-50.293,-8.301,-15.625,-13.184,0.000
1709298429.087,-32.227,-0.488,-13.184,0.488,0.000
1709298429.091,-4.883,-5.859,-12.695,5.859,0.000
1709298429.095,-3.418,-3.418,-7.324,-2.930,0.000
1709298429.099,-24.902,-5.859,-2.441,-0.977,0.000
1709298429.103,-37.109,-10.742,-9.277,-1.953,0.000
1709298429.107,-20.996,-13.184,-8.301,2.441,0.000
1709298429.111,-1.465,-9.766,-5.859,22.461,0.000
1709298429.115,5.859,-3.418,-8.789,22.461,0.000
1709298429.119,-0.488,-4.883,-4.883,-0.977,0.000
1709298429.123,-6.348,-12.695,-0.488,-3.418,0.000
1709298429.127,-4.395,-17.578,-0.488,13.184,0.000
1709298429.131,-1.465,-21.484,-0.977,16.113,0.000
1709298429.134,6.836,-23.926,-1.953,7.324,0.000
1709298429.138,10.742,-20.508,-2.441,-6.348,0.000
1709298429.142,0.000,-21.484,0.000,-6.348,0.000
1709298429.146,-24.414,-28.320,-0.977,6.348,0.000
1709298429.150,-17.578,-17.090,-4.395,13.184,0.000
1709298429.154,3.418,-9.766,-5.371,9.766,0.000
1709298429.158,-12.695,-23.438,-8.301,-20.996,0.000
1709298429.162,-32.227,-28.320,-9.766,-38.086,0.000
1709298429.166,-29.785,-26.367,-13.184,-29.297,0.000
1709298429.170,-19.043,-28.809,-16.602,-15.625,0.000
1709298429.174,-15.137,-29.297,-14.648,-11.230,0.000
1709298429.177,-20.508,-21.484,-4.883,-23.438,0.000
1709298429.181,-31.250,-20.996,-4.883,-38.086,0.000
1709298429.185,-38.574,-26.367,-10.254,-23.926,0.000
1709298429.189,-0.977,-26.367,-5.859,7.812,0.000
1709298429.193,16.113,-21.973,-8.789,6.348,0.000
1709298429.197,-15.625,-20.020,-20.996,-10.254,0.000
1709298429.201,-5.371,-25.879,-15.137,-9.277,0.000
1709298429.205,6.836,-22.949,-8.301,-4.395,0.000
1709298429.209,7.324,-21.973,-9.766,13.672,0.000
1709298429.213,20.020,-21.973,-4.883,20.996,0.000
1709298429.217,21.484,-21.973,-0.977,0.000,0.000
1709298429.220,5.859,-28.320,-3.906,-7.812,0.000
1709298429.224,-5.371,-25.391,-10.254,-3.906,0.000
1709298429.228,18.555,-27.832,-10.254,3.906,0.000
1709298429.232,28.809,-36.133,-1.953,25.879,0.000
1709298429.236,4.395,-40.527,2.441,21.484,0.000
1709298429.240,-0.977,-39.062,4.395,-6.348,0.000
1709298429.244,-8.789,-46.875,1.465,-11.230,0.000
1709298429.248,-5.859,-41.992,1.465,3.418,0.000
1709298429.252,11.230,-19.043,6.348,15.137,0.000
1709298429.255,10.742,-29.785,-0.977,1.953,0.000
1709298429.259,1.953,-48.828,-4.395,-14.648,0.000
1709298429.263,-9.766,-45.410,-2.441,-13.184,0.000
1709298429.267,-13.672,-35.645,0.000,-0.977,0.000
1709298429.271,-0.488,-29.297,5.859,6.348,0.000
1709298429.275,4.395,-30.273,-8.789,1.953,0.000
1709298429.279,-13.672,-37.598,-14.648,-6.348,0.000
1709298429.283,-2.930,-36.621,3.418,-14.648,0.000
1709298429.287,8.789,-36.621,6.836,-3.418,0.000
1709298429.291,-2.930,-33.203,0.488,18.066,0.000
1709298429.295,4.883,-27.832,-0.488,15.625,0.000
1709298429.298,-6.836,-31.738,-2.930,-2.441,0.000
1709298429.302,-20.996,-27.832,-6.348,-7.324,0.000
1709298429.306,-7.812,-28.809,-7.812,4.395,0.000
1709298429.310,4.395,-41.504,-15.625,12.695,0.000
1709298429.314,13.184,-29.785,-2.441,13.672,0.000
1709298429.318,4.883,-21.973,-4.883,10.254,0.000
1709298429.322,-23.438,-39.551,-11.719,14.648,0.000
1709298429.326,-13.184,-37.598,0.000,22.949,0.000
1709298429.330,0.000,-43.457,-8.301,7.324,0.000
1709298429.333,-14.160,-45.898,-10.742,11.230,0.000
1709298429.337,-11.719,-33.691,-5.859,9.766,0.000
1709298429.341,-27.344,-39.551,-4.395,-5.859,0.000
1709298429.345,-30.273,-36.133,-5.371,2.930,0.000
1709298429.349,-9.766,-28.320,0.000,18.066,0.000
1709298429.353,-1.953,-29.785,5.859,20.508,0.000
1709298429.357,-13.184,-28.320,2.441,9.277,0.000
1709298429.360,-20.508,-34.668,3.418,-2.930,0.000
1709298429.364,-15.625,-34.668,12.695,1.465,0.000
1709298429.368,-3.906,-27.344,20.020,34.668,0.000
1709298429.372,7.324,-29.785,10.254,45.898,0.000
1709298429.376,-0.488,-29.297,-4.883,18.555,0.000
1709298429.380,-18.555,-25.391,1.953,0.488,0.000
1709298429.384,-13.672,-23.438,5.371,-3.418,0.000
1709298429.388,2.441,-22.949,-2.930,8.789,0.000
1709298429.392,-3.906,-20.020,-6.348,12.695,0.000
1709298429.395,-15.625,-17.090,-0.977,0.000,0.000
1709298429.399,-28.320,-16.602,1.953,-5.371,0.000
1709298429.403,-34.668,-14.648,5.371,-7.812,0.000
1709298429.407,-21.973,-20.996,12.207,4.395,0.000
1709298429.411,-2.441,-17.578,17.578,27.832,0.000
1709298429.415,-7.812,-7.324,13.184,22.949,0.000
1709298429.419,-32.227,-6.836,2.930,-11.230,0.000
1709298429.423,-34.180,-9.766,-7.812,-16.602,0.000
1709298429.427,-17.578,-15.625,-2.930,12.207,0.000
1709298429.431,-1.465,-30.762,2.930,24.902,0.000
1709298429.434,11.230,-28.320,-5.371,6.836,0.000
1709298429.439,-4.395,-12.207,-11.230,0.488,0.000
1709298429.443,-38.574,-13.184,-19.531,-4.883,0.000
1709298429.446,-34.180,-15.137,-18.066,-1.465,0.000
1709298429.450,-6.836,-19.531,-6.836,13.672,0.000
1709298429.454,0.977,-25.391,-9.766,8.789,0.000
1709298429.458,-4.883,-11.230,-12.695,-2.441,0.000
1709298429.462,-8.789,-11.719,-3.418,-8.789,0.000
1709298429.466,-18.066,-18.555,-10.254,-12.695,0.000
1709298429.470,-16.602,-8.789,-16.602,-4.883,0.000
1709298429.474,-9.766,-8.789,-19.043,1.953,0.000
1709298429.478,-18.555,-16.113,-24.414,-19.043,0.000
1709298429.482,-26.855,-10.254,-18.066,-27.832,0.000
1709298429.486,-22.461,-6.836,-8.301,-10.254,0.000
1709298429.490,-12.695,-7.812,-14.160,2.441,0.000
1709298429.493,3.418,-15.137,-18.555,4.883,0.000
1709298429.497,5.859,-14.648,-3.906,-11.719,0.000
1709298429.501,-20.020,0.488,1.953,-16.602,0.000
1709298429.505,-21.973,-11.719,-10.254,-5.371,0.000
1709298429.509,-13.184,-16.113,-13.184,3.906,0.000
1709298429.513,-10.742,6.836,-6.836,6.348,0.000
1709298429.517,-6.348,-2.441,-3.418,-3.906,0.000
1709298429.521,-22.461,-13.672,-7.812,-10.254,0.000
1709298429.525,-33.691,-1.465,-8.301,-9.766,0.000
1709298429.529,-17.578,3.418,0.000,-0.977,0.000
1709298429.533,-4.883,3.906,-0.977,1.465,0.000
1709298429.537,-4.883,-1.953,-1.465,-15.137,0.000
1709298429.540,-24.902,-3.906,-2.930,-26.855,0.000
1709298429.544,-20.996,7.324,-5.371,-16.602,0.000
1709298429.548,-13.672,1.465,-17.578,-3.906,0.000
1709298429.552,-15.137,-8.301,-20.508,4.395,0.000
1709298429.556,-9.766,-4.883,-6.836,-3.418,0.000
1709298429.560,-15.625,-4.395,-6.348,-17.578,0.000
1709298429.564,-17.090,-12.695,-11.230,-5.371,0.000
1709298429.568,-5.859,-6.348,-11.719,6.348,0.000
1709298429.572,0.000,-2.441,-8.789,0.000,0.000
1709298429.576,2.930,-10.254,-20.508,-4.883,0.000
1709298429.580,-1.953,-12.695,-22.949,-14.648,0.000
1709298429.583,-22.949,-8.301,0.000,-20.508,0.000
1709298429.587,-12.695,-3.418,-3.906,-10.742,0.000
1709298429.591,0.000,-7.812,-5.371,7.324,0.000
1709298429.595,-0.488,-6.836,-5.859,-1.465,0.000
1709298429.599,-17.090,2.441,-3.906,-21.973,0.000
1709298429.603,-40.527,3.418,5.371,-22.949,0.000
1709298429.607,-26.367,-3.418,0.488,-4.883,0.000
1709298429.611,-8.789,4.883,-1.953,6.348,0.000
1709298429.615,-1.953,5.371,-8.789,-5.859,0.000
1709298429.619,-17.090,-5.371,-8.789,-20.508,0.000
1709298429.622,-31.738,-11.230,-8.301,-29.785,0.000
1709298429.626,-28.320,-8.789,-10.254,-23.926,0.000
1709298429.630,-11.230,-9.277,-2.930,-12.695,0.000
1709298429.634,-1.465,-6.836,-3.418,-7.324,0.000
1709298429.638,-7.324,-9.766,-10.254,-13.184,0.000
1709298429.642,-20.996,-15.625,-16.602,-20.996,0.000
1709298429.646,-16.113,-10.742,-14.648,-6.348,0.000
1709298429.650,-7.812,-10.254,-8.301,16.113,0.000
1709298429.654,-5.371,-11.719,-3.906,27.344,0.000
1709298429.658,-2.441,-20.508,-11.230,8.301,0.000
1709298429.661,-7.324,-21.973,-18.066,-6.348,0.000
1709298429.665,-27.344,-11.719,-15.137,0.488,0.000
1709298429.669,-21.973,-10.254,-12.695,5.371,0.000
1709298429.673,-1.465,-8.301,-12.207,10.254,0.000
1709298429.677,-0.488,-0.488,-8.789,4.883,0.000
1709298429.681,-7.812,-5.859,-2.930,-12.207,0.000
1709298429.685,-11.719,-4.395,2.441,-6.836,0.000
1709298429.689,4.883,5.859,0.977,15.137,0.000
1709298429.693,13.672,-3.906,1.953,7.812,0.000
1709298429.696,-7.324,-9.277,-7.812,-3.906,0.000
1709298429.700,-18.066,-7.324,-20.508,-2.930,0.000
1709298429.704,-18.066,-13.672,-19.043,-12.207,0.000
1709298429.708,-13.672,-14.160,-15.137,6.836,0.000
1709298429.712,-4.883,1.953,-15.625,20.996,0.000
1709298429.716,-2.930,5.859,-16.602,1.953,0.000
1709298429.720,-3.906,-0.977,-17.090,-13.184,0.000
1709298429.724,-19.531,0.977,-12.695,-6.836,0.000
1709298429.727,-20.508,-8.789,0.488,11.719,0.000
1709298429.731,-9.766,-7.812,-7.324,16.602,0.000
1709298429.735,-10.254,-4.395,-16.113,-1.465,0.000
1709298429.739,-13.184,-9.277,-13.672,-16.602,0.000
1709298429.743,-25.391,-16.602,-14.160,-7.812,0.000
1709298429.747,-23.926,-22.461,-10.254,-8.789,0.000
1709298429.751,-5.859,-18.555,-3.906,-7.812,0.000
1709298429.755,-7.324,-27.344,-0.488,-4.883,0.000
1709298429.759,-21.484,-22.949,-1.465,-13.672,0.000
1709298429.763,-30.273,-21.484,-6.348,-12.695,0.000
1709298429.766,-19.043,-31.738,-3.418,0.488,0.000
1709298429.770,16.113,-29.297,0.488,18.555,0.000
1709298429.774,37.598,-29.785,-10.742,21.973,0.000
1709298429.778,-0.488,-37.109,-18.066,2.930,0.000
1709298429.782,-21.484,-36.621,-7.812,-3.906,0.000
1709298429.786,-6.348,-33.691,-3.418,11.719,0.000
1709298429.790,-4.395,-41.992,-0.977,19.531,0.000
1709298429.794,-1.465,-39.551,-4.395,6.836,0.000
1709298429.797,-10.254,-24.902,-5.371,-7.812,0.000
1709298429.801,-28.809,-23.438,-4.395,-20.508,0.000
1709298429.805,-32.227,-47.363,-9.766,-18.066,0.000
1709298429.809,-21.973,-48.828,-12.695,-12.207,0.000
1709298429.813,-13.184,-32.715,-1.953,-16.602,0.000
1709298429.817,-24.902,-38.086,-18.555,-22.461,0.000
1709298429.821,-37.109,-45.410,-22.949,-32.715,0.000
1709298429.825,-25.879,-44.434,9.766,-28.809,0.000
1709298429.829,-15.625,-39.062,10.254,-12.207,0.000
1709298429.833,-11.719,-47.363,1.953,3.418,0.000
1709298429.837,-3.418,-56.641,-0.977,-2.930,0.000
1709298429.841,-2.441,-48.340,-8.301,-19.531,0.000
1709298429.845,-18.555,-29.785,-5.859,-10.254,0.000
1709298429.849,-11.230,-24.902,-3.906,19.043,0.000
1709298429.852,-0.488,-29.297,-5.371,21.973,0.000
1709298429.856,-8.301,-37.598,-8.789,-8.301,0.000
1709298429.860,-19.531,-35.156,-8.789,-26.367,0.000
1709298429.864,-26.367,-22.949,0.977,-20.508,0.000
1709298429.868,-21.484,-19.531,4.883,-1.465,0.000
1709298429.872,-3.418,-17.578,2.441,9.277,0.000
1709298429.876,-7.324,-27.344,-0.488,-7.324,0.000
1709298429.880,-18.555,-46.387,1.465,-11.719,0.000
1709298429.884,-15.137,-34.180,0.977,-1.953,0.000
1709298429.888,-4.883,-19.043,3.418,2.441,0.000
1709298429.892,1.465,-21.484,4.883,20.996,0.000
1709298429.896,16.602,-26.855,4.395,17.090,0.000
1709298429.899,8.301,-33.203,-2.930,-13.184,0.000
1709298429.903,-26.855,-44.434,-8.789,-12.207,0.000
1709298429.907,-18.555,-41.504,-2.930,6.348,0.000
1709298429.911,-2.930,-41.992,-1.953,8.789,0.000
1709298429.915,-2.441,-40.527,-10.742,1.953,0.000
1709298429.919,-10.254,-35.645,-7.324,-11.230,0.000
1709298429.923,-17.090,-37.598,2.930,-15.625,0.000
1709298429.927,-8.301,-27.832,1.953,1.465,0.000
1709298429.931,-1.953,-31.738,-0.977,3.418,0.000
1709298429.935,0.488,-31.250,-5.859,-2.930,0.000
1709298429.939,-10.254,-21.484,-9.277,-8.789,0.000
1709298429.943,-30.762,-37.109,-0.977,-21.484,0.000
1709298429.946,-20.996,-48.340,-3.906,-13.184,0.000
1709298429.950,-4.883,-35.156,-8.789,0.488,0.000
1709298429.954,0.488,-29.297,5.859,1.465,0.000
1709298429.958,1.953,-31.250,5.859,-7.324,0.000
1709298429.962,-19.043,-32.227,-1.465,-2.930,0.000
1709298429.966,-29.297,-29.297,-2.441,19.043,0.000
1709298429.970,-2.441,-28.809,-8.789,20.508,0.000
1709298429.974,3.418,-35.156,-7.812,16.602,0.000
1709298429.978,-12.207,-33.691,-5.859,1.465,0.000
1709298429.982,-20.020,-36.133,-9.277,-1.465,0.000
1709298429.986,-15.137,-39.062,-2.930,18.066,0.000
1709298429.989,-5.859,-33.203,1.465,17.090,0.000
1709298429.993,2.441,-30.762,-1.465,8.789,0.000
1709298429.997,-5.859,-31.250,-5.859,-5.859,0.000
1709298430.001,-20.508,-29.297,-5.859,-20.020,0.000
1709298430.005,-16.113,-39.062,-10.742,-14.160,0.000
1709298430.009,8.789,-44.434,-9.766,0.488,0.000
1709298430.013,2.930,-39.551,-8.301,5.371,0.000
1709298430.017,-16.602,-33.691,-14.160,-5.371,0.000
1709298430.021,-21.973,-28.809,-9.277,-17.578,0.000
1709298430.025,-20.996,-32.227,3.418,-12.207,0.000
1709298430.028,-10.742,-31.250,6.836,1.465,0.000
1709298430.032,0.977,-40.527,4.395,-0.977,0.000
1709298430.036,2.930,-32.227,-5.371,-14.648,0.000
1709298430.040,-3.418,-20.020,-3.906,-21.484,0.000
1709298430.044,-6.348,-36.621,3.906,-20.020,0.000
1709298430.048,-7.324,-41.992,-10.254,-14.648,0.000
1709298430.052,-5.371,-21.973,-14.160,-4.395,0.000
1709298430.056,-5.859,-27.832,-3.418,-6.836,0.000
1709298430.059,-23.438,-46.387,-11.230,-25.879,0.000
1709298430.063,-34.668,-37.109,-14.160,-28.809,0.000
1709298430.067,-25.391,-26.367,-15.625,-13.184,0.000
1709298430.071,-5.859,-25.391,-10.254,2.930,0.000
1709298430.075,6.836,-32.715,-11.719,-6.348,0.000
1709298430.079,-17.090,-33.203,-18.555,-28.320,0.000
1709298430.083,-19.043,-29.297,-17.090,-20.996,0.000
1709298430.087,-0.977,-22.461,-10.742,0.488,0.000
1709298430.091,-7.812,-21.973,-13.184,9.277,0.000
1709298430.094,-3.418,-21.973,-16.113,4.883,0.000
1709298430.098,7.812,-17.090,-8.789,-8.301,0.000
1709298430.102,5.859,-14.648,-13.672,-4.395,0.000
1709298430.106,10.742,-14.160,-23.926,15.625,0.000
1709298430.110,24.902,-6.348,-12.207,18.555,0.000
1709298430.114,27.344,-10.254,-0.488,4.883,0.000
1709298430.118,17.578,-15.137,-4.883,4.883,0.000
1709298430.122,12.695,3.418,-11.230,2.441,0.000
1709298430.126,24.414,5.371,-8.789,2.930,0.000
1709298430.130,23.438,2.441,-3.906,19.043,0.000
1709298430.133,8.789,-1.465,-0.977,16.113,0.000
1709298430.137,1.465,-10.254,-0.977,-5.859,0.000
1709298430.141,-10.742,-10.742,-4.883,-17.090,0.000
1709298430.145,-5.371,-21.484,-7.812,-1.953,0.000
1709298430.149,9.277,-26.855,-7.324,18.066,0.000
1709298430.153,8.301,-13.672,-13.672,12.207,0.000
1709298430.157,1.953,-9.766,-11.719,-0.488,0.000
1709298430.161,-15.625,-23.926,12.207,-5.859,0.000
1709298430.165,-23.926,-22.949,17.578,-4.395,0.000
1709298430.168,-12.207,-14.160,9.277,9.766,0.000
1709298430.172,-6.836,-17.090,0.977,9.277,0.000
1709298430.176,-16.602,-21.973,3.906,1.465,0.000
1709298430.180,-35.156,-26.367,6.836,-5.371,0.000
1709298430.184,-33.691,-34.180,2.930,-7.812,0.000
1709298430.188,-20.996,-39.062,3.418,5.859,0.000
1709298430.192,-4.395,-25.879,-6.836,5.859,0.000
1709298430.196,-0.488,-22.461,-2.441,-11.230,0.000
1709298430.200,-20.020,-26.367,7.812,-17.578,0.000
1709298430.204,-26.855,-36.133,-1.953,-12.695,0.000
1709298430.208,-27.344,-43.945,-12.695,0.000,0.000
1709298430.212,-10.254,-31.250,-1.465,14.648,0.000
1709298430.216,0.000,-31.738,6.348,2.441,0.000
1709298430.220,-8.301,-33.203,0.000,-7.812,0.000
1709298430.223,-11.719,-33.203,2.441,14.160,0.000
1709298430.227,-2.930,-33.203,1.953,26.855,0.000
1709298430.231,12.207,-37.109,-9.766,30.273,0.000
1709298430.235,12.207,-36.133,-3.906,35.645,0.000
1709298430.239,-2.441,-19.043,0.977,26.367,0.000
1709298430.243,-12.695,-20.020,-1.465,20.996,0.000
1709298430.247,-9.766,-37.109,10.254,33.691,0.000
1709298430.251,2.441,-44.434,12.695,43.945,0.000
1709298430.255,24.902,-35.156,11.719,32.227,0.000
1709298430.259,3.418,-28.809,7.324,13.184,0.000
1709298430.263,-33.691,-27.832,-4.395,10.254,0.000
1709298430.267,-23.926,-27.832,3.906,26.367,0.000
1709298430.270,4.395,-34.668,15.137,42.969,0.000
1709298430.274,13.184,-38.086,8.301,23.926,0.000
1709298430.278,-5.859,-24.902,-5.371,-3.906,0.000
1709298430.282,-11.719,-23.438,-7.324,-7.324,0.000
1709298430.286,-10.742,-28.320,-4.395,-4.395,0.000
1709298430.290,4.395,-25.879,-13.672,5.371,0.000
1709298430.294,16.602,-27.344,-8.789,5.859,0.000
1709298430.298,2.441,-31.738,-2.930,-9.766,0.000
1709298430.302,-4.395,-34.180,-10.742,-15.137,0.000
1709298430.306,-6.836,-36.621,-2.930,-4.395,0.000
1709298430.310,14.160,-36.621,-0.977,8.301,0.000
1709298430.314,25.391,-30.273,-7.324,20.508,0.000
1709298430.317,-2.930,-34.180,-4.395,6.836,0.000
1709298430.321,-18.555,-41.992,4.395,-10.742,0.000
1709298430.325,-18.066,-46.875,7.324,1.953,0.000
1709298430.329,-2.930,-43.945,0.488,5.859,0.000
1709298430.333,1.953,-27.832,-2.441,-0.977,0.000
1709298430.337,-11.719,-34.180,-10.254,-10.742,0.000
1709298430.341,-17.090,-45.410,-14.160,-14.160,0.000
1709298430.345,-13.672,-35.645,-13.672,-2.441,0.000
1709298430.349,-15.625,-25.391,-12.207,17.090,0.000
1709298430.353,-8.301,-26.855,-9.277,25.391,0.000
1709298430.356,-9.277,-32.715,-7.812,18.555,0.000
1709298430.360,-13.184,-30.273,0.488,15.137,0.000
1709298430.364,-17.090,-20.020,-3.418,7.324,0.000
1709298430.368,4.395,-6.836,-16.113,8.301,0.000
1709298430.372,21.484,-9.277,-12.695,18.066,0.000
1709298430.376,-2.930,-12.695,-1.465,16.113,0.000
1709298430.380,-10.254,-12.207,4.395,0.977,0.000
1709298430.384,-8.301,-25.391,-5.371,-9.766,0.000
1709298430.388,-3.418,-35.156,-11.719,3.906,0.000
1709298430.392,5.859,-33.691,-5.371,9.766,0.000
1709298430.395,1.953,-42.969,-4.883,-4.395,0.000
1709298430.399,-13.184,-25.391,-10.254,-20.508,0.000
1709298430.403,-22.461,-6.836,-13.672,-17.578,0.000
1709298430.407,-20.508,-23.926,-22.949,-13.184,0.000
1709298430.411,-8.301,-33.203,-15.625,-6.836,0.000
1709298430.415,-5.371,-25.879,1.465,-10.254,0.000
1709298430.419,-16.113,-29.785,-5.371,-37.109,0.000
1709298430.423,-28.809,-37.598,-11.719,-40.039,0.000
1709298430.427,-24.902,-28.320,2.930,-17.090,0.000
1709298430.430,-1.465,-24.414,3.418,4.395,0.000
1709298430.434,-2.441,-23.438,-8.789,1.953,0.000
1709298430.438,-23.438,-27.344,-10.254,-18.066,0.000
1709298430.442,-31.250,-36.621,-3.906,-20.996,0.000
1709298430.446,-26.855,-31.738,2.441,-2.930,0.000
1709298430.450,-12.695,-23.438,-1.465,6.836,0.000
1709298430.454,-11.719,-19.043,-10.254,-4.883,0.000
1709298430.458,-23.926,-23.438,-12.207,-24.414,0.000
1709298430.462,-35.156,-30.762,-12.695,-37.598,0.000
1709298430.466,-32.227,-33.203,-8.789,-27.832,0.000
1709298430.469,-20.508,-28.320,-16.113,-11.719,0.000
1709298430.473,-20.508,-26.367,-14.648,-16.602,0.000
1709298430.477,-32.715,-28.809,-9.766,-30.273,0.000
1709298430.481,-35.156,-27.832,-9.766,-30.762,0.000
1709298430.485,-40.527,-34.668,-10.742,-19.043,0.000
1709298430.489,-28.809,-39.062,-10.742,0.488,0.000
1709298430.493,-9.766,-41.016,-16.113,-0.977,0.000
1709298430.497,2.930,-28.320,-22.461,-14.160,0.000
1709298430.501,-15.625,-34.668,-19.043,-18.066,0.000
1709298430.504,-32.227,-52.246,-15.137,-7.812,0.000
1709298430.508,-13.184,-44.434,-14.160,17.578,0.000
1709298430.512,-9.766,-37.598,-15.625,12.207,0.000
