timestamps,TP9,AF7,AF8,TP10,Right AUX
1709299214.216,-33.203,-27.832,-39.062,-24.414,0.000
1709299214.220,-23.438,-31.738,-41.504,-23.926,0.000
1709299214.224,-25.391,-31.738,-35.156,-24.902,0.000
1709299214.227,-43.945,-38.574,-40.527,-38.574,0.000
1709299214.231,-48.340,-42.480,-45.410,-39.551,0.000
1709299214.235,-31.738,-42.480,-40.527,-23.438,0.000
1709299214.239,-26.855,-42.480,-39.062,-8.789,0.000
1709299214.243,-32.715,-44.434,-35.156,-12.695,0.000
1709299214.247,-44.434,-47.363,-35.645,-32.715,0.000
1709299214.251,-46.387,-39.062,-38.086,-27.344,0.000
1709299214.255,-41.016,-39.551,-42.480,-17.578,0.000
1709299214.259,-35.156,-42.480,-47.363,-14.648,0.000
1709299214.262,-20.020,-33.691,-38.574,-14.648,0.000
1709299214.266,-21.973,-36.621,-28.809,-22.949,0.000
1709299214.270,-36.133,-41.992,-41.016,-30.273,0.000
1709299214.274,-32.715,-44.922,-43.945,-24.414,0.000
1709299214.278,-25.391,-48.340,-37.109,-21.484,0.000
1709299214.282,-31.738,-44.922,-34.180,-24.902,0.000
1709299214.286,-47.363,-45.410,-38.574,-37.598,0.000
1709299214.290,-53.223,-49.805,-41.992,-49.316,0.000
1709299214.294,-48.340,-53.711,-41.504,-38.574,0.000
1709299214.298,-35.645,-43.457,-41.016,-21.484,0.000
1709299214.302,-36.621,-41.992,-34.668,-26.367,0.000
1709299214.305,-57.617,-51.758,-37.109,-45.898,0.000
1709299214.309,-62.988,-49.805,-36.621,-49.805,0.000
1709299214.313,-53.223,-53.223,-37.109,-39.551,0.000
1709299214.317,-40.039,-55.664,-39.551,-29.785,0.000
1709299214.321,-31.250,-36.621,-35.156,-30.273,0.000
1709299214.325,-35.645,-39.062,-39.062,-34.668,0.000
1709299214.329,-39.551,-46.387,-38.086,-38.574,0.000
1709299214.333,-37.598,-37.598,-37.598,-36.621,0.000
1709299214.337,-24.414,-32.227,-37.109,-18.555,0.000
1709299214.341,-19.531,-24.902,-28.320,-18.066,0.000
1709299214.345,-18.066,-23.926,-25.391,-20.020,0.000
1709299214.348,-23.438,-28.320,-26.855,-25.391,0.000
1709299214.352,-29.785,-34.180,-25.391,-29.785,0.000
1709299214.356,-21.973,-32.227,-31.250,-18.555,0.000
1709299214.360,-22.461,-26.367,-33.691,-19.043,0.000
1709299214.364,-34.180,-23.438,-34.180,-31.250,0.000
1709299214.368,-48.340,-21.484,-46.387,-45.898,0.000
1709299214.372,-45.898,-23.926,-42.969,-44.922,0.000
1709299214.376,-33.691,-28.320,-30.762,-27.832,0.000
1709299214.380,-30.762,-21.973,-29.297,-16.113,0.000
1709299214.384,-37.109,-26.855,-32.715,-27.832,0.000
1709299214.388,-52.246,-39.062,-36.621,-40.039,0.000
1709299214.392,-52.246,-35.156,-33.691,-28.320,0.000
1709299214.395,-41.016,-45.898,-26.855,-24.902,0.000
1709299214.399,-29.785,-40.527,-24.414,-23.926,0.000
1709299214.403,-33.203,-31.250,-31.738,-24.414,0.000
1709299214.407,-51.758,-39.551,-31.250,-40.527,0.000
1709299214.411,-53.223,-37.598,-34.180,-42.969,0.000
1709299214.415,-46.875,-41.016,-40.039,-39.551,0.000
1709299214.419,-42.969,-46.387,-38.574,-34.668,0.000
1709299214.423,-39.551,-33.203,-38.574,-33.203,0.000
1709299214.427,-43.457,-17.090,-38.086,-41.504,0.000
1709299214.431,-48.340,-15.625,-36.621,-51.270,0.000
1709299214.434,-46.875,-41.016,-38.086,-39.062,0.000
1709299214.438,-38.086,-50.781,-41.992,-29.785,0.000
1709299214.442,-39.551,-36.621,-42.969,-42.480,0.000
1709299214.446,-50.293,-31.250,-42.969,-53.223,0.000
1709299214.450,-55.176,-39.062,-42.480,-61.035,0.000
1709299214.454,-47.363,-44.922,-47.363,-57.129,0.000
1709299214.458,-33.691,-45.898,-49.316,-41.504,0.000
1709299214.462,-24.414,-40.039,-33.691,-33.203,0.000
1709299214.466,-34.668,-28.809,-28.809,-41.504,0.000
1709299214.470,-50.293,-35.156,-36.621,-47.852,0.000
1709299214.474,-48.828,-46.387,-34.180,-45.410,0.000
1709299214.477,-37.598,-41.992,-35.156,-30.762,0.000
1709299214.481,-38.574,-41.504,-36.133,-20.020,0.000
1709299214.485,-45.410,-37.109,-36.133,-34.668,0.000
1709299214.489,-51.758,-32.227,-40.039,-49.316,0.000
1709299214.493,-54.688,-34.180,-37.109,-48.340,0.000
1709299214.497,-42.969,-34.180,-43.457,-38.086,0.000
1709299214.501,-27.344,-29.785,-45.410,-31.250,0.000
1709299214.505,-39.062,-26.367,-41.992,-41.504,0.000
1709299214.509,-64.941,-38.574,-48.340,-62.012,0.000
1709299214.513,-63.477,-39.062,-43.457,-59.570,0.000
1709299214.516,-54.199,-34.668,-45.410,-48.340,0.000
1709299214.520,-45.898,-41.504,-50.293,-43.945,0.000
1709299214.524,-45.898,-48.340,-44.922,-40.527,0.000
1709299214.528,-56.641,-35.645,-43.457,-50.781,0.000
1709299214.532,-58.594,-26.367,-48.340,-62.012,0.000
1709299214.536,-43.457,-33.203,-44.922,-45.410,0.000
1709299214.540,-31.250,-42.969,-47.852,-36.621,0.000
1709299214.544,-33.691,-44.434,-48.828,-50.781,0.000
1709299214.548,-42.480,-44.434,-39.551,-62.012,0.000
1709299214.551,-44.922,-41.504,-38.574,-50.293,0.000
1709299214.555,-32.715,-39.062,-42.480,-31.738,0.000
1709299214.559,-23.438,-37.109,-43.457,-33.203,0.000
1709299214.563,-28.320,-44.922,-40.527,-37.109,0.000
1709299214.567,-44.922,-47.852,-41.992,-37.598,0.000
1709299214.571,-53.711,-39.551,-45.898,-36.621,0.000
1709299214.575,-45.898,-36.133,-42.969,-30.273,0.000
1709299214.579,-32.227,-36.133,-35.645,-14.648,0.000
1709299214.583,-31.250,-34.668,-33.203,-17.578,0.000
1709299214.587,-44.922,-38.086,-34.668,-40.527,0.000
1709299214.590,-51.270,-41.992,-34.180,-46.875,0.000
1709299214.594,-42.969,-48.340,-38.086,-30.273,0.000
1709299214.598,-39.551,-48.828,-36.621,-29.785,0.000
1709299214.602,-40.527,-43.945,-32.227,-36.133,0.000
1709299214.606,-48.340,-49.316,-38.086,-40.039,0.000
1709299214.610,-62.012,-44.434,-40.039,-51.270,0.000
1709299214.614,-57.129,-32.715,-33.691,-37.109,0.000
1709299214.618,-43.457,-26.855,-37.109,-20.508,0.000
1709299214.622,-42.969,-27.832,-39.062,-29.297,0.000
1709299214.626,-56.152,-37.109,-39.551,-42.969,0.000
1709299214.629,-58.594,-32.227,-41.504,-45.898,0.000
1709299214.633,-55.176,-29.785,-38.086,-39.551,0.000
1709299214.637,-45.410,-38.574,-44.922,-26.855,0.000
1709299214.641,-40.039,-36.621,-46.875,-34.180,0.000
1709299214.645,-50.781,-33.691,-35.645,-47.852,0.000
1709299214.649,-59.082,-40.527,-36.621,-47.852,0.000
1709299214.653,-48.828,-37.598,-38.086,-43.457,0.000
1709299214.657,-32.227,-28.809,-34.180,-32.715,0.000
1709299214.661,-27.832,-32.715,-32.227,-23.926,0.000
1709299214.664,-30.762,-34.668,-31.250,-26.855,0.000
1709299214.668,-36.133,-35.645,-31.250,-36.133,0.000
1709299214.672,-32.715,-38.574,-29.297,-26.367,0.000
1709299214.676,-16.602,-29.785,-28.809,-10.254,0.000
1709299214.680,-9.277,-26.367,-32.227,-17.090,0.000
1709299214.684,-19.531,-31.738,-34.668,-29.297,0.000
1709299214.688,-26.367,-36.133,-37.598,-41.016,0.000
1709299214.692,-29.297,-36.621,-41.992,-45.898,0.000
1709299214.696,-22.949,-28.809,-41.504,-34.668,0.000
1709299214.700,-23.438,-29.785,-35.645,-28.809,0.000
1709299214.704,-29.297,-36.621,-33.691,-26.855,0.000
1709299214.707,-41.992,-35.645,-37.598,-39.551,0.000
1709299214.711,-47.363,-35.645,-45.898,-49.316,0.000
1709299214.715,-38.086,-37.598,-41.992,-40.527,0.000
1709299214.719,-39.551,-44.434,-33.691,-28.809,0.000
1709299214.723,-50.781,-45.410,-38.574,-39.062,0.000
1709299214.727,-64.453,-46.387,-47.363,-66.406,0.000
1709299214.731,-62.012,-41.016,-49.316,-67.383,0.000
1709299214.735,-58.105,-37.109,-47.852,-59.570,0.000
1709299214.739,-54.688,-37.109,-42.480,-52.734,0.000
1709299214.743,-56.152,-25.391,-41.992,-60.547,0.000
1709299214.747,-65.918,-28.320,-42.969,-69.336,0.000
1709299214.750,-68.848,-30.273,-50.781,-71.289,0.000
1709299214.754,-62.988,-22.949,-52.246,-65.918,0.000
1709299214.758,-53.223,-32.227,-48.828,-54.688,0.000
1709299214.762,-54.688,-45.410,-46.875,-60.547,0.000
1709299214.766,-66.406,-42.969,-47.852,-68.359,0.000
1709299214.770,-71.777,-40.527,-49.316,-65.430,0.000
1709299214.774,-64.453,-44.922,-47.852,-61.035,0.000
1709299214.778,-56.641,-47.363,-48.828,-48.828,0.000
1709299214.782,-62.012,-40.039,-47.363,-41.992,0.000
1709299214.786,-67.383,-32.715,-44.922,-49.805,0.000
1709299214.790,-68.848,-29.785,-45.410,-53.711,0.000
1709299214.793,-56.152,-29.785,-38.574,-49.316,0.000
1709299214.797,-39.062,-41.504,-37.109,-41.016,0.000
1709299214.801,-35.156,-47.363,-38.574,-35.645,0.000
1709299214.805,-29.785,-41.016,-40.039,-42.480,0.000
1709299214.809,-31.738,-35.645,-41.992,-41.016,0.000
1709299214.813,-30.273,-33.691,-38.086,-33.203,0.000
1709299214.817,-11.230,-28.809,-36.133,-25.391,0.000
1709299214.821,-7.812,-32.715,-41.992,-17.090,0.000
1709299214.825,-17.090,-35.156,-38.574,-25.879,0.000
1709299214.829,-24.414,-27.832,-35.645,-42.480,0.000
1709299214.833,-22.461,-26.367,-41.016,-46.875,0.000
1709299214.836,-17.090,-28.320,-37.598,-24.902,0.000
1709299214.840,-18.066,-32.715,-35.645,-12.695,0.000
1709299214.844,-28.809,-45.898,-39.062,-30.762,0.000
1709299214.848,-42.480,-56.152,-39.062,-46.875,0.000
1709299214.852,-36.133,-46.387,-30.762,-32.715,0.000
1709299214.856,-20.996,-41.504,-27.832,-3.418,0.000
1709299214.860,-26.367,-43.457,-34.180,-12.207,0.000
1709299214.864,-33.203,-40.527,-33.691,-28.809,0.000
1709299214.868,-34.180,-36.621,-31.738,-30.762,0.000
1709299214.872,-32.227,-34.668,-33.691,-40.039,0.000
1709299214.876,-28.809,-35.156,-36.133,-39.062,0.000
1709299214.880,-28.320,-34.180,-42.969,-33.203,0.000
1709299214.884,-32.715,-25.879,-40.527,-33.691,0.000
1709299214.887,-34.668,-25.879,-39.062,-37.109,0.000
1709299214.891,-36.621,-31.250,-38.574,-35.645,0.000
1709299214.895,-26.367,-34.668,-37.598,-27.344,0.000
1709299214.899,-22.949,-42.480,-38.574,-16.602,0.000
1709299214.903,-37.598,-37.598,-39.062,-28.320,0.000
1709299214.907,-43.945,-25.879,-37.598,-41.992,0.000
1709299214.911,-43.457,-26.855,-29.785,-39.551,0.000
1709299214.915,-37.598,-35.645,-35.645,-30.273,0.000
1709299214.919,-30.762,-39.551,-41.992,-15.625,0.000
1709299214.922,-32.227,-30.273,-36.133,-13.184,0.000
1709299214.926,-35.156,-28.320,-33.203,-21.484,0.000
1709299214.930,-38.086,-23.926,-35.645,-28.320,0.000
1709299214.934,-38.574,-29.297,-38.086,-28.320,0.000
1709299214.938,-27.344,-43.945,-43.457,-24.902,0.000
1709299214.942,-24.414,-42.480,-41.992,-26.855,0.000
1709299214.946,-33.203,-36.621,-41.504,-36.621,0.000
1709299214.950,-37.598,-38.086,-44.922,-45.410,0.000
1709299214.954,-30.273,-32.227,-37.109,-37.598,0.000
1709299214.958,-17.090,-33.203,-30.273,-21.973,0.000
1709299214.962,-11.719,-35.645,-28.809,-18.066,0.000
1709299214.965,-25.879,-29.297,-38.574,-31.250,0.000
1709299214.969,-41.016,-32.227,-42.480,-44.434,0.000
1709299214.973,-33.691,-41.992,-37.598,-39.062,0.000
1709299214.977,-27.344,-45.410,-36.621,-36.621,0.000
1709299214.981,-29.785,-36.133,-40.527,-40.527,0.000
1709299214.985,-36.133,-37.109,-39.551,-39.551,0.000
1709299214.989,-41.992,-52.246,-37.598,-46.387,0.000
1709299214.993,-47.363,-50.293,-38.086,-43.945,0.000
1709299214.997,-26.367,-30.273,-34.180,-20.996,0.000
1709299215.000,-8.789,-25.391,-38.086,-12.207,0.000
1709299215.004,-22.949,-31.250,-41.992,-20.996,0.000
1709299215.008,-32.715,-35.156,-41.504,-30.273,0.000
1709299215.012,-29.297,-29.785,-44.922,0.000,0.000
1709299215.016,-16.602,-22.949,-37.109,0.000,0.000
1709299215.020,-9.277,-26.367,-29.785,0.000,0.000
1709299215.024,-15.625,-28.809,-30.762,0.000,0.000
1709299215.028,-25.391,-32.227,-29.297,0.000,0.000
1709299215.032,-25.391,-34.668,-29.297,0.000,0.000
1709299215.036,-20.996,-37.109,-36.621,0.000,0.000
1709299215.040,-13.184,-38.086,-42.480,0.000,0.000
1709299215.044,-12.207,-39.551,-35.156,0.000,0.000
1709299215.047,-28.320,-41.504,-32.227,0.000,0.000
1709299215.051,-27.832,-34.668,-37.109,0.000,0.000
1709299215.055,-18.555,-33.691,-39.062,0.000,0.000
1709299215.059,-8.789,-38.574,-37.598,-26.367,0.000
1709299215.063,-9.766,-31.738,-34.668,-35.645,0.000
1709299215.067,-28.809,-22.461,-39.062,-50.293,0.000
1709299215.071,-36.133,-31.250,-46.875,-51.270,0.000
1709299215.075,-35.156,-41.992,-41.504,-46.875,0.000
1709299215.079,-26.367,-44.434,-35.156,-36.133,0.000
1709299215.083,-28.809,-42.480,-39.551,-38.574,0.000
1709299215.087,-51.758,-37.109,-38.086,-54.688,0.000
1709299215.091,-60.547,-42.480,-33.691,-53.711,0.000
1709299215.094,-54.688,-47.363,-40.039,-33.203,0.000
1709299215.098,-43.457,-37.109,-37.598,-23.438,0.000
1709299215.102,-48.340,-30.762,-37.109,-34.180,0.000
1709299215.106,-55.664,-30.762,-41.016,-38.086,0.000
1709299215.110,-59.082,-33.691,-37.598,-44.434,0.000
1709299215.114,-55.664,-43.945,-32.227,-42.969,0.000
1709299215.118,-37.598,-50.781,-34.180,-32.227,0.000
1709299215.122,-37.109,-50.781,-43.457,-37.598,0.000
1709299215.126,-46.875,-42.480,-42.969,-53.711,0.000
1709299215.130,-53.711,-35.645,-41.016,-61.523,0.000
1709299215.134,-46.875,-41.016,-46.875,-50.781,0.000
1709299215.137,-34.668,-45.898,-44.922,-34.180,0.000
1709299215.141,-27.344,-34.668,-39.062,-22.461,0.000
1709299215.145,-34.180,-41.016,-38.574,-34.180,0.000
1709299215.149,-50.293,-43.945,-40.039,-43.457,0.000
1709299215.153,-43.457,-31.738,-41.504,-41.016,0.000
1709299215.157,-26.367,-34.180,-41.016,-30.762,0.000
1709299215.161,-22.461,-39.062,-37.598,-18.555,0.000
1709299215.165,-31.250,-34.668,-36.621,-33.203,0.000
1709299215.169,-43.457,-41.992,-45.410,-44.922,0.000
1709299215.173,-43.945,-44.434,-42.969,-35.156,0.000
1709299215.177,-29.785,-46.387,-35.645,-21.484,0.000
1709299215.181,-29.297,-55.664,-38.086,-21.484,0.000
1709299215.185,-33.691,-48.340,-36.133,-19.531,0.000
1709299215.189,-47.852,-40.527,-39.062,-29.785,0.000
1709299215.192,-49.805,-37.598,-41.504,-41.992,0.000
1709299215.196,-36.133,-35.156,-39.062,-29.297,0.000
1709299215.200,-34.668,-42.480,-35.156,-27.344,0.000
1709299215.204,-37.109,-41.504,-32.715,-29.297,0.000
1709299215.208,-47.852,-37.598,-37.598,-39.062,0.000
1709299215.212,-53.223,-39.551,-35.645,-44.922,0.000
1709299215.216,-41.016,-36.621,-34.668,-32.227,0.000
1709299215.220,-27.344,-35.645,-27.344,-15.137,0.000
1709299215.224,-23.926,-39.062,-25.391,-15.137,0.000
1709299215.228,-42.969,-37.109,-33.203,-39.062,0.000
1709299215.231,-52.246,-29.785,-39.062,-47.363,0.000
1709299215.235,-41.504,-40.039,-41.504,-37.598,0.000
1709299215.239,-34.668,-41.504,-43.457,-26.855,0.000
1709299215.243,-34.180,-42.480,-37.109,-24.414,0.000
1709299215.247,0.000,-45.410,-38.086,-36.621,0.000
1709299215.251,0.000,-28.320,-40.039,-45.410,0.000
1709299215.255,0.000,-25.879,-40.039,-40.039,0.000
1709299215.259,0.000,-43.945,-43.457,-39.062,0.000
1709299215.263,0.000,-50.293,-41.504,-42.480,0.000
1709299215.267,0.000,-38.574,-44.434,-52.246,0.000
1709299215.270,0.000,-37.598,-44.434,-59.082,0.000
1709299215.274,0.000,-40.039,-35.156,-37.598,0.000
1709299215.278,0.000,-35.645,-37.598,-25.391,0.000
1709299215.282,0.000,-29.785,-41.992,-32.227,0.000
1709299215.286,0.000,-35.645,-41.016,-45.410,0.000
1709299215.290,0.000,-39.551,-41.016,-52.734,0.000
1709299215.293,-41.992,-24.414,-45.410,-44.434,0.000
1709299215.297,-44.922,-21.973,-44.434,-42.969,0.000
1709299215.301,-32.715,-30.762,-34.180,-39.551,0.000
1709299215.305,-27.344,-30.273,-31.250,-37.598,0.000
1709299215.309,-26.367,-32.715,-41.992,-45.410,0.000
1709299215.312,-32.715,-43.945,-45.898,-48.828,0.000
1709299215.316,-40.527,-45.410,-40.527,-31.738,0.000
1709299215.320,-34.668,-39.551,-43.945,-20.996,0.000
1709299215.324,-24.902,-37.598,-47.363,-39.551,0.000
1709299215.328,-17.578,-43.945,-41.016,-44.922,0.000
1709299215.332,-29.297,-37.598,-37.598,-41.504,0.000
1709299215.336,-37.109,-25.391,-46.387,-43.945,0.000
1709299215.340,-40.039,-36.133,-52.734,-41.992,0.000
1709299215.344,-42.969,-43.457,-39.062,-42.480,0.000
1709299215.347,-56.152,-46.875,-36.133,-55.176,0.000
1709299215.351,-49.316,-49.805,-39.551,-52.246,0.000
1709299215.355,-33.203,-41.504,-31.250,-31.738,0.000
1709299215.359,-28.809,-35.645,-30.273,-26.855,0.000
1709299215.363,-31.250,-36.133,-36.133,-22.461,0.000
1709299215.367,-42.480,-42.969,-38.574,-29.785,0.000
1709299215.371,-40.527,-43.457,-34.180,-33.691,0.000
1709299215.375,-38.574,-36.133,-35.156,-25.391,0.000
1709299215.379,-43.457,-40.039,-39.062,-26.855,0.000
1709299215.383,-41.504,-43.457,-27.832,-32.715,0.000
1709299215.386,-51.270,-37.598,-24.414,-44.434,0.000
1709299215.390,-64.453,-39.062,-28.320,-48.340,0.000
1709299215.394,-55.176,-41.016,-35.645,-38.574,0.000
1709299215.398,-39.062,-41.504,-41.016,-36.621,0.000
1709299215.402,-43.945,-36.621,-38.086,-48.340,0.000
1709299215.406,-49.316,-31.738,-32.715,-50.781,0.000
1709299215.410,-53.223,-43.457,-31.250,-43.457,0.000
1709299215.414,-52.246,-53.711,-36.133,-39.551,0.000
1709299215.418,-34.668,-44.434,-39.551,-36.621,0.000
1709299215.422,-30.762,-27.344,-44.434,-41.504,0.000
1709299215.425,-44.434,-31.738,-43.457,-53.711,0.000
1709299215.429,-53.223,-37.109,-48.340,-60.547,0.000
1709299215.433,-46.387,-31.250,-50.293,-50.293,0.000
1709299215.437,-33.203,-34.180,-40.527,-38.086,0.000
1709299215.441,-30.762,-45.410,-42.969,-41.504,0.000
1709299215.445,-42.969,-43.457,-46.875,-57.617,0.000
1709299215.449,-55.176,-40.527,-43.457,-71.289,0.000
1709299215.453,-56.641,-50.293,-43.945,-63.477,0.000
1709299215.457,-43.945,-42.480,-44.434,-49.316,0.000
1709299215.461,-37.598,-27.344,-50.781,-45.410,0.000
1709299215.465,-51.270,-35.645,-54.688,-52.734,0.000
1709299215.469,-59.082,-42.969,-39.062,-52.246,0.000
1709299215.472,-58.105,-41.016,-38.574,-45.898,0.000
1709299215.476,-53.223,-40.527,-45.898,-39.551,0.000
1709299215.481,-46.875,-43.945,-39.062,-28.809,0.000
1709299215.485,-48.340,-52.246,-33.691,-35.156,0.000
1709299215.488,-59.570,-54.199,-36.133,-57.129,0.000
1709299215.492,-60.059,-46.875,-37.598,-50.293,0.000
1709299215.496,-40.527,-39.551,-34.180,-24.414,0.000
1709299215.500,-28.809,-39.551,-36.133,-22.461,0.000
1709299215.504,-35.645,-40.527,-31.738,-24.902,0.000
1709299215.508,-50.293,-33.203,-33.203,-34.180,0.000
1709299215.512,-42.480,-31.738,-32.715,-27.832,0.000
1709299215.516,-28.320,-37.109,-28.809,-7.324,0.000
1709299215.520,-29.297,-39.062,-33.691,-14.160,0.000
1709299215.524,-38.574,-35.156,-37.109,-29.785,0.000
1709299215.528,-53.711,-37.109,-32.227,-49.805,0.000
1709299215.531,-55.664,-40.527,-25.391,-50.781,0.000
1709299215.535,-40.039,-35.645,-30.762,-35.645,0.000
1709299215.539,-36.621,-41.504,-37.109,-33.691,0.000
1709299215.543,-44.922,-48.828,-41.992,-45.410,0.000
1709299215.547,-51.758,-44.922,-41.504,-56.152,0.000
1709299215.551,-47.363,-42.480,-37.598,-54.688,0.000
1709299215.555,-34.668,-39.551,-39.551,-46.875,0.000
1709299215.559,-24.414,-35.156,-47.852,-43.945,0.000
1709299215.563,-20.508,-36.133,-50.293,-43.457,0.000
1709299215.567,-23.926,-30.762,-36.133,-42.969,0.000
1709299215.570,-32.715,-35.156,-27.832,-42.969,0.000
1709299215.574,0.000,-37.598,-29.297,-26.855,0.000
1709299215.578,0.000,-32.715,-37.598,-19.043,0.000
1709299215.582,0.000,-30.273,-38.086,-28.809,0.000
1709299215.586,0.000,-32.715,-38.574,-36.133,0.000
1709299215.590,0.000,-48.340,-43.457,-44.434,0.000
1709299215.594,0.000,-49.316,-45.898,-37.598,0.000
1709299215.598,0.000,-33.203,-41.504,-20.020,0.000
1709299215.602,0.000,-31.738,-37.109,-13.672,0.000
1709299215.606,0.000,-36.133,-35.645,-20.020,0.000
1709299215.610,0.000,-35.156,-39.062,-28.809,0.000
1709299215.613,0.000,-29.785,-45.898,-30.273,0.000
1709299215.617,0.000,-25.879,-48.828,-20.020,0.000
1709299215.621,-11.230,-31.250,-46.387,-18.066,0.000
1709299215.625,-13.672,-33.691,-40.527,-28.320,0.000
1709299215.629,-30.762,-41.016,-41.992,-38.574,0.000
1709299215.633,-38.086,-35.156,-47.852,-29.297,0.000
1709299215.637,-33.203,-31.738,-44.434,-15.137,0.000
1709299215.641,-32.227,-41.504,-38.574,-16.602,0.000
1709299215.645,-38.086,-40.039,-42.480,-32.715,0.000
1709299215.649,-51.270,-37.109,-48.340,-49.316,0.000
1709299215.652,-50.781,-36.133,-41.016,-41.992,0.000
1709299215.656,-42.969,-41.016,-30.273,-33.203,0.000
1709299215.660,-39.062,-46.387,-35.645,-29.785,0.000
1709299215.664,-36.621,-42.969,-41.992,-32.227,0.000
1709299215.668,-40.039,-27.832,-40.527,-44.922,0.000
1709299215.672,-36.621,-22.949,-38.574,-41.016,0.000
1709299215.676,-19.043,-37.109,-35.156,-25.879,0.000
1709299215.680,-9.766,-33.691,-35.156,-16.602,0.000
1709299215.684,-16.113,-19.043,-35.156,-24.414,0.000
1709299215.688,-26.367,-19.043,-35.645,-39.062,0.000
1709299215.691,-25.879,-25.879,-40.527,-39.551,0.000
1709299215.695,-17.090,-27.832,-46.875,-24.414,0.000
1709299215.699,-17.090,-22.949,-47.363,-17.578,0.000
1709299215.703,-18.555,-27.344,-48.340,-25.879,0.000
1709299215.707,-31.250,-27.832,-55.664,-34.180,0.000
1709299215.711,-41.504,-21.484,-55.664,-46.387,0.000
1709299215.715,-39.551,-20.996,-52.246,-46.875,0.000
1709299215.719,-36.621,-25.391,-50.781,-38.574,0.000
1709299215.723,-40.527,-34.180,-48.340,-48.340,0.000
1709299215.726,-51.270,-29.785,-39.551,-63.477,0.000
1709299215.730,-55.664,-29.297,-43.457,-73.242,0.000
1709299215.734,-42.480,-38.574,-41.992,-64.453,0.000
1709299215.738,-29.785,-33.203,-33.691,-48.828,0.000
1709299215.742,-33.203,-31.250,-36.621,-50.781,0.000
1709299215.746,-35.645,-32.715,-30.273,-54.688,0.000
1709299215.750,-33.691,-27.344,-27.832,-53.711,0.000
1709299215.754,-28.320,-31.738,-35.156,-41.016,0.000
1709299215.758,-22.949,-29.785,-38.574,-28.320,0.000
1709299215.761,-24.414,-36.621,-39.062,-28.809,0.000
1709299215.765,-32.227,-46.875,-32.715,-30.273,0.000
1709299215.769,-40.527,-29.297,-35.645,-32.715,0.000
1709299215.773,-45.410,-25.391,-31.738,-31.250,0.000
1709299215.777,-33.203,-28.320,-33.691,-23.438,0.000
1709299215.781,-25.879,-25.391,-40.527,-21.973,0.000
1709299215.785,-38.574,-32.715,-35.156,-26.367,0.000
1709299215.789,-54.688,-36.133,-38.574,-38.086,0.000
1709299215.793,-53.711,-35.156,-40.527,-37.109,0.000
1709299215.797,-43.945,-38.574,-41.992,-18.555,0.000
1709299215.800,-42.969,-44.434,-45.898,-18.555,0.000
1709299215.804,-41.504,-40.039,-42.969,-35.645,0.000
1709299215.808,-51.270,-37.598,-41.992,-53.711,0.000
1709299215.812,-52.246,-37.598,-38.574,-51.270,0.000
1709299215.816,-40.039,-35.645,-33.203,-40.039,0.000
1709299215.820,-38.574,-37.598,-38.086,-39.062,0.000
1709299215.824,-47.363,-35.156,-40.039,-46.387,0.000
1709299215.828,-58.594,-41.504,-36.133,-61.035,0.000
1709299215.832,-52.246,-46.387,-38.574,-59.570,0.000
1709299215.836,-35.156,-41.016,-40.039,-44.434,0.000
1709299215.840,-24.902,-29.297,-31.738,-31.250,0.000
1709299215.844,-25.879,-28.809,-29.785,-31.250,0.000
1709299215.847,-36.133,-37.109,-35.156,-40.527,0.000
1709299215.851,-35.645,-35.156,-30.273,-34.668,0.000
1709299215.855,-21.973,-32.715,-26.855,-9.766,0.000
1709299215.859,-10.742,-33.691,-31.738,7.812,0.000
1709299215.863,-12.695,-27.832,-38.086,-1.953,0.000
1709299215.867,-24.902,-20.508,-32.715,-17.578,0.000
1709299215.871,-31.250,-23.438,-23.926,-18.555,0.000
1709299215.875,-19.531,-37.109,-20.020,-9.277,0.000
1709299215.879,-16.113,-38.086,-28.809,-9.277,0.000
1709299215.883,-22.949,-28.320,-33.203,-17.090,0.000
1709299215.887,-36.621,-35.156,-29.785,-24.902,0.000
1709299215.891,-49.316,-36.621,-24.414,-35.645,0.000
1709299215.894,-42.969,-31.738,-26.367,-41.504,0.000
1709299215.898,-29.785,-38.086,-34.180,-40.039,0.000
1709299215.902,-30.273,-46.387,-22.949,-36.621,0.000
1709299215.906,-40.527,-41.016,-18.555,-37.109,0.000
1709299215.910,-47.363,-29.785,-20.508,-50.293,0.000
1709299215.914,-35.645,-39.551,-23.438,-46.875,0.000
1709299215.918,-26.855,-52.246,-30.762,-27.832,0.000
1709299215.922,-20.996,-44.434,-30.273,-18.555,0.000
1709299215.926,-17.578,-34.668,-26.367,-25.391,0.000
1709299215.930,-22.949,-30.273,-28.809,-26.855,0.000
1709299215.933,-16.113,-29.297,-33.203,-13.672,0.000
1709299215.937,-6.348,-30.762,-36.133,-10.742,0.000
1709299215.941,0.000,-26.855,-39.062,-13.184,0.000
1709299215.945,3.418,-16.113,-38.086,-14.648,0.000
1709299215.949,-3.418,-16.113,-41.992,-20.508,0.000
1709299215.953,-12.207,-22.461,-43.945,-20.996,0.000
1709299215.957,-0.977,-19.043,-42.969,-13.184,0.000
1709299215.961,9.277,-20.996,-46.875,-12.695,0.000
1709299215.965,-7.812,-27.832,-48.340,-33.691,0.000
1709299215.969,-18.066,-32.715,-40.527,-43.945,0.000
1709299215.973,-20.020,-23.438,-28.809,-32.227,0.000
1709299215.976,-17.090,-17.578,-29.297,-21.484,0.000
1709299215.980,-11.230,-29.297,-33.691,-20.508,0.000
1709299215.984,-27.832,-26.855,-39.062,-38.574,0.000
1709299215.988,-41.504,-22.461,-41.504,-49.805,0.000
1709299215.992,-44.434,-34.180,-33.691,-41.992,0.000
1709299215.996,-39.062,-30.762,-36.133,-31.738,0.000
1709299216.000,-31.738,-28.320,-42.480,-28.809,0.000
1709299216.004,-33.691,-37.598,-34.180,-29.297,0.000
1709299216.008,-41.992,-45.410,-33.203,-42.480,0.000
1709299216.012,-43.945,-39.551,-32.227,-46.387,0.000
1709299216.016,-32.715,-33.691,-25.879,-33.203,0.000
1709299216.019,-26.367,-36.133,-35.156,-28.320,0.000
1709299216.023,-31.250,-30.762,-35.156,-23.438,0.000
1709299216.027,-41.016,-29.785,-29.297,-31.250,0.000
1709299216.031,-44.922,-33.203,-33.691,-44.922,0.000
1709299216.035,-32.227,-41.016,-36.621,-37.598,0.000
1709299216.039,-22.949,-45.410,-37.109,-22.949,0.000
1709299216.043,-29.297,-41.504,-35.156,-30.762,0.000
1709299216.047,-42.969,-45.410,-32.227,-46.387,0.000
1709299216.051,-50.781,-46.387,-29.297,-52.734,0.000
1709299216.054,-43.457,-47.852,-26.367,-47.363,0.000
1709299216.058,-36.621,-51.270,-23.438,-39.551,0.000
1709299216.062,-40.039,-46.387,-16.113,-42.969,0.000
1709299216.066,-56.641,-48.828,-19.531,-54.688,0.000
1709299216.070,-70.312,-51.758,-25.879,-56.152,0.000
1709299216.074,-61.523,-49.805,-21.973,-52.734,0.000
1709299216.078,-50.781,-47.363,-23.438,-54.199,0.000
1709299216.082,-43.457,-48.828,-23.926,-46.875,0.000
1709299216.086,-48.828,-45.898,-18.066,-57.617,0.000
1709299216.090,-57.129,-38.086,-17.090,-77.637,0.000
1709299216.093,-44.434,-36.133,-17.578,-58.594,0.000
1709299216.097,-37.598,-37.598,-22.949,-37.598,0.000
1709299216.101,-30.762,-29.297,-26.855,-34.668,0.000
1709299216.105,-31.250,-26.855,-25.391,-40.527,0.000
1709299216.109,-52.246,-41.016,-30.273,-50.293,0.000
1709299216.113,-52.734,-41.992,-32.227,-38.574,0.000
1709299216.117,-43.945,-38.574,-33.203,-26.855,0.000
1709299216.121,-45.898,-45.410,-36.133,-30.762,0.000
1709299216.125,-59.082,-49.805,-32.715,-39.551,0.000
1709299216.129,-69.824,-58.594,-30.273,-49.316,0.000
1709299216.132,-62.500,-54.688,-24.902,-49.316,0.000
1709299216.136,-52.246,-49.316,-32.227,-39.551,0.000
1709299216.140,-43.945,-50.293,-32.715,-30.273,0.000
1709299216.144,-45.410,-48.828,-20.508,-39.062,0.000
1709299216.148,-52.734,-47.852,-24.902,-49.316,0.000
1709299216.152,-61.523,-47.363,-33.203,-52.246,0.000
1709299216.156,-56.641,-46.387,-30.273,-43.457,0.000
1709299216.160,-47.852,-41.992,-30.273,-32.715,0.000
1709299216.164,-57.129,-41.504,-32.227,-40.527,0.000
1709299216.167,-69.824,-41.504,-30.762,-48.340,0.000
1709299216.171,-68.848,-46.875,-32.227,-45.898,0.000
1709299216.175,-61.523,-46.875,-28.809,-36.133,0.000
1709299216.179,-58.105,-35.156,-27.832,-36.133,0.000
1709299216.183,0.000,-42.480,-33.691,-41.992,0.000
1709299216.187,0.000,-45.898,-38.574,-42.480,0.000
1709299216.191,0.000,-39.062,-33.203,-41.504,0.000
1709299216.195,0.000,-32.227,-36.621,-38.574,0.000
1709299216.199,0.000,-21.973,-42.480,-37.598,0.000
1709299216.203,0.000,-24.902,-43.945,-45.898,0.000
1709299216.207,0.000,-30.762,-47.852,-59.082,0.000
1709299216.211,0.000,-26.367,-41.016,-63.965,0.000
1709299216.214,0.000,-32.715,-42.969,-53.223,0.000
1709299216.218,0.000,-46.387,-46.875,-36.621,0.000
1709299216.222,0.000,-38.574,-41.992,-46.387,0.000
1709299216.226,0.000,-27.344,-43.457,-58.105,0.000
1709299216.230,-34.180,-27.344,-42.969,-52.246,0.000
1709299216.234,-29.297,-29.297,-40.039,-36.621,0.000
1709299216.238,-16.602,-22.461,-45.898,-27.832,0.000
1709299216.242,-18.555,-12.695,-44.434,-38.086,0.000
1709299216.246,-27.832,-19.531,-33.203,-41.504,0.000
1709299216.250,-35.156,-31.738,-39.062,-47.363,0.000
1709299216.254,-29.785,-29.297,-42.480,-41.992,0.000
1709299216.257,-13.184,-21.973,-32.227,-21.973,0.000
1709299216.261,-11.719,-27.832,-32.715,-16.113,0.000
1709299216.265,-14.648,-34.668,-33.691,-20.996,0.000
1709299216.269,-22.949,-30.762,-28.809,-30.762,0.000
1709299216.273,-28.809,-22.461,-31.250,-31.250,0.000
1709299216.277,-23.438,-19.043,-27.832,-19.531,0.000
1709299216.281,-24.414,-23.926,-27.344,-23.438,0.000
1709299216.285,-37.109,-27.832,-36.621,-35.645,0.000
1709299216.289,-56.641,-33.691,-31.250,-49.316,0.000
1709299216.293,-61.523,-36.133,-32.715,-50.293,0.000
1709299216.297,-46.875,-35.645,-39.551,-35.156,0.000
1709299216.300,-45.898,-29.785,-31.738,-33.691,0.000
1709299216.304,-61.523,-34.180,-33.203,-43.945,0.000
1709299216.308,-71.777,-51.758,-31.738,-49.316,0.000
1709299216.312,-72.266,-54.199,-24.902,-44.922,0.000
1709299216.316,-66.895,-44.922,-28.809,-36.621,0.000
1709299216.320,-56.641,-39.551,-38.574,-29.785,0.000
1709299216.324,-55.664,-48.340,-35.645,-30.273,0.000
1709299216.328,-60.547,-50.781,-40.527,-36.621,0.000
1709299216.332,-61.523,-39.551,-47.852,-38.574,0.000
1709299216.336,-46.387,-39.062,-42.969,-22.949,0.000
1709299216.340,-32.715,-40.039,-38.574,-16.113,0.000
1709299216.343,-29.785,-41.504,-30.762,-29.297,0.000
1709299216.347,-26.855,-41.992,-26.855,-30.762,0.000
1709299216.351,-33.691,-42.480,-31.738,-29.785,0.000
1709299216.355,-31.250,-40.039,-28.809,-28.320,0.000
1709299216.359,-16.602,-29.785,-22.461,-22.461,0.000
1709299216.363,-15.625,-32.715,-20.508,-25.391,0.000
1709299216.367,-23.438,-44.922,-21.973,-27.344,0.000
1709299216.371,-30.762,-47.852,-28.320,-32.227,0.000
1709299216.375,-32.227,-47.852,-26.855,-35.645,0.000
1709299216.379,-22.949,-43.945,-21.973,-21.973,0.000
1709299216.382,-20.996,-39.551,-24.414,-14.648,0.000
1709299216.386,-40.527,-45.410,-31.250,-37.598,0.000
1709299216.390,-57.129,-51.270,-33.691,-49.316,0.000
1709299216.394,-52.734,-54.199,-33.203,-35.156,0.000
1709299216.398,-38.086,-43.457,-28.320,-17.578,0.000
1709299216.402,-36.621,-39.062,-30.273,-24.414,0.000
1709299216.406,-48.828,-46.387,-35.156,-42.480,0.000
1709299216.410,-53.711,-46.387,-33.691,-41.992,0.000
1709299216.414,-44.434,-39.062,-27.344,-22.461,0.000
1709299216.418,-26.855,-36.621,-23.438,0.000,0.000
1709299216.421,-21.484,-37.109,-25.391,3.418,0.000
1709299216.425,-37.598,-39.062,-30.273,-12.207,0.000
1709299216.429,-41.504,-46.875,-34.668,-15.137,0.000
1709299216.433,-41.016,-48.828,-34.668,-5.371,0.000
1709299216.437,-43.945,-43.457,-35.156,-3.418,0.000
1709299216.441,-45.410,-37.598,-33.691,-8.301,0.000
1709299216.445,-53.711,-38.574,-37.598,-17.090,0.000
1709299216.449,-66.406,-40.039,-41.016,-33.691,0.000
1709299216.453,-70.801,-34.180,-39.551,-41.016,0.000
1709299216.457,-64.453,-40.039,-43.945,-28.320,0.000
1709299216.461,-55.176,-41.992,-42.969,-25.879,0.000
1709299216.464,-55.176,-41.504,-44.434,-40.527,0.000
1709299216.468,-57.617,-48.340,-39.551,-48.340,0.000
1709299216.472,-51.758,-42.480,-30.273,-43.945,0.000
1709299216.476,-40.039,-40.039,-28.809,-34.180,0.000
1709299216.480,-33.203,-46.387,-34.180,-33.203,0.000
1709299216.484,-33.691,-42.480,-36.133,-41.504,0.000
1709299216.488,-40.039,-37.598,-29.785,-42.480,0.000
1709299216.492,-41.504,-41.992,-29.297,-34.668,0.000
1709299216.496,-29.785,-41.016,-33.203,-27.344,0.000
1709299216.499,-20.996,-35.156,-33.691,-22.461,0.000
1709299216.503,-25.879,-36.133,-30.273,-29.785,0.000
1709299216.507,-34.668,-34.668,-28.320,-43.945,0.000
1709299216.511,-36.621,-42.480,-27.344,-43.945,0.000
1709299216.515,-29.297,-40.527,-18.555,-25.879,0.000
1709299216.519,-23.438,-43.457,-12.207,-17.578,0.000
1709299216.523,-37.598,-53.711,-21.973,-25.391,0.000
1709299216.527,-51.758,-48.340,-26.367,-36.133,0.000
1709299216.531,-49.805,-54.688,-20.508,-27.344,0.000
1709299216.534,-42.480,-55.176,-21.973,-7.812,0.000
1709299216.538,-44.922,-44.434,-20.996,-9.277,0.000
1709299216.542,-53.223,-46.387,-17.578,-18.555,0.000
1709299216.546,-60.547,-48.828,-19.531,-22.949,0.000
1709299216.550,-69.824,-51.270,-22.949,-26.367,0.000
1709299216.554,-67.871,-53.223,-26.855,-25.879,0.000
1709299216.558,-57.129,-42.480,-27.832,-23.926,0.000
1709299216.562,-52.734,-46.875,-24.902,-28.320,0.000
1709299216.566,-58.594,-56.152,-25.879,-37.598,0.000
1709299216.570,-58.594,-49.316,-27.832,-37.598,0.000
1709299216.574,-46.387,-39.551,-26.855,-25.391,0.000
1709299216.578,-43.457,-39.551,-34.180,-17.090,0.000
1709299216.581,-54.688,-44.434,-44.434,-28.320,0.000
1709299216.585,-61.035,-43.945,-44.922,-45.410,0.000
1709299216.589,-59.570,-42.480,-40.039,-50.781,0.000
1709299216.593,-50.293,-36.133,-41.504,-41.016,0.000
1709299216.597,-34.180,-36.133,-48.828,-33.203,0.000
1709299216.601,-34.668,-39.551,-42.969,-42.480,0.000
1709299216.605,-44.434,-36.621,-32.715,-54.688,0.000
1709299216.609,-49.805,-29.785,-27.832,-59.570,0.000
1709299216.613,-52.734,-23.438,-34.180,-66.406,0.000
1709299216.617,-40.527,-26.855,-39.551,-57.129,0.000
1709299216.621,-35.156,-29.297,-42.480,-51.758,0.000
1709299216.625,-45.410,-31.250,-43.945,-67.871,0.000
1709299216.628,-56.152,-34.668,-38.086,-76.660,0.000
1709299216.632,-50.293,-26.367,-31.250,-65.430,0.000
1709299216.636,-29.785,-27.344,-27.344,-40.039,0.000
1709299216.640,-20.508,-29.785,-29.297,-27.344,0.000
1709299216.644,-31.738,-24.414,-26.855,-41.992,0.000
1709299216.648,-45.410,-33.691,-27.344,-58.105,0.000
1709299216.652,-34.668,-33.691,-29.785,-46.875,0.000
1709299216.656,-22.461,-28.320,-22.949,-29.297,0.000
1709299216.660,-16.113,-25.391,-23.926,-20.508,0.000
1709299216.664,-14.160,-28.809,-24.414,-20.020,0.000
1709299216.668,-24.902,-41.016,-27.832,-33.691,0.000
1709299216.671,-27.344,-29.297,-28.809,-34.180,0.000
1709299216.675,-19.531,-20.996,-29.297,-18.555,0.000
1709299216.679,-13.672,-21.973,-31.250,-18.555,0.000
1709299216.683,-24.414,-26.855,-25.391,-25.391,0.000
1709299216.687,-39.062,-36.621,-28.320,-40.527,0.000
1709299216.691,-34.668,-38.086,-35.156,-51.270,0.000
1709299216.695,-28.809,-28.320,-36.133,-43.457,0.000
1709299216.699,-32.715,-30.273,-33.203,-33.691,0.000
1709299216.703,-38.086,-40.039,-32.227,-34.180,0.000
1709299216.707,-44.434,-49.316,-37.109,-52.246,0.000
1709299216.710,-48.828,-44.434,-34.180,-57.617,0.000
1709299216.714,-49.316,-35.156,-34.668,-54.688,0.000
1709299216.718,-39.551,-28.809,-45.410,-43.457,0.000
1709299216.722,-36.621,-23.438,-49.805,-42.969,0.000
1709299216.726,-44.434,-30.273,-40.527,-53.223,0.000
1709299216.730,-54.199,-39.062,-38.574,-60.547,0.000
1709299216.734,-48.828,-40.527,-47.363,-64.941,0.000
1709299216.738,-21.973,-38.086,-41.992,-48.340,0.000
1709299216.742,-21.484,-38.086,-40.527,-51.270,0.000
1709299216.746,-38.574,-31.250,-37.598,-66.895,0.000
1709299216.750,-43.457,-27.832,-36.621,-73.242,0.000
1709299216.753,-36.621,-35.645,-38.574,-65.430,0.000
1709299216.757,-30.273,-31.250,-41.992,-53.711,0.000
1709299216.761,-36.621,-26.367,-42.969,-54.199,0.000
1709299216.765,-47.852,-38.574,-44.434,-62.012,0.000
1709299216.769,-54.199,-45.898,-38.574,-66.895,0.000
1709299216.773,-54.688,-40.527,-35.156,-52.246,0.000
1709299216.777,-43.945,-38.086,-35.156,-36.621,0.000
1709299216.781,-42.480,-44.434,-35.156,-47.363,0.000
1709299216.785,-48.828,-49.805,-39.551,-54.199,0.000
1709299216.789,-56.152,-48.340,-29.785,-56.641,0.000
1709299216.792,-60.059,-45.898,-30.273,-58.594,0.000
1709299216.796,-47.363,-41.016,-35.645,-41.016,0.000
1709299216.800,-39.062,-42.969,-37.109,-33.691,0.000
1709299216.804,-49.805,-49.316,-43.945,-45.410,0.000
1709299216.808,-50.781,-50.781,-38.574,-47.852,0.000
1709299216.812,-45.410,-47.363,-30.762,-41.016,0.000
1709299216.816,-32.227,-36.133,-34.180,-22.949,0.000
1709299216.820,-14.648,-36.133,-37.109,-10.254,0.000
1709299216.824,-16.602,-36.621,-24.414,-24.902,0.000
1709299216.828,-30.762,-28.809,-27.832,-42.969,0.000
1709299216.831,-43.945,-36.621,-41.504,-51.758,0.000
1709299216.835,-36.133,-36.133,-35.645,-39.551,0.000
1709299216.839,-27.832,-28.809,-37.109,-26.367,0.000
1709299216.843,-29.785,-38.086,-42.969,-34.668,0.000
1709299216.847,-39.062,-50.781,-36.133,-44.922,0.000
1709299216.851,-42.480,-46.875,-41.016,-45.410,0.000
1709299216.855,-33.203,-33.203,-50.781,-38.086,0.000
1709299216.859,-27.344,-37.598,-36.133,-32.227,0.000
1709299216.863,-31.250,-43.457,-25.879,-31.250,0.000
1709299216.866,-46.875,-38.574,-34.180,-46.875,0.000
1709299216.870,-52.734,-28.809,-42.480,-55.664,0.000
1709299216.874,-47.852,-19.531,-43.945,-47.852,0.000
1709299216.878,-39.551,-26.367,-40.527,-37.598,0.000
1709299216.882,-34.668,-37.598,-40.039,-39.551,0.000
1709299216.886,-37.598,-39.062,-38.574,-55.176,0.000
1709299216.890,-44.434,-40.527,-39.062,-60.059,0.000
1709299216.894,-43.945,-40.527,-37.109,-49.316,0.000
1709299216.898,-30.762,-39.551,-32.715,-27.832,0.000
1709299216.902,-26.855,-33.691,-34.668,-18.555,0.000
1709299216.906,-33.203,-23.438,-32.715,-26.855,0.000
1709299216.910,-39.551,-19.043,-29.297,-31.250,0.000
1709299216.914,-42.480,-22.461,-30.762,-20.996,0.000
1709299216.917,-37.109,-32.227,-31.250,-10.742,0.000
1709299216.921,-41.504,-44.922,-33.691,-24.414,0.000
1709299216.925,-47.852,-55.664,-34.668,-39.062,0.000
1709299216.929,-49.805,-55.176,-40.527,-48.340,0.000
1709299216.933,-44.922,-42.969,-41.992,-49.805,0.000
1709299216.937,-28.320,-37.598,-31.738,-33.691,0.000
1709299216.941,-20.996,-28.320,-35.156,-28.320,0.000
1709299216.945,-30.762,-23.438,-39.062,-41.016,0.000
1709299216.949,-39.551,-27.832,-34.668,-55.664,0.000
1709299216.953,-34.180,-32.715,-41.016,-52.246,0.000
1709299216.957,-25.879,-30.273,-43.457,-34.668,0.000
1709299216.960,-22.949,-31.250,-45.898,-31.250,0.000
1709299216.964,-26.367,-38.086,-45.410,-43.457,0.000
1709299216.968,-36.621,-49.805,-32.715,-39.551,0.000
1709299216.972,-40.039,-50.781,-40.527,-36.133,0.000
1709299216.976,-36.133,-34.180,-50.293,-44.922,0.000
1709299216.980,-29.297,-39.551,-42.480,-37.109,0.000
1709299216.984,-31.738,-45.410,-39.551,-34.668,0.000
1709299216.988,-45.410,-39.551,-41.504,-47.852,0.000
1709299216.992,-55.176,-33.691,-37.109,-53.711,0.000
1709299216.996,-51.758,-38.574,-33.203,-39.551,0.000
1709299217.000,-41.504,-48.340,-33.203,-30.762,0.000
1709299217.004,-39.062,-44.434,-31.250,-34.180,0.000
1709299217.007,-53.223,-53.223,-40.527,-43.945,0.000
1709299217.011,-62.012,-70.801,-46.875,-44.922,0.000
1709299217.015,-56.152,-62.012,-39.551,-30.762,0.000
1709299217.019,-47.852,-44.434,-35.156,-23.926,0.000
1709299217.023,-44.434,-39.062,-37.109,-28.809,0.000
1709299217.027,-54.688,-45.410,-37.109,-48.828,0.000
1709299217.031,-58.594,-42.969,-32.227,-49.316,0.000
1709299217.035,-49.805,-39.062,-27.832,-30.762,0.000
1709299217.039,-40.039,-35.645,-32.715,-31.250,0.000
1709299217.043,-40.039,-37.598,-44.922,-41.504,0.000
1709299217.047,-49.805,-44.434,-40.527,-53.223,0.000
1709299217.050,-48.828,-44.922,-36.621,-57.617,0.000
1709299217.054,-33.203,-38.574,-36.133,-45.898,0.000
1709299217.058,-17.578,-37.109,-30.273,-25.879,0.000
1709299217.062,-16.602,-39.062,-30.762,-27.344,0.000
1709299217.066,-31.250,-26.855,-35.156,-46.875,0.000
1709299217.070,-42.480,-30.762,-41.992,-54.199,0.000
1709299217.074,-29.297,-33.691,-43.945,-37.109,0.000
1709299217.078,-5.859,-28.320,-33.203,-18.066,0.000
1709299217.082,-3.906,-36.133,-40.527,-23.438,0.000
1709299217.086,-22.949,-42.480,-47.363,-33.203,0.000
1709299217.089,-27.344,-42.969,-38.086,-40.039,0.000
1709299217.093,-19.531,-41.504,-38.086,-29.785,0.000
1709299217.097,-14.160,-31.250,-38.574,-19.043,0.000
1709299217.101,-6.348,-32.715,-33.203,-15.625,0.000
1709299217.105,-16.113,-38.086,-34.668,-20.996,0.000
1709299217.109,-31.250,-32.227,-37.109,-39.062,0.000
1709299217.113,-31.738,-30.273,-30.762,-36.133,0.000
1709299217.117,-27.344,-37.109,-28.809,-24.902,0.000
1709299217.121,-21.484,-31.738,-29.785,-18.066,0.000
1709299217.125,-31.250,-35.156,-28.809,-32.227,0.000
1709299217.128,-44.922,-50.293,-30.273,-46.875,0.000
1709299217.132,-42.480,-50.781,-25.879,-39.551,0.000
1709299217.136,-35.645,-49.316,-31.738,-27.344,0.000
1709299217.140,-29.785,-45.410,-34.668,-22.461,0.000
1709299217.144,-34.668,-36.621,-34.180,-34.180,0.000
1709299217.148,-51.270,-36.621,-37.598,-41.992,0.000
1709299217.152,-58.594,-43.945,-33.691,-43.945,0.000
1709299217.156,-56.152,-42.969,-34.180,-49.316,0.000
1709299217.160,-50.781,-41.504,-36.133,-53.223,0.000
1709299217.164,-53.223,-45.410,-39.062,-57.129,0.000
1709299217.167,-64.453,-48.340,-36.621,-66.895,0.000
1709299217.171,-69.336,-53.711,-35.156,-72.266,0.000
1709299217.175,-53.711,-44.434,-38.574,-55.176,0.000
1709299217.179,-40.527,-41.504,-38.574,-43.457,0.000
1709299217.183,-38.574,-44.922,-33.691,-43.457,0.000
1709299217.187,-41.016,-37.109,-26.855,-47.852,0.000
1709299217.191,-47.852,-37.598,-31.738,-47.363,0.000
1709299217.195,-37.598,-39.551,-29.785,-25.391,0.000
1709299217.199,-22.949,-31.250,-34.180,-13.672,0.000
1709299217.203,-26.855,-27.344,-39.062,-18.555,0.000
1709299217.207,-35.156,-33.691,-33.691,-26.855,0.000
1709299217.210,-41.504,-44.922,-32.715,-36.621,0.000
1709299217.214,-38.574,-45.898,-29.785,-28.320,0.000
1709299217.218,-27.832,-34.180,-29.297,-19.043,0.000
1709299217.222,-24.414,-35.156,-26.855,-15.625,0.000
1709299217.226,-31.738,-45.410,-23.926,-16.113,0.000
1709299217.230,-41.992,-43.945,-26.367,-28.809,0.000
1709299217.234,-42.480,-40.039,-28.320,-25.879,0.000
1709299217.238,-32.227,-35.156,-25.391,-2.930,0.000
1709299217.242,-28.320,-32.227,-26.855,-1.465,0.000
1709299217.245,-39.062,-34.668,-23.926,-31.738,0.000
1709299217.249,-54.199,-39.062,-29.297,-43.457,0.000
1709299217.253,-60.547,-45.410,-36.621,-37.109,0.000
1709299217.257,-51.758,-38.086,-34.180,-26.855,0.000
1709299217.261,0.000,-31.250,-37.598,-25.391,0.000
1709299217.265,0.000,-35.645,-31.738,-40.039,0.000
1709299217.269,0.000,-44.922,-22.461,-52.246,0.000
1709299217.273,0.000,-52.246,-20.020,-41.992,0.000
1709299217.277,0.000,-45.410,-22.461,-39.062,0.000
1709299217.280,0.000,-41.992,-27.344,-38.574,0.000
1709299217.284,0.000,-44.434,-25.879,-34.180,0.000
1709299217.288,0.000,-41.992,-24.414,-51.270,0.000
1709299217.292,0.000,-37.598,-25.879,-55.176,0.000
1709299217.296,0.000,-36.133,-32.715,-38.086,0.000
1709299217.300,0.000,-32.227,-31.250,-31.250,0.000
1709299217.304,0.000,-26.855,-33.691,-49.316,0.000
1709299217.308,-62.500,-32.715,-48.828,-62.500,0.000
1709299217.312,-52.734,-31.738,-46.387,-51.758,0.000
1709299217.316,-38.086,-32.227,-41.016,-44.922,0.000
1709299217.320,-32.715,-34.668,-38.086,-44.922,0.000
1709299217.324,-34.668,-29.785,-35.156,-49.805,0.000
1709299217.327,-42.480,-32.227,-38.574,-55.176,0.000
1709299217.331,-46.387,-36.621,-35.156,-58.594,0.000
1709299217.335,-41.016,-42.480,-34.668,-51.758,0.000
1709299217.339,-32.227,-47.852,-31.250,-38.574,0.000
1709299217.343,-39.551,-46.875,-34.180,-41.016,0.000
1709299217.347,-49.316,-37.598,-38.086,-47.363,0.000
1709299217.351,-49.316,-33.203,-32.715,-49.316,0.000
1709299217.355,-44.922,-39.062,-37.598,-43.457,0.000
1709299217.359,-39.551,-54.688,-49.316,-32.227,0.000
1709299217.363,-36.133,-58.594,-41.016,-35.156,0.000
1709299217.367,-41.016,-50.781,-39.551,-51.270,0.000
1709299217.371,-51.270,-47.363,-47.852,-52.734,0.000
1709299217.374,-47.852,-46.875,-39.062,-41.016,0.000
1709299217.378,-40.039,-43.945,-28.320,-31.738,0.000
1709299217.382,-39.551,-36.621,-29.297,-37.598,0.000
1709299217.386,-47.852,-40.527,-38.574,-41.016,0.000
1709299217.390,-62.012,-45.898,-37.109,-38.574,0.000
1709299217.394,-62.500,-43.457,-40.039,-43.457,0.000
1709299217.398,-49.805,-45.898,-43.945,-35.645,0.000
1709299217.402,-44.434,-44.434,-40.039,-29.785,0.000
1709299217.406,-41.016,-42.480,-40.527,-42.480,0.000
1709299217.410,-42.969,-41.504,-33.691,-49.316,0.000
1709299217.414,-42.480,-35.645,-29.297,-37.598,0.000
1709299217.417,-27.832,-37.109,-31.738,-23.438,0.000
1709299217.421,-20.508,-38.086,-29.785,-20.996,0.000
1709299217.425,-28.809,-34.180,-23.438,-33.203,0.000
1709299217.429,-45.898,-38.086,-22.949,-53.711,0.000
1709299217.433,-48.828,-44.434,-30.273,-43.945,0.000
1709299217.437,-32.715,-43.457,-35.645,-29.297,0.000
1709299217.441,-27.832,-41.016,-33.203,-37.109,0.000
1709299217.445,-36.621,-49.805,-35.156,-43.457,0.000
1709299217.449,-46.387,-49.805,-34.668,-50.293,0.000
1709299217.453,-51.758,-40.039,-23.438,-48.340,0.000
1709299217.457,-43.945,-35.156,-29.297,-37.598,0.000
1709299217.460,-32.227,-33.691,-35.156,-30.762,0.000
1709299217.464,-33.691,-34.180,-28.320,-35.156,0.000
1709299217.468,-47.852,-28.809,-28.320,-44.434,0.000
1709299217.472,-56.152,-20.020,-30.273,-47.852,0.000
1709299217.476,-43.457,-21.484,-31.738,-31.738,0.000
1709299217.480,-25.879,-30.273,-33.691,-11.719,0.000
1709299217.484,-24.414,-27.344,-36.133,-26.855,0.000
1709299217.488,-41.504,-27.344,-39.551,-45.410,0.000
1709299217.492,-44.434,-32.227,-39.062,-41.992,0.000
1709299217.496,-32.227,-35.156,-37.109,-32.227,0.000
1709299217.499,-30.273,-41.992,-39.551,-34.180,0.000
1709299217.503,-37.598,-39.062,-36.133,-36.621,0.000
1709299217.507,-57.617,-35.645,-38.086,-49.316,0.000
1709299217.511,-62.500,-38.574,-42.480,-53.711,0.000
1709299217.515,-50.293,-37.109,-37.109,-42.969,0.000
1709299217.519,-42.480,-32.227,-39.062,-46.875,0.000
1709299217.523,-46.387,-33.203,-43.457,-43.457,0.000
1709299217.527,-55.664,-28.809,-32.715,-37.109,0.000
1709299217.531,-59.570,-30.762,-34.668,-42.969,0.000
1709299217.535,-59.082,-37.598,-36.133,-33.691,0.000
1709299217.539,-50.293,-32.227,-30.273,-22.461,0.000
1709299217.542,-39.551,-33.691,-27.832,-20.508,0.000
1709299217.546,-48.828,-35.645,-31.738,-34.180,0.000
1709299217.550,-56.641,-39.551,-31.738,-44.922,0.000
1709299217.554,-50.781,-44.922,-27.832,-37.598,0.000
1709299217.558,-39.062,-35.645,-29.297,-22.949,0.000
1709299217.562,-30.762,-28.320,-32.715,-22.949,0.000
1709299217.566,-32.227,-33.691,-39.062,-39.551,0.000
1709299217.570,-43.945,-36.133,-38.086,-47.852,0.000
1709299217.574,-42.480,-27.344,-34.180,-44.434,0.000
1709299217.578,-21.973,-24.414,-34.668,-43.945,0.000
1709299217.581,-13.672,-30.273,-35.156,-41.016,0.000
1709299217.585,-21.484,-39.062,-35.645,-42.969,0.000
1709299217.589,-33.691,-48.340,-38.086,-55.176,0.000
1709299217.593,-34.668,-47.852,-36.621,-52.734,0.000
1709299217.597,-24.902,-44.922,-39.062,-37.109,0.000
1709299217.601,-22.461,-39.551,-39.062,-29.297,0.000
1709299217.605,-32.715,-26.367,-36.621,-36.133,0.000
1709299217.609,-43.945,-25.391,-35.156,-50.781,0.000
1709299217.613,-45.410,-35.645,-31.250,-41.992,0.000
1709299217.616,-38.086,-29.297,-21.973,-20.508,0.000
1709299217.620,-31.738,-24.414,-22.949,-22.461,0.000
1709299217.624,-33.691,-33.691,-36.621,-32.715,0.000
1709299217.628,-38.574,-34.180,-35.156,-46.875,0.000
1709299217.632,-44.434,-29.785,-28.809,-53.223,0.000
1709299217.636,-37.598,-38.574,-34.668,-41.016,0.000
1709299217.640,-32.227,-41.504,-41.992,-27.832,0.000
1709299217.644,-37.598,-36.133,-38.574,-39.551,0.000
1709299217.648,-38.574,-36.133,-31.738,-52.246,0.000
1709299217.652,-38.086,-37.109,-33.203,-44.434,0.000
1709299217.656,-36.621,-37.109,-31.250,-29.785,0.000
1709299217.660,-32.227,-37.598,-27.832,-20.996,0.000
1709299217.663,-30.273,-28.320,-33.203,-28.809,0.000
1709299217.667,-43.457,-38.574,-34.668,-48.828,0.000
1709299217.671,-47.363,-50.293,-27.832,-51.270,0.000
1709299217.675,-41.016,-45.410,-30.273,-37.598,0.000
1709299217.679,-35.156,-44.922,-36.621,-31.250,0.000
1709299217.683,-34.668,-46.875,-35.645,-35.645,0.000
1709299217.687,-41.016,-46.387,-30.762,-45.410,0.000
1709299217.691,-43.945,-36.133,-26.855,-52.246,0.000
1709299217.695,-45.898,-31.250,-32.715,-51.270,0.000
1709299217.698,-35.645,-36.621,-32.227,-41.992,0.000
1709299217.702,-36.133,-40.527,-28.320,-39.551,0.000
1709299217.706,-45.410,-50.293,-30.762,-51.270,0.000
1709299217.710,-49.805,-55.176,-31.250,-57.617,0.000
1709299217.714,-48.828,-50.293,-30.273,-47.363,0.000
1709299217.718,-38.574,-46.875,-35.645,-27.832,0.000
1709299217.722,-42.969,-41.992,-41.992,-24.902,0.000
1709299217.726,-51.758,-33.691,-36.621,-34.668,0.000
1709299217.730,-57.129,-41.504,-29.297,-47.852,0.000
1709299217.734,-55.664,-48.340,-30.762,-44.922,0.000
1709299217.738,-34.180,-40.527,-26.367,-21.484,0.000
1709299217.741,-26.367,-35.645,-25.391,-20.020,0.000
1709299217.745,-41.016,-33.691,-36.621,-41.016,0.000
1709299217.749,-46.387,-38.086,-33.691,-46.387,0.000
1709299217.753,-40.039,-38.086,-32.715,-43.945,0.000
1709299217.757,-33.203,-38.574,-41.504,-31.738,0.000
1709299217.761,-30.273,-34.668,-41.504,-23.926,0.000
1709299217.765,-32.227,-29.785,-37.598,-30.273,0.000
1709299217.769,-41.992,-30.273,-40.527,-45.410,0.000
1709299217.773,-36.133,-26.855,-37.109,-41.504,0.000
1709299217.777,0.000,-31.738,-33.203,-24.902,0.000
1709299217.781,0.000,-37.598,-33.203,-25.879,0.000
1709299217.785,0.000,-35.645,-29.785,-33.691,0.000
1709299217.788,0.000,-41.992,-34.180,-39.062,0.000
1709299217.792,0.000,-41.992,-34.668,-41.504,0.000
1709299217.796,0.000,-33.691,-32.715,-32.715,0.000
1709299217.800,0.000,-34.668,-43.945,-31.250,0.000
1709299217.804,0.000,-39.551,-40.039,-45.898,0.000
1709299217.808,0.000,-41.016,-37.109,-47.852,0.000
1709299217.812,0.000,-29.297,-42.480,-39.551,0.000
1709299217.816,0.000,-17.090,-30.273,-33.691,0.000
1709299217.820,0.000,-22.949,-25.879,-18.555,0.000
1709299217.824,-22.461,-31.738,-29.785,-21.484,0.000
1709299217.827,-37.598,-32.227,-26.855,-41.016,0.000
1709299217.831,-48.340,-39.062,-27.344,-52.734,0.000
1709299217.835,-45.410,-44.434,-37.109,-44.922,0.000
1709299217.839,-41.992,-41.016,-40.527,-38.086,0.000
1709299217.843,-39.551,-39.062,-35.156,-44.434,0.000
1709299217.847,-46.875,-36.133,-36.621,-48.340,0.000
1709299217.851,-48.340,-32.715,-33.203,-40.527,0.000
1709299217.855,-38.574,-40.039,-30.762,-19.043,0.000
1709299217.859,-35.645,-37.598,-33.203,-22.949,0.000
1709299217.863,-29.297,-38.574,-28.320,-25.879,0.000
1709299217.867,-31.738,-41.016,-23.926,-25.879,0.000
1709299217.871,-43.945,-33.691,-31.738,0.000,0.000
1709299217.874,-38.574,-31.250,-35.156,0.000,0.000
1709299217.878,-27.344,-40.039,-36.133,0.000,0.000
1709299217.882,-31.738,-46.875,-42.480,0.000,0.000
1709299217.886,-37.598,-38.574,-37.598,0.000,0.000
1709299217.890,-37.598,-34.668,-31.250,0.000,0.000
1709299217.894,-33.203,-34.180,-29.785,0.000,0.000
1709299217.898,-28.809,-34.668,-37.598,0.000,0.000
1709299217.902,-38.086,-39.062,-43.945,0.000,0.000
1709299217.906,-44.434,-40.527,-41.504,0.000,0.000
1709299217.910,-49.805,-36.133,-41.016,0.000,0.000
1709299217.913,-54.199,-37.598,-43.945,0.000,0.000
1709299217.917,-43.945,-38.086,-41.504,-40.039,0.000
1709299217.921,-38.574,-31.250,-38.574,-34.180,0.000
1709299217.925,-54.688,-34.668,-39.551,-46.875,0.000
1709299217.929,-61.035,-38.086,-32.715,-57.617,0.000
1709299217.933,-59.570,-35.645,-30.762,-52.734,0.000
1709299217.937,-51.758,-43.945,-38.574,-45.410,0.000
1709299217.941,-42.480,-46.875,-36.621,-44.922,0.000
1709299217.945,-57.617,-41.504,-33.203,-43.945,0.000
1709299217.949,-74.219,-38.574,-37.109,-48.340,0.000
1709299217.952,-75.195,-41.992,-43.945,-57.129,0.000
1709299217.956,-64.453,-45.410,-40.039,-45.410,0.000
1709299217.960,-51.758,-41.992,-33.691,-33.691,0.000
1709299217.964,-50.781,-38.574,-35.645,-37.598,0.000
1709299217.968,-58.594,-44.434,-41.992,-52.734,0.000
1709299217.972,-55.176,-43.945,-42.480,-55.176,0.000
1709299217.976,-41.016,-37.109,-40.039,-32.227,0.000
1709299217.980,-28.809,-43.457,-38.574,-18.555,0.000
1709299217.984,-31.738,-51.758,-40.527,-20.020,0.000
1709299217.987,-43.457,-50.293,-36.621,-22.949,0.000
1709299217.991,-44.922,-40.527,-25.879,-22.461,0.000
1709299217.995,-36.621,-40.527,-25.391,-20.508,0.000
1709299217.999,-23.438,-46.387,-33.203,-12.695,0.000
1709299218.003,-21.484,-38.574,-33.203,-18.555,0.000
1709299218.007,-33.203,-35.645,-36.621,-35.156,0.000
1709299218.011,-38.086,-40.039,-35.156,-37.109,0.000
1709299218.015,-35.645,-38.574,-33.691,-32.227,0.000
1709299218.019,-25.879,-31.250,-36.133,-24.902,0.000
1709299218.023,-20.508,-31.738,-31.738,-23.926,0.000
1709299218.026,-38.574,-36.621,-32.715,-40.039,0.000
1709299218.030,-40.527,-32.227,-27.832,-45.410,0.000
1709299218.034,-26.855,-38.086,-25.391,-29.785,0.000
1709299218.038,-25.391,-44.434,-34.180,-20.020,0.000
1709299218.042,-26.367,-35.645,-37.109,-24.414,0.000
1709299218.046,-39.551,-32.715,-34.668,-40.527,0.000
1709299218.050,-48.828,-35.156,-35.156,-48.828,0.000
1709299218.054,-47.852,-32.715,-39.062,-52.246,0.000
1709299218.057,-41.016,-36.621,-33.203,-48.340,0.000
1709299218.061,-38.574,-39.062,-29.785,-41.504,0.000
1709299218.065,-48.340,-37.109,-31.738,-48.340,0.000
1709299218.069,-61.523,-37.598,-32.715,-64.453,0.000
1709299218.073,-62.988,-34.180,-32.715,-63.477,0.000
1709299218.077,-51.758,-36.621,-33.691,-41.016,0.000
1709299218.081,-43.945,-46.387,-34.180,-37.109,0.000
1709299218.085,-48.828,-52.246,-35.156,-42.969,0.000
1709299218.089,-54.688,-48.828,-31.250,-42.969,0.000
1709299218.093,-46.387,-37.598,-23.926,-31.738,0.000
1709299218.097,-38.086,-27.344,-27.344,-20.996,0.000
1709299218.100,-35.645,-29.297,-30.273,-20.996,0.000
1709299218.104,-35.645,-34.180,-32.227,-25.879,0.000
1709299218.108,-43.457,-35.156,-33.691,-33.691,0.000
1709299218.112,-48.340,-38.574,-34.668,-40.039,0.000
1709299218.116,-28.320,-39.551,-31.250,-32.715,0.000
1709299218.120,-15.137,-33.691,-26.367,-15.625,0.000
1709299218.124,-22.949,-31.738,-28.809,-16.602,0.000
1709299218.128,-35.156,-36.621,-27.344,-36.133,0.000
1709299218.132,-46.387,-38.086,-39.551,-49.805,0.000
1709299218.136,-33.691,-35.156,-44.922,-36.133,0.000
1709299218.140,-22.949,-34.180,-32.227,-21.973,0.000
1709299218.143,-39.551,-32.715,-33.203,-40.527,0.000
1709299218.147,-49.805,-32.715,-34.668,-49.316,0.000
1709299218.151,-49.316,-32.227,-29.297,-38.574,0.000
1709299218.155,-45.898,-30.762,-31.250,-29.297,0.000
1709299218.159,-38.574,-33.691,-34.180,-27.832,0.000
1709299218.163,-41.504,-44.434,-31.738,-31.250,0.000
1709299218.167,-53.711,-51.270,-27.344,-40.527,0.000
1709299218.171,-54.199,-45.898,-24.414,-38.086,0.000
1709299218.175,-44.922,-43.457,-34.180,-29.785,0.000
1709299218.179,-40.527,-49.805,-43.457,-29.297,0.000
1709299218.183,-41.016,-46.387,-32.715,-26.855,0.000
1709299218.187,-50.293,-38.086,-28.809,-37.109,0.000
1709299218.190,-56.641,-46.387,-31.250,-48.340,0.000
1709299218.194,-54.199,-52.246,-33.203,-46.875,0.000
1709299218.198,-45.898,-44.922,-30.273,-30.762,0.000
1709299218.202,-40.039,-40.527,-26.367,-21.484,0.000
1709299218.206,-40.039,-38.086,-27.344,-30.273,0.000
1709299218.210,-43.457,-39.062,-31.738,-44.922,0.000
1709299218.214,-41.992,-44.434,-37.598,-48.340,0.000
1709299218.218,-26.367,-50.781,-30.762,-31.250,0.000
1709299218.222,-22.461,-38.574,-31.738,-32.715,0.000
1709299218.226,-30.273,-36.621,-41.016,-44.922,0.000
1709299218.229,-37.598,-43.945,-34.180,-40.527,0.000
1709299218.233,-44.434,-40.527,-35.645,-45.410,0.000
1709299218.237,-37.598,-42.969,-43.945,-42.969,0.000
1709299218.241,-28.320,-33.691,-40.039,-36.621,0.000
1709299218.245,-38.086,-24.414,-35.645,-43.457,0.000
1709299218.249,-50.781,-30.273,-36.133,-57.129,0.000
1709299218.253,-54.688,-36.133,-35.645,-53.223,0.000
1709299218.257,-52.734,-42.969,-38.574,-37.109,0.000
1709299218.261,-41.016,-39.551,-35.156,-28.809,0.000
1709299218.265,-45.898,-38.574,-32.227,-45.410,0.000
1709299218.269,-58.105,-41.016,-40.527,-62.012,0.000
1709299218.272,-56.641,-39.062,-41.992,-47.363,0.000
1709299218.276,-44.922,-39.062,-37.109,-25.879,0.000
1709299218.280,-39.062,-42.969,-38.574,-34.180,0.000
1709299218.284,-50.293,-45.410,-31.250,-43.945,0.000
1709299218.288,-62.500,-42.480,-24.902,-46.875,0.000
1709299218.292,-66.895,-39.551,-24.414,-46.875,0.000
1709299218.296,-52.734,-34.668,-20.996,-27.344,0.000
1709299218.300,-34.180,-37.109,-19.043,-13.672,0.000
1709299218.304,-34.668,-38.574,-21.973,-21.484,0.000
1709299218.308,-47.363,-38.086,-28.320,-33.691,0.000
1709299218.311,-52.734,-44.922,-30.273,-38.086,0.000
1709299218.315,-42.480,-46.875,-28.809,-25.879,0.000
1709299218.319,-30.273,-41.992,-31.250,-4.883,0.000
1709299218.323,-33.203,-39.551,-35.645,-19.043,0.000
1709299218.327,-45.898,-34.668,-37.109,-46.875,0.000
1709299218.331,-51.758,-33.203,-37.109,-53.223,0.000
1709299218.335,-42.969,-32.227,-43.457,-44.922,0.000
1709299218.339,-31.250,-33.203,-42.969,-36.621,0.000
1709299218.343,-29.297,-41.504,-39.551,-39.551,0.000
1709299218.346,-35.645,-45.410,-38.086,-46.875,0.000
1709299218.350,-40.039,-40.039,-25.391,-49.805,0.000
1709299218.354,-40.527,-40.527,-30.273,-45.898,0.000
1709299218.358,-33.203,-48.828,-39.551,-35.156,0.000
1709299218.362,-30.762,-52.734,-35.156,-23.926,0.000
1709299218.366,-41.992,-37.109,-30.762,-31.738,0.000
1709299218.370,-50.781,-27.344,-33.691,-47.363,0.000
1709299218.374,-50.781,-39.062,-38.574,-45.898,0.000
1709299218.378,-41.992,-39.551,-34.180,-36.133,0.000
1709299218.382,-35.156,-36.621,-30.762,-25.879,0.000
1709299218.386,-46.387,-46.387,-33.691,-37.109,0.000
1709299218.390,-51.758,-44.434,-32.227,-42.480,0.000
1709299218.394,-50.781,-46.875,-31.250,-33.203,0.000
1709299218.397,-41.992,-43.945,-38.086,-27.344,0.000
1709299218.401,-32.227,-47.852,-40.039,-25.391,0.000
1709299218.405,-35.156,-54.688,-37.598,-34.668,0.000
1709299218.409,-44.434,-38.086,-36.133,-41.504,0.000
1709299218.413,-45.898,-35.645,-34.668,-35.645,0.000
1709299218.417,-37.109,-43.457,-32.715,-24.414,0.000
1709299218.421,-24.902,-39.062,-29.297,-14.160,0.000
1709299218.425,-29.785,-37.109,-32.715,-22.949,0.000
1709299218.429,-44.434,-41.992,-36.133,-37.109,0.000
1709299218.432,-39.551,-36.133,-30.762,-33.691,0.000
1709299218.436,-29.297,-31.250,-33.691,-20.996,0.000
1709299218.440,-20.996,-40.527,-35.156,-13.184,0.000
1709299218.444,-28.809,-46.875,-41.016,-26.367,0.000
1709299218.448,-40.527,-49.316,-35.645,-42.969,0.000
1709299218.452,-38.574,-51.758,-32.227,-43.945,0.000
1709299218.456,-32.227,-44.434,-41.992,-35.156,0.000
1709299218.460,-30.273,-36.621,-39.062,-28.320,0.000
1709299218.464,-30.762,-26.367,-37.598,-40.527,0.000
1709299218.468,-38.574,-24.902,-35.645,-43.945,0.000
1709299218.471,-45.410,-31.250,-30.273,-37.109,0.000
1709299218.475,-35.645,-30.273,-36.621,-31.738,0.000
1709299218.479,-29.785,-36.621,-39.062,-24.414,0.000
1709299218.483,-31.738,-42.969,-37.598,-35.156,0.000
1709299218.487,-37.109,-44.434,-42.480,-50.293,0.000
1709299218.491,-44.922,-48.828,-46.875,-55.664,0.000
1709299218.495,-44.434,-43.457,-40.527,-45.898,0.000
1709299218.499,-32.227,-37.109,-36.621,-30.762,0.000
1709299218.503,-34.668,-36.621,-45.410,-41.504,0.000
1709299218.507,-49.316,-26.367,-44.922,-62.500,0.000
1709299218.511,-45.898,-26.367,-35.645,-61.035,0.000
1709299218.515,-38.086,-32.715,-34.180,-42.480,0.000
1709299218.518,-34.180,-35.156,-42.480,-32.715,0.000
1709299218.522,-25.391,-39.062,-38.086,-36.133,0.000
1709299218.526,-28.809,-38.574,-36.133,-47.363,0.000
1709299218.530,-45.410,-40.039,-43.945,-55.176,0.000
1709299218.534,-46.875,-38.086,-43.457,-44.922,0.000
1709299218.538,-26.855,-35.645,-37.109,-21.484,0.000
1709299218.542,-22.461,-33.691,-30.273,-20.508,0.000
1709299218.546,-39.062,-24.902,-37.109,-45.898,0.000
1709299218.550,-39.062,-27.344,-33.691,-50.293,0.000
1709299218.554,-36.133,-32.715,-28.320,-40.039,0.000
1709299218.558,-28.320,-31.250,-36.621,-22.949,0.000
1709299218.561,-22.949,-32.715,-38.574,-17.578,0.000
1709299218.565,-31.738,-32.715,-38.086,-34.180,0.000
1709299218.569,-41.504,-37.598,-44.922,-54.688,0.000
1709299218.573,-40.039,-42.480,-49.805,-60.547,0.000
1709299218.577,-31.250,-41.992,-50.293,-43.457,0.000
1709299218.581,-27.344,-50.293,-49.805,-34.668,0.000
1709299218.585,-32.715,-55.664,-46.875,-41.992,0.000
1709299218.589,-45.410,-46.875,-45.898,-55.176,0.000
1709299218.593,-47.363,-33.203,-46.387,-60.059,0.000
1709299218.597,-40.527,-26.855,-45.898,-55.664,0.000
1709299218.601,-32.715,-29.297,-44.922,-45.410,0.000
1709299218.604,-30.273,-33.203,-42.969,-42.969,0.000
1709299218.608,-40.039,-31.250,-47.852,-59.082,0.000
1709299218.612,-43.945,-30.762,-48.340,-59.082,0.000
1709299218.616,-30.762,-41.016,-30.762,-33.203,0.000
1709299218.620,-29.785,-40.527,-28.320,-28.320,0.000
1709299218.624,-38.574,-31.738,-33.691,-38.086,0.000
1709299218.628,-47.363,-44.434,-32.715,-44.434,0.000
1709299218.632,-49.316,-47.852,-32.227,-42.969,0.000
1709299218.636,-40.527,-35.156,-29.785,-30.273,0.000
1709299218.640,-36.621,-31.738,-30.273,-20.508,0.000
1709299218.644,-36.133,-31.250,-28.809,-24.902,0.000
1709299218.647,-45.410,-36.133,-27.344,-34.668,0.000
1709299218.651,-57.617,-41.504,-27.344,-37.109,0.000
1709299218.655,-51.758,-37.109,-27.344,-30.762,0.000
1709299218.659,-42.969,-36.621,-30.762,-19.531,0.000
1709299218.663,-41.992,-37.598,-28.320,-23.438,0.000
1709299218.667,-46.387,-30.762,-27.832,-33.203,0.000
1709299218.671,-55.664,-43.945,-29.297,-39.551,0.000
1709299218.675,-52.734,-42.969,-25.879,-34.180,0.000
1709299218.679,-40.039,-31.250,-24.414,-20.020,0.000
1709299218.683,-38.574,-39.551,-32.715,-23.926,0.000
1709299218.686,-47.363,-38.574,-43.945,-32.715,0.000
1709299218.690,-52.246,-34.668,-40.527,-42.969,0.000
1709299218.694,-49.316,-39.062,-30.762,-38.086,0.000
1709299218.698,-32.227,-35.156,-30.273,-18.555,0.000
1709299218.702,-27.832,-34.668,-33.691,-20.508,0.000
1709299218.706,-38.574,-34.668,-33.203,-26.855,0.000
1709299218.710,-40.527,-32.227,-29.785,-28.809,0.000
1709299218.714,-37.109,-35.156,-30.762,-32.227,0.000
1709299218.718,-28.809,-34.180,-31.250,-22.949,0.000
1709299218.721,-18.555,-30.762,-33.203,-19.531,0.000
1709299218.725,-29.785,-38.574,-40.039,-36.133,0.000
1709299218.729,-42.969,-39.551,-39.062,-43.945,0.000
1709299218.733,-41.504,-31.738,-38.086,-42.480,0.000
1709299218.737,-29.785,-36.133,-40.039,-31.250,0.000
1709299218.741,-22.949,-38.086,-35.645,-25.391,0.000
1709299218.745,-29.297,-36.621,-35.156,-41.016,0.000
1709299218.749,-44.434,-44.922,-34.180,-55.176,0.000
1709299218.753,-43.457,-48.340,-31.250,-44.922,0.000
1709299218.757,-35.156,-35.645,-30.273,-26.855,0.000
1709299218.761,-39.062,-28.320,0.000,0.000,0.000
1709299218.765,-39.551,-27.832,0.000,0.000,0.000
1709299218.769,-47.363,-33.203,0.000,0.000,0.000
1709299218.772,-50.293,-41.992,0.000,0.000,0.000
1709299218.776,-35.645,-37.109,0.000,0.000,0.000
1709299218.780,-31.250,-35.156,0.000,0.000,0.000
1709299218.784,-37.109,-44.434,0.000,0.000,0.000
1709299218.788,-42.480,-49.805,0.000,0.000,0.000
1709299218.792,-47.363,-50.293,0.000,0.000,0.000
1709299218.796,-45.898,-45.898,0.000,0.000,0.000
1709299218.800,-39.062,-35.156,0.000,0.000,0.000
1709299218.804,-35.156,-34.180,0.000,0.000,0.000
1709299218.808,-43.945,-42.969,-36.621,-45.898,0.000
1709299218.812,-48.340,-40.527,-32.715,-47.363,0.000
1709299218.816,-40.039,-30.273,-28.320,-28.320,0.000
1709299218.820,-33.203,-34.180,-34.668,-21.973,0.000
1709299218.824,-31.250,-38.574,-34.180,-28.809,0.000
1709299218.828,-36.621,-43.457,-32.715,-36.621,0.000
1709299218.831,-47.363,-48.828,-33.203,-51.758,0.000
1709299218.835,-45.898,-40.527,-36.133,-52.246,0.000
1709299218.839,-31.250,-31.738,-38.574,-47.852,0.000
1709299218.843,-22.461,-37.598,-34.668,-37.109,0.000
1709299218.847,-36.133,-39.551,-34.180,-41.504,0.000
1709299218.851,-43.945,-24.414,-39.062,-54.199,0.000
1709299218.855,-35.156,-26.367,-38.086,-42.969,0.000
1709299218.859,-12.695,-36.133,-33.691,-22.949,0.000
1709299218.863,-6.348,-39.062,-35.645,-13.184,0.000
1709299218.867,-21.484,-41.016,-37.598,-26.855,0.000
1709299218.871,-35.156,-43.457,-39.062,-32.227,0.000
1709299218.875,-39.551,-45.898,-45.410,-27.344,0.000
1709299218.878,-32.227,-43.457,-44.434,-27.832,0.000
1709299218.882,-33.691,-41.016,-35.156,-32.715,0.000
1709299218.886,-42.480,-48.340,-32.227,-40.039,0.000
1709299218.890,-46.875,-34.180,-30.273,-44.922,0.000
1709299218.894,-47.363,-26.367,-28.320,-43.945,0.000
1709299218.898,-38.574,-30.273,-30.762,-33.691,0.000
1709299218.902,-32.715,-36.133,-29.785,-25.391,0.000
1709299218.906,-44.922,-42.969,-34.668,-31.738,0.000
1709299218.910,-62.012,-36.621,-39.551,-49.805,0.000
1709299218.914,-61.035,-41.016,-35.156,-50.781,0.000
1709299218.918,-45.898,-41.016,-34.668,-35.645,0.000
1709299218.921,-38.574,-38.086,-38.574,-35.156,0.000
1709299218.925,-41.992,-35.156,-33.691,-49.316,0.000
1709299218.929,-52.734,-41.016,-28.809,-61.035,0.000
1709299218.933,-58.594,-50.293,-37.598,-47.363,0.000
1709299218.937,-53.223,-33.203,-52.246,-31.738,0.000
1709299218.941,-38.086,-23.438,-46.875,-34.180,0.000
1709299218.945,-37.598,-25.879,-33.691,-36.621,0.000
1709299218.949,-49.805,-31.250,-38.086,-46.387,0.000
1709299218.953,-54.688,-39.062,-36.133,-51.270,0.000
1709299218.957,-38.574,-41.504,-35.645,-40.527,0.000
1709299218.961,-27.344,-40.527,-43.457,-30.762,0.000
1709299218.964,-27.832,-32.227,-38.574,-22.949,0.000
1709299218.968,-35.156,-27.344,-36.133,-37.109,0.000
1709299218.972,-41.016,-32.227,-35.156,-47.852,0.000
1709299218.976,-31.738,-41.504,-39.551,-35.645,0.000
1709299218.980,-20.020,-44.434,-42.480,-19.531,0.000
1709299218.984,-23.438,-38.086,-43.457,-24.902,0.000
1709299218.988,-32.715,-21.973,-40.039,-36.621,0.000
1709299218.992,-30.762,-20.508,-31.738,-31.250,0.000
1709299218.996,-32.227,-31.738,-33.691,-25.879,0.000
1709299219.000,-22.461,-36.133,-34.180,-15.137,0.000
1709299219.003,-19.043,-37.598,-32.227,-12.207,0.000
1709299219.007,-39.062,-39.551,-35.645,-23.926,0.000
1709299219.011,-42.480,-41.016,-38.086,-20.996,0.000
1709299219.015,-40.527,-41.992,-39.062,-18.066,0.000
1709299219.019,-33.691,-41.992,-35.645,-17.090,0.000
1709299219.023,-21.484,-38.086,-26.855,-6.348,0.000
1709299219.027,-33.691,-34.180,-32.715,-15.137,0.000
1709299219.031,-57.617,-34.180,-37.109,-42.969,0.000
1709299219.035,-54.199,-34.668,-36.133,-46.875,0.000
1709299219.039,-35.645,-29.297,-27.832,-25.391,0.000
1709299219.042,-35.645,-34.668,-32.227,-27.344,0.000
1709299219.046,-48.828,-46.387,-45.898,-51.758,0.000
1709299219.050,-56.152,-50.781,-48.828,-61.035,0.000
1709299219.054,-51.270,-38.574,-36.133,-50.781,0.000
1709299219.058,-41.992,-33.203,-28.320,-36.621,0.000
1709299219.062,-38.574,-40.527,-34.668,-37.109,0.000
1709299219.066,-38.574,-38.086,-30.762,-51.758,0.000
1709299219.070,-45.898,-45.410,-37.109,-52.734,0.000
1709299219.074,-43.457,-47.852,-34.668,-45.410,0.000
1709299219.078,-26.855,-34.180,-30.273,-39.551,0.000
1709299219.081,-21.484,-35.645,-39.551,-32.715,0.000
1709299219.085,-25.879,-41.504,-43.457,-40.039,0.000
1709299219.089,-36.621,-41.504,-43.457,-54.199,0.000
1709299219.093,-42.480,-43.457,-42.969,-46.875,0.000
1709299219.097,-30.762,-48.340,-39.062,-32.715,0.000
1709299219.101,-16.602,-46.387,-41.016,-30.273,0.000
1709299219.105,-22.461,-37.598,-47.852,-34.668,0.000
1709299219.109,-33.203,-40.527,-41.992,-42.969,0.000
1709299219.113,-28.809,-45.410,-37.109,-32.715,0.000
1709299219.117,-19.531,-44.434,-34.180,-13.184,0.000
1709299219.120,-15.625,-52.246,-36.621,-18.066,0.000
1709299219.124,-24.414,-54.199,-42.480,-35.156,0.000
1709299219.128,-43.457,-39.551,-40.039,-45.410,0.000
1709299219.132,-50.781,-38.086,-45.410,-44.434,0.000
1709299219.136,0.000,-45.410,-41.504,-35.156,0.000
1709299219.140,0.000,-42.969,-34.668,-21.973,0.000
1709299219.144,0.000,-43.945,-48.828,-23.926,0.000
1709299219.148,0.000,-50.781,-46.387,-32.227,0.000
1709299219.152,0.000,-45.410,-35.156,-38.086,0.000
1709299219.156,0.000,-35.645,-39.062,-32.715,0.000
1709299219.160,0.000,-33.691,-47.363,-12.207,0.000
1709299219.164,0.000,-41.016,-41.016,-16.113,0.000
1709299219.168,0.000,-40.527,-35.645,-37.109,0.000
1709299219.172,0.000,-36.621,-42.480,-53.223,0.000
1709299219.175,0.000,-37.598,-41.504,-47.852,0.000
1709299219.179,0.000,-39.551,-42.480,-30.273,0.000
1709299219.184,-30.762,-42.969,-29.297,-29.785,0.000
1709299219.188,-39.062,-42.480,-25.391,-39.551,0.000
1709299219.192,-46.875,-46.387,-32.715,-45.410,0.000
1709299219.195,-44.434,-47.852,-36.133,-42.969,0.000
1709299219.199,-40.527,-40.527,-40.527,-38.574,0.000
1709299219.203,-36.133,-44.922,-35.645,-31.738,0.000
1709299219.207,-49.805,-45.410,-36.621,-45.898,0.000
1709299219.211,-66.406,-39.062,-43.945,-69.336,0.000
1709299219.215,-62.988,-37.598,-39.062,-61.523,0.000
1709299219.219,-51.758,-37.598,-35.156,-44.434,0.000
1709299219.223,-41.016,-41.504,-38.086,-39.062,0.000
1709299219.227,-42.969,-42.480,-39.551,-52.246,0.000
1709299219.231,-46.387,-44.922,-35.156,-58.594,0.000
1709299219.235,-44.922,-42.480,-29.297,-48.340,0.000
1709299219.238,-37.598,-43.457,-30.762,-33.203,0.000
1709299219.242,-23.438,-50.781,-29.785,-23.438,0.000
1709299219.246,-26.367,-42.480,-29.297,-25.879,0.000
1709299219.250,-34.668,-35.156,-28.809,-31.250,0.000
1709299219.254,-39.551,-40.039,-30.762,-34.180,0.000
1709299219.258,-30.273,-29.297,-32.715,-23.926,0.000
1709299219.262,-12.695,-26.367,-38.086,-10.742,0.000
1709299219.266,-12.207,-31.250,-38.574,-14.160,0.000
1709299219.270,-26.367,-25.879,-28.320,-30.273,0.000
1709299219.274,-29.297,-29.297,-29.785,-36.133,0.000
