timestamps,TP9,AF7,AF8,TP10,Right AUX
1709214690.672,-30.762,-31.250,-26.855,-34.180,0.000
1709214690.676,-33.203,-33.691,-28.809,-29.785,0.000
1709214690.679,-30.273,-36.133,-30.273,-30.762,0.000
1709214690.683,-30.273,-39.551,-37.598,-31.250,0.000
1709214690.687,-26.367,-42.480,-41.504,-31.738,0.000
1709214690.691,-24.902,-44.922,-38.086,-33.203,0.000
1709214690.695,-31.250,-58.594,-39.062,-34.180,0.000
1709214690.699,-37.109,-58.105,-46.387,-38.086,0.000
1709214690.703,-40.039,-56.152,-47.852,-40.039,0.000
1709214690.707,-38.574,-41.016,-40.527,-37.598,0.000
1709214690.711,-39.551,-33.691,-43.457,-41.016,0.000
1709214690.715,-42.480,-39.062,-39.062,-38.574,0.000
1709214690.718,-40.527,-35.645,-39.551,-37.109,0.000
1709214690.722,-43.457,-48.340,-46.875,-43.945,0.000
1709214690.726,-44.922,-54.688,-41.016,-37.109,0.000
1709214690.730,-40.527,-45.410,-38.574,-42.480,0.000
1709214690.734,-49.316,-51.270,-43.457,-61.035,0.000
1709214690.738,-56.641,-50.781,-43.457,-61.523,0.000
1709214690.742,-53.711,-61.035,-38.086,-45.898,0.000
1709214690.746,-48.340,-57.129,-30.273,-37.109,0.000
1709214690.750,-49.805,-41.016,-30.762,-46.387,0.000
1709214690.754,-52.734,-50.781,-39.062,-54.199,0.000
1709214690.758,-53.223,-46.875,-41.504,-57.129,0.000
1709214690.761,-49.316,-43.457,-44.922,-47.852,0.000
1709214690.765,-46.875,-43.945,-48.828,-41.992,0.000
1709214690.769,-46.387,-46.387,-37.598,-45.898,0.000
1709214690.773,-43.945,-46.387,-34.180,-48.340,0.000
1709214690.777,-43.945,-47.363,-36.621,-40.527,0.000
1709214690.781,-45.410,-55.176,-38.086,-33.203,0.000
1709214690.785,-34.180,-59.082,-38.086,-25.879,0.000
1709214690.789,-29.785,-52.734,-33.691,-21.973,0.000
1709214690.793,-40.527,-38.086,-41.992,-35.156,0.000
1709214690.796,-40.039,-43.945,-43.457,-36.133,0.000
1709214690.800,-32.715,-42.969,-42.969,-22.461,0.000
1709214690.804,-19.043,-30.273,-41.504,-14.648,0.000
1709214690.808,-19.043,-37.598,-42.969,-24.902,0.000
1709214690.812,-15.625,-44.434,-37.598,-23.438,0.000
1709214690.816,-9.277,-45.410,-33.203,-24.902,0.000
1709214690.820,-18.555,-44.434,-41.504,-34.668,0.000
1709214690.824,-24.902,-42.480,-34.668,-33.691,0.000
1709214690.828,-27.832,-42.480,-40.527,-39.062,0.000
1709214690.832,-23.926,-46.387,-47.363,-39.062,0.000
1709214690.836,-23.926,-43.945,-39.551,-42.480,0.000
1709214690.839,-32.227,-45.898,-36.621,-44.922,0.000
1709214690.843,-27.832,-49.805,-35.156,-39.062,0.000
1709214690.847,-13.672,-36.621,-27.344,-28.320,0.000
1709214690.851,-21.973,-39.551,-31.738,-32.227,0.000
1709214690.855,-41.504,-48.828,-43.457,-45.898,0.000
1709214690.859,-42.969,-44.922,-37.598,-49.805,0.000
1709214690.863,-34.668,-43.457,-38.086,-50.293,0.000
1709214690.867,-34.668,-48.340,-38.086,-50.293,0.000
1709214690.871,-42.969,-51.270,-36.621,-54.688,0.000
1709214690.875,-52.246,-42.480,-41.016,-61.523,0.000
1709214690.879,-50.293,-46.875,-36.621,-63.477,0.000
1709214690.883,-51.758,-51.270,-32.715,-57.617,0.000
1709214690.886,-52.246,-45.898,-40.527,-53.223,0.000
1709214690.890,-44.922,-52.246,-32.715,-47.852,0.000
1709214690.894,-48.828,-59.082,-25.391,-43.945,0.000
1709214690.898,-48.828,-49.316,-32.227,-41.504,0.000
1709214690.902,-41.016,-36.621,-29.785,-38.574,0.000
1709214690.906,-37.109,-36.133,-32.715,-41.992,0.000
1709214690.910,-34.180,-37.598,-33.691,-40.039,0.000
1709214690.914,-40.527,-41.016,-27.832,-41.504,0.000
1709214690.918,-41.504,-46.387,-30.762,-41.992,0.000
1709214690.922,-35.645,-54.199,-35.645,-34.180,0.000
1709214690.925,-36.133,-57.129,-39.062,-33.691,0.000
1709214690.929,-36.133,-49.805,-38.086,-34.180,0.000
1709214690.933,-32.715,-47.852,-42.480,-36.621,0.000
1709214690.937,-30.762,-56.641,-48.340,-31.738,0.000
1709214690.941,-30.762,-47.363,-41.016,-24.414,0.000
1709214690.945,-27.832,-41.016,-41.016,-34.180,0.000
1709214690.949,-24.414,-50.781,-47.852,-37.109,0.000
1709214690.953,-39.551,-49.805,-45.898,-39.062,0.000
1709214690.957,-53.711,-46.875,-43.457,-41.016,0.000
1709214690.961,-47.363,-50.781,-46.875,-37.109,0.000
1709214690.965,-40.527,-45.898,-40.527,-31.250,0.000
1709214690.968,-43.945,-41.504,-38.086,-35.645,0.000
1709214690.972,-49.805,-53.711,-37.598,-33.691,0.000
1709214690.976,-45.898,-56.641,-34.668,-35.645,0.000
1709214690.980,-41.992,-51.270,-43.457,-38.574,0.000
1709214690.984,-47.363,-63.965,-43.457,-26.855,0.000
1709214690.988,-48.828,-62.012,-39.062,-36.621,0.000
1709214690.992,-51.758,-41.992,-48.340,-56.152,0.000
1709214690.996,-57.617,-42.969,-45.410,-51.758,0.000
1709214691.000,-57.129,-43.457,-36.133,-47.363,0.000
1709214691.004,-48.340,-43.945,-42.969,-43.945,0.000
1709214691.007,-43.457,-49.316,-41.504,-43.945,0.000
1709214691.011,-47.852,-43.457,-41.992,-41.504,0.000
1709214691.015,-44.434,-48.340,-40.527,-39.551,0.000
1709214691.019,-41.992,-62.012,-41.016,-42.969,0.000
1709214691.023,-37.109,-53.223,-37.598,-43.457,0.000
1709214691.027,-33.691,-48.828,-44.922,-40.527,0.000
1709214691.031,-33.203,-51.270,-44.434,-39.551,0.000
1709214691.035,-33.691,-43.457,-40.527,-54.688,0.000
1709214691.039,-30.273,-38.574,-49.316,-47.363,0.000
1709214691.043,-20.508,-37.109,-43.457,-31.250,0.000
1709214691.046,-17.090,-35.156,-41.992,-27.344,0.000
1709214691.050,-18.555,-33.203,-46.387,-30.273,0.000
1709214691.054,-27.344,-39.551,-48.828,-36.133,0.000
1709214691.058,-32.715,-47.852,-49.316,-30.762,0.000
1709214691.062,-27.832,-39.551,-43.457,-21.484,0.000
1709214691.066,-23.926,-28.320,-39.551,-22.949,0.000
1709214691.070,-28.320,-45.898,-48.828,-37.598,0.000
1709214691.074,-30.762,-51.270,-55.176,-47.363,0.000
1709214691.078,-39.062,-37.598,-42.969,-47.852,0.000
1709214691.082,-39.551,-34.180,-41.504,-47.852,0.000
1709214691.086,-33.691,-36.621,-44.434,-39.551,0.000
1709214691.089,-29.297,-40.527,-43.945,-38.574,0.000
1709214691.093,-31.738,-40.039,-41.016,-56.641,0.000
1709214691.097,-39.062,-40.527,-32.227,-51.270,0.000
1709214691.101,-34.668,-34.668,-31.250,-42.969,0.000
1709214691.105,-29.297,-29.297,-25.391,-52.246,0.000
1709214691.109,-37.598,-30.273,-28.320,-54.688,0.000
1709214691.113,-40.527,-35.156,-33.203,-46.875,0.000
1709214691.117,-38.574,-50.781,-31.250,-38.086,0.000
1709214691.121,-38.574,-49.316,-28.809,-29.297,0.000
1709214691.125,-35.645,-45.410,-31.738,-38.086,0.000
1709214691.128,-35.645,-45.898,-39.062,-45.898,0.000
1709214691.132,-36.621,-41.992,-39.062,-42.969,0.000
1709214691.136,-40.039,-42.969,-34.668,-44.922,0.000
1709214691.140,-39.551,-49.805,-34.668,-39.551,0.000
1709214691.144,-32.715,-40.039,-36.621,-33.691,0.000
1709214691.148,-42.969,-30.762,-37.109,-33.691,0.000
1709214691.152,-54.199,-38.086,-36.133,-35.156,0.000
1709214691.156,-41.504,-44.922,-36.621,-34.668,0.000
1709214691.160,-38.086,-43.457,-38.574,-28.320,0.000
1709214691.164,-41.016,-39.551,-40.039,-26.855,0.000
1709214691.167,-40.039,-39.062,-39.551,-35.645,0.000
1709214691.171,-37.109,-38.574,-34.180,-41.504,0.000
1709214691.175,-37.598,-43.457,-30.273,-40.039,0.000
1709214691.179,-46.875,-49.805,-37.598,-44.434,0.000
1709214691.183,-46.875,-56.641,-34.180,-48.828,0.000
1709214691.187,-41.504,-54.199,-28.320,-43.945,0.000
1709214691.191,-42.480,-41.992,-37.109,-49.805,0.000
1709214691.195,-50.781,-37.109,-39.551,-52.734,0.000
1709214691.199,-49.316,-38.574,-33.691,-42.480,0.000
1709214691.203,-44.434,-41.504,-30.762,-42.480,0.000
1709214691.207,-44.434,-54.199,-34.180,-51.758,0.000
1709214691.210,-40.527,-50.781,-34.180,-51.270,0.000
1709214691.214,-41.504,-39.551,-38.086,-51.758,0.000
1709214691.218,-41.016,-39.062,-38.574,-48.340,0.000
1709214691.222,-37.109,-44.434,-35.645,-34.180,0.000
1709214691.226,-37.109,-49.316,-48.340,-30.762,0.000
1709214691.230,-34.180,-54.199,-42.969,-39.062,0.000
1709214691.234,-33.691,-47.852,-31.738,-35.156,0.000
1709214691.238,-31.250,-31.250,-28.809,-22.461,0.000
1709214691.242,-34.180,-35.156,-30.762,-22.949,0.000
1709214691.246,-44.922,-40.527,-38.086,-34.180,0.000
1709214691.250,-40.527,-37.598,-36.621,-37.598,0.000
1709214691.253,-34.180,-41.016,-34.180,-38.086,0.000
1709214691.257,-35.645,-44.922,-40.039,-35.156,0.000
1709214691.261,-32.227,-42.969,-36.621,-28.320,0.000
1709214691.265,-33.203,-41.016,-34.668,-23.926,0.000
1709214691.269,-35.645,-48.340,-40.039,-25.879,0.000
1709214691.273,-30.762,-44.434,-33.691,-28.809,0.000
1709214691.277,-28.809,-38.574,-30.762,-29.297,0.000
1709214691.281,-25.391,-40.039,-38.086,-28.320,0.000
1709214691.285,-23.926,-48.340,-43.945,-33.203,0.000
1709214691.289,-28.809,-49.316,-47.852,-50.293,0.000
1709214691.293,-32.715,-46.875,-56.152,-52.734,0.000
1709214691.296,-37.109,-44.922,-50.781,-43.457,0.000
1709214691.300,-44.434,-41.504,-34.180,-39.551,0.000
1709214691.304,-41.016,-43.945,-34.668,-35.156,0.000
1709214691.308,-42.480,-44.922,-40.527,-40.527,0.000
1709214691.312,-42.480,-51.758,-41.504,-40.527,0.000
1709214691.316,-39.551,-52.734,-47.363,-36.621,0.000
1709214691.320,-32.227,-46.387,-46.875,-37.109,0.000
1709214691.324,-22.461,-49.805,-40.039,-34.668,0.000
1709214691.328,-25.391,-50.781,-35.645,-37.109,0.000
1709214691.332,-32.227,-51.270,-40.527,-41.992,0.000
1709214691.336,-38.574,-47.852,-45.898,-38.574,0.000
1709214691.339,-40.527,-34.180,-35.156,-38.574,0.000
1709214691.343,-40.527,-37.598,-30.762,-49.316,0.000
1709214691.347,-35.156,-55.664,-38.574,-49.805,0.000
1709214691.351,-42.969,-58.105,-41.016,-48.828,0.000
1709214691.355,-51.270,-49.805,-43.457,-47.363,0.000
1709214691.359,-46.875,-49.805,-51.758,-34.180,0.000
1709214691.363,-43.945,-54.199,-41.504,-42.969,0.000
1709214691.367,-44.434,-46.387,-25.879,-44.922,0.000
1709214691.371,-46.387,-45.898,-30.762,-39.062,0.000
1709214691.375,-41.016,-47.363,-35.156,-37.598,0.000
1709214691.379,-34.668,-48.340,-29.297,-30.762,0.000
1709214691.382,-36.621,-49.805,-33.203,-31.250,0.000
1709214691.386,-46.875,-50.781,-43.457,-37.598,0.000
1709214691.390,-56.152,-55.176,-45.410,-50.781,0.000
1709214691.394,-58.105,-53.711,-41.016,-49.805,0.000
1709214691.398,-58.105,-48.828,-38.574,-41.504,0.000
1709214691.402,-53.711,-44.922,-36.133,-28.320,0.000
1709214691.406,-46.875,-44.922,-35.645,-29.785,0.000
1709214691.410,-41.504,-41.992,-40.527,-47.363,0.000
1709214691.414,-46.875,-48.340,-43.457,-44.922,0.000
1709214691.418,-48.340,-49.805,-37.109,-41.992,0.000
1709214691.421,-44.434,-40.527,-32.715,-41.992,0.000
1709214691.425,-43.945,-47.852,-48.340,-43.457,0.000
1709214691.429,-45.898,-55.664,-50.781,-55.664,0.000
1709214691.433,-48.828,-45.898,-36.621,-60.547,0.000
1709214691.437,-41.504,-41.992,-33.203,-54.199,0.000
1709214691.441,-35.645,-42.480,-34.180,-44.434,0.000
1709214691.445,-41.992,-47.363,-32.715,-40.039,0.000
1709214691.449,-39.551,-45.410,-31.738,-40.527,0.000
1709214691.453,-29.785,-37.598,-31.738,-45.898,0.000
1709214691.457,-36.621,-42.480,-33.691,-45.898,0.000
1709214691.460,-43.457,-40.039,-30.273,-39.551,0.000
1709214691.464,-36.133,-41.504,-33.203,-38.086,0.000
1709214691.468,-33.691,-55.664,-37.598,-42.969,0.000
1709214691.472,-39.551,-53.223,-32.715,-40.527,0.000
1709214691.476,-49.316,-43.457,-34.668,-39.551,0.000
1709214691.480,-53.223,-43.457,-41.016,-41.992,0.000
1709214691.484,-44.434,-43.457,-41.992,-34.180,0.000
1709214691.488,-36.621,-53.223,-31.738,-33.203,0.000
1709214691.492,-38.086,-53.223,-27.344,-27.344,0.000
1709214691.496,-41.504,-45.410,-39.062,-19.531,0.000
1709214691.499,-40.039,-43.457,-48.828,-29.297,0.000
1709214691.503,-40.039,-53.711,-40.039,-31.250,0.000
1709214691.507,-37.598,-64.453,-27.832,-27.832,0.000
1709214691.511,-32.227,-52.734,-28.809,-32.227,0.000
1709214691.515,-31.738,-30.762,-28.809,-28.320,0.000
1709214691.519,-32.715,-33.203,-33.203,-22.949,0.000
1709214691.523,-26.855,-46.387,-34.180,-25.879,0.000
1709214691.527,-25.391,-44.922,-26.367,-23.926,0.000
1709214691.531,-33.691,-48.828,-26.855,-36.621,0.000
1709214691.535,-33.203,-58.105,-34.668,-42.480,0.000
1709214691.538,-34.668,-58.105,-39.551,-26.855,0.000
1709214691.542,-37.598,-54.688,-40.039,-25.391,0.000
1709214691.546,-25.391,-58.105,-40.039,-34.180,0.000
1709214691.550,-24.414,-53.223,-36.621,-41.504,0.000
1709214691.554,-34.180,-48.828,-37.109,-41.016,0.000
1709214691.558,-30.273,-42.969,-44.922,-36.621,0.000
1709214691.562,-25.391,-38.574,-47.852,-33.203,0.000
1709214691.566,-21.484,-42.480,-32.227,-25.879,0.000
1709214691.570,-19.043,-46.875,-26.367,-30.273,0.000
1709214691.573,-28.320,-58.594,-37.598,-39.062,0.000
1709214691.577,-37.598,-59.082,-37.598,-36.621,0.000
1709214691.581,-34.180,-53.711,-35.156,-32.227,0.000
1709214691.585,-28.809,-45.898,-29.785,-27.832,0.000
1709214691.589,-31.250,-40.527,-34.180,-35.156,0.000
1709214691.593,-32.715,-55.664,-40.039,-33.203,0.000
1709214691.597,-33.691,-55.176,-37.109,-25.879,0.000
1709214691.601,-32.227,-45.898,-41.016,-29.297,0.000
1709214691.605,-23.926,-44.922,-44.922,-30.273,0.000
1709214691.609,-20.508,-35.156,-44.922,-28.809,0.000
1709214691.613,-31.738,-32.715,-41.016,-35.645,0.000
1709214691.617,-34.668,-41.504,-33.203,-39.551,0.000
1709214691.620,-24.902,-47.852,-33.203,-34.668,0.000
1709214691.624,-27.344,-42.969,-38.086,-39.551,0.000
1709214691.628,-33.691,-45.410,-41.504,-44.434,0.000
1709214691.632,-34.668,-44.434,-48.828,-46.875,0.000
1709214691.636,-36.133,-38.086,-51.758,-47.852,0.000
1709214691.640,-40.039,-48.828,-45.410,-34.180,0.000
1709214691.644,-27.832,-45.410,-38.086,-20.020,0.000
1709214691.648,-21.973,-47.363,-37.109,-28.809,0.000
1709214691.652,-31.250,-57.129,-38.086,-38.086,0.000
1709214691.656,-34.668,-49.316,-38.574,-37.109,0.000
1709214691.660,-37.109,-46.875,-40.039,-30.762,0.000
1709214691.663,-37.598,-41.992,-46.387,-19.531,0.000
1709214691.667,-27.832,-48.340,-43.945,-16.602,0.000
1709214691.671,-30.273,-57.617,-43.945,-29.785,0.000
1709214691.675,-39.551,-43.945,-55.664,-35.645,0.000
1709214691.679,-44.434,-46.387,-55.176,-33.203,0.000
1709214691.683,-42.969,-52.246,-43.457,-36.621,0.000
1709214691.687,-42.480,-52.246,-45.410,-39.551,0.000
1709214691.691,-47.852,-56.641,-53.711,-48.340,0.000
1709214691.695,-45.898,-45.898,-46.387,-52.246,0.000
1709214691.699,-49.805,-39.062,-42.969,-50.781,0.000
1709214691.702,-44.434,-37.109,-41.992,-52.246,0.000
1709214691.706,-27.832,-40.039,-41.016,-45.410,0.000
1709214691.710,-22.949,-45.898,-41.992,-40.039,0.000
1709214691.714,-35.156,-36.133,-38.574,-49.805,0.000
1709214691.718,-40.039,-30.762,-36.133,-53.223,0.000
1709214691.722,-36.621,-41.016,-37.109,-36.621,0.000
1709214691.726,-34.180,-46.387,-38.086,-30.762,0.000
1709214691.730,-42.969,-51.270,-45.898,-42.969,0.000
1709214691.734,-48.340,-54.688,-46.875,-36.621,0.000
1709214691.738,-49.805,-51.758,-47.363,-37.109,0.000
1709214691.742,-43.457,-45.410,-47.363,-40.039,0.000
1709214691.745,-40.527,-37.109,-44.922,-43.457,0.000
1709214691.749,-44.434,-42.969,-49.805,-52.734,0.000
1709214691.753,-44.434,-47.363,-43.945,-52.734,0.000
1709214691.757,-50.781,-53.711,-44.434,-50.781,0.000
1709214691.761,-56.152,-54.688,-44.922,-50.293,0.000
1709214691.765,-51.758,-45.410,-34.668,-46.387,0.000
1709214691.769,-47.363,-55.176,-34.668,-39.551,0.000
1709214691.773,-55.176,-60.547,-38.574,-56.641,0.000
1709214691.777,-61.523,-54.199,-41.504,-58.594,0.000
1709214691.781,-52.734,-55.176,-41.016,-39.062,0.000
1709214691.784,-47.363,-54.688,-41.016,-44.922,0.000
1709214691.788,-39.551,-48.340,-38.086,-39.551,0.000
1709214691.792,-38.086,-46.387,-42.969,-40.527,0.000
1709214691.796,-36.133,-45.898,-43.457,-41.992,0.000
1709214691.800,-25.879,-43.945,-32.715,-26.855,0.000
1709214691.804,-31.250,-39.062,-34.180,-25.391,0.000
1709214691.808,-31.250,-38.086,-36.133,-30.273,0.000
1709214691.812,-25.879,-45.898,-29.785,-24.414,0.000
1709214691.816,-27.344,-43.945,-33.691,-22.461,0.000
1709214691.820,-22.461,-37.598,-42.969,-21.484,0.000
1709214691.823,-14.648,-46.875,-46.387,-11.230,0.000
1709214691.827,-13.184,-61.523,-41.504,-25.391,0.000
1709214691.831,-19.043,-50.293,-34.668,-33.691,0.000
1709214691.835,-29.785,-38.086,-42.480,-31.738,0.000
1709214691.839,-29.297,-38.574,-38.574,-25.391,0.000
1709214691.843,-23.926,-36.133,-33.691,-14.648,0.000
1709214691.847,-25.391,-41.016,-35.156,-15.625,0.000
1709214691.851,-27.344,-52.734,-32.227,-27.832,0.000
1709214691.855,-36.621,-53.711,-38.086,-34.668,0.000
1709214691.859,-44.922,-47.363,-39.062,-30.273,0.000
1709214691.862,-43.945,-57.617,-39.062,-29.297,0.000
1709214691.866,-41.504,-61.523,-49.805,-26.855,0.000
1709214691.870,-44.434,-47.852,-51.758,-29.785,0.000
1709214691.874,-44.434,-34.668,-40.527,-37.598,0.000
1709214691.878,-38.086,-35.156,-42.480,-35.645,0.000
1709214691.882,-38.086,-52.246,-41.504,-40.527,0.000
1709214691.886,-39.062,-55.664,-36.621,-44.434,0.000
1709214691.890,-42.480,-45.898,-41.992,-43.945,0.000
1709214691.894,-44.922,-49.805,-44.922,-41.016,0.000
1709214691.898,-41.504,-63.965,-40.039,-34.180,0.000
1709214691.901,-45.898,-58.594,-34.180,-26.855,0.000
1709214691.905,-45.410,-50.293,-39.551,-35.645,0.000
1709214691.909,-39.062,-47.363,-48.828,-45.898,0.000
1709214691.913,-45.410,-40.039,-52.246,-43.945,0.000
1709214691.917,-41.016,-35.645,-51.758,-48.828,0.000
1709214691.921,-22.461,-36.621,-45.898,-43.457,0.000
1709214691.925,-19.531,-41.992,-46.875,-35.156,0.000
1709214691.929,-25.391,-42.480,-50.293,-36.133,0.000
1709214691.933,-25.391,-39.062,-48.340,-31.250,0.000
1709214691.936,-23.438,-48.340,-47.363,-21.484,0.000
1709214691.940,-21.484,-46.387,-50.781,-21.973,0.000
1709214691.944,-15.625,-39.062,-58.105,-28.320,0.000
1709214691.948,-14.648,-37.109,-46.875,-27.344,0.000
1709214691.952,-19.531,-27.832,-37.598,-24.414,0.000
1709214691.956,-11.230,-20.508,-34.180,-23.438,0.000
1709214691.960,-14.648,-34.668,-39.551,-35.645,0.000
1709214691.964,-22.461,-36.621,-41.016,-44.434,0.000
1709214691.968,-21.973,-28.809,-32.227,-39.551,0.000
1709214691.972,-29.297,-41.016,-36.621,-30.762,0.000
1709214691.976,-26.367,-51.758,-45.410,-25.391,0.000
1709214691.979,-24.414,-46.875,-43.457,-30.762,0.000
1709214691.983,-27.344,-43.457,-43.945,-29.297,0.000
1709214691.987,-27.832,-45.410,-45.898,-26.367,0.000
1709214691.991,-29.785,-43.457,-44.922,-24.902,0.000
1709214691.995,-31.738,-43.457,-41.992,-22.949,0.000
1709214691.999,-31.738,-31.738,-40.039,-28.320,0.000
1709214692.003,-24.414,-29.297,-39.062,-20.996,0.000
1709214692.007,-19.531,-35.156,-41.992,-20.508,0.000
1709214692.011,-27.832,-37.598,-46.875,-36.133,0.000
1709214692.015,-35.645,-48.828,-41.504,-39.062,0.000
1709214692.019,-45.410,-56.152,-39.551,-34.668,0.000
1709214692.022,-50.293,-45.898,-40.039,-44.434,0.000
1709214692.026,-51.270,-45.410,-43.457,-62.012,0.000
1709214692.030,-49.316,-41.992,-42.480,-63.965,0.000
1709214692.034,-45.410,-26.367,-39.551,-56.152,0.000
1709214692.038,-47.852,-30.762,-46.387,-53.711,0.000
1709214692.042,-46.387,-41.016,-36.133,-46.387,0.000
1709214692.046,-43.945,-38.086,-34.668,-46.387,0.000
1709214692.050,-38.086,-38.574,-39.062,-47.363,0.000
1709214692.054,-34.668,-43.945,-37.598,-45.410,0.000
1709214692.058,-40.527,-45.410,-42.480,-50.293,0.000
1709214692.062,-39.062,-45.898,-44.434,-32.227,0.000
1709214692.065,-28.809,-46.875,-38.574,-12.695,0.000
1709214692.069,-20.508,-41.504,-38.574,-23.438,0.000
1709214692.073,-26.855,-29.297,-46.875,-33.691,0.000
1709214692.077,-26.855,-27.344,-37.598,-24.902,0.000
1709214692.081,-20.996,-33.203,-34.668,-17.090,0.000
1709214692.085,-16.113,-37.598,-48.340,-20.020,0.000
1709214692.089,-19.043,-37.109,-49.805,-24.902,0.000
1709214692.093,-27.344,-31.738,-35.156,-23.438,0.000
1709214692.097,-39.551,-35.645,-37.598,-29.297,0.000
1709214692.101,-41.504,-39.551,-44.434,-27.344,0.000
1709214692.104,-33.691,-39.551,-40.039,-21.484,0.000
1709214692.108,-25.879,-39.062,-38.086,-21.484,0.000
1709214692.112,-26.367,-35.645,-38.574,-29.297,0.000
1709214692.116,-29.785,-43.457,-43.457,-39.062,0.000
1709214692.120,-37.109,-38.086,-51.758,-46.875,0.000
1709214692.124,-44.922,-36.133,-50.293,-47.363,0.000
1709214692.128,-34.668,-43.457,-39.551,-51.758,0.000
1709214692.132,-34.668,-48.340,-35.156,-54.199,0.000
1709214692.136,-43.457,-57.617,-26.855,-42.480,0.000
1709214692.140,-42.969,-53.711,-26.367,-37.598,0.000
1709214692.144,-43.945,-53.223,-33.203,-47.363,0.000
1709214692.147,-53.711,-59.570,-40.039,-63.477,0.000
1709214692.151,-68.359,-59.570,-44.434,-59.570,0.000
1709214692.155,-70.312,-48.340,-43.945,-44.922,0.000
1709214692.159,-65.918,-40.527,-49.316,-44.922,0.000
1709214692.163,-60.547,-43.457,-41.016,-48.340,0.000
1709214692.167,-56.152,-45.410,-41.016,-47.852,0.000
1709214692.171,-57.129,-53.711,-55.176,-53.223,0.000
1709214692.175,-55.664,-67.871,-49.316,-55.176,0.000
1709214692.179,-46.875,-61.523,-47.852,-45.898,0.000
1709214692.183,-40.527,-39.062,-58.105,-50.293,0.000
1709214692.186,-40.527,-38.574,-63.965,-55.176,0.000
1709214692.190,-40.039,-44.922,-66.895,-58.594,0.000
1709214692.194,-36.133,-37.598,-71.777,-58.105,0.000
1709214692.198,-32.227,-41.016,-61.523,-38.086,0.000
1709214692.202,-26.367,-39.551,-47.363,-33.203,0.000
1709214692.206,-25.879,-29.785,-52.246,-41.016,0.000
1709214692.210,-32.715,-35.156,-55.176,-48.828,0.000
1709214692.214,-36.621,-41.504,-55.176,-51.758,0.000
1709214692.218,-32.715,-44.434,-49.805,-50.293,0.000
1709214692.222,-33.203,-49.805,-50.293,-46.875,0.000
1709214692.225,-31.738,-48.340,-54.199,-47.852,0.000
1709214692.229,-30.273,-37.109,-48.340,-56.152,0.000
1709214692.233,-43.457,-34.668,-47.363,-56.152,0.000
1709214692.237,-54.688,-49.805,-42.480,-56.641,0.000
1709214692.241,-56.152,-47.363,-38.086,-52.246,0.000
1709214692.245,-49.316,-43.945,-31.250,-44.922,0.000
1709214692.249,-47.852,-53.223,-34.180,-56.152,0.000
1709214692.253,-53.223,-53.223,-41.016,-58.105,0.000
1709214692.257,-47.852,-65.430,-39.551,-51.758,0.000
1709214692.261,-44.922,-74.707,-35.645,-47.852,0.000
1709214692.264,-46.387,-62.500,-34.180,-41.992,0.000
1709214692.268,-47.363,-53.711,-33.203,-47.363,0.000
1709214692.272,-48.828,-47.852,-30.762,-49.805,0.000
1709214692.276,-50.781,-44.434,-39.551,-48.828,0.000
1709214692.280,-47.852,-56.152,-36.621,-45.898,0.000
1709214692.284,-40.527,-65.430,-34.180,-43.945,0.000
1709214692.288,-37.598,-61.035,-42.969,-46.875,0.000
1709214692.292,-35.156,-50.293,-43.945,-46.387,0.000
1709214692.296,-37.598,-41.016,-42.480,-54.199,0.000
1709214692.300,-42.480,-50.781,-41.992,-62.988,0.000
1709214692.303,-37.109,-58.105,-40.527,-63.477,0.000
1709214692.307,-28.320,-59.570,-35.156,-67.871,0.000
1709214692.311,-34.668,-52.246,-41.016,-75.684,0.000
1709214692.315,-39.062,-33.203,-35.645,-70.312,0.000
1709214692.319,-38.574,-38.086,-31.738,-66.406,0.000
1709214692.323,-33.691,-46.875,-36.621,-69.824,0.000
1709214692.327,-31.738,-45.898,-29.785,-66.406,0.000
1709214692.331,-42.480,-53.223,-30.273,-62.500,0.000
1709214692.335,-46.875,-47.852,-32.715,-70.801,0.000
1709214692.339,-41.016,-41.992,-35.645,-71.289,0.000
1709214692.342,-36.133,-41.992,-37.598,-65.918,0.000
1709214692.346,-33.203,-41.992,-33.691,-61.035,0.000
1709214692.350,-28.809,-45.898,-35.645,-54.199,0.000
1709214692.354,-28.809,-45.898,-35.156,-58.105,0.000
1709214692.358,-22.949,-41.016,-32.227,-53.223,0.000
1709214692.362,-18.555,-36.621,-34.668,-47.852,0.000
1709214692.366,-29.785,-38.086,-37.598,-53.223,0.000
1709214692.370,-30.273,-42.969,-33.691,-48.828,0.000
1709214692.374,-26.367,-48.340,-26.855,-40.527,0.000
1709214692.378,-29.297,-52.734,-23.438,-34.180,0.000
1709214692.382,-33.203,-60.059,-23.926,-37.598,0.000
1709214692.385,-35.156,-55.664,-26.367,-43.945,0.000
1709214692.389,-39.062,-40.527,-31.738,-40.039,0.000
1709214692.393,-46.387,-38.574,-34.180,-40.039,0.000
1709214692.397,-47.852,-47.363,-26.855,-44.434,0.000
1709214692.401,-41.992,-44.434,-12.695,-36.133,0.000
1709214692.405,-46.875,-47.852,-19.043,-34.180,0.000
1709214692.409,-55.664,-60.547,-28.809,-38.086,0.000
1709214692.413,-58.105,-64.941,-27.832,-35.156,0.000
1709214692.417,-54.199,-57.617,-23.926,-32.227,0.000
1709214692.421,-47.363,-58.105,-23.438,-28.320,0.000
1709214692.425,-51.270,-52.246,-23.926,-34.180,0.000
1709214692.428,-53.711,-39.551,-23.438,-43.945,0.000
1709214692.432,-56.641,-42.480,-31.738,-43.945,0.000
1709214692.436,-53.711,-48.340,-24.902,-35.645,0.000
1709214692.440,-49.805,-55.176,-17.090,-33.691,0.000
1709214692.444,-52.246,-47.852,-32.227,-43.457,0.000
1709214692.448,-40.039,-33.691,-36.133,-43.945,0.000
1709214692.452,-44.434,-47.363,-35.156,-43.945,0.000
1709214692.456,-48.828,-57.129,-45.410,-40.039,0.000
1709214692.460,-35.156,-43.457,-36.621,-32.227,0.000
1709214692.464,-32.227,-36.133,-28.809,-32.715,0.000
1709214692.468,-34.180,-44.922,-35.645,-34.180,0.000
1709214692.471,-35.156,-56.641,-34.180,-26.855,0.000
1709214692.475,-41.016,-52.246,-29.785,-24.902,0.000
1709214692.479,-44.922,-33.691,-36.621,-34.668,0.000
1709214692.483,-36.621,-31.250,-41.992,-30.273,0.000
1709214692.487,-35.645,-37.109,-39.062,-34.668,0.000
1709214692.491,-32.227,-35.156,-40.039,-37.109,0.000
1709214692.495,-34.180,-35.645,-37.109,-27.344,0.000
1709214692.499,-34.668,-35.156,-28.809,-23.926,0.000
1709214692.503,-29.297,-35.645,-40.527,-26.855,0.000
1709214692.507,-38.086,-39.062,-49.805,-41.016,0.000
1709214692.510,-45.410,-47.363,-40.039,-43.945,0.000
1709214692.514,-49.316,-47.363,-37.109,-42.480,0.000
1709214692.518,-49.316,-48.340,-35.156,-41.504,0.000
1709214692.522,-53.223,-49.316,-33.203,-40.527,0.000
1709214692.526,-50.293,-48.340,-35.156,-36.621,0.000
1709214692.530,-51.270,-44.922,-41.992,-35.156,0.000
1709214692.534,-55.664,-42.480,-41.992,-39.551,0.000
1709214692.538,-41.992,-45.410,-24.414,-25.391,0.000
1709214692.542,-34.180,-48.340,-18.555,-19.531,0.000
1709214692.546,-30.273,-48.340,-28.320,-28.320,0.000
1709214692.550,-36.133,-45.410,-31.250,-34.668,0.000
1709214692.553,-46.387,-40.039,-32.715,-34.668,0.000
1709214692.557,-44.922,-38.086,-38.086,-28.809,0.000
1709214692.561,-40.527,-48.828,-31.738,-22.949,0.000
1709214692.565,-38.086,-44.434,-32.227,-25.391,0.000
1709214692.569,-44.922,-39.551,-38.574,-32.715,0.000
1709214692.573,-54.199,-40.039,-37.109,-33.203,0.000
1709214692.577,-45.898,-41.504,-36.133,-34.668,0.000
1709214692.581,-43.457,-46.875,-39.062,-44.922,0.000
1709214692.585,-45.898,-47.852,-36.133,-41.504,0.000
1709214692.589,-37.109,-46.875,-32.715,-36.133,0.000
1709214692.592,-37.598,-43.945,-38.086,-43.945,0.000
1709214692.596,-36.621,-51.270,-40.527,-38.086,0.000
1709214692.600,-34.668,-60.547,-42.480,-28.320,0.000
1709214692.604,-28.809,-54.688,-35.645,-32.227,0.000
1709214692.608,-27.344,-40.527,-29.785,-41.016,0.000
1709214692.612,-28.809,-34.668,-32.227,-41.504,0.000
1709214692.616,-33.203,-41.992,-34.668,-35.645,0.000
1709214692.620,-38.574,-47.363,-40.039,-31.250,0.000
1709214692.624,-33.203,-41.504,-40.039,-33.691,0.000
1709214692.628,-27.344,-38.086,-31.738,-34.668,0.000
1709214692.631,-32.227,-38.574,-32.715,-35.645,0.000
1709214692.635,-35.156,-37.109,-43.457,-37.598,0.000
1709214692.639,-41.992,-48.340,-46.387,-38.574,0.000
1709214692.643,-47.852,-49.316,-39.551,-33.203,0.000
1709214692.647,-41.992,-42.969,-34.180,-29.785,0.000
1709214692.651,-45.410,-39.551,-34.668,-36.621,0.000
1709214692.655,-47.852,-36.133,-35.645,-40.527,0.000
1709214692.659,-39.062,-41.992,-36.621,-36.621,0.000
1709214692.663,-27.832,-49.316,-29.785,-19.531,0.000
1709214692.667,-28.320,-53.711,-39.062,-23.438,0.000
1709214692.670,-40.527,-46.875,-45.898,-42.480,0.000
1709214692.674,-43.945,-38.574,-39.551,-42.969,0.000
1709214692.678,-40.527,-37.598,-44.922,-38.574,0.000
1709214692.682,-38.574,-42.480,-42.969,-35.645,0.000
1709214692.686,-35.156,-37.598,-42.969,-33.691,0.000
1709214692.690,-32.227,-41.992,-44.922,-42.480,0.000
1709214692.694,-34.668,-43.457,-43.457,-44.922,0.000
1709214692.698,-33.203,-28.320,-43.945,-42.480,0.000
1709214692.702,-29.785,-33.691,-43.945,-41.504,0.000
1709214692.705,-27.344,-36.133,-38.574,-32.227,0.000
1709214692.709,-31.250,-45.410,-40.039,-39.062,0.000
1709214692.713,-35.645,-55.176,-43.457,-46.387,0.000
1709214692.717,-37.109,-47.852,-40.039,-44.434,0.000
1709214692.721,-41.504,-44.922,-34.668,-41.992,0.000
1709214692.725,-41.992,-48.828,-41.504,-47.363,0.000
1709214692.729,-40.527,-51.270,-47.363,-51.758,0.000
1709214692.733,-42.480,-53.711,-34.668,-42.480,0.000
1709214692.737,-37.598,-41.504,-39.062,-39.062,0.000
1709214692.741,-32.715,-29.785,-51.270,-44.922,0.000
1709214692.745,-30.273,-38.574,-34.180,-42.969,0.000
1709214692.749,-36.621,-50.293,-25.391,-32.227,0.000
1709214692.752,-51.758,-52.246,-30.273,-32.715,0.000
1709214692.756,-52.246,-50.781,-27.344,-36.621,0.000
1709214692.760,-43.945,-48.340,-25.879,-32.715,0.000
1709214692.764,-40.527,-49.805,-31.738,-28.809,0.000
1709214692.768,-38.086,-50.293,-39.551,-33.203,0.000
1709214692.772,-41.504,-55.176,-43.945,-42.480,0.000
1709214692.776,-48.340,-61.523,-48.340,-43.945,0.000
1709214692.780,-44.434,-53.223,-51.758,-45.898,0.000
1709214692.784,-37.109,-38.086,-41.504,-44.922,0.000
1709214692.788,-37.109,-28.320,-39.062,-40.527,0.000
1709214692.792,-39.062,-44.434,-42.480,-42.969,0.000
1709214692.795,-41.016,-54.688,-45.898,-45.898,0.000
1709214692.799,-36.621,-42.969,-46.387,-42.480,0.000
1709214692.803,-27.832,-41.992,-47.363,-40.527,0.000
1709214692.807,-26.855,-50.293,-49.316,-44.922,0.000
1709214692.811,-23.438,-48.828,-35.645,-39.551,0.000
1709214692.815,-22.949,-54.688,-30.273,-36.133,0.000
1709214692.819,-29.297,-57.129,-35.645,-38.086,0.000
1709214692.823,-26.367,-41.504,-36.133,-36.133,0.000
1709214692.827,0.000,-39.551,-34.180,-41.992,0.000
1709214692.831,0.000,-46.875,-38.086,-49.805,0.000
1709214692.835,0.000,-56.152,-38.574,-44.434,0.000
1709214692.838,0.000,-56.641,-43.457,-27.832,0.000
1709214692.842,0.000,-52.734,-45.410,-33.203,0.000
1709214692.846,0.000,-47.363,-41.504,-42.969,0.000
1709214692.850,0.000,-48.828,-35.156,-49.316,0.000
1709214692.854,0.000,-54.688,-33.203,-51.270,0.000
1709214692.858,0.000,-54.688,-33.691,-33.691,0.000
1709214692.862,0.000,-52.734,-35.156,-27.832,0.000
1709214692.866,0.000,-39.551,-36.133,-34.668,0.000
1709214692.870,0.000,-36.133,-37.109,-39.551,0.000
1709214692.874,-41.016,-45.898,-29.785,-38.574,0.000
1709214692.877,-42.969,-41.504,-31.250,-40.527,0.000
1709214692.881,-30.762,-36.621,-30.762,-38.086,0.000
1709214692.885,-22.949,-42.480,-23.438,-43.457,0.000
1709214692.889,-20.020,-45.410,-23.926,-49.805,0.000
1709214692.893,-25.879,-47.852,-28.320,-42.969,0.000
1709214692.897,-37.109,-52.734,-36.133,-37.109,0.000
1709214692.901,-35.156,-49.805,-32.227,-21.484,0.000
1709214692.905,-32.715,-47.363,-32.227,-19.531,0.000
1709214692.909,-38.574,-43.457,-38.086,-42.480,0.000
1709214692.913,-51.758,-41.016,-32.715,-51.270,0.000
1709214692.917,-61.035,-43.457,-33.691,-51.758,0.000
1709214692.920,-54.199,-51.758,-41.992,-50.293,0.000
1709214692.924,-44.434,-58.105,-42.969,-51.270,0.000
1709214692.928,-40.039,-45.898,-46.387,-58.105,0.000
1709214692.932,-45.898,-45.410,-45.410,-55.176,0.000
1709214692.936,-48.828,-51.758,-32.227,-44.922,0.000
1709214692.940,-45.898,-40.039,-38.086,-41.992,0.000
1709214692.944,-42.480,-39.062,-41.504,-39.062,0.000
1709214692.948,-41.504,-46.387,-32.715,-33.203,0.000
1709214692.952,-38.574,-49.316,-34.180,-39.062,0.000
1709214692.956,-44.434,-47.363,-33.691,-41.016,0.000
1709214692.959,-48.340,-46.875,-39.062,-38.574,0.000
1709214692.963,-47.852,-51.758,-39.551,-41.992,0.000
1709214692.967,-48.828,-42.480,-33.691,-48.340,0.000
1709214692.971,-42.480,-41.016,-30.273,-50.293,0.000
1709214692.975,-48.340,-48.828,-35.156,-45.898,0.000
1709214692.979,-53.223,-39.551,-36.621,-43.457,0.000
1709214692.983,-40.039,-25.879,-28.320,-38.086,0.000
1709214692.987,-36.133,-37.598,-29.785,-37.598,0.000
1709214692.991,-40.039,-48.340,-32.227,-39.062,0.000
1709214692.995,-42.480,-33.691,-27.832,-33.691,0.000
1709214692.998,-37.598,-32.715,-34.180,-35.645,0.000
1709214693.002,-21.973,-40.527,-40.527,-38.086,0.000
1709214693.006,-13.672,-36.133,-32.715,-32.227,0.000
1709214693.010,-25.879,-33.203,-35.156,-31.250,0.000
1709214693.014,-33.203,-40.527,-36.133,-34.180,0.000
1709214693.018,-31.250,-43.945,-32.227,-32.715,0.000
1709214693.022,-32.227,-37.598,-34.668,-37.598,0.000
1709214693.026,-27.832,-38.574,-33.203,-41.016,0.000
1709214693.030,-30.273,-45.410,-35.645,-34.180,0.000
1709214693.033,-41.504,-53.711,-47.852,-43.945,0.000
1709214693.037,-48.828,-46.875,-48.828,-45.898,0.000
1709214693.041,-47.852,-38.574,-44.434,-41.992,0.000
1709214693.045,-35.156,-43.945,-49.805,-43.457,0.000
1709214693.049,-28.320,-48.828,-46.387,-36.621,0.000
1709214693.053,-37.598,-45.410,-37.109,-39.551,0.000
1709214693.057,-39.062,-41.992,-36.621,-37.109,0.000
1709214693.061,-28.320,-44.434,-34.180,-20.996,0.000
1709214693.065,-26.855,-54.688,-35.645,-16.602,0.000
1709214693.069,-36.621,-57.129,-35.645,-21.973,0.000
1709214693.073,-38.086,-45.898,-29.785,-22.949,0.000
1709214693.077,-37.598,-43.945,-35.645,-21.484,0.000
1709214693.080,-33.691,-50.293,-38.086,-19.531,0.000
1709214693.084,-20.996,-51.758,-25.879,-17.578,0.000
1709214693.088,-19.531,-43.457,-28.320,-22.461,0.000
1709214693.092,-28.809,-49.805,-37.598,-30.762,0.000
1709214693.096,-32.715,-62.012,-38.086,-23.438,0.000
1709214693.100,-24.902,-40.527,-40.039,-16.602,0.000
1709214693.104,-23.438,-27.832,-48.340,-25.879,0.000
1709214693.108,-28.320,-35.645,-53.711,-34.180,0.000
1709214693.112,-29.785,-39.062,-45.898,-36.621,0.000
1709214693.116,-33.203,-39.551,-38.086,-40.039,0.000
1709214693.120,-27.344,-37.109,-43.457,-43.457,0.000
1709214693.123,-20.508,-48.828,-44.922,-45.410,0.000
1709214693.127,-26.367,-57.129,-48.340,-47.852,0.000
1709214693.131,-30.762,-47.363,-42.969,-46.387,0.000
1709214693.135,-25.879,-48.340,-34.668,-34.668,0.000
1709214693.139,-27.344,-44.922,-34.180,-27.832,0.000
1709214693.143,-38.086,-41.504,-38.574,-30.762,0.000
1709214693.147,-40.039,-48.340,-40.527,-37.109,0.000
1709214693.151,-38.086,-48.828,-39.551,-41.016,0.000
1709214693.155,-38.574,-48.340,-41.992,-47.363,0.000
1709214693.159,-45.898,-48.828,-46.875,-47.852,0.000
1709214693.163,-42.480,-45.898,-47.363,-44.922,0.000
1709214693.166,-39.062,-44.922,-37.109,-52.734,0.000
1709214693.170,-46.387,-44.922,-28.320,-54.199,0.000
1709214693.174,-50.293,-57.129,-28.809,-48.340,0.000
1709214693.178,-54.199,-61.035,-32.715,-35.156,0.000
1709214693.182,-51.758,-52.734,-35.645,-35.645,0.000
1709214693.186,-44.922,-42.480,-43.457,-33.203,0.000
1709214693.190,-41.504,-41.016,-46.387,-33.203,0.000
1709214693.194,-47.852,-41.992,-39.062,-42.480,0.000
1709214693.198,-51.758,-41.016,-34.668,-36.133,0.000
1709214693.202,-42.969,-42.480,-37.109,-33.203,0.000
1709214693.206,-34.180,-45.898,-35.645,-38.574,0.000
1709214693.209,-37.598,-41.504,-33.691,-45.898,0.000
1709214693.213,-39.551,-40.527,-33.691,-46.387,0.000
1709214693.217,-36.133,-52.246,-36.621,-43.457,0.000
1709214693.221,-36.133,-47.852,-46.875,-35.156,0.000
1709214693.225,-27.832,-32.715,-45.410,-36.133,0.000
1709214693.229,-36.133,-34.180,-45.410,-41.504,0.000
1709214693.233,-49.805,-41.992,-45.898,-39.062,0.000
1709214693.237,-49.805,-41.016,-45.410,-48.828,0.000
1709214693.241,-45.410,-38.574,-45.898,-53.223,0.000
1709214693.245,-34.180,-48.340,-36.621,-42.969,0.000
1709214693.248,-36.133,-62.988,-39.062,-43.945,0.000
1709214693.252,-42.969,-64.941,-39.062,-41.992,0.000
1709214693.256,-41.992,-58.105,-38.574,-36.133,0.000
1709214693.260,-36.133,-50.781,-39.551,-29.297,0.000
1709214693.264,-28.809,-40.039,-32.715,-26.367,0.000
1709214693.268,-37.109,-38.574,-33.691,-39.551,0.000
1709214693.272,-38.086,-45.898,-41.992,-36.133,0.000
1709214693.276,-31.250,-47.363,-50.293,-25.391,0.000
1709214693.280,-28.320,-42.480,-42.480,-21.484,0.000
1709214693.284,-28.320,-43.457,-29.297,-20.020,0.000
1709214693.288,-30.273,-50.293,-25.879,-19.043,0.000
1709214693.291,-33.691,-47.363,-32.715,-21.973,0.000
1709214693.295,-40.039,-36.133,-40.039,-31.738,0.000
1709214693.299,-37.109,-38.086,-42.480,-32.715,0.000
1709214693.303,-24.414,-37.109,-35.156,-26.855,0.000
1709214693.307,-27.832,-39.551,-43.457,-38.574,0.000
1709214693.311,-38.574,-42.480,-45.898,-47.852,0.000
1709214693.315,-47.363,-37.109,-40.527,-47.363,0.000
1709214693.319,-44.434,-38.574,-40.527,-41.016,0.000
1709214693.323,-35.156,-55.176,-25.391,-26.855,0.000
1709214693.327,-34.668,-48.340,-22.949,-30.762,0.000
1709214693.330,-39.062,-26.855,-39.062,-44.922,0.000
1709214693.334,-42.969,-29.297,-42.480,-48.340,0.000
1709214693.338,-41.992,-38.574,-30.762,-44.922,0.000
1709214693.342,-43.945,-40.039,-29.785,-43.457,0.000
1709214693.346,-48.828,-31.250,-30.762,-47.363,0.000
1709214693.350,-50.781,-34.668,-30.762,-48.828,0.000
1709214693.354,-47.363,-42.480,-33.203,-57.129,0.000
1709214693.358,-39.551,-60.547,-37.598,-56.641,0.000
1709214693.362,-39.062,-71.777,-38.086,-47.852,0.000
1709214693.366,-40.527,-54.199,-40.039,-40.039,0.000
1709214693.369,-41.992,-38.086,-36.621,-42.480,0.000
1709214693.373,-46.387,-42.969,-39.062,-60.547,0.000
1709214693.377,-40.039,-40.039,-38.574,-51.758,0.000
1709214693.381,-38.086,-31.250,-28.320,-45.410,0.000
1709214693.385,-40.527,-36.133,-35.156,-52.246,0.000
1709214693.389,-42.480,-37.109,-31.738,-54.688,0.000
1709214693.393,-56.152,-45.898,-33.691,-51.758,0.000
1709214693.397,-57.129,-55.176,-38.574,-41.992,0.000
1709214693.401,-42.480,-55.176,-33.691,-40.039,0.000
1709214693.405,-41.504,-49.316,-36.133,-49.316,0.000
1709214693.408,-43.457,-41.992,-40.039,-51.758,0.000
1709214693.412,-47.363,-35.156,-32.227,-38.574,0.000
1709214693.416,-52.246,-39.062,-27.344,-36.621,0.000
1709214693.420,-49.316,-37.598,-31.250,-42.969,0.000
1709214693.424,-33.691,-26.367,-25.391,-32.715,0.000
1709214693.428,-28.809,-33.691,-29.785,-29.297,0.000
1709214693.432,-42.969,-41.992,-41.504,-44.922,0.000
1709214693.436,-47.852,-48.340,-40.039,-47.363,0.000
1709214693.440,-40.527,-50.781,-46.875,-49.805,0.000
1709214693.444,-32.227,-47.852,-43.457,-48.340,0.000
1709214693.448,-26.855,-44.922,-28.809,-48.340,0.000
1709214693.451,-35.645,-41.016,-35.156,-58.594,0.000
1709214693.455,-41.504,-42.480,-38.574,-57.617,0.000
1709214693.459,-37.109,-39.062,-39.062,-54.199,0.000
1709214693.463,-38.574,-39.551,-52.246,-51.270,0.000
1709214693.467,-34.668,-41.504,-55.176,-51.758,0.000
1709214693.471,-42.969,-49.805,-47.363,-53.223,0.000
1709214693.475,-58.105,-52.246,-51.270,-52.246,0.000
1709214693.479,-54.688,-42.969,-50.781,-48.828,0.000
1709214693.483,-39.062,-42.969,-38.574,-41.016,0.000
1709214693.487,-34.180,-47.363,-37.109,-41.016,0.000
1709214693.491,-38.086,-50.781,-41.504,-51.270,0.000
1709214693.495,-38.574,-42.480,-50.781,-52.246,0.000
1709214693.498,-39.062,-44.434,-47.852,-45.410,0.000
1709214693.502,-37.598,-56.152,-30.273,-48.340,0.000
1709214693.506,-28.320,-48.340,-28.320,-48.340,0.000
1709214693.510,-30.273,-49.805,-33.691,-47.852,0.000
1709214693.514,-29.297,-40.527,-26.367,-45.898,0.000
1709214693.518,-35.156,-37.109,-29.785,-30.762,0.000
1709214693.522,-46.875,-50.781,-43.457,-30.762,0.000
1709214693.526,-35.645,-55.664,-43.457,-35.156,0.000
1709214693.530,-34.668,-57.129,-50.293,-41.992,0.000
1709214693.534,-41.992,-51.270,-47.852,-47.852,0.000
1709214693.538,-44.922,-41.016,-37.598,-37.598,0.000
1709214693.541,-47.363,-47.363,-41.504,-30.762,0.000
1709214693.545,-40.039,-62.012,-36.621,-38.574,0.000
1709214693.549,-40.527,-52.734,-36.133,-38.574,0.000
1709214693.553,-49.805,-40.527,-41.992,-37.109,0.000
1709214693.557,-46.387,-46.387,-34.668,-37.598,0.000
1709214693.561,-45.898,-52.246,-35.156,-30.762,0.000
1709214693.565,-47.852,-49.316,-45.410,-39.062,0.000
1709214693.569,-51.270,-52.246,-48.828,-57.617,0.000
1709214693.573,-58.105,-49.805,-43.457,-57.129,0.000
1709214693.577,-52.734,-47.363,-42.969,-53.711,0.000
1709214693.580,-47.363,-55.664,-45.898,-53.711,0.000
1709214693.584,-50.293,-58.105,-53.223,-52.246,0.000
1709214693.588,-46.875,-52.246,-48.340,-49.316,0.000
1709214693.592,-45.898,-43.945,-43.945,-45.410,0.000
1709214693.596,-36.621,-44.922,-48.340,-36.133,0.000
1709214693.600,-31.250,-42.969,-41.992,-35.645,0.000
1709214693.604,-34.180,-53.223,-40.527,-41.992,0.000
1709214693.608,-29.297,-64.453,-48.340,-34.180,0.000
1709214693.612,-28.809,-48.340,-55.176,-41.504,0.000
1709214693.616,-33.203,-42.480,-42.969,-47.363,0.000
1709214693.620,-31.738,-58.105,-30.273,-33.691,0.000
1709214693.623,-22.461,-59.082,-31.738,-31.738,0.000
1709214693.627,-17.578,-45.410,-38.574,-32.715,0.000
1709214693.631,-28.809,-40.039,-35.645,-29.297,0.000
1709214693.635,-33.691,-43.945,-33.691,-25.391,0.000
1709214693.639,-39.551,-41.016,-47.363,-22.461,0.000
1709214693.643,-34.668,-45.410,-39.551,-13.672,0.000
1709214693.647,-29.297,-54.688,-21.973,-7.812,0.000
1709214693.651,-37.598,-47.852,-26.855,-9.766,0.000
1709214693.655,-47.852,-44.434,-29.785,-23.438,0.000
1709214693.659,-46.875,-47.852,-33.691,-31.250,0.000
1709214693.662,-37.109,-43.457,-43.945,-27.832,0.000
1709214693.666,-39.551,-40.527,-45.898,-30.762,0.000
1709214693.670,-42.969,-39.551,-33.203,-29.297,0.000
1709214693.674,-46.387,-44.434,-36.133,-34.180,0.000
1709214693.678,-43.945,-54.688,-37.598,-40.039,0.000
1709214693.682,-46.387,-57.617,-32.227,-44.434,0.000
1709214693.686,-42.480,-48.828,-33.203,-44.922,0.000
1709214693.690,-40.527,-46.387,-44.922,-52.734,0.000
1709214693.694,-41.992,-47.852,-49.316,-54.199,0.000
1709214693.698,-43.457,-49.316,-32.715,-41.504,0.000
1709214693.702,-50.293,-53.223,-31.250,-46.387,0.000
1709214693.705,-50.781,-45.410,-37.109,-58.594,0.000
1709214693.709,-45.410,-29.785,-33.691,-58.105,0.000
1709214693.713,-50.293,-35.645,-34.668,-53.711,0.000
1709214693.717,-52.734,-37.598,-37.598,-48.340,0.000
1709214693.721,-51.270,-39.551,-41.992,-47.852,0.000
1709214693.725,-44.434,-42.969,-46.387,-46.875,0.000
1709214693.729,-42.969,-54.688,-42.969,-60.547,0.000
1709214693.733,-50.293,-67.383,-35.645,-61.035,0.000
1709214693.737,-46.387,-55.664,-37.598,-46.387,0.000
1709214693.741,-39.551,-51.758,-38.574,-37.598,0.000
1709214693.744,-44.922,-44.434,-37.109,-41.504,0.000
1709214693.748,-47.852,-33.691,-45.410,-50.293,0.000
1709214693.752,-41.016,-41.992,-45.898,-40.527,0.000
1709214693.756,-43.457,-60.547,-46.387,-41.504,0.000
1709214693.760,-49.805,-59.570,-51.270,-45.898,0.000
1709214693.764,-42.969,-35.645,-43.945,-44.922,0.000
1709214693.768,-41.992,-35.645,-30.273,-50.781,0.000
1709214693.772,-50.293,-47.363,-28.809,-49.805,0.000
1709214693.776,-44.922,-47.852,-33.691,-43.945,0.000
1709214693.780,-40.039,-54.688,-35.645,-51.758,0.000
1709214693.783,-32.715,-45.898,-37.598,-48.828,0.000
1709214693.787,-29.785,-43.457,-41.992,-38.574,0.000
1709214693.791,-35.645,-48.828,-41.016,-33.691,0.000
1709214693.795,-37.109,-46.387,-28.809,-29.785,0.000
1709214693.799,-33.691,-44.434,-32.227,-32.227,0.000
1709214693.803,-23.926,-44.922,-40.527,-33.691,0.000
1709214693.807,-29.785,-46.387,-43.945,-46.387,0.000
1709214693.811,-43.945,-42.969,-45.410,-48.340,0.000
1709214693.815,-41.016,-45.410,-40.527,-40.039,0.000
1709214693.819,-37.109,-51.270,-39.062,-41.992,0.000
1709214693.823,-36.621,-43.457,-37.598,-41.504,0.000
1709214693.827,-41.504,-45.410,-40.527,-41.992,0.000
1709214693.830,-49.805,-52.734,-42.969,-41.992,0.000
1709214693.834,-44.922,-45.898,-45.410,-46.875,0.000
1709214693.838,-38.574,-48.340,-37.598,-50.781,0.000
1709214693.842,-31.738,-48.340,-30.273,-45.898,0.000
1709214693.846,-25.879,-40.039,-30.273,-37.109,0.000
1709214693.850,-20.508,-43.945,-21.973,-30.762,0.000
1709214693.854,-29.297,-45.410,-24.902,-41.016,0.000
1709214693.858,-34.668,-41.016,-35.156,-38.574,0.000
1709214693.862,-25.391,-44.922,-42.480,-33.203,0.000
1709214693.866,-20.996,-43.945,-45.898,-41.016,0.000
1709214693.870,-26.855,-34.180,-42.480,-41.504,0.000
1709214693.874,-37.109,-30.273,-36.133,-29.785,0.000
1709214693.878,-40.039,-39.062,-33.203,-23.926,0.000
1709214693.881,-33.203,-49.805,-33.203,-26.855,0.000
1709214693.885,-22.461,-43.945,-41.016,-37.598,0.000
1709214693.889,-28.320,-44.922,-41.016,-42.480,0.000
1709214693.893,-30.762,-40.039,-27.832,-35.645,0.000
1709214693.897,-27.344,-31.738,-35.156,-35.645,0.000
1709214693.901,-28.809,-38.574,-37.109,-29.297,0.000
1709214693.905,-29.785,-48.340,-33.203,-20.020,0.000
1709214693.909,-30.762,-41.504,-36.621,-23.926,0.000
1709214693.913,-35.156,-42.480,-36.133,-26.855,0.000
1709214693.917,-51.270,-45.410,-39.551,-23.926,0.000
1709214693.921,-52.734,-35.645,-47.852,-28.320,0.000
1709214693.924,-40.527,-36.133,-49.316,-31.738,0.000
1709214693.928,-35.156,-33.691,-33.203,-32.227,0.000
1709214693.932,-32.715,-34.668,-27.832,-34.180,0.000
1709214693.936,-35.156,-43.457,-38.574,-32.715,0.000
1709214693.940,-39.062,-48.828,-34.180,-34.180,0.000
1709214693.944,-36.133,-41.504,-34.180,-39.551,0.000
1709214693.948,-39.551,-45.410,-42.969,-48.828,0.000
1709214693.952,-41.504,-45.410,-37.109,-35.645,0.000
1709214693.956,-44.434,-30.273,-32.227,-23.926,0.000
1709214693.960,-43.945,-42.480,-30.273,-32.227,0.000
1709214693.964,-33.691,-47.852,-34.668,-33.691,0.000
1709214693.967,-38.086,-37.109,-39.062,-43.457,0.000
1709214693.971,-44.922,-41.016,-37.598,-42.480,0.000
1709214693.975,-46.387,-44.922,-38.574,-33.203,0.000
1709214693.979,-50.781,-48.340,-38.086,-35.156,0.000
1709214693.983,-42.480,-52.246,-36.621,-30.762,0.000
1709214693.987,-34.668,-45.898,-34.668,-33.691,0.000
1709214693.991,-37.598,-46.875,-31.738,-39.062,0.000
1709214693.995,-38.086,-46.875,-32.715,-39.062,0.000
1709214693.999,0.000,-40.527,-44.434,-41.016,0.000
1709214694.003,0.000,-49.316,-43.457,-38.086,0.000
1709214694.006,0.000,-47.363,-27.344,-38.086,0.000
1709214694.010,0.000,-35.645,-32.715,-41.016,0.000
1709214694.014,0.000,-45.898,-38.086,-39.062,0.000
1709214694.018,0.000,-40.039,-37.109,-33.203,0.000
1709214694.022,0.000,-38.086,-40.527,-33.203,0.000
1709214694.026,0.000,-47.852,-39.062,-28.809,0.000
1709214694.030,0.000,-38.086,-31.250,-25.391,0.000
1709214694.034,0.000,-30.273,-28.809,-33.691,0.000
1709214694.038,0.000,-37.598,-37.109,-35.645,0.000
1709214694.042,0.000,-53.711,-40.527,-39.551,0.000
1709214694.045,-32.715,-45.410,-33.203,-42.969,0.000
1709214694.049,-29.297,-34.180,-31.738,-41.504,0.000
1709214694.053,-36.621,-40.527,-34.180,-32.715,0.000
1709214694.057,-42.480,-41.504,-45.410,-32.227,0.000
1709214694.061,-37.598,-42.480,-40.039,-31.250,0.000
1709214694.065,-35.156,-52.246,-22.461,-30.273,0.000
1709214694.069,-37.598,-50.293,-23.926,-39.062,0.000
1709214694.073,-36.621,-43.945,-30.273,-29.297,0.000
1709214694.077,-43.457,-45.410,-31.738,-20.996,0.000
1709214694.081,-27.344,-45.898,-31.250,-19.043,0.000
1709214694.085,-17.090,-37.598,-38.574,-25.879,0.000
1709214694.088,-25.879,-35.645,-42.969,-31.738,0.000
1709214694.092,-26.367,-43.945,-40.039,-33.203,0.000
1709214694.096,-31.250,-39.062,-29.785,-31.738,0.000
1709214694.100,-40.039,-36.133,-28.320,-38.574,0.000
1709214694.104,-41.504,-51.758,-40.039,-43.457,0.000
1709214694.108,-39.062,-62.012,-43.945,-45.898,0.000
1709214694.112,-46.387,-48.340,-37.109,-54.199,0.000
1709214694.116,-56.641,-43.945,-33.691,-44.922,0.000
1709214694.120,-58.105,-53.711,-38.574,-39.551,0.000
1709214694.124,-48.828,-49.805,-38.086,-42.480,0.000
1709214694.127,-52.734,-43.945,-40.527,-48.340,0.000
1709214694.131,-50.293,-42.969,-39.062,-51.270,0.000
1709214694.135,-47.852,-50.293,-33.203,-56.641,0.000
1709214694.139,-63.477,-62.012,-45.410,-62.988,0.000
1709214694.143,-62.988,-55.664,-48.340,-55.664,0.000
1709214694.147,-61.523,-51.270,-43.457,-60.547,0.000
1709214694.151,-60.059,-44.434,-41.992,-62.500,0.000
1709214694.155,-62.012,-38.086,-42.480,-56.152,0.000
1709214694.159,-61.523,-55.664,-43.945,-47.363,0.000
1709214694.163,-54.199,-62.988,-37.109,-35.645,0.000
1709214694.166,-62.012,-46.387,-39.551,-44.922,0.000
1709214694.170,-63.965,-38.086,-47.852,-51.270,0.000
1709214694.174,-57.617,-50.781,-41.016,-47.363,0.000
1709214694.178,-48.828,-48.828,-31.250,-41.504,0.000
1709214694.182,-42.480,-41.504,-35.156,-41.992,0.000
1709214694.186,-37.598,-45.410,-40.039,-43.945,0.000
1709214694.190,-31.250,-38.086,-28.809,-32.227,0.000
1709214694.194,-35.156,-45.410,-33.691,-24.902,0.000
1709214694.198,-37.109,-56.641,-35.645,-24.902,0.000
1709214694.201,-38.574,-47.852,-30.762,-29.785,0.000
1709214694.205,-31.250,-40.527,-35.645,-28.809,0.000
1709214694.209,-28.320,-44.434,-39.062,-26.855,0.000
1709214694.213,-26.855,-45.898,-39.062,-24.902,0.000
1709214694.217,-18.066,-43.457,-36.621,-25.879,0.000
1709214694.221,-21.484,-45.898,-41.016,-31.738,0.000
1709214694.225,-26.367,-58.594,-45.410,-27.832,0.000
1709214694.229,-28.809,-62.988,-45.410,-29.785,0.000
1709214694.233,-22.461,-60.059,-39.551,-30.762,0.000
1709214694.237,-8.789,-46.387,-27.344,-18.555,0.000
1709214694.241,-18.066,-30.273,-27.344,-20.996,0.000
1709214694.245,-26.367,-32.715,-32.715,-34.180,0.000
1709214694.248,-22.949,-42.969,-38.574,-37.598,0.000
1709214694.252,-33.203,-51.270,-39.062,-40.039,0.000
1709214694.256,-44.434,-50.781,-30.762,-41.992,0.000
1709214694.260,-36.621,-51.758,-34.668,-32.715,0.000
1709214694.264,-36.621,-49.805,-42.969,-36.133,0.000
1709214694.268,-41.992,-44.922,-39.062,-42.480,0.000
1709214694.272,-50.293,-50.293,-39.551,-48.828,0.000
1709214694.276,-62.500,-40.527,-42.480,-61.523,0.000
1709214694.280,-52.734,-21.973,-41.504,-61.523,0.000
1709214694.284,-39.062,-28.809,-44.922,-46.875,0.000
1709214694.288,-45.898,-35.156,-45.898,-43.945,0.000
1709214694.291,-45.410,-38.574,-52.246,-50.781,0.000
1709214694.295,-36.133,-37.598,-48.340,-45.898,0.000
1709214694.299,-36.133,-35.156,-38.086,-33.203,0.000
1709214694.303,-32.227,-41.504,-41.992,-30.273,0.000
1709214694.307,-32.715,-47.363,-30.762,-34.668,0.000
1709214694.311,-48.340,-44.922,-34.180,-37.598,0.000
1709214694.315,-46.875,-30.762,-39.062,-32.227,0.000
1709214694.319,-45.898,-37.109,-40.039,-38.574,0.000
1709214694.323,-50.293,-50.293,-43.945,-44.922,0.000
1709214694.327,-40.039,-44.922,-33.691,-46.387,0.000
1709214694.330,-33.691,-39.062,-35.156,-41.016,0.000
1709214694.334,-26.855,-37.109,-39.551,-34.180,0.000
1709214694.338,-17.090,-36.621,-37.598,-25.879,0.000
1709214694.342,-19.531,-41.992,-39.062,-21.973,0.000
1709214694.346,-22.949,-56.152,-33.691,-21.484,0.000
1709214694.350,-19.043,-64.453,-34.668,-18.066,0.000
1709214694.354,-25.879,-55.176,-46.387,-28.809,0.000
1709214694.358,-32.227,-43.457,-41.992,-22.949,0.000
1709214694.362,-31.738,-44.434,-37.598,-20.020,0.000
1709214694.366,-37.109,-41.504,-45.898,-32.715,0.000
1709214694.370,-41.992,-44.434,-40.039,-41.992,0.000
1709214694.373,-45.410,-52.246,-34.668,-45.898,0.000
1709214694.377,-49.316,-49.805,-38.574,-45.410,0.000
1709214694.381,-45.410,-52.734,-35.645,-44.434,0.000
1709214694.385,-43.457,-52.734,-36.621,-43.457,0.000
1709214694.389,-45.410,-43.945,-43.457,-50.781,0.000
1709214694.393,-33.691,-30.762,-42.969,-51.270,0.000
1709214694.397,-31.250,-31.738,-39.062,-45.898,0.000
1709214694.401,-41.992,-46.875,-38.086,-38.086,0.000
1709214694.405,-36.621,-41.992,-39.551,-33.203,0.000
1709214694.409,-31.250,-36.133,-52.246,-41.504,0.000
1709214694.412,-36.621,-43.457,-48.828,-41.016,0.000
1709214694.416,-32.227,-47.852,-36.133,-34.180,0.000
1709214694.420,-21.973,-45.898,-41.016,-28.809,0.000
1709214694.424,-21.973,-52.246,-39.062,-33.691,0.000
1709214694.428,-25.391,-51.270,-35.645,-41.504,0.000
1709214694.432,-27.832,-47.363,-45.410,-40.527,0.000
1709214694.436,-25.391,-51.758,-39.551,-22.949,0.000
1709214694.440,-18.066,-38.574,-29.785,-12.695,0.000
1709214694.444,-20.508,-24.902,-30.762,-18.066,0.000
1709214694.448,-34.180,-31.738,-33.203,-22.949,0.000
1709214694.452,-40.527,-37.109,-34.668,-30.762,0.000
1709214694.456,-49.805,-48.340,-37.598,-36.621,0.000
1709214694.460,-59.082,-59.570,-45.410,-39.062,0.000
1709214694.463,-46.875,-58.594,-44.434,-32.227,0.000
1709214694.467,-41.016,-51.270,-43.457,-38.086,0.000
1709214694.471,-47.363,-42.969,-40.527,-46.875,0.000
1709214694.475,-41.504,-37.109,-34.180,-36.621,0.000
1709214694.479,-37.598,-45.410,-35.156,-28.320,0.000
1709214694.483,-31.250,-50.781,-30.273,-22.461,0.000
1709214694.487,-22.949,-49.316,-32.715,-25.391,0.000
1709214694.491,-28.320,-57.129,-41.992,-37.598,0.000
1709214694.495,-28.320,-56.152,-42.969,-39.062,0.000
1709214694.499,-30.762,-52.734,-50.293,-44.434,0.000
1709214694.502,-32.227,-55.176,-54.199,-50.781,0.000
1709214694.506,-30.762,-53.711,-51.758,-48.828,0.000
1709214694.510,-28.809,-41.992,-55.176,-56.641,0.000
1709214694.514,-31.250,-33.203,-53.223,-62.500,0.000
1709214694.518,-28.320,-38.574,-45.410,-53.711,0.000
1709214694.522,-23.926,-45.410,-46.387,-55.664,0.000
1709214694.526,-20.996,-37.598,-49.316,-53.223,0.000
1709214694.530,-20.508,-38.086,-54.199,-50.781,0.000
1709214694.534,-25.879,-53.223,-54.688,-61.035,0.000
1709214694.537,-24.414,-44.434,-50.781,-58.105,0.000
1709214694.541,-18.066,-35.156,-49.805,-40.039,0.000
1709214694.545,-15.625,-50.781,-43.457,-36.133,0.000
1709214694.549,-18.555,-51.270,-47.852,-38.574,0.000
1709214694.553,-23.438,-41.504,-49.316,-34.668,0.000
1709214694.557,-28.809,-42.969,-44.434,-22.949,0.000
1709214694.561,-23.926,-45.410,-43.945,-18.555,0.000
1709214694.565,-17.090,-37.598,-41.016,-29.297,0.000
1709214694.569,-22.461,-34.180,-40.527,-30.273,0.000
1709214694.573,-27.344,-37.598,-40.527,-25.391,0.000
1709214694.576,-39.551,-48.340,-40.039,-23.438,0.000
1709214694.580,-45.410,-63.965,-37.598,-18.066,0.000
1709214694.584,-31.250,-53.711,-44.434,-23.438,0.000
1709214694.588,-27.832,-36.621,-54.688,-31.250,0.000
1709214694.592,-39.062,-41.992,-47.363,-36.133,0.000
1709214694.596,-41.016,-44.922,-32.715,-32.715,0.000
1709214694.600,-42.969,-39.062,-31.250,-31.250,0.000
1709214694.604,-52.246,-43.945,-45.410,-40.527,0.000
1709214694.608,0.000,-45.410,0.000,-41.016,0.000
1709214694.612,0.000,-47.852,0.000,-48.340,0.000
1709214694.616,0.000,-50.781,0.000,-49.805,0.000
1709214694.620,0.000,-55.176,0.000,-42.969,0.000
1709214694.623,0.000,-63.477,0.000,-40.527,0.000
1709214694.627,0.000,-49.316,0.000,-44.434,0.000
1709214694.631,0.000,-35.645,0.000,-53.223,0.000
1709214694.635,0.000,-40.039,0.000,-49.316,0.000
1709214694.639,0.000,-45.898,0.000,-47.363,0.000
1709214694.643,0.000,-47.363,0.000,-45.898,0.000
1709214694.647,0.000,-49.316,0.000,-46.875,0.000
1709214694.651,0.000,-40.527,0.000,-54.688,0.000
1709214694.655,-35.156,-32.715,-34.180,-43.457,0.000
1709214694.659,-29.785,-42.969,-34.668,-28.809,0.000
1709214694.663,-33.203,-57.617,-37.109,-44.434,0.000
1709214694.667,-31.250,-56.152,-35.645,-47.852,0.000
1709214694.671,-33.691,-41.504,-41.992,-37.109,0.000
1709214694.675,-41.504,-37.598,-46.387,-32.227,0.000
1709214694.679,-41.992,-44.922,-42.480,-28.809,0.000
1709214694.682,-36.621,-44.434,-39.551,-31.738,0.000
1709214694.686,-26.367,-41.992,-29.297,-21.484,0.000
1709214694.690,-33.691,-54.688,-35.156,-19.531,0.000
1709214694.694,-47.852,-50.293,-35.156,-28.809,0.000
1709214694.698,-57.129,-41.504,-29.297,-24.902,0.000
1709214694.702,-54.688,-46.387,-35.156,-30.273,0.000
1709214694.706,-47.363,-46.875,-36.133,-36.133,0.000
1709214694.710,-51.270,-51.758,-37.598,-41.504,0.000
1709214694.714,-58.594,-45.898,-29.785,-43.457,0.000
1709214694.718,-51.758,-40.527,-33.691,-43.945,0.000
1709214694.721,-45.410,-46.875,-38.086,-36.133,0.000
1709214694.725,-48.828,-47.363,-27.832,-41.016,0.000
1709214694.729,-46.387,-55.664,-25.391,-52.734,0.000
1709214694.733,-52.246,-66.406,-28.809,-48.828,0.000
1709214694.737,-51.758,-61.523,-32.227,-47.852,0.000
1709214694.741,-40.527,-56.152,-31.250,-44.434,0.000
1709214694.745,-42.480,-46.387,-40.527,-50.293,0.000
1709214694.749,-47.852,-45.410,-42.969,-63.965,0.000
1709214694.753,-44.922,-53.223,-35.645,-57.129,0.000
1709214694.757,-48.828,-46.387,-34.180,-49.805,0.000
1709214694.761,-52.734,-41.992,-36.621,-43.945,0.000
1709214694.764,-47.363,-50.781,-36.621,-38.086,0.000
1709214694.768,-48.340,-52.734,-40.527,-56.152,0.000
1709214694.772,-48.340,-47.363,-48.340,-60.059,0.000
1709214694.776,-46.387,-49.316,-40.527,-32.715,0.000
1709214694.780,-47.363,-51.270,-32.227,-29.297,0.000
1709214694.784,-37.598,-39.551,-32.715,-47.852,0.000
1709214694.788,-39.551,-39.062,-45.410,-48.828,0.000
1709214694.792,-54.199,-44.434,-48.340,-53.223,0.000
1709214694.796,-55.664,-41.016,-36.133,-59.082,0.000
1709214694.800,-42.969,-27.344,-37.109,-52.246,0.000
1709214694.804,-29.297,-30.273,-38.574,-41.992,0.000
1709214694.808,-43.457,-44.434,-40.039,-45.898,0.000
1709214694.811,-53.711,-43.945,-39.062,-51.270,0.000
1709214694.815,-42.480,-45.898,-36.133,-38.574,0.000
1709214694.819,-39.551,-50.293,-40.527,-26.855,0.000
1709214694.823,-42.969,-47.363,-38.086,-20.020,0.000
1709214694.827,-46.875,-45.410,-35.645,-27.832,0.000
1709214694.831,-48.340,-41.992,-45.410,-44.922,0.000
1709214694.835,-43.457,-42.480,-45.898,-42.969,0.000
1709214694.839,-43.945,-50.293,-42.480,-39.062,0.000
1709214694.843,-43.945,-40.039,-42.969,-47.852,0.000
1709214694.847,-35.156,-32.715,-38.086,-47.363,0.000
1709214694.850,-33.203,-47.852,-39.062,-41.504,0.000
1709214694.854,-35.645,-55.176,-41.016,-47.363,0.000
1709214694.858,-33.203,-50.781,-35.645,-42.480,0.000
1709214694.862,-24.414,-40.039,-28.809,-27.832,0.000
1709214694.866,-25.879,-38.086,-26.855,-35.645,0.000
1709214694.870,-32.715,-40.527,-25.879,-43.457,0.000
1709214694.874,-29.785,-35.645,-20.508,-37.109,0.000
1709214694.878,-27.832,-41.992,-24.902,-34.180,0.000
1709214694.882,-24.414,-57.617,-29.297,-24.414,0.000
1709214694.886,-16.602,-50.781,-34.668,-20.996,0.000
1709214694.890,-26.367,-45.898,-28.809,-37.598,0.000
1709214694.894,-36.621,-51.758,-19.531,-44.922,0.000
1709214694.897,-31.738,-48.828,-20.996,-41.016,0.000
1709214694.901,-33.203,-36.621,-22.949,-46.875,0.000
1709214694.905,-32.715,-40.527,-29.785,-57.129,0.000
1709214694.909,-41.504,-46.875,-34.668,-60.547,0.000
1709214694.913,-52.246,-43.945,-35.645,-62.500,0.000
1709214694.917,-49.316,-42.480,-35.156,-60.059,0.000
1709214694.921,-42.969,-33.691,-33.203,-63.477,0.000
1709214694.925,-43.457,-38.574,-39.062,-67.383,0.000
1709214694.929,-46.875,-45.410,-40.527,-65.918,0.000
1709214694.933,-48.828,-46.387,-36.621,-72.266,0.000
1709214694.936,-54.199,-53.711,-31.738,-66.895,0.000
1709214694.940,-44.922,-39.062,-29.297,-58.105,0.000
1709214694.944,-33.691,-37.598,-41.504,-58.105,0.000
1709214694.948,-34.668,-45.898,-51.270,-49.316,0.000
1709214694.952,-35.156,-35.645,-44.434,-46.387,0.000
1709214694.956,-40.039,-29.785,-43.945,-35.156,0.000
1709214694.960,-40.039,-37.109,-46.387,-28.320,0.000
1709214694.964,-31.738,-45.410,-45.410,-29.785,0.000
1709214694.968,-28.320,-50.293,-40.039,-29.785,0.000
1709214694.972,-29.785,-47.852,-36.621,-26.367,0.000
1709214694.975,-41.992,-50.781,-36.621,-24.414,0.000
1709214694.979,-41.992,-54.199,-32.715,-22.461,0.000
1709214694.983,-34.180,-44.434,-34.180,-17.090,0.000
1709214694.987,-34.668,-45.898,-43.457,-20.020,0.000
1709214694.991,-39.551,-53.711,-42.480,-23.926,0.000
1709214694.995,-45.410,-46.875,-39.062,-29.785,0.000
1709214694.999,-39.551,-46.875,-42.969,-28.809,0.000
1709214695.003,-32.227,-44.922,-37.598,-20.996,0.000
1709214695.007,-32.715,-47.852,-32.715,-19.531,0.000
1709214695.011,-34.180,-46.387,-34.180,-20.996,0.000
1709214695.015,-31.738,-37.598,-33.691,-20.020,0.000
1709214695.018,-31.738,-40.039,-39.062,-19.043,0.000
1709214695.022,-23.926,-44.922,-44.922,-21.973,0.000
1709214695.026,-20.996,-44.922,-41.016,-29.785,0.000
1709214695.030,-35.645,-40.527,-34.668,-39.062,0.000
1709214695.034,-42.480,-55.664,-34.668,-40.039,0.000
1709214695.038,-45.898,-58.594,-40.039,-38.086,0.000
1709214695.042,-47.363,-39.062,-45.410,-44.434,0.000
1709214695.046,-49.316,-38.086,-51.270,-53.223,0.000
1709214695.050,-60.059,-38.086,-48.828,-63.965,0.000
1709214695.054,-63.965,-34.668,-52.734,-68.359,0.000
1709214695.058,-59.082,-37.109,-49.805,-63.477,0.000
1709214695.061,-54.688,-42.480,-42.480,-54.199,0.000
1709214695.065,-61.523,-53.711,-53.223,-61.035,0.000
1709214695.069,-62.988,-43.457,-55.176,-80.566,0.000
1709214695.073,-58.594,-38.574,-45.410,-75.195,0.000
1709214695.077,-50.781,-55.664,-53.223,-61.523,0.000
1709214695.081,-40.527,-58.594,-55.664,-50.781,0.000
1709214695.085,-38.086,-53.711,-42.969,-47.363,0.000
1709214695.089,-37.598,-49.805,-38.086,-44.434,0.000
1709214695.093,-27.344,-37.598,-32.715,-29.297,0.000
1709214695.097,-21.484,-29.785,-29.297,-18.555,0.000
1709214695.101,-15.625,-35.156,-21.484,-0.977,0.000
1709214695.104,-16.602,-50.781,-26.367,5.371,0.000
1709214695.108,-27.344,-57.617,-41.504,-4.395,0.000
1709214695.112,-37.109,-46.875,-30.762,-11.230,0.000
1709214695.116,-31.250,-40.527,-24.414,-11.719,0.000
1709214695.120,-20.020,-46.387,-29.297,-6.348,0.000
1709214695.124,-14.648,-52.734,-25.391,-9.766,0.000
1709214695.128,-23.926,-48.828,-23.438,-18.066,0.000
1709214695.132,-32.227,-45.410,-32.227,-27.344,0.000
1709214695.136,-29.785,-48.340,-36.133,-30.273,0.000
1709214695.140,-28.320,-38.086,-31.250,-23.926,0.000
1709214695.143,-25.879,-40.527,-33.203,-23.926,0.000
1709214695.147,-28.809,-50.781,-29.785,-35.645,0.000
1709214695.151,-38.086,-50.293,-34.668,-42.480,0.000
1709214695.155,-42.969,-58.105,-41.016,-41.992,0.000
1709214695.159,-44.922,-51.758,-40.527,-52.246,0.000
1709214695.163,-43.945,-42.969,-42.480,-53.223,0.000
1709214695.167,-45.410,-46.875,-48.340,-58.105,0.000
1709214695.171,-50.293,-53.223,-53.223,-71.289,0.000
1709214695.175,-57.617,-50.293,-54.688,-72.266,0.000
1709214695.179,-50.293,-42.969,-47.363,-59.082,0.000
1709214695.182,-45.898,-42.969,-40.527,-46.387,0.000
1709214695.186,-45.410,-44.922,-41.992,-50.781,0.000
1709214695.190,-51.758,-45.898,-49.316,-61.523,0.000
1709214695.194,-58.594,-37.109,-50.293,-64.453,0.000
1709214695.198,-56.152,-39.551,-42.480,-50.781,0.000
1709214695.202,-55.664,-37.109,-35.156,-45.898,0.000
1709214695.206,-51.758,-33.203,-40.039,-53.223,0.000
1709214695.210,-44.922,-37.109,-39.551,-51.270,0.000
1709214695.214,-50.781,-34.668,-39.551,-49.805,0.000
1709214695.218,-53.711,-41.992,-44.922,-44.922,0.000
1709214695.221,-44.922,-44.434,-38.086,-31.250,0.000
1709214695.225,-36.133,-46.875,-37.598,-19.531,0.000
1709214695.229,-30.273,-62.500,-35.156,-17.090,0.000
1709214695.233,-27.832,-50.781,-41.016,-23.926,0.000
1709214695.237,-19.531,-29.785,-38.574,-20.508,0.000
1709214695.241,-16.602,-37.109,-29.297,-2.930,0.000
1709214695.245,-27.344,-45.410,-42.480,-3.418,0.000
1709214695.249,-27.344,-41.504,-46.387,-13.672,0.000
1709214695.253,-16.602,-41.016,-39.062,-12.207,0.000
1709214695.257,-20.508,-42.480,-31.738,-16.602,0.000
1709214695.261,-22.461,-37.109,-26.855,-17.578,0.000
1709214695.264,-21.484,-36.133,-31.250,-15.625,0.000
1709214695.268,-28.320,-53.711,-39.062,-25.391,0.000
1709214695.272,-28.320,-56.641,-36.621,-25.879,0.000
1709214695.276,-26.855,-38.574,-33.691,-25.391,0.000
1709214695.280,-26.855,-37.109,-39.551,-33.203,0.000
1709214695.284,-23.926,-33.203,-35.156,-29.297,0.000
1709214695.288,-31.738,-32.715,-39.062,-24.902,0.000
1709214695.292,-45.898,-34.668,-38.574,-31.250,0.000
1709214695.296,-45.410,-41.016,-25.391,-37.598,0.000
1709214695.299,-37.598,-42.480,-39.062,-37.598,0.000
1709214695.303,-35.645,-37.598,-37.109,-37.109,0.000
1709214695.307,-40.039,-41.504,-30.762,-43.457,0.000
1709214695.311,-41.016,-50.293,-34.668,-49.805,0.000
1709214695.315,-44.434,-55.664,-39.551,-48.828,0.000
1709214695.319,-44.434,-50.293,-46.875,-52.246,0.000
1709214695.323,-28.320,-35.156,-41.016,-50.781,0.000
1709214695.327,-30.273,-31.738,-41.504,-46.875,0.000
1709214695.331,-46.387,-46.875,-46.875,-47.852,0.000
1709214695.335,-41.992,-50.781,-32.227,-41.504,0.000
1709214695.338,-38.086,-44.434,-31.738,-39.551,0.000
1709214695.342,-44.434,-48.340,-40.039,-41.504,0.000
1709214695.346,-34.668,-54.688,-30.762,-36.133,0.000
1709214695.350,-29.785,-44.922,-32.227,-41.992,0.000
1709214695.354,-34.668,-28.320,-43.945,-51.758,0.000
1709214695.358,-20.020,-34.180,-47.852,-38.086,0.000
1709214695.362,-13.672,-46.387,-41.016,-23.438,0.000
1709214695.366,-21.973,-41.016,-45.410,-25.391,0.000
1709214695.370,-26.367,-36.133,-44.922,-36.621,0.000
1709214695.374,-27.832,-41.016,-41.016,-39.551,0.000
1709214695.378,-25.879,-44.922,-46.875,-29.297,0.000
1709214695.381,-31.250,-50.781,-46.875,-33.691,0.000
1709214695.385,-35.645,-52.246,-41.016,-36.621,0.000
1709214695.389,-34.668,-50.781,-39.551,-28.809,0.000
1709214695.393,-41.504,-54.199,-44.434,-26.367,0.000
1709214695.397,-52.246,-50.781,-42.969,-33.203,0.000
1709214695.401,-53.223,-56.641,-38.086,-34.668,0.000
1709214695.405,-47.363,-58.105,-41.992,-34.180,0.000
1709214695.409,-49.805,-36.621,-40.527,-42.969,0.000
1709214695.413,-56.152,-39.551,-31.250,-54.688,0.000
1709214695.417,-55.176,-52.246,-29.785,-45.898,0.000
1709214695.421,-53.223,-49.316,-31.738,-35.645,0.000
1709214695.424,-55.664,-57.129,-37.598,-36.621,0.000
1709214695.428,-48.340,-56.152,-36.621,-41.504,0.000
1709214695.432,-50.781,-47.363,-33.691,-57.617,0.000
1709214695.436,-51.270,-42.480,-32.715,-48.828,0.000
1709214695.440,-45.898,-46.387,-33.203,-37.109,0.000
1709214695.444,-44.434,-49.316,-36.621,-45.898,0.000
1709214695.448,-38.086,-41.504,-28.320,-37.109,0.000
1709214695.452,-41.992,-48.340,-32.227,-39.551,0.000
1709214695.456,-54.199,-48.828,-45.898,-50.293,0.000
1709214695.460,-46.387,-35.645,-44.922,-42.480,0.000
1709214695.464,-32.715,-48.828,-42.480,-41.016,0.000
1709214695.467,-31.738,-52.246,-32.715,-40.527,0.000
1709214695.471,-30.762,-39.062,-29.297,-40.527,0.000
1709214695.475,-30.762,-36.133,-31.738,-43.945,0.000
1709214695.479,-24.414,-41.992,-34.180,-41.992,0.000
1709214695.483,-23.926,-43.457,-35.156,-38.086,0.000
1709214695.487,-26.855,-37.109,-39.551,-37.598,0.000
1709214695.491,-23.926,-32.715,-41.016,-38.086,0.000
1709214695.495,-33.691,-43.945,-38.086,-37.109,0.000
1709214695.499,-30.762,-58.594,-37.598,-40.039,0.000
1709214695.503,-21.973,-50.781,-39.062,-38.086,0.000
1709214695.506,-28.320,-45.410,-30.273,-41.504,0.000
1709214695.510,-26.855,-47.363,-29.297,-42.480,0.000
1709214695.514,-28.809,-41.992,-35.645,-35.645,0.000
1709214695.518,-31.250,-34.668,-35.156,-33.203,0.000
1709214695.522,-31.250,-39.062,-41.992,-34.180,0.000
1709214695.526,-33.203,-45.898,-39.062,-23.438,0.000
1709214695.530,-30.762,-42.969,-35.156,-18.066,0.000
1709214695.534,-33.691,-41.504,-34.668,-32.227,0.000
1709214695.538,-38.086,-47.852,-31.250,-41.016,0.000
1709214695.542,-35.645,-50.781,-32.227,-34.180,0.000
1709214695.546,-39.062,-49.805,-38.086,-35.156,0.000
1709214695.549,-40.527,-58.105,-42.969,-45.898,0.000
1709214695.553,-43.457,-54.199,-45.898,-44.922,0.000
1709214695.557,-45.410,-42.480,-47.363,-35.156,0.000
1709214695.561,-41.992,-31.738,-39.062,-31.250,0.000
1709214695.565,-41.504,-25.879,-39.551,-36.133,0.000
1709214695.569,-41.504,-34.180,-42.969,-36.621,0.000
1709214695.573,-48.828,-40.527,-45.898,-32.227,0.000
1709214695.577,-42.969,-48.340,-45.898,-30.273,0.000
1709214695.581,-32.227,-53.711,-37.109,-37.109,0.000
1709214695.585,-29.785,-44.922,-41.992,-34.180,0.000
1709214695.588,-27.344,-42.969,-52.246,-30.273,0.000
1709214695.592,-33.691,-40.039,-42.969,-38.086,0.000
1709214695.596,-43.457,-41.504,-34.180,-36.621,0.000
1709214695.600,-40.039,-44.434,-34.180,-26.367,0.000
1709214695.604,-34.180,-35.645,-35.156,-19.531,0.000
1709214695.608,-39.551,-37.598,-36.133,-31.250,0.000
1709214695.612,-42.480,-44.434,-34.180,-37.109,0.000
1709214695.616,-45.898,-43.945,-38.086,-25.391,0.000
1709214695.620,-48.340,-41.504,-47.363,-20.996,0.000
1709214695.624,-31.738,-46.387,-36.621,-26.367,0.000
1709214695.627,-23.438,-45.410,-31.738,-33.203,0.000
1709214695.631,-30.762,-41.504,-32.227,-40.039,0.000
1709214695.635,-37.598,-47.852,-31.738,-40.527,0.000
1709214695.639,-39.551,-45.410,-34.180,-32.715,0.000
1709214695.643,-33.691,-41.992,-32.715,-30.273,0.000
1709214695.647,-27.832,-43.457,-37.109,-37.598,0.000
1709214695.651,-34.180,-41.504,-35.645,-49.316,0.000
1709214695.655,-38.086,-41.992,-34.180,-52.246,0.000
1709214695.659,-35.156,-38.574,-34.668,-41.992,0.000
1709214695.663,-31.250,-46.387,-35.645,-30.273,0.000
1709214695.667,-31.738,-52.246,-37.598,-35.645,0.000
1709214695.671,-32.715,-31.738,-37.109,-51.270,0.000
1709214695.675,-34.180,-25.879,-33.203,-50.781,0.000
1709214695.678,-39.062,-37.109,-40.527,-42.480,0.000
1709214695.682,-37.598,-41.992,-43.457,-39.551,0.000
1709214695.686,-38.086,-35.645,-37.109,-45.410,0.000
1709214695.690,-42.480,-34.180,-39.062,-46.875,0.000
1709214695.694,-48.340,-43.945,-39.062,-41.504,0.000
1709214695.698,-49.805,-44.434,-41.016,-34.668,0.000
1709214695.702,-41.992,-45.410,-44.922,-38.086,0.000
1709214695.706,-37.598,-48.340,-51.270,-38.086,0.000
1709214695.710,-48.340,-43.945,-48.828,-35.645,0.000
1709214695.713,-56.152,-45.898,-39.551,-38.086,0.000
1709214695.717,-49.316,-49.316,-38.574,-47.363,0.000
1709214695.721,-47.363,-43.945,-37.109,-38.086,0.000
1709214695.725,-44.434,-36.133,-29.297,-30.273,0.000
1709214695.729,-44.922,-32.715,-33.691,-52.246,0.000
