timestamps,TP9,AF7,AF8,TP10,Right AUX
1709291797.892,-10.254,-44.434,-21.484,-10.254,0.000
1709291797.896,-5.371,-48.340,-28.809,-8.301,0.000
1709291797.900,-15.625,-51.270,-30.273,-24.414,0.000
1709291797.904,-21.484,-47.852,-29.785,-27.344,0.000
1709291797.908,-22.461,-46.875,-25.391,-21.973,0.000
1709291797.912,-20.996,-48.828,-23.438,-14.648,0.000
1709291797.916,-17.578,-48.340,-24.414,-9.277,0.000
1709291797.920,-18.555,-41.504,-25.879,-20.508,0.000
1709291797.923,-21.973,-41.016,-27.344,-28.320,0.000
1709291797.927,-24.902,-42.480,-23.926,-24.414,0.000
1709291797.931,-23.926,-39.551,-24.414,-19.043,0.000
1709291797.935,-17.090,-40.527,-29.297,-28.320,0.000
1709291797.940,-11.230,-42.480,-26.855,-33.691,0.000
1709291797.943,-18.555,-42.480,-24.902,-31.250,0.000
1709291797.947,-23.926,-39.062,-28.320,-29.785,0.000
1709291797.951,-26.855,-39.551,-28.320,-24.414,0.000
1709291797.955,-25.879,-42.480,-28.320,-25.879,0.000
1709291797.959,-20.020,-43.945,-25.879,-20.508,0.000
1709291797.963,-22.949,-38.574,-28.320,-22.949,0.000
1709291797.967,-32.715,-33.203,-30.273,-29.785,0.000
1709291797.971,-23.438,-36.621,-28.320,-12.695,0.000
1709291797.975,-10.254,-44.922,-24.902,-3.418,0.000
1709291797.979,-11.230,-40.527,-21.484,-16.602,0.000
1709291797.983,-20.020,-36.133,-22.461,-24.902,0.000
1709291797.987,-23.438,-37.109,-28.320,-26.855,0.000
1709291797.991,-17.578,-38.086,-26.855,-17.090,0.000
1709291797.995,-6.836,-37.109,-25.879,-3.418,0.000
1709291797.998,-10.742,-37.109,-26.855,-11.230,0.000
1709291798.002,-19.531,-38.086,-25.879,-18.555,0.000
1709291798.006,-24.414,-35.645,-24.902,-14.160,0.000
1709291798.010,-23.438,-30.273,-26.367,-6.836,0.000
1709291798.014,-13.184,-35.156,-29.297,-7.324,0.000
1709291798.018,-16.113,-39.551,-31.250,-8.301,0.000
1709291798.022,-19.531,-36.621,-28.809,-11.719,0.000
1709291798.026,-22.949,-37.109,-28.320,-9.766,0.000
1709291798.030,-33.691,-35.156,-29.785,-7.812,0.000
1709291798.034,-25.391,-36.621,-24.414,-5.371,0.000
1709291798.038,-11.230,-39.551,-25.391,-2.441,0.000
1709291798.042,-13.184,-37.598,-29.297,-15.137,0.000
1709291798.045,-25.879,-36.133,-30.762,-19.043,0.000
1709291798.049,-27.832,-33.691,-29.297,-14.648,0.000
1709291798.053,-17.090,-35.156,-25.391,-21.484,0.000
1709291798.057,-8.301,-32.715,-24.414,-20.508,0.000
1709291798.061,-15.625,-28.809,-30.273,-21.973,0.000
1709291798.065,-24.902,-34.180,-28.809,-25.391,0.000
1709291798.069,-27.344,-29.785,-22.949,-20.508,0.000
1709291798.073,-19.531,-27.344,-25.391,-15.625,0.000
1709291798.077,-14.648,-31.250,-27.832,-15.137,0.000
1709291798.081,-17.578,-31.738,-25.391,-17.578,0.000
1709291798.084,-20.996,-34.180,-25.879,-16.602,0.000
1709291798.088,-28.320,-33.203,-30.273,-11.719,0.000
1709291798.092,-31.738,-33.691,-27.344,-14.160,0.000
1709291798.096,-19.043,-29.297,-20.020,-10.254,0.000
1709291798.100,-11.230,-26.855,-20.020,-11.719,0.000
1709291798.104,-21.484,-28.320,-20.996,-21.484,0.000
1709291798.108,-34.668,-32.227,-21.484,-21.484,0.000
1709291798.112,-32.227,-40.039,-24.414,-17.090,0.000
1709291798.116,-18.555,-34.180,-27.344,-19.531,0.000
1709291798.120,-20.020,-32.227,-30.273,-29.297,0.000
1709291798.124,-24.902,-29.785,-29.297,-22.461,0.000
1709291798.127,-31.250,-24.414,-27.344,-10.742,0.000
1709291798.131,-29.785,-29.297,-31.250,-15.137,0.000
1709291798.135,-9.277,-27.832,-33.691,-15.137,0.000
1709291798.139,-4.395,-23.438,-26.367,-9.277,0.000
1709291798.143,-18.066,-21.973,-20.020,-15.137,0.000
1709291798.147,-29.785,-21.484,-20.020,-15.625,0.000
1709291798.151,-29.785,-23.438,-20.508,-12.207,0.000
1709291798.155,-21.973,-27.832,-21.484,-7.324,0.000
1709291798.158,-16.602,-29.297,-25.391,-11.719,0.000
1709291798.162,-17.578,-28.320,-28.320,-20.996,0.000
1709291798.166,-27.832,-37.109,-27.344,-18.066,0.000
1709291798.170,-31.738,-35.156,-25.391,-8.789,0.000
1709291798.174,-16.113,-22.949,-27.832,-2.930,0.000
1709291798.178,-4.883,-29.785,-28.809,-8.789,0.000
1709291798.181,-16.602,-36.621,-24.414,-16.113,0.000
1709291798.185,-27.344,-39.551,-25.879,-18.555,0.000
1709291798.189,-21.973,-42.969,-27.344,-13.184,0.000
1709291798.193,-14.160,-41.992,-26.855,-12.207,0.000
1709291798.197,-5.859,-38.574,-26.855,-12.695,0.000
1709291798.201,-10.742,-37.109,-24.902,-3.418,0.000
1709291798.205,-22.461,-29.297,-25.391,-12.207,0.000
1709291798.209,-19.043,-28.320,-31.738,-17.090,0.000
1709291798.213,-9.766,-31.250,-30.273,-9.277,0.000
1709291798.217,-8.301,-32.227,-30.273,-14.160,0.000
1709291798.220,-15.625,-29.297,-28.809,-17.578,0.000
1709291798.224,-20.508,-23.438,-22.949,-14.648,0.000
1709291798.228,-26.855,-23.926,-26.855,-18.066,0.000
1709291798.232,-21.973,-23.926,-29.785,-19.043,0.000
1709291798.236,-10.742,-27.344,-28.809,-12.207,0.000
1709291798.240,-14.160,-35.156,-29.785,-19.043,0.000
1709291798.243,-25.879,-33.203,-32.715,-20.996,0.000
1709291798.247,-24.902,-28.809,-31.250,-6.348,0.000
1709291798.251,-11.230,-30.273,-28.809,-3.418,0.000
1709291798.255,-12.695,-35.645,-30.273,-19.531,0.000
1709291798.259,-12.695,-36.133,-28.809,-21.484,0.000
1709291798.263,-9.277,-34.180,-28.809,-14.160,0.000
1709291798.266,-10.254,-33.691,-26.855,-15.137,0.000
1709291798.270,-4.395,-33.691,-24.902,-11.230,0.000
1709291798.274,8.301,-28.809,-26.855,-6.348,0.000
1709291798.278,8.789,-22.461,-26.855,-11.230,0.000
1709291798.282,-15.137,-25.879,-26.367,-21.484,0.000
1709291798.286,-21.973,-27.832,-23.438,-18.555,0.000
1709291798.290,-10.254,-28.809,-26.367,-10.254,0.000
1709291798.293,-2.930,-31.250,-29.297,-15.137,0.000
1709291798.297,-4.883,-24.414,-30.273,-9.766,0.000
1709291798.301,-14.648,-19.043,-29.297,-5.859,0.000
1709291798.305,-21.973,-21.484,-25.879,-8.301,0.000
1709291798.309,-18.066,-24.902,-25.879,-9.277,0.000
1709291798.314,-7.812,-23.926,-23.926,-7.812,0.000
1709291798.317,-1.953,-22.949,-22.461,-9.277,0.000
1709291798.321,-7.324,-24.902,-25.879,-15.625,0.000
1709291798.325,-14.160,-21.484,-27.832,-18.066,0.000
1709291798.329,-17.578,-18.555,-23.926,-5.859,0.000
1709291798.333,-3.418,-25.391,-24.414,3.418,0.000
1709291798.337,9.766,-22.949,-29.785,-4.395,0.000
1709291798.341,2.930,-18.555,-30.762,-18.555,0.000
1709291798.345,-12.207,-17.090,-25.391,-22.949,0.000
1709291798.349,-12.695,-13.184,-22.461,-3.906,0.000
1709291798.353,-3.906,-16.113,-28.320,-6.836,0.000
1709291798.357,1.953,-18.066,-30.273,-19.531,0.000
1709291798.361,-2.930,-15.137,-25.879,-13.184,0.000
1709291798.365,-13.184,-17.090,-22.461,-15.625,0.000
1709291798.369,-16.602,-23.438,-22.461,-17.090,0.000
1709291798.373,-19.531,-25.391,-24.902,-19.043,0.000
1709291798.376,-19.531,-29.785,-27.344,-16.113,0.000
1709291798.380,-22.461,-33.691,-31.738,-22.949,0.000
1709291798.384,-24.902,-30.273,-29.785,-23.438,0.000
1709291798.388,-23.438,-24.902,-23.926,-22.461,0.000
1709291798.392,-16.113,-24.902,-20.508,-18.555,0.000
1709291798.396,-9.277,-31.250,-17.578,-3.906,0.000
1709291798.400,-21.973,-32.715,-27.344,-20.996,0.000
1709291798.404,-33.203,-35.156,-33.691,-30.762,0.000
1709291798.408,-32.715,-34.668,-30.273,-19.531,0.000
1709291798.412,-31.738,-31.738,-32.715,-13.672,0.000
1709291798.416,-19.531,-33.203,-31.738,-13.672,0.000
1709291798.420,-14.648,-32.227,-32.227,-14.160,0.000
1709291798.424,-24.902,-29.785,-31.250,-15.625,0.000
1709291798.427,-34.668,-33.203,-29.297,-18.066,0.000
1709291798.431,-29.297,-33.203,-25.391,-17.090,0.000
1709291798.435,-15.137,-29.297,-22.949,-17.578,0.000
1709291798.439,-13.672,-33.203,-20.996,-14.648,0.000
1709291798.443,-21.973,-34.180,-24.902,-17.578,0.000
1709291798.447,-26.855,-32.227,-22.949,-21.484,0.000
1709291798.451,-20.996,-30.762,-20.508,-14.160,0.000
1709291798.455,-13.184,-26.855,-24.902,-10.742,0.000
1709291798.459,-13.184,-26.855,-21.973,-18.066,0.000
1709291798.463,-12.207,-29.785,-21.973,-26.367,0.000
1709291798.467,-13.672,-31.738,-20.996,-27.344,0.000
1709291798.470,-18.555,-32.715,-21.484,-20.508,0.000
1709291798.474,-12.695,-29.785,-22.461,-7.812,0.000
1709291798.478,-9.277,-31.250,-20.020,-14.160,0.000
1709291798.482,-7.812,-30.762,-22.461,-16.602,0.000
1709291798.486,-20.020,-27.832,-22.461,-2.930,0.000
1709291798.490,-29.297,-27.344,-24.902,-10.254,0.000
1709291798.494,-20.020,-22.461,-27.832,-13.672,0.000
1709291798.498,-15.137,-25.391,-26.367,-9.277,0.000
1709291798.502,-17.578,-27.344,-25.879,-13.184,0.000
1709291798.505,-20.508,-23.438,-27.832,-12.207,0.000
1709291798.509,-29.785,-27.344,-27.832,-16.113,0.000
1709291798.513,-26.367,-31.738,-24.902,-20.996,0.000
1709291798.517,-14.648,-30.273,-23.438,-18.066,0.000
1709291798.521,-18.555,-25.879,-19.531,-12.695,0.000
1709291798.525,-27.344,-31.250,-17.578,-16.602,0.000
1709291798.529,-25.879,-36.621,-20.508,-14.160,0.000
1709291798.533,-20.508,-30.273,-22.949,-3.418,0.000
1709291798.537,-8.301,-26.855,-26.367,-11.230,0.000
1709291798.541,-8.789,-27.832,-28.809,-20.508,0.000
1709291798.544,-14.160,-24.902,-30.762,-20.020,0.000
1709291798.548,-12.695,-24.414,-32.715,-17.578,0.000
1709291798.552,-11.230,-22.461,-36.133,-18.066,0.000
1709291798.556,-3.906,-25.879,-35.156,-12.207,0.000
1709291798.560,-7.324,-25.391,-28.809,-13.184,0.000
1709291798.564,-17.090,-23.926,-23.438,-17.578,0.000
1709291798.568,-20.508,-24.414,-21.973,-14.160,0.000
1709291798.571,-12.207,-28.320,-23.926,-6.348,0.000
1709291798.575,-6.836,-29.785,-23.438,5.859,0.000
1709291798.579,-11.719,-19.043,-27.344,-1.465,0.000
1709291798.583,-19.531,-20.508,-27.832,-13.672,0.000
1709291798.587,-13.184,-22.949,-26.367,-18.066,0.000
1709291798.591,-8.789,-21.484,-29.785,-23.926,0.000
1709291798.594,-8.301,-23.438,-29.297,-19.043,0.000
1709291798.598,0.000,-10.254,-29.785,-17.090,0.000
1709291798.602,-4.883,30.273,-29.785,-20.508,0.000
1709291798.606,-14.160,54.688,-28.320,-18.555,0.000
1709291798.610,-12.207,57.617,-27.344,-11.719,0.000
1709291798.614,-0.977,57.129,-23.926,-6.836,0.000
1709291798.618,-0.977,54.688,-22.461,-3.906,0.000
1709291798.622,-11.230,55.664,-26.855,-2.930,0.000
1709291798.626,-14.648,52.734,-31.738,-3.906,0.000
1709291798.630,-15.625,47.363,-33.691,2.441,0.000
1709291798.633,-3.906,47.363,-31.738,-0.488,0.000
1709291798.637,7.812,46.875,-27.344,-10.254,0.000
1709291798.641,-2.930,34.180,-31.250,-16.602,0.000
1709291798.645,-13.184,28.809,-34.180,-13.184,0.000
1709291798.648,-13.184,27.832,-31.250,-4.883,0.000
1709291798.652,-5.859,26.855,-31.250,-7.812,0.000
1709291798.656,-0.488,29.785,-29.785,-12.207,0.000
1709291798.660,-12.695,25.391,-29.297,-13.184,0.000
1709291798.664,-23.926,20.996,-32.227,-5.371,0.000
1709291798.668,-21.973,24.902,-29.785,-11.719,0.000
1709291798.672,-11.230,24.902,-25.391,-21.484,0.000
1709291798.676,-7.812,21.484,-24.902,-9.277,0.000
1709291798.680,-9.277,18.555,-25.879,-9.766,0.000
1709291798.684,-20.020,11.230,-22.949,-21.484,0.000
1709291798.689,-22.949,8.301,-21.973,-20.020,0.000
1709291798.693,-12.207,6.348,-21.484,-17.578,0.000
1709291798.696,-11.230,6.348,-21.973,-20.508,0.000
1709291798.700,-14.648,3.418,-21.973,-23.438,0.000
1709291798.704,-19.531,-1.465,-24.414,-19.531,0.000
1709291798.708,-20.508,-6.348,-28.320,-15.625,0.000
1709291798.712,-15.137,-3.418,-27.344,-10.742,0.000
1709291798.716,-10.742,0.000,-26.367,-4.883,0.000
1709291798.720,-9.766,-3.418,-27.344,-9.766,0.000
1709291798.724,-20.508,-10.742,-26.367,-13.672,0.000
1709291798.728,-32.715,-8.301,-27.344,-10.254,0.000
1709291798.732,-22.461,-6.836,-29.785,-11.230,0.000
1709291798.736,-4.395,-9.277,-28.320,-8.789,0.000
1709291798.740,-10.254,-17.090,-29.297,-9.277,0.000
1709291798.744,-19.531,-20.020,-27.344,-12.695,0.000
1709291798.748,-22.949,-19.043,-19.043,-18.066,0.000
1709291798.752,-25.879,-23.926,-22.461,-21.973,0.000
1709291798.755,-12.207,-27.344,-24.902,-18.066,0.000
1709291798.759,-6.348,-27.344,-20.020,-20.020,0.000
1709291798.763,-16.113,-24.902,-16.113,-21.484,0.000
1709291798.767,-25.879,-28.809,-20.996,-18.555,0.000
1709291798.771,-20.508,-33.691,-27.832,-14.160,0.000
1709291798.775,-12.207,-28.320,-27.832,-17.578,0.000
1709291798.779,-12.207,-26.367,-24.902,-18.066,0.000
1709291798.783,-15.625,-32.227,-27.832,-18.066,0.000
1709291798.787,-23.438,-29.297,-29.297,-16.113,0.000
1709291798.791,-17.578,-23.438,-30.273,-9.766,0.000
1709291798.795,-7.324,-24.902,-30.762,-9.277,0.000
1709291798.798,-4.395,-28.320,-28.809,-9.277,0.000
1709291798.802,-15.137,-30.762,-33.203,-18.555,0.000
1709291798.806,-28.320,-32.227,-32.715,-27.344,0.000
1709291798.810,-23.438,-32.227,-29.785,-22.461,0.000
1709291798.814,-10.254,-34.180,-26.367,-6.836,0.000
1709291798.818,-13.184,-34.180,-23.926,-3.906,0.000
1709291798.822,-18.555,-30.273,-25.391,-10.254,0.000
1709291798.826,-26.367,-33.203,-26.855,-16.113,0.000
1709291798.830,-32.227,-39.551,-22.461,-15.625,0.000
1709291798.834,-19.043,-36.133,-24.414,-16.113,0.000
1709291798.838,-13.672,-35.156,-30.762,-17.090,0.000
1709291798.841,-25.391,-44.434,-33.203,-19.531,0.000
1709291798.845,-37.109,-44.922,-34.180,-23.438,0.000
1709291798.849,-41.992,-39.551,-34.668,-22.949,0.000
1709291798.853,-34.668,-38.574,-39.551,-21.484,0.000
1709291798.857,-24.902,-41.016,-40.527,-19.531,0.000
1709291798.861,-27.832,-41.016,-30.762,-8.301,0.000
1709291798.865,-33.203,-31.738,-26.367,-15.137,0.000
1709291798.869,-35.645,-30.762,-26.855,-20.020,0.000
1709291798.873,-32.715,-37.598,-26.855,-19.043,0.000
1709291798.876,-29.297,-40.527,-26.855,-22.949,0.000
1709291798.880,-29.297,-36.621,-28.320,-23.926,0.000
1709291798.884,-38.574,-32.715,-26.367,-29.297,0.000
1709291798.888,-46.875,-35.645,-28.320,-30.273,0.000
1709291798.892,-37.598,-35.645,-35.645,-23.438,0.000
1709291798.896,-33.203,-33.203,-38.574,-22.949,0.000
1709291798.900,-27.344,-34.180,-34.180,-29.297,0.000
1709291798.904,-20.508,-35.156,-29.297,-20.996,0.000
1709291798.908,-23.438,-30.762,-33.691,-18.555,0.000
1709291798.912,-16.602,-26.855,-37.109,-22.461,0.000
1709291798.916,-8.301,-30.273,-35.156,-25.391,0.000
1709291798.919,-12.207,-31.738,-41.504,-32.227,0.000
1709291798.924,-26.855,-28.809,-43.945,-38.574,0.000
1709291798.927,-40.527,-32.715,-42.969,-41.504,0.000
1709291798.931,-35.156,-35.645,-41.016,-35.156,0.000
1709291798.935,-28.809,-28.320,-36.621,-32.715,0.000
1709291798.939,-24.414,-21.973,-35.156,-31.250,0.000
1709291798.943,-25.391,-25.879,-32.227,-30.762,0.000
1709291798.947,-27.832,-28.320,-29.297,-23.926,0.000
1709291798.951,-26.367,-25.391,-27.344,-8.789,0.000
1709291798.955,-19.043,-19.043,-26.855,-10.254,0.000
1709291798.959,-8.789,-20.996,-29.785,-15.137,0.000
1709291798.963,-15.625,-25.391,-28.320,-18.555,0.000
1709291798.966,-22.949,-27.832,-26.367,-13.672,0.000
1709291798.970,-24.414,-27.832,-26.367,-4.883,0.000
1709291798.974,-17.090,-20.020,-27.832,-9.277,0.000
1709291798.978,-10.742,-20.508,-33.203,-14.160,0.000
1709291798.982,-15.137,-23.438,-38.574,-16.602,0.000
1709291798.985,-22.461,-25.391,-30.762,-17.578,0.000
1709291798.989,-21.484,-24.414,-24.414,-18.066,0.000
1709291798.993,-11.230,-23.926,-28.809,-5.859,0.000
1709291798.997,-15.137,-22.461,-29.297,-4.883,0.000
1709291799.001,-25.879,-26.855,-29.785,-27.344,0.000
1709291799.005,-29.297,-34.180,-28.809,-27.832,0.000
1709291799.009,-28.809,-34.180,-25.391,-19.531,0.000
1709291799.013,-26.855,-34.180,-28.320,-19.043,0.000
1709291799.016,-13.672,-29.297,-31.250,-14.648,0.000
1709291799.020,-17.090,-27.832,-27.832,-16.113,0.000
1709291799.024,-32.715,-36.621,-26.367,-20.996,0.000
1709291799.028,-33.203,-41.504,-25.879,-17.578,0.000
1709291799.032,-22.949,-41.016,-24.414,-14.160,0.000
1709291799.036,-11.719,-39.551,-25.391,-15.625,0.000
1709291799.039,-4.395,-40.039,-24.902,-4.883,0.000
1709291799.043,-14.160,-40.039,-27.344,-16.113,0.000
1709291799.047,-19.043,-35.645,-27.832,-19.531,0.000
1709291799.051,-13.184,-35.156,-29.785,-16.602,0.000
1709291799.055,-5.859,-34.180,-33.691,-23.926,0.000
1709291799.059,-7.324,-33.203,-30.762,-22.949,0.000
1709291799.064,-14.160,-33.691,-26.367,-18.066,0.000
1709291799.068,-12.207,-34.668,-25.879,-8.789,0.000
1709291799.071,-6.348,-32.227,-27.344,-4.395,0.000
1709291799.075,-2.441,-31.738,-25.879,-11.230,0.000
1709291799.079,-2.441,-33.203,-26.855,-17.578,0.000
1709291799.083,-6.348,-37.109,-31.250,-16.113,0.000
1709291799.087,-16.602,-41.016,-29.297,-21.973,0.000
1709291799.091,-13.672,-38.574,-27.344,-14.648,0.000
1709291799.095,-8.789,-39.062,-28.320,-8.789,0.000
1709291799.099,-7.324,-40.527,-25.879,-9.766,0.000
1709291799.103,-9.766,-32.227,-28.809,-15.137,0.000
1709291799.107,-20.996,-29.297,-34.180,-24.902,0.000
1709291799.111,-23.438,-36.133,-32.715,-24.902,0.000
1709291799.115,-13.184,-34.668,-32.227,-18.066,0.000
1709291799.119,-16.602,-34.180,-36.621,-26.855,0.000
1709291799.123,-28.320,-34.668,-33.203,-27.832,0.000
1709291799.127,-35.645,-36.133,-27.832,-18.555,0.000
1709291799.131,-27.832,-30.762,-27.832,-19.531,0.000
1709291799.135,-13.184,-11.719,-27.832,-17.090,0.000
1709291799.138,0.000,-9.766,-28.809,-21.484,0.000
1709291799.142,-7.812,-18.066,-30.273,-25.391,0.000
1709291799.146,-22.949,-18.066,-32.227,-11.719,0.000
1709291799.150,-19.531,-11.230,-33.691,-12.695,0.000
1709291799.154,-15.137,-16.602,-33.691,-14.160,0.000
1709291799.158,-8.301,-20.996,-35.645,-13.184,0.000
1709291799.162,-12.207,-17.578,-35.156,-17.578,0.000
1709291799.166,-23.438,-19.043,-32.227,-15.625,0.000
1709291799.170,-22.949,-21.973,-33.203,-9.766,0.000
1709291799.174,-15.137,-27.344,-30.762,-13.184,0.000
1709291799.178,-10.254,-23.438,-29.785,-16.602,0.000
1709291799.182,-21.484,-20.020,-30.762,-13.672,0.000
1709291799.185,-31.738,-26.367,-26.855,-14.160,0.000
1709291799.189,-37.109,-32.227,-32.715,-13.672,0.000
1709291799.193,-35.156,-27.832,-37.598,-14.648,0.000
1709291799.197,-25.879,-27.344,-31.738,-13.672,0.000
1709291799.201,-18.066,-29.297,-25.879,-9.766,0.000
1709291799.205,-21.484,-30.762,-24.902,-12.695,0.000
1709291799.209,-32.715,-34.180,-27.832,-15.137,0.000
1709291799.213,-23.438,-35.156,-26.855,-11.719,0.000
1709291799.217,-4.395,-34.668,-23.926,-9.277,0.000
1709291799.221,-5.859,-30.273,-25.879,-14.160,0.000
1709291799.224,-18.555,-29.297,-29.785,-19.043,0.000
1709291799.228,-18.555,-35.156,-27.344,-11.230,0.000
1709291799.232,-11.230,-33.203,-22.461,2.441,0.000
1709291799.236,-4.395,-28.809,-22.949,6.348,0.000
1709291799.240,0.000,-22.949,-25.391,-7.812,0.000
1709291799.244,-9.277,-22.949,-29.297,-17.578,0.000
1709291799.248,-22.949,-31.250,-29.297,-16.113,0.000
1709291799.252,-21.484,-30.273,-29.785,-14.648,0.000
1709291799.256,-11.719,-24.902,-29.785,-17.578,0.000
1709291799.260,-9.277,-24.414,-26.855,-18.555,0.000
1709291799.263,-22.949,-26.855,-24.902,-17.578,0.000
1709291799.267,-33.691,-31.250,-22.949,-19.531,0.000
1709291799.271,-25.391,-27.344,-24.414,-22.461,0.000
1709291799.275,-20.508,-14.160,-30.273,-26.855,0.000
1709291799.279,-19.531,-15.625,-28.809,-19.043,0.000
1709291799.283,-25.391,-17.578,-22.949,-18.066,0.000
1709291799.287,-30.762,-14.160,-20.508,-20.020,0.000
1709291799.291,-17.090,-13.184,-16.602,-6.348,0.000
1709291799.295,-3.906,-15.625,-21.484,0.977,0.000
1709291799.298,-1.465,-14.648,-26.367,-3.418,0.000
1709291799.302,-10.254,-17.090,-25.879,-13.672,0.000
1709291799.306,-12.695,-18.066,-23.438,-19.043,0.000
1709291799.310,-15.137,-16.113,-24.902,-18.066,0.000
1709291799.314,-15.137,-19.043,-28.809,-13.672,0.000
1709291799.318,-9.277,-20.508,-29.297,-20.020,0.000
1709291799.322,-13.184,-20.996,-32.227,-27.832,0.000
1709291799.326,-23.438,-24.902,-31.250,-16.113,0.000
1709291799.330,-19.531,-13.672,-26.367,-17.090,0.000
1709291799.333,-15.137,-13.672,-23.438,-20.020,0.000
1709291799.337,-12.695,-20.996,-24.414,-20.508,0.000
1709291799.341,-12.695,-20.508,-27.344,-33.203,0.000
1709291799.345,-21.484,-24.414,-27.344,-34.668,0.000
1709291799.349,-19.531,-23.926,-24.414,-26.855,0.000
1709291799.352,-13.672,-22.461,-21.973,-23.926,0.000
1709291799.356,-10.254,-20.020,-21.484,-20.508,0.000
1709291799.360,-12.695,-18.555,-20.996,-19.531,0.000
1709291799.364,-25.391,-23.926,-23.438,-20.020,0.000
1709291799.368,-26.367,-27.344,-21.484,-9.766,0.000
1709291799.372,-23.438,-28.809,-20.020,-8.301,0.000
1709291799.376,-18.555,-27.832,-22.949,-23.438,0.000
1709291799.380,-20.020,-25.879,-20.996,-17.578,0.000
1709291799.384,-28.320,-29.297,-23.926,-14.160,0.000
1709291799.388,-37.109,-31.738,-25.879,-21.973,0.000
1709291799.391,-34.668,-30.273,-26.855,-15.625,0.000
1709291799.395,-22.949,-27.832,-27.344,-10.254,0.000
1709291799.399,-19.043,-22.949,-22.949,-19.043,0.000
1709291799.403,-23.438,-19.043,-23.438,-20.508,0.000
1709291799.406,-29.297,-18.066,-28.320,-20.996,0.000
1709291799.410,-23.438,-17.578,-27.832,-21.484,0.000
1709291799.414,-5.371,-24.414,-23.438,-6.836,0.000
1709291799.418,-5.371,-23.438,-23.926,-12.695,0.000
1709291799.422,-21.973,-26.855,-27.344,-22.461,0.000
1709291799.426,-25.879,-31.250,-24.414,-20.508,0.000
1709291799.430,-21.973,-23.438,-24.902,-26.367,0.000
1709291799.434,-17.578,-22.461,-29.297,-24.414,0.000
1709291799.438,-14.648,-28.320,-32.227,-17.090,0.000
1709291799.442,-13.184,-26.367,-29.297,-14.648,0.000
1709291799.446,-19.043,-19.531,-27.832,-16.113,0.000
1709291799.450,-22.949,-23.926,-34.180,-12.695,0.000
1709291799.454,-14.648,-25.391,-35.645,-10.742,0.000
1709291799.458,-7.324,-27.344,-30.273,-13.672,0.000
1709291799.462,-14.160,-26.367,-27.344,-11.230,0.000
1709291799.466,-25.879,-23.438,-33.691,-19.043,0.000
1709291799.470,-28.809,-31.738,-41.992,-20.508,0.000
1709291799.473,-20.996,-33.203,-39.062,-7.324,0.000
1709291799.477,-17.090,-23.438,-37.598,-9.277,0.000
1709291799.481,-11.719,-20.508,-41.016,-22.461,0.000
1709291799.486,-15.137,-24.414,-34.180,-21.973,0.000
1709291799.489,-21.484,-18.066,-35.156,-20.508,0.000
1709291799.493,-21.484,-19.043,-37.598,-24.414,0.000
1709291799.497,-21.484,-26.367,-32.227,-19.531,0.000
1709291799.501,-18.555,-27.832,-32.227,-17.090,0.000
1709291799.505,-25.391,-20.508,-28.809,-22.949,0.000
1709291799.509,-29.297,-22.949,-24.902,-18.066,0.000
1709291799.513,-16.113,-28.809,-27.344,-12.207,0.000
1709291799.517,-3.418,-31.738,-24.414,-9.766,0.000
1709291799.521,-6.836,-28.809,-24.414,-4.395,0.000
1709291799.525,-14.160,-24.414,-30.273,-13.184,0.000
1709291799.529,-16.113,-28.320,-26.855,-21.973,0.000
1709291799.533,-15.625,-25.879,-25.879,-17.578,0.000
1709291799.537,-3.418,-26.367,-28.809,-12.207,0.000
1709291799.540,-10.742,-29.297,-31.250,-20.508,0.000
1709291799.544,-29.297,-30.762,-31.250,-22.949,0.000
1709291799.548,-31.738,-30.762,-28.320,-19.043,0.000
1709291799.552,-29.785,-30.273,-31.738,-23.926,0.000
1709291799.556,-18.066,-25.391,-32.715,-23.926,0.000
1709291799.560,-16.113,-22.461,-33.691,-22.949,0.000
1709291799.564,-23.926,-26.367,-32.227,-19.043,0.000
1709291799.568,-23.926,-24.414,-34.180,-10.742,0.000
1709291799.572,-19.531,-16.602,-36.133,-12.207,0.000
1709291799.576,-16.113,-21.973,-32.227,-22.461,0.000
1709291799.580,-21.484,-27.832,-29.297,-20.996,0.000
1709291799.583,-33.203,-24.902,-26.367,-16.113,0.000
1709291799.587,-32.227,-26.855,-27.344,-13.672,0.000
1709291799.591,-28.809,-27.344,-26.855,-16.113,0.000
1709291799.595,-17.090,-22.461,-21.484,-13.672,0.000
1709291799.599,-3.418,-18.555,-19.531,0.977,0.000
1709291799.603,-12.695,-14.160,-19.043,-3.418,0.000
1709291799.607,-21.973,-12.207,-20.508,-2.441,0.000
1709291799.611,-10.742,-11.719,-24.414,10.254,0.000
1709291799.615,-0.977,-8.301,-27.832,1.465,0.000
1709291799.619,1.465,-9.277,-33.691,-7.324,0.000
1709291799.622,-6.348,-10.742,-33.203,-11.719,0.000
1709291799.626,-19.531,-12.207,-30.762,-10.254,0.000
1709291799.630,-28.809,-16.602,-32.227,-8.789,0.000
1709291799.634,-30.762,-20.996,-34.668,-15.625,0.000
1709291799.638,-25.391,-23.926,-32.227,-15.625,0.000
1709291799.642,-17.578,-25.391,-25.391,-14.160,0.000
1709291799.646,-16.602,-27.344,-27.344,-15.137,0.000
1709291799.650,-28.809,-23.438,-36.133,-14.648,0.000
1709291799.654,-29.785,-20.020,-37.109,-8.301,0.000
1709291799.657,-20.020,-15.625,-32.715,-7.324,0.000
1709291799.661,-18.555,-11.719,-32.227,-18.066,0.000
1709291799.665,-29.785,-18.555,-35.156,-18.066,0.000
1709291799.669,-37.598,-26.855,-36.621,-17.578,0.000
1709291799.673,-26.855,-25.391,-35.156,-18.555,0.000
1709291799.677,-20.996,-26.367,-30.762,-13.184,0.000
1709291799.681,-16.602,-31.250,-29.297,-15.625,0.000
1709291799.684,-17.090,-35.156,-29.297,-24.414,0.000
1709291799.688,-23.438,-35.156,-27.832,-20.508,0.000
1709291799.692,-17.578,-33.203,-28.320,-10.254,0.000
1709291799.696,-9.277,-34.668,-26.855,-6.348,0.000
1709291799.700,-16.602,-40.527,-27.344,-3.418,0.000
1709291799.704,-28.320,-31.738,-30.273,-19.043,0.000
1709291799.708,-33.203,-32.715,-31.738,-26.367,0.000
1709291799.712,-27.832,-37.109,-30.273,-25.879,0.000
1709291799.716,-16.602,-28.809,-27.832,-32.715,0.000
1709291799.720,-14.648,-31.738,-26.367,-26.367,0.000
1709291799.724,-23.926,-34.668,-22.949,-17.578,0.000
1709291799.728,-26.367,-38.086,-21.484,-14.648,0.000
1709291799.732,-21.484,-31.738,-24.414,-16.602,0.000
1709291799.736,-19.043,-28.809,-26.367,-25.391,0.000
1709291799.740,-11.230,-33.203,-26.367,-20.508,0.000
1709291799.744,-17.578,-32.227,-29.297,-11.719,0.000
1709291799.748,-21.484,-31.738,-32.715,-11.230,0.000
1709291799.752,-11.230,-27.832,-34.180,-4.883,0.000
1709291799.756,-3.418,-29.785,-31.738,1.465,0.000
1709291799.760,-10.742,-31.738,-22.949,4.395,0.000
1709291799.763,-17.578,-21.484,-23.926,-1.465,0.000
1709291799.767,-19.531,-21.484,-24.902,-10.742,0.000
1709291799.770,-21.484,-24.414,-21.484,-14.160,0.000
1709291799.774,-12.695,-20.508,-21.484,-7.812,0.000
1709291799.778,-9.277,-20.508,-20.508,-8.789,0.000
1709291799.782,-13.672,-20.996,-17.578,-16.113,0.000
1709291799.786,-23.926,-28.809,-18.555,-15.137,0.000
1709291799.790,-24.414,-30.273,-19.531,-10.254,0.000
1709291799.794,-19.043,-23.926,-22.461,-8.301,0.000
1709291799.798,-26.855,-22.949,-31.250,-14.160,0.000
1709291799.802,-33.203,-27.832,-30.273,-22.461,0.000
1709291799.806,-31.738,-27.344,-22.949,-10.254,0.000
1709291799.810,-31.250,-28.809,-25.391,-14.648,0.000
1709291799.814,0.000,-36.621,0.000,0.000,0.000
1709291799.818,0.000,-33.691,0.000,0.000,0.000
1709291799.822,0.000,-28.320,0.000,0.000,0.000
1709291799.826,0.000,-29.297,0.000,0.000,0.000
1709291799.830,0.000,-31.250,0.000,0.000,0.000
1709291799.834,0.000,-29.785,0.000,0.000,0.000
1709291799.838,0.000,-23.438,0.000,0.000,0.000
1709291799.842,0.000,-20.996,0.000,0.000,0.000
1709291799.845,0.000,-26.855,0.000,0.000,0.000
1709291799.849,0.000,-28.809,0.000,0.000,0.000
1709291799.853,0.000,-24.414,0.000,0.000,0.000
1709291799.857,0.000,-26.367,0.000,0.000,0.000
1709291799.861,-10.742,-23.926,-30.762,-20.020,0.000
1709291799.865,-17.578,-26.855,-26.855,-18.066,0.000
1709291799.869,-20.020,-21.484,-25.391,-9.766,0.000
1709291799.873,-11.719,-19.043,-32.227,-11.719,0.000
1709291799.877,-9.766,-25.879,-32.715,-24.902,0.000
1709291799.881,-18.555,-27.344,-32.227,-24.902,0.000
1709291799.885,-24.902,-26.855,-32.227,-26.367,0.000
1709291799.889,-21.973,-24.902,-27.832,-28.320,0.000
1709291799.893,-12.695,-21.484,-22.461,-20.020,0.000
1709291799.897,-6.348,-18.555,-23.438,-13.184,0.000
1709291799.900,-11.230,-14.648,-24.902,-18.555,0.000
1709291799.904,-16.113,-19.043,-20.996,-23.438,0.000
1709291799.908,-26.367,-22.461,-21.484,-24.902,0.000
1709291799.912,-26.855,-21.973,-24.902,-24.902,0.000
1709291799.916,-15.137,-23.438,-23.438,-20.996,0.000
1709291799.920,-7.324,-21.484,-19.531,-16.602,0.000
1709291799.924,-7.324,-18.066,-14.648,-20.020,0.000
1709291799.928,-19.531,-20.996,-20.508,-20.020,0.000
1709291799.932,-22.949,-21.973,-29.785,-17.090,0.000
1709291799.936,-9.766,-21.484,-25.391,-19.043,0.000
1709291799.940,-4.883,-20.996,-20.508,-10.742,0.000
1709291799.944,-17.578,-17.090,-24.902,-12.207,0.000
1709291799.947,-22.949,-16.602,-29.297,-23.926,0.000
1709291799.951,-17.578,-19.043,-26.367,-20.508,0.000
1709291799.955,-7.324,-16.602,-19.043,-11.230,0.000
1709291799.959,-9.766,-16.113,-17.578,-12.695,0.000
1709291799.963,-28.809,-20.020,-22.949,-25.391,0.000
1709291799.967,-34.668,-20.996,-26.855,-26.367,0.000
1709291799.971,-27.832,-23.926,-26.367,-16.602,0.000
1709291799.975,-17.090,-21.484,-21.973,-16.602,0.000
1709291799.979,-3.906,-15.625,-24.902,-19.531,0.000
1709291799.983,-14.648,-22.461,-26.855,-20.996,0.000
1709291799.986,-29.297,-20.508,-25.879,-13.184,0.000
1709291799.990,-31.250,-15.625,-34.180,-19.043,0.000
1709291799.994,-19.531,-20.996,-36.621,-29.785,0.000
1709291799.998,-5.371,-19.043,-34.180,-24.902,0.000
1709291800.002,-14.648,-18.555,-28.809,-21.484,0.000
1709291800.006,-25.391,-16.602,-26.367,-28.809,0.000
1709291800.010,-23.438,-12.695,-25.391,-26.855,0.000
1709291800.013,-18.555,-16.602,-25.879,-13.184,0.000
1709291800.017,-12.695,-18.066,-26.367,-16.113,0.000
1709291800.021,-11.719,-15.625,-22.949,-20.996,0.000
1709291800.025,-19.531,-16.113,-23.438,-19.531,0.000
1709291800.029,-23.926,-15.625,-25.879,-13.672,0.000
1709291800.033,-17.578,-11.230,-22.949,-7.324,0.000
1709291800.037,-8.301,-12.695,-23.438,-12.695,0.000
1709291800.041,-3.418,-13.672,-21.973,-14.160,0.000
1709291800.045,-20.508,-16.602,-24.414,-17.578,0.000
1709291800.048,-25.879,-16.602,-31.738,-13.672,0.000
1709291800.052,-21.484,-18.066,-34.668,-14.648,0.000
1709291800.056,-17.578,-22.461,-32.715,-16.113,0.000
1709291800.060,-12.695,-20.020,-30.762,-12.207,0.000
1709291800.064,-20.020,-20.020,-34.180,-17.090,0.000
1709291800.068,-26.367,-28.320,-39.551,-16.602,0.000
1709291800.072,-29.297,-33.203,-39.062,-5.371,0.000
1709291800.076,-17.578,-23.926,-32.227,-0.488,0.000
1709291800.080,-13.184,-18.066,-25.879,-16.602,0.000
1709291800.083,-22.949,-20.996,-26.367,-17.578,0.000
1709291800.087,-30.762,-25.879,-29.785,-10.742,0.000
1709291800.091,-23.926,-30.762,-31.738,-16.602,0.000
1709291800.095,-11.230,-26.855,-31.738,-16.113,0.000
1709291800.099,-8.301,-22.461,-32.715,-14.648,0.000
1709291800.103,-11.719,-24.414,-33.203,-19.531,0.000
1709291800.106,-13.184,-21.484,-30.273,-18.066,0.000
1709291800.110,-20.508,-20.996,-29.785,-4.395,0.000
1709291800.114,-21.973,-24.902,-31.250,0.488,0.000
1709291800.118,-19.043,-26.367,-29.785,-4.395,0.000
1709291800.122,-22.949,-23.438,-27.832,-6.348,0.000
1709291800.126,-24.414,-20.996,-25.879,-8.789,0.000
1709291800.130,-17.090,-20.996,-26.367,-9.277,0.000
1709291800.134,-8.301,-17.578,-23.926,0.488,0.000
1709291800.138,-6.348,-20.996,-24.414,-0.977,0.000
1709291800.141,0.000,-23.926,-25.391,-12.207,0.000
1709291800.145,0.000,-26.855,-22.461,-13.672,0.000
1709291800.149,0.000,-28.809,-22.949,-13.184,0.000
1709291800.153,0.000,-23.926,-26.367,-12.207,0.000
1709291800.157,0.000,-25.879,-29.297,-11.719,0.000
1709291800.161,0.000,-29.297,-25.879,-13.672,0.000
1709291800.165,0.000,-29.297,-24.902,-7.324,0.000
1709291800.168,0.000,-27.832,-29.297,-9.766,0.000
1709291800.172,0.000,-27.832,-30.762,-10.254,0.000
1709291800.176,0.000,-32.715,-33.691,-3.906,0.000
1709291800.180,0.000,-36.621,-37.598,-10.254,0.000
1709291800.184,0.000,-39.062,-39.062,-13.184,0.000
1709291800.185,-13.184,-36.133,-37.109,-7.324,0.000
1709291800.189,-19.043,-35.645,-35.645,-4.395,0.000
1709291800.192,-21.484,-46.875,-38.086,-11.230,0.000
1709291800.196,-19.531,-42.969,-36.133,-14.160,0.000
1709291800.200,-15.137,-36.621,-35.156,-18.066,0.000
1709291800.204,-13.672,-41.992,-43.945,-20.020,0.000
1709291800.208,-20.508,-36.621,-45.898,-16.113,0.000
1709291800.212,-30.273,-30.762,-38.574,-22.461,0.000
1709291800.216,-25.391,-34.180,-35.156,-33.203,0.000
1709291800.220,-10.742,-37.109,-33.691,-26.367,0.000
1709291800.224,-12.695,-33.203,-33.691,-20.996,0.000
1709291800.228,-33.691,-27.344,-32.227,-22.949,0.000
1709291800.232,-9.277,-26.367,-25.879,-20.020,0.000
1709291800.236,-0.488,-25.391,-23.926,-16.602,0.000
1709291800.240,-13.672,-28.809,-30.273,-18.066,0.000
1709291800.244,-23.926,-32.715,-32.715,-21.973,0.000
1709291800.248,-14.648,-29.785,-28.809,-16.113,0.000
1709291800.252,-4.883,-28.809,-25.879,-7.324,0.000
1709291800.256,2.441,-28.320,-27.344,-2.930,0.000
1709291800.260,-8.301,-31.250,-25.391,-9.277,0.000
1709291800.264,-22.461,-35.645,-28.809,-13.184,0.000
1709291800.267,-19.043,-34.180,-33.203,-12.695,0.000
1709291800.271,-16.113,-31.738,-34.180,-21.973,0.000
1709291800.275,-22.461,-36.621,-31.738,-23.926,0.000
1709291800.280,-32.227,-38.574,-28.320,-25.391,0.000
1709291800.284,-42.480,-37.598,-30.762,-34.668,0.000
1709291800.287,-38.086,-39.062,-31.250,-33.691,0.000
1709291800.291,-22.949,-36.621,-31.250,-28.320,0.000
1709291800.295,-15.625,-33.203,-26.855,-24.414,0.000
1709291800.299,-23.438,-31.738,-23.438,-20.996,0.000
1709291800.303,-25.879,-26.855,-27.344,-16.602,0.000
1709291800.307,-23.438,-25.879,-26.855,-17.090,0.000
1709291800.311,-22.949,-34.180,-25.391,-14.160,0.000
1709291800.315,-21.973,-31.250,-31.250,-18.555,0.000
1709291800.319,-20.508,-30.273,-29.785,-30.762,0.000
1709291800.323,-31.738,-41.016,-22.949,-30.762,0.000
1709291800.328,-43.457,-45.898,-23.926,-33.203,0.000
1709291800.332,-36.133,-45.898,-31.738,-35.645,0.000
1709291800.336,-23.438,-45.898,-32.227,-29.297,0.000
1709291800.340,-25.879,-48.828,-31.250,-30.273,0.000
1709291800.344,-32.715,-47.852,-33.203,-34.668,0.000
1709291800.348,-40.527,-49.316,-34.668,-39.551,0.000
1709291800.352,-34.180,-46.875,-34.180,-33.691,0.000
1709291800.356,-18.066,-42.480,-31.250,-23.926,0.000
1709291800.359,-14.648,-48.828,-23.926,-19.531,0.000
1709291800.363,-22.949,-42.480,-24.902,-21.973,0.000
1709291800.367,-27.832,-38.574,-26.367,-24.414,0.000
1709291800.371,-20.508,-40.527,-26.367,-26.855,0.000
1709291800.375,-18.555,-34.180,-31.250,-29.785,0.000
1709291800.379,-18.066,-37.109,-28.809,-22.949,0.000
1709291800.383,-23.926,-40.527,-23.926,-19.531,0.000
1709291800.387,-25.391,-41.016,-24.902,-24.902,0.000
1709291800.391,-16.113,-39.062,-28.320,-18.066,0.000
1709291800.395,-3.418,-39.062,-34.180,-17.578,0.000
1709291800.398,-5.859,-40.527,-30.273,-22.461,0.000
1709291800.402,-22.461,-38.086,-31.250,-25.391,0.000
1709291800.406,-30.273,-33.203,-34.180,-25.391,0.000
1709291800.410,-26.855,-28.809,-28.320,-21.484,0.000
1709291800.414,-10.742,-27.832,-28.320,-20.996,0.000
1709291800.418,-0.488,-32.227,-27.344,-11.719,0.000
1709291800.422,-14.648,-24.902,-28.320,-11.719,0.000
1709291800.426,-22.949,-18.555,-28.809,-14.160,0.000
1709291800.429,-12.695,-21.484,-24.902,-5.859,0.000
1709291800.433,-9.277,-25.391,-28.809,-11.230,0.000
1709291800.437,-13.672,-28.320,-32.227,-17.090,0.000
1709291800.441,-13.184,-28.320,-24.414,-18.066,0.000
1709291800.445,-13.672,-28.809,-18.066,-12.207,0.000
1709291800.449,-17.578,-25.879,-18.555,2.930,0.000
1709291800.453,-11.719,-27.832,-22.461,-0.977,0.000
1709291800.457,-6.836,-31.250,-20.020,-4.395,0.000
1709291800.461,-9.766,-35.645,-23.438,-5.371,0.000
1709291800.465,-19.043,-35.645,-27.832,-12.207,0.000
1709291800.468,-29.297,-34.668,-28.320,-12.695,0.000
1709291800.472,-19.531,-33.691,-27.832,-16.602,0.000
1709291800.476,-14.160,-32.715,-31.250,-14.648,0.000
1709291800.480,-21.484,-36.133,-34.668,-20.996,0.000
1709291800.484,-24.414,-37.598,-28.320,-25.879,0.000
1709291800.488,-22.949,-32.715,-22.461,-20.996,0.000
1709291800.492,-23.438,-35.645,-25.391,-14.160,0.000
1709291800.496,-24.414,-38.086,-32.227,-12.695,0.000
1709291800.499,-29.297,-33.691,-28.809,-25.391,0.000
1709291800.503,-32.227,-36.621,-26.855,-24.902,0.000
1709291800.507,-22.461,-39.062,-31.738,-20.508,0.000
1709291800.511,-16.602,-35.156,-30.273,-19.531,0.000
1709291800.515,-13.672,-28.809,-27.832,-30.273,0.000
1709291800.518,-11.719,-32.715,-30.762,-35.156,0.000
1709291800.522,-25.879,-37.109,-32.715,-33.203,0.000
1709291800.526,-28.809,-32.227,-32.715,-29.785,0.000
1709291800.530,-13.672,-31.250,-31.250,-13.672,0.000
1709291800.534,-8.301,-34.180,-28.320,-6.836,0.000
1709291800.538,-21.973,-34.180,-29.297,-2.930,0.000
1709291800.542,-32.715,-37.598,-35.156,-10.254,0.000
1709291800.546,-30.762,-43.457,-37.598,-25.391,0.000
1709291800.550,-20.996,-42.969,-33.203,-21.484,0.000
1709291800.554,-8.301,-34.668,-27.344,-13.184,0.000
1709291800.557,-0.488,-30.273,-24.902,-10.742,0.000
1709291800.562,-12.695,-28.320,-21.484,-13.672,0.000
1709291800.566,-25.391,-32.715,-24.902,-14.160,0.000
1709291800.570,-21.973,-38.086,-35.645,-10.254,0.000
1709291800.574,-19.043,-38.086,-39.551,-16.113,0.000
1709291800.578,-21.484,-41.504,-40.039,-21.973,0.000
1709291800.582,-24.414,-43.457,-37.598,-22.949,0.000
1709291800.586,-37.109,-40.527,-37.598,-26.855,0.000
1709291800.589,-35.645,-36.621,-35.156,-20.020,0.000
1709291800.593,-13.672,-33.203,-28.809,-6.348,0.000
1709291800.597,-12.695,-37.598,-26.367,-3.906,0.000
1709291800.601,-26.855,-36.621,-30.273,-12.207,0.000
1709291800.605,-26.367,-30.762,-29.297,-15.137,0.000
1709291800.611,-21.973,-27.344,-25.391,-10.254,0.000
1709291800.615,-18.555,-33.203,-25.879,-15.137,0.000
1709291800.619,-10.742,-36.133,-30.762,-20.996,0.000
1709291800.623,-4.883,-24.902,-31.250,-20.996,0.000
1709291800.626,-18.066,-26.367,-29.785,-20.996,0.000
1709291800.630,-24.902,-32.715,-29.297,-13.184,0.000
1709291800.634,-13.184,-29.297,-31.250,-13.184,0.000
1709291800.638,-6.836,-26.855,-30.273,-16.113,0.000
1709291800.642,-14.160,-25.391,-28.809,-14.648,0.000
1709291800.646,-20.996,-24.414,-27.344,-9.277,0.000
1709291800.650,-22.461,-20.508,-28.320,-11.719,0.000
1709291800.654,-17.090,-17.090,-25.391,-13.672,0.000
1709291800.658,-9.766,-19.531,-24.902,-14.160,0.000
1709291800.662,-13.184,-21.484,-27.344,-11.230,0.000
1709291800.666,-26.367,-25.879,-26.367,-9.766,0.000
1709291800.670,-29.297,-30.273,-29.297,-12.695,0.000
1709291800.674,-12.207,-30.273,-26.367,-9.277,0.000
1709291800.677,-7.324,-24.414,-21.973,-2.930,0.000
1709291800.681,-9.277,-19.043,-24.902,-0.977,0.000
1709291800.685,-15.625,-24.414,-24.902,-9.766,0.000
1709291800.689,-22.461,-30.762,-20.996,-13.184,0.000
1709291800.693,-18.555,-25.391,-22.949,-9.277,0.000
1709291800.697,-8.789,-23.926,-24.414,-3.418,0.000
1709291800.701,-7.812,-26.367,-22.949,-8.789,0.000
1709291800.705,-17.090,-29.297,-25.391,-10.742,0.000
1709291800.709,-23.438,-28.320,-26.855,-6.836,0.000
1709291800.713,-17.578,-24.414,-26.855,-12.695,0.000
1709291800.716,-14.160,-30.762,-27.832,-14.648,0.000
1709291800.720,-14.160,-36.621,-32.715,-19.043,0.000
1709291800.724,-21.484,-32.227,-36.133,-19.043,0.000
1709291800.728,-27.344,-23.926,-28.809,-14.648,0.000
1709291800.732,-17.578,-27.344,-26.855,-6.348,0.000
1709291800.736,-12.207,-28.809,-28.809,-2.441,0.000
1709291800.740,-12.695,-16.602,-25.391,-16.113,0.000
1709291800.744,-18.066,-20.020,-26.367,-22.949,0.000
1709291800.748,-21.973,-24.902,-31.738,-17.090,0.000
1709291800.753,-19.531,-26.367,-37.598,-7.812,0.000
1709291800.757,-16.113,-35.156,-36.621,-9.766,0.000
1709291800.761,-13.184,-32.227,-29.785,-13.184,0.000
1709291800.764,-18.555,-29.297,-27.344,-16.113,0.000
1709291800.768,-30.762,-30.273,-35.156,-22.461,0.000
1709291800.772,-35.156,-32.227,-35.645,-14.160,0.000
1709291800.776,-28.320,-34.180,-35.156,-14.648,0.000
1709291800.780,-22.949,-36.133,-40.039,-17.090,0.000
1709291800.784,-22.949,-30.762,-39.551,-14.648,0.000
1709291800.788,-31.738,-25.391,-37.109,-19.043,0.000
1709291800.792,-31.738,-21.484,-37.109,-21.484,0.000
1709291800.796,-23.438,-28.320,-38.086,-20.996,0.000
1709291800.799,-20.996,-34.180,-38.086,-21.973,0.000
1709291800.803,-25.879,-34.180,-35.156,-24.902,0.000
1709291800.807,-32.227,-34.668,-32.715,-23.926,0.000
1709291800.811,-26.367,-30.273,-28.809,-19.531,0.000
1709291800.815,-14.160,-27.832,-22.461,-7.812,0.000
1709291800.819,-6.348,-27.832,-21.973,-6.348,0.000
1709291800.823,-5.859,-27.344,-23.438,-23.438,0.000
1709291800.826,-18.066,-26.367,-22.949,-24.902,0.000
1709291800.830,-25.391,-20.508,-19.531,-20.996,0.000
1709291800.834,-21.484,-20.020,-21.973,-26.367,0.000
1709291800.838,-11.719,-30.273,-22.949,-11.719,0.000
1709291800.842,-10.742,-31.250,-16.602,-1.465,0.000
1709291800.845,-19.531,-23.926,-18.066,-13.672,0.000
1709291800.849,-20.508,-23.926,-16.602,-9.277,0.000
1709291800.853,-14.160,-29.297,-11.719,-4.395,0.000
1709291800.857,-8.301,-29.297,-13.672,-7.324,0.000
1709291800.861,-3.906,-26.367,-17.578,-7.812,0.000
1709291800.865,-16.113,-35.156,-25.879,-17.578,0.000
1709291800.869,-25.879,-34.668,-23.438,-15.137,0.000
1709291800.873,-15.137,-19.531,-19.531,-5.859,0.000
1709291800.877,-5.859,-19.043,-21.484,-14.648,0.000
1709291800.880,-6.348,-23.926,-19.043,-10.742,0.000
1709291800.884,-15.137,-23.926,-19.531,-13.184,0.000
1709291800.888,-31.250,-30.762,-23.438,-24.414,0.000
1709291800.891,-37.598,-31.250,-27.344,-18.555,0.000
1709291800.895,-23.926,-29.297,-30.273,-13.184,0.000
1709291800.899,-12.695,-30.273,-32.227,-18.066,0.000
1709291800.903,-16.113,-30.762,-32.715,-15.625,0.000
1709291800.907,-20.996,-29.785,-30.762,-12.695,0.000
1709291800.911,-22.461,-34.180,-29.297,-8.789,0.000
1709291800.915,-17.578,-35.645,-28.320,3.906,0.000
1709291800.919,-15.137,-30.273,-31.250,-5.371,0.000
1709291800.923,-21.484,-27.344,-31.250,-19.043,0.000
1709291800.927,-27.344,-25.879,-26.367,-13.672,0.000
1709291800.930,-24.902,-19.531,-23.926,-13.672,0.000
1709291800.934,-10.742,-22.949,-25.879,-11.230,0.000
1709291800.938,-6.836,-25.879,-27.344,-14.648,0.000
1709291800.942,-12.207,-27.344,-31.250,-21.973,0.000
1709291800.946,-22.461,-28.809,-35.156,-16.602,0.000
1709291800.950,-25.391,-26.855,-35.645,-6.348,0.000
1709291800.953,-15.137,-29.297,-36.133,-6.836,0.000
1709291800.957,-13.672,-36.621,-35.156,-20.996,0.000
1709291800.961,-13.672,-33.691,-27.832,-30.762,0.000
1709291800.965,-11.719,-27.344,-27.344,-30.273,0.000
1709291800.969,-17.578,-32.227,-33.203,-18.555,0.000
1709291800.973,-22.461,-35.156,-31.738,-17.090,0.000
1709291800.977,-20.020,-32.227,-30.273,-24.902,0.000
1709291800.981,-24.902,-35.645,-37.109,-22.949,0.000
1709291800.985,-30.273,-43.945,-40.527,-24.414,0.000
1709291800.989,-31.738,-42.480,-38.574,-31.738,0.000
1709291800.993,-22.461,-34.668,-39.551,-38.086,0.000
1709291800.997,-6.836,-34.668,-34.668,-37.109,0.000
1709291801.001,-12.207,-39.062,-31.738,-32.715,0.000
1709291801.005,-26.367,-39.551,-37.109,-36.621,0.000
1709291801.009,-24.902,-33.691,-35.156,-34.180,0.000
1709291801.012,-20.020,-28.320,-33.203,-32.227,0.000
1709291801.016,-10.742,-29.297,-30.762,-22.461,0.000
1709291801.020,-13.672,-25.879,-33.203,-6.836,0.000
1709291801.024,-23.438,-28.809,-37.598,-16.602,0.000
1709291801.028,-28.320,-38.574,-37.598,-23.438,0.000
1709291801.032,-28.320,-37.109,-39.062,-23.438,0.000
1709291801.036,-13.672,-32.227,-34.180,-20.020,0.000
1709291801.040,-8.789,-34.668,-28.809,-16.602,0.000
1709291801.044,-22.461,-38.574,-25.391,-21.484,0.000
1709291801.048,-29.297,-40.527,-29.297,-22.949,0.000
1709291801.052,-26.367,-38.574,-29.297,-18.555,0.000
1709291801.056,-25.879,-36.133,-29.297,-22.949,0.000
1709291801.060,-19.531,-30.762,-27.832,-26.367,0.000
1709291801.063,-9.277,-32.227,-21.973,-9.277,0.000
1709291801.067,-9.766,-37.109,-26.855,-11.719,0.000
1709291801.071,-19.531,-34.668,-32.715,-20.996,0.000
1709291801.075,-14.160,-37.109,-37.109,-13.672,0.000
1709291801.079,0.488,-36.621,-35.156,-19.043,0.000
1709291801.083,-15.137,-33.203,-32.227,-25.391,0.000
1709291801.087,-27.344,-34.180,-32.715,-23.438,0.000
1709291801.091,-22.949,-36.621,-34.668,-16.602,0.000
1709291801.095,-16.602,-41.016,-35.156,-16.602,0.000
1709291801.099,-18.555,-35.645,-36.133,-16.113,0.000
1709291801.102,-27.832,-35.156,-41.016,-25.879,0.000
1709291801.106,-27.832,-40.039,-41.016,-28.320,0.000
1709291801.110,-23.926,-40.527,-36.621,-10.254,0.000
1709291801.114,-15.137,-37.598,-36.621,-14.160,0.000
1709291801.118,-18.555,-42.969,-41.504,-27.832,0.000
1709291801.122,-17.578,-44.434,-38.086,-26.367,0.000
1709291801.126,-17.090,-41.016,-29.785,-20.020,0.000
1709291801.130,-21.484,-39.551,-29.297,-18.555,0.000
1709291801.134,-9.766,-41.992,-31.250,-18.066,0.000
1709291801.138,-6.348,-42.480,-36.621,-16.602,0.000
1709291801.141,-10.254,-39.551,-37.598,-19.531,0.000
1709291801.145,-13.184,-39.062,-34.668,-17.090,0.000
1709291801.149,-14.160,-37.598,-32.227,-5.859,0.000
1709291801.153,-5.859,-41.992,-31.250,6.348,0.000
1709291801.157,5.371,-36.133,-30.762,3.906,0.000
1709291801.161,5.859,-35.645,-32.715,-11.719,0.000
1709291801.165,-5.859,-41.016,-30.762,-19.043,0.000
1709291801.169,-20.020,-38.086,-24.902,-20.508,0.000
1709291801.172,0.000,-38.574,-28.809,-17.090,0.000
1709291801.176,0.000,-38.086,-34.668,-15.137,0.000
1709291801.180,0.000,-36.621,-36.133,-22.949,0.000
1709291801.184,0.000,-40.527,-38.086,-25.879,0.000
1709291801.188,0.000,-38.086,-36.133,-17.578,0.000
1709291801.192,0.000,-37.598,-33.691,-17.090,0.000
1709291801.196,0.000,-42.969,-33.203,-15.625,0.000
1709291801.200,0.000,-45.410,-35.156,-7.812,0.000
1709291801.204,0.000,-44.434,-37.109,-18.066,0.000
1709291801.208,0.000,-44.922,-34.668,-22.949,0.000
1709291801.212,0.000,-45.410,-34.180,-12.695,0.000
1709291801.215,0.000,-48.340,-37.109,-9.766,0.000
1709291801.219,-14.648,-46.387,-38.574,-19.043,0.000
1709291801.223,-18.555,-46.875,-39.551,-22.949,0.000
1709291801.227,-22.949,-49.805,-38.574,-23.926,0.000
1709291801.231,-23.438,-42.969,-37.109,-21.484,0.000
1709291801.235,-16.602,-38.086,-37.598,-21.484,0.000
1709291801.239,-2.441,-40.039,-40.527,-26.855,0.000
1709291801.242,-5.371,-41.504,-32.715,-16.113,0.000
1709291801.246,-14.160,-34.668,-27.832,-8.789,0.000
1709291801.250,-9.766,-28.320,-32.715,-11.719,0.000
1709291801.254,-6.348,-32.715,-30.273,-15.625,0.000
1709291801.258,-0.977,-34.180,-27.344,-18.555,0.000
1709291801.262,-13.184,-36.621,-34.180,-24.414,0.000
1709291801.267,-31.738,-42.969,-41.016,-26.855,0.000
1709291801.271,-29.785,-39.551,-37.109,-15.625,0.000
1709291801.274,-14.648,-33.203,-30.273,-9.277,0.000
1709291801.278,-9.277,-37.109,-30.762,-10.742,0.000
1709291801.282,-16.113,-38.574,-28.809,-12.695,0.000
1709291801.286,-20.508,-40.039,-25.391,-16.113,0.000
1709291801.290,-21.484,-46.875,-23.926,-7.812,0.000
1709291801.294,-16.602,-35.645,-22.949,-1.465,0.000
1709291801.298,-10.254,-31.738,-27.344,-8.301,0.000
1709291801.302,-10.742,-40.527,-28.809,-12.207,0.000
1709291801.306,-20.020,-40.039,-32.227,-16.113,0.000
1709291801.310,-29.785,-40.039,-32.227,-20.508,0.000
1709291801.314,-14.648,-37.598,-23.438,-11.719,0.000
1709291801.318,-7.812,-37.109,-25.879,-7.324,0.000
1709291801.322,-12.695,-35.645,-31.250,-10.254,0.000
1709291801.326,-16.113,-38.086,-28.809,-10.254,0.000
1709291801.330,-22.949,-42.480,-27.344,-7.324,0.000
1709291801.334,-17.090,-46.875,-25.391,1.953,0.000
1709291801.337,-16.113,-49.805,-28.320,-8.301,0.000
1709291801.341,-20.020,-42.480,-27.832,-20.508,0.000
1709291801.345,-18.066,-37.598,-25.391,-11.230,0.000
1709291801.349,-19.531,-43.945,-28.320,-3.418,0.000
1709291801.353,-23.926,-45.898,-27.344,-7.324,0.000
1709291801.357,-13.184,-35.645,-25.879,-6.836,0.000
1709291801.361,-12.695,-32.715,-24.414,-12.695,0.000
1709291801.365,-20.996,-36.621,-22.461,-7.812,0.000
1709291801.369,-23.926,-31.738,-23.926,-5.859,0.000
1709291801.373,-29.297,-33.203,-28.809,-16.602,0.000
1709291801.377,-20.508,-35.156,-35.645,-17.578,0.000
1709291801.381,-10.742,-31.250,-32.715,-20.996,0.000
1709291801.385,-20.996,-30.273,-29.297,-29.785,0.000
1709291801.389,-33.203,-35.645,-33.203,-24.902,0.000
1709291801.392,-29.297,-37.109,-29.785,-19.043,0.000
1709291801.396,-21.484,-35.156,-26.855,-13.672,0.000
1709291801.400,-19.531,-29.297,-26.367,-15.625,0.000
1709291801.404,-19.531,-26.367,-22.461,-16.602,0.000
1709291801.408,0.000,-30.273,-23.438,-12.695,0.000
1709291801.412,0.000,-30.762,-23.926,-13.184,0.000
1709291801.416,0.000,-26.367,-24.414,-13.672,0.000
1709291801.420,0.000,-22.461,-22.461,-9.766,0.000
1709291801.424,0.000,-21.973,-16.113,-0.488,0.000
1709291801.428,0.000,-15.625,-18.066,3.906,0.000
1709291801.432,0.000,-21.973,-19.531,1.953,0.000
1709291801.436,0.000,-30.273,-16.113,0.000,0.000
1709291801.439,0.000,-19.043,-14.160,0.977,0.000
1709291801.443,0.000,-18.066,-20.020,-7.324,0.000
1709291801.447,0.000,-21.484,-23.926,-14.648,0.000
1709291801.451,0.000,-25.879,-24.902,-12.695,0.000
1709291801.455,-6.836,-30.762,-28.320,-3.418,0.000
1709291801.459,-2.441,-26.855,-28.320,-15.137,0.000
1709291801.463,-5.371,-20.020,-24.902,-20.996,0.000
1709291801.467,-15.137,-19.043,-21.484,-18.066,0.000
1709291801.471,-20.508,-24.902,-19.043,-21.484,0.000
1709291801.475,-13.184,-22.461,-11.230,-14.160,0.000
1709291801.478,-0.977,-17.090,-13.184,-7.812,0.000
1709291801.482,-4.883,-19.531,-19.531,-9.766,0.000
1709291801.486,-20.020,-27.832,-20.508,-3.906,0.000
1709291801.490,-23.926,-29.297,-24.902,-16.113,0.000
1709291801.494,-17.090,-25.879,-23.926,-20.996,0.000
1709291801.498,-9.766,-26.367,-18.555,-12.207,0.000
1709291801.502,0.000,-26.855,-18.066,-17.578,0.000
1709291801.506,0.000,-27.344,-20.508,-18.555,0.000
1709291801.510,0.000,-27.344,-20.020,-14.160,0.000
1709291801.513,0.000,-30.273,-20.996,-17.578,0.000
1709291801.517,0.000,-26.367,-23.438,-20.020,0.000
1709291801.521,0.000,-24.902,-25.391,-20.996,0.000
1709291801.525,0.000,-29.785,-25.879,-26.367,0.000
1709291801.529,0.000,-31.738,-29.785,-23.926,0.000
1709291801.533,0.000,-25.879,-27.344,-17.090,0.000
1709291801.537,0.000,-26.855,-22.949,-21.973,0.000
1709291801.541,0.000,-27.344,-23.926,-17.090,0.000
1709291801.545,0.000,-29.785,-27.344,-20.020,0.000
1709291801.548,-21.973,-29.785,-23.926,-16.113,0.000
1709291801.552,-25.879,-29.297,-22.949,-5.859,0.000
1709291801.556,-18.066,-34.180,-24.902,-13.672,0.000
1709291801.560,-14.160,-34.668,-24.902,-15.625,0.000
1709291801.564,-23.438,-29.297,-23.926,-19.531,0.000
1709291801.568,-28.320,-28.320,-23.926,-20.996,0.000
1709291801.572,-26.855,-32.227,-28.809,-20.020,0.000
1709291801.576,-17.578,-32.715,-27.344,-9.766,0.000
1709291801.579,-11.230,-28.809,-25.391,-12.207,0.000
1709291801.583,-14.160,-30.762,-26.855,-16.113,0.000
1709291801.587,-20.996,-30.762,-30.762,-16.113,0.000
1709291801.591,-25.879,-33.203,-32.227,-14.160,0.000
1709291801.595,-14.648,-34.668,-30.762,-13.184,0.000
1709291801.598,-5.859,-31.250,-29.297,-20.508,0.000
1709291801.602,-13.672,-27.344,-26.855,-16.113,0.000
1709291801.606,-16.602,-23.438,-30.273,-8.301,0.000
1709291801.610,-16.113,-23.438,-29.785,-5.859,0.000
1709291801.614,-16.113,-34.180,-28.320,-6.836,0.000
1709291801.618,-13.184,-40.527,-30.762,-5.371,0.000
1709291801.622,-16.113,-34.668,-30.762,-5.859,0.000
1709291801.626,-24.414,-28.809,-32.715,-12.207,0.000
1709291801.630,-27.344,-33.203,-29.785,-13.672,0.000
1709291801.634,-20.996,-38.574,-31.738,-20.508,0.000
1709291801.638,-10.742,-35.645,-30.273,-22.461,0.000
1709291801.641,0.000,-35.156,-28.320,-14.160,0.000
1709291801.645,0.000,-37.109,-29.297,-11.230,0.000
1709291801.649,0.000,-38.086,-24.902,-8.789,0.000
1709291801.653,0.000,-32.227,-22.949,-11.719,0.000
1709291801.657,0.000,-30.273,-21.973,-13.672,0.000
1709291801.660,0.000,-31.250,-17.578,-3.418,0.000
1709291801.664,0.000,-35.156,-18.066,-5.859,0.000
1709291801.668,0.000,-34.668,-22.949,-19.531,0.000
1709291801.672,0.000,-33.203,-19.531,-11.230,0.000
1709291801.676,0.000,-33.203,-15.625,-8.301,0.000
1709291801.680,0.000,-29.785,-15.625,-13.184,0.000
1709291801.684,0.000,-23.926,-20.020,-2.441,0.000
1709291801.687,-13.184,-27.832,-22.949,-1.953,0.000
1709291801.691,-8.789,-27.344,-21.973,-6.836,0.000
1709291801.695,-4.395,-22.461,-25.879,-8.301,0.000
1709291801.699,-8.789,-25.391,-33.203,-15.137,0.000
1709291801.703,-16.602,-24.902,-30.273,-20.996,0.000
1709291801.707,-18.555,-22.949,-26.367,-12.207,0.000
1709291801.710,-18.555,-21.973,-24.902,-9.277,0.000
1709291801.714,-19.531,-17.578,-25.879,-20.996,0.000
1709291801.718,-8.301,-18.555,-29.785,-25.879,0.000
1709291801.722,-8.789,-26.367,-26.855,-20.996,0.000
1709291801.726,-24.414,-20.996,-27.344,-20.996,0.000
1709291801.730,-20.020,-20.508,-25.879,-21.973,0.000
1709291801.734,-6.348,-22.461,-22.949,-10.742,0.000
1709291801.738,-10.742,-28.809,-32.715,-14.648,0.000
1709291801.742,-22.461,-33.203,-32.227,-26.855,0.000
1709291801.746,-28.320,-30.762,-28.809,-29.297,0.000
1709291801.750,-30.762,-34.668,-35.645,-23.438,0.000
1709291801.754,-23.438,-36.621,-32.227,-16.602,0.000
1709291801.758,-15.137,-35.156,-29.297,-18.555,0.000
1709291801.762,-19.531,-32.227,-32.227,-18.555,0.000
1709291801.766,-25.391,-38.574,-32.227,-23.438,0.000
1709291801.770,-27.344,-46.875,-33.691,-16.113,0.000
1709291801.773,-14.648,-43.457,-35.645,-12.207,0.000
1709291801.777,-3.906,-37.109,-36.133,-14.160,0.000
1709291801.782,-9.766,-35.645,-29.297,-14.160,0.000
1709291801.785,-19.531,-39.062,-27.344,-16.113,0.000
1709291801.789,-19.043,-34.668,-26.855,-20.508,0.000
1709291801.793,-14.648,-34.668,-23.926,-16.113,0.000
1709291801.797,-11.719,-36.133,-27.344,-10.742,0.000
1709291801.801,-10.254,-24.902,-29.785,-9.766,0.000
1709291801.805,-18.555,-24.414,-22.461,-9.277,0.000
1709291801.809,-16.602,-28.320,-19.531,-11.230,0.000
1709291801.813,-10.254,-30.273,-23.926,-4.395,0.000
1709291801.817,-12.207,-25.879,-21.973,2.930,0.000
1709291801.821,-14.648,-28.320,-25.391,-16.113,0.000
1709291801.825,-23.438,-31.738,-30.273,-24.902,0.000
1709291801.829,-32.227,-30.273,-31.738,-17.090,0.000
1709291801.832,-27.344,-28.809,-26.855,-9.277,0.000
1709291801.836,-14.160,-29.297,-25.879,-12.695,0.000
1709291801.840,-11.230,-30.762,-33.691,-24.414,0.000
1709291801.844,-16.113,-30.273,-31.738,-25.391,0.000
1709291801.848,-20.020,-31.738,-27.832,-17.090,0.000
1709291801.852,-15.137,-31.738,-28.320,-13.184,0.000
1709291801.856,-7.324,-34.180,-26.367,-11.719,0.000
1709291801.860,-10.742,-39.062,-26.855,-9.277,0.000
1709291801.864,-18.066,-31.250,-32.227,-13.184,0.000
1709291801.868,-16.602,-25.879,-29.785,-12.207,0.000
1709291801.872,-14.648,-27.344,-27.344,-12.695,0.000
1709291801.876,-8.789,-33.203,0.000,-12.207,0.000
1709291801.879,-0.977,-34.668,0.000,-8.301,0.000
1709291801.883,-13.672,-33.203,0.000,-16.113,0.000
1709291801.887,-23.926,-38.086,0.000,-18.555,0.000
1709291801.891,-16.113,-38.574,0.000,-6.836,0.000
1709291801.895,-17.090,-37.109,0.000,-2.930,0.000
1709291801.899,-11.719,-37.598,0.000,-4.883,0.000
1709291801.903,-15.625,-38.574,0.000,-0.488,0.000
1709291801.907,-26.367,-36.621,0.000,0.000,0.000
1709291801.911,-24.414,-31.250,0.000,-8.301,0.000
1709291801.915,-19.043,-35.156,0.000,-9.766,0.000
1709291801.919,-12.207,-38.086,0.000,-5.371,0.000
1709291801.924,-14.160,-36.133,-28.809,-12.695,0.000
1709291801.927,-20.508,-36.133,-25.879,-21.973,0.000
1709291801.931,-21.973,-38.086,-22.461,-19.531,0.000
1709291801.935,-16.602,-42.480,-21.484,-17.578,0.000
1709291801.939,-15.625,-43.457,-23.926,-25.879,0.000
1709291801.943,-24.902,-43.457,-27.832,-29.785,0.000
1709291801.947,-34.180,-41.992,-25.879,-26.367,0.000
1709291801.951,-28.320,-45.410,-18.555,-15.625,0.000
1709291801.955,-22.461,-41.992,-19.531,-18.066,0.000
1709291801.959,-16.113,-37.109,-25.879,-18.066,0.000
1709291801.963,-12.207,-39.551,-24.414,-11.230,0.000
1709291801.966,-22.949,-39.551,-24.902,-18.555,0.000
1709291801.970,-30.762,-39.551,-32.715,-22.461,0.000
1709291801.974,-16.602,-36.621,-28.809,-11.719,0.000
1709291801.978,-4.395,-38.574,-24.414,-11.230,0.000
1709291801.982,-14.160,-42.969,-25.391,-21.973,0.000
1709291801.985,-23.438,-37.109,-24.414,-26.367,0.000
1709291801.989,-27.832,-33.691,-28.320,-15.625,0.000
1709291801.993,-23.438,-36.133,-32.715,-4.883,0.000
1709291801.997,-12.695,-36.133,-37.109,-4.883,0.000
1709291802.001,-14.160,-38.574,-37.109,-8.301,0.000
1709291802.005,-23.926,-39.551,-30.762,-15.137,0.000
1709291802.009,-27.832,-41.016,-32.715,-11.719,0.000
1709291802.013,-24.414,-43.945,-37.109,-9.766,0.000
1709291802.017,-15.137,-37.109,-35.156,-18.555,0.000
1709291802.021,-12.207,-32.227,-36.621,-24.414,0.000
1709291802.025,-19.531,-33.691,-37.109,-22.949,0.000
1709291802.029,-24.902,-34.180,-35.156,-21.973,0.000
1709291802.033,-14.648,-30.273,-34.668,-23.926,0.000
1709291802.037,-1.465,-30.273,-31.738,-17.090,0.000
1709291802.041,3.906,-34.180,-28.809,-4.883,0.000
1709291802.045,-7.812,-35.156,-31.250,-16.113,0.000
1709291802.049,-15.137,-30.273,-30.762,-24.902,0.000
1709291802.053,-16.113,-35.156,-31.250,-20.508,0.000
1709291802.056,-10.742,-40.039,-33.203,-19.043,0.000
1709291802.060,-8.789,-38.574,-31.738,-17.090,0.000
1709291802.065,-24.902,-36.133,-32.227,-17.090,0.000
1709291802.069,-31.738,-36.133,-33.691,-22.461,0.000
1709291802.073,-30.273,-35.645,-33.203,-20.020,0.000
1709291802.076,-27.344,-27.344,-31.738,-18.066,0.000
1709291802.080,-10.742,-25.879,-29.297,-17.090,0.000
1709291802.084,-11.719,-34.180,-30.762,-11.230,0.000
1709291802.088,-30.273,-35.645,-27.832,-12.695,0.000
1709291802.092,-29.785,-29.785,-24.414,-16.602,0.000
1709291802.096,-14.648,-30.762,-25.879,-11.230,0.000
1709291802.100,-4.395,-32.227,-28.809,2.441,0.000
1709291802.104,-8.789,-24.902,-30.273,0.488,0.000
1709291802.108,-21.484,-20.508,-30.273,-15.625,0.000
1709291802.112,-32.227,-26.855,-32.227,-12.695,0.000
1709291802.116,-29.785,-32.227,-30.273,-6.348,0.000
1709291802.120,-15.625,-24.902,-28.320,-7.812,0.000
1709291802.124,-6.348,-23.926,-31.250,-10.254,0.000
1709291802.127,-19.043,-30.273,-34.180,-17.578,0.000
1709291802.131,-28.320,-31.738,-34.668,-14.160,0.000
1709291802.135,-18.066,-32.227,-35.156,-6.836,0.000
1709291802.139,-12.695,-30.762,-35.156,-8.789,0.000
1709291802.143,-16.602,-34.180,-33.691,-16.113,0.000
1709291802.147,-21.484,-40.527,-36.133,-9.766,0.000
1709291802.151,-21.484,-40.039,-36.133,-12.695,0.000
1709291802.155,-25.391,-42.480,-35.156,-11.230,0.000
1709291802.159,-24.414,-45.410,-36.621,-13.184,0.000
1709291802.163,-13.672,-41.504,-34.668,-20.996,0.000
1709291802.167,-19.043,-36.621,-35.645,-18.066,0.000
1709291802.170,-20.020,-32.715,-35.645,-16.602,0.000
1709291802.174,-20.996,-38.086,-31.738,-16.113,0.000
1709291802.178,-11.719,-41.992,-31.250,-17.578,0.000
1709291802.182,-4.395,-36.621,-33.691,-19.531,0.000
1709291802.186,-16.602,-35.645,-35.645,-25.391,0.000
1709291802.190,-19.531,-41.504,-35.156,-16.602,0.000
1709291802.194,-19.531,-37.109,-38.086,-12.207,0.000
1709291802.198,-17.090,-29.785,-41.016,-19.531,0.000
1709291802.202,-10.254,-33.203,-40.039,-21.484,0.000
1709291802.205,-8.789,-33.203,-35.156,-9.277,0.000
1709291802.209,-15.625,-30.762,-32.715,-8.789,0.000
1709291802.213,-18.066,-31.250,-33.203,-20.020,0.000
1709291802.217,-6.836,-29.785,-32.227,-19.043,0.000
1709291802.221,-4.883,-31.738,-32.715,-15.137,0.000
1709291802.225,-14.648,-33.691,-31.738,-12.695,0.000
1709291802.229,-15.625,-32.227,-28.809,-7.812,0.000
1709291802.233,-13.184,-30.273,-27.832,-9.277,0.000
1709291802.237,-7.812,-32.227,-29.297,0.488,0.000
1709291802.241,-1.953,-30.273,-29.297,-10.254,0.000
1709291802.245,-6.836,-22.461,-25.391,-14.160,0.000
1709291802.248,-18.066,-26.855,-28.809,-7.812,0.000
1709291802.252,-20.508,-28.320,-29.297,-10.254,0.000
1709291802.256,-16.602,-30.762,-26.855,-11.230,0.000
1709291802.260,-1.465,-35.645,-30.273,-8.789,0.000
1709291802.264,-2.930,-32.715,-28.809,-5.859,0.000
1709291802.268,-17.578,-35.156,-33.203,-14.160,0.000
1709291802.272,-23.926,-41.992,-38.574,-17.090,0.000
1709291802.276,-21.484,-42.969,-38.574,-15.137,0.000
1709291802.280,-15.625,-40.039,-36.133,-10.254,0.000
1709291802.284,-17.578,-34.668,-34.180,-13.184,0.000
1709291802.287,-19.531,-31.250,-35.156,-22.949,0.000
1709291802.291,-20.020,-31.738,-34.180,-16.602,0.000
1709291802.295,-14.160,-27.344,-30.273,-7.812,0.000
1709291802.300,-6.348,-23.438,-33.691,-13.672,0.000
1709291802.304,-11.230,-26.367,-31.738,-21.484,0.000
1709291802.308,-23.438,-27.832,-28.320,-18.066,0.000
1709291802.312,-31.250,-25.879,-29.297,-13.184,0.000
1709291802.316,-24.414,-23.926,-28.320,-9.766,0.000
1709291802.320,-7.812,-26.367,-28.809,-10.254,0.000
1709291802.324,-9.277,-32.227,-27.344,-15.137,0.000
1709291802.327,-19.531,-33.203,-24.902,-9.277,0.000
1709291802.331,-21.484,-22.949,-28.809,-10.254,0.000
1709291802.335,-21.484,-20.996,-27.344,-13.672,0.000
1709291802.339,-17.090,-28.809,-25.391,-17.090,0.000
1709291802.343,-17.578,-25.879,-29.297,-24.902,0.000
1709291802.347,0.000,-26.855,0.000,0.000,0.000
1709291802.351,0.000,-29.297,0.000,0.000,0.000
1709291802.355,0.000,-24.414,0.000,0.000,0.000
1709291802.359,0.000,-24.414,0.000,0.000,0.000
1709291802.363,0.000,-24.902,0.000,0.000,0.000
1709291802.367,0.000,-27.344,0.000,0.000,0.000
1709291802.370,0.000,-25.391,0.000,0.000,0.000
1709291802.374,0.000,-16.602,0.000,0.000,0.000
1709291802.378,0.000,-19.043,0.000,0.000,0.000
1709291802.382,0.000,-22.461,0.000,0.000,0.000
1709291802.386,0.000,-28.809,0.000,0.000,0.000
1709291802.390,0.000,-27.344,0.000,0.000,0.000
1709291802.393,-19.531,-22.461,-32.227,-15.137,0.000
1709291802.397,-13.184,-27.832,-33.691,-12.695,0.000
1709291802.401,-14.160,-32.227,-35.645,-19.043,0.000
1709291802.405,-18.066,-34.180,-35.156,-20.020,0.000
1709291802.409,-23.926,-31.250,-32.227,-15.137,0.000
1709291802.413,-26.855,-37.598,-23.438,-11.719,0.000
1709291802.416,-18.066,-44.922,-27.344,-5.371,0.000
1709291802.420,-7.812,-30.273,-24.902,-7.812,0.000
1709291802.424,-18.555,-25.879,-25.391,-21.484,0.000
1709291802.428,-34.668,-31.250,-31.738,-21.484,0.000
1709291802.432,-29.297,-27.344,-25.879,-15.625,0.000
1709291802.436,-14.160,-26.855,-22.949,-16.602,0.000
1709291802.439,-9.277,-27.344,-26.367,-17.578,0.000
1709291802.443,-16.602,-27.832,-27.344,-23.438,0.000
1709291802.447,-25.391,-30.273,-27.832,-31.250,0.000
1709291802.451,-31.738,-36.621,-32.715,-29.297,0.000
1709291802.455,-28.320,-38.086,-34.180,-20.020,0.000
1709291802.458,-20.020,-41.016,-31.738,-16.113,0.000
1709291802.462,-21.484,-38.574,-32.715,-19.043,0.000
1709291802.466,-33.691,-39.062,-33.203,-22.949,0.000
1709291802.470,-33.203,-40.039,-31.738,-24.902,0.000
1709291802.474,-18.066,-36.621,-29.785,-9.277,0.000
1709291802.478,-10.254,-36.133,-33.691,-7.812,0.000
1709291802.482,-20.020,-36.621,-34.668,-21.973,0.000
1709291802.486,-23.926,-36.621,-30.762,-18.555,0.000
1709291802.490,-22.949,-39.551,-31.250,-11.230,0.000
1709291802.494,-24.414,-39.551,-31.738,-11.230,0.000
1709291802.498,-10.742,-32.227,-31.250,-14.648,0.000
1709291802.502,-7.812,-29.297,-30.273,-9.766,0.000
1709291802.506,-23.438,-29.297,-27.832,-8.301,0.000
1709291802.510,-28.809,-24.414,-27.832,-18.555,0.000
1709291802.513,-26.367,-28.320,-27.344,-22.949,0.000
1709291802.517,-16.113,-30.762,-24.902,-18.066,0.000
1709291802.521,-14.160,-28.320,-23.926,-11.719,0.000
1709291802.525,-20.020,-27.832,-26.855,-19.531,0.000
1709291802.529,-22.461,-20.020,-25.879,-17.578,0.000
1709291802.533,-27.832,-21.484,-22.461,-15.137,0.000
1709291802.537,-23.438,-27.344,-25.391,-25.391,0.000
1709291802.541,-12.695,-27.344,-29.297,-25.391,0.000
1709291802.545,-13.184,-25.391,-26.855,-22.949,0.000
1709291802.549,-24.414,-25.879,-24.902,-19.043,0.000
1709291802.553,-29.297,-31.250,-29.297,-21.484,0.000
1709291802.557,-27.344,-37.598,-35.645,-28.320,0.000
1709291802.560,-23.438,-35.645,-37.598,-33.691,0.000
1709291802.564,-20.020,-38.574,-34.180,-29.785,0.000
1709291802.568,-32.227,-37.598,-35.645,-31.250,0.000
1709291802.572,-28.809,-30.762,-38.574,-35.156,0.000
1709291802.576,-15.137,-32.227,-38.574,-26.367,0.000
1709291802.580,-12.695,-32.715,-33.203,-21.973,0.000
1709291802.584,-13.672,-27.344,-31.250,-27.344,0.000
1709291802.588,-21.484,-27.344,-37.598,-28.320,0.000
1709291802.592,-24.414,-31.250,-40.527,-27.832,0.000
1709291802.596,-19.043,-27.344,-38.574,-23.926,0.000
1709291802.600,-19.043,-27.344,-36.133,-14.648,0.000
1709291802.603,-16.602,-25.879,-35.645,-21.973,0.000
1709291802.607,-19.043,-23.438,-33.691,-23.438,0.000
1709291802.611,-28.320,-25.391,-32.227,-9.766,0.000
1709291802.615,-31.738,-20.996,-34.668,-17.090,0.000
1709291802.619,-20.508,-16.602,-33.203,-24.902,0.000
1709291802.623,-17.578,-18.555,-33.691,-27.832,0.000
1709291802.627,-26.367,-18.066,-34.668,-27.344,0.000
1709291802.631,-26.855,-21.973,-36.133,-20.996,0.000
1709291802.634,-20.996,-26.367,-32.227,-19.531,0.000
1709291802.638,-8.301,-26.367,-29.297,-16.602,0.000
1709291802.642,-11.230,-30.762,-32.715,-18.555,0.000
1709291802.646,-24.414,-30.273,-31.250,-29.297,0.000
1709291802.650,-22.461,-19.531,-29.297,-33.691,0.000
1709291802.654,-19.043,-23.438,-30.762,-25.391,0.000
1709291802.658,-16.113,-28.320,-37.109,-23.438,0.000
1709291802.662,-14.648,-21.484,-36.621,-24.902,0.000
1709291802.666,-18.555,-22.461,-32.227,-25.879,0.000
1709291802.670,-16.113,-24.902,-31.738,-23.438,0.000
1709291802.673,-17.578,-24.414,-27.344,-14.648,0.000
1709291802.677,-14.648,-26.367,-27.344,-15.137,0.000
1709291802.681,-3.418,-29.297,-18.555,-12.207,0.000
1709291802.685,-15.137,-28.809,-20.508,-14.648,0.000
1709291802.689,-29.297,-29.297,-25.879,-22.461,0.000
1709291802.693,-19.531,-23.438,-19.531,-13.672,0.000
1709291802.697,-10.254,-22.949,-24.414,-10.254,0.000
1709291802.701,-15.625,-31.738,-30.762,-14.160,0.000
1709291802.704,-21.484,-21.484,-26.367,-21.484,0.000
1709291802.708,-22.949,-11.230,-24.414,-24.414,0.000
1709291802.712,-20.508,-20.020,-26.367,-26.367,0.000
1709291802.716,-15.137,-25.879,-29.297,-30.273,0.000
1709291802.720,-17.090,-27.344,-33.691,-30.762,0.000
1709291802.723,-14.648,-25.391,-29.297,-29.785,0.000
1709291802.727,-15.625,-28.809,-23.438,-23.926,0.000
1709291802.731,-22.949,-27.832,-22.949,-16.602,0.000
1709291802.735,-16.602,-19.043,-20.020,-13.184,0.000
1709291802.739,-1.953,-11.230,-20.020,-9.277,0.000
1709291802.743,-7.812,-14.160,-25.391,-14.648,0.000
1709291802.747,-29.297,-24.414,-28.809,-22.949,0.000
1709291802.751,-32.715,-20.020,-28.809,-27.832,0.000
1709291802.755,-26.855,-22.461,-30.762,-23.926,0.000
1709291802.759,-21.484,-27.832,-33.203,-20.020,0.000
1709291802.762,-20.020,-24.414,-31.738,-22.461,0.000
1709291802.766,-27.344,-24.414,-32.227,-27.832,0.000
1709291802.770,-32.715,-27.344,-27.832,-25.879,0.000
1709291802.774,-22.949,-25.391,-26.367,-13.184,0.000
1709291802.777,-13.184,-18.555,-30.762,-11.719,0.000
1709291802.781,-18.555,-24.414,-29.297,-26.367,0.000
1709291802.785,-26.855,-30.273,-31.738,-26.855,0.000
1709291802.789,-30.273,-31.738,-34.180,-11.719,0.000
1709291802.793,-26.367,-28.809,-35.156,-14.648,0.000
1709291802.797,-15.625,-27.344,-34.180,-13.672,0.000
1709291802.801,-6.836,-23.926,-28.809,-9.277,0.000
1709291802.805,-18.066,-23.926,-29.785,-11.719,0.000
1709291802.809,-27.344,-27.832,-31.250,-14.160,0.000
1709291802.813,-23.438,-22.949,-31.250,-16.113,0.000
1709291802.817,-15.625,-23.926,-34.180,-15.625,0.000
1709291802.821,-16.113,-26.855,-33.203,-21.973,0.000
1709291802.825,-26.855,-25.879,-34.668,-23.926,0.000
1709291802.829,-32.715,-27.344,-34.668,-20.996,0.000
1709291802.833,-24.414,-29.297,-34.668,-16.602,0.000
1709291802.837,-21.484,-28.320,-38.086,-18.555,0.000
1709291802.841,-25.391,-27.344,-38.086,-28.320,0.000
1709291802.844,-30.762,-28.809,-37.598,-34.668,0.000
1709291802.848,-32.227,-30.273,-36.133,-21.973,0.000
1709291802.852,-27.832,-24.902,-32.715,-18.066,0.000
1709291802.856,-20.508,-28.320,-32.715,-31.738,0.000
1709291802.860,-13.184,-34.668,-34.668,-24.902,0.000
1709291802.864,-29.785,-35.645,-36.621,-26.367,0.000
1709291802.868,-43.945,-38.086,-33.691,-24.902,0.000
1709291802.872,-31.250,-39.062,-30.273,-15.625,0.000
1709291802.876,-17.578,-39.551,-33.691,-17.578,0.000
1709291802.880,-19.531,-38.086,-32.715,-22.461,0.000
1709291802.884,-28.809,-36.133,-30.762,-24.414,0.000
1709291802.888,-32.227,-30.762,-36.621,-25.879,0.000
1709291802.892,-27.832,-37.598,-35.156,-16.602,0.000
1709291802.896,-14.648,-41.992,-27.832,-1.953,0.000
1709291802.900,-8.789,-35.156,-32.227,-13.184,0.000
1709291802.903,-9.277,-39.062,-31.738,-23.438,0.000
1709291802.909,-13.184,-40.039,-32.715,-12.695,0.000
1709291802.913,-27.344,-37.598,-37.598,-5.859,0.000
1709291802.917,-21.484,-34.180,-31.250,0.000,0.000
1709291802.921,-12.207,-24.414,-30.273,0.000,0.000
1709291802.925,-19.531,-23.438,-30.273,-6.348,0.000
1709291802.928,-20.996,-24.902,-28.809,-5.371,0.000
1709291802.932,-22.461,-27.832,-34.180,-6.836,0.000
1709291802.936,-21.484,-27.344,-36.621,-15.625,0.000
1709291802.940,-20.020,-29.297,-34.668,-13.672,0.000
1709291802.944,-22.949,-25.391,-33.203,-6.836,0.000
1709291802.948,-20.508,-22.461,-29.785,-12.695,0.000
1709291802.952,-20.996,-29.785,-28.809,-16.602,0.000
