timestamps,TP9,AF7,AF8,TP10,Right AUX
1709374141.668,21.973,-31.738,-27.832,-4.883,0.000
1709374141.672,-29.785,-38.574,-32.227,-41.016,0.000
1709374141.676,-59.082,-41.992,-37.109,-57.129,0.000
1709374141.680,-47.363,-41.504,-34.180,-54.199,0.000
1709374141.684,-24.414,-44.434,-33.203,-38.086,0.000
1709374141.687,-12.695,-41.992,-35.156,-19.531,0.000
1709374141.691,-51.270,-38.574,-33.691,-45.410,0.000
1709374141.695,-76.172,-38.086,-32.227,-53.223,0.000
1709374141.699,-62.988,-38.574,-35.645,-45.898,0.000
1709374141.703,-23.438,-33.203,-31.250,-22.461,0.000
1709374141.707,-4.883,-33.203,-29.785,-8.301,0.000
1709374141.711,-40.039,-33.203,-28.809,-40.527,0.000
1709374141.715,-67.383,-36.133,-32.227,-65.430,0.000
1709374141.719,-58.594,-41.016,-33.691,-58.594,0.000
1709374141.722,-28.809,-44.434,-30.762,-36.133,0.000
1709374141.726,-7.812,-41.992,-32.227,-18.555,0.000
1709374141.730,-37.598,-32.715,-31.250,-37.598,0.000
1709374141.734,-65.430,-33.203,-34.180,-58.105,0.000
1709374141.738,-57.129,-36.133,-35.156,-48.340,0.000
1709374141.742,-35.156,-39.551,-38.574,-31.250,0.000
1709374141.746,-1.953,-45.898,-41.504,-13.184,0.000
1709374141.750,-16.113,-41.016,-44.922,-26.855,0.000
1709374141.754,-59.082,-33.691,-40.527,-55.664,0.000
1709374141.758,-60.059,-30.273,-35.645,-55.176,0.000
1709374141.761,-36.133,-33.203,-42.969,-41.992,0.000
1709374141.765,-5.859,-38.574,-45.898,-7.812,0.000
1709374141.769,-17.090,-35.645,-40.527,-7.812,0.000
1709374141.773,-54.199,-33.691,-38.086,-43.457,0.000
1709374141.777,-56.641,-37.598,-40.527,-51.270,0.000
1709374141.781,-32.715,-33.691,-33.691,-33.203,0.000
1709374141.785,-6.348,-33.691,-37.598,-4.395,0.000
1709374141.789,-19.531,-37.598,-42.480,-16.602,0.000
1709374141.793,-55.664,-37.109,-35.645,-47.363,0.000
1709374141.796,-66.406,-38.086,-36.133,-50.781,0.000
1709374141.800,-43.945,-35.645,-36.621,-38.574,0.000
1709374141.804,-5.859,-34.668,-37.598,-13.672,0.000
1709374141.808,-3.906,-38.574,-37.109,-15.625,0.000
1709374141.812,-39.551,-42.969,-35.156,-44.434,0.000
1709374141.816,-54.199,-42.969,-38.086,-50.293,0.000
1709374141.820,-41.504,-40.527,-36.621,-40.527,0.000
1709374141.824,-2.930,-39.062,-34.668,-13.184,0.000
1709374141.828,3.418,-35.156,-36.621,-2.441,0.000
1709374141.832,-39.062,-33.203,-30.762,-36.621,0.000
1709374141.836,-54.199,-37.109,-30.762,-60.059,0.000
1709374141.840,-43.945,-41.504,-41.016,-55.664,0.000
1709374141.844,-10.254,-43.945,-43.945,-22.461,0.000
1709374141.847,7.812,-39.551,-41.016,-8.301,0.000
1709374141.851,-32.227,-35.156,-38.574,-39.062,0.000
1709374141.855,-60.059,-40.527,-35.645,-53.711,0.000
1709374141.859,-49.805,-37.598,-35.156,-47.363,0.000
1709374141.863,-17.090,-36.621,-36.621,-20.508,0.000
1709374141.867,0.488,-47.363,-34.668,-6.836,0.000
1709374141.871,-41.504,-40.527,-34.180,-37.109,0.000
1709374141.875,-72.754,-34.180,-36.621,-52.734,0.000
1709374141.879,-63.477,-41.992,-38.574,-50.293,0.000
1709374141.883,-32.715,-39.062,-35.645,-34.180,0.000
1709374141.887,-6.836,-37.109,-36.133,-8.301,0.000
1709374141.891,-34.180,-41.504,-37.598,-23.926,0.000
1709374141.894,-67.383,-40.039,-34.668,-54.199,0.000
1709374141.898,-58.594,-41.016,-37.598,-50.781,0.000
1709374141.902,-28.320,-39.551,-41.016,-30.762,0.000
1709374141.906,-1.465,-35.156,-45.898,-17.090,0.000
1709374141.910,-17.090,-36.133,-43.945,-32.227,0.000
1709374141.914,-57.129,-37.598,-36.621,-53.223,0.000
1709374141.918,-62.500,-38.574,-39.062,-50.293,0.000
1709374141.922,-38.086,-42.969,-46.875,-31.250,0.000
1709374141.926,-11.230,-45.898,-44.434,-8.789,0.000
1709374141.930,-28.809,-48.340,-34.668,-24.902,0.000
1709374141.934,-62.988,-43.457,-36.621,-44.434,0.000
1709374141.938,-67.871,-39.062,-37.109,-41.504,0.000
1709374141.941,-43.457,-37.598,-33.203,-30.762,0.000
1709374141.945,-7.324,-34.180,-34.668,-11.719,0.000
1709374141.949,-22.461,-32.227,-37.109,-20.996,0.000
1709374141.953,-60.547,-31.250,-40.039,-50.293,0.000
1709374141.957,-62.012,-28.809,-39.062,-58.594,0.000
1709374141.961,-36.133,-29.297,-38.086,-43.457,0.000
1709374141.965,-2.441,-26.367,-35.645,-8.301,0.000
1709374141.969,-12.695,-26.367,-33.691,-9.277,0.000
1709374141.973,-50.781,-24.902,-37.598,-51.758,0.000
1709374141.977,-55.176,-23.926,-35.645,-61.035,0.000
1709374141.981,-40.527,-29.297,-37.109,-39.551,0.000
1709374141.984,-12.695,-27.344,-47.363,-20.020,0.000
1709374141.988,-8.301,-22.949,-49.805,-19.043,0.000
1709374141.992,-49.316,-20.508,-43.945,-48.340,0.000
1709374141.996,-73.242,-25.391,-43.457,-68.359,0.000
1709374142.000,-63.965,-29.785,-44.922,-64.941,0.000
1709374142.004,-28.809,-27.344,-42.480,-31.250,0.000
1709374142.008,-20.020,-27.344,-37.109,-20.996,0.000
1709374142.012,-54.688,-30.762,-37.109,-57.617,0.000
1709374142.016,-66.406,-28.809,-41.016,-71.289,0.000
1709374142.020,-54.199,-30.762,-36.621,-57.617,0.000
1709374142.023,-24.414,-30.762,-34.668,-25.879,0.000
1709374142.027,-3.418,-26.855,-43.457,-15.137,0.000
1709374142.031,-40.039,-30.273,-46.387,-47.852,0.000
1709374142.035,-64.453,-28.809,-37.109,-56.641,0.000
1709374142.039,-53.711,-25.879,-36.133,-46.387,0.000
1709374142.043,-22.461,-27.344,-40.527,-23.926,0.000
1709374142.047,-0.488,-32.227,-39.551,-9.277,0.000
1709374142.051,-40.039,-36.133,-35.156,-34.180,0.000
1709374142.055,-66.895,-36.133,-33.691,-52.246,0.000
1709374142.058,-53.711,-35.645,-33.203,-47.363,0.000
1709374142.062,-25.879,-38.086,-37.598,-33.691,0.000
1709374142.066,-1.465,-33.691,-34.180,-8.789,0.000
1709374142.070,-32.715,-26.855,-24.902,-14.160,0.000
1709374142.074,-68.848,-30.273,-30.762,-49.805,0.000
1709374142.078,-59.082,-33.203,-28.320,-51.758,0.000
1709374142.082,-23.438,-30.273,-25.879,-27.344,0.000
1709374142.086,9.766,-26.855,-30.762,-3.418,0.000
1709374142.090,-14.160,-30.762,-33.203,-26.855,0.000
1709374142.093,-53.711,-40.527,-36.621,-52.734,0.000
1709374142.097,-54.688,-36.133,-35.645,-45.898,0.000
1709374142.101,-34.668,-34.180,-36.133,-30.273,0.000
1709374142.105,-4.395,-40.039,-39.062,-8.301,0.000
1709374142.109,-20.020,-37.109,-37.109,-19.043,0.000
1709374142.113,-59.082,-36.133,-41.504,-41.992,0.000
1709374142.117,-62.988,-38.086,-44.922,-50.781,0.000
1709374142.121,-41.504,-41.992,-44.434,-47.852,0.000
1709374142.125,-3.418,-45.898,-46.387,-18.066,0.000
1709374142.129,-10.742,-44.434,-43.945,-13.672,0.000
1709374142.133,-56.641,-45.410,-42.480,-47.852,0.000
1709374142.136,0.000,-44.922,0.000,-55.176,0.000
1709374142.140,0.000,-44.434,0.000,-38.574,0.000
1709374142.144,0.000,-42.480,0.000,-7.812,0.000
1709374142.148,0.000,-45.410,0.000,-10.254,0.000
1709374142.152,0.000,-44.434,0.000,-44.434,0.000
1709374142.156,0.000,-29.785,0.000,-46.387,0.000
1709374142.160,0.000,-32.227,0.000,-36.133,0.000
1709374142.164,0.000,-39.551,0.000,-16.113,0.000
1709374142.167,0.000,-35.156,0.000,-8.789,0.000
1709374142.171,0.000,-35.156,0.000,-40.527,0.000
1709374142.175,0.000,-34.180,0.000,-51.270,0.000
1709374142.179,0.000,-33.203,0.000,-42.969,0.000
1709374142.184,-20.508,-28.809,-27.344,-16.602,0.000
1709374142.187,1.465,-30.273,-27.344,-3.906,0.000
1709374142.191,-29.297,-33.203,-33.203,-33.203,0.000
1709374142.195,-54.199,-34.668,-32.715,-51.758,0.000
1709374142.199,-50.293,-42.480,-28.809,-45.410,0.000
1709374142.203,-18.555,-39.062,-32.227,-13.184,0.000
1709374142.207,2.441,-35.645,-36.133,-2.930,0.000
1709374142.211,-40.039,-38.086,-32.227,-35.645,0.000
1709374142.215,-64.453,-39.551,-33.691,-50.293,0.000
1709374142.219,-47.363,-37.598,-36.133,-35.645,0.000
1709374142.223,-12.207,-34.668,-37.598,-20.996,0.000
1709374142.226,10.254,-36.133,-38.086,-11.230,0.000
1709374142.230,-24.902,-37.109,-34.180,-29.785,0.000
1709374142.234,-55.176,-35.645,-34.180,-55.176,0.000
1709374142.238,-47.852,-31.250,-28.320,-52.734,0.000
1709374142.242,-23.438,-31.738,-30.762,-30.762,0.000
1709374142.246,1.953,-35.645,-32.715,-3.418,0.000
1709374142.250,-23.926,-36.133,-24.902,-17.090,0.000
1709374142.254,-61.523,-37.109,-23.926,-45.898,0.000
1709374142.258,-60.059,-43.945,-25.879,-49.316,0.000
1709374142.262,-37.598,-50.293,-27.344,-30.273,0.000
1709374142.266,-11.719,-44.434,-26.367,5.859,0.000
1709374142.270,-23.926,-39.551,-30.273,-15.137,0.000
1709374142.273,-48.828,-38.574,-31.738,-48.340,0.000
1709374142.277,-50.293,-39.551,-28.320,-39.062,0.000
1709374142.281,-32.715,-38.574,-28.320,-23.438,0.000
1709374142.285,0.977,-37.109,-30.762,1.953,0.000
1709374142.289,-12.695,-40.039,-29.297,-7.324,0.000
1709374142.293,-47.852,-42.480,-32.227,-40.527,0.000
1709374142.297,-54.199,-38.086,-39.551,-53.711,0.000
1709374142.301,-37.598,-31.738,-36.621,-39.062,0.000
1709374142.305,-2.930,-30.273,-34.668,-4.883,0.000
1709374142.309,-8.789,-28.809,-36.133,-2.441,0.000
1709374142.313,-47.363,-23.926,-28.809,-33.691,0.000
1709374142.316,-57.617,-24.414,-28.809,-53.711,0.000
1709374142.320,-41.992,-26.367,-41.504,-49.805,0.000
1709374142.324,-8.301,-28.320,-40.527,-18.066,0.000
1709374142.328,-3.906,-27.832,-37.109,-10.254,0.000
1709374142.332,-44.434,-28.320,-38.086,-41.992,0.000
1709374142.336,-62.988,-31.250,-36.621,-56.152,0.000
1709374142.340,-51.758,-32.715,-35.156,-48.340,0.000
1709374142.344,-16.113,-33.691,-30.762,-19.531,0.000
1709374142.348,-11.230,-34.180,-35.156,-11.719,0.000
1709374142.352,-59.570,-35.156,-43.457,-49.316,0.000
1709374142.356,-81.543,-37.109,-43.457,-60.547,0.000
1709374142.359,-71.777,-38.086,-42.480,-57.617,0.000
1709374142.363,-34.180,-37.598,-39.551,-32.715,0.000
1709374142.367,-15.137,-38.574,-41.016,-7.812,0.000
1709374142.371,-50.293,-40.039,-38.086,-30.273,0.000
1709374142.375,-67.383,-37.109,-31.738,-43.945,0.000
1709374142.379,-57.617,-38.574,-37.598,-38.086,0.000
1709374142.383,-29.297,-36.133,-40.527,-19.043,0.000
1709374142.387,-6.836,-36.621,-39.062,-0.488,0.000
1709374142.391,-30.762,-44.434,-35.645,-28.809,0.000
1709374142.395,-53.223,-38.574,-32.715,-52.734,0.000
1709374142.398,-43.945,-29.297,-29.785,-42.480,0.000
1709374142.402,-15.137,-33.203,-35.645,-30.273,0.000
1709374142.406,10.742,-38.574,-38.574,-20.996,0.000
1709374142.410,-21.973,-36.621,-37.109,-40.527,0.000
1709374142.414,-60.059,-36.621,-39.062,-66.895,0.000
1709374142.418,-57.617,-39.062,-35.645,-63.477,0.000
1709374142.422,-39.062,-41.504,-36.133,-47.363,0.000
1709374142.426,-17.090,-46.875,-38.086,-27.832,0.000
1709374142.430,-41.504,-48.340,-35.156,-41.504,0.000
1709374142.434,-73.242,-44.434,-31.250,-66.895,0.000
1709374142.437,-75.684,-47.363,-35.156,-62.012,0.000
1709374142.441,-52.246,-44.434,-34.668,-38.086,0.000
1709374142.445,-13.184,-38.086,-33.691,-4.883,0.000
1709374142.449,-28.320,-40.527,-41.992,-21.973,0.000
1709374142.453,-67.383,-41.016,-41.504,-56.152,0.000
1709374142.457,-71.289,-41.016,-36.133,-63.965,0.000
1709374142.461,-50.293,-40.527,-37.598,-49.805,0.000
1709374142.465,-16.113,-33.203,-43.457,-26.367,0.000
1709374142.468,-19.531,-30.762,-47.852,-33.203,0.000
1709374142.472,-54.688,-40.039,-44.922,-65.430,0.000
1709374142.476,-65.430,-39.062,-41.504,-71.289,0.000
1709374142.480,-48.340,-33.691,-41.992,-47.852,0.000
1709374142.484,-10.254,-33.203,-36.133,-9.766,0.000
1709374142.488,-8.301,-34.180,-31.250,-4.395,0.000
1709374142.492,-50.781,-37.598,-32.715,-44.434,0.000
1709374142.496,-68.848,-39.551,-35.156,-55.176,0.000
1709374142.500,-46.387,-38.086,-36.133,-42.969,0.000
1709374142.504,-1.465,-32.715,-33.691,-20.020,0.000
1709374142.508,6.836,-26.367,-34.668,-8.789,0.000
1709374142.511,-31.738,-25.391,-39.551,-45.898,0.000
1709374142.515,-50.293,-28.320,-40.527,-64.453,0.000
1709374142.519,-38.086,-32.227,-36.621,-53.223,0.000
1709374142.523,-9.277,-35.156,-34.180,-24.902,0.000
1709374142.527,4.883,-38.574,-38.574,-6.836,0.000
1709374142.531,-29.785,-37.598,-35.156,-31.250,0.000
1709374142.535,-50.781,-33.203,-25.391,-37.109,0.000
1709374142.539,-39.062,-31.250,-29.785,-38.574,0.000
1709374142.542,-17.090,-37.598,-34.668,-33.203,0.000
1709374142.546,-1.465,-43.945,-31.250,-14.648,0.000
1709374142.550,-26.855,-41.504,-25.879,-34.180,0.000
1709374142.554,-54.199,-43.457,-24.902,-57.617,0.000
1709374142.558,-49.316,-45.410,-29.297,-53.711,0.000
1709374142.562,-17.578,-37.598,-27.832,-29.297,0.000
1709374142.566,9.766,-34.180,-29.785,-13.184,0.000
1709374142.570,-20.020,-36.133,-31.738,-34.180,0.000
1709374142.574,-46.875,-32.227,-29.297,-45.410,0.000
1709374142.578,-41.016,-28.809,-29.297,-44.434,0.000
1709374142.582,-29.297,-32.715,-24.902,-35.645,0.000
1709374142.586,-6.348,-41.016,-29.785,-17.090,0.000
1709374142.590,-12.695,-41.504,-36.621,-26.367,0.000
1709374142.593,-50.293,-41.016,-31.738,-47.363,0.000
1709374142.597,-60.059,-42.480,-30.273,-54.199,0.000
1709374142.601,-27.832,-45.410,-31.250,-41.992,0.000
1709374142.605,5.859,-39.062,-30.762,-12.695,0.000
1709374142.609,-22.949,-33.203,-34.180,-23.926,0.000
1709374142.613,-60.059,-33.203,-32.715,-57.617,0.000
1709374142.617,-56.641,-34.668,-35.645,-55.176,0.000
1709374142.621,-38.574,-42.480,-41.992,-41.016,0.000
1709374142.625,4.395,-39.551,-36.133,-10.742,0.000
1709374142.629,-1.953,-35.156,-37.109,-14.648,0.000
1709374142.633,-46.387,-39.551,-41.992,-47.852,0.000
1709374142.637,-58.105,-39.062,-33.691,-50.781,0.000
1709374142.640,-41.992,-35.645,-33.691,-36.133,0.000
1709374142.644,-3.906,-35.156,-42.480,-16.113,0.000
1709374142.648,-14.648,-38.574,-38.086,-18.555,0.000
1709374142.652,-58.105,-41.504,-36.621,-56.641,0.000
1709374142.656,-62.500,-39.062,-40.039,-65.918,0.000
1709374142.660,-51.758,-39.062,-43.457,-58.105,0.000
1709374142.664,-20.020,-45.898,-47.363,-37.109,0.000
1709374142.668,-7.812,-40.527,-50.293,-32.715,0.000
1709374142.672,-49.805,-34.668,-48.828,-58.105,0.000
1709374142.676,-69.336,-35.645,-44.434,-67.871,0.000
1709374142.680,-55.176,-36.133,-46.387,-62.988,0.000
1709374142.683,-23.926,-32.715,-51.758,-30.273,0.000
1709374142.687,-6.836,-28.809,-55.176,-15.137,0.000
1709374142.691,-51.758,-27.832,-55.176,-54.199,0.000
1709374142.695,-76.660,-28.809,-51.270,-67.871,0.000
1709374142.699,-59.082,-30.273,-48.340,-48.828,0.000
1709374142.703,-33.203,-32.715,-51.270,-29.785,0.000
1709374142.707,-17.578,-29.785,-47.363,-21.973,0.000
1709374142.711,-48.828,-31.250,-44.922,-41.504,0.000
1709374142.715,-73.730,-36.621,-46.875,-54.688,0.000
1709374142.719,-66.406,-33.691,-52.734,-51.270,0.000
1709374142.723,-38.574,-34.180,-50.781,-34.180,0.000
1709374142.726,-13.672,-39.062,-46.387,-11.719,0.000
1709374142.730,-44.922,-41.016,-47.363,-23.926,0.000
1709374142.734,-78.125,-40.527,-46.387,-51.758,0.000
1709374142.738,-66.895,-39.551,-46.387,-57.129,0.000
1709374142.742,-41.992,-41.016,-40.039,-34.668,0.000
1709374142.746,-15.137,-38.574,-39.062,-8.789,0.000
1709374142.750,-37.598,-40.527,-43.945,-34.668,0.000
1709374142.754,-70.801,-48.340,-45.898,-68.848,0.000
1709374142.758,-64.941,-44.922,-44.922,-61.523,0.000
1709374142.762,-45.898,-46.875,-47.852,-42.480,0.000
1709374142.765,-20.996,-48.828,-47.363,-21.484,0.000
1709374142.769,-29.785,-35.156,-41.992,-30.762,0.000
1709374142.773,-64.941,-26.855,-40.039,-54.199,0.000
1709374142.777,-73.730,-32.227,-40.039,-59.082,0.000
1709374142.781,-49.316,-40.527,-47.852,-50.781,0.000
1709374142.785,-9.766,-37.598,-47.363,-25.879,0.000
1709374142.789,-21.973,-33.203,-39.551,-26.855,0.000
1709374142.793,-61.523,-36.133,-42.969,-53.223,0.000
1709374142.797,-63.477,-32.715,-41.992,-54.199,0.000
1709374142.801,-43.945,-30.273,-37.598,-39.062,0.000
1709374142.804,-13.184,-37.598,-40.527,-15.137,0.000
1709374142.808,-15.137,-39.062,-37.598,-16.113,0.000
1709374142.812,-52.246,-30.762,-34.180,-40.527,0.000
1709374142.816,-64.941,-32.227,-31.250,-42.480,0.000
1709374142.820,-43.945,-38.086,-31.250,-30.273,0.000
1709374142.824,0.488,-33.203,-36.621,-6.348,0.000
1709374142.828,3.418,-29.297,-39.062,-1.465,0.000
1709374142.832,-40.039,-31.250,-39.551,-34.668,0.000
1709374142.836,-45.898,-32.715,-37.598,-45.898,0.000
1709374142.839,-33.691,-30.762,-36.621,-34.180,0.000
1709374142.843,-8.789,-31.738,-39.062,-12.207,0.000
1709374142.847,4.395,-32.715,-40.527,-1.953,0.000
1709374142.851,-27.344,-30.762,-38.086,-21.973,0.000
1709374142.855,-54.688,-29.297,-35.645,-37.598,0.000
1709374142.859,-55.664,-30.762,-36.621,-42.480,0.000
1709374142.863,-15.137,-25.391,-37.109,-8.301,0.000
1709374142.867,2.930,-23.926,-37.109,4.883,0.000
1709374142.871,-33.691,-29.297,-33.203,-40.039,0.000
1709374142.875,-55.664,-29.297,-32.715,-58.105,0.000
1709374142.878,-50.293,-29.785,-39.551,-53.223,0.000
1709374142.882,-19.531,-34.668,-38.086,-34.180,0.000
1709374142.886,3.418,-38.086,-32.715,-19.043,0.000
1709374142.890,-29.297,-37.598,-38.086,-44.922,0.000
1709374142.894,-56.152,-38.574,-33.691,-62.988,0.000
1709374142.898,-49.805,-36.133,-25.391,-54.688,0.000
1709374142.902,-26.367,-32.715,-31.738,-38.086,0.000
1709374142.906,-0.488,-34.180,-36.133,-16.602,0.000
1709374142.910,-20.508,-31.738,-35.645,-37.598,0.000
1709374142.913,-56.641,-31.738,-31.250,-61.035,0.000
1709374142.917,-56.152,-37.598,-29.297,-60.547,0.000
1709374142.921,-31.250,-38.086,-40.039,-48.828,0.000
1709374142.925,-1.953,-33.203,-37.109,-17.578,0.000
1709374142.929,-24.414,-33.203,-33.203,-33.691,0.000
1709374142.933,-55.664,-38.086,-32.227,-62.500,0.000
1709374142.937,-52.246,-40.039,-31.250,-57.617,0.000
1709374142.941,-36.621,-40.527,-40.527,-43.945,0.000
1709374142.945,-1.465,-38.574,-40.527,-22.949,0.000
1709374142.949,-10.254,-41.992,-42.969,-27.344,0.000
1709374142.953,-52.246,-44.922,-46.875,-47.852,0.000
1709374142.957,-61.035,-44.922,-47.363,-53.711,0.000
1709374142.960,-41.992,-43.945,-48.340,-38.574,0.000
1709374142.964,-1.465,-42.480,-45.410,-6.836,0.000
1709374142.968,-5.371,-38.086,-40.039,-3.418,0.000
1709374142.972,-43.945,-37.109,-36.133,-39.551,0.000
1709374142.976,-47.852,-38.086,-41.992,-53.711,0.000
1709374142.980,-37.598,-36.621,-41.504,-36.621,0.000
1709374142.984,-0.977,-34.180,-33.691,-8.789,0.000
1709374142.988,4.395,-31.250,-34.668,-13.672,0.000
1709374142.992,-40.039,-26.367,-34.180,-41.016,0.000
1709374142.996,-57.129,-26.367,-34.180,-43.457,0.000
1709374143.000,-49.316,-32.715,-37.109,-35.645,0.000
1709374143.004,-14.648,-35.156,-42.480,-10.254,0.000
1709374143.008,-9.277,-39.062,-41.016,-9.277,0.000
1709374143.011,-47.363,-43.457,-37.598,-42.969,0.000
1709374143.015,-61.035,-39.062,-35.645,-44.922,0.000
1709374143.019,-54.688,-36.621,-37.109,-45.898,0.000
1709374143.023,-22.949,-39.062,-38.574,-28.809,0.000
1709374143.027,-13.672,-39.551,-40.527,-13.672,0.000
1709374143.031,-54.688,-34.668,-36.621,-41.016,0.000
1709374143.035,-78.125,-35.156,-37.109,-59.082,0.000
1709374143.039,-64.453,-33.203,-37.598,-49.805,0.000
1709374143.043,-23.438,-36.621,-39.062,-21.973,0.000
1709374143.047,-5.859,-38.086,-41.992,-8.301,0.000
1709374143.051,-40.039,-31.250,-38.086,-31.250,0.000
1709374143.055,-63.965,-32.227,-35.156,-52.246,0.000
1709374143.058,-52.246,-32.715,-34.180,-44.434,0.000
1709374143.062,-28.809,-31.738,-32.227,-26.367,0.000
1709374143.066,-8.301,-34.668,-33.691,-19.531,0.000
1709374143.070,-41.504,-41.016,-39.062,-43.945,0.000
1709374143.074,-76.660,-41.504,-35.645,-61.523,0.000
1709374143.078,-69.824,-37.109,-35.156,-57.617,0.000
1709374143.082,-42.969,-41.016,-38.574,-44.922,0.000
1709374143.086,-9.277,-43.457,-37.598,-27.832,0.000
1709374143.090,-30.273,-44.922,-38.574,-42.480,0.000
1709374143.094,-70.312,-50.781,-34.668,-59.570,0.000
1709374143.098,-65.918,-51.270,-37.109,-56.641,0.000
1709374143.101,-46.875,-45.410,-40.039,-41.016,0.000
1709374143.105,-19.531,-45.898,-34.668,-8.789,0.000
1709374143.109,-37.109,-52.246,-35.156,-25.879,0.000
1709374143.113,-76.660,-45.898,-38.086,-58.594,0.000
1709374143.117,-73.730,-36.133,-36.133,-61.035,0.000
1709374143.121,-50.293,-38.574,-38.086,-47.363,0.000
1709374143.125,-11.230,-40.039,-41.504,-16.602,0.000
1709374143.129,-13.672,-38.086,-39.062,-21.484,0.000
1709374143.133,-59.082,-39.062,-36.133,-51.758,0.000
1709374143.137,-66.895,-35.156,-35.645,-53.223,0.000
1709374143.140,-39.062,-34.668,-37.598,-40.527,0.000
1709374143.144,-7.324,-40.527,-36.621,-14.160,0.000
1709374143.148,-17.578,-39.551,-34.180,-10.742,0.000
1709374143.152,-59.570,-33.691,-39.062,-45.898,0.000
1709374143.156,-72.754,-37.598,-44.922,-65.918,0.000
1709374143.160,-49.805,-32.227,-36.133,-51.270,0.000
1709374143.164,-18.555,-32.715,-38.574,-23.438,0.000
1709374143.168,-23.926,-41.504,-42.969,-24.414,0.000
1709374143.172,-54.688,-37.598,-34.668,-53.711,0.000
1709374143.175,-68.359,-38.086,-37.109,-65.918,0.000
1709374143.179,-54.688,-40.039,-39.062,-51.270,0.000
1709374143.183,-12.695,-39.551,-35.645,-20.020,0.000
1709374143.187,-5.859,-40.527,-35.645,-18.066,0.000
1709374143.191,-48.828,-38.574,-38.086,-45.898,0.000
1709374143.195,-63.477,-33.691,-36.621,-41.016,0.000
1709374143.199,-45.410,-31.738,-36.621,-39.062,0.000
1709374143.203,-7.324,-37.109,-37.109,-23.438,0.000
1709374143.207,8.789,-36.621,-38.574,-6.348,0.000
1709374143.211,-32.227,-30.762,-41.016,-41.504,0.000
1709374143.214,-63.477,-28.809,-41.016,-60.059,0.000
1709374143.218,-46.387,-33.691,-38.574,-45.898,0.000
1709374143.222,-11.230,-35.156,-34.668,-19.043,0.000
1709374143.226,1.953,-29.785,-31.738,0.000,0.000
1709374143.230,-26.855,-28.809,-30.273,-25.879,0.000
1709374143.234,-55.176,-32.715,-31.738,-53.223,0.000
1709374143.238,-56.641,-37.598,-36.133,-46.875,0.000
1709374143.242,-28.809,-37.598,-34.180,-20.996,0.000
1709374143.246,-2.441,-34.180,-31.738,-7.812,0.000
1709374143.250,-36.133,-33.691,-34.180,-33.203,0.000
1709374143.253,-67.383,-35.645,-27.344,-46.875,0.000
1709374143.257,-53.711,-35.645,-22.949,-43.945,0.000
1709374143.261,-26.855,-34.180,0.000,-29.297,0.000
1709374143.265,-4.395,-38.574,0.000,-4.883,0.000
1709374143.269,-25.879,-38.574,0.000,-24.414,0.000
1709374143.273,-53.223,-30.762,0.000,-55.664,0.000
1709374143.277,-45.410,-28.809,0.000,-58.105,0.000
1709374143.281,-22.461,-28.809,0.000,-41.016,0.000
1709374143.284,9.277,-26.367,0.000,-12.207,0.000
1709374143.288,-9.277,-29.297,0.000,-26.855,0.000
1709374143.292,-49.805,-32.227,0.000,-54.199,0.000
1709374143.296,-60.547,-32.715,0.000,-55.664,0.000
1709374143.300,-50.293,-36.133,0.000,-40.527,0.000
1709374143.304,-14.160,-36.133,0.000,-11.719,0.000
1709374143.308,-19.043,-30.762,-27.832,-19.043,0.000
1709374143.312,-57.129,-28.320,-33.691,-56.152,0.000
1709374143.316,-65.918,-31.738,-41.016,-60.059,0.000
1709374143.320,-43.945,-40.527,-35.645,-36.133,0.000
1709374143.324,0.000,-34.180,-31.738,-8.789,0.000
1709374143.328,4.395,-26.855,-37.109,-6.836,0.000
1709374143.332,-41.992,-30.273,-36.621,-35.645,0.000
1709374143.335,-63.477,-34.668,-39.551,-53.223,0.000
1709374143.339,-44.434,-35.156,-43.945,-45.898,0.000
1709374143.343,-9.766,-37.109,-43.457,-12.695,0.000
1709374143.347,-12.695,-35.645,-40.527,-7.812,0.000
1709374143.351,-57.129,-30.762,-37.109,-43.945,0.000
1709374143.355,-72.266,-27.344,-33.203,-62.500,0.000
1709374143.359,-54.199,-22.461,-32.227,-47.852,0.000
1709374143.363,-19.043,-26.367,-36.621,-21.484,0.000
1709374143.367,-6.836,-30.762,-36.621,-13.672,0.000
1709374143.371,-45.410,-32.715,-40.039,-44.434,0.000
1709374143.375,-62.988,-33.203,-40.527,-61.035,0.000
1709374143.379,-46.387,-31.738,-32.715,-46.387,0.000
1709374143.382,-15.625,-35.645,-33.203,-25.879,0.000
1709374143.386,-0.488,-36.621,-38.086,-10.254,0.000
1709374143.390,-37.598,-33.691,-35.645,-24.902,0.000
1709374143.394,-64.453,-35.156,-32.227,-49.316,0.000
1709374143.398,-49.805,-33.691,-33.203,-47.363,0.000
1709374143.402,-22.461,-37.598,-36.621,-19.531,0.000
1709374143.406,-3.906,-39.551,-36.133,-1.465,0.000
1709374143.410,-35.645,-33.203,-33.203,-27.832,0.000
1709374143.414,-62.500,-30.762,-30.273,-46.875,0.000
1709374143.418,-55.176,-29.785,-29.297,-46.387,0.000
1709374143.422,-29.297,-36.133,-35.156,-28.320,0.000
1709374143.426,-1.953,-40.039,-39.062,-4.883,0.000
1709374143.429,-23.926,-36.621,-40.527,-31.738,0.000
1709374143.433,-59.570,-37.598,-41.504,-53.223,0.000
1709374143.437,-58.594,-34.668,-41.016,-49.316,0.000
1709374143.441,-37.598,-33.691,-40.039,-40.527,0.000
1709374143.445,-5.371,-37.109,-40.527,-19.531,0.000
1709374143.449,-17.578,-35.156,-43.945,-34.668,0.000
1709374143.453,-58.594,-38.086,-40.527,-62.500,0.000
1709374143.457,-59.570,-35.156,-36.133,-55.664,0.000
1709374143.461,-31.250,-33.691,-40.039,-37.598,0.000
1709374143.465,3.906,-38.086,-39.551,-15.137,0.000
1709374143.469,-12.207,-37.598,-31.738,-19.043,0.000
1709374143.472,-59.082,-39.062,-31.250,-48.828,0.000
1709374143.476,-63.477,-41.992,-32.715,-53.223,0.000
1709374143.480,-37.598,-40.039,-31.250,-31.250,0.000
1709374143.484,-1.465,-38.574,-33.691,-8.301,0.000
1709374143.488,-6.836,-38.574,-30.273,-20.508,0.000
1709374143.492,-45.410,-39.551,-23.438,-46.875,0.000
1709374143.496,-58.594,-42.480,-29.297,-51.270,0.000
1709374143.500,-50.293,-40.039,-33.203,-51.758,0.000
1709374143.504,-8.789,-36.621,-31.250,-20.996,0.000
1709374143.508,5.371,-37.109,-29.785,-7.324,0.000
1709374143.511,-42.969,-37.109,-29.785,-42.480,0.000
1709374143.515,-61.035,-33.203,-32.715,-56.152,0.000
1709374143.519,-41.504,-31.738,-27.832,-48.340,0.000
1709374143.523,-6.836,-38.574,-28.809,-16.602,0.000
1709374143.527,2.441,-41.992,-28.809,-2.930,0.000
1709374143.531,-39.551,-37.598,-27.832,-42.480,0.000
1709374143.535,-56.152,-35.645,-30.273,-56.152,0.000
1709374143.539,-42.480,-39.551,-29.785,-47.363,0.000
1709374143.543,-12.207,-42.480,-30.273,-31.738,0.000
1709374143.546,1.465,-43.457,-34.668,-15.137,0.000
1709374143.550,-38.086,-39.062,-35.645,-39.062,0.000
1709374143.554,-64.941,-37.598,-34.668,-59.570,0.000
1709374143.558,-55.664,-36.621,-39.551,-55.176,0.000
1709374143.562,-17.090,-31.250,-38.086,-38.086,0.000
1709374143.566,-1.953,-34.180,-38.574,-17.578,0.000
1709374143.570,-47.852,-34.668,-40.039,-29.297,0.000
1709374143.574,-82.520,-30.762,-36.133,-55.176,0.000
1709374143.578,-72.754,-31.738,-34.668,-58.105,0.000
1709374143.582,-40.039,-35.156,-32.715,-33.691,0.000
1709374143.586,-8.301,-37.598,-29.785,-9.277,0.000
1709374143.589,-41.016,-40.039,-34.668,-35.156,0.000
1709374143.593,-82.031,-42.969,-39.062,-62.988,0.000
1709374143.597,-71.777,-38.086,-35.645,-57.617,0.000
1709374143.601,-40.527,-36.621,-34.668,-38.574,0.000
1709374143.605,-12.695,-39.551,-38.086,-18.555,0.000
1709374143.609,-28.320,-38.086,-40.527,-31.250,0.000
1709374143.613,-55.664,-32.715,-35.645,-42.969,0.000
1709374143.617,-57.129,-30.273,-31.738,-33.203,0.000
1709374143.621,-44.922,-35.156,-32.227,-20.020,0.000
1709374143.624,-8.789,-36.621,-30.273,4.395,0.000
1709374143.628,-17.090,-37.109,-28.809,-8.301,0.000
1709374143.632,-64.941,-40.039,-32.227,-46.875,0.000
1709374143.636,-64.941,-39.551,-37.598,-54.199,0.000
1709374143.640,-35.645,-37.598,-33.691,-38.086,0.000
1709374143.644,-4.395,-41.016,-36.133,-14.648,0.000
1709374143.648,-11.719,-40.527,-39.551,-20.508,0.000
1709374143.652,-52.246,-38.574,-34.180,-49.316,0.000
1709374143.655,-60.547,-39.062,-32.227,-54.199,0.000
1709374143.659,-39.062,-39.062,-32.715,-32.715,0.000
1709374143.663,-8.789,-37.598,-34.180,-9.766,0.000
1709374143.667,-12.207,-41.992,-36.133,-21.484,0.000
1709374143.671,-52.734,-41.992,-31.738,-53.711,0.000
1709374143.675,-61.523,-33.691,-31.738,-52.246,0.000
1709374143.679,-49.316,-37.598,-36.133,-40.527,0.000
1709374143.683,-22.461,-48.340,-36.621,-22.949,0.000
1709374143.687,-11.719,-46.875,-35.645,-11.230,0.000
1709374143.691,-45.898,-42.480,-33.203,-35.645,0.000
1709374143.695,-63.965,-39.551,-25.879,-52.246,0.000
1709374143.699,-56.641,-37.598,-33.203,-47.852,0.000
1709374143.703,-17.090,-40.039,-37.598,-17.090,0.000
1709374143.706,5.859,-39.062,-33.203,-3.906,0.000
1709374143.710,-37.109,-41.016,-31.738,-34.180,0.000
1709374143.714,-61.523,-41.016,-27.832,-44.434,0.000
1709374143.718,-45.410,-38.086,-26.855,-31.738,0.000
1709374143.722,-7.812,-39.062,-32.227,-7.812,0.000
1709374143.726,7.324,-34.180,-34.668,4.395,0.000
1709374143.730,-33.203,-32.227,-36.133,-18.066,0.000
1709374143.734,-62.012,-32.227,-37.109,-39.062,0.000
1709374143.738,-57.129,-31.250,-38.574,-43.945,0.000
1709374143.742,-29.297,-36.133,-41.016,-25.391,0.000
1709374143.746,-1.953,-39.551,-40.039,-10.742,0.000
1709374143.750,-33.691,-39.062,-38.574,-35.645,0.000
1709374143.753,-67.871,-35.645,-39.062,-56.641,0.000
1709374143.757,-62.988,-35.156,-35.156,-57.617,0.000
1709374143.761,-36.133,-38.574,-37.598,-37.109,0.000
1709374143.765,-9.766,-39.062,-44.434,-8.301,0.000
1709374143.769,-30.273,-35.645,-44.434,-30.762,0.000
1709374143.773,-57.129,-32.715,-38.574,-58.594,0.000
1709374143.777,-56.152,-31.738,-38.574,-57.129,0.000
1709374143.781,-32.227,-34.668,-41.016,-41.504,0.000
1709374143.785,1.465,-37.109,-38.574,-17.090,0.000
1709374143.789,-15.137,-35.156,-35.156,-36.621,0.000
1709374143.793,-55.176,-36.133,-33.203,-67.383,0.000
1709374143.797,-60.059,-43.945,-34.180,-67.871,0.000
1709374143.800,-45.898,-44.434,-41.992,-55.664,0.000
1709374143.804,-11.230,-38.086,-41.992,-19.531,0.000
1709374143.808,-16.113,-39.062,-37.109,-14.648,0.000
1709374143.812,-57.129,-35.645,-34.668,-46.387,0.000
1709374143.816,-67.871,-39.551,-32.715,-61.035,0.000
1709374143.820,-53.711,-47.363,-37.598,-54.688,0.000
1709374143.824,-11.719,-39.062,-39.551,-27.832,0.000
1709374143.828,-8.301,-32.227,-35.156,-23.438,0.000
1709374143.832,-48.828,-39.062,-34.180,-52.734,0.000
1709374143.836,-59.082,-39.551,-38.086,-62.988,0.000
1709374143.839,-41.992,-35.645,-40.527,-47.852,0.000
1709374143.843,-7.812,-35.645,-36.621,-15.625,0.000
1709374143.847,-8.301,-42.480,-36.133,-16.113,0.000
1709374143.851,-54.199,-41.504,-39.062,-54.688,0.000
1709374143.855,-73.730,-38.086,-39.551,-65.430,0.000
1709374143.859,-62.500,-35.156,-42.480,-60.547,0.000
1709374143.863,-27.344,-35.156,-39.551,-36.133,0.000
1709374143.867,-15.625,-35.645,-38.574,-23.926,0.000
1709374143.871,-49.805,-31.250,-38.086,-52.246,0.000
1709374143.875,-60.059,-29.785,-33.691,-58.105,0.000
1709374143.879,-44.434,-32.715,-31.250,-43.457,0.000
1709374143.882,-8.789,-35.156,-30.273,-14.648,0.000
1709374143.886,8.301,-31.250,-30.762,3.906,0.000
1709374143.890,-34.180,-34.668,-34.180,-28.320,0.000
1709374143.894,-54.199,-38.086,-31.738,-49.805,0.000
1709374143.898,-40.527,-33.691,-31.738,-32.715,0.000
1709374143.902,-15.137,-31.738,-35.156,-4.395,0.000
1709374143.906,2.930,-37.109,-37.109,3.418,0.000
1709374143.910,-27.832,-39.062,-36.133,-25.879,0.000
1709374143.914,-58.594,-38.574,-33.203,-43.457,0.000
1709374143.918,-55.176,-37.598,-30.273,-40.039,0.000
1709374143.921,-30.762,-37.109,-30.273,-22.461,0.000
1709374143.925,-6.836,-39.062,-33.691,-4.883,0.000
1709374143.929,-32.227,-39.551,-39.062,-31.738,0.000
1709374143.933,-60.059,-36.621,-39.551,-57.129,0.000
1709374143.937,-58.594,-32.227,-38.086,-60.059,0.000
1709374143.941,-38.574,-33.691,-41.992,-52.246,0.000
1709374143.945,-12.207,-35.156,-46.387,-24.902,0.000
1709374143.949,-35.645,-39.062,-46.387,-42.969,0.000
1709374143.953,-65.430,-35.645,-40.039,-67.871,0.000
1709374143.957,-66.895,-32.227,-40.039,-67.383,0.000
1709374143.960,-50.293,-39.551,-45.410,-50.781,0.000
1709374143.964,-8.789,-41.992,-41.504,-12.695,0.000
1709374143.968,-25.391,-41.992,-36.133,-28.320,0.000
1709374143.972,-71.777,-38.574,-34.668,-64.453,0.000
1709374143.976,-76.660,-41.016,-37.109,-65.430,0.000
1709374143.980,-56.152,-45.898,-41.016,-48.828,0.000
1709374143.984,-16.113,-47.852,-43.457,-12.695,0.000
1709374143.988,-18.066,-40.527,-41.016,-7.324,0.000
1709374143.992,-59.570,-36.133,-40.039,-37.598,0.000
1709374143.995,-61.523,-40.527,-44.922,-51.270,0.000
1709374143.999,-38.574,-41.504,-41.504,-39.062,0.000
1709374144.003,-5.371,-39.551,-38.574,-10.742,0.000
1709374144.007,-5.371,-38.086,-39.551,-16.113,0.000
1709374144.011,-49.316,-38.574,-38.086,-50.781,0.000
1709374144.015,-56.641,-36.621,-33.691,-57.617,0.000
1709374144.019,-43.457,-34.180,-33.691,-49.805,0.000
1709374144.023,-14.648,-33.203,-35.156,-26.367,0.000
1709374144.027,-2.930,-37.109,-38.086,-20.508,0.000
1709374144.030,-37.598,-37.109,-35.645,-43.945,0.000
1709374144.034,-59.082,-34.180,-38.086,-49.316,0.000
1709374144.038,-50.781,-36.133,-42.969,-49.316,0.000
1709374144.042,-12.695,-41.016,-44.434,-29.297,0.000
1709374144.046,-0.488,-45.898,-45.898,-17.090,0.000
1709374144.050,-48.828,-40.527,-40.527,-44.922,0.000
1709374144.054,-70.312,-33.203,-37.109,-62.012,0.000
1709374144.058,-55.664,-29.785,-36.621,-53.711,0.000
1709374144.062,-22.949,-30.762,-41.016,-32.715,0.000
1709374144.066,-2.441,-35.645,-47.852,-17.090,0.000
1709374144.070,-37.598,-34.668,-42.480,-41.504,0.000
1709374144.074,-64.941,-34.668,-33.691,-60.547,0.000
1709374144.078,-58.105,-41.504,-35.645,-51.758,0.000
1709374144.081,-27.344,-38.574,-37.109,-24.414,0.000
1709374144.085,-1.953,-36.133,-32.715,-4.883,0.000
1709374144.089,-34.180,-35.645,-32.715,-26.855,0.000
1709374144.093,-64.453,-38.086,-36.133,-41.016,0.000
1709374144.097,-56.152,-39.062,-31.250,-37.109,0.000
1709374144.101,-29.785,-31.738,-30.762,-27.832,0.000
1709374144.105,-6.348,-31.250,-35.156,-8.301,0.000
1709374144.109,-27.832,-32.715,-33.691,-24.414,0.000
1709374144.113,-65.430,-33.691,-34.180,-55.176,0.000
1709374144.117,-66.406,-34.668,-35.645,-54.199,0.000
1709374144.121,-32.715,-33.691,-38.086,-37.109,0.000
1709374144.125,5.859,-28.809,-41.016,-9.277,0.000
1709374144.128,-11.719,-27.832,-42.480,-18.555,0.000
1709374144.132,-52.246,-32.715,-43.945,-58.105,0.000
1709374144.136,-56.152,-33.203,-41.992,-61.035,0.000
1709374144.140,-36.133,-29.785,-37.598,-35.156,0.000
1709374144.144,-3.418,-29.785,-40.039,-7.324,0.000
1709374144.148,-11.230,-30.273,-34.668,-14.648,0.000
1709374144.152,-55.176,-32.227,-34.668,-44.434,0.000
1709374144.156,-57.129,-34.180,-35.645,-44.434,0.000
1709374144.160,-27.832,-38.574,-35.156,-33.203,0.000
1709374144.164,12.695,-35.645,-40.039,-13.184,0.000
1709374144.168,4.883,-30.762,-37.109,-15.137,0.000
1709374144.171,-51.270,-32.227,-37.109,-53.711,0.000
1709374144.175,-67.871,-33.203,-44.434,-67.383,0.000
1709374144.179,-48.340,-31.738,-43.945,-52.246,0.000
1709374144.183,-13.672,-32.227,-38.574,-12.207,0.000
1709374144.187,-17.090,-40.527,-42.969,-10.742,0.000
1709374144.191,-66.406,-45.898,-45.410,-58.105,0.000
1709374144.195,-79.102,-41.016,-42.969,-66.895,0.000
1709374144.199,-61.035,-41.016,-43.945,-52.734,0.000
1709374144.203,-30.762,-44.434,-40.039,-27.344,0.000
1709374144.207,-21.973,-45.898,-37.598,-17.578,0.000
1709374144.211,-58.105,-42.480,-36.621,-50.293,0.000
1709374144.214,-77.148,-42.969,-39.551,-70.312,0.000
1709374144.218,-60.547,-41.016,-44.922,-60.059,0.000
1709374144.222,-31.738,-40.039,-47.363,-32.715,0.000
1709374144.226,-9.277,-40.039,-43.945,-11.230,0.000
1709374144.230,-37.109,-39.551,-44.922,-32.715,0.000
1709374144.234,-64.453,-43.945,-44.922,-60.547,0.000
1709374144.238,-57.129,-47.363,-43.945,-54.199,0.000
1709374144.242,-21.973,-40.527,-42.480,-24.414,0.000
1709374144.246,-3.418,-40.039,-44.434,-10.742,0.000
1709374144.250,-40.039,-37.598,-43.945,-31.250,0.000
1709374144.254,-60.059,-33.691,-41.992,-41.016,0.000
1709374144.257,-50.781,-37.598,-46.875,-40.527,0.000
1709374144.261,-33.691,-40.527,-52.734,-26.367,0.000
1709374144.265,-6.836,-44.922,-43.945,3.418,0.000
1709374144.269,-25.391,-41.016,-36.133,-14.160,0.000
1709374144.273,-59.570,-37.598,-39.062,-43.945,0.000
1709374144.277,-61.035,-41.504,-37.109,-40.039,0.000
1709374144.281,-28.320,-37.598,-37.109,-19.043,0.000
1709374144.285,5.859,-36.621,-38.574,1.465,0.000
1709374144.289,-13.672,-38.574,-35.645,-14.648,0.000
1709374144.292,-54.199,-44.434,-33.691,-42.969,0.000
1709374144.296,-62.988,-48.340,-38.574,-48.340,0.000
1709374144.300,-40.039,-47.852,-41.016,-38.086,0.000
1709374144.304,-9.766,-45.410,-37.109,-17.578,0.000
1709374144.308,-23.438,-44.434,-32.715,-20.508,0.000
1709374144.312,-58.594,-39.062,-31.250,-45.410,0.000
1709374144.316,-60.547,-34.180,-34.180,-60.059,0.000
1709374144.320,-39.062,-36.621,-35.645,-43.945,0.000
1709374144.324,-8.789,-39.062,-38.574,-20.020,0.000
1709374144.328,-9.766,-36.133,-37.109,-23.926,0.000
1709374144.332,-46.387,-34.668,-31.250,-47.363,0.000
1709374144.335,-58.594,-37.598,-32.227,-55.664,0.000
1709374144.340,-41.992,-40.039,-34.668,-43.945,0.000
1709374144.343,-5.859,-38.574,-34.668,-21.973,0.000
1709374144.347,-9.277,-38.086,-37.109,-27.832,0.000
1709374144.351,-58.594,-41.016,-42.969,-59.082,0.000
1709374144.355,-71.777,-39.062,-43.457,-67.383,0.000
1709374144.359,-46.875,-33.691,-37.598,-51.758,0.000
1709374144.363,-4.883,-33.691,-35.645,-19.043,0.000
1709374144.367,9.277,-31.738,-37.598,-13.184,0.000
1709374144.371,-36.621,-31.738,-40.527,-48.828,0.000
1709374144.375,-55.176,-34.180,-39.551,-55.176,0.000
1709374144.379,-35.645,-32.715,-40.527,-44.922,0.000
1709374144.382,-18.066,-32.715,-44.434,-32.227,0.000
1709374144.387,-10.254,-25.391,-43.945,-26.855,0.000
1709374144.391,-29.785,-19.043,-41.992,-43.457,0.000
1709374144.394,-44.434,-19.043,-41.504,-54.688,0.000
1709374144.398,-37.109,-22.461,-44.922,-56.641,0.000
1709374144.402,-5.859,-23.926,-44.434,-37.109,0.000
1709374144.406,14.160,-25.391,-40.527,-16.113,0.000
1709374144.410,-21.484,-25.879,-42.480,-38.086,0.000
1709374144.414,-54.199,-24.902,-39.551,-61.523,0.000
1709374144.418,-47.852,-28.809,-32.715,-56.152,0.000
1709374144.422,-23.438,-29.785,-33.203,-37.598,0.000
1709374144.426,7.324,-27.832,-32.715,-9.277,0.000
1709374144.430,-17.090,-24.414,-30.762,-25.879,0.000
1709374144.434,-55.176,-27.832,-33.691,-53.223,0.000
1709374144.438,-52.734,-31.738,-32.227,-46.387,0.000
1709374144.442,-29.297,-31.738,-33.203,-28.320,0.000
1709374144.445,-1.953,-39.062,-35.156,-12.207,0.000
1709374144.449,-20.508,-39.551,-28.320,-26.855,0.000
1709374144.453,-53.711,-35.156,-30.762,-49.316,0.000
1709374144.457,-53.223,-38.086,-37.598,-49.316,0.000
1709374144.461,-30.762,-44.922,-37.109,-34.668,0.000
1709374144.465,-0.977,-39.062,-38.086,-1.953,0.000
1709374144.469,-17.090,-35.156,-36.621,4.395,0.000
1709374144.473,-62.500,-43.945,-35.645,-33.691,0.000
1709374144.477,-62.012,-40.527,-34.180,-47.852,0.000
1709374144.481,-31.250,-35.156,-35.645,-26.855,0.000
1709374144.485,-3.906,-38.086,-38.086,0.000,0.000
1709374144.489,-17.090,-38.574,-40.039,-9.277,0.000
1709374144.492,-51.758,-37.109,-43.945,-43.945,0.000
1709374144.496,-59.570,-35.645,-41.504,-46.387,0.000
1709374144.500,-40.527,-32.227,-34.180,-26.855,0.000
1709374144.504,-4.883,-32.227,-35.156,-1.953,0.000
1709374144.508,-6.836,-28.809,-37.109,-5.859,0.000
1709374144.512,-43.457,-25.391,-32.227,-37.598,0.000
1709374144.516,-51.758,-26.855,-30.762,-35.156,0.000
1709374144.520,-39.062,-31.250,-36.621,-30.273,0.000
1709374144.524,-5.859,-32.715,-34.668,-17.090,0.000
1709374144.528,-3.418,-30.273,-34.668,-10.254,0.000
1709374144.532,-41.016,-30.762,-34.180,-40.039,0.000
1709374144.535,-60.547,-34.668,-30.762,-52.734,0.000
1709374144.539,-48.828,-40.039,-36.133,-43.457,0.000
1709374144.543,-9.766,-38.574,-41.992,-20.508,0.000
1709374144.547,-3.418,-36.133,-40.527,-12.695,0.000
1709374144.551,-46.387,-32.715,-34.180,-45.410,0.000
1709374144.555,-70.312,-34.180,-41.992,-63.965,0.000
1709374144.559,-61.035,-37.109,-44.434,-51.270,0.000
1709374144.563,-30.762,-36.621,-41.504,-27.832,0.000
1709374144.567,-8.789,-33.691,-45.410,-21.484,0.000
1709374144.571,-40.527,-32.227,-44.922,-50.293,0.000
1709374144.575,-63.477,-33.203,-43.457,-65.430,0.000
1709374144.578,-58.594,-37.109,-42.480,-56.152,0.000
1709374144.582,-32.715,-42.969,-42.969,-29.785,0.000
1709374144.586,-9.277,-45.898,-48.828,-11.719,0.000
1709374144.590,-35.645,-45.898,-44.434,-39.551,0.000
1709374144.594,-58.594,-38.086,-40.527,-60.547,0.000
1709374144.598,-55.664,-29.785,-44.434,-57.617,0.000
1709374144.602,-29.785,-29.785,-38.086,-32.227,0.000
1709374144.606,0.488,-31.738,-35.156,-4.883,0.000
1709374144.610,-28.809,-35.156,-38.574,-35.156,0.000
1709374144.614,-64.453,-37.109,-35.645,-64.453,0.000
1709374144.617,-56.641,-33.691,-32.715,-61.523,0.000
1709374144.621,-35.156,-38.086,-37.109,-41.992,0.000
1709374144.625,-6.836,-41.992,-35.156,-14.648,0.000
1709374144.629,-20.508,-38.086,-36.133,-27.832,0.000
1709374144.633,-52.734,-35.645,-41.504,-53.223,0.000
1709374144.637,-53.711,-34.180,-40.039,-54.688,0.000
1709374144.641,-38.574,-40.039,-43.457,-42.969,0.000
1709374144.645,-10.742,-42.480,-44.922,-15.137,0.000
1709374144.649,-20.508,-38.086,-39.551,-13.672,0.000
1709374144.653,-57.617,-36.621,-36.621,-44.434,0.000
1709374144.657,-65.430,-38.086,-38.086,-55.176,0.000
1709374144.660,-48.340,-41.992,-35.156,-41.504,0.000
1709374144.664,-11.719,-40.527,-35.156,-6.348,0.000
1709374144.668,-16.602,-39.062,-38.086,-8.789,0.000
1709374144.672,-54.688,-43.457,-35.645,-42.969,0.000
1709374144.676,-66.406,-39.551,-32.715,-48.828,0.000
1709374144.680,-54.199,-30.273,-32.715,-41.504,0.000
1709374144.684,-20.020,-32.715,-37.598,-18.066,0.000
1709374144.688,-19.531,-37.598,-37.598,-17.578,0.000
1709374144.692,-58.594,-33.203,-35.645,-46.875,0.000
1709374144.695,-63.965,-30.762,-33.203,-45.410,0.000
1709374144.699,-44.434,-33.691,-33.691,-31.250,0.000
1709374144.703,-17.090,-34.668,-33.691,-12.207,0.000
1709374144.707,-11.230,-36.133,-27.832,-4.395,0.000
1709374144.711,-44.922,-39.062,-26.367,-38.574,0.000
1709374144.715,-63.477,-43.457,-29.785,-60.059,0.000
1709374144.719,-57.129,-46.875,-32.715,-45.898,0.000
1709374144.723,-33.691,-45.898,-32.227,-22.949,0.000
1709374144.727,-20.020,-46.387,-33.691,-13.672,0.000
1709374144.730,-47.852,-45.410,-34.180,-37.598,0.000
1709374144.734,-63.965,-43.945,-34.180,-52.246,0.000
1709374144.738,-55.176,-42.969,-40.039,-36.133,0.000
1709374144.742,-30.762,-42.969,-45.410,-15.625,0.000
1709374144.746,-9.277,-44.922,-44.434,-6.836,0.000
1709374144.750,-37.598,-40.039,-41.016,-34.180,0.000
1709374144.754,-67.871,-34.668,-39.551,-52.246,0.000
1709374144.758,-60.547,-37.598,-37.598,-42.480,0.000
1709374144.761,-28.809,-43.457,-38.574,-26.855,0.000
1709374144.765,-0.977,-36.133,-38.086,-7.812,0.000
1709374144.769,-36.133,-33.691,-35.645,-31.738,0.000
1709374144.773,-65.918,-41.504,-39.062,-56.152,0.000
1709374144.777,-49.316,-39.551,-41.504,-46.875,0.000
1709374144.781,-30.762,-33.203,-40.039,-24.902,0.000
1709374144.785,0.000,-31.738,-38.086,5.859,0.000
1709374144.789,-18.555,-29.297,-35.645,-12.207,0.000
1709374144.793,-59.082,-30.273,-34.180,-43.457,0.000
1709374144.797,-59.082,-38.086,-38.086,-44.922,0.000
1709374144.801,-33.203,-35.156,-39.062,-34.180,0.000
1709374144.804,-1.465,-31.738,-39.062,-18.066,0.000
1709374144.809,-23.926,-38.086,-38.086,-21.973,0.000
1709374144.812,-66.406,-38.086,-32.227,-51.758,0.000
1709374144.816,-67.383,-31.738,-35.156,-54.199,0.000
1709374144.820,-43.457,-31.738,-40.527,-28.809,0.000
1709374144.824,-11.230,-37.109,-39.551,-6.348,0.000
1709374144.828,-15.137,-39.062,-35.645,-13.184,0.000
1709374144.832,-53.711,-29.297,-31.250,-42.969,0.000
1709374144.836,-69.336,-24.902,-33.691,-58.594,0.000
1709374144.840,-50.293,-26.855,-35.645,-42.480,0.000
1709374144.844,-14.160,-28.320,-35.645,-8.789,0.000
1709374144.848,-17.578,-32.715,-36.133,-15.625,0.000
1709374144.851,-55.176,-31.738,-37.598,-53.711,0.000
1709374144.856,-60.059,-29.785,-33.203,-56.641,0.000
1709374144.859,-39.062,-28.809,-32.715,-41.016,0.000
1709374144.863,-0.488,-28.320,-38.574,-19.531,0.000
1709374144.867,2.441,-29.785,-41.992,-16.602,0.000
1709374144.871,-39.551,-30.273,-38.574,-41.992,0.000
1709374144.875,-52.734,-29.297,-32.227,-51.758,0.000
1709374144.879,-40.527,-33.691,-37.109,-43.945,0.000
1709374144.883,-6.348,-37.109,-40.527,-19.531,0.000
1709374144.887,6.836,-36.133,-36.133,-3.906,0.000
1709374144.891,-43.945,-32.715,-34.668,-29.785,0.000
1709374144.895,-66.895,-31.250,-34.180,-53.223,0.000
1709374144.898,-50.781,-30.273,-33.203,-50.781,0.000
1709374144.902,-21.484,-29.785,-42.480,-29.297,0.000
1709374144.906,3.418,-29.297,-41.992,-15.625,0.000
1709374144.910,-32.227,-31.250,-34.180,-40.039,0.000
1709374144.914,-62.500,-31.738,-28.320,-52.246,0.000
1709374144.918,-54.688,-33.691,-32.227,-43.945,0.000
1709374144.922,-30.762,-38.574,-38.574,-26.855,0.000
1709374144.926,-9.766,-37.109,-33.203,-7.812,0.000
1709374144.930,-41.016,-38.574,-35.156,-27.344,0.000
1709374144.934,-71.777,-37.109,-38.574,-46.387,0.000
1709374144.938,-66.406,-34.668,-34.180,-46.387,0.000
1709374144.941,-36.621,-33.691,-32.227,-29.785,0.000
1709374144.945,-12.207,-34.668,-32.227,-17.578,0.000
1709374144.949,-37.598,-36.621,-37.598,-48.340,0.000
1709374144.953,-62.988,-41.016,-39.551,-65.918,0.000
1709374144.957,-60.547,-46.875,-34.180,-58.594,0.000
1709374144.961,-31.738,-42.480,-38.086,-39.062,0.000
1709374144.965,-1.953,-38.574,-40.527,-14.648,0.000
1709374144.969,-26.367,-39.551,-35.645,-29.297,0.000
1709374144.973,-69.336,-45.898,-39.062,-61.523,0.000
1709374144.977,-65.430,-48.828,-39.551,-57.129,0.000
1709374144.981,-32.227,-44.922,-37.109,-28.809,0.000
1709374144.984,0.488,-45.410,-42.969,-7.324,0.000
1709374144.988,-11.230,-44.922,-39.062,-21.973,0.000
1709374144.992,-46.875,-38.574,-30.762,-44.922,0.000
1709374144.996,-55.664,-37.109,-37.598,-47.852,0.000
1709374145.000,-35.645,-37.109,-44.434,-35.645,0.000
1709374145.004,0.000,-38.574,-41.992,-4.883,0.000
1709374145.008,-4.883,-41.504,-40.527,-5.371,0.000
1709374145.012,-52.734,-40.039,-41.504,-36.133,0.000
1709374145.016,-67.871,-40.527,-38.086,-46.387,0.000
1709374145.020,-51.758,-42.480,-37.109,-37.109,0.000
1709374145.023,-12.207,-43.457,-35.645,-1.465,0.000
1709374145.027,-3.418,-45.410,-35.645,0.000,0.000
1709374145.031,-41.016,-43.457,-36.133,-40.527,0.000
1709374145.035,-44.922,-39.551,-30.273,-45.410,0.000
1709374145.039,-26.855,-34.668,-29.297,-35.156,0.000
1709374145.043,5.859,-32.715,-32.227,-18.555,0.000
1709374145.047,14.648,-34.668,-36.133,-18.555,0.000
1709374145.051,-25.391,-33.203,-38.086,-46.387,0.000
1709374145.055,-42.480,-31.250,-40.527,-61.523,0.000
1709374145.059,-38.574,-31.250,-41.504,-58.105,0.000
1709374145.062,-18.555,-32.227,-42.969,-35.645,0.000
1709374145.066,-8.301,-33.691,-39.551,-18.555,0.000
1709374145.070,-45.410,-35.645,-34.180,-42.969,0.000
1709374145.074,-79.102,-39.062,-34.668,-69.824,0.000
1709374145.078,-74.219,-39.551,-32.715,-63.477,0.000
1709374145.082,-41.016,-33.203,-30.273,-39.062,0.000
1709374145.086,-20.996,-35.156,-34.668,-17.090,0.000
1709374145.090,-55.176,-41.016,-39.062,-43.457,0.000
1709374145.094,-83.496,-41.992,-33.203,-66.406,0.000
1709374145.097,-72.266,-46.875,-30.762,-55.664,0.000
1709374145.101,-42.480,-43.945,-37.109,-38.574,0.000
1709374145.105,-17.090,-37.109,-39.551,-16.602,0.000
1709374145.109,-39.062,-30.273,-33.203,-32.715,0.000
1709374145.113,-72.754,-31.250,-36.133,-58.105,0.000
1709374145.117,-75.195,-39.062,-43.945,-58.105,0.000
1709374145.121,-50.293,-37.109,-41.016,-46.387,0.000
1709374145.125,-21.484,-33.203,-41.504,-17.578,0.000
1709374145.129,-40.039,-28.809,-42.480,-27.832,0.000
1709374145.133,-79.102,-28.320,-43.945,-59.570,0.000
1709374145.136,-71.777,-32.227,-39.551,-58.594,0.000
1709374145.140,-38.574,-30.762,-33.203,-34.668,0.000
1709374145.144,-5.371,-33.691,-34.668,-10.254,0.000
1709374145.148,-15.625,-36.621,-40.527,-28.809,0.000
1709374145.152,-48.340,-31.738,-39.551,-59.570,0.000
1709374145.156,-50.781,-29.785,-33.691,-58.594,0.000
1709374145.160,-28.320,-33.203,-35.156,-31.738,0.000
1709374145.164,3.906,-36.133,-36.621,-8.789,0.000
1709374145.168,-3.906,-35.156,-34.668,-11.230,0.000
1709374145.171,-43.457,-34.668,-32.227,-39.062,0.000
1709374145.175,-59.570,-36.621,-36.621,-55.664,0.000
1709374145.179,-43.457,-36.621,-38.574,-41.992,0.000
1709374145.183,-8.789,-35.645,-32.715,-9.766,0.000
1709374145.187,-11.230,-31.738,-31.250,-8.301,0.000
1709374145.191,-50.293,-31.738,-36.621,-44.434,0.000
1709374145.195,-64.941,-32.227,-38.574,-62.012,0.000
1709374145.199,-44.922,-28.320,-34.180,-48.828,0.000
1709374145.203,-2.441,-27.832,-30.762,-11.230,0.000
1709374145.207,0.488,-26.367,-31.250,-7.324,0.000
1709374145.211,-44.922,-27.832,-34.668,-48.340,0.000
1709374145.215,-59.570,-33.203,-35.645,-56.152,0.000
1709374145.218,-48.340,-35.645,-37.598,-40.527,0.000
1709374145.222,-22.461,-36.133,-41.504,-19.531,0.000
1709374145.226,-15.137,-36.133,-43.945,-13.672,0.000
1709374145.230,-43.945,-24.902,-39.551,-37.598,0.000
1709374145.234,-54.199,-23.926,-37.598,-43.457,0.000
1709374145.238,-46.875,-33.203,-43.457,-37.598,0.000
1709374145.242,-12.695,-31.738,-40.039,-17.578,0.000
1709374145.246,18.066,-29.297,-37.598,3.906,0.000
1709374145.250,-17.090,-28.809,-41.504,-30.273,0.000
1709374145.254,-45.898,-33.203,-42.480,-54.688,0.000
1709374145.258,-42.480,-38.574,-42.480,-53.223,0.000
1709374145.262,-17.090,-34.180,-41.016,-33.203,0.000
1709374145.266,8.301,-32.227,-40.039,-4.395,0.000
1709374145.269,-26.367,-34.180,-43.457,-34.180,0.000
1709374145.273,-57.129,-33.691,-45.898,-62.988,0.000
1709374145.277,-52.246,-36.133,-44.434,-56.641,0.000
1709374145.281,-26.367,-39.062,-40.039,-39.062,0.000
1709374145.285,8.301,-40.527,-40.039,-18.555,0.000
1709374145.289,-20.508,-39.062,-40.527,-36.621,0.000
1709374145.293,-59.082,-35.645,-33.691,-62.012,0.000
1709374145.297,-55.176,-36.133,-37.598,-63.477,0.000
1709374145.301,-36.133,-37.109,-40.039,-42.480,0.000
1709374145.305,0.977,-39.062,-38.574,-10.742,0.000
1709374145.309,-11.719,-38.574,-38.086,-21.973,0.000
1709374145.312,-53.223,-39.551,-37.109,-52.246,0.000
1709374145.316,-56.152,-38.086,-36.621,-55.664,0.000
1709374145.320,-38.086,-33.691,-43.457,-44.434,0.000
1709374145.324,-1.465,-32.715,-39.551,-18.555,0.000
1709374145.328,-18.555,-35.156,-38.086,-21.484,0.000
1709374145.332,-62.988,-33.203,-40.039,-57.129,0.000
1709374145.336,-65.918,-30.762,-31.250,-56.152,0.000
1709374145.340,-47.852,-34.180,-31.250,-38.574,0.000
1709374145.344,-11.719,-35.156,-34.668,-11.230,0.000
1709374145.348,-5.859,-31.250,-31.250,-2.441,0.000
1709374145.351,-46.387,-27.344,-35.156,-39.551,0.000
1709374145.355,-67.871,-33.203,-33.691,-59.570,0.000
1709374145.359,-56.152,-35.156,-36.133,-43.945,0.000
1709374145.363,-15.625,-29.785,-36.133,-12.695,0.000
1709374145.367,-14.648,-31.250,-30.273,-11.230,0.000
1709374145.371,-61.035,-38.086,-32.227,-43.457,0.000
1709374145.375,-70.801,-41.504,-30.273,-60.059,0.000
1709374145.379,-60.059,-39.062,-25.391,-43.945,0.000
1709374145.383,-31.738,-37.598,-30.273,-10.254,0.000
1709374145.387,-16.113,-35.645,-32.227,-5.371,0.000
1709374145.391,-52.734,-31.738,-36.621,-38.086,0.000
1709374145.394,-71.289,-33.203,-42.480,-53.223,0.000
1709374145.398,-55.664,-34.180,-38.574,-39.551,0.000
1709374145.402,-21.973,-37.598,-41.504,-17.090,0.000
1709374145.406,-5.371,-39.062,-41.504,-7.812,0.000
1709374145.410,-44.922,-31.738,-32.715,-34.180,0.000
1709374145.414,-66.406,-34.668,-30.762,-50.781,0.000
1709374145.418,-46.875,-36.621,-35.156,-42.480,0.000
1709374145.422,-14.648,-35.156,-39.062,-27.832,0.000
1709374145.426,7.324,-34.668,-38.086,-11.719,0.000
1709374145.429,-27.832,-31.250,-30.762,-31.738,0.000
1709374145.433,-62.500,-30.762,-28.320,-56.641,0.000
1709374145.437,-61.035,-31.738,-32.715,-60.059,0.000
1709374145.441,-35.645,-37.598,-38.574,-38.086,0.000
1709374145.445,-9.277,-39.551,-42.480,-9.277,0.000
1709374145.449,-40.527,-39.551,-41.016,-29.785,0.000
1709374145.453,-62.500,-35.156,-39.062,-56.152,0.000
1709374145.457,-46.875,-28.320,-32.227,-49.805,0.000
1709374145.461,-25.879,-34.180,-35.156,-28.809,0.000
1709374145.464,0.488,-39.062,-34.668,-0.977,0.000
1709374145.468,-19.043,-36.621,-31.250,-15.137,0.000
1709374145.472,-50.293,-37.598,-31.250,-33.203,0.000
1709374145.476,-46.875,-38.086,-37.109,-34.180,0.000
1709374145.480,-24.902,-35.645,-34.668,-24.902,0.000
1709374145.484,6.348,-35.156,-36.133,0.000,0.000
1709374145.488,-9.766,-37.109,-36.133,-4.883,0.000
1709374145.492,-47.852,-38.086,-33.691,-31.250,0.000
1709374145.496,-52.246,-35.156,-33.203,-41.504,0.000
1709374145.500,-36.133,-36.133,-32.715,-30.762,0.000
1709374145.504,0.977,-36.133,-33.691,0.977,0.000
1709374145.507,-4.395,-32.227,-37.598,-6.836,0.000
1709374145.511,-45.410,-32.715,-38.574,-48.340,0.000
1709374145.515,-56.641,-33.691,-33.203,-57.129,0.000
1709374145.519,-35.645,-31.250,-33.691,-43.945,0.000
1709374145.523,4.883,-28.320,-33.203,-12.207,0.000
1709374145.527,0.000,-28.320,-28.320,-16.113,0.000
1709374145.531,-40.527,-32.227,-32.715,-49.316,0.000
1709374145.535,-54.199,-31.738,-33.203,-45.898,0.000
1709374145.538,-49.805,-29.297,-37.109,-45.410,0.000
1709374145.542,-8.301,-29.297,-36.133,-21.484,0.000
1709374145.546,2.930,-35.645,-35.156,-15.625,0.000
1709374145.550,-43.457,-36.133,-41.992,-54.199,0.000
1709374145.554,-65.918,-30.762,-39.062,-63.965,0.000
1709374145.558,-55.664,-32.715,-35.156,-54.199,0.000
1709374145.562,-17.090,-35.645,-36.133,-29.297,0.000
1709374145.566,0.000,-32.715,-33.203,-17.578,0.000
1709374145.569,-37.598,-31.250,-31.250,-47.363,0.000
1709374145.573,-58.105,-32.227,-31.738,-60.547,0.000
1709374145.577,-47.363,-30.273,-28.320,-50.781,0.000
1709374145.581,-22.949,-31.738,-35.156,-25.879,0.000
1709374145.585,-2.930,-34.180,-42.480,-13.672,0.000
1709374145.589,-31.250,-34.668,-38.574,-44.434,0.000
1709374145.593,-58.105,-40.039,-35.645,-53.223,0.000
1709374145.597,-52.734,-42.969,-37.109,-42.480,0.000
1709374145.601,-23.926,-36.133,-33.691,-24.414,0.000
1709374145.605,-2.441,-33.203,-35.156,-10.742,0.000
1709374145.609,-33.203,-37.109,-38.086,-39.551,0.000
1709374145.613,-63.477,-42.969,-36.621,-59.570,0.000
1709374145.617,-58.594,-43.457,-35.645,-56.641,0.000
1709374145.621,-29.785,-37.109,-36.133,-38.086,0.000
1709374145.625,-1.953,-37.109,-41.992,-17.090,0.000
1709374145.629,-22.461,-39.062,-42.480,-36.621,0.000
1709374145.632,-55.664,-38.086,-38.086,-54.199,0.000
1709374145.636,-62.012,-40.527,-42.480,-50.781,0.000
1709374145.640,-40.527,-42.969,-44.922,-37.109,0.000
1709374145.644,-5.859,-43.457,-42.969,-19.531,0.000
1709374145.648,-23.926,-39.062,-44.434,-37.598,0.000
1709374145.652,-62.988,-37.598,-42.969,-73.730,0.000
1709374145.656,-60.547,-40.527,-42.969,-74.707,0.000
1709374145.660,-32.715,-41.016,-41.992,-55.664,0.000
1709374145.664,-6.836,-39.062,-38.574,-22.949,0.000
1709374145.668,-20.508,-39.062,-37.109,-27.344,0.000
1709374145.672,-54.688,-43.457,-38.086,-59.082,0.000
1709374145.675,-57.129,-39.062,-37.109,-58.105,0.000
1709374145.679,-37.109,-35.156,-38.086,-41.992,0.000
1709374145.683,-5.371,-35.156,-37.109,-11.719,0.000
1709374145.687,-15.137,-28.809,-37.109,-14.648,0.000
1709374145.691,-47.363,-24.902,-35.156,-44.434,0.000
1709374145.695,-53.223,-28.320,-31.250,-49.316,0.000
1709374145.699,-44.922,-33.691,-29.785,-41.992,0.000
1709374145.703,-13.672,-32.715,-35.645,-19.531,0.000
1709374145.707,-5.859,-28.320,-37.109,-24.414,0.000
1709374145.711,-43.457,-28.809,-32.715,-52.734,0.000
1709374145.715,-61.035,-28.809,-34.180,-53.223,0.000
1709374145.718,-48.828,-30.273,-37.109,-44.922,0.000
1709374145.722,-10.254,-31.738,-38.574,-19.531,0.000
1709374145.726,4.883,-26.367,-37.109,-1.953,0.000
1709374145.730,-38.086,-25.879,-35.645,-25.879,0.000
1709374145.734,-71.777,-33.203,-46.387,-55.176,0.000
1709374145.738,-58.594,-37.109,-51.758,-57.617,0.000
1709374145.742,-20.996,-36.133,-45.410,-28.809,0.000
1709374145.746,-7.324,-35.156,-43.945,-11.719,0.000
1709374145.750,-42.969,-35.645,-41.504,-41.992,0.000
1709374145.754,-64.941,-36.133,-39.062,-54.688,0.000
1709374145.757,-51.758,-38.086,-38.086,-38.574,0.000
1709374145.761,-23.926,-40.527,-40.527,-14.648,0.000
1709374145.765,-1.953,-42.969,-35.156,1.465,0.000
1709374145.769,-26.855,-43.945,-30.273,-23.438,0.000
1709374145.773,-51.270,-33.691,-31.250,-38.086,0.000
1709374145.777,-50.293,-29.785,-36.133,-38.086,0.000
1709374145.781,-27.344,-35.645,-37.598,-27.832,0.000
1709374145.785,-2.441,-38.574,-37.598,-8.301,0.000
1709374145.789,-29.297,-38.574,-43.945,-32.227,0.000
1709374145.793,-61.523,-37.109,-42.480,-56.152,0.000
1709374145.796,-62.988,-36.133,-34.668,-54.199,0.000
1709374145.800,-31.250,-34.180,-31.738,-30.762,0.000
1709374145.804,2.930,-31.250,-37.109,-0.488,0.000
1709374145.808,-19.531,-32.227,-38.574,-17.090,0.000
1709374145.812,-64.453,-39.551,-34.180,-47.363,0.000
1709374145.816,-63.477,-37.109,-38.086,-39.062,0.000
1709374145.820,-37.109,-35.156,-37.598,-8.789,0.000
1709374145.824,-7.324,-38.574,-36.621,2.441,0.000
1709374145.828,-22.461,-39.062,-37.598,-20.508,0.000
1709374145.832,-60.547,-40.527,-36.621,-51.270,0.000
1709374145.836,-62.988,-38.086,-36.133,-55.176,0.000
1709374145.839,-37.598,-34.668,-38.086,-44.434,0.000
1709374145.843,-2.930,-32.227,-38.086,-17.578,0.000
1709374145.847,-10.254,-32.227,-37.598,-20.508,0.000
1709374145.851,-49.805,-37.598,-37.109,-55.176,0.000
1709374145.855,-57.617,-43.457,-42.969,-67.383,0.000
1709374145.859,-35.156,-41.992,-43.945,-48.828,0.000
1709374145.863,7.324,-41.504,-37.598,-6.348,0.000
1709374145.867,10.254,-38.086,-31.738,-1.953,0.000
1709374145.871,-42.480,-39.062,-36.133,-42.969,0.000
1709374145.874,-72.266,-43.457,-41.016,-58.594,0.000
1709374145.878,-49.805,-34.668,-36.621,-38.574,0.000
1709374145.882,-9.277,-31.738,-35.645,-10.254,0.000
1709374145.886,-3.418,-33.691,-34.668,-3.418,0.000
1709374145.890,-46.875,-30.273,-38.574,-36.133,0.000
1709374145.894,-67.383,-33.203,-37.598,-56.641,0.000
1709374145.898,-52.734,-37.109,-37.109,-50.781,0.000
1709374145.902,-20.020,-33.203,-42.969,-26.367,0.000
1709374145.905,-4.395,-34.668,-42.480,-14.648,0.000
1709374145.909,-45.898,-35.156,-38.086,-38.574,0.000
1709374145.913,-73.242,-38.086,-35.156,-54.688,0.000
1709374145.917,-55.176,-41.504,-35.645,-50.781,0.000
1709374145.921,-24.902,-40.039,-38.574,-29.297,0.000
1709374145.925,-10.742,-41.016,-41.016,-20.508,0.000
1709374145.929,-45.898,-39.551,-42.480,-44.922,0.000
1709374145.933,-70.312,-38.574,-41.016,-58.594,0.000
1709374145.936,-63.477,-40.527,-41.504,-60.547,0.000
1709374145.940,-43.457,-37.598,-41.016,-41.992,0.000
1709374145.944,-7.812,-33.691,-34.668,-17.090,0.000
1709374145.948,-30.273,-36.621,-33.691,-38.086,0.000
1709374145.952,-62.500,-38.086,-38.086,-60.059,0.000
1709374145.956,-56.641,-36.133,-39.551,-54.688,0.000
1709374145.960,-36.621,-38.086,-38.086,-34.180,0.000
1709374145.964,-10.742,-40.039,-39.062,-9.766,0.000
1709374145.968,-36.621,-38.574,-41.992,-23.438,0.000
1709374145.972,-76.660,-38.086,-38.574,-51.270,0.000
1709374145.976,-74.219,-37.598,-31.738,-51.758,0.000
1709374145.980,-39.062,-35.645,-33.691,-36.133,0.000
1709374145.983,-2.441,-35.645,-36.621,-8.789,0.000
1709374145.987,-23.438,-35.645,-35.645,-19.043,0.000
1709374145.991,-58.594,-36.621,-36.133,-50.781,0.000
1709374145.995,-58.105,-37.598,-36.621,-52.246,0.000
1709374145.999,-34.668,-35.645,-41.992,-36.621,0.000
1709374146.003,3.418,-29.785,-43.945,-11.230,0.000
1709374146.007,-9.766,-32.715,-41.016,-20.508,0.000
1709374146.011,-52.734,-33.691,-37.598,-50.781,0.000
1709374146.015,-53.711,-28.320,-33.691,-49.316,0.000
1709374146.019,-42.969,-29.785,-38.574,-47.363,0.000
1709374146.023,-15.625,-34.668,-47.363,-26.855,0.000
1709374146.027,-11.230,-33.203,-40.039,-20.996,0.000
1709374146.030,-56.152,-33.691,-34.180,-51.758,0.000
1709374146.034,-71.289,-33.691,-41.992,-62.012,0.000
1709374146.038,-49.805,-31.738,-37.598,-44.922,0.000
1709374146.042,-16.602,-35.645,-38.086,-13.672,0.000
1709374146.046,-5.859,-36.133,-39.551,-15.625,0.000
1709374146.050,-39.062,-33.691,-33.203,-50.781,0.000
1709374146.054,-56.641,-31.738,-30.273,-57.617,0.000
1709374146.058,-42.969,-34.668,-28.809,-41.504,0.000
1709374146.062,-15.137,-38.574,-34.668,-21.973,0.000
1709374146.066,-6.348,-38.086,-39.551,-23.438,0.000
1709374146.069,-39.551,-33.691,-37.598,-48.340,0.000
1709374146.073,-59.570,-34.180,-39.062,-58.594,0.000
1709374146.077,-53.223,-41.992,-46.875,-58.594,0.000
1709374146.081,-21.484,-43.945,-47.852,-33.691,0.000
1709374146.085,-4.395,-41.016,-43.945,-13.184,0.000
1709374146.089,-39.551,-39.551,-42.969,-39.062,0.000
1709374146.093,-69.824,-35.645,-40.527,-59.570,0.000
1709374146.097,-64.453,-34.668,-38.574,-60.547,0.000
1709374146.101,-28.809,-34.180,-41.504,-38.574,0.000
1709374146.105,-2.930,-37.598,-45.410,-10.742,0.000
1709374146.109,-41.016,-38.574,-44.434,-33.203,0.000
1709374146.112,-75.684,-36.621,-42.480,-63.477,0.000
1709374146.116,-68.359,-36.621,-38.574,-64.453,0.000
1709374146.120,-36.133,-32.715,-32.715,-32.715,0.000
1709374146.124,-9.277,-35.156,-32.227,-9.766,0.000
1709374146.128,-31.738,-31.250,-31.250,-29.785,0.000
1709374146.132,-53.223,-24.902,-27.344,-51.270,0.000
1709374146.136,-55.176,-28.809,-33.203,-53.711,0.000
1709374146.140,-40.527,-31.738,-39.062,-32.715,0.000
1709374146.144,-9.277,-31.738,-37.598,-3.418,0.000
1709374146.148,-23.926,-32.715,-38.086,-19.043,0.000
1709374146.152,-61.523,-35.645,-39.551,-52.246,0.000
1709374146.155,-63.477,-36.133,-37.109,-58.594,0.000
1709374146.159,-36.621,-31.250,-35.645,-39.551,0.000
1709374146.163,2.441,-22.949,-36.133,-10.254,0.000
1709374146.167,-11.230,-27.344,-34.180,-18.066,0.000
1709374146.171,-50.293,-37.598,-36.133,-47.363,0.000
1709374146.175,-56.152,-39.062,-36.621,-42.969,0.000
1709374146.179,-42.969,-37.109,-36.133,-26.855,0.000
1709374146.183,-9.277,-36.133,-35.645,4.883,0.000
1709374146.187,-12.695,-37.109,-33.691,0.488,0.000
1709374146.191,-47.363,-29.785,-30.273,-35.645,0.000
1709374146.194,-58.105,-28.809,-32.227,-42.969,0.000
1709374146.198,-45.898,-37.109,-40.039,-40.527,0.000
1709374146.202,-6.348,-34.180,-43.945,-11.719,0.000
1709374146.206,-2.930,-30.273,-43.945,-13.184,0.000
1709374146.210,-41.504,-30.273,-40.527,-51.270,0.000
1709374146.214,-61.035,-23.926,-35.645,-58.594,0.000
1709374146.218,-51.270,-25.879,-37.109,-49.805,0.000
1709374146.222,-14.648,-35.156,-37.109,-18.066,0.000
1709374146.226,-8.789,-32.227,-34.180,-9.766,0.000
1709374146.230,-56.152,-32.715,-38.086,-42.480,0.000
1709374146.233,-72.754,-34.668,-44.922,-51.758,0.000
1709374146.237,-50.293,-31.250,-40.527,-41.016,0.000
1709374146.241,-18.066,-32.227,-40.039,-17.578,0.000
1709374146.245,-5.859,-37.598,-41.016,-6.348,0.000
1709374146.249,-44.922,-36.621,-40.039,-41.992,0.000
1709374146.253,-65.918,-27.344,-44.922,-58.105,0.000
1709374146.257,-55.664,-29.785,-43.457,-54.688,0.000
1709374146.261,-21.973,-33.691,-37.598,-38.574,0.000
1709374146.265,1.465,-29.785,-36.621,-19.043,0.000
1709374146.268,-35.645,-30.273,-34.668,-41.016,0.000
1709374146.272,-64.941,-32.227,-35.156,-61.523,0.000
1709374146.276,-60.059,-39.062,-40.039,-61.523,0.000
1709374146.280,-27.344,-36.621,-36.133,-37.598,0.000
1709374146.284,-1.465,-34.180,-41.504,-11.230,0.000
1709374146.288,-35.156,-39.551,-45.410,-42.969,0.000
1709374146.292,-68.359,-40.039,-39.551,-65.918,0.000
1709374146.296,-66.895,-34.668,-36.133,-61.523,0.000
1709374146.300,-47.852,-34.668,-38.574,-48.828,0.000
1709374146.304,-17.578,-34.180,-41.016,-20.996,0.000
1709374146.307,-27.832,-31.738,-39.062,-31.738,0.000
1709374146.311,-61.523,-33.203,-35.645,-58.594,0.000
1709374146.315,-65.918,-34.180,-36.621,-66.406,0.000
1709374146.319,-39.551,-31.250,-35.156,-43.945,0.000
1709374146.323,-7.324,-31.738,-33.691,-17.578,0.000
1709374146.327,-19.043,-32.715,-32.715,-25.391,0.000
1709374146.331,-57.129,-32.227,-31.738,-47.363,0.000
1709374146.335,-66.406,-36.133,-40.039,-54.199,0.000
1709374146.339,-37.109,-34.668,-38.086,-27.832,0.000
1709374146.342,1.465,-31.250,-34.180,7.324,0.000
1709374146.346,-5.371,-31.250,-36.133,1.465,0.000
1709374146.350,-42.969,-31.738,-38.574,-36.133,0.000
1709374146.354,-50.781,-36.133,-40.039,-51.270,0.000
1709374146.358,-29.785,-37.598,-38.086,-41.992,0.000
1709374146.362,2.930,-34.668,-43.457,-15.625,0.000
1709374146.366,-2.930,-35.645,-49.805,-14.648,0.000
1709374146.370,-58.105,-37.109,-47.363,-50.293,0.000
1709374146.374,-75.684,-37.598,-44.922,-62.988,0.000
1709374146.378,-54.688,-38.086,-45.410,-52.734,0.000
1709374146.382,-16.602,-34.180,-39.551,-25.391,0.000
1709374146.386,-14.648,-36.133,-37.109,-22.461,0.000
1709374146.389,-54.688,-38.086,-37.598,-39.551,0.000
1709374146.393,-66.406,-29.297,-36.621,-52.734,0.000
1709374146.397,-53.223,-31.250,-37.598,-56.641,0.000
1709374146.402,-24.902,-32.715,-39.062,-30.762,0.000
1709374146.406,-11.230,-29.297,-36.133,-14.648,0.000
1709374146.409,-44.922,-30.273,-34.668,-46.387,0.000
1709374146.413,-64.941,-37.109,-39.551,-63.965,0.000
1709374146.417,-52.246,-40.039,-42.480,-50.293,0.000
1709374146.421,-25.391,-39.062,-48.828,-27.344,0.000
1709374146.425,-11.230,-35.645,-49.316,-15.625,0.000
1709374146.429,-43.945,-35.645,-40.527,-34.180,0.000
1709374146.433,-63.965,-35.156,-35.156,-43.457,0.000
1709374146.437,-58.594,-32.715,-37.598,-45.898,0.000
1709374146.441,-28.320,-32.715,-42.969,-35.156,0.000
1709374146.445,-3.906,-35.645,-42.480,-18.555,0.000
1709374146.449,-33.691,-37.598,-38.086,-38.086,0.000
1709374146.452,-64.453,-36.133,-36.133,-56.152,0.000
1709374146.456,-50.781,-34.180,-36.133,-50.781,0.000
1709374146.460,-16.113,-33.203,-33.691,-25.391,0.000
1709374146.464,2.441,-31.738,-36.621,1.953,0.000
1709374146.468,-28.320,-35.645,-37.109,-23.926,0.000
1709374146.472,-64.941,-38.574,-35.645,-58.105,0.000
1709374146.476,-60.059,-34.180,-37.109,-55.176,0.000
1709374146.480,-38.574,-36.621,-38.086,-36.621,0.000
1709374146.484,-7.812,-40.039,-37.109,-22.949,0.000
1709374146.488,-20.020,-39.551,-32.227,-38.086,0.000
1709374146.492,-50.781,-40.527,-31.738,-57.129,0.000
1709374146.495,-52.246,-38.086,-32.715,-52.734,0.000
1709374146.499,-41.504,-37.598,-31.738,-35.645,0.000
1709374146.503,-7.324,-44.434,-38.574,-12.207,0.000
1709374146.507,-10.254,-45.898,-40.039,-21.484,0.000
1709374146.511,-51.270,-41.504,-37.598,-51.270,0.000
1709374146.515,-56.152,-40.039,-36.621,-56.641,0.000
1709374146.519,-39.062,-42.969,-35.156,-41.016,0.000
1709374146.523,-4.395,-41.992,-38.086,-8.789,0.000
1709374146.527,-10.742,-34.668,-38.086,-9.277,0.000
1709374146.531,-59.570,-37.598,-38.086,-50.293,0.000
1709374146.534,-67.871,-43.457,-38.574,-59.082,0.000
1709374146.538,-40.039,-44.434,-35.645,-36.621,0.000
1709374146.542,-4.883,-46.875,-34.180,-10.254,0.000
1709374146.546,-19.043,-44.922,-32.227,-17.578,0.000
1709374146.550,-63.477,-41.504,-29.785,-47.363,0.000
1709374146.554,-70.801,-43.457,-31.250,-54.199,0.000
1709374146.558,-55.176,-45.898,-40.527,-48.828,0.000
1709374146.562,-18.066,-42.480,-38.574,-19.043,0.000
1709374146.566,-7.324,-40.039,-31.250,-4.395,0.000
1709374146.570,-43.457,-37.598,-33.691,-25.391,0.000
1709374146.573,-63.477,-39.551,-37.109,-48.340,0.000
1709374146.577,-57.617,-46.875,-39.551,-47.852,0.000
1709374146.581,-20.020,-45.898,-35.156,-20.020,0.000
1709374146.585,1.465,-39.551,-37.109,-7.324,0.000
1709374146.589,-43.457,-40.039,-42.969,-43.945,0.000
1709374146.593,-71.777,-44.434,-42.969,-65.430,0.000
1709374146.597,-55.664,-41.992,-39.551,-49.805,0.000
1709374146.601,-17.578,-38.574,-35.156,-26.855,0.000
1709374146.605,0.000,-37.109,-38.086,-9.766,0.000
1709374146.608,-41.504,-32.227,-42.969,-29.785,0.000
1709374146.612,-66.895,-36.133,-40.039,-46.387,0.000
1709374146.616,-56.641,-39.062,-38.086,-39.062,0.000
1709374146.620,-31.738,-34.180,-41.016,-25.879,0.000
1709374146.624,-0.977,-35.156,-42.969,-11.230,0.000
1709374146.628,-23.438,-36.621,-41.016,-30.273,0.000
1709374146.632,-59.570,-36.621,-41.016,-52.246,0.000
1709374146.636,-55.176,-39.062,-44.434,-46.875,0.000
1709374146.640,-26.367,-30.762,-44.434,-31.738,0.000
1709374146.643,1.465,-22.461,-36.621,-10.742,0.000
1709374146.647,-13.184,-27.832,-34.668,-24.414,0.000
1709374146.651,-44.434,-33.203,-40.039,-50.781,0.000
1709374146.655,-56.641,-31.738,-38.574,-46.875,0.000
1709374146.659,-35.645,-37.598,-37.109,-13.184,0.000
1709374146.663,0.488,-38.574,-40.039,4.395,0.000
1709374146.667,-17.578,-38.574,-44.922,-25.391,0.000
1709374146.671,-55.664,-40.039,-43.945,-55.176,0.000
1709374146.675,-61.035,-38.086,-42.480,-64.941,0.000
1709374146.679,-37.109,-33.203,-42.969,-49.316,0.000
1709374146.683,-3.418,-40.039,-50.781,-20.996,0.000
1709374146.687,-15.137,-42.480,-53.711,-25.879,0.000
1709374146.691,-54.199,-41.504,-48.340,-56.641,0.000
1709374146.694,-62.988,-44.922,-45.898,-67.383,0.000
1709374146.698,-41.992,-40.039,-48.828,-52.734,0.000
1709374146.702,5.859,-41.016,-45.898,-16.602,0.000
1709374146.706,11.230,-41.016,-37.598,-12.207,0.000
1709374146.710,-33.203,-38.574,-36.621,-50.781,0.000
1709374146.714,-44.922,-36.133,-36.621,-59.082,0.000
1709374146.718,-29.785,-36.621,-36.133,-41.504,0.000
1709374146.722,-4.395,-33.691,-39.062,-17.090,0.000
1709374146.726,-7.324,-36.133,-38.086,-12.695,0.000
