timestamps,TP9,AF7,AF8,TP10,Right AUX
1709374109.320,75.684,-27.832,-60.547,63.477,0.000
1709374109.324,30.762,-28.809,-56.152,21.484,0.000
1709374109.327,12.695,-24.902,-54.199,12.207,0.000
1709374109.331,31.250,-19.531,-54.199,31.738,0.000
1709374109.335,61.523,-23.926,-50.781,47.852,0.000
1709374109.339,62.500,-27.344,-46.387,49.805,0.000
1709374109.343,18.066,-28.809,-44.922,18.555,0.000
1709374109.347,-2.441,-28.320,-50.293,-1.465,0.000
1709374109.351,5.371,-28.320,-44.922,4.395,0.000
1709374109.355,27.832,-31.738,-43.457,32.227,0.000
1709374109.359,43.945,-29.785,-48.828,41.016,0.000
1709374109.363,12.207,-27.344,-50.293,4.395,0.000
1709374109.367,-23.438,-31.738,-49.316,-14.160,0.000
1709374109.371,-10.742,-30.273,-45.410,-7.324,0.000
1709374109.374,25.879,-25.879,-45.410,7.324,0.000
1709374109.378,37.109,-27.832,-45.898,16.602,0.000
1709374109.382,4.395,-30.273,-43.945,-6.348,0.000
1709374109.386,-24.414,-33.203,-45.898,-28.809,0.000
1709374109.390,-25.879,-34.668,-45.898,-24.414,0.000
1709374109.394,2.441,-31.738,-42.969,-4.395,0.000
1709374109.398,34.180,-28.809,-47.363,26.367,0.000
1709374109.402,1.465,-28.320,-47.852,3.418,0.000
1709374109.406,-34.668,-29.785,-42.969,-26.367,0.000
1709374109.410,-29.785,-34.180,-43.457,-24.414,0.000
1709374109.414,-14.160,-35.156,-43.945,-9.277,0.000
1709374109.417,15.137,-34.180,-41.504,16.602,0.000
1709374109.421,-5.371,-32.715,-41.504,-0.488,0.000
1709374109.425,-48.340,-35.645,-41.504,-27.832,0.000
1709374109.429,-45.410,-34.668,-40.527,-28.320,0.000
1709374109.433,-19.531,-32.227,-38.574,-18.555,0.000
1709374109.437,13.184,-34.668,-41.016,-0.977,0.000
1709374109.441,8.789,-33.203,-37.598,-5.371,0.000
1709374109.445,-33.203,-29.785,-31.250,-21.973,0.000
1709374109.449,-48.828,-29.297,-36.133,-34.668,0.000
1709374109.453,-22.461,-28.809,-36.133,-21.484,0.000
1709374109.456,22.461,-31.250,-34.668,9.766,0.000
1709374109.460,12.207,-31.738,-37.109,3.418,0.000
1709374109.464,-30.762,-34.180,-40.039,-25.879,0.000
1709374109.468,-45.898,-34.668,-44.922,-40.039,0.000
1709374109.472,-33.203,-28.809,-40.039,-27.344,0.000
1709374109.476,3.418,-30.762,-40.527,5.371,0.000
1709374109.480,5.371,-35.156,-41.992,0.977,0.000
1709374109.484,-31.738,-32.715,-36.133,-35.645,0.000
1709374109.488,-45.410,-32.227,-40.527,-35.156,0.000
1709374109.492,-34.180,-31.738,-45.410,-29.297,0.000
1709374109.496,-2.441,-33.691,-41.016,-16.602,0.000
1709374109.499,7.812,-34.668,-34.668,-1.465,0.000
1709374109.503,-32.715,-31.250,-32.227,-33.691,0.000
1709374109.507,-49.316,-34.668,-29.297,-52.734,0.000
1709374109.511,-40.039,-37.109,-27.832,-35.645,0.000
1709374109.515,-16.113,-36.133,-30.273,-4.883,0.000
1709374109.519,-5.859,-35.156,-33.691,1.465,0.000
1709374109.523,-39.551,-36.621,-33.691,-30.762,0.000
1709374109.527,-60.547,-36.621,-33.203,-49.805,0.000
1709374109.531,-43.457,-32.715,-35.156,-45.898,0.000
1709374109.534,-5.371,-29.785,-35.156,-24.414,0.000
1709374109.538,16.602,-27.832,-33.691,-13.672,0.000
1709374109.542,-12.695,-26.367,-33.203,-39.062,0.000
1709374109.546,-46.875,-28.320,-32.715,-61.035,0.000
1709374109.550,-41.504,-28.809,-39.551,-56.641,0.000
1709374109.554,-7.324,-28.320,-44.434,-33.203,0.000
1709374109.558,17.090,-28.809,-41.504,-8.301,0.000
1709374109.562,-15.625,-26.367,-37.109,-26.855,0.000
1709374109.566,-52.246,-25.879,-36.133,-50.781,0.000
1709374109.570,-51.270,-28.809,-35.156,-44.434,0.000
1709374109.573,-25.879,-33.691,-33.691,-26.367,0.000
1709374109.577,-2.930,-36.133,-36.621,3.418,0.000
1709374109.581,-30.273,-37.109,-35.156,-12.207,0.000
1709374109.585,-57.617,-34.668,-30.762,-43.945,0.000
1709374109.589,-53.711,-36.133,-39.062,-38.574,0.000
1709374109.593,-26.855,-36.133,-44.922,-21.973,0.000
1709374109.597,5.371,-30.762,-41.016,10.742,0.000
1709374109.601,-19.043,-27.832,-41.992,0.977,0.000
1709374109.604,-54.199,-27.832,-43.457,-36.133,0.000
1709374109.608,-47.852,-28.809,-43.457,-41.992,0.000
1709374109.612,-30.273,-28.320,-42.969,-26.367,0.000
1709374109.616,0.000,-26.367,-40.039,3.906,0.000
1709374109.620,-4.395,-25.879,-34.180,1.465,0.000
1709374109.624,-45.898,-27.832,-33.203,-20.508,0.000
1709374109.628,-64.453,-28.809,-42.480,-34.668,0.000
1709374109.632,-49.805,-33.691,-43.457,-36.133,0.000
1709374109.636,-8.789,-30.273,-38.574,-1.465,0.000
1709374109.640,-12.207,-30.273,-41.504,0.000,0.000
1709374109.644,-56.152,-33.203,-41.504,-40.039,0.000
1709374109.648,-65.918,-32.227,-36.621,-48.828,0.000
1709374109.652,-48.340,-36.621,-39.551,-41.016,0.000
1709374109.655,-20.020,-39.062,-39.551,-14.648,0.000
1709374109.659,-15.625,-38.086,-37.598,-11.230,0.000
1709374109.663,-59.082,-37.598,-38.086,-45.410,0.000
1709374109.667,-68.359,-32.715,-34.180,-52.734,0.000
1709374109.671,-51.758,-27.832,-34.668,-46.875,0.000
1709374109.675,-19.043,-30.273,-35.156,-31.250,0.000
1709374109.679,-4.883,-29.297,-36.133,-18.066,0.000
1709374109.683,-54.199,-29.785,-41.504,-37.109,0.000
1709374109.687,-77.637,-28.809,-42.480,-59.570,0.000
1709374109.691,-58.105,-28.320,-36.133,-54.688,0.000
1709374109.695,-24.902,-36.133,-34.668,-25.391,0.000
1709374109.699,-9.277,-34.180,-38.574,-8.789,0.000
1709374109.702,-44.434,-31.738,-44.922,-33.691,0.000
1709374109.706,-62.012,-32.715,-43.457,-53.223,0.000
1709374109.710,-55.664,-38.086,-40.039,-48.340,0.000
1709374109.714,-26.855,-41.504,-41.992,-22.949,0.000
1709374109.718,8.789,-39.551,-38.086,-4.395,0.000
1709374109.722,-23.438,-36.133,-37.109,-36.133,0.000
1709374109.726,-61.523,-36.621,-37.109,-54.688,0.000
1709374109.730,-57.129,-36.621,-40.039,-37.109,0.000
1709374109.734,-32.227,-34.180,-40.039,-27.344,0.000
1709374109.738,-4.395,-39.551,-34.668,-17.090,0.000
1709374109.742,-29.297,-38.574,-34.668,-34.668,0.000
1709374109.745,-64.941,-37.598,-35.645,-55.176,0.000
1709374109.749,-60.547,-40.527,-32.715,-47.363,0.000
1709374109.753,-33.691,-41.992,-34.668,-27.344,0.000
1709374109.757,0.977,-41.504,-32.715,0.000,0.000
1709374109.761,-16.602,-41.504,-34.180,-20.020,0.000
1709374109.765,-53.711,-40.527,-38.574,-54.688,0.000
1709374109.769,-52.246,-36.133,-37.598,-56.641,0.000
1709374109.773,-18.555,-32.227,-34.668,-28.320,0.000
1709374109.777,13.672,-29.297,-30.762,0.000,0.000
1709374109.781,-9.766,-34.180,-34.668,-24.902,0.000
1709374109.785,-46.387,-37.109,-35.645,-52.246,0.000
1709374109.788,-53.711,-31.250,-31.250,-50.293,0.000
1709374109.792,-40.039,-33.691,-34.668,-42.969,0.000
1709374109.796,-3.906,-38.086,-39.551,-16.113,0.000
1709374109.800,-7.324,-35.156,-37.109,-13.672,0.000
1709374109.804,-54.199,-31.250,-35.645,-42.480,0.000
1709374109.808,-62.012,-29.785,-36.621,-46.387,0.000
1709374109.812,-42.480,-32.715,-35.645,-34.668,0.000
1709374109.816,-6.836,-34.668,-32.227,-4.395,0.000
1709374109.820,-3.906,-42.969,-36.133,1.465,0.000
1709374109.824,-44.922,-41.016,-38.086,-37.109,0.000
1709374109.828,-57.617,-29.297,-33.203,-45.898,0.000
1709374109.831,-47.363,-30.762,-33.691,-42.480,0.000
1709374109.835,-11.230,-31.738,-35.156,-16.113,0.000
1709374109.839,-7.812,-31.738,-31.250,-3.418,0.000
1709374109.843,-56.152,-29.297,-29.297,-39.551,0.000
1709374109.847,-72.266,-31.250,-33.203,-58.594,0.000
1709374109.851,-56.152,-33.691,-34.668,-53.223,0.000
1709374109.855,-22.949,-31.738,-35.645,-24.414,0.000
1709374109.859,-14.160,-33.691,-38.574,-15.625,0.000
1709374109.863,-53.223,-32.715,-32.715,-33.691,0.000
1709374109.867,-76.172,-34.180,-31.250,-47.852,0.000
1709374109.870,-65.430,-40.039,-37.109,-55.176,0.000
1709374109.874,-24.414,-43.457,-34.180,-27.832,0.000
1709374109.878,-2.441,-41.016,-32.715,-7.324,0.000
1709374109.882,-52.246,-44.434,-33.691,-43.945,0.000
1709374109.886,-81.055,-51.270,-30.762,-68.848,0.000
1709374109.890,-60.059,-41.992,-25.391,-59.570,0.000
1709374109.894,-33.203,-38.574,-25.391,-41.016,0.000
1709374109.898,-5.859,-40.039,-25.391,-13.672,0.000
1709374109.902,-36.133,-37.598,-29.297,-32.715,0.000
1709374109.906,-71.777,-38.086,-27.832,-61.523,0.000
1709374109.909,-59.082,-34.180,-21.973,-46.875,0.000
1709374109.913,-32.227,-31.738,-26.367,-29.297,0.000
1709374109.917,2.441,-34.180,-26.367,-9.277,0.000
1709374109.921,-16.113,-38.086,-27.832,-21.973,0.000
1709374109.925,-55.176,-37.109,-29.785,-49.805,0.000
1709374109.929,-51.758,-34.180,-31.738,-55.176,0.000
1709374109.933,-28.320,-34.668,-31.250,-40.527,0.000
1709374109.937,0.977,-35.156,-30.762,-8.301,0.000
1709374109.941,-20.508,-34.668,-35.156,-12.695,0.000
1709374109.944,-60.059,-34.180,-41.016,-42.480,0.000
1709374109.948,-60.059,-32.715,-37.109,-48.828,0.000
1709374109.952,-31.250,-31.738,-33.691,-28.320,0.000
1709374109.956,0.000,-29.297,-36.133,-0.977,0.000
1709374109.960,-11.230,-28.320,-36.621,-21.484,0.000
1709374109.964,-52.246,-30.762,-31.250,-57.617,0.000
1709374109.968,-62.500,-28.809,-32.227,-49.805,0.000
1709374109.972,-48.828,-29.785,-32.715,-31.250,0.000
1709374109.976,-13.184,-30.762,-29.297,-8.789,0.000
1709374109.979,-8.301,-25.879,-31.738,-10.254,0.000
1709374109.983,-48.828,-26.855,-31.250,-41.992,0.000
1709374109.987,-66.895,-36.133,-34.180,-57.129,0.000
1709374109.991,-59.570,-41.504,-40.039,-50.781,0.000
1709374109.995,-23.926,-41.016,-41.016,-18.555,0.000
1709374109.999,-14.648,-42.969,-39.062,-8.789,0.000
1709374110.003,-55.176,-44.922,-39.062,-50.781,0.000
1709374110.007,-67.871,-38.086,-35.645,-65.430,0.000
1709374110.011,-52.246,-34.180,-33.691,-52.246,0.000
1709374110.015,-15.625,-39.062,-39.062,-28.320,0.000
1709374110.019,-0.977,-38.574,-41.504,-20.020,0.000
1709374110.023,-45.410,-32.227,-36.133,-43.457,0.000
1709374110.027,-68.359,-33.203,-32.715,-56.152,0.000
1709374110.030,-62.988,-33.691,-39.062,-56.641,0.000
1709374110.034,-32.227,-33.691,-38.574,-32.715,0.000
1709374110.038,-10.254,-38.086,-36.621,-14.648,0.000
1709374110.042,-43.945,-36.133,-39.551,-39.062,0.000
1709374110.046,-57.617,-33.691,-38.086,-55.664,0.000
1709374110.050,-46.387,-37.109,-37.109,-46.875,0.000
1709374110.054,-25.879,-36.133,-34.668,-20.020,0.000
1709374110.058,-0.977,-38.574,-36.621,3.906,0.000
1709374110.062,-37.109,-43.945,-42.480,-26.367,0.000
1709374110.066,-66.895,-47.363,-43.457,-61.035,0.000
1709374110.070,-53.223,-42.969,-41.016,-55.664,0.000
1709374110.074,-29.785,-39.062,-39.062,-36.133,0.000
1709374110.077,-6.348,-37.598,-43.945,-16.602,0.000
1709374110.081,-29.785,-34.668,-42.480,-26.855,0.000
1709374110.085,-65.918,-36.133,-37.598,-50.293,0.000
1709374110.089,-70.801,-41.016,-38.574,-58.105,0.000
1709374110.093,-41.016,-37.598,-39.551,-32.715,0.000
1709374110.097,-10.742,-35.156,-40.527,-6.348,0.000
1709374110.101,-32.227,-36.133,-38.574,-20.508,0.000
1709374110.105,-58.594,-31.738,-32.227,-36.133,0.000
1709374110.109,-62.988,-40.527,-35.156,-55.176,0.000
1709374110.113,-44.922,-49.316,-43.945,-52.734,0.000
1709374110.117,-1.953,-41.992,-41.504,-15.625,0.000
1709374110.120,-14.160,-33.203,-37.598,-20.508,0.000
1709374110.124,-59.082,-32.227,-39.551,-54.199,0.000
1709374110.128,-54.688,-35.645,-35.645,-58.105,0.000
1709374110.132,-30.273,-33.691,-33.691,-38.574,0.000
1709374110.136,-4.883,-33.203,-36.621,-9.766,0.000
1709374110.140,-18.066,-36.133,-37.598,-18.555,0.000
1709374110.144,-54.688,-36.621,-35.156,-53.711,0.000
1709374110.148,-51.758,-36.133,-37.598,-49.316,0.000
1709374110.152,-39.062,-35.645,-37.109,-32.227,0.000
1709374110.156,-21.973,-39.062,-32.227,-24.414,0.000
1709374110.160,-20.508,-40.527,-38.086,-34.180,0.000
1709374110.164,0.000,-41.016,-40.039,-59.570,0.000
1709374110.167,0.000,-45.898,-40.039,-71.777,0.000
1709374110.171,0.000,-48.340,-43.457,-64.453,0.000
1709374110.175,0.000,-45.898,-40.039,-35.156,0.000
1709374110.179,0.000,-41.992,-38.574,-24.414,0.000
1709374110.183,0.000,-43.945,-37.598,-55.176,0.000
1709374110.187,0.000,-45.898,-41.992,-68.848,0.000
1709374110.191,0.000,-39.062,-38.574,-52.734,0.000
1709374110.195,0.000,-33.203,-36.621,-20.508,0.000
1709374110.199,0.000,-40.527,-43.457,-23.438,0.000
1709374110.203,0.000,-39.062,-39.551,-55.176,0.000
1709374110.206,0.000,-35.156,-37.109,-62.988,0.000
1709374110.210,-64.453,-40.527,-42.480,-63.477,0.000
1709374110.214,-32.715,-37.109,-41.504,-39.062,0.000
1709374110.218,-8.301,-33.691,-36.621,-18.555,0.000
1709374110.222,-46.875,-38.086,-38.574,-47.852,0.000
1709374110.226,-72.266,-36.621,-41.504,-65.918,0.000
1709374110.230,-58.105,-32.227,-37.598,-57.129,0.000
1709374110.234,-29.785,-29.785,-37.598,-38.086,0.000
1709374110.238,-2.441,-28.320,-37.598,-8.301,0.000
1709374110.242,-30.273,-34.668,-37.598,-28.320,0.000
1709374110.246,-65.430,-34.668,-41.992,-64.453,0.000
1709374110.249,-64.941,-33.203,-43.457,-60.059,0.000
1709374110.253,-34.668,-37.598,-41.016,-31.738,0.000
1709374110.258,0.000,-28.809,-34.180,-3.906,0.000
1709374110.262,0.000,-24.902,-32.227,-27.344,0.000
1709374110.266,0.000,-30.273,-34.180,-53.223,0.000
1709374110.270,0.000,-32.715,-34.668,-52.246,0.000
1709374110.274,0.000,-37.109,-34.180,-38.574,0.000
1709374110.277,0.000,-37.598,-33.691,-10.742,0.000
1709374110.281,0.000,-34.668,-35.645,-10.254,0.000
1709374110.285,0.000,-33.203,-40.527,-34.668,0.000
1709374110.289,0.000,-33.203,-42.480,-54.688,0.000
1709374110.293,0.000,-35.645,-41.016,-41.992,0.000
1709374110.297,0.000,-30.762,-34.668,-7.812,0.000
1709374110.301,0.000,-30.273,-33.203,-17.578,0.000
1709374110.305,-59.570,-34.668,-32.227,-48.340,0.000
1709374110.309,-60.547,-30.762,-31.250,-46.387,0.000
1709374110.312,-46.875,-32.227,-39.062,-37.109,0.000
1709374110.316,-18.555,-38.086,-42.480,-22.949,0.000
1709374110.320,-22.461,-35.645,-38.086,-24.414,0.000
1709374110.324,-68.359,-39.551,-35.645,-48.828,0.000
1709374110.328,-77.148,-46.387,-37.598,-51.758,0.000
1709374110.332,-52.734,-41.504,-35.156,-38.086,0.000
1709374110.336,-20.020,-42.480,-38.086,-19.043,0.000
1709374110.340,-12.207,-44.434,-41.016,-18.555,0.000
1709374110.344,-44.922,-39.062,-36.621,-45.410,0.000
1709374110.348,-64.453,-39.062,-38.574,-52.734,0.000
1709374110.351,-47.852,-42.969,-42.969,-44.434,0.000
1709374110.355,-8.301,-37.598,-40.039,-22.949,0.000
1709374110.359,-0.977,-32.715,-38.574,-13.184,0.000
1709374110.363,-41.992,-33.203,-41.016,-41.016,0.000
1709374110.367,-61.523,-31.738,-41.016,-53.711,0.000
1709374110.371,-48.340,-36.621,-42.480,-39.062,0.000
1709374110.375,-13.672,-39.062,-43.945,-15.625,0.000
1709374110.379,0.488,-35.156,-43.457,-15.137,0.000
1709374110.383,-44.434,-35.645,-43.457,-38.086,0.000
1709374110.386,-77.148,-32.227,-44.434,-50.781,0.000
1709374110.390,-70.801,-31.738,-43.945,-51.758,0.000
1709374110.394,-38.086,-36.621,-44.434,-41.992,0.000
1709374110.398,-9.277,-34.668,-45.410,-23.438,0.000
1709374110.402,-46.875,-32.715,-39.551,-40.039,0.000
1709374110.406,-80.566,-32.715,-36.133,-63.477,0.000
1709374110.410,-67.871,-34.668,-43.457,-59.570,0.000
1709374110.414,-40.039,-39.062,-41.504,-38.574,0.000
1709374110.417,-11.719,-40.527,-38.574,-17.090,0.000
1709374110.421,-35.645,-36.133,-38.086,-33.691,0.000
1709374110.425,-70.312,-33.203,-36.133,-58.594,0.000
1709374110.429,-67.871,-31.250,-37.109,-58.594,0.000
1709374110.433,-37.109,-30.762,-32.715,-27.832,0.000
1709374110.437,-7.812,-33.691,-31.738,-12.695,0.000
1709374110.441,-27.832,-37.109,-36.133,-33.203,0.000
1709374110.445,-67.871,-41.992,-40.527,-57.617,0.000
1709374110.449,-67.383,-44.434,-35.645,-62.500,0.000
1709374110.453,-34.180,-39.551,-32.715,-41.992,0.000
1709374110.457,0.977,-36.133,-35.156,-7.812,0.000
1709374110.461,-12.207,-34.668,-37.109,-9.766,0.000
1709374110.464,-49.805,-35.156,-37.109,-42.969,0.000
1709374110.468,-48.828,-32.715,-32.227,-48.828,0.000
1709374110.472,-28.809,-30.762,-32.227,-29.785,0.000
1709374110.476,9.766,-29.785,-31.250,1.953,0.000
1709374110.480,4.883,-30.273,-30.762,-1.465,0.000
1709374110.484,-50.781,-35.645,-41.016,-42.480,0.000
1709374110.488,-62.500,-34.668,-43.945,-49.805,0.000
1709374110.492,-41.992,-38.574,-43.945,-37.598,0.000
1709374110.496,-4.883,-38.574,-44.434,-11.719,0.000
1709374110.500,-0.488,-32.227,-41.016,-14.160,0.000
1709374110.504,-40.039,-31.250,-39.062,-46.387,0.000
1709374110.507,-53.711,-35.645,-41.992,-52.734,0.000
1709374110.511,-39.062,-36.133,-34.668,-41.992,0.000
1709374110.515,2.930,-33.691,-33.203,-16.113,0.000
1709374110.519,14.160,-39.551,-41.992,-16.113,0.000
1709374110.523,-25.391,-37.109,-38.574,-36.621,0.000
1709374110.527,-41.504,-37.109,-41.504,-46.875,0.000
1709374110.531,-38.086,-45.898,-40.527,-43.945,0.000
1709374110.535,-10.254,-43.457,-37.109,-14.160,0.000
1709374110.539,0.977,-33.691,-35.645,1.465,0.000
1709374110.543,-41.992,-31.738,-33.203,-35.645,0.000
1709374110.547,-62.500,-31.738,-36.133,-61.035,0.000
1709374110.550,-56.152,-29.785,-41.016,-57.617,0.000
1709374110.554,-28.320,-28.809,-38.574,-29.785,0.000
1709374110.558,-1.465,-27.344,-28.320,0.488,0.000
1709374110.562,-35.156,-31.738,-26.855,-28.320,0.000
1709374110.566,-66.406,-41.992,-37.598,-61.035,0.000
1709374110.570,-62.500,-39.551,-37.109,-43.457,0.000
1709374110.574,-41.504,-37.109,-32.227,-19.531,0.000
1709374110.578,-16.113,-36.621,-32.227,-5.371,0.000
1709374110.582,-40.039,-32.715,-35.156,-33.691,0.000
1709374110.586,-72.754,-33.203,-41.992,-64.941,0.000
1709374110.589,-65.430,-37.109,-40.527,-60.547,0.000
1709374110.593,-33.691,-36.621,-36.133,-34.668,0.000
1709374110.597,-0.488,-35.156,-41.016,-15.625,0.000
1709374110.601,-21.484,-33.691,-43.945,-31.738,0.000
1709374110.605,-61.035,-36.133,-38.086,-58.105,0.000
1709374110.609,-56.152,-37.109,-36.621,-57.617,0.000
1709374110.613,-31.738,-37.109,-46.387,-36.133,0.000
1709374110.617,-8.789,-39.551,-44.922,-12.207,0.000
1709374110.621,-22.949,-39.551,-35.645,-30.762,0.000
1709374110.625,-57.617,-38.574,-34.180,-61.035,0.000
1709374110.629,-64.941,-34.668,-35.156,-60.059,0.000
1709374110.633,-45.898,-34.180,-40.527,-40.039,0.000
1709374110.637,-6.836,-32.715,-46.387,-14.160,0.000
1709374110.640,-6.836,-30.273,-42.480,-17.090,0.000
1709374110.644,-47.363,-28.320,-37.109,-42.969,0.000
1709374110.648,-58.594,-33.203,-40.527,-56.152,0.000
1709374110.652,-35.645,-30.762,-40.527,-38.574,0.000
1709374110.656,0.977,-26.367,-40.039,-9.766,0.000
1709374110.660,-2.930,-25.879,-36.133,-0.977,0.000
1709374110.664,-50.293,-28.809,-32.715,-36.133,0.000
1709374110.668,-62.988,-29.297,-36.621,-56.152,0.000
1709374110.672,-46.875,-28.320,-34.668,-43.457,0.000
1709374110.676,-9.766,-29.297,-34.180,-13.672,0.000
1709374110.679,-2.930,-30.273,-40.527,-17.578,0.000
1709374110.683,-49.805,-31.738,-40.527,-52.246,0.000
1709374110.687,-68.359,-30.762,-37.598,-59.570,0.000
1709374110.691,-51.270,-31.250,-37.109,-54.199,0.000
1709374110.695,-12.207,-36.621,-36.133,-24.902,0.000
1709374110.699,5.859,-35.645,-35.156,-11.230,0.000
1709374110.703,-29.785,-37.598,-35.156,-41.504,0.000
1709374110.707,-43.457,-37.598,-28.809,-46.387,0.000
1709374110.711,-31.250,-34.668,-30.273,-35.645,0.000
1709374110.715,-7.812,-37.598,-31.738,-17.578,0.000
1709374110.718,6.836,-40.039,-30.762,-4.395,0.000
1709374110.722,-24.902,-40.527,-30.762,-33.691,0.000
1709374110.726,-53.223,-39.062,-26.367,-49.805,0.000
1709374110.730,-50.781,-38.086,-31.738,-49.316,0.000
1709374110.734,-24.414,-35.156,-40.527,-36.133,0.000
1709374110.738,3.418,-32.227,-39.551,-12.695,0.000
1709374110.742,-26.367,-35.645,-39.062,-36.133,0.000
1709374110.746,-57.129,-38.574,-42.969,-61.035,0.000
1709374110.750,-48.828,-35.645,-39.062,-48.340,0.000
1709374110.753,-23.438,-37.109,-40.527,-33.691,0.000
1709374110.757,7.324,-39.062,-41.016,-13.184,0.000
1709374110.761,-13.672,-33.203,-38.086,-34.180,0.000
1709374110.765,-50.293,-31.738,-38.574,-66.406,0.000
1709374110.769,-53.711,-38.086,-43.945,-66.406,0.000
1709374110.773,-39.062,-38.086,-41.504,-47.363,0.000
1709374110.777,-9.766,-35.156,-37.598,-19.531,0.000
1709374110.781,-24.414,-34.668,-43.457,-32.227,0.000
1709374110.784,-63.965,-36.133,-40.039,-59.082,0.000
1709374110.788,-69.336,-38.086,-35.645,-60.059,0.000
1709374110.792,-43.457,-43.945,-38.086,-41.992,0.000
1709374110.796,-9.277,-43.945,-37.109,-17.090,0.000
1709374110.800,-27.344,-41.504,-33.203,-26.855,0.000
1709374110.804,-65.918,-45.898,-31.738,-60.059,0.000
1709374110.808,-65.918,-42.480,-29.785,-58.105,0.000
1709374110.812,-42.480,-37.598,-35.645,-34.180,0.000
1709374110.816,-11.719,-40.527,-42.480,-12.207,0.000
1709374110.820,-15.137,-37.598,-39.551,-12.207,0.000
1709374110.824,-55.664,-36.133,-41.504,-43.945,0.000
1709374110.828,-65.430,-32.227,-40.039,-52.246,0.000
1709374110.831,-47.363,-33.203,-41.016,-44.922,0.000
1709374110.835,-14.160,-41.016,-44.434,-22.461,0.000
1709374110.839,-2.930,-35.645,-39.551,-15.137,0.000
1709374110.843,-37.109,-31.250,-41.504,-44.922,0.000
1709374110.847,-54.199,-29.785,-41.504,-53.711,0.000
1709374110.851,-44.434,-33.691,-38.086,-34.668,0.000
1709374110.855,-3.418,-34.180,-37.109,-2.441,0.000
1709374110.859,8.789,-30.762,-41.016,-3.906,0.000
1709374110.863,-37.109,-34.180,-42.480,-40.039,0.000
1709374110.867,-52.246,-35.645,-33.691,-49.805,0.000
1709374110.871,-42.480,-36.621,-34.668,-44.434,0.000
1709374110.874,-20.508,-40.039,-37.598,-22.949,0.000
1709374110.878,-13.184,-39.551,-35.645,-11.719,0.000
1709374110.882,-52.734,-41.016,-37.109,-41.016,0.000
1709374110.886,-82.031,-40.527,-37.598,-60.059,0.000
1709374110.890,-77.148,-41.992,-36.621,-54.199,0.000
1709374110.894,-41.504,-41.504,-34.180,-25.391,0.000
1709374110.898,-14.648,-39.551,-28.809,3.906,0.000
1709374110.902,-46.387,-35.156,-29.785,-20.996,0.000
1709374110.906,-69.824,-34.668,-34.180,-53.223,0.000
1709374110.910,-57.129,-38.574,-33.691,-51.270,0.000
1709374110.914,-27.832,-38.574,-36.621,-27.344,0.000
1709374110.917,-3.906,-38.574,-40.527,-8.301,0.000
1709374110.921,-28.320,-37.109,-37.109,-28.809,0.000
1709374110.925,-58.105,-34.180,-32.227,-52.246,0.000
1709374110.929,-52.734,-34.668,-26.367,-46.387,0.000
1709374110.933,-26.855,-38.574,-24.414,-27.344,0.000
1709374110.937,-0.488,-38.086,-28.809,-8.789,0.000
1709374110.941,-21.484,-40.527,-27.344,-25.879,0.000
1709374110.945,-52.734,-38.086,-26.367,-39.551,0.000
1709374110.949,-48.828,-32.715,-34.180,-42.969,0.000
1709374110.953,-27.832,-36.133,-41.016,-35.156,0.000
1709374110.956,8.301,-33.203,-40.527,-4.883,0.000
1709374110.960,-1.465,-31.250,-35.156,-17.578,0.000
1709374110.964,-50.781,-37.109,-37.109,-50.781,0.000
1709374110.968,-60.059,-40.527,-40.039,-62.988,0.000
1709374110.972,-32.227,-43.457,-39.551,-50.781,0.000
1709374110.976,-1.953,-42.480,-40.527,-21.973,0.000
1709374110.980,-19.043,-42.480,-41.016,-27.832,0.000
1709374110.984,-60.547,-43.457,-36.133,-52.734,0.000
1709374110.988,-65.918,-37.598,-31.738,-51.758,0.000
1709374110.992,-45.898,-34.180,-33.691,-40.039,0.000
1709374110.996,-6.836,-32.715,-32.227,-17.578,0.000
1709374110.999,-8.301,-37.598,-38.574,-21.973,0.000
1709374111.003,-57.129,-40.527,-41.504,-49.805,0.000
1709374111.007,-74.707,-39.062,-39.062,-59.570,0.000
1709374111.011,-55.176,-40.527,-38.086,-49.805,0.000
1709374111.015,-12.695,-37.109,-36.133,-17.578,0.000
1709374111.019,0.000,-27.832,-32.227,-3.418,0.000
1709374111.023,-43.457,-26.855,-34.668,-35.156,0.000
1709374111.027,-66.406,-35.645,-40.039,-57.617,0.000
1709374111.031,-56.641,-39.062,-42.480,-55.176,0.000
1709374111.035,-24.414,-32.715,-39.551,-22.461,0.000
1709374111.038,-10.742,-32.715,-39.062,-20.020,0.000
1709374111.042,-44.922,-34.180,-35.156,-50.781,0.000
1709374111.046,-63.965,-33.203,-36.621,-59.082,0.000
1709374111.050,-54.688,-35.645,-40.039,-51.270,0.000
1709374111.054,-21.484,-34.180,-35.645,-27.832,0.000
1709374111.058,-9.277,-37.598,-38.086,-16.113,0.000
1709374111.062,-45.410,-39.551,-34.668,-43.457,0.000
1709374111.066,-70.312,-30.762,-33.691,-61.035,0.000
1709374111.070,-64.941,-31.738,-39.062,-53.223,0.000
1709374111.073,-30.762,-38.086,-37.598,-34.668,0.000
1709374111.077,-2.441,-35.645,-35.645,-6.836,0.000
1709374111.081,-40.527,-37.598,-40.039,-24.902,0.000
1709374111.085,-75.195,-39.551,-41.992,-60.059,0.000
1709374111.089,-66.895,-37.598,-34.180,-56.641,0.000
1709374111.093,-41.016,-42.969,-36.621,-33.691,0.000
1709374111.097,-8.301,-45.898,-43.945,-13.184,0.000
1709374111.101,-19.531,-42.480,-39.551,-30.273,0.000
1709374111.105,-49.805,-41.504,-39.062,-46.875,0.000
1709374111.108,-49.316,-39.551,-37.598,-34.180,0.000
1709374111.112,-32.227,-41.504,-38.086,-13.672,0.000
1709374111.116,7.812,-39.062,-37.109,5.859,0.000
1709374111.120,-9.277,-34.180,-33.691,-8.789,0.000
1709374111.124,-58.594,-40.527,-34.668,-30.273,0.000
1709374111.128,-65.430,-43.457,-37.598,-39.551,0.000
1709374111.132,-43.457,-44.434,-36.133,-30.762,0.000
1709374111.136,-3.906,-41.504,-32.715,-2.930,0.000
1709374111.140,-15.137,-35.156,-26.367,-7.324,0.000
1709374111.144,-47.852,-37.109,-28.809,-37.598,0.000
1709374111.147,-51.270,-40.039,-40.039,-49.316,0.000
1709374111.151,-40.527,-37.598,-37.598,-42.969,0.000
1709374111.155,4.395,-31.250,-34.180,-8.789,0.000
1709374111.159,6.348,-28.320,-40.039,-6.836,0.000
1709374111.163,-39.551,-31.738,-39.551,-42.480,0.000
1709374111.167,-50.781,-34.180,-36.133,-39.062,0.000
1709374111.171,-40.527,-31.738,-35.156,-32.715,0.000
1709374111.175,-7.324,-31.250,-35.156,-18.555,0.000
1709374111.179,-4.395,-32.715,-39.062,-17.578,0.000
1709374111.182,-47.363,-33.691,-37.109,-46.875,0.000
1709374111.186,-62.012,-35.156,-31.738,-56.641,0.000
1709374111.190,-56.641,-40.039,-40.039,-48.828,0.000
1709374111.194,-30.273,-43.457,-45.898,-20.996,0.000
1709374111.198,-9.766,-38.574,-43.945,-10.254,0.000
1709374111.202,-42.969,-32.227,-38.574,-36.621,0.000
1709374111.206,-63.965,-30.273,-33.691,-48.828,0.000
1709374111.210,-43.945,-28.809,-41.016,-39.062,0.000
1709374111.214,-15.137,-33.203,-47.852,-22.949,0.000
1709374111.218,-7.812,-36.133,-41.504,-17.578,0.000
1709374111.222,-46.387,-33.203,-41.016,-47.363,0.000
1709374111.226,-62.012,-34.668,-37.598,-59.570,0.000
1709374111.229,-57.617,-34.180,-36.621,-49.805,0.000
1709374111.233,-38.086,-37.598,-41.992,-39.062,0.000
1709374111.237,-13.672,-39.551,-38.086,-26.367,0.000
1709374111.241,-41.992,-35.645,-41.992,-49.316,0.000
1709374111.245,-71.777,-35.645,-48.340,-65.918,0.000
1709374111.249,-65.918,-40.039,-47.363,-57.129,0.000
1709374111.253,-30.273,-44.434,-45.410,-32.715,0.000
1709374111.257,3.418,-42.480,-41.016,-8.789,0.000
1709374111.261,-24.902,-41.992,-39.062,-27.832,0.000
1709374111.265,-54.199,-42.480,-35.645,-48.828,0.000
1709374111.269,-45.410,-42.969,-37.598,-52.734,0.000
1709374111.272,-13.184,-35.645,-35.645,-25.879,0.000
1709374111.276,10.742,-30.762,-34.180,3.906,0.000
1709374111.280,-16.113,-30.762,-36.133,-20.996,0.000
1709374111.284,-49.316,-32.715,-35.156,-46.387,0.000
1709374111.288,-55.664,-35.156,-33.203,-46.875,0.000
1709374111.292,-35.156,-32.227,-35.645,-30.762,0.000
1709374111.296,4.883,-35.156,-37.109,3.418,0.000
1709374111.300,-10.742,-38.574,-36.133,-15.625,0.000
1709374111.304,-49.316,-35.645,-35.645,-53.711,0.000
1709374111.308,-55.664,-35.156,-40.527,-55.664,0.000
1709374111.312,-34.668,-33.691,-39.062,-43.945,0.000
1709374111.315,3.418,-33.203,-37.598,-13.184,0.000
1709374111.319,-15.625,-38.574,-38.574,-12.207,0.000
1709374111.323,-61.035,-40.039,-36.621,-49.805,0.000
1709374111.327,-54.199,-35.156,-33.203,-52.246,0.000
1709374111.331,-36.133,-36.621,-30.762,-32.227,0.000
1709374111.335,-11.230,-41.016,-40.039,-9.766,0.000
1709374111.339,-4.883,-44.922,-44.434,-8.789,0.000
1709374111.343,-41.992,-42.969,-40.527,-41.992,0.000
1709374111.347,-58.594,-38.574,-38.086,-50.293,0.000
1709374111.351,-42.969,-35.645,-37.598,-36.133,0.000
1709374111.355,-5.859,-37.109,-38.574,-13.184,0.000
1709374111.358,-2.441,-38.086,-38.574,-16.602,0.000
1709374111.362,-45.898,-34.180,-34.180,-35.645,0.000
1709374111.366,-63.965,-34.668,-28.809,-32.715,0.000
1709374111.370,-57.129,-41.016,-32.227,-36.133,0.000
1709374111.374,-16.602,-40.039,-38.086,-14.160,0.000
1709374111.378,3.906,-37.109,-35.645,1.465,0.000
1709374111.382,-47.852,-38.574,-36.133,-33.203,0.000
1709374111.386,-75.195,-42.480,-39.551,-45.410,0.000
1709374111.390,-56.641,-43.457,-41.992,-38.574,0.000
1709374111.394,-23.926,-39.062,-40.527,-19.531,0.000
1709374111.397,-9.766,-41.016,-38.574,-5.859,0.000
1709374111.401,-49.316,-44.434,-36.621,-38.574,0.000
1709374111.405,-72.266,-44.434,-35.156,-55.176,0.000
1709374111.409,-60.547,-44.922,-37.109,-31.738,0.000
1709374111.413,-31.738,-41.016,-40.039,-19.531,0.000
1709374111.417,-5.859,-43.945,-39.551,-15.625,0.000
1709374111.421,-31.738,-46.387,-37.109,-37.109,0.000
1709374111.425,-62.012,-37.598,-36.133,-56.152,0.000
1709374111.429,-57.617,-38.086,-37.598,-47.852,0.000
1709374111.432,-31.250,-40.039,-44.922,-30.273,0.000
1709374111.436,2.930,-32.715,-43.457,3.418,0.000
1709374111.440,-21.484,-35.156,-38.086,-9.766,0.000
1709374111.444,-59.570,-40.039,-43.457,-49.316,0.000
1709374111.448,-56.152,-37.109,-43.945,-52.246,0.000
1709374111.452,-30.273,-37.598,-36.133,-27.344,0.000
1709374111.456,1.953,-34.668,-31.250,4.395,0.000
1709374111.460,-22.461,-31.250,-31.250,-10.254,0.000
1709374111.464,-62.012,-34.668,-35.645,-40.527,0.000
1709374111.468,-63.965,-40.527,-39.551,-47.363,0.000
1709374111.472,-41.504,-39.062,-37.598,-31.250,0.000
1709374111.475,-3.418,-38.086,-37.598,-9.766,0.000
1709374111.479,-13.184,-41.504,-38.574,-19.531,0.000
1709374111.483,-63.477,-41.016,-35.156,-48.340,0.000
1709374111.487,-69.824,-41.504,-35.156,-56.641,0.000
1709374111.491,-46.387,-40.039,-34.668,-38.574,0.000
1709374111.495,-4.395,-35.156,-36.621,-11.230,0.000
1709374111.499,-0.488,-36.621,-42.969,-10.254,0.000
1709374111.503,-44.922,-40.039,-42.480,-52.734,0.000
1709374111.507,-53.711,-36.621,-38.086,-62.988,0.000
1709374111.510,-37.598,-34.668,-39.062,-47.852,0.000
1709374111.514,-12.207,-36.133,-41.992,-30.762,0.000
1709374111.518,-20.020,-37.109,-41.016,-28.809,0.000
1709374111.522,-73.242,-37.598,-34.668,-60.547,0.000
1709374111.526,-90.332,-35.645,-36.133,-69.336,0.000
1709374111.530,-76.660,-37.109,-43.457,-61.523,0.000
1709374111.534,-46.387,-36.133,-42.969,-33.203,0.000
1709374111.538,-32.715,-34.668,-41.504,-7.812,0.000
1709374111.541,-69.336,-36.621,-42.480,-35.156,0.000
1709374111.545,-85.938,-36.621,-39.551,-59.082,0.000
1709374111.549,-62.988,-29.785,-34.668,-46.875,0.000
1709374111.553,-21.973,-30.273,-31.738,-12.207,0.000
1709374111.557,-8.301,-38.086,-33.203,-0.488,0.000
1709374111.561,-53.223,-37.109,-38.574,-34.668,0.000
1709374111.565,-72.754,-33.691,-34.668,-51.270,0.000
1709374111.569,-59.082,-37.598,-33.203,-43.945,0.000
1709374111.573,-25.391,-39.062,-38.574,-26.855,0.000
1709374111.577,-2.441,-37.598,-37.109,-15.137,0.000
1709374111.581,-35.156,-37.109,-35.156,-39.062,0.000
1709374111.585,-62.012,-39.062,-37.109,-59.570,0.000
1709374111.588,-51.758,-39.551,-38.574,-46.387,0.000
1709374111.592,-29.785,-41.504,-37.598,-23.926,0.000
1709374111.596,0.977,-41.016,-41.504,-3.906,0.000
1709374111.600,-16.113,-36.621,-38.574,-14.648,0.000
1709374111.604,-51.758,-40.039,-33.203,-32.715,0.000
1709374111.608,-54.199,-43.945,-38.574,-34.180,0.000
1709374111.612,-28.320,-44.434,-37.109,-20.996,0.000
1709374111.616,3.418,-41.992,-36.621,-0.488,0.000
1709374111.620,-18.066,-38.086,-41.992,-13.184,0.000
1709374111.624,-56.152,-34.180,-39.062,-45.410,0.000
1709374111.628,-57.617,-34.180,-40.527,-45.410,0.000
1709374111.632,-29.785,-38.086,-43.457,-26.367,0.000
1709374111.635,2.441,-38.086,-40.527,-6.348,0.000
1709374111.639,-16.113,-37.598,-37.598,-20.996,0.000
1709374111.643,-51.270,-34.668,-35.645,-45.410,0.000
1709374111.647,-51.758,-29.297,-31.738,-42.969,0.000
1709374111.651,-28.320,-28.809,-28.809,-35.156,0.000
1709374111.655,8.301,-31.250,-40.039,-11.719,0.000
1709374111.659,2.441,-29.785,-43.945,-8.301,0.000
1709374111.663,-38.086,-29.785,-37.598,-41.504,0.000
1709374111.667,-42.969,-34.668,-36.621,-45.898,0.000
1709374111.671,-20.996,-36.621,-40.527,-33.203,0.000
1709374111.675,11.230,-36.621,-42.480,-11.719,0.000
1709374111.678,9.277,-39.551,-37.109,-10.254,0.000
1709374111.682,-35.645,-39.551,-36.621,-36.133,0.000
1709374111.686,-56.641,-38.574,-41.504,-50.293,0.000
1709374111.690,-41.992,-43.457,-42.480,-47.852,0.000
1709374111.694,-0.488,-42.969,-42.969,-11.719,0.000
1709374111.698,2.930,-39.551,-44.434,-4.883,0.000
1709374111.702,-47.852,-41.504,-39.551,-41.016,0.000
1709374111.706,-66.895,-41.992,-39.062,-49.805,0.000
1709374111.710,-49.805,-47.852,-43.945,-35.156,0.000
1709374111.714,-16.602,-54.688,-39.551,-14.160,0.000
1709374111.717,-4.883,-54.199,-36.133,-5.371,0.000
1709374111.721,-39.551,-51.270,-34.180,-25.879,0.000
1709374111.725,-57.617,-49.805,-35.645,-42.969,0.000
1709374111.729,-45.898,-50.293,-35.156,-41.016,0.000
1709374111.733,-10.742,-48.828,-31.738,-19.531,0.000
1709374111.737,14.648,-43.457,-32.715,12.695,0.000
1709374111.741,-27.344,-43.945,-34.180,-13.672,0.000
1709374111.745,-50.781,-43.457,-36.133,-53.711,0.000
1709374111.749,-41.016,-45.898,-34.180,-51.758,0.000
1709374111.753,-19.531,-47.852,-31.250,-29.297,0.000
1709374111.756,7.812,-44.922,-32.227,-14.160,0.000
1709374111.760,-26.855,-43.457,-34.668,-42.969,0.000
1709374111.764,-62.500,-41.504,-40.039,-64.453,0.000
1709374111.768,-57.617,-41.504,-42.480,-55.664,0.000
1709374111.772,-26.367,-39.551,-35.645,-35.156,0.000
1709374111.776,2.441,-33.203,-37.109,-15.625,0.000
1709374111.780,-31.738,-36.621,-42.969,-33.203,0.000
1709374111.784,-70.312,-41.016,-43.457,-49.316,0.000
1709374111.788,-67.383,-41.992,-43.457,-65.918,0.000
1709374111.792,-43.945,-41.992,-41.016,-56.152,0.000
1709374111.796,-3.906,-39.062,-35.645,-18.066,0.000
1709374111.799,-22.461,-38.574,-36.621,-33.203,0.000
1709374111.803,-64.941,-40.039,-40.527,-65.918,0.000
1709374111.807,-69.336,-40.039,-36.621,-68.359,0.000
1709374111.811,-52.246,-40.039,-37.598,-55.176,0.000
1709374111.815,-21.973,-40.527,-39.062,-24.902,0.000
1709374111.819,-31.738,-39.551,-36.133,-31.738,0.000
1709374111.823,-67.871,-37.598,-34.180,-62.988,0.000
1709374111.827,-77.148,-39.062,-35.156,-60.059,0.000
1709374111.831,-58.594,-40.039,-41.504,-40.039,0.000
1709374111.835,-21.484,-43.457,-45.898,-19.531,0.000
1709374111.838,-23.438,-44.434,-44.922,-35.156,0.000
1709374111.842,-62.988,-38.574,-43.457,-66.895,0.000
1709374111.846,-70.801,-33.203,-41.992,-68.359,0.000
1709374111.850,-49.805,-29.297,-37.598,-53.223,0.000
1709374111.854,-17.578,-33.691,-39.551,-31.250,0.000
1709374111.858,-19.531,-40.039,-42.480,-29.785,0.000
1709374111.862,-51.758,-35.645,-37.598,-53.711,0.000
1709374111.866,-63.477,-35.645,-35.645,-66.895,0.000
1709374111.869,-59.570,-35.645,-39.551,-55.664,0.000
1709374111.873,-22.461,-39.062,-46.387,-16.602,0.000
1709374111.877,-4.883,-39.551,-43.945,-14.648,0.000
1709374111.881,-52.246,-38.086,-42.969,-57.129,0.000
1709374111.885,-71.289,-35.156,-49.316,-69.824,0.000
1709374111.889,-57.617,-34.668,-43.945,-57.617,0.000
1709374111.893,-32.227,-33.691,-40.527,-31.738,0.000
1709374111.897,-15.137,-28.320,-42.969,-23.926,0.000
1709374111.901,-47.363,-26.367,-41.992,-44.922,0.000
1709374111.904,-78.613,-32.715,-41.992,-61.523,0.000
1709374111.908,-71.777,-31.738,-41.016,-58.105,0.000
1709374111.912,-34.180,-23.926,-32.715,-27.832,0.000
1709374111.916,-9.277,-30.762,-40.039,-11.719,0.000
1709374111.920,-36.133,-31.738,-42.969,-38.086,0.000
1709374111.924,-66.895,-29.297,-39.551,-59.570,0.000
1709374111.928,-62.988,-31.250,-44.434,-57.617,0.000
1709374111.932,-34.180,-32.715,-41.504,-35.156,0.000
1709374111.936,-3.906,-33.203,-39.062,-13.184,0.000
1709374111.940,-33.691,-30.273,-44.434,-33.691,0.000
1709374111.944,-71.289,-35.645,-45.898,-56.152,0.000
1709374111.948,-67.871,-38.086,-45.898,-52.246,0.000
1709374111.951,-40.039,-39.062,-48.340,-38.086,0.000
1709374111.955,-7.324,-44.922,-45.410,-14.160,0.000
1709374111.959,-22.461,-44.922,-42.480,-22.461,0.000
1709374111.963,-59.570,-43.945,-38.574,-48.828,0.000
1709374111.967,-65.918,-43.457,-38.574,-52.734,0.000
1709374111.971,-41.016,-40.527,-45.898,-38.574,0.000
1709374111.975,-2.930,-36.133,-45.410,-8.301,0.000
1709374111.979,-21.484,-38.574,-43.457,-13.672,0.000
1709374111.983,-62.500,-44.922,-48.828,-52.734,0.000
1709374111.987,-62.500,-43.457,-43.945,-55.664,0.000
1709374111.991,-40.039,-40.527,-40.039,-36.621,0.000
1709374111.995,-8.301,-37.109,-42.969,-15.137,0.000
1709374111.998,-22.461,-34.668,-44.922,-21.973,0.000
1709374112.002,-57.617,-38.086,-44.434,-49.316,0.000
1709374112.006,-58.594,-34.668,-40.527,-54.199,0.000
1709374112.010,-51.270,-35.645,-41.992,-58.594,0.000
1709374112.014,-24.414,-43.457,-47.363,-45.898,0.000
1709374112.018,-21.973,-42.969,-45.898,-39.551,0.000
1709374112.022,-54.688,-37.598,-37.598,-52.246,0.000
1709374112.026,-71.777,-39.551,-35.645,-62.012,0.000
1709374112.030,-67.383,-43.945,-36.133,-64.941,0.000
1709374112.034,-33.691,-44.922,-35.156,-34.180,0.000
1709374112.038,-21.973,-44.922,-36.621,-25.391,0.000
1709374112.041,-65.430,-46.387,-39.062,-55.176,0.000
1709374112.045,-85.449,-43.457,-46.875,-67.871,0.000
1709374112.049,-68.848,-41.504,-46.875,-57.617,0.000
1709374112.053,-33.691,-39.551,-43.945,-29.297,0.000
1709374112.057,-15.137,-38.574,-41.504,-14.648,0.000
1709374112.061,-54.199,-39.551,-38.086,-42.969,0.000
1709374112.065,-77.148,-41.992,-35.156,-56.152,0.000
1709374112.069,-67.383,-44.922,-33.203,-38.574,0.000
1709374112.073,-37.598,-40.527,-34.180,-17.578,0.000
1709374112.077,-12.207,-37.598,-35.645,-2.441,0.000
1709374112.080,-36.133,-43.945,-33.203,-31.250,0.000
1709374112.084,-59.570,-43.945,-32.715,-49.805,0.000
1709374112.088,-59.082,-40.527,-34.668,-41.016,0.000
1709374112.092,-28.809,-39.062,-35.156,-24.414,0.000
1709374112.096,3.906,-36.621,-31.738,-4.395,0.000
1709374112.100,-25.391,-33.691,-34.180,-27.832,0.000
1709374112.104,-61.523,-33.203,-33.691,-52.734,0.000
1709374112.108,-60.547,-39.551,-34.668,-56.152,0.000
1709374112.112,-27.344,-37.598,-39.551,-33.203,0.000
1709374112.116,0.977,-31.738,-34.180,-1.465,0.000
1709374112.120,-27.832,-32.227,-30.273,-23.438,0.000
1709374112.123,-57.129,-38.086,-26.855,-49.316,0.000
1709374112.127,-60.547,-41.016,-29.785,-48.340,0.000
1709374112.131,-43.945,-37.109,-39.551,-36.621,0.000
1709374112.135,-14.160,-36.621,-41.992,-19.043,0.000
1709374112.139,-26.855,-36.133,-39.551,-38.574,0.000
1709374112.143,-59.570,-29.297,-35.645,-60.059,0.000
1709374112.147,-67.383,-27.344,-42.969,-58.105,0.000
1709374112.151,-50.781,-28.320,-46.875,-57.129,0.000
1709374112.155,-15.625,-30.273,-42.480,-29.785,0.000
1709374112.159,-23.926,-34.180,-44.922,-21.973,0.000
1709374112.163,-61.523,-37.598,-45.898,-59.082,0.000
1709374112.166,-65.918,-38.574,-43.457,-73.730,0.000
1709374112.170,-47.363,-38.086,-37.598,-55.664,0.000
1709374112.174,-9.766,-36.133,-35.645,-20.508,0.000
1709374112.178,-16.113,-32.715,-35.645,-21.484,0.000
1709374112.182,-57.617,-36.133,-35.645,-54.199,0.000
1709374112.186,-62.012,-40.039,-32.715,-60.547,0.000
1709374112.190,-50.293,-39.551,-36.621,-50.781,0.000
1709374112.194,-19.531,-41.504,-40.039,-23.926,0.000
1709374112.198,-10.254,-42.969,-42.480,-15.625,0.000
1709374112.201,-52.734,-39.062,-43.945,-41.504,0.000
1709374112.205,-71.289,-40.527,-41.016,-54.199,0.000
1709374112.209,-55.664,-42.480,-38.574,-50.781,0.000
1709374112.213,-13.184,-38.574,-35.645,-23.438,0.000
1709374112.217,5.859,-37.109,-26.855,-9.277,0.000
1709374112.221,-41.016,-39.062,-26.367,-37.598,0.000
1709374112.225,-62.500,-38.086,-34.180,-52.246,0.000
1709374112.229,-42.969,-36.621,-33.203,-38.086,0.000
1709374112.233,-8.789,-35.645,-34.180,-9.766,0.000
1709374112.236,5.371,-34.668,-37.598,-1.465,0.000
1709374112.240,-36.621,-34.180,-36.133,-31.738,0.000
1709374112.244,-59.082,-31.250,-35.156,-50.781,0.000
1709374112.248,-49.805,-32.227,-36.621,-47.852,0.000
1709374112.252,-21.973,-37.598,-37.598,-30.762,0.000
1709374112.256,11.230,-36.133,-43.457,-11.230,0.000
1709374112.260,-18.555,-33.691,-44.434,-35.156,0.000
1709374112.264,-57.617,-31.250,-40.039,-45.898,0.000
1709374112.268,-49.805,-33.203,-38.574,-41.504,0.000
1709374112.272,-20.996,-41.016,-41.016,-28.320,0.000
1709374112.276,-0.977,-39.551,-44.434,-0.488,0.000
1709374112.280,-28.320,-37.109,-36.621,-24.902,0.000
1709374112.284,-58.594,-36.133,-31.250,-60.547,0.000
1709374112.287,-61.035,-33.203,-38.574,-59.082,0.000
1709374112.291,-32.715,-33.203,-41.016,-32.715,0.000
1709374112.295,-0.488,-35.156,-42.480,-4.883,0.000
1709374112.299,-20.996,-38.574,-43.945,-22.461,0.000
1709374112.303,-59.082,-35.645,-39.062,-51.270,0.000
1709374112.307,-61.035,-31.250,-34.180,-48.340,0.000
1709374112.311,-39.062,-31.738,-34.180,-34.180,0.000
1709374112.315,-11.719,-35.156,-36.621,-17.578,0.000
1709374112.319,-22.949,-35.156,-45.410,-28.320,0.000
1709374112.323,-59.082,-34.668,-49.316,-57.129,0.000
1709374112.327,-67.383,-36.133,-45.898,-56.641,0.000
1709374112.331,-42.969,-37.598,-43.945,-37.598,0.000
1709374112.334,-0.977,-35.156,-42.969,-12.207,0.000
1709374112.338,-8.789,-33.691,-38.574,-18.555,0.000
1709374112.342,-47.363,-34.668,-41.016,-54.199,0.000
1709374112.346,-56.152,-33.691,-44.434,-71.289,0.000
1709374112.350,-38.574,-34.180,-45.410,-56.152,0.000
1709374112.354,4.395,-31.738,-47.852,-13.184,0.000
1709374112.358,1.953,-32.227,-48.828,-16.113,0.000
1709374112.362,-57.129,-39.062,-51.270,-54.688,0.000
1709374112.366,-71.289,-34.180,-48.828,-58.105,0.000
1709374112.370,-50.781,-32.715,-42.480,-42.480,0.000
1709374112.374,-18.066,-40.527,-42.480,-16.113,0.000
1709374112.378,-6.348,-42.480,-44.434,-8.301,0.000
1709374112.381,-50.293,-40.039,-43.457,-46.387,0.000
1709374112.385,-75.195,-37.598,-45.898,-65.430,0.000
1709374112.389,-59.570,-39.062,-47.363,-54.199,0.000
1709374112.393,-19.531,-41.016,-43.945,-19.043,0.000
1709374112.397,-5.859,-41.992,-40.527,5.859,0.000
1709374112.401,-50.293,-46.387,-39.062,-30.762,0.000
1709374112.405,-75.195,-47.852,-41.016,-56.641,0.000
1709374112.409,-61.035,-41.992,-35.156,-47.363,0.000
1709374112.413,-24.414,-40.039,-32.715,-20.020,0.000
1709374112.417,-3.906,-41.016,-39.062,-8.301,0.000
1709374112.421,-34.180,-36.621,-37.598,-36.621,0.000
1709374112.424,-62.988,-36.621,-37.109,-50.781,0.000
1709374112.428,-59.570,-38.574,-41.992,-55.664,0.000
1709374112.432,-23.926,-33.203,-44.434,-38.574,0.000
1709374112.436,3.906,-32.715,-47.852,-15.137,0.000
1709374112.440,-30.762,-33.203,-47.852,-34.180,0.000
1709374112.444,-62.500,-31.250,-44.922,-49.805,0.000
1709374112.448,-61.035,-33.691,-43.457,-59.570,0.000
1709374112.452,-37.109,-36.133,-41.992,-44.434,0.000
1709374112.456,-2.441,-35.156,-38.574,-11.719,0.000
1709374112.460,-27.832,-39.551,-34.180,-28.809,0.000
1709374112.463,-64.941,-39.062,-33.203,-55.176,0.000
1709374112.467,-63.965,-30.762,-30.762,-53.223,0.000
1709374112.471,-38.574,-30.762,-29.297,-38.574,0.000
1709374112.475,-3.906,-34.668,-38.574,-21.484,0.000
1709374112.479,-11.719,-32.227,-43.945,-27.344,0.000
1709374112.483,-48.828,-32.227,-37.598,-55.664,0.000
1709374112.487,-62.012,-31.738,-33.691,-57.129,0.000
1709374112.491,-44.434,-32.227,-36.133,-42.969,0.000
1709374112.495,-15.137,-39.062,-33.203,-25.879,0.000
1709374112.499,-17.578,-41.992,-29.297,-25.879,0.000
1709374112.503,-52.734,-42.969,-26.855,-56.152,0.000
1709374112.506,-62.012,-40.527,-33.203,-62.012,0.000
1709374112.510,-41.992,-37.598,-38.574,-45.410,0.000
1709374112.514,-2.441,-39.551,-37.598,-16.113,0.000
1709374112.518,-5.859,-37.109,-36.133,-16.113,0.000
1709374112.522,-50.293,-34.668,-36.133,-46.875,0.000
1709374112.526,-51.758,-33.203,-35.156,-46.875,0.000
1709374112.530,-31.738,-34.180,-35.645,-35.156,0.000
1709374112.534,-2.441,-40.039,-41.016,-9.766,0.000
1709374112.538,1.465,-43.945,-40.039,-12.207,0.000
1709374112.542,-41.016,-39.551,-42.969,-50.293,0.000
1709374112.545,-63.965,-40.039,-40.527,-59.570,0.000
1709374112.549,-54.688,-45.898,-41.016,-52.734,0.000
1709374112.553,-15.137,-41.992,-42.480,-23.926,0.000
1709374112.557,3.418,-40.039,-35.156,-13.672,0.000
1709374112.561,-33.691,-38.574,-33.691,-46.875,0.000
1709374112.565,-56.641,-40.527,-38.086,-59.570,0.000
1709374112.569,-48.340,-44.434,-38.086,-46.387,0.000
1709374112.573,-22.461,-48.340,-36.621,-26.367,0.000
1709374112.577,0.488,-43.457,-40.527,-8.789,0.000
1709374112.580,-28.809,-40.039,-36.621,-31.250,0.000
1709374112.584,-58.105,-38.574,-32.227,-55.664,0.000
1709374112.588,-58.594,-36.621,-37.598,-52.246,0.000
1709374112.592,-28.320,-38.574,-38.574,-29.297,0.000
1709374112.596,0.488,-35.645,-36.621,-5.859,0.000
1709374112.600,-30.273,-33.691,-36.621,-29.297,0.000
1709374112.604,-60.547,-36.133,-38.086,-50.781,0.000
1709374112.608,-57.617,-40.039,-48.340,-48.340,0.000
1709374112.612,-30.762,-37.109,-46.875,-25.879,0.000
1709374112.615,4.395,-34.668,-37.598,3.906,0.000
1709374112.619,-19.043,-32.227,-34.180,-16.113,0.000
1709374112.623,-57.129,-26.855,-34.668,-43.457,0.000
1709374112.627,-60.547,-28.320,-39.551,-51.270,0.000
1709374112.631,-37.109,-27.344,-41.016,-41.504,0.000
1709374112.635,-2.441,-28.809,-39.551,-22.461,0.000
1709374112.639,-17.578,-35.156,-38.086,-31.250,0.000
1709374112.643,-59.570,-33.691,-39.551,-51.270,0.000
1709374112.647,-59.082,-32.715,-38.086,-57.129,0.000
1709374112.651,-32.715,-37.109,-36.133,-41.504,0.000
1709374112.655,-3.906,-35.156,-34.668,-6.836,0.000
1709374112.659,-14.648,-34.668,-33.203,-11.719,0.000
1709374112.663,-45.410,-30.762,-33.203,-38.574,0.000
1709374112.666,-52.246,-27.344,-27.832,-36.621,0.000
1709374112.670,-39.551,-31.250,-28.809,-24.414,0.000
1709374112.674,-3.906,-29.785,-38.574,-5.371,0.000
1709374112.678,-0.488,-31.738,-38.086,-11.230,0.000
1709374112.682,-45.410,-30.762,-35.645,-38.574,0.000
1709374112.686,-60.547,-28.809,-37.109,-52.246,0.000
1709374112.690,-43.457,-31.250,-35.156,-40.039,0.000
1709374112.694,-9.277,-29.785,-31.738,-8.301,0.000
1709374112.698,-8.301,-32.715,-32.227,-12.695,0.000
1709374112.702,-51.270,-32.715,-31.250,-45.898,0.000
1709374112.706,-66.406,-28.809,-28.320,-50.293,0.000
1709374112.710,-55.176,-35.156,-33.691,-40.039,0.000
1709374112.713,-23.438,-36.133,-35.645,-17.090,0.000
1709374112.717,-11.230,-28.809,-33.691,-8.789,0.000
1709374112.721,-45.898,-26.855,-37.598,-37.598,0.000
1709374112.725,-68.359,-29.297,-37.109,-52.246,0.000
1709374112.729,-58.594,-29.785,-33.691,-40.039,0.000
1709374112.733,-26.367,-34.668,-36.621,-20.996,0.000
1709374112.737,-10.254,-39.551,-39.062,-14.160,0.000
1709374112.741,-45.898,-34.668,-32.227,-40.039,0.000
1709374112.745,-71.289,-35.156,-34.668,-55.664,0.000
1709374112.749,-68.359,-39.062,-37.109,-51.270,0.000
1709374112.753,-45.410,-40.527,-37.598,-31.250,0.000
1709374112.757,-20.508,-40.527,-38.574,-11.230,0.000
1709374112.760,-51.758,-39.551,-35.156,-36.621,0.000
1709374112.764,-83.496,-40.039,-30.273,-57.129,0.000
1709374112.768,-75.195,-40.039,-30.273,-59.082,0.000
1709374112.772,-45.410,-39.551,-36.621,-41.992,0.000
1709374112.776,-18.555,-40.039,-42.969,-16.602,0.000
1709374112.780,-45.898,-47.363,-46.387,-42.480,0.000
1709374112.784,-76.660,-49.316,-42.969,-73.730,0.000
1709374112.788,-63.477,-41.992,-38.574,-69.824,0.000
1709374112.792,-33.203,-45.410,-35.645,-47.852,0.000
1709374112.796,0.488,-47.363,-33.203,-25.391,0.000
1709374112.800,-22.949,-43.945,-33.691,-43.457,0.000
1709374112.803,-62.012,-39.062,-30.273,-67.383,0.000
1709374112.807,-60.547,-34.668,-29.297,-61.523,0.000
1709374112.811,-34.180,-35.645,-27.344,-42.480,0.000
1709374112.815,4.395,-35.645,-23.438,-13.672,0.000
1709374112.819,-17.578,-36.133,-32.715,-11.230,0.000
1709374112.823,-60.059,-36.621,-35.645,-45.898,0.000
1709374112.827,-57.129,-37.109,-34.180,-59.570,0.000
1709374112.831,-38.086,-41.992,-41.504,-43.457,0.000
1709374112.835,-4.395,-41.992,-44.922,-15.625,0.000
1709374112.839,-11.230,-39.062,-38.086,-20.996,0.000
1709374112.843,-49.316,-40.527,-36.133,-57.129,0.000
1709374112.846,-51.270,-39.551,-33.691,-56.641,0.000
1709374112.850,-36.133,-36.133,-37.598,-38.574,0.000
1709374112.854,-6.348,-34.180,-41.016,-12.695,0.000
1709374112.858,-6.348,-34.180,-36.621,-11.719,0.000
1709374112.862,-50.293,-42.480,-38.086,-42.480,0.000
1709374112.866,-64.453,-44.434,-35.645,-50.781,0.000
1709374112.870,-46.875,-42.969,-35.156,-42.969,0.000
1709374112.874,-12.207,-44.434,-36.133,-15.137,0.000
1709374112.878,-1.953,-39.551,-31.738,-4.883,0.000
1709374112.882,-41.504,-36.621,-33.691,-39.551,0.000
1709374112.885,-59.570,-37.109,-38.086,-58.105,0.000
1709374112.889,-47.852,-36.133,-36.133,-49.805,0.000
1709374112.893,-19.043,-32.715,-34.180,-21.973,0.000
1709374112.897,-10.742,-31.738,-34.180,-9.766,0.000
1709374112.901,-57.617,-35.645,-34.668,-44.922,0.000
1709374112.905,-80.566,-38.086,-39.551,-66.406,0.000
1709374112.909,-71.289,-40.527,-45.410,-60.547,0.000
1709374112.913,-36.133,-43.457,-49.316,-38.086,0.000
1709374112.917,-10.742,-42.480,-49.316,-24.902,0.000
1709374112.921,-48.828,-35.645,-42.480,-50.781,0.000
1709374112.924,-77.148,-33.203,-36.621,-68.848,0.000
1709374112.928,-64.453,-34.180,-37.109,-57.617,0.000
1709374112.932,-25.391,-35.645,-38.574,-30.762,0.000
1709374112.936,4.883,-28.320,-33.691,-8.789,0.000
1709374112.940,-18.066,-24.902,-28.320,-32.715,0.000
1709374112.944,-49.805,-30.762,-28.809,-57.617,0.000
1709374112.948,-54.199,-36.133,-32.715,-59.082,0.000
1709374112.952,-32.715,-37.598,-35.645,-39.551,0.000
1709374112.956,-6.836,-37.598,-32.715,-7.324,0.000
1709374112.960,-32.715,-35.156,-34.180,-32.715,0.000
1709374112.963,-74.219,-37.598,-36.133,-61.523,0.000
1709374112.967,-70.801,-37.109,-35.156,-51.758,0.000
1709374112.971,-45.410,-35.156,-34.668,-31.738,0.000
1709374112.975,-15.625,-41.016,-41.016,-13.672,0.000
1709374112.979,-23.438,-43.457,-42.969,-26.367,0.000
1709374112.983,-62.988,-39.062,-36.133,-49.316,0.000
1709374112.987,-68.848,-39.062,-35.645,-51.758,0.000
1709374112.991,-42.969,-39.062,-36.621,-41.992,0.000
1709374112.994,-10.254,-38.574,-36.621,-15.137,0.000
1709374112.998,-15.625,-39.062,-36.621,-18.066,0.000
1709374113.002,-56.152,-41.992,-40.039,-49.316,0.000
1709374113.006,-66.895,-42.480,-39.551,-55.664,0.000
1709374113.010,-49.316,-44.434,-39.551,-41.992,0.000
1709374113.014,-10.254,-42.969,-37.109,-17.090,0.000
1709374113.018,-6.348,-38.574,-34.180,-14.160,0.000
1709374113.022,-48.828,-38.574,-39.551,-41.504,0.000
1709374113.026,-62.500,-44.922,-38.574,-53.711,0.000
1709374113.030,-39.551,-42.480,-30.762,-42.480,0.000
1709374113.034,-2.441,-36.133,-34.180,-11.719,0.000
1709374113.038,-5.859,-36.133,-39.062,-11.230,0.000
1709374113.042,-45.410,-37.598,-38.086,-40.527,0.000
1709374113.045,-61.523,-37.109,-40.039,-54.688,0.000
1709374113.049,-53.223,-35.156,-39.551,-49.316,0.000
1709374113.053,-17.578,-38.086,-36.133,-19.043,0.000
1709374113.057,-2.930,-41.992,-34.180,-2.930,0.000
1709374113.061,-44.434,-42.969,-38.086,-40.039,0.000
1709374113.065,-62.012,-37.109,-36.133,-60.059,0.000
1709374113.069,-40.039,-35.156,-28.809,-44.922,0.000
1709374113.073,-3.906,-37.109,-33.203,-10.254,0.000
1709374113.077,9.277,-35.645,-39.062,3.418,0.000
1709374113.081,-34.668,-39.551,-44.922,-46.875,0.000
1709374113.085,-57.129,-39.062,-42.969,-64.941,0.000
1709374113.089,-53.223,-38.086,-38.086,-46.387,0.000
1709374113.092,-29.297,-42.480,-41.016,-26.367,0.000
1709374113.096,-7.324,-41.504,-45.410,-17.578,0.000
1709374113.100,-42.969,-39.062,-41.992,-44.434,0.000
1709374113.104,-67.871,-35.156,-36.621,-56.152,0.000
1709374113.108,-57.617,-32.227,-38.086,-44.922,0.000
1709374113.112,-31.738,-32.715,-42.480,-28.320,0.000
1709374113.116,2.441,-31.250,-41.992,-10.742,0.000
1709374113.120,-23.438,-27.344,-38.574,-26.367,0.000
1709374113.124,-61.523,-29.297,-35.645,-51.758,0.000
1709374113.128,-56.641,-34.180,-35.645,-57.129,0.000
1709374113.132,-32.715,-38.574,-35.645,-37.598,0.000
1709374113.136,-1.465,-41.992,-41.504,-15.625,0.000
1709374113.139,-23.438,-39.551,-39.551,-35.156,0.000
1709374113.143,-60.547,-34.668,-27.344,-57.617,0.000
1709374113.147,-62.012,-36.133,-28.809,-50.781,0.000
1709374113.151,-41.992,-38.574,-32.715,-36.133,0.000
1709374113.155,-3.418,-35.645,-30.273,-18.555,0.000
1709374113.159,-14.648,-34.180,-32.227,-25.879,0.000
1709374113.163,-62.500,-35.645,-33.203,-52.734,0.000
1709374113.167,-67.871,-39.062,-36.621,-62.012,0.000
1709374113.171,-39.062,-35.156,-40.039,-45.410,0.000
1709374113.175,4.883,-28.320,-37.109,-14.160,0.000
1709374113.179,-0.488,-29.785,-38.086,-12.695,0.000
1709374113.182,-45.410,-29.785,-42.969,-37.598,0.000
1709374113.186,-53.711,-29.785,-46.387,-47.852,0.000
1709374113.190,-28.809,-29.297,-44.434,-33.691,0.000
1709374113.194,4.395,-27.344,-41.504,8.789,0.000
1709374113.198,-11.230,-34.668,-54.199,-4.883,0.000
1709374113.202,-52.734,-40.527,-52.246,-44.922,0.000
1709374113.206,-58.105,-38.574,-41.992,-47.852,0.000
1709374113.210,-44.922,-35.645,-45.410,-40.527,0.000
1709374113.214,-3.418,-31.250,-42.969,-18.555,0.000
1709374113.218,5.371,-30.273,-42.480,-15.137,0.000
1709374113.221,-40.527,-32.715,-46.875,-43.945,0.000
1709374113.225,-59.570,-32.227,-45.410,-53.711,0.000
1709374113.229,-49.316,-33.203,-45.898,-47.852,0.000
1709374113.233,-15.137,-38.086,-46.875,-25.391,0.000
1709374113.237,5.859,-38.574,-39.062,-8.789,0.000
1709374113.241,-32.715,-35.156,-32.715,-37.598,0.000
1709374113.245,-55.664,-35.156,-37.109,-60.547,0.000
1709374113.249,-36.133,-34.180,-34.668,-46.875,0.000
1709374113.253,-4.883,-31.250,-31.738,-16.113,0.000
1709374113.257,1.465,-32.227,-39.062,-8.301,0.000
1709374113.261,-42.969,-35.156,-38.086,-41.016,0.000
1709374113.264,-70.801,-35.645,-31.250,-56.152,0.000
1709374113.268,-66.406,-30.762,-29.297,-49.316,0.000
1709374113.272,-33.691,-30.273,-28.320,-28.809,0.000
1709374113.276,-8.789,-34.668,-28.809,-7.324,0.000
1709374113.280,-45.898,-33.691,-32.227,-26.855,0.000
1709374113.284,-74.707,-35.645,-36.621,-39.062,0.000
1709374113.288,-63.965,-36.621,-38.086,-39.062,0.000
1709374113.292,-31.738,-37.109,-42.480,-30.273,0.000
1709374113.296,1.953,-38.574,-44.434,-4.395,0.000
1709374113.300,-20.020,-36.133,-40.039,-22.949,0.000
1709374113.303,-56.641,-36.133,-39.062,-54.688,0.000
1709374113.307,-61.523,-37.109,-40.527,-57.617,0.000
1709374113.311,-37.109,-33.203,-41.016,-43.457,0.000
1709374113.315,-0.977,-27.344,-37.598,-14.648,0.000
1709374113.319,-20.508,-28.809,-38.574,-24.414,0.000
1709374113.323,-60.059,-32.715,-41.504,-54.688,0.000
1709374113.327,-59.570,-31.738,-34.668,-50.781,0.000
1709374113.331,-37.598,-31.738,-30.273,-34.180,0.000
1709374113.335,-2.930,-35.645,-30.762,-13.184,0.000
1709374113.339,-12.207,-38.574,-29.297,-19.043,0.000
1709374113.342,-52.734,-36.621,-33.691,-45.898,0.000
1709374113.346,-58.105,-36.133,-37.109,-54.199,0.000
1709374113.350,-43.457,-40.527,-33.691,-45.410,0.000
1709374113.354,-13.184,-39.062,-35.645,-18.066,0.000
1709374113.358,-13.672,-33.203,-38.086,-22.461,0.000
1709374113.362,-55.176,-29.297,-37.598,-58.105,0.000
1709374113.366,-63.965,-29.297,-38.086,-62.988,0.000
1709374113.370,-43.945,-33.203,-40.039,-48.828,0.000
1709374113.374,-4.395,-30.762,-40.039,-13.672,0.000
1709374113.377,1.465,-30.762,-43.457,-15.625,0.000
1709374113.381,-46.387,-33.203,-44.922,-57.129,0.000
1709374113.385,-55.176,-30.273,-40.039,-60.547,0.000
1709374113.389,-34.180,-29.785,-37.598,-43.945,0.000
1709374113.393,-9.277,-28.809,-42.480,-21.973,0.000
1709374113.397,0.488,-27.832,-48.828,-8.301,0.000
1709374113.401,-35.156,-30.273,-43.945,-28.320,0.000
1709374113.405,-55.176,-28.320,-35.645,-42.480,0.000
1709374113.408,-42.969,-29.785,-38.086,-38.086,0.000
1709374113.412,-8.789,-35.156,-35.156,-15.625,0.000
1709374113.416,10.254,-34.668,-35.156,-1.953,0.000
1709374113.420,-26.855,-34.668,-37.109,-31.250,0.000
1709374113.424,-57.617,-32.227,-36.133,-55.664,0.000
1709374113.428,-56.152,-32.715,-37.598,-49.316,0.000
1709374113.432,-30.273,-38.086,-43.945,-27.832,0.000
1709374113.436,-7.812,-40.039,-48.340,-12.207,0.000
1709374113.440,-32.715,-34.180,-41.016,-36.621,0.000
1709374113.444,-56.152,-35.645,-36.133,-56.641,0.000
1709374113.448,-49.316,-40.527,-38.086,-45.898,0.000
1709374113.452,-18.555,-40.527,-36.621,-23.438,0.000
1709374113.455,8.789,-41.016,-37.109,-4.883,0.000
1709374113.459,-20.020,-42.969,-36.621,-25.391,0.000
1709374113.463,-54.688,-41.992,-36.133,-52.246,0.000
1709374113.467,-56.152,-36.133,-40.527,-48.340,0.000
1709374113.471,-35.156,-35.156,-41.992,-32.227,0.000
1709374113.475,-8.301,-37.598,-42.969,-9.277,0.000
1709374113.479,-33.691,-37.109,-44.434,-21.973,0.000
1709374113.483,-74.219,-36.621,-40.039,-51.270,0.000
1709374113.487,-71.777,-38.086,-38.574,-55.176,0.000
1709374113.491,-42.969,-37.598,-37.598,-42.969,0.000
1709374113.495,-3.906,-34.668,-34.668,-11.230,0.000
1709374113.499,-16.602,-35.645,-31.738,-17.578,0.000
1709374113.502,-56.641,-39.551,-30.762,-50.293,0.000
1709374113.506,-61.523,-36.133,-33.203,-48.340,0.000
1709374113.510,-47.852,-36.621,-39.551,-38.086,0.000
1709374113.514,-17.578,-42.480,-38.086,-15.137,0.000
1709374113.518,-24.902,-41.992,-38.086,-13.672,0.000
1709374113.522,-62.988,-33.203,-28.320,-36.621,0.000
1709374113.526,-77.637,-31.250,-29.785,-41.504,0.000
1709374113.530,-60.547,-34.180,-39.551,-39.551,0.000
1709374113.534,-20.020,-37.109,-36.621,-20.020,0.000
1709374113.538,-22.461,-45.410,-38.574,-20.996,0.000
1709374113.542,-58.594,-48.828,-40.039,-56.641,0.000
1709374113.545,-68.848,-39.551,-34.668,-71.289,0.000
1709374113.549,-54.199,-36.621,-30.762,-57.129,0.000
1709374113.553,-19.043,-41.016,-29.297,-20.508,0.000
1709374113.557,-20.020,-41.992,-29.785,-14.648,0.000
1709374113.561,-58.594,-49.316,-34.180,-49.316,0.000
1709374113.565,-64.453,-47.363,-29.297,-56.152,0.000
1709374113.569,-49.316,-42.480,-24.414,-33.691,0.000
1709374113.573,-23.438,-48.828,-29.785,-14.648,0.000
1709374113.577,-3.906,-45.410,-30.762,-2.930,0.000
1709374113.581,-40.527,-40.527,-27.344,-21.484,0.000
1709374113.585,-75.684,-45.410,-32.715,-44.434,0.000
1709374113.588,-71.777,-48.340,-36.133,-49.805,0.000
1709374113.592,-33.203,-48.828,-37.109,-27.344,0.000
1709374113.596,-4.395,-43.457,-38.574,-7.812,0.000
1709374113.600,-40.039,-41.504,-37.109,-41.504,0.000
1709374113.604,-63.477,-39.062,-26.855,-60.059,0.000
1709374113.608,-50.293,-38.086,-25.879,-50.293,0.000
1709374113.612,-22.949,-40.527,-37.109,-25.391,0.000
1709374113.616,-2.441,-40.527,-38.574,-4.395,0.000
1709374113.620,-35.645,-41.504,-33.691,-33.203,0.000
1709374113.624,-63.965,-40.039,-34.668,-57.617,0.000
1709374113.627,-54.688,-35.156,-35.156,-53.711,0.000
1709374113.631,-20.996,-33.691,-31.250,-34.180,0.000
1709374113.635,11.230,-31.738,-31.250,-5.859,0.000
1709374113.639,-13.184,-29.785,-32.715,-25.391,0.000
1709374113.643,-57.617,-32.227,-35.156,-62.500,0.000
1709374113.647,-56.641,-29.785,-33.691,-62.012,0.000
1709374113.651,-24.902,-27.832,-33.203,-35.645,0.000
1709374113.655,-4.883,-29.297,-34.668,-10.254,0.000
1709374113.659,-25.879,-31.250,-33.691,-18.066,0.000
1709374113.663,-62.500,-38.086,-43.945,-41.992,0.000
1709374113.667,-64.453,-36.621,-39.551,-44.922,0.000
1709374113.670,-40.039,-32.227,-34.180,-29.785,0.000
1709374113.674,-7.812,-37.109,-43.457,-7.324,0.000
1709374113.678,-14.160,-35.645,-44.434,-13.672,0.000
1709374113.682,-51.758,-31.250,-37.109,-44.434,0.000
1709374113.686,-63.477,-37.598,-42.969,-58.594,0.000
1709374113.690,-44.922,-36.133,-49.316,-46.875,0.000
1709374113.694,-3.418,-35.156,-47.363,-10.254,0.000
1709374113.698,0.488,-38.086,-44.434,-9.277,0.000
1709374113.702,-41.504,-38.086,-40.527,-38.086,0.000
1709374113.706,-58.105,-35.156,-43.457,-55.664,0.000
1709374113.710,-40.527,-34.668,-42.480,-48.828,0.000
1709374113.714,0.488,-32.715,-40.039,-15.137,0.000
1709374113.717,-0.488,-36.621,-38.086,-9.277,0.000
1709374113.721,-50.781,-37.598,-41.992,-38.574,0.000
1709374113.725,-63.477,-31.738,-46.875,-60.547,0.000
1709374113.729,-49.805,-30.762,-46.387,-54.199,0.000
1709374113.733,-8.301,-31.250,-44.434,-20.996,0.000
1709374113.737,4.395,-34.180,-44.434,-9.766,0.000
1709374113.741,-39.551,-34.180,-41.504,-42.969,0.000
1709374113.745,-60.059,-30.762,-36.621,-56.152,0.000
1709374113.749,-50.293,-31.250,-31.250,-35.645,0.000
1709374113.752,-24.414,-34.180,-35.156,-16.602,0.000
1709374113.756,-4.883,-33.203,-40.039,-11.230,0.000
1709374113.760,-36.621,-35.645,-37.598,-43.945,0.000
1709374113.764,-62.988,-39.551,-33.691,-60.059,0.000
1709374113.768,-54.688,-38.086,-35.156,-50.781,0.000
1709374113.772,-20.508,-38.086,-32.715,-38.574,0.000
1709374113.776,1.953,-40.527,-32.715,-17.578,0.000
1709374113.780,-33.691,-45.410,-38.574,-39.551,0.000
1709374113.784,-68.848,-44.922,-42.969,-66.406,0.000
1709374113.787,-61.035,-39.551,-40.527,-59.570,0.000
1709374113.791,-29.785,-37.598,-35.156,-32.227,0.000
1709374113.795,-3.906,-39.551,-37.109,-6.836,0.000
1709374113.799,-30.762,-46.387,-40.039,-35.645,0.000
1709374113.803,-69.336,-49.805,-39.062,-58.105,0.000
1709374113.807,-70.312,-42.480,-33.203,-45.898,0.000
1709374113.811,-45.898,-40.039,-37.598,-32.227,0.000
1709374113.815,-10.742,-42.480,-37.598,-14.160,0.000
1709374113.819,-22.949,-38.574,-39.062,-29.785,0.000
1709374113.823,-59.570,-35.645,-42.969,-53.711,0.000
1709374113.827,-61.523,-32.715,-41.504,-45.410,0.000
1709374113.831,-36.133,-33.691,-43.945,-29.297,0.000
1709374113.834,0.000,-36.621,-42.969,-4.883,0.000
1709374113.838,-6.348,-34.180,-34.180,-8.301,0.000
1709374113.842,-40.527,-31.738,-30.762,-41.016,0.000
1709374113.846,-57.129,-31.738,-36.133,-58.594,0.000
1709374113.850,-43.945,-35.156,-38.086,-45.410,0.000
1709374113.854,-8.301,-40.039,-41.016,-12.207,0.000
1709374113.858,-21.484,-43.457,-43.945,-23.438,0.000
1709374113.862,-57.129,-40.527,-39.551,-51.270,0.000
1709374113.866,-64.941,-41.992,-42.480,-55.664,0.000
1709374113.870,-54.199,-41.992,-42.480,-45.410,0.000
1709374113.874,-11.719,-36.133,-38.086,-12.207,0.000
1709374113.878,0.000,-33.691,-39.551,-4.883,0.000
1709374113.881,-40.527,-36.621,-41.992,-36.133,0.000
1709374113.885,-58.594,-34.180,-41.016,-48.828,0.000
1709374113.889,-47.363,-33.691,-41.992,-39.551,0.000
1709374113.893,-9.277,-37.598,-45.898,-13.672,0.000
1709374113.897,3.418,-33.203,-39.551,-1.465,0.000
1709374113.901,-39.551,-30.762,-40.527,-30.273,0.000
1709374113.905,-57.129,-31.250,-43.945,-50.293,0.000
1709374113.909,-45.898,-29.785,-41.504,-44.434,0.000
1709374113.913,-16.602,-30.273,-43.945,-20.996,0.000
1709374113.917,-0.977,-32.227,-45.898,-4.883,0.000
1709374113.921,-39.062,-27.344,-41.016,-37.598,0.000
1709374113.924,-69.336,-30.273,-40.039,-58.594,0.000
1709374113.928,-61.035,-33.691,-42.969,-47.852,0.000
1709374113.932,-30.273,-31.250,-46.387,-29.297,0.000
1709374113.936,-11.230,-30.273,-42.480,-12.695,0.000
1709374113.940,-47.363,-32.227,-35.645,-32.715,0.000
1709374113.944,-66.895,-32.227,-32.227,-45.898,0.000
1709374113.948,-56.152,-31.738,-36.133,-46.387,0.000
1709374113.952,-32.227,-34.668,-35.156,-25.391,0.000
1709374113.956,-4.883,-39.551,-32.715,-2.930,0.000
1709374113.960,-28.320,-40.527,-33.203,-23.438,0.000
1709374113.963,-63.965,-37.109,-32.227,-48.340,0.000
1709374113.967,-59.082,-33.203,-31.250,-36.621,0.000
1709374113.971,-24.414,-33.203,-35.645,-14.648,0.000
1709374113.975,5.859,-32.715,-40.039,-3.418,0.000
1709374113.979,-13.672,-37.109,-38.086,-16.602,0.000
1709374113.983,-40.527,-40.527,-38.086,-39.551,0.000
1709374113.987,-49.805,-36.133,-41.992,-55.176,0.000
1709374113.991,-34.180,-36.621,-47.363,-41.016,0.000
1709374113.995,7.324,-32.715,-47.363,-10.742,0.000
1709374113.999,-12.207,-29.297,-45.898,-24.902,0.000
1709374114.003,-58.594,-32.715,-42.969,-59.570,0.000
1709374114.006,-61.523,-34.180,-38.574,-63.965,0.000
1709374114.010,-36.621,-34.668,-37.598,-42.969,0.000
1709374114.014,1.953,-38.086,-40.527,-11.719,0.000
1709374114.018,-8.301,-32.715,-42.969,-15.137,0.000
1709374114.022,-47.852,-32.715,-34.668,-46.387,0.000
1709374114.026,-59.082,-37.109,-35.645,-55.664,0.000
1709374114.030,-42.969,-31.738,-39.551,-40.039,0.000
1709374114.034,0.977,-31.250,-32.227,-6.348,0.000
1709374114.038,-1.465,-40.527,-35.645,-20.996,0.000
1709374114.042,-45.410,-41.016,-32.715,-56.641,0.000
1709374114.045,-58.105,-34.180,-31.250,-57.129,0.000
1709374114.049,-42.969,-31.250,-41.504,-42.969,0.000
1709374114.053,-3.906,-30.273,-40.527,-16.602,0.000
1709374114.057,7.324,-33.691,-37.598,-4.883,0.000
1709374114.061,-37.109,-39.062,-34.180,-24.414,0.000
1709374114.065,-57.617,-33.203,-30.762,-41.016,0.000
1709374114.069,-46.387,-35.645,-36.621,-38.086,0.000
1709374114.073,-11.230,-40.039,-36.621,-9.766,0.000
1709374114.077,8.301,-35.156,-29.297,12.695,0.000
1709374114.080,-31.250,-36.621,-34.180,-17.578,0.000
1709374114.084,-53.711,-41.992,-37.598,-50.781,0.000
1709374114.088,-44.434,-40.039,-34.668,-49.316,0.000
1709374114.092,-15.625,-39.551,-39.551,-26.855,0.000
1709374114.096,-2.930,-41.992,-44.922,-16.602,0.000
1709374114.100,-41.992,-42.480,-45.410,-40.039,0.000
1709374114.104,-62.988,-41.992,-42.480,-53.223,0.000
1709374114.108,-54.199,-40.039,-40.039,-49.316,0.000
1709374114.112,-32.715,-39.551,-43.945,-31.738,0.000
1709374114.115,-4.883,-36.621,-41.504,-13.184,0.000
1709374114.119,-23.926,-31.738,-32.227,-30.273,0.000
1709374114.123,-47.363,-28.320,-27.832,-45.410,0.000
1709374114.127,-49.316,-28.809,-31.738,-48.828,0.000
1709374114.131,-32.715,-28.320,-34.668,-36.621,0.000
1709374114.135,-2.441,-29.785,-34.668,-10.254,0.000
1709374114.139,-25.391,-37.598,-38.574,-28.320,0.000
1709374114.143,-58.105,-35.645,-44.434,-53.223,0.000
1709374114.146,-54.688,-34.180,-41.992,-48.340,0.000
1709374114.150,-29.297,-33.691,-37.109,-25.879,0.000
1709374114.154,4.395,-30.762,-36.133,-2.930,0.000
1709374114.158,-19.531,-33.203,-37.109,-27.344,0.000
1709374114.162,-59.082,-34.180,-38.574,-55.664,0.000
1709374114.166,-52.246,-30.762,-33.203,-50.293,0.000
1709374114.170,-22.461,-29.297,-29.785,-37.598,0.000
1709374114.174,9.277,-31.250,-38.574,-14.160,0.000
1709374114.178,-5.371,-33.691,-38.574,-23.438,0.000
1709374114.182,-47.363,-32.227,-37.598,-51.758,0.000
1709374114.186,-64.941,-37.109,-39.551,-54.688,0.000
1709374114.189,-51.758,-39.062,-38.086,-41.016,0.000
1709374114.194,-12.207,-33.691,-36.621,-7.324,0.000
1709374114.197,-19.043,-33.203,-33.203,-7.812,0.000
1709374114.201,-58.594,-35.156,-30.273,-40.527,0.000
1709374114.205,-64.453,-36.621,-35.156,-48.828,0.000
1709374114.209,-45.898,-38.086,-39.062,-38.574,0.000
1709374114.213,-2.930,-38.086,-36.133,-5.371,0.000
1709374114.217,6.348,-35.645,-31.250,2.441,0.000
1709374114.221,-41.504,-34.180,-34.180,-33.203,0.000
1709374114.225,-59.082,-34.180,-37.598,-42.480,0.000
1709374114.229,-41.504,-30.273,-33.203,-25.879,0.000
1709374114.233,-4.395,-27.344,-30.762,-5.859,0.000
1709374114.236,2.930,-28.809,-30.762,-6.836,0.000
1709374114.241,-41.016,-34.180,-33.691,-44.922,0.000
1709374114.244,-58.594,-35.645,-40.039,-62.500,0.000
1709374114.248,-44.922,-37.109,-38.574,-50.781,0.000
1709374114.252,-17.090,-38.574,-36.133,-23.438,0.000
1709374114.256,-2.930,-32.227,-33.691,-9.766,0.000
1709374114.260,-36.621,-33.691,-30.273,-33.203,0.000
1709374114.264,-56.152,-32.715,-28.809,-52.246,0.000
1709374114.268,-42.969,-30.273,-31.738,-51.270,0.000
1709374114.272,-12.695,-34.668,-36.133,-24.902,0.000
1709374114.276,2.441,-39.062,-35.156,-4.395,0.000
1709374114.280,-39.062,-43.457,-39.551,-41.504,0.000
1709374114.283,-75.195,-43.457,-41.992,-64.941,0.000
1709374114.287,-64.453,-40.527,-41.016,-57.617,0.000
1709374114.291,-29.297,-41.992,-39.062,-35.645,0.000
1709374114.295,-0.977,-43.457,-38.086,-9.277,0.000
1709374114.299,-24.414,-40.527,-29.297,-25.391,0.000
1709374114.303,-62.012,-39.551,-28.809,-51.758,0.000
1709374114.307,-63.965,-39.551,-37.598,-56.641,0.000
1709374114.311,-34.668,-38.086,-32.715,-36.133,0.000
1709374114.315,3.906,-42.480,-29.785,-5.859,0.000
1709374114.319,-22.461,-45.898,-30.762,-18.066,0.000
1709374114.323,-64.453,-41.992,-35.645,-55.176,0.000
1709374114.327,-55.664,-41.504,-31.250,-56.641,0.000
1709374114.330,-28.809,-41.016,-29.785,-40.527,0.000
1709374114.334,1.465,-45.410,-39.062,-17.578,0.000
1709374114.338,-13.184,-47.852,-39.551,-26.855,0.000
1709374114.342,-49.316,-37.598,-31.250,-53.223,0.000
1709374114.346,-53.711,-39.551,-28.809,-57.129,0.000
1709374114.350,-36.621,-39.062,-33.203,-46.387,0.000
1709374114.354,0.488,-38.574,-33.203,-15.137,0.000
1709374114.358,-9.277,-43.457,-32.715,-19.043,0.000
1709374114.362,-55.176,-47.852,-38.086,-49.316,0.000
1709374114.366,-56.641,-45.410,-38.086,-49.316,0.000
1709374114.369,-35.156,-35.645,-35.156,-44.922,0.000
1709374114.373,-0.488,-35.156,-31.250,-15.625,0.000
1709374114.377,-3.906,-40.039,-31.738,-13.672,0.000
