timestamps,TP9,AF7,AF8,TP10,Right AUX
1709298404.638,-20.020,-23.926,13.184,-30.273,0.000
1709298404.642,-38.086,-24.414,15.625,-50.781,0.000
1709298404.646,-49.316,-35.645,17.578,-46.387,0.000
1709298404.650,-36.133,-38.086,21.973,-28.809,0.000
1709298404.654,-27.832,-34.180,16.113,-21.484,0.000
1709298404.658,-35.645,-28.809,13.672,-33.203,0.000
1709298404.661,-50.781,-29.297,11.719,-52.246,0.000
1709298404.665,-41.992,-26.855,6.348,-45.898,0.000
1709298404.669,-46.875,-29.785,5.859,-44.434,0.000
1709298404.673,-49.316,-38.086,7.812,-42.969,0.000
1709298404.677,-47.852,-33.691,7.324,-46.387,0.000
1709298404.681,-66.895,-24.414,11.719,-64.453,0.000
1709298404.685,-69.824,-28.809,11.230,-65.430,0.000
1709298404.689,-53.223,-31.738,10.254,-27.832,0.000
1709298404.693,-32.715,-29.785,13.672,-16.113,0.000
1709298404.696,-24.414,-36.133,12.695,-44.434,0.000
1709298404.700,-36.133,-42.480,12.695,-57.129,0.000
1709298404.704,-54.199,-41.504,16.602,-46.875,0.000
1709298404.708,-46.875,-27.832,21.973,-20.996,0.000
1709298404.712,-24.902,-17.578,20.996,-7.324,0.000
1709298404.716,-19.043,-20.508,18.555,-24.414,0.000
1709298404.720,-31.250,-24.414,18.555,-40.039,0.000
1709298404.724,-35.156,-19.531,19.531,-34.668,0.000
1709298404.728,-31.250,-12.207,21.973,-12.207,0.000
1709298404.731,-29.785,-15.625,17.578,3.906,0.000
1709298404.735,-1.953,-22.949,18.555,1.953,0.000
1709298404.739,3.906,-20.508,18.555,-16.602,0.000
1709298404.743,-40.527,-18.555,14.160,-21.484,0.000
1709298404.747,-42.480,-26.855,16.602,-10.742,0.000
1709298404.751,-12.207,-21.973,20.508,6.348,0.000
1709298404.755,-0.488,-20.020,20.020,11.230,0.000
1709298404.759,-16.113,-16.602,10.742,-19.043,0.000
1709298404.763,-33.203,-16.113,11.230,-35.156,0.000
1709298404.766,-34.180,-28.809,17.578,-26.367,0.000
1709298404.770,-20.020,-20.020,15.625,-21.973,0.000
1709298404.774,-1.953,-16.113,13.672,-21.973,0.000
1709298404.778,-12.207,-25.879,12.207,-36.133,0.000
1709298404.782,-31.250,-22.949,11.719,-47.363,0.000
1709298404.786,-32.715,-20.020,12.695,-36.133,0.000
1709298404.790,-17.090,-21.973,12.695,-13.184,0.000
1709298404.794,-4.883,-21.484,7.812,-14.648,0.000
1709298404.798,-5.859,-21.484,11.230,-25.391,0.000
1709298404.802,-32.227,-15.625,6.836,-41.992,0.000
1709298404.806,-47.852,-15.137,1.465,-50.293,0.000
1709298404.810,-16.602,-20.996,7.324,-20.996,0.000
1709298404.814,-0.977,-23.438,12.695,0.977,0.000
1709298404.817,-8.789,-23.438,10.254,-12.207,0.000
1709298404.821,-29.785,-21.484,8.301,-29.297,0.000
1709298404.825,-55.664,-23.438,13.672,-29.297,0.000
1709298404.829,-44.434,-23.438,9.277,-20.996,0.000
1709298404.833,-25.391,-21.484,8.789,-19.043,0.000
1709298404.837,-29.785,-13.184,10.254,-37.598,0.000
1709298404.841,-41.504,-17.578,15.625,-43.457,0.000
1709298404.845,-52.246,-28.320,26.367,-27.832,0.000
1709298404.849,-52.734,-24.902,24.414,-19.043,0.000
1709298404.853,-35.645,-23.438,18.555,-13.672,0.000
1709298404.857,-27.344,-22.461,17.578,-12.695,0.000
1709298404.861,-40.039,-21.973,18.555,-31.738,0.000
1709298404.864,-56.152,-32.715,14.160,-52.734,0.000
1709298404.868,-57.617,-38.086,12.695,-30.762,0.000
1709298404.872,-41.992,-29.785,15.625,-13.184,0.000
1709298404.876,-18.555,-26.367,13.184,-36.621,0.000
1709298404.880,-38.574,-26.367,15.137,-41.992,0.000
1709298404.884,-65.430,-25.879,14.648,-33.691,0.000
1709298404.888,-44.922,-26.367,12.207,-31.738,0.000
1709298404.892,-24.902,-32.227,16.113,-27.344,0.000
1709298404.896,-19.531,-28.809,12.207,-31.250,0.000
1709298404.900,-34.180,-24.414,10.254,-51.270,0.000
1709298404.904,-49.805,-28.320,22.461,-53.223,0.000
1709298404.907,-44.922,-20.508,15.625,-36.133,0.000
1709298404.911,-25.391,-15.137,4.883,-31.250,0.000
1709298404.915,-17.578,-22.461,12.695,-27.832,0.000
1709298404.919,-28.809,-26.855,15.625,-33.691,0.000
1709298404.923,-41.504,-22.461,13.672,-46.387,0.000
1709298404.927,-44.922,-18.555,17.578,-38.574,0.000
1709298404.931,-26.855,-23.926,20.508,-20.508,0.000
1709298404.935,-25.391,-31.250,18.555,-30.273,0.000
1709298404.939,-36.621,-27.344,14.648,-47.363,0.000
1709298404.943,-38.574,-22.461,10.742,-59.570,0.000
1709298404.946,-49.805,-24.414,13.184,-48.340,0.000
1709298404.950,-39.062,-24.414,14.648,-17.578,0.000
1709298404.954,-28.809,-22.949,10.742,-19.531,0.000
1709298404.958,-22.461,-15.625,14.160,-41.016,0.000
1709298404.962,-42.480,-18.066,17.578,-38.086,0.000
1709298404.966,-72.754,-24.902,21.484,-29.297,0.000
1709298404.970,-47.852,-14.160,20.996,-26.367,0.000
1709298404.974,-24.902,-15.625,20.508,-20.020,0.000
1709298404.978,-31.250,-29.297,24.414,-30.273,0.000
1709298404.982,-47.363,-20.508,27.344,-52.246,0.000
1709298404.985,-56.152,-14.648,26.855,-55.176,0.000
1709298404.989,-39.551,-24.902,17.090,-36.621,0.000
1709298404.993,-25.391,-39.551,20.020,-19.531,0.000
1709298404.997,-36.133,-34.668,19.043,-37.109,0.000
1709298405.001,-40.527,-27.344,11.719,-67.871,0.000
1709298405.005,-56.152,-30.762,12.695,-69.336,0.000
1709298405.009,-44.922,-26.367,16.602,-44.434,0.000
1709298405.013,-18.555,-22.461,17.578,-38.574,0.000
1709298405.017,-25.391,-19.531,15.625,-55.664,0.000
1709298405.020,-22.949,-16.602,20.508,-60.547,0.000
1709298405.024,-33.203,-17.090,15.137,-59.570,0.000
1709298405.028,-40.527,-16.602,12.207,-38.086,0.000
1709298405.032,-16.113,-8.301,21.973,-26.367,0.000
1709298405.036,-10.742,-3.418,20.508,-40.527,0.000
1709298405.040,-32.715,-4.883,11.719,-59.082,0.000
1709298405.044,-48.340,-11.719,14.160,-65.430,0.000
1709298405.048,-45.410,-23.438,17.578,-48.828,0.000
1709298405.052,-32.227,-28.809,15.625,-31.250,0.000
1709298405.056,-30.762,-20.508,20.020,-41.992,0.000
1709298405.059,-47.852,-13.672,16.113,-77.637,0.000
1709298405.063,-58.105,-15.137,19.531,-72.754,0.000
1709298405.067,-58.105,-13.672,25.879,-49.316,0.000
1709298405.071,-44.434,-10.742,19.531,-37.598,0.000
1709298405.075,-31.738,-7.812,10.254,-42.969,0.000
1709298405.079,-39.062,-11.719,10.254,-52.734,0.000
1709298405.083,-41.504,-16.113,16.113,-45.898,0.000
1709298405.087,-52.734,-12.207,16.113,-34.668,0.000
1709298405.091,-49.316,-9.277,12.695,-34.180,0.000
1709298405.095,-30.273,-10.254,14.648,-34.180,0.000
1709298405.098,-40.527,-16.602,14.648,-49.316,0.000
1709298405.102,-42.969,-11.230,9.766,-60.059,0.000
1709298405.106,-41.992,-0.977,14.160,-47.852,0.000
1709298405.110,-39.062,-7.812,15.137,-28.320,0.000
1709298405.114,-22.949,-9.277,9.277,-21.973,0.000
1709298405.118,-27.344,-4.883,9.277,-34.668,0.000
1709298405.122,-53.711,-12.207,9.277,-43.945,0.000
1709298405.126,-49.805,-16.602,13.184,-27.344,0.000
1709298405.129,-42.480,-13.184,15.137,-5.371,0.000
1709298405.133,-28.320,-11.719,7.812,-20.020,0.000
1709298405.137,-13.672,-9.277,12.207,-36.133,0.000
1709298405.141,-49.805,-19.043,16.113,-34.668,0.000
1709298405.145,-63.965,-28.320,11.230,-39.551,0.000
1709298405.149,-45.898,-13.672,13.184,-33.691,0.000
1709298405.153,-21.484,-1.953,16.113,-25.391,0.000
1709298405.157,-16.602,-0.977,20.996,-34.180,0.000
1709298405.161,-28.809,-1.465,20.996,-41.504,0.000
1709298405.165,-44.434,-5.859,19.531,-39.062,0.000
1709298405.169,-36.621,-12.207,24.902,-30.273,0.000
1709298405.173,-13.184,-8.789,25.391,-14.648,0.000
1709298405.177,-5.371,2.930,17.578,-22.461,0.000
1709298405.180,-27.344,2.441,14.160,-47.852,0.000
1709298405.184,-65.430,-13.184,17.090,-44.434,0.000
1709298405.188,-54.688,-16.602,19.531,-20.020,0.000
1709298405.192,-33.691,-10.254,20.020,-12.695,0.000
1709298405.196,-27.832,-6.836,19.531,-29.297,0.000
1709298405.200,-36.133,-4.883,19.043,-49.316,0.000
1709298405.204,-52.734,-4.395,19.043,-53.711,0.000
1709298405.208,-56.152,-1.953,20.020,-32.715,0.000
1709298405.212,-46.875,-7.812,23.438,-22.949,0.000
1709298405.216,-35.645,-18.555,21.973,-29.297,0.000
1709298405.220,-45.410,-15.137,16.113,-45.898,0.000
1709298405.224,-70.312,-21.484,12.695,-58.105,0.000
1709298405.227,-69.336,-20.020,15.625,-46.387,0.000
1709298405.231,-40.527,-14.648,17.090,-22.461,0.000
1709298405.235,-30.273,-20.508,20.508,-12.207,0.000
1709298405.239,-45.898,-16.113,21.484,-40.527,0.000
1709298405.243,-61.523,-10.254,21.973,-51.758,0.000
1709298405.247,-53.223,-15.625,22.461,-40.039,0.000
1709298405.251,-26.855,-20.508,19.531,-23.926,0.000
1709298405.255,-34.180,-23.438,19.531,-15.625,0.000
1709298405.259,-58.594,-23.926,19.043,-27.344,0.000
1709298405.263,-74.219,-24.902,21.484,-46.875,0.000
1709298405.267,-57.129,-26.855,22.949,-38.086,0.000
1709298405.271,-30.273,-28.809,21.484,-20.996,0.000
1709298405.274,-16.602,-25.391,20.020,-20.508,0.000
1709298405.278,-15.137,-21.484,24.414,-17.578,0.000
1709298405.282,-38.574,-22.949,23.438,-41.016,0.000
1709298405.286,-44.922,-23.926,12.207,-55.664,0.000
1709298405.290,-16.602,-22.461,13.672,-18.555,0.000
1709298405.294,-5.371,-20.508,17.090,-16.113,0.000
1709298405.298,-15.625,-18.066,12.695,-37.598,0.000
1709298405.302,-31.250,-16.113,13.672,-41.992,0.000
1709298405.306,-19.531,-17.090,13.672,-39.551,0.000
1709298405.310,11.230,-16.113,14.648,-27.344,0.000
1709298405.313,-3.906,-22.461,15.625,-23.926,0.000
1709298405.317,-8.789,-20.508,19.043,-28.320,0.000
1709298405.321,-11.719,-16.113,20.508,-41.504,0.000
1709298405.325,-24.902,-27.832,18.066,-35.156,0.000
1709298405.329,-4.395,-23.438,16.113,-18.555,0.000
1709298405.333,15.137,-18.555,13.672,-9.277,0.000
1709298405.337,11.230,-25.391,13.672,-16.113,0.000
1709298405.341,-10.254,-19.531,13.184,-34.180,0.000
1709298405.345,-24.902,-20.996,14.160,-40.039,0.000
1709298405.349,-9.277,-28.809,17.578,-21.973,0.000
1709298405.352,-5.859,-28.809,10.742,-7.812,0.000
1709298405.356,-13.672,-25.879,8.301,-12.695,0.000
1709298405.360,-22.949,-27.832,15.625,-30.273,0.000
1709298405.364,-39.551,-24.902,14.160,-43.945,0.000
1709298405.368,-24.902,-21.484,15.137,-27.344,0.000
1709298405.372,-4.883,-22.461,16.113,-1.465,0.000
1709298405.376,-13.672,-22.949,15.625,-10.742,0.000
1709298405.380,-29.785,-27.832,16.113,-40.039,0.000
1709298405.384,-37.109,-29.297,16.113,-31.738,0.000
1709298405.388,-41.504,-22.949,9.766,-21.484,0.000
1709298405.391,-24.414,-16.113,13.184,-24.902,0.000
1709298405.395,-10.254,-20.020,18.555,-20.508,0.000
1709298405.399,-28.809,-30.273,17.090,-30.273,0.000
1709298405.403,-41.992,-40.527,23.438,-40.527,0.000
1709298405.407,-41.016,-41.016,22.461,-26.855,0.000
1709298405.411,-17.578,-27.832,15.625,-12.207,0.000
1709298405.415,-0.488,-25.391,18.555,-7.324,0.000
1709298405.419,-29.297,-30.762,19.043,-28.320,0.000
1709298405.423,-54.199,-31.738,11.230,-44.434,0.000
1709298405.427,-58.105,-31.738,12.695,-33.691,0.000
1709298405.431,-45.898,-21.973,14.648,-12.695,0.000
1709298405.434,-30.762,-18.066,14.160,-9.277,0.000
1709298405.438,-37.109,-25.391,16.602,-25.391,0.000
1709298405.442,-50.293,-22.461,17.090,-32.227,0.000
1709298405.446,-57.129,-20.996,11.719,-25.391,0.000
1709298405.450,-44.434,-21.973,9.277,-9.277,0.000
1709298405.454,-13.184,-29.297,14.648,-7.324,0.000
1709298405.458,-16.602,-35.156,18.066,-5.371,0.000
1709298405.462,-46.387,-31.250,18.066,-14.160,0.000
1709298405.465,-59.570,-29.785,19.043,-23.926,0.000
1709298405.469,-41.504,-28.320,20.020,-2.441,0.000
1709298405.473,-22.461,-27.344,17.578,1.465,0.000
1709298405.477,-25.879,-26.855,19.531,-4.883,0.000
1709298405.481,-41.992,-24.414,18.555,-28.320,0.000
1709298405.485,-47.852,-33.691,19.531,-31.738,0.000
1709298405.489,-35.156,-37.598,19.531,-8.789,0.000
1709298405.493,-9.766,-24.902,13.184,-8.301,0.000
1709298405.496,-8.301,-24.902,12.207,-27.832,0.000
1709298405.500,-42.480,-27.344,12.695,-34.668,0.000
1709298405.504,-54.199,-22.949,11.230,-28.320,0.000
1709298405.508,-40.527,-17.578,19.531,-15.137,0.000
1709298405.512,-21.973,-20.508,23.438,-3.906,0.000
1709298405.516,-32.227,-26.367,15.625,-30.762,0.000
1709298405.520,-44.434,-18.555,20.020,-46.875,0.000
1709298405.524,-53.223,-14.160,26.367,-37.109,0.000
1709298405.528,-50.293,-12.695,22.949,-19.043,0.000
1709298405.532,-21.973,-6.348,24.902,-2.930,0.000
1709298405.536,-19.043,-6.836,26.855,-7.812,0.000
1709298405.540,-37.598,-14.648,16.602,-36.621,0.000
1709298405.544,-30.273,-5.371,18.555,-39.062,0.000
1709298405.547,-36.621,-0.977,26.367,-4.883,0.000
1709298405.551,-44.922,-23.438,19.043,2.930,0.000
1709298405.555,-39.062,-29.785,14.160,-20.508,0.000
1709298405.559,-50.781,-19.043,16.602,-36.133,0.000
1709298405.563,-49.805,-15.137,20.996,-22.949,0.000
1709298405.567,-50.293,-25.879,14.160,-5.859,0.000
1709298405.571,-34.668,-25.391,10.254,-8.301,0.000
1709298405.575,-22.461,-14.160,12.695,-6.348,0.000
1709298405.579,-30.273,-14.648,11.719,-22.461,0.000
1709298405.583,-40.527,-17.578,20.508,-28.809,0.000
1709298405.587,-54.688,-12.695,21.484,-5.371,0.000
1709298405.591,-34.180,-15.137,20.020,8.301,0.000
1709298405.594,-18.066,-22.949,23.926,5.859,0.000
1709298405.598,-13.184,-22.461,25.879,-19.043,0.000
1709298405.602,-7.324,-18.555,24.902,-38.574,0.000
1709298405.606,-30.273,-24.902,22.461,-15.625,0.000
1709298405.610,-27.832,-34.180,23.438,13.184,0.000
1709298405.614,-15.137,-37.109,16.113,-12.207,0.000
1709298405.618,-14.648,-26.855,14.648,-28.320,0.000
1709298405.622,-27.832,-15.625,20.508,-28.809,0.000
1709298405.626,-37.109,-19.043,18.555,-22.949,0.000
1709298405.630,-11.719,-21.973,15.137,-1.465,0.000
1709298405.634,7.812,-20.508,16.602,2.930,0.000
1709298405.638,-3.906,-11.719,20.508,-7.812,0.000
1709298405.641,-18.555,-1.465,28.320,-15.625,0.000
1709298405.645,-24.902,-5.859,17.578,-21.973,0.000
1709298405.649,-23.926,-15.625,13.184,-17.578,0.000
1709298405.653,8.301,-14.648,26.367,4.883,0.000
1709298405.657,-3.906,-1.953,20.996,-6.348,0.000
1709298405.661,-53.223,-2.930,14.648,-37.109,0.000
1709298405.665,-55.176,-20.020,17.090,-37.598,0.000
1709298405.669,-46.875,-19.531,12.695,-31.250,0.000
1709298405.673,-39.062,-11.719,12.695,-24.902,0.000
1709298405.677,-35.645,-18.555,11.719,-33.691,0.000
1709298405.680,-50.293,-16.113,10.742,-46.387,0.000
1709298405.684,-51.758,-6.348,15.625,-41.504,0.000
1709298405.688,-45.410,-11.230,15.625,-26.367,0.000
1709298405.692,-35.645,-26.855,15.137,-17.090,0.000
1709298405.696,-29.785,-24.902,13.672,-26.855,0.000
1709298405.700,-61.035,-17.090,14.160,-41.992,0.000
1709298405.704,-78.613,-18.066,17.090,-52.734,0.000
1709298405.708,-67.871,-21.484,19.043,-33.203,0.000
1709298405.712,-30.273,-16.602,23.926,-6.348,0.000
1709298405.716,-25.391,-10.254,27.344,-20.508,0.000
1709298405.720,-56.641,-14.648,23.438,-46.875,0.000
1709298405.723,-66.895,-9.766,15.137,-42.969,0.000
1709298405.727,-53.223,-16.602,16.113,-13.672,0.000
1709298405.731,-36.133,-23.438,20.508,-3.906,0.000
1709298405.735,-37.109,-15.625,20.996,-20.508,0.000
1709298405.739,-44.434,-21.973,21.973,-45.410,0.000
1709298405.743,-60.547,-26.855,21.973,-56.152,0.000
1709298405.747,-54.688,-25.879,20.996,-46.875,0.000
1709298405.751,-38.574,-22.949,12.695,-35.645,0.000
1709298405.755,-37.598,-22.949,7.812,-29.297,0.000
1709298405.759,-37.598,-25.391,9.766,-41.992,0.000
1709298405.762,-43.457,-27.344,10.742,-48.828,0.000
1709298405.766,-26.855,-28.809,17.578,-41.992,0.000
1709298405.770,-23.926,-23.438,17.578,-21.973,0.000
1709298405.774,-19.531,-18.555,14.160,-20.508,0.000
1709298405.778,-21.484,-22.461,16.113,-38.086,0.000
1709298405.782,-41.016,-21.484,17.090,-39.062,0.000
1709298405.786,-39.062,-18.066,13.184,-29.297,0.000
1709298405.790,-19.043,-21.973,14.160,-9.766,0.000
1709298405.794,-6.836,-19.043,8.301,-8.789,0.000
1709298405.798,-26.367,-12.695,5.859,-28.809,0.000
1709298405.801,-49.805,-16.602,10.742,-42.480,0.000
1709298405.805,-47.363,-22.949,3.906,-30.762,0.000
1709298405.809,-25.391,-15.137,0.977,-20.996,0.000
1709298405.813,-23.926,-10.742,1.465,-24.414,0.000
1709298405.817,-34.180,-21.973,1.953,-34.668,0.000
1709298405.821,-44.434,-22.949,6.836,-44.434,0.000
1709298405.825,-36.133,-14.160,12.207,-42.969,0.000
1709298405.829,-32.715,-12.695,16.113,-20.508,0.000
1709298405.833,-31.738,-16.602,12.207,4.883,0.000
1709298405.836,-22.949,-16.602,9.766,-16.602,0.000
1709298405.840,-40.039,-9.766,11.230,-35.645,0.000
1709298405.844,-57.129,-9.277,12.695,-26.855,0.000
1709298405.848,-40.527,-17.090,15.137,-14.160,0.000
1709298405.852,-13.184,-17.090,15.625,-1.465,0.000
1709298405.856,-13.184,-19.043,15.625,-10.254,0.000
1709298405.860,-16.602,-18.066,20.020,-22.461,0.000
1709298405.864,-27.832,-15.625,20.508,-27.344,0.000
1709298405.867,-32.227,-16.602,14.648,-20.996,0.000
1709298405.871,-21.484,-8.789,19.531,-9.277,0.000
1709298405.875,-16.113,-11.230,21.973,-8.789,0.000
1709298405.879,-24.902,-15.137,17.090,-21.484,0.000
1709298405.883,-37.109,-10.742,18.066,-36.621,0.000
1709298405.887,-53.223,-8.301,19.043,-26.367,0.000
1709298405.891,-43.457,-5.371,22.461,-0.488,0.000
1709298405.895,-26.367,-2.930,24.414,-0.488,0.000
1709298405.899,-34.180,-15.137,13.184,-42.480,0.000
1709298405.903,-38.574,-16.602,8.789,-53.223,0.000
1709298405.907,-41.992,-9.277,12.207,-34.180,0.000
1709298405.911,-35.645,-11.230,14.160,-24.902,0.000
1709298405.915,-26.367,-22.461,13.672,-25.879,0.000
1709298405.919,-40.527,-23.926,14.160,-35.156,0.000
1709298405.923,-41.992,-14.648,22.461,-41.016,0.000
1709298405.927,-29.297,-8.789,21.973,-23.438,0.000
1709298405.931,-29.785,-6.348,14.160,-15.137,0.000
1709298405.935,-20.508,-9.766,17.578,-16.113,0.000
1709298405.938,-22.461,-11.230,20.508,-25.391,0.000
1709298405.942,-50.781,-11.230,12.207,-41.504,0.000
1709298405.946,-50.293,-12.207,14.160,-32.227,0.000
1709298405.950,-19.531,-9.277,13.672,-5.859,0.000
1709298405.954,-20.508,-0.977,8.789,-17.090,0.000
1709298405.958,-37.598,-2.930,8.301,-39.551,0.000
1709298405.962,-40.527,-8.301,16.113,-41.016,0.000
1709298405.966,-49.805,-13.672,24.902,-33.691,0.000
1709298405.970,-36.133,-13.184,20.020,-16.113,0.000
1709298405.974,-18.555,-11.230,9.766,-8.301,0.000
1709298405.978,-20.996,-16.602,14.648,-16.113,0.000
1709298405.982,-44.922,-17.090,13.672,-22.461,0.000
1709298405.985,-53.711,-14.160,9.277,-24.414,0.000
1709298405.989,-30.762,-20.020,17.578,-12.695,0.000
1709298405.993,-13.184,-26.367,14.160,-4.395,0.000
1709298405.997,-12.207,-15.137,15.625,-9.766,0.000
1709298406.001,-27.832,-8.301,20.508,-22.949,0.000
1709298406.005,-33.691,-10.742,13.672,-37.109,0.000
1709298406.009,-19.043,-6.836,19.043,-26.367,0.000
1709298406.013,-23.926,-1.465,25.879,-12.695,0.000
1709298406.017,-25.879,-3.906,24.902,-10.254,0.000
1709298406.021,-30.273,-16.602,20.508,-33.691,0.000
1709298406.025,-46.387,-26.367,19.043,-47.363,0.000
1709298406.029,-41.504,-18.066,26.855,-13.184,0.000
1709298406.032,-25.879,-8.301,29.297,-1.465,0.000
1709298406.036,-14.648,-7.812,23.438,-29.785,0.000
1709298406.040,-24.414,-6.348,20.996,-35.645,0.000
1709298406.044,-40.039,-11.230,18.555,-41.016,0.000
1709298406.048,-33.203,-9.766,22.461,-32.715,0.000
1709298406.052,-27.832,-10.254,20.508,-16.113,0.000
1709298406.056,-17.578,-20.508,15.137,-23.926,0.000
1709298406.060,-5.371,-28.809,20.996,-26.855,0.000
1709298406.064,-38.086,-26.855,20.996,-26.855,0.000
1709298406.068,-65.918,-20.020,13.672,-32.227,0.000
1709298406.071,-34.180,-20.508,14.160,-18.066,0.000
1709298406.075,-18.555,-21.973,18.066,-0.977,0.000
1709298406.079,-34.180,-17.090,10.254,-30.273,0.000
1709298406.083,-36.621,-15.625,14.648,-38.086,0.000
1709298406.087,-35.156,-21.484,18.555,-16.113,0.000
1709298406.091,-20.020,-24.414,12.695,-8.789,0.000
1709298406.095,-2.441,-22.949,8.789,-20.020,0.000
1709298406.099,-3.906,-24.902,9.766,-38.574,0.000
1709298406.103,-19.531,-21.973,12.695,-40.527,0.000
1709298406.107,-26.855,-23.926,13.184,-28.320,0.000
1709298406.110,-9.766,-23.438,15.625,-5.859,0.000
1709298406.114,27.344,-12.695,18.555,-7.324,0.000
1709298406.118,26.367,-18.555,19.531,-15.137,0.000
1709298406.122,-20.508,-26.367,13.672,-25.879,0.000
1709298406.126,-26.855,-18.066,9.766,-35.645,0.000
1709298406.130,-9.277,-15.625,19.043,-15.137,0.000
1709298406.134,-6.348,-32.715,16.602,-14.160,0.000
1709298406.138,-18.555,-40.527,9.277,-33.691,0.000
1709298406.142,-29.785,-36.133,11.230,-51.270,0.000
1709298406.145,-38.086,-32.715,9.766,-43.945,0.000
1709298406.149,-17.578,-20.996,14.648,-14.648,0.000
1709298406.153,0.488,-18.066,16.602,-6.348,0.000
1709298406.157,0.000,-20.020,14.648,-20.020,0.000
1709298406.161,-8.301,-17.578,18.066,-30.762,0.000
1709298406.165,-17.578,-20.020,17.090,-22.949,0.000
1709298406.169,-5.371,-24.902,12.695,-27.832,0.000
1709298406.173,-10.254,-33.203,14.160,-23.926,0.000
1709298406.177,-22.949,-28.320,18.555,-13.184,0.000
1709298406.181,-30.762,-27.344,15.137,-25.879,0.000
1709298406.184,-45.410,-27.344,16.602,-33.691,0.000
1709298406.188,-34.180,-20.020,21.973,-20.020,0.000
1709298406.192,-16.113,-26.367,23.438,-7.812,0.000
1709298406.196,-9.277,-25.391,12.207,-15.625,0.000
1709298406.200,-29.297,-19.043,9.766,-29.785,0.000
1709298406.204,-43.457,-15.137,21.484,-28.809,0.000
1709298406.208,-32.715,-16.602,24.414,-4.883,0.000
1709298406.212,-20.020,-23.438,15.625,3.418,0.000
1709298406.216,-20.996,-26.367,8.789,-15.137,0.000
1709298406.220,-26.855,-27.832,12.695,-28.809,0.000
1709298406.223,-29.297,-26.367,15.625,-36.133,0.000
1709298406.227,-26.855,-28.320,19.531,-24.414,0.000
1709298406.231,-23.438,-31.738,18.555,-1.465,0.000
1709298406.235,-12.207,-22.949,16.602,-5.371,0.000
1709298406.239,-26.855,-22.949,20.508,-24.414,0.000
1709298406.243,-50.781,-30.762,15.625,-28.809,0.000
1709298406.247,-49.316,-24.414,9.766,-20.996,0.000
1709298406.251,-24.414,-16.602,18.555,-2.441,0.000
1709298406.254,-9.277,-23.438,25.391,7.324,0.000
1709298406.258,-28.809,-21.973,20.996,-16.113,0.000
1709298406.262,-50.781,-20.508,10.742,-35.645,0.000
1709298406.266,-46.387,-28.320,16.113,-25.391,0.000
1709298406.270,-24.902,-31.738,24.902,-6.836,0.000
1709298406.274,-13.184,-32.715,21.484,-8.301,0.000
1709298406.278,-16.602,-23.926,23.438,-21.973,0.000
1709298406.281,-29.785,-23.926,24.902,-29.297,0.000
1709298406.285,-52.246,-19.531,19.531,-31.738,0.000
1709298406.289,-48.828,-9.766,14.160,-30.273,0.000
1709298406.293,-27.832,-16.602,21.484,-20.508,0.000
1709298406.297,-29.785,-25.879,23.926,-28.320,0.000
1709298406.301,-47.852,-24.414,15.625,-44.434,0.000
1709298406.305,-60.547,-22.949,10.254,-42.969,0.000
1709298406.309,-37.598,-27.832,12.207,-19.531,0.000
1709298406.313,-12.695,-36.621,16.602,-7.812,0.000
1709298406.317,-25.391,-36.621,14.160,-32.227,0.000
1709298406.321,-40.527,-20.996,16.602,-41.992,0.000
1709298406.325,-49.316,-11.719,25.391,-27.832,0.000
1709298406.328,-40.527,-16.602,26.855,-11.719,0.000
1709298406.332,-6.348,-14.648,26.367,6.348,0.000
1709298406.336,-13.184,-13.672,22.461,-13.184,0.000
1709298406.340,-42.480,-18.555,20.996,-28.809,0.000
1709298406.344,-45.410,-21.484,20.020,-20.508,0.000
1709298406.348,-34.668,-20.020,21.973,-12.695,0.000
1709298406.352,-16.602,-20.020,24.414,-3.906,0.000
1709298406.356,-11.230,-28.809,30.762,-1.953,0.000
1709298406.360,-28.320,-24.902,28.320,-16.113,0.000
1709298406.364,-45.410,-16.602,20.508,-28.809,0.000
1709298406.368,-30.762,-14.160,21.973,-19.531,0.000
1709298406.372,-18.066,-14.160,17.578,-8.789,0.000
1709298406.375,-25.879,-17.090,11.230,-15.625,0.000
1709298406.379,-30.273,-14.160,14.648,-31.738,0.000
1709298406.383,-25.879,-7.324,16.602,-29.297,0.000
1709298406.387,-35.645,-14.160,18.066,-15.625,0.000
1709298406.391,-34.180,-22.949,23.926,-1.953,0.000
1709298406.395,-21.484,-22.949,24.902,-13.672,0.000
1709298406.399,-32.715,-19.043,24.414,-30.762,0.000
1709298406.403,-47.852,-8.789,27.832,-23.438,0.000
1709298406.407,-50.781,-6.348,21.973,-17.090,0.000
1709298406.411,-34.668,-9.766,12.695,-23.438,0.000
1709298406.415,-16.113,-16.602,14.648,-20.996,0.000
1709298406.418,-28.809,-18.066,12.695,-31.250,0.000
1709298406.422,-46.387,-17.090,19.043,-46.875,0.000
1709298406.426,-46.387,-19.531,23.926,-38.574,0.000
1709298406.430,-48.828,-21.973,16.602,-17.090,0.000
1709298406.434,-44.434,-28.320,13.184,-11.230,0.000
1709298406.438,-38.086,-27.832,10.254,-31.738,0.000
1709298406.442,-63.965,-20.020,4.395,-55.176,0.000
1709298406.446,-38.574,-14.648,5.859,-30.762,0.000
1709298406.450,-11.230,-15.625,9.277,-11.719,0.000
1709298406.454,-36.621,-16.113,8.301,-27.832,0.000
1709298406.458,-32.715,-15.137,11.719,-31.738,0.000
1709298406.461,-47.852,-16.602,20.020,-50.293,0.000
1709298406.465,0.000,-6.836,23.926,-48.340,0.000
1709298406.469,0.000,-2.441,20.996,-17.090,0.000
1709298406.473,0.000,-18.555,16.602,-10.254,0.000
1709298406.477,0.000,-25.879,16.602,-30.762,0.000
1709298406.481,0.000,-22.949,6.836,-41.992,0.000
1709298406.485,0.000,-24.902,9.766,-29.297,0.000
1709298406.489,0.000,-25.391,13.184,-16.602,0.000
1709298406.493,0.000,-27.832,13.672,-4.395,0.000
1709298406.497,0.000,-27.832,11.719,-14.160,0.000
1709298406.501,0.000,-22.949,4.395,-41.504,0.000
1709298406.504,0.000,-14.160,14.160,-32.227,0.000
1709298406.508,0.000,-13.672,22.461,-9.766,0.000
1709298406.512,-30.273,-27.344,18.555,-6.836,0.000
1709298406.516,-34.668,-26.855,18.555,-21.973,0.000
1709298406.520,-33.691,-24.902,19.531,-35.156,0.000
1709298406.524,-42.969,-29.297,18.066,-35.156,0.000
1709298406.528,-41.992,-20.996,17.090,-19.531,0.000
1709298406.532,-26.367,-13.184,12.207,-6.348,0.000
1709298406.536,-25.391,-6.836,18.066,-11.719,0.000
1709298406.540,-44.922,-8.301,13.184,-31.738,0.000
1709298406.543,-61.523,-18.555,1.953,-48.340,0.000
1709298406.547,-50.293,-21.484,7.812,-37.598,0.000
1709298406.551,-32.227,-27.344,11.719,-18.066,0.000
1709298406.555,-25.879,-40.039,7.812,-22.949,0.000
1709298406.559,-25.879,-31.250,9.766,-41.992,0.000
1709298406.563,-45.898,-16.602,16.113,-44.434,0.000
1709298406.567,-46.875,-9.766,21.973,-27.344,0.000
1709298406.571,-32.227,-9.766,16.113,-23.438,0.000
1709298406.575,-26.367,-14.648,9.766,-33.203,0.000
1709298406.578,-14.648,-13.672,8.789,-44.922,0.000
1709298406.582,-41.504,-14.160,9.766,-36.133,0.000
1709298406.586,-63.965,-12.207,8.789,-24.902,0.000
1709298406.590,-36.133,-14.160,3.418,-23.438,0.000
1709298406.594,-20.996,-21.973,10.742,-13.184,0.000
1709298406.598,-36.133,-20.020,14.160,-26.367,0.000
1709298406.602,-41.016,-19.043,12.695,-35.156,0.000
1709298406.606,-44.922,-17.578,13.672,-21.973,0.000
1709298406.609,-33.691,-23.926,18.066,-0.977,0.000
1709298406.613,-14.648,-25.391,16.602,1.465,0.000
1709298406.617,-25.879,-10.742,7.812,-17.578,0.000
1709298406.621,-40.039,-5.371,13.184,-28.320,0.000
1709298406.625,-38.574,-10.742,14.160,-18.555,0.000
1709298406.629,-33.691,-14.160,5.859,2.441,0.000
1709298406.633,-12.207,-11.719,1.953,1.465,0.000
1709298406.637,-3.906,-17.578,6.836,-20.996,0.000
1709298406.641,-34.668,-17.578,14.160,-26.367,0.000
1709298406.645,-47.363,-7.812,16.602,-29.785,0.000
1709298406.648,-38.086,-5.859,17.090,-26.367,0.000
1709298406.653,-14.160,-5.371,19.531,-4.883,0.000
1709298406.657,-14.160,-5.371,18.555,-10.742,0.000
1709298406.660,-34.180,-7.324,18.555,-27.344,0.000
1709298406.664,-40.527,-4.395,26.855,-31.250,0.000
1709298406.668,-24.902,0.000,30.273,-18.555,0.000
1709298406.672,-10.742,-1.465,25.879,-3.906,0.000
1709298406.676,-16.113,-5.371,18.555,-16.602,0.000
1709298406.680,-33.203,-13.184,18.066,-41.504,0.000
1709298406.684,-38.086,-18.066,22.461,-41.992,0.000
1709298406.688,-31.738,-4.883,24.414,-11.230,0.000
1709298406.692,-28.320,1.953,22.461,2.441,0.000
1709298406.696,-3.906,-7.812,18.066,-12.207,0.000
1709298406.700,-18.555,-8.301,19.043,-26.855,0.000
1709298406.704,-46.387,-6.348,20.996,-35.156,0.000
1709298406.707,-33.203,2.441,30.762,-15.137,0.000
1709298406.711,-23.926,6.836,29.297,3.418,0.000
1709298406.715,-5.859,0.000,20.020,-5.371,0.000
1709298406.719,-14.648,0.000,22.461,-23.926,0.000
1709298406.723,-41.504,2.930,20.508,-31.250,0.000
1709298406.727,-36.621,-5.371,23.926,-19.043,0.000
1709298406.731,-30.273,-11.230,31.738,-3.906,0.000
1709298406.735,-26.855,-0.488,25.879,1.465,0.000
1709298406.739,-23.926,1.465,20.996,-21.484,0.000
1709298406.743,-41.992,-15.625,23.926,-38.574,0.000
1709298406.747,-49.805,-5.371,17.578,-22.461,0.000
1709298406.751,-23.926,14.160,14.160,-10.742,0.000
1709298406.754,-20.508,14.648,16.113,-12.207,0.000
1709298406.758,-32.715,5.859,18.066,-21.973,0.000
1709298406.762,-34.668,-3.906,20.508,-33.691,0.000
1709298406.766,-37.598,-14.648,10.254,-31.738,0.000
1709298406.770,-33.691,-11.230,7.812,-21.973,0.000
1709298406.774,-14.160,-5.859,16.602,-18.555,0.000
1709298406.778,-11.230,-14.160,16.113,-23.438,0.000
1709298406.782,-37.598,0.488,8.789,-31.250,0.000
1709298406.786,-60.547,11.230,3.418,-30.273,0.000
1709298406.790,-48.828,-0.488,11.719,-11.230,0.000
1709298406.793,-28.809,1.465,8.789,-18.066,0.000
1709298406.797,-33.203,3.418,3.906,-36.133,0.000
1709298406.801,-32.715,-1.953,7.812,-46.875,0.000
1709298406.805,-36.133,5.859,12.695,-38.086,0.000
1709298406.809,-46.387,7.324,16.113,-21.484,0.000
1709298406.813,-30.273,2.930,8.789,-15.137,0.000
1709298406.817,-27.832,1.465,1.465,-33.203,0.000
1709298406.821,-49.316,-4.395,3.906,-37.109,0.000
1709298406.825,-55.176,-3.906,6.348,-16.113,0.000
1709298406.829,-41.992,5.859,5.371,-8.789,0.000
1709298406.833,-27.832,5.859,13.184,-1.953,0.000
1709298406.836,-35.645,-3.906,14.648,-9.766,0.000
1709298406.841,-44.434,-0.977,9.277,-34.180,0.000
1709298406.845,-47.852,1.465,10.742,-44.434,0.000
1709298406.849,-36.133,4.883,8.301,-29.785,0.000
1709298406.853,-16.602,5.859,2.930,-14.160,0.000
1709298406.856,1.465,-0.488,4.395,-19.043,0.000
1709298406.860,0.488,-3.906,10.254,-34.668,0.000
1709298406.864,-24.414,-2.441,13.184,-35.645,0.000
1709298406.868,-7.812,4.883,14.160,-3.906,0.000
1709298406.872,5.859,20.020,10.254,13.184,0.000
1709298406.876,-4.395,17.090,2.930,-11.719,0.000
1709298406.880,-11.719,5.859,6.348,-38.574,0.000
1709298406.884,-23.438,10.742,4.883,-53.223,0.000
1709298406.888,-26.855,8.301,0.000,-37.109,0.000
1709298406.891,-11.230,0.977,1.465,-24.902,0.000
1709298406.895,3.906,-0.977,0.977,-24.414,0.000
1709298406.899,-8.301,-6.348,4.395,-36.133,0.000
1709298406.903,-31.738,4.883,8.789,-45.898,0.000
1709298406.907,-27.832,-1.465,8.789,-29.297,0.000
1709298406.911,-13.184,-13.672,15.137,-15.137,0.000
1709298406.915,14.648,1.953,15.625,-14.648,0.000
1709298406.919,-1.953,5.371,13.672,-28.809,0.000
1709298406.923,-41.992,-4.883,11.719,-41.504,0.000
1709298406.927,-29.297,-4.883,16.113,-26.855,0.000
1709298406.931,-13.672,-17.578,14.648,-5.859,0.000
1709298406.934,-2.930,-14.160,7.324,-8.301,0.000
1709298406.938,-8.301,-0.977,12.695,-20.020,0.000
1709298406.942,-23.926,-10.254,14.648,-37.109,0.000
1709298406.946,-27.832,-13.184,15.625,-31.738,0.000
1709298406.950,-19.043,-8.301,17.090,-13.184,0.000
1709298406.954,-2.441,-5.371,13.672,-5.371,0.000
1709298406.958,0.000,-11.719,14.160,2.930,0.000
1709298406.962,-31.250,-17.090,18.066,-5.859,0.000
1709298406.966,-39.551,-9.277,15.625,-28.320,0.000
1709298406.969,-13.672,-5.859,17.090,-10.742,0.000
1709298406.973,-15.137,-2.930,27.832,11.719,0.000
1709298406.977,-25.879,-7.324,27.344,2.441,0.000
1709298406.981,-37.598,-18.066,19.043,-15.625,0.000
1709298406.985,-38.574,-11.230,24.414,-21.484,0.000
1709298406.989,-31.250,-5.859,23.926,-15.625,0.000
1709298406.993,-26.855,-7.324,12.207,2.441,0.000
1709298406.997,-18.066,-1.465,13.672,1.465,0.000
1709298407.000,-33.203,-0.488,24.414,-15.137,0.000
1709298407.004,-42.969,2.930,25.879,-8.301,0.000
1709298407.008,-28.320,4.883,19.531,-4.395,0.000
1709298407.012,-24.902,0.977,25.879,-6.836,0.000
1709298407.016,-29.785,-13.184,26.855,-16.113,0.000
1709298407.020,-44.922,-18.555,23.926,-28.320,0.000
1709298407.024,-66.406,-16.113,23.926,-33.691,0.000
1709298407.028,-59.570,-13.672,19.531,-20.996,0.000
1709298407.031,-27.832,-11.719,16.602,-12.695,0.000
1709298407.035,-27.344,-9.277,14.160,-27.344,0.000
1709298407.039,-48.828,-10.254,19.531,-40.039,0.000
1709298407.043,-61.523,-13.672,26.855,-38.574,0.000
1709298407.047,-55.176,-10.254,27.832,-13.672,0.000
1709298407.051,-37.109,-15.625,23.438,6.836,0.000
1709298407.055,-40.039,-16.602,12.207,-11.719,0.000
1709298407.059,-41.992,-6.836,18.066,-31.250,0.000
1709298407.063,-40.039,-13.672,29.785,-23.926,0.000
1709298407.067,-43.945,-19.043,16.602,-15.625,0.000
1709298407.070,-32.715,-6.348,15.137,-5.859,0.000
1709298407.075,-19.043,0.000,0.000,-9.277,0.000
1709298407.079,-13.672,-5.371,0.000,-26.367,0.000
1709298407.083,-28.320,-17.090,0.000,-28.809,0.000
1709298407.086,-31.250,-26.367,0.000,-24.414,0.000
1709298407.090,-6.348,-25.391,0.000,-10.254,0.000
1709298407.094,-0.488,-15.625,0.000,-1.953,0.000
1709298407.098,-19.043,-3.418,0.000,-21.973,0.000
1709298407.102,-40.527,-5.371,0.000,-37.109,0.000
1709298407.106,-39.062,-14.160,0.000,-32.715,0.000
1709298407.110,-28.320,-18.555,0.000,-21.484,0.000
1709298407.114,-27.832,-13.184,0.000,-22.461,0.000
1709298407.118,-37.109,-8.301,0.000,-37.109,0.000
1709298407.122,0.000,-20.508,10.742,-47.363,0.000
1709298407.126,0.000,-26.367,11.230,-42.480,0.000
1709298407.130,0.000,-25.391,5.859,-29.785,0.000
1709298407.133,0.000,-25.391,9.277,-18.066,0.000
1709298407.137,0.000,-20.996,11.719,-25.879,0.000
1709298407.141,0.000,-15.137,10.742,-33.203,0.000
1709298407.145,0.000,-12.695,11.230,-35.156,0.000
1709298407.149,0.000,-10.742,8.789,-17.578,0.000
1709298407.153,0.000,-7.812,14.160,11.230,0.000
1709298407.157,0.000,-7.812,21.484,-5.859,0.000
1709298407.161,0.000,-9.766,21.973,-30.762,0.000
1709298407.165,0.000,-10.742,26.855,-17.578,0.000
1709298407.169,-15.625,3.418,24.414,-4.883,0.000
1709298407.172,-8.789,4.883,11.230,-4.395,0.000
1709298407.176,-8.301,-3.906,10.254,-15.137,0.000
1709298407.180,-20.020,-3.418,21.484,-23.438,0.000
1709298407.184,-23.926,1.953,25.391,-16.602,0.000
1709298407.188,-15.625,-7.324,21.484,-0.488,0.000
1709298407.192,7.812,-7.812,15.625,7.812,0.000
1709298407.196,4.883,0.488,20.996,3.418,0.000
1709298407.200,-27.832,-1.465,20.996,-8.301,0.000
1709298407.204,-46.875,-4.395,5.859,-22.949,0.000
1709298407.208,-43.457,-12.695,3.418,-14.160,0.000
1709298407.212,-16.602,-8.789,12.207,-3.418,0.000
1709298407.215,-17.090,-8.789,13.184,-21.973,0.000
1709298407.219,-47.852,-17.578,12.207,-39.062,0.000
1709298407.223,-51.270,-7.812,18.555,-25.391,0.000
1709298407.227,-39.062,-3.906,20.508,-16.602,0.000
1709298407.231,-25.391,-15.625,14.160,-11.230,0.000
1709298407.235,-10.742,-18.555,16.602,-8.789,0.000
1709298407.239,-20.996,-12.207,15.625,-28.809,0.000
1709298407.243,-46.875,-12.207,16.113,-29.297,0.000
1709298407.247,-33.691,-12.207,19.531,-17.090,0.000
1709298407.251,-14.160,-8.789,17.090,-6.836,0.000
1709298407.254,-29.785,-12.207,18.555,-3.418,0.000
1709298407.258,-25.391,-15.625,24.414,-8.301,0.000
1709298407.262,-41.504,-13.184,27.832,-23.438,0.000
1709298407.266,-52.246,-16.113,26.855,-33.203,0.000
1709298407.270,-37.109,-22.949,22.461,-15.625,0.000
1709298407.274,-28.809,-20.996,14.648,-5.859,0.000
1709298407.278,-30.762,-17.090,15.625,-21.484,0.000
1709298407.282,-37.109,-11.230,20.996,-25.391,0.000
1709298407.286,-38.086,-9.277,23.926,-7.324,0.000
1709298407.290,-20.508,-13.672,19.531,18.555,0.000
1709298407.293,-13.672,-5.859,15.625,11.230,0.000
1709298407.297,-23.438,-6.348,20.020,-11.230,0.000
1709298407.301,-16.113,-7.324,27.832,-10.254,0.000
1709298407.305,-20.020,-5.371,26.367,-7.324,0.000
1709298407.309,-35.645,-9.766,17.578,6.348,0.000
1709298407.313,-13.672,-9.766,20.996,20.508,0.000
1709298407.317,-1.953,-14.648,24.414,-0.977,0.000
1709298407.321,-25.391,-20.508,16.602,-31.738,0.000
1709298407.325,-41.016,-9.277,10.254,-26.367,0.000
1709298407.328,-29.297,0.488,10.742,-3.418,0.000
1709298407.332,-7.324,-3.418,15.625,12.695,0.000
1709298407.336,2.930,-8.789,20.508,10.254,0.000
1709298407.340,-17.090,-11.719,16.113,-16.602,0.000
1709298407.344,-36.133,-12.207,9.766,-28.809,0.000
1709298407.348,-29.785,-11.230,9.277,-20.508,0.000
1709298407.352,-7.324,-7.812,9.766,-4.395,0.000
1709298407.356,-5.859,-9.766,6.348,-12.695,0.000
1709298407.359,-29.297,-10.254,2.930,-30.762,0.000
1709298407.363,-40.039,-13.184,6.348,-29.785,0.000
1709298407.367,-37.109,-3.418,13.184,-5.371,0.000
1709298407.371,-20.508,6.348,19.531,5.859,0.000
1709298407.375,-14.648,0.977,24.902,-4.395,0.000
1709298407.379,-25.879,2.441,22.461,-4.883,0.000
1709298407.383,-30.273,4.395,15.137,-16.602,0.000
1709298407.387,-32.227,-3.418,14.160,-13.672,0.000
1709298407.391,-17.090,-5.859,20.508,3.906,0.000
1709298407.395,-12.695,-0.488,11.230,-2.930,0.000
1709298407.399,-37.109,2.930,-1.465,-18.555,0.000
1709298407.402,-46.387,-7.324,9.766,-20.508,0.000
1709298407.406,-25.879,3.418,15.137,-3.906,0.000
1709298407.410,-8.789,14.160,7.812,8.789,0.000
1709298407.414,-22.461,-0.488,5.859,-1.953,0.000
1709298407.418,-26.855,-3.906,8.789,-23.438,0.000
1709298407.422,-40.039,-6.836,16.113,-29.785,0.000
1709298407.426,-45.898,-6.348,13.672,-25.879,0.000
1709298407.430,-35.156,-5.371,10.742,-16.602,0.000
1709298407.433,-23.926,-12.695,20.996,-5.859,0.000
1709298407.437,-23.438,-9.277,23.438,-18.066,0.000
1709298407.441,-39.551,-2.930,19.043,-37.598,0.000
1709298407.445,-53.223,-15.137,12.207,-38.086,0.000
1709298407.449,-35.645,-11.230,12.695,-22.949,0.000
1709298407.453,-16.113,0.000,17.578,-9.277,0.000
1709298407.457,-20.508,-1.953,16.602,-27.832,0.000
1709298407.461,-34.180,-4.395,16.113,-50.781,0.000
1709298407.465,-17.578,-2.930,15.625,-35.156,0.000
1709298407.469,-8.301,-7.324,14.648,-16.602,0.000
1709298407.473,-21.973,-9.766,9.766,-14.160,0.000
1709298407.477,-21.484,-9.277,6.348,-21.484,0.000
1709298407.480,-27.344,-16.113,12.695,-29.785,0.000
1709298407.484,-32.715,-9.766,10.254,-24.414,0.000
1709298407.488,-29.785,0.000,0.000,-21.484,0.000
1709298407.492,-17.578,-1.953,2.441,-12.695,0.000
1709298407.496,-13.184,-5.859,0.488,-11.719,0.000
1709298407.500,-36.133,-6.348,-0.977,-32.715,0.000
1709298407.504,-45.410,-5.859,6.836,-42.480,0.000
1709298407.508,-23.926,-9.766,13.672,-20.996,0.000
1709298407.512,-11.230,-9.277,11.230,-1.465,0.000
1709298407.516,-13.184,-4.395,7.324,-2.441,0.000
1709298407.520,-33.691,-9.766,10.254,-19.043,0.000
1709298407.524,-49.805,-13.184,8.301,-37.109,0.000
1709298407.527,-39.551,-11.230,16.602,-11.230,0.000
1709298407.531,-12.695,-12.695,16.113,3.906,0.000
1709298407.535,-15.625,-4.395,11.719,-22.461,0.000
1709298407.539,-38.086,-1.465,18.555,-25.391,0.000
1709298407.543,-44.434,-3.418,17.578,-15.625,0.000
1709298407.547,-41.016,-2.930,12.695,-20.508,0.000
1709298407.551,-27.832,-6.836,13.672,-18.555,0.000
1709298407.555,-22.461,-5.859,13.672,-9.766,0.000
1709298407.559,-29.785,-2.930,11.719,-26.855,0.000
1709298407.563,-42.969,-7.812,8.789,-41.992,0.000
1709298407.567,-45.898,-5.859,8.301,-26.855,0.000
1709298407.570,-37.598,-8.301,14.160,-7.812,0.000
1709298407.574,-29.785,-13.184,17.090,-2.441,0.000
1709298407.578,-33.203,-3.418,15.625,-24.902,0.000
1709298407.582,-48.828,-6.836,15.137,-42.480,0.000
1709298407.586,-31.250,-8.301,15.625,-20.508,0.000
1709298407.590,-8.789,-0.977,17.578,-8.789,0.000
1709298407.594,-22.949,-3.906,14.160,-21.973,0.000
1709298407.598,-42.969,-1.953,14.648,-38.574,0.000
1709298407.602,-53.223,3.418,16.113,-43.457,0.000
1709298407.606,-51.270,-1.465,6.348,-34.180,0.000
1709298407.609,-42.480,-4.395,9.766,-24.902,0.000
1709298407.613,-28.809,-3.418,18.555,-26.855,0.000
1709298407.617,-36.133,-8.789,16.602,-26.367,0.000
1709298407.621,-51.758,-9.766,8.789,-36.133,0.000
1709298407.625,-45.898,-5.371,4.395,-42.969,0.000
1709298407.629,-40.039,-1.465,8.789,-20.020,0.000
1709298407.633,-21.973,-7.812,14.160,-8.301,0.000
1709298407.637,-15.625,-12.695,18.066,-23.438,0.000
1709298407.641,-49.805,-8.301,14.648,-44.922,0.000
1709298407.645,-55.664,-12.207,15.137,-41.504,0.000
1709298407.648,-37.598,-15.625,15.137,-14.648,0.000
1709298407.652,-14.648,-11.719,15.137,-2.441,0.000
1709298407.656,-7.324,-21.973,12.695,-7.812,0.000
1709298407.660,-18.066,-23.926,4.883,-15.137,0.000
1709298407.664,-25.879,-8.789,3.906,-5.859,0.000
1709298407.668,-27.344,-10.742,0.977,-5.859,0.000
1709298407.672,-4.395,-15.137,-4.395,-6.348,0.000
1709298407.676,8.301,-9.766,-5.371,-9.277,0.000
1709298407.680,-4.395,-10.254,-2.930,-31.738,0.000
1709298407.683,-15.625,-17.578,-4.395,-46.387,0.000
1709298407.687,-15.625,-23.926,-0.488,-32.715,0.000
1709298407.691,4.395,-28.809,8.301,-6.836,0.000
1709298407.695,8.789,-25.391,7.324,-5.859,0.000
1709298407.699,-11.719,-16.602,0.977,-24.414,0.000
1709298407.703,-21.973,-17.578,-0.488,-26.855,0.000
1709298407.707,-12.207,-22.461,2.930,1.953,0.000
1709298407.711,2.441,-25.391,-4.883,5.371,0.000
1709298407.715,4.883,-22.949,-13.672,-20.020,0.000
1709298407.719,-7.324,-16.113,0.000,-29.297,0.000
1709298407.722,-5.371,-17.090,11.719,-22.949,0.000
1709298407.726,11.719,-11.230,13.672,-5.371,0.000
1709298407.730,0.977,-4.395,12.695,8.301,0.000
1709298407.734,5.371,-2.930,19.531,1.953,0.000
1709298407.738,16.113,-11.719,24.902,-10.742,0.000
1709298407.742,-8.789,-21.484,25.391,-3.418,0.000
1709298407.746,-14.648,-19.531,25.391,-4.395,0.000
1709298407.750,0.000,-12.695,20.508,-3.418,0.000
1709298407.754,3.906,-9.277,20.996,13.184,0.000
1709298407.757,-9.766,-16.602,18.066,-2.441,0.000
1709298407.761,-21.484,-18.555,14.648,-24.902,0.000
1709298407.765,-26.367,-29.297,19.043,-20.508,0.000
1709298407.769,-22.461,-34.668,25.391,-3.418,0.000
1709298407.773,-22.461,-27.832,20.020,-3.906,0.000
1709298407.777,-24.902,-23.438,13.672,-15.625,0.000
1709298407.781,-34.180,-23.438,20.020,-21.973,0.000
1709298407.785,-41.992,-35.645,23.438,-5.371,0.000
1709298407.789,-22.461,-41.504,19.531,13.672,0.000
1709298407.793,-10.742,-36.133,12.695,0.000,0.000
1709298407.797,-31.250,-32.227,10.742,-7.812,0.000
1709298407.801,-37.109,-27.344,10.254,-11.230,0.000
1709298407.805,-44.922,-26.855,4.883,-26.367,0.000
1709298407.808,-45.898,-28.320,7.812,-14.648,0.000
1709298407.812,-27.344,-27.344,8.301,6.836,0.000
1709298407.816,-27.832,-25.879,4.395,-10.742,0.000
1709298407.820,-31.738,-19.043,10.254,-26.367,0.000
1709298407.824,-41.504,-22.949,17.090,-19.043,0.000
1709298407.828,-41.016,-20.508,14.160,-5.371,0.000
1709298407.832,-30.762,-11.230,5.371,1.953,0.000
1709298407.836,-25.391,-11.719,7.324,-10.742,0.000
1709298407.840,-38.086,-5.371,12.207,-21.484,0.000
1709298407.844,-41.992,-5.371,10.742,-13.184,0.000
1709298407.848,-28.320,-11.719,4.883,-7.324,0.000
1709298407.852,-12.207,-9.277,5.859,-0.488,0.000
1709298407.855,9.766,-4.395,15.137,0.977,0.000
1709298407.859,-7.812,-4.883,17.090,-8.301,0.000
1709298407.863,-47.852,-11.719,11.719,-19.043,0.000
1709298407.867,-32.715,-22.461,13.672,-11.230,0.000
1709298407.871,-8.301,-25.391,19.043,12.695,0.000
1709298407.875,-7.324,-13.672,21.973,5.859,0.000
1709298407.879,-15.137,-6.836,21.484,-19.043,0.000
1709298407.883,-28.809,-22.461,17.578,-27.832,0.000
1709298407.887,-30.273,-26.367,18.555,-24.414,0.000
1709298407.891,-8.789,-12.695,21.973,-18.066,0.000
1709298407.895,9.766,-11.230,19.043,-16.113,0.000
1709298407.899,-14.648,-11.230,20.020,-35.156,0.000
1709298407.902,-47.363,-14.160,28.320,-34.668,0.000
1709298407.906,-45.410,-12.207,24.902,-22.461,0.000
1709298407.910,-30.762,-14.648,20.020,-20.996,0.000
1709298407.914,-20.508,-26.367,19.043,-24.414,0.000
1709298407.918,-27.344,-23.438,19.043,-41.992,0.000
1709298407.922,-49.805,-11.230,17.090,-46.387,0.000
1709298407.926,-61.523,-12.207,7.324,-37.109,0.000
1709298407.930,-40.039,-16.113,10.742,-13.672,0.000
1709298407.934,-13.672,-10.254,18.066,-1.953,0.000
1709298407.938,-25.879,-9.277,16.602,-18.066,0.000
1709298407.942,-48.828,-16.602,12.207,-43.945,0.000
1709298407.945,-48.828,-22.949,11.719,-28.809,0.000
1709298407.949,-30.762,-26.855,7.324,4.395,0.000
1709298407.953,-21.484,-18.066,11.230,-1.465,0.000
1709298407.957,-19.043,-12.207,15.625,-19.043,0.000
1709298407.961,-28.320,-4.395,10.742,-26.367,0.000
1709298407.965,-36.133,3.906,6.348,-27.344,0.000
1709298407.969,-30.762,1.953,9.277,-10.254,0.000
1709298407.973,-8.789,-3.906,13.184,1.953,0.000
1709298407.977,-12.695,-11.230,10.742,-19.531,0.000
1709298407.981,-49.805,-18.555,8.301,-44.434,0.000
1709298407.985,-66.406,-14.648,6.836,-40.039,0.000
1709298407.988,-46.875,-16.113,9.766,-21.484,0.000
1709298407.992,-28.809,-31.250,17.090,-12.695,0.000
1709298407.996,-20.508,-29.785,15.625,-27.832,0.000
1709298408.000,-29.297,-21.973,15.625,-52.734,0.000
1709298408.004,-59.570,-16.602,15.137,-51.758,0.000
1709298408.008,-48.828,-8.301,13.184,-29.785,0.000
1709298408.012,-22.461,-10.742,16.113,-14.648,0.000
1709298408.016,-19.531,-18.066,14.648,-22.461,0.000
1709298408.020,-32.227,-15.137,19.043,-28.809,0.000
1709298408.023,-42.480,-15.625,20.996,-24.414,0.000
1709298408.027,-39.551,-23.438,16.602,-9.277,0.000
1709298408.031,-22.461,-24.902,17.578,-4.395,0.000
1709298408.035,-11.719,-22.949,20.996,-12.207,0.000
1709298408.039,-23.926,-24.902,25.391,-15.137,0.000
1709298408.043,-49.805,-26.855,22.949,-34.180,0.000
1709298408.047,-50.781,-24.902,20.020,-31.738,0.000
1709298408.051,-24.414,-25.879,19.043,-15.625,0.000
1709298408.055,-31.250,-25.879,15.625,-23.438,0.000
1709298408.058,-41.504,-23.438,10.742,-44.434,0.000
1709298408.062,-51.758,-23.926,10.742,-44.434,0.000
1709298408.066,-73.730,-27.832,14.648,-28.320,0.000
1709298408.070,-56.152,-30.762,11.719,-24.414,0.000
1709298408.074,-41.992,-29.785,13.184,-19.043,0.000
1709298408.078,-45.898,-26.855,17.578,-25.879,0.000
1709298408.082,-47.852,-21.484,20.996,-17.578,0.000
1709298408.086,-47.363,-20.508,19.043,-14.648,0.000
1709298408.090,-34.180,-15.625,13.184,-19.043,0.000
1709298408.094,-19.043,-16.602,20.996,-11.719,0.000
1709298408.098,-30.762,-25.879,21.484,-35.645,0.000
1709298408.101,-50.293,-20.508,9.766,-50.781,0.000
1709298408.105,-50.293,-20.996,8.789,-41.504,0.000
1709298408.109,-27.832,-27.344,8.789,-17.578,0.000
1709298408.113,-23.926,-25.391,6.348,-8.789,0.000
1709298408.117,-23.438,-21.973,9.766,-23.438,0.000
1709298408.121,-28.320,-28.320,12.207,-31.250,0.000
1709298408.125,-58.594,-26.367,12.207,-23.438,0.000
1709298408.129,-52.734,-22.461,17.090,-7.324,0.000
1709298408.133,-35.645,-38.574,13.672,-9.277,0.000
1709298408.136,-42.969,-44.922,6.348,-25.391,0.000
1709298408.140,-52.246,-36.621,11.719,-30.273,0.000
1709298408.144,-44.922,-31.738,10.742,-27.344,0.000
1709298408.148,-38.086,-35.156,3.418,-11.230,0.000
1709298408.152,-34.180,-35.645,1.465,-16.113,0.000
1709298408.156,-24.902,-23.926,4.395,-25.391,0.000
1709298408.160,-27.832,-16.602,10.742,-22.949,0.000
1709298408.164,-31.738,-24.414,12.695,-29.297,0.000
1709298408.167,-16.602,-29.297,10.254,-19.531,0.000
1709298408.171,-0.488,-21.973,9.277,-5.371,0.000
1709298408.175,-0.977,-13.672,10.254,-16.602,0.000
1709298408.179,-18.066,-13.672,11.230,-39.062,0.000
1709298408.183,-32.227,-20.996,17.090,-37.598,0.000
1709298408.187,-34.180,-30.762,14.160,-16.602,0.000
1709298408.191,-11.719,-25.879,7.324,-9.766,0.000
1709298408.195,10.254,-20.996,9.277,-19.043,0.000
1709298408.199,-31.250,-26.855,13.672,-27.344,0.000
1709298408.203,-63.477,-36.621,14.160,-32.227,0.000
1709298408.207,-41.016,-33.691,15.625,-20.020,0.000
1709298408.211,-20.508,-27.832,16.602,-10.254,0.000
1709298408.214,-22.461,-31.250,18.555,-12.207,0.000
1709298408.218,-37.109,-31.738,18.555,-21.484,0.000
1709298408.222,-56.152,-20.996,8.301,-41.504,0.000
1709298408.226,-53.223,-11.719,3.906,-41.992,0.000
1709298408.230,-26.367,-15.625,9.766,-15.137,0.000
1709298408.234,-9.766,-20.996,11.230,-5.859,0.000
1709298408.238,-20.996,-22.461,10.742,-22.949,0.000
1709298408.242,-23.926,-16.113,12.207,-26.855,0.000
1709298408.246,-9.766,-17.090,15.625,-11.230,0.000
1709298408.250,-17.090,-19.531,16.602,1.953,0.000
1709298408.254,-27.344,-14.160,11.230,-9.277,0.000
1709298408.258,-27.832,-20.996,14.160,-16.113,0.000
1709298408.261,-39.062,-27.344,23.926,-19.531,0.000
1709298408.265,-43.945,-21.973,21.973,-17.090,0.000
1709298408.269,-34.180,-23.438,14.648,-10.254,0.000
1709298408.273,-22.949,-31.738,15.625,-10.254,0.000
1709298408.277,-24.414,-28.809,20.508,-3.906,0.000
1709298408.281,-31.738,-24.414,22.461,-11.230,0.000
1709298408.285,-37.109,-18.555,19.531,-27.832,0.000
1709298408.289,-29.297,-12.207,20.508,-7.324,0.000
1709298408.293,-18.066,-18.066,25.391,6.348,0.000
1709298408.297,-23.438,-17.578,20.996,-15.137,0.000
1709298408.301,-24.902,-13.184,18.066,-32.227,0.000
1709298408.304,-41.992,-26.367,23.438,-30.762,0.000
1709298408.308,-38.574,-31.250,18.555,-7.812,0.000
1709298408.312,-7.324,-25.879,12.207,6.836,0.000
1709298408.316,-15.137,-23.438,11.230,-9.766,0.000
1709298408.320,-23.926,-23.438,15.625,-24.902,0.000
1709298408.324,-26.367,-25.391,20.020,-10.742,0.000
1709298408.328,-32.715,-24.902,15.137,-1.953,0.000
1709298408.332,-26.855,-25.879,7.812,-11.719,0.000
1709298408.336,-20.996,-27.832,8.301,-25.391,0.000
1709298408.340,-42.480,-35.645,6.348,-45.410,0.000
1709298408.343,-64.941,-38.086,6.836,-47.852,0.000
1709298408.347,-43.945,-36.133,11.230,-31.738,0.000
1709298408.351,-12.207,-33.203,13.184,-16.602,0.000
1709298408.355,-7.324,-26.367,16.602,-18.066,0.000
1709298408.359,-33.203,-23.438,20.508,-37.598,0.000
1709298408.363,-40.039,-25.879,22.949,-41.016,0.000
1709298408.367,-32.227,-33.691,25.391,-13.672,0.000
1709298408.371,-26.855,-35.645,16.113,-0.488,0.000
1709298408.375,-20.020,-26.855,10.254,-20.020,0.000
1709298408.379,-33.691,-26.367,15.625,-35.156,0.000
1709298408.383,-47.852,-35.645,16.602,-34.668,0.000
1709298408.386,-42.480,-33.203,9.766,-29.785,0.000
1709298408.390,-27.832,-35.645,5.371,-22.461,0.000
1709298408.394,-19.531,-42.969,8.789,-27.344,0.000
1709298408.398,-29.297,-33.691,11.230,-39.551,0.000
1709298408.402,-44.922,-30.762,14.160,-39.062,0.000
1709298408.406,-47.852,-38.086,9.766,-17.090,0.000
1709298408.410,-3.906,-38.086,13.184,6.348,0.000
1709298408.414,4.883,-37.598,11.719,-8.789,0.000
1709298408.418,-38.574,-35.156,5.859,-32.227,0.000
1709298408.422,-46.387,-35.645,4.883,-45.410,0.000
1709298408.425,-48.340,-41.504,5.859,-26.855,0.000
1709298408.429,-41.016,-44.922,6.836,-3.906,0.000
1709298408.433,-20.996,-42.480,4.395,-5.371,0.000
1709298408.437,-23.438,-37.598,4.395,-17.578,0.000
1709298408.441,-40.527,-39.551,13.672,-26.367,0.000
1709298408.445,-44.434,-43.945,21.484,-16.602,0.000
1709298408.449,-24.414,-32.715,23.438,2.441,0.000
1709298408.453,-2.441,-18.555,22.949,11.719,0.000
1709298408.457,-10.254,-20.996,13.672,2.930,0.000
1709298408.460,-34.180,-22.949,12.695,-16.113,0.000
1709298408.464,-44.434,-20.020,14.160,-31.250,0.000
1709298408.468,-15.625,-20.996,13.672,-17.578,0.000
1709298408.472,-11.719,-28.320,10.742,-5.859,0.000
1709298408.476,-28.320,-25.879,8.301,-20.996,0.000
1709298408.480,0.000,-20.508,8.301,-33.691,0.000
1709298408.484,0.000,-16.602,16.113,-21.484,0.000
1709298408.488,0.000,-11.230,24.902,-6.348,0.000
1709298408.492,0.000,-17.090,21.973,-4.395,0.000
1709298408.495,0.000,-20.996,19.043,-15.137,0.000
1709298408.499,0.000,-24.902,23.926,-24.902,0.000
1709298408.503,0.000,-24.414,28.320,-8.789,0.000
1709298408.507,0.000,-18.555,21.484,-4.395,0.000
1709298408.511,0.000,-19.531,14.648,-11.230,0.000
1709298408.515,0.000,-13.672,20.020,-7.812,0.000
1709298408.519,0.000,-15.625,23.926,-25.879,0.000
1709298408.523,0.000,-19.531,18.066,-43.457,0.000
1709298408.526,-18.066,-13.672,13.672,-35.645,0.000
1709298408.530,-8.301,-6.836,11.230,-21.484,0.000
1709298408.534,5.371,-9.766,1.465,-33.203,0.000
1709298408.538,-10.254,-7.324,2.441,-54.199,0.000
1709298408.542,-23.926,-1.465,12.207,-54.199,0.000
1709298408.546,-17.578,-6.836,10.254,-36.133,0.000
1709298408.550,-1.953,-5.371,3.906,-24.902,0.000
1709298408.554,-1.953,-3.906,2.930,-33.691,0.000
1709298408.558,-16.602,-9.766,2.930,-44.922,0.000
1709298408.562,-36.621,-11.719,1.465,-44.922,0.000
1709298408.565,-45.410,-18.066,5.371,-27.832,0.000
1709298408.569,-21.973,-13.184,8.301,-3.418,0.000
1709298408.574,-12.695,-9.277,0.000,-5.859,0.000
1709298408.578,-27.832,-11.230,0.000,-29.297,0.000
1709298408.582,-27.832,-1.465,0.000,-38.086,0.000
1709298408.586,-36.621,-2.930,0.000,-24.414,0.000
1709298408.590,-36.133,-5.371,0.000,-7.324,0.000
1709298408.594,-25.879,-2.930,0.000,-8.301,0.000
1709298408.598,-29.785,-2.441,0.000,-22.949,0.000
1709298408.601,-37.109,-1.953,0.000,-28.809,0.000
1709298408.605,-36.133,-5.859,0.000,-11.230,0.000
1709298408.609,-25.391,-6.348,0.000,16.602,0.000
1709298408.613,-16.113,0.000,0.000,10.254,0.000
1709298408.617,-12.695,-4.395,0.000,-3.906,0.000
1709298408.621,-19.043,-9.766,15.625,-12.695,0.000
1709298408.625,-38.574,3.418,11.230,-19.043,0.000
1709298408.629,-33.691,10.742,3.418,-15.625,0.000
1709298408.633,-9.277,4.395,5.371,-8.301,0.000
1709298408.637,-4.395,8.789,17.090,0.977,0.000
1709298408.641,-29.297,0.000,13.184,-12.207,0.000
1709298408.644,-48.340,-4.395,8.789,-28.320,0.000
1709298408.648,-22.461,2.441,14.648,-10.742,0.000
1709298408.652,-4.883,-1.953,17.090,15.137,0.000
1709298408.656,-8.789,3.906,18.555,9.766,0.000
1709298408.660,-20.020,1.953,20.020,-21.973,0.000
1709298408.664,-26.855,-0.977,23.438,-38.086,0.000
1709298408.668,-19.531,2.441,22.949,-9.766,0.000
1709298408.672,-15.625,-2.441,16.602,3.418,0.000
1709298408.676,-18.555,0.000,16.602,-16.602,0.000
1709298408.680,-21.973,3.418,20.996,-26.855,0.000
1709298408.684,-28.320,-2.930,17.090,-25.879,0.000
1709298408.687,-28.809,-4.883,19.531,-8.301,0.000
1709298408.691,-12.207,-2.930,18.555,5.859,0.000
1709298408.695,-6.836,5.371,16.602,-0.488,0.000
1709298408.699,-40.527,-1.465,21.484,-3.906,0.000
1709298408.703,-51.758,-12.207,21.484,-19.531,0.000
1709298408.707,-43.457,-1.953,22.461,-16.602,0.000
1709298408.711,-22.949,5.859,19.043,10.254,0.000
1709298408.715,-16.113,-3.906,7.812,-14.648,0.000
1709298408.719,-38.086,-9.766,7.324,-43.945,0.000
1709298408.723,-56.152,-9.277,13.184,-37.109,0.000
1709298408.726,-38.086,-5.371,15.625,-25.391,0.000
1709298408.730,-16.602,-1.465,11.230,-14.648,0.000
1709298408.734,-12.207,-8.789,12.207,-12.695,0.000
1709298408.738,-17.578,-18.066,9.277,-33.203,0.000
1709298408.742,-37.109,-19.531,10.742,-31.738,0.000
1709298408.746,-46.875,-16.113,15.625,-9.766,0.000
1709298408.750,-33.691,-10.254,12.695,-8.789,0.000
1709298408.754,-4.395,-6.836,12.695,-14.648,0.000
1709298408.758,-9.766,-9.277,13.184,-21.484,0.000
1709298408.762,-48.828,-19.043,12.695,-27.832,0.000
1709298408.765,-59.570,-14.648,10.742,-33.203,0.000
1709298408.769,-37.598,-5.859,16.113,-18.555,0.000
1709298408.773,-12.695,-9.277,17.090,-13.672,0.000
1709298408.777,-21.973,-3.906,13.672,-32.715,0.000
1709298408.781,-34.668,-6.836,12.207,-42.969,0.000
1709298408.785,-41.016,-15.137,6.348,-28.809,0.000
1709298408.789,-25.879,-7.324,9.766,-4.883,0.000
1709298408.793,-8.789,-5.859,11.719,-5.371,0.000
1709298408.797,-15.137,-11.719,5.859,-23.926,0.000
1709298408.801,-35.156,-7.812,6.836,-31.250,0.000
1709298408.805,-29.297,-6.348,8.301,-27.344,0.000
1709298408.808,-22.949,-6.348,7.812,-4.395,0.000
1709298408.812,-24.902,-9.277,10.742,3.418,0.000
1709298408.816,-24.902,-15.625,11.230,-21.973,0.000
1709298408.820,-42.480,-17.090,10.742,-39.551,0.000
1709298408.824,-41.992,-22.949,15.137,-22.949,0.000
1709298408.828,-27.344,-27.832,17.578,-2.441,0.000
1709298408.832,-4.883,-20.508,20.508,21.973,0.000
1709298408.836,-11.230,-11.719,21.484,10.742,0.000
1709298408.840,-48.340,-9.277,12.207,-34.180,0.000
1709298408.843,-49.316,-6.348,7.812,-35.156,0.000
1709298408.847,-38.574,-5.371,13.184,-20.508,0.000
1709298408.851,-9.277,-4.883,20.020,-5.859,0.000
1709298408.855,-3.418,-7.324,18.555,-20.020,0.000
1709298408.859,-46.387,-15.137,9.277,-42.969,0.000
1709298408.863,-53.223,-18.066,12.695,-34.668,0.000
1709298408.867,-31.738,-8.789,21.973,-9.277,0.000
1709298408.871,-16.602,-9.277,15.137,-10.742,0.000
1709298408.875,-20.508,-13.672,11.230,-17.578,0.000
1709298408.878,-32.715,-13.672,18.555,-9.766,0.000
1709298408.882,-41.504,-8.789,16.602,-17.090,0.000
1709298408.886,-38.574,-7.324,12.695,-16.602,0.000
1709298408.890,-17.090,-6.836,14.160,3.418,0.000
1709298408.894,-3.418,2.441,7.324,-0.488,0.000
1709298408.898,-20.020,-2.930,5.371,-29.297,0.000
1709298408.902,-20.020,-7.324,12.695,-25.391,0.000
1709298408.906,-32.715,-4.395,7.812,-9.277,0.000
1709298408.910,-41.504,-10.742,9.277,0.977,0.000
1709298408.914,-20.020,-20.996,12.695,-1.953,0.000
1709298408.918,-18.555,-8.789,3.906,-11.230,0.000
1709298408.922,-29.785,0.977,9.277,-4.883,0.000
1709298408.926,-33.691,-1.465,12.207,-1.953,0.000
1709298408.930,-13.184,-1.465,7.812,0.977,0.000
1709298408.933,-0.488,-6.348,13.672,7.812,0.000
1709298408.937,-10.742,-9.277,7.812,1.465,0.000
1709298408.941,-22.949,-9.277,6.836,-12.695,0.000
1709298408.945,-34.180,-15.625,10.742,-14.160,0.000
1709298408.949,-38.574,-21.973,3.906,-11.719,0.000
1709298408.953,-28.320,-15.137,3.418,-10.254,0.000
1709298408.957,-30.762,-12.207,7.812,-23.438,0.000
1709298408.961,-23.438,-12.695,6.836,-40.527,0.000
1709298408.965,-34.668,-11.719,3.906,-36.133,0.000
1709298408.969,-50.293,-11.719,5.859,-20.996,0.000
1709298408.973,-28.320,-9.277,1.465,-14.648,0.000
1709298408.977,-33.203,-2.930,-0.977,-34.668,0.000
1709298408.981,-39.551,3.906,8.789,-31.250,0.000
1709298408.984,-37.598,5.371,9.766,-13.184,0.000
1709298408.988,-21.973,0.488,8.789,-7.812,0.000
1709298408.992,-4.883,-5.859,6.836,-2.930,0.000
1709298408.996,-18.066,-7.324,1.465,0.977,0.000
1709298409.000,-32.715,-7.324,2.441,-8.789,0.000
1709298409.004,-43.457,-7.812,5.859,-29.785,0.000
1709298409.008,-42.969,-12.695,3.906,-25.879,0.000
1709298409.012,-15.137,-16.113,9.277,-12.207,0.000
1709298409.016,-22.461,-12.695,13.672,-20.996,0.000
1709298409.020,-47.363,-13.184,13.184,-39.062,0.000
1709298409.024,-51.270,-11.230,9.277,-42.969,0.000
1709298409.028,-42.480,-16.113,5.859,-14.160,0.000
1709298409.031,-25.391,-28.320,6.836,-2.930,0.000
1709298409.035,-22.461,-27.344,4.883,-21.484,0.000
1709298409.039,-30.762,-25.879,8.301,-30.762,0.000
1709298409.043,-41.992,-23.438,9.766,-33.691,0.000
1709298409.047,-46.875,-24.902,9.277,-23.926,0.000
1709298409.051,-31.250,-28.809,8.789,-4.395,0.000
1709298409.055,-31.250,-28.320,10.254,-3.906,0.000
1709298409.059,-37.598,-23.438,15.625,-16.113,0.000
1709298409.063,-39.551,-17.090,13.184,-18.066,0.000
1709298409.067,-39.062,-25.879,9.277,-9.277,0.000
1709298409.071,-22.949,-33.203,12.207,16.113,0.000
1709298409.074,-20.996,-31.250,14.648,18.066,0.000
1709298409.078,-18.555,-26.367,3.906,-21.484,0.000
1709298409.082,-27.832,-28.320,3.418,-33.203,0.000
1709298409.086,-46.387,-29.297,7.324,-21.484,0.000
1709298409.090,-31.250,-25.879,2.441,-19.043,0.000
1709298409.094,-20.996,-27.344,0.977,-21.484,0.000
1709298409.098,-16.113,-25.879,6.836,-27.832,0.000
1709298409.102,-22.461,-20.996,10.742,-25.879,0.000
1709298409.106,-30.273,-16.602,13.184,-14.648,0.000
1709298409.110,-19.043,-10.254,13.184,-5.371,0.000
1709298409.113,-11.230,-8.789,11.719,-7.324,0.000
1709298409.117,-20.996,-11.719,18.066,-18.066,0.000
1709298409.121,-24.902,-17.578,13.184,-34.180,0.000
1709298409.125,-39.062,-27.832,0.977,-48.828,0.000
1709298409.129,-55.664,-34.668,0.977,-47.363,0.000
1709298409.133,-36.133,-25.391,11.719,-24.414,0.000
1709298409.137,-28.320,-15.137,7.812,-32.227,0.000
1709298409.141,-41.016,-20.996,1.953,-57.129,0.000
1709298409.145,-46.387,-23.926,11.719,-48.828,0.000
1709298409.149,-33.203,-9.766,7.324,-35.645,0.000
1709298409.153,-28.809,-11.230,9.277,-22.949,0.000
1709298409.157,-27.832,-26.855,11.719,-31.250,0.000
1709298409.161,-35.645,-16.602,7.324,-39.551,0.000
1709298409.165,-48.340,-7.324,2.441,-24.414,0.000
1709298409.169,-45.410,-4.395,1.465,-14.648,0.000
1709298409.172,-39.062,-9.277,7.324,-20.996,0.000
1709298409.176,-34.668,-20.996,9.277,-19.043,0.000
1709298409.180,-39.062,-9.277,16.113,-18.066,0.000
1709298409.184,0.000,-5.859,13.184,-24.902,0.000
1709298409.188,0.000,-17.578,10.742,-14.648,0.000
1709298409.192,0.000,-12.695,11.719,-9.766,0.000
1709298409.196,0.000,-1.465,13.184,-16.602,0.000
1709298409.200,0.000,4.395,15.137,-27.344,0.000
1709298409.204,0.000,-9.766,16.602,-29.785,0.000
1709298409.207,0.000,-13.672,23.926,-10.254,0.000
1709298409.211,0.000,-5.859,19.531,0.000,0.000
1709298409.215,0.000,-4.883,9.277,-12.207,0.000
1709298409.219,0.000,-2.441,11.230,-30.273,0.000
1709298409.223,0.000,-8.789,12.695,-27.832,0.000
1709298409.227,0.000,-20.020,5.859,-16.602,0.000
1709298409.231,-33.691,-23.926,3.906,-16.113,0.000
1709298409.235,-20.996,-21.484,3.906,-20.996,0.000
1709298409.238,-18.066,-10.742,-0.488,-37.109,0.000
1709298409.242,-39.062,-20.020,5.859,-46.387,0.000
1709298409.246,-50.781,-33.203,4.883,-29.297,0.000
1709298409.250,-36.133,-19.043,0.977,-4.883,0.000
1709298409.254,-25.879,-5.371,6.836,-4.395,0.000
1709298409.258,-27.832,0.488,4.883,-29.297,0.000
1709298409.262,-39.551,-5.859,3.418,-39.551,0.000
1709298409.266,-41.016,-16.113,6.348,-26.855,0.000
1709298409.270,-23.926,-19.531,5.859,-14.648,0.000
1709298409.274,-29.297,-20.020,9.766,-2.930,0.000
1709298409.278,-22.949,-18.555,20.020,-7.324,0.000
1709298409.282,-30.273,-10.254,16.602,-29.297,0.000
1709298409.286,-36.621,-7.812,12.695,-23.926,0.000
1709298409.290,-22.949,-11.719,13.672,-2.441,0.000
1709298409.294,-8.301,-8.301,8.789,-6.836,0.000
1709298409.298,-11.719,-2.441,8.789,-13.672,0.000
1709298409.302,-29.785,0.977,10.254,-18.555,0.000
1709298409.306,-25.391,0.000,5.371,-20.508,0.000
1709298409.309,-18.066,-5.371,5.371,-11.230,0.000
1709298409.313,-15.137,-5.859,15.625,6.348,0.000
1709298409.317,-11.719,-16.113,17.578,-0.488,0.000
1709298409.321,-13.672,-20.996,13.672,-19.043,0.000
1709298409.325,-15.625,-2.930,13.672,-14.648,0.000
1709298409.329,-25.879,0.488,14.160,4.883,0.000
1709298409.333,-15.625,-7.812,17.090,17.090,0.000
1709298409.337,2.441,-5.371,20.996,9.766,0.000
1709298409.341,-4.395,-4.395,20.020,-2.441,0.000
1709298409.345,-12.695,-5.371,23.438,-2.441,0.000
1709298409.349,10.742,0.977,25.391,9.277,0.000
1709298409.353,26.855,2.930,14.648,12.695,0.000
1709298409.356,27.832,0.488,15.137,4.395,0.000
1709298409.360,0.488,-0.977,22.949,-6.348,0.000
1709298409.364,-15.137,-4.883,16.113,-22.949,0.000
1709298409.368,-2.930,4.395,14.160,-11.719,0.000
1709298409.372,1.465,5.371,21.484,19.043,0.000
1709298409.376,3.906,-4.395,21.973,14.160,0.000
1709298409.380,-18.555,-0.488,13.672,-21.973,0.000
1709298409.384,-34.668,4.395,11.230,-37.109,0.000
1709298409.388,-23.926,-5.859,13.184,-17.090,0.000
1709298409.392,0.977,-7.324,20.508,2.930,0.000
1709298409.396,-2.441,-3.418,14.648,-7.324,0.000
1709298409.399,-25.391,-17.578,7.324,-34.180,0.000
1709298409.403,-37.109,-25.879,14.648,-28.320,0.000
1709298409.407,-40.527,-11.719,13.184,-6.348,0.000
1709298409.411,-31.738,-0.488,5.859,-6.348,0.000
1709298409.415,-16.113,-2.441,6.348,-0.488,0.000
1709298409.419,-17.578,-9.277,4.883,-4.395,0.000
1709298409.423,-46.875,-9.766,5.859,-15.137,0.000
1709298409.427,-52.734,-3.418,10.254,-14.648,0.000
1709298409.431,-25.391,-5.859,10.254,-3.418,0.000
1709298409.435,-6.348,-10.742,14.160,10.742,0.000
1709298409.439,-10.742,-8.789,22.461,6.348,0.000
1709298409.442,-39.062,-19.043,7.324,-27.832,0.000
1709298409.446,-51.270,-23.926,-4.883,-35.645,0.000
1709298409.450,-42.969,-12.207,4.395,-8.789,0.000
1709298409.454,-35.156,-7.324,7.812,0.977,0.000
1709298409.458,-32.715,-8.301,8.301,-15.137,0.000
1709298409.462,-36.621,-16.602,6.348,-26.855,0.000
1709298409.466,-35.156,-22.949,8.789,-19.043,0.000
1709298409.470,-28.809,-14.648,12.207,-16.113,0.000
1709298409.474,-18.066,-10.742,10.254,-6.836,0.000
1709298409.478,1.465,-12.695,9.277,-17.578,0.000
1709298409.481,-14.160,-20.996,9.277,-37.109,0.000
1709298409.485,-43.945,-23.926,7.324,-26.855,0.000
1709298409.489,-36.621,-13.672,6.836,-11.230,0.000
1709298409.493,-17.578,-1.465,17.090,3.418,0.000
1709298409.497,-15.625,1.465,15.625,-1.953,0.000
1709298409.501,-32.715,-5.371,3.906,-31.738,0.000
1709298409.505,-35.156,-6.836,12.207,-27.344,0.000
1709298409.509,-24.414,-16.113,16.602,-9.277,0.000
1709298409.513,-9.766,-19.531,16.113,-0.977,0.000
1709298409.516,-11.719,-13.672,20.996,-12.207,0.000
1709298409.520,-4.395,-6.836,18.555,-20.020,0.000
1709298409.524,-10.742,-10.254,19.531,-21.973,0.000
1709298409.528,-39.062,-15.625,17.578,-12.695,0.000
1709298409.532,-23.926,-11.719,15.625,0.488,0.000
1709298409.536,-20.020,-9.277,16.602,-7.324,0.000
1709298409.540,-44.434,-13.184,8.789,-31.738,0.000
1709298409.544,-52.246,-16.602,6.348,-45.898,0.000
1709298409.548,-49.316,-17.090,5.371,-36.133,0.000
1709298409.552,-33.691,-13.672,11.230,-20.020,0.000
1709298409.556,-23.926,-16.113,18.066,-18.066,0.000
1709298409.559,-42.969,-16.113,7.812,-46.875,0.000
1709298409.563,-50.293,-9.766,8.789,-50.293,0.000
1709298409.567,-43.945,-13.184,16.113,-24.902,0.000
1709298409.571,-31.738,-16.113,9.766,-12.695,0.000
1709298409.575,-16.113,-15.625,6.836,-18.555,0.000
1709298409.579,-31.738,-15.137,8.789,-26.855,0.000
1709298409.583,-49.316,-15.625,12.207,-19.043,0.000
1709298409.587,-62.988,-23.926,6.348,-14.160,0.000
1709298409.591,-55.176,-26.367,-4.883,-27.344,0.000
1709298409.594,-30.273,-20.996,-3.418,-22.949,0.000
1709298409.598,-35.156,-24.414,-3.906,-41.016,0.000
1709298409.602,-58.105,-30.762,2.930,-48.828,0.000
1709298409.606,-60.059,-26.855,0.000,-30.762,0.000
1709298409.610,-39.551,-20.020,-0.977,-20.020,0.000
1709298409.614,-24.414,-15.625,13.184,-17.090,0.000
1709298409.618,-31.250,-20.020,9.766,-34.668,0.000
1709298409.622,-38.086,-28.320,4.395,-39.062,0.000
1709298409.625,-32.715,-27.344,7.812,-26.367,0.000
1709298409.629,-24.902,-31.250,15.137,-2.930,0.000
1709298409.633,-19.531,-32.227,16.113,-2.930,0.000
1709298409.637,-21.973,-25.391,7.812,-29.297,0.000
1709298409.641,-30.273,-23.926,3.418,-36.133,0.000
1709298409.645,-37.598,-23.926,-0.488,-27.832,0.000
1709298409.649,-38.574,-22.949,-2.930,-12.695,0.000
1709298409.653,-23.926,-30.762,4.395,-9.277,0.000
1709298409.656,-14.648,-35.156,13.672,-22.949,0.000
1709298409.660,-29.785,-32.715,9.766,-39.062,0.000
1709298409.664,-44.922,-32.715,9.766,-38.086,0.000
1709298409.668,-41.504,-36.133,15.625,-25.391,0.000
1709298409.672,-22.461,-37.109,15.137,-10.742,0.000
1709298409.676,-21.484,-30.762,9.277,-9.766,0.000
1709298409.680,-46.875,-22.949,8.789,-28.320,0.000
1709298409.684,-55.176,-18.555,9.277,-27.344,0.000
1709298409.688,-41.992,-27.832,17.578,1.953,0.000
1709298409.692,-24.902,-34.180,16.113,2.441,0.000
1709298409.696,-9.766,-26.367,10.254,-15.625,0.000
