timestamps,TP9,AF7,AF8,TP10,Right AUX
1709214750.384,-48.828,-45.410,-42.969,-53.223,0.000
1709214750.388,-54.199,-53.711,-41.504,-51.758,0.000
1709214750.391,-49.805,-51.270,-39.551,-48.340,0.000
1709214750.395,-37.598,-43.457,-35.645,-38.574,0.000
1709214750.399,-32.715,-44.434,-35.156,-37.598,0.000
1709214750.403,-34.180,-50.293,-37.598,-47.363,0.000
1709214750.407,-34.180,-48.340,-32.715,-51.758,0.000
1709214750.411,-30.762,-50.293,-31.250,-43.945,0.000
1709214750.415,-22.949,-54.688,-36.621,-24.414,0.000
1709214750.419,-23.438,-57.617,-37.109,-33.691,0.000
1709214750.423,-27.832,-48.340,-32.715,-42.969,0.000
1709214750.427,-26.855,-39.551,-31.250,-34.180,0.000
1709214750.431,-29.785,-55.664,-43.457,-28.809,0.000
1709214750.435,-34.668,-55.176,-42.480,-31.738,0.000
1709214750.439,-36.133,-41.992,-34.180,-39.062,0.000
1709214750.442,-40.039,-46.875,-36.133,-36.133,0.000
1709214750.446,-43.457,-54.199,-38.086,-32.715,0.000
1709214750.450,-32.227,-49.805,-36.133,-25.391,0.000
1709214750.454,-23.438,-38.574,-30.273,-20.020,0.000
1709214750.458,-21.484,-50.293,-36.621,-19.043,0.000
1709214750.462,-19.531,-59.082,-35.156,-25.391,0.000
1709214750.466,-24.902,-42.969,-28.320,-34.668,0.000
1709214750.470,-26.855,-47.852,-31.250,-25.391,0.000
1709214750.474,-34.180,-56.152,-33.203,-28.320,0.000
1709214750.478,-34.180,-52.734,-28.320,-26.367,0.000
1709214750.481,-28.320,-52.246,-33.691,-19.043,0.000
1709214750.485,-27.344,-54.199,-39.062,-15.625,0.000
1709214750.489,-25.391,-50.781,-45.410,-17.090,0.000
1709214750.493,-27.344,-46.387,-35.156,-16.602,0.000
1709214750.497,-31.250,-46.875,-26.367,-21.484,0.000
1709214750.501,-28.809,-47.363,-27.344,-21.973,0.000
1709214750.505,-29.785,-49.805,-22.949,-19.531,0.000
1709214750.509,-27.344,-47.363,-19.531,-18.555,0.000
1709214750.513,-32.227,-43.457,-29.297,-26.855,0.000
1709214750.517,-39.062,-44.922,-41.016,-31.250,0.000
1709214750.520,-35.156,-43.457,-33.691,-28.320,0.000
1709214750.524,-36.621,-52.734,-32.227,-42.969,0.000
1709214750.528,-39.062,-56.152,-38.574,-40.039,0.000
1709214750.532,-47.363,-40.527,-37.109,-31.738,0.000
1709214750.536,-38.086,-36.133,-28.809,-26.367,0.000
1709214750.540,-34.668,-44.922,-34.668,-38.086,0.000
1709214750.544,-46.875,-43.945,-42.480,-57.129,0.000
1709214750.548,-46.875,-44.434,-45.410,-46.875,0.000
1709214750.552,-42.480,-46.875,-42.969,-29.785,0.000
1709214750.556,-32.715,-36.133,-37.109,-34.668,0.000
1709214750.559,-25.391,-26.855,-35.156,-42.480,0.000
1709214750.563,-27.832,-33.691,-37.109,-47.363,0.000
1709214750.567,-29.785,-43.945,-32.715,-49.316,0.000
1709214750.571,-18.066,-38.574,-33.203,-45.410,0.000
1709214750.575,-15.137,-40.527,-40.039,-44.434,0.000
1709214750.579,-18.555,-40.039,-42.969,-48.340,0.000
1709214750.583,-21.973,-29.785,-47.363,-53.711,0.000
1709214750.587,-35.156,-35.645,-45.410,-51.270,0.000
1709214750.591,-38.086,-42.480,-41.016,-40.039,0.000
1709214750.594,-29.297,-41.016,-38.086,-31.250,0.000
1709214750.598,-24.902,-35.645,-31.738,-26.367,0.000
1709214750.602,-35.156,-33.203,-35.645,-29.297,0.000
1709214750.606,-44.434,-40.527,-40.039,-33.691,0.000
1709214750.610,-49.805,-38.574,-34.668,-33.691,0.000
1709214750.614,-63.965,-40.039,-43.945,-45.898,0.000
1709214750.618,-65.430,-48.340,-47.363,-55.176,0.000
1709214750.622,-61.523,-52.246,-47.363,-56.152,0.000
1709214750.626,-67.871,-50.293,-49.805,-58.594,0.000
1709214750.630,-69.336,-50.293,-51.270,-56.641,0.000
1709214750.634,-61.523,-53.223,-53.223,-46.387,0.000
1709214750.638,-50.781,-46.387,-44.434,-40.039,0.000
1709214750.642,-49.805,-49.805,-35.156,-41.016,0.000
1709214750.646,-51.758,-58.105,-36.133,-42.480,0.000
1709214750.649,-49.316,-40.527,-40.039,-43.457,0.000
1709214750.653,-55.176,-41.504,-42.480,-42.480,0.000
1709214750.657,-54.199,-45.410,-37.598,-45.898,0.000
1709214750.661,-50.293,-38.574,-40.527,-57.129,0.000
1709214750.665,-54.688,-45.410,-43.457,-49.316,0.000
1709214750.669,-51.758,-46.387,-37.109,-40.527,0.000
1709214750.673,-44.434,-49.805,-28.809,-39.551,0.000
1709214750.677,-37.598,-58.594,-26.367,-36.621,0.000
1709214750.681,-29.297,-54.199,-26.367,-33.691,0.000
1709214750.685,-30.762,-49.316,-32.227,-34.668,0.000
1709214750.689,-35.156,-39.062,-36.133,-33.203,0.000
1709214750.692,-39.062,-31.738,-34.180,-36.133,0.000
1709214750.696,-34.668,-30.762,-31.738,-34.668,0.000
1709214750.700,-23.926,-31.738,-28.809,-28.320,0.000
1709214750.704,-18.555,-29.785,-28.320,-24.902,0.000
1709214750.708,-24.902,-30.273,-26.855,-31.738,0.000
1709214750.712,-36.133,-42.969,-32.715,-34.668,0.000
1709214750.716,-26.367,-46.387,-37.109,-23.926,0.000
1709214750.720,-18.066,-45.410,-43.945,-32.715,0.000
1709214750.724,-29.297,-44.922,-45.898,-48.828,0.000
1709214750.728,-30.273,-38.574,-43.945,-48.828,0.000
1709214750.732,-25.879,-38.086,-41.016,-31.738,0.000
1709214750.735,-27.344,-26.855,-39.062,-31.738,0.000
1709214750.739,-30.762,-25.391,-33.203,-47.852,0.000
1709214750.743,-32.715,-34.180,-26.855,-45.898,0.000
1709214750.747,-39.551,-29.785,-35.645,-42.480,0.000
1709214750.751,-37.109,-30.762,-38.574,-42.480,0.000
1709214750.755,-35.156,-37.598,-39.551,-40.527,0.000
1709214750.759,-32.715,-37.109,-40.527,-40.527,0.000
1709214750.763,-30.273,-36.621,-36.133,-34.668,0.000
1709214750.767,-37.598,-47.363,-37.109,-37.598,0.000
1709214750.771,-39.551,-47.363,-33.203,-40.039,0.000
1709214750.775,-31.738,-42.969,-29.785,-39.551,0.000
1709214750.778,-29.785,-47.852,-31.738,-34.668,0.000
1709214750.782,-28.320,-40.527,-20.508,-33.203,0.000
1709214750.786,-22.461,-34.180,-15.625,-24.414,0.000
1709214750.790,-29.297,-42.969,-22.949,-18.555,0.000
1709214750.794,-42.480,-45.898,-25.879,-33.203,0.000
1709214750.798,-38.574,-39.062,-27.344,-44.434,0.000
1709214750.802,-31.738,-40.039,-36.133,-43.945,0.000
1709214750.806,0.000,-38.086,0.000,-38.574,0.000
1709214750.810,0.000,-39.551,0.000,-38.086,0.000
1709214750.814,0.000,-42.969,0.000,-29.785,0.000
1709214750.818,0.000,-40.527,0.000,-25.391,0.000
1709214750.822,0.000,-40.527,0.000,-30.762,0.000
1709214750.826,0.000,-44.434,0.000,-30.762,0.000
1709214750.829,0.000,-54.688,0.000,-33.203,0.000
1709214750.833,0.000,-53.711,0.000,-25.879,0.000
1709214750.837,0.000,-38.574,0.000,-25.879,0.000
1709214750.841,0.000,-47.852,0.000,-41.504,0.000
1709214750.845,0.000,-53.223,0.000,-47.363,0.000
1709214750.849,0.000,-36.133,0.000,-47.363,0.000
1709214750.853,-40.527,-37.598,-38.574,-38.086,0.000
1709214750.857,-25.391,-41.504,-43.945,-34.180,0.000
1709214750.861,-34.668,-43.945,-43.945,-41.016,0.000
1709214750.865,-39.551,-45.898,-37.598,-38.086,0.000
1709214750.868,-34.180,-52.734,-32.227,-32.227,0.000
1709214750.872,-40.527,-63.477,-45.898,-29.785,0.000
1709214750.876,-43.457,-62.988,-52.246,-28.320,0.000
1709214750.880,-46.387,-44.922,-51.270,-35.156,0.000
1709214750.884,-39.551,-40.527,-52.246,-42.480,0.000
1709214750.888,-40.527,-49.805,-50.293,-42.969,0.000
1709214750.892,-51.270,-47.852,-44.922,-37.109,0.000
1709214750.896,-52.246,-39.062,-35.156,-32.715,0.000
1709214750.900,-48.828,-39.551,-40.039,-44.922,0.000
1709214750.903,-47.852,-45.898,-40.039,-49.316,0.000
1709214750.907,-48.828,-49.316,-39.551,-44.434,0.000
1709214750.911,-44.434,-53.711,-41.504,-44.434,0.000
1709214750.915,-39.062,-60.059,-41.504,-43.945,0.000
1709214750.919,-36.133,-45.410,-38.574,-38.086,0.000
1709214750.923,-37.598,-37.109,-43.457,-35.156,0.000
1709214750.927,-52.246,-49.805,-46.875,-44.922,0.000
1709214750.931,-50.293,-40.039,-39.551,-55.664,0.000
1709214750.935,-45.410,-29.785,-41.016,-50.781,0.000
1709214750.939,-47.852,-39.062,-47.363,-48.340,0.000
1709214750.943,-49.805,-52.246,-41.504,-44.922,0.000
1709214750.946,-51.758,-56.152,-38.574,-45.410,0.000
1709214750.950,-45.410,-53.223,-41.016,-40.527,0.000
1709214750.954,-39.551,-46.387,-42.480,-30.762,0.000
1709214750.958,-42.969,-44.434,-52.246,-37.598,0.000
1709214750.962,-40.527,-49.316,-44.922,-34.180,0.000
1709214750.966,-36.133,-52.246,-42.480,-24.414,0.000
1709214750.970,-39.062,-44.922,-48.828,-22.949,0.000
1709214750.974,-40.527,-44.922,-40.039,-30.273,0.000
1709214750.978,-33.691,-41.504,-33.691,-26.855,0.000
1709214750.981,-30.762,-41.504,-34.180,-26.855,0.000
1709214750.985,-42.480,-43.945,-45.898,-44.434,0.000
1709214750.989,-45.410,-44.434,-49.805,-48.340,0.000
1709214750.993,-34.668,-43.457,-46.875,-35.645,0.000
1709214750.997,-27.344,-43.457,-42.480,-25.879,0.000
1709214751.001,-30.273,-49.316,-38.086,-41.016,0.000
1709214751.005,-35.156,-39.551,-37.598,-52.246,0.000
1709214751.009,-31.738,-25.391,-30.762,-32.715,0.000
1709214751.013,-36.133,-36.621,-34.180,-30.273,0.000
1709214751.017,-37.598,-51.270,-49.805,-33.203,0.000
1709214751.021,-34.668,-52.246,-42.480,-40.039,0.000
1709214751.024,-28.809,-53.223,-27.344,-46.875,0.000
1709214751.028,-33.691,-64.453,-35.156,-28.320,0.000
1709214751.032,-31.250,-54.199,-40.527,-24.414,0.000
1709214751.036,-23.438,-35.645,-30.273,-32.715,0.000
1709214751.040,-24.902,-43.945,-29.785,-32.227,0.000
1709214751.044,-33.691,-41.504,-34.180,-35.156,0.000
1709214751.048,-42.480,-34.180,-35.645,-40.039,0.000
1709214751.052,-38.086,-43.457,-40.527,-36.133,0.000
1709214751.056,-30.762,-48.340,-35.645,-30.273,0.000
1709214751.060,-29.297,-42.480,-42.480,-34.668,0.000
1709214751.064,-26.855,-41.504,-49.316,-35.645,0.000
1709214751.068,-29.785,-49.805,-39.551,-39.551,0.000
1709214751.072,-37.109,-56.152,-40.527,-32.227,0.000
1709214751.075,-31.738,-53.223,-37.598,-20.996,0.000
1709214751.079,-31.250,-49.805,-39.551,-33.203,0.000
1709214751.083,-37.109,-51.270,-42.480,-29.785,0.000
1709214751.087,-39.551,-46.387,-38.086,-20.508,0.000
1709214751.091,-40.527,-44.434,-39.062,-23.926,0.000
1709214751.095,-31.738,-31.738,-34.180,-15.625,0.000
1709214751.099,-35.156,-43.945,-38.574,-23.926,0.000
1709214751.103,-47.852,-64.453,-45.410,-42.969,0.000
1709214751.107,-48.340,-60.059,-40.039,-38.086,0.000
1709214751.111,-47.852,-46.875,-33.203,-28.809,0.000
1709214751.115,-47.852,-40.039,-27.832,-34.180,0.000
1709214751.118,-39.551,-45.898,-26.367,-35.156,0.000
1709214751.122,-32.227,-45.410,-29.297,-39.062,0.000
1709214751.126,-45.898,-48.828,-35.645,-42.969,0.000
1709214751.130,-48.828,-52.246,-31.738,-40.039,0.000
1709214751.134,-39.551,-43.945,-33.203,-36.621,0.000
1709214751.138,-38.086,-39.551,-38.574,-39.062,0.000
1709214751.142,-34.668,-35.645,-29.297,-41.992,0.000
1709214751.146,-35.156,-40.039,-29.785,-42.480,0.000
1709214751.150,-33.691,-41.504,-41.504,-39.551,0.000
1709214751.154,-35.156,-37.598,-40.527,-34.180,0.000
1709214751.157,-43.457,-44.922,-40.527,-39.062,0.000
1709214751.161,-36.621,-43.457,-40.039,-35.645,0.000
1709214751.165,-36.133,-49.805,-35.645,-32.227,0.000
1709214751.169,-43.945,-55.664,-36.133,-39.062,0.000
1709214751.173,-38.574,-46.387,-30.762,-40.039,0.000
1709214751.177,-28.809,-42.480,-32.715,-33.203,0.000
1709214751.181,-28.320,-34.180,-43.945,-32.227,0.000
1709214751.185,-39.062,-43.457,-41.016,-40.527,0.000
1709214751.189,-41.992,-51.270,-38.574,-40.039,0.000
1709214751.193,-41.504,-41.992,-46.875,-40.527,0.000
1709214751.197,-46.875,-40.527,-43.457,-38.086,0.000
1709214751.200,-47.363,-52.246,-31.738,-37.109,0.000
1709214751.204,-47.852,-54.688,-40.527,-48.340,0.000
1709214751.208,-39.551,-45.410,-39.062,-38.574,0.000
1709214751.212,-44.922,-41.504,-33.691,-33.203,0.000
1709214751.216,-52.246,-37.109,-42.969,-52.246,0.000
1709214751.220,-44.434,-37.109,-44.434,-48.828,0.000
1709214751.224,-44.922,-42.969,-37.598,-40.527,0.000
1709214751.228,-53.711,-44.434,-38.574,-46.875,0.000
1709214751.232,-49.316,-41.016,-39.551,-41.504,0.000
1709214751.236,-36.133,-40.527,-40.039,-36.621,0.000
1709214751.239,-37.109,-44.922,-44.434,-47.363,0.000
1709214751.243,-32.715,-41.016,-27.832,-48.340,0.000
1709214751.247,-37.598,-38.086,-21.484,-44.434,0.000
1709214751.251,-40.527,-46.387,-33.691,-40.039,0.000
1709214751.255,-36.621,-57.617,-41.504,-31.738,0.000
1709214751.259,-26.855,-49.805,-38.086,-27.832,0.000
1709214751.263,-24.902,-38.574,-39.062,-27.344,0.000
1709214751.267,-31.250,-37.109,-33.203,-24.414,0.000
1709214751.271,-22.949,-31.250,-26.855,-16.113,0.000
1709214751.274,-16.602,-41.016,-29.785,-9.766,0.000
1709214751.278,-15.137,-48.828,-34.180,-8.301,0.000
1709214751.282,-20.508,-41.504,-33.691,-11.719,0.000
1709214751.286,-29.785,-36.133,-28.809,-18.066,0.000
1709214751.290,-33.203,-35.156,-25.879,-17.090,0.000
1709214751.294,-33.691,-41.016,-28.809,-20.508,0.000
1709214751.298,-31.738,-52.734,-34.180,-21.484,0.000
1709214751.302,-32.715,-51.758,-28.320,-24.414,0.000
1709214751.306,-44.922,-46.387,-30.762,-41.992,0.000
1709214751.310,-45.410,-47.363,-32.715,-45.410,0.000
1709214751.314,-37.598,-44.434,-31.738,-45.898,0.000
1709214751.317,-39.062,-47.363,-40.527,-51.758,0.000
1709214751.321,-41.504,-50.293,-44.434,-57.129,0.000
1709214751.325,-41.504,-50.293,-41.504,-56.641,0.000
1709214751.329,-37.598,-43.945,-39.551,-51.758,0.000
1709214751.333,-34.180,-45.410,-42.480,-56.641,0.000
1709214751.337,-39.062,-63.477,-44.922,-55.176,0.000
1709214751.341,-46.387,-63.965,-45.898,-44.922,0.000
1709214751.345,-59.082,-46.387,-45.898,-46.875,0.000
1709214751.349,-62.012,-37.109,-42.480,-55.176,0.000
1709214751.352,-49.805,-37.598,-45.898,-47.852,0.000
1709214751.356,-39.551,-42.480,-38.574,-33.691,0.000
1709214751.360,-43.945,-45.898,-27.832,-44.922,0.000
1709214751.364,-47.363,-44.434,-31.738,-51.270,0.000
1709214751.368,-49.805,-46.875,-32.715,-45.410,0.000
1709214751.372,-45.410,-48.340,-39.062,-46.875,0.000
1709214751.376,-37.598,-44.922,-40.039,-41.992,0.000
1709214751.380,-43.457,-45.898,-29.297,-38.574,0.000
1709214751.384,-49.316,-60.547,-31.738,-47.852,0.000
1709214751.388,-35.156,-63.477,-31.250,-41.992,0.000
1709214751.392,-34.180,-52.734,-27.344,-33.691,0.000
1709214751.395,-44.922,-58.105,-31.250,-37.109,0.000
1709214751.399,-39.062,-52.246,-28.809,-37.598,0.000
1709214751.403,-30.273,-43.945,-30.273,-26.367,0.000
1709214751.407,-28.809,-43.457,-32.227,-23.926,0.000
1709214751.411,-30.273,-33.203,-26.367,-31.250,0.000
1709214751.415,-36.133,-39.551,-31.250,-29.297,0.000
1709214751.419,-40.527,-50.781,-44.434,-38.574,0.000
1709214751.423,-42.969,-46.875,-45.410,-54.199,0.000
1709214751.427,-48.828,-52.734,-38.086,-50.781,0.000
1709214751.431,-44.922,-45.898,-39.062,-40.039,0.000
1709214751.435,-38.574,-42.480,-44.922,-38.574,0.000
1709214751.439,-32.715,-50.781,-41.992,-37.598,0.000
1709214751.442,-33.203,-41.016,-34.180,-39.062,0.000
1709214751.446,-44.434,-40.527,-36.133,-41.992,0.000
1709214751.450,-42.480,-52.246,-40.527,-31.738,0.000
1709214751.454,-43.945,-56.152,-37.109,-33.203,0.000
1709214751.458,-50.293,-59.082,-37.598,-48.828,0.000
1709214751.462,-48.340,-58.594,-36.133,-49.316,0.000
1709214751.466,-59.570,-54.199,-34.180,-50.781,0.000
1709214751.470,-67.871,-49.805,-41.016,-52.734,0.000
1709214751.474,-63.477,-50.781,-46.387,-51.758,0.000
1709214751.478,-57.129,-57.617,-46.875,-52.246,0.000
1709214751.482,-52.246,-49.805,-48.340,-57.617,0.000
1709214751.485,-57.129,-38.086,-52.734,-61.035,0.000
1709214751.489,-56.641,-36.133,-51.270,-56.641,0.000
1709214751.493,-46.387,-45.410,-40.039,-41.992,0.000
1709214751.497,-41.504,-56.152,-38.086,-34.668,0.000
1709214751.501,-39.062,-64.453,-39.551,-35.156,0.000
1709214751.505,-26.855,-60.547,-34.668,-30.762,0.000
1709214751.509,-26.855,-52.246,-36.133,-32.227,0.000
1709214751.513,-27.344,-65.430,-35.156,-32.715,0.000
1709214751.517,-22.949,-63.965,-38.574,-34.180,0.000
1709214751.521,-21.973,-47.852,-47.363,-37.109,0.000
1709214751.524,-24.414,-38.574,-41.992,-34.668,0.000
1709214751.528,-29.785,-37.598,-39.551,-34.668,0.000
1709214751.532,-34.180,-46.875,-43.945,-38.574,0.000
1709214751.536,-24.902,-46.387,-27.832,-27.832,0.000
1709214751.540,-20.020,-49.805,-12.695,-19.043,0.000
1709214751.544,-36.621,-57.617,-24.414,-35.645,0.000
1709214751.548,-38.574,-52.734,-28.320,-46.875,0.000
1709214751.552,-40.039,-52.734,-35.645,-52.734,0.000
1709214751.556,-44.922,-57.617,-45.410,-50.781,0.000
1709214751.560,-50.781,-57.129,-41.504,-53.223,0.000
1709214751.563,-59.570,-57.129,-44.922,-59.570,0.000
1709214751.567,-60.059,-45.898,-35.645,-58.105,0.000
1709214751.571,-71.289,-39.551,-41.504,-68.359,0.000
1709214751.575,-71.289,-47.852,-51.758,-65.918,0.000
1709214751.579,-62.500,-54.688,-43.945,-56.152,0.000
1709214751.583,-62.988,-57.617,-41.504,-55.664,0.000
1709214751.587,-62.500,-51.758,-42.480,-49.316,0.000
1709214751.591,-65.918,-56.152,-47.852,-51.758,0.000
1709214751.595,-58.105,-51.758,-41.992,-48.828,0.000
1709214751.599,-52.734,-51.270,-38.086,-52.246,0.000
1709214751.602,-56.641,-62.500,-40.039,-56.641,0.000
1709214751.606,-62.988,-66.895,-41.992,-53.711,0.000
1709214751.610,-63.965,-68.848,-47.363,-44.922,0.000
1709214751.614,-60.547,-65.918,-45.410,-44.922,0.000
1709214751.618,-64.453,-54.688,-44.434,-53.223,0.000
1709214751.622,-57.617,-44.434,-41.504,-53.223,0.000
1709214751.626,-53.711,-44.434,-34.180,-46.387,0.000
1709214751.630,-50.781,-37.598,-30.273,-31.250,0.000
1709214751.634,-46.387,-40.039,-37.109,-36.133,0.000
1709214751.638,-41.016,-49.805,-41.016,-41.016,0.000
1709214751.642,-37.598,-47.363,-45.410,-38.086,0.000
1709214751.645,-41.504,-50.781,-47.363,-43.945,0.000
1709214751.649,-40.527,-50.293,-36.621,-38.086,0.000
1709214751.653,-40.039,-49.316,-31.250,-35.156,0.000
1709214751.657,-40.039,-55.664,-35.645,-39.551,0.000
1709214751.661,-37.109,-45.410,-41.992,-42.480,0.000
1709214751.665,-42.480,-35.156,-47.363,-45.898,0.000
1709214751.669,-48.340,-41.992,-44.434,-40.527,0.000
1709214751.673,-40.039,-49.316,-48.340,-20.020,0.000
1709214751.677,-41.016,-47.852,-43.457,-20.508,0.000
1709214751.681,-41.504,-41.504,-34.180,-33.203,0.000
1709214751.684,-36.133,-43.457,-27.832,-34.180,0.000
1709214751.688,-44.922,-46.387,-26.367,-35.156,0.000
1709214751.692,-52.246,-50.293,-42.480,-33.691,0.000
1709214751.696,-41.504,-56.152,-53.223,-29.785,0.000
1709214751.700,-38.574,-50.781,-40.039,-26.367,0.000
1709214751.704,-44.922,-48.828,-30.273,-29.785,0.000
1709214751.708,-45.410,-49.805,-39.062,-34.180,0.000
1709214751.712,-34.180,-37.598,-42.969,-25.879,0.000
1709214751.716,-30.762,-37.109,-37.598,-22.949,0.000
1709214751.719,-35.645,-41.504,-36.133,-28.809,0.000
1709214751.723,-34.180,-38.574,-35.645,-29.785,0.000
1709214751.727,-37.598,-39.062,-33.203,-35.156,0.000
1709214751.731,-40.527,-39.551,-34.180,-30.762,0.000
1709214751.735,-40.039,-42.480,-41.016,-27.344,0.000
1709214751.739,-38.574,-43.457,-41.992,-33.691,0.000
1709214751.743,-48.828,-51.270,-39.551,-40.527,0.000
1709214751.747,-53.223,-49.316,-45.410,-41.992,0.000
1709214751.751,-40.039,-41.016,-48.340,-40.527,0.000
1709214751.755,-37.109,-48.828,-50.293,-44.922,0.000
1709214751.759,-42.969,-48.340,-49.316,-48.340,0.000
1709214751.762,-43.457,-32.227,-38.574,-43.457,0.000
1709214751.766,-42.969,-37.109,-39.551,-50.781,0.000
1709214751.770,-41.504,-47.363,-48.340,-50.781,0.000
1709214751.774,-36.621,-39.551,-47.852,-41.992,0.000
1709214751.778,-34.668,-43.457,-47.852,-44.922,0.000
1709214751.782,-33.203,-48.340,-42.969,-40.527,0.000
1709214751.786,-35.156,-41.504,-40.039,-42.969,0.000
1709214751.790,-38.086,-41.992,-37.598,-41.504,0.000
1709214751.794,-39.551,-37.109,-33.203,-34.180,0.000
1709214751.798,-34.668,-28.320,-39.551,-37.109,0.000
1709214751.802,-37.109,-33.691,-48.340,-43.457,0.000
1709214751.806,-41.016,-39.062,-53.711,-47.363,0.000
1709214751.809,-38.086,-43.945,-47.852,-46.875,0.000
1709214751.813,-38.574,-43.457,-33.691,-38.086,0.000
1709214751.817,-36.133,-35.156,-30.762,-36.621,0.000
1709214751.821,-32.227,-36.621,-34.180,-30.762,0.000
1709214751.825,-27.344,-40.527,-33.691,-28.320,0.000
1709214751.829,-22.949,-34.180,-37.598,-36.133,0.000
1709214751.833,-13.184,-27.344,-36.621,-26.855,0.000
1709214751.837,-12.207,-29.297,-30.273,-27.832,0.000
1709214751.841,-21.973,-28.809,-36.133,-46.387,0.000
1709214751.845,-21.484,-31.738,-41.016,-46.387,0.000
1709214751.849,-14.648,-40.527,-37.109,-36.133,0.000
1709214751.852,-16.113,-41.016,-33.691,-39.551,0.000
1709214751.856,-24.902,-37.598,-40.527,-43.457,0.000
1709214751.860,-28.320,-27.832,-44.434,-37.598,0.000
1709214751.864,-33.203,-35.645,-37.598,-43.945,0.000
1709214751.868,-41.016,-56.152,-33.691,-41.992,0.000
1709214751.872,-33.691,-44.434,-33.691,-29.297,0.000
1709214751.876,-21.484,-33.203,-41.016,-35.645,0.000
1709214751.880,-20.020,-37.109,-44.922,-39.551,0.000
1709214751.884,-23.926,-35.156,-42.480,-41.992,0.000
1709214751.888,-23.438,-37.109,-40.039,-35.156,0.000
1709214751.891,-22.949,-32.227,-39.551,-30.762,0.000
1709214751.895,-26.855,-33.691,-41.504,-43.457,0.000
1709214751.899,-36.133,-53.711,-41.992,-57.129,0.000
1709214751.903,-41.016,-48.828,-44.434,-59.570,0.000
1709214751.907,-51.270,-47.363,-52.734,-56.641,0.000
1709214751.911,-59.570,-60.547,-48.340,-45.898,0.000
1709214751.915,-49.805,-54.688,-40.039,-30.762,0.000
1709214751.919,-37.109,-45.410,-33.691,-29.297,0.000
1709214751.923,-37.109,-42.480,-29.785,-35.645,0.000
1709214751.927,-47.363,-53.711,-40.527,-48.828,0.000
1709214751.930,-57.617,-63.965,-43.457,-48.828,0.000
1709214751.934,-48.340,-65.918,-38.086,-34.180,0.000
1709214751.938,-38.086,-57.129,-37.109,-28.809,0.000
1709214751.942,-34.668,-44.434,-38.086,-34.180,0.000
1709214751.946,-29.785,-48.340,-33.691,-35.156,0.000
1709214751.950,-33.203,-54.199,-31.250,-30.762,0.000
1709214751.954,-28.809,-42.480,-31.738,-22.949,0.000
1709214751.958,-23.926,-44.922,-27.832,-13.184,0.000
1709214751.962,-26.855,-46.875,-31.250,-11.719,0.000
1709214751.966,-24.902,-38.574,-37.109,-23.926,0.000
1709214751.970,-21.973,-35.645,-32.227,-26.367,0.000
1709214751.973,-25.879,-35.645,-30.273,-28.809,0.000
1709214751.977,-25.879,-42.480,-36.621,-35.156,0.000
1709214751.981,-28.320,-44.922,-39.062,-34.180,0.000
1709214751.985,-31.738,-51.758,-42.969,-30.762,0.000
1709214751.989,-31.250,-57.617,-41.992,-32.715,0.000
1709214751.993,-31.250,-44.434,-31.738,-33.691,0.000
1709214751.997,-34.668,-45.410,-30.762,-37.598,0.000
1709214752.001,-38.574,-50.781,-37.109,-39.551,0.000
1709214752.005,-42.480,-48.828,-38.086,-37.109,0.000
1709214752.009,-43.945,-44.922,-30.762,-38.086,0.000
1709214752.012,-40.527,-33.691,-29.297,-37.109,0.000
1709214752.016,-32.715,-34.668,-33.691,-37.598,0.000
1709214752.020,-35.645,-42.480,-47.852,-52.246,0.000
1709214752.024,-38.086,-50.293,-52.734,-60.547,0.000
1709214752.028,-39.062,-52.246,-38.574,-43.945,0.000
1709214752.032,-47.363,-60.547,-31.250,-37.598,0.000
1709214752.036,-39.551,-59.570,-29.297,-37.109,0.000
1709214752.040,-29.785,-45.898,-26.367,-26.855,0.000
1709214752.044,-29.785,-42.969,-25.391,-33.203,0.000
1709214752.048,-37.598,-63.477,-27.344,-38.086,0.000
1709214752.051,-40.527,-69.824,-29.785,-36.133,0.000
1709214752.055,-29.785,-55.664,-29.785,-38.086,0.000
1709214752.059,-25.879,-55.176,-32.227,-35.156,0.000
1709214752.063,-28.809,-52.246,-34.668,-38.086,0.000
1709214752.067,-34.180,-43.945,-32.227,-37.109,0.000
1709214752.071,-33.203,-49.805,-25.879,-25.391,0.000
1709214752.075,-20.996,-57.617,-27.832,-9.766,0.000
1709214752.079,-23.926,-45.410,-38.086,-10.742,0.000
1709214752.083,-33.203,-57.129,-34.668,-21.973,0.000
1709214752.087,-41.016,-64.941,-34.668,-21.484,0.000
1709214752.091,-39.551,-51.270,-34.668,-19.043,0.000
1709214752.095,-27.344,-44.434,-30.762,-8.301,0.000
1709214752.099,-32.227,-39.062,-29.785,-24.902,0.000
1709214752.103,-38.086,-52.246,-27.344,-42.969,0.000
1709214752.106,-32.715,-56.152,-24.902,-30.273,0.000
1709214752.110,-33.691,-52.246,-26.367,-31.738,0.000
1709214752.114,-29.297,-50.293,-40.039,-37.598,0.000
1709214752.118,-25.879,-43.945,-45.410,-39.062,0.000
1709214752.122,-27.832,-43.945,-42.969,-46.875,0.000
1709214752.126,-29.297,-45.898,-43.457,-52.734,0.000
1709214752.130,-30.762,-41.504,-43.457,-41.504,0.000
1709214752.134,-30.762,-31.250,-43.945,-38.574,0.000
1709214752.138,-26.855,-36.133,-35.156,-42.969,0.000
1709214752.142,-34.180,-37.598,-28.809,-44.922,0.000
1709214752.146,-45.898,-33.691,-37.598,-50.781,0.000
1709214752.150,-46.875,-35.156,-45.898,-47.852,0.000
1709214752.153,-43.945,-43.457,-45.410,-42.480,0.000
1709214752.157,-41.992,-44.434,-45.410,-41.016,0.000
1709214752.161,-42.969,-40.039,-48.828,-44.922,0.000
1709214752.165,-44.922,-43.945,-48.340,-50.293,0.000
1709214752.169,-51.270,-41.992,-41.016,-41.504,0.000
1709214752.173,-49.805,-41.504,-39.062,-34.668,0.000
1709214752.177,-47.363,-45.898,-48.340,-41.992,0.000
1709214752.181,-49.316,-38.086,-53.711,-55.664,0.000
1709214752.185,-45.410,-31.250,-51.270,-57.617,0.000
1709214752.189,-40.527,-29.785,-43.457,-49.805,0.000
1709214752.193,-41.504,-33.203,-47.852,-46.875,0.000
1709214752.196,-41.016,-38.574,-59.082,-44.922,0.000
1709214752.200,-44.434,-37.109,-62.500,-44.922,0.000
1709214752.204,-49.316,-41.992,-53.223,-48.340,0.000
1709214752.208,-38.574,-40.039,-41.016,-41.504,0.000
1709214752.212,-35.156,-29.785,-46.387,-35.645,0.000
1709214752.216,-39.062,-32.227,-52.734,-40.039,0.000
1709214752.220,-32.227,-40.039,-49.805,-43.945,0.000
1709214752.224,-30.273,-43.945,-44.434,-44.922,0.000
1709214752.228,-43.457,-54.199,-44.434,-44.922,0.000
1709214752.232,-44.434,-48.340,-50.293,-42.480,0.000
1709214752.236,-32.227,-40.039,-51.270,-43.945,0.000
1709214752.239,-32.715,-33.691,-54.199,-48.340,0.000
1709214752.243,-35.156,-39.062,-55.176,-43.457,0.000
1709214752.247,-38.086,-44.922,-49.805,-41.504,0.000
1709214752.251,-46.387,-42.969,-44.922,-49.805,0.000
1709214752.255,-45.410,-43.457,-50.781,-53.711,0.000
1709214752.259,-42.969,-37.598,-52.246,-55.176,0.000
1709214752.263,-45.410,-39.062,-39.551,-60.059,0.000
1709214752.267,-50.781,-40.527,-36.621,-63.477,0.000
1709214752.271,-58.105,-47.363,-48.828,-62.012,0.000
1709214752.275,-55.176,-54.688,-45.898,-52.246,0.000
1709214752.278,-44.434,-51.758,-39.062,-41.504,0.000
1709214752.282,-39.062,-47.852,-45.898,-47.363,0.000
1709214752.286,-46.875,-51.758,-45.898,-51.270,0.000
1709214752.290,-44.434,-34.668,-37.109,-29.785,0.000
1709214752.294,-35.645,-28.809,-35.156,-27.344,0.000
1709214752.298,-36.133,-46.387,-37.109,-40.527,0.000
1709214752.302,-38.086,-40.039,-38.086,-41.992,0.000
1709214752.306,-44.434,-37.109,-47.363,-41.016,0.000
1709214752.310,-46.387,-42.969,-42.969,-43.457,0.000
1709214752.314,-46.387,-41.016,-45.410,-39.551,0.000
1709214752.318,-45.898,-48.340,-43.457,-39.551,0.000
1709214752.321,-43.945,-46.387,-32.227,-42.480,0.000
1709214752.325,-41.016,-41.504,-34.668,-35.156,0.000
1709214752.329,-39.062,-40.039,-35.645,-25.391,0.000
1709214752.333,-47.852,-50.781,-38.574,-20.508,0.000
1709214752.337,-50.293,-42.969,-36.621,-20.996,0.000
1709214752.341,-40.039,-34.180,-37.598,-28.320,0.000
1709214752.345,-42.480,-47.363,-39.062,-31.738,0.000
1709214752.349,-47.363,-47.852,-34.668,-26.855,0.000
1709214752.353,-33.691,-43.945,-33.691,-17.090,0.000
1709214752.357,-26.367,-46.875,-32.227,-15.625,0.000
1709214752.360,-30.273,-51.758,-29.785,-20.508,0.000
1709214752.364,-36.133,-54.199,-29.785,-25.879,0.000
1709214752.368,-36.133,-56.641,-31.738,-30.762,0.000
1709214752.372,-32.715,-57.129,-35.645,-35.156,0.000
1709214752.376,-30.762,-47.852,-40.527,-37.109,0.000
1709214752.380,-29.785,-40.039,-35.645,-33.203,0.000
1709214752.384,-37.109,-43.945,-27.832,-41.992,0.000
1709214752.388,-40.039,-46.875,-36.133,-44.922,0.000
1709214752.392,-35.156,-38.086,-40.527,-33.691,0.000
1709214752.396,-35.645,-41.016,-34.668,-35.645,0.000
1709214752.400,-27.344,-49.805,-36.133,-32.227,0.000
1709214752.404,-31.738,-45.898,-41.016,-30.762,0.000
1709214752.407,-39.062,-44.922,-35.156,-37.109,0.000
1709214752.411,-43.945,-51.270,-33.203,-30.273,0.000
1709214752.415,-52.246,-58.594,-40.039,-30.762,0.000
1709214752.419,-50.781,-56.641,-40.527,-33.691,0.000
1709214752.423,-46.387,-53.223,-35.156,-24.414,0.000
1709214752.427,-45.898,-44.434,-34.180,-26.855,0.000
1709214752.431,-45.898,-37.598,-37.109,-36.621,0.000
1709214752.435,-33.691,-41.504,-37.109,-34.668,0.000
1709214752.439,-31.250,-47.852,-27.832,-41.504,0.000
1709214752.443,-34.180,-51.758,-22.461,-46.387,0.000
1709214752.446,-36.133,-52.734,-28.320,-41.504,0.000
1709214752.450,-43.457,-56.152,-30.273,-41.992,0.000
1709214752.454,-37.109,-51.758,-31.738,-41.016,0.000
1709214752.458,-31.250,-47.852,-38.086,-44.922,0.000
1709214752.462,-36.621,-50.781,-40.527,-51.758,0.000
1709214752.466,-39.551,-45.898,-36.133,-50.293,0.000
1709214752.470,-41.016,-42.480,-38.574,-44.434,0.000
1709214752.474,-38.574,-44.434,-39.551,-42.969,0.000
1709214752.478,-31.250,-46.387,-35.645,-40.039,0.000
1709214752.481,-18.066,-42.969,-35.156,-33.203,0.000
1709214752.485,-22.461,-40.527,-38.086,-40.527,0.000
1709214752.489,-31.250,-38.574,-38.574,-37.598,0.000
1709214752.493,-23.926,-38.086,-30.273,-23.926,0.000
1709214752.497,-26.367,-50.781,-32.715,-35.156,0.000
1709214752.501,-31.738,-56.152,-37.598,-47.363,0.000
1709214752.505,-39.551,-43.457,-39.551,-49.316,0.000
1709214752.509,-41.504,-37.109,-47.852,-54.199,0.000
1709214752.513,-34.180,-39.062,-44.434,-49.805,0.000
1709214752.517,-38.574,-35.645,-37.598,-48.828,0.000
1709214752.521,-44.922,-37.109,-44.434,-55.176,0.000
1709214752.525,-42.480,-39.062,-46.875,-56.152,0.000
1709214752.528,-38.086,-39.062,-41.504,-41.504,0.000
1709214752.532,-32.715,-45.898,-42.969,-37.109,0.000
1709214752.536,-38.086,-49.316,-50.781,-52.246,0.000
1709214752.540,-41.016,-48.340,-57.129,-45.410,0.000
1709214752.544,-21.484,-43.457,-47.852,-35.156,0.000
1709214752.548,-16.113,-36.621,-31.738,-34.180,0.000
1709214752.552,-27.344,-39.062,-41.016,-33.203,0.000
1709214752.556,-27.344,-45.410,-42.969,-34.180,0.000
1709214752.560,-22.949,-53.711,-38.574,-37.598,0.000
1709214752.564,-28.809,-40.527,-42.480,-52.246,0.000
1709214752.568,-33.691,-27.832,-38.086,-54.199,0.000
1709214752.571,-28.320,-27.832,-34.180,-38.086,0.000
1709214752.575,-29.297,-32.715,-33.691,-28.809,0.000
1709214752.579,-33.691,-39.551,-31.250,-32.227,0.000
1709214752.583,-33.203,-39.062,-32.715,-40.527,0.000
1709214752.587,-32.715,-43.945,-31.250,-37.109,0.000
1709214752.591,-40.527,-54.199,-38.086,-33.691,0.000
1709214752.595,-35.156,-46.387,-44.922,-36.133,0.000
1709214752.599,-30.273,-30.273,-33.691,-33.691,0.000
1709214752.603,-35.645,-34.180,-31.250,-41.016,0.000
1709214752.607,-43.457,-40.527,-34.668,-47.363,0.000
1709214752.611,-50.781,-48.828,-38.574,-48.828,0.000
1709214752.614,-42.969,-51.270,-39.551,-49.805,0.000
1709214752.618,-40.039,-43.945,-33.691,-33.203,0.000
1709214752.622,-44.434,-44.922,-35.645,-31.250,0.000
1709214752.626,-43.457,-45.410,-40.039,-49.805,0.000
1709214752.630,-36.621,-38.574,-39.062,-42.480,0.000
1709214752.634,-41.016,-42.969,-41.016,-41.992,0.000
1709214752.638,-55.664,-55.176,-34.668,-43.945,0.000
1709214752.642,-61.035,-54.688,-32.715,-46.875,0.000
1709214752.646,-62.988,-41.016,-40.527,-47.852,0.000
1709214752.650,-73.730,-41.016,-45.898,-46.387,0.000
1709214752.654,-71.289,-47.852,-38.574,-48.828,0.000
1709214752.657,-54.199,-47.852,-32.227,-42.969,0.000
1709214752.661,-53.711,-55.176,-31.250,-42.969,0.000
1709214752.665,-64.941,-52.734,-36.621,-42.969,0.000
1709214752.669,-58.594,-36.133,-40.527,-38.574,0.000
1709214752.673,-52.246,-38.574,-38.574,-35.645,0.000
1709214752.677,-53.223,-47.363,-36.621,-42.969,0.000
1709214752.681,-46.875,-44.434,-40.039,-40.527,0.000
1709214752.685,-40.039,-35.645,-41.016,-27.832,0.000
1709214752.689,-45.410,-36.133,-42.480,-32.227,0.000
1709214752.693,-44.922,-41.016,-41.504,-36.621,0.000
1709214752.696,-38.574,-45.410,-38.086,-36.133,0.000
1709214752.700,-29.785,-45.898,-37.598,-33.691,0.000
1709214752.704,-34.668,-42.969,-40.039,-37.109,0.000
1709214752.708,-45.898,-44.434,-29.785,-33.203,0.000
1709214752.712,-36.621,-35.645,-28.809,-29.785,0.000
1709214752.716,-27.344,-32.227,-33.203,-36.133,0.000
1709214752.720,-23.438,-41.504,-25.879,-31.738,0.000
1709214752.724,-34.180,-43.457,-32.715,-41.504,0.000
1709214752.728,-45.898,-39.062,-34.668,-50.293,0.000
1709214752.732,-40.039,-42.480,-31.250,-48.828,0.000
1709214752.735,-36.133,-52.246,-33.691,-40.039,0.000
1709214752.739,-38.086,-46.387,-30.273,-40.039,0.000
1709214752.743,-40.039,-36.621,-31.738,-44.922,0.000
1709214752.747,-45.898,-51.270,-35.645,-41.504,0.000
1709214752.751,-42.969,-52.246,-41.504,-39.551,0.000
1709214752.755,-39.551,-41.016,-42.969,-33.203,0.000
1709214752.759,-46.875,-57.129,-37.598,-42.969,0.000
1709214752.763,-41.016,-54.688,-32.227,-52.734,0.000
1709214752.767,-36.133,-48.340,-31.250,-49.805,0.000
1709214752.771,-35.645,-50.293,-35.645,-41.992,0.000
1709214752.774,-30.273,-51.758,-45.410,-40.039,0.000
1709214752.778,-24.414,-54.199,-45.410,-46.387,0.000
1709214752.782,-26.367,-41.016,-38.086,-48.828,0.000
1709214752.786,-39.551,-42.969,-40.039,-54.688,0.000
1709214752.790,-40.039,-52.246,-37.598,-55.176,0.000
1709214752.794,-39.062,-44.434,-33.691,-43.945,0.000
1709214752.798,-45.898,-39.551,-33.203,-30.273,0.000
1709214752.802,-50.293,-39.062,-28.809,-35.645,0.000
1709214752.806,-53.223,-45.898,-29.785,-50.781,0.000
1709214752.810,-50.781,-47.852,-37.109,-50.781,0.000
1709214752.813,-51.758,-48.828,-36.621,-43.457,0.000
1709214752.817,-54.688,-55.664,-42.969,-45.410,0.000
1709214752.821,-49.805,-51.270,-52.246,-51.758,0.000
1709214752.825,-48.340,-38.086,-47.852,-49.805,0.000
1709214752.829,-56.152,-32.715,-41.504,-49.316,0.000
1709214752.833,-52.246,-40.527,-41.016,-43.945,0.000
1709214752.837,-49.805,-41.504,-44.922,-49.316,0.000
1709214752.841,-57.617,-43.945,-43.945,-61.035,0.000
1709214752.845,-64.453,-56.152,-45.898,-56.641,0.000
1709214752.848,-64.941,-61.035,-55.176,-49.316,0.000
1709214752.852,-56.152,-48.340,-53.223,-48.828,0.000
1709214752.856,-44.922,-46.875,-39.551,-59.082,0.000
1709214752.860,-37.598,-47.852,-31.250,-59.570,0.000
1709214752.864,-35.645,-43.945,-34.180,-45.410,0.000
1709214752.868,-34.180,-47.852,-39.062,-37.598,0.000
1709214752.872,-37.109,-48.828,-51.270,-36.133,0.000
1709214752.876,-41.504,-46.875,-53.711,-35.645,0.000
1709214752.880,-35.156,-45.898,-44.922,-38.574,0.000
1709214752.884,-33.203,-50.781,-44.922,-42.969,0.000
1709214752.888,-34.180,-61.035,-49.805,-40.527,0.000
1709214752.892,-33.203,-54.199,-42.480,-35.156,0.000
1709214752.895,-26.855,-35.645,-31.738,-28.809,0.000
1709214752.899,-34.180,-41.504,-32.715,-34.180,0.000
1709214752.903,-40.527,-54.688,-41.504,-33.203,0.000
1709214752.907,-43.945,-53.223,-42.480,-33.691,0.000
1709214752.911,-46.875,-45.898,-38.574,-37.598,0.000
1709214752.915,-38.574,-52.734,-36.621,-32.227,0.000
1709214752.919,-40.039,-56.152,-42.969,-37.598,0.000
1709214752.923,-41.016,-46.875,-45.410,-38.086,0.000
1709214752.927,-35.156,-41.992,-38.574,-35.645,0.000
1709214752.931,-43.945,-46.875,-34.180,-33.203,0.000
1709214752.935,-43.945,-53.711,-33.203,-28.809,0.000
1709214752.939,-39.062,-45.898,-31.738,-35.156,0.000
1709214752.943,-40.527,-44.922,-33.691,-46.387,0.000
1709214752.947,-43.945,-57.617,-39.551,-46.387,0.000
1709214752.950,-48.828,-62.012,-46.387,-40.527,0.000
1709214752.954,-47.363,-51.270,-48.340,-48.828,0.000
1709214752.958,-46.387,-50.781,-37.598,-48.340,0.000
1709214752.962,-47.363,-56.152,-36.621,-41.992,0.000
1709214752.966,-50.781,-59.082,-47.363,-42.480,0.000
1709214752.970,-41.504,-63.965,-41.504,-39.551,0.000
1709214752.974,-35.645,-52.246,-40.527,-40.039,0.000
1709214752.978,-26.855,-42.480,-47.852,-37.109,0.000
1709214752.982,-13.672,-44.434,-36.621,-32.227,0.000
1709214752.986,-16.602,-50.781,-34.668,-39.551,0.000
1709214752.990,-24.414,-50.293,-39.551,-44.922,0.000
1709214752.993,-19.531,-45.898,-37.598,-33.691,0.000
1709214752.997,-12.207,-43.457,-38.574,-25.391,0.000
1709214753.001,-15.625,-42.480,-42.480,-30.762,0.000
1709214753.005,-20.508,-56.641,-35.645,-29.785,0.000
1709214753.009,-22.461,-63.965,-34.668,-20.996,0.000
1709214753.013,-27.832,-44.922,-45.898,-25.879,0.000
1709214753.017,-31.738,-33.691,-46.875,-33.691,0.000
1709214753.021,-29.785,-41.016,-40.039,-30.762,0.000
1709214753.025,-36.133,-49.316,-43.945,-40.039,0.000
1709214753.029,-41.992,-45.410,-44.434,-43.457,0.000
1709214753.032,-40.527,-40.527,-32.227,-34.668,0.000
1709214753.036,-40.039,-40.527,-30.273,-31.738,0.000
1709214753.040,-33.203,-38.574,-33.203,-25.391,0.000
1709214753.044,-37.598,-39.551,-27.344,-35.156,0.000
1709214753.048,-45.898,-54.688,-29.785,-41.992,0.000
1709214753.052,-46.875,-43.945,-30.762,-33.203,0.000
1709214753.056,-49.805,-21.973,-30.762,-38.086,0.000
1709214753.060,-43.945,-30.762,-29.785,-44.434,0.000
1709214753.064,-44.922,-36.133,-25.391,-46.875,0.000
1709214753.068,-54.688,-32.227,-30.273,-38.574,0.000
1709214753.072,-52.734,-35.645,-37.598,-38.574,0.000
1709214753.075,-41.504,-40.527,-33.691,-46.387,0.000
1709214753.079,-42.969,-48.828,-32.227,-47.363,0.000
1709214753.083,-46.387,-63.965,-32.715,-35.156,0.000
1709214753.087,-43.457,-55.176,-31.250,-26.855,0.000
1709214753.091,-36.621,-49.316,-28.320,-33.203,0.000
1709214753.095,-32.227,-58.105,-38.574,-34.180,0.000
1709214753.099,-31.250,-45.410,-49.805,-43.457,0.000
1709214753.103,-31.250,-37.109,-41.504,-48.828,0.000
1709214753.107,-32.227,-39.062,-36.133,-41.504,0.000
1709214753.111,-23.438,-39.062,-36.621,-35.156,0.000
1709214753.114,-23.438,-53.711,-46.387,-41.992,0.000
1709214753.118,-27.832,-56.152,-47.363,-39.062,0.000
1709214753.122,-35.645,-52.734,-43.945,-36.621,0.000
1709214753.126,-43.945,-53.711,-40.039,-40.527,0.000
1709214753.130,-41.016,-42.969,-33.691,-31.738,0.000
1709214753.134,-35.156,-49.805,-34.180,-30.273,0.000
1709214753.138,-31.738,-60.059,-34.180,-34.668,0.000
1709214753.142,-34.668,-48.340,-39.551,-34.668,0.000
1709214753.146,-43.945,-39.062,-37.598,-41.992,0.000
1709214753.149,-43.945,-46.875,-33.691,-39.551,0.000
1709214753.153,-41.992,-54.688,-39.551,-32.715,0.000
1709214753.157,-41.016,-39.551,-40.527,-41.016,0.000
1709214753.161,-42.969,-32.715,-36.133,-49.316,0.000
1709214753.165,-43.457,-37.598,-30.762,-50.781,0.000
1709214753.169,-42.969,-48.828,-41.016,-46.387,0.000
1709214753.173,-40.527,-55.664,-52.246,-30.762,0.000
1709214753.177,-40.527,-47.852,-42.480,-36.133,0.000
1709214753.181,-44.434,-37.598,-37.598,-53.711,0.000
1709214753.185,-51.270,-37.109,-36.621,-54.199,0.000
1709214753.189,-50.781,-43.457,-37.598,-52.246,0.000
1709214753.192,-43.945,-45.898,-42.480,-45.410,0.000
1709214753.196,-34.180,-38.086,-34.180,-36.133,0.000
1709214753.200,-28.320,-32.715,-21.973,-33.691,0.000
1709214753.204,-31.738,-32.715,-22.461,-32.715,0.000
1709214753.208,-33.691,-33.691,-32.715,-30.273,0.000
1709214753.212,-28.320,-34.668,-34.180,-27.344,0.000
1709214753.216,-21.484,-39.551,-35.156,-18.066,0.000
1709214753.220,-11.719,-59.082,-35.156,-7.812,0.000
1709214753.224,-14.160,-48.340,-39.062,-23.438,0.000
1709214753.228,-19.043,-32.715,-45.898,-31.738,0.000
1709214753.231,-9.766,-32.227,-26.367,-17.090,0.000
1709214753.235,-9.766,-34.668,-21.484,-20.020,0.000
1709214753.239,-20.020,-43.457,-35.645,-29.297,0.000
1709214753.243,-29.785,-38.574,-29.785,-29.785,0.000
1709214753.247,-30.273,-34.668,-26.855,-33.203,0.000
1709214753.251,-28.320,-38.086,-34.180,-36.621,0.000
1709214753.255,-33.203,-44.434,-48.340,-41.992,0.000
1709214753.259,-28.809,-48.828,-46.387,-50.781,0.000
1709214753.263,-19.043,-43.457,-38.086,-38.086,0.000
1709214753.267,-23.438,-29.785,-33.203,-26.855,0.000
1709214753.271,-34.180,-25.391,-33.691,-29.785,0.000
1709214753.274,-36.133,-39.551,-37.598,-25.391,0.000
1709214753.278,-30.762,-46.387,-34.668,-25.879,0.000
1709214753.282,-31.250,-39.062,-34.180,-36.621,0.000
1709214753.286,-41.016,-37.109,-41.016,-43.457,0.000
1709214753.290,-48.340,-40.039,-44.922,-40.527,0.000
1709214753.294,-46.387,-43.945,-44.922,-43.457,0.000
1709214753.298,-41.992,-48.828,-35.156,-46.875,0.000
1709214753.302,-45.410,-48.340,-31.738,-47.852,0.000
1709214753.306,-50.293,-39.551,-34.668,-45.410,0.000
1709214753.310,-42.480,-40.039,-28.809,-37.109,0.000
1709214753.314,-34.668,-52.734,-20.996,-33.691,0.000
1709214753.317,-40.039,-54.688,-27.832,-40.527,0.000
1709214753.321,-43.457,-54.199,-38.086,-50.781,0.000
1709214753.325,-45.898,-50.781,-36.621,-46.875,0.000
1709214753.329,-44.922,-39.062,-35.645,-34.180,0.000
1709214753.333,-32.715,-39.062,-24.414,-33.691,0.000
1709214753.337,-25.879,-42.480,-24.414,-29.785,0.000
1709214753.341,-31.738,-40.039,-36.621,-27.344,0.000
1709214753.345,-28.320,-36.133,-27.344,-36.621,0.000
1709214753.349,-32.715,-42.480,-24.902,-41.016,0.000
1709214753.353,-31.250,-55.176,-37.598,-33.691,0.000
1709214753.357,-25.879,-50.781,-40.527,-30.273,0.000
1709214753.360,-28.320,-39.551,-35.645,-38.086,0.000
1709214753.364,-27.344,-44.922,-37.109,-42.969,0.000
1709214753.368,-33.203,-44.434,-34.668,-32.227,0.000
1709214753.372,-34.668,-46.875,-31.250,-25.391,0.000
1709214753.376,-33.203,-53.223,-38.086,-39.551,0.000
1709214753.380,-31.250,-45.898,-37.109,-41.992,0.000
1709214753.384,-29.297,-32.227,-40.527,-44.434,0.000
1709214753.388,-33.691,-43.945,-48.828,-51.270,0.000
1709214753.392,-34.180,-56.641,-40.527,-40.039,0.000
1709214753.396,-30.273,-37.598,-41.504,-31.250,0.000
1709214753.400,-35.645,-35.156,-44.922,-42.969,0.000
1709214753.403,-43.457,-52.734,-35.645,-47.852,0.000
1709214753.407,-44.922,-53.711,-38.574,-44.922,0.000
1709214753.411,-40.039,-38.086,-42.969,-45.410,0.000
1709214753.415,-37.109,-38.086,-30.762,-34.668,0.000
1709214753.419,-35.156,-41.504,-30.273,-35.156,0.000
1709214753.423,-34.180,-44.922,-28.320,-41.504,0.000
1709214753.427,-40.039,-68.848,-37.598,-41.016,0.000
1709214753.431,-41.992,-69.336,-40.527,-39.062,0.000
1709214753.435,-31.738,-40.039,-27.344,-46.387,0.000
1709214753.439,-28.809,-34.668,-42.969,-52.246,0.000
1709214753.442,-34.180,-48.340,-50.293,-45.898,0.000
1709214753.446,-31.738,-47.852,-35.156,-41.992,0.000
1709214753.450,-40.039,-47.852,-34.180,-44.922,0.000
1709214753.454,-41.504,-55.176,-44.434,-46.875,0.000
1709214753.458,-25.391,-52.734,-34.668,-27.832,0.000
1709214753.462,-29.297,-54.199,-41.992,-27.344,0.000
1709214753.466,-31.738,-59.570,-47.852,-47.363,0.000
1709214753.470,-27.344,-46.387,-35.156,-41.016,0.000
1709214753.474,-21.973,-34.180,-35.156,-34.180,0.000
1709214753.478,-15.137,-35.645,-40.527,-40.527,0.000
1709214753.481,-6.836,-40.527,-34.180,-39.062,0.000
1709214753.485,-10.254,-47.363,-25.879,-30.762,0.000
1709214753.489,-10.742,-41.016,-26.367,-18.066,0.000
1709214753.493,-11.719,-35.645,-31.250,-20.508,0.000
1709214753.497,-22.461,-42.969,-36.133,-33.691,0.000
1709214753.501,-30.762,-51.270,-39.062,-35.156,0.000
1709214753.505,-37.598,-57.129,-46.387,-34.668,0.000
1709214753.509,-40.039,-56.152,-43.457,-33.203,0.000
1709214753.513,-38.574,-52.246,-35.645,-32.715,0.000
1709214753.517,-40.039,-41.016,-39.062,-34.668,0.000
1709214753.521,-42.969,-43.457,-46.387,-41.992,0.000
1709214753.524,-39.551,-53.711,-43.945,-48.340,0.000
1709214753.528,-34.668,-38.574,-33.691,-37.598,0.000
1709214753.532,-29.297,-32.715,-22.949,-22.949,0.000
1709214753.536,-29.785,-41.016,-28.809,-29.785,0.000
1709214753.540,-31.738,-38.574,-41.016,-36.621,0.000
1709214753.544,-31.738,-44.434,-37.598,-36.133,0.000
1709214753.548,-34.668,-54.199,-34.668,-24.414,0.000
1709214753.552,-36.621,-37.109,-37.598,-13.672,0.000
1709214753.556,-33.691,-26.855,-32.715,-26.855,0.000
1709214753.559,-35.156,-48.340,-33.203,-32.227,0.000
1709214753.563,-41.992,-53.223,-37.109,-34.180,0.000
1709214753.567,-51.758,-41.504,-43.945,-40.039,0.000
1709214753.571,-45.410,-43.945,-33.691,-37.598,0.000
1709214753.575,-39.062,-47.363,-29.297,-40.039,0.000
1709214753.579,-44.434,-49.316,-38.574,-43.945,0.000
1709214753.583,-45.410,-49.805,-29.785,-47.852,0.000
1709214753.587,-44.434,-47.852,-21.973,-49.316,0.000
1709214753.591,-56.152,-55.176,-34.180,-45.898,0.000
1709214753.595,-56.641,-51.270,-37.598,-40.039,0.000
1709214753.598,-48.340,-52.734,-29.297,-42.969,0.000
1709214753.602,-44.434,-45.898,-28.320,-45.898,0.000
1709214753.606,-48.340,-39.551,-31.250,-43.457,0.000
1709214753.610,-49.805,-41.992,-35.645,-37.598,0.000
1709214753.614,-39.062,-42.480,-37.109,-27.344,0.000
1709214753.618,-27.832,-43.457,-39.551,-25.391,0.000
1709214753.622,-25.391,-42.969,-41.504,-36.621,0.000
1709214753.626,-30.762,-47.852,-41.992,-37.598,0.000
1709214753.630,-26.367,-41.504,-38.086,-30.273,0.000
1709214753.633,-24.414,-41.992,-29.785,-22.461,0.000
1709214753.637,-24.902,-45.898,-25.391,-18.555,0.000
1709214753.641,-31.250,-42.969,-23.438,-26.855,0.000
1709214753.645,-39.551,-44.434,-23.926,-30.273,0.000
1709214753.649,-34.180,-41.016,-27.832,-25.391,0.000
1709214753.653,-33.203,-45.410,-38.574,-17.090,0.000
1709214753.657,-25.879,-48.340,-40.039,-19.043,0.000
1709214753.661,-17.578,-46.875,-38.086,-30.762,0.000
1709214753.665,-27.832,-50.781,-41.992,-38.574,0.000
1709214753.669,-48.340,-57.617,-43.457,-43.457,0.000
1709214753.673,-44.922,-58.105,-44.434,-41.992,0.000
1709214753.676,-30.273,-60.059,-41.016,-45.410,0.000
1709214753.680,-32.715,-56.641,-51.270,-54.688,0.000
1709214753.684,-22.461,-48.828,-48.340,-41.504,0.000
1709214753.688,-20.996,-48.340,-38.574,-41.016,0.000
1709214753.692,-25.879,-46.387,-44.434,-48.340,0.000
1709214753.696,-22.949,-43.945,-40.039,-39.062,0.000
1709214753.700,-21.973,-44.922,-41.504,-33.203,0.000
1709214753.704,-29.297,-40.039,-46.387,-42.969,0.000
1709214753.708,-41.016,-35.645,-40.039,-49.316,0.000
1709214753.712,-40.527,-33.203,-38.086,-41.992,0.000
1709214753.716,-37.109,-37.109,-44.922,-44.922,0.000
1709214753.719,-49.316,-50.293,-53.223,-61.035,0.000
1709214753.723,-52.734,-51.758,-43.945,-66.895,0.000
1709214753.727,-52.246,-55.664,-35.645,-58.594,0.000
1709214753.731,-57.129,-58.105,-40.039,-55.176,0.000
1709214753.735,-49.805,-54.199,-47.363,-55.176,0.000
1709214753.739,-41.504,-43.945,-43.945,-46.387,0.000
1709214753.743,-45.410,-24.414,-33.691,-40.527,0.000
1709214753.747,-48.340,-26.367,-30.273,-33.691,0.000
1709214753.751,-40.527,-45.410,-34.180,-26.855,0.000
1709214753.755,-34.180,-46.875,-37.598,-26.855,0.000
1709214753.758,-39.062,-39.062,-36.133,-24.902,0.000
1709214753.762,-44.434,-35.156,-36.621,-24.414,0.000
1709214753.766,-41.016,-33.203,-34.180,-23.438,0.000
1709214753.770,-33.691,-39.062,-32.227,-27.832,0.000
1709214753.774,-31.738,-37.109,-40.527,-36.621,0.000
1709214753.778,-37.598,-36.133,-40.039,-34.180,0.000
1709214753.782,-41.016,-35.645,-36.133,-50.781,0.000
1709214753.786,-41.016,-36.133,-44.922,-54.688,0.000
1709214753.790,-43.457,-42.969,-44.434,-36.133,0.000
1709214753.794,-44.434,-43.945,-36.133,-36.133,0.000
1709214753.798,-37.109,-39.551,-34.668,-42.969,0.000
1709214753.801,-42.480,-41.992,-46.875,-51.758,0.000
1709214753.805,-51.758,-43.457,-46.875,-52.734,0.000
1709214753.809,-48.340,-40.527,-36.133,-41.992,0.000
1709214753.813,-41.992,-46.875,-31.738,-33.691,0.000
1709214753.817,-40.039,-49.805,-33.691,-34.180,0.000
1709214753.821,-36.133,-45.898,-33.203,-38.086,0.000
1709214753.825,-33.203,-42.969,-24.414,-35.645,0.000
1709214753.829,-40.039,-43.457,-25.391,-33.691,0.000
1709214753.833,-45.410,-39.551,-24.902,-26.367,0.000
1709214753.837,-41.992,-34.668,-28.320,-20.508,0.000
1709214753.840,-35.645,-37.598,-36.621,-24.902,0.000
1709214753.844,-41.504,-39.551,-32.227,-31.250,0.000
1709214753.848,-47.363,-44.434,-30.762,-33.691,0.000
1709214753.852,-40.527,-43.457,-31.738,-28.809,0.000
1709214753.856,-30.762,-44.434,-32.227,-23.926,0.000
1709214753.860,-29.785,-57.617,-30.762,-36.621,0.000
1709214753.864,-38.086,-52.734,-32.715,-47.363,0.000
1709214753.868,-42.480,-40.039,-32.227,-41.992,0.000
1709214753.872,-49.805,-41.504,-32.715,-48.828,0.000
1709214753.876,-46.387,-42.480,-38.574,-48.828,0.000
1709214753.879,-41.992,-40.039,-42.480,-48.340,0.000
1709214753.883,-42.969,-39.551,-41.992,-52.246,0.000
1709214753.887,-40.039,-38.574,-37.598,-48.340,0.000
1709214753.891,-52.246,-48.340,-47.852,-50.781,0.000
1709214753.895,-50.781,-55.176,-49.316,-46.875,0.000
1709214753.899,-40.527,-58.594,-36.621,-39.551,0.000
1709214753.903,-37.598,-60.059,-24.902,-31.738,0.000
1709214753.907,-44.922,-56.641,-25.879,-39.551,0.000
1709214753.911,-45.410,-46.387,-29.785,-42.480,0.000
1709214753.915,-32.715,-34.668,-32.227,-27.344,0.000
1709214753.918,-26.855,-39.551,-36.621,-31.738,0.000
1709214753.922,-26.367,-45.898,-37.598,-31.738,0.000
1709214753.926,-33.691,-51.758,-34.668,-34.180,0.000
1709214753.930,-37.598,-52.734,-32.227,-43.457,0.000
1709214753.934,-36.133,-50.781,-32.715,-42.480,0.000
1709214753.938,-28.320,-54.688,-36.133,-40.039,0.000
1709214753.942,-30.762,-44.434,-39.062,-48.340,0.000
1709214753.946,-47.363,-41.992,-46.387,-63.477,0.000
1709214753.950,-49.805,-52.734,-45.410,-55.664,0.000
1709214753.953,-43.945,-50.781,-33.203,-46.875,0.000
1709214753.957,-47.363,-41.016,-35.645,-57.129,0.000
1709214753.961,-46.875,-42.480,-37.598,-61.035,0.000
1709214753.965,-51.270,-56.152,-42.480,-57.129,0.000
1709214753.969,-56.152,-51.270,-44.922,-43.457,0.000
1709214753.973,-46.875,-45.410,-36.621,-41.992,0.000
1709214753.977,-46.387,-49.316,-37.598,-52.246,0.000
1709214753.981,-54.688,-43.457,-45.410,-58.105,0.000
1709214753.985,-48.340,-39.062,-48.340,-57.129,0.000
1709214753.989,-42.969,-39.062,-45.410,-48.340,0.000
1709214753.992,-45.898,-35.645,-45.410,-45.410,0.000
1709214753.996,-44.434,-38.574,-35.645,-40.527,0.000
1709214754.000,-43.457,-45.898,-39.062,-42.969,0.000
1709214754.004,-43.457,-43.945,-42.969,-46.875,0.000
1709214754.008,-39.551,-48.828,-35.156,-37.109,0.000
1709214754.012,-33.203,-50.781,-30.762,-28.320,0.000
1709214754.016,-33.203,-44.434,-28.809,-34.180,0.000
1709214754.020,-33.691,-50.293,-33.203,-41.504,0.000
1709214754.024,-39.062,-54.199,-29.297,-41.016,0.000
1709214754.028,-42.480,-45.898,-29.297,-25.879,0.000
1709214754.031,-44.922,-39.062,-31.738,-23.438,0.000
1709214754.035,-41.016,-39.551,-28.809,-32.227,0.000
1709214754.039,-45.898,-42.969,-31.250,-33.203,0.000
1709214754.043,-53.711,-40.527,-40.039,-41.992,0.000
1709214754.047,-51.758,-38.086,-45.898,-45.898,0.000
1709214754.051,-46.387,-36.621,-44.434,-43.945,0.000
1709214754.055,-35.645,-31.738,-46.387,-38.574,0.000
1709214754.059,-32.227,-41.504,-49.316,-43.457,0.000
1709214754.063,-36.133,-55.176,-45.898,-54.688,0.000
1709214754.067,-41.016,-52.734,-36.621,-56.152,0.000
1709214754.071,-38.574,-42.969,-29.785,-44.434,0.000
1709214754.074,-32.227,-43.457,-32.715,-30.273,0.000
1709214754.078,-27.344,-42.480,-38.086,-40.527,0.000
1709214754.082,-26.855,-32.715,-39.551,-47.363,0.000
1709214754.086,-29.785,-34.668,-41.992,-48.340,0.000
1709214754.090,-24.414,-39.062,-44.434,-43.945,0.000
1709214754.094,-26.855,-36.133,-42.969,-33.203,0.000
1709214754.098,-27.344,-36.133,-40.527,-35.156,0.000
1709214754.102,-22.461,-38.086,-32.715,-38.086,0.000
1709214754.106,-30.762,-43.457,-31.250,-38.086,0.000
1709214754.110,-35.156,-50.781,-32.715,-33.203,0.000
1709214754.114,-31.738,-45.410,-28.809,-30.273,0.000
1709214754.117,-33.203,-43.457,-39.062,-26.855,0.000
1709214754.121,-47.363,-43.945,-49.316,-37.598,0.000
1709214754.125,-49.805,-36.133,-34.180,-44.922,0.000
1709214754.129,-48.340,-44.922,-30.273,-32.227,0.000
1709214754.133,-48.340,-51.758,-31.250,-32.227,0.000
1709214754.137,-50.781,-38.086,-28.320,-42.480,0.000
1709214754.141,-56.152,-37.598,-36.133,-48.828,0.000
1709214754.145,-52.734,-41.992,-29.297,-44.434,0.000
1709214754.149,-46.875,-39.551,-23.926,-41.016,0.000
1709214754.153,-48.828,-44.434,-38.086,-41.504,0.000
1709214754.157,-48.340,-51.270,-38.574,-43.945,0.000
1709214754.160,-39.551,-38.574,-34.668,-43.457,0.000
1709214754.164,-43.945,-37.598,-41.992,-47.363,0.000
1709214754.168,-41.016,-34.668,-34.180,-39.062,0.000
1709214754.172,-29.785,-34.180,-27.832,-29.785,0.000
1709214754.176,-28.809,-48.828,-34.180,-38.086,0.000
1709214754.180,-21.484,-47.363,-34.180,-35.645,0.000
1709214754.184,-19.531,-37.109,-45.898,-42.480,0.000
1709214754.188,-23.926,-31.250,-49.316,-47.852,0.000
1709214754.192,-24.902,-35.645,-40.527,-40.039,0.000
1709214754.196,-24.902,-34.180,-39.062,-39.551,0.000
1709214754.199,-22.949,-39.062,-35.156,-41.992,0.000
1709214754.203,-22.461,-47.363,-36.133,-36.133,0.000
1709214754.207,-25.879,-39.062,-36.621,-22.461,0.000
1709214754.211,-27.344,-43.457,-37.598,-24.902,0.000
1709214754.215,-22.461,-48.340,-42.480,-35.645,0.000
1709214754.219,-29.785,-45.898,-47.363,-39.062,0.000
1709214754.223,-35.645,-53.223,-51.270,-39.062,0.000
1709214754.227,-33.203,-52.734,-40.039,-34.668,0.000
1709214754.231,-33.691,-44.922,-29.785,-33.203,0.000
1709214754.235,-34.180,-38.574,-24.902,-33.691,0.000
1709214754.239,-39.551,-45.898,-30.762,-36.133,0.000
1709214754.242,-39.551,-51.270,-37.598,-38.086,0.000
1709214754.246,-39.551,-42.969,-37.109,-33.691,0.000
1709214754.250,-40.039,-42.480,-35.156,-23.438,0.000
1709214754.254,-40.527,-49.805,-34.180,-15.137,0.000
1709214754.258,-37.109,-49.805,-30.273,-16.113,0.000
1709214754.262,-39.062,-45.410,-23.926,-15.625,0.000
1709214754.266,-38.574,-47.852,-28.320,-22.949,0.000
1709214754.270,-33.203,-48.340,-37.598,-29.785,0.000
1709214754.274,-35.156,-45.410,-34.180,-29.785,0.000
1709214754.277,-35.156,-49.805,-27.344,-35.645,0.000
1709214754.281,-41.016,-50.293,-30.762,-40.527,0.000
1709214754.285,-39.062,-39.062,-31.250,-39.062,0.000
1709214754.289,-42.969,-39.551,-36.133,-47.363,0.000
1709214754.293,-46.875,-48.340,-42.969,-54.199,0.000
1709214754.297,-41.504,-49.316,-38.086,-44.434,0.000
1709214754.301,-41.016,-45.898,-35.156,-47.852,0.000
1709214754.305,-40.039,-47.852,-43.945,-67.383,0.000
1709214754.309,-34.180,-42.969,-43.457,-62.500,0.000
1709214754.313,-29.297,-45.410,-43.945,-51.270,0.000
1709214754.317,-25.391,-46.875,-43.457,-56.152,0.000
1709214754.320,-20.996,-40.039,-38.086,-58.594,0.000
1709214754.324,-20.996,-34.668,-43.457,-51.270,0.000
1709214754.328,-28.320,-43.457,-42.480,-38.574,0.000
1709214754.332,-23.438,-50.781,-35.156,-27.344,0.000
1709214754.336,-18.066,-41.992,-30.762,-28.809,0.000
1709214754.340,-26.367,-43.457,-34.668,-28.809,0.000
1709214754.344,-35.156,-43.457,-38.574,-24.414,0.000
1709214754.348,-38.574,-35.156,-37.598,-30.273,0.000
1709214754.352,-37.598,-40.039,-34.668,-38.086,0.000
1709214754.355,-35.156,-51.270,-34.180,-39.551,0.000
1709214754.359,-31.250,-41.016,-32.715,-40.039,0.000
1709214754.363,-35.156,-34.668,-32.227,-40.527,0.000
1709214754.367,-43.945,-44.922,-26.855,-40.039,0.000
1709214754.371,-41.504,-54.688,-22.461,-41.016,0.000
1709214754.375,-35.156,-47.363,-26.367,-39.062,0.000
1709214754.379,-37.109,-46.875,-35.645,-46.387,0.000
1709214754.383,-45.898,-52.734,-36.621,-58.594,0.000
1709214754.387,-52.734,-47.363,-33.691,-52.734,0.000
1709214754.390,-54.688,-45.410,-40.039,-46.387,0.000
1709214754.394,-46.387,-41.992,-43.457,-49.805,0.000
1709214754.398,-35.156,-45.410,-39.551,-47.363,0.000
1709214754.402,-36.133,-49.805,-40.039,-44.922,0.000
1709214754.406,-34.668,-52.734,-42.969,-46.875,0.000
1709214754.410,-30.273,-58.105,-46.875,-44.434,0.000
1709214754.414,-30.273,-53.223,-47.852,-39.062,0.000
1709214754.418,-30.273,-33.691,-38.574,-34.668,0.000
1709214754.422,-38.086,-26.855,-48.340,-46.875,0.000
1709214754.426,-41.992,-40.527,-53.711,-56.641,0.000
1709214754.430,-33.203,-43.457,-57.617,-44.434,0.000
1709214754.434,-28.809,-45.898,-61.523,-38.574,0.000
1709214754.437,-27.344,-47.363,-40.527,-41.504,0.000
1709214754.441,-27.344,-42.480,-35.156,-42.480,0.000
1709214754.445,-37.598,-58.105,-39.551,-43.457,0.000
1709214754.449,-36.621,-62.988,-38.086,-32.227,0.000
1709214754.453,-36.621,-54.199,-43.457,-34.668,0.000
1709214754.457,-36.621,-60.059,-44.922,-41.504,0.000
1709214754.461,-25.391,-50.293,-38.086,-36.621,0.000
1709214754.465,-30.762,-41.016,-38.086,-33.203,0.000
1709214754.469,-35.156,-37.598,-35.156,-31.738,0.000
1709214754.473,-37.109,-33.691,-34.180,-34.180,0.000
1709214754.477,-30.762,-41.016,-35.156,-35.645,0.000
1709214754.480,-22.949,-42.969,-37.598,-41.504,0.000
1709214754.484,-33.691,-44.434,-44.434,-39.551,0.000
1709214754.488,-36.621,-54.688,-49.316,-31.738,0.000
1709214754.492,-31.250,-58.105,-41.992,-19.043,0.000
1709214754.496,-28.809,-44.922,-36.133,-15.625,0.000
1709214754.500,-27.832,-34.180,-40.527,-31.738,0.000
1709214754.504,-27.344,-35.156,-37.109,-30.273,0.000
1709214754.508,-24.902,-33.203,-27.832,-18.555,0.000
1709214754.512,-28.809,-41.992,-31.738,-26.367,0.000
1709214754.516,-39.551,-50.293,-38.574,-36.621,0.000
1709214754.520,-48.340,-45.898,-38.574,-36.133,0.000
1709214754.524,-44.922,-43.457,-39.551,-47.363,0.000
1709214754.528,-40.527,-41.992,-40.527,-59.570,0.000
1709214754.531,-41.504,-48.340,-35.645,-46.387,0.000
1709214754.535,-35.645,-51.270,-38.574,-37.109,0.000
1709214754.539,-31.250,-39.551,-36.133,-35.645,0.000
1709214754.543,-33.203,-31.250,-28.320,-46.387,0.000
1709214754.547,-41.504,-33.203,-39.062,-59.082,0.000
1709214754.551,-45.898,-37.598,-45.410,-47.363,0.000
1709214754.555,-41.992,-41.992,-40.527,-40.039,0.000
1709214754.559,-34.180,-44.434,-35.156,-39.551,0.000
1709214754.563,-29.785,-38.574,-31.738,-33.203,0.000
1709214754.567,-32.715,-30.762,-34.668,-35.156,0.000
1709214754.571,-33.203,-35.645,-38.574,-36.133,0.000
1709214754.574,-34.180,-40.039,-40.527,-37.109,0.000
1709214754.578,-31.738,-32.227,-42.480,-42.969,0.000
1709214754.582,-30.762,-38.574,-38.086,-41.016,0.000
1709214754.586,-26.855,-48.340,-38.574,-31.250,0.000
1709214754.590,-20.508,-41.992,-39.062,-31.250,0.000
1709214754.594,-23.438,-35.645,-29.785,-30.762,0.000
1709214754.598,-30.762,-41.992,-34.180,-18.555,0.000
1709214754.602,-35.645,-47.363,-33.691,-23.926,0.000
1709214754.606,-31.738,-40.527,-20.996,-33.203,0.000
1709214754.610,-28.809,-36.621,-23.926,-28.809,0.000
1709214754.613,-30.273,-49.805,-26.367,-23.438,0.000
1709214754.617,-26.367,-55.664,-24.902,-20.508,0.000
1709214754.621,-29.297,-44.922,-29.297,-29.785,0.000
1709214754.625,-38.086,-45.898,-25.879,-22.461,0.000
1709214754.629,-39.551,-43.945,-26.367,-12.207,0.000
1709214754.633,-24.902,-34.668,-30.762,-12.207,0.000
1709214754.637,-22.461,-28.809,-31.738,-15.625,0.000
1709214754.641,-31.738,-34.668,-35.156,-30.762,0.000
1709214754.645,-33.691,-38.086,-23.926,-32.227,0.000
1709214754.649,-31.250,-29.785,-20.508,-29.297,0.000
1709214754.652,-35.156,-40.039,-34.668,-36.621,0.000
1709214754.656,-32.227,-48.340,-31.738,-27.832,0.000
1709214754.660,-27.344,-43.457,-28.320,-29.297,0.000
1709214754.664,-20.020,-38.086,-35.156,-31.738,0.000
1709214754.668,-24.902,-41.016,-34.668,-24.414,0.000
1709214754.672,-29.785,-58.594,-29.297,-16.113,0.000
1709214754.676,-25.879,-50.293,-30.762,-19.043,0.000
1709214754.680,-26.367,-29.785,-42.480,-41.992,0.000
1709214754.684,-33.691,-34.180,-48.340,-54.688,0.000
1709214754.688,-41.504,-42.480,-44.922,-59.082,0.000
1709214754.691,-33.203,-41.504,-43.945,-52.246,0.000
1709214754.695,-25.391,-45.410,-44.922,-45.898,0.000
1709214754.699,-23.926,-41.992,-39.062,-50.293,0.000
1709214754.703,-28.320,-31.250,-33.203,-51.758,0.000
1709214754.707,-38.574,-39.062,-41.992,-55.176,0.000
1709214754.711,-41.016,-46.875,-41.992,-46.387,0.000
1709214754.715,-34.668,-46.387,-35.156,-32.227,0.000
1709214754.719,-35.156,-41.992,-33.691,-35.645,0.000
1709214754.723,-45.898,-49.316,-44.922,-53.711,0.000
1709214754.726,-39.551,-53.711,-45.410,-50.293,0.000
1709214754.730,-29.785,-37.109,-32.715,-37.109,0.000
1709214754.734,-35.645,-29.297,-35.645,-37.598,0.000
1709214754.738,-39.062,-42.969,-45.898,-42.969,0.000
1709214754.742,-39.062,-45.410,-48.828,-41.504,0.000
1709214754.746,-42.969,-41.504,-43.457,-43.457,0.000
1709214754.750,-44.434,-39.062,-34.668,-44.922,0.000
1709214754.754,-38.574,-37.598,-27.832,-36.621,0.000
1709214754.758,-30.273,-37.109,-30.762,-37.109,0.000
1709214754.762,-35.156,-41.504,-31.250,-40.527,0.000
1709214754.766,-49.316,-45.898,-31.250,-43.457,0.000
1709214754.770,-53.223,-48.340,-33.203,-44.922,0.000
1709214754.773,-54.688,-58.594,-40.039,-38.086,0.000
1709214754.777,-48.828,-56.152,-39.062,-33.203,0.000
1709214754.781,-41.504,-42.969,-40.039,-40.039,0.000
1709214754.785,-48.828,-43.457,-34.180,-46.875,0.000
1709214754.789,-49.805,-49.805,-28.320,-38.574,0.000
1709214754.793,-41.504,-41.504,-26.855,-32.715,0.000
1709214754.797,-47.363,-44.922,-35.156,-46.387,0.000
1709214754.801,-49.316,-52.734,-50.293,-53.223,0.000
1709214754.805,-48.828,-52.734,-42.969,-41.992,0.000
1709214754.809,-52.734,-57.617,-30.762,-41.992,0.000
1709214754.813,-46.387,-53.223,-27.344,-36.621,0.000
1709214754.817,-36.621,-46.387,-28.320,-36.133,0.000
1709214754.820,-37.109,-50.293,-29.785,-41.504,0.000
1709214754.824,-44.434,-62.988,-31.738,-34.180,0.000
1709214754.828,-44.922,-55.176,-32.227,-38.086,0.000
1709214754.832,-36.621,-43.457,-38.574,-44.434,0.000
1709214754.836,-26.855,-39.551,-35.156,-37.109,0.000
1709214754.840,-26.367,-39.551,-38.574,-30.762,0.000
1709214754.844,-33.203,-39.551,-45.410,-34.180,0.000
1709214754.848,-44.434,-28.809,-41.016,-39.551,0.000
1709214754.852,-39.551,-34.180,-35.645,-38.086,0.000
1709214754.856,-26.855,-47.852,-40.039,-39.551,0.000
1709214754.860,-31.250,-50.781,-44.434,-53.223,0.000
1709214754.863,-36.133,-36.621,-38.086,-54.199,0.000
1709214754.867,-46.387,-38.086,-47.363,-42.480,0.000
1709214754.871,-43.945,-43.945,-48.340,-32.227,0.000
1709214754.875,-43.457,-39.062,-43.945,-40.039,0.000
1709214754.879,-46.875,-38.086,-40.527,-45.898,0.000
1709214754.883,-51.270,-44.922,-33.691,-47.852,0.000
1709214754.887,-54.688,-47.363,-31.250,-44.922,0.000
1709214754.891,-58.105,-40.039,-26.367,-35.156,0.000
1709214754.895,-60.547,-45.410,-31.738,-42.480,0.000
1709214754.899,-53.223,-47.363,-32.227,-48.828,0.000
1709214754.903,-54.199,-41.016,-29.297,-47.852,0.000
1709214754.906,-60.547,-42.969,-35.156,-50.781,0.000
1709214754.910,-59.570,-41.504,-45.410,-49.316,0.000
1709214754.914,-55.176,-45.898,-37.109,-35.156,0.000
1709214754.918,-52.246,-50.781,-27.832,-39.062,0.000
1709214754.922,-51.758,-45.410,-28.320,-53.223,0.000
1709214754.926,-50.293,-41.016,-26.855,-44.434,0.000
1709214754.930,-50.781,-40.039,-32.715,-41.504,0.000
1709214754.934,-45.410,-44.922,-35.156,-51.270,0.000
1709214754.938,-39.062,-46.387,-37.109,-50.293,0.000
1709214754.942,-32.227,-41.992,-38.574,-46.875,0.000
1709214754.945,-32.227,-36.621,-44.922,-46.875,0.000
1709214754.949,-30.762,-38.574,-43.945,-30.762,0.000
1709214754.953,-23.926,-46.875,-33.203,-24.414,0.000
1709214754.957,-27.832,-56.152,-47.852,-28.320,0.000
1709214754.961,-29.297,-54.688,-51.270,-27.344,0.000
1709214754.965,-31.250,-42.480,-41.992,-41.016,0.000
1709214754.969,-35.156,-40.039,-45.410,-45.410,0.000
1709214754.973,-29.785,-41.992,-41.504,-36.621,0.000
1709214754.977,-27.344,-35.645,-31.738,-36.133,0.000
1709214754.981,-37.598,-35.645,-37.109,-44.434,0.000
1709214754.984,-41.992,-41.016,-35.156,-38.086,0.000
1709214754.988,-48.340,-46.875,-35.156,-31.738,0.000
1709214754.992,-55.664,-48.828,-47.363,-30.762,0.000
1709214754.996,-45.410,-41.504,-44.922,-34.668,0.000
1709214755.000,-44.922,-42.480,-39.551,-42.480,0.000
1709214755.004,-52.246,-43.457,-45.410,-34.668,0.000
1709214755.008,-46.387,-44.434,-52.246,-37.598,0.000
1709214755.012,-41.992,-47.363,-39.062,-37.598,0.000
1709214755.016,-32.715,-46.875,-31.250,-30.273,0.000
1709214755.020,-31.738,-45.898,-42.480,-41.504,0.000
1709214755.023,-45.410,-37.598,-47.852,-48.828,0.000
1709214755.027,-55.664,-38.086,-54.199,-48.828,0.000
1709214755.031,-50.293,-41.016,-60.547,-47.852,0.000
1709214755.035,-35.645,-36.133,-58.105,-47.852,0.000
1709214755.039,-37.109,-41.016,-59.570,-54.199,0.000
1709214755.043,-41.504,-37.109,-55.176,-54.199,0.000
1709214755.047,-34.668,-30.762,-44.434,-41.504,0.000
1709214755.051,-32.715,-32.715,-50.781,-33.203,0.000
1709214755.055,-37.109,-36.621,-53.223,-43.457,0.000
1709214755.059,-35.645,-46.387,-51.270,-39.062,0.000
1709214755.062,-31.250,-49.316,-52.734,-38.574,0.000
1709214755.066,-45.410,-37.598,-43.945,-55.664,0.000
1709214755.070,-46.875,-32.715,-41.016,-56.152,0.000
1709214755.074,-40.039,-41.016,-41.504,-43.945,0.000
1709214755.078,-40.039,-45.410,-37.598,-41.016,0.000
1709214755.082,-41.016,-43.945,-46.875,-50.781,0.000
1709214755.086,-44.922,-40.039,-47.363,-56.152,0.000
1709214755.090,-45.410,-43.945,-40.039,-47.852,0.000
1709214755.094,-40.527,-45.410,-37.598,-38.086,0.000
1709214755.098,-40.039,-43.457,-43.457,-48.828,0.000
1709214755.101,-46.875,-47.852,-47.852,-52.734,0.000
1709214755.105,-55.176,-54.688,-41.504,-43.457,0.000
1709214755.109,-53.711,-63.965,-32.715,-41.016,0.000
1709214755.113,-39.551,-55.664,-35.645,-37.109,0.000
1709214755.117,-32.227,-41.992,-45.898,-39.551,0.000
1709214755.121,-33.691,-38.574,-41.016,-45.410,0.000
1709214755.125,-31.738,-40.039,-34.668,-41.992,0.000
1709214755.129,-25.879,-45.898,-33.691,-24.902,0.000
1709214755.133,-17.090,-42.480,-32.227,-12.695,0.000
1709214755.136,-17.090,-38.574,-44.922,-15.625,0.000
1709214755.140,-14.160,-35.645,-44.922,-20.996,0.000
1709214755.144,-17.090,-36.133,-39.551,-27.832,0.000
1709214755.148,-20.020,-54.199,-46.387,-18.555,0.000
1709214755.152,-9.277,-54.199,-42.969,6.836,0.000
1709214755.156,-7.812,-53.711,-42.480,-2.441,0.000
1709214755.160,-10.742,-62.500,-40.039,-19.531,0.000
1709214755.164,-18.066,-51.758,-28.809,-21.973,0.000
1709214755.168,-20.996,-43.945,-31.250,-22.461,0.000
1709214755.172,-10.742,-36.133,-36.621,-15.137,0.000
1709214755.176,-9.766,-29.785,-35.645,-20.020,0.000
1709214755.179,-20.020,-43.457,-35.156,-31.738,0.000
1709214755.183,-20.996,-47.363,-37.109,-29.297,0.000
1709214755.187,-24.414,-44.434,-42.480,-33.691,0.000
1709214755.191,-23.438,-48.828,-41.504,-40.039,0.000
1709214755.195,-16.113,-46.875,-23.926,-35.645,0.000
1709214755.199,-27.344,-49.316,-22.461,-37.109,0.000
1709214755.203,-40.527,-48.828,-35.645,-51.270,0.000
1709214755.207,-39.062,-41.016,-33.691,-45.898,0.000
1709214755.211,-41.016,-43.945,-27.832,-30.273,0.000
1709214755.215,-37.598,-49.316,-36.133,-27.832,0.000
1709214755.219,-33.691,-39.062,-39.551,-32.715,0.000
1709214755.223,-39.062,-38.086,-35.156,-40.527,0.000
1709214755.227,-35.645,-38.086,-29.297,-32.715,0.000
1709214755.231,-28.809,-34.668,-28.320,-23.438,0.000
1709214755.235,-24.902,-35.645,-38.574,-20.020,0.000
1709214755.239,-34.180,-32.227,-43.457,-28.809,0.000
1709214755.242,-35.645,-30.273,-34.180,-16.602,0.000
1709214755.246,-37.598,-31.250,-29.297,-16.113,0.000
1709214755.250,-40.527,-37.109,-29.785,-29.785,0.000
1709214755.254,-32.227,-42.480,-38.574,-27.344,0.000
1709214755.258,-32.715,-38.086,-46.387,-30.762,0.000
1709214755.262,-28.320,-29.785,-32.227,-29.297,0.000
1709214755.266,-30.273,-37.109,-33.203,-28.320,0.000
1709214755.270,-38.086,-43.457,-39.062,-26.367,0.000
1709214755.274,-40.039,-46.387,-35.645,-29.785,0.000
1709214755.278,-37.598,-48.828,-37.109,-31.250,0.000
1709214755.282,-29.297,-44.434,-32.715,-28.320,0.000
1709214755.286,-48.828,-44.434,-38.574,-38.574,0.000
1709214755.289,-56.641,-45.898,-43.945,-46.875,0.000
1709214755.293,-43.457,-50.293,-42.480,-43.457,0.000
1709214755.297,-41.992,-47.363,-45.410,-42.480,0.000
1709214755.301,-41.016,-36.133,-41.504,-41.016,0.000
1709214755.305,-41.504,-34.180,-33.203,-31.738,0.000
1709214755.309,-43.457,-41.992,-44.922,-31.250,0.000
1709214755.313,-45.410,-45.898,-46.387,-36.133,0.000
1709214755.317,-37.109,-46.387,-24.902,-31.738,0.000
1709214755.321,-34.668,-49.805,-22.949,-35.156,0.000
1709214755.325,-49.805,-43.945,-32.227,-44.434,0.000
1709214755.329,-55.664,-36.133,-37.109,-53.223,0.000
1709214755.332,-47.852,-34.180,-36.621,-37.109,0.000
1709214755.336,-35.645,-34.668,-33.203,-23.926,0.000
1709214755.340,-36.133,-37.109,-46.875,-46.387,0.000
1709214755.344,-43.457,-37.598,-52.246,-49.316,0.000
1709214755.348,-42.480,-34.180,-43.457,-42.969,0.000
1709214755.352,-35.645,-36.621,-41.016,-40.527,0.000
1709214755.356,-23.438,-43.457,-39.062,-40.039,0.000
1709214755.360,-26.855,-49.316,-41.992,-49.316,0.000
1709214755.364,-38.574,-51.270,-48.340,-64.941,0.000
1709214755.368,-32.715,-49.316,-48.828,-55.664,0.000
1709214755.371,-30.273,-51.758,-47.852,-39.062,0.000
1709214755.375,-31.738,-53.711,-46.387,-36.621,0.000
1709214755.379,-28.320,-49.805,-37.109,-24.902,0.000
1709214755.383,-36.133,-44.922,-40.039,-32.227,0.000
1709214755.387,-34.668,-36.133,-49.316,-37.109,0.000
1709214755.391,-24.414,-38.086,-45.898,-32.715,0.000
1709214755.395,-20.996,-40.039,-40.527,-30.273,0.000
1709214755.399,-22.949,-32.715,-40.527,-36.621,0.000
1709214755.403,-29.785,-42.969,-40.527,-53.223,0.000
1709214755.407,-39.062,-53.711,-41.504,-53.711,0.000
1709214755.410,-52.734,-60.059,-49.316,-51.758,0.000
1709214755.414,-51.270,-59.082,-46.387,-44.434,0.000
1709214755.418,-40.039,-58.105,-42.480,-49.805,0.000
1709214755.422,-45.410,-62.012,-44.434,-58.594,0.000
1709214755.426,-43.945,-48.828,-46.387,-44.434,0.000
1709214755.430,-41.016,-40.039,-53.223,-45.410,0.000
1709214755.434,-41.992,-34.668,-39.551,-49.316,0.000
1709214755.438,-40.527,-37.109,-31.738,-46.387,0.000
1709214755.442,-44.434,-50.293,-40.039,-50.293,0.000
