timestamps,TP9,AF7,AF8,TP10,Right AUX
1709297719.901,-17.578,-28.809,-35.645,-36.621,0.000
1709297719.905,-56.641,-29.785,-34.180,-56.152,0.000
1709297719.909,-81.055,-31.250,-39.062,-56.641,0.000
1709297719.912,-51.270,-30.273,-39.551,-31.250,0.000
1709297719.916,-2.441,-29.785,-39.062,-15.137,0.000
1709297719.920,-6.836,-35.156,-43.457,-28.320,0.000
1709297719.924,-52.734,-39.062,-45.898,-40.039,0.000
1709297719.928,-65.430,-32.715,-44.434,-47.363,0.000
1709297719.932,-36.133,-27.832,-43.457,-28.320,0.000
1709297719.936,6.348,-28.809,-42.480,-1.953,0.000
1709297719.940,12.695,-28.809,-44.434,-16.113,0.000
1709297719.944,-22.461,-26.367,-43.945,-38.086,0.000
1709297719.948,-59.082,-23.438,-41.504,-42.480,0.000
1709297719.952,-52.246,-21.484,-41.016,-28.809,0.000
1709297719.955,-1.465,-20.996,-39.062,-7.324,0.000
1709297719.959,10.254,-22.949,-37.598,-20.508,0.000
1709297719.963,-28.809,-21.973,-40.039,-54.199,0.000
1709297719.967,-66.406,-24.902,-43.457,-63.477,0.000
1709297719.971,-61.523,-27.832,-41.504,-41.992,0.000
1709297719.975,-21.484,-24.414,-40.527,-24.902,0.000
1709297719.979,-13.672,-29.785,-43.457,-35.156,0.000
1709297719.983,-46.875,-36.621,-45.898,-58.594,0.000
1709297719.987,-83.984,-34.180,-43.945,-68.848,0.000
1709297719.991,-78.613,-33.203,-42.969,-51.758,0.000
1709297719.995,-26.855,-32.715,-42.969,-27.344,0.000
1709297719.998,0.000,-32.227,-44.922,-25.879,0.000
1709297720.002,-32.715,-31.250,-44.922,-54.688,0.000
1709297720.006,-73.730,-34.180,-41.504,-71.777,0.000
1709297720.010,-71.777,-34.180,-40.527,-49.805,0.000
1709297720.014,-27.832,-29.785,-38.086,-20.020,0.000
1709297720.018,-2.930,-29.785,-42.480,-25.391,0.000
1709297720.022,-25.879,-36.621,-48.828,-59.570,0.000
1709297720.026,-59.570,-38.086,-45.410,-74.707,0.000
1709297720.030,-71.289,-38.086,-43.945,-50.293,0.000
1709297720.034,-41.504,-37.109,-45.898,-25.391,0.000
1709297720.037,-1.953,-37.109,-45.898,-22.461,0.000
1709297720.041,-18.066,-43.945,-46.387,-42.480,0.000
1709297720.045,-59.082,-41.504,-45.898,-62.988,0.000
1709297720.049,-62.988,-31.250,-41.504,-50.781,0.000
1709297720.053,-35.645,-34.668,-40.527,-23.926,0.000
1709297720.057,-4.395,-40.527,-42.480,-12.695,0.000
1709297720.061,-11.230,-39.062,-39.551,-30.762,0.000
1709297720.065,-57.617,-33.691,-40.039,-55.664,0.000
1709297720.069,-81.543,-36.621,-44.434,-53.223,0.000
1709297720.073,-56.641,-41.016,-45.898,-24.414,0.000
1709297720.077,-25.879,-40.039,-48.340,-13.184,0.000
1709297720.080,-20.996,-37.598,-49.316,-33.691,0.000
1709297720.084,-55.176,-37.598,-48.828,-55.664,0.000
1709297720.088,-87.891,-40.039,-49.805,-59.570,0.000
1709297720.092,-62.988,-36.133,-46.387,-31.250,0.000
1709297720.096,-10.254,-29.785,-42.969,0.488,0.000
1709297720.100,-7.812,-32.227,-41.504,-16.113,0.000
1709297720.104,-53.223,-34.180,-40.039,-43.457,0.000
1709297720.108,-82.520,-35.156,-41.016,-38.574,0.000
1709297720.112,-58.594,-34.668,-40.039,-23.926,0.000
1709297720.116,-16.113,-36.621,-40.039,-7.812,0.000
1709297720.120,-5.859,-41.504,-40.527,-5.859,0.000
1709297720.123,-37.109,-37.598,-40.527,-42.969,0.000
1709297720.127,-79.590,-32.227,-44.922,-67.871,0.000
1709297720.131,-61.035,-33.203,-44.434,-39.551,0.000
1709297720.135,-11.230,-36.133,-39.551,-9.277,0.000
1709297720.139,-5.859,-37.598,-41.504,-23.926,0.000
1709297720.143,-40.039,-32.715,-47.363,-51.270,0.000
1709297720.147,-75.195,-32.715,-45.898,-61.035,0.000
1709297720.151,-66.406,-36.133,-44.922,-44.434,0.000
1709297720.155,-24.902,-36.621,-46.875,-23.438,0.000
1709297720.159,-8.301,-36.621,-44.434,-25.391,0.000
1709297720.163,-33.691,-39.062,-47.363,-38.086,0.000
1709297720.166,-64.941,-42.480,-52.246,-39.551,0.000
1709297720.170,-60.547,-37.109,-43.945,-25.879,0.000
1709297720.174,-16.113,-35.156,-41.504,-6.836,0.000
1709297720.178,11.230,-40.527,-43.457,-9.766,0.000
1709297720.182,-15.625,-36.133,-44.922,-41.016,0.000
1709297720.186,-56.152,-32.227,-48.340,-57.617,0.000
1709297720.190,-65.430,-33.691,-47.852,-46.875,0.000
1709297720.194,-31.738,-33.203,-43.945,-26.855,0.000
1709297720.198,-2.930,-34.180,-44.922,-19.531,0.000
1709297720.202,-23.926,-35.156,-46.875,-36.133,0.000
1709297720.206,-64.453,-35.156,-47.363,-56.641,0.000
1709297720.209,-74.707,-35.645,-51.270,-42.969,0.000
1709297720.213,-32.227,-31.250,-49.805,-23.438,0.000
1709297720.217,-0.977,-32.715,-47.852,-28.809,0.000
1709297720.221,-18.555,-36.621,-48.828,-53.711,0.000
1709297720.225,-55.664,-35.645,-48.828,-73.730,0.000
1709297720.229,-73.242,-34.668,-46.875,-63.477,0.000
1709297720.233,-41.992,-38.086,-46.875,-35.156,0.000
1709297720.237,-2.441,-41.992,-43.945,-20.508,0.000
1709297720.241,-6.836,-40.527,-39.062,-34.668,0.000
1709297720.245,-52.246,-38.574,-40.527,-57.617,0.000
1709297720.248,-82.031,-39.551,-41.992,-57.129,0.000
1709297720.252,-47.852,-37.109,-39.062,-26.367,0.000
1709297720.256,-1.465,-33.691,-39.551,-15.137,0.000
1709297720.260,-6.836,-30.762,-41.016,-31.738,0.000
1709297720.264,-51.270,-34.180,-43.945,-48.828,0.000
1709297720.268,-80.566,-36.621,-50.781,-57.617,0.000
1709297720.272,-57.617,-32.715,-48.828,-32.227,0.000
1709297720.276,-12.695,-32.227,-46.387,-16.113,0.000
1709297720.280,-16.602,-41.016,-50.293,-34.668,0.000
1709297720.284,-60.547,-38.086,-44.922,-62.988,0.000
1709297720.288,-88.867,-30.273,-41.504,-73.730,0.000
1709297720.291,-73.730,-32.715,-43.457,-55.176,0.000
1709297720.295,-35.156,-35.156,-45.410,-34.668,0.000
1709297720.299,-27.344,-36.621,-46.875,-33.203,0.000
1709297720.303,-67.383,-40.039,-50.293,-72.754,0.000
1709297720.307,-103.516,-46.875,-54.688,-94.238,0.000
1709297720.311,-83.984,-45.410,-49.805,-66.406,0.000
1709297720.315,-46.387,-45.898,-47.363,-39.062,0.000
1709297720.319,-34.668,-48.828,-52.734,-38.086,0.000
1709297720.323,-62.012,-44.922,-51.270,-63.477,0.000
1709297720.327,-97.656,-41.016,-43.945,-82.031,0.000
1709297720.330,-92.285,-42.480,-44.922,-69.336,0.000
1709297720.334,-55.664,-41.992,-45.898,-41.992,0.000
1709297720.338,-34.668,-44.434,-41.504,-34.668,0.000
1709297720.342,-53.711,-45.898,-39.062,-50.293,0.000
1709297720.346,-88.867,-44.922,-41.016,-59.082,0.000
1709297720.350,-84.473,-41.992,-41.504,-53.223,0.000
1709297720.354,-33.203,-39.551,-41.016,-28.809,0.000
1709297720.358,-3.906,-40.527,-46.387,-7.812,0.000
1709297720.362,-29.297,-40.527,-49.805,-32.227,0.000
1709297720.366,-69.824,-43.457,-44.922,-53.711,0.000
1709297720.370,0.000,-46.387,0.000,-42.480,0.000
1709297720.373,0.000,-42.480,0.000,-21.973,0.000
1709297720.377,0.000,-35.645,0.000,-17.090,0.000
1709297720.381,0.000,-31.250,0.000,-43.945,0.000
1709297720.385,0.000,-34.668,0.000,-62.500,0.000
1709297720.389,0.000,-42.480,0.000,-48.340,0.000
1709297720.393,0.000,-41.504,0.000,-30.762,0.000
1709297720.397,0.000,-41.504,0.000,-26.855,0.000
1709297720.401,0.000,-49.805,0.000,-40.527,0.000
1709297720.405,0.000,-44.434,0.000,-50.781,0.000
1709297720.409,0.000,-36.133,0.000,-50.781,0.000
1709297720.413,0.000,-38.086,0.000,-26.367,0.000
1709297720.416,-28.320,-40.039,-42.969,-18.555,0.000
1709297720.420,-20.020,-40.039,-45.410,-30.762,0.000
1709297720.424,-53.711,-42.969,-49.805,-52.734,0.000
1709297720.428,-73.242,-40.527,-52.734,-65.430,0.000
1709297720.432,-56.641,-37.109,-52.734,-35.645,0.000
1709297720.436,-27.832,-38.086,-53.223,-20.020,0.000
1709297720.440,-25.391,-38.086,-53.711,-37.109,0.000
1709297720.444,-64.453,-36.621,-52.246,-57.129,0.000
1709297720.448,-86.914,-34.180,-45.410,-54.688,0.000
1709297720.452,-64.453,-38.086,-44.922,-35.645,0.000
1709297720.456,-19.043,-38.574,-44.922,-29.297,0.000
1709297720.459,-2.930,-35.156,-43.945,-34.668,0.000
1709297720.463,-42.480,-39.062,-42.969,-54.199,0.000
1709297720.467,-80.078,-43.457,-41.504,-66.895,0.000
1709297720.471,-68.848,-44.434,-43.945,-50.781,0.000
1709297720.475,-34.180,-41.016,-46.387,-33.691,0.000
1709297720.479,-21.973,-40.039,-48.340,-41.992,0.000
1709297720.483,-53.711,-41.016,-46.387,-65.918,0.000
1709297720.487,-90.820,-40.039,-47.363,-80.078,0.000
1709297720.491,-77.148,-41.992,-51.758,-62.988,0.000
1709297720.495,-29.785,-41.016,-47.852,-20.996,0.000
1709297720.499,-10.742,-37.109,-41.504,-22.461,0.000
1709297720.502,-39.062,-38.574,-39.062,-46.875,0.000
1709297720.506,-74.219,-41.504,-41.504,-54.688,0.000
1709297720.510,-69.824,-44.434,-47.852,-44.434,0.000
1709297720.514,-37.109,-44.434,-48.828,-25.879,0.000
1709297720.518,-11.719,-39.551,-44.922,-23.926,0.000
1709297720.522,-31.738,-40.039,-45.410,-44.922,0.000
1709297720.526,-66.895,-38.086,-43.457,-56.641,0.000
1709297720.530,-73.730,-37.109,-42.480,-40.527,0.000
1709297720.534,-38.086,-38.086,-42.969,-11.719,0.000
1709297720.538,-4.883,-38.086,-41.992,0.977,0.000
1709297720.541,-23.926,-35.156,-41.504,-22.461,0.000
1709297720.545,-64.453,-34.668,-42.480,-58.594,0.000
1709297720.549,-74.707,-36.133,-42.480,-60.059,0.000
1709297720.553,-44.434,-35.156,-42.969,-32.715,0.000
1709297720.557,-12.695,-33.691,-44.434,-23.438,0.000
1709297720.561,-25.391,-39.551,-50.781,-48.828,0.000
1709297720.565,-67.871,-43.457,-49.316,-73.242,0.000
1709297720.569,-83.496,-41.016,-40.039,-55.664,0.000
1709297720.573,-46.387,-39.062,-33.691,-18.555,0.000
1709297720.577,-6.836,-41.992,-37.109,-15.625,0.000
1709297720.581,-16.602,-43.457,-40.527,-34.668,0.000
1709297720.584,-56.641,-41.504,-37.598,-47.363,0.000
1709297720.588,-73.242,-37.109,-38.086,-48.828,0.000
1709297720.592,-44.922,-36.133,-38.574,-19.531,0.000
1709297720.596,-4.883,-34.180,-38.086,5.371,0.000
1709297720.600,-5.859,-34.180,-40.039,-12.695,0.000
1709297720.604,-47.852,-37.109,-41.992,-44.434,0.000
1709297720.608,-80.078,-34.668,-41.504,-45.898,0.000
1709297720.612,-60.547,-30.273,-43.945,-20.996,0.000
1709297720.616,-16.113,-32.715,-41.504,0.000,0.000
1709297720.620,-7.324,-32.227,-43.457,-9.766,0.000
1709297720.624,-41.504,-32.227,-41.992,-40.527,0.000
1709297720.627,-72.266,-35.156,-35.156,-40.527,0.000
1709297720.631,-58.105,-36.133,-36.621,-14.160,0.000
1709297720.635,-7.812,-32.715,-34.180,-0.977,0.000
1709297720.639,1.953,-34.180,-34.668,-9.277,0.000
1709297720.643,-32.715,-39.062,-37.598,-36.133,0.000
1709297720.647,-62.500,-36.621,-40.527,-48.340,0.000
1709297720.651,-59.082,-36.621,-48.340,-32.715,0.000
1709297720.655,-22.949,-39.551,-49.805,-18.066,0.000
1709297720.659,-3.418,-38.574,-51.758,-20.996,0.000
1709297720.663,-33.691,-38.574,-51.758,-49.316,0.000
1709297720.666,-66.895,-38.086,-48.340,-58.105,0.000
1709297720.670,-57.617,-35.645,-46.875,-28.320,0.000
1709297720.674,-18.555,-32.715,-41.016,3.418,0.000
1709297720.678,8.301,-29.297,-43.457,-2.930,0.000
1709297720.682,-22.949,-35.645,-50.781,-38.574,0.000
1709297720.686,-65.430,-39.062,-47.852,-58.594,0.000
1709297720.690,-59.570,-34.180,-43.457,-46.875,0.000
1709297720.694,-19.531,-31.250,-38.574,-20.020,0.000
1709297720.698,4.395,-29.785,-37.109,-8.789,0.000
1709297720.702,-21.973,-32.227,-42.480,-27.832,0.000
1709297720.706,-57.617,-35.645,-40.039,-39.551,0.000
1709297720.709,-61.035,-39.551,-41.992,-32.227,0.000
1709297720.713,-26.367,-43.457,-45.410,-14.160,0.000
1709297720.717,1.465,-43.945,-40.527,-3.418,0.000
1709297720.721,-14.160,-45.410,-45.410,-27.344,0.000
1709297720.725,-46.387,-42.480,-48.828,-54.688,0.000
1709297720.729,-57.129,-41.504,-45.898,-41.504,0.000
1709297720.733,-33.691,-38.574,-43.945,-7.812,0.000
1709297720.737,1.953,-36.621,-39.062,-1.953,0.000
1709297720.741,1.953,-37.109,-37.109,-22.461,0.000
1709297720.745,-37.109,-36.133,-35.645,-32.227,0.000
1709297720.749,-56.152,-40.039,-31.738,-25.391,0.000
1709297720.752,-25.879,-39.551,-37.598,0.000,0.000
1709297720.756,4.395,-35.645,-40.039,19.043,0.000
1709297720.760,-1.465,-37.598,-36.621,-0.488,0.000
1709297720.764,-42.480,-40.527,-38.086,-30.273,0.000
1709297720.768,-69.336,-32.227,-40.039,-35.645,0.000
1709297720.772,-42.480,-27.832,-38.574,-14.648,0.000
1709297720.776,-0.977,-32.227,-35.156,3.906,0.000
1709297720.780,0.977,-34.668,-34.668,-3.906,0.000
1709297720.784,-26.855,-30.273,-38.574,-35.156,0.000
1709297720.788,-49.805,-26.367,-40.527,-52.246,0.000
1709297720.792,-41.016,-32.227,-43.945,-35.156,0.000
1709297720.795,-4.395,-29.297,-45.410,-8.301,0.000
1709297720.799,7.812,-23.438,-42.480,-20.020,0.000
1709297720.803,-28.320,-24.902,-40.527,-47.363,0.000
1709297720.807,-60.547,-23.926,-40.039,-53.223,0.000
1709297720.811,-46.875,-25.879,-41.504,-36.621,0.000
1709297720.815,-6.836,-25.391,-43.457,-18.066,0.000
1709297720.819,6.836,-23.438,-43.945,-22.461,0.000
1709297720.823,-24.902,-21.973,-44.922,-47.363,0.000
1709297720.827,-57.617,-24.902,-44.434,-56.152,0.000
1709297720.831,-52.734,-29.297,-42.480,-41.992,0.000
1709297720.835,-14.648,-28.320,-41.504,-15.137,0.000
1709297720.838,6.836,-27.344,-45.410,-15.137,0.000
1709297720.842,-17.090,-29.785,-45.410,-43.457,0.000
1709297720.846,-50.781,-30.273,-41.504,-55.664,0.000
1709297720.850,-58.105,-27.344,-38.086,-33.203,0.000
1709297720.854,-29.785,-28.809,-39.551,-15.137,0.000
1709297720.858,-9.277,-35.156,-41.992,-25.391,0.000
1709297720.862,-24.414,-34.180,-40.527,-50.293,0.000
1709297720.866,-57.129,-28.809,-37.598,-65.918,0.000
1709297720.870,-71.289,-33.203,-36.133,-45.410,0.000
1709297720.874,-38.086,-34.668,-40.039,-25.879,0.000
1709297720.877,-9.277,-33.203,-41.504,-27.344,0.000
1709297720.881,-21.973,-27.344,-36.133,-41.016,0.000
1709297720.885,-58.105,-27.344,-38.086,-60.059,0.000
1709297720.889,-76.172,-26.367,-42.969,-48.828,0.000
1709297720.893,-46.875,-24.414,-44.434,-25.391,0.000
1709297720.897,-15.137,-28.809,-45.410,-20.508,0.000
1709297720.901,-30.273,-31.250,-45.410,-45.410,0.000
1709297720.905,-72.266,-33.691,-46.387,-66.406,0.000
1709297720.909,-87.402,-36.621,-47.852,-63.965,0.000
1709297720.913,-55.176,-34.180,-41.992,-38.086,0.000
1709297720.917,-16.113,-33.691,-39.062,-20.996,0.000
1709297720.920,-12.207,-31.738,-41.016,-47.363,0.000
1709297720.924,-47.363,-29.785,-40.039,-66.406,0.000
1709297720.928,-74.219,-33.691,-38.086,-55.664,0.000
1709297720.932,-50.293,-34.668,-37.598,-40.039,0.000
1709297720.936,-12.207,-30.762,-41.016,-25.391,0.000
1709297720.940,-7.324,-29.785,-42.969,-30.762,0.000
1709297720.944,-43.457,-34.180,-42.969,-61.035,0.000
1709297720.948,-69.336,-34.180,-43.945,-70.312,0.000
1709297720.952,-49.316,-33.203,-45.898,-47.852,0.000
1709297720.956,-14.648,-39.062,-47.363,-25.879,0.000
1709297720.960,-12.207,-37.109,-46.387,-24.902,0.000
1709297720.963,-49.316,-32.227,-44.922,-50.293,0.000
1709297720.967,-79.102,-35.156,-41.016,-61.035,0.000
1709297720.971,-66.895,-34.180,-43.457,-36.621,0.000
1709297720.975,-35.156,-34.180,-45.410,-15.137,0.000
1709297720.979,-18.066,-33.691,-40.527,-25.391,0.000
1709297720.983,-39.551,-31.250,-42.480,-48.340,0.000
1709297720.987,-72.266,-30.762,-46.875,-58.594,0.000
1709297720.991,-58.594,-30.273,-44.434,-38.086,0.000
1709297720.995,-20.020,-35.156,-43.945,-7.324,0.000
1709297720.999,-6.836,-35.645,-43.457,-15.137,0.000
1709297721.003,-44.434,-39.062,-41.992,-50.781,0.000
1709297721.006,-89.355,-43.945,-44.434,-57.129,0.000
1709297721.010,-79.102,-41.992,-49.805,-44.922,0.000
1709297721.014,-38.086,-40.527,-50.293,-15.625,0.000
1709297721.018,-23.438,-43.945,-50.293,-16.602,0.000
1709297721.022,-47.852,-44.434,-49.805,-51.270,0.000
1709297721.026,-76.172,-42.969,-47.852,-62.500,0.000
1709297721.030,-74.707,-43.457,-48.340,-45.410,0.000
1709297721.034,-42.969,-40.527,-53.223,-18.066,0.000
1709297721.038,-16.602,-40.039,-51.758,-15.625,0.000
1709297721.042,-36.621,-44.922,-46.875,-40.527,0.000
1709297721.045,-79.590,-47.363,-46.387,-58.105,0.000
1709297721.049,-83.496,-47.363,-47.852,-45.410,0.000
1709297721.053,-44.922,-45.410,-50.293,-34.180,0.000
1709297721.057,-8.301,-37.598,-51.270,-38.086,0.000
1709297721.061,-17.578,-34.180,-50.781,-55.176,0.000
1709297721.065,-59.082,-38.086,-51.758,-73.730,0.000
1709297721.069,-68.848,-38.086,-46.875,-62.012,0.000
1709297721.073,-32.715,-33.691,-41.016,-24.414,0.000
1709297721.077,-0.488,-35.645,-46.875,-12.695,0.000
1709297721.081,-10.254,-38.086,-50.293,-34.180,0.000
1709297721.085,-54.199,-36.621,-47.363,-52.734,0.000
1709297721.088,-77.637,-35.156,-45.898,-55.664,0.000
1709297721.092,-51.270,-37.109,-43.945,-21.484,0.000
1709297721.096,-18.066,-33.691,-43.457,2.930,0.000
1709297721.100,-11.230,-29.297,-44.922,-27.832,0.000
1709297721.104,-43.457,-27.832,-40.527,-58.105,0.000
1709297721.108,-76.172,-34.180,-41.016,-57.129,0.000
1709297721.112,-61.035,-34.180,-43.457,-39.062,0.000
1709297721.116,-18.066,-32.715,-41.504,-19.043,0.000
1709297721.120,-9.277,-33.203,-43.945,-31.738,0.000
1709297721.124,-48.340,-31.250,-45.410,-56.152,0.000
1709297721.128,-74.219,-29.297,-45.410,-57.129,0.000
1709297721.131,-60.059,-28.320,-48.340,-45.898,0.000
1709297721.135,-28.320,-33.203,-49.805,-26.855,0.000
1709297721.139,-18.555,-38.574,-46.387,-27.344,0.000
1709297721.143,-45.410,-37.109,-45.410,-48.340,0.000
1709297721.147,-70.801,-35.645,-47.852,-61.035,0.000
1709297721.151,-52.246,-36.133,-47.363,-34.180,0.000
1709297721.155,-10.254,-38.086,-47.363,-0.977,0.000
1709297721.159,5.859,-36.621,-46.875,-17.090,0.000
1709297721.163,-25.391,-33.203,-44.922,-43.945,0.000
1709297721.167,-64.453,-35.156,-45.410,-52.246,0.000
1709297721.171,-64.941,-34.668,-47.852,-36.133,0.000
1709297721.174,-29.297,-36.621,-49.316,-16.602,0.000
1709297721.178,-4.395,-40.039,-49.805,-23.438,0.000
1709297721.182,-25.879,-38.574,-46.875,-52.734,0.000
1709297721.186,-71.777,-40.039,-44.922,-63.477,0.000
1709297721.190,-78.613,-40.527,-48.340,-53.711,0.000
1709297721.194,-37.109,-44.434,-47.363,-38.086,0.000
1709297721.198,-12.695,-45.410,-46.387,-30.273,0.000
1709297721.202,-38.574,-40.527,-45.898,-46.875,0.000
1709297721.206,-83.984,-42.969,-46.387,-70.312,0.000
1709297721.210,-84.961,-43.457,-46.387,-63.965,0.000
1709297721.214,-45.898,-40.527,-46.387,-36.621,0.000
1709297721.217,-19.043,-40.527,-50.781,-27.344,0.000
1709297721.221,-33.691,-35.645,-47.852,-42.969,0.000
1709297721.225,-72.266,-35.156,-45.410,-64.941,0.000
1709297721.229,-88.379,-44.434,-48.340,-62.988,0.000
1709297721.233,-52.734,-46.387,-48.828,-26.367,0.000
1709297721.237,-14.160,-42.480,-46.387,-13.184,0.000
1709297721.241,-26.367,-37.598,-42.969,-33.691,0.000
1709297721.245,-71.289,-40.039,-45.410,-50.293,0.000
1709297721.249,-90.332,-43.457,-45.898,-54.688,0.000
1709297721.253,-55.664,-38.086,-42.969,-32.227,0.000
1709297721.256,-11.719,-41.504,-42.969,-12.695,0.000
1709297721.260,0.000,-46.875,0.000,-36.133,0.000
1709297721.264,0.000,-40.039,0.000,-57.129,0.000
1709297721.268,0.000,-39.062,0.000,-56.152,0.000
1709297721.272,0.000,-42.480,0.000,-32.715,0.000
1709297721.276,0.000,-32.715,0.000,-5.371,0.000
1709297721.280,0.000,-30.762,0.000,-20.508,0.000
1709297721.284,0.000,-38.086,0.000,-51.270,0.000
1709297721.288,0.000,-37.598,0.000,-53.711,0.000
1709297721.292,0.000,-34.668,0.000,-26.367,0.000
1709297721.296,0.000,-32.227,0.000,-15.625,0.000
1709297721.299,0.000,-33.203,0.000,-28.320,0.000
1709297721.303,0.000,-36.621,0.000,-48.340,0.000
1709297721.307,-69.824,-36.133,-46.875,-59.570,0.000
1709297721.311,-58.105,-36.621,-46.875,-47.363,0.000
1709297721.315,-21.973,-38.086,-47.363,-23.438,0.000
1709297721.319,-7.812,-43.945,-49.316,-24.414,0.000
1709297721.323,-40.527,-41.016,-51.758,-59.570,0.000
1709297721.327,-75.195,-40.527,-50.293,-72.266,0.000
1709297721.331,-63.965,-40.527,-51.270,-53.223,0.000
1709297721.335,-30.273,-35.645,-49.805,-20.020,0.000
1709297721.339,-20.020,-40.039,-49.316,-24.902,0.000
1709297721.342,-45.898,-40.039,-47.852,-52.734,0.000
1709297721.346,-77.148,-39.062,-46.387,-62.012,0.000
1709297721.350,-84.961,-41.504,-47.363,-43.945,0.000
1709297721.354,-56.152,-37.109,-46.875,-16.602,0.000
1709297721.358,-25.391,-34.180,-42.480,-15.137,0.000
1709297721.362,-47.852,-37.598,-38.574,-41.016,0.000
1709297721.366,-87.402,-37.598,-41.016,-61.035,0.000
1709297721.370,-93.262,-37.598,-45.898,-54.199,0.000
1709297721.374,-55.664,-43.457,-46.387,-36.621,0.000
1709297721.378,-19.043,-43.457,-49.805,-25.879,0.000
1709297721.381,-51.758,-44.434,-50.781,-50.781,0.000
1709297721.385,-92.773,-42.969,-48.828,-72.754,0.000
1709297721.389,-93.750,-41.992,-48.828,-62.500,0.000
1709297721.393,-56.641,-43.945,-45.898,-37.598,0.000
1709297721.397,-27.344,-41.504,-44.922,-34.180,0.000
1709297721.401,-49.316,-38.086,-49.316,-57.129,0.000
1709297721.405,-103.516,-42.480,-54.199,-79.102,0.000
1709297721.409,-123.535,-45.410,-52.246,-68.848,0.000
1709297721.413,-87.891,-38.574,-49.316,-42.480,0.000
1709297721.417,-51.270,-41.992,-51.758,-37.109,0.000
1709297721.421,-50.293,-44.922,-46.875,-51.758,0.000
1709297721.424,-82.031,-41.504,-42.969,-58.594,0.000
1709297721.428,-95.215,-37.109,-42.969,-49.805,0.000
1709297721.432,-56.641,-37.109,-40.039,-34.668,0.000
1709297721.436,-5.859,-38.086,-41.992,-22.461,0.000
1709297721.440,-6.836,-39.062,-47.363,-35.645,0.000
1709297721.444,-51.270,-41.016,-47.852,-62.988,0.000
1709297721.448,-76.172,-40.039,-46.875,-63.965,0.000
1709297721.452,-56.152,-39.062,-46.387,-40.039,0.000
1709297721.456,-17.090,-37.598,-43.945,-21.973,0.000
1709297721.460,-1.953,-34.668,-40.527,-25.391,0.000
1709297721.464,-35.156,-35.156,-43.457,-48.340,0.000
1709297721.467,-64.941,-37.598,-46.387,-56.152,0.000
1709297721.471,-34.180,-34.180,-42.480,-38.086,0.000
1709297721.475,11.230,-32.227,-44.434,-22.461,0.000
1709297721.479,12.207,-34.180,-46.875,-37.109,0.000
1709297721.483,-18.066,-38.574,-45.898,-63.477,0.000
1709297721.487,-42.969,-37.598,-45.410,-67.383,0.000
1709297721.491,-30.273,-37.598,-45.410,-44.434,0.000
1709297721.495,10.254,-40.527,-46.387,-12.207,0.000
1709297721.499,27.832,-34.668,-45.898,-16.113,0.000
1709297721.503,1.465,-35.645,-49.316,-41.992,0.000
1709297721.506,-40.039,-38.574,-52.246,-57.129,0.000
1709297721.510,-40.039,-40.527,-54.199,-48.340,0.000
1709297721.514,-3.418,-44.434,-55.664,-28.320,0.000
1709297721.518,10.742,-44.434,-51.270,-32.227,0.000
1709297721.522,-16.113,-44.922,-48.340,-54.199,0.000
1709297721.526,-50.293,-43.945,-47.852,-69.824,0.000
1709297721.530,-57.129,-40.527,-43.457,-44.434,0.000
1709297721.534,-19.043,-39.551,-41.504,-15.625,0.000
1709297721.538,13.672,-38.574,-44.922,-18.066,0.000
1709297721.542,-8.301,-39.062,-46.875,-50.293,0.000
1709297721.546,-47.363,-36.621,-45.410,-69.336,0.000
1709297721.549,-53.223,-31.738,-50.293,-52.246,0.000
1709297721.553,-19.043,-33.203,-50.781,-29.785,0.000
1709297721.557,18.555,-31.738,-43.945,-29.297,0.000
1709297721.561,5.371,-32.715,-45.898,-48.340,0.000
1709297721.565,-40.039,-36.133,-52.246,-64.941,0.000
1709297721.569,-55.664,-41.504,-50.293,-52.246,0.000
1709297721.573,-21.484,-45.898,-44.922,-18.555,0.000
1709297721.577,17.090,-45.410,-43.945,-4.883,0.000
1709297721.581,14.160,-45.410,-43.945,-26.855,0.000
1709297721.585,-28.320,-41.992,-41.992,-46.875,0.000
1709297721.589,-47.363,-38.574,-41.992,-39.062,0.000
1709297721.592,-17.578,-41.016,-40.039,-16.113,0.000
1709297721.596,20.020,-40.527,-36.133,-1.465,0.000
1709297721.600,12.207,-38.574,-36.621,-19.531,0.000
1709297721.604,-32.227,-41.992,-37.598,-48.828,0.000
1709297721.608,-52.246,-41.016,-40.039,-46.387,0.000
1709297721.612,-20.996,-33.203,-41.504,-20.020,0.000
1709297721.616,15.137,-30.273,-41.504,-0.488,0.000
1709297721.620,9.766,-34.180,-41.504,-6.836,0.000
1709297721.624,-26.855,-35.645,-42.969,-47.363,0.000
1709297721.628,-58.594,-36.621,-46.875,-61.035,0.000
1709297721.632,-38.086,-34.668,-44.434,-28.320,0.000
1709297721.635,3.906,-37.598,-40.527,2.441,0.000
1709297721.639,16.113,-40.039,-39.062,1.953,0.000
1709297721.643,-15.137,-34.180,-34.180,-15.625,0.000
1709297721.647,-52.734,-35.645,-37.109,-26.367,0.000
1709297721.651,-43.945,-41.504,-43.945,-10.742,0.000
1709297721.655,-2.930,-41.016,-41.992,16.113,0.000
1709297721.659,9.277,-39.551,-42.969,11.719,0.000
1709297721.663,-25.391,-41.504,-44.922,-9.277,0.000
1709297721.667,-60.059,-36.621,-40.527,-17.578,0.000
1709297721.671,-46.875,-34.668,-37.109,-4.883,0.000
1709297721.675,-8.301,-33.691,-35.156,12.695,0.000
1709297721.678,7.324,-32.715,-38.574,2.441,0.000
1709297721.682,-22.461,-34.180,-40.039,-25.391,0.000
1709297721.686,-61.523,-34.668,-40.039,-41.992,0.000
1709297721.690,-64.941,-34.668,-41.016,-24.414,0.000
1709297721.694,-25.879,-34.180,-39.551,14.160,0.000
1709297721.698,11.230,-33.203,-37.109,31.738,0.000
1709297721.702,-9.766,-30.273,-36.133,-0.488,0.000
1709297721.706,-57.617,-32.227,-42.969,-36.133,0.000
1709297721.710,-72.266,-38.574,-47.363,-25.391,0.000
1709297721.714,-41.504,-35.156,-43.945,-5.371,0.000
1709297721.717,-7.324,-36.621,-43.457,-5.371,0.000
1709297721.721,-19.531,-40.527,-39.062,-18.066,0.000
1709297721.725,-63.965,-40.039,-36.621,-30.273,0.000
1709297721.729,-73.242,-39.551,-38.086,-27.344,0.000
1709297721.733,-36.621,-38.574,-40.039,-4.883,0.000
1709297721.737,-1.953,-34.668,-41.992,-7.812,0.000
1709297721.741,-14.648,-35.156,-44.922,-35.645,0.000
1709297721.745,-58.594,-37.109,-44.922,-53.711,0.000
1709297721.749,-76.172,-39.062,-47.363,-49.316,0.000
1709297721.753,-49.805,-41.016,-48.828,-22.461,0.000
1709297721.757,-11.719,-40.527,-47.363,-2.441,0.000
1709297721.760,-13.184,-38.574,-45.898,-22.949,0.000
1709297721.764,-49.316,-38.574,-42.480,-37.598,0.000
1709297721.768,-69.336,-36.133,-41.992,-32.715,0.000
1709297721.772,-44.922,-37.598,-43.457,-18.066,0.000
1709297721.776,-9.766,-41.504,-49.805,-6.348,0.000
1709297721.780,-10.742,-41.504,-45.898,-22.461,0.000
1709297721.784,-47.852,-40.527,-42.480,-51.270,0.000
1709297721.788,-67.383,-35.645,-43.945,-49.805,0.000
1709297721.792,-44.434,-36.133,-41.992,-21.484,0.000
1709297721.796,-11.230,-40.527,-41.016,-7.812,0.000
1709297721.800,-6.836,-37.598,-41.992,-20.508,0.000
1709297721.803,-38.574,-38.574,-47.363,-50.781,0.000
1709297721.807,-66.406,-37.598,-47.363,-58.594,0.000
1709297721.811,-47.363,-33.203,-42.480,-29.785,0.000
1709297721.815,-14.648,-35.645,-42.480,-13.184,0.000
1709297721.819,-10.742,-36.621,-39.062,-20.508,0.000
1709297721.823,-38.086,-40.039,-39.062,-34.180,0.000
1709297721.827,-68.848,-36.133,-41.504,-37.598,0.000
1709297721.831,-57.617,-36.133,-39.551,-34.180,0.000
1709297721.835,-20.508,-43.457,-43.945,-17.090,0.000
1709297721.839,-15.137,-48.828,-47.852,-18.066,0.000
1709297721.842,-50.781,-54.688,-48.828,-42.969,0.000
1709297721.846,-92.285,-57.129,-49.805,-60.059,0.000
1709297721.850,-88.867,-50.293,-46.875,-50.781,0.000
1709297721.854,-41.016,-44.922,-52.246,-26.367,0.000
1709297721.858,-14.160,-43.457,-55.664,-21.484,0.000
1709297721.862,-41.992,-41.016,-55.176,-39.062,0.000
1709297721.866,-77.148,-42.480,-50.293,-57.617,0.000
1709297721.870,-76.172,-46.387,-40.039,-41.992,0.000
1709297721.874,-49.316,-48.340,-40.527,-21.973,0.000
1709297721.878,-29.785,-47.363,-49.316,-31.250,0.000
1709297721.882,-43.457,-44.434,-49.316,-53.223,0.000
1709297721.885,-85.938,-43.457,-46.387,-71.289,0.000
1709297721.889,-99.609,-46.387,-46.875,-55.664,0.000
1709297721.893,-59.082,-41.504,-47.363,-33.203,0.000
1709297721.897,-24.902,-34.180,-45.898,-27.832,0.000
1709297721.901,-39.062,-32.715,-41.992,-36.621,0.000
1709297721.905,-71.289,-30.762,-39.062,-44.434,0.000
1709297721.909,-85.449,-31.250,-44.434,-53.711,0.000
1709297721.913,-63.965,-34.180,-46.387,-42.969,0.000
1709297721.917,-29.297,-36.621,-41.992,-25.391,0.000
1709297721.921,-36.621,-36.133,-43.945,-41.504,0.000
1709297721.925,-74.707,-34.668,-45.410,-68.359,0.000
1709297721.928,-91.309,-36.621,-38.574,-72.754,0.000
1709297721.932,-66.895,-35.156,-39.551,-44.434,0.000
1709297721.936,-34.180,-37.598,-45.410,-18.555,0.000
1709297721.940,-31.738,-40.039,-48.340,-37.598,0.000
1709297721.944,-65.430,-38.574,-47.852,-66.895,0.000
1709297721.948,-87.891,-42.480,-47.363,-56.641,0.000
1709297721.952,-61.523,-39.062,-49.805,-26.367,0.000
1709297721.956,-17.578,-39.551,-48.828,-19.043,0.000
1709297721.960,-14.648,-44.434,-47.363,-31.250,0.000
1709297721.964,-53.711,-43.457,-48.828,-44.434,0.000
1709297721.968,-79.102,-41.504,-45.898,-48.828,0.000
1709297721.971,-63.965,-37.598,-42.480,-36.621,0.000
1709297721.975,-24.902,-40.039,-44.922,-17.578,0.000
1709297721.979,-12.207,-40.039,-48.340,-27.832,0.000
1709297721.983,-45.898,-37.598,-41.992,-48.828,0.000
1709297721.987,-75.195,-38.574,-40.527,-55.176,0.000
1709297721.991,-55.176,-32.227,-42.969,-37.109,0.000
1709297721.995,-19.531,-34.668,-40.039,-3.906,0.000
1709297721.999,-6.836,-31.250,-42.480,-17.090,0.000
1709297722.003,-32.715,-31.250,-44.922,-53.223,0.000
1709297722.007,-72.754,-39.551,-43.945,-63.965,0.000
1709297722.011,-70.312,-38.574,-42.969,-49.316,0.000
1709297722.014,-31.738,-38.574,-43.945,-24.414,0.000
1709297722.018,-12.695,-35.645,-46.387,-15.625,0.000
1709297722.022,-43.457,-38.574,-46.875,-48.828,0.000
1709297722.026,-79.590,-41.992,-44.922,-69.824,0.000
1709297722.030,-76.660,-40.039,-44.434,-50.781,0.000
1709297722.034,-38.574,-36.621,-45.898,-29.297,0.000
1709297722.038,-10.254,-38.086,-42.480,-14.160,0.000
1709297722.042,-32.227,-39.551,-40.527,-31.250,0.000
1709297722.046,-76.660,-42.480,-45.410,-65.918,0.000
1709297722.050,-83.984,-43.457,-48.340,-53.711,0.000
1709297722.053,-49.316,-44.922,-52.246,-27.344,0.000
1709297722.057,-19.043,-47.852,-58.105,-24.902,0.000
1709297722.061,-27.344,-43.945,-55.664,-42.969,0.000
1709297722.065,-66.895,-43.457,-52.246,-63.965,0.000
1709297722.069,-79.590,-41.992,-43.945,-48.340,0.000
1709297722.073,-41.992,-41.016,-40.039,-20.996,0.000
1709297722.077,-7.812,-43.457,-42.969,-11.719,0.000
1709297722.081,-16.113,-43.457,-43.457,-26.367,0.000
1709297722.085,-53.711,-46.387,-42.969,-43.457,0.000
1709297722.089,-70.312,-44.922,-40.527,-36.133,0.000
1709297722.093,-38.086,-41.016,-43.457,-21.484,0.000
1709297722.096,-3.906,-45.898,-48.340,-16.113,0.000
1709297722.100,-11.230,-44.434,-43.945,-27.832,0.000
1709297722.104,-51.270,-43.457,-43.945,-56.152,0.000
1709297722.108,-74.707,-44.922,-47.852,-66.406,0.000
1709297722.112,-48.828,-38.086,-46.387,-38.574,0.000
1709297722.116,-19.531,-39.062,-45.410,-16.602,0.000
1709297722.120,-12.207,-41.992,-46.875,-27.832,0.000
1709297722.124,-43.457,-41.992,-48.828,-51.758,0.000
1709297722.128,-78.125,-42.480,-48.828,-50.781,0.000
1709297722.132,-60.059,-38.086,-48.828,-32.227,0.000
1709297722.136,-12.695,-32.227,-47.363,-25.879,0.000
1709297722.139,-5.371,-30.762,-47.363,-31.738,0.000
1709297722.143,-43.457,-30.273,-47.363,-50.781,0.000
1709297722.147,-71.289,-31.250,-43.945,-59.082,0.000
1709297722.151,-52.246,-32.227,-45.410,-39.551,0.000
1709297722.155,-17.578,-31.738,-47.363,-28.809,0.000
1709297722.159,-12.207,-35.645,-44.922,-37.109,0.000
1709297722.163,-43.457,-40.039,-45.410,-58.594,0.000
1709297722.167,-82.031,-39.551,-48.340,-70.312,0.000
1709297722.171,-73.730,-41.992,-47.363,-46.875,0.000
1709297722.175,-35.156,-47.852,-48.340,-15.137,0.000
1709297722.178,-18.555,-45.410,-50.293,-21.973,0.000
1709297722.182,-41.016,-45.410,-54.199,-60.059,0.000
1709297722.186,-81.543,-45.898,-54.688,-80.078,0.000
1709297722.190,-75.195,-46.875,-50.293,-58.105,0.000
1709297722.194,-31.250,-44.922,-50.781,-23.926,0.000
1709297722.198,-4.395,-39.062,-50.781,-20.996,0.000
1709297722.202,-29.785,-41.016,-47.852,-46.387,0.000
1709297722.206,-77.637,-42.480,-46.875,-59.570,0.000
1709297722.210,-83.008,-45.898,-47.852,-51.270,0.000
1709297722.214,-41.504,-48.828,-45.898,-39.551,0.000
1709297722.218,-14.160,-45.410,-42.480,-32.227,0.000
1709297722.221,-32.715,-40.039,-43.945,-49.805,0.000
1709297722.225,-69.824,-37.109,-47.363,-64.941,0.000
1709297722.229,-77.637,-39.551,-45.898,-52.734,0.000
1709297722.233,-43.945,-41.992,-47.852,-27.832,0.000
1709297722.237,-7.812,-39.551,-47.852,-17.578,0.000
1709297722.241,-15.625,-37.109,-42.969,-37.598,0.000
1709297722.245,-60.059,-37.109,-41.504,-62.500,0.000
1709297722.249,-83.008,-37.598,-45.410,-64.941,0.000
1709297722.253,-51.758,-39.551,-48.340,-44.922,0.000
1709297722.257,-9.766,-38.086,-51.270,-34.668,0.000
1709297722.261,-23.438,-39.551,-53.223,-54.199,0.000
1709297722.264,-67.871,-38.574,-52.734,-73.730,0.000
1709297722.268,-82.520,-33.691,-49.805,-62.012,0.000
1709297722.272,-51.758,-32.227,-45.410,-34.668,0.000
1709297722.276,-11.230,-36.133,-43.945,-14.648,0.000
1709297722.280,-18.066,-39.551,-44.922,-23.926,0.000
1709297722.284,-64.941,-38.574,-44.922,-69.824,0.000
1709297722.288,-88.379,-38.574,-39.551,-72.266,0.000
1709297722.292,-62.988,-37.109,-41.992,-41.016,0.000
1709297722.296,-23.438,-35.645,-49.805,-22.949,0.000
1709297722.300,-13.672,-36.621,-45.898,-30.273,0.000
1709297722.304,-44.434,-38.574,-44.434,-60.059,0.000
1709297722.307,-83.984,-40.527,-50.293,-65.430,0.000
1709297722.311,-71.289,-41.016,-50.293,-38.086,0.000
1709297722.315,-25.879,-40.527,-45.898,-17.578,0.000
1709297722.319,-13.672,-39.062,-45.410,-31.738,0.000
1709297722.323,-47.363,-37.598,-46.875,-55.664,0.000
1709297722.327,-81.543,-43.945,-51.758,-60.059,0.000
1709297722.331,-68.848,-40.527,-52.734,-40.039,0.000
1709297722.335,-34.668,-40.527,-48.828,-13.184,0.000
1709297722.339,-18.066,-47.852,-45.410,-19.531,0.000
1709297722.343,-41.016,-46.387,-48.828,-46.387,0.000
1709297722.347,-78.613,-42.969,-50.781,-57.129,0.000
1709297722.350,-77.148,-39.551,-45.898,-42.969,0.000
1709297722.354,-32.715,-39.062,-48.340,-23.438,0.000
1709297722.358,-7.812,-43.945,-52.734,-25.391,0.000
1709297722.362,-34.668,-41.992,-49.316,-49.805,0.000
1709297722.366,-73.730,-39.062,-48.828,-70.801,0.000
1709297722.370,-81.543,-45.410,-52.734,-50.781,0.000
1709297722.374,-42.480,-44.434,-50.293,-26.367,0.000
1709297722.378,-11.719,-42.969,-48.828,-30.273,0.000
1709297722.382,-26.367,-47.852,-51.270,-47.363,0.000
1709297722.386,-69.336,-45.898,0.000,-57.617,0.000
1709297722.389,-78.613,-40.527,0.000,-37.598,0.000
1709297722.393,-40.039,-35.645,0.000,9.277,0.000
1709297722.397,-22.949,-39.551,0.000,33.691,0.000
1709297722.401,-40.527,-43.945,0.000,18.555,0.000
1709297722.405,-71.289,-41.016,0.000,-41.504,0.000
1709297722.409,-79.590,-40.527,0.000,-112.305,0.000
1709297722.413,-50.293,-39.551,0.000,-86.914,0.000
1709297722.417,-18.555,-38.574,0.000,-49.316,0.000
1709297722.421,-19.043,-35.645,0.000,-74.707,0.000
1709297722.425,-58.105,-35.156,0.000,-102.539,0.000
1709297722.429,-85.938,-35.156,0.000,-95.215,0.000
1709297722.432,-58.105,-35.156,-43.945,-67.871,0.000
1709297722.436,-13.672,-36.133,-43.457,-45.410,0.000
1709297722.440,-18.066,-37.598,-40.039,-56.641,0.000
1709297722.444,-50.781,-41.504,-37.598,-80.566,0.000
1709297722.448,-77.637,-41.504,-37.598,-71.777,0.000
1709297722.452,-62.500,-39.551,-40.039,-42.480,0.000
1709297722.456,-19.043,-40.039,-41.992,-21.973,0.000
1709297722.460,-20.508,-45.410,-48.828,-23.438,0.000
1709297722.464,-52.246,-41.992,-50.781,-40.527,0.000
1709297722.468,-79.102,-36.621,-43.457,-39.551,0.000
1709297722.472,-67.871,-41.504,-43.945,-28.809,0.000
1709297722.475,-25.391,-42.969,-45.898,-33.203,0.000
1709297722.479,-22.461,-43.945,-44.922,-64.941,0.000
1709297722.483,-59.570,-45.410,-48.828,-96.191,0.000
1709297722.487,-86.426,-43.945,-48.340,-98.145,0.000
1709297722.491,-68.359,-39.062,-41.992,-62.012,0.000
1709297722.495,-30.273,-39.062,-43.457,-32.715,0.000
1709297722.499,-21.484,-40.039,-44.434,-41.992,0.000
1709297722.503,-47.852,-36.133,-45.898,-57.129,0.000
1709297722.507,-83.496,-41.016,-49.805,-58.594,0.000
1709297722.511,-79.590,-38.086,-45.898,-34.668,0.000
1709297722.514,-38.574,-30.273,-41.504,-2.930,0.000
1709297722.518,-12.207,-31.738,-40.039,1.953,0.000
1709297722.522,-30.762,-33.691,-39.551,-16.602,0.000
1709297722.526,-62.500,-34.668,-41.504,-26.367,0.000
1709297722.530,-66.895,-35.645,-38.574,-11.719,0.000
1709297722.534,-37.109,-38.574,-35.156,13.672,0.000
1709297722.538,-14.160,-40.039,-40.039,18.066,0.000
1709297722.542,-35.645,-36.133,-43.945,-14.160,0.000
1709297722.546,-78.613,-36.133,-43.457,-39.062,0.000
1709297722.550,-87.891,-37.598,-42.969,-20.020,0.000
1709297722.554,-46.387,-31.250,-43.457,10.742,0.000
1709297722.557,-4.883,-25.879,-39.551,15.625,0.000
1709297722.561,-20.508,-28.809,-41.016,-4.395,0.000
1709297722.565,-62.988,-31.738,-44.434,-22.949,0.000
1709297722.569,-71.777,-30.273,-41.504,-16.602,0.000
1709297722.573,-37.109,-32.227,-41.504,8.301,0.000
1709297722.577,-1.953,-33.691,-43.945,10.254,0.000
1709297722.581,-10.254,-32.715,-44.434,-13.672,0.000
1709297722.585,-53.711,-31.738,-41.992,-33.691,0.000
1709297722.589,-72.754,-30.273,-35.645,-22.461,0.000
1709297722.593,-43.945,-37.598,-35.645,9.766,0.000
1709297722.597,-10.742,-39.551,-39.551,23.438,0.000
1709297722.600,-15.137,-32.227,-39.062,-3.906,0.000
1709297722.604,-50.781,-33.203,-40.527,-29.785,0.000
1709297722.608,-67.871,-39.551,-41.504,-18.555,0.000
1709297722.612,-42.969,-36.621,-42.969,1.953,0.000
1709297722.616,0.000,-33.203,-42.480,11.230,0.000
1709297722.620,0.977,-35.645,-38.574,-1.465,0.000
1709297722.624,-43.945,-32.715,-39.551,-19.531,0.000
1709297722.628,-71.777,-24.414,-42.480,-18.555,0.000
1709297722.632,-55.664,-28.809,-45.410,-14.648,0.000
1709297722.636,-16.113,-31.250,-43.945,0.977,0.000
1709297722.640,-5.371,-28.809,-41.016,-6.348,0.000
1709297722.643,-41.016,-32.715,-41.016,-45.410,0.000
1709297722.647,-70.801,-32.715,-44.434,-54.688,0.000
1709297722.651,-64.453,-30.273,-47.363,-28.320,0.000
1709297722.655,-22.461,-30.273,-43.457,-4.883,0.000
1709297722.659,-5.859,-36.133,-45.410,-21.484,0.000
1709297722.663,-44.434,-41.992,-49.805,-54.199,0.000
1709297722.667,0.000,-40.039,-46.875,-54.688,0.000
1709297722.671,0.000,-37.598,-46.875,-18.555,0.000
1709297722.675,0.000,-39.062,-49.316,-1.953,0.000
1709297722.679,0.000,-39.062,-48.340,-12.695,0.000
1709297722.683,0.000,-38.086,-48.828,-41.504,0.000
1709297722.686,0.000,-36.621,-44.922,-53.711,0.000
1709297722.690,0.000,-36.133,-40.039,-28.320,0.000
1709297722.694,0.000,-36.621,-38.086,-2.441,0.000
1709297722.698,0.000,-35.645,-36.133,0.488,0.000
1709297722.702,0.000,-34.180,-37.109,-17.578,0.000
1709297722.706,0.000,-32.715,-38.086,-44.922,0.000
1709297722.710,0.000,-37.109,-41.016,-38.086,0.000
1709297722.714,-32.715,-38.086,-41.504,-7.324,0.000
1709297722.718,-4.395,-39.062,-39.551,-1.953,0.000
1709297722.722,-25.391,-41.992,-37.109,-22.949,0.000
1709297722.726,-61.035,-39.551,-35.645,-41.016,0.000
1709297722.729,-71.289,-39.062,-40.527,-38.086,0.000
1709297722.733,-41.016,-44.434,-41.504,-18.066,0.000
1709297722.737,-7.324,-44.922,-40.039,-10.742,0.000
1709297722.741,-27.344,-45.410,-44.434,-35.156,0.000
1709297722.745,-77.148,-47.852,-43.945,-53.711,0.000
1709297722.749,-89.355,-42.969,-41.016,-48.340,0.000
1709297722.753,-54.199,-39.551,-43.457,-30.762,0.000
1709297722.757,-17.578,-39.551,-42.969,-22.461,0.000
1709297722.761,-23.926,-35.156,-42.969,-35.156,0.000
1709297722.765,-66.406,-41.016,-46.387,-56.641,0.000
1709297722.768,-86.426,-45.898,-45.410,-53.711,0.000
1709297722.772,-59.570,-41.504,-47.363,-36.133,0.000
1709297722.776,-22.949,-35.156,-47.852,-28.320,0.000
1709297722.780,-25.879,-39.062,-44.434,-35.156,0.000
1709297722.784,-62.012,-38.574,-41.016,-48.828,0.000
1709297722.788,-89.355,-31.250,-34.668,-47.363,0.000
1709297722.792,-64.941,-34.668,-39.062,-28.809,0.000
1709297722.796,-25.391,-41.992,-50.781,-20.020,0.000
1709297722.800,-27.344,-39.062,-54.688,-26.855,0.000
1709297722.804,-61.035,-34.180,-50.293,-56.152,0.000
1709297722.808,-81.543,-28.809,-43.457,-61.523,0.000
1709297722.811,-56.641,-26.367,-45.410,-31.738,0.000
1709297722.815,-18.066,-32.227,-49.805,-21.973,0.000
1709297722.819,-7.324,-34.180,-49.316,-37.109,0.000
1709297722.823,-45.898,-33.691,-50.293,-60.059,0.000
1709297722.827,-87.402,-35.156,-52.246,-66.406,0.000
1709297722.831,-69.336,-34.668,-49.805,-44.922,0.000
1709297722.835,-20.996,-36.133,-46.387,-2.441,0.000
1709297722.839,-9.277,-37.109,-45.898,6.836,0.000
1709297722.843,-42.969,-37.109,-44.922,-7.324,0.000
1709297722.847,-71.777,-36.133,-46.387,-41.992,0.000
1709297722.851,-61.035,-38.086,-47.852,-79.590,0.000
1709297722.854,-21.973,-39.551,-44.434,-48.340,0.000
1709297722.858,2.930,-39.062,-42.480,-22.949,0.000
1709297722.862,-22.461,-38.574,-40.527,-23.438,0.000
1709297722.866,-59.570,-34.180,-38.086,-35.156,0.000
1709297722.870,-61.523,-32.715,-38.086,-36.133,0.000
1709297722.874,-22.461,-36.133,-41.992,-79.590,0.000
1709297722.878,0.000,-36.621,-43.945,-98.633,0.000
1709297722.882,-33.203,-34.668,-45.410,-89.355,0.000
1709297722.886,-74.219,-33.203,-48.828,-121.582,0.000
1709297722.890,-74.219,-31.738,-46.387,-98.633,0.000
1709297722.894,-35.156,-30.762,-45.898,-63.965,0.000
1709297722.897,0.977,-30.762,-46.387,-58.105,0.000
1709297722.901,-14.160,-26.855,-44.434,-69.336,0.000
1709297722.905,-62.500,-27.344,-43.457,-79.590,0.000
1709297722.909,-80.566,-35.156,-43.945,-57.617,0.000
1709297722.913,-48.340,-41.992,-48.828,-32.715,0.000
1709297722.917,-15.137,-41.992,-51.270,-16.113,0.000
1709297722.921,-32.227,-41.992,-49.316,-15.625,0.000
1709297722.925,-81.543,-41.992,-51.270,-21.484,0.000
1709297722.929,-106.445,-37.598,-51.758,-4.883,0.000
1709297722.933,-91.797,-38.086,-45.410,28.809,0.000
1709297722.936,-70.312,-42.969,-44.922,42.969,0.000
1709297722.940,-81.543,-42.969,-44.922,12.207,0.000
1709297722.944,-113.281,-43.457,-43.457,-13.184,0.000
1709297722.948,-136.230,-41.992,-45.410,-13.672,0.000
1709297722.952,-110.352,-41.016,-43.457,9.277,0.000
1709297722.956,-60.547,-41.992,-41.016,4.883,0.000
1709297722.960,-52.246,-42.480,-46.387,-41.016,0.000
1709297722.964,-83.496,-41.504,-47.363,-58.105,0.000
1709297722.968,-113.770,-42.480,-47.852,-51.758,0.000
1709297722.972,-92.773,-38.086,-44.922,-30.273,0.000
1709297722.976,-43.945,-32.227,-43.945,-16.113,0.000
1709297722.979,-36.621,-34.668,-47.852,-26.855,0.000
1709297722.983,-71.289,-39.062,-42.969,-52.246,0.000
1709297722.987,-108.887,-41.992,-39.551,-62.012,0.000
1709297722.991,-93.262,-43.945,-47.852,-40.039,0.000
1709297722.995,-47.363,-46.387,-51.270,-13.184,0.000
1709297722.999,-33.691,-47.852,-52.246,-21.973,0.000
1709297723.003,-59.570,-40.039,-50.781,-44.922,0.000
1709297723.007,-93.262,-37.109,-45.410,-50.293,0.000
1709297723.011,-84.473,-40.527,-44.922,-32.715,0.000
1709297723.015,-41.504,-42.480,-49.805,-16.113,0.000
1709297723.019,-23.438,-42.480,-51.270,-23.438,0.000
1709297723.022,-52.734,-41.504,-50.781,-46.875,0.000
1709297723.026,-82.031,-32.715,-47.852,-59.570,0.000
1709297723.030,-75.195,-29.297,-41.992,-35.645,0.000
1709297723.034,-38.086,-33.203,-40.039,-15.625,0.000
1709297723.038,-11.230,-34.180,-44.922,-19.043,0.000
1709297723.042,-31.738,-33.691,-44.434,-44.434,0.000
1709297723.046,-67.383,-32.715,-39.551,-63.477,0.000
1709297723.050,-67.383,-34.180,-38.574,-47.363,0.000
1709297723.054,-24.902,-32.715,-42.480,-29.297,0.000
1709297723.058,6.836,-31.250,-45.410,-26.367,0.000
1709297723.062,-15.137,-30.762,-46.875,-42.969,0.000
1709297723.065,-57.617,-30.762,-46.875,-65.918,0.000
1709297723.069,-68.848,-30.762,-45.898,-53.223,0.000
1709297723.073,-42.969,-37.598,-47.852,-29.297,0.000
1709297723.077,-11.719,-35.645,-50.781,-28.320,0.000
1709297723.081,-12.695,-31.738,-49.316,-56.641,0.000
1709297723.085,-56.641,-39.062,-48.340,-81.055,0.000
1709297723.089,-74.707,-39.551,-45.410,-65.918,0.000
1709297723.093,-34.668,-35.156,-37.598,-33.203,0.000
1709297723.097,2.441,-39.551,-35.645,-12.207,0.000
1709297723.101,-10.742,-39.062,-39.551,-20.020,0.000
1709297723.104,-49.316,-33.203,-35.645,-48.828,0.000
1709297723.108,-69.336,-34.668,-39.551,-53.223,0.000
1709297723.112,-36.621,-36.133,-40.039,-25.391,0.000
1709297723.116,1.953,-37.598,-36.621,-19.043,0.000
1709297723.120,-4.395,-38.574,-41.504,-33.203,0.000
1709297723.124,-36.133,-38.086,-44.434,-54.688,0.000
1709297723.128,-55.176,-33.691,-41.016,-59.570,0.000
1709297723.132,-37.598,-32.715,-39.551,-35.645,0.000
1709297723.136,-3.906,-41.504,-43.457,-15.625,0.000
1709297723.140,0.977,-40.527,-44.922,-29.297,0.000
1709297723.144,-31.738,-36.133,-42.480,-56.641,0.000
1709297723.147,-65.430,-38.574,-43.945,-55.176,0.000
1709297723.151,-55.176,-38.086,-43.457,-36.621,0.000
1709297723.155,-18.066,-43.457,-43.457,-19.531,0.000
1709297723.159,-6.348,-44.922,-46.387,-24.902,0.000
1709297723.163,-43.457,-40.527,-46.387,-60.547,0.000
1709297723.167,-83.984,-38.086,-48.340,-70.312,0.000
1709297723.171,-64.453,-37.109,-48.828,-47.363,0.000
1709297723.175,-17.090,-40.039,-47.852,-20.996,0.000
1709297723.179,-3.906,-41.016,-51.270,-23.926,0.000
1709297723.183,-27.832,-41.992,-54.688,-55.664,0.000
1709297723.187,-56.152,-37.109,-48.340,-76.172,0.000
1709297723.190,-49.805,-29.785,-42.969,-52.246,0.000
1709297723.194,-5.859,-31.250,-46.875,-22.949,0.000
1709297723.198,19.531,-32.715,-41.504,-18.066,0.000
1709297723.202,-10.254,-32.227,-40.039,-43.945,0.000
1709297723.206,-50.293,-35.156,-46.875,-63.965,0.000
1709297723.210,-51.758,-42.969,-44.434,-34.180,0.000
1709297723.214,-19.043,-44.434,-41.504,-14.160,0.000
1709297723.218,3.418,-40.039,-41.992,-20.020,0.000
1709297723.222,-15.625,-41.504,-42.480,-38.086,0.000
1709297723.226,-56.641,-37.598,-42.480,-60.547,0.000
1709297723.230,-64.941,-31.738,-42.969,-56.641,0.000
1709297723.233,-34.668,-31.738,-41.016,-35.645,0.000
1709297723.237,0.488,-29.785,-40.527,-31.250,0.000
1709297723.241,-10.254,-28.809,-43.457,-49.316,0.000
1709297723.245,-62.500,-32.715,-41.992,-70.312,0.000
1709297723.249,-75.195,-37.598,-41.016,-62.012,0.000
1709297723.253,-38.574,-40.527,-42.969,-38.086,0.000
1709297723.257,-5.371,-38.574,-39.551,-21.973,0.000
1709297723.261,-13.672,-38.086,-42.480,-45.898,0.000
1709297723.265,-55.664,-44.434,-44.434,-69.824,0.000
1709297723.269,-73.730,-42.969,-36.621,-50.293,0.000
1709297723.272,-38.574,-41.016,-38.086,-30.762,0.000
1709297723.276,2.930,-40.039,-39.062,-25.391,0.000
1709297723.280,-0.977,-37.598,-40.039,-41.992,0.000
1709297723.284,-53.223,-40.039,-43.457,-62.988,0.000
1709297723.288,-75.684,-35.156,-42.480,-60.059,0.000
1709297723.292,-42.480,-30.273,-41.016,-33.691,0.000
1709297723.296,0.000,-30.273,-41.992,-7.324,0.000
1709297723.300,-5.371,-32.227,-45.410,-13.672,0.000
1709297723.304,-41.992,-30.762,-48.340,-50.293,0.000
1709297723.308,-59.570,-28.320,-47.363,-55.176,0.000
1709297723.312,-37.109,-30.273,-42.480,-23.438,0.000
1709297723.315,0.488,-35.645,-45.410,-4.395,0.000
1709297723.319,11.719,-31.738,-45.410,-13.672,0.000
1709297723.323,-26.367,-30.273,-45.410,-47.363,0.000
1709297723.327,-63.965,-30.273,-43.457,-57.129,0.000
1709297723.331,-48.828,-29.297,-39.551,-32.715,0.000
1709297723.335,-3.418,-33.203,-42.480,-7.324,0.000
1709297723.339,10.254,-37.598,-42.969,-2.930,0.000
1709297723.343,-18.066,-36.621,-41.992,-19.531,0.000
1709297723.347,-54.199,-36.621,-44.434,-30.273,0.000
1709297723.351,-44.922,-36.133,-41.504,-19.043,0.000
1709297723.354,-4.883,-35.156,-39.551,-1.953,0.000
1709297723.358,3.418,-37.109,-41.016,-4.395,0.000
1709297723.362,-27.832,-35.156,-40.039,-18.555,0.000
1709297723.366,-64.941,-34.180,-39.551,-29.785,0.000
1709297723.370,0.000,-35.645,-41.992,-20.508,0.000
1709297723.374,0.000,-35.645,-42.969,3.906,0.000
1709297723.378,0.000,-36.133,-43.457,0.488,0.000
1709297723.382,0.000,-39.551,-47.852,-41.504,0.000
1709297723.386,0.000,-37.598,-49.316,-54.688,0.000
1709297723.390,0.000,-32.715,-44.922,-27.344,0.000
1709297723.394,0.000,-31.250,-48.828,-6.836,0.000
1709297723.397,0.000,-36.621,-50.781,-13.672,0.000
1709297723.401,0.000,-39.551,-48.828,-41.992,0.000
1709297723.405,0.000,-36.133,-45.410,-46.875,0.000
1709297723.409,0.000,-34.180,-45.898,-40.039,0.000
1709297723.413,0.000,-31.738,-46.387,-17.090,0.000
1709297723.417,2.930,-33.691,-42.969,-0.977,0.000
1709297723.421,-19.043,-40.039,-42.480,-20.508,0.000
1709297723.425,-60.547,-38.086,-41.504,-44.434,0.000
1709297723.429,-71.289,-37.109,-42.969,-46.875,0.000
1709297723.433,-41.016,-39.551,-43.457,-22.949,0.000
1709297723.437,-13.672,-40.527,-42.480,-11.230,0.000
1709297723.440,-19.043,-40.527,-43.457,-34.668,0.000
1709297723.444,-51.270,-41.504,-44.922,-62.500,0.000
1709297723.448,-75.195,-41.992,-40.039,-44.922,0.000
1709297723.452,-55.176,-39.062,-41.992,-20.020,0.000
1709297723.456,-16.113,-35.156,-44.434,-19.531,0.000
1709297723.460,-15.625,-35.645,-43.945,-28.320,0.000
1709297723.464,-58.105,-37.109,-41.992,-55.176,0.000
1709297723.468,-91.797,-38.574,-41.992,-60.059,0.000
1709297723.472,-74.219,-38.574,-47.852,-40.039,0.000
1709297723.476,-31.738,-39.551,-44.922,-24.414,0.000
1709297723.480,-26.855,-42.480,-43.457,-25.879,0.000
1709297723.483,-64.941,-39.551,-42.480,-46.387,0.000
1709297723.487,-90.820,-40.039,-39.062,-56.152,0.000
1709297723.491,-71.289,-39.062,-41.992,-34.180,0.000
1709297723.495,-31.738,-39.551,-42.969,-9.277,0.000
1709297723.499,-13.184,-36.621,-39.062,-21.484,0.000
1709297723.503,-51.758,-38.574,-37.109,-49.316,0.000
1709297723.507,-95.215,-40.527,-40.039,-56.152,0.000
1709297723.511,-82.520,-43.457,-42.480,-31.738,0.000
1709297723.515,-32.715,-46.875,-39.551,-5.371,0.000
1709297723.519,-3.418,-41.992,-38.086,-13.672,0.000
1709297723.523,-34.180,-42.969,-41.016,-36.621,0.000
1709297723.526,-72.754,-43.945,-41.992,-51.758,0.000
1709297723.530,-74.219,-41.992,-42.480,-40.527,0.000
1709297723.534,-34.668,-38.086,-42.969,-15.625,0.000
1709297723.538,-11.230,-39.062,-43.945,-17.090,0.000
1709297723.542,-40.527,-41.504,-47.363,-37.109,0.000
1709297723.546,-74.219,-42.969,-49.316,-55.176,0.000
1709297723.550,-74.707,-46.387,-46.387,-40.039,0.000
1709297723.554,-38.574,-45.410,-47.363,-18.066,0.000
1709297723.558,-5.371,-40.039,-47.852,-16.113,0.000
1709297723.562,-19.531,-37.109,-47.852,-34.668,0.000
1709297723.566,-61.035,-39.551,-49.316,-47.852,0.000
1709297723.569,-67.383,-38.574,-48.340,-39.551,0.000
1709297723.573,-36.133,-41.504,-51.270,-19.531,0.000
1709297723.577,-15.137,-44.922,-52.734,-13.672,0.000
1709297723.581,-31.250,-43.457,-53.223,-37.598,0.000
1709297723.585,-66.895,-42.969,-53.223,-51.758,0.000
1709297723.589,-81.055,-45.410,-50.293,-49.805,0.000
1709297723.593,-46.875,-42.480,-43.457,-34.668,0.000
1709297723.597,-11.719,-41.016,-41.504,-17.578,0.000
1709297723.601,-22.461,-42.969,-43.457,-41.504,0.000
1709297723.605,-60.547,-44.434,-44.922,-72.754,0.000
1709297723.608,-77.637,-42.969,-44.434,-63.477,0.000
1709297723.612,-50.293,-42.969,-43.945,-32.227,0.000
1709297723.616,-15.137,-44.434,-44.434,-16.602,0.000
1709297723.620,-21.484,-39.062,-45.898,-35.156,0.000
1709297723.624,-54.199,-33.691,-41.992,-58.105,0.000
1709297723.628,-79.102,-33.691,-37.109,-56.641,0.000
1709297723.632,-67.871,-37.598,-40.527,-31.738,0.000
1709297723.636,-26.367,-39.062,-46.387,-21.973,0.000
1709297723.640,-20.020,-41.016,-48.828,-34.668,0.000
1709297723.644,-52.734,-45.898,-49.805,-52.734,0.000
1709297723.648,-80.078,-46.875,-51.758,-51.758,0.000
1709297723.651,-68.359,-44.434,-50.293,-23.926,0.000
1709297723.655,-25.879,-42.969,-49.316,-1.953,0.000
1709297723.659,-14.160,-40.039,-49.805,-15.137,0.000
1709297723.663,-42.969,-35.156,-45.410,-38.086,0.000
1709297723.667,-76.660,-34.668,-44.922,-58.105,0.000
1709297723.671,-67.383,-41.992,-47.363,-47.852,0.000
1709297723.675,-27.832,-43.945,-46.875,-13.184,0.000
1709297723.679,-10.254,-40.039,-47.363,-20.508,0.000
1709297723.683,-33.691,-38.574,-46.387,-51.758,0.000
1709297723.687,-72.266,-35.645,-44.922,-66.406,0.000
1709297723.690,-73.242,-36.621,-46.387,-49.316,0.000
1709297723.694,-35.156,-39.062,-47.852,-20.020,0.000
1709297723.698,-8.301,-39.551,-46.387,-15.625,0.000
1709297723.702,-29.785,-38.086,-41.016,-34.668,0.000
1709297723.706,-66.406,-31.250,-36.621,-47.852,0.000
1709297723.710,-65.430,-31.250,-41.504,-44.922,0.000
1709297723.714,-32.227,-36.621,-42.969,-24.414,0.000
1709297723.718,-8.301,-39.551,-43.945,-22.949,0.000
1709297723.722,-29.297,-41.992,-48.340,-43.945,0.000
1709297723.726,-68.359,-33.203,-47.363,-57.129,0.000
1709297723.730,-71.289,-32.227,-47.852,-48.340,0.000
1709297723.733,-35.156,-37.109,-49.805,-18.555,0.000
1709297723.737,-4.395,-32.715,-50.781,-4.883,0.000
1709297723.741,-15.625,-30.762,-49.316,-29.297,0.000
1709297723.745,-57.617,-31.738,-47.852,-55.176,0.000
1709297723.749,-69.824,-30.762,-49.316,-43.457,0.000
1709297723.753,-32.715,-32.227,-46.387,-15.137,0.000
1709297723.757,2.441,-31.250,-46.875,-10.742,0.000
1709297723.761,-11.230,-32.715,-47.852,-36.133,0.000
1709297723.765,-59.082,-39.062,-46.875,-49.316,0.000
1709297723.769,-79.590,-39.062,-47.852,-42.969,0.000
1709297723.773,-43.457,-35.645,-48.828,-28.809,0.000
1709297723.776,-1.953,-40.039,-53.223,-16.602,0.000
1709297723.780,-14.160,-40.039,-51.758,-27.832,0.000
1709297723.784,-61.035,-34.668,-46.875,-56.641,0.000
1709297723.788,-85.938,-37.109,-48.828,-57.617,0.000
1709297723.792,-64.453,-41.504,-49.805,-39.551,0.000
1709297723.796,-24.414,-41.992,-47.363,-27.344,0.000
1709297723.800,-25.391,-41.504,-48.340,-42.480,0.000
1709297723.804,-62.988,-41.504,-44.922,-72.754,0.000
1709297723.808,-89.844,-45.898,-46.387,-75.195,0.000
1709297723.812,-71.289,-44.434,-47.363,-42.480,0.000
1709297723.816,-22.949,-38.086,-45.410,-20.020,0.000
1709297723.819,-16.602,-37.109,-49.316,-37.598,0.000
1709297723.823,-59.082,-40.527,-48.828,-64.941,0.000
1709297723.827,-91.309,-44.434,-49.805,-71.777,0.000
1709297723.831,-72.266,-44.434,-49.805,-48.340,0.000
1709297723.835,-32.227,-45.410,-46.875,-27.832,0.000
1709297723.839,-23.926,-46.387,-46.875,-44.434,0.000
1709297723.843,-51.758,-43.945,-46.875,-68.359,0.000
1709297723.847,-82.520,-42.969,-47.363,-80.566,0.000
1709297723.851,-79.590,-46.387,-46.387,-56.641,0.000
1709297723.855,-41.992,-46.387,-44.434,-22.949,0.000
1709297723.859,-28.809,-42.480,-44.434,-22.949,0.000
1709297723.862,-51.270,-38.574,-43.945,-46.875,0.000
1709297723.866,-78.613,-38.574,-45.898,-60.059,0.000
1709297723.870,-76.660,-41.504,-43.945,-37.598,0.000
1709297723.874,-33.203,-38.574,-47.852,-19.531,0.000
1709297723.878,2.930,-34.668,-54.688,-21.973,0.000
1709297723.882,-19.043,-33.691,-47.363,-37.109,0.000
1709297723.886,-65.918,-38.574,-47.363,-51.758,0.000
1709297723.890,-70.801,-42.969,-49.805,-47.852,0.000
1709297723.894,-30.762,-43.457,-43.945,-20.508,0.000
1709297723.898,2.441,-41.992,-43.457,-12.695,0.000
1709297723.901,-16.113,-39.551,-46.875,-36.621,0.000
1709297723.905,-66.895,-43.945,-46.387,-52.246,0.000
1709297723.909,-74.707,-45.898,-43.457,-32.715,0.000
1709297723.913,-38.086,-40.039,-40.527,-5.859,0.000
1709297723.917,-2.930,-34.668,-41.504,-0.488,0.000
1709297723.921,-6.836,-30.762,-43.457,-32.227,0.000
1709297723.925,-50.781,-31.250,-43.457,-60.059,0.000
1709297723.929,-73.242,-35.156,-43.457,-51.758,0.000
1709297723.933,-36.621,-37.598,-45.410,-25.879,0.000
1709297723.937,5.371,-33.203,-41.504,-19.531,0.000
1709297723.941,-3.418,-31.250,-35.645,-36.621,0.000
1709297723.944,-47.852,-35.156,-40.039,-58.105,0.000
1709297723.948,-68.359,-38.574,-47.363,-60.547,0.000
1709297723.952,-42.969,-35.645,-46.387,-31.250,0.000
1709297723.956,-3.906,-32.227,-45.898,-19.043,0.000
1709297723.960,-3.906,-35.156,-47.852,-35.645,0.000
1709297723.964,-40.527,-33.691,-45.898,-57.617,0.000
1709297723.968,-62.012,-31.250,-41.016,-55.664,0.000
1709297723.972,-44.922,-28.320,-39.551,-36.621,0.000
1709297723.976,-8.789,-29.297,-41.504,-24.902,0.000
1709297723.980,-0.977,-28.809,-37.598,-34.180,0.000
1709297723.984,-44.922,-33.203,-37.109,-59.570,0.000
1709297723.987,-83.496,-38.574,-39.062,-62.500,0.000
1709297723.991,-65.918,-37.598,-40.039,-35.156,0.000
1709297723.995,-22.461,-33.691,-40.039,-19.043,0.000
1709297723.999,-14.648,-35.156,-38.574,-34.668,0.000
1709297724.003,-55.664,-39.062,-41.504,-60.547,0.000
1709297724.007,-92.285,-38.574,-45.410,-63.965,0.000
1709297724.011,-73.242,-34.668,-43.945,-46.387,0.000
1709297724.015,-28.320,-34.180,-41.992,-28.320,0.000
1709297724.019,-10.742,-40.527,-43.945,-32.227,0.000
1709297724.023,-39.062,-38.574,-43.945,-53.711,0.000
1709297724.026,-80.078,-35.645,-43.457,-63.477,0.000
1709297724.030,-79.102,-40.527,-47.852,-48.828,0.000
1709297724.034,-35.156,-40.039,-45.410,-26.855,0.000
1709297724.038,-4.395,-40.039,-44.922,-26.855,0.000
1709297724.042,-34.668,-40.039,-46.387,-48.340,0.000
1709297724.046,-79.102,-42.969,-45.898,-66.406,0.000
1709297724.050,-78.613,-41.992,-40.527,-48.340,0.000
1709297724.054,-27.832,-33.691,-37.109,-20.508,0.000
1709297724.058,7.324,-31.738,-36.621,-20.508,0.000
1709297724.062,-13.672,-35.645,-36.133,-40.527,0.000
1709297724.066,-55.176,-38.086,-40.039,-53.711,0.000
1709297724.069,-62.988,-33.203,-39.551,-38.574,0.000
1709297724.073,-30.762,-29.785,-39.062,-10.742,0.000
1709297724.077,-5.859,-32.715,-44.922,-7.324,0.000
1709297724.081,-20.508,-32.715,-45.410,-27.344,0.000
1709297724.085,-61.035,-37.598,-47.363,-41.992,0.000
1709297724.089,-80.566,-39.551,-51.758,-42.969,0.000
1709297724.093,-45.898,-37.109,-48.828,-21.484,0.000
1709297724.097,-13.184,-41.504,-44.922,-14.648,0.000
1709297724.101,-21.973,-43.457,-44.434,-47.363,0.000
1709297724.105,-62.012,-43.457,-43.457,-72.754,0.000
1709297724.109,-95.215,-44.434,-42.969,-63.965,0.000
1709297724.112,-71.289,-42.480,-41.016,-33.691,0.000
1709297724.116,-29.297,-42.969,-36.621,-20.996,0.000
1709297724.120,-33.691,-45.410,-35.645,-44.434,0.000
1709297724.124,-70.312,-47.363,-41.016,-67.871,0.000
1709297724.128,-87.402,-42.969,-39.551,-59.082,0.000
1709297724.132,-62.500,-43.457,-37.598,-33.691,0.000
1709297724.136,-19.531,-49.805,-41.504,-19.531,0.000
1709297724.140,-10.254,-48.828,-39.551,-22.949,0.000
1709297724.144,-43.457,-42.969,-31.738,-37.598,0.000
1709297724.148,-76.172,-38.086,-32.715,-45.898,0.000
1709297724.152,-64.453,-41.504,-39.551,-25.879,0.000
1709297724.155,-24.414,-49.805,-40.527,0.977,0.000
1709297724.159,-11.230,-47.363,-40.527,-14.160,0.000
1709297724.163,-45.410,-42.480,-39.551,-37.109,0.000
1709297724.167,-79.590,-41.992,-40.039,-39.062,0.000
1709297724.171,-63.965,-41.504,-43.457,-23.926,0.000
1709297724.175,-19.531,-38.086,-43.457,-4.883,0.000
1709297724.179,2.441,-31.738,-39.062,-4.395,0.000
1709297724.183,-23.438,-34.668,-37.109,-23.926,0.000
1709297724.187,-69.336,-35.156,-38.086,-43.945,0.000
1709297724.191,-62.988,-32.227,-37.109,-26.855,0.000
1709297724.195,-21.973,-35.156,-37.109,-3.418,0.000
1709297724.198,-5.859,-38.086,-41.992,-13.184,0.000
1709297724.202,-34.180,-38.574,-43.457,-36.133,0.000
1709297724.206,-65.430,-38.086,-41.016,-46.387,0.000
1709297724.210,-62.012,-41.016,-42.480,-31.738,0.000
1709297724.214,-27.344,-41.016,-41.504,1.465,0.000
1709297724.218,0.000,-38.086,-40.039,12.207,0.000
1709297724.222,-20.508,-39.551,-44.922,-10.742,0.000
1709297724.226,-62.988,-41.016,-46.875,-32.227,0.000
1709297724.230,-67.871,-42.969,-47.852,-25.391,0.000
1709297724.234,-25.879,-41.992,-49.805,-2.441,0.000
1709297724.238,5.371,-36.133,-49.805,6.836,0.000
1709297724.241,-12.695,-31.738,-47.852,-15.137,0.000
1709297724.245,-56.641,-37.109,-46.875,-33.691,0.000
1709297724.249,-65.918,-35.645,-46.387,-24.414,0.000
1709297724.253,-21.484,-33.691,-42.969,-1.953,0.000
1709297724.257,14.160,-36.133,-43.945,10.742,0.000
1709297724.261,-9.277,-37.598,-43.945,-11.230,0.000
1709297724.265,-50.293,-33.691,-43.945,-34.180,0.000
1709297724.269,-61.523,-28.320,-44.434,-24.414,0.000
1709297724.273,-32.715,-29.785,-39.551,-5.859,0.000
1709297724.277,5.859,-34.180,-37.109,1.953,0.000
1709297724.281,0.488,-31.738,-36.133,-4.883,0.000
1709297724.284,-47.363,-28.320,-31.738,-33.203,0.000
1709297724.288,-68.359,-32.715,-33.691,-40.039,0.000
1709297724.292,-40.527,-37.598,-41.016,-11.719,0.000
1709297724.296,-2.930,-35.645,-41.504,-1.465,0.000
1709297724.300,-1.953,-38.086,-40.039,-21.484,0.000
1709297724.304,-41.504,-38.086,-39.551,-48.828,0.000
1709297724.308,-71.289,-34.180,-37.598,-53.711,0.000
1709297724.312,-41.016,-31.250,-41.504,-33.203,0.000
1709297724.316,0.977,-30.762,-42.969,-10.254,0.000
1709297724.320,1.465,-33.203,-42.480,-23.438,0.000
1709297724.324,-27.344,-33.203,-44.922,-51.758,0.000
1709297724.327,-65.918,-35.156,-44.922,-60.547,0.000
1709297724.331,-57.129,-38.574,-44.922,-33.203,0.000
1709297724.335,-4.395,-37.109,-41.504,-4.883,0.000
1709297724.339,3.906,-36.621,-38.574,-14.648,0.000
1709297724.343,-32.227,-34.180,-41.016,-36.621,0.000
1709297724.347,-60.547,-30.762,-42.969,-53.711,0.000
1709297724.351,-54.199,-33.203,-44.922,-32.227,0.000
1709297724.355,-17.090,-31.250,-47.363,-8.789,0.000
1709297724.359,5.859,-29.785,-43.945,-6.836,0.000
1709297724.363,-19.531,-34.668,-42.969,-22.949,0.000
1709297724.366,-58.594,-39.062,-44.434,-39.551,0.000
1709297724.370,-56.152,-38.574,-45.898,-27.344,0.000
1709297724.374,-11.230,-37.109,-43.945,-5.859,0.000
1709297724.378,10.742,-35.645,-41.504,-7.812,0.000
1709297724.382,-25.879,-34.180,-42.480,-27.832,0.000
1709297724.386,-73.730,-33.203,-41.992,-44.434,0.000
1709297724.390,-69.336,-31.738,-41.992,-35.156,0.000
1709297724.394,-32.715,-36.133,-44.434,-11.719,0.000
1709297724.398,-2.441,-41.016,-45.410,-12.695,0.000
1709297724.402,-11.719,-43.945,-48.828,-43.457,0.000
1709297724.406,-55.664,-45.898,-47.852,-63.965,0.000
1709297724.409,-72.266,-41.992,-42.480,-54.199,0.000
1709297724.413,-33.691,-41.504,-43.945,-25.879,0.000
1709297724.417,-1.953,-44.922,-41.992,-19.531,0.000
1709297724.421,-17.090,-45.898,-47.363,-49.805,0.000
1709297724.425,-61.523,-41.992,-50.293,-67.383,0.000
1709297724.429,-76.660,-39.551,-42.969,-56.641,0.000
1709297724.433,-46.875,-41.504,-43.457,-36.133,0.000
1709297724.437,-14.160,-43.945,-43.457,-30.762,0.000
1709297724.441,-16.602,-42.969,-38.574,-48.340,0.000
1709297724.445,-53.223,-44.434,-41.016,-72.754,0.000
1709297724.448,-75.684,-43.457,-42.480,-67.383,0.000
1709297724.452,-50.293,-40.527,-47.363,-42.969,0.000
1709297724.456,-0.977,-37.598,-47.852,-34.668,0.000
1709297724.460,-2.930,-31.250,-40.527,-51.758,0.000
1709297724.464,-53.223,-30.762,-40.527,-82.031,0.000
1709297724.468,-83.984,-41.016,-44.434,-71.777,0.000
1709297724.472,-58.594,-40.527,-45.410,-35.156,0.000
1709297724.476,-9.277,-32.227,-43.457,-22.461,0.000
1709297724.480,-4.395,-36.133,-42.480,-40.527,0.000
1709297724.484,-49.805,-40.039,-42.969,-66.895,0.000
1709297724.488,-77.637,-37.109,-43.945,-65.430,0.000
1709297724.491,-50.781,-34.180,-40.527,-38.574,0.000
1709297724.495,-11.719,-41.504,-37.598,-18.066,0.000
1709297724.499,-11.230,-39.551,-42.480,-32.227,0.000
1709297724.503,-46.875,-33.203,-43.457,-63.477,0.000
1709297724.507,-71.777,-31.250,-37.109,-59.082,0.000
1709297724.511,-54.688,-30.273,-37.598,-28.320,0.000
1709297724.515,-16.113,-35.645,-44.922,-7.324,0.000
1709297724.519,0.000,-29.785,-44.922,-15.625,0.000
1709297724.523,-33.691,-30.762,-47.363,-46.875,0.000
1709297724.527,-69.824,-39.551,-49.805,-56.641,0.000
1709297724.531,-66.406,-36.133,-45.898,-18.555,0.000
1709297724.534,-28.809,-34.180,-47.363,-9.277,0.000
1709297724.538,-4.883,-38.574,-53.223,-29.297,0.000
1709297724.542,0.000,-38.574,-54.199,-48.340,0.000
1709297724.546,0.000,-34.668,-51.758,-55.176,0.000
1709297724.550,0.000,-28.320,-43.945,-32.227,0.000
1709297724.554,0.000,-29.297,-40.527,-10.742,0.000
1709297724.558,0.000,-33.691,-43.945,-18.066,0.000
1709297724.562,0.000,-30.762,-43.945,-43.457,0.000
1709297724.566,0.000,-32.715,-41.504,-56.641,0.000
1709297724.570,0.000,-33.691,-45.898,-45.410,0.000
1709297724.574,0.000,-32.715,-49.805,-23.926,0.000
1709297724.577,0.000,-31.738,-51.758,-17.578,0.000
1709297724.581,0.000,-26.855,-47.363,-35.645,0.000
1709297724.585,0.000,-30.762,-48.828,-58.594,0.000
1709297724.589,-76.172,-36.133,-51.758,-47.852,0.000
1709297724.593,-41.992,-35.645,-52.246,-21.973,0.000
1709297724.597,-9.766,-35.645,-52.734,-20.996,0.000
1709297724.601,-19.043,-35.156,-46.387,-41.016,0.000
1709297724.605,-55.664,-33.691,-37.109,-58.105,0.000
1709297724.609,-80.078,-37.598,-40.039,-55.664,0.000
1709297724.613,-58.105,-36.133,-44.922,-40.039,0.000
1709297724.617,-17.090,-34.180,-50.293,-30.273,0.000
1709297724.620,-14.160,-34.668,-55.176,-37.109,0.000
1709297724.624,-41.504,-29.785,-50.781,-60.059,0.000
1709297724.628,-57.129,-24.902,-45.410,-58.105,0.000
1709297724.632,-33.203,-29.785,-46.387,-23.926,0.000
1709297724.636,0.977,-38.086,-46.875,-16.113,0.000
1709297724.640,-1.953,-38.574,-44.434,-40.039,0.000
1709297724.644,-46.387,-35.645,-45.410,-59.570,0.000
1709297724.648,-82.031,-35.156,-44.434,-59.082,0.000
1709297724.652,-61.035,-37.598,-47.363,-40.527,0.000
1709297724.656,-21.973,-41.504,-54.199,-24.902,0.000
1709297724.659,-13.672,-44.434,-52.734,-35.645,0.000
1709297724.663,-48.828,-42.969,-40.527,-46.387,0.000
1709297724.667,-83.496,-39.062,-37.598,-40.527,0.000
1709297724.671,-58.594,-38.574,-40.527,-35.156,0.000
1709297724.675,-12.207,-38.574,-39.551,-18.066,0.000
1709297724.679,-11.230,-38.086,-39.551,-21.484,0.000
1709297724.683,-41.992,-39.551,-40.039,-49.805,0.000
1709297724.687,-76.172,-42.969,-38.574,-62.012,0.000
1709297724.691,-75.684,-41.504,-37.109,-42.480,0.000
1709297724.695,-35.645,-41.504,-43.945,-26.367,0.000
1709297724.699,-10.254,-36.621,-45.410,-29.785,0.000
1709297724.702,-34.668,-30.762,-40.039,-45.898,0.000
1709297724.706,-68.848,-37.598,-43.945,-62.988,0.000
1709297724.710,-62.988,-41.016,-47.363,-37.598,0.000
1709297724.714,-24.902,-37.109,-46.387,-13.184,0.000
1709297724.718,10.254,-35.645,-42.969,-17.090,0.000
1709297724.722,-10.254,-33.691,-39.062,-31.250,0.000
1709297724.726,-62.012,-33.691,-41.016,-48.340,0.000
1709297724.730,-62.988,-33.691,-41.992,-44.922,0.000
1709297724.734,-29.785,-31.738,-40.039,-22.949,0.000
1709297724.738,-14.648,-32.715,-41.016,-15.137,0.000
1709297724.742,-32.715,-29.297,-39.062,-35.156,0.000
1709297724.745,-65.918,-32.715,-36.621,-60.059,0.000
1709297724.749,-75.684,-38.086,-39.062,-55.664,0.000
1709297724.753,-46.387,-37.109,-41.504,-31.250,0.000
1709297724.757,-16.602,-37.598,-41.504,-19.043,0.000
1709297724.761,-26.367,-38.086,-45.410,-49.316,0.000
1709297724.765,-63.965,-40.527,-47.852,-67.871,0.000
1709297724.769,-83.008,-38.574,-46.875,-53.711,0.000
1709297724.773,-52.734,-31.738,-47.852,-30.273,0.000
1709297724.777,0.000,-32.715,-50.781,-23.438,0.000
1709297724.781,0.000,-33.203,-48.828,-51.758,0.000
1709297724.784,0.000,-35.645,-48.340,-74.219,0.000
1709297724.788,0.000,-36.621,-52.734,-65.430,0.000
1709297724.792,0.000,-33.203,-48.828,-31.738,0.000
1709297724.796,0.000,-32.227,-41.504,-15.625,0.000
1709297724.800,0.000,-39.062,-41.504,-30.762,0.000
1709297724.804,0.000,-38.574,-43.945,-55.176,0.000
1709297724.808,0.000,-36.621,-48.340,-65.918,0.000
1709297724.812,0.000,-37.598,-44.922,-42.969,0.000
1709297724.816,0.000,-37.109,-44.922,-22.949,0.000
1709297724.820,0.000,-38.086,-47.852,-37.109,0.000
1709297724.824,-60.547,-39.551,-45.410,-62.988,0.000
1709297724.827,-90.332,-44.922,-43.945,-62.988,0.000
1709297724.831,-72.266,-41.992,-39.062,-42.480,0.000
1709297724.835,-26.367,-32.715,-37.598,-27.344,0.000
1709297724.839,-17.090,-29.785,-40.527,-31.250,0.000
1709297724.843,-54.199,-31.250,-43.457,-57.617,0.000
1709297724.847,-84.473,-30.273,-41.016,-60.059,0.000
1709297724.851,-68.359,-30.762,-39.062,-40.527,0.000
1709297724.855,-26.367,-32.715,-39.062,-26.367,0.000
1709297724.859,-10.742,-32.227,-33.691,-25.391,0.000
1709297724.863,-44.922,-31.738,-32.715,-43.945,0.000
1709297724.867,-83.496,-37.109,-31.250,-54.199,0.000
1709297724.870,-69.336,-38.574,-32.715,-33.203,0.000
1709297724.874,-26.855,-36.133,-38.574,-14.648,0.000
1709297724.878,-4.883,-37.109,-36.133,-15.137,0.000
1709297724.882,-21.973,-36.133,-35.645,-42.480,0.000
1709297724.886,-64.941,-33.203,-38.574,-59.570,0.000
1709297724.890,-76.172,-33.203,-41.504,-44.922,0.000
1709297724.894,-38.574,-34.668,-42.969,-23.926,0.000
1709297724.898,-14.160,-33.691,-44.922,-26.855,0.000
1709297724.902,-33.691,-30.273,-42.969,-44.922,0.000
1709297724.906,-70.312,-35.645,-40.527,-52.734,0.000
1709297724.909,-80.078,-38.086,-43.457,-55.176,0.000
1709297724.913,-43.457,-36.133,-41.504,-35.645,0.000
1709297724.917,-6.348,-35.645,-43.457,-20.996,0.000
1709297724.921,-22.461,-33.691,-45.410,-54.199,0.000
1709297724.925,-61.523,-34.180,-40.527,-73.730,0.000
1709297724.929,-63.477,-32.227,-38.574,-46.875,0.000
1709297724.933,-29.297,-35.645,-41.016,-19.531,0.000
1709297724.937,-5.371,-39.062,-44.434,-14.160,0.000
1709297724.941,-20.996,-38.574,-48.340,-31.250,0.000
1709297724.945,-55.664,-38.574,-46.387,-50.781,0.000
1709297724.949,-71.289,-38.574,-39.062,-36.621,0.000
1709297724.953,-53.223,-37.598,-39.062,-9.766,0.000
1709297724.956,-17.578,-35.156,-44.434,-9.766,0.000
1709297724.960,-19.531,-38.574,-43.945,-27.832,0.000
