timestamps,TP9,AF7,AF8,TP10,Right AUX
1709214864.945,-41.504,-36.621,-51.758,-44.434,0.000
1709214864.948,-39.062,-29.297,-47.852,-28.809,0.000
1709214864.952,-33.203,-38.086,-36.621,-20.996,0.000
1709214864.956,-36.133,-41.992,-40.039,-32.715,0.000
1709214864.960,-37.109,-36.133,-34.668,-36.133,0.000
1709214864.964,-43.457,-50.293,-36.621,-40.527,0.000
1709214864.968,-45.898,-62.012,-45.898,-41.504,0.000
1709214864.972,-33.691,-50.293,-46.875,-28.320,0.000
1709214864.976,-32.227,-49.805,-45.898,-37.109,0.000
1709214864.980,-43.457,-43.945,-45.410,-52.734,0.000
1709214864.984,-45.410,-32.715,-48.340,-51.758,0.000
1709214864.987,-42.969,-35.156,-39.551,-45.410,0.000
1709214864.991,-38.574,-37.598,-32.715,-36.621,0.000
1709214864.995,-37.598,-36.621,-38.086,-35.645,0.000
1709214864.999,-42.969,-41.016,-32.715,-49.316,0.000
1709214865.003,-48.340,-51.758,-28.320,-58.594,0.000
1709214865.007,-51.758,-46.387,-33.691,-57.129,0.000
1709214865.011,-41.016,-40.527,-32.715,-46.875,0.000
1709214865.015,-36.621,-53.223,-34.668,-43.457,0.000
1709214865.019,-41.992,-50.781,-36.133,-49.805,0.000
1709214865.022,-42.969,-47.363,-30.273,-47.852,0.000
1709214865.026,-42.969,-48.340,-29.297,-46.387,0.000
1709214865.030,-38.086,-40.039,-31.738,-48.828,0.000
1709214865.034,-37.598,-39.062,-38.574,-51.758,0.000
1709214865.038,-39.551,-45.898,-43.945,-57.129,0.000
1709214865.042,-29.785,-46.875,-38.086,-47.363,0.000
1709214865.046,-33.691,-43.945,-46.387,-41.992,0.000
1709214865.050,-36.133,-40.039,-42.969,-38.086,0.000
1709214865.054,-23.438,-31.738,-25.391,-33.203,0.000
1709214865.057,-25.391,-51.270,-31.250,-37.598,0.000
1709214865.061,-32.715,-61.523,-36.621,-43.945,0.000
1709214865.065,-38.086,-47.363,-45.410,-55.176,0.000
1709214865.069,-24.414,-36.133,-41.504,-44.922,0.000
1709214865.073,-12.207,-31.250,-32.715,-26.855,0.000
1709214865.077,-16.113,-36.621,-38.574,-38.574,0.000
1709214865.081,-11.719,-39.551,-33.691,-36.621,0.000
1709214865.085,-19.531,-47.363,-26.367,-25.391,0.000
1709214865.089,-23.926,-39.551,-33.203,-28.320,0.000
1709214865.093,-20.508,-27.344,-33.203,-23.438,0.000
1709214865.097,-20.020,-36.133,-29.785,-22.461,0.000
1709214865.101,-29.785,-44.434,-50.781,-30.762,0.000
1709214865.104,-42.969,-46.875,-58.594,-39.551,0.000
1709214865.108,-33.691,-43.457,-35.645,-37.109,0.000
1709214865.112,-23.926,-27.344,-27.832,-26.855,0.000
1709214865.116,-29.297,-31.250,-32.715,-27.832,0.000
1709214865.120,-36.133,-54.688,-38.086,-36.621,0.000
1709214865.124,-40.527,-52.246,-39.062,-42.480,0.000
1709214865.128,-37.598,-42.969,-33.203,-42.969,0.000
1709214865.132,-34.180,-45.898,-26.855,-40.039,0.000
1709214865.136,-39.551,-44.434,-31.738,-47.363,0.000
1709214865.140,-43.457,-46.875,-43.945,-51.758,0.000
1709214865.144,-51.758,-53.223,-46.387,-48.828,0.000
1709214865.148,-44.922,-47.363,-41.016,-44.434,0.000
1709214865.151,-40.039,-52.734,-37.598,-41.992,0.000
1709214865.155,-43.457,-61.523,-38.086,-43.945,0.000
1709214865.159,-30.762,-50.293,-29.297,-44.922,0.000
1709214865.163,-31.250,-57.617,-23.438,-38.086,0.000
1709214865.167,-38.086,-59.570,-34.180,-33.203,0.000
1709214865.171,-33.203,-39.551,-41.016,-39.551,0.000
1709214865.175,-31.250,-50.293,-48.340,-41.992,0.000
1709214865.179,-26.367,-47.363,-46.875,-37.598,0.000
1709214865.183,-25.391,-35.645,-36.621,-39.551,0.000
1709214865.187,-24.414,-46.875,-41.016,-39.551,0.000
1709214865.191,-20.020,-55.664,-43.945,-33.203,0.000
1709214865.194,-16.602,-48.828,-45.410,-30.273,0.000
1709214865.198,-20.996,-36.133,-45.898,-33.203,0.000
1709214865.202,-33.691,-37.598,-44.434,-45.410,0.000
1709214865.206,-33.203,-43.945,-37.109,-38.086,0.000
1709214865.210,-32.227,-48.340,-40.527,-26.855,0.000
1709214865.214,-34.180,-45.898,-48.828,-36.133,0.000
1709214865.218,-36.621,-42.969,-45.898,-45.898,0.000
1709214865.222,-47.363,-53.223,-45.898,-51.758,0.000
1709214865.226,-43.457,-45.898,-37.109,-48.340,0.000
1709214865.230,-34.180,-29.785,-31.250,-46.387,0.000
1709214865.233,-35.645,-33.203,-32.715,-52.246,0.000
1709214865.237,-45.410,-39.062,-38.574,-51.758,0.000
1709214865.241,-54.688,-49.316,-38.086,-54.199,0.000
1709214865.245,-53.711,-50.781,-37.598,-51.758,0.000
1709214865.249,-56.152,-39.062,-46.387,-47.852,0.000
1709214865.253,-51.270,-36.133,-32.227,-36.621,0.000
1709214865.257,-44.434,-43.945,-26.367,-32.227,0.000
1709214865.261,-52.246,-53.711,-35.645,-50.781,0.000
1709214865.265,-53.223,-47.852,-34.180,-60.547,0.000
1709214865.269,-46.875,-46.875,-33.203,-53.711,0.000
1709214865.273,-43.945,-57.129,-36.621,-44.922,0.000
1709214865.276,-42.480,-54.199,-40.039,-47.852,0.000
1709214865.280,-42.480,-59.570,-43.457,-62.012,0.000
1709214865.284,-44.922,-59.082,-36.621,-61.523,0.000
1709214865.288,-41.504,-45.898,-32.227,-43.945,0.000
1709214865.292,-35.156,-52.246,-35.156,-38.574,0.000
1709214865.296,-35.645,-53.711,-41.992,-43.945,0.000
1709214865.300,-40.527,-56.152,-47.852,-46.387,0.000
1709214865.304,-52.246,-63.965,-51.270,-52.734,0.000
1709214865.308,-46.387,-56.152,-40.527,-56.152,0.000
1709214865.312,-37.598,-56.152,-32.227,-44.922,0.000
1709214865.315,-46.387,-58.594,-39.062,-45.898,0.000
1709214865.320,-54.199,-57.129,-41.504,-51.758,0.000
1709214865.324,-55.176,-54.199,-41.504,-51.758,0.000
1709214865.328,-55.664,-52.734,-43.945,-50.781,0.000
1709214865.332,-46.387,-49.805,-47.363,-46.875,0.000
1709214865.336,-30.762,-42.969,-49.805,-43.945,0.000
1709214865.340,-33.203,-42.969,-48.828,-53.223,0.000
1709214865.343,-40.039,-52.246,-41.992,-47.363,0.000
1709214865.347,-38.574,-55.176,-47.852,-44.434,0.000
1709214865.351,-32.715,-42.480,-47.852,-48.340,0.000
1709214865.355,-31.250,-45.898,-39.551,-47.852,0.000
1709214865.359,-32.715,-47.852,-37.598,-48.340,0.000
1709214865.363,-32.715,-41.016,-34.668,-42.969,0.000
1709214865.367,-31.738,-41.504,-34.180,-42.969,0.000
1709214865.371,-28.809,-39.551,-36.133,-40.039,0.000
1709214865.375,-23.926,-43.457,-40.039,-34.180,0.000
1709214865.378,-27.344,-40.527,-40.527,-41.016,0.000
1709214865.382,-36.621,-53.223,-40.527,-50.293,0.000
1709214865.386,-36.621,-65.430,-41.016,-46.387,0.000
1709214865.390,-30.762,-44.922,-41.016,-34.180,0.000
1709214865.394,-34.668,-38.086,-41.992,-26.855,0.000
1709214865.398,-37.598,-46.875,-46.875,-37.598,0.000
1709214865.402,-32.227,-53.223,-41.992,-35.645,0.000
1709214865.406,-33.691,-46.387,-30.273,-23.926,0.000
1709214865.410,-32.227,-39.551,-29.785,-22.949,0.000
1709214865.413,-24.902,-38.574,-37.598,-28.320,0.000
1709214865.417,-27.832,-39.062,-33.203,-19.043,0.000
1709214865.421,-34.180,-50.781,-29.297,-14.160,0.000
1709214865.425,-38.086,-56.152,-31.738,-31.250,0.000
1709214865.429,-39.551,-44.434,-33.691,-38.086,0.000
1709214865.433,-39.551,-46.387,-39.551,-41.992,0.000
1709214865.437,-35.156,-48.340,-31.250,-40.039,0.000
1709214865.441,-36.621,-40.039,-24.902,-41.016,0.000
1709214865.445,-48.340,-43.945,-37.598,-51.758,0.000
1709214865.449,-41.504,-45.410,-41.016,-43.945,0.000
1709214865.452,-31.250,-44.922,-35.156,-33.691,0.000
1709214865.456,-28.809,-44.922,-27.832,-41.504,0.000
1709214865.460,-34.668,-53.711,-31.250,-57.617,0.000
1709214865.464,-33.691,-43.457,-30.762,-53.223,0.000
1709214865.468,-22.949,-35.156,-28.809,-38.574,0.000
1709214865.472,-20.020,-48.828,-27.832,-41.016,0.000
1709214865.476,-22.461,-49.805,-37.109,-47.363,0.000
1709214865.480,-23.926,-56.641,-50.781,-57.617,0.000
1709214865.484,-34.180,-55.176,-43.457,-62.500,0.000
1709214865.488,-36.133,-42.480,-38.574,-47.852,0.000
1709214865.492,-38.086,-43.457,-34.668,-35.156,0.000
1709214865.496,-45.410,-56.641,-35.645,-34.180,0.000
1709214865.499,-42.480,-48.340,-37.109,-35.156,0.000
1709214865.503,-46.875,-41.016,-35.645,-43.457,0.000
1709214865.507,-43.457,-48.828,-41.504,-47.852,0.000
1709214865.511,-32.227,-47.852,-34.180,-40.039,0.000
1709214865.515,-36.133,-47.363,-41.992,-35.156,0.000
1709214865.519,-42.969,-56.641,-49.805,-51.270,0.000
1709214865.523,-47.852,-68.848,-43.945,-63.477,0.000
1709214865.527,-43.457,-58.594,-37.109,-45.410,0.000
1709214865.531,-38.086,-38.574,-36.133,-35.156,0.000
1709214865.535,-41.016,-44.922,-44.434,-43.945,0.000
1709214865.539,-47.852,-62.012,-46.875,-42.969,0.000
1709214865.542,-57.129,-51.270,-48.828,-46.875,0.000
1709214865.546,-60.059,-39.551,-49.316,-60.059,0.000
1709214865.550,-58.594,-50.293,-49.805,-60.547,0.000
1709214865.554,-58.594,-54.688,-54.199,-57.617,0.000
1709214865.558,-45.898,-41.504,-36.621,-53.711,0.000
1709214865.562,-43.945,-40.527,-28.809,-56.641,0.000
1709214865.566,-50.781,-54.688,-37.598,-58.105,0.000
1709214865.570,-45.410,-53.711,-39.062,-43.945,0.000
1709214865.574,-39.062,-47.363,-45.898,-35.645,0.000
1709214865.578,-39.551,-44.434,-53.711,-47.363,0.000
1709214865.582,-42.969,-41.016,-52.246,-59.082,0.000
1709214865.586,-40.039,-52.246,-44.922,-46.387,0.000
1709214865.589,-41.992,-62.988,-48.828,-51.270,0.000
1709214865.593,-37.109,-50.293,-41.504,-51.758,0.000
1709214865.597,-32.227,-42.969,-32.715,-40.527,0.000
1709214865.601,-41.992,-47.852,-41.504,-49.316,0.000
1709214865.605,-50.293,-43.945,-47.363,-56.641,0.000
1709214865.609,-41.016,-44.434,-42.480,-50.293,0.000
1709214865.613,-21.973,-44.434,-33.691,-40.039,0.000
1709214865.617,-26.367,-41.016,-38.086,-40.527,0.000
1709214865.621,-44.922,-50.781,-44.922,-47.363,0.000
1709214865.625,-51.270,-54.199,-40.039,-52.246,0.000
1709214865.628,-47.852,-46.875,-38.086,-39.551,0.000
1709214865.632,-45.410,-45.898,-50.293,-36.133,0.000
1709214865.636,-49.805,-42.480,-56.152,-62.500,0.000
1709214865.640,-53.223,-41.016,-44.922,-73.730,0.000
1709214865.644,-47.852,-46.387,-35.645,-61.035,0.000
1709214865.648,-42.480,-51.270,-32.227,-49.805,0.000
1709214865.652,-34.668,-59.082,-40.527,-43.457,0.000
1709214865.656,-26.367,-56.641,-41.016,-43.945,0.000
1709214865.660,-32.227,-55.664,-36.621,-62.988,0.000
1709214865.664,-31.738,-52.734,-37.598,-66.406,0.000
1709214865.667,-27.832,-55.176,-35.645,-59.570,0.000
1709214865.671,-23.438,-60.547,-37.109,-44.434,0.000
1709214865.675,-25.879,-50.781,-39.062,-20.508,0.000
1709214865.679,-40.039,-47.852,-43.945,-33.691,0.000
1709214865.683,-47.363,-47.852,-43.457,-52.246,0.000
1709214865.687,-46.875,-46.875,-41.992,-43.945,0.000
1709214865.691,-33.691,-46.387,-36.621,-35.645,0.000
1709214865.695,-22.949,-42.969,-33.691,-30.273,0.000
1709214865.699,-27.832,-39.062,-31.738,-32.715,0.000
1709214865.702,-33.691,-37.598,-34.180,-32.227,0.000
1709214865.706,-40.039,-49.316,-32.227,-25.391,0.000
1709214865.710,-39.062,-52.734,-27.344,-21.973,0.000
1709214865.714,-34.180,-45.410,-34.668,-31.738,0.000
1709214865.718,-34.180,-38.086,-32.227,-28.320,0.000
1709214865.722,-39.062,-39.551,-40.039,-26.367,0.000
1709214865.726,-41.016,-36.133,-55.664,-43.457,0.000
1709214865.730,-37.109,-33.203,-50.781,-41.016,0.000
1709214865.734,-38.574,-44.922,-46.387,-45.898,0.000
1709214865.738,-41.504,-46.387,-53.711,-56.152,0.000
1709214865.741,-48.340,-43.457,-50.293,-59.082,0.000
1709214865.745,-49.316,-47.852,-41.504,-56.152,0.000
1709214865.749,-45.898,-42.480,-49.316,-43.945,0.000
1709214865.753,-42.480,-47.852,-54.199,-38.086,0.000
1709214865.757,-42.969,-53.223,-46.875,-47.852,0.000
1709214865.761,-42.969,-42.480,-40.039,-47.852,0.000
1709214865.765,-45.410,-37.109,-44.922,-39.062,0.000
1709214865.769,-43.945,-38.574,-51.270,-42.480,0.000
1709214865.773,-39.062,-46.387,-49.805,-46.387,0.000
1709214865.777,-43.457,-46.387,-43.457,-47.852,0.000
1709214865.780,-50.781,-39.551,-36.621,-51.270,0.000
1709214865.784,-57.129,-54.688,-50.293,-53.223,0.000
1709214865.788,-46.875,-52.734,-50.293,-31.738,0.000
1709214865.792,-39.551,-40.039,-40.039,-28.809,0.000
1709214865.796,-46.387,-53.711,-55.176,-41.016,0.000
1709214865.800,-48.828,-57.617,-52.734,-40.039,0.000
1709214865.804,-45.898,-47.363,-32.715,-37.598,0.000
1709214865.808,-42.480,-46.387,-28.809,-28.320,0.000
1709214865.811,-39.551,-46.875,-34.180,-37.109,0.000
1709214865.815,-32.715,-42.480,-38.574,-45.898,0.000
1709214865.819,-36.621,-48.340,-38.574,-41.504,0.000
1709214865.823,-48.828,-57.129,-41.504,-45.410,0.000
1709214865.827,-45.410,-61.523,-43.457,-46.387,0.000
1709214865.831,-35.156,-58.105,-46.875,-45.410,0.000
1709214865.835,-30.762,-45.410,-43.945,-40.527,0.000
1709214865.839,-23.438,-42.969,-35.156,-36.621,0.000
1709214865.843,-25.391,-49.316,-38.086,-39.062,0.000
1709214865.847,-30.273,-46.387,-41.504,-42.969,0.000
1709214865.851,-17.090,-40.039,-39.551,-32.715,0.000
1709214865.855,-22.949,-43.945,-41.504,-32.227,0.000
1709214865.858,-30.273,-49.316,-34.180,-37.109,0.000
1709214865.862,-30.762,-48.340,-30.762,-47.363,0.000
1709214865.866,-30.762,-51.270,-37.109,-44.434,0.000
1709214865.870,-25.391,-46.875,-34.180,-37.109,0.000
1709214865.874,-24.902,-38.086,-37.109,-53.711,0.000
1709214865.878,-32.715,-42.969,-43.457,-64.941,0.000
1709214865.882,-38.574,-44.922,-41.992,-63.965,0.000
1709214865.886,-36.621,-48.340,-49.316,-58.105,0.000
1709214865.890,-38.086,-48.828,-51.270,-55.176,0.000
1709214865.894,-39.062,-44.922,-55.664,-52.246,0.000
1709214865.898,-32.715,-39.062,-47.852,-47.852,0.000
1709214865.902,-36.621,-37.598,-28.320,-52.246,0.000
1709214865.905,-52.246,-44.922,-35.645,-62.500,0.000
1709214865.909,-58.594,-55.176,-46.387,-62.500,0.000
1709214865.913,-49.805,-62.012,-42.480,-50.293,0.000
1709214865.917,-45.898,-50.781,-41.504,-55.176,0.000
1709214865.921,-49.316,-47.852,-45.898,-61.035,0.000
1709214865.925,-42.969,-45.410,-42.480,-54.199,0.000
1709214865.929,-32.715,-42.480,-42.480,-45.898,0.000
1709214865.933,-27.344,-48.828,-42.480,-35.156,0.000
1709214865.937,-26.855,-50.293,-40.039,-38.574,0.000
1709214865.941,-34.180,-47.363,-43.457,-45.410,0.000
1709214865.944,-40.039,-44.922,-42.969,-43.457,0.000
1709214865.948,-38.574,-46.875,-30.273,-31.738,0.000
1709214865.952,-30.762,-50.293,-29.785,-30.762,0.000
1709214865.956,-28.809,-42.969,-37.109,-41.992,0.000
1709214865.960,-34.668,-37.598,-38.574,-43.457,0.000
1709214865.964,-34.180,-36.133,-42.480,-49.316,0.000
1709214865.968,-37.109,-40.527,-47.852,-51.270,0.000
1709214865.972,-29.297,-41.016,-42.480,-36.133,0.000
1709214865.976,-25.879,-49.316,-37.598,-34.668,0.000
1709214865.980,-41.992,-48.828,-37.598,-44.434,0.000
1709214865.984,-49.316,-35.645,-37.598,-50.781,0.000
1709214865.987,-41.992,-35.156,-30.273,-38.086,0.000
1709214865.991,-27.832,-41.504,-33.203,-20.508,0.000
1709214865.995,-35.645,-43.945,-46.387,-35.156,0.000
1709214865.999,-49.805,-51.758,-42.480,-59.570,0.000
1709214866.003,-55.664,-53.223,-41.992,-56.641,0.000
1709214866.007,-59.082,-46.387,-47.363,-49.805,0.000
1709214866.011,-50.781,-44.434,-43.457,-56.641,0.000
1709214866.015,-45.898,-46.875,-36.133,-48.340,0.000
1709214866.019,-48.828,-47.852,-38.086,-40.527,0.000
1709214866.023,-54.688,-40.039,-38.086,-42.480,0.000
1709214866.026,-48.340,-42.969,-32.227,-32.227,0.000
1709214866.030,-41.016,-58.105,-37.109,-26.855,0.000
1709214866.034,-37.598,-49.805,-34.180,-23.438,0.000
1709214866.038,-37.598,-39.551,-27.832,-24.414,0.000
1709214866.042,-41.504,-42.969,-38.574,-34.180,0.000
1709214866.046,-42.969,-38.574,-45.410,-41.016,0.000
1709214866.050,-39.551,-40.039,-35.645,-33.203,0.000
1709214866.054,-36.621,-49.805,-34.180,-32.227,0.000
1709214866.058,-43.457,-46.875,-39.062,-46.875,0.000
1709214866.062,-49.316,-43.457,-39.551,-56.152,0.000
1709214866.065,-50.781,-43.945,-41.016,-53.711,0.000
1709214866.069,-45.410,-44.922,-41.992,-48.828,0.000
1709214866.073,-38.086,-53.711,-38.086,-45.410,0.000
1709214866.077,-34.668,-64.941,-26.855,-45.410,0.000
1709214866.081,-39.062,-53.711,-27.832,-52.734,0.000
1709214866.085,-44.434,-41.992,-34.180,-57.617,0.000
1709214866.089,-42.480,-41.992,-41.016,-50.293,0.000
1709214866.093,-39.062,-44.922,-41.992,-39.062,0.000
1709214866.097,-35.645,-50.781,-38.574,-41.992,0.000
1709214866.101,-38.574,-44.922,-35.645,-54.199,0.000
1709214866.105,-38.086,-33.691,-26.367,-45.410,0.000
1709214866.109,-31.738,-33.203,-37.109,-38.574,0.000
1709214866.112,-30.762,-38.574,-40.039,-45.410,0.000
1709214866.116,-34.180,-47.852,-34.180,-49.805,0.000
1709214866.120,-43.945,-57.129,-36.621,-55.176,0.000
1709214866.124,-53.711,-55.664,-31.738,-54.688,0.000
1709214866.128,-42.480,-51.758,-30.762,-48.828,0.000
1709214866.132,-27.344,-45.410,-35.156,-41.992,0.000
1709214866.136,-26.855,-29.297,-32.227,-28.320,0.000
1709214866.140,-40.527,-27.832,-42.480,-32.715,0.000
1709214866.144,-49.316,-30.273,-58.105,-48.828,0.000
1709214866.147,-36.133,-32.715,-41.992,-43.945,0.000
1709214866.151,-25.879,-37.598,-27.344,-28.809,0.000
1709214866.155,-28.809,-38.574,-31.250,-31.250,0.000
1709214866.159,-32.227,-52.246,-39.062,-39.062,0.000
1709214866.163,-35.156,-52.246,-41.016,-34.668,0.000
1709214866.167,-34.668,-41.504,-39.551,-34.180,0.000
1709214866.171,-39.062,-40.039,-37.598,-42.969,0.000
1709214866.175,-46.875,-41.016,-37.598,-45.410,0.000
1709214866.178,-44.434,-39.062,-40.527,-43.457,0.000
1709214866.182,-45.410,-39.062,-38.086,-48.340,0.000
1709214866.186,-45.898,-43.457,-37.109,-50.781,0.000
1709214866.190,-37.109,-39.062,-40.039,-37.598,0.000
1709214866.194,-34.180,-43.457,-40.527,-37.598,0.000
1709214866.198,-37.598,-61.035,-32.227,-32.227,0.000
1709214866.202,-39.551,-55.176,-27.832,-32.227,0.000
1709214866.206,-44.922,-46.387,-37.598,-45.410,0.000
1709214866.210,-41.992,-47.852,-37.109,-32.715,0.000
1709214866.214,-38.574,-50.293,-36.621,-27.344,0.000
1709214866.218,-41.992,-50.781,-42.480,-34.668,0.000
1709214866.222,-48.828,-49.316,-39.551,-37.598,0.000
1709214866.226,-44.434,-56.641,-37.598,-36.621,0.000
1709214866.229,-37.598,-62.012,-43.945,-40.039,0.000
1709214866.233,-39.551,-58.594,-47.363,-47.363,0.000
1709214866.237,-39.062,-52.246,-38.574,-52.734,0.000
1709214866.241,-35.156,-51.758,-35.156,-44.434,0.000
1709214866.245,-37.598,-52.246,-42.480,-35.156,0.000
1709214866.249,-34.180,-51.758,-36.621,-35.156,0.000
1709214866.253,-41.016,-58.594,-29.297,-34.180,0.000
1709214866.257,-47.363,-49.805,-29.785,-42.480,0.000
1709214866.261,-41.992,-46.875,-28.809,-46.387,0.000
1709214866.265,-39.551,-49.805,-35.156,-35.156,0.000
1709214866.269,-32.715,-42.969,-28.809,-31.250,0.000
1709214866.272,-32.227,-42.480,-21.484,-31.250,0.000
1709214866.276,-41.016,-50.293,-31.738,-38.574,0.000
1709214866.280,-43.457,-48.828,-32.715,-41.016,0.000
1709214866.284,-47.852,-46.875,-34.180,-41.504,0.000
1709214866.288,-51.758,-53.711,-35.645,-34.668,0.000
1709214866.292,-43.457,-49.805,-35.156,-27.832,0.000
1709214866.296,-39.551,-52.734,-37.109,-38.574,0.000
1709214866.300,-52.246,-64.453,-46.875,-52.734,0.000
1709214866.304,-58.105,-54.688,-44.434,-57.129,0.000
1709214866.308,-48.340,-51.270,-34.180,-52.734,0.000
1709214866.312,-40.039,-53.223,-37.109,-42.969,0.000
1709214866.315,-35.156,-46.387,-32.715,-40.039,0.000
1709214866.319,-43.457,-44.434,-33.691,-46.875,0.000
1709214866.323,-49.316,-43.457,-38.086,-47.852,0.000
1709214866.327,-46.875,-37.598,-33.691,-40.039,0.000
1709214866.331,-46.875,-48.340,-38.086,-41.504,0.000
1709214866.335,-41.016,-54.688,-46.875,-41.016,0.000
1709214866.339,-41.016,-41.504,-43.457,-42.480,0.000
1709214866.343,-40.039,-42.480,-30.762,-40.527,0.000
1709214866.347,-38.086,-49.805,-29.297,-32.227,0.000
1709214866.351,-29.785,-38.086,-38.086,-27.344,0.000
1709214866.355,-24.414,-32.227,-41.992,-33.203,0.000
1709214866.358,-35.156,-40.039,-43.945,-48.340,0.000
1709214866.362,-22.949,-41.992,-33.691,-35.645,0.000
1709214866.366,-20.508,-47.363,-35.156,-24.414,0.000
1709214866.370,-33.203,-57.129,-43.457,-27.832,0.000
1709214866.374,-28.809,-45.898,-35.645,-23.926,0.000
1709214866.378,-31.250,-50.293,-35.645,-28.320,0.000
1709214866.382,-39.551,-55.664,-41.992,-39.551,0.000
1709214866.386,-45.410,-48.340,-40.039,-44.434,0.000
1709214866.390,-44.922,-57.129,-36.133,-39.062,0.000
1709214866.394,-39.551,-49.805,-39.062,-39.551,0.000
1709214866.397,-43.945,-47.852,-44.922,-52.246,0.000
1709214866.401,-54.199,-54.199,-38.574,-60.547,0.000
1709214866.405,-53.223,-42.480,-41.504,-53.223,0.000
1709214866.409,-56.152,-32.715,-52.734,-54.688,0.000
1709214866.413,-46.875,-36.621,-36.133,-54.688,0.000
1709214866.417,-40.039,-48.828,-18.555,-58.594,0.000
1709214866.421,-43.945,-51.270,-24.902,-67.383,0.000
1709214866.425,-50.781,-53.711,-36.133,-61.035,0.000
1709214866.429,-46.387,-52.246,-40.039,-53.711,0.000
1709214866.433,-29.785,-41.016,-38.574,-46.387,0.000
1709214866.436,-32.227,-45.410,-37.109,-51.758,0.000
1709214866.440,-41.016,-49.316,-41.504,-60.059,0.000
1709214866.444,-37.598,-33.203,-41.016,-45.410,0.000
1709214866.448,-34.180,-27.832,-43.945,-37.598,0.000
1709214866.452,-29.785,-38.086,-42.969,-38.574,0.000
1709214866.456,-24.414,-43.457,-45.410,-41.504,0.000
1709214866.460,-31.250,-43.945,-41.992,-44.922,0.000
1709214866.464,-43.457,-49.805,-30.273,-48.340,0.000
1709214866.468,-51.758,-61.523,-36.133,-44.922,0.000
1709214866.472,-45.898,-60.059,-35.645,-35.156,0.000
1709214866.475,-39.062,-49.316,-34.180,-44.922,0.000
1709214866.479,-45.410,-43.945,-34.180,-45.410,0.000
1709214866.483,-49.316,-40.527,-26.855,-46.875,0.000
1709214866.487,-41.016,-41.992,-29.785,-47.852,0.000
1709214866.491,-33.691,-41.504,-39.062,-41.992,0.000
1709214866.495,-25.879,-39.062,-38.086,-42.480,0.000
1709214866.499,-24.902,-36.621,-31.250,-49.805,0.000
1709214866.503,-28.320,-33.691,-35.156,-48.828,0.000
1709214866.507,-25.879,-29.297,-44.434,-38.574,0.000
1709214866.510,-18.555,-34.180,-38.574,-41.016,0.000
1709214866.514,-5.859,-39.062,-25.879,-27.344,0.000
1709214866.518,-16.113,-35.645,-22.461,-31.250,0.000
1709214866.522,-33.203,-38.086,-31.738,-50.781,0.000
1709214866.526,-29.785,-47.363,-32.227,-39.551,0.000
1709214866.530,-26.367,-37.109,-26.855,-33.203,0.000
1709214866.534,-30.273,-33.203,-35.156,-44.434,0.000
1709214866.538,-30.273,-40.527,-40.527,-41.016,0.000
1709214866.541,-33.203,-37.109,-34.180,-48.828,0.000
1709214866.545,-34.668,-38.574,-31.250,-46.875,0.000
1709214866.549,-20.996,-38.086,-28.320,-25.879,0.000
1709214866.553,-17.090,-38.574,-33.203,-28.320,0.000
1709214866.557,-25.879,-46.387,-39.062,-35.645,0.000
1709214866.561,-27.344,-47.852,-35.645,-42.969,0.000
1709214866.565,-25.391,-34.180,-27.344,-34.668,0.000
1709214866.569,-24.414,-33.203,-24.902,-26.367,0.000
1709214866.573,-28.809,-41.992,-29.297,-31.738,0.000
1709214866.577,-33.203,-43.945,-36.621,-44.434,0.000
1709214866.581,-37.598,-46.875,-41.504,-53.711,0.000
1709214866.585,-40.527,-52.734,-36.133,-49.805,0.000
1709214866.588,-35.645,-45.898,-36.133,-41.992,0.000
1709214866.592,-27.344,-43.945,-39.062,-40.039,0.000
1709214866.596,-24.414,-47.852,-36.621,-34.668,0.000
1709214866.600,-32.227,-38.086,-34.180,-28.809,0.000
1709214866.604,-37.109,-42.480,-38.086,-31.250,0.000
1709214866.608,-34.180,-51.270,-39.551,-39.062,0.000
1709214866.612,-31.250,-39.551,-27.832,-39.551,0.000
1709214866.616,-34.668,-34.668,-21.484,-34.180,0.000
1709214866.620,-43.945,-42.480,-32.715,-46.875,0.000
1709214866.624,-41.992,-40.039,-39.062,-50.781,0.000
1709214866.628,-29.297,-41.016,-39.551,-40.527,0.000
1709214866.632,-24.414,-45.410,-28.320,-29.297,0.000
1709214866.635,-27.832,-48.340,-30.762,-27.344,0.000
1709214866.639,-28.320,-50.293,-42.480,-38.086,0.000
1709214866.643,-35.645,-44.434,-38.086,-44.434,0.000
1709214866.647,-37.598,-43.457,-34.180,-35.156,0.000
1709214866.651,-32.715,-41.992,-36.133,-29.785,0.000
1709214866.655,-28.320,-37.598,-40.527,-27.344,0.000
1709214866.659,-36.133,-40.039,-42.969,-35.156,0.000
1709214866.663,-44.434,-46.387,-35.645,-39.062,0.000
1709214866.667,-51.270,-55.176,-35.156,-42.480,0.000
1709214866.671,-46.387,-62.500,-35.156,-53.711,0.000
1709214866.675,-39.062,-53.223,-39.062,-52.734,0.000
1709214866.679,0.000,-53.223,-44.434,-55.176,0.000
1709214866.682,0.000,-48.828,-39.551,-44.922,0.000
1709214866.686,0.000,-46.875,-39.062,-38.086,0.000
1709214866.690,0.000,-57.129,-39.062,-45.898,0.000
1709214866.694,0.000,-48.340,-38.574,-41.016,0.000
1709214866.698,0.000,-48.340,-36.621,-38.574,0.000
1709214866.702,0.000,-51.758,-37.109,-48.828,0.000
1709214866.706,0.000,-45.410,-41.016,-40.039,0.000
1709214866.710,0.000,-53.711,-43.457,-26.367,0.000
1709214866.714,0.000,-53.711,-37.109,-33.691,0.000
1709214866.718,0.000,-48.340,-38.086,-43.457,0.000
1709214866.722,0.000,-48.828,-41.992,-46.387,0.000
1709214866.725,-31.250,-33.691,-34.668,-35.645,0.000
1709214866.729,-29.785,-41.992,-32.715,-30.273,0.000
1709214866.733,-36.621,-55.176,-40.039,-35.645,0.000
1709214866.737,-43.457,-52.246,-36.621,-43.945,0.000
1709214866.741,-57.617,-48.828,-36.621,-54.199,0.000
1709214866.745,-50.293,-40.039,-41.992,-45.898,0.000
1709214866.749,-32.715,-37.109,-31.250,-35.645,0.000
1709214866.753,-35.645,-40.039,-30.762,-36.621,0.000
1709214866.757,-45.410,-53.711,-46.875,-47.852,0.000
1709214866.761,-48.828,-57.129,-44.922,-54.199,0.000
1709214866.765,-55.176,-48.340,-35.156,-50.293,0.000
1709214866.768,-51.758,-41.992,-33.203,-51.758,0.000
1709214866.772,-41.504,-36.621,-26.367,-55.664,0.000
1709214866.776,-39.062,-36.133,-36.133,-59.570,0.000
1709214866.780,-49.805,-41.504,-48.340,-59.082,0.000
1709214866.784,-57.617,-51.758,-45.410,-58.105,0.000
1709214866.788,-54.199,-58.105,-41.504,-50.781,0.000
1709214866.792,-48.828,-49.805,-43.457,-40.527,0.000
1709214866.796,-48.340,-45.410,-47.363,-43.457,0.000
1709214866.800,-42.480,-46.387,-38.574,-32.227,0.000
1709214866.804,-37.109,-53.711,-29.297,-24.414,0.000
1709214866.807,-39.551,-56.152,-36.133,-29.297,0.000
1709214866.811,-34.180,-38.574,-48.340,-23.438,0.000
1709214866.815,-31.738,-35.156,-46.875,-27.832,0.000
1709214866.819,-32.227,-41.504,-37.598,-39.062,0.000
1709214866.823,-27.832,-40.527,-30.762,-36.621,0.000
1709214866.827,-25.391,-34.668,-25.391,-27.832,0.000
1709214866.831,-21.973,-39.062,-28.809,-23.926,0.000
1709214866.835,-24.902,-46.387,-31.738,-29.785,0.000
1709214866.839,-41.504,-42.969,-32.715,-34.180,0.000
1709214866.842,-47.852,-37.598,-41.016,-28.809,0.000
1709214866.846,-51.270,-46.875,-49.316,-39.062,0.000
1709214866.850,-46.387,-56.641,-41.504,-53.711,0.000
1709214866.854,-43.945,-46.387,-39.062,-56.641,0.000
1709214866.858,-49.316,-39.062,-39.551,-61.523,0.000
1709214866.862,-50.293,-37.109,-39.062,-60.059,0.000
1709214866.866,-50.293,-40.039,-39.062,-60.059,0.000
1709214866.870,-43.457,-53.223,-25.879,-54.199,0.000
1709214866.874,-44.434,-58.594,-31.738,-54.688,0.000
1709214866.877,-38.086,-48.828,-38.086,-54.199,0.000
1709214866.881,-37.598,-43.945,-31.250,-56.641,0.000
1709214866.885,-47.363,-47.363,-33.691,-59.082,0.000
1709214866.889,-44.922,-53.711,-37.109,-41.504,0.000
1709214866.893,-39.551,-50.781,-38.574,-38.574,0.000
1709214866.897,-44.434,-43.457,-43.457,-54.199,0.000
1709214866.901,-57.129,-48.828,-46.387,-55.176,0.000
1709214866.905,-61.523,-56.641,-47.363,-46.387,0.000
1709214866.909,-57.129,-54.688,-44.922,-42.480,0.000
1709214866.912,-41.016,-41.992,-41.016,-39.062,0.000
1709214866.916,-39.551,-42.480,-42.480,-41.992,0.000
1709214866.920,-40.527,-49.805,-33.691,-46.875,0.000
1709214866.924,-34.180,-53.223,-34.180,-44.434,0.000
1709214866.928,-39.551,-61.523,-43.945,-40.527,0.000
1709214866.932,-32.227,-57.129,-39.551,-24.902,0.000
1709214866.936,-28.320,-46.875,-33.691,-26.367,0.000
1709214866.940,-39.551,-55.664,-39.062,-55.664,0.000
1709214866.944,-45.410,-62.012,-43.457,-60.059,0.000
1709214866.948,-40.039,-55.176,-41.016,-39.551,0.000
1709214866.951,-28.320,-46.875,-35.645,-29.785,0.000
1709214866.955,-36.133,-49.805,-39.062,-45.410,0.000
1709214866.959,-49.316,-57.129,-38.086,-51.270,0.000
1709214866.963,-47.363,-55.176,-30.273,-42.480,0.000
1709214866.967,-52.246,-58.105,-35.645,-39.062,0.000
1709214866.971,-51.270,-59.570,-45.410,-34.180,0.000
1709214866.975,-50.293,-48.828,-46.875,-33.203,0.000
1709214866.979,-53.223,-47.852,-41.016,-39.062,0.000
1709214866.983,-48.828,-40.039,-35.156,-39.062,0.000
1709214866.987,-41.504,-36.621,-29.785,-35.156,0.000
1709214866.991,-44.434,-53.223,-31.738,-39.551,0.000
1709214866.995,-48.828,-48.828,-37.109,-38.086,0.000
1709214866.999,-39.062,-43.945,-27.832,-40.527,0.000
1709214867.002,-34.668,-52.734,-25.879,-43.457,0.000
1709214867.006,-36.133,-50.293,-35.156,-36.621,0.000
1709214867.010,-26.367,-43.457,-36.621,-32.227,0.000
1709214867.014,-19.531,-50.293,-34.668,-34.180,0.000
1709214867.018,-20.508,-47.852,-31.250,-44.922,0.000
1709214867.022,-31.738,-47.363,-32.715,-55.664,0.000
1709214867.026,-31.738,-50.781,-40.527,-41.504,0.000
1709214867.030,-21.484,-40.527,-42.969,-23.926,0.000
1709214867.034,-26.367,-34.668,-34.180,-31.738,0.000
1709214867.038,-35.156,-40.527,-44.434,-33.203,0.000
1709214867.042,-30.273,-33.203,-41.016,-32.227,0.000
1709214867.045,-18.555,-26.855,-24.902,-42.480,0.000
1709214867.049,-12.695,-42.480,-31.738,-38.574,0.000
1709214867.053,-9.277,-44.922,-30.273,-29.297,0.000
1709214867.057,-19.531,-53.711,-32.715,-36.621,0.000
1709214867.061,-31.250,-54.688,-41.504,-37.598,0.000
1709214867.065,-30.762,-41.504,-37.109,-33.691,0.000
1709214867.069,-27.832,-41.992,-30.762,-27.344,0.000
1709214867.073,-32.227,-44.922,-33.691,-26.855,0.000
1709214867.077,-36.621,-36.133,-41.016,-34.180,0.000
1709214867.081,-41.992,-35.645,-43.945,-49.316,0.000
1709214867.085,-44.434,-48.340,-41.016,-52.246,0.000
1709214867.089,-32.715,-41.016,-44.922,-45.898,0.000
1709214867.092,-25.391,-37.109,-42.480,-34.668,0.000
1709214867.096,-32.227,-44.922,-35.645,-32.715,0.000
1709214867.100,-40.039,-42.480,-35.645,-43.945,0.000
1709214867.104,-35.156,-41.992,-29.785,-41.992,0.000
1709214867.108,-32.227,-42.480,-30.273,-39.062,0.000
1709214867.112,-36.133,-40.527,-39.551,-43.457,0.000
1709214867.116,-38.086,-41.016,-41.016,-54.688,0.000
1709214867.120,-49.805,-44.922,-38.574,-58.594,0.000
1709214867.124,-55.176,-44.434,-37.109,-54.199,0.000
1709214867.128,-44.922,-37.598,-44.434,-42.480,0.000
1709214867.131,-29.297,-32.715,-47.852,-25.879,0.000
1709214867.135,-27.832,-31.738,-45.898,-29.785,0.000
1709214867.139,-28.809,-44.434,-35.156,-34.668,0.000
1709214867.143,-33.691,-48.828,-36.133,-38.086,0.000
1709214867.147,-44.434,-42.969,-52.734,-35.645,0.000
1709214867.151,-40.039,-43.945,-44.922,-35.645,0.000
1709214867.155,-33.691,-44.434,-34.668,-44.922,0.000
1709214867.159,-35.156,-41.992,-30.273,-45.898,0.000
1709214867.163,-43.457,-41.504,-32.715,-47.363,0.000
1709214867.167,-33.203,-35.645,-36.621,-37.109,0.000
1709214867.171,-29.297,-37.598,-34.180,-28.809,0.000
1709214867.174,-33.691,-42.969,-41.016,-32.227,0.000
1709214867.178,-30.273,-42.480,-34.668,-37.109,0.000
1709214867.182,-38.574,-48.828,-34.180,-45.898,0.000
1709214867.186,-34.668,-46.387,-41.992,-44.922,0.000
1709214867.190,-23.926,-36.621,-40.039,-38.574,0.000
1709214867.194,-23.438,-39.062,-41.504,-35.645,0.000
1709214867.198,-20.020,-42.969,-39.062,-35.645,0.000
1709214867.202,-20.996,-33.691,-32.227,-41.504,0.000
1709214867.206,-36.621,-34.180,-33.203,-48.340,0.000
1709214867.209,-28.809,-43.457,-35.156,-37.109,0.000
1709214867.213,-18.066,-43.945,-40.527,-29.297,0.000
1709214867.217,-19.043,-35.645,-37.598,-29.297,0.000
1709214867.221,-21.973,-38.574,-31.250,-26.855,0.000
1709214867.225,-27.344,-40.527,-32.227,-35.645,0.000
1709214867.229,-17.578,-28.320,-26.367,-39.551,0.000
1709214867.233,-17.578,-33.203,-29.297,-42.969,0.000
1709214867.237,-24.414,-44.434,-37.109,-42.969,0.000
1709214867.241,-26.855,-45.898,-39.062,-47.852,0.000
1709214867.245,-30.273,-39.551,-37.598,-44.922,0.000
1709214867.249,-27.832,-38.574,-32.715,-34.180,0.000
1709214867.253,-16.602,-43.945,-35.645,-32.227,0.000
1709214867.257,-16.113,-47.363,-38.574,-41.992,0.000
1709214867.261,-31.250,-43.457,-31.250,-46.875,0.000
1709214867.264,-32.227,-36.621,-23.438,-39.551,0.000
1709214867.268,-25.879,-39.551,-24.414,-37.598,0.000
1709214867.272,-24.414,-45.410,-39.062,-35.645,0.000
1709214867.276,-27.344,-46.875,-43.945,-46.387,0.000
1709214867.280,-32.227,-44.434,-40.527,-54.199,0.000
1709214867.284,-26.855,-42.480,-34.668,-40.527,0.000
1709214867.288,-22.461,-39.551,-35.156,-35.156,0.000
1709214867.292,-23.438,-39.062,-39.062,-37.598,0.000
1709214867.295,-22.461,-46.875,-29.785,-38.574,0.000
1709214867.299,-29.785,-49.316,-29.297,-46.387,0.000
1709214867.303,-37.109,-43.945,-40.039,-49.316,0.000
1709214867.307,-38.574,-48.340,-46.387,-45.410,0.000
1709214867.311,-37.598,-51.270,-37.109,-43.945,0.000
1709214867.315,-33.691,-47.852,-30.273,-45.410,0.000
1709214867.319,-21.484,-41.992,-26.367,-37.109,0.000
1709214867.323,-22.949,-48.340,-32.715,-35.645,0.000
1709214867.327,-40.039,-62.500,-39.062,-44.434,0.000
1709214867.331,-39.551,-58.105,-31.738,-41.992,0.000
1709214867.335,-31.250,-48.340,-25.879,-39.062,0.000
1709214867.339,-42.480,-41.016,-28.809,-48.828,0.000
1709214867.342,-61.523,-36.621,-33.691,-57.617,0.000
1709214867.346,-61.523,-33.691,-29.785,-49.316,0.000
1709214867.350,-54.199,-40.527,-34.180,-41.504,0.000
1709214867.354,-51.270,-55.176,-39.062,-47.852,0.000
1709214867.358,-48.340,-48.340,-42.480,-42.480,0.000
1709214867.362,-54.199,-44.922,-47.363,-50.293,0.000
1709214867.366,-48.340,-44.922,-40.527,-54.688,0.000
1709214867.370,-42.480,-45.898,-34.668,-41.504,0.000
1709214867.374,-45.410,-49.316,-29.785,-41.504,0.000
1709214867.378,-44.434,-56.641,-32.227,-48.340,0.000
1709214867.382,-45.410,-59.570,-37.109,-44.434,0.000
1709214867.386,-53.711,-52.734,-41.016,-42.969,0.000
1709214867.389,-51.758,-46.387,-41.016,-44.922,0.000
1709214867.393,-48.828,-47.852,-34.180,-39.551,0.000
1709214867.397,-50.293,-47.363,-34.180,-40.039,0.000
1709214867.401,-56.641,-44.434,-37.598,-47.363,0.000
1709214867.405,-58.105,-46.387,-29.785,-46.875,0.000
1709214867.409,-43.945,-48.828,-33.691,-40.527,0.000
1709214867.413,-34.180,-52.734,-45.410,-37.109,0.000
1709214867.417,-42.969,-52.246,-40.527,-43.457,0.000
1709214867.421,-45.410,-54.199,-33.691,-52.734,0.000
1709214867.425,-40.527,-52.246,-34.668,-55.664,0.000
1709214867.429,-41.992,-42.969,-38.086,-55.176,0.000
1709214867.432,-39.551,-45.410,-40.527,-53.711,0.000
1709214867.436,-40.039,-47.363,-43.457,-53.223,0.000
1709214867.440,-50.293,-37.109,-40.039,-52.734,0.000
1709214867.444,-53.223,-36.621,-46.387,-53.711,0.000
1709214867.448,-40.039,-44.922,-44.434,-47.852,0.000
1709214867.452,-37.109,-45.410,-39.551,-55.176,0.000
1709214867.456,-35.156,-46.387,-43.945,-60.059,0.000
1709214867.460,-34.180,-53.223,-41.016,-42.969,0.000
1709214867.464,-41.016,-43.945,-33.203,-42.480,0.000
1709214867.468,-46.387,-41.992,-38.574,-59.570,0.000
1709214867.472,-38.574,-53.223,-41.016,-50.781,0.000
1709214867.475,-31.250,-55.176,-35.645,-45.410,0.000
1709214867.479,-46.387,-48.828,-41.016,-56.152,0.000
1709214867.483,-52.246,-40.039,-39.062,-55.176,0.000
1709214867.487,-43.457,-40.039,-36.621,-44.434,0.000
1709214867.491,-34.180,-35.156,-35.645,-30.273,0.000
1709214867.495,-36.133,-43.945,-39.062,-36.133,0.000
1709214867.499,-45.410,-55.664,-41.992,-54.199,0.000
1709214867.503,-56.152,-49.805,-43.457,-53.223,0.000
1709214867.507,-54.199,-47.363,-46.875,-54.199,0.000
1709214867.511,-40.039,-43.457,-40.527,-55.176,0.000
1709214867.514,-44.922,-41.016,-44.922,-49.316,0.000
1709214867.518,-45.410,-43.457,-42.969,-52.734,0.000
1709214867.522,-41.016,-42.480,-31.250,-51.758,0.000
1709214867.526,-42.480,-35.156,-33.691,-41.016,0.000
1709214867.530,-38.086,-44.434,-38.086,-37.109,0.000
1709214867.534,-30.762,-50.781,-38.574,-44.922,0.000
1709214867.538,-32.227,-48.340,-37.109,-46.387,0.000
1709214867.542,-37.109,-43.457,-35.156,-49.805,0.000
1709214867.546,-34.668,-34.668,-37.598,-46.387,0.000
1709214867.550,-28.320,-33.203,-35.156,-30.762,0.000
1709214867.553,-26.855,-39.062,-36.621,-37.598,0.000
1709214867.557,-32.227,-44.434,-48.828,-50.293,0.000
1709214867.561,-36.133,-42.480,-46.387,-50.781,0.000
1709214867.565,-37.598,-47.363,-41.504,-50.781,0.000
1709214867.569,-35.156,-46.875,-48.828,-48.340,0.000
1709214867.573,-35.645,-47.852,-40.039,-46.875,0.000
1709214867.577,-32.227,-49.805,-24.414,-41.992,0.000
1709214867.581,-36.133,-53.223,-22.461,-39.551,0.000
1709214867.585,-41.016,-46.875,-22.949,-46.387,0.000
1709214867.589,-36.621,-36.621,-32.227,-45.898,0.000
1709214867.592,-40.527,-35.645,-35.156,-35.156,0.000
1709214867.596,-50.781,-46.875,-28.809,-46.387,0.000
1709214867.600,-57.617,-50.781,-37.109,-66.406,0.000
1709214867.604,-57.129,-43.457,-41.992,-63.965,0.000
1709214867.608,-57.129,-46.387,-37.598,-60.547,0.000
1709214867.612,-46.387,-40.039,-28.320,-46.387,0.000
1709214867.616,-34.180,-45.898,-20.996,-38.574,0.000
1709214867.620,-39.062,-57.129,-39.551,-49.316,0.000
1709214867.624,-44.434,-44.922,-41.504,-49.805,0.000
1709214867.627,-37.598,-44.434,-24.902,-32.715,0.000
1709214867.631,-35.156,-52.246,-27.344,-32.227,0.000
1709214867.635,-39.551,-46.875,-32.715,-40.039,0.000
1709214867.639,-42.969,-44.434,-34.668,-40.039,0.000
1709214867.643,-41.504,-40.039,-26.367,-44.434,0.000
1709214867.647,-44.434,-44.434,-23.926,-45.898,0.000
1709214867.651,-42.969,-44.434,-36.133,-44.434,0.000
1709214867.655,-35.156,-38.086,-41.992,-47.852,0.000
1709214867.659,-41.992,-35.156,-41.016,-63.477,0.000
1709214867.663,-49.805,-33.203,-36.133,-60.547,0.000
1709214867.667,-44.434,-36.133,-41.016,-49.316,0.000
1709214867.671,-37.109,-38.086,-43.945,-51.270,0.000
1709214867.675,-32.715,-39.062,-44.434,-48.340,0.000
1709214867.678,-36.133,-44.922,-40.039,-55.176,0.000
1709214867.682,-44.434,-43.945,-36.621,-60.547,0.000
1709214867.686,-43.457,-38.574,-37.598,-53.711,0.000
1709214867.690,-32.715,-36.621,-37.109,-51.758,0.000
1709214867.694,-31.738,-41.992,-41.992,-54.199,0.000
1709214867.698,-29.297,-42.969,-39.062,-57.129,0.000
1709214867.702,-35.645,-40.039,-33.691,-61.523,0.000
1709214867.706,-41.992,-44.922,-36.621,-67.383,0.000
1709214867.710,-32.715,-50.781,-35.645,-62.988,0.000
1709214867.714,-33.691,-47.363,-38.086,-59.570,0.000
1709214867.718,-37.109,-40.527,-44.434,-62.500,0.000
1709214867.722,-34.180,-38.086,-39.551,-56.641,0.000
1709214867.725,-43.457,-45.898,-39.551,-50.293,0.000
1709214867.729,-39.062,-49.316,-43.457,-45.898,0.000
1709214867.733,-27.832,-45.898,-48.340,-37.109,0.000
1709214867.737,-30.762,-44.922,-48.340,-40.039,0.000
1709214867.741,-38.086,-55.176,-43.945,-46.875,0.000
1709214867.745,-38.086,-58.594,-35.645,-35.156,0.000
1709214867.749,-40.039,-58.594,-39.551,-40.039,0.000
1709214867.753,-33.691,-63.477,-45.898,-44.434,0.000
1709214867.757,-35.156,-55.176,-40.527,-33.203,0.000
1709214867.761,-46.875,-46.875,-32.227,-34.668,0.000
1709214867.765,-47.852,-40.039,-39.062,-35.156,0.000
1709214867.769,-45.410,-40.039,-43.457,-32.227,0.000
1709214867.772,-41.992,-42.969,-24.902,-24.902,0.000
1709214867.776,-43.457,-49.805,-36.133,-38.086,0.000
1709214867.780,-44.434,-54.199,-47.852,-53.223,0.000
1709214867.784,-42.480,-52.246,-46.875,-54.199,0.000
1709214867.788,-39.062,-55.176,-50.781,-41.504,0.000
1709214867.792,-35.645,-60.059,-57.129,-41.992,0.000
1709214867.796,-37.109,-58.105,-42.969,-60.547,0.000
1709214867.800,-39.062,-41.992,-29.297,-62.500,0.000
1709214867.804,-43.945,-38.574,-35.645,-66.406,0.000
1709214867.808,-36.621,-41.992,-33.691,-54.688,0.000
1709214867.812,-33.203,-45.898,-39.551,-51.758,0.000
1709214867.815,-38.574,-50.781,-46.875,-62.988,0.000
1709214867.819,-40.527,-46.387,-46.875,-63.477,0.000
1709214867.823,-36.133,-40.039,-40.527,-58.594,0.000
1709214867.827,-31.250,-48.828,-37.109,-54.199,0.000
1709214867.831,-31.250,-47.363,-38.086,-51.758,0.000
1709214867.835,-35.156,-49.316,-32.227,-45.898,0.000
1709214867.839,-47.363,-53.711,-35.645,-54.199,0.000
1709214867.843,-47.363,-38.574,-53.223,-60.059,0.000
1709214867.847,-38.574,-37.109,-46.387,-52.246,0.000
1709214867.851,-34.180,-41.504,-32.715,-46.387,0.000
1709214867.855,-32.227,-38.086,-41.016,-50.293,0.000
1709214867.859,-39.551,-36.133,-45.410,-57.617,0.000
1709214867.863,-42.969,-39.062,-41.504,-59.082,0.000
1709214867.867,-36.621,-39.551,-36.621,-52.246,0.000
1709214867.871,-30.762,-38.574,-33.691,-29.785,0.000
1709214867.874,-24.902,-38.574,-32.715,-22.949,0.000
1709214867.878,-36.133,-49.805,-36.133,-36.621,0.000
1709214867.882,-48.340,-58.594,-46.387,-43.457,0.000
1709214867.886,-45.410,-53.711,-39.062,-44.434,0.000
1709214867.890,-32.715,-47.852,-29.785,-40.527,0.000
1709214867.894,-18.066,-45.410,-26.855,-38.086,0.000
1709214867.898,-30.273,-45.898,-38.086,-45.898,0.000
1709214867.902,-41.992,-45.410,-48.340,-52.246,0.000
1709214867.906,-32.715,-42.969,-37.598,-44.434,0.000
1709214867.910,-32.227,-45.410,-32.715,-33.691,0.000
1709214867.913,-27.344,-40.527,-34.668,-35.156,0.000
1709214867.917,-27.832,-43.457,-33.691,-45.410,0.000
1709214867.921,-39.062,-54.199,-33.691,-44.922,0.000
1709214867.925,-30.762,-46.875,-34.668,-39.551,0.000
1709214867.929,-30.273,-42.480,-33.691,-47.363,0.000
1709214867.933,-36.621,-46.387,-43.945,-54.199,0.000
1709214867.937,-29.785,-47.852,-48.340,-54.688,0.000
1709214867.941,-30.762,-45.410,-42.969,-57.129,0.000
1709214867.945,-32.715,-56.152,-37.598,-56.152,0.000
1709214867.949,-28.320,-57.129,-44.434,-47.363,0.000
1709214867.952,-25.879,-37.598,-47.852,-41.016,0.000
1709214867.956,-23.438,-36.133,-37.109,-42.969,0.000
1709214867.960,-26.367,-43.945,-31.738,-48.828,0.000
1709214867.964,-23.438,-52.246,-26.855,-41.016,0.000
1709214867.968,-27.344,-61.523,-30.273,-30.762,0.000
1709214867.972,-34.668,-51.270,-36.133,-22.461,0.000
1709214867.976,-26.367,-38.086,-37.598,-21.973,0.000
1709214867.980,-27.832,-37.109,-32.227,-28.809,0.000
1709214867.984,-44.922,-48.828,-37.109,-41.504,0.000
1709214867.988,-46.387,-53.223,-40.527,-41.504,0.000
1709214867.991,-37.109,-39.062,-33.691,-37.598,0.000
1709214867.995,-35.156,-39.551,-32.715,-43.457,0.000
1709214867.999,-41.016,-50.293,-39.062,-50.293,0.000
1709214868.003,-54.199,-55.664,-50.781,-56.641,0.000
1709214868.007,-58.594,-51.758,-38.086,-46.875,0.000
1709214868.011,-49.316,-43.945,-24.902,-41.992,0.000
1709214868.015,-53.223,-43.457,-43.945,-60.547,0.000
1709214868.019,-63.477,-42.969,-52.246,-74.707,0.000
1709214868.023,-60.059,-42.480,-45.898,-77.637,0.000
1709214868.026,-56.152,-44.922,-38.574,-66.406,0.000
1709214868.030,-53.711,-55.664,-28.809,-55.176,0.000
1709214868.034,-49.316,-58.594,-29.785,-56.152,0.000
1709214868.038,-50.293,-51.758,-36.621,-60.547,0.000
1709214868.042,-56.152,-55.176,-41.992,-61.523,0.000
1709214868.046,-57.617,-55.664,-40.039,-56.152,0.000
1709214868.050,-57.617,-56.641,-44.922,-57.129,0.000
1709214868.054,-53.223,-54.199,-49.805,-58.594,0.000
1709214868.058,-43.945,-52.734,-38.574,-54.199,0.000
1709214868.061,-49.805,-59.570,-37.598,-53.223,0.000
1709214868.065,-44.434,-55.664,-38.574,-43.945,0.000
1709214868.069,-33.203,-55.664,-35.645,-39.062,0.000
1709214868.073,-31.738,-57.617,-32.227,-29.297,0.000
1709214868.077,-40.527,-56.152,-31.738,-30.273,0.000
1709214868.081,-48.340,-53.223,-37.109,-41.016,0.000
1709214868.085,-41.504,-47.363,-32.715,-29.297,0.000
1709214868.089,-31.738,-47.852,-29.297,-20.020,0.000
1709214868.093,-33.203,-54.199,-35.645,-28.320,0.000
1709214868.097,-30.762,-54.688,-38.086,-33.691,0.000
1709214868.101,-27.344,-42.969,-29.297,-33.691,0.000
1709214868.105,-30.273,-38.086,-21.484,-28.809,0.000
1709214868.109,-27.832,-47.852,-22.461,-20.020,0.000
1709214868.113,-19.531,-49.316,-36.133,-24.414,0.000
1709214868.117,-15.137,-50.293,-36.133,-22.461,0.000
1709214868.121,-23.438,-42.480,-28.809,-14.160,0.000
1709214868.124,-32.227,-31.250,-37.598,-34.668,0.000
1709214868.128,-29.785,-33.691,-35.645,-42.480,0.000
1709214868.132,-28.809,-45.410,-31.250,-32.227,0.000
1709214868.136,-36.133,-57.617,-31.738,-40.039,0.000
1709214868.140,-43.945,-55.664,-34.180,-51.270,0.000
1709214868.144,-43.457,-43.457,-36.621,-50.293,0.000
1709214868.148,-41.016,-40.527,-35.156,-46.875,0.000
1709214868.152,-29.785,-45.410,-30.273,-41.992,0.000
1709214868.156,-29.297,-46.387,-34.180,-44.922,0.000
1709214868.160,-39.062,-53.223,-44.922,-49.805,0.000
1709214868.164,-41.992,-53.223,-45.898,-40.039,0.000
1709214868.167,-37.598,-42.969,-41.016,-36.133,0.000
1709214868.171,-26.855,-34.668,-37.109,-33.691,0.000
1709214868.175,-31.250,-31.738,-37.598,-36.133,0.000
1709214868.180,-41.504,-48.340,0.000,-34.180,0.000
1709214868.183,-49.316,-58.594,0.000,-40.527,0.000
1709214868.187,-49.805,-58.105,0.000,-49.805,0.000
1709214868.191,-47.852,-61.035,0.000,-46.387,0.000
1709214868.195,-46.387,-52.734,0.000,-49.805,0.000
1709214868.199,-51.270,-47.852,0.000,-53.711,0.000
1709214868.203,-46.387,-52.734,0.000,-49.805,0.000
1709214868.207,-36.133,-56.152,0.000,-42.969,0.000
1709214868.211,-39.551,-48.828,0.000,-35.645,0.000
1709214868.215,-38.574,-46.387,0.000,-32.227,0.000
1709214868.219,-36.133,-46.387,0.000,-39.062,0.000
1709214868.222,-47.363,-47.852,0.000,-51.270,0.000
1709214868.226,-51.758,-55.176,-43.457,-53.223,0.000
1709214868.230,-41.016,-53.223,-43.945,-43.457,0.000
1709214868.234,-36.133,-44.922,-30.273,-40.039,0.000
1709214868.238,-35.156,-43.945,-30.762,-46.387,0.000
1709214868.242,-40.527,-47.852,-32.715,-50.293,0.000
1709214868.246,-52.734,-48.828,-35.156,-57.129,0.000
1709214868.250,-47.363,-56.152,-33.691,-47.852,0.000
1709214868.254,-36.621,-60.059,-26.855,-26.855,0.000
1709214868.258,-47.363,-48.340,-28.809,-39.551,0.000
1709214868.262,-58.594,-40.527,-36.133,-63.965,0.000
1709214868.265,-55.176,-42.969,-37.109,-63.477,0.000
1709214868.269,-43.945,-47.363,-33.691,-51.758,0.000
1709214868.273,-38.086,-45.898,-39.062,-43.945,0.000
1709214868.277,-34.180,-41.992,-39.062,-44.434,0.000
1709214868.281,-35.645,-44.922,-39.551,-52.246,0.000
1709214868.285,-43.945,-49.316,-41.016,-59.570,0.000
1709214868.289,-35.645,-40.527,-39.062,-51.270,0.000
1709214868.293,-21.484,-44.434,-38.574,-44.922,0.000
1709214868.297,-18.555,-61.523,-37.109,-54.199,0.000
1709214868.301,-26.367,-49.805,-31.738,-55.664,0.000
1709214868.304,-31.738,-31.738,-34.180,-60.547,0.000
1709214868.308,-28.320,-39.551,-33.203,-54.199,0.000
1709214868.312,-20.508,-45.898,-31.250,-41.504,0.000
1709214868.316,-16.113,-36.133,-32.715,-40.527,0.000
1709214868.320,-27.832,-34.180,-25.879,-42.480,0.000
1709214868.324,-37.109,-48.828,-28.320,-43.945,0.000
1709214868.328,-33.691,-53.711,-36.621,-32.715,0.000
1709214868.332,-24.902,-35.645,-31.738,-19.043,0.000
1709214868.336,-27.344,-42.969,-29.297,-31.738,0.000
1709214868.339,-35.645,-62.012,-31.738,-41.504,0.000
1709214868.343,-37.109,-47.363,-32.227,-29.785,0.000
1709214868.347,-26.367,-26.855,-38.086,-8.301,0.000
1709214868.351,-23.926,-27.832,-33.691,-9.277,0.000
1709214868.355,-34.668,-43.457,-32.715,-20.508,0.000
1709214868.359,-37.598,-57.617,-32.227,-20.996,0.000
1709214868.363,-39.062,-53.711,-35.645,-19.043,0.000
1709214868.367,-30.762,-38.574,-33.691,-16.602,0.000
1709214868.371,-26.367,-41.992,-32.715,-21.484,0.000
1709214868.374,-20.996,-45.898,-33.691,-25.879,0.000
1709214868.378,-23.926,-47.852,-34.180,-27.344,0.000
1709214868.382,-36.133,-50.293,-41.016,-32.227,0.000
1709214868.386,-39.062,-57.129,-46.875,-35.645,0.000
1709214868.390,-25.879,-58.594,-41.504,-18.066,0.000
1709214868.394,-23.438,-47.852,-32.715,-23.926,0.000
1709214868.398,-30.762,-36.621,-44.922,-47.363,0.000
1709214868.402,-28.320,-33.691,-51.758,-46.387,0.000
1709214868.406,-31.738,-38.574,-34.668,-44.434,0.000
1709214868.410,-35.645,-42.480,-31.738,-45.898,0.000
1709214868.413,-31.250,-44.922,-34.668,-40.039,0.000
1709214868.417,-34.668,-40.039,-33.203,-41.504,0.000
1709214868.421,-50.293,-40.527,-41.504,-55.176,0.000
1709214868.425,-48.828,-47.852,-38.086,-52.246,0.000
1709214868.429,-41.504,-50.293,-35.156,-44.434,0.000
1709214868.433,-42.480,-50.781,-39.551,-39.551,0.000
1709214868.437,-46.387,-46.875,-37.109,-40.039,0.000
1709214868.441,-60.059,-40.039,-33.691,-60.547,0.000
1709214868.445,-65.430,-54.688,-38.574,-68.359,0.000
1709214868.448,-57.129,-52.734,-45.410,-54.199,0.000
1709214868.452,-39.551,-37.109,-48.340,-40.039,0.000
1709214868.456,-39.551,-42.480,-41.016,-53.711,0.000
1709214868.460,-51.270,-47.363,-35.156,-63.477,0.000
1709214868.464,-47.363,-46.875,-35.645,-58.105,0.000
1709214868.468,-42.480,-50.781,-37.109,-51.270,0.000
1709214868.472,-42.969,-52.734,-34.668,-40.527,0.000
1709214868.476,-44.922,-46.875,-35.156,-43.457,0.000
1709214868.480,-47.852,-51.270,-40.039,-50.293,0.000
1709214868.484,-43.457,-42.969,-39.551,-42.480,0.000
1709214868.488,-45.898,-44.434,-46.387,-35.156,0.000
1709214868.492,-43.945,-56.152,-41.992,-31.250,0.000
1709214868.495,-29.785,-51.270,-39.062,-27.832,0.000
1709214868.499,-38.086,-46.387,-51.758,-39.551,0.000
1709214868.503,-47.852,-41.992,-47.852,-44.922,0.000
1709214868.507,-38.086,-41.992,-38.574,-34.668,0.000
1709214868.511,-35.156,-39.062,-34.180,-33.691,0.000
1709214868.515,-38.574,-39.551,-39.551,-41.504,0.000
1709214868.519,-37.598,-43.945,-42.480,-44.434,0.000
1709214868.523,-35.645,-46.387,-41.016,-51.758,0.000
1709214868.527,-35.645,-49.316,-45.410,-49.316,0.000
1709214868.531,-29.785,-47.852,-38.086,-39.062,0.000
1709214868.535,-21.973,-35.156,-26.855,-40.527,0.000
1709214868.539,-28.320,-36.621,-33.203,-43.945,0.000
1709214868.542,-33.691,-47.852,-33.203,-42.480,0.000
1709214868.546,-28.809,-62.500,-29.297,-48.340,0.000
1709214868.550,-29.297,-57.617,-40.527,-44.434,0.000
1709214868.554,-30.762,-35.156,-36.133,-35.156,0.000
1709214868.558,-40.039,-37.109,-22.949,-52.734,0.000
1709214868.562,-47.852,-44.434,-22.949,-61.035,0.000
1709214868.566,-41.016,-39.062,-24.902,-46.387,0.000
1709214868.570,-33.691,-36.133,-31.250,-42.480,0.000
1709214868.574,-28.809,-36.621,-29.785,-28.809,0.000
1709214868.578,-38.086,-44.922,-35.156,-28.320,0.000
1709214868.582,-43.457,-49.805,-39.062,-34.668,0.000
1709214868.585,-34.180,-48.828,-39.551,-19.531,0.000
1709214868.589,-26.367,-54.688,-42.969,-14.648,0.000
1709214868.593,-19.043,-49.805,-32.227,-28.320,0.000
1709214868.597,-30.273,-48.340,-33.691,-41.992,0.000
1709214868.601,-44.434,-59.570,-41.504,-50.293,0.000
1709214868.605,-45.898,-61.035,-43.945,-48.828,0.000
1709214868.609,-46.387,-47.363,-41.504,-43.945,0.000
1709214868.613,-42.480,-44.434,-37.109,-44.434,0.000
1709214868.617,-35.156,-53.223,-44.434,-44.922,0.000
1709214868.621,-36.621,-51.758,-47.363,-53.223,0.000
1709214868.624,-36.621,-41.504,-41.992,-52.734,0.000
1709214868.628,-29.297,-54.688,-41.016,-36.133,0.000
1709214868.632,-25.879,-62.012,-37.109,-34.180,0.000
1709214868.636,-31.250,-43.457,-32.227,-55.176,0.000
1709214868.640,-35.645,-43.457,-27.832,-61.035,0.000
1709214868.644,-33.203,-46.387,-31.250,-57.129,0.000
1709214868.648,-36.133,-41.504,-38.574,-55.176,0.000
1709214868.652,-32.227,-36.621,-37.598,-48.340,0.000
1709214868.656,-35.156,-45.410,-40.039,-54.199,0.000
1709214868.660,-48.340,-58.594,-43.945,-72.266,0.000
1709214868.663,-54.199,-47.852,-39.062,-74.219,0.000
1709214868.667,-49.805,-41.016,-37.598,-68.848,0.000
1709214868.671,-40.039,-45.898,-42.969,-69.824,0.000
1709214868.675,-40.039,-48.340,-41.504,-59.082,0.000
1709214868.679,-38.574,-47.363,-31.250,-53.711,0.000
1709214868.683,-44.434,-41.504,-37.109,-62.500,0.000
1709214868.687,-49.316,-39.551,-41.504,-53.711,0.000
1709214868.691,-36.133,-49.805,-37.598,-45.898,0.000
1709214868.695,-26.367,-51.758,-46.387,-48.340,0.000
1709214868.699,-29.785,-42.480,-48.340,-43.945,0.000
1709214868.702,-32.227,-42.480,-40.527,-42.969,0.000
1709214868.706,-23.926,-40.527,-34.668,-36.621,0.000
1709214868.710,-19.531,-43.945,-30.273,-29.785,0.000
1709214868.714,-15.625,-31.250,-27.832,-30.762,0.000
1709214868.718,-20.020,-26.367,-29.785,-31.250,0.000
1709214868.722,-37.109,-45.898,-35.156,-27.832,0.000
1709214868.726,-38.574,-42.480,-36.621,-34.668,0.000
1709214868.730,-33.203,-47.852,-31.250,-38.086,0.000
1709214868.734,-36.133,-51.270,-30.762,-31.250,0.000
1709214868.738,-34.180,-43.945,-30.762,-43.457,0.000
1709214868.741,-32.715,-37.598,-22.461,-47.852,0.000
1709214868.745,-41.016,-42.969,-33.203,-40.527,0.000
1709214868.749,-41.016,-46.387,-39.062,-37.109,0.000
1709214868.753,-40.039,-49.316,-31.250,-33.203,0.000
1709214868.757,-43.945,-52.246,-28.809,-36.133,0.000
1709214868.761,-50.781,-45.898,-37.109,-45.898,0.000
1709214868.765,-52.246,-47.852,-41.504,-48.340,0.000
1709214868.769,-42.969,-46.387,-26.855,-41.016,0.000
1709214868.773,-43.457,-40.527,-23.926,-46.387,0.000
1709214868.776,-53.711,-44.922,-38.086,-59.570,0.000
1709214868.780,-58.594,-47.852,-39.551,-66.895,0.000
1709214868.784,-57.617,-42.480,-36.621,-62.500,0.000
1709214868.788,-58.594,-41.016,-36.133,-57.617,0.000
1709214868.792,-55.176,-45.410,-36.133,-57.617,0.000
1709214868.796,-48.828,-45.410,-36.133,-53.711,0.000
1709214868.800,-63.965,-44.434,-44.922,-65.918,0.000
1709214868.804,-70.312,-43.457,-45.410,-70.801,0.000
1709214868.807,-52.246,-45.898,-39.551,-53.223,0.000
1709214868.811,-41.016,-44.922,-40.039,-42.969,0.000
1709214868.815,-46.387,-47.363,-41.992,-54.688,0.000
1709214868.819,-49.805,-47.852,-42.969,-59.082,0.000
1709214868.823,-50.293,-50.781,-48.828,-48.828,0.000
1709214868.827,-45.410,-64.941,-51.270,-41.992,0.000
1709214868.831,-35.645,-53.711,-47.852,-47.363,0.000
1709214868.835,-27.832,-41.016,-43.457,-51.270,0.000
1709214868.839,-27.344,-44.434,-46.387,-50.293,0.000
1709214868.843,-30.273,-47.363,-46.875,-43.945,0.000
1709214868.847,-26.367,-47.363,-38.086,-38.086,0.000
1709214868.851,-19.531,-37.109,-33.203,-32.227,0.000
1709214868.854,-18.555,-30.762,-28.320,-26.367,0.000
1709214868.858,-33.203,-41.016,-36.133,-33.691,0.000
1709214868.862,-42.480,-50.781,-39.551,-34.668,0.000
1709214868.866,-36.133,-50.293,-29.785,-28.320,0.000
1709214868.870,-34.668,-50.293,-29.785,-24.902,0.000
1709214868.874,-38.086,-41.504,-42.969,-29.785,0.000
1709214868.878,-41.504,-41.992,-41.016,-36.621,0.000
1709214868.882,-47.852,-55.176,-29.785,-45.410,0.000
1709214868.886,-53.223,-54.199,-37.109,-60.059,0.000
1709214868.890,-55.664,-43.945,-38.574,-60.059,0.000
1709214868.894,-60.059,-45.410,-36.621,-55.664,0.000
1709214868.898,-62.988,-57.129,-35.156,-60.547,0.000
1709214868.901,-59.570,-59.570,-34.180,-63.965,0.000
1709214868.905,-50.781,-47.363,-34.668,-56.641,0.000
1709214868.909,-49.805,-44.922,-31.738,-55.176,0.000
1709214868.913,-48.828,-58.105,-31.738,-54.199,0.000
1709214868.917,-48.828,-56.641,-30.762,-53.223,0.000
1709214868.921,-58.594,-48.828,-27.832,-65.918,0.000
1709214868.925,-58.105,-54.688,-31.250,-71.289,0.000
1709214868.929,-43.457,-67.383,-44.434,-66.406,0.000
1709214868.933,-23.438,-55.664,-46.387,-42.480,0.000
1709214868.937,-24.414,-31.738,-50.293,-45.898,0.000
1709214868.941,-29.297,-30.762,-56.152,-65.918,0.000
1709214868.944,-27.344,-38.574,-52.246,-57.617,0.000
1709214868.948,-24.414,-40.039,-47.852,-41.504,0.000
1709214868.952,-16.113,-37.109,-41.016,-30.762,0.000
1709214868.956,-15.137,-36.133,-34.180,-33.691,0.000
1709214868.960,-17.090,-34.668,-32.715,-29.297,0.000
1709214868.964,-21.973,-33.203,-37.598,-18.555,0.000
1709214868.968,-24.414,-36.621,-42.969,-20.996,0.000
1709214868.972,-23.926,-41.992,-45.410,-22.461,0.000
1709214868.976,-24.902,-48.828,-45.410,-26.855,0.000
1709214868.980,-24.902,-48.828,-38.574,-33.203,0.000
1709214868.984,-24.414,-40.039,-37.109,-29.785,0.000
1709214868.987,-26.367,-34.180,-41.016,-14.648,0.000
1709214868.991,-30.273,-32.715,-41.992,-11.719,0.000
1709214868.995,-32.715,-34.668,-37.109,-25.879,0.000
1709214868.999,-46.387,-42.480,-31.250,-42.969,0.000
1709214869.003,-55.664,-53.711,-33.203,-38.574,0.000
1709214869.007,-45.410,-48.340,-36.621,-22.461,0.000
1709214869.011,-41.016,-46.387,-33.691,-25.879,0.000
1709214869.015,-34.668,-48.828,-26.367,-25.879,0.000
1709214869.019,-32.227,-50.781,-26.855,-38.086,0.000
1709214869.023,-42.480,-55.664,-34.668,-54.688,0.000
1709214869.026,-44.434,-49.805,-38.574,-56.152,0.000
1709214869.030,-41.992,-42.480,-33.691,-51.270,0.000
1709214869.034,-34.668,-45.898,-30.762,-52.734,0.000
1709214869.038,-35.645,-57.129,-41.016,-57.129,0.000
1709214869.042,-42.480,-54.199,-42.480,-56.152,0.000
1709214869.046,-37.109,-48.340,-39.062,-59.082,0.000
1709214869.050,-34.180,-44.922,-50.293,-55.664,0.000
1709214869.054,-35.156,-43.945,-57.129,-62.988,0.000
1709214869.058,-36.621,-43.457,-45.410,-71.289,0.000
1709214869.062,-35.156,-46.387,-37.109,-57.617,0.000
1709214869.065,-32.715,-34.668,-38.086,-48.828,0.000
1709214869.069,-35.645,-28.809,-40.039,-49.805,0.000
1709214869.073,-35.645,-40.527,-45.410,-50.781,0.000
1709214869.077,-29.785,-38.086,-39.551,-50.293,0.000
1709214869.081,-28.320,-36.621,-38.574,-55.176,0.000
1709214869.085,-32.715,-42.969,-44.434,-53.711,0.000
1709214869.089,-29.297,-52.734,-40.527,-41.504,0.000
1709214869.093,-25.879,-48.828,-37.109,-34.180,0.000
1709214869.097,-26.855,-38.086,-28.320,-28.320,0.000
1709214869.101,-21.973,-37.109,-31.250,-37.109,0.000
1709214869.104,-24.414,-42.969,-32.715,-42.480,0.000
1709214869.108,-39.062,-49.805,-31.738,-44.922,0.000
1709214869.112,-38.574,-43.945,-33.691,-41.992,0.000
1709214869.116,-36.133,-37.598,-32.715,-46.875,0.000
1709214869.120,-47.363,-46.387,-35.156,-61.523,0.000
1709214869.124,-51.758,-54.688,-35.156,-54.688,0.000
1709214869.128,-57.129,-50.781,-38.086,-51.758,0.000
1709214869.132,-49.316,-47.852,-31.250,-49.805,0.000
1709214869.136,-47.363,-48.340,-32.227,-53.711,0.000
1709214869.139,-63.477,-55.664,-47.363,-59.082,0.000
1709214869.143,-62.500,-56.641,-47.852,-54.688,0.000
1709214869.147,-59.082,-53.223,-44.434,-56.641,0.000
1709214869.151,-57.129,-48.828,-43.945,-53.711,0.000
1709214869.155,-52.246,-43.457,-40.527,-57.617,0.000
1709214869.159,-44.922,-48.340,-38.574,-58.105,0.000
1709214869.163,-36.621,-51.758,-34.180,-47.852,0.000
1709214869.167,-34.180,-46.875,-20.020,-32.715,0.000
1709214869.171,-34.180,-42.480,-23.926,-29.785,0.000
1709214869.174,-32.715,-43.945,-37.598,-33.203,0.000
1709214869.178,-33.203,-42.969,-33.691,-42.480,0.000
1709214869.182,-36.621,-40.039,-24.414,-40.527,0.000
1709214869.186,-36.133,-46.387,-33.691,-33.691,0.000
1709214869.190,-31.250,-57.129,-41.992,-41.016,0.000
1709214869.194,-23.438,-58.105,-34.668,-39.551,0.000
1709214869.198,-21.484,-43.945,-34.668,-37.109,0.000
1709214869.202,-31.738,-37.109,-47.852,-42.480,0.000
1709214869.206,-32.227,-39.062,-43.945,-41.504,0.000
1709214869.210,-28.320,-39.062,-39.062,-40.039,0.000
1709214869.214,-26.855,-40.039,-50.781,-38.086,0.000
1709214869.218,-35.645,-51.270,-50.293,-44.434,0.000
1709214869.221,-41.016,-51.270,-38.574,-48.828,0.000
1709214869.225,-38.086,-41.992,-31.250,-41.504,0.000
1709214869.229,-33.203,-40.039,-33.203,-39.551,0.000
1709214869.233,-29.785,-40.527,-31.738,-41.992,0.000
1709214869.237,-36.621,-37.598,-30.762,-45.410,0.000
1709214869.241,-41.016,-40.039,-37.109,-48.340,0.000
1709214869.245,-47.852,-47.363,-38.086,-44.434,0.000
1709214869.249,-50.781,-45.410,-40.527,-42.969,0.000
1709214869.253,-54.199,-48.828,-41.992,-49.316,0.000
1709214869.257,-58.594,-44.922,-32.715,-60.547,0.000
1709214869.261,-52.246,-36.133,-25.879,-61.035,0.000
1709214869.265,-48.828,-41.992,-31.738,-60.059,0.000
1709214869.268,-42.969,-46.387,-41.992,-56.152,0.000
1709214869.272,-34.668,-48.828,-42.969,-48.340,0.000
1709214869.276,-34.668,-44.922,-41.504,-53.711,0.000
1709214869.280,-35.645,-37.109,-36.621,-56.641,0.000
1709214869.284,-39.062,-46.387,-31.250,-54.199,0.000
1709214869.288,-34.668,-49.316,-37.109,-41.016,0.000
1709214869.292,-15.625,-38.574,-32.715,-21.484,0.000
1709214869.296,-17.578,-45.410,-29.297,-40.527,0.000
1709214869.300,-35.156,-57.617,-40.527,-62.988,0.000
1709214869.304,-34.180,-49.316,-38.086,-52.734,0.000
1709214869.308,-28.809,-38.574,-38.574,-48.828,0.000
1709214869.311,-20.508,-35.156,-37.598,-51.270,0.000
1709214869.315,-14.648,-33.691,-30.762,-44.434,0.000
1709214869.319,-20.508,-39.551,-35.156,-46.387,0.000
1709214869.323,-25.391,-42.480,-37.109,-43.945,0.000
1709214869.327,-19.531,-40.039,-41.504,-33.203,0.000
1709214869.331,-16.113,-47.852,-35.156,-23.438,0.000
1709214869.335,-22.461,-56.641,-27.832,-21.973,0.000
1709214869.339,-30.762,-53.223,-40.039,-35.156,0.000
1709214869.343,-30.762,-40.039,-42.969,-38.574,0.000
1709214869.347,-30.762,-45.410,-36.621,-35.156,0.000
1709214869.351,0.000,-45.898,-32.227,-36.133,0.000
1709214869.354,0.000,-33.203,-30.273,-37.109,0.000
1709214869.358,0.000,-32.227,-30.762,-33.691,0.000
1709214869.362,0.000,-40.527,-31.738,-41.992,0.000
1709214869.366,0.000,-49.316,-32.227,-46.387,0.000
1709214869.370,0.000,-48.828,-30.762,-40.527,0.000
1709214869.374,0.000,-43.945,-31.250,-39.551,0.000
1709214869.378,0.000,-49.316,-32.715,-25.879,0.000
1709214869.382,0.000,-55.176,-27.832,-22.949,0.000
1709214869.386,0.000,-49.805,-34.668,-44.434,0.000
1709214869.390,0.000,-54.199,-46.387,-45.898,0.000
1709214869.393,0.000,-55.176,-39.551,-36.621,0.000
1709214869.397,-44.922,-46.387,-24.414,-34.180,0.000
1709214869.401,-56.641,-48.340,-26.367,-54.199,0.000
1709214869.405,-51.758,-49.805,-35.645,-59.570,0.000
1709214869.409,-40.527,-50.781,-32.227,-45.898,0.000
1709214869.413,-41.992,-51.270,-37.598,-40.527,0.000
1709214869.417,-40.527,-46.387,-33.203,-28.320,0.000
1709214869.421,-48.340,-44.434,-20.996,-36.621,0.000
1709214869.425,-49.316,-48.340,-23.438,-38.086,0.000
1709214869.429,-38.086,-43.457,-27.344,-27.832,0.000
1709214869.432,-24.902,-36.133,-31.250,-36.621,0.000
1709214869.436,-20.020,-41.504,-33.203,-37.598,0.000
1709214869.440,-17.578,-38.086,-28.809,-19.531,0.000
1709214869.444,-20.996,-35.156,-34.180,-21.973,0.000
1709214869.448,-26.855,-44.434,-38.574,-23.926,0.000
1709214869.452,-20.996,-45.410,-32.715,-15.625,0.000
1709214869.456,-19.043,-45.898,-32.227,-25.879,0.000
1709214869.460,-32.715,-42.480,-30.273,-37.598,0.000
1709214869.464,-41.504,-41.016,-34.180,-42.480,0.000
1709214869.468,-37.109,-42.969,-33.203,-34.180,0.000
1709214869.471,-31.738,-43.945,-40.039,-24.414,0.000
1709214869.475,-35.156,-43.457,-48.340,-39.062,0.000
1709214869.479,-46.875,-48.340,-41.016,-47.852,0.000
1709214869.483,-38.086,-45.410,-40.039,-35.156,0.000
1709214869.487,-22.949,-37.598,-36.133,-32.227,0.000
1709214869.491,-17.578,-34.668,-37.109,-36.621,0.000
1709214869.495,-18.555,-34.180,-45.410,-38.086,0.000
1709214869.499,-20.508,-33.691,-37.598,-32.715,0.000
1709214869.503,-38.086,-35.156,-37.109,-40.527,0.000
1709214869.506,-47.852,-42.480,-45.898,-46.875,0.000
1709214869.510,-35.645,-52.246,-44.434,-44.434,0.000
1709214869.514,-36.133,-58.594,-41.504,-40.527,0.000
1709214869.518,-44.434,-50.293,-36.133,-44.922,0.000
1709214869.522,-44.434,-48.828,-26.855,-45.898,0.000
1709214869.526,-39.551,-51.270,-34.180,-35.645,0.000
1709214869.530,-40.527,-49.805,-41.016,-31.738,0.000
1709214869.534,-36.621,-46.387,-34.180,-30.762,0.000
1709214869.537,-34.668,-41.504,-40.039,-43.945,0.000
1709214869.541,-40.039,-47.363,-38.574,-54.199,0.000
1709214869.545,-36.133,-46.875,-28.809,-40.527,0.000
1709214869.549,-29.785,-42.480,-24.414,-32.227,0.000
1709214869.553,-22.461,-40.039,-27.344,-35.156,0.000
1709214869.557,-23.926,-41.992,-20.020,-35.645,0.000
1709214869.561,-34.180,-48.340,-25.879,-34.180,0.000
1709214869.565,-38.086,-55.664,-39.551,-47.852,0.000
1709214869.569,-29.785,-48.340,-33.203,-44.922,0.000
1709214869.573,-27.832,-47.852,-30.762,-39.062,0.000
1709214869.577,-36.621,-66.895,-34.668,-53.711,0.000
1709214869.580,-42.969,-62.500,-35.645,-61.035,0.000
1709214869.585,-35.645,-37.598,-37.598,-53.711,0.000
1709214869.588,-28.809,-31.738,-46.387,-53.711,0.000
1709214869.592,-24.414,-46.387,-43.457,-58.105,0.000
1709214869.596,-25.879,-52.734,-50.781,-59.082,0.000
1709214869.600,-39.062,-43.945,-63.477,-64.453,0.000
1709214869.604,-45.410,-41.992,-49.316,-65.430,0.000
1709214869.608,-36.621,-45.898,-38.574,-56.152,0.000
1709214869.612,-31.738,-41.016,-36.621,-47.363,0.000
1709214869.616,-33.691,-44.922,-33.203,-50.781,0.000
1709214869.620,-36.133,-53.223,-38.574,-58.594,0.000
1709214869.624,-36.621,-47.363,-39.551,-52.734,0.000
1709214869.627,-42.969,-40.527,-39.062,-46.387,0.000
1709214869.631,-46.387,-41.016,-39.062,-38.574,0.000
1709214869.635,-45.410,-43.457,-33.203,-43.945,0.000
1709214869.639,-50.781,-42.480,-33.203,-46.875,0.000
1709214869.643,-45.410,-41.504,-28.809,-32.715,0.000
1709214869.647,-42.480,-45.410,-26.367,-31.250,0.000
1709214869.651,-45.410,-46.387,-34.180,-39.551,0.000
1709214869.655,-41.504,-41.992,-46.875,-47.363,0.000
1709214869.659,-42.969,-41.016,-47.363,-50.293,0.000
1709214869.663,-41.016,-44.922,-33.203,-42.480,0.000
1709214869.667,-39.551,-43.945,-29.297,-33.203,0.000
1709214869.671,-39.551,-51.758,-36.621,-43.945,0.000
1709214869.674,-33.691,-58.105,-37.109,-48.828,0.000
1709214869.678,-36.621,-46.875,-34.668,-52.246,0.000
1709214869.682,-43.945,-41.504,-33.203,-60.059,0.000
1709214869.686,-43.457,-42.969,-34.180,-57.129,0.000
1709214869.690,-35.156,-43.457,-30.273,-54.199,0.000
1709214869.694,-29.297,-43.457,-32.227,-53.711,0.000
1709214869.698,-24.414,-37.109,-34.180,-40.527,0.000
1709214869.702,-31.738,-39.062,-41.016,-41.016,0.000
1709214869.706,-28.320,-47.363,-45.898,-42.480,0.000
1709214869.710,-22.949,-54.688,-41.992,-24.902,0.000
1709214869.714,-27.832,-59.082,-47.852,-33.203,0.000
1709214869.717,-33.691,-43.457,-47.852,-47.363,0.000
1709214869.721,-41.992,-31.250,-34.668,-47.363,0.000
1709214869.725,-40.039,-32.715,-33.691,-48.828,0.000
1709214869.729,-43.945,-34.668,-40.039,-47.852,0.000
1709214869.733,-51.758,-39.551,-42.480,-45.898,0.000
1709214869.737,-50.781,-50.293,-37.109,-44.922,0.000
1709214869.741,-48.340,-51.758,-30.762,-42.480,0.000
1709214869.745,-49.805,-56.641,-32.227,-40.039,0.000
1709214869.749,-47.363,-52.734,-39.062,-45.898,0.000
1709214869.753,-34.668,-53.711,-35.645,-32.715,0.000
1709214869.757,-40.039,-70.312,-34.668,-30.273,0.000
1709214869.760,-57.617,-55.664,-42.480,-47.852,0.000
1709214869.764,-53.223,-39.062,-44.922,-44.434,0.000
1709214869.768,-41.992,-41.992,-43.457,-31.250,0.000
1709214869.772,-47.852,-43.945,-36.621,-28.320,0.000
1709214869.776,-40.039,-42.969,-27.832,-35.156,0.000
1709214869.780,-36.621,-45.410,-28.809,-41.016,0.000
1709214869.784,-50.781,-52.734,-34.180,-46.875,0.000
1709214869.788,-49.805,-57.617,-39.062,-41.992,0.000
1709214869.792,-44.922,-57.617,-38.086,-39.551,0.000
1709214869.796,-46.875,-46.875,-36.133,-49.316,0.000
1709214869.799,-50.781,-45.898,-34.180,-41.504,0.000
1709214869.803,-48.340,-48.340,-29.785,-32.715,0.000
1709214869.807,-46.875,-40.039,-36.133,-41.504,0.000
1709214869.811,-41.992,-39.551,-38.574,-39.062,0.000
1709214869.815,-35.156,-38.086,-35.645,-37.109,0.000
1709214869.819,-41.992,-38.086,-36.621,-43.457,0.000
1709214869.823,-44.434,-42.969,-40.527,-47.363,0.000
1709214869.827,-40.039,-45.410,-35.156,-45.898,0.000
1709214869.831,-35.156,-43.457,-28.809,-41.504,0.000
1709214869.834,-29.785,-42.969,-43.945,-43.457,0.000
1709214869.838,-35.156,-43.457,-46.875,-44.434,0.000
1709214869.842,-43.945,-43.945,-42.969,-50.293,0.000
1709214869.846,-42.480,-48.340,-43.945,-45.898,0.000
1709214869.850,-35.645,-45.898,-41.992,-41.016,0.000
1709214869.854,-41.504,-41.992,-39.062,-47.363,0.000
1709214869.858,-47.852,-40.527,-38.574,-47.852,0.000
1709214869.862,-41.504,-36.621,-35.156,-44.434,0.000
1709214869.866,-31.738,-27.832,-36.133,-39.551,0.000
1709214869.869,-21.973,-37.598,-43.457,-35.156,0.000
1709214869.873,-12.207,-42.969,-39.062,-33.203,0.000
1709214869.877,-15.625,-32.227,-37.109,-41.504,0.000
1709214869.881,-25.879,-47.363,-40.039,-49.316,0.000
1709214869.885,-31.250,-61.523,-41.992,-48.340,0.000
1709214869.889,-32.227,-49.316,-46.387,-36.133,0.000
1709214869.893,-22.949,-39.551,-41.992,-31.250,0.000
1709214869.897,-29.297,-41.016,-37.109,-45.410,0.000
1709214869.901,-41.992,-43.945,-40.527,-57.129,0.000
1709214869.905,-40.527,-48.828,-40.039,-51.270,0.000
1709214869.909,-39.062,-44.434,-47.852,-34.668,0.000
1709214869.912,-40.527,-39.551,-49.805,-38.086,0.000
1709214869.916,-41.504,-44.434,-42.969,-45.898,0.000
1709214869.920,-44.434,-50.293,-39.062,-44.922,0.000
1709214869.924,-39.551,-55.664,-37.109,-44.922,0.000
1709214869.928,-25.879,-48.828,-29.297,-35.156,0.000
1709214869.932,-21.973,-34.180,-30.273,-21.973,0.000
1709214869.936,-30.273,-36.133,-33.691,-23.926,0.000
1709214869.940,-33.691,-48.828,-29.785,-34.668,0.000
1709214869.944,-29.297,-46.387,-28.809,-32.715,0.000
1709214869.947,-34.180,-39.551,-35.645,-33.203,0.000
1709214869.951,-33.691,-42.969,-38.086,-30.273,0.000
1709214869.955,-29.297,-48.340,-30.273,-32.227,0.000
1709214869.959,-33.203,-51.270,-28.320,-42.969,0.000
1709214869.963,-35.645,-50.781,-28.809,-39.551,0.000
1709214869.967,-39.551,-49.805,-33.203,-35.645,0.000
1709214869.971,-41.504,-44.922,-38.574,-42.480,0.000
1709214869.975,-32.715,-41.504,-35.645,-38.086,0.000
1709214869.979,-27.832,-49.316,-35.645,-42.480,0.000
1709214869.983,-35.645,-64.453,-43.945,-48.828,0.000
1709214869.987,-35.156,-53.711,-41.016,-39.551,0.000
1709214869.991,-29.785,-42.480,-35.645,-42.480,0.000
1709214869.994,-27.344,-45.898,-34.180,-48.340,0.000
1709214869.998,-27.344,-42.480,-32.715,-51.270,0.000
1709214870.002,-38.574,-45.898,-40.527,-52.246,0.000
