timestamps,TP9,AF7,AF8,TP10,Right AUX
1709299179.712,-55.176,-44.434,-35.156,-56.152,0.000
1709299179.715,-59.082,-36.133,-39.062,-52.734,0.000
1709299179.719,-56.152,-36.621,-33.203,-45.410,0.000
1709299179.723,-43.945,-40.527,-29.297,-43.457,0.000
1709299179.727,-28.320,-39.551,-35.156,-58.105,0.000
1709299179.731,-31.250,-43.457,-34.668,-71.777,0.000
1709299179.735,-38.574,-45.898,-27.344,-61.035,0.000
1709299179.739,-36.133,-46.875,-29.297,-43.457,0.000
1709299179.743,-34.668,-50.293,-35.645,-41.504,0.000
1709299179.747,-26.367,-40.527,-36.133,-53.711,0.000
1709299179.751,-26.367,-44.434,-33.691,-56.641,0.000
1709299179.755,-34.668,-42.480,-31.738,-41.016,0.000
1709299179.758,0.000,-24.902,0.000,0.000,0.000
1709299179.762,0.000,-26.367,0.000,0.000,0.000
1709299179.766,0.000,-34.180,0.000,0.000,0.000
1709299179.770,0.000,-38.574,0.000,0.000,0.000
1709299179.774,0.000,-40.527,0.000,0.000,0.000
1709299179.778,0.000,-44.922,0.000,0.000,0.000
1709299179.782,0.000,-41.016,0.000,0.000,0.000
1709299179.786,0.000,-35.645,0.000,0.000,0.000
1709299179.790,0.000,-35.156,0.000,0.000,0.000
1709299179.794,0.000,-41.016,0.000,0.000,0.000
1709299179.798,0.000,-42.480,0.000,0.000,0.000
1709299179.801,0.000,-29.785,0.000,0.000,0.000
1709299179.805,-51.270,-24.902,-22.949,-23.438,0.000
1709299179.809,-47.363,-37.109,-26.855,-25.391,0.000
1709299179.813,-51.758,-43.945,-33.203,-38.086,0.000
1709299179.817,-59.570,-44.434,-29.297,-43.945,0.000
1709299179.821,-52.246,-49.316,-22.461,-35.645,0.000
1709299179.825,-41.992,-51.270,-18.066,-25.391,0.000
1709299179.829,-43.945,-34.668,-21.484,-21.973,0.000
1709299179.833,-51.270,-28.320,-24.414,-16.602,0.000
1709299179.837,-60.547,-33.691,-27.344,-27.344,0.000
1709299179.840,-55.664,-41.016,-27.832,-26.367,0.000
1709299179.844,-31.738,-43.945,-21.484,-3.906,0.000
1709299179.848,-12.207,-32.227,-22.949,1.953,0.000
1709299179.852,-16.113,-34.180,-32.715,-12.207,0.000
1709299179.856,-20.020,-41.992,-31.738,-16.602,0.000
1709299179.860,-14.160,-45.410,-27.832,-8.301,0.000
1709299179.864,-3.418,-44.434,-20.996,1.953,0.000
1709299179.868,5.371,-41.992,-14.648,13.672,0.000
1709299179.872,-3.418,-51.270,-12.695,7.324,0.000
1709299179.875,-18.066,-55.664,-15.625,-2.441,0.000
1709299179.879,-27.344,-53.223,-21.484,0.977,0.000
1709299179.883,-21.484,-52.246,-24.414,5.371,0.000
1709299179.887,-4.395,-45.410,-19.531,15.625,0.000
1709299179.891,-8.789,-47.852,-15.625,9.277,0.000
1709299179.895,-23.438,-51.270,-25.391,-9.277,0.000
1709299179.899,-26.367,-48.828,-26.367,-10.742,0.000
1709299179.903,-20.020,-51.270,-26.367,3.906,0.000
1709299179.907,-9.766,-52.246,-29.297,11.230,0.000
1709299179.910,-2.441,-50.293,-23.438,12.207,0.000
1709299179.914,-9.766,-53.223,-17.090,6.836,0.000
1709299179.918,-18.066,-50.293,-17.090,0.000,0.000
1709299179.922,-8.789,-41.016,-21.973,8.301,0.000
1709299179.926,2.441,-35.156,-28.320,14.160,0.000
1709299179.930,0.977,-42.480,-33.203,4.395,0.000
1709299179.934,-12.695,-45.898,-32.715,-9.766,0.000
1709299179.938,-18.555,-43.457,-36.621,-19.531,0.000
1709299179.942,-13.672,-41.992,-42.480,-16.602,0.000
1709299179.946,-11.230,-43.457,-39.551,-6.836,0.000
1709299179.950,-10.254,-42.480,-33.691,-6.836,0.000
1709299179.953,-19.531,-43.457,-39.551,-24.414,0.000
1709299179.957,-32.715,-44.922,-35.645,-34.180,0.000
1709299179.961,-28.809,-44.434,-21.973,-15.625,0.000
1709299179.965,-14.648,-57.617,-24.414,5.371,0.000
1709299179.969,-21.484,-54.688,-32.715,-4.395,0.000
1709299179.973,-33.691,-49.805,-37.109,-21.484,0.000
1709299179.977,-33.203,-54.688,-31.250,-24.902,0.000
1709299179.981,-29.297,-54.199,-25.879,-16.602,0.000
1709299179.985,-26.367,-52.246,-35.645,-10.742,0.000
1709299179.989,-21.484,-40.527,-27.832,-16.113,0.000
1709299179.993,-26.855,-39.062,-24.414,-29.297,0.000
1709299179.996,-43.457,-48.828,-35.156,-43.945,0.000
1709299180.000,-45.898,-47.363,-37.598,-48.340,0.000
1709299180.004,-34.668,-45.898,-32.715,-35.156,0.000
1709299180.008,-30.273,-48.828,-36.133,-27.832,0.000
1709299180.012,-32.715,-40.039,-35.645,-37.598,0.000
1709299180.016,-44.434,-31.250,-33.691,-48.340,0.000
1709299180.020,-47.363,-32.715,-35.156,-52.246,0.000
1709299180.024,-41.016,-36.621,-35.645,-42.969,0.000
1709299180.028,-38.086,-33.203,-42.969,-38.086,0.000
1709299180.032,-41.016,-28.809,-54.199,-61.035,0.000
1709299180.035,-50.293,-29.785,-57.129,-72.266,0.000
1709299180.039,-55.176,-41.992,-52.734,-70.312,0.000
1709299180.043,-44.434,-57.129,-57.129,-61.035,0.000
1709299180.047,-30.762,-45.410,-61.523,-52.734,0.000
1709299180.051,-27.832,-21.973,-52.734,-58.105,0.000
1709299180.055,-31.738,-18.555,-40.527,-60.059,0.000
1709299180.059,-31.250,-35.156,-38.574,-44.434,0.000
1709299180.063,-21.973,-46.875,-37.109,-31.250,0.000
1709299180.067,-18.066,-43.457,-40.039,-35.156,0.000
1709299180.071,-20.020,-36.621,-47.363,-33.203,0.000
1709299180.075,-28.320,-36.133,-37.598,-41.504,0.000
1709299180.078,-37.109,-41.016,-31.738,-52.734,0.000
1709299180.082,-37.598,-45.898,-38.574,-42.969,0.000
1709299180.086,-32.227,-48.340,-34.180,-28.809,0.000
1709299180.090,-43.457,-43.945,-35.645,-41.504,0.000
1709299180.094,-62.500,-39.551,-37.109,-56.641,0.000
1709299180.098,-67.871,-50.781,-31.250,-55.176,0.000
1709299180.102,-65.918,-63.477,-32.227,-50.781,0.000
1709299180.106,-63.965,-52.734,-39.551,-42.480,0.000
1709299180.110,-61.035,-42.969,-39.062,-43.945,0.000
1709299180.114,-68.359,-44.434,-30.273,-55.664,0.000
1709299180.117,-72.266,-42.480,-22.949,-52.734,0.000
1709299180.121,-63.477,-47.363,-23.926,-49.805,0.000
1709299180.125,-53.223,-49.805,-31.738,-46.387,0.000
1709299180.129,-48.828,-40.527,-30.273,-42.969,0.000
1709299180.133,-55.664,-36.621,-34.180,-52.734,0.000
1709299180.137,-60.547,-31.738,-39.062,-64.941,0.000
1709299180.141,-53.223,-27.832,-41.016,-60.059,0.000
1709299180.145,-37.109,-32.715,-42.969,-51.758,0.000
1709299180.149,-28.809,-27.344,-46.875,-53.223,0.000
1709299180.153,-41.016,-19.531,-46.875,-62.988,0.000
1709299180.156,-55.176,-23.926,-40.039,-67.383,0.000
1709299180.160,-58.105,-35.645,-41.504,-52.246,0.000
1709299180.164,-50.781,-40.039,-44.922,-42.480,0.000
1709299180.168,-38.086,-37.109,-49.316,-43.457,0.000
1709299180.172,-41.504,-43.457,-51.758,-47.852,0.000
1709299180.176,-56.641,-39.551,-43.457,-61.035,0.000
1709299180.180,-52.246,-33.203,-41.992,-57.617,0.000
1709299180.184,-41.016,-38.574,-40.527,-41.992,0.000
1709299180.188,-36.133,-34.180,-32.227,-31.250,0.000
1709299180.191,-46.875,-32.715,-36.133,-42.480,0.000
1709299180.195,-62.012,-35.645,-42.480,-51.270,0.000
1709299180.199,-62.012,-30.762,-40.527,-37.109,0.000
1709299180.203,-49.805,-32.227,-44.434,-20.508,0.000
1709299180.207,-40.527,-38.086,-37.109,-9.766,0.000
1709299180.211,-44.922,-33.203,-25.879,-22.949,0.000
1709299180.215,-52.246,-32.715,-25.391,-37.109,0.000
1709299180.219,-57.129,-29.297,-28.320,-39.551,0.000
1709299180.223,-47.363,-24.902,-26.855,-31.738,0.000
1709299180.227,-38.574,-31.738,-29.297,-26.855,0.000
1709299180.231,-53.223,-41.016,-35.156,-34.180,0.000
1709299180.235,-70.801,-36.621,-35.156,-40.039,0.000
1709299180.238,-77.148,-30.273,-38.086,-46.387,0.000
1709299180.242,-65.918,-40.039,-39.062,-42.969,0.000
1709299180.246,-60.547,-47.852,-41.992,-41.504,0.000
1709299180.250,-56.152,-45.898,-47.363,-41.016,0.000
1709299180.254,-56.641,-37.598,-48.340,-44.434,0.000
1709299180.258,-58.105,-28.320,-44.434,-61.035,0.000
1709299180.262,-50.293,-28.320,-43.945,-52.246,0.000
1709299180.266,-31.738,-27.832,-40.039,-32.227,0.000
1709299180.270,-23.438,-33.203,-39.062,-33.203,0.000
1709299180.273,-38.574,-38.574,-40.527,-41.992,0.000
1709299180.277,-44.922,-33.203,-36.621,-48.828,0.000
1709299180.281,-35.156,-30.273,-41.016,-41.504,0.000
1709299180.285,-22.949,-33.691,-45.898,-30.273,0.000
1709299180.289,-18.555,-45.410,-31.738,-28.809,0.000
1709299180.293,-28.809,-43.457,-23.926,-42.480,0.000
1709299180.297,-41.504,-35.156,-32.227,-52.734,0.000
1709299180.301,-45.410,-32.715,-36.621,-50.293,0.000
1709299180.305,-44.434,-39.551,-34.668,-48.828,0.000
1709299180.309,-41.016,-40.039,-31.250,-47.363,0.000
1709299180.313,-50.781,-27.344,-29.297,-45.410,0.000
1709299180.316,-61.523,-23.926,-37.109,-56.152,0.000
1709299180.320,0.000,-32.715,-41.016,0.000,0.000
1709299180.324,0.000,-36.621,-41.016,0.000,0.000
1709299180.328,0.000,-44.922,-38.086,0.000,0.000
1709299180.332,0.000,-39.551,-38.086,0.000,0.000
1709299180.336,0.000,-28.320,-32.715,0.000,0.000
1709299180.340,0.000,-30.762,-27.344,0.000,0.000
1709299180.344,0.000,-37.109,-36.133,0.000,0.000
1709299180.348,0.000,-37.109,-36.133,0.000,0.000
1709299180.352,0.000,-37.109,-28.320,0.000,0.000
1709299180.356,0.000,-30.273,-41.504,0.000,0.000
1709299180.359,0.000,-28.320,-52.246,0.000,0.000
1709299180.363,0.000,-39.062,-45.410,0.000,0.000
1709299180.367,-33.691,-49.805,-38.574,-44.434,0.000
1709299180.371,-41.504,-50.781,-38.086,-38.574,0.000
1709299180.375,-52.734,-34.180,-43.945,-58.594,0.000
1709299180.379,-49.805,-21.973,-41.992,-63.965,0.000
1709299180.383,-33.203,-24.902,-37.109,-46.387,0.000
1709299180.387,-21.484,-22.461,-33.203,-33.691,0.000
1709299180.391,-31.738,-28.809,-38.574,-44.434,0.000
1709299180.395,-42.969,-38.574,-40.527,-60.059,0.000
1709299180.399,-43.945,-32.227,-39.062,-54.199,0.000
1709299180.402,-34.668,-35.156,-41.992,-30.273,0.000
1709299180.406,-22.461,-42.969,-41.016,-21.973,0.000
1709299180.410,-26.367,-36.133,-41.504,-39.062,0.000
1709299180.414,-42.480,-37.598,-41.992,-57.129,0.000
1709299180.418,-48.828,-44.434,-41.504,-58.594,0.000
1709299180.422,-33.203,-38.086,-40.527,-40.039,0.000
1709299180.426,-22.949,-33.203,-39.551,-28.320,0.000
1709299180.430,-29.297,-35.645,-31.738,-31.250,0.000
1709299180.434,-32.227,-52.734,-26.367,-32.227,0.000
1709299180.438,-41.992,-44.922,-27.832,-36.133,0.000
1709299180.441,-48.828,-31.250,-31.738,-40.039,0.000
1709299180.445,-38.086,-41.992,-36.133,-21.484,0.000
1709299180.449,-42.480,-47.363,-37.109,-23.926,0.000
1709299180.453,-49.316,-39.551,-30.273,-41.016,0.000
1709299180.457,-46.875,-47.852,-30.273,-47.852,0.000
1709299180.461,-39.551,-48.340,-37.109,-46.875,0.000
1709299180.465,-27.344,-40.039,-34.180,-30.273,0.000
1709299180.469,-22.461,-38.574,-37.598,-26.367,0.000
1709299180.473,-22.949,-39.551,-36.133,-31.738,0.000
1709299180.477,-29.297,-39.062,-37.109,-37.598,0.000
1709299180.480,-25.391,-32.227,-41.504,-33.203,0.000
1709299180.484,-14.648,-34.668,-39.062,-27.344,0.000
1709299180.488,-12.695,-46.387,-41.992,-33.203,0.000
1709299180.492,-22.461,-52.734,-43.945,-26.855,0.000
1709299180.496,-39.062,-50.293,-41.992,-40.527,0.000
1709299180.500,-39.062,-43.945,-40.527,-45.410,0.000
1709299180.504,-28.809,-37.109,-46.387,-37.109,0.000
1709299180.508,-30.273,-26.367,-43.457,-35.156,0.000
1709299180.512,-37.109,-28.809,-40.527,-44.434,0.000
1709299180.516,-46.875,-38.574,-40.527,-54.688,0.000
1709299180.520,-44.434,-37.598,-41.016,-44.922,0.000
1709299180.524,-29.785,-34.668,-43.945,-30.273,0.000
1709299180.528,-24.414,-37.109,-41.992,-24.414,0.000
1709299180.532,-32.715,-46.387,-41.992,-30.762,0.000
1709299180.536,-50.781,-44.922,-45.410,-37.598,0.000
1709299180.539,-53.223,-40.039,-46.387,-35.156,0.000
1709299180.543,-45.410,-42.480,-44.434,-30.273,0.000
1709299180.547,-36.621,-39.551,-45.898,-20.508,0.000
1709299180.551,-33.203,-36.621,-37.109,-21.973,0.000
1709299180.555,-49.805,-46.387,-29.785,-44.922,0.000
1709299180.559,-58.105,-57.617,-39.062,-55.664,0.000
1709299180.563,-55.176,-54.688,-41.016,-44.922,0.000
1709299180.567,-56.152,-49.805,-41.016,-36.621,0.000
1709299180.571,-54.688,-48.828,-43.457,-41.992,0.000
1709299180.574,-57.617,-48.340,-38.574,-51.758,0.000
1709299180.578,-64.453,-41.992,-38.086,-54.199,0.000
1709299180.582,-62.988,-43.457,-44.434,-50.293,0.000
1709299180.586,-41.504,-46.875,-39.062,-37.598,0.000
1709299180.590,-36.621,-44.434,-33.203,-35.645,0.000
1709299180.594,-52.246,-48.340,-39.062,-52.246,0.000
1709299180.598,-53.711,-44.922,-36.621,-51.270,0.000
1709299180.602,-42.969,-42.480,-33.691,-36.621,0.000
1709299180.606,-25.391,-39.062,-36.621,-31.738,0.000
1709299180.610,-20.508,-36.133,-32.227,-29.297,0.000
1709299180.613,-29.785,-41.504,-37.109,-31.738,0.000
1709299180.617,-30.273,-38.086,-35.645,-38.086,0.000
1709299180.621,-26.855,-32.715,-31.738,-34.668,0.000
1709299180.625,-25.879,-33.691,-43.457,-28.809,0.000
1709299180.629,-28.320,-40.527,-44.922,-31.250,0.000
1709299180.633,-38.086,-37.598,-39.062,-50.293,0.000
1709299180.637,-42.969,-20.020,-32.715,-58.105,0.000
1709299180.641,-39.062,-21.484,-35.156,-41.992,0.000
1709299180.645,-35.645,-29.785,-41.992,-34.668,0.000
1709299180.648,-34.668,-30.273,-46.387,-35.156,0.000
1709299180.652,-48.340,-33.691,-54.199,-40.527,0.000
1709299180.656,-66.895,-37.109,-46.387,-52.246,0.000
1709299180.660,-67.383,-36.133,-41.016,-52.246,0.000
1709299180.664,-57.617,-37.598,-44.434,-30.273,0.000
1709299180.668,-53.711,-46.875,-42.480,-12.207,0.000
1709299180.672,-60.547,-33.203,-39.551,-15.137,0.000
1709299180.676,-74.219,-27.344,-40.039,-35.645,0.000
1709299180.680,-73.242,-36.133,-40.527,-38.086,0.000
1709299180.684,-52.734,-36.621,-36.133,-21.484,0.000
1709299180.687,-39.062,-41.992,-34.180,-12.695,0.000
1709299180.691,-49.316,-41.016,-34.668,-23.438,0.000
1709299180.695,-59.570,-38.574,-35.156,-33.691,0.000
1709299180.699,-53.711,-41.992,-24.902,-30.273,0.000
1709299180.703,-44.434,-41.016,-21.484,-27.832,0.000
1709299180.707,-31.738,-41.504,-33.691,-22.949,0.000
1709299180.711,-36.621,-47.363,-36.621,-32.715,0.000
1709299180.715,-47.852,-45.410,-27.832,-41.992,0.000
1709299180.719,-57.129,-41.016,-31.250,-46.387,0.000
1709299180.723,-52.246,-38.574,-35.645,-45.410,0.000
1709299180.727,-35.156,-40.039,-35.156,-38.574,0.000
1709299180.730,-36.133,-50.293,-41.504,-41.016,0.000
1709299180.734,-47.363,-46.875,-47.363,-59.082,0.000
1709299180.738,-51.758,-36.621,-42.969,-65.430,0.000
1709299180.742,-42.969,-36.133,-34.668,-51.758,0.000
1709299180.746,-27.832,-39.551,-29.297,-29.785,0.000
1709299180.750,-25.879,-33.691,-36.133,-25.879,0.000
1709299180.754,-44.922,-37.598,-40.527,-46.875,0.000
1709299180.758,-51.758,-41.504,-35.156,-51.758,0.000
1709299180.762,-41.016,-37.109,-41.992,-39.551,0.000
1709299180.766,-24.902,-33.203,-38.086,-25.391,0.000
1709299180.770,-21.484,-32.715,-33.203,-30.762,0.000
1709299180.773,-33.203,-32.715,-36.621,-43.945,0.000
1709299180.777,-39.062,-33.203,-32.715,-41.016,0.000
1709299180.781,-36.621,-30.273,-35.156,-38.574,0.000
1709299180.785,-32.227,-30.762,-32.715,-32.715,0.000
1709299180.789,-27.832,-37.598,-30.273,-27.344,0.000
1709299180.793,-31.250,-35.645,-31.738,-34.668,0.000
1709299180.797,-43.945,-46.387,-32.715,-47.852,0.000
1709299180.801,-44.922,-55.664,-37.598,-45.410,0.000
1709299180.805,-40.527,-43.945,-34.180,-30.273,0.000
1709299180.809,-42.480,-41.016,-38.574,-26.367,0.000
1709299180.813,-48.340,-43.457,-46.875,-41.992,0.000
1709299180.816,-59.570,-40.527,-40.039,-58.594,0.000
1709299180.820,-57.129,-40.039,-35.156,-47.363,0.000
1709299180.824,-45.410,-32.715,-34.180,-37.109,0.000
1709299180.828,-37.109,-34.180,-33.203,-36.621,0.000
1709299180.832,-35.645,-40.039,-33.691,-29.297,0.000
1709299180.836,-47.852,-43.945,-31.250,-41.992,0.000
1709299180.840,-46.875,-49.805,-36.133,-48.828,0.000
1709299180.844,-31.250,-43.457,-39.062,-39.062,0.000
1709299180.848,-17.578,-30.762,-31.250,-32.227,0.000
1709299180.852,-19.531,-35.156,-35.156,-40.527,0.000
1709299180.855,-31.738,-42.969,-48.828,-46.875,0.000
1709299180.859,-26.367,-33.691,-36.621,-38.086,0.000
1709299180.863,-16.113,-28.809,-31.250,-25.391,0.000
1709299180.867,-7.812,-35.645,-33.203,-8.301,0.000
1709299180.871,-7.812,-36.621,-34.180,-16.113,0.000
1709299180.875,-22.461,-28.320,-44.434,-40.039,0.000
1709299180.879,-34.180,-28.809,-50.293,-49.805,0.000
1709299180.883,-30.762,-38.574,-37.598,-41.992,0.000
1709299180.887,-24.902,-39.551,-29.785,-29.297,0.000
1709299180.891,-29.297,-35.645,-28.320,-32.715,0.000
1709299180.894,-40.527,-35.645,-30.762,-43.945,0.000
1709299180.898,-44.434,-41.016,-34.668,-46.387,0.000
1709299180.902,-35.156,-50.781,-32.227,-33.691,0.000
1709299180.906,-25.391,-44.434,-29.785,-22.949,0.000
1709299180.910,-26.855,-41.016,-24.902,-21.973,0.000
1709299180.914,-35.645,-43.457,-33.203,-30.273,0.000
1709299180.918,-37.598,-37.109,-37.598,-35.156,0.000
1709299180.922,-23.926,-36.133,-26.855,-16.602,0.000
1709299180.926,-12.695,-44.434,-17.578,0.000,0.000
1709299180.929,-18.555,-56.641,-18.555,-14.648,0.000
1709299180.933,-28.320,-50.781,-20.996,-31.738,0.000
1709299180.937,-38.086,-37.598,-24.902,-41.504,0.000
1709299180.941,-31.738,-28.320,-26.855,-28.320,0.000
1709299180.945,-18.066,-26.367,-26.855,-8.789,0.000
1709299180.949,-21.484,-32.227,-26.367,-13.184,0.000
1709299180.953,-39.551,-41.016,-31.738,-25.391,0.000
1709299180.957,-52.246,-45.898,-33.203,-28.809,0.000
1709299180.961,-46.875,-45.898,-34.180,-24.902,0.000
1709299180.965,-32.715,-54.688,-41.504,-15.137,0.000
1709299180.969,-25.879,-53.223,-31.738,-12.695,0.000
1709299180.972,-37.598,-44.922,-24.902,-26.855,0.000
1709299180.976,-47.852,-36.133,-28.809,-43.945,0.000
1709299180.980,-41.992,-38.574,-31.738,-40.527,0.000
1709299180.984,-30.273,-45.410,-32.227,-25.879,0.000
1709299180.988,-25.391,-31.738,-31.250,-22.949,0.000
1709299180.992,-36.133,-23.926,-41.992,-42.480,0.000
1709299180.996,-43.457,-26.367,-46.387,-68.848,0.000
1709299181.000,-42.969,-32.227,-44.434,-60.547,0.000
1709299181.004,-34.180,-31.250,-46.875,-43.945,0.000
1709299181.007,-27.344,-22.949,-47.363,-46.387,0.000
1709299181.011,-31.738,-25.879,-41.504,-56.152,0.000
1709299181.015,-41.992,-29.785,-41.992,-61.035,0.000
1709299181.019,-50.781,-32.715,-41.504,-62.500,0.000
1709299181.023,-41.504,-30.273,-41.016,-49.805,0.000
1709299181.027,-28.809,-30.762,-42.480,-42.969,0.000
1709299181.031,-44.434,-49.805,-45.410,-54.688,0.000
1709299181.035,-58.105,-47.852,-47.363,-64.941,0.000
1709299181.039,-55.664,-38.086,-47.852,-68.359,0.000
1709299181.043,-47.852,-46.875,-47.363,-56.152,0.000
1709299181.046,-43.457,-46.387,-47.852,-42.969,0.000
1709299181.050,-42.969,-36.621,-44.922,-48.340,0.000
1709299181.054,-48.828,-43.457,-45.410,-66.406,0.000
1709299181.058,-52.734,-44.922,-39.062,-64.453,0.000
1709299181.062,-45.898,-43.457,-32.227,-45.898,0.000
1709299181.066,-32.715,-39.062,-34.180,-35.156,0.000
1709299181.070,-41.504,-40.039,-36.621,-41.016,0.000
1709299181.074,-56.641,-43.945,-36.621,-51.270,0.000
1709299181.078,-58.594,-42.480,-39.551,-51.270,0.000
1709299181.082,-50.293,-41.016,-41.992,-41.504,0.000
1709299181.086,-41.016,-36.621,-41.504,-35.156,0.000
1709299181.089,-44.922,-31.738,-40.039,-39.062,0.000
1709299181.093,-60.547,-33.203,-35.156,-55.176,0.000
1709299181.097,-69.824,-35.645,-36.621,-65.918,0.000
1709299181.101,-62.988,-35.645,-40.039,-58.105,0.000
1709299181.105,-50.781,-33.691,-41.016,-38.574,0.000
1709299181.109,-46.387,-32.227,-43.457,-45.898,0.000
1709299181.113,-57.617,-35.645,-44.434,-75.684,0.000
1709299181.117,-64.941,-38.574,-52.734,-78.613,0.000
1709299181.121,-55.176,-35.645,-41.504,-54.199,0.000
1709299181.125,-42.969,-31.250,-30.762,-35.645,0.000
1709299181.128,-34.180,-30.273,-41.992,-39.551,0.000
1709299181.132,-41.016,-30.273,-47.852,-51.270,0.000
1709299181.136,-50.781,-32.227,-41.504,-59.570,0.000
1709299181.140,-46.875,-32.715,-45.898,-57.617,0.000
1709299181.144,-32.227,-18.555,-47.363,-46.875,0.000
1709299181.148,-26.855,-16.602,-42.480,-47.363,0.000
1709299181.152,-40.527,-26.855,-39.551,-53.711,0.000
1709299181.156,-52.246,-28.320,-41.992,-68.359,0.000
1709299181.160,-46.875,-28.320,-48.340,-64.453,0.000
1709299181.164,-36.621,-32.715,-47.852,-46.387,0.000
1709299181.168,-27.832,-34.668,-40.527,-33.203,0.000
1709299181.171,-31.738,-26.367,-44.922,-38.086,0.000
1709299181.175,-44.922,-28.809,-47.363,-46.875,0.000
1709299181.179,-46.875,-41.992,-35.645,-40.527,0.000
1709299181.183,-38.086,-31.250,-33.203,-29.785,0.000
1709299181.187,-37.598,-29.785,-32.715,-26.855,0.000
1709299181.191,-50.293,-35.156,-38.086,-35.156,0.000
1709299181.195,-59.082,-35.156,-36.133,-38.086,0.000
1709299181.199,-57.617,-49.805,-35.156,-39.551,0.000
1709299181.203,-44.434,-51.758,-39.062,-34.668,0.000
1709299181.207,-32.715,-43.457,-35.645,-20.996,0.000
1709299181.210,-31.250,-38.086,-33.203,-9.766,0.000
1709299181.214,-38.574,-29.785,-35.156,-28.320,0.000
1709299181.218,-49.805,-31.738,-40.527,-49.805,0.000
1709299181.222,-41.992,-33.691,-44.922,-36.621,0.000
1709299181.226,-32.227,-42.480,-41.016,-28.320,0.000
1709299181.230,-40.527,-44.434,-38.086,-41.504,0.000
1709299181.234,-53.223,-39.551,-35.645,-54.199,0.000
1709299181.238,-60.059,-37.109,-31.250,-53.223,0.000
1709299181.242,-54.688,-42.480,-38.574,-35.645,0.000
1709299181.246,-41.016,-48.340,-45.410,-32.227,0.000
1709299181.250,-36.621,-51.758,-40.039,-41.016,0.000
1709299181.253,-48.340,-51.270,-34.668,-48.340,0.000
1709299181.257,-52.246,-37.598,-38.574,-53.711,0.000
1709299181.261,-35.156,-35.156,-42.480,-46.875,0.000
1709299181.265,-24.414,-36.621,-40.527,-31.738,0.000
1709299181.269,-31.738,-41.504,-31.738,-33.203,0.000
1709299181.273,-44.434,-44.434,-33.691,-42.969,0.000
1709299181.277,-50.293,-40.039,-39.062,-42.969,0.000
1709299181.281,-42.480,-41.016,-27.344,-34.180,0.000
1709299181.285,-32.715,-43.945,-20.020,-15.137,0.000
1709299181.289,-39.551,-44.922,-29.785,-20.996,0.000
1709299181.292,-49.316,-41.016,-33.203,-36.133,0.000
1709299181.296,-52.734,-35.645,-28.809,-36.621,0.000
1709299181.300,-47.363,-29.785,-27.832,-34.668,0.000
1709299181.304,-27.344,-23.438,-29.297,-17.090,0.000
1709299181.308,-13.184,-30.273,-41.504,-11.230,0.000
1709299181.312,-22.461,-35.645,-39.551,-24.414,0.000
1709299181.316,-39.551,-38.086,-33.203,-32.227,0.000
1709299181.320,-38.086,-39.062,-28.809,-31.250,0.000
1709299181.324,-27.344,-34.668,-27.344,-19.043,0.000
1709299181.327,-20.020,-33.203,-28.320,-6.836,0.000
1709299181.331,-26.855,-28.809,-28.320,-12.207,0.000
1709299181.335,-41.992,-28.809,-22.949,-30.762,0.000
1709299181.339,-37.109,-38.574,-22.461,-34.668,0.000
1709299181.343,-26.367,-33.691,-29.785,-27.344,0.000
1709299181.347,-20.996,-28.320,-28.320,-21.484,0.000
1709299181.351,-20.508,-37.109,-30.273,-26.367,0.000
1709299181.355,-34.668,-40.039,-43.945,-41.504,0.000
1709299181.359,-37.109,-33.691,-43.457,-41.992,0.000
1709299181.363,-23.438,-30.762,-41.016,-37.598,0.000
1709299181.366,-20.508,-30.762,-39.062,-33.203,0.000
1709299181.370,-25.879,-25.879,-34.180,-41.504,0.000
1709299181.374,-35.645,-25.879,-34.180,-53.711,0.000
1709299181.378,-47.363,-39.551,-37.598,-55.176,0.000
1709299181.382,-39.551,-41.016,-41.504,-52.246,0.000
1709299181.386,-36.133,-36.621,-42.480,-50.781,0.000
1709299181.390,-43.945,-37.598,-41.016,-51.758,0.000
1709299181.394,-53.223,-34.180,-39.551,-63.477,0.000
1709299181.398,-57.129,-32.227,-46.875,-65.918,0.000
1709299181.401,-49.316,-36.621,-46.387,-50.781,0.000
1709299181.405,-38.574,-37.598,-36.621,-43.457,0.000
1709299181.409,-43.945,-42.969,-43.945,-50.293,0.000
1709299181.413,-42.969,-35.645,-40.039,-50.293,0.000
1709299181.417,-50.293,-35.156,-35.156,-46.875,0.000
1709299181.421,-47.363,-41.504,-36.621,-26.855,0.000
1709299181.425,-32.715,-40.039,-40.527,-19.531,0.000
1709299181.429,-34.180,-33.691,-42.480,-26.367,0.000
1709299181.433,-40.527,-27.832,-35.156,-34.180,0.000
1709299181.437,-41.016,-34.668,-36.621,-36.621,0.000
1709299181.441,-41.504,-37.598,-42.480,-27.344,0.000
1709299181.444,-28.809,-38.574,-38.574,-15.137,0.000
1709299181.448,-13.672,-43.457,-33.203,-15.137,0.000
1709299181.452,-17.578,-40.039,-31.250,-22.461,0.000
1709299181.456,-29.297,-39.062,-31.250,-32.227,0.000
1709299181.460,-23.926,-40.527,-33.691,-30.273,0.000
1709299181.464,-17.090,-41.016,-40.527,-24.414,0.000
1709299181.468,-16.113,-40.039,-40.039,-30.273,0.000
1709299181.472,-17.578,-35.645,-31.738,-41.992,0.000
1709299181.476,-21.484,-33.203,-37.598,-51.270,0.000
1709299181.480,-21.973,-30.762,-46.875,-52.734,0.000
1709299181.484,-13.184,-24.414,-41.016,-43.945,0.000
1709299181.487,-12.695,-22.461,-41.016,-37.109,0.000
1709299181.492,-21.484,-26.855,-37.109,-41.992,0.000
1709299181.495,-34.668,-28.320,-33.203,-45.410,0.000
1709299181.499,-47.852,-26.855,-37.109,-49.805,0.000
1709299181.503,-41.504,-33.203,-34.180,-46.875,0.000
1709299181.507,-40.039,-35.156,-32.715,-37.598,0.000
1709299181.511,-51.758,-39.551,-29.785,-42.480,0.000
1709299181.515,-62.012,-38.086,-36.133,-59.570,0.000
1709299181.519,-63.477,-28.320,-41.504,-67.383,0.000
1709299181.523,-50.293,-30.762,-33.203,-49.805,0.000
1709299181.527,-44.922,-31.738,-35.645,-38.574,0.000
1709299181.531,-49.805,-32.227,-37.109,-46.387,0.000
1709299181.535,-66.895,-41.016,-33.691,-55.664,0.000
1709299181.538,-64.453,-39.062,-27.344,-47.363,0.000
1709299181.542,-40.039,-31.738,-21.484,-27.344,0.000
1709299181.546,-40.039,-40.527,-29.785,-28.809,0.000
1709299181.550,-46.387,-43.457,-35.156,-40.039,0.000
1709299181.554,-54.199,-41.992,-35.645,-49.805,0.000
1709299181.558,-62.988,-41.992,-31.738,-53.223,0.000
1709299181.562,-51.270,-33.203,-25.879,-36.621,0.000
1709299181.566,-37.598,-24.414,-26.367,-23.926,0.000
1709299181.570,-41.992,-28.320,-32.227,-29.297,0.000
1709299181.574,-55.176,-35.645,-29.785,-40.039,0.000
1709299181.577,-59.570,-39.551,-32.715,-46.387,0.000
1709299181.581,-51.758,-42.480,-37.598,-38.086,0.000
1709299181.585,-39.062,-41.504,-34.180,-15.625,0.000
1709299181.589,-30.762,-41.016,-34.180,-22.461,0.000
1709299181.593,-37.109,-42.480,-36.621,-45.410,0.000
1709299181.597,-48.828,-37.109,-43.945,-56.152,0.000
1709299181.601,-39.062,-34.668,-38.086,-54.688,0.000
1709299181.605,-22.949,-31.738,-32.227,-40.039,0.000
1709299181.609,-24.902,-32.227,-41.504,-42.969,0.000
1709299181.613,-38.574,-33.203,-39.062,-58.594,0.000
1709299181.617,-45.898,-32.227,-35.645,-57.129,0.000
1709299181.620,-41.016,-35.645,-40.039,-60.547,0.000
1709299181.624,-30.762,-38.086,-38.086,-54.688,0.000
1709299181.628,-30.762,-41.016,-34.180,-48.340,0.000
1709299181.632,-42.969,-47.363,-28.809,-58.594,0.000
1709299181.636,-50.781,-43.457,-30.762,-58.594,0.000
1709299181.640,-47.852,-33.203,-37.109,-42.480,0.000
1709299181.644,-37.109,-28.809,-39.551,-32.227,0.000
1709299181.648,-31.250,-33.691,-37.598,-30.762,0.000
1709299181.652,-38.086,-24.902,-44.922,-38.574,0.000
1709299181.656,-47.363,-24.414,-48.340,-49.805,0.000
1709299181.659,-47.852,-33.691,-42.480,-45.898,0.000
1709299181.663,-35.156,-32.715,-35.156,-31.250,0.000
1709299181.667,-20.508,-35.156,-26.367,-27.344,0.000
1709299181.671,-27.344,-43.945,-32.715,-37.109,0.000
1709299181.675,-46.387,-43.457,-40.039,-49.316,0.000
1709299181.679,-48.340,-40.527,-35.645,-46.875,0.000
1709299181.683,-35.156,-34.668,-30.273,-31.738,0.000
1709299181.687,-21.484,-40.039,-31.738,-25.391,0.000
1709299181.691,-24.902,-45.898,-35.156,-31.250,0.000
1709299181.695,-42.969,-52.734,-40.527,-42.969,0.000
1709299181.698,-44.434,-49.316,-38.574,-42.969,0.000
1709299181.702,-31.250,-36.621,-33.691,-25.879,0.000
1709299181.706,-14.648,-34.180,-27.832,-11.719,0.000
1709299181.710,-20.508,-43.457,-39.551,-26.367,0.000
1709299181.714,-33.203,-46.387,-46.875,-43.457,0.000
1709299181.718,-33.203,-40.527,-36.133,-43.457,0.000
1709299181.722,-30.762,-44.922,-33.691,-29.785,0.000
1709299181.726,-22.461,-47.852,-33.691,-23.926,0.000
1709299181.730,-20.996,-45.410,-36.621,-29.297,0.000
1709299181.734,-40.039,-43.457,-39.551,-33.691,0.000
1709299181.738,-47.363,-38.574,-37.109,-39.551,0.000
1709299181.741,-31.738,-42.969,-37.109,-31.250,0.000
1709299181.745,-18.066,-53.711,-35.156,-14.648,0.000
1709299181.749,-18.066,-46.875,-36.621,-14.648,0.000
1709299181.753,-29.785,-38.086,-34.668,-24.414,0.000
1709299181.757,-32.715,-31.738,-33.691,-34.180,0.000
1709299181.761,-23.438,-32.227,-41.992,-23.926,0.000
1709299181.765,-14.160,-41.992,-41.504,-15.625,0.000
1709299181.769,-19.043,-38.574,-44.922,-25.879,0.000
1709299181.773,-33.203,-37.109,-38.574,-34.668,0.000
1709299181.776,-44.434,-43.945,-34.668,-44.922,0.000
1709299181.780,-47.363,-41.016,-45.410,-42.969,0.000
1709299181.784,-33.203,-34.180,-40.039,-27.344,0.000
1709299181.788,-31.738,-30.273,-35.156,-28.809,0.000
1709299181.792,-45.898,-43.945,-39.062,-40.527,0.000
1709299181.796,-48.340,-55.176,-39.062,-51.270,0.000
1709299181.800,-39.551,-41.992,-34.668,-45.410,0.000
1709299181.804,-28.809,-33.203,-33.203,-25.391,0.000
1709299181.808,-28.320,-38.574,-37.598,-16.602,0.000
1709299181.812,-41.992,-40.527,-42.969,-25.879,0.000
1709299181.816,-53.711,-33.203,-38.574,-46.387,0.000
1709299181.820,-52.246,-34.668,-43.945,-46.875,0.000
1709299181.823,-37.598,-43.945,-47.852,-33.691,0.000
1709299181.827,-25.879,-37.109,-34.180,-22.461,0.000
1709299181.831,-40.527,-34.668,-34.180,-43.945,0.000
1709299181.835,-55.664,-37.109,-41.992,-59.082,0.000
1709299181.839,-46.875,-33.691,-39.062,-42.480,0.000
1709299181.843,-35.156,-31.738,-38.086,-27.344,0.000
1709299181.847,-28.809,-39.062,-41.504,-33.691,0.000
1709299181.851,-34.180,-41.992,-43.457,-53.223,0.000
1709299181.855,-49.316,-45.898,-40.527,-61.035,0.000
1709299181.859,-60.059,-43.457,-43.457,-66.406,0.000
1709299181.862,-46.387,-39.551,-41.504,-53.711,0.000
1709299181.866,-35.645,-45.898,-37.109,-41.016,0.000
1709299181.870,-42.969,-41.016,-38.086,-46.387,0.000
1709299181.874,-46.875,-35.156,-33.691,-54.688,0.000
1709299181.878,-43.457,-38.574,-26.855,-53.711,0.000
1709299181.882,-32.715,-29.785,-30.762,-39.551,0.000
1709299181.886,-25.879,-20.508,-37.109,-27.344,0.000
1709299181.890,-27.832,-32.227,-41.016,-31.250,0.000
1709299181.894,-37.109,-43.457,-37.109,-44.434,0.000
1709299181.898,-42.480,-47.363,-32.227,-44.922,0.000
1709299181.902,-41.016,-41.504,-35.156,-28.809,0.000
1709299181.905,-38.574,-36.621,-41.504,-29.785,0.000
1709299181.909,-36.133,-37.598,-38.086,-39.551,0.000
1709299181.913,0.000,-27.832,-35.156,0.000,0.000
1709299181.917,0.000,-23.926,-35.645,0.000,0.000
1709299181.921,0.000,-34.668,-34.180,0.000,0.000
1709299181.925,0.000,-35.645,-41.992,0.000,0.000
1709299181.929,0.000,-28.809,-42.969,0.000,0.000
1709299181.933,0.000,-41.504,-39.551,0.000,0.000
1709299181.937,0.000,-53.711,-41.016,0.000,0.000
1709299181.941,0.000,-44.434,-32.227,0.000,0.000
1709299181.945,0.000,-31.738,-25.879,0.000,0.000
1709299181.948,0.000,-29.785,-31.738,0.000,0.000
1709299181.952,0.000,-28.809,-29.785,0.000,0.000
1709299181.956,0.000,-25.391,-26.367,0.000,0.000
1709299181.960,-38.574,-29.297,-31.250,-39.551,0.000
1709299181.964,-26.367,-41.504,-43.457,-28.320,0.000
1709299181.968,-20.996,-41.504,-38.574,-24.414,0.000
1709299181.972,-34.668,-38.574,-36.621,-37.109,0.000
1709299181.976,-45.410,-39.062,-37.598,-45.898,0.000
1709299181.980,-43.457,-36.133,-33.203,-48.340,0.000
1709299181.984,-33.691,-35.645,-38.574,-39.551,0.000
1709299181.987,-27.832,-40.039,-41.992,-32.715,0.000
1709299181.991,-32.715,-41.016,-32.715,-37.598,0.000
1709299181.995,-42.480,-42.480,-36.621,-48.828,0.000
1709299181.999,-41.992,-44.434,-39.062,-48.828,0.000
1709299182.003,-33.691,-42.480,-36.133,-41.992,0.000
1709299182.007,-23.438,-31.250,-37.598,-35.156,0.000
1709299182.011,-25.879,-38.574,-29.785,-41.992,0.000
1709299182.015,-45.898,-51.270,-32.227,-51.270,0.000
1709299182.019,-57.129,-44.922,-46.875,-49.805,0.000
1709299182.023,-48.340,-45.410,-41.992,-37.109,0.000
1709299182.026,-33.203,-44.434,-36.621,-29.785,0.000
1709299182.030,-34.180,-41.016,-37.598,-36.133,0.000
1709299182.034,-51.758,-41.992,-34.668,-45.410,0.000
1709299182.038,-61.035,-42.480,-30.762,-51.270,0.000
1709299182.042,-49.805,-36.133,-32.227,-48.828,0.000
1709299182.046,-44.922,-30.762,-38.574,-45.410,0.000
1709299182.050,-54.199,-41.992,-43.945,-55.176,0.000
1709299182.054,-56.641,-45.898,-39.551,-62.012,0.000
1709299182.058,-54.199,-41.992,-34.668,-58.105,0.000
1709299182.062,-46.875,-41.504,-43.457,-49.805,0.000
1709299182.065,-31.738,-45.410,-50.293,-33.691,0.000
1709299182.069,-34.180,-44.922,-42.969,-39.062,0.000
1709299182.073,-43.945,-41.016,-33.203,-47.363,0.000
1709299182.077,-43.945,-37.598,-28.320,-40.039,0.000
1709299182.081,-41.504,-38.574,-26.367,-28.809,0.000
1709299182.085,-34.180,-44.434,-30.762,-25.391,0.000
1709299182.089,-27.344,-49.316,-28.809,-30.762,0.000
1709299182.093,-33.691,-43.945,-22.461,-36.133,0.000
1709299182.097,-42.480,-35.645,-19.531,-40.527,0.000
1709299182.101,-29.297,-30.762,-24.414,-28.320,0.000
1709299182.104,-20.020,-40.527,-40.527,-16.113,0.000
1709299182.108,-26.855,-41.016,-38.574,-19.531,0.000
1709299182.112,-34.180,-29.297,-37.598,-35.156,0.000
1709299182.116,-45.410,-36.621,-40.039,-46.875,0.000
1709299182.120,-47.363,-43.457,-37.598,-42.969,0.000
1709299182.124,-29.785,-42.969,-39.062,-28.320,0.000
1709299182.128,-26.855,-39.551,-39.062,-24.902,0.000
1709299182.132,-43.945,-32.227,-35.156,-39.062,0.000
1709299182.136,-49.805,-32.715,-30.273,-41.016,0.000
1709299182.140,-41.016,-35.645,-35.156,-32.715,0.000
1709299182.143,-28.320,-31.250,-39.062,-30.762,0.000
1709299182.147,-23.438,-40.527,-30.762,-30.273,0.000
1709299182.151,-36.133,-50.781,-28.809,-41.504,0.000
1709299182.155,-50.293,-47.852,-32.227,-52.246,0.000
1709299182.159,-52.246,-35.156,-34.180,-45.410,0.000
1709299182.163,-44.922,-29.297,-36.133,-39.551,0.000
1709299182.167,-29.297,-34.180,-31.250,-31.250,0.000
1709299182.171,-32.715,-44.434,-33.691,-31.250,0.000
1709299182.175,-46.875,-46.875,-41.016,-46.875,0.000
1709299182.178,-47.363,-37.598,-39.062,-48.340,0.000
1709299182.182,-32.715,-35.645,-35.645,-35.156,0.000
1709299182.186,-24.414,-39.551,-41.992,-24.902,0.000
1709299182.190,-34.668,-47.363,-48.828,-43.457,0.000
1709299182.194,-45.410,-50.781,-46.387,-58.594,0.000
1709299182.198,-47.852,-35.156,-44.434,-50.781,0.000
1709299182.202,-31.738,-27.344,-41.016,-41.016,0.000
1709299182.206,-18.066,-31.738,-40.039,-35.156,0.000
1709299182.210,-24.902,-42.480,-38.574,-34.668,0.000
1709299182.214,-33.691,-47.852,-39.551,-31.250,0.000
1709299182.218,-34.180,-33.691,-45.410,-22.949,0.000
1709299182.222,-23.926,-23.926,-39.551,-9.766,0.000
1709299182.225,-14.160,-23.926,-41.504,-0.488,0.000
1709299182.229,-17.090,-37.109,-42.480,-2.441,0.000
1709299182.233,-31.250,-46.875,-41.992,-14.648,0.000
1709299182.237,-43.945,-47.852,-38.086,-26.855,0.000
1709299182.241,-36.133,-42.969,-32.227,-18.066,0.000
1709299182.245,-23.438,-34.180,-34.668,-6.836,0.000
1709299182.249,-25.879,-30.273,-35.645,-12.695,0.000
1709299182.253,-39.062,-40.527,-35.645,-25.879,0.000
1709299182.257,-45.410,-42.969,-36.621,-29.297,0.000
1709299182.261,-41.992,-39.062,-37.109,-29.297,0.000
1709299182.265,-34.668,-35.645,-38.086,-28.809,0.000
1709299182.268,-28.320,-34.668,-38.086,-28.809,0.000
1709299182.272,-40.527,-48.340,-34.668,-38.574,0.000
1709299182.276,-53.711,-58.105,-38.574,-41.992,0.000
1709299182.280,-43.457,-34.668,-40.527,-38.574,0.000
1709299182.284,-23.926,-24.902,-38.574,-34.180,0.000
1709299182.288,-25.879,-34.668,-42.480,-35.156,0.000
1709299182.292,-41.992,-38.574,-41.992,-45.898,0.000
1709299182.296,-44.434,-42.480,-41.504,-51.270,0.000
1709299182.300,-36.621,-42.969,-38.086,-38.086,0.000
1709299182.304,-22.461,-34.668,-27.344,-11.719,0.000
1709299182.308,-20.020,-35.645,-27.344,-9.277,0.000
1709299182.312,-39.551,-42.969,-39.551,-28.320,0.000
1709299182.315,-46.387,-45.410,-38.086,-26.367,0.000
1709299182.319,-45.898,-55.176,-43.457,-10.254,0.000
1709299182.323,-42.480,-51.270,-45.410,-2.441,0.000
1709299182.327,-27.344,-40.527,-33.203,-5.859,0.000
1709299182.331,-28.320,-42.480,-41.016,-13.184,0.000
1709299182.335,-42.969,-39.062,-44.434,-26.367,0.000
1709299182.339,-41.504,-37.598,-40.527,-36.621,0.000
1709299182.343,-29.785,-40.527,-37.598,-25.879,0.000
1709299182.347,-20.996,-31.738,-30.762,-15.625,0.000
1709299182.351,-28.809,-31.738,-35.156,-33.691,0.000
1709299182.355,-43.945,-41.504,-40.527,-45.410,0.000
1709299182.358,-52.246,-46.875,-41.016,-43.945,0.000
1709299182.362,-41.504,-49.316,-32.715,-32.715,0.000
1709299182.366,-26.855,-44.922,-30.273,-21.484,0.000
1709299182.370,-33.203,-44.922,-37.109,-35.156,0.000
1709299182.374,-49.316,-43.457,-33.691,-52.734,0.000
1709299182.378,-45.898,-34.180,-29.785,-49.316,0.000
1709299182.382,-40.039,-38.086,-31.738,-39.062,0.000
1709299182.386,-38.086,-41.016,-38.574,-44.922,0.000
1709299182.390,-39.062,-33.203,-47.363,-56.641,0.000
1709299182.394,-50.293,-32.227,-46.387,-65.918,0.000
1709299182.397,-56.152,-48.340,-48.828,-68.848,0.000
1709299182.401,-47.363,-54.199,-49.316,-53.223,0.000
1709299182.405,-41.016,-38.574,-46.875,-38.086,0.000
1709299182.409,-43.945,-34.180,-46.387,-33.203,0.000
1709299182.413,-55.176,-41.504,-40.039,-39.551,0.000
1709299182.417,-61.035,-55.176,-41.992,-51.270,0.000
1709299182.421,-52.734,-56.152,-41.992,-38.574,0.000
1709299182.425,-35.156,-46.387,-39.551,-15.137,0.000
1709299182.429,-27.832,-38.086,-43.457,-15.137,0.000
1709299182.433,-41.016,-33.203,-42.969,-32.715,0.000
1709299182.436,-53.223,-39.551,-41.504,-41.504,0.000
1709299182.440,-43.457,-48.340,-44.922,-32.227,0.000
1709299182.444,-28.809,-49.805,-43.457,-20.508,0.000
1709299182.448,-25.391,-35.156,-41.504,-24.414,0.000
1709299182.452,-28.809,-26.855,-45.410,-36.621,0.000
1709299182.456,-32.715,-34.180,-40.527,-34.180,0.000
1709299182.460,-25.391,-40.039,-39.062,-34.668,0.000
1709299182.464,-11.719,-37.109,-42.969,-29.785,0.000
1709299182.468,-4.395,-26.855,-41.992,-23.926,0.000
1709299182.472,-11.230,-24.902,-38.574,-31.250,0.000
1709299182.475,-23.926,-32.715,-41.016,-38.574,0.000
1709299182.479,-22.949,-41.992,-49.805,-33.691,0.000
1709299182.483,-14.160,-40.039,-42.969,-25.879,0.000
1709299182.487,-13.672,-31.738,-42.969,-28.809,0.000
1709299182.491,-28.320,-28.809,-46.875,-42.969,0.000
1709299182.495,-43.945,-31.738,-44.434,-58.594,0.000
1709299182.499,-51.758,-35.645,-48.828,-56.152,0.000
1709299182.503,-43.945,-41.992,-48.340,-43.945,0.000
1709299182.507,-35.156,-45.898,-41.992,-44.922,0.000
1709299182.511,-41.992,-36.621,-41.016,-49.805,0.000
1709299182.514,-54.199,-29.785,-42.969,-55.176,0.000
1709299182.518,-67.383,-40.527,-52.734,-73.242,0.000
1709299182.522,-66.895,-54.199,-55.176,-66.895,0.000
1709299182.526,-51.758,-47.363,-40.039,-42.480,0.000
1709299182.530,-48.828,-40.527,-30.273,-44.922,0.000
1709299182.534,-62.988,-43.457,-32.227,-58.594,0.000
1709299182.538,-68.359,-46.875,-37.598,-55.176,0.000
1709299182.542,-60.059,-51.758,-39.551,-42.969,0.000
1709299182.546,-47.852,-53.711,-33.691,-22.949,0.000
1709299182.550,-45.410,-42.480,-34.668,-30.762,0.000
1709299182.554,-52.246,-37.109,-41.992,-47.363,0.000
1709299182.558,-57.617,-41.992,-43.945,-48.340,0.000
1709299182.561,-45.898,-34.668,-35.156,-41.016,0.000
1709299182.565,-27.344,-25.879,-24.902,-35.645,0.000
1709299182.569,-26.855,-29.297,-33.691,-51.758,0.000
1709299182.573,-42.969,-27.344,-45.410,-68.359,0.000
1709299182.577,-44.922,-27.344,-39.551,-66.895,0.000
1709299182.581,-30.762,-30.273,-40.039,-47.363,0.000
1709299182.585,-19.043,-30.273,-40.039,-36.621,0.000
1709299182.589,-20.996,-35.156,-38.574,-39.062,0.000
1709299182.593,-28.809,-33.691,-39.062,-42.480,0.000
1709299182.597,-27.832,-27.344,-29.785,-42.969,0.000
1709299182.601,-26.367,-32.227,-33.203,-36.133,0.000
1709299182.604,-17.578,-28.809,-35.156,-15.137,0.000
1709299182.608,-20.020,-26.367,-35.156,-12.207,0.000
1709299182.612,-27.832,-35.156,-37.598,-33.203,0.000
1709299182.616,-30.273,-39.551,-30.762,-37.598,0.000
1709299182.620,-31.738,-37.109,-34.180,-35.156,0.000
1709299182.624,-26.855,-37.109,-37.109,-25.879,0.000
1709299182.628,-20.996,-40.039,-28.809,-14.648,0.000
1709299182.632,-27.344,-41.504,-27.344,-18.066,0.000
1709299182.636,-49.316,-37.598,-36.133,-27.344,0.000
1709299182.640,-54.688,-40.039,-36.621,-25.879,0.000
1709299182.644,-45.410,-43.457,-24.414,-14.648,0.000
1709299182.647,-53.711,-39.551,-29.297,-20.020,0.000
1709299182.651,-69.336,-42.969,-37.109,-31.250,0.000
1709299182.655,-80.566,-45.898,-28.809,-41.016,0.000
1709299182.659,-83.008,-39.551,-23.438,-41.016,0.000
1709299182.663,-75.195,-45.410,-29.785,-37.598,0.000
1709299182.667,-74.707,-50.781,-24.902,-34.668,0.000
1709299182.671,-78.613,-37.598,-16.602,-44.434,0.000
1709299182.675,-84.961,-37.109,-24.414,-62.988,0.000
1709299182.679,-83.496,-41.504,-28.320,-66.895,0.000
1709299182.683,-67.383,-34.668,-26.855,-51.270,0.000
1709299182.686,-56.152,-36.133,-28.809,-39.551,0.000
1709299182.690,-62.012,-33.203,-37.109,-55.176,0.000
1709299182.694,-64.941,-27.344,-41.016,-60.059,0.000
1709299182.698,-56.641,-26.367,-39.551,-58.594,0.000
1709299182.702,-40.527,-32.227,-38.574,-49.805,0.000
1709299182.706,-27.344,-38.086,-36.133,-38.574,0.000
1709299182.710,-22.461,-38.086,-38.574,-36.621,0.000
1709299182.714,-29.785,-32.227,-41.992,-44.922,0.000
1709299182.718,-34.180,-32.227,-35.156,-56.641,0.000
1709299182.722,-17.578,-32.715,-30.762,-41.016,0.000
1709299182.726,-9.766,-27.832,-32.715,-29.297,0.000
1709299182.729,-21.484,-32.227,-32.227,-42.969,0.000
1709299182.733,-40.527,-37.109,-39.062,-56.641,0.000
1709299182.737,-48.340,-41.016,-34.180,-52.246,0.000
1709299182.741,-39.551,-45.898,-31.250,-29.785,0.000
1709299182.745,-35.645,-41.992,-38.086,-20.996,0.000
1709299182.749,-40.039,-39.551,-33.203,-26.855,0.000
1709299182.753,-54.688,-45.410,-32.715,-37.598,0.000
1709299182.757,-66.895,-44.434,-33.691,-46.875,0.000
1709299182.761,-67.871,-36.133,-29.297,-44.922,0.000
1709299182.765,-60.547,-30.762,-26.855,-26.367,0.000
1709299182.768,-57.617,-36.621,-30.273,-23.438,0.000
1709299182.772,-70.801,-41.504,-28.320,-44.922,0.000
1709299182.776,-83.496,-38.574,-26.855,-61.523,0.000
1709299182.780,-81.543,-36.133,-32.227,-56.152,0.000
1709299182.784,-62.988,-36.133,-32.227,-30.273,0.000
1709299182.788,-57.617,-35.156,-27.344,-29.297,0.000
1709299182.792,-65.430,-31.250,-29.785,-56.641,0.000
1709299182.796,-63.477,-39.551,-33.691,-62.500,0.000
1709299182.800,-56.152,-41.016,-28.320,-50.293,0.000
1709299182.804,-46.875,-25.879,-32.715,-45.898,0.000
1709299182.807,-36.133,-30.762,-47.852,-45.410,0.000
1709299182.811,-40.039,-37.598,-41.504,-52.246,0.000
1709299182.815,-46.875,-34.180,-39.062,-64.453,0.000
1709299182.819,-41.016,-32.227,-41.992,-63.965,0.000
1709299182.823,-33.203,-32.715,-35.156,-53.223,0.000
1709299182.827,-37.598,-40.039,-42.480,-57.129,0.000
1709299182.831,-48.340,-44.922,-45.410,-61.523,0.000
1709299182.835,-56.641,-41.504,-39.062,-74.219,0.000
1709299182.839,-53.711,-44.922,-37.598,-78.613,0.000
1709299182.843,-40.527,-41.504,-42.480,-61.035,0.000
1709299182.846,-32.227,-34.180,-39.551,-45.898,0.000
1709299182.850,-38.574,-32.715,-34.180,-44.922,0.000
1709299182.854,-44.922,-40.527,-32.227,-55.176,0.000
1709299182.858,-38.574,-39.551,-26.367,-43.457,0.000
1709299182.862,-27.832,-34.180,-43.457,-27.344,0.000
1709299182.866,-15.625,-39.062,-47.363,-25.879,0.000
1709299182.870,-16.602,-41.016,-33.691,-25.391,0.000
1709299182.874,-28.320,-34.668,-32.227,-24.414,0.000
1709299182.878,-30.273,-40.527,-30.762,-24.902,0.000
1709299182.882,-20.020,-36.621,-31.738,-19.531,0.000
1709299182.885,-17.090,-28.809,-34.668,-18.555,0.000
1709299182.889,-21.484,-35.645,-32.715,-28.320,0.000
1709299182.893,-32.227,-43.457,-32.715,-43.457,0.000
1709299182.897,-39.551,-40.039,-35.645,-45.898,0.000
1709299182.901,-40.039,-34.668,-42.969,-38.574,0.000
1709299182.905,-37.109,-30.762,-40.527,-36.133,0.000
1709299182.909,-30.762,-26.367,-37.109,-42.480,0.000
1709299182.913,-40.527,-33.691,-37.598,-57.617,0.000
1709299182.917,-49.805,-41.504,-36.621,-53.711,0.000
1709299182.920,-42.969,-48.828,-37.598,-33.203,0.000
1709299182.924,-30.762,-40.527,-36.621,-31.250,0.000
1709299182.928,-33.203,-37.109,-45.898,-35.645,0.000
1709299182.932,-47.852,-45.410,-55.664,-48.828,0.000
1709299182.936,-51.270,-44.434,-43.945,-57.617,0.000
1709299182.940,-47.852,-43.945,-39.062,-51.270,0.000
1709299182.944,-36.133,-45.898,-42.969,-40.527,0.000
1709299182.948,-29.297,-41.504,-34.668,-35.156,0.000
1709299182.952,-35.645,-37.598,-29.785,-38.086,0.000
1709299182.956,-41.992,-42.480,-25.391,-38.574,0.000
1709299182.960,-44.922,-47.363,-31.738,-38.574,0.000
1709299182.963,-39.062,-43.945,-33.203,-23.926,0.000
1709299182.967,-38.574,-41.992,-33.691,-20.996,0.000
1709299182.971,-48.828,-36.133,-39.062,-35.645,0.000
1709299182.975,-51.758,-35.156,-38.086,-43.945,0.000
1709299182.979,-45.898,-41.504,-32.227,-33.691,0.000
1709299182.983,-35.156,-41.504,-31.250,-15.625,0.000
1709299182.987,-29.785,-41.016,-36.621,-13.184,0.000
1709299182.991,-32.227,-44.922,-36.133,-25.879,0.000
1709299182.995,-41.504,-47.852,-32.715,-36.133,0.000
1709299182.999,-43.945,-40.039,-32.715,-33.203,0.000
1709299183.003,-31.738,-26.855,-34.668,-23.438,0.000
1709299183.006,-25.391,-33.203,-35.645,-19.043,0.000
1709299183.010,-34.180,-45.410,-38.086,-24.902,0.000
1709299183.014,-40.527,-31.250,-29.785,-39.062,0.000
1709299183.018,-41.992,-26.855,-23.438,-41.992,0.000
1709299183.022,-37.109,-36.621,-30.762,-27.832,0.000
1709299183.026,-32.715,-38.086,-35.156,-22.461,0.000
1709299183.030,-36.621,-44.922,-35.645,-38.086,0.000
1709299183.034,-47.852,-51.270,-39.551,-50.781,0.000
1709299183.038,-49.805,-46.875,-35.156,-40.527,0.000
1709299183.042,-36.133,-39.551,-26.367,-20.996,0.000
1709299183.046,-23.926,-41.016,-29.785,-23.438,0.000
1709299183.049,-27.344,-48.340,-37.109,-37.598,0.000
1709299183.053,-41.016,-41.016,-44.434,-47.363,0.000
1709299183.057,-47.363,-35.156,-40.527,-52.246,0.000
1709299183.061,-39.062,-31.250,-40.527,-38.574,0.000
1709299183.065,-24.902,-26.855,-41.016,-30.273,0.000
1709299183.069,-25.879,-29.785,-38.574,-31.738,0.000
1709299183.073,-41.016,-41.992,-34.180,-35.156,0.000
1709299183.077,-55.664,-47.852,-31.738,-44.922,0.000
1709299183.081,-48.828,-41.016,-39.062,-34.668,0.000
1709299183.085,-31.250,-31.738,-37.598,-25.879,0.000
1709299183.088,-34.180,-29.297,-32.715,-36.133,0.000
1709299183.092,-47.363,-33.691,-34.180,-46.875,0.000
1709299183.096,-57.617,-38.574,-29.297,-54.688,0.000
1709299183.100,-56.152,-36.621,-25.879,-46.875,0.000
1709299183.104,-43.457,-39.062,-27.344,-31.250,0.000
1709299183.108,-39.062,-44.434,-28.320,-29.785,0.000
1709299183.112,-44.922,-41.016,-25.879,-29.785,0.000
1709299183.116,-52.734,-42.480,-27.344,-28.809,0.000
1709299183.120,-43.945,-41.992,-25.391,-29.785,0.000
1709299183.124,-26.855,-41.016,-23.438,-18.555,0.000
1709299183.128,-30.762,-36.133,-37.598,-17.578,0.000
1709299183.131,-45.898,-37.109,-45.898,-36.133,0.000
1709299183.135,-49.316,-33.203,-40.527,-49.316,0.000
1709299183.139,-40.039,-24.414,-45.410,-38.574,0.000
1709299183.143,-29.785,-27.832,-49.805,-25.391,0.000
1709299183.147,-27.832,-30.273,-49.805,-30.762,0.000
1709299183.151,-36.133,-34.180,-42.969,-40.039,0.000
1709299183.155,-48.828,-37.598,-39.062,-48.340,0.000
1709299183.159,-46.387,-41.992,-38.086,-44.434,0.000
1709299183.163,-33.203,-39.551,-35.645,-28.809,0.000
1709299183.167,-22.949,-35.645,-39.062,-18.066,0.000
1709299183.170,-28.809,-45.898,-42.969,-21.484,0.000
1709299183.174,-50.293,-52.734,-40.039,-21.973,0.000
1709299183.178,-55.664,-41.504,-34.180,-19.043,0.000
1709299183.182,-47.852,-37.598,-34.180,-22.461,0.000
1709299183.186,-39.062,-37.109,-36.621,-21.484,0.000
1709299183.190,-45.898,-38.574,-38.086,-33.691,0.000
1709299183.194,-51.758,-36.621,-38.086,-51.270,0.000
1709299183.198,-41.016,-29.785,-35.645,-52.246,0.000
1709299183.202,-30.273,-32.715,-38.574,-40.039,0.000
1709299183.206,-26.855,-38.574,-42.480,-22.461,0.000
1709299183.209,-33.203,-39.551,-37.109,-27.344,0.000
1709299183.213,-44.434,-37.598,-40.039,-49.316,0.000
1709299183.217,-46.875,-38.574,-42.480,-54.199,0.000
1709299183.221,-36.133,-44.434,-37.109,-39.062,0.000
1709299183.225,-20.996,-41.016,-38.086,-31.250,0.000
1709299183.229,-20.508,-37.109,-38.574,-39.551,0.000
1709299183.233,-31.250,-37.109,-36.133,-47.852,0.000
1709299183.237,-39.551,-36.621,-36.621,-49.316,0.000
1709299183.241,-30.273,-41.504,-30.762,-38.574,0.000
1709299183.245,-22.461,-42.480,-38.086,-34.668,0.000
1709299183.248,-24.902,-36.133,-44.434,-33.691,0.000
1709299183.252,-37.598,-42.480,-41.504,-39.551,0.000
1709299183.256,-41.016,-39.551,-45.898,-46.875,0.000
1709299183.260,-25.391,-25.391,-38.086,-34.668,0.000
1709299183.264,-14.648,-32.227,-28.320,-21.973,0.000
1709299183.268,-16.113,-29.297,-33.203,-16.602,0.000
1709299183.272,-35.156,-20.508,-37.109,-23.438,0.000
1709299183.276,-51.758,-27.344,-32.227,-37.598,0.000
1709299183.280,-38.574,-26.367,-32.715,-27.832,0.000
1709299183.283,-24.414,-19.043,-41.992,-19.043,0.000
1709299183.287,-32.227,-23.926,-41.992,-28.809,0.000
1709299183.291,-46.387,-33.203,-39.062,-40.527,0.000
1709299183.295,-55.176,-32.227,-42.480,-43.945,0.000
1709299183.299,-46.387,-35.156,-41.992,-42.480,0.000
1709299183.303,-29.785,-41.504,-29.785,-29.297,0.000
1709299183.307,-24.902,-33.691,-32.227,-17.578,0.000
1709299183.311,-30.762,-30.762,-39.551,-28.809,0.000
1709299183.315,-44.922,-43.945,-37.109,-42.480,0.000
1709299183.319,-45.898,-36.133,0.000,-39.062,0.000
1709299183.323,-29.297,-31.250,0.000,-25.879,0.000
1709299183.327,-26.855,-44.434,0.000,-20.996,0.000
1709299183.330,-34.180,-47.363,0.000,-29.297,0.000
1709299183.334,-43.945,-44.434,0.000,-40.527,0.000
1709299183.338,-43.457,-51.758,0.000,-35.645,0.000
1709299183.342,-37.109,-46.875,0.000,-27.832,0.000
1709299183.346,-37.109,-33.203,0.000,-23.926,0.000
1709299183.350,-41.504,-36.133,0.000,-26.855,0.000
1709299183.354,-51.758,-44.922,0.000,-36.621,0.000
1709299183.358,-53.711,-36.621,0.000,-38.574,0.000
1709299183.362,-44.922,-31.250,0.000,-34.180,0.000
1709299183.366,-36.621,-42.480,-40.527,-30.273,0.000
1709299183.369,-40.039,-42.969,-40.039,-37.598,0.000
1709299183.373,-55.664,-38.086,-40.527,-50.293,0.000
1709299183.377,-62.988,-41.992,-34.180,-49.316,0.000
1709299183.381,-54.688,-50.293,-34.668,-38.086,0.000
1709299183.385,-40.527,-45.410,-40.039,-31.250,0.000
1709299183.389,-42.480,-35.645,-37.598,-38.086,0.000
1709299183.393,-53.711,-32.227,-34.180,-49.805,0.000
1709299183.397,-62.988,-31.738,-35.645,-50.781,0.000
1709299183.401,-53.711,-41.992,-41.504,-37.598,0.000
1709299183.405,-38.574,-37.598,-40.527,-33.691,0.000
1709299183.409,-42.480,-25.391,-40.527,-42.480,0.000
1709299183.412,-52.246,-29.297,-49.805,-50.781,0.000
1709299183.416,-58.594,-32.227,-48.340,-53.711,0.000
1709299183.420,-53.223,-35.156,-39.551,-46.875,0.000
1709299183.424,-41.016,-47.363,-37.109,-34.180,0.000
1709299183.428,-32.715,-46.387,-38.086,-36.133,0.000
1709299183.432,-38.086,-38.086,-31.738,-54.199,0.000
1709299183.436,-41.016,-41.016,-23.926,-57.617,0.000
1709299183.440,-33.203,-39.062,-28.809,-41.016,0.000
1709299183.444,-24.902,-41.992,-35.645,-24.902,0.000
1709299183.448,-25.391,-45.898,-35.156,-20.508,0.000
1709299183.452,-26.855,-36.621,-32.715,-29.785,0.000
1709299183.455,-31.250,-29.297,-31.738,-40.039,0.000
1709299183.459,-27.344,-33.203,-29.297,-32.227,0.000
1709299183.463,-10.254,-44.434,-26.855,-19.043,0.000
1709299183.467,-2.930,-47.852,-28.809,-16.602,0.000
1709299183.471,-10.742,-39.551,-37.598,-25.391,0.000
1709299183.475,-20.508,-30.762,-43.457,-41.016,0.000
1709299183.479,-18.555,-31.250,-38.086,-33.203,0.000
1709299183.483,-7.324,-34.180,-37.598,-22.461,0.000
1709299183.487,-3.906,-41.504,-45.898,-20.996,0.000
1709299183.491,-19.043,-42.969,-45.898,-26.367,0.000
1709299183.494,-35.156,-40.527,-45.410,-49.316,0.000
1709299183.498,-40.527,-39.062,-47.363,-48.340,0.000
1709299183.502,-32.227,-36.621,-49.316,-37.598,0.000
1709299183.506,-20.508,-37.598,0.000,-35.156,0.000
1709299183.510,-28.320,-42.969,0.000,-42.969,0.000
1709299183.514,-43.945,-35.156,0.000,-56.152,0.000
1709299183.518,-48.340,-27.832,0.000,-53.223,0.000
1709299183.522,-42.969,-35.645,0.000,-38.086,0.000
1709299183.526,-41.504,-48.340,0.000,-33.203,0.000
1709299183.530,-47.363,-42.969,0.000,-40.039,0.000
1709299183.534,-55.664,-35.156,0.000,-45.410,0.000
1709299183.537,-59.570,-40.039,0.000,-50.293,0.000
1709299183.541,-47.852,-46.387,0.000,-37.109,0.000
1709299183.545,-31.250,-39.062,0.000,-20.508,0.000
1709299183.549,-33.691,-42.480,0.000,-27.832,0.000
1709299183.553,-43.945,-55.176,-39.551,-37.109,0.000
1709299183.557,-41.016,-49.316,-22.949,-31.738,0.000
1709299183.561,-29.297,-41.992,-20.020,-17.578,0.000
1709299183.565,-21.484,-41.992,-23.926,-7.324,0.000
1709299183.569,-15.137,-35.156,-27.344,-13.184,0.000
1709299183.573,-18.066,-31.250,-33.691,-28.320,0.000
1709299183.576,-20.508,-32.715,-36.621,-29.785,0.000
1709299183.580,-15.137,-37.598,-33.691,-17.090,0.000
1709299183.584,-6.836,-35.156,-35.645,-14.648,0.000
1709299183.588,-2.441,-27.832,-30.762,-19.531,0.000
1709299183.592,-9.277,-28.320,-28.320,-27.832,0.000
1709299183.596,-13.672,-29.297,-30.762,-31.738,0.000
1709299183.600,-15.137,-35.645,-30.273,-24.902,0.000
1709299183.604,-12.695,-33.691,-36.621,-22.949,0.000
1709299183.608,-12.207,-28.809,-41.504,-29.785,0.000
1709299183.611,-30.273,-32.715,-40.039,-39.062,0.000
1709299183.615,-47.852,-34.180,-35.156,-53.711,0.000
1709299183.619,-46.387,-32.715,-37.598,-57.129,0.000
1709299183.623,-39.062,-35.156,-39.551,-38.574,0.000
1709299183.627,-39.062,-43.457,-36.621,-36.133,0.000
1709299183.631,-49.805,-36.621,-31.250,-56.152,0.000
1709299183.635,-69.824,-39.551,-35.645,-71.289,0.000
1709299183.639,-71.289,-53.223,-36.133,-62.988,0.000
1709299183.643,-61.523,-54.199,-31.250,-50.781,0.000
1709299183.647,-61.035,-46.875,-32.227,-50.781,0.000
1709299183.650,-59.082,-42.480,-28.809,-48.828,0.000
1709299183.654,-66.406,-43.457,-25.879,-55.664,0.000
1709299183.658,-67.383,-42.480,-30.762,-62.012,0.000
1709299183.662,-54.199,-38.574,-33.203,-49.805,0.000
1709299183.666,-41.016,-34.668,-23.926,-31.250,0.000
1709299183.670,-31.250,-27.832,-19.043,-21.484,0.000
1709299183.674,-40.039,-32.715,-23.926,-37.598,0.000
1709299183.678,-44.434,-49.316,-31.738,-43.945,0.000
1709299183.682,-34.668,-44.922,-36.133,-32.227,0.000
1709299183.686,-26.367,-27.832,-32.715,-23.926,0.000
1709299183.689,-26.855,-25.391,-33.203,-30.273,0.000
1709299183.693,-36.621,-23.926,-41.016,-41.504,0.000
1709299183.697,-32.715,-28.809,-31.738,-35.156,0.000
1709299183.701,-26.367,-37.109,-31.738,-27.344,0.000
1709299183.705,-22.949,-24.902,-35.156,-18.066,0.000
1709299183.709,-20.508,-16.602,-32.227,-18.066,0.000
1709299183.713,-37.109,-28.809,-37.109,-34.668,0.000
1709299183.717,-47.363,-36.133,-41.016,-37.109,0.000
1709299183.721,-36.621,-43.457,-41.016,-25.879,0.000
1709299183.725,-30.273,-34.668,-36.133,-24.902,0.000
1709299183.729,-34.668,-22.949,-39.551,-25.879,0.000
1709299183.733,-40.527,-26.367,-37.598,-32.715,0.000
1709299183.736,-47.363,-27.344,-34.180,-47.363,0.000
1709299183.740,-47.363,-32.715,-38.086,-43.457,0.000
1709299183.744,-38.574,-43.945,-41.504,-40.039,0.000
1709299183.748,-38.086,-38.086,-38.574,-50.293,0.000
1709299183.752,-50.781,-36.621,-29.297,-63.477,0.000
1709299183.756,-67.871,-48.828,-46.875,-77.148,0.000
1709299183.760,-64.941,-52.246,-48.828,-68.848,0.000
1709299183.764,-46.387,-51.270,-37.109,-46.875,0.000
1709299183.768,-46.875,-58.105,-39.062,-41.504,0.000
1709299183.772,-60.547,-52.246,-36.133,-51.270,0.000
1709299183.776,-58.594,-41.504,-36.621,-48.340,0.000
1709299183.779,-44.434,-37.109,-39.551,-46.387,0.000
1709299183.783,-26.367,-32.715,-33.691,-32.715,0.000
1709299183.787,-14.160,-33.691,-33.203,-20.020,0.000
1709299183.791,-24.414,-39.062,-35.645,-22.949,0.000
1709299183.795,-31.250,-51.758,-38.574,-23.926,0.000
1709299183.799,-33.691,-50.293,-39.551,-25.391,0.000
1709299183.803,-26.367,-37.598,-30.273,-14.648,0.000
1709299183.807,-20.020,-40.039,-26.367,-8.789,0.000
1709299183.811,-25.391,-41.016,-25.879,-20.508,0.000
1709299183.815,-41.504,-40.527,-27.832,-37.109,0.000
1709299183.819,-48.340,-42.969,-34.180,-42.480,0.000
1709299183.822,-36.621,-34.668,-37.109,-37.598,0.000
1709299183.826,-33.203,-35.156,-46.875,-34.668,0.000
1709299183.830,-36.621,-45.410,-44.434,-35.645,0.000
1709299183.834,-43.457,-55.176,-38.574,-45.898,0.000
1709299183.838,-53.223,-54.199,-42.480,-46.875,0.000
1709299183.842,-42.480,-45.898,-35.156,-37.109,0.000
1709299183.846,-30.762,-44.434,-31.738,-33.691,0.000
1709299183.850,-38.086,-39.551,-33.203,-40.527,0.000
1709299183.854,-48.340,-43.457,-29.785,-48.828,0.000
1709299183.858,-51.270,-53.711,-35.645,-57.617,0.000
1709299183.861,-47.363,-43.945,-47.363,-48.340,0.000
1709299183.865,-33.203,-29.785,-31.738,-26.367,0.000
1709299183.869,-31.738,-32.715,-24.902,-40.527,0.000
1709299183.873,-42.480,-39.551,-28.809,-55.176,0.000
1709299183.877,-50.293,-41.992,-24.414,-45.898,0.000
1709299183.881,-45.898,-42.969,-41.016,-35.645,0.000
1709299183.885,-33.691,-40.527,-43.457,-24.414,0.000
1709299183.889,-36.621,-41.016,-38.574,-26.367,0.000
1709299183.893,-51.758,-42.480,-45.898,-43.457,0.000
1709299183.897,-59.082,-42.969,-40.039,-48.828,0.000
1709299183.900,-50.781,-47.852,-32.227,-32.715,0.000
1709299183.904,-37.109,-41.504,-28.809,-20.020,0.000
1709299183.908,-35.645,-38.086,-33.203,-22.949,0.000
1709299183.912,-50.781,-41.992,-34.668,-40.039,0.000
1709299183.916,-59.082,-36.133,-33.203,-54.199,0.000
1709299183.920,-51.270,-34.180,-37.598,-43.945,0.000
1709299183.924,-35.645,-36.133,-35.156,-27.344,0.000
1709299183.928,-32.715,-34.180,-32.227,-30.273,0.000
1709299183.932,-43.945,-37.109,-30.762,-42.969,0.000
1709299183.936,-56.641,-40.527,-32.227,-55.664,0.000
1709299183.939,-55.664,-38.574,-33.203,-52.734,0.000
1709299183.943,-35.645,-42.969,-24.414,-30.762,0.000
1709299183.947,-33.203,-45.898,-34.180,-33.691,0.000
1709299183.951,-42.969,-41.016,-43.945,-43.945,0.000
1709299183.955,-52.246,-37.598,-32.715,-40.039,0.000
1709299183.959,-54.199,-41.504,-32.715,-43.457,0.000
1709299183.963,-40.527,-42.969,-33.691,-35.156,0.000
1709299183.967,-31.250,-45.898,-32.715,-31.738,0.000
1709299183.971,-41.016,-42.969,-35.156,-46.387,0.000
1709299183.975,-49.316,-38.574,-33.691,-57.617,0.000
1709299183.978,-41.016,-36.621,-35.645,-47.852,0.000
1709299183.982,-29.297,-34.180,-36.133,-24.902,0.000
1709299183.986,-22.949,-36.621,-38.086,-21.973,0.000
1709299183.990,-21.973,-30.273,-35.156,-28.809,0.000
1709299183.994,-35.645,-28.809,-32.227,-39.062,0.000
1709299183.998,-33.691,-38.574,-31.738,-30.273,0.000
1709299184.002,-19.043,-38.574,-30.273,-13.672,0.000
1709299184.006,-9.277,-32.227,-28.320,-10.742,0.000
1709299184.010,-12.207,-25.391,-27.344,-15.137,0.000
1709299184.014,-29.297,-24.414,-27.344,-38.086,0.000
1709299184.018,-42.480,-27.832,-33.203,-49.316,0.000
1709299184.021,-37.598,-23.438,-43.457,-41.504,0.000
1709299184.025,-37.109,-27.832,-46.875,-43.945,0.000
1709299184.029,-46.387,-44.922,-37.598,-47.363,0.000
1709299184.033,-53.711,-44.922,-33.691,-54.688,0.000
1709299184.037,-60.059,-40.527,-33.691,-64.941,0.000
1709299184.041,-53.223,-47.852,-38.086,-57.129,0.000
1709299184.045,-38.086,-42.969,-41.992,-38.086,0.000
1709299184.049,-39.551,-34.668,-39.551,-43.945,0.000
1709299184.053,-52.734,-33.691,-39.551,-55.664,0.000
1709299184.056,-54.688,-32.227,-36.621,-50.781,0.000
1709299184.060,-40.039,-33.691,-34.180,-37.109,0.000
1709299184.064,-30.762,-37.109,-33.691,-31.738,0.000
1709299184.068,-30.273,-35.645,-34.180,-34.180,0.000
1709299184.072,-36.133,-37.598,-39.551,-40.039,0.000
1709299184.076,-45.898,-36.133,-40.039,-46.875,0.000
1709299184.080,-37.109,-28.809,-39.062,-35.645,0.000
1709299184.084,-24.414,-29.785,-38.086,-23.438,0.000
1709299184.088,-23.926,-35.156,-33.203,-19.531,0.000
1709299184.091,-30.273,-39.551,-34.180,-25.391,0.000
1709299184.095,-34.668,-26.367,-30.273,-28.320,0.000
1709299184.099,-34.180,-25.391,-31.250,-22.949,0.000
1709299184.103,-25.879,-38.086,-33.691,-18.066,0.000
1709299184.107,-27.344,-43.945,-34.180,-22.949,0.000
1709299184.111,-41.504,-41.992,-33.691,-39.551,0.000
1709299184.115,-50.781,-35.645,-35.645,-45.410,0.000
1709299184.119,-42.969,-36.621,-40.039,-34.180,0.000
1709299184.123,-27.832,-41.504,-38.574,-29.785,0.000
1709299184.127,-24.902,-40.039,-34.180,-27.344,0.000
1709299184.131,-39.062,-32.227,-25.391,-32.227,0.000
1709299184.134,-53.711,-38.086,-30.273,-45.898,0.000
1709299184.138,-51.270,-35.156,-36.133,-41.504,0.000
1709299184.142,-41.992,-29.785,-36.621,-34.180,0.000
1709299184.146,-33.691,-33.203,-33.203,-27.832,0.000
1709299184.150,-40.527,-34.180,-33.691,-31.738,0.000
1709299184.154,-47.852,-38.574,-37.109,-41.992,0.000
1709299184.158,-49.805,-37.598,-41.016,-43.945,0.000
1709299184.162,0.000,-34.668,-43.457,-39.551,0.000
1709299184.166,0.000,-42.480,-43.457,-32.227,0.000
1709299184.170,0.000,-41.016,-43.457,-37.598,0.000
1709299184.174,0.000,-33.691,-42.969,-47.363,0.000
1709299184.177,0.000,-36.133,-44.434,-42.969,0.000
1709299184.181,0.000,-36.133,-42.480,-32.227,0.000
1709299184.185,0.000,-38.086,-33.203,-23.926,0.000
1709299184.189,0.000,-42.480,-24.902,-27.344,0.000
1709299184.193,0.000,-38.086,-28.320,-37.598,0.000
1709299184.197,0.000,-34.180,-36.621,-44.922,0.000
1709299184.201,0.000,-32.715,-36.133,-34.668,0.000
1709299184.205,0.000,-34.180,-36.621,-25.879,0.000
1709299184.209,-29.297,-31.738,-38.086,-28.809,0.000
1709299184.213,-41.992,-35.156,-36.133,-42.969,0.000
1709299184.217,-55.176,-37.109,-28.809,-52.734,0.000
1709299184.220,-45.898,-37.109,-32.227,-39.062,0.000
1709299184.224,-35.156,-44.922,-38.574,-30.273,0.000
1709299184.228,-35.156,-42.969,-33.203,-39.551,0.000
1709299184.232,-43.945,-38.574,-31.250,-49.805,0.000
1709299184.236,-50.293,-38.086,-28.809,-51.270,0.000
1709299184.240,-39.551,-43.945,-29.785,-36.621,0.000
1709299184.244,-29.785,-42.969,-35.156,-32.715,0.000
1709299184.248,-25.879,-38.574,-34.180,-35.156,0.000
1709299184.252,-28.809,-37.109,-29.785,-39.062,0.000
1709299184.256,-39.551,-42.480,-35.156,-52.246,0.000
1709299184.259,-33.691,-43.457,-39.551,-42.480,0.000
1709299184.263,-20.020,-40.039,-40.527,-25.879,0.000
1709299184.267,-18.555,-33.203,-33.203,-28.320,0.000
1709299184.271,-26.367,-30.762,-31.250,-40.527,0.000
1709299184.275,-39.062,-37.598,-36.621,-52.734,0.000
1709299184.279,-44.922,-44.434,-42.480,-57.617,0.000
1709299184.283,-36.133,-44.434,-49.316,-38.574,0.000
1709299184.287,-28.809,-36.621,-47.852,-29.785,0.000
1709299184.291,-35.156,-29.297,-36.133,-48.828,0.000
1709299184.295,-41.016,-31.738,-34.180,-55.664,0.000
1709299184.299,-40.527,-36.621,-34.180,-46.387,0.000
1709299184.303,-35.156,-33.203,-34.180,-35.645,0.000
1709299184.306,-33.203,-38.086,-39.551,-32.715,0.000
1709299184.310,-36.133,-44.922,-40.527,-35.645,0.000
1709299184.314,-43.945,-35.156,-38.086,-49.805,0.000
1709299184.318,-44.922,-32.227,-39.062,-48.828,0.000
1709299184.322,-26.855,-33.691,-31.738,-24.414,0.000
1709299184.326,-21.484,-27.344,-31.250,-18.066,0.000
1709299184.330,-41.504,-26.855,-38.086,-30.762,0.000
1709299184.334,-58.105,-26.855,-39.062,-45.898,0.000
1709299184.338,-63.965,-32.227,-33.203,-46.875,0.000
1709299184.342,-51.758,-39.551,-26.367,-36.133,0.000
1709299184.346,-31.250,-34.668,-32.715,-27.344,0.000
1709299184.350,-33.691,-37.109,-32.715,-32.227,0.000
1709299184.353,-48.340,-45.410,-27.344,-48.828,0.000
1709299184.357,-42.480,-42.480,-34.180,-46.387,0.000
1709299184.361,-30.273,-39.551,-43.457,-30.762,0.000
1709299184.365,-27.344,-42.969,-41.016,-25.391,0.000
1709299184.369,-20.508,-35.645,-29.297,-21.973,0.000
1709299184.373,-28.320,-32.715,-30.273,-36.133,0.000
1709299184.377,-38.086,-38.086,-34.668,-51.270,0.000
1709299184.381,-37.109,-41.504,-32.715,-45.898,0.000
1709299184.385,-31.250,-38.574,-29.785,-34.180,0.000
1709299184.389,-32.715,-37.109,-30.273,-25.391,0.000
1709299184.393,-41.504,-46.387,-36.133,-35.645,0.000
1709299184.396,-41.992,-41.016,-36.621,-47.852,0.000
1709299184.400,-35.645,-37.598,-29.785,-38.086,0.000
1709299184.404,-24.414,-44.922,-32.227,-19.043,0.000
1709299184.408,-24.902,-42.969,-30.273,-19.531,0.000
1709299184.412,-29.785,-34.668,-32.227,-33.203,0.000
1709299184.416,-32.715,-33.691,-36.621,-39.551,0.000
1709299184.420,-36.621,-40.039,-27.344,-34.668,0.000
1709299184.424,-28.320,-39.551,-23.926,-26.855,0.000
1709299184.428,-25.391,-35.645,-30.762,-32.715,0.000
1709299184.431,-39.062,-36.621,-29.297,-45.898,0.000
1709299184.435,-53.223,-38.086,-27.832,-48.340,0.000
1709299184.439,-55.664,-32.715,-32.227,-43.945,0.000
1709299184.443,-45.898,-35.156,-33.691,-31.250,0.000
1709299184.447,-43.945,-36.133,-32.227,-27.832,0.000
1709299184.451,-44.434,-40.527,-35.156,-37.109,0.000
1709299184.455,-45.898,-39.551,-37.598,-41.016,0.000
1709299184.459,-42.969,-32.715,-34.668,-36.621,0.000
1709299184.463,-30.273,-38.574,-32.227,-26.367,0.000
1709299184.466,-30.762,-44.434,-37.598,-28.809,0.000
1709299184.470,-47.852,-46.875,-48.828,-48.828,0.000
1709299184.474,-61.523,-44.434,-41.504,-55.176,0.000
1709299184.478,-59.570,-46.875,-34.180,-42.969,0.000
1709299184.482,-47.363,-41.504,-37.109,-33.203,0.000
1709299184.486,-41.016,-32.715,-37.598,-35.156,0.000
1709299184.490,-42.480,-38.574,-32.715,-38.086,0.000
1709299184.494,-50.781,-40.039,-37.109,-45.410,0.000
1709299184.498,-58.594,-39.062,-44.922,-49.316,0.000
1709299184.502,-50.293,-43.457,-34.668,-42.969,0.000
1709299184.506,-35.645,-49.316,-28.320,-29.785,0.000
1709299184.509,-33.203,-44.434,-38.086,-33.203,0.000
1709299184.513,-44.434,-40.527,-41.992,-52.246,0.000
1709299184.517,-40.039,-36.621,-34.668,-52.246,0.000
1709299184.521,-21.973,-39.551,-30.762,-34.180,0.000
1709299184.525,-15.137,-28.320,-28.809,-20.020,0.000
1709299184.529,-23.926,-20.996,-31.250,-35.156,0.000
1709299184.533,-37.109,-36.621,-33.691,-51.758,0.000
1709299184.537,-41.992,-45.898,-35.645,-53.711,0.000
1709299184.541,-31.738,-44.922,-41.016,-41.016,0.000
1709299184.545,-15.137,-34.180,-36.133,-26.367,0.000
1709299184.549,-18.555,-34.668,-37.598,-33.691,0.000
1709299184.552,-31.738,-39.551,-36.133,-45.410,0.000
1709299184.556,-42.480,-35.156,-31.738,-47.363,0.000
1709299184.560,-42.480,-37.598,-38.086,-41.504,0.000
1709299184.564,-32.715,-38.086,-40.527,-22.461,0.000
1709299184.568,-30.762,-27.832,-31.738,-10.742,0.000
1709299184.572,-46.875,-32.715,-37.109,-29.297,0.000
1709299184.576,-58.594,-46.875,-45.898,-49.805,0.000
1709299184.580,-55.664,-49.316,-35.645,-48.340,0.000
1709299184.584,-47.363,-40.527,-27.344,-43.457,0.000
1709299184.588,-45.410,-35.645,-30.273,-45.898,0.000
1709299184.592,-56.152,-41.504,-34.668,-56.152,0.000
1709299184.596,-63.965,-46.387,-33.203,-61.035,0.000
1709299184.600,-59.570,-47.363,-34.668,-52.246,0.000
1709299184.603,-41.016,-43.945,-35.156,-35.645,0.000
1709299184.607,-33.203,-34.180,-29.297,-31.250,0.000
1709299184.611,-42.969,-30.273,-26.855,-35.645,0.000
1709299184.615,-57.617,-38.086,-28.809,-38.574,0.000
1709299184.619,-62.012,-44.434,-31.738,-43.457,0.000
1709299184.623,-48.828,-46.875,-36.133,-39.062,0.000
1709299184.627,-39.551,-41.992,-36.621,-30.762,0.000
1709299184.631,0.000,-34.180,-27.344,-32.715,0.000
1709299184.635,0.000,-39.551,-28.809,-41.016,0.000
1709299184.639,0.000,-40.527,-31.250,-35.156,0.000
1709299184.642,0.000,-41.992,-29.297,-18.555,0.000
1709299184.646,0.000,-49.805,-34.180,-20.996,0.000
1709299184.650,0.000,-49.316,-31.738,-37.109,0.000
1709299184.654,0.000,-42.480,-29.785,-47.363,0.000
1709299184.658,0.000,-38.086,-33.691,-37.109,0.000
1709299184.662,0.000,-41.504,-34.668,-21.484,0.000
1709299184.666,0.000,-45.410,-31.250,-16.602,0.000
1709299184.670,0.000,-37.109,-31.738,-22.949,0.000
1709299184.674,0.000,-29.297,-31.738,-21.973,0.000
1709299184.678,-35.645,-31.250,-27.832,-22.949,0.000
1709299184.681,-27.832,-30.762,-23.926,-21.484,0.000
1709299184.685,-18.066,-37.109,-29.785,-16.113,0.000
1709299184.689,-23.438,-42.480,-34.668,-31.738,0.000
1709299184.693,-39.551,-35.645,-34.180,-50.293,0.000
1709299184.697,-38.086,-21.973,-28.320,-47.852,0.000
1709299184.701,-25.391,-22.461,-26.855,-31.738,0.000
1709299184.705,-20.508,-33.691,-39.062,-20.508,0.000
1709299184.709,-27.344,-30.273,-47.852,-37.598,0.000
1709299184.713,-39.551,-28.809,-46.387,-59.082,0.000
1709299184.717,-43.457,-31.738,-42.969,-56.641,0.000
1709299184.721,-31.738,-25.391,-36.133,-40.039,0.000
1709299184.724,-23.438,-27.344,-34.668,-27.832,0.000
1709299184.728,-21.484,-36.133,-37.109,-30.762,0.000
1709299184.732,-33.203,-32.715,-35.156,-41.992,0.000
1709299184.736,-43.457,-32.227,-35.156,-56.641,0.000
1709299184.740,-44.434,-32.715,-43.945,-52.734,0.000
1709299184.744,-32.227,-36.133,-44.434,-35.156,0.000
1709299184.748,-29.297,-45.898,-43.457,-36.133,0.000
1709299184.752,-47.363,-39.551,-38.574,-47.852,0.000
1709299184.756,-49.316,-35.645,-31.738,-50.293,0.000
1709299184.760,-43.945,-37.598,-27.832,-41.016,0.000
1709299184.763,-30.273,-30.762,-23.438,-26.367,0.000
1709299184.767,-12.695,-32.715,-18.555,-18.555,0.000
