timestamps,TP9,AF7,AF8,TP10,Right AUX
1709298618.724,-33.691,-35.156,-32.227,-30.762,0.000
1709298618.728,-37.109,-41.992,-35.156,-38.574,0.000
1709298618.732,-33.203,-49.316,-39.551,-29.297,0.000
1709298618.736,-31.250,-49.316,-43.457,-22.949,0.000
1709298618.740,-28.809,-40.527,-48.828,-30.762,0.000
1709298618.744,-27.344,-44.434,-44.434,-41.016,0.000
1709298618.748,-32.715,-42.969,-37.109,-31.250,0.000
1709298618.751,-39.062,-28.320,-41.992,-21.484,0.000
1709298618.755,-29.297,-24.414,-41.504,-21.973,0.000
1709298618.759,-25.879,-32.227,-43.457,-23.438,0.000
1709298618.763,-29.785,-36.621,-45.410,-29.297,0.000
1709298618.767,-35.156,-37.598,-44.922,-34.180,0.000
1709298618.771,-35.156,-46.875,-42.480,-26.367,0.000
1709298618.775,-25.879,-51.270,-40.527,-14.648,0.000
1709298618.779,-28.320,-39.062,-44.922,-20.020,0.000
1709298618.783,-27.832,-33.691,-49.805,-31.250,0.000
1709298618.787,-25.879,-44.434,-46.387,-42.969,0.000
1709298618.790,-26.855,-47.363,-34.668,-29.785,0.000
1709298618.794,-26.855,-39.551,-40.039,-13.672,0.000
1709298618.798,-28.809,-43.457,-46.387,-22.949,0.000
1709298618.802,-26.855,-43.457,-40.527,-31.738,0.000
1709298618.806,-31.250,-41.992,-36.133,-32.227,0.000
1709298618.810,-36.133,-36.621,-42.480,-28.809,0.000
1709298618.814,-27.832,-34.180,-43.457,-18.555,0.000
1709298618.818,0.000,-48.340,-39.062,-4.883,0.000
1709298618.822,0.000,-44.922,-43.945,-16.113,0.000
1709298618.826,0.000,-27.344,-43.945,-34.180,0.000
1709298618.830,0.000,-27.344,-42.969,-30.762,0.000
1709298618.833,0.000,-32.715,-46.387,-24.902,0.000
1709298618.837,0.000,-29.297,-41.504,-24.414,0.000
1709298618.841,0.000,-31.250,-36.133,-32.227,0.000
1709298618.845,0.000,-25.391,-33.203,-39.062,0.000
1709298618.849,0.000,-17.578,-37.598,-37.598,0.000
1709298618.853,0.000,-16.602,-39.551,-24.414,0.000
1709298618.857,0.000,-26.855,-41.504,-23.926,0.000
1709298618.861,0.000,-41.992,-46.387,-40.039,0.000
1709298618.865,-38.086,-39.062,-44.434,-51.758,0.000
1709298618.869,-44.922,-25.879,-38.086,-48.828,0.000
1709298618.873,-48.340,-20.508,-33.203,-35.645,0.000
1709298618.876,-41.016,-25.391,-41.504,-34.180,0.000
1709298618.880,-40.039,-36.133,-45.898,-36.133,0.000
1709298618.884,-44.922,-38.086,-38.086,-39.551,0.000
1709298618.888,-46.875,-27.832,-37.109,-44.434,0.000
1709298618.892,-45.898,-36.621,-44.922,-43.945,0.000
1709298618.896,-47.363,-44.922,-43.457,-29.297,0.000
1709298618.900,-48.340,-47.852,-37.109,-22.949,0.000
1709298618.904,-52.734,-45.898,-42.480,-41.504,0.000
1709298618.908,-52.734,-37.598,-42.969,-42.480,0.000
1709298618.912,-46.387,-34.668,-34.668,-29.785,0.000
1709298618.916,-35.156,-30.762,-41.992,-19.531,0.000
1709298618.919,-29.297,-32.227,-44.922,-18.066,0.000
1709298618.923,-42.480,-44.434,-34.668,-37.598,0.000
1709298618.927,-57.617,-51.758,-40.039,-47.363,0.000
1709298618.931,-59.082,-45.898,-43.457,-37.598,0.000
1709298618.935,-50.781,-46.387,-38.086,-25.879,0.000
1709298618.939,-45.410,-55.664,-39.551,-22.949,0.000
1709298618.943,-51.270,-53.223,-42.480,-25.391,0.000
1709298618.947,-54.199,-35.156,-42.969,-26.367,0.000
1709298618.951,-46.387,-34.180,-45.410,-26.367,0.000
1709298618.955,-42.969,-49.316,-45.410,-19.531,0.000
1709298618.959,-33.203,-52.246,-37.109,-14.648,0.000
1709298618.962,-24.414,-39.062,-33.203,-20.996,0.000
1709298618.966,-31.250,-35.156,-36.621,-34.180,0.000
1709298618.970,-35.156,-41.992,-33.691,-36.133,0.000
1709298618.974,-34.668,-40.527,-33.203,-39.551,0.000
1709298618.978,-29.785,-42.969,-36.133,-37.598,0.000
1709298618.982,-28.320,-37.109,-35.156,-39.062,0.000
1709298618.986,-31.738,-28.809,-39.551,-41.016,0.000
1709298618.990,-31.250,-36.133,-44.922,-31.250,0.000
1709298618.994,-28.809,-35.645,-42.969,-36.133,0.000
1709298618.997,-25.879,-32.715,-40.039,-35.156,0.000
1709298619.001,-25.391,-35.156,-41.016,-37.598,0.000
1709298619.005,-25.879,-32.227,-40.039,-46.387,0.000
1709298619.009,-35.156,-33.203,-40.039,-43.457,0.000
1709298619.013,-37.598,-47.363,-53.711,-39.062,0.000
1709298619.017,-29.297,-51.270,-47.363,-34.180,0.000
1709298619.021,-30.762,-32.715,-33.203,-38.086,0.000
1709298619.025,-51.758,-40.527,-46.875,-60.059,0.000
1709298619.029,-52.246,-48.828,-48.340,-56.152,0.000
1709298619.033,-42.969,-41.016,-38.086,-35.645,0.000
1709298619.037,-43.457,-35.645,-42.969,-31.738,0.000
1709298619.040,-33.203,-30.273,-36.621,-31.738,0.000
1709298619.044,-36.133,-27.832,-33.203,-36.133,0.000
1709298619.048,-43.457,-30.273,-41.992,-40.039,0.000
1709298619.052,-38.086,-31.738,-38.086,-35.156,0.000
1709298619.056,-28.809,-41.992,-37.598,-22.949,0.000
1709298619.060,-25.391,-60.547,-42.480,-20.996,0.000
1709298619.064,-31.250,-52.734,-44.922,-39.551,0.000
1709298619.068,-37.109,-34.668,-45.898,-43.457,0.000
1709298619.072,-31.250,-30.273,-41.504,-31.738,0.000
1709298619.076,-21.484,-35.645,-41.016,-23.438,0.000
1709298619.080,-13.672,-40.039,-44.922,-11.230,0.000
1709298619.083,-20.508,-39.062,-51.758,-18.066,0.000
1709298619.087,-24.414,-38.086,-49.805,-27.832,0.000
1709298619.091,-19.043,-38.086,-33.203,-17.090,0.000
1709298619.095,-17.578,-41.504,-34.180,-12.207,0.000
1709298619.099,-19.043,-44.922,-42.480,-20.996,0.000
1709298619.103,-20.020,-43.945,-41.504,-24.414,0.000
1709298619.107,-27.344,-46.875,-46.875,-37.109,0.000
1709298619.111,-27.832,-43.457,-48.340,-35.156,0.000
1709298619.115,-23.438,-33.691,-56.152,-22.949,0.000
1709298619.119,-25.391,-27.832,-56.152,-23.926,0.000
1709298619.122,-25.391,-19.531,-42.480,-22.461,0.000
1709298619.126,-34.180,-28.320,-46.875,-37.109,0.000
1709298619.130,-44.434,-39.551,-49.316,-44.434,0.000
1709298619.134,-42.480,-35.156,-40.039,-33.203,0.000
1709298619.138,-42.969,-32.227,-43.945,-35.156,0.000
1709298619.142,-42.969,-33.691,-49.805,-41.992,0.000
1709298619.146,-45.410,-32.227,-49.316,-48.340,0.000
1709298619.150,-48.340,-43.945,-46.387,-46.875,0.000
1709298619.154,-41.016,-43.457,-41.016,-36.133,0.000
1709298619.158,-34.180,-33.203,-44.922,-35.645,0.000
1709298619.162,-39.062,-43.457,-54.199,-45.410,0.000
1709298619.165,-44.922,-36.621,-43.945,-42.480,0.000
1709298619.169,-53.711,-33.203,-35.156,-35.156,0.000
1709298619.173,-50.293,-36.621,-35.156,-27.832,0.000
1709298619.177,-36.133,-32.227,-36.621,-19.043,0.000
1709298619.181,-35.156,-31.738,-37.598,-16.602,0.000
1709298619.185,-41.016,-33.691,-34.668,-22.461,0.000
1709298619.189,-41.504,-40.527,-41.016,-30.762,0.000
1709298619.193,-43.457,-49.316,-48.340,-29.785,0.000
1709298619.197,-42.969,-50.781,-43.945,-22.949,0.000
1709298619.201,-34.668,-44.922,-46.387,-24.902,0.000
1709298619.205,-33.203,-41.016,-44.922,-37.109,0.000
1709298619.208,-39.062,-37.598,-47.852,-36.621,0.000
1709298619.212,-39.551,-29.297,-54.199,-26.855,0.000
1709298619.216,-29.297,-25.391,-44.922,-13.672,0.000
1709298619.220,-21.973,-33.691,-41.992,-14.160,0.000
1709298619.224,-22.949,-41.016,-43.945,-27.832,0.000
1709298619.228,-29.297,-41.504,-39.062,-25.879,0.000
1709298619.232,-29.297,-38.574,-37.109,-25.391,0.000
1709298619.236,-32.227,-35.156,-38.086,-21.973,0.000
1709298619.240,-37.109,-26.855,-34.668,-27.832,0.000
1709298619.244,-38.574,-15.625,-32.715,-39.551,0.000
1709298619.247,-45.410,-15.137,-38.574,-41.504,0.000
1709298619.251,-45.898,-19.043,-39.551,-39.551,0.000
1709298619.255,-39.551,-23.926,-39.551,-29.785,0.000
1709298619.259,-33.203,-23.926,-38.574,-22.461,0.000
1709298619.263,-40.039,-18.555,-39.062,-34.180,0.000
1709298619.267,-53.223,-13.184,-42.480,-45.898,0.000
1709298619.271,-49.805,-21.973,-41.016,-35.156,0.000
1709298619.275,-41.016,-31.250,-40.039,-26.367,0.000
1709298619.279,-39.062,-21.973,-39.551,-36.133,0.000
1709298619.283,-39.551,-20.508,-43.457,-41.504,0.000
1709298619.287,-45.410,-19.043,-48.340,-50.781,0.000
1709298619.290,-43.457,-21.484,-46.875,-48.340,0.000
1709298619.294,-28.809,-14.648,-51.758,-27.832,0.000
1709298619.298,-14.648,-15.625,-48.828,-21.973,0.000
1709298619.302,-10.254,-30.273,-45.898,-37.598,0.000
1709298619.306,-17.090,-21.484,-48.340,-41.992,0.000
1709298619.310,-23.926,-15.625,-49.805,-40.527,0.000
1709298619.314,-14.160,-26.855,-48.828,-33.691,0.000
1709298619.318,-6.348,-30.273,-45.410,-22.949,0.000
1709298619.322,-8.789,-20.508,-46.875,-28.809,0.000
1709298619.326,-14.648,-21.973,-50.293,-31.738,0.000
1709298619.329,-20.996,-31.250,-49.316,-27.344,0.000
1709298619.333,0.000,-25.879,-46.875,-22.461,0.000
1709298619.337,0.000,-23.926,-50.781,-17.578,0.000
1709298619.341,0.000,-26.855,-41.992,-18.555,0.000
1709298619.345,0.000,-21.484,-24.902,-20.508,0.000
1709298619.349,0.000,-20.996,-23.438,-16.602,0.000
1709298619.353,0.000,-19.043,-34.180,-14.648,0.000
1709298619.357,0.000,-17.090,-34.668,-12.695,0.000
1709298619.361,0.000,-32.715,-36.133,-14.648,0.000
1709298619.365,0.000,-36.133,-37.109,-27.832,0.000
1709298619.369,0.000,-20.508,-31.738,-27.344,0.000
1709298619.372,0.000,-10.254,-33.203,-15.625,0.000
1709298619.376,0.000,-19.043,-34.180,-13.184,0.000
1709298619.380,-29.785,-19.531,-29.785,-10.742,0.000
1709298619.384,-38.086,-24.414,-26.367,-22.949,0.000
1709298619.388,-44.434,-35.645,-21.973,-29.785,0.000
1709298619.392,-46.875,-31.250,-21.484,-24.414,0.000
1709298619.396,-43.457,-35.156,-20.996,-20.020,0.000
1709298619.400,-39.062,-35.645,-19.531,-18.066,0.000
1709298619.404,-37.109,-39.551,-24.902,-24.902,0.000
1709298619.408,-31.738,-36.621,-29.785,-23.438,0.000
1709298619.411,-26.367,-22.949,-29.785,-20.996,0.000
1709298619.415,-24.414,-15.137,-31.250,-19.531,0.000
1709298619.419,-19.531,-18.555,-33.691,-20.508,0.000
1709298619.423,-19.531,-25.879,-35.156,-29.297,0.000
1709298619.427,-22.461,-25.879,-34.668,-31.738,0.000
1709298619.431,-19.531,-33.203,-30.762,-30.762,0.000
1709298619.435,-11.719,-34.668,-28.320,-20.508,0.000
1709298619.439,-12.695,-22.461,-30.762,-14.160,0.000
1709298619.443,-22.461,-23.438,-37.109,-25.391,0.000
1709298619.447,-27.344,-28.809,-29.297,-35.156,0.000
1709298619.451,-38.086,-33.203,-28.809,-28.809,0.000
1709298619.455,-41.016,-40.039,-37.109,-18.066,0.000
1709298619.458,-31.250,-30.762,-29.785,-18.555,0.000
1709298619.462,-31.250,-29.297,-23.438,-21.973,0.000
1709298619.466,-43.945,-44.922,-32.715,-36.621,0.000
1709298619.470,-50.781,-46.387,-40.039,-40.039,0.000
1709298619.474,0.000,-44.434,-42.480,-24.902,0.000
1709298619.478,0.000,-50.293,-38.086,-19.531,0.000
1709298619.482,0.000,-42.480,-30.762,-25.879,0.000
1709298619.486,0.000,-35.645,-34.668,-26.855,0.000
1709298619.490,0.000,-39.551,-45.898,-26.367,0.000
1709298619.494,0.000,-35.645,-46.387,-17.090,0.000
1709298619.498,0.000,-31.738,-39.062,-7.324,0.000
1709298619.501,0.000,-31.250,-43.945,-26.855,0.000
1709298619.505,0.000,-22.949,-47.852,-43.457,0.000
1709298619.509,0.000,-24.902,-46.875,-42.480,0.000
1709298619.513,0.000,-38.086,-54.688,-41.016,0.000
1709298619.517,0.000,-37.598,-46.387,-35.156,0.000
1709298619.521,-41.016,-40.039,-38.086,-35.645,0.000
1709298619.525,-46.387,-43.945,-41.016,-42.969,0.000
1709298619.529,-48.340,-32.715,-42.480,-34.180,0.000
1709298619.533,-38.086,-26.855,-41.504,-20.020,0.000
1709298619.537,-33.203,-37.598,-34.668,-13.184,0.000
1709298619.540,-38.086,-39.062,-39.551,-11.230,0.000
1709298619.544,-35.645,-33.203,-35.645,-20.996,0.000
1709298619.548,-35.156,-29.297,-31.738,-29.297,0.000
1709298619.552,-33.691,-28.320,-32.227,-21.484,0.000
1709298619.556,-27.344,-34.668,-27.344,-9.277,0.000
1709298619.560,-27.344,-34.180,-37.598,-17.578,0.000
1709298619.564,-25.879,-27.344,-41.504,-32.715,0.000
1709298619.568,-27.832,-30.273,-34.180,-33.691,0.000
1709298619.572,-26.367,-39.551,-27.832,-28.809,0.000
1709298619.576,-21.973,-42.480,-31.738,-23.438,0.000
1709298619.580,-25.879,-41.992,-36.621,-22.949,0.000
1709298619.583,-26.367,-32.227,-30.762,-27.344,0.000
1709298619.587,-29.297,-32.715,-26.855,-32.227,0.000
1709298619.591,-41.016,-36.621,-23.926,-38.086,0.000
1709298619.595,-42.480,-31.738,-28.809,-37.598,0.000
1709298619.599,-40.527,-32.227,-30.273,-32.227,0.000
1709298619.603,-44.922,-35.156,-33.691,-36.133,0.000
1709298619.607,-48.828,-40.527,-34.668,-45.410,0.000
1709298619.611,-51.270,-46.875,-29.297,-45.410,0.000
1709298619.615,-47.852,-45.410,-38.574,-39.551,0.000
1709298619.619,-41.992,-38.086,-39.551,-36.133,0.000
1709298619.623,-42.480,-29.297,-31.738,-41.992,0.000
1709298619.626,-53.223,-34.180,-33.203,-57.129,0.000
1709298619.630,-56.152,-39.551,-37.598,-58.105,0.000
1709298619.634,-55.664,-36.621,-44.434,-44.922,0.000
1709298619.638,-52.246,-36.133,-45.410,-43.945,0.000
1709298619.642,-41.016,-31.250,-37.598,-47.852,0.000
1709298619.646,-36.133,-31.250,-28.809,-32.227,0.000
1709298619.650,-35.156,-41.992,-25.879,-21.973,0.000
1709298619.654,-32.715,-44.434,-33.691,-21.973,0.000
1709298619.658,-26.855,-46.875,-39.062,-14.648,0.000
1709298619.662,-26.855,-44.922,-34.180,-14.160,0.000
1709298619.666,-35.156,-41.992,-34.180,-22.949,0.000
1709298619.669,-38.574,-45.410,-35.645,-32.227,0.000
1709298619.673,-39.551,-46.875,-46.387,-29.785,0.000
1709298619.677,-32.227,-39.551,-45.410,-24.414,0.000
1709298619.681,-24.902,-36.133,-37.109,-18.555,0.000
1709298619.685,-27.832,-46.875,-42.969,-26.855,0.000
1709298619.689,-25.879,-42.480,-39.062,-30.762,0.000
1709298619.693,-29.785,-38.086,-32.715,-15.625,0.000
1709298619.697,-26.855,-41.504,-29.297,-15.625,0.000
1709298619.701,-18.555,-31.738,-29.297,-22.949,0.000
1709298619.704,-23.926,-29.785,-30.273,-29.785,0.000
1709298619.708,-34.180,-34.180,-29.297,-36.621,0.000
1709298619.712,-32.715,-31.738,-30.762,-35.156,0.000
1709298619.716,-31.250,-43.945,-34.180,-36.621,0.000
1709298619.720,-34.668,-48.340,-35.156,-40.039,0.000
1709298619.724,-37.109,-34.180,-40.527,-46.387,0.000
1709298619.728,-42.480,-35.645,-41.016,-51.758,0.000
1709298619.732,-40.039,-41.992,-28.809,-42.969,0.000
1709298619.736,-31.250,-42.480,-29.297,-28.809,0.000
1709298619.740,-30.762,-35.645,-31.738,-21.973,0.000
1709298619.744,-36.133,-32.715,-34.668,-32.227,0.000
1709298619.747,-25.879,-34.668,-37.598,-30.762,0.000
1709298619.751,-26.367,-40.527,-37.109,-25.879,0.000
1709298619.755,-34.668,-44.434,-40.039,-28.320,0.000
1709298619.759,-30.762,-38.086,-36.133,-23.926,0.000
1709298619.763,-30.762,-39.062,-38.574,-25.879,0.000
1709298619.767,-35.156,-42.480,-42.480,-39.551,0.000
1709298619.771,-39.062,-46.875,-33.203,-43.457,0.000
1709298619.775,-41.016,-49.805,-26.367,-31.738,0.000
1709298619.779,-39.062,-46.387,-33.203,-28.320,0.000
1709298619.783,-35.156,-40.527,-36.621,-27.832,0.000
1709298619.787,-33.691,-35.156,-34.180,-32.715,0.000
1709298619.790,-35.156,-36.133,-41.992,-40.039,0.000
1709298619.794,-37.598,-37.598,-49.316,-41.504,0.000
1709298619.798,-28.320,-33.691,-43.457,-28.320,0.000
1709298619.802,-23.926,-30.273,-37.109,-27.832,0.000
1709298619.806,-33.203,-39.551,-40.039,-41.016,0.000
1709298619.810,-31.738,-48.828,-41.992,-36.621,0.000
1709298619.814,-21.484,-44.922,-37.598,-25.391,0.000
1709298619.818,-20.996,-38.574,-41.016,-22.461,0.000
1709298619.822,-31.250,-31.738,-42.480,-30.762,0.000
1709298619.826,-39.062,-34.668,-38.574,-36.133,0.000
1709298619.829,-43.945,-37.109,-36.133,-32.715,0.000
1709298619.833,-46.875,-36.621,-34.180,-34.668,0.000
1709298619.837,-47.363,-41.016,-37.598,-42.969,0.000
1709298619.841,-49.316,-44.922,-42.969,-48.340,0.000
1709298619.845,-52.734,-41.016,-41.016,-51.758,0.000
1709298619.849,-55.176,-41.992,-40.039,-54.688,0.000
1709298619.853,-49.805,-40.527,-37.598,-42.969,0.000
1709298619.857,-44.922,-33.691,-36.621,-31.250,0.000
1709298619.861,-41.504,-40.527,-43.945,-33.691,0.000
1709298619.865,-40.039,-40.527,-47.852,-38.574,0.000
1709298619.869,-37.109,-31.738,-39.062,-38.574,0.000
1709298619.872,-34.180,-36.621,-33.691,-28.320,0.000
1709298619.876,-33.203,-42.480,-37.598,-21.484,0.000
1709298619.880,-33.691,-34.180,-37.109,-29.297,0.000
1709298619.884,-31.250,-38.086,-38.574,-34.668,0.000
1709298619.888,-28.809,-46.875,-34.180,-33.691,0.000
1709298619.892,-25.391,-41.016,-26.855,-24.414,0.000
1709298619.896,-22.461,-36.621,-29.297,-16.602,0.000
1709298619.900,-29.297,-45.898,-35.156,-20.020,0.000
1709298619.904,-31.250,-48.828,-42.969,-31.738,0.000
1709298619.908,-34.180,-41.016,-42.480,-38.086,0.000
1709298619.911,-34.180,-36.133,-41.016,-31.738,0.000
1709298619.915,-29.297,-39.062,-43.945,-19.531,0.000
1709298619.919,-23.438,-32.227,-39.551,-9.766,0.000
1709298619.923,-24.414,-25.879,-32.715,-23.438,0.000
1709298619.927,-25.879,-35.156,-32.715,-32.715,0.000
1709298619.931,-17.578,-32.227,-26.367,-16.113,0.000
1709298619.935,-16.602,-36.133,-25.391,-7.324,0.000
1709298619.939,-24.902,-45.898,-42.480,-17.090,0.000
1709298619.943,-27.832,-34.180,-43.457,-23.926,0.000
1709298619.947,-33.691,-31.250,-34.668,-32.227,0.000
1709298619.951,-39.551,-40.527,-36.621,-36.621,0.000
1709298619.954,-35.156,-38.574,-36.621,-23.438,0.000
1709298619.958,-29.785,-37.598,-34.668,-11.719,0.000
1709298619.962,-24.414,-45.898,-33.691,-15.625,0.000
1709298619.966,-21.973,-43.457,-31.738,-24.902,0.000
1709298619.970,-27.832,-40.039,-32.227,-31.250,0.000
1709298619.974,-31.250,-28.320,-36.133,-27.344,0.000
1709298619.978,-27.344,-33.691,-38.086,-17.578,0.000
1709298619.982,-21.973,-39.062,-41.992,-24.414,0.000
1709298619.986,-25.391,-25.879,-40.527,-38.574,0.000
1709298619.990,-31.250,-19.531,-36.133,-36.621,0.000
1709298619.994,-28.320,-13.672,-36.133,-30.273,0.000
1709298619.997,-25.391,-25.879,-36.621,-31.738,0.000
1709298620.001,-31.738,-34.180,-39.551,-39.062,0.000
1709298620.005,-28.320,-23.438,-40.039,-38.574,0.000
1709298620.009,-20.996,-13.184,-34.180,-38.086,0.000
1709298620.013,-26.855,-14.648,-42.480,-44.922,0.000
1709298620.017,-29.297,-21.484,-50.293,-49.316,0.000
1709298620.021,-27.344,-25.879,-44.434,-38.574,0.000
1709298620.025,-31.738,-22.949,-40.527,-31.738,0.000
1709298620.029,-34.180,-16.113,-42.480,-42.969,0.000
1709298620.033,-31.250,-19.043,-41.992,-39.062,0.000
1709298620.037,-32.715,-31.738,-44.434,-31.738,0.000
1709298620.040,-28.320,-33.691,-43.945,-34.180,0.000
1709298620.044,-30.762,-18.555,-38.086,-40.527,0.000
1709298620.048,-39.551,-24.414,-34.180,-46.387,0.000
1709298620.052,-40.527,-40.039,-36.133,-47.363,0.000
1709298620.056,-41.992,-34.668,-41.992,-46.875,0.000
1709298620.060,-42.969,-25.879,-41.504,-48.340,0.000
1709298620.064,-44.434,-28.320,-39.551,-52.734,0.000
1709298620.068,-47.363,-28.320,-39.551,-49.316,0.000
1709298620.072,-43.457,-22.949,-47.363,-48.828,0.000
1709298620.076,-35.645,-26.855,-48.340,-45.898,0.000
1709298620.079,-24.414,-29.297,-41.016,-29.297,0.000
1709298620.083,-20.508,-28.809,-34.668,-24.414,0.000
1709298620.087,-30.762,-26.855,-37.598,-34.668,0.000
1709298620.091,-31.738,-24.902,-41.504,-32.227,0.000
1709298620.095,-24.414,-31.250,-35.645,-21.973,0.000
1709298620.099,-26.855,-32.227,-39.062,-21.973,0.000
1709298620.103,-30.273,-25.391,-40.527,-26.855,0.000
1709298620.107,-39.551,-30.762,-39.551,-41.504,0.000
1709298620.111,-47.363,-48.340,-42.969,-41.016,0.000
1709298620.115,-38.574,-41.992,-36.621,-25.391,0.000
1709298620.118,-35.156,-37.109,-36.621,-31.250,0.000
1709298620.122,-31.250,-45.410,-42.480,-36.133,0.000
1709298620.126,-39.551,-34.180,-46.875,-48.828,0.000
1709298620.130,-55.664,-24.414,-51.758,-53.223,0.000
1709298620.134,-49.316,-24.902,-48.828,-36.133,0.000
1709298620.138,-42.480,-24.902,-41.016,-25.879,0.000
1709298620.142,-40.039,-25.879,-31.250,-24.414,0.000
1709298620.146,-48.828,-34.180,-26.855,-33.203,0.000
1709298620.150,-57.129,-37.598,-30.273,-39.551,0.000
1709298620.154,-48.828,-37.598,-31.250,-35.645,0.000
1709298620.158,-38.086,-36.133,-25.879,-11.719,0.000
1709298620.161,-32.227,-34.180,-25.391,-7.324,0.000
1709298620.165,-42.480,-37.598,-40.527,-32.227,0.000
1709298620.169,-48.828,-35.645,-43.457,-33.203,0.000
1709298620.173,-41.992,-36.621,-36.133,-20.508,0.000
1709298620.177,-30.762,-40.527,-39.062,-16.113,0.000
1709298620.181,-24.902,-35.645,-34.180,-14.648,0.000
1709298620.185,-29.785,-40.527,-27.832,-17.090,0.000
1709298620.189,-28.320,-44.922,-30.273,-18.066,0.000
1709298620.193,-25.879,-34.180,-39.062,-14.160,0.000
1709298620.197,-19.531,-26.367,-33.691,-10.254,0.000
1709298620.201,-14.648,-41.504,-25.879,-4.395,0.000
1709298620.204,-22.461,-49.316,-32.715,-12.207,0.000
1709298620.208,-32.227,-36.621,-36.133,-30.762,0.000
1709298620.212,-22.949,-29.297,-33.203,-23.438,0.000
1709298620.216,-13.184,-32.715,-32.715,-14.648,0.000
1709298620.220,-15.625,-26.367,-33.691,-9.766,0.000
1709298620.224,-21.484,-23.438,-33.203,-16.113,0.000
1709298620.228,-24.414,-35.156,-40.527,-29.297,0.000
1709298620.232,-29.297,-48.828,-42.480,-33.203,0.000
1709298620.236,-24.902,-41.992,-35.645,-24.414,0.000
1709298620.240,-18.555,-30.273,-29.785,-21.484,0.000
1709298620.244,-22.949,-27.832,-32.715,-35.156,0.000
1709298620.247,-28.320,-34.180,-39.062,-35.156,0.000
1709298620.251,-33.691,-30.762,-32.715,-27.832,0.000
1709298620.255,-33.203,-20.020,-34.668,-28.320,0.000
1709298620.259,-31.250,-27.344,-45.410,-24.902,0.000
1709298620.263,-32.715,-32.715,-38.574,-28.809,0.000
1709298620.267,-30.762,-32.227,-34.668,-34.668,0.000
1709298620.271,-27.344,-43.457,-38.574,-30.762,0.000
1709298620.275,-18.555,-52.734,-29.785,-11.719,0.000
1709298620.279,-9.766,-43.945,-32.715,-9.277,0.000
1709298620.283,-9.277,-27.344,-37.598,-17.578,0.000
1709298620.286,-9.766,-23.438,-29.785,-18.555,0.000
1709298620.290,-14.160,-36.133,-40.527,-17.090,0.000
1709298620.294,-16.602,-42.969,-43.457,-10.254,0.000
1709298620.298,-12.207,-40.527,-31.250,-1.953,0.000
1709298620.302,-14.648,-39.551,-32.227,-8.789,0.000
1709298620.306,-19.531,-48.828,-24.414,-10.254,0.000
1709298620.310,-26.367,-69.824,-23.438,-5.859,0.000
1709298620.314,-31.738,-60.059,-28.809,-12.695,0.000
1709298620.318,-31.738,-39.062,-31.250,-10.742,0.000
1709298620.322,-34.180,-38.086,-35.156,-10.254,0.000
1709298620.326,-40.039,-41.992,-36.133,-19.531,0.000
1709298620.329,-49.805,-44.434,-34.180,-28.809,0.000
1709298620.333,-48.828,-46.387,-33.203,-15.137,0.000
1709298620.337,-40.527,-46.875,-34.180,-5.371,0.000
1709298620.341,-33.691,-40.039,-30.762,-17.090,0.000
1709298620.345,-36.621,-30.273,-36.621,-27.832,0.000
1709298620.349,-39.551,-31.250,-36.133,-22.949,0.000
1709298620.353,-36.133,-35.645,-28.809,-10.742,0.000
1709298620.357,-29.297,-25.879,-31.738,-14.160,0.000
1709298620.361,-34.180,-18.066,-34.668,-24.414,0.000
1709298620.365,-39.551,-26.855,-33.203,-26.855,0.000
1709298620.369,-42.480,-32.227,-36.621,-31.738,0.000
1709298620.372,-45.898,-22.949,-37.598,-35.156,0.000
1709298620.376,-43.945,-16.602,-33.691,-34.668,0.000
1709298620.380,-41.016,-24.414,-36.133,-34.180,0.000
1709298620.384,-43.457,-29.297,-31.738,-36.621,0.000
1709298620.388,-48.828,-30.273,-37.109,-43.457,0.000
1709298620.392,-49.805,-37.109,-48.340,-46.875,0.000
1709298620.396,-39.551,-33.691,-43.945,-29.297,0.000
1709298620.400,-33.203,-28.809,-41.016,-31.738,0.000
1709298620.404,-38.574,-22.461,-45.898,-52.246,0.000
1709298620.408,-41.504,-25.391,-49.316,-50.781,0.000
1709298620.412,-37.109,-31.738,-48.340,-43.457,0.000
1709298620.415,-28.320,-34.180,-41.992,-34.668,0.000
1709298620.419,-24.414,-39.551,-41.504,-33.203,0.000
1709298620.423,-25.391,-46.387,-45.898,-39.062,0.000
1709298620.427,-25.879,-50.781,-40.527,-36.133,0.000
1709298620.431,-18.066,-40.527,-39.062,-29.785,0.000
1709298620.435,-20.996,-35.156,-45.898,-29.785,0.000
1709298620.439,-25.391,-29.297,-39.551,-25.391,0.000
1709298620.443,-23.438,-24.414,-25.879,-21.973,0.000
1709298620.447,-27.832,-32.715,-16.602,-33.203,0.000
1709298620.450,-38.086,-41.992,-25.879,-34.668,0.000
1709298620.454,-43.457,-47.363,-37.598,-27.832,0.000
1709298620.458,-31.738,-46.387,-33.691,-23.926,0.000
1709298620.462,-33.691,-41.016,-37.109,-33.691,0.000
1709298620.466,-46.875,-32.715,-44.434,-52.246,0.000
1709298620.470,-41.992,-31.250,-46.387,-45.410,0.000
1709298620.474,-48.828,-25.879,-48.828,-41.016,0.000
1709298620.478,-59.570,-17.578,-56.152,-52.246,0.000
1709298620.482,-50.293,-17.578,-56.152,-53.223,0.000
1709298620.486,-44.434,-21.484,-51.270,-43.457,0.000
1709298620.490,-44.922,-23.926,-51.270,-37.109,0.000
1709298620.493,-42.969,-17.090,-54.199,-41.504,0.000
1709298620.497,-35.156,-13.672,-55.176,-27.832,0.000
1709298620.501,-28.809,-18.555,-53.223,-20.996,0.000
1709298620.505,-18.555,-22.461,-46.387,-25.391,0.000
1709298620.509,-17.090,-26.367,-49.316,-27.344,0.000
1709298620.513,-23.926,-28.320,-47.363,-21.973,0.000
1709298620.517,-17.578,-31.250,-43.945,-18.555,0.000
1709298620.521,-12.695,-25.391,-49.316,-17.090,0.000
1709298620.525,-15.137,-22.949,-41.992,-19.531,0.000
1709298620.529,-19.531,-34.180,-42.969,-24.902,0.000
1709298620.533,-20.996,-41.016,-44.434,-11.230,0.000
1709298620.536,-20.508,-43.945,-36.133,-2.930,0.000
1709298620.540,-11.719,-46.387,-33.203,-1.953,0.000
1709298620.544,-7.812,-51.758,-28.320,-0.977,0.000
1709298620.548,-8.301,-59.570,-25.391,-6.348,0.000
1709298620.552,-15.137,-60.059,-26.367,-3.906,0.000
1709298620.556,-17.578,-45.410,-27.832,5.859,0.000
1709298620.560,-9.766,-32.715,-30.273,6.836,0.000
1709298620.564,-15.137,-28.809,-31.738,-7.812,0.000
1709298620.568,-28.809,-36.621,-25.879,-23.438,0.000
1709298620.572,-35.645,-43.945,-20.020,-24.414,0.000
1709298620.575,-35.645,-46.875,-24.414,-12.207,0.000
1709298620.579,-28.320,-47.852,-20.020,-8.789,0.000
1709298620.583,-31.250,-42.480,-21.484,-33.203,0.000
1709298620.587,-41.992,-42.969,-25.879,-47.363,0.000
1709298620.591,-45.898,-46.387,-28.809,-30.762,0.000
1709298620.595,-56.152,-39.551,-41.016,-22.461,0.000
1709298620.599,-62.500,-37.598,-49.805,-40.039,0.000
1709298620.603,-49.316,-36.133,-43.457,-48.340,0.000
1709298620.607,-46.875,-29.297,-40.039,-45.898,0.000
1709298620.611,-57.617,-33.691,-44.434,-47.852,0.000
1709298620.615,-55.664,-37.109,-42.969,-44.922,0.000
1709298620.618,-52.734,-31.250,-43.457,-44.922,0.000
1709298620.622,-52.734,-24.902,-39.062,-41.504,0.000
1709298620.626,-54.688,-25.879,-46.875,-50.293,0.000
1709298620.630,-49.805,-32.715,-53.223,-57.617,0.000
1709298620.634,-31.250,-30.273,-44.434,-33.203,0.000
1709298620.638,-26.367,-24.902,-43.945,-29.785,0.000
1709298620.642,-29.297,-34.180,-47.852,-43.945,0.000
1709298620.646,-30.762,-30.273,-49.805,-51.758,0.000
1709298620.650,-34.180,-24.414,-49.316,-55.176,0.000
1709298620.654,-38.574,-33.203,-45.898,-54.199,0.000
1709298620.657,-32.715,-29.785,-51.758,-48.340,0.000
1709298620.661,-29.785,-26.855,-54.688,-49.805,0.000
1709298620.665,-39.062,-39.062,-43.457,-53.223,0.000
1709298620.669,-44.434,-37.598,-41.992,-44.434,0.000
1709298620.673,-39.062,-25.391,-43.457,-33.203,0.000
1709298620.677,-29.297,-27.832,-39.062,-27.832,0.000
1709298620.681,-31.250,-35.156,-36.621,-28.320,0.000
1709298620.685,-37.598,-40.527,-34.180,-36.133,0.000
1709298620.689,-35.645,-35.645,-33.203,-40.527,0.000
1709298620.693,-27.832,-28.809,-31.738,-21.973,0.000
1709298620.697,-22.949,-32.227,-25.879,-14.648,0.000
1709298620.700,-18.066,-33.203,-15.625,-17.090,0.000
1709298620.704,-27.832,-17.090,-21.484,-23.926,0.000
1709298620.708,-45.898,-3.906,-31.738,-33.203,0.000
1709298620.712,-42.480,-3.906,-30.762,-27.344,0.000
1709298620.716,-41.016,-11.230,-37.109,-29.297,0.000
1709298620.720,-44.922,-12.695,-42.480,-38.086,0.000
1709298620.724,-42.969,-6.836,-41.504,-41.992,0.000
1709298620.728,-48.340,-0.488,-39.062,-43.945,0.000
1709298620.732,-52.246,1.953,-48.340,-45.898,0.000
1709298620.736,-41.016,-4.395,-51.270,-46.387,0.000
1709298620.740,-36.621,-12.207,-52.734,-44.922,0.000
1709298620.743,-35.645,-10.254,-54.688,-48.828,0.000
1709298620.747,-39.551,-9.277,-51.758,-52.734,0.000
1709298620.751,-42.969,-5.371,-49.316,-44.434,0.000
1709298620.755,-29.785,-11.719,-42.969,-31.738,0.000
1709298620.759,-20.996,-25.879,-44.434,-31.250,0.000
1709298620.763,-17.578,-14.648,-45.410,-34.668,0.000
1709298620.767,-17.578,-5.859,-43.945,-36.133,0.000
1709298620.771,-12.207,-13.672,-40.527,-20.508,0.000
1709298620.775,-12.207,-21.484,-45.898,-8.789,0.000
1709298620.779,-9.766,-18.555,-51.758,-18.555,0.000
1709298620.782,-6.348,-17.578,-41.992,-24.414,0.000
1709298620.786,-9.277,-25.879,-35.645,-26.855,0.000
1709298620.790,-13.672,-30.273,-42.969,-33.691,0.000
1709298620.794,-15.137,-20.996,-43.457,-28.320,0.000
1709298620.798,-16.602,-19.531,-37.598,-22.949,0.000
1709298620.802,-22.461,-26.367,-31.738,-37.109,0.000
1709298620.806,-34.180,-34.180,-34.668,-50.781,0.000
1709298620.810,-38.574,-41.016,-43.457,-47.363,0.000
1709298620.814,-40.039,-41.016,-38.086,-34.668,0.000
1709298620.818,-44.434,-41.016,-38.574,-22.461,0.000
1709298620.822,-36.133,-42.480,-37.598,-22.461,0.000
1709298620.825,-41.016,-45.898,-28.809,-37.109,0.000
1709298620.829,-46.875,-49.805,-28.320,-40.039,0.000
1709298620.833,-49.805,-51.270,-28.320,-34.668,0.000
1709298620.837,-53.711,-42.969,-34.668,-39.062,0.000
1709298620.841,-42.480,-28.320,-33.691,-38.086,0.000
1709298620.845,-46.875,-34.180,-36.621,-39.062,0.000
1709298620.849,-54.199,-39.551,-34.180,-39.551,0.000
1709298620.853,-53.223,-31.250,-28.809,-25.879,0.000
1709298620.857,-54.199,-26.367,-39.551,-19.043,0.000
1709298620.861,-55.176,-32.715,-43.945,-17.578,0.000
1709298620.864,-56.152,-35.645,-41.504,-25.391,0.000
1709298620.868,-54.199,-33.203,-40.527,-43.457,0.000
1709298620.872,-41.992,-29.785,-42.480,-33.203,0.000
1709298620.876,-34.180,-23.926,-47.363,-20.996,0.000
1709298620.880,-25.879,-33.691,-48.340,-23.926,0.000
1709298620.884,-23.438,-36.133,-44.922,-29.785,0.000
1709298620.888,-30.762,-33.203,-45.410,-36.621,0.000
1709298620.892,-26.855,-32.227,-42.969,-34.180,0.000
1709298620.896,-19.531,-38.574,-45.898,-34.180,0.000
1709298620.900,-13.672,-33.203,-48.340,-34.668,0.000
1709298620.904,-18.066,-18.555,-41.992,-39.551,0.000
1709298620.907,-20.020,-22.949,-41.504,-31.250,0.000
1709298620.911,-18.555,-36.133,-42.480,-23.438,0.000
1709298620.915,-19.043,-43.945,-46.875,-25.879,0.000
1709298620.919,-18.066,-38.574,-52.246,-28.809,0.000
1709298620.923,-24.902,-41.992,-51.758,-35.156,0.000
1709298620.927,0.000,-49.316,-48.828,0.000,0.000
1709298620.931,0.000,-53.711,-43.457,0.000,0.000
1709298620.935,0.000,-49.805,-40.039,0.000,0.000
1709298620.939,0.000,-43.457,-40.039,0.000,0.000
1709298620.943,0.000,-38.086,-33.203,0.000,0.000
1709298620.947,0.000,-36.133,-30.762,0.000,0.000
1709298620.950,0.000,-48.340,-38.574,0.000,0.000
1709298620.954,0.000,-52.246,-39.062,0.000,0.000
1709298620.958,0.000,-41.504,-36.133,0.000,0.000
1709298620.962,0.000,-39.062,-36.621,0.000,0.000
1709298620.966,0.000,-47.363,-43.457,0.000,0.000
1709298620.970,0.000,-47.852,-46.387,0.000,0.000
1709298620.974,-63.477,-40.039,-46.875,-40.527,0.000
1709298620.978,-53.711,-33.691,-47.852,-36.621,0.000
1709298620.982,-45.898,-31.738,-47.363,-35.645,0.000
1709298620.986,-41.992,-32.715,-49.316,-46.387,0.000
1709298620.989,-46.387,-35.645,-52.246,-52.734,0.000
1709298620.993,-34.668,-35.156,-41.992,-32.715,0.000
1709298620.997,-25.879,-42.480,-41.504,-13.672,0.000
1709298621.001,-33.203,-41.992,-52.734,-22.949,0.000
1709298621.005,-36.133,-22.949,-51.270,-37.109,0.000
1709298621.009,-41.992,-23.926,-52.734,-43.457,0.000
1709298621.013,-42.480,-29.297,-50.781,-38.574,0.000
1709298621.017,-34.180,-23.438,-44.434,-33.691,0.000
1709298621.021,-20.508,-23.438,-36.621,-31.250,0.000
1709298621.025,-18.555,-34.668,-31.738,-32.715,0.000
1709298621.029,-27.344,-32.715,-38.574,-34.180,0.000
1709298621.032,-30.762,-32.715,-49.805,-33.203,0.000
1709298621.036,-24.414,-40.527,-43.945,-23.926,0.000
1709298621.040,-14.648,-39.062,-38.574,-15.137,0.000
1709298621.044,-12.695,-33.203,-45.410,-27.344,0.000
1709298621.048,-16.602,-30.273,-43.457,-38.574,0.000
1709298621.052,-25.391,-29.785,-37.109,-33.691,0.000
1709298621.056,-34.180,-37.109,-31.738,-21.484,0.000
1709298621.060,-33.203,-44.434,-30.273,-20.996,0.000
1709298621.064,-29.785,-38.086,-29.297,-32.715,0.000
1709298621.068,-32.715,-34.180,-34.668,-36.621,0.000
1709298621.072,-40.039,-39.062,-40.039,-33.203,0.000
1709298621.075,-36.621,-45.898,-33.203,-27.832,0.000
1709298621.079,-31.738,-46.875,-33.203,-30.273,0.000
1709298621.083,-42.480,-44.434,-44.434,-39.062,0.000
1709298621.087,-48.828,-39.551,-46.875,-44.434,0.000
1709298621.091,-44.922,-38.574,-38.574,-41.992,0.000
1709298621.095,-42.480,-36.621,-41.016,-36.133,0.000
1709298621.099,-45.410,-36.621,-47.363,-36.133,0.000
1709298621.103,-45.898,-36.621,-47.852,-34.668,0.000
1709298621.107,-47.363,-26.855,-41.504,-39.062,0.000
1709298621.110,-47.363,-29.297,-37.598,-40.039,0.000
1709298621.114,-37.598,-37.109,-40.527,-25.391,0.000
1709298621.118,-33.203,-40.039,-42.480,-21.484,0.000
1709298621.122,-29.785,-32.715,-41.992,-24.902,0.000
1709298621.126,-26.367,-27.832,-42.969,-21.973,0.000
1709298621.130,-26.855,-30.762,-48.828,-21.484,0.000
1709298621.134,-27.344,-36.133,-50.781,-19.043,0.000
1709298621.138,-22.949,-33.691,-53.711,-19.043,0.000
1709298621.142,-16.113,-29.297,-53.223,-24.902,0.000
1709298621.146,-22.461,-39.062,-49.316,-27.832,0.000
1709298621.150,-28.809,-40.527,-44.922,-28.320,0.000
1709298621.153,-24.902,-37.598,-43.457,-26.855,0.000
1709298621.157,-22.949,-52.246,-42.969,-27.832,0.000
1709298621.161,-21.484,-57.617,-36.133,-27.344,0.000
1709298621.165,-27.832,-48.340,-35.156,-34.180,0.000
1709298621.169,-34.180,-36.133,-33.691,-40.039,0.000
1709298621.173,-34.180,-29.785,-35.156,-25.879,0.000
1709298621.177,-35.645,-32.715,-32.227,-20.020,0.000
1709298621.181,-38.086,-39.062,-30.273,-22.949,0.000
1709298621.185,-40.039,-43.457,-31.738,-26.367,0.000
1709298621.189,-40.039,-43.457,-35.645,-33.203,0.000
1709298621.193,-38.086,-34.180,-36.621,-20.996,0.000
1709298621.196,-41.504,-34.180,-29.297,-15.137,0.000
1709298621.200,-37.598,-38.086,-29.785,-27.832,0.000
1709298621.204,-29.785,-36.133,-32.715,-28.320,0.000
1709298621.208,-31.738,-32.227,-32.227,-27.344,0.000
1709298621.212,-37.109,-30.762,-34.180,-29.785,0.000
1709298621.216,-38.574,-27.344,-30.762,-25.879,0.000
1709298621.220,-31.250,-25.879,-24.414,-17.090,0.000
1709298621.224,-36.133,-30.762,-33.203,-27.344,0.000
1709298621.228,-46.875,-28.809,-44.434,-41.992,0.000
1709298621.232,-46.875,-21.973,-45.410,-41.504,0.000
1709298621.236,-39.551,-29.785,-46.875,-25.391,0.000
1709298621.239,-32.715,-33.691,-47.852,-12.695,0.000
1709298621.243,-32.227,-33.691,-41.992,-22.949,0.000
1709298621.247,-36.621,-37.598,-42.480,-37.598,0.000
1709298621.251,-25.879,-24.902,-38.574,-24.902,0.000
1709298621.255,-20.020,-21.973,-43.457,-11.719,0.000
1709298621.259,-21.484,-29.785,-43.457,-18.555,0.000
1709298621.263,-20.020,-34.668,-37.598,-21.484,0.000
1709298621.267,-27.344,-46.387,-38.574,-27.832,0.000
1709298621.271,-33.203,-41.504,-38.574,-31.250,0.000
1709298621.275,-30.273,-34.668,-39.551,-24.902,0.000
1709298621.278,-23.926,-41.504,-37.109,-18.555,0.000
1709298621.282,-24.902,-47.852,-32.227,-17.578,0.000
1709298621.286,-30.273,-43.457,-30.273,-30.273,0.000
1709298621.290,-35.156,-44.434,-40.039,-38.086,0.000
1709298621.294,-38.574,-43.945,-37.109,-33.691,0.000
1709298621.298,-37.109,-41.016,-32.227,-29.785,0.000
1709298621.302,-32.715,-51.270,-37.109,-33.691,0.000
1709298621.306,-35.156,-53.711,-38.574,-47.852,0.000
1709298621.310,-40.527,-45.410,-39.551,-46.875,0.000
1709298621.314,-34.668,-29.297,-34.180,-32.227,0.000
1709298621.318,-34.668,-32.227,-35.156,-30.762,0.000
1709298621.321,-39.062,-47.363,-36.621,-42.969,0.000
1709298621.325,-46.387,-45.898,-33.691,-47.852,0.000
1709298621.329,-54.688,-39.551,-39.062,-44.434,0.000
1709298621.333,-56.152,-40.527,-41.992,-47.363,0.000
1709298621.337,-52.246,-45.898,-42.969,-39.062,0.000
1709298621.341,-47.852,-37.598,-44.434,-32.227,0.000
1709298621.345,-51.758,-36.621,-42.480,-40.527,0.000
1709298621.349,-52.734,-41.504,-40.527,-44.922,0.000
1709298621.353,-46.875,-39.062,-41.992,-36.621,0.000
1709298621.357,-37.109,-38.574,-44.434,-27.344,0.000
1709298621.360,-27.344,-37.109,-38.574,-22.949,0.000
1709298621.364,-24.902,-34.668,-36.621,-25.879,0.000
1709298621.368,-29.297,-33.203,-43.945,-32.715,0.000
1709298621.372,-27.344,-34.180,-43.457,-18.555,0.000
1709298621.376,-20.996,-40.527,-40.039,-13.184,0.000
1709298621.380,-26.855,-37.598,-48.828,-26.367,0.000
1709298621.384,-29.297,-30.273,-48.828,-28.320,0.000
1709298621.388,-25.391,-27.832,-38.086,-25.879,0.000
1709298621.392,-27.344,-30.762,-41.992,-22.461,0.000
1709298621.396,-26.855,-36.621,-43.457,-21.973,0.000
1709298621.400,-17.090,-42.480,-37.598,-11.230,0.000
1709298621.403,-15.137,-46.387,-38.086,-13.184,0.000
1709298621.407,-22.949,-37.109,-39.062,-25.879,0.000
1709298621.411,-34.668,-32.715,-41.992,-32.227,0.000
1709298621.415,-29.785,-41.992,-37.109,-14.648,0.000
1709298621.419,-16.113,-38.574,-32.227,0.488,0.000
1709298621.423,-19.531,-30.762,-34.668,-18.066,0.000
1709298621.427,-30.273,-37.598,-31.250,-26.367,0.000
1709298621.431,-40.039,-44.922,-36.133,-24.414,0.000
1709298621.435,-40.039,-39.551,-36.133,-20.996,0.000
1709298621.439,-26.367,-30.273,-21.973,-13.672,0.000
1709298621.443,-33.691,-33.691,-31.250,-23.438,0.000
1709298621.446,-42.480,-40.039,-41.504,-38.086,0.000
1709298621.450,-40.527,-40.527,-40.039,-35.645,0.000
1709298621.454,-42.969,-27.344,-37.109,-32.227,0.000
1709298621.458,-32.715,-19.043,-31.738,-24.902,0.000
1709298621.462,-32.715,-23.438,-41.992,-29.297,0.000
1709298621.466,-40.527,-21.484,-47.852,-49.316,0.000
1709298621.470,-43.457,-22.949,-41.016,-53.223,0.000
1709298621.474,-46.387,-24.902,-36.133,-48.340,0.000
1709298621.478,-44.434,-17.090,-42.480,-37.598,0.000
1709298621.481,-44.434,-29.297,-51.758,-45.898,0.000
1709298621.485,-45.410,-32.715,-51.270,-55.664,0.000
1709298621.489,-47.852,-18.555,-53.223,-52.734,0.000
1709298621.493,-36.621,-15.137,-45.898,-37.109,0.000
1709298621.497,-27.832,-4.883,-34.668,-22.461,0.000
1709298621.501,-31.738,-5.371,-38.086,-26.367,0.000
1709298621.505,-25.879,-21.484,-47.852,-32.715,0.000
1709298621.509,-19.043,-24.414,-47.852,-26.367,0.000
1709298621.513,-18.555,-22.949,-41.504,-15.625,0.000
1709298621.517,-20.996,-18.066,-36.133,-15.625,0.000
1709298621.521,-20.508,-19.043,-40.039,-12.207,0.000
1709298621.524,-23.926,-27.344,-38.574,-9.766,0.000
1709298621.528,-33.203,-31.250,-33.203,-23.438,0.000
1709298621.532,-32.715,-32.715,-36.621,-22.461,0.000
1709298621.536,-24.902,-27.832,-29.785,-11.719,0.000
1709298621.540,-24.902,-24.414,-24.414,-10.254,0.000
1709298621.544,-29.297,-28.809,-26.367,-14.160,0.000
1709298621.548,-33.203,-29.297,-22.949,-20.508,0.000
1709298621.552,-32.715,-22.949,-20.020,-18.555,0.000
1709298621.556,-27.832,-22.461,-23.438,-9.766,0.000
1709298621.560,-27.832,-22.461,-30.273,-6.836,0.000
1709298621.564,-29.785,-29.785,-35.156,-19.043,0.000
1709298621.567,-23.438,-33.203,-29.297,-15.625,0.000
1709298621.571,-27.832,-29.297,-30.762,-15.137,0.000
1709298621.575,-36.621,-23.926,-43.457,-25.391,0.000
1709298621.579,-33.203,-18.066,-37.598,-23.438,0.000
1709298621.583,-31.738,-19.531,-34.180,-32.227,0.000
1709298621.587,-38.574,-23.438,-42.480,-43.945,0.000
1709298621.591,-46.875,-24.902,-39.551,-42.969,0.000
1709298621.595,-45.898,-29.297,-39.551,-40.039,0.000
1709298621.599,-46.387,-34.668,-40.527,-39.551,0.000
1709298621.603,-50.293,-31.250,-34.180,-42.480,0.000
1709298621.607,-50.781,-30.273,-40.527,-51.758,0.000
1709298621.610,-48.340,-34.180,-42.480,-45.410,0.000
1709298621.614,-51.758,-34.668,-42.969,-37.109,0.000
1709298621.618,-41.016,-31.738,-52.734,-38.086,0.000
1709298621.622,-27.832,-21.484,-48.340,-23.438,0.000
1709298621.626,-37.598,-21.973,-49.805,-28.320,0.000
1709298621.630,-37.109,-31.738,-55.664,-35.156,0.000
1709298621.634,-25.391,-29.785,-49.805,-20.508,0.000
1709298621.638,-20.020,-28.320,-58.105,-13.672,0.000
1709298621.642,-14.648,-21.484,-64.453,-22.461,0.000
1709298621.646,-12.695,-22.949,-59.570,-34.180,0.000
1709298621.650,-23.926,-28.320,-62.012,-39.551,0.000
1709298621.653,-31.250,-33.691,-61.035,-35.645,0.000
1709298621.657,-22.461,-32.715,-58.105,-22.461,0.000
1709298621.661,-19.043,-26.367,-65.918,-26.367,0.000
1709298621.665,-25.391,-30.762,-72.266,-33.691,0.000
1709298621.669,-29.785,-40.527,-70.312,-28.320,0.000
1709298621.673,-27.344,-37.598,-62.500,-25.391,0.000
1709298621.677,-20.996,-27.344,-60.547,-16.602,0.000
1709298621.681,-9.766,-25.391,-61.035,-16.113,0.000
1709298621.685,-5.859,-31.250,-65.430,-25.879,0.000
1709298621.689,-16.113,-26.367,-66.895,-30.762,0.000
1709298621.692,-11.230,-23.438,-60.059,-19.043,0.000
1709298621.696,-2.930,-24.902,-62.012,-0.488,0.000
1709298621.700,1.465,-17.090,-65.430,2.930,0.000
1709298621.704,0.977,-16.602,-63.965,-4.883,0.000
1709298621.708,-2.930,-19.531,-61.523,-20.020,0.000
1709298621.712,-1.465,-16.602,-55.664,-19.531,0.000
1709298621.716,-5.371,-22.461,-59.082,-15.137,0.000
1709298621.720,-11.230,-22.949,-57.129,-17.090,0.000
1709298621.724,-20.020,-20.996,-56.152,-30.762,0.000
1709298621.728,-25.879,-31.250,-48.828,-40.039,0.000
1709298621.732,-32.715,-37.109,-40.039,-38.574,0.000
1709298621.735,-39.062,-37.109,-41.992,-35.645,0.000
1709298621.739,-34.668,-31.738,-38.086,-28.320,0.000
1709298621.743,-34.180,-31.738,-40.039,-40.039,0.000
1709298621.747,-41.504,-42.480,-44.922,-43.457,0.000
1709298621.751,-42.480,-49.316,-35.645,-31.250,0.000
1709298621.755,-33.691,-35.645,-27.344,-29.785,0.000
1709298621.759,-27.832,-30.762,-34.668,-25.391,0.000
1709298621.763,-32.227,-36.621,-46.875,-29.785,0.000
1709298621.767,-35.156,-32.715,-45.410,-34.668,0.000
1709298621.771,-30.762,-31.738,-52.246,-32.715,0.000
1709298621.774,-20.508,-32.715,-57.617,-18.066,0.000
1709298621.778,-13.672,-32.227,-47.852,-5.371,0.000
1709298621.782,-11.230,-32.227,-54.688,-8.301,0.000
1709298621.786,-7.812,-11.719,-65.430,-12.207,0.000
1709298621.790,-4.395,-6.836,-55.664,-6.836,0.000
1709298621.794,-6.836,-20.996,-50.781,1.465,0.000
1709298621.798,-5.371,-21.484,-53.711,2.930,0.000
1709298621.802,-7.812,-24.414,-56.152,-4.883,0.000
1709298621.806,-21.484,-26.855,-62.012,-24.414,0.000
1709298621.810,-23.438,-29.297,-63.965,-33.203,0.000
1709298621.813,-21.973,-26.855,-58.594,-26.855,0.000
1709298621.817,-24.902,-20.020,-53.223,-20.996,0.000
1709298621.821,-27.832,-22.461,-51.270,-32.715,0.000
1709298621.825,-25.391,-27.832,-51.758,-39.551,0.000
1709298621.829,-37.109,-31.250,-55.176,-41.016,0.000
1709298621.833,-49.316,-33.691,-44.922,-38.574,0.000
1709298621.837,-41.016,-33.203,-40.527,-31.250,0.000
1709298621.841,-38.086,-37.109,-43.457,-34.180,0.000
1709298621.845,-42.480,-40.527,-34.668,-39.062,0.000
1709298621.849,-46.387,-40.527,-33.203,-48.340,0.000
1709298621.853,-37.598,-38.574,-28.809,-33.691,0.000
1709298621.856,-34.668,-35.156,-27.344,-20.020,0.000
1709298621.860,-32.227,-36.621,-29.297,-30.762,0.000
1709298621.864,-33.691,-39.062,-27.344,-40.039,0.000
1709298621.868,-45.410,-49.316,-29.785,-48.828,0.000
1709298621.872,-50.293,-51.758,-36.621,-49.316,0.000
1709298621.876,-50.781,-45.898,-32.715,-40.039,0.000
1709298621.880,-48.828,-46.875,-20.020,-25.391,0.000
1709298621.884,-55.176,-51.270,-20.996,-25.879,0.000
1709298621.888,-62.988,-54.688,-23.438,-43.945,0.000
1709298621.892,-62.012,-48.828,-20.020,-48.828,0.000
1709298621.896,-62.988,-48.340,-18.555,-38.086,0.000
1709298621.899,-52.246,-41.504,-17.090,-29.297,0.000
1709298621.903,-39.551,-27.832,-15.137,-32.227,0.000
1709298621.907,-47.852,-33.203,-21.484,-45.410,0.000
1709298621.911,-52.734,-49.805,-29.297,-41.992,0.000
1709298621.915,-48.340,-51.270,-28.320,-31.738,0.000
1709298621.919,-42.480,-37.598,-21.973,-31.250,0.000
1709298621.923,-39.551,-42.969,-25.879,-34.668,0.000
1709298621.927,-50.781,-48.828,-31.250,-41.992,0.000
1709298621.931,-57.617,-51.758,-31.250,-41.016,0.000
1709298621.935,-52.734,-52.734,-25.879,-33.203,0.000
1709298621.938,-45.410,-52.246,-25.391,-28.809,0.000
1709298621.942,-36.133,-39.551,-20.020,-20.020,0.000
1709298621.946,-31.738,-32.715,-18.066,-26.367,0.000
1709298621.950,-41.504,-41.016,-28.320,-36.621,0.000
1709298621.954,-44.922,-44.922,-24.414,-24.414,0.000
1709298621.958,-42.480,-52.734,-15.625,-14.160,0.000
1709298621.962,-45.410,-54.688,-18.066,-21.973,0.000
1709298621.966,-48.828,-46.875,-24.414,-34.668,0.000
1709298621.970,-53.711,-49.805,-27.832,-37.109,0.000
1709298621.974,-59.570,-60.059,-25.879,-35.156,0.000
1709298621.978,-49.316,-50.781,-17.090,-30.762,0.000
1709298621.981,-43.945,-38.086,-16.602,-27.344,0.000
1709298621.985,-52.734,-48.340,-20.996,-31.250,0.000
1709298621.989,-62.012,-61.523,-19.531,-41.016,0.000
1709298621.993,-66.895,-62.012,-22.949,-46.875,0.000
1709298621.997,-59.082,-56.152,-21.973,-34.180,0.000
1709298622.001,-58.594,-57.129,-20.508,-35.156,0.000
1709298622.005,-59.570,-63.477,0.000,-45.410,0.000
1709298622.009,-59.570,-55.664,0.000,-47.852,0.000
1709298622.013,-56.152,-43.945,0.000,-47.363,0.000
1709298622.017,-45.410,-42.969,0.000,-39.551,0.000
1709298622.021,-54.688,-49.805,0.000,-46.875,0.000
1709298622.024,-61.035,-44.434,0.000,-60.547,0.000
1709298622.028,-67.383,-41.992,0.000,-65.918,0.000
1709298622.032,-69.824,-48.340,0.000,-62.500,0.000
1709298622.036,-60.547,-50.781,0.000,-53.711,0.000
1709298622.040,-55.176,-54.688,0.000,-52.246,0.000
1709298622.044,-44.922,-52.246,0.000,-56.152,0.000
1709298622.048,-37.109,-53.223,0.000,-56.641,0.000
1709298622.052,0.000,-44.434,-23.926,-53.223,0.000
1709298622.056,0.000,-37.109,-24.902,-38.574,0.000
1709298622.060,0.000,-37.598,-21.484,-30.762,0.000
1709298622.064,0.000,-32.715,-26.367,-35.645,0.000
1709298622.067,0.000,-28.320,-27.344,-36.133,0.000
1709298622.071,0.000,-36.621,-26.855,-39.551,0.000
1709298622.075,0.000,-50.781,-26.855,-29.785,0.000
1709298622.079,0.000,-43.945,-25.879,-11.719,0.000
1709298622.083,0.000,-37.109,-20.508,-22.461,0.000
1709298622.087,0.000,-41.992,-24.414,-34.668,0.000
1709298622.091,0.000,-34.668,-32.227,-34.180,0.000
1709298622.095,0.000,-30.273,-27.344,-25.391,0.000
1709298622.099,-28.809,-35.156,-30.762,-14.648,0.000
1709298622.103,-31.738,-36.621,-38.574,-13.672,0.000
1709298622.106,-33.691,-41.016,-35.645,-17.578,0.000
1709298622.110,-32.715,-41.016,-27.832,-14.648,0.000
1709298622.114,-30.762,-47.852,-29.785,-9.277,0.000
1709298622.118,-31.738,-50.293,-35.645,1.465,0.000
1709298622.122,-26.367,-41.504,-29.785,9.766,0.000
1709298622.126,-30.273,-45.898,-25.391,-14.160,0.000
1709298622.130,-43.945,-43.945,-33.691,-40.039,0.000
1709298622.134,-40.527,-41.016,-37.598,-30.762,0.000
1709298622.138,-27.344,-42.969,-35.645,-14.160,0.000
1709298622.142,-22.949,-41.504,-44.434,-22.949,0.000
1709298622.146,-25.879,-38.086,-47.363,-39.062,0.000
1709298622.149,-32.715,-40.527,-41.992,-41.016,0.000
1709298622.153,-30.762,-39.551,-37.109,-34.668,0.000
1709298622.157,-24.902,-42.480,-43.457,-31.250,0.000
1709298622.161,-24.414,-43.457,-39.062,-34.668,0.000
1709298622.165,-23.438,-49.316,-32.715,-29.297,0.000
1709298622.169,-18.555,-41.992,-30.273,-25.391,0.000
1709298622.173,-25.391,-25.391,-33.691,-37.109,0.000
1709298622.177,-26.367,-34.668,-39.551,-30.273,0.000
1709298622.181,-23.438,-33.691,-35.645,-20.508,0.000
1709298622.184,-28.809,-28.809,-42.969,-36.133,0.000
1709298622.188,-29.297,-26.367,-40.527,-37.109,0.000
1709298622.192,-31.738,-28.320,-28.320,-22.461,0.000
1709298622.196,-24.902,-31.250,-23.926,-13.184,0.000
1709298622.200,-17.578,-32.227,-27.832,-10.742,0.000
1709298622.204,-18.555,-34.180,-28.809,-12.207,0.000
1709298622.208,-18.555,-28.809,-29.297,-18.066,0.000
1709298622.212,-20.996,-19.043,-29.297,-15.625,0.000
1709298622.216,-14.160,-17.578,-27.344,-4.883,0.000
1709298622.220,-3.418,-19.531,-32.715,-4.883,0.000
1709298622.224,-3.906,-23.926,-33.691,-19.043,0.000
1709298622.227,-17.578,-23.438,-36.621,-26.367,0.000
1709298622.231,-21.484,-18.555,-34.180,-24.902,0.000
1709298622.235,-17.090,-22.949,-32.227,-19.531,0.000
1709298622.239,-12.207,-30.762,-36.133,-20.020,0.000
1709298622.243,-11.719,-25.391,-32.715,-23.926,0.000
1709298622.247,-20.996,-19.531,-30.762,-29.785,0.000
1709298622.251,-18.555,-19.043,-30.762,-23.438,0.000
1709298622.255,-17.578,-27.344,-38.086,-12.695,0.000
1709298622.259,-17.578,-23.438,-39.551,-14.648,0.000
1709298622.263,-19.043,-16.113,-34.668,-20.020,0.000
1709298622.267,-29.297,-17.578,-31.250,-25.391,0.000
1709298622.270,-38.574,-36.133,-29.785,-19.043,0.000
1709298622.274,-44.434,-43.945,-34.668,-15.625,0.000
1709298622.278,-45.410,-30.273,-39.062,-30.273,0.000
1709298622.282,-41.016,-33.203,-37.109,-32.227,0.000
1709298622.286,-42.969,-35.156,-35.156,-38.086,0.000
1709298622.290,-44.922,-28.320,-36.621,-40.039,0.000
1709298622.294,-48.340,-26.367,-37.109,-27.832,0.000
1709298622.298,-48.828,-23.438,-32.715,-21.973,0.000
1709298622.302,-39.551,-20.020,-23.438,-18.066,0.000
1709298622.306,-42.480,-25.879,-21.484,-23.438,0.000
1709298622.310,-53.223,-34.668,-31.738,-27.344,0.000
1709298622.313,-41.992,-30.762,-29.785,-22.461,0.000
1709298622.317,-42.480,-32.715,-23.926,-15.625,0.000
1709298622.321,-46.387,-35.645,-39.551,-16.602,0.000
1709298622.325,-38.574,-32.715,-46.875,-29.297,0.000
1709298622.329,-41.016,-37.109,-40.527,-32.715,0.000
1709298622.333,-42.480,-38.086,-40.527,-20.508,0.000
1709298622.337,-36.133,-34.668,-39.062,-10.742,0.000
1709298622.341,-26.367,-30.273,-36.621,-16.113,0.000
1709298622.345,-28.809,-29.785,-32.227,-22.461,0.000
1709298622.349,-35.645,-31.250,-33.691,-20.020,0.000
1709298622.353,-35.156,-29.297,-35.645,-17.090,0.000
1709298622.356,-22.461,-34.180,-35.645,-9.277,0.000
1709298622.360,-17.090,-43.457,-36.621,-3.418,0.000
1709298622.364,-24.414,-36.133,-38.086,-17.090,0.000
1709298622.368,-36.621,-32.715,-40.039,-32.227,0.000
1709298622.372,-37.109,-35.645,-35.156,-27.344,0.000
1709298622.376,-27.344,-26.855,-37.109,-14.648,0.000
1709298622.380,-26.367,-25.391,-38.574,-11.719,0.000
1709298622.384,-32.715,-28.320,-36.621,-27.832,0.000
1709298622.388,-36.621,-22.949,-36.621,-35.645,0.000
1709298622.392,-39.062,-30.273,-42.969,-41.016,0.000
1709298622.395,-38.574,-41.016,-41.016,-40.039,0.000
1709298622.399,-37.598,-32.227,-38.574,-31.738,0.000
1709298622.403,-48.828,-38.086,-47.363,-46.875,0.000
1709298622.407,-54.199,-49.805,-50.293,-45.898,0.000
1709298622.411,-59.082,-47.852,-50.781,-44.434,0.000
1709298622.415,-46.875,-36.133,-38.086,-33.203,0.000
1709298622.419,-32.715,-30.273,-26.367,-15.137,0.000
1709298622.423,-41.504,-41.992,-35.156,-34.180,0.000
1709298622.427,-48.828,-47.363,-45.898,-52.246,0.000
1709298622.431,-52.246,-37.598,-45.898,-51.270,0.000
1709298622.435,-45.898,-33.691,-45.410,-32.715,0.000
1709298622.438,-39.551,-39.551,-43.945,-24.414,0.000
1709298622.442,-37.598,-40.527,-38.574,-30.762,0.000
1709298622.446,-32.715,-34.668,-40.039,-38.574,0.000
1709298622.450,-39.062,-36.621,-36.133,-32.715,0.000
1709298622.454,-44.434,-39.062,-38.086,-21.973,0.000
1709298622.458,-33.691,-34.180,-43.945,-17.090,0.000
1709298622.462,-21.484,-26.367,-38.086,-13.672,0.000
1709298622.466,-27.832,-28.320,-41.016,-32.227,0.000
1709298622.470,-31.738,-27.344,-45.410,-35.156,0.000
1709298622.474,-33.203,-25.879,-43.945,-27.344,0.000
1709298622.478,-26.855,-29.785,-39.551,-25.391,0.000
1709298622.481,-19.043,-32.715,-34.668,-25.879,0.000
1709298622.485,-26.855,-38.574,-35.156,-34.180,0.000
1709298622.489,-25.391,-41.504,-32.227,-39.062,0.000
1709298622.493,-20.020,-33.691,-35.645,-32.227,0.000
1709298622.497,-19.531,-18.555,-40.527,-21.484,0.000
1709298622.501,-20.508,-18.555,-39.062,-24.902,0.000
1709298622.505,-27.344,-25.879,-45.410,-41.992,0.000
1709298622.509,-30.762,-27.344,-46.387,-47.852,0.000
1709298622.513,-41.504,-33.691,-42.969,-37.109,0.000
1709298622.517,-49.805,-38.086,-41.992,-31.738,0.000
1709298622.520,-37.109,-34.180,-39.551,-41.504,0.000
1709298622.524,-30.762,-37.598,-36.621,-44.434,0.000
1709298622.528,-38.574,-40.527,-41.504,-44.434,0.000
1709298622.532,-43.945,-39.062,-45.898,-55.176,0.000
1709298622.536,-48.828,-37.109,-46.387,-57.129,0.000
1709298622.540,-38.086,-30.762,-42.969,-36.133,0.000
1709298622.544,-33.691,-24.414,-36.621,-32.227,0.000
1709298622.548,-38.574,-29.297,-34.668,-44.922,0.000
1709298622.552,-38.086,-39.062,-38.574,-45.898,0.000
1709298622.556,-34.180,-41.992,-38.086,-28.809,0.000
1709298622.559,-27.832,-42.480,-36.133,-18.555,0.000
1709298622.563,-28.320,-39.551,-39.062,-30.762,0.000
1709298622.567,-41.016,-47.852,-42.480,-40.527,0.000
1709298622.571,-37.598,-49.316,-38.574,-36.133,0.000
1709298622.575,-22.949,-40.039,-31.738,-21.484,0.000
1709298622.579,-20.996,-33.203,-36.621,-21.973,0.000
1709298622.583,-24.902,-30.273,-37.109,-26.367,0.000
1709298622.587,-25.391,-41.016,-31.738,-33.691,0.000
1709298622.591,-21.973,-43.457,-30.273,-35.156,0.000
1709298622.595,-21.484,-33.203,-32.227,-25.391,0.000
1709298622.599,-20.996,-46.387,-37.109,-23.438,0.000
1709298622.602,-19.043,-56.152,-30.273,-19.043,0.000
1709298622.606,-25.879,-38.574,-23.438,-24.902,0.000
1709298622.610,-33.203,-39.062,-37.109,-39.551,0.000
1709298622.614,-36.133,-43.457,-40.527,-43.945,0.000
1709298622.618,-41.504,-37.109,-29.297,-41.504,0.000
1709298622.622,-45.898,-37.598,-29.297,-40.527,0.000
1709298622.626,-37.598,-36.133,-29.297,-34.668,0.000
1709298622.630,-37.109,-39.062,-32.227,-31.738,0.000
1709298622.634,-39.062,-42.480,-34.668,-29.785,0.000
1709298622.638,-37.109,-39.551,-36.133,-23.926,0.000
1709298622.642,-41.016,-39.551,-44.434,-35.156,0.000
1709298622.645,-35.156,-35.156,-38.574,-40.527,0.000
1709298622.649,-44.922,-38.574,-38.086,-43.945,0.000
1709298622.653,-56.152,-42.480,-47.852,-53.223,0.000
1709298622.657,-50.293,-45.410,-41.992,-46.387,0.000
1709298622.661,-54.688,-46.875,-40.527,-42.480,0.000
1709298622.665,-55.664,-39.551,-34.668,-46.875,0.000
1709298622.669,-45.898,-37.109,-37.598,-49.805,0.000
1709298622.673,-42.480,-44.922,-46.387,-45.898,0.000
1709298622.677,-38.574,-45.410,-42.969,-34.668,0.000
1709298622.681,-31.250,-47.852,-47.852,-30.273,0.000
1709298622.685,-26.367,-45.898,-42.969,-30.762,0.000
1709298622.688,-25.879,-43.457,-38.086,-33.203,0.000
1709298622.692,-26.855,-41.992,-43.457,-19.531,0.000
1709298622.696,-25.879,-28.809,-40.039,-6.348,0.000
1709298622.700,-22.461,-25.391,-37.109,-8.789,0.000
1709298622.704,-20.508,-24.902,-34.668,-11.230,0.000
1709298622.708,-26.367,-30.273,-43.457,-25.879,0.000
1709298622.712,-34.180,-41.992,-48.828,-34.668,0.000
1709298622.716,-32.715,-43.457,-44.922,-27.832,0.000
1709298622.720,-25.391,-42.480,-41.992,-18.066,0.000
1709298622.724,-25.391,-41.504,-41.504,-27.344,0.000
1709298622.727,-37.598,-33.203,-43.457,-43.457,0.000
1709298622.731,-44.434,-27.832,-48.828,-47.363,0.000
1709298622.735,-46.387,-36.621,-48.828,-37.109,0.000
1709298622.739,-39.062,-32.227,-33.691,-25.879,0.000
1709298622.743,-30.273,-32.227,-35.645,-40.039,0.000
1709298622.747,-27.344,-40.039,-43.945,-45.410,0.000
1709298622.751,-30.762,-38.086,-45.898,-39.062,0.000
1709298622.755,-31.250,-31.250,-41.992,-35.645,0.000
1709298622.759,-28.320,-28.809,-39.551,-36.133,0.000
1709298622.763,-28.320,-32.715,-35.156,-34.668,0.000
1709298622.767,-36.621,-33.691,-34.668,-43.945,0.000
1709298622.770,-46.387,-34.668,-44.922,-47.852,0.000
1709298622.774,-42.969,-31.738,-40.527,-36.133,0.000
1709298622.778,-36.133,-45.898,-34.668,-35.156,0.000
1709298622.782,-30.273,-54.199,-34.180,-25.879,0.000
1709298622.786,-40.527,-45.410,-38.086,-35.645,0.000
1709298622.790,-49.316,-44.434,-39.551,-54.199,0.000
1709298622.794,-46.387,-53.711,-39.551,-50.781,0.000
1709298622.798,-41.992,-52.246,-42.480,-41.016,0.000
1709298622.802,-38.574,-45.898,-42.969,-31.738,0.000
1709298622.806,-34.668,-39.551,-39.062,-30.273,0.000
1709298622.810,-39.062,-40.527,-43.457,-37.109,0.000
1709298622.813,-45.410,-39.551,-38.574,-38.574,0.000
1709298622.817,-32.715,-37.109,-31.250,-21.973,0.000
1709298622.821,-33.203,-39.551,-40.527,-29.297,0.000
1709298622.825,-35.645,-35.156,-46.387,-40.527,0.000
1709298622.829,-36.621,-36.621,-44.434,-41.504,0.000
1709298622.833,-38.574,-22.949,-43.457,-47.363,0.000
1709298622.837,-28.320,-17.090,-42.969,-41.016,0.000
1709298622.841,-20.996,-28.320,-43.457,-34.180,0.000
1709298622.845,-22.949,-34.668,-42.480,-33.691,0.000
1709298622.849,-24.902,-31.738,-41.992,-33.203,0.000
1709298622.852,-21.973,-33.203,-40.527,-22.461,0.000
1709298622.856,-22.461,-29.785,-42.480,-14.648,0.000
1709298622.860,-16.602,-20.020,-41.016,-12.207,0.000
1709298622.864,-9.277,-35.645,-38.086,-14.648,0.000
1709298622.868,-16.113,-38.086,-41.992,-24.902,0.000
1709298622.872,-27.832,-30.762,-38.574,-24.902,0.000
1709298622.876,-28.320,-37.109,-39.062,-18.066,0.000
1709298622.880,-23.438,-30.762,-45.898,-25.879,0.000
1709298622.884,-16.113,-31.738,-41.016,-34.668,0.000
1709298622.888,-17.090,-36.621,-48.340,-36.133,0.000
1709298622.891,-30.762,-28.320,-49.805,-39.551,0.000
1709298622.895,-34.668,-31.250,-44.434,-34.180,0.000
1709298622.899,-25.391,-39.551,-43.457,-22.461,0.000
1709298622.903,-22.461,-43.457,-38.086,-26.367,0.000
1709298622.907,-29.297,-41.992,-38.574,-41.504,0.000
1709298622.911,-30.762,-38.086,-34.180,-43.945,0.000
1709298622.915,-33.691,-38.086,-28.320,-29.785,0.000
1709298622.919,-33.203,-44.922,-34.180,-23.926,0.000
1709298622.923,-27.832,-52.246,-36.133,-29.785,0.000
1709298622.927,-30.273,-50.293,-32.715,-33.691,0.000
1709298622.931,-34.180,-40.039,-29.297,-25.879,0.000
1709298622.934,-41.504,-31.250,-30.762,-16.113,0.000
1709298622.938,-41.504,-35.156,-39.062,-19.043,0.000
1709298622.942,-32.715,-40.039,-38.086,-20.996,0.000
1709298622.946,-30.273,-32.227,-37.598,-22.461,0.000
1709298622.950,-33.203,-27.344,-39.062,-25.391,0.000
1709298622.954,-30.762,-36.133,-37.598,-23.438,0.000
1709298622.958,-24.902,-44.922,-37.109,-14.160,0.000
1709298622.962,-25.391,-42.480,-42.480,-15.625,0.000
1709298622.966,-28.320,-32.715,-42.480,-23.926,0.000
1709298622.970,-30.273,-30.273,-40.527,-29.297,0.000
1709298622.973,-28.320,-28.809,-39.062,-30.273,0.000
1709298622.977,-22.949,-33.203,-39.551,-19.531,0.000
1709298622.981,-21.973,-41.992,-43.457,-23.926,0.000
1709298622.985,-26.367,-33.691,-41.016,-39.062,0.000
1709298622.989,-26.367,-29.297,-37.109,-38.086,0.000
1709298622.993,-24.414,-41.992,-39.062,-36.621,0.000
1709298622.997,-21.484,-43.945,-47.363,-35.156,0.000
1709298623.001,-19.531,-30.273,-42.969,-32.227,0.000
1709298623.005,-25.391,-39.551,-35.156,-40.527,0.000
1709298623.009,-27.832,-39.551,-34.668,-43.945,0.000
1709298623.013,-28.320,-25.391,-32.227,-43.457,0.000
1709298623.016,-31.738,-39.062,-31.250,-37.109,0.000
1709298623.020,-30.273,-43.457,-32.715,-24.902,0.000
1709298623.024,-27.344,-28.809,-31.250,-30.762,0.000
1709298623.028,-39.062,-26.855,-38.086,-48.828,0.000
1709298623.032,-43.457,-39.551,-47.363,-44.434,0.000
1709298623.036,0.000,-48.340,-40.039,-31.738,0.000
1709298623.040,0.000,-49.805,-31.250,-29.297,0.000
1709298623.044,0.000,-46.875,-31.250,-37.598,0.000
1709298623.048,0.000,-42.480,-34.668,-44.922,0.000
1709298623.052,0.000,-35.645,-41.016,-38.574,0.000
1709298623.056,0.000,-43.945,-37.109,-26.855,0.000
1709298623.059,0.000,-47.852,-28.809,-22.949,0.000
1709298623.063,0.000,-50.293,-36.133,-27.344,0.000
1709298623.067,0.000,-59.082,-39.551,-23.438,0.000
1709298623.071,0.000,-52.246,-38.574,-26.367,0.000
1709298623.075,0.000,-52.246,-42.480,-24.902,0.000
1709298623.079,0.000,-60.547,-43.457,-20.020,0.000
1709298623.083,-32.227,-51.758,-42.969,-23.926,0.000
1709298623.087,-27.832,-40.039,-36.621,-29.785,0.000
1709298623.091,-34.668,-40.527,-39.551,-41.504,0.000
1709298623.095,-37.598,-40.527,-43.457,-32.227,0.000
1709298623.099,-29.297,-33.203,-37.109,-21.973,0.000
1709298623.102,-29.785,-44.922,-39.062,-23.926,0.000
1709298623.106,-29.297,-62.500,-43.457,-33.691,0.000
1709298623.110,-30.762,-58.105,-39.551,-34.180,0.000
1709298623.114,-40.527,-53.223,-39.062,-25.391,0.000
1709298623.118,-41.016,-53.711,-44.922,-26.367,0.000
1709298623.122,-33.691,-51.270,-42.969,-23.438,0.000
1709298623.126,-37.109,-43.945,-39.551,-35.156,0.000
1709298623.130,-43.945,-34.668,-40.039,-45.410,0.000
1709298623.134,-49.316,-43.457,-43.945,-37.598,0.000
1709298623.138,-48.340,-43.945,-45.410,-30.762,0.000
1709298623.142,-40.527,-33.203,-48.340,-31.738,0.000
1709298623.145,-40.527,-38.086,-49.805,-42.480,0.000
1709298623.149,-42.969,-35.645,-46.387,-45.898,0.000
1709298623.153,-41.504,-37.109,-40.039,-40.039,0.000
1709298623.157,-32.715,-44.922,-35.156,-23.926,0.000
1709298623.161,-29.297,-40.527,-37.598,-23.926,0.000
1709298623.165,-30.273,-40.039,-37.109,-33.691,0.000
1709298623.169,-32.715,-41.504,-34.180,-37.598,0.000
1709298623.173,-39.062,-34.668,-44.922,-38.574,0.000
1709298623.177,-35.156,-29.297,-47.852,-27.344,0.000
1709298623.181,-32.715,-31.250,-41.016,-26.855,0.000
1709298623.184,-32.715,-33.203,-37.598,-27.832,0.000
1709298623.188,-31.738,-32.715,-33.203,-31.738,0.000
1709298623.192,-35.645,-34.180,-38.574,-31.250,0.000
1709298623.196,-26.855,-30.273,-35.645,-13.184,0.000
1709298623.200,-17.090,-26.855,-33.691,-1.465,0.000
1709298623.204,-24.902,-28.809,-41.016,-7.324,0.000
1709298623.208,-25.879,-32.715,-35.645,-18.066,0.000
1709298623.212,-16.602,-40.527,-29.785,-14.160,0.000
1709298623.216,-20.996,-46.387,-32.227,-1.465,0.000
1709298623.220,-25.391,-52.734,-38.086,-0.488,0.000
1709298623.224,-28.320,-41.016,-40.039,-11.230,0.000
1709298623.227,-33.691,-30.273,-37.598,-13.672,0.000
1709298623.231,-39.062,-37.598,-39.551,-14.648,0.000
1709298623.235,-38.574,-30.273,-33.691,-16.113,0.000
1709298623.239,-34.668,-26.855,-28.320,-16.113,0.000
1709298623.243,-30.273,-33.691,-33.691,-15.625,0.000
1709298623.247,-31.738,-43.457,-36.133,-14.160,0.000
1709298623.251,-28.809,-51.270,-31.738,-14.648,0.000
1709298623.255,-22.461,-47.363,-35.645,-21.973,0.000
1709298623.259,-23.438,-38.574,-48.340,-27.344,0.000
1709298623.262,-20.996,-26.367,-43.945,-20.508,0.000
1709298623.266,-27.344,-29.297,-41.504,-29.297,0.000
1709298623.270,-41.504,-38.574,-47.852,-47.852,0.000
1709298623.274,-35.156,-31.738,-41.504,-38.086,0.000
1709298623.278,-29.785,-32.227,-40.039,-33.691,0.000
1709298623.282,-31.250,-35.645,-38.574,-41.992,0.000
1709298623.286,-32.715,-34.668,-34.180,-49.805,0.000
1709298623.290,-37.598,-35.645,-36.621,-51.270,0.000
1709298623.294,-41.992,-37.109,-39.551,-40.527,0.000
1709298623.298,-36.621,-41.992,-38.574,-34.180,0.000
1709298623.302,-28.320,-35.156,-36.621,-39.551,0.000
1709298623.305,-35.156,-32.227,-37.598,-43.945,0.000
1709298623.309,-44.922,-34.180,-40.527,-43.457,0.000
1709298623.313,-48.828,-27.832,-40.527,-45.410,0.000
1709298623.317,-45.410,-33.691,-37.598,-37.109,0.000
1709298623.321,-44.922,-44.922,-37.109,-38.086,0.000
1709298623.325,-50.293,-42.480,-41.504,-48.340,0.000
1709298623.329,-54.199,-33.203,-41.504,-52.246,0.000
1709298623.333,-49.316,-41.992,-39.062,-42.969,0.000
1709298623.337,-41.992,-59.570,-38.086,-23.438,0.000
1709298623.341,-33.691,-56.152,-33.691,-12.695,0.000
1709298623.345,-30.273,-36.621,-27.832,-18.066,0.000
1709298623.348,-37.598,-32.715,-29.785,-21.484,0.000
1709298623.352,-43.945,-38.086,-31.738,-15.625,0.000
1709298623.356,-38.574,-41.016,-35.645,-8.301,0.000
1709298623.360,-21.973,-42.969,-36.133,-10.254,0.000
1709298623.364,-20.996,-44.922,-33.203,-20.996,0.000
1709298623.368,-24.902,-39.062,-31.738,-25.391,0.000
1709298623.372,-29.297,-44.434,-36.621,-30.273,0.000
1709298623.376,-37.598,-42.969,-43.945,-36.621,0.000
1709298623.380,-34.180,-34.180,-39.551,-29.297,0.000
1709298623.384,-32.227,-41.992,-35.156,-34.668,0.000
1709298623.388,-41.504,-35.156,-41.016,-53.223,0.000
1709298623.391,-48.828,-34.180,-43.457,-53.711,0.000
1709298623.395,-46.875,-38.086,-43.945,-38.574,0.000
1709298623.399,-41.016,-34.668,-38.574,-25.391,0.000
1709298623.403,-41.504,-31.738,-31.250,-36.133,0.000
1709298623.407,-35.156,-39.551,-27.344,-48.828,0.000
1709298623.411,-40.527,-34.180,-29.297,-54.199,0.000
1709298623.415,-41.504,-22.461,-29.297,-45.410,0.000
1709298623.419,-28.320,-36.621,-32.227,-43.457,0.000
1709298623.423,-25.879,-40.039,-38.574,-49.316,0.000
1709298623.427,-27.832,-29.297,-37.598,-50.293,0.000
1709298623.431,-26.855,-25.879,-36.621,-44.434,0.000
1709298623.434,-27.344,-24.902,-36.621,-35.645,0.000
1709298623.438,-35.156,-25.879,-34.180,-33.691,0.000
1709298623.442,-37.109,-28.809,-37.598,-22.949,0.000
1709298623.446,-42.480,-29.297,-41.992,-24.902,0.000
1709298623.450,-41.992,-32.715,-35.156,-35.645,0.000
1709298623.454,-36.133,-30.762,-36.133,-28.320,0.000
1709298623.458,-35.645,-30.273,-39.062,-20.508,0.000
1709298623.462,-29.785,-29.785,-36.621,-22.461,0.000
1709298623.466,-25.879,-22.461,-37.109,-27.344,0.000
1709298623.470,-30.762,-20.996,-38.574,-26.367,0.000
1709298623.473,-37.598,-25.879,-43.945,-28.320,0.000
1709298623.477,-23.926,-19.531,-37.109,-18.555,0.000
1709298623.481,-14.648,-14.648,-37.598,-12.207,0.000
1709298623.485,-17.578,-19.531,-38.086,-15.625,0.000
1709298623.489,-20.508,-17.578,-31.250,-16.602,0.000
1709298623.493,-24.414,-13.184,-34.180,-21.973,0.000
1709298623.497,-19.531,-20.020,-30.762,-19.043,0.000
1709298623.501,-19.531,-18.555,-25.879,-16.602,0.000
1709298623.505,-25.391,-8.301,-28.320,-27.344,0.000
1709298623.509,-31.250,-12.207,-37.109,-41.016,0.000
1709298623.513,-39.062,-22.461,-36.133,-37.109,0.000
1709298623.516,-45.898,-26.855,-35.156,-26.367,0.000
1709298623.520,-39.062,-24.414,-45.410,-26.855,0.000
1709298623.524,-41.016,-23.438,-38.574,-41.504,0.000
1709298623.528,-53.223,-25.391,-38.086,-59.082,0.000
1709298623.532,-56.152,-24.414,-36.133,-49.805,0.000
1709298623.536,-55.664,-24.902,-39.551,-44.922,0.000
1709298623.540,-51.758,-39.062,-45.410,-53.223,0.000
1709298623.544,-55.664,-41.504,-40.527,-55.664,0.000
1709298623.548,-62.988,-30.762,-42.480,-59.082,0.000
1709298623.552,-61.523,-32.715,-40.039,-55.176,0.000
1709298623.556,-48.828,-33.691,-36.621,-41.504,0.000
1709298623.559,-38.086,-21.484,-34.668,-27.344,0.000
1709298623.563,-33.203,-14.648,-28.809,-28.320,0.000
1709298623.567,-34.668,-14.648,-34.668,-40.039,0.000
1709298623.571,-41.992,-12.695,-41.504,-46.875,0.000
1709298623.575,-37.109,-15.625,-36.621,-28.809,0.000
1709298623.579,-24.902,-22.461,-36.621,-12.207,0.000
1709298623.583,-23.438,-17.578,-36.133,-17.090,0.000
1709298623.587,-32.227,-8.301,-33.203,-23.926,0.000
1709298623.591,-43.457,-14.648,-30.273,-36.133,0.000
1709298623.594,-28.320,-13.184,-29.297,-25.391,0.000
1709298623.598,-16.113,-11.719,-33.691,-5.859,0.000
1709298623.602,-21.484,-20.020,-41.504,-12.207,0.000
1709298623.606,-21.484,-13.672,-39.551,-21.484,0.000
1709298623.610,-11.230,-1.953,-40.527,-18.066,0.000
1709298623.614,-10.254,-1.465,-43.457,-20.508,0.000
1709298623.618,-8.789,-2.930,-35.645,-26.367,0.000
1709298623.622,-2.930,-4.883,-33.203,-13.184,0.000
1709298623.626,-18.555,-3.418,-43.945,-28.320,0.000
1709298623.630,-22.949,4.395,-44.922,-44.434,0.000
1709298623.634,-15.625,-1.953,-39.551,-28.320,0.000
1709298623.637,-19.531,-12.695,-38.574,-23.438,0.000
1709298623.641,-18.066,-6.836,-38.086,-27.832,0.000
1709298623.645,-16.602,-8.301,-37.109,-37.109,0.000
1709298623.649,-24.902,-11.230,-40.527,-40.527,0.000
1709298623.653,-27.832,-1.953,-44.434,-36.133,0.000
1709298623.657,-27.344,-14.648,-40.039,-37.598,0.000
1709298623.661,-28.320,-15.137,-34.668,-41.992,0.000
1709298623.665,-27.832,-2.930,-32.227,-37.109,0.000
1709298623.669,-31.738,-2.930,-35.156,-33.203,0.000
1709298623.673,-31.250,-5.371,-34.668,-35.156,0.000
1709298623.676,-26.855,-4.883,-33.203,-29.297,0.000
1709298623.680,-30.762,-10.254,-37.598,-32.227,0.000
1709298623.684,-30.762,-17.090,-33.691,-41.016,0.000
1709298623.688,-39.551,-23.926,-29.785,-55.664,0.000
1709298623.692,-47.852,-24.414,-31.738,-54.199,0.000
1709298623.696,-47.363,-20.996,-35.645,-40.039,0.000
1709298623.700,-42.480,-24.902,-34.668,-28.320,0.000
1709298623.704,-43.945,-17.090,-34.668,-31.738,0.000
1709298623.708,-46.875,-6.348,-39.551,-42.969,0.000
1709298623.712,-46.387,-15.137,-41.016,-41.504,0.000
1709298623.716,-45.898,-25.879,-37.109,-32.715,0.000
1709298623.719,-40.527,-18.555,-37.598,-28.320,0.000
1709298623.723,-36.621,-9.277,-37.109,-31.738,0.000
1709298623.727,-30.762,-15.625,-45.898,-32.227,0.000
1709298623.731,-27.832,-19.043,-48.340,-29.297,0.000
1709298623.735,-24.902,-16.113,-35.645,-22.461,0.000
1709298623.739,-17.578,-22.461,-38.086,-10.742,0.000
1709298623.743,-16.113,-26.855,-41.504,-18.066,0.000
1709298623.747,-22.949,-23.926,-43.945,-32.715,0.000
1709298623.751,-27.832,-23.438,-45.410,-29.297,0.000
1709298623.755,-28.320,-25.879,-37.598,-20.996,0.000
1709298623.759,-24.414,-19.043,-32.715,-10.742,0.000
1709298623.762,-17.090,-22.949,-30.762,-10.742,0.000
1709298623.766,-21.973,-29.785,-37.598,-30.762,0.000
1709298623.770,-27.344,-31.738,-41.504,-27.344,0.000
1709298623.774,-30.273,-27.344,-38.086,-9.277,0.000
1709298623.778,-32.227,-22.461,-40.527,-17.578,0.000
1709298623.782,-28.320,-29.785,-42.480,-19.531,0.000
