timestamps,TP9,AF7,AF8,TP10,Right AUX
1709297701.945,-17.090,-44.434,-43.945,-38.574,0.000
1709297701.949,-63.477,-43.945,-42.480,-60.059,0.000
1709297701.953,-70.312,-41.504,-45.410,-49.805,0.000
1709297701.957,-26.855,-41.992,-48.340,-21.484,0.000
1709297701.961,7.812,-40.039,-44.922,-14.648,0.000
1709297701.965,-10.254,-33.691,-41.992,-34.180,0.000
1709297701.968,-50.293,-32.715,-42.969,-51.758,0.000
1709297701.972,-60.547,-37.109,-44.434,-47.363,0.000
1709297701.976,-27.344,-34.180,-41.504,-16.602,0.000
1709297701.980,6.836,-32.715,-38.574,0.000,0.000
1709297701.984,-0.488,-38.574,-41.992,-26.367,0.000
1709297701.988,-41.992,-38.086,-42.480,-53.223,0.000
1709297701.992,-68.359,-38.574,-42.969,-49.316,0.000
1709297701.996,-44.434,-41.504,-45.898,-32.715,0.000
1709297702.000,-2.441,-40.527,-46.875,-28.320,0.000
1709297702.004,-4.395,-38.086,-45.410,-44.434,0.000
1709297702.008,-49.805,-43.945,-47.852,-66.406,0.000
1709297702.011,-71.289,-44.922,-49.805,-57.129,0.000
1709297702.015,-44.922,-41.992,-47.852,-21.484,0.000
1709297702.019,-9.277,-42.969,-49.316,0.488,0.000
1709297702.023,-9.766,-44.922,-48.828,-17.578,0.000
1709297702.027,-36.621,-41.992,-46.875,-41.992,0.000
1709297702.031,-60.059,-42.480,-44.434,-48.828,0.000
1709297702.035,-50.781,-46.387,-40.527,-31.250,0.000
1709297702.039,-7.812,-46.875,-39.062,-7.324,0.000
1709297702.043,-1.953,-48.828,-43.457,-19.043,0.000
1709297702.047,-42.480,-47.852,-42.969,-45.898,0.000
1709297702.050,-70.801,-44.922,-42.480,-53.711,0.000
1709297702.054,-53.223,-40.527,-45.410,-38.086,0.000
1709297702.058,-4.395,-37.598,-42.480,-2.441,0.000
1709297702.062,16.602,-38.086,-40.039,5.371,0.000
1709297702.066,-14.648,-40.527,-42.480,-29.297,0.000
1709297702.070,-56.641,-40.527,-42.969,-44.922,0.000
1709297702.074,-47.852,-42.969,-42.969,-33.203,0.000
1709297702.078,-1.953,-40.527,-40.039,-2.441,0.000
1709297702.082,7.812,-40.527,-41.016,-3.906,0.000
1709297702.086,-26.367,-44.922,-43.457,-21.484,0.000
1709297702.090,-62.500,-45.898,-47.852,-41.504,0.000
1709297702.093,-62.500,-44.922,-47.363,-39.062,0.000
1709297702.097,-21.973,-37.598,-43.945,-12.695,0.000
1709297702.101,7.324,-40.039,-47.852,-20.508,0.000
1709297702.105,-18.066,-43.945,-49.805,-45.410,0.000
1709297702.109,-59.570,-35.645,-44.922,-59.570,0.000
1709297702.113,-62.988,-34.668,-40.039,-39.551,0.000
1709297702.117,-29.785,-32.715,-38.574,-9.766,0.000
1709297702.121,3.418,-28.809,-41.016,-11.719,0.000
1709297702.125,-9.277,-32.715,-38.574,-33.691,0.000
1709297702.129,-58.594,-34.180,-39.551,-53.711,0.000
1709297702.133,-71.777,-39.062,-41.504,-43.945,0.000
1709297702.136,-33.203,-41.016,-40.527,-20.996,0.000
1709297702.140,8.301,-36.621,-42.969,-4.883,0.000
1709297702.144,-0.977,-36.621,-44.922,-23.926,0.000
1709297702.148,-50.293,-39.062,-48.828,-54.199,0.000
1709297702.152,-70.312,-40.527,-47.363,-51.758,0.000
1709297702.156,-41.016,-41.992,-43.945,-29.785,0.000
1709297702.160,-7.812,-41.992,-44.922,-8.301,0.000
1709297702.164,-1.953,-32.227,-41.016,-25.391,0.000
1709297702.168,-41.016,-26.855,-43.457,-56.641,0.000
1709297702.172,-64.941,-29.297,-44.434,-53.711,0.000
1709297702.175,-30.273,-26.367,-42.969,-24.414,0.000
1709297702.179,0.000,-23.438,-43.457,-2.441,0.000
1709297702.183,0.000,-26.367,-41.504,-16.602,0.000
1709297702.187,0.000,-31.250,-43.457,-42.480,0.000
1709297702.191,0.000,-33.691,-45.410,-50.293,0.000
1709297702.195,0.000,-30.273,-43.945,-23.926,0.000
1709297702.199,0.000,-33.691,-44.922,-0.977,0.000
1709297702.203,0.000,-38.574,-44.922,-12.207,0.000
1709297702.207,0.000,-39.551,-45.410,-38.574,0.000
1709297702.211,0.000,-38.574,-43.945,-50.293,0.000
1709297702.215,0.000,-40.527,-46.387,-28.809,0.000
1709297702.218,0.000,-34.180,-44.434,-13.672,0.000
1709297702.222,0.000,-28.320,-37.598,-15.625,0.000
1709297702.226,-32.227,-36.133,-42.969,-33.203,0.000
1709297702.230,-72.754,-38.574,-45.898,-43.945,0.000
1709297702.234,-59.570,-36.133,-40.039,-20.996,0.000
1709297702.238,-12.695,-39.062,-38.086,8.301,0.000
1709297702.242,5.371,-39.062,-41.992,0.488,0.000
1709297702.246,-23.926,-38.086,-42.480,-21.973,0.000
1709297702.250,-67.871,-37.109,-41.992,-21.484,0.000
1709297702.254,-65.918,-31.250,-42.480,-15.625,0.000
1709297702.258,-18.066,-35.156,-41.992,1.465,0.000
1709297702.261,7.324,-39.062,-41.992,3.418,0.000
1709297702.265,-18.066,-35.156,-38.086,-26.855,0.000
1709297702.269,-56.152,-38.574,-37.109,-43.945,0.000
1709297702.273,-59.570,-41.016,-34.668,-33.691,0.000
1709297702.277,-28.809,-36.133,-35.645,-20.020,0.000
1709297702.281,-4.395,-34.668,-39.551,-15.137,0.000
1709297702.285,-20.508,-32.715,-37.109,-40.039,0.000
1709297702.289,-64.941,-34.668,-41.504,-63.477,0.000
1709297702.293,-78.613,-40.039,-48.828,-43.945,0.000
1709297702.297,-42.480,-38.086,-44.434,-14.648,0.000
1709297702.301,-0.488,-31.250,-38.086,-7.324,0.000
1709297702.304,1.465,-30.273,-33.203,-20.020,0.000
1709297702.308,-41.504,-35.645,-32.715,-32.227,0.000
1709297702.312,-59.082,-41.016,-35.645,-22.461,0.000
1709297702.316,-23.438,-37.109,-32.227,-1.953,0.000
1709297702.320,8.789,-36.133,-32.227,9.766,0.000
1709297702.324,0.977,-38.574,-36.133,-13.184,0.000
1709297702.328,-36.133,-36.133,-37.598,-46.875,0.000
1709297702.332,-62.500,-39.062,-41.016,-50.293,0.000
1709297702.336,-37.598,-38.574,-43.945,-24.414,0.000
1709297702.340,9.277,-31.250,-41.992,1.953,0.000
1709297702.343,9.277,-30.273,-34.668,-13.184,0.000
1709297702.347,-29.297,-34.180,-34.180,-41.504,0.000
1709297702.351,-56.152,-38.574,-37.598,-34.180,0.000
1709297702.355,-45.898,-40.039,-41.992,-7.324,0.000
1709297702.359,0.488,-37.109,-42.969,1.465,0.000
1709297702.363,14.160,-36.621,-44.922,-15.625,0.000
1709297702.367,-29.785,-43.457,-51.270,-49.316,0.000
1709297702.371,-57.617,-42.480,-46.875,-48.340,0.000
1709297702.375,-34.180,-34.668,-41.016,-17.090,0.000
1709297702.379,7.812,-36.133,-44.922,-3.418,0.000
1709297702.383,13.184,-39.551,-46.875,-21.484,0.000
1709297702.386,-22.949,-41.504,-42.480,-51.270,0.000
1709297702.390,-62.500,-43.945,-42.969,-56.641,0.000
1709297702.394,-54.199,-41.992,-41.504,-38.574,0.000
1709297702.398,-9.766,-39.551,-38.086,-2.930,0.000
1709297702.402,9.277,-37.598,-38.086,-3.418,0.000
1709297702.406,-20.508,-32.715,-40.039,-38.086,0.000
1709297702.410,-61.523,-35.645,-41.016,-55.664,0.000
1709297702.414,-61.035,-39.551,0.000,-45.898,0.000
1709297702.418,-20.996,-36.621,0.000,-24.414,0.000
1709297702.422,8.789,-36.133,0.000,-20.020,0.000
1709297702.426,-15.137,-40.039,0.000,-37.598,0.000
1709297702.429,-56.641,-42.969,0.000,-62.500,0.000
1709297702.433,-55.176,-41.992,0.000,-54.688,0.000
1709297702.437,-15.137,-41.016,0.000,-24.414,0.000
1709297702.441,2.930,-36.621,0.000,-19.043,0.000
1709297702.445,-29.297,-38.086,0.000,-33.203,0.000
1709297702.449,-70.801,-41.504,0.000,-57.129,0.000
1709297702.453,-77.148,-43.945,0.000,-52.734,0.000
1709297702.457,-40.527,-41.504,0.000,-27.344,0.000
1709297702.461,-5.371,-36.621,-41.504,-16.113,0.000
1709297702.465,-18.555,-38.086,-45.898,-32.227,0.000
1709297702.469,-63.477,-41.504,-46.875,-54.199,0.000
1709297702.472,-76.172,-41.504,-42.969,-44.922,0.000
1709297702.476,-30.762,-37.109,-41.504,-17.090,0.000
1709297702.480,5.371,-39.062,-43.457,-8.301,0.000
1709297702.484,-10.742,-43.945,-43.457,-31.738,0.000
1709297702.488,-58.105,-43.457,-42.969,-39.062,0.000
1709297702.492,-75.684,-37.598,-37.109,-27.832,0.000
1709297702.496,-43.945,-37.109,-33.203,-20.020,0.000
1709297702.500,-6.836,-40.039,-36.133,-5.859,0.000
1709297702.504,-9.766,-40.039,-38.574,-20.508,0.000
1709297702.508,-44.922,-38.086,-38.086,-46.387,0.000
1709297702.511,-59.570,-36.133,-33.691,-41.016,0.000
1709297702.515,-32.227,-41.016,-30.273,-18.066,0.000
1709297702.519,6.348,-38.574,-30.762,-7.324,0.000
1709297702.523,9.277,-29.297,-29.785,-20.508,0.000
1709297702.527,-35.645,-29.297,-32.715,-43.457,0.000
1709297702.531,-72.266,-33.691,-37.109,-45.898,0.000
1709297702.535,-50.781,-34.668,-40.039,-26.855,0.000
1709297702.539,-12.207,-34.180,-41.992,-17.578,0.000
1709297702.543,-5.859,-35.645,-42.969,-29.785,0.000
1709297702.547,-39.551,-37.598,-43.457,-55.176,0.000
1709297702.551,-70.801,-35.156,-42.969,-60.547,0.000
1709297702.554,-52.734,-33.691,-41.992,-34.668,0.000
1709297702.558,-9.766,-34.180,-44.922,-20.508,0.000
1709297702.562,1.953,-31.250,-41.504,-27.344,0.000
1709297702.566,-36.621,-31.250,-33.691,-47.852,0.000
1709297702.570,-65.918,-36.133,-37.109,-61.035,0.000
1709297702.574,-48.828,-35.645,-36.133,-32.715,0.000
1709297702.578,-7.324,-36.133,-38.086,1.465,0.000
1709297702.582,9.277,-39.551,-43.945,1.465,0.000
1709297702.586,-15.137,-43.457,-43.457,-36.133,0.000
1709297702.590,-54.199,-43.457,-42.480,-58.594,0.000
1709297702.594,-56.152,-38.574,-40.527,-39.551,0.000
1709297702.597,-20.508,-34.180,-38.574,-14.160,0.000
1709297702.601,-0.977,-32.227,-37.109,-20.996,0.000
1709297702.605,-18.555,-35.156,-38.086,-44.922,0.000
1709297702.609,-59.570,-35.156,-41.504,-64.941,0.000
1709297702.613,-67.871,-33.691,-41.504,-59.082,0.000
1709297702.617,-26.367,-34.180,-36.133,-31.250,0.000
1709297702.621,6.348,-33.203,-37.109,-19.043,0.000
1709297702.625,-15.625,-35.156,-37.598,-25.879,0.000
1709297702.629,-65.430,-38.574,-39.062,-50.781,0.000
1709297702.633,-72.754,-39.062,-42.480,-51.758,0.000
1709297702.636,-36.133,-41.504,-40.527,-29.297,0.000
1709297702.640,-11.719,-41.992,-42.480,-22.949,0.000
1709297702.644,-28.809,-41.504,-49.316,-46.387,0.000
1709297702.648,-66.895,-42.480,0.000,-73.730,0.000
1709297702.652,-79.102,-42.969,0.000,-66.406,0.000
1709297702.656,-53.711,-48.340,0.000,-39.551,0.000
1709297702.660,-9.277,-44.922,0.000,-22.461,0.000
1709297702.664,-6.348,-40.527,0.000,-33.203,0.000
1709297702.668,-54.688,-46.387,0.000,-49.805,0.000
1709297702.672,-73.730,-41.992,0.000,-40.527,0.000
1709297702.676,-38.086,-38.086,0.000,-21.484,0.000
1709297702.679,3.906,-36.621,0.000,-9.766,0.000
1709297702.683,0.977,-36.133,0.000,-16.113,0.000
1709297702.687,-45.898,-40.039,0.000,-42.480,0.000
1709297702.691,-74.219,-39.551,0.000,-51.758,0.000
1709297702.695,-51.270,-41.504,-42.969,-34.668,0.000
1709297702.699,-18.066,-43.457,-43.457,-21.484,0.000
1709297702.703,-10.254,-36.133,-41.016,-26.367,0.000
1709297702.707,-38.086,-30.273,-38.086,-50.781,0.000
1709297702.711,-71.289,-35.156,-37.109,-52.734,0.000
1709297702.715,-60.547,-38.574,-41.016,-32.227,0.000
1709297702.719,-11.230,-32.715,-42.480,-15.625,0.000
1709297702.722,7.324,-30.762,-42.480,-28.320,0.000
1709297702.726,-36.621,-38.574,-41.992,-62.500,0.000
1709297702.730,-82.520,-41.504,-43.945,-61.523,0.000
1709297702.734,-66.895,-36.621,-46.387,-42.969,0.000
1709297702.738,-28.320,-38.086,-46.875,-30.762,0.000
1709297702.742,-19.531,-40.527,-49.805,-37.598,0.000
1709297702.746,-43.457,-39.062,-45.898,-57.129,0.000
1709297702.750,-79.102,-40.527,-43.945,-64.941,0.000
1709297702.754,-67.383,-41.016,-41.016,-40.039,0.000
1709297702.758,-13.672,-41.504,-37.598,-16.602,0.000
1709297702.762,6.836,-42.480,-40.527,-24.902,0.000
1709297702.765,-21.973,-40.039,-40.527,-53.711,0.000
1709297702.769,-64.453,-38.574,-36.133,-66.895,0.000
1709297702.773,-69.336,-40.039,-37.109,-45.410,0.000
1709297702.777,-28.320,-39.062,-39.551,-19.043,0.000
1709297702.781,-0.488,-38.086,-35.645,-20.020,0.000
1709297702.785,-26.367,-41.992,-34.668,-47.852,0.000
1709297702.789,-63.477,-43.457,-36.621,-64.453,0.000
1709297702.793,-69.336,-44.922,-34.668,-42.480,0.000
1709297702.797,-38.574,-39.551,-35.156,-15.625,0.000
1709297702.801,-8.301,-41.016,-36.133,-9.277,0.000
1709297702.804,-22.949,-46.387,-38.574,-29.785,0.000
1709297702.808,-70.801,-45.410,-42.969,-62.012,0.000
1709297702.812,-81.055,-44.922,-41.992,-59.082,0.000
1709297702.816,-43.945,-46.387,-43.945,-26.855,0.000
1709297702.820,-13.184,-44.922,-41.992,-6.836,0.000
1709297702.824,-20.996,-39.551,-36.621,-27.832,0.000
1709297702.828,-64.941,-42.480,-35.156,-54.199,0.000
1709297702.832,-86.426,-45.410,-40.527,-50.781,0.000
1709297702.836,-57.129,-45.898,-42.480,-25.391,0.000
1709297702.840,-12.207,-45.898,-42.480,-6.348,0.000
1709297702.844,-2.930,-39.551,-38.574,-15.137,0.000
1709297702.847,-47.363,-44.922,-35.645,-36.133,0.000
1709297702.851,-71.289,-46.387,-38.574,-29.785,0.000
1709297702.855,-40.527,-44.434,-39.551,-2.930,0.000
1709297702.859,-0.977,-43.945,-38.574,14.160,0.000
1709297702.863,0.000,-38.574,-35.645,11.230,0.000
1709297702.867,-47.852,-38.086,-34.180,-8.789,0.000
1709297702.871,-74.707,-41.992,-38.086,-27.344,0.000
1709297702.875,-43.457,-41.504,-39.062,-9.766,0.000
1709297702.879,-3.418,-41.504,-40.527,7.324,0.000
1709297702.883,7.324,-39.551,-41.016,-5.859,0.000
1709297702.887,-29.297,-38.086,-38.574,-31.250,0.000
1709297702.890,-69.336,-44.922,-37.109,-41.016,0.000
1709297702.894,-52.734,-43.457,-31.250,-14.160,0.000
1709297702.898,-18.066,-38.086,-29.297,2.930,0.000
1709297702.902,-13.672,-43.457,-35.645,-8.301,0.000
1709297702.906,-48.828,-47.852,-41.504,-29.785,0.000
1709297702.910,-87.891,-42.969,-41.016,-36.133,0.000
1709297702.914,-73.730,-33.203,-39.551,-18.066,0.000
1709297702.918,-25.391,-31.738,-36.621,3.418,0.000
1709297702.922,-10.742,-36.621,-37.109,-4.395,0.000
1709297702.926,-34.180,-37.598,-44.434,-35.156,0.000
1709297702.930,-72.754,-42.969,-47.363,-50.293,0.000
1709297702.933,-77.637,-49.316,-49.805,-28.809,0.000
1709297702.937,-35.156,-46.387,-47.363,0.488,0.000
1709297702.941,-2.930,-42.480,-41.992,-9.766,0.000
1709297702.945,-28.809,-43.945,-47.852,-43.457,0.000
1709297702.949,-63.477,-42.480,-53.223,-60.059,0.000
1709297702.953,-62.012,-43.457,-47.363,-42.969,0.000
1709297702.957,-27.832,-40.039,-47.363,-10.254,0.000
1709297702.961,3.906,-33.691,-48.828,-11.719,0.000
1709297702.965,-14.160,-33.691,-44.434,-39.062,0.000
1709297702.969,-58.594,-34.668,-44.434,-56.641,0.000
1709297702.972,-73.242,-36.133,-47.852,-52.246,0.000
1709297702.976,-35.645,-35.645,-47.852,-29.297,0.000
1709297702.980,3.418,-37.598,-40.527,-15.625,0.000
1709297702.984,-5.859,-35.156,-38.574,-37.598,0.000
1709297702.988,-44.434,-35.645,-42.969,-63.965,0.000
1709297702.992,-61.523,-38.574,-44.434,-59.082,0.000
1709297702.996,-31.738,-35.156,-46.387,-25.391,0.000
1709297703.000,1.465,-39.551,-47.852,3.906,0.000
1709297703.004,0.488,-39.062,-47.852,-19.043,0.000
1709297703.008,-27.832,-39.551,-51.270,-48.828,0.000
1709297703.012,-45.898,-41.992,-50.293,-37.109,0.000
1709297703.015,-21.484,-39.062,-45.898,-10.742,0.000
1709297703.019,19.531,-37.598,-46.875,-0.488,0.000
1709297703.023,22.949,-41.504,-49.805,-16.602,0.000
1709297703.027,-10.742,-43.457,-48.828,-41.504,0.000
1709297703.031,-40.039,-41.504,-47.852,-50.781,0.000
1709297703.035,-29.297,-38.574,-46.875,-25.391,0.000
1709297703.039,9.766,-38.574,-44.922,5.371,0.000
1709297703.043,11.719,-42.969,-41.504,-1.953,0.000
1709297703.047,-29.297,-42.480,-41.504,-24.902,0.000
1709297703.051,-62.988,-40.527,-43.945,-32.715,0.000
1709297703.054,-40.039,-34.180,-40.039,-15.625,0.000
1709297703.058,4.883,-33.691,-41.992,8.789,0.000
1709297703.062,9.766,-37.109,-43.457,-9.277,0.000
1709297703.066,-21.484,-33.203,-43.457,-45.898,0.000
1709297703.070,-56.641,-35.645,-45.410,-51.270,0.000
1709297703.074,-50.781,-39.551,-43.457,-23.926,0.000
1709297703.078,-6.348,-40.039,-41.992,-5.371,0.000
1709297703.082,16.602,-40.527,-41.992,-17.090,0.000
1709297703.086,-9.277,-39.551,-38.574,-39.551,0.000
1709297703.090,-50.781,-34.180,-35.156,-41.016,0.000
1709297703.094,-51.758,-32.715,-37.598,-24.414,0.000
1709297703.097,-9.766,-32.227,-38.086,-7.324,0.000
1709297703.101,13.672,-29.785,-41.016,-8.301,0.000
1709297703.105,-17.090,-29.785,-43.457,-35.645,0.000
1709297703.109,-57.617,-32.227,-39.062,-50.293,0.000
1709297703.113,-61.035,-34.180,-39.551,-35.645,0.000
1709297703.117,-23.926,-34.668,-39.551,-1.465,0.000
1709297703.121,7.324,-36.621,-39.551,2.930,0.000
1709297703.125,-10.742,-37.109,-44.922,-29.785,0.000
1709297703.129,-46.875,-33.203,-40.039,-44.434,0.000
1709297703.133,-52.246,-32.227,-40.527,-34.180,0.000
1709297703.137,-16.602,-29.297,-41.016,-6.348,0.000
1709297703.140,12.207,-27.832,-41.992,-0.977,0.000
1709297703.144,-0.488,-27.344,-42.480,-28.320,0.000
1709297703.148,-44.434,-31.738,-39.062,-44.434,0.000
1709297703.152,-62.500,-33.203,-40.527,-39.062,0.000
1709297703.156,-35.645,-33.691,-42.969,-22.949,0.000
1709297703.160,-10.742,-35.645,-43.945,-20.508,0.000
1709297703.164,-16.602,-34.668,-45.410,-40.039,0.000
1709297703.168,-46.387,-32.227,-44.434,-58.594,0.000
1709297703.172,-65.918,-28.809,-43.945,-59.570,0.000
1709297703.176,-31.250,-25.879,-41.504,-26.367,0.000
1709297703.180,13.672,-30.762,-39.062,-4.883,0.000
1709297703.183,2.441,-36.133,-42.969,-28.320,0.000
1709297703.187,-47.363,-35.156,-46.387,-62.500,0.000
1709297703.191,-75.684,-37.109,-43.945,-57.617,0.000
1709297703.195,-59.570,-41.992,-41.992,-23.926,0.000
1709297703.199,-19.531,-46.387,-41.992,-22.461,0.000
1709297703.203,-6.348,-41.016,-42.480,-38.086,0.000
1709297703.207,-35.645,-34.668,-44.434,-50.781,0.000
1709297703.211,-67.383,-38.574,-43.945,-53.223,0.000
1709297703.215,-53.223,-36.621,-41.504,-27.344,0.000
1709297703.219,-10.742,-33.691,-41.992,-6.836,0.000
1709297703.222,0.000,-34.180,-41.992,-22.461,0.000
1709297703.226,-30.273,-32.227,-41.992,-46.875,0.000
1709297703.230,-64.941,-36.621,-44.434,-56.152,0.000
1709297703.234,-60.547,-40.039,-46.875,-41.016,0.000
1709297703.238,-20.996,-41.504,-43.945,-7.812,0.000
1709297703.242,-6.348,-42.969,-42.969,-19.531,0.000
1709297703.246,-34.668,-43.945,-46.387,-62.500,0.000
1709297703.250,-64.453,-42.480,-45.410,-65.918,0.000
1709297703.254,-58.594,-41.992,-40.527,-40.039,0.000
1709297703.258,-17.578,-44.922,-44.434,-22.949,0.000
1709297703.262,-3.906,-45.410,-50.781,-30.273,0.000
1709297703.265,-32.715,-39.551,-46.875,-49.805,0.000
1709297703.269,-64.453,-38.086,-41.992,-64.453,0.000
1709297703.273,-67.383,-41.016,-45.898,-58.594,0.000
1709297703.277,-33.203,-43.457,-51.270,-34.668,0.000
1709297703.281,-10.742,-42.969,-45.410,-31.738,0.000
1709297703.285,-48.828,-46.387,-41.992,-54.688,0.000
1709297703.289,-91.797,-45.898,-46.875,-82.031,0.000
1709297703.293,-86.914,-41.504,-44.434,-69.336,0.000
1709297703.297,-48.828,-38.086,-41.016,-34.180,0.000
1709297703.301,-14.648,-39.062,-44.434,-21.484,0.000
1709297703.305,-31.250,-44.922,-45.410,-39.551,0.000
1709297703.308,-77.148,-45.410,-45.410,-60.547,0.000
1709297703.312,-87.891,-45.898,-48.340,-48.828,0.000
1709297703.316,-50.781,-43.457,-45.898,-20.996,0.000
1709297703.320,-3.906,-36.133,-40.039,-4.395,0.000
1709297703.324,-14.648,-38.086,-38.086,-24.414,0.000
1709297703.328,-55.664,-42.480,-36.621,-41.016,0.000
1709297703.332,-71.777,-40.039,-35.645,-32.715,0.000
1709297703.336,-47.852,-36.621,-33.691,-10.742,0.000
1709297703.340,-8.789,-31.250,-29.785,3.906,0.000
1709297703.344,-19.043,-31.250,-29.297,-15.625,0.000
1709297703.347,-58.105,-35.645,-29.785,-45.898,0.000
1709297703.351,-79.102,-36.133,-31.738,-44.434,0.000
1709297703.355,-59.570,-33.691,-38.086,-20.508,0.000
1709297703.359,-21.484,-37.598,-41.504,-18.066,0.000
1709297703.363,-17.578,-37.109,-40.527,-31.250,0.000
1709297703.367,-53.711,-35.156,-36.621,-55.664,0.000
1709297703.371,-86.426,-37.109,-33.691,-60.547,0.000
1709297703.375,-65.918,-40.039,-35.156,-14.648,0.000
1709297703.379,-19.531,-37.109,-42.480,-9.766,0.000
1709297703.383,-5.371,-31.738,-40.527,-41.016,0.000
1709297703.387,-32.715,-31.738,-37.598,-57.129,0.000
1709297703.390,-65.430,-35.645,-36.133,-59.570,0.000
1709297703.394,-49.805,-38.086,-38.574,-31.250,0.000
1709297703.398,-8.301,-36.133,-35.645,-14.160,0.000
1709297703.402,2.930,-36.621,-35.156,-29.785,0.000
1709297703.406,-35.156,-38.574,-40.527,-58.105,0.000
1709297703.410,-73.730,-37.598,-40.039,-68.848,0.000
1709297703.414,-53.223,-40.039,-44.434,-47.852,0.000
1709297703.418,-10.254,-39.062,-45.410,-22.461,0.000
1709297703.422,4.395,-36.621,-43.457,-26.367,0.000
1709297703.426,-27.344,-36.133,-45.898,-54.199,0.000
1709297703.429,-69.824,-38.574,-37.109,-68.359,0.000
1709297703.433,-65.918,-41.016,-36.133,-50.781,0.000
1709297703.437,-26.855,-38.574,-41.016,-28.809,0.000
1709297703.441,-11.719,-34.180,-35.645,-22.949,0.000
1709297703.445,0.000,-33.203,-35.645,-38.086,0.000
1709297703.449,0.000,-31.738,-40.039,-51.270,0.000
1709297703.453,0.000,-33.691,-37.109,-41.504,0.000
1709297703.457,0.000,-39.551,-34.668,-19.531,0.000
1709297703.461,0.000,-45.898,-36.621,-17.090,0.000
1709297703.465,0.000,-45.410,-40.039,-41.016,0.000
1709297703.469,0.000,-41.504,-40.527,-66.406,0.000
1709297703.472,0.000,-42.969,-44.434,-57.129,0.000
1709297703.476,0.000,-44.922,-49.805,-27.344,0.000
1709297703.480,0.000,-46.875,-50.781,-23.438,0.000
1709297703.484,0.000,-42.969,-52.734,-47.852,0.000
1709297703.488,0.000,-36.621,-53.711,-71.777,0.000
1709297703.492,-74.219,-36.621,-47.363,-49.805,0.000
1709297703.496,-43.457,-40.039,-46.875,-22.949,0.000
1709297703.500,-4.395,-39.062,-50.293,-25.879,0.000
1709297703.504,-9.766,-37.598,-48.828,-41.504,0.000
1709297703.508,-59.082,-37.598,-48.340,-65.918,0.000
1709297703.512,-85.938,-43.457,-53.223,-70.312,0.000
1709297703.515,-53.711,-43.945,-55.664,-45.898,0.000
1709297703.519,-7.324,-36.621,-52.734,-25.391,0.000
1709297703.523,-16.113,-35.156,-51.758,-37.598,0.000
1709297703.527,-59.082,-35.645,-49.316,-56.152,0.000
1709297703.531,-78.125,-34.180,-44.434,-54.688,0.000
1709297703.535,-53.223,-33.691,-41.992,-29.297,0.000
1709297703.539,-13.184,-38.574,-42.480,-11.719,0.000
1709297703.543,-12.207,-44.922,-42.480,-22.949,0.000
1709297703.547,-49.316,-41.992,-42.480,-54.199,0.000
1709297703.551,-71.289,-39.062,-38.086,-54.199,0.000
1709297703.555,-46.875,-40.527,-36.621,-28.320,0.000
1709297703.558,-10.254,-41.992,-39.551,-12.695,0.000
1709297703.562,0.000,-39.062,-39.062,-19.531,0.000
1709297703.566,-37.598,-42.969,-39.062,-45.898,0.000
1709297703.570,-70.312,-49.316,-38.574,-47.852,0.000
1709297703.574,-47.852,-44.922,-42.969,-35.156,0.000
1709297703.578,-3.418,-41.992,-44.434,-15.137,0.000
1709297703.582,11.230,-36.621,-41.504,-19.043,0.000
1709297703.586,-21.484,-37.109,-44.434,-55.176,0.000
1709297703.590,-58.105,-37.598,-37.598,-66.406,0.000
1709297703.594,-57.129,-35.645,-33.691,-40.527,0.000
1709297703.598,-17.090,-35.645,-37.109,-13.184,0.000
1709297703.601,14.160,-29.785,-38.086,-15.137,0.000
1709297703.605,-9.277,-28.809,-35.156,-40.527,0.000
1709297703.609,-61.035,-33.203,-36.621,-65.430,0.000
1709297703.613,-69.824,-36.621,-41.992,-56.152,0.000
1709297703.617,-28.809,-40.039,-44.922,-21.484,0.000
1709297703.621,-3.418,-39.551,-41.992,-19.043,0.000
1709297703.625,-28.809,-36.621,-42.480,-48.340,0.000
1709297703.629,-66.406,-40.527,-44.922,-72.754,0.000
1709297703.633,-60.547,-38.086,-41.016,-51.758,0.000
1709297703.637,-23.926,-31.738,-39.551,-18.066,0.000
1709297703.640,1.465,-30.273,-34.180,-10.742,0.000
1709297703.644,-12.695,-28.320,-32.715,-31.738,0.000
1709297703.648,-53.223,-35.156,-41.016,-52.734,0.000
1709297703.652,-65.918,-33.691,-44.922,-40.039,0.000
1709297703.656,-32.715,-32.227,-41.016,-6.836,0.000
1709297703.660,-3.418,-41.504,-44.434,4.883,0.000
1709297703.664,-14.648,-37.598,-45.898,-25.391,0.000
1709297703.668,-58.594,-34.668,-41.016,-50.781,0.000
1709297703.672,-75.684,-37.598,-40.039,-39.062,0.000
1709297703.676,-43.457,-35.645,-44.434,-13.184,0.000
1709297703.680,-2.930,-36.133,-42.969,2.441,0.000
1709297703.683,-5.371,-33.203,-40.527,-9.766,0.000
1709297703.687,-47.363,-35.156,-42.969,-43.945,0.000
1709297703.691,-71.777,-39.062,-45.898,-55.176,0.000
1709297703.695,-39.551,-35.156,-45.410,-23.438,0.000
1709297703.699,0.000,-38.086,-44.434,-4.883,0.000
1709297703.703,-14.160,-44.922,-48.828,-30.762,0.000
1709297703.707,-57.129,-45.898,-54.199,-53.711,0.000
1709297703.711,-80.566,-44.922,-46.875,-52.734,0.000
1709297703.715,-62.988,-48.340,-40.527,-33.691,0.000
1709297703.719,-23.438,-44.922,-45.410,-17.090,0.000
1709297703.722,-12.695,-44.922,-46.875,-25.879,0.000
1709297703.726,-41.016,-42.969,-45.898,-53.711,0.000
1709297703.730,-74.707,-40.039,-46.387,-63.965,0.000
1709297703.734,-59.570,-40.527,-42.480,-29.785,0.000
1709297703.738,-12.695,-37.598,-40.039,-0.977,0.000
1709297703.742,4.883,-37.109,-37.598,-11.230,0.000
1709297703.746,-34.180,-41.016,-33.691,-35.645,0.000
1709297703.750,-78.125,-43.457,-34.668,-39.551,0.000
1709297703.754,-62.500,-41.992,-39.062,-23.926,0.000
1709297703.758,-19.043,-41.992,-38.086,-6.348,0.000
1709297703.762,-8.789,-43.945,-35.645,-9.766,0.000
1709297703.765,-42.480,-48.828,-34.180,-35.156,0.000
1709297703.769,-78.125,-50.781,-35.156,-51.758,0.000
1709297703.773,-65.918,-42.969,-34.668,-36.133,0.000
1709297703.777,-17.090,-37.109,-32.715,-11.719,0.000
1709297703.781,11.230,-35.156,-33.691,-15.625,0.000
1709297703.785,-17.578,-32.227,-39.062,-39.551,0.000
1709297703.789,-61.035,-29.785,-41.016,-58.594,0.000
1709297703.793,-65.918,-33.203,-39.551,-39.551,0.000
1709297703.797,-31.738,-31.250,-41.992,-13.672,0.000
1709297703.801,-2.441,-28.320,-40.527,-19.043,0.000
1709297703.805,-17.578,-32.715,-37.598,-40.527,0.000
1709297703.808,-57.129,-33.203,-42.969,-55.664,0.000
1709297703.812,-64.941,-32.227,-49.316,-43.457,0.000
1709297703.816,-38.574,-31.738,-47.852,-18.066,0.000
1709297703.820,-10.254,-27.344,-50.293,-13.184,0.000
1709297703.824,-13.672,-24.902,-48.828,-25.879,0.000
1709297703.828,-52.246,-28.809,-42.480,-48.828,0.000
1709297703.832,-64.941,-31.250,-44.434,-44.922,0.000
1709297703.836,-26.367,-31.250,-41.504,-13.184,0.000
1709297703.840,6.836,-31.738,-36.621,5.859,0.000
1709297703.844,-2.441,-29.785,-41.504,-12.695,0.000
1709297703.848,-41.992,-32.715,-44.922,-52.734,0.000
1709297703.851,-62.500,-37.109,-44.922,-49.805,0.000
1709297703.855,-38.574,-40.039,-42.969,-8.301,0.000
1709297703.859,5.371,-36.133,-42.480,0.000,0.000
1709297703.863,7.812,-35.645,-43.457,-16.113,0.000
1709297703.867,-31.250,-38.086,-37.598,-28.809,0.000
1709297703.871,-58.105,-36.133,-32.715,-30.762,0.000
1709297703.875,-38.574,-36.621,-34.180,-14.648,0.000
1709297703.879,-0.977,-35.645,-35.645,0.488,0.000
1709297703.883,-2.441,-34.668,-36.133,-12.695,0.000
1709297703.887,-41.016,-34.180,-36.621,-27.832,0.000
1709297703.890,-70.312,-31.250,-38.574,-31.738,0.000
1709297703.894,-46.387,-29.785,-39.551,-16.113,0.000
1709297703.898,-3.418,-31.250,-40.039,10.742,0.000
1709297703.902,2.930,-30.273,-36.621,1.465,0.000
1709297703.906,-26.367,-28.320,-37.109,-35.156,0.000
1709297703.910,-61.035,-29.297,-42.480,-41.016,0.000
1709297703.914,-58.594,-36.621,-46.387,-15.625,0.000
1709297703.918,-20.508,-38.574,-46.387,1.953,0.000
1709297703.922,-3.906,-38.574,-46.875,-14.648,0.000
1709297703.926,-27.344,-38.574,-46.387,-40.039,0.000
1709297703.930,-59.570,-32.715,-45.898,-47.363,0.000
1709297703.933,-52.246,-28.809,-45.410,-28.320,0.000
1709297703.937,-18.555,-34.180,-44.434,-12.207,0.000
1709297703.941,0.000,-37.109,-45.898,-19.043,0.000
1709297703.945,-27.832,-37.598,-45.410,-32.715,0.000
1709297703.949,-65.430,-37.109,-42.969,-46.875,0.000
1709297703.953,-59.082,-32.715,-47.363,-39.062,0.000
1709297703.957,-20.020,-35.645,-48.340,-17.090,0.000
1709297703.961,15.137,-35.645,-41.992,-15.137,0.000
1709297703.965,0.488,-31.250,-42.480,-34.668,0.000
1709297703.969,-45.410,-35.645,-51.758,-57.129,0.000
1709297703.973,-52.246,-35.645,-47.363,-39.062,0.000
1709297703.976,-17.090,-31.738,-39.551,-10.742,0.000
1709297703.980,12.695,-32.227,-41.016,-10.254,0.000
1709297703.984,-0.488,-29.785,-47.363,-40.527,0.000
1709297703.988,-44.434,-27.344,-46.387,-52.246,0.000
1709297703.992,-62.012,-31.738,-46.387,-35.645,0.000
1709297703.996,-35.156,-32.227,-49.316,-17.090,0.000
1709297704.000,-5.371,-32.227,-41.992,-2.930,0.000
1709297704.004,-10.254,-32.715,-37.109,-29.297,0.000
1709297704.008,-45.898,-30.762,-38.086,-57.129,0.000
1709297704.012,-67.871,-35.156,-39.551,-41.504,0.000
1709297704.015,-42.480,-39.551,-41.016,-25.391,0.000
1709297704.019,-8.301,-37.598,-33.691,-13.672,0.000
1709297704.023,-16.602,-37.109,-35.645,-19.531,0.000
1709297704.027,-64.453,-43.945,-43.457,-52.734,0.000
1709297704.031,-93.750,-45.898,-39.551,-55.664,0.000
1709297704.035,-70.801,-44.434,-36.133,-26.855,0.000
1709297704.039,-29.785,-38.574,-36.621,-17.090,0.000
1709297704.043,-20.508,-36.621,-36.621,-30.762,0.000
1709297704.047,-47.363,-36.133,-35.156,-47.852,0.000
1709297704.051,-78.125,-37.109,-34.180,-46.875,0.000
1709297704.055,-61.523,-35.645,-39.062,-34.668,0.000
1709297704.058,-17.578,-32.715,-40.039,-21.484,0.000
1709297704.062,-12.695,-41.504,-41.992,-29.297,0.000
1709297704.066,-51.758,-46.387,-45.410,-55.176,0.000
1709297704.070,-80.078,-41.992,-42.480,-61.523,0.000
1709297704.074,-56.641,-37.598,-41.992,-40.527,0.000
1709297704.078,-17.090,-39.551,-41.992,-14.160,0.000
1709297704.082,-7.812,-38.574,-38.574,-13.672,0.000
1709297704.086,-30.762,-38.086,-35.156,-39.062,0.000
1709297704.090,-66.895,-41.016,-38.086,-54.688,0.000
1709297704.094,-63.965,-38.086,-40.527,-37.598,0.000
1709297704.098,-22.949,-39.062,-37.598,-17.578,0.000
1709297704.101,0.000,-43.457,-37.109,-21.973,0.000
1709297704.105,0.000,-45.410,-37.109,-47.852,0.000
1709297704.109,0.000,-48.340,-35.156,-60.547,0.000
1709297704.113,0.000,-46.875,-38.574,-44.434,0.000
1709297704.117,0.000,-41.992,-35.156,-14.160,0.000
1709297704.121,0.000,-43.945,-35.156,-15.137,0.000
1709297704.125,0.000,-41.504,-42.969,-39.062,0.000
1709297704.129,0.000,-37.598,-45.410,-59.082,0.000
1709297704.133,0.000,-37.598,-45.410,-53.223,0.000
1709297704.137,0.000,-38.086,-44.434,-19.531,0.000
1709297704.140,0.000,-37.109,-43.945,-15.625,0.000
1709297704.144,0.000,-35.645,-40.039,-35.156,0.000
1709297704.148,-55.664,-35.645,-38.086,-59.082,0.000
1709297704.152,-70.801,-38.574,-39.551,-51.758,0.000
1709297704.156,-39.062,-36.621,-40.527,-18.555,0.000
1709297704.160,-1.465,-38.086,-43.945,-13.672,0.000
1709297704.164,-18.555,-44.434,-43.945,-43.945,0.000
1709297704.168,-63.965,-45.410,-41.504,-55.176,0.000
1709297704.172,-77.148,-41.504,-41.016,-40.039,0.000
1709297704.176,-48.828,-37.109,-38.086,-27.832,0.000
1709297704.180,-7.812,-35.645,-41.016,-16.602,0.000
1709297704.183,-10.742,-37.109,-42.480,-22.461,0.000
1709297704.187,-50.781,-36.133,-37.598,-48.340,0.000
1709297704.191,-70.312,-36.133,-39.062,-49.316,0.000
1709297704.195,0.000,-40.039,0.000,-17.090,0.000
1709297704.199,0.000,-40.039,0.000,-13.184,0.000
1709297704.203,0.000,-38.086,0.000,-23.926,0.000
1709297704.207,0.000,-37.109,0.000,-43.945,0.000
1709297704.211,0.000,-37.598,0.000,-51.270,0.000
1709297704.215,0.000,-37.109,0.000,-14.160,0.000
1709297704.219,0.000,-34.180,0.000,-12.695,0.000
1709297704.223,0.000,-33.203,0.000,-39.062,0.000
1709297704.226,0.000,-37.598,0.000,-44.434,0.000
1709297704.230,0.000,-40.527,0.000,-49.316,0.000
1709297704.234,0.000,-37.109,0.000,-38.574,0.000
1709297704.238,0.000,-33.691,0.000,-23.438,0.000
1709297704.242,-4.395,-33.203,-46.387,-40.527,0.000
1709297704.246,-38.086,-34.668,-47.363,-56.152,0.000
1709297704.250,-77.148,-34.180,-46.387,-59.570,0.000
1709297704.254,-70.312,-31.738,-46.875,-35.156,0.000
1709297704.258,-33.691,-30.273,-45.898,-0.488,0.000
1709297704.262,-29.785,-34.668,-43.457,8.789,0.000
1709297704.266,-71.289,-39.551,-44.922,-6.348,0.000
1709297704.269,-111.328,-41.016,-43.945,-28.809,0.000
1709297704.273,-104.492,-44.434,-41.992,-10.254,0.000
1709297704.277,-54.199,-41.016,-45.898,22.461,0.000
1709297704.281,-20.020,-34.180,-44.922,24.902,0.000
1709297704.285,-44.434,-35.156,-39.062,3.418,0.000
1709297704.289,-83.496,-34.180,-36.621,-12.695,0.000
1709297704.293,-85.938,-29.785,-39.062,0.488,0.000
1709297704.297,-52.246,-34.180,-42.480,20.996,0.000
1709297704.301,-27.832,-40.527,-38.086,5.371,0.000
1709297704.305,-45.410,-40.527,-36.621,-25.879,0.000
1709297704.308,-79.102,-39.062,-37.109,-31.250,0.000
1709297704.312,-74.707,-33.691,-37.109,-26.367,0.000
1709297704.316,-40.039,-34.180,-38.086,-3.418,0.000
1709297704.320,-13.184,-38.574,-42.480,18.066,0.000
1709297704.324,-21.973,-33.203,-41.992,-17.578,0.000
1709297704.328,-64.453,-31.250,-40.527,-48.828,0.000
1709297704.332,-74.219,-32.227,-35.645,-32.715,0.000
1709297704.336,-39.551,-30.273,-29.785,-5.371,0.000
1709297704.340,-11.230,-31.738,-33.691,4.395,0.000
1709297704.344,-23.438,-33.203,-40.039,-21.484,0.000
1709297704.348,-64.941,-39.551,-42.969,-51.758,0.000
1709297704.351,-79.590,-45.410,-43.945,-44.434,0.000
1709297704.355,-47.852,-43.457,-45.898,-24.414,0.000
1709297704.359,-12.207,-41.504,-46.875,-13.672,0.000
1709297704.363,-15.137,-42.480,-48.828,-37.598,0.000
1709297704.367,-50.781,-36.621,-43.945,-68.848,0.000
1709297704.371,-71.777,-34.180,-43.945,-76.660,0.000
1709297704.375,-43.945,-34.180,-41.016,-49.316,0.000
1709297704.379,1.953,-32.715,-39.062,-29.785,0.000
1709297704.383,2.930,-35.645,-45.898,-48.340,0.000
1709297704.387,-37.598,-40.527,-47.363,-79.590,0.000
1709297704.391,-58.594,-33.203,-48.340,-87.891,0.000
1709297704.394,-34.180,-31.250,-48.828,-56.152,0.000
1709297704.398,-4.395,-35.645,-48.340,-32.715,0.000
1709297704.402,-5.371,-36.133,-49.316,-46.387,0.000
1709297704.406,-37.109,-36.621,-51.270,-62.988,0.000
1709297704.410,-58.105,-32.227,-45.410,-46.387,0.000
1709297704.414,-28.809,-31.738,-40.039,-31.738,0.000
1709297704.418,9.766,-33.691,-39.062,-32.715,0.000
1709297704.422,24.414,-31.250,-35.645,-39.551,0.000
1709297704.426,-0.488,-28.320,-32.227,-60.547,0.000
1709297704.430,-48.340,-31.738,-33.691,-62.988,0.000
1709297704.433,-43.457,-33.691,-35.645,-42.480,0.000
1709297704.437,5.859,-35.156,-40.039,-25.879,0.000
1709297704.441,26.855,-37.598,-43.457,-30.762,0.000
1709297704.445,0.488,-35.156,-41.016,-56.641,0.000
1709297704.449,-31.250,-35.156,-39.062,-73.242,0.000
1709297704.453,-31.738,-37.598,-38.086,-58.594,0.000
1709297704.457,4.395,-36.621,-36.133,-12.695,0.000
1709297704.461,46.387,-37.109,-39.062,-37.109,0.000
1709297704.465,10.742,-42.480,-45.410,-86.914,0.000
1709297704.469,-46.875,-44.922,-43.945,-95.215,0.000
1709297704.473,-44.922,-40.039,-44.434,-73.242,0.000
1709297704.476,-25.879,-41.016,-47.363,-47.852,0.000
1709297704.480,-2.930,-41.992,-45.410,-42.969,0.000
1709297704.484,-16.113,-39.551,-45.898,-72.754,0.000
1709297704.488,-70.312,-40.527,-46.875,-100.098,0.000
1709297704.492,-82.031,-40.039,-42.480,-85.938,0.000
1709297704.496,-55.664,-39.062,-39.551,-60.547,0.000
1709297704.500,-35.645,-38.574,-39.062,-45.410,0.000
1709297704.504,-40.039,-34.668,-41.992,-68.848,0.000
1709297704.508,-76.660,-33.691,-44.434,-86.914,0.000
1709297704.512,-92.773,-34.668,-43.457,-82.520,0.000
1709297704.516,-50.293,-34.668,-40.039,-50.293,0.000
1709297704.519,-6.836,-34.668,-36.133,-15.625,0.000
1709297704.523,-11.230,-36.133,-36.621,-45.898,0.000
1709297704.527,-35.645,-34.180,-39.551,-76.172,0.000
1709297704.531,-44.434,-31.250,-39.551,-69.824,0.000
1709297704.535,-22.461,-32.227,-42.969,-48.340,0.000
1709297704.539,20.020,-30.762,-43.945,-19.043,0.000
1709297704.543,20.996,-34.668,-39.551,-21.484,0.000
1709297704.547,-17.578,-33.691,-39.551,-52.246,0.000
1709297704.551,-41.016,-31.250,-39.551,-73.242,0.000
1709297704.555,-22.461,-36.133,-39.551,-57.617,0.000
1709297704.558,10.742,-38.574,-39.551,-25.391,0.000
1709297704.562,15.625,-35.645,-38.574,-33.203,0.000
1709297704.566,-14.648,-39.062,-39.062,-62.500,0.000
1709297704.570,-50.781,-41.016,-35.645,-52.734,0.000
1709297704.574,-40.039,-39.062,-37.598,-24.902,0.000
1709297704.578,11.719,-37.109,-36.621,-4.883,0.000
1709297704.582,28.320,-36.621,-34.668,-2.441,0.000
1709297704.586,-8.789,-40.527,-40.039,-23.438,0.000
1709297704.590,-43.945,-41.992,-41.016,-44.434,0.000
1709297704.594,-32.227,-41.992,-40.527,-26.855,0.000
1709297704.598,18.555,-37.109,-44.434,-2.441,0.000
1709297704.601,36.133,-35.645,-45.898,6.348,0.000
1709297704.605,-4.883,-41.992,-43.457,1.953,0.000
1709297704.609,-38.086,-39.062,-39.551,-19.531,0.000
1709297704.613,-31.738,-36.621,-35.156,-1.465,0.000
1709297704.617,5.859,-41.016,-34.668,24.902,0.000
1709297704.621,35.645,-38.574,-38.574,12.207,0.000
1709297704.625,1.953,-34.668,-40.039,-10.254,0.000
1709297704.629,-46.875,-36.133,-42.969,-15.625,0.000
1709297704.633,-47.363,-34.668,-44.922,-4.883,0.000
1709297704.637,-18.066,-33.203,-46.387,15.137,0.000
1709297704.641,2.930,-34.180,-41.504,29.297,0.000
1709297704.644,-17.578,-38.574,-42.969,-1.953,0.000
1709297704.648,-60.059,-44.922,-47.363,-22.461,0.000
1709297704.652,-67.871,-41.016,-40.527,0.488,0.000
1709297704.656,-32.715,-38.574,-38.086,18.066,0.000
1709297704.660,5.371,-35.645,-34.180,23.926,0.000
1709297704.664,-2.930,-34.668,-33.203,5.859,0.000
1709297704.668,-48.828,-39.062,-35.645,-14.160,0.000
1709297704.672,-64.453,-37.598,-33.203,-11.230,0.000
1709297704.676,-26.367,-33.203,-34.668,12.207,0.000
1709297704.680,0.000,-35.156,-36.133,13.184,0.000
1709297704.684,-15.137,-39.062,-34.668,-7.324,0.000
1709297704.687,-49.316,-36.621,-37.598,-24.414,0.000
1709297704.691,-64.941,-34.180,-42.480,-17.578,0.000
1709297704.695,-37.598,-31.250,-35.156,16.113,0.000
1709297704.699,-1.953,-35.156,-36.133,21.973,0.000
1709297704.703,2.441,-36.621,-37.109,10.742,0.000
1709297704.707,-41.992,-36.133,-33.691,-15.625,0.000
1709297704.711,-72.754,-37.598,-35.156,-26.855,0.000
1709297704.715,-54.199,-41.016,-35.156,2.441,0.000
1709297704.719,-15.625,-39.551,-36.133,19.043,0.000
1709297704.723,-9.766,-35.156,-40.039,-7.324,0.000
1709297704.726,-37.109,-32.715,-39.551,-19.043,0.000
1709297704.730,-57.617,-29.785,-38.574,-32.227,0.000
1709297704.734,-56.152,-34.668,-43.457,-35.645,0.000
1709297704.738,-25.391,-34.668,-41.992,-6.348,0.000
1709297704.742,-20.020,-28.809,-41.504,-19.043,0.000
1709297704.746,-71.289,-31.738,-43.457,-59.082,0.000
1709297704.750,-111.328,-35.156,-41.016,-54.199,0.000
1709297704.754,-95.703,-40.039,-39.062,-29.297,0.000
1709297704.758,-59.082,-46.875,-41.016,-34.180,0.000
1709297704.762,-50.781,-38.574,-38.086,-37.109,0.000
1709297704.766,-82.031,-27.344,-33.691,-40.527,0.000
1709297704.769,-126.465,-29.785,-37.598,-54.199,0.000
1709297704.773,-110.840,-31.250,-41.504,-44.434,0.000
1709297704.777,-57.617,-32.715,-42.480,-41.992,0.000
1709297704.781,-39.551,-34.180,-37.109,-43.457,0.000
1709297704.785,-68.359,-33.203,-34.668,-29.785,0.000
1709297704.789,-109.863,-35.645,-37.598,-42.969,0.000
1709297704.793,-108.398,-39.062,-35.156,-33.203,0.000
1709297704.797,-73.242,-35.645,-30.762,0.488,0.000
1709297704.801,-50.293,-33.203,-29.297,14.648,0.000
1709297704.805,-57.129,-37.598,-38.086,-9.277,0.000
1709297704.809,-88.379,-37.109,-37.598,-32.715,0.000
1709297704.812,-92.773,-36.133,-34.180,-25.391,0.000
1709297704.816,-52.734,-35.156,-34.180,-4.883,0.000
1709297704.820,-22.949,-36.621,-35.645,4.883,0.000
1709297704.824,-43.457,-40.039,-36.621,-16.602,0.000
1709297704.828,-83.496,-42.480,-36.621,-33.691,0.000
1709297704.832,-84.961,-41.504,-38.086,-27.832,0.000
1709297704.836,-39.551,-40.039,-34.180,-13.672,0.000
1709297704.840,-7.812,-39.062,-33.203,-2.441,0.000
1709297704.844,-16.113,-33.691,-36.621,-14.160,0.000
1709297704.848,-47.363,-31.250,-33.203,-35.645,0.000
1709297704.851,-62.988,-29.297,-39.551,-28.809,0.000
1709297704.855,-35.645,-33.203,-44.434,-0.488,0.000
1709297704.859,4.883,-40.527,-40.527,21.973,0.000
1709297704.863,5.371,-36.621,-42.480,-9.277,0.000
1709297704.867,-34.668,-32.227,-43.457,-43.945,0.000
1709297704.871,-60.059,-36.133,-41.016,-25.391,0.000
1709297704.875,-33.691,-39.551,-41.504,8.789,0.000
1709297704.879,16.602,-35.156,-42.480,13.672,0.000
1709297704.883,16.113,-34.668,-48.340,-18.555,0.000
1709297704.887,-23.926,-36.133,-52.246,-44.434,0.000
1709297704.891,-48.828,-33.691,-45.410,-43.457,0.000
1709297704.894,-24.414,-32.227,-40.527,-24.414,0.000
1709297704.898,18.066,-35.645,-39.551,-13.672,0.000
1709297704.902,15.137,-35.645,-43.457,-25.391,0.000
1709297704.906,-20.508,-35.156,-44.434,-50.781,0.000
1709297704.910,-55.664,-38.086,-43.457,-58.594,0.000
1709297704.914,-41.992,-38.574,-44.922,-37.109,0.000
1709297704.918,2.441,-41.016,-43.945,-16.113,0.000
1709297704.922,13.184,-41.016,-42.480,-27.832,0.000
1709297704.926,-17.090,-42.969,-47.363,-63.965,0.000
1709297704.930,-44.434,-39.551,-46.875,-69.824,0.000
1709297704.934,-30.273,-36.133,-45.410,-48.828,0.000
1709297704.937,8.789,-34.180,-41.992,-33.691,0.000
1709297704.941,19.531,-33.203,-42.969,-38.574,0.000
1709297704.945,-9.277,-41.016,-45.898,-60.547,0.000
1709297704.949,-42.480,-37.598,-41.016,-63.477,0.000
1709297704.953,-38.086,-29.785,-38.574,-36.621,0.000
1709297704.957,4.883,-36.621,-43.457,-15.137,0.000
1709297704.961,26.367,-39.551,-43.945,-19.043,0.000
1709297704.965,-3.418,-39.062,-41.016,-34.668,0.000
1709297704.969,-36.133,-39.062,-43.457,-53.223,0.000
1709297704.973,-38.086,-37.598,-40.527,-51.270,0.000
1709297704.976,-7.324,-33.691,-38.574,-30.273,0.000
1709297704.980,14.648,-35.645,-41.016,-18.555,0.000
1709297704.984,-3.906,-37.109,-39.551,-48.340,0.000
1709297704.988,-47.363,-38.086,-39.551,-78.613,0.000
1709297704.992,-62.012,-40.039,-42.480,-64.941,0.000
1709297704.996,-26.855,-39.062,-40.527,-34.180,0.000
1709297705.000,8.301,-37.109,-40.527,-23.926,0.000
1709297705.004,-4.395,-38.574,-42.969,-51.758,0.000
1709297705.008,-41.504,-39.062,-48.828,-78.125,0.000
1709297705.012,-54.688,-32.715,-49.316,-70.312,0.000
1709297705.016,-30.762,-35.156,-46.387,-38.574,0.000
1709297705.019,0.488,-36.133,-44.922,-19.043,0.000
1709297705.023,-9.766,-33.691,-43.457,-33.203,0.000
1709297705.027,-49.805,-35.645,-44.434,-52.246,0.000
1709297705.031,-67.383,-37.109,-43.945,-57.129,0.000
1709297705.035,-41.504,-37.598,-44.922,-43.457,0.000
1709297705.039,-3.418,-38.086,-46.875,-34.668,0.000
1709297705.043,-1.953,-35.156,-38.086,-39.062,0.000
1709297705.047,-42.969,-35.156,-36.133,-57.129,0.000
1709297705.051,-67.871,-36.621,-39.551,-74.219,0.000
1709297705.055,-44.922,-34.180,-39.062,-48.340,0.000
1709297705.059,-9.277,-35.645,-38.574,-24.414,0.000
1709297705.062,-6.348,-38.574,-39.551,-53.711,0.000
1709297705.066,-41.016,-35.645,-39.062,-74.707,0.000
1709297705.070,-70.312,-30.762,-38.086,-74.219,0.000
1709297705.074,-49.316,-24.902,-39.062,-49.805,0.000
1709297705.078,-4.883,-27.832,-38.086,-27.344,0.000
1709297705.082,-1.465,-35.156,-41.016,-55.664,0.000
1709297705.086,-40.527,-42.480,-39.551,-68.848,0.000
1709297705.090,-74.707,-43.945,-41.992,-79.590,0.000
1709297705.094,-64.453,-43.457,-41.992,-62.988,0.000
1709297705.098,-25.391,-49.316,-41.992,-35.645,0.000
1709297705.102,-9.277,-49.316,-46.875,-43.457,0.000
1709297705.105,-38.086,-45.410,-48.828,-63.965,0.000
1709297705.109,-77.148,-45.898,-51.270,-76.172,0.000
1709297705.113,-71.777,-47.852,-54.688,-58.105,0.000
1709297705.117,-31.250,-50.781,-57.129,-30.273,0.000
1709297705.121,-7.812,-47.363,-52.246,-37.598,0.000
1709297705.125,-37.598,-41.016,-47.363,-59.082,0.000
1709297705.129,-78.125,-40.039,-44.922,-64.453,0.000
1709297705.133,-72.266,-40.039,-43.457,-39.551,0.000
1709297705.137,-28.809,-41.992,-44.922,-15.625,0.000
1709297705.141,-2.930,-41.992,-41.992,-17.578,0.000
1709297705.144,-24.414,-41.992,-38.086,-36.133,0.000
1709297705.148,-58.594,-42.480,-43.457,-63.965,0.000
1709297705.152,-63.965,-41.016,-42.480,-46.875,0.000
1709297705.156,-27.344,-41.016,-40.527,-16.602,0.000
1709297705.160,4.883,-42.480,-41.504,-11.230,0.000
1709297705.164,-19.531,-37.598,-41.016,-43.945,0.000
1709297705.168,-63.965,-35.645,-41.016,-60.059,0.000
1709297705.172,-66.895,-37.598,-36.133,-40.039,0.000
1709297705.176,-35.645,-35.156,-35.645,-21.484,0.000
1709297705.180,-9.766,-35.156,-37.109,-10.742,0.000
1709297705.184,-19.043,-37.109,-37.109,-41.504,0.000
1709297705.187,-60.059,-36.133,-39.062,-64.453,0.000
1709297705.191,-77.148,-34.180,-38.574,-58.594,0.000
1709297705.195,-39.551,-33.203,-37.109,-40.039,0.000
1709297705.199,2.441,-31.738,-39.551,-27.344,0.000
1709297705.203,-6.836,-32.715,-45.898,-40.039,0.000
1709297705.207,-45.898,-32.715,-43.457,-56.641,0.000
1709297705.211,-61.035,-27.832,-43.945,-59.082,0.000
1709297705.215,-38.086,-28.809,-48.340,-41.504,0.000
1709297705.219,-10.742,-30.273,-46.387,-20.996,0.000
1709297705.223,-12.695,-30.762,-45.410,-37.109,0.000
1709297705.227,-45.410,-36.133,-47.363,-65.430,0.000
1709297705.230,-81.543,-41.504,-45.898,-68.359,0.000
1709297705.234,-62.012,-40.039,-44.922,-48.340,0.000
1709297705.238,-6.836,-36.133,-45.410,-26.367,0.000
1709297705.242,1.953,-31.250,-39.551,-37.109,0.000
1709297705.246,-41.016,-29.297,-38.574,-55.176,0.000
1709297705.250,-71.289,-31.250,-41.016,-60.059,0.000
1709297705.254,-47.852,-29.785,-45.410,-51.758,0.000
1709297705.258,-11.230,-28.320,-45.898,-34.180,0.000
1709297705.262,-2.441,-26.367,-42.480,-41.992,0.000
1709297705.266,-35.156,-28.320,-42.480,-60.059,0.000
1709297705.269,-72.266,-31.250,-44.434,-66.406,0.000
1709297705.273,-62.012,-33.203,-45.898,-50.293,0.000
1709297705.277,-19.043,-31.250,-44.434,-23.438,0.000
1709297705.281,-6.348,-31.250,-42.969,-30.273,0.000
1709297705.285,-43.945,-34.180,-42.969,-62.988,0.000
1709297705.289,-76.172,-36.133,-41.992,-74.707,0.000
1709297705.293,-69.336,-38.574,-41.016,-55.176,0.000
1709297705.297,-22.949,-34.180,-38.086,-25.879,0.000
1709297705.301,7.324,-34.668,-41.016,-31.738,0.000
1709297705.305,-8.789,-34.180,-42.969,-54.199,0.000
1709297705.309,-44.922,-32.227,-39.062,-58.594,0.000
1709297705.312,-55.664,-36.621,-41.504,-42.969,0.000
1709297705.316,-20.020,-32.227,-42.969,-12.695,0.000
1709297705.320,0.000,-28.809,0.000,-4.883,0.000
1709297705.324,0.000,-33.203,0.000,-27.832,0.000
1709297705.328,0.000,-34.180,0.000,-52.734,0.000
1709297705.332,0.000,-35.645,0.000,-53.223,0.000
1709297705.336,0.000,-36.133,0.000,-29.297,0.000
1709297705.340,0.000,-34.180,0.000,-15.137,0.000
1709297705.344,0.000,-32.227,0.000,-41.992,0.000
1709297705.348,0.000,-30.273,0.000,-67.871,0.000
1709297705.352,0.000,-31.738,0.000,-59.082,0.000
1709297705.355,0.000,-36.621,0.000,-25.391,0.000
1709297705.359,0.000,-37.598,0.000,-27.344,0.000
1709297705.363,0.000,-34.668,0.000,-54.199,0.000
1709297705.367,-46.387,-35.156,-38.086,-75.684,0.000
1709297705.371,-80.078,-38.574,-41.992,-73.730,0.000
1709297705.375,-53.223,-41.992,-46.875,-43.457,0.000
1709297705.379,-9.277,-38.574,-42.969,-32.227,0.000
1709297705.383,-11.719,-38.574,-39.062,-54.199,0.000
1709297705.387,-62.012,-46.387,-45.410,-83.496,0.000
1709297705.391,-95.703,-50.293,-45.410,-85.938,0.000
1709297705.395,-75.195,-44.434,-44.922,-60.059,0.000
1709297705.398,-40.039,-44.922,-46.387,-28.320,0.000
1709297705.402,-33.203,-47.363,-43.457,-36.621,0.000
1709297705.406,-58.594,-37.109,-36.133,-62.500,0.000
1709297705.410,-87.891,-36.621,-39.551,-65.918,0.000
1709297705.414,-70.801,-46.875,-47.852,-56.641,0.000
1709297705.418,-20.996,-47.852,-45.898,-32.715,0.000
1709297705.422,-9.766,-46.387,-43.457,-19.043,0.000
1709297705.426,-41.504,-46.875,-41.992,-32.715,0.000
1709297705.430,-71.777,-42.969,-41.992,-53.223,0.000
1709297705.434,-62.500,-41.016,-42.969,-34.668,0.000
1709297705.437,-20.508,-43.945,-41.016,-8.301,0.000
1709297705.441,6.348,-37.598,-37.598,-2.441,0.000
1709297705.445,-23.926,-36.133,-34.180,-6.348,0.000
1709297705.449,-62.012,-33.691,-33.691,-18.066,0.000
1709297705.453,-47.363,-23.438,-31.738,-10.742,0.000
1709297705.457,-7.324,-22.949,-33.691,11.230,0.000
1709297705.461,10.742,-28.320,-39.062,3.418,0.000
1709297705.465,-20.508,-29.297,-41.504,-23.438,0.000
1709297705.469,-56.641,-28.809,-43.945,-32.227,0.000
1709297705.473,-46.875,-30.762,-40.039,-15.625,0.000
1709297705.477,-12.207,-31.250,-35.645,9.277,0.000
1709297705.480,10.254,-35.645,-37.598,14.648,0.000
1709297705.484,-13.184,-35.156,-40.039,-10.742,0.000
1709297705.488,-57.617,-32.227,-41.504,-29.785,0.000
1709297705.492,-63.965,-28.809,-39.062,-17.090,0.000
1709297705.496,-28.809,-29.297,-39.062,5.859,0.000
1709297705.500,3.906,-32.715,-38.086,9.277,0.000
1709297705.504,-6.836,-30.762,-34.668,-20.020,0.000
1709297705.508,-51.270,-35.645,-39.551,-44.434,0.000
1709297705.512,-61.035,-38.574,-41.992,-36.133,0.000
1709297705.516,-28.320,-36.133,-41.016,-7.812,0.000
1709297705.520,-1.465,-37.109,-44.922,9.277,0.000
1709297705.523,-0.977,-36.621,-44.922,-15.137,0.000
1709297705.527,-37.109,-41.992,-42.480,-41.016,0.000
1709297705.531,-63.965,-46.387,-38.086,-20.996,0.000
1709297705.535,-43.945,-47.363,-34.180,8.301,0.000
1709297705.539,2.441,-42.969,-35.156,12.207,0.000
1709297705.543,6.348,-41.504,-34.668,-6.348,0.000
1709297705.547,-43.457,-41.016,-35.645,-27.832,0.000
1709297705.551,-71.777,-35.645,-37.598,-25.879,0.000
1709297705.555,-51.758,-33.203,-35.645,1.465,0.000
1709297705.559,-10.254,-34.180,-36.133,21.973,0.000
1709297705.563,-3.906,-30.762,-40.039,5.859,0.000
1709297705.566,-36.133,-29.785,-40.039,-26.855,0.000
1709297705.570,-47.852,-31.738,-35.645,-23.438,0.000
1709297705.574,-20.508,-34.180,-32.715,-1.953,0.000
1709297705.578,19.043,-33.691,-34.180,-12.695,0.000
1709297705.582,24.902,-29.785,-37.598,-26.367,0.000
1709297705.586,-15.625,-31.250,-37.598,-46.875,0.000
1709297705.590,-50.293,-36.621,-34.668,-50.781,0.000
1709297705.594,-34.180,-36.133,-30.273,-21.484,0.000
1709297705.598,12.695,-34.668,-28.320,-5.371,0.000
1709297705.602,23.438,-33.691,-32.715,-29.297,0.000
1709297705.605,-13.184,-28.809,-33.691,-51.270,0.000
1709297705.609,-40.527,-26.855,-33.203,-55.176,0.000
1709297705.613,-35.156,-30.762,-39.062,-52.246,0.000
1709297705.617,0.977,-31.738,-40.527,-27.344,0.000
1709297705.621,14.160,-35.156,-37.598,-11.230,0.000
1709297705.625,-15.625,-37.598,-34.180,-23.438,0.000
1709297705.629,-48.828,-35.645,-33.691,-32.227,0.000
1709297705.633,-40.039,-35.645,-37.109,-17.090,0.000
1709297705.637,-5.371,-36.621,-39.062,6.348,0.000
1709297705.641,10.254,-31.738,-36.621,9.766,0.000
1709297705.645,-8.301,-31.250,-37.598,-17.578,0.000
1709297705.648,-46.875,-36.133,-40.527,-37.109,0.000
1709297705.652,-49.805,-34.668,-34.180,-3.906,0.000
1709297705.656,-14.648,-33.691,-32.227,5.859,0.000
1709297705.660,7.812,-37.109,-39.551,-8.789,0.000
1709297705.664,-15.625,-42.480,-42.969,-37.109,0.000
1709297705.668,-57.129,-41.992,-40.527,-57.129,0.000
1709297705.672,-64.453,-39.062,-37.109,-33.203,0.000
1709297705.676,-38.086,-42.969,-38.086,-10.254,0.000
1709297705.680,-9.277,-45.410,-44.434,-13.184,0.000
1709297705.684,-16.113,-41.504,-46.875,-37.598,0.000
1709297705.687,-62.012,-38.574,-42.969,-49.805,0.000
1709297705.691,-72.754,-35.645,-43.457,-41.992,0.000
1709297705.695,-35.156,-37.109,-42.480,-12.207,0.000
1709297705.699,-1.953,-40.039,-38.086,9.766,0.000
1709297705.703,-8.789,-38.086,-39.551,-17.090,0.000
1709297705.707,-51.758,-38.086,-43.945,-44.922,0.000
1709297705.711,-72.754,-41.992,-40.039,-36.621,0.000
1709297705.715,-46.387,-40.527,-37.109,-5.859,0.000
1709297705.719,-8.789,-35.156,-40.039,8.301,0.000
1709297705.723,-5.859,-33.691,-38.086,-12.207,0.000
1709297705.727,-42.480,-32.715,-35.645,-32.227,0.000
1709297705.730,-73.730,-35.645,-41.992,-28.809,0.000
1709297705.734,-53.711,-38.086,-41.504,-17.090,0.000
1709297705.738,-9.277,-31.250,-37.109,3.906,0.000
1709297705.742,-9.277,-25.391,-36.621,-1.465,0.000
1709297705.746,-57.129,-30.762,-41.992,-38.574,0.000
1709297705.750,-88.379,-35.156,-44.434,-44.434,0.000
1709297705.754,-65.430,-34.668,-41.992,-11.719,0.000
1709297705.758,-22.949,-38.574,-40.527,6.348,0.000
1709297705.762,-10.742,-43.457,-39.551,-5.859,0.000
1709297705.766,-41.504,-40.527,-41.504,-24.902,0.000
1709297705.770,-66.895,-36.133,-41.016,-34.180,0.000
1709297705.773,-52.246,-39.551,-37.598,-24.414,0.000
1709297705.777,-22.461,-37.598,-40.527,-10.742,0.000
1709297705.781,-2.930,-35.645,-46.387,-28.320,0.000
1709297705.785,-31.250,-38.086,-47.363,-51.270,0.000
1709297705.789,-73.242,-38.574,-41.504,-55.664,0.000
1709297705.793,-59.570,-38.086,-38.574,-32.715,0.000
1709297705.797,-17.090,-36.133,-37.598,-6.836,0.000
1709297705.801,1.953,-32.715,-39.062,-15.625,0.000
1709297705.805,-28.320,-31.738,-41.016,-33.691,0.000
1709297705.809,-69.824,-33.203,-41.992,-44.434,0.000
1709297705.813,-72.266,-37.109,-45.898,-42.480,0.000
1709297705.816,-31.738,-39.062,-46.387,-11.230,0.000
1709297705.820,-6.348,-41.992,-43.945,-1.465,0.000
1709297705.824,-33.691,-39.062,-44.922,-44.922,0.000
1709297705.828,-73.242,-39.062,-49.805,-67.383,0.000
1709297705.832,-79.102,-40.527,-51.270,-54.199,0.000
1709297705.836,-42.969,-40.527,-47.363,-36.133,0.000
1709297705.840,-14.648,-40.039,-41.504,-26.855,0.000
1709297705.844,-24.902,-34.668,-40.039,-40.527,0.000
1709297705.848,-62.500,-38.574,-40.039,-63.477,0.000
1709297705.852,-81.055,-41.992,-41.992,-55.664,0.000
1709297705.856,-47.852,-39.551,-44.922,-29.785,0.000
1709297705.859,-12.207,-36.621,-42.480,-27.344,0.000
1709297705.863,-24.414,-36.621,-43.945,-45.410,0.000
1709297705.867,-61.523,-36.621,-44.434,-45.410,0.000
1709297705.871,-70.801,-30.273,-38.086,-42.480,0.000
1709297705.875,-36.133,-32.715,-36.133,-38.574,0.000
1709297705.879,0.977,-34.668,-36.133,-29.297,0.000
1709297705.883,-2.441,-34.180,-32.715,-38.086,0.000
1709297705.887,-41.504,-36.621,-32.227,-70.312,0.000
1709297705.891,-68.848,-33.691,-36.621,-71.289,0.000
1709297705.895,-46.387,-33.203,-37.598,-43.945,0.000
1709297705.898,-6.348,-35.156,-38.574,-26.367,0.000
1709297705.902,-11.230,-33.203,-43.945,-36.621,0.000
1709297705.906,-48.828,-31.250,-37.109,-55.664,0.000
1709297705.910,-69.824,-32.715,-32.227,-52.734,0.000
1709297705.914,-46.875,-31.250,-41.992,-36.133,0.000
1709297705.918,-1.953,-28.809,-41.504,-20.508,0.000
1709297705.922,5.371,-28.809,-42.480,-30.273,0.000
1709297705.926,-33.691,-29.785,-42.480,-47.363,0.000
1709297705.930,-66.406,-31.738,-41.504,-55.664,0.000
1709297705.934,-42.480,-31.250,-46.875,-41.504,0.000
1709297705.938,-10.742,-34.180,-48.340,-18.066,0.000
1709297705.941,-13.184,-34.668,-47.363,-34.180,0.000
1709297705.945,-38.086,-37.109,-41.992,-61.523,0.000
1709297705.949,-70.312,-37.598,-38.574,-63.965,0.000
1709297705.953,-63.965,-40.527,-39.551,-34.180,0.000
1709297705.957,-27.344,-45.898,-41.992,-9.277,0.000
1709297705.961,-5.859,-41.016,-43.457,-24.902,0.000
1709297705.965,-27.832,-32.715,-42.969,-46.387,0.000
1709297705.969,-74.219,-36.133,-41.992,-56.641,0.000
1709297705.973,-78.125,-41.504,-42.480,-47.363,0.000
1709297705.977,-33.691,-42.480,-43.945,-19.043,0.000
1709297705.981,-11.719,-45.410,-46.875,-11.230,0.000
1709297705.984,-36.621,-46.875,-45.898,-26.855,0.000
1709297705.988,-70.801,-45.410,-42.969,-48.828,0.000
1709297705.992,-71.289,-44.922,-42.480,-40.039,0.000
1709297705.996,-33.203,-46.875,-46.875,-6.836,0.000
1709297706.000,-12.207,-48.828,-52.246,-3.906,0.000
1709297706.004,-30.762,-41.504,-49.805,-39.551,0.000
1709297706.008,-66.895,-39.062,-51.758,-66.406,0.000
1709297706.012,-77.637,-40.039,-47.363,-56.641,0.000
1709297706.016,-42.969,-37.109,-45.410,-31.738,0.000
1709297706.020,-10.254,-36.133,-44.434,-20.020,0.000
1709297706.023,-30.762,-39.062,-40.039,-39.551,0.000
1709297706.027,-71.777,-40.039,-44.922,-67.871,0.000
1709297706.031,-81.055,-43.457,-44.434,-58.105,0.000
1709297706.035,-51.270,-43.945,-42.480,-17.578,0.000
1709297706.039,-17.090,-37.598,-43.945,-10.742,0.000
1709297706.043,-22.949,-36.133,-43.457,-39.062,0.000
1709297706.047,-61.035,-36.133,-45.898,-63.477,0.000
1709297706.051,-81.055,-35.645,-44.922,-64.453,0.000
1709297706.055,-45.898,-37.109,-41.504,-25.879,0.000
1709297706.059,-4.395,-37.109,-43.457,2.441,0.000
1709297706.063,-11.719,-40.527,-43.945,-16.602,0.000
1709297706.066,-40.527,-39.551,-41.504,-38.086,0.000
1709297706.070,-64.453,-35.645,-40.527,-43.945,0.000
1709297706.074,-45.410,-36.133,-41.016,-37.598,0.000
1709297706.078,-2.930,-34.668,-43.945,-24.414,0.000
1709297706.082,-0.488,-33.691,-49.805,-36.621,0.000
1709297706.086,-39.551,-31.250,-52.246,-54.199,0.000
1709297706.090,-74.219,-32.227,-48.828,-55.664,0.000
1709297706.094,-57.129,-34.668,-48.340,-35.156,0.000
1709297706.098,-10.254,-34.668,-45.898,-10.742,0.000
1709297706.102,2.441,-33.691,-41.504,-18.066,0.000
1709297706.106,-35.645,-36.133,-41.504,-32.227,0.000
1709297706.109,-72.754,-38.574,-44.434,-48.340,0.000
1709297706.113,-65.430,-40.527,-42.480,-33.691,0.000
1709297706.117,-24.414,-36.621,-40.039,-1.953,0.000
1709297706.121,-5.859,-33.691,-41.504,-9.277,0.000
1709297706.125,-33.691,-33.203,-41.504,-39.551,0.000
1709297706.129,-64.453,-28.809,-38.574,-51.758,0.000
1709297706.133,-63.965,-34.668,-43.457,-45.898,0.000
1709297706.137,-32.715,-34.180,-43.945,-25.391,0.000
1709297706.141,-10.742,-28.320,-41.504,-17.090,0.000
1709297706.145,-28.320,-25.879,-38.574,-39.062,0.000
1709297706.148,-73.242,-32.227,-38.574,-53.711,0.000
1709297706.152,-73.730,-35.156,-39.062,-35.645,0.000
1709297706.156,-20.508,-29.785,-33.203,-15.137,0.000
1709297706.160,-0.488,-31.250,-32.227,-8.789,0.000
1709297706.164,-30.762,-34.180,-35.156,-26.367,0.000
1709297706.168,-70.312,-33.691,-38.086,-56.152,0.000
1709297706.172,-73.730,-34.180,-43.945,-54.199,0.000
1709297706.176,-31.738,-32.715,-43.457,-20.020,0.000
1709297706.180,-0.488,-32.227,-40.039,-5.371,0.000
1709297706.184,-13.184,-35.156,-41.016,-32.227,0.000
1709297706.188,-52.246,-35.156,-43.945,-67.383,0.000
1709297706.191,-64.941,-33.691,-43.945,-53.223,0.000
1709297706.195,-31.738,-36.133,-42.480,-16.113,0.000
1709297706.199,1.953,-35.156,-41.504,-11.719,0.000
1709297706.203,-2.441,-34.668,-39.062,-33.691,0.000
1709297706.207,-33.203,-29.785,-35.645,-47.852,0.000
1709297706.211,-62.500,-26.855,-38.086,-42.969,0.000
1709297706.215,-40.039,-26.855,-39.551,-15.137,0.000
1709297706.219,6.836,-25.879,-37.598,1.465,0.000
1709297706.223,2.930,-30.273,-41.016,-16.602,0.000
1709297706.227,-39.551,-30.273,-44.922,-47.852,0.000
1709297706.231,-62.012,-29.297,-46.875,-44.922,0.000
1709297706.234,-42.969,-30.273,-47.852,-25.879,0.000
1709297706.238,-2.441,-33.203,-44.922,-20.508,0.000
1709297706.242,-2.930,-35.156,-43.457,-39.551,0.000
1709297706.246,-50.293,-32.715,-42.480,-71.777,0.000
1709297706.250,-77.637,-30.273,-45.410,-74.219,0.000
1709297706.254,-56.641,-32.227,-49.805,-47.363,0.000
1709297706.258,-15.625,-32.715,-46.875,-25.391,0.000
1709297706.262,-4.395,-35.645,-42.480,-36.133,0.000
1709297706.266,-34.180,-33.203,-39.062,-55.176,0.000
1709297706.270,-61.523,-32.715,-36.621,-50.293,0.000
1709297706.274,-41.504,-34.180,-35.645,-28.320,0.000
1709297706.277,-6.348,-31.250,-35.645,-17.578,0.000
1709297706.281,-2.930,-35.645,-38.574,-23.438,0.000
1709297706.285,-37.109,-40.527,-42.480,-37.598,0.000
1709297706.289,-70.312,-36.133,-44.434,-66.895,0.000
1709297706.293,-64.941,-34.180,-45.898,-64.941,0.000
1709297706.297,-15.625,-34.180,-46.387,-35.156,0.000
1709297706.301,11.230,-34.668,-47.852,-38.574,0.000
1709297706.305,-25.391,-36.133,-50.781,-62.988,0.000
1709297706.309,-67.383,-35.645,-51.270,-74.219,0.000
1709297706.313,-62.012,-35.645,-46.387,-56.641,0.000
1709297706.316,-19.043,-35.645,-47.852,-24.414,0.000
1709297706.320,9.766,-34.668,-50.293,-22.949,0.000
1709297706.324,-14.648,-34.180,-46.875,-45.898,0.000
1709297706.328,-60.059,-36.133,-47.852,-55.176,0.000
1709297706.332,-61.035,-33.691,-48.828,-37.598,0.000
1709297706.336,-24.902,-29.785,-45.410,-19.043,0.000
1709297706.340,5.859,-32.715,-43.945,-14.648,0.000
1709297706.344,-19.043,-39.062,-42.480,-31.250,0.000
1709297706.348,-69.336,-35.645,-39.062,-40.527,0.000
1709297706.352,-75.684,-31.250,-35.645,-28.320,0.000
1709297706.356,-44.922,-32.227,-33.691,-19.043,0.000
1709297706.359,-14.160,-31.250,-32.227,-19.043,0.000
1709297706.363,-21.973,-30.273,-33.203,-39.062,0.000
1709297706.367,-57.129,-31.738,-34.668,-69.336,0.000
1709297706.371,-77.148,-35.156,-34.180,-60.059,0.000
1709297706.375,-53.223,-36.133,-34.180,-12.695,0.000
1709297706.379,-10.254,-26.367,-33.691,-9.766,0.000
1709297706.383,-8.789,-23.926,-32.715,-42.480,0.000
1709297706.387,-47.363,-33.203,-33.691,-61.523,0.000
1709297706.391,-74.219,-37.109,-38.086,-64.453,0.000
1709297706.395,-45.898,-31.250,-37.598,-45.410,0.000
1709297706.399,-3.906,-30.762,-35.645,-21.484,0.000
1709297706.402,-11.719,-35.645,-39.551,-39.062,0.000
1709297706.406,-49.805,-38.574,-40.039,-68.359,0.000
1709297706.410,-72.266,-35.645,-39.062,-65.430,0.000
1709297706.414,-46.875,-33.691,-39.062,-35.156,0.000
1709297706.418,-2.930,-36.133,-36.133,-2.441,0.000
1709297706.422,1.953,-35.156,-29.785,-2.441,0.000
1709297706.426,-40.039,-38.574,-31.738,-37.109,0.000
1709297706.430,-64.941,-41.504,-31.738,-53.711,0.000
1709297706.434,-49.316,-40.039,-32.227,-20.020,0.000
1709297706.438,-12.695,-39.551,-33.203,5.859,0.000
1709297706.441,-0.488,-40.039,-37.598,-13.184,0.000
1709297706.445,-36.621,-39.062,-41.504,-37.109,0.000
1709297706.449,-68.359,-36.133,-38.574,-36.621,0.000
1709297706.453,-56.152,-35.156,-36.621,-20.996,0.000
1709297706.457,-17.090,-38.574,-38.086,-6.348,0.000
1709297706.461,-0.977,-38.574,-42.480,-11.719,0.000
1709297706.465,-31.250,-43.457,-47.363,-32.715,0.000
1709297706.469,-62.988,-43.457,-42.969,-46.875,0.000
1709297706.473,-52.734,-39.551,-43.457,-27.344,0.000
1709297706.477,-16.113,-39.551,-47.852,2.441,0.000
1709297706.481,1.465,-40.527,-42.480,8.301,0.000
1709297706.484,-20.508,-38.086,-42.969,-17.090,0.000
1709297706.488,-53.223,-34.180,-44.434,-28.809,0.000
1709297706.492,-62.500,-37.598,-42.480,-18.066,0.000
1709297706.496,-28.320,-40.039,-45.898,1.953,0.000
1709297706.500,3.906,-37.598,-47.852,12.207,0.000
1709297706.504,-18.066,-35.156,-46.387,-12.695,0.000
1709297706.508,-57.617,-37.109,-43.457,-37.598,0.000
1709297706.512,-56.641,-41.016,-39.062,-22.949,0.000
1709297706.516,-21.484,-37.109,-39.062,1.465,0.000
1709297706.520,7.324,-35.156,-37.598,-6.836,0.000
1709297706.524,-10.742,-38.086,-33.203,-29.297,0.000
1709297706.527,-54.199,-29.785,-37.598,-41.016,0.000
1709297706.531,-66.895,-28.320,-41.504,-50.293,0.000
1709297706.535,-39.062,-38.086,-41.016,-29.297,0.000
1709297706.539,-6.836,-30.273,-41.992,-7.812,0.000
1709297706.543,-14.648,-25.391,-38.574,-26.367,0.000
1709297706.547,-51.270,-30.762,-38.086,-51.758,0.000
1709297706.551,-60.547,-31.250,-39.551,-47.852,0.000
1709297706.555,-32.227,-29.297,-39.062,-21.484,0.000
1709297706.559,-13.672,-32.715,-43.457,-11.719,0.000
1709297706.563,-29.297,-31.738,-42.480,-33.691,0.000
1709297706.567,-70.312,-32.715,-41.992,-53.223,0.000
1709297706.570,-91.309,-35.645,-38.574,-43.945,0.000
1709297706.574,-60.059,-30.762,-38.086,-22.949,0.000
1709297706.578,-14.160,-29.297,-40.039,-22.461,0.000
1709297706.582,-17.090,-32.715,-37.598,-42.969,0.000
1709297706.586,-56.152,-34.668,-35.645,-62.500,0.000
1709297706.590,-85.449,-34.180,-37.109,-56.641,0.000
1709297706.594,-61.523,-32.227,-37.598,-30.762,0.000
1709297706.598,-16.113,-31.250,-35.156,-17.090,0.000
1709297706.602,-15.625,-31.738,-35.645,-32.715,0.000
1709297706.606,-56.152,-36.621,-38.086,-55.664,0.000
1709297706.610,-84.473,-35.156,-40.527,-62.988,0.000
1709297706.613,-67.871,-33.203,-40.527,-44.434,0.000
1709297706.617,-27.344,-31.738,-38.086,-18.066,0.000
1709297706.621,-8.789,-29.297,-35.156,-22.461,0.000
1709297706.625,-31.738,-36.621,-34.180,-43.457,0.000
1709297706.629,-64.941,-37.109,-36.133,-47.852,0.000
1709297706.633,-49.805,-29.297,-35.156,-25.879,0.000
1709297706.637,-4.883,-25.391,-31.738,-4.883,0.000
1709297706.641,3.418,-29.297,-38.574,-11.719,0.000
1709297706.645,-30.273,-34.180,-41.504,-42.480,0.000
1709297706.649,-69.824,-38.086,-42.480,-63.965,0.000
1709297706.652,-71.289,-41.992,-46.875,-44.922,0.000
1709297706.656,-25.879,-39.551,-47.363,-20.996,0.000
1709297706.660,-4.883,-37.598,-42.480,-12.695,0.000
1709297706.664,-33.203,-35.645,-39.551,-33.203,0.000
1709297706.668,-62.988,-31.738,-41.992,-54.199,0.000
1709297706.672,-63.965,-29.785,-42.480,-39.062,0.000
1709297706.676,-26.367,-31.250,-38.574,-10.254,0.000
1709297706.680,8.301,-32.227,-36.133,-9.766,0.000
1709297706.684,-14.160,-29.785,-38.574,-40.527,0.000
1709297706.688,-66.895,-32.715,-41.504,-55.176,0.000
1709297706.692,-75.195,-36.133,-41.504,-41.504,0.000
1709297706.695,-41.992,-36.133,-45.410,-21.973,0.000
1709297706.699,-8.301,-36.621,-44.922,-11.719,0.000
1709297706.703,-19.043,-36.133,-41.504,-26.855,0.000
1709297706.707,-61.523,-30.273,-39.551,-44.922,0.000
1709297706.711,-74.219,-23.438,-36.133,-42.480,0.000
1709297706.715,-41.504,-27.832,-40.039,-28.320,0.000
1709297706.719,-5.859,-33.203,-43.945,-23.926,0.000
1709297706.723,-8.789,-31.250,-46.875,-41.992,0.000
1709297706.727,-47.852,-32.227,-47.363,-62.988,0.000
1709297706.731,-73.242,-37.598,-47.363,-56.641,0.000
1709297706.735,-48.340,-36.133,-50.293,-31.250,0.000
1709297706.738,-7.812,-29.297,-47.852,-6.348,0.000
1709297706.742,-7.812,-30.762,-41.992,-21.484,0.000
1709297706.746,-45.410,-31.250,-36.133,-49.805,0.000
1709297706.750,-73.730,-28.809,-37.109,-39.062,0.000
1709297706.754,-49.316,-25.391,-39.062,-21.973,0.000
1709297706.758,-8.301,-27.832,-41.504,-11.230,0.000
1709297706.762,0.488,-34.668,-42.480,-18.066,0.000
1709297706.766,-29.785,-36.133,-41.504,-40.527,0.000
1709297706.770,-57.617,-35.645,-42.480,-44.922,0.000
1709297706.774,-39.062,-37.109,-42.480,-22.949,0.000
1709297706.778,-4.395,-41.504,-39.062,4.883,0.000
1709297706.781,4.883,-42.480,-36.621,0.488,0.000
1709297706.785,-19.043,-41.016,-36.133,-31.250,0.000
1709297706.789,-56.152,-40.039,-34.180,-42.969,0.000
1709297706.793,-50.293,-43.945,-33.203,-27.832,0.000
1709297706.797,-14.160,-40.527,-37.109,-7.324,0.000
1709297706.801,0.977,-30.762,-36.621,-6.348,0.000
1709297706.805,-23.926,-30.273,-35.156,-33.203,0.000
1709297706.809,-59.570,-31.738,-35.156,-43.945,0.000
1709297706.813,-61.035,-30.273,-37.598,-28.320,0.000
1709297706.817,-20.020,-25.391,-37.109,-11.230,0.000
1709297706.820,5.859,-25.879,-30.762,-8.789,0.000
1709297706.824,-20.508,-27.344,-28.809,-29.297,0.000
1709297706.828,-60.059,-26.855,-36.621,-46.387,0.000
1709297706.832,-63.965,-29.297,-40.527,-33.691,0.000
1709297706.836,-32.715,-38.086,-41.504,-7.812,0.000
1709297706.840,-1.465,-37.598,-43.945,-5.859,0.000
1709297706.844,-9.277,-29.297,-42.969,-29.785,0.000
1709297706.848,-50.293,-31.250,-38.086,-44.922,0.000
1709297706.852,-62.988,-34.668,-34.180,-34.668,0.000
1709297706.856,-26.855,-33.691,-38.086,-10.742,0.000
1709297706.860,15.137,-31.738,-44.922,-1.465,0.000
1709297706.863,4.883,-34.180,-43.945,-19.531,0.000
1709297706.867,-46.875,-37.109,-39.551,-43.945,0.000
1709297706.871,-60.547,-37.109,-36.621,-37.598,0.000
1709297706.875,-23.438,-36.133,-38.574,-28.320,0.000
1709297706.879,2.930,-33.691,-44.922,-36.621,0.000
1709297706.883,-12.207,-35.156,-49.805,-48.340,0.000
1709297706.887,-55.176,-40.039,-51.758,-63.477,0.000
1709297706.891,-70.312,-37.598,-50.293,-57.617,0.000
1709297706.895,-36.621,-37.109,-50.781,-29.297,0.000
1709297706.899,1.953,-43.945,-50.781,-6.348,0.000
1709297706.903,4.395,-38.086,-45.898,-19.531,0.000
1709297706.906,-30.273,-27.832,-42.480,-53.711,0.000
1709297706.910,-57.617,-31.250,-43.945,-57.617,0.000
1709297706.914,-39.062,-36.133,-47.363,-36.133,0.000
1709297706.918,1.953,-37.109,-47.363,-12.207,0.000
1709297706.922,9.766,-32.227,-46.875,-27.344,0.000
1709297706.926,-25.879,-31.250,-46.875,-61.523,0.000
1709297706.930,-57.129,-37.109,-47.363,-58.105,0.000
1709297706.934,-47.363,-39.551,-49.805,-27.832,0.000
1709297706.938,-3.906,-37.598,-49.316,-16.602,0.000
1709297706.942,8.789,-34.180,-42.480,-24.414,0.000
1709297706.946,-31.738,-36.621,-41.504,-30.273,0.000
1709297706.949,-67.871,-27.832,-39.551,-54.688,0.000
1709297706.953,-53.223,-27.832,-36.133,-42.480,0.000
1709297706.957,-15.137,-34.180,-37.598,-16.113,0.000
1709297706.961,-4.395,-31.250,-35.156,-26.855,0.000
1709297706.965,-37.598,-28.320,-37.109,-52.246,0.000
1709297706.969,-80.078,-27.344,-42.480,-59.570,0.000
1709297706.973,-71.289,-28.809,-41.504,-43.457,0.000
1709297706.977,-23.926,-30.273,-41.504,-27.832,0.000
1709297706.981,-1.953,-30.762,-41.992,-22.461,0.000
1709297706.985,-27.832,-30.273,-38.574,-44.434,0.000
1709297706.988,-72.266,-30.762,-41.504,-62.500,0.000
1709297706.992,-73.730,-30.273,-41.504,-42.480,0.000
1709297706.996,-27.344,-29.785,-39.062,-21.484,0.000
1709297707.000,-1.465,-30.273,-43.945,-23.438,0.000
1709297707.004,-30.762,-32.227,-44.922,-40.527,0.000
