timestamps,TP9,AF7,AF8,TP10,Right AUX
1709212307.247,-43.945,-52.246,-44.434,-50.781,0.000
1709212307.251,-46.875,-53.223,-45.898,-56.152,0.000
1709212307.255,-42.480,-54.199,-43.945,-51.758,0.000
1709212307.259,-42.480,-55.664,-43.457,-45.898,0.000
1709212307.263,-36.621,-48.340,-41.504,-34.668,0.000
1709212307.266,-27.344,-49.316,-41.016,-28.809,0.000
1709212307.270,-23.926,-52.246,-40.039,-29.297,0.000
1709212307.274,-22.461,-53.711,-45.410,-20.996,0.000
1709212307.278,-26.855,-48.828,-45.898,-19.531,0.000
1709212307.282,-25.879,-36.133,-37.109,-16.602,0.000
1709212307.286,-19.531,-41.016,-36.621,-7.812,0.000
1709212307.290,-23.926,-47.852,-36.133,-9.766,0.000
1709212307.294,-31.738,-38.574,-36.133,-18.555,0.000
1709212307.298,-31.250,-34.180,-31.250,-19.531,0.000
1709212307.302,-30.273,-45.410,-30.273,-19.043,0.000
1709212307.305,-30.273,-51.270,-42.480,-31.738,0.000
1709212307.309,-30.762,-48.340,-44.922,-36.133,0.000
1709212307.313,-36.621,-44.922,-40.039,-38.086,0.000
1709212307.317,-38.086,-39.551,-32.715,-37.598,0.000
1709212307.321,-37.598,-30.273,-30.273,-38.086,0.000
1709212307.325,-43.457,-38.086,-41.992,-47.363,0.000
1709212307.329,-43.457,-52.246,-40.527,-43.457,0.000
1709212307.333,-39.551,-57.129,-35.156,-36.621,0.000
1709212307.337,-41.992,-54.688,-35.645,-25.879,0.000
1709212307.341,-46.387,-51.758,-30.762,-22.949,0.000
1709212307.344,-42.969,-59.082,-31.738,-28.320,0.000
1709212307.348,-42.480,-55.176,-36.133,-29.785,0.000
1709212307.352,-49.316,-51.270,-36.133,-23.926,0.000
1709212307.356,-48.828,-46.875,-36.133,-19.043,0.000
1709212307.360,-42.969,-41.016,-34.180,-22.461,0.000
1709212307.364,-37.109,-44.434,-27.832,-18.555,0.000
1709212307.368,-42.969,-47.363,-33.203,-18.555,0.000
1709212307.372,-45.898,-42.969,-38.086,-27.344,0.000
1709212307.376,-39.062,-50.293,-37.109,-24.414,0.000
1709212307.380,-38.086,-55.664,-35.156,-23.438,0.000
1709212307.383,-33.203,-50.781,-36.621,-21.484,0.000
1709212307.387,-26.855,-41.992,-44.434,-21.973,0.000
1709212307.391,-26.367,-38.086,-40.039,-24.414,0.000
1709212307.395,-24.902,-45.410,-34.668,-16.602,0.000
1709212307.399,-15.137,-34.180,-32.227,-7.324,0.000
1709212307.403,-12.207,-36.621,-31.250,0.000,0.000
1709212307.407,-10.254,-41.504,-35.645,-1.465,0.000
1709212307.411,-8.301,-39.551,-30.273,1.465,0.000
1709212307.415,-18.066,-43.457,-26.855,-9.766,0.000
1709212307.419,-26.367,-40.527,-27.344,-13.184,0.000
1709212307.422,-26.855,-40.039,-25.391,-7.324,0.000
1709212307.426,-25.391,-49.316,-28.320,-6.836,0.000
1709212307.430,-20.020,-52.246,-31.738,-3.906,0.000
1709212307.434,-25.879,-45.410,-32.227,-9.766,0.000
1709212307.438,-34.668,-44.922,-26.855,-11.719,0.000
1709212307.442,-33.691,-49.805,-26.855,-12.207,0.000
1709212307.446,-35.156,-47.363,-35.645,-20.508,0.000
1709212307.450,-42.480,-42.969,-39.551,-29.785,0.000
1709212307.454,-45.898,-41.504,-38.574,-33.203,0.000
1709212307.457,-44.434,-43.457,-32.715,-29.785,0.000
1709212307.461,-43.457,-46.387,-36.133,-31.738,0.000
1709212307.465,-34.668,-40.527,-37.598,-33.203,0.000
1709212307.469,-31.738,-37.598,-34.180,-28.809,0.000
1709212307.473,-29.785,-40.039,-34.668,-31.250,0.000
1709212307.477,-29.297,-35.645,-30.273,-29.785,0.000
1709212307.481,-30.762,-37.109,-31.250,-20.996,0.000
1709212307.485,-21.973,-38.086,-32.227,-15.625,0.000
1709212307.489,-17.578,-36.133,-23.926,-18.066,0.000
1709212307.493,-21.973,-42.969,-27.344,-20.020,0.000
1709212307.497,-15.625,-38.086,-37.598,-20.508,0.000
1709212307.501,-20.996,-36.133,-40.039,-23.926,0.000
1709212307.505,-27.832,-44.434,-43.945,-23.926,0.000
1709212307.509,-23.438,-45.898,-37.109,-19.043,0.000
1709212307.513,-26.855,-51.270,-31.738,-17.578,0.000
1709212307.516,-33.691,-55.176,-32.227,-18.555,0.000
1709212307.520,-38.574,-50.781,-25.879,-27.832,0.000
1709212307.524,-37.598,-44.922,-21.484,-28.809,0.000
1709212307.528,-39.551,-51.758,-26.367,-20.508,0.000
1709212307.532,-45.410,-55.664,-33.203,-24.902,0.000
1709212307.536,-48.340,-46.387,-32.227,-26.855,0.000
1709212307.540,-48.828,-42.969,-33.691,-19.531,0.000
1709212307.544,-46.875,-52.246,-38.086,-21.973,0.000
1709212307.548,-46.387,-51.758,-37.598,-25.879,0.000
1709212307.552,-47.852,-42.969,-36.133,-25.391,0.000
1709212307.556,-53.711,-41.992,-36.133,-29.785,0.000
1709212307.559,-50.781,-46.875,-43.457,-21.484,0.000
1709212307.563,-46.387,-50.293,-45.898,-12.207,0.000
1709212307.567,-40.527,-50.293,-41.016,-24.414,0.000
1709212307.571,-33.203,-53.223,-41.504,-29.785,0.000
1709212307.575,-36.133,-50.781,-46.387,-29.785,0.000
1709212307.579,-37.109,-53.223,-41.504,-32.227,0.000
1709212307.583,-39.062,-51.270,-39.062,-32.227,0.000
1709212307.587,-44.434,-42.480,-37.598,-38.086,0.000
1709212307.591,-46.875,-48.828,-39.062,-44.434,0.000
1709212307.595,-54.688,-52.246,-49.316,-54.199,0.000
1709212307.598,-59.570,-34.180,-52.246,-62.988,0.000
1709212307.602,-57.617,-29.785,-56.641,-62.500,0.000
1709212307.606,-44.922,-40.039,-54.688,-52.246,0.000
1709212307.610,-44.922,-37.109,-56.641,-65.430,0.000
1709212307.614,-46.387,-33.203,-53.711,-62.988,0.000
1709212307.618,-42.480,-31.738,-43.945,-52.734,0.000
1709212307.622,-42.969,-34.180,0.000,-52.246,0.000
1709212307.626,-35.645,-35.645,0.000,-38.574,0.000
1709212307.630,-26.855,-26.367,0.000,-30.273,0.000
1709212307.634,-27.344,-34.668,0.000,-29.297,0.000
1709212307.638,-27.344,-33.691,0.000,-29.297,0.000
1709212307.641,-29.297,-26.367,0.000,-33.203,0.000
1709212307.645,-31.250,-44.434,0.000,-34.668,0.000
1709212307.649,-28.809,-36.621,0.000,-25.879,0.000
1709212307.653,-37.109,-22.461,0.000,-28.809,0.000
1709212307.657,-51.270,-22.461,0.000,-42.480,0.000
1709212307.661,-49.805,-26.855,0.000,-36.621,0.000
1709212307.665,-52.246,-35.645,0.000,-35.156,0.000
1709212307.669,-54.688,-41.016,-48.828,-43.945,0.000
1709212307.673,-54.199,-46.387,-43.457,-49.316,0.000
1709212307.677,-63.965,-48.340,-39.551,-48.828,0.000
1709212307.681,-73.242,-48.340,-48.828,-52.734,0.000
1709212307.684,-69.824,-44.434,-50.293,-53.711,0.000
1709212307.688,-69.824,-39.551,-39.551,-49.805,0.000
1709212307.692,-68.848,-41.992,-35.156,-54.688,0.000
1709212307.696,-63.965,-39.062,-31.738,-40.527,0.000
1709212307.700,-62.012,-31.738,-37.598,-38.086,0.000
1709212307.704,-58.594,-39.062,-41.016,-44.434,0.000
1709212307.708,-48.828,-50.293,-37.598,-37.109,0.000
1709212307.712,-36.621,-45.410,-34.180,-32.715,0.000
1709212307.716,-38.574,-38.086,-35.156,-29.297,0.000
1709212307.720,-45.410,-37.598,-38.574,-30.273,0.000
1709212307.723,-40.527,-40.527,-41.016,-29.785,0.000
1709212307.727,-40.527,-37.598,-43.945,-30.273,0.000
1709212307.731,-41.992,-35.156,-43.945,-35.645,0.000
1709212307.735,-39.551,-41.504,-42.969,-47.852,0.000
1709212307.739,-37.109,-46.875,-41.016,-51.270,0.000
1709212307.743,-40.527,-45.410,-43.945,-40.527,0.000
1709212307.747,-37.598,-44.922,-41.504,-40.527,0.000
1709212307.751,-35.156,-45.410,-38.574,-40.527,0.000
1709212307.755,-44.434,-48.340,-37.598,-39.062,0.000
1709212307.759,-47.363,-42.969,-36.133,-44.922,0.000
1709212307.762,-46.387,-39.062,-43.945,-52.734,0.000
1709212307.766,-33.691,-44.922,-44.922,-49.805,0.000
1709212307.770,-24.902,-42.969,-37.109,-40.527,0.000
1709212307.774,-29.785,-43.457,-35.156,-33.691,0.000
1709212307.778,-31.250,-46.875,-32.227,-26.855,0.000
1709212307.782,-38.574,-47.363,-35.645,-34.668,0.000
1709212307.786,-46.875,-43.945,-38.086,-38.574,0.000
1709212307.790,-46.387,-34.668,-30.762,-39.551,0.000
1709212307.794,-46.387,-39.551,-28.809,-41.992,0.000
1709212307.798,-59.570,-50.781,-36.133,-45.898,0.000
1709212307.801,-69.824,-44.434,-38.574,-51.758,0.000
1709212307.805,-63.477,-37.109,-34.668,-53.711,0.000
1709212307.809,-55.176,-43.945,-34.180,-51.270,0.000
1709212307.813,-58.594,-45.410,-32.227,-48.340,0.000
1709212307.817,-65.918,-48.340,-33.203,-52.246,0.000
1709212307.821,-62.500,-44.434,-36.133,-57.617,0.000
1709212307.825,-54.199,-42.969,-37.598,-53.223,0.000
1709212307.829,-55.664,-43.457,-38.574,-47.852,0.000
1709212307.833,-58.105,-40.527,-34.180,-46.875,0.000
1709212307.836,-64.453,-49.805,-36.621,-54.199,0.000
1709212307.840,-63.477,-46.875,-42.480,-55.664,0.000
1709212307.844,-52.734,-48.828,-45.410,-47.852,0.000
1709212307.848,-39.551,-47.363,-40.039,-42.480,0.000
1709212307.852,-32.227,-37.109,-43.457,-42.969,0.000
1709212307.856,-33.203,-48.340,-44.922,-41.504,0.000
1709212307.860,-28.809,-51.758,-39.062,-34.668,0.000
1709212307.864,-18.555,-39.062,-41.016,-29.297,0.000
1709212307.868,-11.230,-37.109,-43.457,-27.344,0.000
1709212307.872,-11.719,-40.039,-42.969,-23.926,0.000
1709212307.876,-16.113,-36.621,-35.645,-17.578,0.000
1709212307.879,-21.973,-49.316,-36.621,-20.020,0.000
1709212307.883,-21.484,-49.805,-42.480,-30.273,0.000
1709212307.887,-20.996,-35.156,-38.574,-33.691,0.000
1709212307.891,-29.785,-40.527,-36.133,-36.133,0.000
1709212307.895,-36.133,-44.434,-40.039,-47.363,0.000
1709212307.899,-45.410,-47.852,-38.574,-49.805,0.000
1709212307.903,-45.898,-41.504,-35.156,-48.340,0.000
1709212307.907,-43.945,-41.992,-38.086,-53.711,0.000
1709212307.911,-47.852,-41.016,-42.480,-49.805,0.000
1709212307.915,-47.852,-41.992,-39.062,-41.504,0.000
1709212307.919,-50.293,-50.781,-34.668,-44.434,0.000
1709212307.922,-53.223,-51.758,-37.598,-49.316,0.000
1709212307.926,-49.316,-47.363,-41.016,-46.387,0.000
1709212307.930,-47.363,-43.945,-40.527,-42.969,0.000
1709212307.934,-48.340,-47.852,-41.992,-43.457,0.000
1709212307.938,-48.340,-42.480,-41.016,-42.480,0.000
1709212307.942,-41.504,-36.621,-39.551,-45.410,0.000
1709212307.946,-35.156,-38.574,-42.480,-38.574,0.000
1709212307.950,-26.367,-32.227,-36.133,-33.691,0.000
1709212307.954,-30.762,-35.156,-34.668,-38.086,0.000
1709212307.958,-36.621,-40.039,-38.086,-37.598,0.000
1709212307.962,-30.762,-40.039,-36.621,-29.785,0.000
1709212307.965,-31.250,-30.762,-35.645,-27.832,0.000
1709212307.969,-38.086,-25.879,-39.551,-34.180,0.000
1709212307.973,-47.852,-36.621,-50.293,-44.922,0.000
1709212307.977,-48.340,-42.969,-49.805,-47.363,0.000
1709212307.981,-46.387,-41.504,-42.480,-34.180,0.000
1709212307.985,-45.898,-45.898,-41.016,-38.574,0.000
1709212307.989,-39.062,-49.316,-43.945,-47.852,0.000
1709212307.993,-41.016,-47.852,-44.922,-54.199,0.000
1709212307.997,-43.457,-45.410,-41.504,-45.898,0.000
1709212308.001,-38.574,-40.527,-45.410,-39.062,0.000
1709212308.004,-35.645,-39.062,-53.711,-44.434,0.000
1709212308.008,-33.203,-38.574,-45.898,-37.109,0.000
1709212308.012,-29.297,-33.203,-37.109,-33.203,0.000
1709212308.016,-29.297,-33.691,-33.203,-42.969,0.000
1709212308.020,-31.250,-38.574,-31.250,-43.945,0.000
1709212308.024,-27.344,-45.898,-34.180,-22.461,0.000
1709212308.028,-28.809,-45.410,-39.062,-23.438,0.000
1709212308.032,-24.414,-34.668,-29.785,-33.691,0.000
1709212308.036,-28.320,-38.574,-27.832,-29.785,0.000
1709212308.040,-41.504,-46.387,-36.133,-35.156,0.000
1709212308.043,-43.457,-43.945,-39.062,-36.621,0.000
1709212308.047,-35.645,-46.875,-33.691,-30.762,0.000
1709212308.051,-37.109,-46.875,-35.645,-28.320,0.000
1709212308.055,-39.062,-39.551,-38.086,-23.926,0.000
1709212308.059,-33.203,-45.410,-34.668,-20.996,0.000
1709212308.063,-39.062,-58.594,-35.156,-19.043,0.000
1709212308.067,-39.551,-62.500,-39.062,-12.207,0.000
1709212308.071,-35.156,-68.359,-38.574,-8.301,0.000
1709212308.075,-40.527,-61.523,-38.086,-20.996,0.000
1709212308.079,-43.945,-50.293,-33.691,-27.344,0.000
1709212308.083,-38.086,-40.527,-29.785,-22.949,0.000
1709212308.086,-30.762,-41.992,-34.180,-18.066,0.000
1709212308.090,-28.809,-45.410,-39.551,-17.578,0.000
1709212308.094,-25.391,-39.551,-38.574,-22.461,0.000
1709212308.098,-24.414,-37.598,-36.621,-14.160,0.000
1709212308.102,-24.414,-41.992,-35.156,-14.648,0.000
1709212308.106,-26.367,-43.457,-38.086,-16.113,0.000
1709212308.110,-23.926,-45.410,-35.645,-17.090,0.000
1709212308.114,-17.578,-45.898,-30.762,-16.113,0.000
1709212308.118,-24.414,-42.969,-32.715,-10.254,0.000
1709212308.122,-28.320,-41.016,-39.551,-14.160,0.000
1709212308.125,-21.484,-41.992,-40.039,-14.648,0.000
1709212308.129,-16.602,-48.340,-38.086,-14.160,0.000
1709212308.133,-23.926,-46.387,-46.875,-28.809,0.000
1709212308.137,-29.785,-43.457,-50.781,-38.086,0.000
1709212308.141,-37.109,-44.922,-46.875,-35.156,0.000
1709212308.145,-38.574,-47.363,-46.387,-32.227,0.000
1709212308.149,-33.691,-44.434,-50.781,-35.156,0.000
1709212308.153,-29.785,-36.621,-46.875,-43.945,0.000
1709212308.157,-33.691,-43.945,-43.945,-44.922,0.000
1709212308.160,-34.668,-42.480,-44.922,-33.691,0.000
1709212308.164,-31.250,-29.785,-42.480,-31.738,0.000
1709212308.168,-31.250,-35.645,-39.062,-39.062,0.000
1709212308.172,-31.250,-42.969,-41.016,-41.016,0.000
1709212308.176,-42.480,-38.574,-44.434,-44.922,0.000
1709212308.180,-47.852,-41.992,-44.922,-44.922,0.000
1709212308.184,-41.016,-52.246,-40.527,-43.945,0.000
1709212308.188,-31.738,-49.316,-38.574,-41.016,0.000
1709212308.192,-30.762,-44.922,-37.109,-44.434,0.000
1709212308.196,-37.598,-39.551,-35.156,-50.781,0.000
1709212308.200,-40.039,-36.621,-38.574,-46.875,0.000
1709212308.204,-44.922,-44.922,-44.434,-43.457,0.000
1709212308.207,-48.340,-44.434,-43.945,-46.387,0.000
1709212308.211,-45.898,-43.457,-42.969,-49.805,0.000
1709212308.215,-50.293,-35.645,-43.457,-50.293,0.000
1709212308.219,-59.570,-33.203,-51.758,-46.875,0.000
1709212308.223,-65.430,-46.387,-46.875,-45.898,0.000
1709212308.227,-61.523,-49.316,-34.668,-47.363,0.000
1709212308.231,-57.617,-41.504,-33.203,-45.410,0.000
1709212308.235,-59.570,-36.621,-36.621,-45.898,0.000
1709212308.239,-60.059,-37.109,-41.016,-47.363,0.000
1709212308.243,-58.105,-43.945,-41.016,-44.434,0.000
1709212308.247,-54.688,-51.270,-37.598,-33.691,0.000
1709212308.250,-51.270,-47.852,-34.180,-25.391,0.000
1709212308.254,-57.617,-44.922,-42.969,-35.645,0.000
1709212308.258,-62.012,-52.734,-47.852,-43.945,0.000
1709212308.262,-48.828,-55.176,-43.945,-33.203,0.000
1709212308.266,-36.621,-38.574,-39.062,-16.602,0.000
1709212308.270,-41.016,-30.762,-42.969,-24.414,0.000
1709212308.274,-38.574,-36.133,-42.480,-30.273,0.000
1709212308.278,-32.715,-37.109,-31.738,-31.250,0.000
1709212308.282,-32.715,-32.227,-31.250,-32.715,0.000
1709212308.286,-32.715,-32.715,-35.645,-27.344,0.000
1709212308.290,-36.133,-37.109,-34.180,-32.227,0.000
1709212308.293,-44.922,-57.129,-35.156,-45.898,0.000
1709212308.297,-48.828,-58.105,-36.621,-47.852,0.000
1709212308.301,-51.758,-40.039,-42.480,-49.805,0.000
1709212308.305,-55.664,-44.434,-44.434,-49.805,0.000
1709212308.309,-51.758,-43.457,-42.480,-39.551,0.000
1709212308.313,-44.922,-39.062,-43.945,-30.762,0.000
1709212308.317,-44.434,-44.922,-37.109,-37.598,0.000
1709212308.321,-44.434,-42.969,-33.691,-38.574,0.000
1709212308.325,-43.945,-42.480,-40.039,-40.039,0.000
1709212308.329,-43.945,-44.434,-39.062,-41.992,0.000
1709212308.333,-40.527,-42.969,-40.039,-42.969,0.000
1709212308.336,-48.340,-46.875,-42.969,-41.504,0.000
1709212308.340,-48.828,-48.828,-40.527,-32.227,0.000
1709212308.344,-38.574,-40.039,-40.039,-22.949,0.000
1709212308.348,-33.691,-37.598,-41.992,-20.996,0.000
1709212308.352,-35.156,-46.875,-34.668,-20.508,0.000
1709212308.356,-44.922,-51.758,-30.762,-20.508,0.000
1709212308.360,-45.410,-44.434,-40.039,-34.180,0.000
1709212308.364,-43.457,-44.922,-45.410,-42.969,0.000
1709212308.368,-40.039,-40.039,-43.457,-37.109,0.000
1709212308.372,-41.016,-38.086,-41.504,-34.180,0.000
1709212308.376,-46.387,-43.945,-38.574,-42.480,0.000
1709212308.379,-40.039,-36.621,-36.133,-38.086,0.000
1709212308.383,-39.062,-41.016,-39.551,-32.715,0.000
1709212308.387,-33.691,-43.457,-39.551,-36.621,0.000
1709212308.391,-33.691,-34.668,-43.945,-40.527,0.000
1709212308.395,-39.062,-36.621,-39.551,-38.086,0.000
1709212308.399,-33.691,-41.504,-33.691,-31.250,0.000
1709212308.403,-32.227,-37.598,-41.504,-27.832,0.000
1709212308.407,-33.203,-39.551,-39.551,-32.227,0.000
1709212308.411,-32.715,-42.480,-39.551,-36.621,0.000
1709212308.415,-41.016,-42.480,-45.410,-40.527,0.000
1709212308.418,-45.410,-41.016,-38.086,-38.086,0.000
1709212308.422,-39.551,-37.598,-29.297,-30.762,0.000
1709212308.426,-39.551,-32.715,-31.738,-29.297,0.000
1709212308.430,-46.875,-36.133,-34.180,-36.621,0.000
1709212308.434,-49.316,-43.457,-37.598,-41.504,0.000
1709212308.438,-53.223,-40.039,-38.086,-41.504,0.000
1709212308.442,-58.105,-39.551,-34.180,-34.180,0.000
1709212308.446,-62.012,-47.852,-39.551,-26.367,0.000
1709212308.450,-62.988,-42.969,-42.969,-36.133,0.000
1709212308.454,-50.781,-45.410,-44.434,-40.527,0.000
1709212308.457,-42.480,-47.852,-48.828,-37.598,0.000
1709212308.461,-46.387,-45.898,-43.457,-43.457,0.000
1709212308.465,-43.457,-50.781,-40.039,-39.551,0.000
1709212308.469,-41.016,-53.711,-43.457,-35.156,0.000
1709212308.473,-42.969,-57.617,-39.551,-42.969,0.000
1709212308.477,-41.992,-56.641,-38.086,-49.805,0.000
1709212308.481,-35.156,-47.852,-39.551,-47.852,0.000
1709212308.485,-29.297,-41.504,-35.156,-38.086,0.000
1709212308.489,-35.156,-49.316,-37.109,-31.250,0.000
1709212308.493,-36.621,-55.664,-41.504,-25.879,0.000
1709212308.496,-34.668,-49.316,-39.062,-27.344,0.000
1709212308.500,-43.457,-47.363,-40.039,-34.668,0.000
1709212308.504,-42.969,-46.875,-37.109,-35.156,0.000
1709212308.508,-39.062,-47.852,-30.762,-29.785,0.000
1709212308.512,-46.387,-56.152,-42.969,-43.945,0.000
1709212308.516,-45.898,-54.199,-46.387,-48.828,0.000
1709212308.520,-41.504,-54.199,-39.551,-39.551,0.000
1709212308.524,-41.504,-53.223,-46.387,-43.457,0.000
1709212308.528,-36.621,-48.828,-50.781,-42.969,0.000
1709212308.532,-40.039,-50.781,-48.340,-35.156,0.000
1709212308.536,-39.551,-45.410,-35.645,-24.414,0.000
1709212308.540,-43.457,-38.574,-28.809,-37.598,0.000
1709212308.543,-46.875,-45.898,-32.227,-51.758,0.000
1709212308.547,-32.715,-49.316,-30.273,-40.039,0.000
1709212308.551,-23.926,-38.086,-29.297,-29.297,0.000
1709212308.555,-24.414,-23.926,-29.785,-25.879,0.000
1709212308.559,0.000,-21.484,0.000,-25.879,0.000
1709212308.563,0.000,-33.203,0.000,-30.273,0.000
1709212308.567,0.000,-41.504,0.000,-26.367,0.000
1709212308.571,0.000,-43.945,0.000,-21.973,0.000
1709212308.575,0.000,-42.480,0.000,-20.996,0.000
1709212308.578,0.000,-43.945,0.000,-14.160,0.000
1709212308.582,0.000,-42.969,0.000,-13.184,0.000
1709212308.586,0.000,-33.203,0.000,-19.043,0.000
1709212308.590,0.000,-36.621,0.000,-21.973,0.000
1709212308.594,0.000,-46.875,0.000,-25.879,0.000
1709212308.598,0.000,-36.621,0.000,-27.832,0.000
1709212308.602,0.000,-30.273,0.000,-33.691,0.000
1709212308.606,-23.438,-28.809,-34.668,-37.109,0.000
1709212308.610,-32.715,-31.250,-33.203,-41.992,0.000
1709212308.614,-40.039,-43.457,-32.715,-49.316,0.000
1709212308.618,-42.480,-50.781,-30.273,-53.711,0.000
1709212308.621,-43.457,-45.898,-37.598,-50.781,0.000
1709212308.625,-41.016,-39.551,-45.410,-49.316,0.000
1709212308.629,-41.016,-41.016,-51.270,-49.805,0.000
1709212308.633,-42.480,-44.434,-50.781,-53.223,0.000
1709212308.637,-38.086,-41.992,-42.480,-47.363,0.000
1709212308.641,-38.574,-47.852,-39.551,-41.016,0.000
1709212308.645,-41.504,-51.270,-40.527,-55.176,0.000
1709212308.649,-42.480,-41.992,-39.551,-56.152,0.000
1709212308.653,-41.016,-44.434,-41.016,-46.875,0.000
1709212308.657,-41.992,-45.410,-40.039,-48.340,0.000
1709212308.661,-46.387,-39.551,-39.062,-54.688,0.000
1709212308.665,-42.969,-45.898,-38.574,-54.688,0.000
1709212308.668,-41.992,-60.059,-42.969,-48.828,0.000
1709212308.672,-41.504,-61.523,-44.922,-40.039,0.000
1709212308.676,-43.945,-65.430,-42.969,-35.156,0.000
1709212308.680,-51.758,-63.477,-43.945,-36.621,0.000
1709212308.684,-46.387,-62.500,-40.527,-30.273,0.000
1709212308.688,-33.203,-56.152,-32.715,-19.043,0.000
1709212308.692,-32.227,-49.805,-39.062,-29.297,0.000
1709212308.696,-37.598,-48.828,-42.969,-32.227,0.000
1709212308.700,-33.203,-45.410,-37.598,-26.367,0.000
1709212308.704,-26.367,-44.434,-40.039,-25.391,0.000
1709212308.708,-22.949,-33.691,-42.969,-31.250,0.000
1709212308.711,-25.391,-37.109,-43.457,-39.062,0.000
1709212308.715,-24.414,-51.758,-37.109,-26.367,0.000
1709212308.719,-24.414,-53.711,-30.762,-12.695,0.000
1709212308.723,-23.926,-39.551,-37.598,-17.090,0.000
1709212308.727,-21.973,-34.180,-43.457,-24.414,0.000
1709212308.731,-13.672,-35.645,-36.133,-6.348,0.000
1709212308.735,-18.066,-29.785,-34.668,-17.090,0.000
1709212308.739,-26.367,-28.809,-40.527,-36.621,0.000
1709212308.743,-22.461,-27.344,-45.410,-27.344,0.000
1709212308.747,-14.648,-20.020,-48.340,-17.090,0.000
1709212308.750,-2.441,-10.254,-49.316,-15.137,0.000
1709212308.754,-9.277,-12.695,-49.805,-18.066,0.000
1709212308.758,-16.602,-18.066,-55.176,-10.254,0.000
1709212308.762,-14.648,-21.484,-56.152,-8.301,0.000
1709212308.766,-9.277,-18.066,-49.316,-5.859,0.000
1709212308.770,0.488,-22.461,-40.039,-2.441,0.000
1709212308.774,-4.883,-29.785,-47.363,-8.789,0.000
1709212308.778,-7.324,-26.855,-46.875,-7.324,0.000
1709212308.782,-7.324,-18.555,-38.574,-7.324,0.000
1709212308.786,-10.254,-20.996,-41.016,-6.836,0.000
1709212308.790,-12.695,-32.715,-45.898,-13.184,0.000
1709212308.793,-21.973,-34.668,-47.363,-21.973,0.000
1709212308.797,-27.832,-33.203,-41.016,-20.508,0.000
1709212308.801,-29.297,-25.879,-44.434,-22.461,0.000
1709212308.805,-23.926,-28.320,-47.363,-20.996,0.000
1709212308.809,-17.090,-34.180,-43.945,-16.113,0.000
1709212308.813,-24.902,-27.344,-47.852,-27.832,0.000
1709212308.817,-38.086,-32.227,-48.340,-38.086,0.000
1709212308.821,-40.527,-43.457,-49.805,-26.855,0.000
1709212308.825,-31.738,-34.180,-49.316,-20.996,0.000
1709212308.829,-27.344,-23.438,-48.340,-30.762,0.000
1709212308.832,-29.785,-27.344,-48.340,-31.250,0.000
1709212308.836,-36.621,-32.227,-45.898,-34.180,0.000
1709212308.840,-41.504,-39.551,-45.898,-40.527,0.000
1709212308.844,-37.598,-44.434,-46.875,-34.668,0.000
1709212308.848,-36.133,-43.457,-46.387,-29.785,0.000
1709212308.852,-40.039,-40.527,-44.434,-36.621,0.000
1709212308.856,-39.551,-36.133,-43.457,-40.039,0.000
1709212308.860,-33.203,-36.133,-43.457,-35.645,0.000
1709212308.864,-28.320,-39.062,-41.504,-30.762,0.000
1709212308.868,-25.879,-35.645,-40.527,-24.902,0.000
1709212308.871,-26.367,-32.227,-35.156,-34.668,0.000
1709212308.875,-35.645,-39.062,-36.621,-44.434,0.000
1709212308.879,-36.133,-39.551,-39.551,-40.527,0.000
1709212308.883,-27.832,-29.785,-36.621,-33.203,0.000
1709212308.887,-24.414,-35.156,-40.527,-32.227,0.000
1709212308.891,-28.320,-42.480,-40.039,-32.227,0.000
1709212308.895,-32.715,-38.574,-40.527,-33.203,0.000
1709212308.899,-37.598,-41.992,-43.457,-35.645,0.000
1709212308.903,-27.344,-37.109,-36.621,-28.320,0.000
1709212308.906,-22.461,-28.320,-29.785,-25.391,0.000
1709212308.910,-28.809,-26.855,-35.156,-29.297,0.000
1709212308.914,-31.250,-31.738,-39.062,-32.715,0.000
1709212308.918,-38.086,-40.527,-39.062,-33.203,0.000
1709212308.922,-45.410,-48.828,-44.922,-24.414,0.000
1709212308.926,-35.645,-50.781,-38.574,-6.836,0.000
1709212308.930,-30.762,-41.016,-35.645,-13.672,0.000
1709212308.934,0.000,-28.320,-47.852,-34.180,0.000
1709212308.938,0.000,-15.137,-47.852,-35.156,0.000
1709212308.941,0.000,-15.137,-51.270,-34.180,0.000
1709212308.945,0.000,-14.160,-58.594,-43.457,0.000
1709212308.949,0.000,-10.254,-60.059,-51.758,0.000
1709212308.953,0.000,-9.277,-61.523,-58.594,0.000
1709212308.957,0.000,-11.719,-63.477,-58.105,0.000
1709212308.961,0.000,-16.602,-61.035,-56.641,0.000
1709212308.965,0.000,-13.184,-54.688,-52.734,0.000
1709212308.969,0.000,-11.719,-59.082,-50.293,0.000
1709212308.973,0.000,-14.648,-59.082,-58.105,0.000
1709212308.977,0.000,-20.508,-48.828,-55.176,0.000
1709212308.981,-31.250,-21.484,-48.828,-47.363,0.000
1709212308.985,-37.598,-15.625,-51.758,-49.805,0.000
1709212308.988,-36.133,-12.207,-53.223,-54.688,0.000
1709212308.992,-41.504,-18.066,-56.152,-60.059,0.000
1709212308.996,-46.875,-20.020,-56.152,-58.594,0.000
1709212309.000,-40.039,-22.461,-49.316,-46.875,0.000
1709212309.004,-28.809,-24.902,-46.387,-43.945,0.000
1709212309.008,-26.367,-31.250,-49.805,-45.898,0.000
1709212309.012,-24.902,-36.621,-53.223,-41.992,0.000
1709212309.016,-29.785,-28.809,-45.898,-36.621,0.000
1709212309.020,-37.598,-20.996,-49.316,-44.922,0.000
1709212309.024,-31.250,-21.973,-53.223,-37.109,0.000
1709212309.028,-16.113,-20.508,-41.992,-21.484,0.000
1709212309.032,-12.207,-21.973,-34.180,-21.484,0.000
1709212309.036,-17.578,-35.156,-37.109,-27.832,0.000
1709212309.040,-19.531,-35.156,-43.457,-25.391,0.000
1709212309.043,-17.090,-34.668,-41.504,-17.578,0.000
1709212309.047,-14.160,-35.645,-40.527,-19.531,0.000
1709212309.051,-14.160,-27.344,-35.645,-18.555,0.000
1709212309.055,-22.461,-31.738,-32.227,-14.160,0.000
1709212309.059,-30.762,-41.992,-36.621,-3.418,0.000
1709212309.063,-28.809,-33.203,-42.480,6.348,0.000
1709212309.067,-30.273,-30.273,-42.969,-9.766,0.000
1709212309.071,-27.344,-45.410,-39.551,-17.090,0.000
1709212309.075,-25.391,-43.457,-36.621,-17.090,0.000
1709212309.079,-33.691,-34.180,-37.109,-21.484,0.000
1709212309.082,-34.180,-32.227,-33.203,-18.066,0.000
1709212309.086,-25.391,-33.691,-28.320,-15.137,0.000
1709212309.090,-28.320,-51.270,-36.621,-20.996,0.000
1709212309.094,-33.691,-50.781,-39.062,-20.996,0.000
1709212309.098,-40.527,-41.016,-33.203,-22.461,0.000
1709212309.102,-47.363,-46.875,-34.668,-25.879,0.000
1709212309.106,-40.039,-49.316,-41.992,-22.949,0.000
1709212309.110,-37.109,-41.992,-40.039,-30.273,0.000
1709212309.114,-36.621,-38.574,-36.133,-30.762,0.000
1709212309.118,-41.016,-49.805,-32.715,-27.832,0.000
1709212309.122,-47.852,-57.617,-30.762,-18.555,0.000
1709212309.125,-38.574,-57.617,-40.039,-22.949,0.000
1709212309.129,-26.855,-43.945,-39.062,-28.320,0.000
1709212309.133,-26.855,-33.203,-30.273,-31.250,0.000
1709212309.137,-32.227,-41.016,-30.762,-36.133,0.000
1709212309.141,-38.574,-40.039,-33.203,-34.180,0.000
1709212309.145,-43.945,-41.504,-34.180,-41.016,0.000
1709212309.149,-41.504,-45.410,-32.227,-41.016,0.000
1709212309.153,-41.504,-36.621,-31.250,-40.527,0.000
1709212309.157,-46.387,-39.062,-38.086,-52.734,0.000
1709212309.161,-45.898,-41.992,-41.992,-54.199,0.000
1709212309.164,-46.387,-44.922,-46.875,-51.270,0.000
1709212309.168,-49.316,-48.340,-48.340,-55.664,0.000
1709212309.172,-53.223,-43.457,-47.363,-59.570,0.000
1709212309.176,-54.688,-39.551,-46.387,-51.758,0.000
1709212309.180,-49.316,-33.691,-42.480,-36.621,0.000
1709212309.184,-42.480,-31.250,-37.598,-34.180,0.000
1709212309.188,-41.504,-31.250,-36.133,-46.387,0.000
1709212309.192,-41.992,-29.297,-37.598,-49.805,0.000
1709212309.196,-41.504,-28.320,-40.039,-40.039,0.000
1709212309.200,-35.645,-25.879,-44.434,-37.109,0.000
1709212309.204,-30.273,-20.996,-42.480,-41.016,0.000
1709212309.207,-31.250,-26.855,-43.945,-41.992,0.000
1709212309.211,-31.250,-37.598,-37.109,-38.574,0.000
1709212309.215,-42.480,-36.621,-32.227,-37.598,0.000
1709212309.219,-58.105,-41.016,-34.668,-36.621,0.000
1709212309.223,-64.941,-53.223,-27.832,-40.039,0.000
1709212309.227,-66.895,-47.363,-24.902,-40.527,0.000
1709212309.231,-60.547,-39.062,-24.414,-41.504,0.000
1709212309.235,-54.199,-37.598,-23.926,-47.852,0.000
1709212309.239,-58.594,-41.016,-32.715,-49.316,0.000
1709212309.242,-55.664,-41.016,-36.133,-42.969,0.000
1709212309.246,-46.387,-43.457,-28.809,-41.016,0.000
1709212309.250,-46.875,-54.199,-34.180,-48.340,0.000
1709212309.254,-42.969,-52.246,-35.156,-41.504,0.000
1709212309.258,-51.270,-52.246,-35.156,-35.645,0.000
1709212309.262,-53.223,-46.875,-29.785,-35.645,0.000
1709212309.266,-46.387,-43.945,-27.344,-32.227,0.000
1709212309.270,-47.852,-49.316,-34.668,-32.227,0.000
1709212309.274,-49.805,-45.898,-35.645,-38.086,0.000
1709212309.278,-55.176,-49.805,-35.645,-48.828,0.000
1709212309.281,-57.129,-56.641,-36.133,-50.293,0.000
1709212309.285,-51.270,-56.152,-41.016,-38.086,0.000
1709212309.289,-48.828,-49.316,-41.016,-42.480,0.000
1709212309.293,-56.152,-54.199,-38.086,-53.711,0.000
1709212309.297,-62.988,-58.594,-38.574,-62.988,0.000
1709212309.301,-58.105,-52.246,-38.574,-59.570,0.000
1709212309.305,-52.734,-43.945,-40.039,-47.363,0.000
1709212309.309,-53.223,-36.133,-41.992,-41.016,0.000
1709212309.313,-50.781,-33.691,-37.598,-38.086,0.000
1709212309.316,-51.270,-42.969,-41.016,-37.598,0.000
1709212309.320,-46.875,-51.758,-41.504,-35.156,0.000
1709212309.324,-39.062,-54.199,-37.109,-30.762,0.000
1709212309.328,-33.691,-64.941,-37.109,-20.020,0.000
1709212309.332,-24.414,-57.129,-40.527,-15.625,0.000
1709212309.336,-33.203,-41.504,-44.434,-28.320,0.000
1709212309.340,-35.156,-46.875,-43.945,-30.273,0.000
1709212309.344,-29.297,-45.898,-41.992,-21.973,0.000
1709212309.348,-26.367,-36.133,-41.016,-17.578,0.000
1709212309.352,-24.902,-33.203,-42.969,-17.090,0.000
1709212309.356,-26.367,-42.969,-42.480,-16.602,0.000
1709212309.359,-32.715,-49.316,-36.133,-23.438,0.000
1709212309.363,-32.715,-49.805,-36.133,-30.273,0.000
1709212309.367,-25.391,-51.270,-45.410,-28.320,0.000
1709212309.371,-25.879,-56.152,-44.434,-34.180,0.000
1709212309.375,-30.762,-58.594,-38.574,-41.016,0.000
1709212309.379,-31.250,-31.738,-34.668,-42.480,0.000
1709212309.383,-38.086,-27.344,-39.062,-47.363,0.000
1709212309.387,-39.551,-40.527,-40.039,-45.410,0.000
1709212309.391,-35.156,-48.340,-35.156,-32.715,0.000
1709212309.395,-36.133,-46.875,-34.180,-35.645,0.000
1709212309.399,-37.598,-34.668,-31.250,-39.062,0.000
1709212309.403,-41.504,-41.504,-38.574,-34.668,0.000
1709212309.406,-34.668,-39.551,-42.969,-35.156,0.000
1709212309.410,-33.691,-39.062,-42.480,-42.969,0.000
1709212309.414,-35.645,-49.316,-45.898,-41.992,0.000
1709212309.418,-36.621,-51.270,-42.969,-35.156,0.000
1709212309.422,-42.480,-59.082,-34.180,-38.574,0.000
1709212309.426,-40.527,-48.340,-34.180,-43.945,0.000
1709212309.430,-30.273,-28.809,-32.715,-39.062,0.000
1709212309.434,-35.156,-42.480,-38.086,-35.156,0.000
1709212309.438,-46.875,-65.918,-46.875,-38.086,0.000
1709212309.442,-50.781,-47.363,-44.434,-44.434,0.000
1709212309.445,-52.246,-36.621,-39.551,-39.551,0.000
1709212309.449,-49.805,-50.781,-33.691,-34.180,0.000
1709212309.453,-48.340,-41.504,-26.855,-31.738,0.000
1709212309.457,-51.758,-42.969,-32.227,-34.180,0.000
1709212309.461,-41.016,-54.688,-35.645,-41.016,0.000
1709212309.465,-30.762,-41.992,-29.297,-25.879,0.000
1709212309.469,-33.691,-34.180,-33.203,-19.531,0.000
1709212309.473,-32.715,-45.898,-33.203,-25.391,0.000
1709212309.477,-36.621,-52.734,-36.133,-26.855,0.000
1709212309.481,-40.039,-45.410,-43.945,-21.484,0.000
1709212309.485,-33.203,-38.086,-40.039,-23.438,0.000
1709212309.488,-30.273,-38.574,-35.645,-30.762,0.000
1709212309.492,-31.738,-34.668,-30.273,-26.367,0.000
1709212309.496,-40.527,-31.250,-35.645,-39.062,0.000
1709212309.500,-39.551,-36.133,-46.875,-39.551,0.000
1709212309.504,-22.949,-46.387,-39.062,-25.391,0.000
1709212309.508,-25.391,-46.875,-32.715,-29.785,0.000
1709212309.512,-31.738,-40.039,-31.738,-33.203,0.000
1709212309.516,-36.133,-48.828,-29.297,-41.992,0.000
1709212309.520,-38.574,-49.316,-33.691,-44.922,0.000
1709212309.524,-26.855,-40.527,-34.180,-27.344,0.000
1709212309.527,-27.344,-41.504,-30.762,-23.926,0.000
1709212309.531,-25.391,-38.574,-32.227,-28.320,0.000
1709212309.535,-28.320,-41.992,-38.574,-34.668,0.000
1709212309.539,-40.527,-42.969,-43.457,-40.039,0.000
1709212309.543,-47.852,-43.945,-43.945,-43.945,0.000
1709212309.547,-44.922,-41.504,-41.016,-45.410,0.000
1709212309.551,-41.504,-40.527,-37.598,-38.086,0.000
1709212309.555,-44.922,-41.504,-39.551,-35.645,0.000
1709212309.559,-49.805,-41.016,-42.480,-36.621,0.000
1709212309.563,-46.875,-45.410,-39.551,-33.691,0.000
1709212309.567,-42.480,-48.340,-44.434,-28.320,0.000
1709212309.570,-37.109,-45.898,-37.598,-18.066,0.000
1709212309.574,-41.016,-45.410,-33.691,-27.344,0.000
1709212309.578,-49.316,-49.805,-38.574,-32.715,0.000
1709212309.582,-45.410,-47.363,-39.062,-20.020,0.000
1709212309.586,-43.945,-47.363,-44.922,-17.090,0.000
1709212309.590,-47.363,-49.316,-41.504,-23.926,0.000
1709212309.594,-51.270,-41.992,-38.574,-33.691,0.000
1709212309.598,-54.199,-40.527,-45.410,-38.574,0.000
1709212309.602,-50.781,-40.039,-45.410,-39.062,0.000
1709212309.605,-41.016,-35.645,-39.551,-36.621,0.000
1709212309.609,-37.109,-35.645,-40.039,-36.621,0.000
1709212309.613,-40.527,-34.668,-33.691,-30.762,0.000
1709212309.617,-38.574,-40.039,-30.273,-17.090,0.000
1709212309.621,-36.621,-52.246,-36.133,-21.973,0.000
1709212309.625,-34.668,-57.617,-35.156,-21.973,0.000
1709212309.629,-33.203,-52.246,-37.109,-18.066,0.000
1709212309.633,-46.387,-46.875,-45.410,-35.156,0.000
1709212309.637,-46.387,-42.480,-51.758,-47.852,0.000
1709212309.641,-26.367,-36.621,-44.922,-29.785,0.000
1709212309.645,-32.715,-41.992,-26.855,-19.531,0.000
1709212309.649,-54.199,-48.340,-26.855,-42.480,0.000
1709212309.653,-64.453,-49.805,-30.762,-63.477,0.000
1709212309.656,-74.707,-55.664,-23.438,-71.289,0.000
1709212309.660,-91.309,-71.289,-20.020,-74.219,0.000
1709212309.664,-108.398,-79.102,-19.043,-84.473,0.000
1709212309.668,-112.793,-79.590,-20.996,-98.633,0.000
1709212309.672,-116.211,-80.078,-17.578,-107.422,0.000
1709212309.676,-130.859,-91.309,-16.113,-117.676,0.000
1709212309.680,-130.859,-100.586,-15.137,-114.746,0.000
1709212309.684,-121.582,-91.309,-19.531,-110.840,0.000
1709212309.688,-114.258,-75.684,-20.508,-106.934,0.000
1709212309.691,-107.422,-71.777,-16.113,-98.145,0.000
1709212309.695,-108.887,-72.266,-21.484,-94.727,0.000
1709212309.699,-109.863,-67.871,-27.344,-88.867,0.000
1709212309.703,-102.539,-72.754,-21.973,-73.730,0.000
1709212309.707,-96.191,-67.871,-15.625,-77.148,0.000
1709212309.711,-87.891,-64.941,-19.043,-87.402,0.000
1709212309.715,-92.285,-78.613,-23.926,-85.449,0.000
1709212309.719,-93.750,-71.777,-21.973,-73.730,0.000
1709212309.723,-83.008,-62.500,-19.043,-55.664,0.000
1709212309.727,-77.148,-66.406,-26.855,-59.570,0.000
1709212309.731,-71.289,-62.988,-28.809,-58.594,0.000
1709212309.735,-63.477,-64.453,-23.926,-48.828,0.000
1709212309.738,-64.453,-68.848,-31.250,-54.199,0.000
1709212309.742,-60.547,-62.988,-29.785,-52.246,0.000
1709212309.746,-56.152,-67.871,-28.320,-49.805,0.000
1709212309.750,-52.246,-64.453,-34.180,-45.898,0.000
1709212309.754,-46.387,-55.664,-31.250,-44.922,0.000
1709212309.758,-48.340,-59.082,-20.508,-46.387,0.000
1709212309.762,-48.828,-61.523,-22.461,-40.039,0.000
1709212309.766,-44.434,-60.547,-35.645,-33.691,0.000
1709212309.770,-42.480,-53.711,-33.691,-33.203,0.000
1709212309.774,-36.133,-49.805,-25.391,-27.832,0.000
1709212309.778,-41.016,-57.129,-26.367,-31.738,0.000
1709212309.782,-46.387,-63.477,-29.297,-38.574,0.000
1709212309.786,-32.227,-56.152,-29.297,-32.227,0.000
1709212309.790,-33.691,-51.758,-35.156,-33.203,0.000
1709212309.793,-41.504,-49.316,-38.574,-40.039,0.000
1709212309.797,-37.598,-45.898,-37.598,-37.598,0.000
1709212309.801,-35.645,-42.480,-36.133,-38.574,0.000
1709212309.805,-30.762,-46.875,-34.668,-39.062,0.000
1709212309.809,-27.344,-51.758,-34.180,-23.438,0.000
1709212309.813,-29.785,-44.434,-28.809,-23.438,0.000
1709212309.817,-32.715,-43.457,-30.762,-33.203,0.000
1709212309.821,-37.598,-43.945,-37.598,-30.762,0.000
1709212309.825,-35.156,-35.156,-39.551,-25.391,0.000
1709212309.829,-27.832,-37.598,-47.363,-24.902,0.000
1709212309.832,-27.832,-48.340,-49.316,-37.598,0.000
1709212309.836,-35.645,-47.363,-44.922,-41.016,0.000
1709212309.840,-46.875,-42.969,-46.875,-38.574,0.000
1709212309.844,-51.758,-42.969,-45.410,-42.480,0.000
1709212309.848,-45.410,-46.875,-36.621,-31.738,0.000
1709212309.852,-44.434,-52.246,-36.133,-29.297,0.000
1709212309.856,-46.387,-46.875,-39.062,-29.297,0.000
1709212309.860,-54.688,-42.969,-41.992,-30.273,0.000
1709212309.864,-58.105,-42.480,-43.945,-35.156,0.000
1709212309.868,-52.734,-38.574,-41.504,-33.203,0.000
1709212309.872,-55.664,-38.086,-42.480,-22.949,0.000
1709212309.875,-62.012,-41.504,-40.039,-34.180,0.000
1709212309.879,-66.895,-48.340,-36.621,-42.480,0.000
1709212309.883,-66.895,-56.641,-36.621,-39.062,0.000
1709212309.887,-52.734,-51.270,-37.109,-37.598,0.000
1709212309.891,-44.434,-55.664,-37.598,-31.738,0.000
1709212309.895,-48.340,-58.594,-36.133,-33.691,0.000
1709212309.899,-62.988,-50.781,-31.738,-37.109,0.000
1709212309.903,-62.012,-55.176,-28.809,-27.832,0.000
1709212309.907,-49.316,-50.781,-32.227,-30.273,0.000
1709212309.911,-54.688,-44.922,-37.109,-37.109,0.000
1709212309.914,-53.711,-48.340,-33.203,-42.480,0.000
1709212309.918,-49.316,-42.480,-30.273,-38.574,0.000
1709212309.922,-44.434,-35.156,-37.598,-31.250,0.000
1709212309.926,-34.180,-39.551,-31.250,-37.598,0.000
1709212309.930,-31.738,-47.363,-27.832,-43.945,0.000
1709212309.934,-30.273,-45.898,-29.297,-41.992,0.000
1709212309.938,-27.832,-35.645,-24.414,-41.504,0.000
1709212309.942,-24.414,-32.227,-22.949,-36.621,0.000
1709212309.946,-27.344,-41.504,-24.902,-23.926,0.000
1709212309.950,-26.855,-40.527,-32.715,-30.762,0.000
1709212309.953,-26.367,-33.691,-38.086,-38.086,0.000
1709212309.957,-30.273,-36.133,-33.203,-27.832,0.000
1709212309.961,-30.273,-35.645,-32.227,-25.879,0.000
1709212309.965,-31.250,-32.227,-33.203,-27.344,0.000
1709212309.969,-32.227,-41.504,-35.156,-32.227,0.000
1709212309.973,-35.156,-47.363,-40.527,-37.598,0.000
1709212309.977,-47.363,-44.922,-39.062,-34.668,0.000
1709212309.981,-52.246,-48.828,-34.180,-31.738,0.000
1709212309.985,-40.039,-45.410,-38.574,-29.297,0.000
1709212309.989,-31.738,-37.598,-34.180,-20.508,0.000
1709212309.992,-32.227,-46.387,-25.391,-17.090,0.000
1709212309.996,-34.668,-43.457,-33.691,-26.367,0.000
1709212310.000,-36.621,-33.691,-32.715,-25.879,0.000
1709212310.004,-38.574,-42.480,-27.344,-24.414,0.000
1709212310.008,-41.016,-42.480,-29.297,-32.227,0.000
1709212310.012,-41.016,-40.527,-32.227,-41.016,0.000
1709212310.016,-39.551,-44.434,-32.715,-40.039,0.000
1709212310.020,-41.504,-49.805,-40.527,-47.852,0.000
1709212310.024,-42.480,-55.664,-44.922,-49.805,0.000
1709212310.028,-37.598,-46.387,-34.668,-36.133,0.000
1709212310.031,-38.574,-39.551,-29.297,-29.297,0.000
1709212310.035,-36.133,-36.621,-24.414,-18.555,0.000
1709212310.039,-29.297,-30.762,-27.344,-20.508,0.000
1709212310.043,-30.273,-32.715,-32.715,-27.344,0.000
1709212310.047,-29.297,-35.645,-32.715,-22.949,0.000
1709212310.051,-28.809,-40.039,-33.691,-23.926,0.000
1709212310.055,-30.273,-42.969,-32.715,-27.832,0.000
1709212310.059,-27.832,-41.992,-31.250,-30.762,0.000
1709212310.063,-33.691,-40.039,-32.715,-35.645,0.000
1709212310.067,-35.156,-36.133,-36.621,-32.715,0.000
1709212310.071,-30.762,-33.691,-37.109,-26.367,0.000
1709212310.074,-34.668,-37.598,-43.457,-35.645,0.000
1709212310.078,-33.691,-43.945,-42.969,-34.668,0.000
1709212310.082,-28.809,-37.109,-38.086,-27.832,0.000
1709212310.086,-31.250,-34.668,-34.668,-24.414,0.000
1709212310.090,-32.715,-41.016,-31.250,-21.973,0.000
1709212310.094,-34.668,-46.875,-35.645,-23.438,0.000
1709212310.098,-36.621,-42.480,-35.156,-23.926,0.000
1709212310.102,-34.180,-38.574,-30.273,-27.344,0.000
1709212310.106,-41.016,-48.828,-39.551,-33.691,0.000
1709212310.110,-40.527,-47.852,-41.504,-36.621,0.000
1709212310.114,-35.156,-43.945,-38.574,-38.086,0.000
1709212310.118,-36.133,-45.410,-42.480,-44.434,0.000
1709212310.121,-39.062,-41.504,-42.480,-39.062,0.000
1709212310.125,-28.809,-45.410,-36.621,-28.809,0.000
1709212310.129,-23.438,-56.152,-36.621,-25.879,0.000
1709212310.133,-26.855,-51.270,-50.293,-34.180,0.000
1709212310.137,-32.227,-38.086,-53.711,-37.598,0.000
1709212310.141,-33.203,-36.133,-41.992,-19.531,0.000
1709212310.145,-32.715,-40.039,-39.551,-27.832,0.000
1709212310.149,-37.109,-41.016,-47.852,-44.922,0.000
1709212310.153,-34.668,-39.551,-44.922,-44.434,0.000
1709212310.157,-32.227,-38.086,-38.086,-41.992,0.000
1709212310.161,-33.203,-43.945,-41.016,-44.434,0.000
1709212310.164,-28.809,-40.527,-45.898,-38.574,0.000
1709212310.168,-30.273,-31.250,-45.410,-34.180,0.000
1709212310.172,-28.809,-31.738,-40.527,-39.062,0.000
1709212310.176,-32.227,-28.809,-40.527,-37.109,0.000
1709212310.180,-38.086,-36.133,-43.945,-36.621,0.000
1709212310.184,-34.668,-47.363,-41.504,-37.109,0.000
1709212310.188,-33.691,-36.621,-39.062,-33.691,0.000
1709212310.192,-39.062,-33.203,-38.574,-43.945,0.000
1709212310.196,-41.016,-39.062,-40.527,-49.316,0.000
1709212310.200,-39.551,-42.969,-40.527,-44.434,0.000
1709212310.204,-44.434,-50.293,-37.109,-42.480,0.000
1709212310.207,-44.922,-47.852,-35.156,-40.527,0.000
1709212310.211,-43.457,-41.992,-35.645,-32.715,0.000
1709212310.215,-49.805,-45.410,-38.086,-33.691,0.000
1709212310.219,-54.199,-48.340,-47.363,-40.039,0.000
1709212310.223,-50.781,-48.828,-47.363,-38.086,0.000
1709212310.227,-38.086,-53.223,-43.945,-26.855,0.000
1709212310.231,-36.621,-63.965,-48.828,-13.184,0.000
1709212310.235,-49.316,-52.246,-48.828,-25.391,0.000
1709212310.239,-50.293,-38.086,-36.133,-37.598,0.000
1709212310.243,-44.922,-48.828,-34.180,-35.156,0.000
1709212310.246,-44.434,-52.734,-39.551,-35.156,0.000
1709212310.250,-40.039,-38.086,-31.250,-32.227,0.000
1709212310.254,-44.434,-42.480,-34.180,-41.992,0.000
1709212310.258,-51.758,-53.711,-36.133,-45.898,0.000
1709212310.262,-52.246,-55.176,-36.133,-39.551,0.000
1709212310.266,-46.387,-51.758,-40.527,-34.180,0.000
1709212310.270,-36.621,-44.434,-35.645,-37.109,0.000
1709212310.274,-38.574,-50.293,-34.668,-39.551,0.000
1709212310.278,-43.945,-64.453,-37.598,-26.367,0.000
1709212310.282,-40.039,-56.641,-39.551,-24.414,0.000
1709212310.286,-31.738,-41.016,-36.133,-27.832,0.000
1709212310.289,-29.785,-47.363,-32.227,-31.738,0.000
1709212310.293,-32.227,-58.105,-34.180,-35.156,0.000
1709212310.297,-41.992,-51.758,-38.574,-40.527,0.000
1709212310.301,-46.875,-42.969,-39.551,-38.574,0.000
1709212310.305,-46.387,-45.898,-38.086,-32.715,0.000
1709212310.309,-50.781,-49.316,-34.668,-36.133,0.000
1709212310.313,-53.711,-43.457,-38.574,-44.922,0.000
1709212310.317,-49.316,-39.551,-39.551,-42.480,0.000
1709212310.321,-44.922,-51.270,-41.992,-25.879,0.000
1709212310.325,-43.945,-52.246,-44.434,-24.902,0.000
1709212310.328,-38.574,-40.527,-38.086,-27.832,0.000
1709212310.332,-32.227,-37.109,-34.180,-28.809,0.000
1709212310.336,-28.809,-32.715,-32.227,-27.344,0.000
1709212310.340,-34.668,-41.016,-36.621,-30.273,0.000
1709212310.344,-39.062,-49.316,-32.227,-39.551,0.000
1709212310.348,-37.598,-38.574,-27.832,-39.551,0.000
1709212310.352,-38.574,-37.598,-29.785,-31.738,0.000
1709212310.356,-38.086,-42.969,-32.715,-30.762,0.000
1709212310.360,-42.480,-45.410,-37.109,-37.598,0.000
1709212310.364,-42.480,-41.992,-35.645,-32.715,0.000
1709212310.367,-37.598,-44.434,-37.598,-22.949,0.000
1709212310.371,-41.016,-45.410,-43.457,-38.574,0.000
1709212310.375,-41.992,-45.410,-41.016,-46.387,0.000
1709212310.379,-41.504,-49.316,-44.922,-45.410,0.000
1709212310.383,-40.039,-41.016,-44.922,-44.434,0.000
1709212310.387,-31.738,-38.086,-35.645,-32.227,0.000
1709212310.391,-27.344,-50.293,-38.086,-29.297,0.000
1709212310.395,-31.250,-49.805,-39.062,-32.715,0.000
1709212310.399,-39.551,-42.480,-41.504,-32.227,0.000
1709212310.402,-45.410,-39.062,-45.898,-31.738,0.000
1709212310.406,-40.039,-34.668,-39.551,-27.832,0.000
1709212310.410,-34.668,-41.016,-41.992,-21.973,0.000
1709212310.414,-34.180,-41.992,-44.922,-26.367,0.000
1709212310.418,-47.363,-39.062,-41.504,-36.621,0.000
1709212310.422,-53.223,-42.969,-41.992,-41.016,0.000
1709212310.426,-43.457,-44.434,-40.039,-37.598,0.000
1709212310.430,-34.668,-48.340,-36.133,-39.062,0.000
1709212310.434,-36.621,-47.852,-39.551,-42.969,0.000
1709212310.437,-35.156,-37.598,-40.039,-37.598,0.000
1709212310.441,-31.738,-28.809,-32.227,-25.879,0.000
1709212310.445,-31.738,-19.531,-21.484,-23.438,0.000
1709212310.449,-36.133,-33.203,-29.785,-32.227,0.000
1709212310.453,-36.621,-49.316,-40.527,-38.086,0.000
1709212310.457,-38.086,-39.062,-36.621,-34.180,0.000
1709212310.461,-47.363,-41.016,-38.574,-38.574,0.000
1709212310.465,-49.316,-47.363,-47.852,-46.387,0.000
1709212310.469,-41.504,-45.898,-45.410,-38.086,0.000
1709212310.473,-38.086,-41.504,-43.945,-33.691,0.000
1709212310.477,-40.039,-37.598,-40.527,-42.969,0.000
1709212310.481,-40.039,-40.527,-31.250,-43.457,0.000
1709212310.484,-34.180,-37.109,-32.227,-34.180,0.000
1709212310.488,-29.297,-40.039,-33.203,-26.855,0.000
1709212310.492,-27.344,-41.504,-31.250,-25.391,0.000
1709212310.496,-31.738,-42.480,-32.715,-25.391,0.000
1709212310.500,-40.039,-46.387,-40.527,-36.133,0.000
1709212310.504,-37.109,-40.039,-45.410,-39.062,0.000
1709212310.508,-32.227,-38.086,-40.527,-39.062,0.000
1709212310.512,-36.621,-45.898,-38.574,-46.875,0.000
1709212310.516,-43.457,-42.480,-36.133,-37.598,0.000
1709212310.520,-49.805,-41.016,-37.598,-41.504,0.000
1709212310.524,-49.805,-44.434,-42.969,-41.504,0.000
1709212310.527,-46.387,-36.133,-41.016,-37.598,0.000
1709212310.531,-48.828,-32.715,-38.086,-43.457,0.000
1709212310.535,-46.387,-37.598,-36.133,-37.598,0.000
1709212310.539,-42.969,-47.852,-37.598,-35.645,0.000
1709212310.543,-37.109,-50.781,-41.992,-30.762,0.000
1709212310.547,-29.297,-44.434,-42.969,-26.855,0.000
1709212310.551,-27.344,-40.039,-35.645,-21.484,0.000
1709212310.555,-30.273,-42.969,-42.969,-21.973,0.000
1709212310.559,-32.715,-56.641,-38.086,-23.438,0.000
1709212310.563,-38.574,-57.129,-36.133,-17.578,0.000
1709212310.567,-38.086,-44.434,-43.945,-25.391,0.000
1709212310.570,-39.062,-42.969,-40.039,-38.086,0.000
1709212310.574,-46.875,-51.270,-37.109,-41.504,0.000
1709212310.578,-48.340,-48.828,-30.273,-34.180,0.000
1709212310.582,-45.898,-46.387,-24.902,-26.855,0.000
1709212310.586,-39.551,-44.922,-23.438,-18.555,0.000
1709212310.590,-38.574,-44.434,-30.273,-25.879,0.000
1709212310.594,-38.086,-45.410,-29.785,-27.832,0.000
1709212310.598,-47.363,-52.246,-31.250,-31.250,0.000
1709212310.602,-45.898,-53.223,-37.598,-32.715,0.000
1709212310.606,-34.180,-55.664,-33.203,-11.230,0.000
1709212310.610,-34.668,-56.152,-30.762,-19.043,0.000
1709212310.613,-34.668,-40.527,-32.227,-33.203,0.000
1709212310.617,-34.668,-32.715,-34.668,-31.250,0.000
1709212310.621,-35.645,-33.203,-35.645,-32.715,0.000
1709212310.625,-30.762,-40.039,-36.133,-28.320,0.000
1709212310.629,-28.320,-45.898,-40.527,-29.785,0.000
1709212310.633,-34.180,-40.039,-43.457,-35.156,0.000
1709212310.637,-42.480,-36.133,-47.852,-41.504,0.000
1709212310.641,-48.828,-45.898,-50.781,-46.387,0.000
1709212310.645,-38.574,-41.016,-41.504,-43.945,0.000
1709212310.649,-29.297,-37.598,-30.273,-36.621,0.000
1709212310.652,-30.273,-45.410,-28.809,-29.297,0.000
1709212310.656,-30.273,-41.016,-35.156,-36.133,0.000
1709212310.660,-37.598,-34.180,-40.039,-41.992,0.000
1709212310.664,-40.039,-31.738,-43.457,-35.156,0.000
1709212310.668,-34.180,-36.621,-48.828,-31.738,0.000
1709212310.672,-33.203,-46.387,-41.992,-38.086,0.000
1709212310.676,-36.133,-39.551,-40.527,-44.434,0.000
1709212310.680,-45.898,-35.156,-47.363,-41.992,0.000
1709212310.684,-53.223,-45.898,-47.852,-36.621,0.000
1709212310.688,-47.363,-49.316,-40.527,-30.273,0.000
1709212310.691,-44.922,-43.457,-40.527,-32.227,0.000
1709212310.695,-44.434,-44.434,-42.969,-31.250,0.000
1709212310.699,-50.781,-41.504,-40.527,-34.668,0.000
1709212310.703,-54.199,-35.156,-38.086,-38.086,0.000
1709212310.707,-47.363,-29.785,-37.598,-33.691,0.000
1709212310.711,-43.457,-27.832,-38.574,-40.039,0.000
1709212310.715,-43.457,-30.273,-33.691,-48.828,0.000
1709212310.719,-45.410,-36.621,-33.203,-48.828,0.000
1709212310.723,-37.598,-46.387,-39.551,-42.480,0.000
1709212310.727,-22.949,-49.316,-33.691,-34.180,0.000
1709212310.730,-21.484,-41.992,-29.785,-31.250,0.000
1709212310.734,-25.391,-33.203,-35.156,-34.180,0.000
1709212310.738,-31.250,-39.551,-38.574,-38.086,0.000
1709212310.742,-35.645,-41.016,-32.715,-29.785,0.000
1709212310.746,-28.320,-36.621,-24.902,-27.344,0.000
1709212310.750,-28.320,-47.363,-27.832,-32.227,0.000
1709212310.754,-37.109,-53.223,-33.203,-38.574,0.000
1709212310.758,-42.480,-49.805,-37.598,-41.992,0.000
1709212310.762,-42.480,-44.922,-35.645,-40.039,0.000
1709212310.766,-37.109,-46.875,-36.133,-38.086,0.000
1709212310.769,-27.344,-50.293,-33.691,-36.621,0.000
1709212310.773,-28.320,-43.945,-30.762,-31.738,0.000
1709212310.777,-37.598,-36.133,-30.762,-35.645,0.000
1709212310.781,-39.062,-37.109,-33.691,-35.645,0.000
1709212310.785,-32.715,-50.293,-31.738,-18.066,0.000
1709212310.789,-34.180,-56.152,-28.320,-23.926,0.000
1709212310.793,-32.715,-49.805,-30.273,-33.691,0.000
1709212310.797,-35.645,-39.551,-35.156,-34.180,0.000
1709212310.801,-36.621,-39.551,-39.062,-35.156,0.000
1709212310.805,-31.250,-40.527,-40.527,-31.738,0.000
1709212310.808,-26.855,-40.039,-38.574,-24.414,0.000
1709212310.812,-22.461,-39.551,-34.180,-27.344,0.000
1709212310.816,-25.391,-38.086,-29.297,-32.715,0.000
1709212310.820,-34.668,-40.527,-32.715,-29.297,0.000
1709212310.824,-40.039,-47.852,-40.527,-33.203,0.000
1709212310.828,-38.086,-54.688,-45.898,-35.156,0.000
1709212310.832,-43.945,-52.734,-48.340,-40.527,0.000
1709212310.836,-46.875,-46.387,-46.387,-49.316,0.000
1709212310.840,-43.457,-53.711,-39.551,-43.457,0.000
1709212310.844,-39.062,-60.059,-38.086,-36.133,0.000
1709212310.847,-35.645,-51.270,-43.457,-32.715,0.000
1709212310.851,-41.504,-47.363,-41.504,-36.133,0.000
1709212310.855,-40.039,-44.922,-40.527,-32.715,0.000
1709212310.859,-32.227,-42.969,-39.062,-26.855,0.000
1709212310.863,-30.273,-44.434,-36.621,-25.879,0.000
1709212310.867,-22.461,-45.410,-44.434,-25.391,0.000
1709212310.871,-14.648,-36.621,-40.527,-29.297,0.000
1709212310.875,-15.625,-28.320,-37.598,-31.738,0.000
1709212310.879,-20.508,-25.879,-39.551,-36.133,0.000
1709212310.883,-24.902,-33.203,-39.551,-46.387,0.000
1709212310.887,-25.391,-46.875,-43.945,-46.875,0.000
1709212310.891,-23.438,-48.340,-40.039,-38.574,0.000
1709212310.894,-32.227,-45.898,-39.551,-51.270,0.000
1709212310.898,-43.945,-45.410,-40.527,-48.828,0.000
1709212310.902,-42.480,-44.434,-34.668,-34.668,0.000
1709212310.906,-40.527,-51.270,-38.086,-40.527,0.000
1709212310.910,-36.621,-42.969,-40.527,-44.922,0.000
1709212310.914,-29.297,-38.574,-39.062,-41.992,0.000
1709212310.918,-24.902,-48.828,-45.410,-37.598,0.000
1709212310.922,-25.391,-43.457,-46.387,-37.109,0.000
1709212310.926,-32.227,-39.062,-46.387,-39.551,0.000
1709212310.930,-27.832,-39.551,-38.574,-35.156,0.000
1709212310.934,-27.832,-40.527,-31.738,-32.227,0.000
1709212310.937,-37.598,-48.340,-32.227,-36.133,0.000
1709212310.941,-39.062,-42.480,-32.227,-44.434,0.000
1709212310.945,-35.156,-36.133,-34.180,-42.480,0.000
1709212310.949,-36.133,-45.410,-37.109,-35.156,0.000
1709212310.953,-45.410,-52.734,-44.922,-42.480,0.000
1709212310.957,-49.316,-39.551,-41.504,-44.434,0.000
1709212310.961,-47.363,-34.668,-39.551,-40.527,0.000
1709212310.965,-39.551,-40.527,-40.527,-33.203,0.000
1709212310.969,-33.691,-38.574,-29.785,-35.645,0.000
1709212310.973,-41.016,-44.434,-27.832,-45.898,0.000
1709212310.977,-43.457,-46.387,-28.320,-45.898,0.000
1709212310.980,-48.340,-53.223,-32.227,-40.039,0.000
1709212310.984,-44.434,-44.434,-34.180,-40.039,0.000
1709212310.988,-28.809,-28.809,-28.809,-36.621,0.000
1709212310.992,-29.785,-32.227,-27.832,-36.621,0.000
1709212310.996,-33.203,-34.668,-34.180,-39.062,0.000
1709212311.000,-30.273,-30.273,-36.621,-32.715,0.000
1709212311.004,-32.715,-35.645,-37.109,-30.762,0.000
1709212311.008,-34.668,-43.457,-40.039,-26.855,0.000
1709212311.012,-33.691,-42.969,-34.668,-23.438,0.000
1709212311.016,-37.109,-37.109,-33.691,-34.668,0.000
1709212311.019,-45.898,-28.320,-42.480,-47.852,0.000
1709212311.023,-42.969,-29.785,-43.945,-47.363,0.000
1709212311.027,-32.227,-29.297,-32.715,-31.250,0.000
1709212311.031,-31.738,-20.996,-31.738,-35.645,0.000
1709212311.035,-41.504,-26.367,-39.062,-48.828,0.000
1709212311.039,-49.805,-37.109,-35.645,-42.480,0.000
1709212311.043,-49.316,-42.480,-26.855,-33.203,0.000
1709212311.047,-49.316,-40.039,-20.996,-31.250,0.000
1709212311.051,-46.387,-35.156,-23.438,-29.785,0.000
1709212311.055,-52.246,-37.598,-22.949,-29.785,0.000
1709212311.058,-58.594,-36.621,-17.578,-30.762,0.000
1709212311.062,-62.988,-41.504,-21.973,-33.691,0.000
1709212311.066,-58.105,-38.574,-23.438,-28.320,0.000
1709212311.070,-48.340,-41.016,-27.344,-27.344,0.000
1709212311.074,-55.664,-51.758,-35.156,-41.504,0.000
1709212311.078,-60.059,-52.734,-32.715,-47.363,0.000
1709212311.082,-62.012,-47.363,-33.203,-41.504,0.000
1709212311.086,-54.688,-41.504,-33.203,-31.738,0.000
1709212311.090,-43.457,-36.133,-24.414,-26.367,0.000
1709212311.094,-46.875,-35.156,-24.414,-30.273,0.000
1709212311.097,-48.340,-41.504,-34.668,-36.133,0.000
1709212311.101,-38.574,-42.969,-34.180,-29.785,0.000
1709212311.105,-27.832,-34.668,-33.691,-24.902,0.000
1709212311.109,-25.391,-32.227,-36.133,-25.391,0.000
1709212311.113,-27.832,-39.551,-33.203,-24.414,0.000
1709212311.117,-32.715,-41.016,-36.621,-27.344,0.000
1709212311.121,-39.551,-37.598,-40.527,-36.621,0.000
1709212311.125,-39.551,-40.527,-38.574,-39.551,0.000
1709212311.129,-35.645,-38.574,-35.156,-33.203,0.000
1709212311.133,-36.621,-37.598,-34.180,-35.156,0.000
1709212311.136,0.000,-40.527,-36.133,-42.480,0.000
1709212311.140,0.000,-38.574,-41.016,-40.527,0.000
1709212311.144,0.000,-32.715,-46.875,-39.062,0.000
1709212311.148,0.000,-28.320,-43.945,-35.156,0.000
1709212311.152,0.000,-39.551,-38.574,-38.086,0.000
1709212311.156,0.000,-39.551,-40.527,-42.969,0.000
1709212311.160,0.000,-36.133,-41.016,-34.668,0.000
1709212311.164,0.000,-40.527,-39.551,-33.203,0.000
1709212311.168,0.000,-39.551,-35.156,-36.133,0.000
1709212311.172,0.000,-43.457,-34.180,-40.039,0.000
1709212311.175,0.000,-46.387,-34.668,-38.574,0.000
1709212311.179,0.000,-39.551,-32.715,-41.992,0.000
1709212311.183,-36.621,-32.715,-31.250,-47.363,0.000
1709212311.187,-33.203,-28.320,-36.621,-47.363,0.000
1709212311.191,-25.391,-27.832,-32.715,-44.922,0.000
1709212311.195,-22.461,-38.574,-29.785,-44.922,0.000
1709212311.199,-25.879,-41.016,-34.180,-42.969,0.000
1709212311.203,-29.297,-34.180,-34.668,-31.250,0.000
1709212311.207,-32.227,-37.109,-31.250,-28.320,0.000
1709212311.211,-36.133,-48.340,-34.668,-36.133,0.000
1709212311.214,-41.504,-51.758,-41.504,-45.410,0.000
1709212311.218,-44.922,-45.410,-38.086,-43.457,0.000
1709212311.222,-40.527,-44.434,-32.227,-35.156,0.000
1709212311.226,-39.062,-41.504,-39.062,-43.945,0.000
1709212311.230,-40.527,-32.715,-38.086,-45.898,0.000
1709212311.234,-43.457,-30.273,-26.855,-44.922,0.000
1709212311.238,-47.363,-39.551,-30.762,-44.434,0.000
1709212311.242,-44.434,-41.992,-35.645,-36.133,0.000
1709212311.246,-43.457,-39.062,-38.574,-37.598,0.000
1709212311.250,-42.480,-39.062,-36.621,-35.156,0.000
1709212311.254,-36.621,-35.156,-29.297,-31.738,0.000
1709212311.257,-41.992,-34.668,-27.832,-32.227,0.000
1709212311.261,-44.922,-38.574,-29.785,-25.879,0.000
1709212311.265,-35.645,-44.434,-32.715,-14.160,0.000
1709212311.269,-31.250,-45.898,-32.715,-24.414,0.000
1709212311.273,-39.062,-46.387,-27.344,-32.227,0.000
1709212311.277,-44.922,-45.410,-32.715,-29.297,0.000
1709212311.281,-48.340,-40.527,-36.621,-32.227,0.000
1709212311.285,-47.363,-44.434,-38.086,-33.691,0.000
1709212311.289,-47.363,-41.016,-37.109,-32.715,0.000
1709212311.293,-40.039,-35.156,-31.738,-32.715,0.000
1709212311.297,-39.551,-30.762,-32.715,-33.203,0.000
1709212311.300,-46.387,-33.691,-31.250,-36.621,0.000
1709212311.304,-41.992,-41.992,-29.297,-36.133,0.000
1709212311.308,-30.273,-39.551,-32.715,-25.879,0.000
1709212311.312,-38.574,-42.969,-40.527,-25.391,0.000
1709212311.316,-43.945,-39.551,-38.086,-35.645,0.000
1709212311.320,-37.109,-30.762,-35.156,-35.156,0.000
1709212311.324,-36.133,-33.691,-34.180,-30.273,0.000
1709212311.328,-29.297,-32.227,-32.715,-28.320,0.000
1709212311.332,-21.484,-31.250,-33.203,-25.391,0.000
1709212311.336,-24.414,-38.574,-35.156,-27.832,0.000
1709212311.340,-27.832,-36.621,-37.109,-33.203,0.000
1709212311.343,-25.879,-33.203,-37.109,-27.832,0.000
1709212311.347,-27.344,-31.738,-35.156,-19.531,0.000
1709212311.351,-21.484,-36.133,-35.645,-22.461,0.000
1709212311.355,-24.414,-44.922,-38.574,-21.484,0.000
1709212311.359,-37.598,-39.551,-40.527,-25.391,0.000
1709212311.363,-43.945,-38.086,-48.340,-34.668,0.000
1709212311.367,-43.457,-32.227,-47.852,-30.762,0.000
1709212311.371,-38.574,-32.227,-41.016,-32.227,0.000
1709212311.375,-37.109,-45.410,-44.434,-38.574,0.000
1709212311.379,-42.969,-46.875,-43.457,-38.574,0.000
1709212311.383,-44.434,-42.480,-40.527,-32.715,0.000
1709212311.386,-39.062,-49.316,-44.922,-33.203,0.000
1709212311.390,-42.480,-44.922,-37.598,-39.062,0.000
1709212311.394,-49.805,-40.527,-35.156,-48.828,0.000
1709212311.398,-53.711,-45.410,-36.133,-51.270,0.000
1709212311.402,-62.012,-52.246,-35.156,-41.992,0.000
1709212311.406,-63.477,-58.105,-35.645,-48.828,0.000
1709212311.410,-62.012,-54.199,-33.691,-57.617,0.000
1709212311.414,-65.918,-43.457,-41.992,-58.105,0.000
1709212311.418,-64.453,-39.551,-45.898,-61.035,0.000
1709212311.422,-54.688,-34.180,-39.062,-61.035,0.000
1709212311.425,-54.199,-42.480,-40.527,-57.617,0.000
1709212311.429,-57.129,-53.711,-45.410,-51.758,0.000
1709212311.433,-49.316,-51.758,-44.922,-54.199,0.000
1709212311.437,-51.270,-52.246,-40.527,-58.105,0.000
1709212311.441,-54.199,-57.617,-40.527,-53.711,0.000
1709212311.445,-43.457,-50.781,-45.410,-37.598,0.000
1709212311.449,-40.527,-41.504,-46.875,-41.504,0.000
1709212311.453,-36.621,-35.645,-41.504,-52.246,0.000
1709212311.457,-32.227,-37.598,-32.227,-47.852,0.000
1709212311.461,-34.668,-39.062,-35.156,-41.992,0.000
1709212311.464,-41.504,-34.180,-41.504,-40.527,0.000
1709212311.468,-41.504,-40.039,-32.715,-41.016,0.000
1709212311.472,-35.156,-43.457,-25.391,-39.062,0.000
1709212311.476,-41.016,-39.551,-23.926,-38.574,0.000
1709212311.480,-43.457,-40.039,-23.926,-32.227,0.000
1709212311.484,-41.504,-43.457,-25.879,-28.320,0.000
1709212311.488,-41.504,-44.434,-26.367,-30.273,0.000
1709212311.492,-38.086,-49.805,-33.691,-28.809,0.000
1709212311.496,-41.016,-45.898,-40.039,-40.039,0.000
1709212311.500,-41.504,-37.598,-38.574,-45.410,0.000
1709212311.504,-37.598,-41.016,-37.109,-41.504,0.000
1709212311.507,-44.922,-39.551,-40.527,-42.480,0.000
1709212311.511,-43.457,-36.133,-41.992,-47.852,0.000
1709212311.515,-39.062,-34.180,-39.062,-45.410,0.000
1709212311.519,-49.805,-43.457,-38.574,-42.480,0.000
1709212311.523,-57.129,-49.316,-45.898,-47.363,0.000
1709212311.527,-44.434,-44.434,-44.434,-41.992,0.000
1709212311.531,-34.668,-57.129,-41.016,-49.316,0.000
1709212311.535,-31.250,-66.406,-44.922,-49.316,0.000
1709212311.539,-25.879,-53.711,-45.410,-42.480,0.000
1709212311.542,-22.949,-41.504,-40.039,-33.691,0.000
1709212311.546,-20.996,-47.852,-36.133,-26.367,0.000
1709212311.550,-26.855,-48.340,-35.645,-30.762,0.000
1709212311.554,-33.203,-39.551,-38.086,-38.574,0.000
1709212311.558,-31.250,-40.527,-32.227,-34.668,0.000
1709212311.562,-25.391,-41.504,-26.855,-19.043,0.000
1709212311.566,-28.320,-45.898,-31.738,-25.879,0.000
1709212311.570,-30.762,-49.805,-35.156,-31.738,0.000
1709212311.574,-28.320,-49.316,-40.527,-32.227,0.000
1709212311.578,-27.344,-49.805,-43.945,-33.203,0.000
1709212311.581,-24.902,-44.922,-43.945,-21.973,0.000
1709212311.585,-20.508,-33.691,-46.387,-20.020,0.000
1709212311.589,-23.438,-33.203,-50.781,-25.391,0.000
1709212311.593,-28.809,-40.527,-50.781,-22.949,0.000
1709212311.597,-28.320,-37.598,-41.016,-20.508,0.000
1709212311.601,-31.250,-41.504,-44.922,-34.668,0.000
1709212311.605,-37.598,-50.781,-54.199,-48.828,0.000
1709212311.609,-37.109,-47.363,-45.410,-48.340,0.000
1709212311.613,-36.621,-44.434,-39.062,-48.340,0.000
1709212311.617,-41.504,-36.133,-41.016,-48.828,0.000
1709212311.621,-41.992,-34.668,-42.480,-40.039,0.000
1709212311.624,-37.598,-41.504,-40.527,-30.762,0.000
1709212311.628,-38.574,-34.668,-41.016,-38.574,0.000
1709212311.632,-39.551,-29.785,-42.480,-47.852,0.000
1709212311.636,-41.992,-35.645,-43.457,-41.504,0.000
1709212311.640,-49.316,-38.086,-48.340,-29.785,0.000
1709212311.644,-50.293,-26.855,-44.922,-32.227,0.000
1709212311.648,-42.969,-27.344,-38.086,-35.156,0.000
1709212311.652,-41.504,-43.457,-39.062,-43.945,0.000
1709212311.656,-47.852,-53.223,-45.410,-50.781,0.000
1709212311.660,-57.129,-50.781,-46.875,-48.828,0.000
1709212311.664,-47.852,-39.551,-43.945,-39.551,0.000
1709212311.667,-40.527,-37.109,-48.340,-32.715,0.000
1709212311.671,-38.086,-38.574,-47.363,-36.621,0.000
1709212311.675,-30.273,-30.762,-42.480,-39.551,0.000
1709212311.679,-34.180,-26.855,-45.410,-46.387,0.000
1709212311.683,-31.738,-38.086,-47.852,-37.598,0.000
1709212311.687,-24.902,-41.504,-45.898,-21.973,0.000
1709212311.691,-28.809,-38.086,-42.480,-27.344,0.000
1709212311.695,-30.762,-42.480,-41.016,-36.621,0.000
1709212311.699,-35.645,-54.199,-43.945,-40.039,0.000
1709212311.703,-41.992,-48.340,-44.922,-36.133,0.000
1709212311.707,-44.434,-38.086,-42.969,-40.039,0.000
1709212311.710,-41.016,-41.504,-32.715,-45.410,0.000
1709212311.714,-32.715,-43.457,-31.738,-41.992,0.000
1709212311.718,-39.551,-39.551,-37.109,-44.434,0.000
1709212311.722,-49.316,-36.621,-41.992,-53.223,0.000
1709212311.726,-42.480,-41.504,-38.086,-46.875,0.000
1709212311.730,-38.086,-41.016,-35.156,-34.668,0.000
1709212311.734,-46.875,-41.016,-41.992,-53.223,0.000
1709212311.738,-52.246,-48.340,-44.922,-62.988,0.000
1709212311.742,-48.340,-52.734,-38.086,-49.316,0.000
1709212311.746,-46.387,-55.664,-30.762,-46.875,0.000
1709212311.750,-39.551,-48.828,-37.109,-49.316,0.000
1709212311.754,-29.785,-36.133,-37.109,-43.945,0.000
1709212311.758,-35.645,-39.062,-30.762,-38.086,0.000
1709212311.762,-39.551,-48.340,-34.180,-36.621,0.000
1709212311.765,-26.367,-41.016,-30.273,-33.691,0.000
1709212311.769,-31.738,-35.156,-36.133,-41.504,0.000
1709212311.773,-42.480,-41.992,-45.410,-49.316,0.000
1709212311.777,-41.016,-43.457,-42.969,-43.945,0.000
1709212311.781,-44.922,-43.945,-37.109,-47.852,0.000
1709212311.785,-51.270,-41.016,-31.738,-47.852,0.000
1709212311.789,-50.293,-44.922,-33.691,-38.574,0.000
1709212311.793,-46.875,-56.152,-31.738,-35.156,0.000
1709212311.797,-42.480,-42.480,-34.180,-39.062,0.000
1709212311.801,-42.480,-27.832,-33.203,-36.133,0.000
1709212311.804,-41.992,-32.715,-30.762,-32.227,0.000
1709212311.808,-46.387,-32.715,-31.738,-38.086,0.000
1709212311.812,-41.992,-28.809,-37.109,-41.504,0.000
1709212311.816,-38.574,-39.062,-42.969,-41.992,0.000
1709212311.820,-36.621,-43.945,-37.598,-27.832,0.000
1709212311.824,-41.016,-41.504,-36.133,-32.227,0.000
1709212311.828,-47.852,-50.781,-38.086,-48.828,0.000
1709212311.832,-40.039,-47.852,-34.668,-42.969,0.000
1709212311.836,-37.598,-32.715,-38.574,-39.062,0.000
1709212311.840,-47.852,-34.180,-42.480,-45.410,0.000
1709212311.843,-41.016,-40.039,-37.109,-36.133,0.000
1709212311.847,-34.180,-37.598,-32.715,-25.879,0.000
1709212311.851,-40.039,-33.203,-28.809,-26.367,0.000
1709212311.855,-41.016,-40.527,-28.809,-32.715,0.000
1709212311.859,-39.551,-47.363,-34.668,-32.227,0.000
1709212311.863,-34.180,-41.992,-32.227,-18.555,0.000
1709212311.867,-34.668,-37.109,-33.203,-11.719,0.000
1709212311.871,-32.227,-35.156,-39.062,-25.879,0.000
1709212311.875,-30.273,-47.852,-36.621,-29.785,0.000
1709212311.879,-38.574,-55.664,-35.156,-24.414,0.000
1709212311.883,-43.945,-50.293,-39.551,-21.973,0.000
1709212311.886,-42.969,-42.969,-37.598,-18.066,0.000
1709212311.890,-37.598,-43.945,-34.668,-23.926,0.000
1709212311.894,-35.645,-47.363,-32.715,-36.621,0.000
1709212311.898,-42.969,-45.410,-37.109,-44.922,0.000
1709212311.902,-44.434,-41.016,-37.598,-37.598,0.000
1709212311.906,-39.551,-38.086,-35.645,-30.762,0.000
1709212311.910,-33.203,-41.504,-31.250,-22.949,0.000
1709212311.914,-29.297,-38.086,-31.738,-25.391,0.000
1709212311.918,-38.574,-38.574,-37.109,-42.480,0.000
1709212311.921,-41.992,-57.129,-34.668,-42.969,0.000
1709212311.925,-45.898,-58.105,-37.109,-41.504,0.000
1709212311.929,-48.828,-40.527,-49.316,-47.852,0.000
1709212311.933,-44.922,-39.062,-50.781,-48.340,0.000
1709212311.937,-42.480,-39.551,-45.410,-45.410,0.000
1709212311.941,-39.551,-36.133,-44.434,-44.434,0.000
1709212311.945,-30.762,-31.250,-41.992,-43.945,0.000
1709212311.949,-25.879,-32.227,-42.480,-41.504,0.000
1709212311.953,-28.809,-45.898,-44.922,-34.180,0.000
1709212311.957,-35.645,-50.781,-39.551,-27.832,0.000
1709212311.960,-45.410,-44.922,-37.109,-37.598,0.000
1709212311.964,-43.945,-46.875,-37.598,-40.527,0.000
1709212311.968,-36.621,-52.246,-42.969,-37.598,0.000
1709212311.972,-31.250,-41.016,-46.875,-38.574,0.000
1709212311.976,-28.320,-28.320,-40.039,-37.598,0.000
1709212311.980,-37.109,-30.273,-41.504,-39.062,0.000
1709212311.984,-43.457,-39.062,-48.340,-41.504,0.000
1709212311.988,-40.039,-48.340,-47.852,-41.992,0.000
1709212311.992,-39.551,-41.016,-42.480,-45.410,0.000
1709212311.996,-48.828,-35.156,-39.551,-49.316,0.000
1709212312.000,-62.988,-48.828,-41.016,-46.387,0.000
1709212312.003,-62.500,-45.898,-37.598,-38.086,0.000
1709212312.007,-59.082,-42.480,-39.551,-41.992,0.000
1709212312.011,-49.316,-44.922,-35.645,-41.504,0.000
1709212312.015,-44.922,-48.340,-29.297,-30.273,0.000
1709212312.019,-51.758,-53.223,-41.016,-38.086,0.000
1709212312.023,-50.293,-48.340,-49.316,-43.945,0.000
1709212312.027,-41.992,-36.133,-44.434,-34.180,0.000
1709212312.031,-37.598,-35.156,-46.387,-31.738,0.000
1709212312.035,-39.062,-42.480,-50.293,-40.527,0.000
1709212312.039,-42.969,-42.480,-49.316,-44.922,0.000
1709212312.043,-45.898,-34.668,-49.316,-41.016,0.000
1709212312.047,-43.457,-33.203,-41.504,-38.086,0.000
1709212312.050,-45.898,-43.457,-37.598,-41.016,0.000
1709212312.054,-39.062,-51.270,-36.133,-39.551,0.000
1709212312.058,-26.855,-53.711,-32.227,-31.250,0.000
1709212312.062,-31.250,-48.340,-32.715,-17.578,0.000
1709212312.066,-27.344,-34.180,-35.156,-14.648,0.000
1709212312.070,-20.020,-28.809,-39.062,-20.020,0.000
1709212312.074,-26.855,-38.086,-38.574,-31.250,0.000
1709212312.078,-35.645,-45.410,-38.574,-37.598,0.000
1709212312.082,-38.086,-46.875,-40.527,-35.645,0.000
1709212312.086,-25.391,-32.227,-36.621,-27.344,0.000
1709212312.089,-25.391,-29.785,-33.203,-31.738,0.000
1709212312.093,-32.227,-37.109,-34.180,-38.574,0.000
1709212312.097,-33.691,-39.551,-37.109,-39.551,0.000
1709212312.101,-38.574,-37.598,-36.133,-38.086,0.000
1709212312.105,-40.039,-34.668,-34.668,-29.297,0.000
1709212312.109,-39.062,-40.527,-32.227,-33.691,0.000
1709212312.113,-42.480,-52.246,-34.180,-39.551,0.000
1709212312.117,-38.574,-49.805,-34.180,-29.785,0.000
1709212312.121,-37.598,-41.504,-32.715,-23.438,0.000
1709212312.125,-41.504,-44.922,-42.480,-30.762,0.000
1709212312.129,-28.320,-35.156,-42.480,-23.926,0.000
1709212312.132,-23.438,-35.645,-35.645,-24.902,0.000
1709212312.136,-33.691,-55.664,-42.480,-34.180,0.000
1709212312.140,-37.598,-49.316,-42.969,-26.855,0.000
1709212312.144,-42.480,-43.457,-37.598,-31.250,0.000
1709212312.148,-35.645,-41.992,-32.715,-29.785,0.000
1709212312.152,-26.855,-41.016,-37.109,-23.438,0.000
1709212312.156,-35.645,-42.969,-40.527,-33.203,0.000
1709212312.160,-38.574,-40.527,-33.203,-37.109,0.000
1709212312.164,-37.109,-42.969,-29.785,-31.738,0.000
1709212312.168,-36.133,-49.316,-32.715,-31.738,0.000
1709212312.172,-33.203,-42.480,-39.551,-31.738,0.000
1709212312.176,-39.551,-38.086,-37.598,-31.738,0.000
1709212312.180,-41.992,-46.387,-35.156,-30.273,0.000
1709212312.183,-39.062,-37.598,-36.133,-27.832,0.000
1709212312.187,-37.598,-21.484,-41.504,-35.156,0.000
1709212312.191,-41.016,-28.809,-42.480,-47.852,0.000
1709212312.195,-40.527,-43.457,-29.785,-41.992,0.000
1709212312.199,-43.945,-42.480,-30.273,-41.016,0.000
1709212312.203,-52.246,-42.969,-37.109,-58.594,0.000
1709212312.207,-45.410,-45.898,-34.180,-59.082,0.000
1709212312.211,-41.016,-48.340,-34.180,-55.176,0.000
1709212312.215,-40.527,-44.434,-37.598,-49.316,0.000
1709212312.219,-41.016,-39.551,-35.645,-41.504,0.000
1709212312.222,-41.504,-38.086,-33.203,-43.457,0.000
1709212312.226,-32.227,-33.691,-40.527,-39.551,0.000
1709212312.230,-27.344,-29.785,-42.480,-30.273,0.000
1709212312.234,-29.785,-39.551,-35.156,-29.785,0.000
1709212312.238,-40.527,-49.316,-37.598,-35.156,0.000
1709212312.242,-44.434,-46.387,-43.945,-34.668,0.000
1709212312.246,-38.574,-43.457,-44.434,-27.344,0.000
1709212312.250,-37.598,-37.109,-40.527,-27.344,0.000
1709212312.254,-35.156,-34.668,-33.203,-19.531,0.000
1709212312.258,-41.016,-36.133,-33.691,-21.484,0.000
1709212312.261,-43.457,-36.133,-38.574,-37.598,0.000
1709212312.265,-33.203,-44.434,-38.574,-25.879,0.000
1709212312.269,-31.250,-45.410,-35.645,-18.555,0.000
1709212312.273,-42.969,-45.898,-36.621,-26.855,0.000
1709212312.277,-46.875,-54.199,-42.480,-29.785,0.000
1709212312.281,-41.504,-57.129,-42.480,-34.180,0.000
1709212312.285,-31.250,-48.340,-34.180,-24.414,0.000
1709212312.289,-29.785,-38.574,-28.320,-25.391,0.000
1709212312.293,-40.527,-45.410,-34.180,-41.992,0.000
1709212312.297,-47.852,-49.805,-44.922,-42.480,0.000
1709212312.300,-47.363,-51.270,-36.133,-41.992,0.000
1709212312.304,-48.340,-50.781,-29.297,-41.992,0.000
1709212321.682,-42.969,-38.086,-40.527,-47.363,0.000
1709212321.685,-46.387,-49.805,-43.945,-46.875,0.000
1709212321.689,-45.898,-41.016,-38.574,-44.922,0.000
1709212321.693,-45.410,-39.062,-32.227,-46.875,0.000
1709212321.697,-46.387,-43.945,-38.574,-55.664,0.000
1709212321.701,-40.527,-44.434,-38.574,-55.176,0.000
1709212321.705,-46.387,-48.828,-41.016,-40.039,0.000
1709212321.709,-50.781,-44.434,-46.387,-45.898,0.000
1709212321.713,-39.551,-42.969,-38.086,-53.711,0.000
1709212321.717,-33.203,-41.016,-33.203,-53.223,0.000
1709212321.721,-38.086,-39.551,-40.527,-54.688,0.000
1709212321.724,-44.434,-40.527,-42.480,-59.570,0.000
1709212321.729,-49.316,-43.945,-41.992,-59.082,0.000
1709212321.732,-39.551,-50.781,-39.062,-49.805,0.000
1709212321.736,-30.273,-44.922,-38.086,-50.781,0.000
1709212321.740,-26.855,-34.180,-40.039,-51.270,0.000
1709212321.744,-28.320,-34.180,-40.039,-53.223,0.000
1709212321.748,-40.039,-45.898,-46.387,-53.223,0.000
1709212321.752,-38.574,-45.410,-42.969,-44.434,0.000
1709212321.756,-26.855,-41.504,-37.109,-40.039,0.000
1709212321.760,-19.043,-37.109,-35.156,-42.969,0.000
1709212321.764,-32.227,-42.480,-40.527,-44.434,0.000
1709212321.768,-47.363,-48.340,-44.434,-41.016,0.000
1709212321.771,-39.062,-47.363,-40.039,-39.551,0.000
1709212321.775,-29.785,-49.805,-37.598,-38.574,0.000
1709212321.779,-24.902,-42.480,-33.691,-30.762,0.000
1709212321.783,-25.879,-38.086,-35.645,-27.344,0.000
1709212321.787,-33.691,-38.574,-39.551,-33.203,0.000
1709212321.791,-32.227,-36.133,-32.227,-29.785,0.000
1709212321.795,-20.996,-25.879,-26.367,-20.508,0.000
1709212321.799,-18.066,-25.879,-32.715,-18.555,0.000
1709212321.803,-20.996,-34.180,-38.574,-24.902,0.000
1709212321.807,-25.879,-40.527,-41.992,-23.926,0.000
1709212321.811,-29.297,-38.574,-39.062,-7.324,0.000
1709212321.815,-28.809,-32.227,-33.691,-13.184,0.000
1709212321.818,-27.832,-35.645,-35.645,-27.832,0.000
1709212321.822,-34.668,-42.969,-35.645,-25.879,0.000
1709212321.826,-45.898,-45.898,-39.551,-28.809,0.000
1709212321.830,-53.711,-45.410,-38.574,-44.922,0.000
1709212321.834,-53.223,-44.922,-33.691,-44.434,0.000
1709212321.838,-45.898,-49.316,-35.645,-33.691,0.000
1709212321.842,-42.480,-44.434,-36.621,-34.180,0.000
1709212321.846,-46.387,-32.715,-34.180,-43.457,0.000
1709212321.850,-44.922,-33.691,-30.273,-44.434,0.000
1709212321.854,-42.480,-48.340,-35.156,-35.156,0.000
1709212321.858,-45.410,-48.340,-37.109,-33.691,0.000
1709212321.861,-38.086,-31.250,-27.344,-41.016,0.000
1709212321.865,-41.016,-28.320,-36.133,-46.387,0.000
1709212321.869,-52.246,-39.062,-47.363,-51.270,0.000
1709212321.873,-47.363,-46.387,-39.062,-47.363,0.000
1709212321.877,-41.504,-43.945,-28.320,-45.410,0.000
1709212321.881,-37.598,-42.969,-23.926,-43.457,0.000
1709212321.885,-42.969,-52.246,-27.832,-42.969,0.000
1709212321.889,-45.410,-45.898,-31.250,-40.527,0.000
1709212321.893,-34.180,-41.504,-33.691,-39.062,0.000
1709212321.897,-20.020,-54.199,-35.156,-27.344,0.000
1709212321.901,-23.926,-55.176,-36.133,-11.230,0.000
1709212321.904,-32.227,-35.645,-38.574,-21.973,0.000
1709212321.908,-32.715,-31.738,-40.527,-32.227,0.000
1709212321.912,-26.855,-37.109,-40.039,-24.414,0.000
1709212321.916,-23.926,-35.645,-35.645,-28.809,0.000
1709212321.920,-19.043,-32.227,-30.762,-29.785,0.000
1709212321.924,-22.949,-30.273,-31.738,-27.344,0.000
1709212321.928,-28.320,-37.109,-33.691,-23.438,0.000
1709212321.932,-31.738,-50.781,-33.691,-30.273,0.000
1709212321.936,-32.227,-55.176,-36.621,-35.156,0.000
1709212321.940,-29.297,-46.387,-35.156,-31.738,0.000
1709212321.944,-30.273,-44.922,-34.668,-30.273,0.000
1709212321.947,-31.738,-47.363,-31.250,-16.602,0.000
1709212321.951,-33.691,-42.480,-32.227,-17.090,0.000
1709212321.955,-38.574,-39.062,-38.086,-30.762,0.000
1709212321.959,-43.945,-40.527,-35.645,-40.527,0.000
1709212321.963,-50.781,-45.898,-35.645,-44.434,0.000
1709212321.967,-51.270,-41.992,-34.180,-39.062,0.000
1709212321.971,-54.199,-41.504,-30.762,-44.922,0.000
1709212321.975,-50.781,-44.922,-39.551,-51.270,0.000
1709212321.979,-43.457,-42.969,-43.945,-52.246,0.000
1709212321.983,-50.781,-45.898,-41.016,-58.594,0.000
1709212321.986,-54.199,-49.316,-39.062,-52.246,0.000
1709212321.990,-47.852,-44.434,-33.203,-31.250,0.000
1709212321.994,-49.316,-46.387,-40.527,-36.133,0.000
1709212321.998,-46.387,-41.016,-47.852,-47.852,0.000
1709212322.002,-46.875,-40.039,-39.551,-48.340,0.000
1709212322.006,-52.246,-46.387,-42.480,-51.758,0.000
1709212322.010,0.000,-41.992,-40.039,-56.152,0.000
1709212322.014,0.000,-37.109,-33.203,-49.805,0.000
1709212322.018,0.000,-35.645,-37.598,-39.551,0.000
1709212322.022,0.000,-35.156,-41.992,-38.574,0.000
1709212322.025,0.000,-42.480,-45.898,-49.316,0.000
1709212322.029,0.000,-44.434,-41.992,-46.387,0.000
1709212322.033,0.000,-37.598,-37.598,-30.273,0.000
1709212322.037,0.000,-35.645,-41.504,-32.715,0.000
1709212322.041,0.000,-41.992,-43.457,-42.969,0.000
1709212322.045,0.000,-43.945,-38.086,-43.457,0.000
1709212322.049,0.000,-39.062,-34.668,-42.480,0.000
1709212322.053,0.000,-42.480,-41.016,-43.945,0.000
1709212322.057,-44.922,-39.062,-41.504,-52.246,0.000
1709212322.060,-40.527,-33.691,-36.133,-46.387,0.000
1709212322.064,-46.387,-37.109,-35.156,-41.016,0.000
1709212322.068,-62.012,-41.992,-43.945,-51.758,0.000
1709212322.072,-63.965,-45.898,-51.270,-52.734,0.000
1709212322.076,-64.941,-47.363,-53.223,-50.781,0.000
1709212322.080,-57.617,-54.199,-48.340,-37.598,0.000
1709212322.084,-57.617,-53.711,-49.316,-43.457,0.000
1709212322.088,-61.523,-51.270,-47.363,-52.734,0.000
1709212322.092,-55.176,-53.223,-47.852,-50.293,0.000
1709212322.096,-53.711,-47.852,-48.340,-47.852,0.000
1709212322.100,-47.363,-44.922,-37.598,-43.457,0.000
1709212322.103,-49.316,-50.781,-44.434,-51.758,0.000
1709212322.107,-46.875,-49.805,-50.781,-47.852,0.000
1709212322.111,-41.504,-45.410,-46.387,-41.504,0.000
1709212322.115,-41.504,-51.758,-40.527,-41.992,0.000
1709212322.119,-37.109,-48.340,-39.062,-33.691,0.000
1709212322.123,-35.156,-45.898,-38.086,-34.180,0.000
1709212322.127,-34.180,-47.363,-36.621,-38.086,0.000
1709212322.131,-38.086,-35.645,-37.109,-37.109,0.000
1709212322.135,-37.109,-33.691,-35.645,-40.527,0.000
1709212322.138,-39.062,-40.527,-35.156,-42.969,0.000
1709212322.142,-46.387,-39.551,-38.086,-50.293,0.000
1709212322.146,-48.828,-34.180,-34.668,-53.711,0.000
1709212322.150,-51.758,-36.621,-36.621,-50.293,0.000
1709212322.154,-59.570,-41.504,-47.363,-53.711,0.000
1709212322.158,-51.758,-38.086,-45.410,-46.875,0.000
1709212322.162,-44.434,-34.668,-42.480,-46.875,0.000
1709212322.166,-50.293,-31.738,-38.086,-57.617,0.000
1709212322.170,-53.223,-34.668,-36.133,-52.734,0.000
1709212322.174,-51.270,-40.527,-44.922,-47.852,0.000
1709212322.178,-41.992,-45.898,-45.410,-44.434,0.000
1709212322.182,-30.762,-38.086,-39.551,-33.691,0.000
1709212322.186,-39.062,-34.180,-37.109,-23.926,0.000
1709212322.189,-47.852,-43.945,-38.086,-31.250,0.000
1709212322.193,-38.086,-37.598,-38.574,-34.668,0.000
1709212322.197,-29.785,-37.109,-39.551,-29.785,0.000
1709212322.201,-29.297,-40.527,-37.109,-28.320,0.000
1709212322.205,-39.551,-42.969,-40.527,-33.203,0.000
1709212322.209,-38.086,-47.363,-36.621,-29.785,0.000
1709212322.213,-36.133,-41.504,-31.250,-19.531,0.000
1709212322.217,-31.738,-42.480,-33.691,-19.043,0.000
1709212322.221,-28.809,-41.992,-40.039,-20.996,0.000
1709212322.225,-21.973,-31.738,-41.504,-19.043,0.000
1709212322.229,-19.043,-37.109,-29.297,-5.371,0.000
1709212322.233,-27.832,-32.715,-20.020,0.977,0.000
1709212322.236,-29.297,-28.809,-28.809,-21.973,0.000
1709212322.240,-32.227,-40.039,-35.156,-35.645,0.000
1709212322.244,-39.551,-43.945,-33.203,-36.621,0.000
1709212322.248,-43.945,-42.969,-35.645,-37.598,0.000
1709212322.252,-35.645,-41.016,-33.203,-26.855,0.000
1709212322.256,-21.484,-44.922,-25.879,-10.742,0.000
1709212322.260,-16.602,-38.086,-23.926,-12.207,0.000
1709212322.264,-19.531,-34.668,-25.879,-22.461,0.000
1709212322.268,-30.762,-43.457,-38.086,-28.320,0.000
1709212322.272,-33.203,-38.086,-38.574,-23.926,0.000
1709212322.276,-20.508,-30.273,-32.227,-7.812,0.000
1709212322.279,-24.414,-33.691,-41.016,-22.461,0.000
1709212322.283,-31.738,-37.109,-43.457,-37.109,0.000
1709212322.287,-34.668,-36.621,-36.621,-25.879,0.000
1709212322.291,-37.598,-39.062,-29.297,-23.926,0.000
1709212322.295,-32.715,-40.039,-31.250,-25.879,0.000
1709212322.299,-29.297,-45.898,-36.621,-23.438,0.000
1709212322.303,-34.668,-50.293,-38.086,-31.250,0.000
1709212322.307,-43.457,-41.992,-41.504,-46.875,0.000
1709212322.311,-39.062,-40.039,-44.434,-44.922,0.000
1709212322.315,-36.133,-45.410,-44.922,-43.945,0.000
1709212322.318,-39.551,-42.969,-45.898,-46.875,0.000
1709212322.322,-31.250,-32.227,-43.457,-43.945,0.000
1709212322.326,-26.367,-20.508,-37.109,-48.828,0.000
1709212322.330,-36.621,-34.668,-37.109,-51.270,0.000
1709212322.334,-34.668,-39.551,-37.598,-38.574,0.000
1709212322.338,-34.668,-37.109,-40.527,-41.504,0.000
1709212322.342,-42.969,-41.992,-41.992,-47.852,0.000
1709212322.346,-45.898,-46.875,-38.086,-45.410,0.000
1709212322.350,-47.852,-45.410,-30.273,-39.551,0.000
1709212322.354,-46.875,-41.504,-29.785,-34.668,0.000
1709212322.358,-37.598,-41.016,-31.250,-31.250,0.000
1709212322.361,-37.598,-42.969,-28.320,-33.203,0.000
1709212322.365,-44.434,-54.688,-35.156,-24.902,0.000
1709212322.369,-42.480,-41.016,-44.922,-31.250,0.000
1709212322.373,-44.434,-30.273,-42.969,-48.340,0.000
1709212322.377,-46.387,-40.527,-38.086,-46.387,0.000
1709212322.381,-38.086,-40.039,-37.109,-43.945,0.000
1709212322.385,-46.387,-39.062,-43.945,-50.293,0.000
1709212322.389,-53.223,-43.945,-44.434,-47.363,0.000
1709212322.393,-48.828,-42.480,-37.109,-37.598,0.000
1709212322.396,-47.852,-43.945,-37.598,-35.156,0.000
1709212322.400,-41.992,-44.922,-39.062,-36.133,0.000
1709212322.404,-37.598,-36.133,-34.180,-35.645,0.000
1709212322.408,-46.875,-44.434,-37.109,-34.668,0.000
1709212322.412,-54.199,-44.434,-40.527,-29.785,0.000
1709212322.416,-53.711,-40.039,-43.945,-38.086,0.000
1709212322.420,-44.434,-39.551,-51.270,-44.922,0.000
1709212322.424,-47.363,-36.133,-48.828,-47.852,0.000
1709212322.428,-52.246,-34.180,-38.574,-39.551,0.000
1709212322.432,-51.758,-35.156,-34.180,-35.156,0.000
1709212322.435,-53.711,-46.875,-42.480,-43.945,0.000
1709212322.439,-53.711,-50.293,-46.875,-53.223,0.000
1709212322.443,-48.340,-38.574,-39.062,-51.758,0.000
1709212322.447,-40.039,-40.527,-39.551,-46.387,0.000
1709212322.451,-41.016,-54.688,-39.551,-44.434,0.000
1709212322.455,-36.133,-49.805,-33.691,-25.391,0.000
1709212322.459,-24.902,-36.133,-38.086,-23.926,0.000
1709212322.463,-24.902,-32.715,-40.039,-35.645,0.000
1709212322.467,-27.832,-34.180,-35.156,-33.691,0.000
1709212322.471,-24.902,-32.715,-37.109,-32.715,0.000
1709212322.474,-22.949,-33.203,-42.480,-32.715,0.000
1709212322.478,-19.043,-35.645,-37.598,-30.273,0.000
1709212322.482,-17.090,-43.457,-31.738,-29.297,0.000
1709212322.486,-27.344,-48.340,-37.598,-35.645,0.000
1709212322.490,-29.785,-42.480,-36.621,-31.250,0.000
1709212322.494,-22.949,-42.480,-29.297,-22.949,0.000
1709212322.498,-22.461,-49.805,-28.320,-24.902,0.000
1709212322.502,-23.438,-48.340,-28.320,-26.855,0.000
1709212322.506,-35.645,-43.457,-40.039,-35.645,0.000
1709212322.509,-38.086,-42.480,-40.527,-43.945,0.000
1709212322.513,-33.203,-44.922,-32.227,-38.574,0.000
1709212322.517,-30.273,-32.715,-32.715,-35.156,0.000
1709212322.521,-41.016,-34.180,-40.039,-41.504,0.000
1709212322.525,-44.434,-48.340,-38.086,-45.410,0.000
1709212322.529,-42.969,-41.504,-28.320,-41.992,0.000
1709212322.533,-41.016,-35.156,-31.738,-36.133,0.000
1709212322.537,-32.227,-40.039,-33.203,-31.738,0.000
1709212322.541,-34.180,-45.410,-34.180,-34.668,0.000
1709212322.545,-34.180,-50.781,-40.039,-36.621,0.000
1709212322.549,-34.180,-45.410,-39.551,-40.527,0.000
1709212322.553,-35.645,-43.945,-37.598,-41.504,0.000
1709212322.556,-28.809,-42.969,-31.738,-33.203,0.000
1709212322.560,-20.996,-44.922,-27.344,-20.020,0.000
1709212322.564,-32.715,-43.945,-36.621,-29.297,0.000
1709212322.568,-37.598,-39.551,-36.621,-36.621,0.000
1709212322.572,-33.203,-47.852,-31.738,-30.273,0.000
1709212322.576,-28.809,-47.852,-32.227,-30.273,0.000
1709212322.580,-25.391,-42.480,-24.414,-29.785,0.000
1709212322.584,-29.297,-40.039,-24.902,-34.180,0.000
1709212322.588,-30.273,-38.086,-33.691,-34.668,0.000
1709212322.592,-25.879,-42.480,-32.227,-25.879,0.000
1709212322.596,-23.926,-47.363,-34.668,-26.855,0.000
1709212322.600,-22.461,-50.293,-35.645,-28.320,0.000
1709212322.603,-25.879,-57.617,-34.180,-24.414,0.000
1709212322.607,-26.855,-56.152,-34.180,-20.996,0.000
1709212322.611,-30.762,-51.758,-39.551,-29.785,0.000
1709212322.615,-33.203,-49.316,-44.434,-34.180,0.000
1709212322.619,-34.668,-42.969,-43.457,-41.016,0.000
1709212322.623,-40.527,-41.504,-41.992,-53.223,0.000
1709212322.627,-42.480,-44.434,-41.992,-49.805,0.000
1709212322.631,-45.410,-45.898,-47.852,-44.922,0.000
1709212322.635,-45.410,-42.969,-42.480,-42.480,0.000
1709212322.639,-34.668,-40.039,-36.133,-33.203,0.000
1709212322.643,-29.785,-44.434,-38.574,-34.180,0.000
1709212322.646,-34.180,-54.688,-38.574,-35.645,0.000
1709212322.650,-35.645,-53.223,-37.598,-21.973,0.000
1709212322.654,-43.945,-40.039,-44.434,-28.320,0.000
1709212322.658,-42.480,-31.250,-40.527,-34.180,0.000
1709212322.662,-42.480,-35.156,-38.574,-31.250,0.000
1709212322.666,-54.688,-40.039,-45.410,-39.062,0.000
1709212322.670,-52.734,-34.668,-39.062,-40.039,0.000
1709212322.674,-44.922,-36.133,-37.109,-40.527,0.000
1709212322.678,-42.969,-37.109,-40.039,-41.016,0.000
1709212322.682,-45.410,-37.598,-42.480,-41.504,0.000
1709212322.685,-53.223,-46.387,-43.457,-41.504,0.000
1709212322.689,-55.176,-49.316,-40.039,-43.945,0.000
1709212322.693,-48.828,-45.410,-39.551,-38.574,0.000
1709212322.697,-45.410,-39.551,-37.598,-32.715,0.000
1709212322.701,-47.363,-38.086,-38.086,-45.898,0.000
1709212322.705,-53.223,-40.527,-41.504,-42.480,0.000
1709212322.709,-58.594,-37.109,-40.039,-36.133,0.000
1709212322.713,-62.988,-41.016,-45.410,-39.551,0.000
1709212322.717,-59.082,-43.457,-43.457,-41.016,0.000
1709212322.721,-47.363,-39.062,-36.133,-36.621,0.000
1709212322.724,-43.945,-43.457,-35.156,-35.156,0.000
1709212322.728,-47.852,-46.387,-42.480,-36.621,0.000
1709212322.732,-45.898,-44.922,-44.922,-42.480,0.000
1709212322.736,-36.621,-45.410,-41.504,-41.992,0.000
1709212322.740,-25.879,-48.340,-34.668,-23.438,0.000
1709212322.744,-29.297,-43.457,-36.621,-31.738,0.000
1709212322.748,-38.574,-36.133,-42.480,-45.898,0.000
1709212322.752,-36.621,-33.203,-41.016,-41.504,0.000
1709212322.756,-40.039,-34.668,-46.387,-42.480,0.000
1709212322.760,-37.109,-34.180,-42.969,-37.598,0.000
1709212322.763,-32.227,-31.738,-33.691,-30.762,0.000
1709212322.767,-44.434,-37.598,-41.504,-38.574,0.000
1709212322.771,-48.828,-39.062,-44.434,-41.992,0.000
1709212322.775,-39.062,-34.668,-36.621,-37.109,0.000
1709212322.779,-36.133,-37.598,-34.668,-40.527,0.000
1709212322.783,-33.691,-40.039,-34.668,-39.551,0.000
1709212322.787,-29.785,-43.457,-31.738,-36.621,0.000
1709212322.791,-35.156,-42.480,-39.551,-42.480,0.000
1709212322.795,-38.086,-33.203,-37.109,-36.133,0.000
1709212322.799,-37.109,-41.504,-35.645,-39.062,0.000
1709212322.803,-41.504,-46.387,-40.527,-47.363,0.000
1709212322.806,-51.270,-43.457,-39.551,-52.246,0.000
1709212322.810,-51.270,-40.527,-43.457,-50.781,0.000
1709212322.814,-47.852,-40.527,-43.457,-43.945,0.000
1709212322.818,-51.270,-50.293,-39.551,-43.945,0.000
1709212322.822,-52.246,-45.410,-42.480,-43.457,0.000
1709212322.826,-47.852,-40.527,-41.016,-40.039,0.000
1709212322.830,-45.898,-56.152,-37.598,-28.320,0.000
1709212322.834,-45.898,-63.477,-39.062,-27.344,0.000
1709212322.838,-38.086,-51.270,-38.574,-33.203,0.000
1709212322.842,-34.668,-41.504,-30.273,-32.227,0.000
1709212322.845,-36.621,-36.621,-29.785,-28.320,0.000
1709212322.849,-39.062,-44.434,-36.621,-32.715,0.000
1709212322.853,-35.156,-50.293,-35.645,-29.785,0.000
1709212322.857,-32.715,-46.875,-32.227,-25.879,0.000
1709212322.861,-38.086,-52.734,-34.668,-38.574,0.000
1709212322.865,-37.598,-49.316,-36.621,-43.457,0.000
1709212322.869,-38.574,-42.480,-35.156,-46.875,0.000
1709212322.873,-39.551,-50.293,-38.574,-44.434,0.000
1709212322.877,-40.039,-47.852,-43.945,-40.527,0.000
1709212322.880,-43.945,-40.527,-42.969,-46.387,0.000
1709212322.884,-48.340,-37.109,-42.480,-53.711,0.000
1709212322.888,-48.828,-37.598,-47.852,-45.898,0.000
1709212322.892,-43.945,-34.668,-42.480,-38.086,0.000
1709212322.896,-42.969,-21.973,-37.598,-40.527,0.000
1709212322.900,-42.969,-27.832,-30.762,-37.109,0.000
1709212322.904,-48.828,-35.645,-36.133,-40.527,0.000
1709212322.908,-62.500,-34.668,-38.574,-49.316,0.000
1709212322.912,-73.242,-41.016,-34.668,-52.246,0.000
1709212322.916,-69.336,-31.738,-37.109,-44.434,0.000
1709212322.920,-64.453,-37.598,-34.668,-42.480,0.000
1709212322.923,-63.477,-52.734,-32.715,-52.246,0.000
1709212322.927,-62.988,-37.598,-29.785,-53.223,0.000
1709212322.931,-60.059,-34.180,-29.297,-41.016,0.000
1709212322.935,-48.340,-42.480,-26.367,-25.391,0.000
1709212322.939,-49.316,-41.016,-32.715,-34.180,0.000
1709212322.943,-53.223,-42.480,-38.574,-39.551,0.000
1709212322.947,-57.129,-46.387,-44.434,-40.527,0.000
1709212322.951,-55.664,-37.109,-41.992,-36.133,0.000
1709212322.955,-37.109,-37.598,-33.203,-33.691,0.000
1709212322.959,-26.855,-42.480,-34.668,-38.086,0.000
1709212322.963,-27.344,-38.574,-30.273,-33.203,0.000
1709212322.967,-25.879,-39.062,-26.855,-27.832,0.000
1709212322.970,-31.738,-41.016,-29.785,-29.297,0.000
1709212322.974,-33.691,-40.039,-30.273,-30.273,0.000
1709212322.978,-27.344,-41.992,-25.391,-29.297,0.000
1709212322.982,-29.785,-46.387,-29.297,-29.785,0.000
1709212322.986,-28.809,-39.062,-35.645,-36.621,0.000
1709212322.990,-31.250,-38.086,-37.598,-41.504,0.000
1709212322.994,-32.715,-34.668,-39.062,-35.645,0.000
1709212322.998,-36.621,-36.133,-42.969,-35.156,0.000
1709212323.002,-33.691,-45.898,-41.504,-38.086,0.000
1709212323.006,-30.273,-48.340,-39.551,-38.086,0.000
1709212323.010,-40.527,-46.387,-43.945,-46.875,0.000
1709212323.013,-41.016,-42.969,-40.039,-45.898,0.000
1709212323.017,-28.809,-38.574,-32.227,-36.621,0.000
1709212323.021,-28.809,-39.551,-31.738,-40.527,0.000
1709212323.025,-31.250,-29.297,-32.227,-30.762,0.000
1709212323.029,-35.645,-23.438,-37.598,-30.273,0.000
1709212323.033,-41.504,-29.297,-40.527,-40.039,0.000
1709212323.037,-41.016,-30.273,-33.203,-37.598,0.000
1709212323.041,-42.969,-38.086,-33.203,-40.527,0.000
1709212323.045,-46.387,-44.922,-34.668,-40.039,0.000
1709212323.049,-51.758,-43.945,-31.250,-38.086,0.000
1709212323.053,-52.246,-47.363,-32.227,-41.504,0.000
1709212323.056,-45.898,-44.434,-34.668,-39.551,0.000
1709212323.060,-43.457,-39.551,-35.645,-34.668,0.000
1709212323.064,-41.504,-34.180,-36.133,-34.668,0.000
1709212323.068,-43.945,-44.434,-33.691,-26.855,0.000
1709212323.072,-45.410,-43.945,-32.227,-20.996,0.000
1709212323.076,-38.574,-33.203,-29.785,-24.414,0.000
1709212323.080,-39.062,-34.180,-32.715,-23.438,0.000
1709212323.084,-43.457,-37.598,-35.645,-24.414,0.000
1709212323.088,-43.945,-45.898,-39.062,-37.109,0.000
1709212323.092,-35.156,-45.898,-37.598,-36.133,0.000
1709212323.095,-27.344,-39.551,-31.738,-30.273,0.000
1709212323.099,-24.902,-30.762,-36.621,-32.227,0.000
1709212323.103,-23.438,-29.297,-35.645,-39.551,0.000
1709212323.107,-24.414,-26.855,-32.227,-48.340,0.000
1709212323.111,-29.785,-27.344,-44.922,-46.387,0.000
1709212323.115,-27.832,-33.203,-44.434,-36.621,0.000
1709212323.119,-22.949,-37.109,-40.039,-37.109,0.000
1709212323.123,-26.367,-40.039,-40.039,-45.898,0.000
1709212323.127,-36.621,-36.133,-35.645,-46.875,0.000
1709212323.131,-40.527,-35.645,-32.715,-43.945,0.000
1709212323.134,-41.016,-36.621,-30.273,-39.062,0.000
1709212323.138,-40.039,-37.598,-36.621,-41.992,0.000
1709212323.142,-42.480,-40.039,-40.039,-47.852,0.000
1709212323.146,-45.410,-37.109,-38.574,-42.969,0.000
1709212323.150,-53.223,-42.969,-47.852,-49.805,0.000
1709212323.154,-55.176,-47.852,-45.898,-53.711,0.000
1709212323.158,-54.688,-40.039,-36.621,-44.434,0.000
1709212323.162,-55.664,-31.738,-42.480,-42.480,0.000
1709212323.166,-53.711,-30.762,-43.945,-49.316,0.000
1709212323.170,-51.270,-36.133,-35.156,-45.410,0.000
1709212323.174,-49.316,-38.574,-38.086,-37.598,0.000
1709212323.177,-51.758,-42.480,-41.992,-37.598,0.000
1709212323.181,-52.246,-41.992,-41.992,-38.086,0.000
1709212323.185,-49.316,-39.551,-41.016,-38.086,0.000
1709212323.189,-56.152,-52.734,-40.039,-41.992,0.000
1709212323.193,-66.895,-50.293,-44.434,-44.434,0.000
1709212323.197,-63.477,-36.133,-36.621,-41.016,0.000
1709212323.201,-59.570,-41.016,-32.715,-40.039,0.000
1709212323.205,-51.758,-46.387,-34.180,-30.273,0.000
1709212323.209,-48.828,-44.922,-31.738,-31.738,0.000
1709212323.212,-41.992,-41.992,-35.645,-37.109,0.000
1709212323.216,-30.273,-51.758,-39.062,-35.156,0.000
1709212323.220,-29.785,-60.059,-34.180,-40.039,0.000
1709212323.224,-30.273,-45.410,-34.180,-37.598,0.000
1709212323.228,0.000,-40.039,-37.109,-33.691,0.000
1709212323.232,0.000,-52.246,-39.062,-38.574,0.000
1709212323.236,0.000,-49.805,-38.086,-36.621,0.000
1709212323.240,0.000,-43.457,-36.621,-33.203,0.000
1709212323.244,0.000,-44.922,-33.691,-42.480,0.000
1709212323.248,0.000,-43.457,-33.203,-41.504,0.000
1709212323.252,0.000,-47.852,-47.363,-39.551,0.000
1709212323.256,0.000,-51.758,-40.527,-38.574,0.000
1709212323.260,0.000,-46.387,-32.227,-34.180,0.000
1709212323.263,0.000,-41.992,-45.898,-36.621,0.000
1709212323.267,0.000,-39.062,-40.527,-36.133,0.000
1709212323.271,0.000,-39.062,-37.109,-37.598,0.000
1709212323.275,-31.250,-40.527,-36.133,-37.598,0.000
1709212323.279,-26.855,-41.992,-33.203,-32.227,0.000
1709212323.283,-33.691,-46.875,-35.645,-36.133,0.000
1709212323.287,-37.598,-45.898,-31.250,-47.852,0.000
1709212323.291,-33.691,-38.574,-26.855,-46.387,0.000
1709212323.295,-25.391,-32.227,-29.297,-36.621,0.000
1709212323.299,-17.090,-36.621,-30.273,-33.203,0.000
1709212323.303,-23.438,-47.852,-28.320,-34.668,0.000
1709212323.307,-34.668,-43.945,-34.668,-39.551,0.000
1709212323.310,-38.086,-42.480,-42.480,-23.926,0.000
1709212323.314,-32.715,-42.969,-43.457,-23.926,0.000
1709212323.318,-21.973,-42.480,-38.574,-31.738,0.000
1709212323.322,-19.531,-35.156,-31.738,-30.762,0.000
1709212323.326,-32.227,-38.086,-36.621,-41.016,0.000
1709212323.330,-33.203,-50.781,-35.156,-42.480,0.000
1709212323.334,-23.926,-43.457,-25.879,-24.414,0.000
1709212323.338,-32.715,-39.062,-30.762,-26.367,0.000
1709212323.342,-42.969,-46.387,-35.156,-46.387,0.000
1709212323.346,-44.922,-42.480,-27.832,-44.434,0.000
1709212323.350,-44.434,-41.016,-29.785,-38.086,0.000
1709212323.353,-32.227,-44.434,-37.109,-32.715,0.000
1709212323.357,-24.902,-38.574,-35.645,-26.855,0.000
1709212323.361,-20.996,-33.203,-37.109,-29.297,0.000
1709212323.365,-25.879,-34.180,-41.504,-31.738,0.000
1709212323.369,-30.762,-35.156,-34.180,-24.414,0.000
1709212323.373,-27.832,-41.016,-31.738,-25.391,0.000
1709212323.377,-22.949,-41.016,-31.250,-23.926,0.000
1709212323.381,-26.855,-41.992,-33.203,-25.879,0.000
1709212323.385,-35.645,-42.969,-35.156,-35.156,0.000
1709212323.389,-30.273,-34.180,-30.273,-27.832,0.000
1709212323.393,-33.691,-42.480,-34.668,-29.297,0.000
1709212323.396,-40.039,-52.246,-42.969,-35.645,0.000
1709212323.400,-36.621,-45.898,-38.574,-21.484,0.000
1709212323.404,-43.457,-33.203,-38.574,-36.621,0.000
1709212323.408,-49.805,-31.738,-41.992,-46.387,0.000
1709212323.412,-45.898,-37.109,-35.156,-31.738,0.000
1709212323.416,-42.480,-46.387,-32.227,-34.180,0.000
1709212323.420,-38.086,-44.922,-34.180,-37.109,0.000
1709212323.424,-34.668,-31.250,-30.762,-31.738,0.000
1709212323.428,-46.387,-35.156,-36.133,-38.574,0.000
1709212323.432,-54.688,-41.504,-36.621,-41.992,0.000
1709212323.436,-54.688,-41.504,-37.109,-43.945,0.000
1709212323.439,-59.082,-44.434,-43.457,-53.223,0.000
1709212323.443,-53.223,-39.551,-37.109,-43.457,0.000
1709212323.447,-58.105,-32.715,-30.273,-40.527,0.000
1709212323.451,-66.895,-33.691,-33.691,-45.898,0.000
1709212323.455,-63.965,-42.480,-34.180,-42.969,0.000
1709212323.459,-56.641,-43.945,-36.133,-43.945,0.000
1709212323.463,0.000,-44.434,-38.574,-46.387,0.000
1709212323.467,0.000,-35.645,-35.156,-44.922,0.000
1709212323.471,0.000,-32.715,-42.480,-46.875,0.000
1709212323.475,0.000,-49.805,-43.457,-44.922,0.000
1709212323.478,0.000,-50.293,-40.039,-39.062,0.000
1709212323.482,0.000,-41.504,-44.434,-43.457,0.000
1709212323.486,0.000,-41.016,-39.551,-45.410,0.000
1709212323.490,0.000,-41.504,-41.504,-35.156,0.000
1709212323.494,0.000,-32.715,-48.340,-37.598,0.000
1709212323.498,0.000,-32.227,-49.805,-50.781,0.000
1709212323.502,0.000,-33.203,-44.922,-52.246,0.000
1709212323.506,0.000,-31.738,-43.457,-55.176,0.000
1709212323.510,-57.617,-39.062,-47.852,0.000,0.000
1709212323.514,-56.152,-37.598,-42.969,0.000,0.000
1709212323.517,-48.828,-41.016,-40.039,0.000,0.000
1709212323.521,-44.922,-46.387,-42.480,0.000,0.000
1709212323.525,-43.945,-46.387,-37.109,0.000,0.000
1709212323.529,-41.992,-57.129,-33.691,0.000,0.000
1709212323.533,-37.598,-57.129,-36.621,0.000,0.000
1709212323.537,-38.086,-34.668,-38.574,0.000,0.000
1709212323.541,-39.062,-33.203,-40.039,0.000,0.000
1709212323.545,-35.645,-41.504,-34.668,0.000,0.000
1709212323.549,-37.109,-45.410,-30.762,0.000,0.000
1709212323.553,-37.598,-46.387,-32.227,0.000,0.000
1709212323.556,-35.645,-40.039,-32.227,-31.250,0.000
1709212323.560,-34.668,-46.875,-32.715,-28.809,0.000
1709212323.564,-39.062,-52.734,-31.738,-30.762,0.000
1709212323.568,-39.551,-42.480,-28.809,-35.645,0.000
1709212323.572,-39.062,-40.527,-33.691,-35.645,0.000
1709212323.576,-36.621,-48.828,-41.504,-22.949,0.000
1709212323.580,-31.250,-58.594,-37.109,-10.254,0.000
1709212323.584,-36.133,-54.688,-34.668,-22.949,0.000
1709212323.588,-45.410,-41.016,-40.527,-39.551,0.000
1709212323.592,-43.457,-35.645,-39.062,-36.133,0.000
1709212323.595,-37.598,-35.645,-34.668,-30.762,0.000
1709212323.599,-34.668,-37.109,-45.410,-31.250,0.000
1709212323.603,-38.086,-37.109,-49.316,-40.527,0.000
1709212323.607,-41.992,-42.969,-38.574,-45.410,0.000
1709212323.611,-42.480,-45.898,-36.133,-35.156,0.000
1709212323.615,-44.922,-42.969,-43.945,-39.062,0.000
1709212323.619,-45.898,-43.457,-45.898,-47.363,0.000
1709212323.623,-49.316,-45.898,-45.410,-44.922,0.000
1709212323.627,-53.711,-51.758,-44.922,-39.062,0.000
1709212323.631,-44.922,-53.711,-41.504,-41.992,0.000
1709212323.634,-36.133,-50.293,-40.527,-41.504,0.000
1709212323.638,-31.250,-34.668,-40.039,-31.738,0.000
1709212323.642,-35.645,-30.762,-47.363,-38.574,0.000
1709212323.646,-34.180,-32.227,-48.828,-43.457,0.000
1709212323.650,-26.855,-33.691,-44.922,-38.086,0.000
1709212323.654,-22.949,-40.527,-45.410,-38.574,0.000
1709212323.658,-28.320,-35.156,-43.457,-39.062,0.000
1709212323.662,-33.691,-32.227,-41.016,-35.645,0.000
1709212323.666,-34.180,-38.086,-38.574,-37.109,0.000
1709212323.670,-43.457,-44.922,-41.016,-42.480,0.000
1709212323.674,-45.410,-39.551,-43.945,-48.828,0.000
1709212323.677,-30.762,-41.016,-36.133,-42.969,0.000
1709212323.681,-30.273,-50.781,-40.527,-41.992,0.000
1709212323.685,-41.992,-43.457,-42.969,-44.922,0.000
1709212323.689,-46.387,-33.203,-36.621,-48.828,0.000
1709212323.693,-47.363,-38.086,-40.527,-51.758,0.000
1709212323.697,-41.504,-39.551,-41.992,-46.875,0.000
1709212323.701,-40.527,-34.668,-34.180,-46.387,0.000
1709212323.705,-50.293,-46.387,-38.086,-58.105,0.000
1709212323.709,-59.570,-50.781,-43.945,-58.105,0.000
1709212323.713,-56.641,-41.992,-41.992,-47.852,0.000
1709212323.717,-51.758,-38.086,-38.086,-46.875,0.000
1709212323.721,-46.875,-38.086,-35.645,-44.922,0.000
1709212323.724,-44.922,-48.828,-34.668,-48.340,0.000
1709212323.728,-46.875,-46.875,-35.645,-48.340,0.000
1709212323.732,-41.016,-31.250,-40.527,-36.133,0.000
1709212323.736,-34.180,-31.250,-40.527,-35.645,0.000
1709212323.740,-30.273,-37.598,-39.062,-37.109,0.000
1709212323.744,-31.250,-33.203,-37.109,-41.016,0.000
1709212323.748,-40.527,-37.598,-35.645,-41.992,0.000
1709212323.752,-44.922,-41.504,-37.109,-39.062,0.000
1709212323.756,-35.156,-35.645,-33.203,-32.715,0.000
1709212323.760,-27.344,-38.574,-31.250,-33.691,0.000
1709212323.764,-33.691,-49.805,-32.227,-37.109,0.000
1709212323.767,-38.086,-55.176,-37.598,-37.598,0.000
1709212323.771,-36.621,-49.805,-43.945,-37.598,0.000
1709212323.775,-33.691,-46.387,-39.551,-24.902,0.000
1709212323.779,-35.156,-43.945,-45.410,-33.691,0.000
1709212323.783,-33.691,-39.062,-44.434,-45.898,0.000
1709212323.787,-34.180,-41.992,-43.945,-43.945,0.000
1709212323.791,-36.621,-41.016,-44.922,-41.992,0.000
1709212323.795,-30.273,-37.598,-41.016,-36.133,0.000
1709212323.799,-24.902,-36.621,-41.504,-30.273,0.000
1709212323.803,-21.973,-35.645,-36.621,-24.414,0.000
1709212323.807,-26.367,-44.434,-35.156,-25.391,0.000
1709212323.811,-37.598,-41.016,-40.527,-28.809,0.000
1709212323.814,-36.621,-37.598,-44.434,-34.180,0.000
1709212323.818,-38.574,-29.785,-36.621,-34.668,0.000
1709212323.822,-41.016,-24.902,-34.180,-34.668,0.000
1709212323.826,-44.922,-39.062,-39.551,-46.875,0.000
1709212323.830,-47.363,-48.828,-32.227,-48.340,0.000
1709212323.834,-41.016,-38.086,-24.902,-37.598,0.000
1709212323.838,-42.480,-37.598,-34.668,-42.969,0.000
1709212323.842,-53.711,-46.875,-41.016,-50.781,0.000
1709212323.846,-59.570,-49.805,-38.086,-47.363,0.000
1709212323.850,-54.688,-54.199,-31.738,-33.203,0.000
1709212323.854,-53.223,-47.852,-31.250,-30.273,0.000
1709212323.857,-56.641,-40.527,-33.203,-33.691,0.000
1709212323.861,-49.316,-38.086,-33.691,-28.809,0.000
1709212323.865,-49.805,-42.480,-34.668,-21.973,0.000
1709212323.869,-62.500,-42.969,-35.645,-29.785,0.000
1709212323.873,-56.641,-45.410,-32.227,-36.133,0.000
1709212323.877,-42.480,-47.363,-26.855,-26.367,0.000
1709212323.881,-41.504,-33.203,-32.227,-23.438,0.000
1709212323.885,-43.457,-30.762,-32.715,-31.250,0.000
1709212323.889,-42.480,-51.270,-33.691,-27.832,0.000
1709212323.892,-41.016,-56.152,-41.016,-25.879,0.000
1709212323.896,-36.133,-39.062,-37.598,-27.832,0.000
1709212323.900,-28.809,-30.762,-35.645,-20.020,0.000
1709212323.904,-24.414,-34.180,-40.527,-27.832,0.000
1709212323.908,-29.297,-30.273,-33.691,-34.668,0.000
1709212323.912,-32.715,-26.367,-32.227,-24.414,0.000
1709212323.916,-34.668,-30.273,-40.039,-35.156,0.000
1709212323.920,-27.344,-36.621,-41.016,-42.480,0.000
1709212323.924,-22.949,-37.109,-43.457,-42.969,0.000
1709212323.928,-39.062,-41.016,-44.922,-47.852,0.000
1709212323.931,-39.551,-38.086,-41.504,-43.457,0.000
1709212323.935,-36.621,-34.668,-38.574,-39.062,0.000
1709212323.939,-36.133,-42.480,-31.738,-36.133,0.000
1709212323.943,-37.109,-42.480,-24.902,-33.203,0.000
1709212323.947,-48.828,-32.227,-28.809,-37.109,0.000
1709212323.951,-53.223,-29.785,-33.691,-36.621,0.000
1709212323.955,-47.363,-39.551,-33.203,-22.949,0.000
1709212323.959,-47.363,-33.203,-32.227,-32.227,0.000
1709212323.963,-50.781,-24.414,-32.715,-46.387,0.000
1709212323.967,-58.594,-33.203,-41.992,-44.922,0.000
1709212323.970,-66.895,-54.199,-47.363,-50.781,0.000
1709212323.974,-61.035,-49.805,-40.039,-48.340,0.000
1709212323.978,-54.688,-43.457,-37.598,-43.457,0.000
1709212323.982,-55.176,-51.758,-43.457,-46.875,0.000
1709212323.986,-59.082,-48.340,-50.293,-50.781,0.000
1709212323.990,-58.594,-42.969,-49.316,-53.711,0.000
1709212323.994,-56.152,-47.852,-44.434,-46.387,0.000
1709212323.998,-48.828,-44.922,-42.480,-41.504,0.000
1709212324.002,-48.828,-37.598,-44.922,-45.898,0.000
1709212324.005,-59.082,-41.504,-44.922,-50.293,0.000
1709212324.009,-58.105,-46.387,-43.945,-47.363,0.000
1709212324.013,-50.781,-45.410,-42.969,-35.156,0.000
1709212324.017,-48.828,-44.922,-42.480,-31.738,0.000
1709212324.021,-52.246,-48.340,-46.875,-47.363,0.000
1709212324.025,-51.758,-50.293,-47.363,-57.617,0.000
1709212324.029,-39.551,-50.781,-39.062,-45.410,0.000
1709212324.033,-37.109,-46.387,-35.645,-38.574,0.000
1709212324.037,-35.156,-43.457,-40.039,-37.109,0.000
1709212324.041,-31.738,-46.387,-39.551,-38.086,0.000
1709212324.045,-27.344,-36.133,-33.691,-34.180,0.000
1709212324.049,-34.180,-35.156,-39.062,-41.016,0.000
1709212324.052,-35.156,-39.551,-45.410,-48.340,0.000
1709212324.056,-28.320,-38.574,-42.969,-43.457,0.000
1709212324.060,-28.320,-45.410,-41.504,-33.203,0.000
1709212324.064,-27.832,-41.504,-41.992,-33.691,0.000
1709212324.068,-28.320,-40.527,-41.016,-37.598,0.000
1709212324.073,-29.297,-45.898,-37.598,-36.621,0.000
1709212324.077,-28.320,-40.527,-37.109,-33.691,0.000
1709212324.080,-29.785,-36.621,-39.551,-31.738,0.000
1709212324.084,-32.227,-37.109,-44.922,-35.645,0.000
1709212324.088,-40.527,-37.598,-41.992,-39.551,0.000
1709212324.092,-52.734,-44.922,-39.551,-47.363,0.000
1709212324.096,-56.152,-48.340,-37.109,-50.781,0.000
1709212324.100,-48.340,-39.062,-31.250,-47.363,0.000
1709212324.104,-43.945,-38.574,-25.879,-47.852,0.000
1709212324.108,-52.734,-37.598,-25.879,-48.340,0.000
1709212324.112,-63.477,-41.016,-33.691,-53.711,0.000
1709212324.116,-52.734,-50.293,-36.621,-50.293,0.000
1709212324.120,-46.387,-50.781,-38.086,-47.852,0.000
1709212324.123,-45.898,-39.551,-41.016,-47.363,0.000
1709212324.127,-40.527,-31.738,-32.715,-36.621,0.000
1709212324.131,-49.316,-41.504,-34.668,-38.574,0.000
1709212324.135,-40.527,-38.086,-32.715,-32.227,0.000
1709212324.139,-27.344,-35.156,-26.855,-24.902,0.000
1709212324.143,-30.762,-42.969,-32.227,-28.809,0.000
1709212324.147,-27.832,-38.086,-38.574,-24.414,0.000
1709212324.151,-33.691,-41.016,-40.039,-30.273,0.000
1709212324.155,-35.156,-41.016,-29.785,-31.738,0.000
1709212324.159,-15.137,-37.598,-26.367,-22.949,0.000
1709212324.163,-5.371,-53.223,-26.367,-22.461,0.000
1709212324.166,-10.742,-40.527,-25.391,-22.949,0.000
1709212324.170,-20.508,-29.785,-33.203,-28.809,0.000
1709212324.174,-33.691,-35.645,-39.062,-40.527,0.000
1709212324.178,-31.738,-39.551,-39.551,-35.645,0.000
1709212324.182,-24.902,-41.504,-39.062,-21.973,0.000
1709212324.186,-32.227,-32.227,-36.133,-33.691,0.000
1709212324.190,-30.762,-24.414,-33.203,-40.039,0.000
1709212324.194,-29.297,-32.227,-34.668,-33.691,0.000
1709212324.198,-30.762,-40.527,-36.133,-32.715,0.000
1709212324.202,-23.926,-44.434,-33.203,-35.645,0.000
1709212324.205,-32.227,-41.992,-24.414,-33.203,0.000
1709212324.209,-44.434,-32.715,-28.809,-31.738,0.000
1709212324.213,-49.805,-35.156,-41.992,-39.062,0.000
1709212324.217,-51.758,-33.203,-36.133,-41.504,0.000
1709212324.221,-50.293,-33.691,-29.297,-40.527,0.000
1709212324.225,-55.176,-40.039,-34.668,-42.969,0.000
1709212324.229,-59.570,-40.527,-36.621,-38.574,0.000
1709212324.233,-55.664,-37.598,-39.062,-40.527,0.000
1709212324.237,-55.176,-37.598,-41.992,-47.363,0.000
1709212324.241,-50.293,-40.039,-40.527,-40.039,0.000
1709212324.244,-43.457,-41.992,-40.527,-43.457,0.000
1709212324.248,-50.781,-37.109,-42.480,-55.664,0.000
1709212324.252,-55.176,-33.203,-37.109,-50.293,0.000
1709212324.256,-51.758,-41.992,-36.133,-43.945,0.000
1709212324.260,-48.828,-42.480,-38.086,-43.945,0.000
1709212324.264,-46.387,-44.922,-38.574,-43.945,0.000
1709212324.268,-49.316,-52.246,-44.434,-41.504,0.000
1709212324.272,-50.781,-50.293,-43.945,-42.480,0.000
1709212324.276,-42.480,-41.504,-39.551,-39.551,0.000
1709212324.280,-37.109,-37.598,-39.551,-34.180,0.000
1709212324.283,-37.598,-35.156,-40.039,-26.855,0.000
1709212324.287,-35.645,-40.527,-39.551,-24.414,0.000
1709212324.291,-37.109,-49.316,-40.039,-31.738,0.000
1709212324.295,-38.086,-41.504,-35.156,-30.273,0.000
1709212324.299,-35.156,-35.645,-29.785,-28.320,0.000
1709212324.303,-31.250,-38.574,-30.762,-26.855,0.000
1709212324.307,-30.273,-37.598,-31.250,-28.320,0.000
1709212324.311,-43.457,-42.969,-39.062,-34.180,0.000
1709212324.315,-42.969,-47.852,-39.062,-38.086,0.000
1709212324.318,-36.621,-46.387,-32.227,-40.527,0.000
1709212324.322,-36.621,-41.016,-34.668,-45.410,0.000
1709212324.326,-32.715,-39.551,-37.109,-44.922,0.000
1709212324.330,-35.645,-41.992,-42.480,-36.621,0.000
1709212324.334,-39.551,-42.480,-46.387,-47.852,0.000
1709212324.338,-37.598,-41.504,-47.363,-50.293,0.000
1709212324.342,-38.574,-40.527,-44.434,-41.016,0.000
1709212324.346,-41.504,-38.086,-41.992,-29.785,0.000
1709212324.350,-40.039,-30.762,-38.574,-23.926,0.000
1709212324.353,-35.645,-23.926,-34.180,-30.273,0.000
1709212324.357,-32.227,-32.227,-34.668,-37.598,0.000
1709212324.361,-32.227,-34.668,-32.227,-40.527,0.000
1709212324.365,-34.668,-26.367,-32.715,-40.039,0.000
1709212324.369,-41.992,-28.320,-34.668,-41.504,0.000
1709212324.373,-46.387,-36.621,-37.598,-37.109,0.000
1709212324.377,-40.039,-37.109,-37.598,-29.297,0.000
1709212324.381,-41.016,-33.203,-37.109,-35.156,0.000
1709212324.385,-50.781,-41.504,-42.480,-50.781,0.000
1709212324.389,-56.152,-42.969,-41.504,-52.246,0.000
1709212324.393,-55.176,-40.527,-47.852,-50.293,0.000
1709212324.396,-47.363,-40.527,-54.688,-45.898,0.000
1709212324.400,-42.969,-42.969,-53.223,-45.410,0.000
1709212324.404,-44.434,-41.992,-49.316,-52.246,0.000
1709212324.408,-46.875,-38.574,-41.504,-45.410,0.000
1709212324.412,-41.992,-42.969,-39.062,-34.180,0.000
1709212324.416,-35.156,-44.434,-42.969,-38.574,0.000
1709212324.420,-38.086,-55.664,-45.898,-43.945,0.000
1709212324.424,-36.133,-59.082,-42.480,-44.434,0.000
1709212324.428,-35.645,-48.340,-43.457,-44.434,0.000
1709212324.432,-39.551,-45.898,-43.457,-39.062,0.000
1709212324.436,-39.062,-42.969,-39.551,-28.320,0.000
1709212324.440,-29.297,-36.621,-38.574,-35.645,0.000
1709212324.443,-25.879,-37.598,-32.715,-38.086,0.000
1709212324.447,-30.762,-37.598,-34.180,-36.133,0.000
1709212324.451,-37.109,-33.691,-40.527,-38.574,0.000
1709212324.455,-36.621,-34.668,-41.016,-36.621,0.000
1709212324.459,-33.203,-33.691,-34.668,-38.086,0.000
1709212324.463,-37.598,-41.016,-40.039,-41.504,0.000
1709212324.467,-41.504,-49.805,-43.945,-38.086,0.000
1709212324.471,-43.945,-37.598,-40.039,-32.715,0.000
1709212324.475,-33.691,-33.203,-32.715,-32.227,0.000
1709212324.479,-22.949,-37.598,-32.227,-23.926,0.000
1709212324.483,-24.414,-33.691,-40.527,-13.672,0.000
1709212324.486,-31.738,-38.086,-37.109,-29.785,0.000
1709212324.490,-38.574,-42.480,-32.227,-33.203,0.000
1709212324.494,-36.133,-41.016,-33.691,-26.855,0.000
1709212324.498,-33.203,-43.457,-35.645,-27.832,0.000
1709212324.502,-40.039,-42.969,-33.203,-23.926,0.000
1709212324.506,-47.852,-47.363,-33.691,-29.785,0.000
1709212324.510,-49.316,-51.270,-34.180,-33.203,0.000
1709212324.514,-48.340,-42.480,-36.621,-32.227,0.000
1709212324.518,-40.039,-32.715,-35.645,-36.133,0.000
1709212324.522,-37.598,-38.574,-34.180,-39.551,0.000
1709212324.526,-39.551,-41.992,-35.156,-28.809,0.000
1709212324.529,-43.457,-40.039,-37.598,-29.785,0.000
1709212324.533,-46.387,-45.898,-39.551,-43.457,0.000
1709212324.537,-40.527,-46.875,-35.156,-37.598,0.000
1709212324.541,-41.504,-43.945,-31.738,-35.645,0.000
1709212324.545,-49.316,-45.898,-35.645,-41.016,0.000
1709212324.549,-53.711,-45.410,-34.668,-38.086,0.000
1709212324.553,-46.387,-43.945,-35.156,-34.180,0.000
1709212324.557,-39.551,-39.062,-37.109,-34.668,0.000
1709212324.561,-40.039,-38.086,-38.574,-31.738,0.000
1709212324.565,-40.039,-36.621,-38.086,-32.227,0.000
1709212324.568,-31.738,-35.645,-34.668,-24.414,0.000
1709212324.572,-23.438,-37.109,-33.203,-11.230,0.000
1709212324.576,-20.508,-43.457,-24.902,-13.672,0.000
1709212324.580,-20.020,-40.039,-27.344,-16.113,0.000
1709212324.584,-21.484,-30.273,-31.738,-22.461,0.000
1709212324.588,-27.832,-37.109,-31.738,-29.297,0.000
1709212324.592,-33.691,-42.480,-37.109,-26.855,0.000
1709212324.596,-34.180,-42.969,-37.598,-25.879,0.000
1709212324.600,-30.273,-41.016,-30.273,-23.926,0.000
1709212324.604,-21.484,-33.203,-26.367,-24.414,0.000
1709212324.608,-24.414,-38.574,-23.926,-27.344,0.000
1709212324.611,-36.133,-41.016,-30.273,-26.855,0.000
1709212324.615,-25.391,-29.297,-34.180,-9.277,0.000
1709212324.619,-22.461,-29.785,-33.691,-15.625,0.000
1709212324.623,-31.738,-34.180,-35.156,-30.273,0.000
1709212324.627,-39.062,-39.062,-32.227,-32.227,0.000
1709212324.631,-49.316,-45.410,-29.297,-41.992,0.000
1709212324.635,-49.805,-41.504,-29.297,-43.945,0.000
1709212324.639,-43.457,-40.039,-29.785,-35.645,0.000
1709212324.643,-44.922,-51.758,-23.438,-35.156,0.000
1709212324.646,-48.828,-50.781,-30.273,-34.668,0.000
1709212324.650,-46.875,-35.156,-32.227,-37.109,0.000
1709212324.654,-48.828,-31.738,-30.273,-42.480,0.000
1709212324.658,-54.688,-36.133,-37.598,-41.992,0.000
1709212324.662,-53.711,-40.039,-36.133,-38.086,0.000
1709212324.666,-48.828,-35.645,-29.297,-46.875,0.000
1709212324.670,-51.270,-34.668,-34.668,-53.711,0.000
1709212324.674,-48.828,-35.645,-34.668,-46.387,0.000
1709212324.678,-42.480,-37.109,-29.297,-41.992,0.000
1709212324.682,-38.086,-38.086,-28.809,-44.922,0.000
1709212324.685,-31.250,-34.180,-27.344,-41.992,0.000
1709212324.689,-33.203,-32.227,-32.715,-45.410,0.000
1709212324.693,-41.016,-30.273,-37.598,-51.758,0.000
1709212324.697,-34.180,-30.273,-36.621,-44.434,0.000
1709212324.701,-28.809,-35.645,-39.062,-43.945,0.000
1709212324.705,-33.203,-42.480,-39.062,-40.527,0.000
1709212324.709,-36.133,-36.133,-41.504,-42.969,0.000
1709212324.713,-38.574,-36.133,-43.457,-55.176,0.000
1709212324.717,-31.250,-42.480,-44.434,-50.293,0.000
1709212324.721,-30.273,-40.527,-43.457,-45.898,0.000
1709212324.724,-31.738,-34.180,-43.945,-49.316,0.000
1709212324.728,-29.297,-36.621,-45.410,-45.410,0.000
1709212324.732,-37.109,-42.969,-47.852,-42.969,0.000
1709212324.736,-40.527,-41.504,-47.852,-41.504,0.000
1709212324.740,-37.109,-41.016,-43.945,-41.504,0.000
1709212324.744,-36.133,-37.598,-40.039,-42.480,0.000
1709212324.748,-47.852,-47.363,-37.598,-41.504,0.000
1709212324.752,-57.129,-48.828,-37.109,-36.133,0.000
1709212324.756,-52.734,-39.551,-34.180,-29.785,0.000
1709212324.759,-55.176,-48.828,-31.738,-31.250,0.000
1709212324.763,-57.617,-54.199,-34.668,-31.738,0.000
1709212324.767,-53.711,-45.410,-30.762,-24.902,0.000
1709212324.771,-46.387,-38.086,-31.250,-18.555,0.000
1709212324.775,-41.016,-45.410,-37.598,-20.996,0.000
1709212324.779,-36.133,-52.246,-34.668,-22.949,0.000
1709212324.783,-44.434,-43.457,-41.992,-26.855,0.000
1709212324.787,-47.363,-33.203,-48.828,-34.180,0.000
1709212324.791,-38.574,-32.715,-37.109,-35.645,0.000
1709212324.795,-36.621,-39.062,-33.691,-36.133,0.000
1709212324.799,-41.016,-42.969,-42.969,-39.551,0.000
1709212324.803,-45.898,-38.086,-42.480,-41.504,0.000
1709212324.806,-52.734,-39.551,-42.969,-46.387,0.000
1709212324.810,-57.129,-43.945,-41.504,-40.039,0.000
1709212324.814,-52.734,-39.551,-42.480,-43.457,0.000
1709212324.818,-48.828,-39.062,-51.270,-52.734,0.000
1709212324.822,-42.969,-36.133,-53.223,-48.340,0.000
1709212324.826,-41.016,-33.691,-47.852,-42.480,0.000
1709212324.830,-44.434,-41.992,-46.875,-41.992,0.000
1709212324.834,-45.898,-42.480,-52.734,-42.969,0.000
1709212324.838,-41.992,-41.016,-48.340,-37.109,0.000
1709212324.842,-38.574,-39.551,-44.434,-36.621,0.000
1709212324.846,-36.621,-33.203,-39.062,-33.691,0.000
1709212324.849,-38.574,-44.922,-41.504,-31.738,0.000
1709212324.853,-41.992,-46.875,-45.898,-34.668,0.000
1709212324.857,-37.109,-40.527,-39.551,-34.668,0.000
1709212324.861,-39.551,-41.992,-39.551,-40.527,0.000
1709212324.865,-48.340,-47.852,-37.109,-40.527,0.000
1709212324.869,-55.176,-56.152,-36.133,-42.969,0.000
1709212324.873,-56.152,-50.293,-35.156,-46.387,0.000
1709212324.877,-42.480,-35.156,-29.785,-39.062,0.000
1709212324.881,-36.621,-30.273,-35.156,-36.133,0.000
1709212324.885,-38.086,-41.504,-36.621,-36.133,0.000
1709212324.889,-35.645,-41.992,-27.344,-34.180,0.000
1709212324.892,-41.016,-35.156,-33.691,-39.062,0.000
1709212324.896,-42.480,-40.527,-39.062,-37.109,0.000
1709212324.900,-36.133,-49.316,-35.156,-22.949,0.000
1709212324.904,-41.016,-50.781,-37.598,-29.785,0.000
1709212324.908,-45.410,-49.805,-41.016,-41.016,0.000
1709212324.912,-40.039,-47.852,-40.527,-37.598,0.000
1709212324.916,-36.133,-49.316,-35.645,-30.762,0.000
1709212324.920,-36.621,-54.199,-34.668,-33.203,0.000
1709212324.924,-38.086,-51.270,-38.574,-44.434,0.000
1709212324.928,-38.574,-48.828,-38.086,-46.875,0.000
1709212324.932,-42.969,-51.270,-34.180,-46.387,0.000
1709212324.935,-41.992,-52.734,-33.203,-37.109,0.000
1709212324.939,-33.203,-50.293,-38.574,-30.762,0.000
1709212324.943,-24.414,-48.828,-32.227,-26.367,0.000
1709212324.947,-25.879,-59.570,-27.832,-23.438,0.000
1709212324.951,-28.320,-52.246,-35.156,-30.273,0.000
1709212324.955,-22.461,-38.086,-38.086,-28.809,0.000
1709212324.959,-16.113,-39.551,-34.180,-25.879,0.000
1709212324.963,-18.555,-44.434,-32.715,-32.227,0.000
1709212324.967,-31.250,-36.621,-32.715,-37.109,0.000
1709212324.971,-39.062,-33.203,-34.180,-39.062,0.000
1709212324.974,-37.109,-40.039,-34.668,-38.574,0.000
1709212324.978,-27.344,-41.992,-30.273,-28.320,0.000
1709212324.982,-26.855,-45.898,-38.086,-30.273,0.000
1709212324.986,-31.738,-42.480,-36.621,-31.738,0.000
1709212324.990,-32.715,-38.086,-27.832,-15.625,0.000
1709212324.994,-31.250,-38.574,-28.809,-16.113,0.000
1709212324.998,-37.109,-39.062,-34.180,-28.320,0.000
1709212325.002,-44.922,-36.133,-43.945,-35.645,0.000
1709212325.006,-39.062,-34.180,-39.551,-35.156,0.000
1709212325.010,-40.527,-36.133,-35.645,-25.391,0.000
1709212325.014,-40.039,-37.109,-37.109,-22.461,0.000
1709212325.018,-35.156,-39.062,-39.062,-26.855,0.000
1709212325.022,-35.645,-40.039,-37.109,-22.461,0.000
1709212325.025,-38.086,-34.180,-28.320,-15.137,0.000
1709212325.029,-48.340,-46.875,-37.598,-35.156,0.000
1709212325.033,-54.688,-45.410,-42.480,-43.945,0.000
1709212325.037,-55.664,-34.180,-35.645,-27.344,0.000
1709212325.041,-52.246,-41.016,-35.645,-34.180,0.000
1709212325.045,-51.758,-40.039,-46.387,-45.410,0.000
1709212325.049,-44.922,-34.180,-44.922,-39.551,0.000
1709212325.053,-40.527,-36.133,-41.016,-32.227,0.000
1709212325.057,-42.480,-33.691,-44.922,-29.785,0.000
1709212325.061,-39.551,-33.203,-45.898,-23.926,0.000
1709212325.064,-38.086,-37.109,-39.551,-22.949,0.000
1709212325.068,-35.156,-37.109,-32.715,-25.391,0.000
1709212325.072,-36.133,-45.898,-28.320,-26.855,0.000
1709212325.076,-39.551,-56.152,-27.344,-30.762,0.000
1709212325.080,-44.434,-56.641,-30.273,-37.109,0.000
1709212325.084,-51.270,-44.434,-31.738,-45.410,0.000
1709212325.088,-54.199,-35.156,-32.715,-58.105,0.000
1709212325.092,-52.734,-41.992,-37.109,-52.246,0.000
1709212325.096,-46.387,-42.969,-35.645,-31.250,0.000
1709212325.100,-40.527,-38.086,-34.180,-36.621,0.000
1709212325.103,-37.109,-29.297,-36.621,-44.922,0.000
1709212325.107,-37.109,-31.738,-35.156,-38.574,0.000
1709212325.111,-42.480,-39.551,-35.156,-42.480,0.000
1709212325.115,-43.945,-42.480,-41.504,-45.410,0.000
1709212325.119,-37.109,-45.410,-41.504,-36.133,0.000
1709212325.123,-32.715,-41.992,-37.109,-32.715,0.000
1709212325.127,-39.062,-33.691,-33.691,-31.250,0.000
1709212325.131,-48.828,-29.297,-38.086,-36.621,0.000
1709212325.135,-50.781,-29.297,-42.480,-49.805,0.000
1709212325.138,-39.062,-30.762,-37.598,-37.598,0.000
1709212325.142,-33.203,-33.691,-39.551,-30.762,0.000
1709212325.146,-41.504,-35.645,-40.039,-43.457,0.000
1709212325.150,-41.992,-34.180,-39.062,-36.133,0.000
1709212325.154,-35.156,-36.133,-41.504,-27.832,0.000
1709212325.158,-29.297,-36.621,-37.109,-27.832,0.000
1709212325.162,-24.902,-33.691,-31.250,-25.879,0.000
1709212325.166,-23.438,-32.227,-28.320,-24.414,0.000
1709212325.170,-27.832,-33.691,-30.762,-27.832,0.000
1709212325.174,-37.109,-35.645,-33.203,-33.691,0.000
1709212325.178,-42.480,-38.086,-33.691,-37.598,0.000
1709212325.182,-42.969,-49.316,-31.738,-36.621,0.000
1709212325.185,-40.039,-51.758,-33.691,-31.738,0.000
1709212325.189,-44.434,-44.922,-39.062,-37.109,0.000
1709212325.193,-46.387,-45.410,-31.738,-32.227,0.000
1709212325.197,-43.945,-44.434,-33.203,-28.320,0.000
1709212325.201,-46.875,-42.969,-41.504,-34.668,0.000
1709212325.205,-46.387,-40.039,-31.738,-33.203,0.000
1709212325.209,-45.410,-40.039,-26.855,-28.320,0.000
1709212325.213,-45.410,-46.387,-37.109,-28.809,0.000
1709212325.217,-40.527,-46.875,-35.645,-26.367,0.000
1709212325.221,-31.738,-38.086,-33.203,-21.973,0.000
1709212325.225,-33.203,-41.504,-41.016,-31.738,0.000
1709212325.229,-35.156,-48.828,-38.574,-31.250,0.000
1709212325.232,-36.621,-44.434,-35.156,-21.484,0.000
1709212325.236,-41.504,-41.504,-41.016,-30.273,0.000
1709212325.240,-41.992,-46.875,-43.945,-31.738,0.000
1709212325.244,-36.621,-43.945,-31.250,-23.438,0.000
1709212325.248,-39.062,-36.133,-31.738,-24.414,0.000
1709212325.252,-41.992,-37.598,-40.527,-25.391,0.000
1709212325.256,-39.062,-41.504,-36.621,-22.949,0.000
1709212325.260,-37.598,-43.945,-38.574,-26.855,0.000
1709212325.264,-35.645,-41.504,-36.621,-36.621,0.000
1709212325.268,-41.992,-41.504,-42.480,-45.410,0.000
1709212325.272,-43.457,-47.363,-41.016,-38.574,0.000
1709212325.275,-36.133,-47.363,-39.062,-21.973,0.000
1709212325.279,-34.180,-44.434,-42.480,-22.461,0.000
1709212325.283,-34.180,-43.945,-36.133,-35.156,0.000
1709212325.287,-27.344,-36.133,-30.273,-32.715,0.000
1709212325.291,-39.551,-39.062,-37.109,-32.715,0.000
1709212325.295,-42.480,-46.875,-37.598,-37.109,0.000
1709212325.299,-33.203,-40.527,-36.133,-38.086,0.000
1709212325.303,-33.203,-37.598,-39.551,-36.621,0.000
1709212325.307,-40.039,-47.363,-42.969,-42.480,0.000
1709212325.311,-43.945,-44.922,-41.992,-44.434,0.000
1709212325.314,-41.504,-41.016,-36.621,-41.016,0.000
1709212325.318,-35.645,-45.410,-33.203,-31.250,0.000
1709212325.322,-33.691,-52.246,-34.180,-27.344,0.000
1709212325.326,-35.645,-57.617,-36.133,-38.086,0.000
1709212325.330,-36.621,-52.246,-35.645,-33.691,0.000
1709212325.334,-34.180,-38.086,-33.691,-32.715,0.000
1709212325.338,-28.809,-37.598,-38.086,-38.574,0.000
1709212325.342,-33.203,-43.457,-39.551,-41.992,0.000
1709212325.346,-35.156,-36.621,-42.480,-38.574,0.000
1709212325.350,-27.344,-35.645,-41.504,-30.762,0.000
1709212325.353,-32.227,-36.133,-34.180,-32.715,0.000
1709212325.357,-33.691,-30.273,-29.297,-31.250,0.000
1709212325.361,-31.250,-40.039,-31.250,-29.297,0.000
1709212325.365,-31.738,-44.434,-38.086,-25.879,0.000
1709212325.369,-34.668,-30.762,-37.109,-24.414,0.000
1709212325.373,-36.621,-29.297,-38.574,-26.855,0.000
1709212325.377,-30.762,-27.344,-44.434,-26.367,0.000
1709212325.381,-30.762,-27.344,-40.039,-17.578,0.000
1709212325.385,-36.133,-41.504,-35.645,-17.578,0.000
1709212325.389,-38.574,-43.945,-29.785,-20.508,0.000
1709212325.392,-47.363,-43.457,-29.297,-25.391,0.000
1709212325.396,-49.805,-48.828,-33.203,-30.273,0.000
1709212325.400,-44.922,-50.293,-34.180,-33.203,0.000
1709212325.404,-46.387,-43.945,-33.203,-35.645,0.000
1709212325.408,-58.594,-45.898,-37.109,-41.992,0.000
1709212325.412,-70.312,-54.199,-41.504,-43.457,0.000
1709212325.416,-65.918,-46.875,-41.992,-46.875,0.000
1709212325.420,-59.082,-48.828,-37.598,-48.340,0.000
1709212325.424,-60.059,-54.688,-32.715,-52.246,0.000
1709212325.428,-54.688,-51.270,-38.086,-53.223,0.000
1709212325.431,-48.340,-47.363,-41.016,-44.434,0.000
1709212325.435,-42.480,-41.504,-41.992,-41.016,0.000
1709212325.439,-33.691,-37.598,-38.574,-34.668,0.000
1709212325.443,-32.227,-37.109,-37.598,-34.180,0.000
1709212325.447,-44.434,-41.016,-40.527,-48.340,0.000
1709212325.451,-47.363,-42.480,-40.039,-52.246,0.000
1709212325.455,-42.480,-48.828,-36.621,-38.574,0.000
1709212325.459,-44.434,-48.340,-40.039,-39.062,0.000
1709212325.463,-49.805,-47.363,-46.875,-52.246,0.000
1709212325.467,-50.781,-49.316,-42.969,-52.734,0.000
1709212325.470,-53.223,-38.574,-42.480,-49.805,0.000
1709212325.474,-50.781,-38.574,-43.945,-44.922,0.000
