timestamps,TP9,AF7,AF8,TP10,Right AUX
1709374125.772,9.277,-29.297,-33.691,-3.418,0.000
1709374125.776,-5.859,-28.320,-31.738,-13.184,0.000
1709374125.780,-49.805,-31.738,-28.809,-47.852,0.000
1709374125.784,-58.594,-32.227,-32.715,-49.805,0.000
1709374125.788,-43.457,-36.133,-37.598,-33.691,0.000
1709374125.792,-9.277,-38.574,-33.691,-7.324,0.000
1709374125.796,-15.625,-36.133,-34.180,-6.348,0.000
1709374125.800,-50.293,-34.668,-40.527,-44.434,0.000
1709374125.804,-59.570,-37.598,-40.039,-59.082,0.000
1709374125.808,-38.086,-39.551,-37.109,-50.293,0.000
1709374125.811,7.812,-34.180,-34.180,-27.832,0.000
1709374125.815,5.371,-29.785,-35.645,-33.203,0.000
1709374125.819,-40.527,-28.320,-35.156,-61.035,0.000
1709374125.823,-55.176,-38.574,-33.203,-66.895,0.000
1709374125.827,-41.016,-45.410,-36.621,-62.500,0.000
1709374125.831,-6.348,-40.039,-40.527,-28.809,0.000
1709374125.835,-4.883,-32.715,-44.434,-19.043,0.000
1709374125.839,-54.688,-29.297,-40.039,-54.199,0.000
1709374125.843,-77.637,-31.738,-38.086,-70.312,0.000
1709374125.847,-59.570,-31.738,-38.574,-58.594,0.000
1709374125.851,-24.414,-32.715,-34.668,-29.297,0.000
1709374125.855,-11.230,-31.738,-31.738,-10.742,0.000
1709374125.859,-54.688,-33.203,-28.809,-44.434,0.000
1709374125.862,-82.520,-36.133,-27.344,-68.848,0.000
1709374125.866,-68.848,-41.016,-29.785,-55.664,0.000
1709374125.870,-33.203,-44.434,-36.133,-32.715,0.000
1709374125.874,-8.301,-36.621,-35.156,-19.043,0.000
1709374125.878,-37.109,-30.762,-28.809,-40.039,0.000
1709374125.882,-63.477,-29.785,-29.297,-59.082,0.000
1709374125.886,-52.734,-32.227,-34.668,-52.734,0.000
1709374125.890,-23.926,-32.715,-32.715,-26.367,0.000
1709374125.894,-10.254,-35.156,-32.227,-10.742,0.000
1709374125.898,-41.992,-37.598,-37.598,-38.574,0.000
1709374125.902,-63.477,-32.715,-34.668,-49.805,0.000
1709374125.905,-57.129,-36.133,-35.156,-53.223,0.000
1709374125.909,-34.668,-38.574,-35.156,-39.551,0.000
1709374125.913,-8.789,-37.598,-36.133,-9.277,0.000
1709374125.917,-36.133,-33.203,-36.133,-30.762,0.000
1709374125.921,-69.824,-29.785,-33.203,-64.941,0.000
1709374125.925,-64.453,-33.203,-39.062,-62.500,0.000
1709374125.929,-39.062,-35.645,-44.434,-38.086,0.000
1709374125.933,-10.254,-36.621,-43.457,-14.648,0.000
1709374125.937,-25.391,-37.109,-41.016,-23.438,0.000
1709374125.941,-55.664,-34.668,-36.133,-43.945,0.000
1709374125.945,-52.246,-35.645,-31.738,-34.180,0.000
1709374125.948,-33.691,-38.086,-34.668,-18.066,0.000
1709374125.952,-2.930,-35.156,-36.133,1.465,0.000
1709374125.956,-14.648,-35.156,-38.086,-9.766,0.000
1709374125.960,-56.152,-36.621,-36.133,-41.504,0.000
1709374125.964,-62.500,-33.691,-33.203,-53.223,0.000
1709374125.968,-41.504,-34.668,-32.715,-44.434,0.000
1709374125.972,-7.324,-39.551,-33.691,-17.090,0.000
1709374125.976,-14.648,-36.621,-34.668,-19.043,0.000
1709374125.980,-48.828,-34.668,-32.715,-50.781,0.000
1709374125.984,-50.293,-34.180,-30.762,-56.152,0.000
1709374125.988,-31.250,-33.691,-31.738,-35.645,0.000
1709374125.991,0.977,-34.668,-33.203,-2.930,0.000
1709374125.995,0.000,-35.645,-33.691,-5.371,0.000
1709374125.999,-43.945,-34.180,-31.738,-41.504,0.000
1709374126.003,-55.176,-34.668,-30.273,-55.176,0.000
1709374126.007,-35.645,-34.668,-38.086,-41.992,0.000
1709374126.011,2.441,-36.133,-40.039,-14.648,0.000
1709374126.015,9.766,-37.598,-38.574,-11.719,0.000
1709374126.019,-29.785,-30.273,-40.039,-37.598,0.000
1709374126.023,-45.898,-29.297,-37.598,-43.457,0.000
1709374126.026,-31.250,-34.180,-35.645,-37.598,0.000
1709374126.030,1.465,-34.180,-43.457,-15.137,0.000
1709374126.034,13.184,-33.691,-42.480,4.883,0.000
1709374126.038,-27.344,-37.598,-38.086,-26.367,0.000
1709374126.042,-46.875,-40.039,-40.039,-54.199,0.000
1709374126.046,-37.598,-33.203,-36.621,-43.457,0.000
1709374126.050,-8.789,-28.809,-31.738,-18.555,0.000
1709374126.054,13.672,-24.414,-30.762,3.906,0.000
1709374126.058,-23.926,-24.902,-31.738,-25.879,0.000
1709374126.061,-55.664,-30.273,-34.180,-56.641,0.000
1709374126.065,-46.387,-34.180,-39.062,-52.734,0.000
1709374126.069,-17.090,-36.133,-36.621,-32.715,0.000
1709374126.073,1.953,-34.668,-33.203,-10.254,0.000
1709374126.077,-31.738,-35.156,-36.133,-31.738,0.000
1709374126.081,-66.895,-36.621,-34.180,-48.828,0.000
1709374126.085,-57.129,-35.156,-37.598,-50.293,0.000
1709374126.089,-20.996,-32.227,-39.551,-33.691,0.000
1709374126.093,8.789,-33.691,-33.691,-7.324,0.000
1709374126.097,-15.137,-30.762,-33.691,-20.508,0.000
1709374126.100,-52.734,-30.273,-34.668,-38.574,0.000
1709374126.104,-57.129,-32.227,-35.156,-42.480,0.000
1709374126.108,-40.039,-33.691,-38.086,-36.133,0.000
1709374126.112,-14.160,-36.621,-40.527,-15.137,0.000
1709374126.116,-24.414,-30.762,-39.062,-20.508,0.000
1709374126.120,-58.594,-26.367,-38.086,-49.805,0.000
1709374126.124,-62.988,-32.227,-39.551,-50.781,0.000
1709374126.128,-45.410,-37.109,-39.062,-31.250,0.000
1709374126.132,-3.418,-28.809,-39.551,-3.418,0.000
1709374126.135,-6.836,-26.855,-38.574,-10.742,0.000
1709374126.139,-55.664,-31.738,-34.668,-52.246,0.000
1709374126.143,-72.266,-40.527,-34.180,-66.895,0.000
1709374126.147,-52.734,-40.039,-36.133,-51.758,0.000
1709374126.151,-16.113,-38.086,-33.691,-18.066,0.000
1709374126.155,-17.090,-40.039,-28.320,-17.578,0.000
1709374126.159,-55.664,-36.621,-28.320,-60.059,0.000
1709374126.163,-73.730,-36.621,-27.344,-71.777,0.000
1709374126.166,-63.965,-39.551,-34.668,-50.293,0.000
1709374126.170,-20.996,-38.086,-40.039,-18.555,0.000
1709374126.174,-16.113,-37.598,-37.598,-19.043,0.000
1709374126.178,-57.617,-40.527,-33.691,-59.082,0.000
1709374126.182,-68.848,-41.504,-31.250,-66.895,0.000
1709374126.186,-59.082,-42.969,-36.621,-51.270,0.000
1709374126.190,-22.461,-46.875,-38.574,-20.996,0.000
1709374126.194,-7.324,-42.480,-37.598,-7.812,0.000
1709374126.198,-45.898,-38.574,-39.062,-45.410,0.000
1709374126.202,-66.895,-35.645,-38.574,-62.988,0.000
1709374126.206,-57.129,-35.156,-40.039,-51.270,0.000
1709374126.210,-29.297,-42.480,-46.875,-37.598,0.000
1709374126.213,-15.625,-46.875,-45.898,-28.320,0.000
1709374126.217,-49.316,-48.828,-44.434,-48.828,0.000
1709374126.221,-71.777,-41.992,-44.434,-64.453,0.000
1709374126.225,-60.059,-34.668,-45.898,-62.012,0.000
1709374126.229,-25.391,-29.297,-40.527,-28.809,0.000
1709374126.233,-3.906,-29.785,-39.062,-3.906,0.000
1709374126.237,-31.738,-32.227,-40.527,-35.645,0.000
1709374126.241,-59.570,-31.250,-27.344,-50.293,0.000
1709374126.245,-59.570,-35.156,-30.273,-44.434,0.000
1709374126.249,-34.668,-33.203,-42.480,-33.691,0.000
1709374126.253,-6.836,-29.785,-38.574,-7.812,0.000
1709374126.257,-34.180,-32.715,-34.180,-26.855,0.000
1709374126.260,-65.918,-36.621,-36.621,-63.965,0.000
1709374126.264,-58.105,-32.227,-33.691,-58.594,0.000
1709374126.268,-37.598,-30.273,-33.691,-37.109,0.000
1709374126.272,1.465,-29.297,-32.715,-3.418,0.000
1709374126.276,-15.137,-26.855,-33.691,-7.812,0.000
1709374126.280,-65.430,-35.156,-36.621,-51.758,0.000
1709374126.284,-63.965,-32.715,-33.203,-54.199,0.000
1709374126.288,-33.691,-32.715,-30.762,-31.738,0.000
1709374126.292,-1.465,-38.086,-35.645,-11.719,0.000
1709374126.296,-20.508,-36.133,-33.691,-18.066,0.000
1709374126.300,-58.594,-33.203,-27.832,-45.898,0.000
1709374126.303,-62.988,-34.668,-35.156,-54.688,0.000
1709374126.307,-47.363,-36.133,-43.457,-43.457,0.000
1709374126.311,-10.742,-34.668,-43.457,-22.461,0.000
1709374126.315,-18.066,-35.645,-41.992,-28.320,0.000
1709374126.319,-64.941,-34.668,-37.598,-39.062,0.000
1709374126.323,-71.777,-36.621,-37.598,-47.852,0.000
1709374126.327,-48.828,-37.109,-43.945,-45.410,0.000
1709374126.331,-11.230,-38.574,-51.758,-9.766,0.000
1709374126.335,-8.789,-42.480,-52.246,-14.648,0.000
1709374126.339,-47.852,-40.039,-40.527,-49.316,0.000
1709374126.343,-57.129,-38.574,-37.598,-53.223,0.000
1709374126.346,-34.668,-33.203,-41.504,-32.227,0.000
1709374126.350,0.488,-31.738,-41.016,-6.348,0.000
1709374126.354,6.836,-36.133,-41.992,-5.371,0.000
1709374126.358,-32.227,-34.668,-42.480,-36.621,0.000
1709374126.362,-47.852,-32.715,-41.504,-46.387,0.000
1709374126.366,-40.039,-34.180,-39.551,-34.668,0.000
1709374126.370,-12.695,-37.109,-39.062,-19.043,0.000
1709374126.374,3.906,-38.086,-38.086,-6.836,0.000
1709374126.378,-37.109,-34.180,-33.691,-33.203,0.000
1709374126.382,-63.477,-32.715,-35.156,-51.758,0.000
1709374126.385,-49.316,-36.133,-36.133,-38.574,0.000
1709374126.389,-20.020,-39.551,-38.086,-16.602,0.000
1709374126.393,1.953,-35.645,-43.945,-5.859,0.000
1709374126.397,-33.203,-33.203,-42.969,-30.762,0.000
1709374126.401,-62.500,-32.227,-40.527,-55.176,0.000
1709374126.405,-51.758,-31.250,-35.156,-47.852,0.000
1709374126.409,-24.902,-31.738,-30.762,-20.508,0.000
1709374126.413,-1.465,-29.297,-37.109,-1.465,0.000
1709374126.417,-32.227,-30.273,-38.086,-34.668,0.000
1709374126.421,-67.383,-32.715,-37.109,-61.035,0.000
1709374126.424,-64.941,-31.250,-37.109,-56.152,0.000
1709374126.428,-38.086,-32.227,-37.109,-40.039,0.000
1709374126.432,-6.348,-32.715,-39.551,-9.277,0.000
1709374126.436,-20.996,-30.762,-38.574,-16.113,0.000
1709374126.440,-52.734,-32.227,-36.621,-43.457,0.000
1709374126.444,-53.711,-37.109,-39.551,-51.758,0.000
1709374126.448,-22.949,-36.133,-34.668,-31.738,0.000
1709374126.452,10.254,-34.180,-31.738,-2.441,0.000
1709374126.456,-13.184,-32.715,-31.738,-12.695,0.000
1709374126.459,-62.988,-34.180,-32.715,-46.875,0.000
1709374126.463,-67.871,-36.133,-32.715,-58.105,0.000
1709374126.467,-44.922,-39.062,-39.062,-46.875,0.000
1709374126.471,-14.648,-38.086,-37.109,-24.902,0.000
1709374126.475,-23.926,-29.297,-30.762,-32.227,0.000
1709374126.479,-62.500,-26.855,-29.297,-63.965,0.000
1709374126.483,-67.383,-31.738,-29.785,-66.895,0.000
1709374126.487,-52.734,-36.133,-32.715,-52.246,0.000
1709374126.491,-20.020,-37.109,-27.832,-22.461,0.000
1709374126.494,-22.461,-39.062,-34.180,-21.973,0.000
1709374126.498,-62.988,-43.457,-38.574,-45.898,0.000
1709374126.502,-70.312,-46.387,-31.250,-49.316,0.000
1709374126.506,-51.270,-44.434,-31.250,-48.340,0.000
1709374126.510,-15.137,-42.480,-30.273,-20.996,0.000
1709374126.514,-8.789,-39.062,-29.785,-8.301,0.000
1709374126.518,-47.363,-36.621,-30.273,-44.922,0.000
1709374126.522,-66.406,-34.668,-31.250,-56.152,0.000
1709374126.525,-55.664,-34.180,-32.715,-41.504,0.000
1709374126.529,-22.949,-30.762,-28.809,-21.484,0.000
1709374126.533,-12.207,-32.715,-29.785,-11.719,0.000
1709374126.537,-46.387,-39.551,-32.227,-41.016,0.000
1709374126.541,-62.988,-35.645,-29.297,-47.363,0.000
1709374126.545,-49.316,-31.250,-26.855,-27.344,0.000
1709374126.549,-13.184,-34.668,-29.785,-15.625,0.000
1709374126.553,8.301,-37.598,-36.133,-12.207,0.000
1709374126.557,-32.227,-38.086,-39.551,-37.109,0.000
1709374126.561,-62.988,-40.039,-36.621,-45.410,0.000
1709374126.564,-55.664,-43.945,-38.574,-40.039,0.000
1709374126.568,-26.855,-48.340,-44.434,-28.809,0.000
1709374126.572,0.000,-42.969,-43.457,-5.371,0.000
1709374126.576,-32.715,-31.738,-40.039,-28.809,0.000
1709374126.580,-65.918,-31.738,-40.039,-60.059,0.000
1709374126.584,-58.594,-42.969,-41.504,-51.758,0.000
1709374126.588,-31.250,-37.598,-41.992,-30.762,0.000
1709374126.591,-7.812,-30.273,-47.363,-12.207,0.000
1709374126.595,-33.203,-34.180,-47.363,-32.227,0.000
1709374126.599,-58.105,-35.645,-42.969,-62.500,0.000
1709374126.603,-56.152,-35.156,-41.504,-47.852,0.000
1709374126.607,-34.180,-34.180,-41.992,-24.414,0.000
1709374126.611,-1.465,-36.621,-41.504,-10.742,0.000
1709374126.615,-19.531,-39.062,-37.598,-24.414,0.000
1709374126.619,-56.641,-38.086,-32.227,-48.340,0.000
1709374126.623,-61.035,-37.598,-33.691,-50.293,0.000
1709374126.627,-46.387,-37.598,-36.133,-39.551,0.000
1709374126.631,-12.207,-37.109,-33.203,-9.277,0.000
1709374126.635,-10.254,-35.156,-30.273,-5.371,0.000
1709374126.638,-48.340,-32.715,-36.621,-40.039,0.000
1709374126.642,-64.941,-36.133,-39.551,-59.570,0.000
1709374126.646,-47.363,-38.086,-34.180,-43.457,0.000
1709374126.650,-5.371,-37.598,-30.273,-5.859,0.000
1709374126.654,-9.277,-34.668,-28.809,-11.719,0.000
1709374126.658,-56.641,-29.785,-26.367,-48.340,0.000
1709374126.662,-67.871,-30.762,-29.297,-59.082,0.000
1709374126.666,-42.969,-34.668,-43.457,-49.316,0.000
1709374126.670,-1.953,-31.738,-47.363,-19.531,0.000
1709374126.674,3.906,-28.320,-43.457,-10.254,0.000
1709374126.678,-36.621,-36.621,-44.434,-40.527,0.000
1709374126.682,-50.781,-38.086,-36.621,-48.828,0.000
1709374126.685,-41.992,-31.738,-34.668,-36.621,0.000
1709374126.689,-6.836,-35.156,-41.992,-8.301,0.000
1709374126.693,10.742,-34.180,-39.551,3.418,0.000
1709374126.697,-33.691,-29.785,-38.086,-31.250,0.000
1709374126.701,-52.734,-26.855,-36.621,-51.270,0.000
1709374126.705,-33.691,-24.414,-40.527,-42.480,0.000
1709374126.709,4.395,-27.832,-44.434,-20.996,0.000
1709374126.713,16.602,-27.832,-38.574,-14.160,0.000
1709374126.717,-25.391,-24.414,-39.062,-42.969,0.000
1709374126.721,-42.480,-25.879,-40.527,-50.781,0.000
1709374126.725,-35.645,-32.715,-41.504,-43.457,0.000
1709374126.729,-16.602,-41.016,-43.457,-24.414,0.000
1709374126.732,0.488,-38.574,-41.016,-1.953,0.000
1709374126.736,-33.691,-32.715,-38.086,-21.484,0.000
1709374126.740,-67.871,-32.227,-34.180,-33.203,0.000
1709374126.744,-62.988,-33.203,-37.598,-37.598,0.000
1709374126.748,-25.879,-32.227,-39.062,-22.461,0.000
1709374126.752,0.000,-34.668,-35.156,-4.395,0.000
1709374126.756,-31.738,-42.480,-38.574,-32.715,0.000
1709374126.760,-58.594,-38.574,-41.016,-53.711,0.000
1709374126.764,-58.594,-32.227,-38.086,-52.246,0.000
1709374126.768,-33.203,-31.250,-35.156,-44.434,0.000
1709374126.771,-5.859,-36.133,-43.457,-20.508,0.000
1709374126.775,-30.762,-39.062,-40.039,-26.367,0.000
1709374126.779,-62.988,-42.969,-38.574,-52.246,0.000
1709374126.783,-59.570,-42.480,-38.574,-47.852,0.000
1709374126.787,-34.180,-37.109,-33.203,-28.320,0.000
1709374126.791,-7.812,-38.574,-35.156,-13.184,0.000
1709374126.795,-24.902,-37.109,-33.691,-22.461,0.000
1709374126.799,-62.988,-34.668,-32.715,-45.410,0.000
1709374126.803,-67.383,-35.156,-35.156,-49.316,0.000
1709374126.807,-44.434,-37.109,-38.574,-33.203,0.000
1709374126.811,-11.719,-39.062,-40.039,-9.766,0.000
1709374126.814,-13.184,-37.598,-41.016,-18.066,0.000
1709374126.818,-56.641,-32.715,-40.527,-51.758,0.000
1709374126.822,-77.148,-33.203,-44.434,-62.988,0.000
1709374126.826,-56.641,-35.156,-42.480,-43.457,0.000
1709374126.830,-19.531,-30.273,-39.062,-8.301,0.000
1709374126.834,-20.508,-30.762,-42.480,-20.508,0.000
1709374126.838,-61.035,-32.715,-40.039,-57.617,0.000
1709374126.842,-64.941,-31.250,-32.227,-61.035,0.000
1709374126.846,-41.504,-32.715,-29.785,-45.410,0.000
1709374126.849,-10.254,-33.691,-34.180,-24.414,0.000
1709374126.853,-4.883,-36.133,-35.645,-15.625,0.000
1709374126.857,-43.457,-31.250,-36.133,-41.992,0.000
1709374126.861,-58.594,-27.832,-37.109,-58.105,0.000
1709374126.865,-46.387,-31.250,-33.203,-47.363,0.000
1709374126.869,-7.324,-31.250,-32.715,-17.090,0.000
1709374126.873,9.766,-31.250,-28.809,-0.977,0.000
1709374126.877,-31.250,-36.133,-28.320,-37.109,0.000
1709374126.881,-53.223,-40.039,-38.574,-58.105,0.000
1709374126.885,-45.898,-39.062,-35.645,-44.434,0.000
1709374126.888,-14.648,-37.109,-29.785,-17.090,0.000
1709374126.892,1.953,-37.109,-33.691,-2.930,0.000
1709374126.896,-39.551,-34.668,-36.133,-31.738,0.000
1709374126.900,-67.383,-32.715,-36.621,-53.711,0.000
1709374126.904,-60.059,-37.109,-40.039,-52.734,0.000
1709374126.908,-33.691,-36.621,-41.504,-26.367,0.000
1709374126.912,-15.137,-35.156,-36.133,-6.348,0.000
1709374126.916,-42.480,-34.180,-30.273,-33.691,0.000
1709374126.920,-66.895,-32.715,-32.227,-49.316,0.000
1709374126.923,-56.641,-34.668,-36.133,-52.734,0.000
1709374126.927,-38.086,-38.574,-40.527,-43.945,0.000
1709374126.931,-13.672,-41.992,-40.039,-21.973,0.000
1709374126.935,-29.785,-42.480,-40.039,-45.410,0.000
1709374126.939,-68.848,-37.109,-36.133,-73.242,0.000
1709374126.943,-69.336,-35.645,-31.250,-70.801,0.000
1709374126.947,-43.945,-40.527,-38.574,-49.316,0.000
1709374126.950,-18.066,-40.527,-43.945,-27.344,0.000
1709374126.954,-30.273,-38.574,-39.062,-43.945,0.000
1709374126.958,-56.641,-35.156,-32.715,-62.988,0.000
1709374126.962,-54.688,-37.109,-33.691,-55.664,0.000
1709374126.966,-41.504,-43.945,-36.621,-45.410,0.000
1709374126.970,-7.812,-49.805,-40.527,-28.320,0.000
1709374126.974,-23.438,-47.363,-43.945,-46.387,0.000
1709374126.978,-70.312,-39.062,-41.992,-77.637,0.000
1709374126.982,-69.336,-35.156,-36.621,-66.406,0.000
1709374126.986,-42.480,-33.203,-34.180,-48.340,0.000
1709374126.990,-9.277,-35.156,-33.691,-22.949,0.000
1709374126.994,-14.648,-44.434,-35.645,-20.020,0.000
1709374126.998,-54.199,-47.363,-34.668,-44.434,0.000
1709374127.001,-62.988,-47.852,-34.180,-48.340,0.000
1709374127.005,-55.664,-50.781,-35.156,-38.574,0.000
1709374127.009,-16.113,-43.457,-32.715,-7.812,0.000
1709374127.013,-5.859,-35.645,-33.203,-2.441,0.000
1709374127.017,-57.129,-35.156,-35.645,-41.016,0.000
1709374127.021,-68.359,-40.039,-34.180,-52.246,0.000
1709374127.025,-50.293,-42.480,-32.227,-35.645,0.000
1709374127.029,-16.602,-35.156,-35.645,-13.184,0.000
1709374127.033,-14.160,-36.621,-37.598,-5.859,0.000
1709374127.037,0.000,-42.480,-35.645,0.000,0.000
1709374127.041,0.000,-40.527,-33.691,0.000,0.000
1709374127.045,0.000,-39.062,-33.691,0.000,0.000
1709374127.049,0.000,-38.574,-29.297,0.000,0.000
1709374127.053,0.000,-36.621,-28.320,0.000,0.000
1709374127.057,0.000,-37.109,-31.250,0.000,0.000
1709374127.061,0.000,-39.062,-32.715,0.000,0.000
1709374127.065,0.000,-42.480,-37.598,0.000,0.000
1709374127.068,0.000,-42.480,-39.551,0.000,0.000
1709374127.072,0.000,-36.133,-40.039,0.000,0.000
1709374127.076,0.000,-33.691,-36.621,0.000,0.000
1709374127.080,0.000,-32.227,-34.180,0.000,0.000
1709374127.084,-38.086,-32.715,-35.645,-50.293,0.000
1709374127.088,-14.648,-34.180,-34.180,-37.109,0.000
1709374127.092,12.207,-31.250,-37.109,-15.625,0.000
1709374127.096,-7.812,-30.762,-34.668,-22.949,0.000
1709374127.100,-40.527,-30.273,-28.320,-40.527,0.000
1709374127.104,-36.621,-30.273,-34.180,-44.434,0.000
1709374127.107,-18.555,-34.180,-41.016,-30.273,0.000
1709374127.111,10.742,-31.250,-34.180,5.371,0.000
1709374127.115,-11.719,-28.809,-28.809,-4.883,0.000
1709374127.119,-49.316,-31.738,-32.227,-39.062,0.000
1709374127.123,-48.828,-31.738,-30.273,-40.527,0.000
1709374127.127,-25.879,-27.832,-27.344,-22.949,0.000
1709374127.131,7.812,-28.320,-36.621,-7.324,0.000
1709374127.135,-11.230,-35.645,-41.992,-21.973,0.000
1709374127.139,-41.992,-36.133,-34.668,-42.480,0.000
1709374127.143,-40.039,-33.691,-34.668,-40.039,0.000
1709374127.147,-30.273,-42.480,-40.039,-21.484,0.000
1709374127.150,1.465,-45.898,-37.109,0.000,0.000
1709374127.154,-4.395,-35.645,-34.668,-12.207,0.000
1709374127.158,-47.363,-33.691,-35.156,-39.062,0.000
1709374127.162,-56.641,-36.133,-39.062,-41.992,0.000
1709374127.166,-41.504,-39.551,-36.621,-36.621,0.000
1709374127.170,-6.348,-41.992,-35.156,-10.742,0.000
1709374127.174,-6.348,-37.109,-36.621,-8.789,0.000
1709374127.178,-47.852,-34.180,-34.668,-35.645,0.000
1709374127.182,-66.406,-38.574,-36.621,-50.293,0.000
1709374127.185,-49.316,-41.016,-38.086,-42.480,0.000
1709374127.189,-8.301,-42.969,-45.898,-9.766,0.000
1709374127.193,-7.812,-41.504,-45.898,-2.930,0.000
1709374127.197,-44.434,-39.062,-38.574,-38.574,0.000
1709374127.201,-63.965,-36.133,-43.457,-49.316,0.000
1709374127.205,-57.617,-30.762,-45.410,-37.109,0.000
1709374127.209,-28.320,-35.156,-43.457,-25.879,0.000
1709374127.213,-17.578,-41.992,-47.852,-16.113,0.000
1709374127.217,-51.758,-41.992,-47.363,-42.480,0.000
1709374127.221,-71.777,-41.504,-43.945,-62.500,0.000
1709374127.224,-58.105,-38.086,-39.551,-54.199,0.000
1709374127.228,-31.738,-42.480,-42.480,-32.715,0.000
1709374127.232,-15.625,-44.922,-44.434,-16.602,0.000
1709374127.236,-40.039,-40.527,-40.527,-42.480,0.000
1709374127.240,-62.500,-39.062,-38.574,-57.617,0.000
1709374127.244,-61.523,-41.016,-35.156,-49.805,0.000
1709374127.248,-30.273,-41.504,-33.203,-24.902,0.000
1709374127.252,-5.371,-41.016,-35.156,-4.883,0.000
1709374127.256,-41.992,-39.551,-41.504,-41.504,0.000
1709374127.259,-71.289,-42.969,-43.945,-69.824,0.000
1709374127.263,-62.012,-45.898,-44.922,-61.035,0.000
1709374127.267,-35.645,-41.992,-43.457,-41.992,0.000
1709374127.271,-11.230,-43.457,-41.992,-17.578,0.000
1709374127.275,-33.203,-48.340,-43.945,-36.133,0.000
1709374127.279,-64.941,-44.922,-39.062,-62.012,0.000
1709374127.283,-61.523,-43.945,-39.551,-62.988,0.000
1709374127.287,-35.645,-47.852,-47.852,-40.527,0.000
1709374127.291,-1.953,-45.410,-49.805,-7.812,0.000
1709374127.295,-14.160,-37.109,-42.480,-12.695,0.000
1709374127.298,-52.734,-40.527,-39.551,-38.574,0.000
1709374127.302,-59.570,-38.574,-36.133,-42.969,0.000
1709374127.306,-42.480,-31.738,-35.156,-32.715,0.000
1709374127.310,-13.672,-37.598,-40.039,-5.859,0.000
1709374127.314,-19.043,-35.156,-36.621,-9.277,0.000
1709374127.318,-54.199,-37.598,-39.551,-43.945,0.000
1709374127.322,-64.941,-40.527,-39.062,-53.711,0.000
1709374127.325,-48.340,-38.086,-41.504,-38.574,0.000
1709374127.329,-14.160,-38.574,-42.969,-9.766,0.000
1709374127.333,-14.648,-38.086,-37.109,-12.695,0.000
1709374127.337,-54.688,-34.180,-31.738,-34.180,0.000
1709374127.341,-64.453,-34.668,-33.691,-42.480,0.000
1709374127.345,-41.992,-35.645,-31.738,-41.016,0.000
1709374127.349,-12.695,-34.668,-30.762,-15.625,0.000
1709374127.353,-17.578,-33.203,-32.715,-9.277,0.000
1709374127.357,-47.363,-31.250,-36.133,-44.434,0.000
1709374127.361,-61.523,-29.297,-37.109,-61.523,0.000
1709374127.365,-58.105,-34.668,-37.109,-46.875,0.000
1709374127.369,-25.879,-37.598,-37.598,-20.020,0.000
1709374127.373,-12.695,-37.109,-35.156,-14.160,0.000
1709374127.376,-47.363,-36.133,-32.715,-44.434,0.000
1709374127.380,-64.453,-34.180,-37.598,-66.895,0.000
1709374127.384,-56.152,-35.156,-39.062,-63.965,0.000
1709374127.388,-27.832,-41.016,-38.574,-32.227,0.000
1709374127.392,-12.695,-43.457,-45.410,-15.137,0.000
1709374127.396,-43.945,-36.133,-41.992,-38.574,0.000
1709374127.400,-70.312,-36.133,-39.062,-56.152,0.000
1709374127.404,-64.941,-39.062,-42.969,-58.594,0.000
1709374127.408,-32.715,-37.109,-39.551,-36.133,0.000
1709374127.412,-10.742,-37.598,-36.621,-13.184,0.000
1709374127.416,-39.551,-36.133,-35.645,-37.598,0.000
1709374127.420,-70.312,-36.133,-34.668,-68.848,0.000
1709374127.423,-67.383,-36.133,-39.062,-68.359,0.000
1709374127.427,-35.645,-32.715,-35.645,-41.504,0.000
1709374127.431,-1.953,-29.297,-35.645,-19.531,0.000
1709374127.435,-29.785,-31.738,-40.527,-41.992,0.000
1709374127.439,-71.289,-37.109,-36.621,-64.453,0.000
1709374127.443,-66.406,-36.621,-35.645,-53.711,0.000
1709374127.447,-39.551,-32.715,-38.574,-37.598,0.000
1709374127.451,-12.207,-38.086,-39.062,-23.438,0.000
1709374127.455,-25.879,-41.504,-38.086,-39.062,0.000
1709374127.459,-59.082,-36.621,-32.715,-62.500,0.000
1709374127.462,-63.477,-34.180,-29.297,-66.406,0.000
1709374127.466,-43.457,-36.133,-32.227,-51.758,0.000
1709374127.470,-11.719,-32.715,-37.598,-21.973,0.000
1709374127.474,-21.973,-31.250,-38.086,-34.668,0.000
1709374127.478,-62.012,-32.227,-37.598,-68.359,0.000
1709374127.482,-66.895,-28.809,-37.598,-70.801,0.000
1709374127.486,-51.270,-26.855,-34.668,-55.664,0.000
1709374127.490,-16.602,-24.902,-33.691,-15.137,0.000
1709374127.494,-15.625,-28.809,-32.715,-19.531,0.000
1709374127.498,-59.082,-32.715,-32.227,-62.500,0.000
1709374127.502,-67.871,-29.297,-33.691,-62.988,0.000
1709374127.505,-55.176,-31.250,-42.969,-56.152,0.000
1709374127.509,-19.531,-39.551,-52.734,-35.156,0.000
1709374127.513,-20.508,-39.062,-51.758,-32.715,0.000
1709374127.517,-60.059,-37.598,-44.922,-57.129,0.000
1709374127.521,-74.219,-44.434,-37.109,-60.059,0.000
1709374127.525,-66.895,-46.387,-39.551,-48.828,0.000
1709374127.529,-18.555,-36.133,-41.016,-20.020,0.000
1709374127.533,-4.395,-34.180,-41.504,-7.324,0.000
1709374127.537,-47.363,-39.551,-40.527,-36.621,0.000
1709374127.541,-61.523,-34.668,-28.320,-51.758,0.000
1709374127.544,-45.410,-35.645,-29.785,-44.434,0.000
1709374127.548,-10.742,-39.062,-41.504,-15.625,0.000
1709374127.552,3.906,-36.621,-38.086,-1.465,0.000
1709374127.556,-39.062,-37.598,-38.574,-36.133,0.000
1709374127.560,-60.547,-39.551,-47.363,-62.988,0.000
1709374127.564,-46.387,-37.598,-44.434,-53.711,0.000
1709374127.568,-15.625,-33.691,-38.086,-22.949,0.000
1709374127.572,3.906,-36.621,-41.016,-6.836,0.000
1709374127.576,-16.602,-34.668,-41.504,-20.996,0.000
1709374127.580,-47.852,-37.598,-36.133,-33.691,0.000
1709374127.583,-64.453,-38.574,-38.574,-49.805,0.000
1709374127.587,-34.668,-34.180,-40.039,-34.668,0.000
1709374127.591,0.000,-38.574,-36.621,-10.742,0.000
1709374127.595,-30.273,-39.551,-38.574,-33.203,0.000
1709374127.599,-63.477,-43.457,-35.645,-60.547,0.000
1709374127.603,-60.547,-47.363,-33.203,-54.688,0.000
1709374127.607,-38.086,-46.387,-34.668,-33.203,0.000
1709374127.611,-2.441,-41.504,-35.156,-11.719,0.000
1709374127.614,-22.461,-45.410,-35.156,-27.344,0.000
1709374127.618,-60.059,-46.387,-32.227,-53.223,0.000
1709374127.622,-48.828,-34.180,-34.180,-43.945,0.000
1709374127.626,-12.207,-30.762,-38.086,-22.949,0.000
1709374127.630,19.043,-35.156,-39.062,-9.277,0.000
1709374127.634,5.859,-38.086,-33.203,-23.926,0.000
1709374127.638,-31.250,-37.598,-28.320,-51.758,0.000
1709374127.642,-43.457,-37.109,-35.156,-60.059,0.000
1709374127.646,-20.508,-37.598,-37.109,-42.480,0.000
1709374127.649,14.160,-39.062,-35.156,-7.324,0.000
1709374127.653,-4.883,-39.062,-35.645,-14.160,0.000
1709374127.657,-48.340,-35.645,-35.156,-43.457,0.000
1709374127.661,-57.617,-34.668,-35.645,-51.270,0.000
1709374127.665,-43.457,-33.691,-37.598,-41.016,0.000
1709374127.669,-5.371,-28.320,-32.227,2.930,0.000
1709374127.673,-2.930,-28.320,-29.297,5.371,0.000
1709374127.677,-44.922,-28.809,-29.297,-33.691,0.000
1709374127.681,-58.105,-30.273,-26.367,-37.109,0.000
1709374127.685,-45.898,-35.645,-29.297,-23.926,0.000
1709374127.688,-14.160,-40.039,-31.250,0.488,0.000
1709374127.693,-12.207,-41.992,-25.879,0.977,0.000
1709374127.697,-54.688,-41.504,-26.367,-34.668,0.000
1709374127.700,-64.453,-35.645,-31.738,-43.457,0.000
1709374127.704,-51.758,-36.621,-29.297,-33.691,0.000
1709374127.708,-17.090,-42.969,-32.227,-14.648,0.000
1709374127.712,-0.488,-39.062,-31.250,0.488,0.000
1709374127.716,-38.086,-35.645,-26.855,-30.273,0.000
1709374127.720,-61.035,-35.645,-32.715,-63.477,0.000
1709374127.724,-45.410,-32.227,-32.227,-55.664,0.000
1709374127.728,-8.301,-27.344,-28.809,-18.555,0.000
1709374127.732,4.883,-24.902,-34.180,-9.766,0.000
1709374127.736,-29.297,-23.438,-36.133,-42.480,0.000
1709374127.740,-50.781,-22.949,-34.668,-58.105,0.000
1709374127.744,-44.434,-24.902,-29.297,-52.734,0.000
1709374127.747,-26.367,-29.785,-32.715,-33.691,0.000
1709374127.751,-3.418,-32.715,-36.133,-14.160,0.000
1709374127.755,-28.809,-29.297,-33.691,-39.062,0.000
1709374127.759,-62.500,-36.621,-38.574,-57.129,0.000
1709374127.763,-57.129,-42.480,-36.621,-42.969,0.000
1709374127.767,-31.250,-41.016,-35.156,-26.855,0.000
1709374127.771,-0.488,-48.340,-39.062,-7.324,0.000
1709374127.775,-24.414,-51.270,-33.691,-14.160,0.000
1709374127.779,-65.918,-40.527,-38.574,-51.270,0.000
1709374127.783,-59.082,-33.691,-41.016,-54.199,0.000
1709374127.787,-27.832,-31.250,-35.645,-23.926,0.000
1709374127.791,-0.977,-30.762,-36.133,-2.441,0.000
1709374127.794,-20.508,-33.203,-36.133,-20.508,0.000
1709374127.798,-57.129,-31.250,-33.203,-48.340,0.000
1709374127.802,-60.547,-32.715,-33.203,-51.270,0.000
1709374127.806,-38.086,-37.598,-38.086,-37.598,0.000
1709374127.810,-6.836,-39.062,-39.062,-18.066,0.000
1709374127.814,-14.648,-39.062,-37.598,-31.250,0.000
1709374127.818,-55.176,-40.527,-35.156,-52.246,0.000
1709374127.822,-70.312,-41.016,-32.227,-55.176,0.000
1709374127.826,-47.852,-40.527,-31.250,-49.805,0.000
1709374127.830,-6.836,-37.109,-33.203,-19.043,0.000
1709374127.834,-9.277,-36.621,-32.227,-14.648,0.000
1709374127.837,-50.293,-39.551,-33.203,-54.688,0.000
1709374127.841,-57.129,-41.504,-39.062,-61.035,0.000
1709374127.845,-33.691,-43.945,-41.016,-41.504,0.000
1709374127.849,0.977,-42.480,-41.016,-16.113,0.000
1709374127.853,1.953,-37.109,-38.574,-9.277,0.000
1709374127.857,-41.016,-37.109,-38.574,-43.945,0.000
1709374127.861,-59.570,-34.668,-42.480,-61.035,0.000
1709374127.865,-41.992,-32.715,-38.086,-42.969,0.000
1709374127.869,-6.348,-34.668,-33.691,-13.184,0.000
1709374127.873,-0.488,-34.180,-38.086,-12.695,0.000
1709374127.876,-45.898,-38.574,-41.016,-47.852,0.000
1709374127.880,0.000,-42.969,-43.945,-56.641,0.000
1709374127.884,0.000,-38.086,-38.574,-42.969,0.000
1709374127.888,0.000,-35.156,-34.180,-22.461,0.000
1709374127.892,0.000,-36.621,-37.109,-16.113,0.000
1709374127.896,0.000,-32.227,-33.203,-41.992,0.000
1709374127.900,0.000,-32.715,-29.297,-56.152,0.000
1709374127.904,0.000,-37.109,-26.367,-51.270,0.000
1709374127.908,0.000,-35.156,-25.879,-16.602,0.000
1709374127.912,0.000,-36.621,-35.645,-0.488,0.000
1709374127.916,0.000,-40.527,-39.551,-41.504,0.000
1709374127.919,0.000,-40.039,-33.203,-60.059,0.000
1709374127.923,0.000,-40.039,-30.273,-47.852,0.000
1709374127.927,-27.344,-40.039,-32.715,-24.414,0.000
1709374127.931,1.953,-38.086,-26.855,6.836,0.000
1709374127.935,-30.273,-42.480,-24.902,-16.113,0.000
1709374127.939,-67.871,-45.410,-30.762,-45.898,0.000
1709374127.943,-64.941,-43.945,-32.715,-42.480,0.000
1709374127.947,-34.668,-42.480,-35.645,-27.344,0.000
1709374127.951,-5.371,-39.062,-38.086,0.977,0.000
1709374127.954,-33.691,-34.180,-31.738,-9.766,0.000
1709374127.958,-69.824,-34.668,-33.691,-48.340,0.000
1709374127.962,-65.918,-42.480,-38.574,-61.523,0.000
1709374127.966,-39.551,-41.992,-34.668,-43.457,0.000
1709374127.970,-6.836,-41.504,-32.227,-19.043,0.000
1709374127.974,-21.973,-38.574,-36.133,-35.156,0.000
1709374127.978,-64.453,-38.086,-42.480,-58.594,0.000
1709374127.982,-69.336,-36.133,-40.039,-56.641,0.000
1709374127.986,-43.457,-32.227,-40.527,-42.480,0.000
1709374127.989,-6.348,-36.621,-39.551,-17.578,0.000
1709374127.993,-13.672,-37.109,-36.621,-25.879,0.000
1709374127.997,-59.570,-37.598,-38.574,-52.246,0.000
1709374128.001,-74.707,-41.992,-43.457,-60.547,0.000
1709374128.005,-46.875,-39.551,-41.504,-50.781,0.000
1709374128.009,-6.836,-36.621,-38.086,-11.719,0.000
1709374128.013,-10.254,-38.574,-40.527,-10.254,0.000
1709374128.017,-52.734,-34.668,-38.574,-44.434,0.000
1709374128.020,-61.523,-31.738,-38.574,-48.340,0.000
1709374128.024,-41.016,-31.738,-39.062,-41.504,0.000
1709374128.028,-7.324,-29.785,-37.598,-18.066,0.000
1709374128.032,-3.906,-30.273,-40.527,-7.324,0.000
1709374128.036,-49.316,-37.598,-41.016,-46.875,0.000
1709374128.040,-64.453,-34.180,-34.180,-52.734,0.000
1709374128.044,-45.898,-33.203,-33.691,-30.273,0.000
1709374128.048,-17.578,-41.016,-38.574,-16.602,0.000
1709374128.052,-8.301,-37.109,-39.551,-16.602,0.000
1709374128.056,-43.945,-33.203,-41.016,-52.246,0.000
1709374128.060,-63.965,-33.203,-36.621,-66.406,0.000
1709374128.063,-50.781,-27.832,-34.668,-50.781,0.000
1709374128.068,-21.484,-32.227,-39.551,-30.273,0.000
1709374128.071,-7.812,-36.133,-36.621,-19.043,0.000
1709374128.075,-39.551,-30.762,-34.668,-44.922,0.000
1709374128.079,-64.453,-34.668,-33.203,-66.406,0.000
1709374128.083,-53.223,-39.062,-33.691,-62.012,0.000
1709374128.087,-24.902,-36.621,-37.109,-37.598,0.000
1709374128.091,-4.883,-34.180,-36.133,-16.113,0.000
1709374128.095,-28.809,-33.203,-36.621,-38.086,0.000
1709374128.099,-64.453,-36.133,-41.016,-57.129,0.000
1709374128.103,-65.430,-35.156,-40.527,-50.293,0.000
1709374128.107,-41.016,-33.691,-37.598,-36.133,0.000
1709374128.111,-9.277,-35.645,-38.086,-16.602,0.000
1709374128.115,-28.320,-35.645,-38.086,-34.180,0.000
1709374128.119,-64.941,-35.645,-41.016,-64.453,0.000
1709374128.122,-65.430,-38.574,-42.969,-64.941,0.000
1709374128.126,-41.016,-39.551,-39.551,-45.410,0.000
1709374128.130,-7.324,-39.551,-39.551,-21.973,0.000
1709374128.134,-24.902,-40.527,-41.992,-31.250,0.000
1709374128.138,-60.059,-41.504,-42.969,-57.617,0.000
1709374128.142,-58.105,-40.527,-40.527,-62.500,0.000
1709374128.146,-34.180,-36.133,-39.551,-36.621,0.000
1709374128.150,1.465,-30.273,-37.598,5.859,0.000
1709374128.154,-11.230,-31.250,-32.715,-10.742,0.000
1709374128.158,-50.781,-30.273,-28.809,-43.457,0.000
1709374128.162,0.000,-26.367,-22.949,-43.945,0.000
1709374128.166,0.000,-27.344,-25.391,-35.156,0.000
1709374128.169,0.000,-33.203,-35.156,-6.836,0.000
1709374128.173,0.000,-34.668,-31.250,-8.301,0.000
1709374128.177,0.000,-32.715,-31.250,-42.480,0.000
1709374128.181,0.000,-33.691,-33.203,-60.547,0.000
1709374128.185,0.000,-34.668,-31.738,-55.176,0.000
1709374128.189,0.000,-34.180,-34.180,-18.066,0.000
1709374128.193,0.000,-36.621,-29.297,-3.418,0.000
1709374128.197,0.000,-37.109,-29.785,-36.621,0.000
1709374128.201,0.000,-36.133,-29.785,-50.781,0.000
1709374128.205,0.000,-38.574,-29.297,-38.086,0.000
1709374128.208,-5.859,-41.504,-34.180,-13.672,0.000
1709374128.212,0.000,-33.203,-37.109,-4.883,0.000
1709374128.216,-39.551,-27.344,-38.086,-38.086,0.000
1709374128.220,-55.176,-24.414,-34.668,-50.781,0.000
1709374128.224,-44.434,-21.973,-35.156,-43.457,0.000
1709374128.228,-15.137,-29.785,-41.016,-24.902,0.000
1709374128.232,-3.418,-35.156,-41.992,-15.137,0.000
1709374128.236,-44.922,-35.645,-41.016,-33.691,0.000
1709374128.240,-68.359,-34.180,-35.645,-35.156,0.000
1709374128.244,-57.617,-32.715,-31.738,-40.527,0.000
1709374128.248,-22.461,-29.785,-33.203,-25.391,0.000
1709374128.251,3.418,-30.762,-34.180,0.977,0.000
1709374128.255,-36.621,-39.062,-39.062,-32.227,0.000
1709374128.259,-63.965,-36.621,-43.457,-59.082,0.000
1709374128.263,-51.270,-30.273,-41.504,-46.875,0.000
1709374128.267,-22.949,-28.809,-38.574,-22.949,0.000
1709374128.271,-0.488,-30.762,-39.551,-8.789,0.000
1709374128.275,-35.645,-32.227,-41.992,-37.109,0.000
1709374128.279,-62.500,-31.738,-38.086,-58.594,0.000
1709374128.283,-55.176,-33.691,-37.598,-44.922,0.000
1709374128.287,-30.762,-31.738,-37.598,-20.508,0.000
1709374128.290,-0.977,-30.762,-36.621,-1.465,0.000
1709374128.294,-23.438,-34.668,-36.133,-23.926,0.000
1709374128.298,-53.711,-35.645,-35.645,-54.199,0.000
1709374128.302,-53.711,-32.227,-33.691,-48.828,0.000
1709374128.306,-36.621,-32.227,-28.320,-26.855,0.000
1709374128.310,-1.953,-36.621,-23.926,2.441,0.000
1709374128.314,-13.184,-35.645,-22.949,-12.695,0.000
1709374128.318,-51.758,-32.715,-28.320,-46.387,0.000
1709374128.322,-49.316,-30.273,-33.203,-44.434,0.000
1709374128.326,-25.879,-31.738,-30.762,-28.320,0.000
1709374128.329,9.277,-32.715,-34.180,8.301,0.000
1709374128.333,3.418,-31.738,-37.109,-2.930,0.000
1709374128.337,-40.039,-32.715,-41.016,-41.992,0.000
1709374128.341,-53.711,-32.227,-42.480,-49.805,0.000
1709374128.345,-34.668,-33.203,-41.504,-44.434,0.000
1709374128.349,7.324,-31.250,-39.062,-16.602,0.000
1709374128.353,4.395,-34.180,-39.062,-16.113,0.000
1709374128.357,-39.551,-36.133,-38.086,-52.734,0.000
1709374128.361,-53.711,-35.156,-39.551,-58.105,0.000
1709374128.364,-39.062,-36.621,-40.039,-41.504,0.000
1709374128.368,-9.766,-37.109,-37.598,-18.555,0.000
1709374128.372,-11.230,-35.156,-35.645,-14.648,0.000
1709374128.376,-49.316,-40.527,-37.598,-41.016,0.000
1709374128.380,-66.406,-43.945,-39.062,-62.012,0.000
1709374128.384,-54.199,-40.527,-37.109,-58.105,0.000
1709374128.388,-20.508,-40.039,-38.086,-34.180,0.000
1709374128.392,-7.812,-46.387,-40.527,-27.832,0.000
1709374128.395,-51.270,-40.527,-42.480,-53.223,0.000
1709374128.399,-74.219,-34.180,-41.992,-63.965,0.000
1709374128.403,-56.641,-37.109,-40.527,-51.758,0.000
1709374128.407,-19.043,-37.109,-41.016,-24.414,0.000
1709374128.411,-1.953,-29.785,-40.527,-6.348,0.000
1709374128.415,-38.574,-28.809,-33.203,-30.273,0.000
1709374128.419,-62.012,-32.715,-29.785,-44.922,0.000
1709374128.423,-50.293,-33.691,-36.133,-40.527,0.000
1709374128.427,-18.555,-38.574,-40.039,-22.949,0.000
1709374128.431,2.930,-40.527,-39.551,0.977,0.000
1709374128.435,-28.320,-38.086,-36.621,-25.879,0.000
1709374128.438,-51.758,-37.109,-31.738,-46.387,0.000
1709374128.442,-45.898,-33.691,-32.227,-38.574,0.000
1709374128.446,-18.066,-29.785,-34.180,-22.461,0.000
1709374128.450,8.301,-32.227,-32.227,-2.441,0.000
1709374128.454,-22.949,-36.133,-31.250,-26.855,0.000
1709374128.458,-56.641,-35.156,-29.297,-57.129,0.000
1709374128.462,-50.293,-35.156,-31.250,-54.199,0.000
1709374128.465,-25.391,-34.180,-35.645,-31.738,0.000
1709374128.469,0.977,-30.273,-34.668,-5.859,0.000
1709374128.473,-22.461,-28.320,-32.227,-20.020,0.000
1709374128.477,-57.617,-27.344,-30.762,-45.898,0.000
1709374128.481,-62.012,-29.297,-29.297,-44.922,0.000
1709374128.485,-41.504,-32.227,-31.250,-35.156,0.000
1709374128.489,-0.488,-30.762,-32.715,-19.531,0.000
1709374128.493,-17.090,-34.668,-30.762,-30.762,0.000
1709374128.497,-59.570,-39.062,-25.879,-61.035,0.000
1709374128.501,-62.988,-38.086,-33.691,-70.801,0.000
1709374128.505,-43.945,-37.109,-43.457,-56.152,0.000
1709374128.509,-5.859,-35.645,-35.645,-19.531,0.000
1709374128.513,-6.348,-34.668,-35.645,-16.113,0.000
1709374128.516,-51.270,-38.574,-42.969,-50.781,0.000
1709374128.520,-60.059,-37.598,-42.969,-62.988,0.000
1709374128.524,-30.762,-35.645,-38.574,-42.480,0.000
1709374128.528,4.883,-34.668,-38.086,-16.602,0.000
1709374128.532,0.000,-34.668,-42.969,-19.043,0.000
1709374128.536,-40.527,-32.227,-34.668,-44.434,0.000
1709374128.540,-60.059,-32.715,-35.156,-49.805,0.000
1709374128.544,-50.781,-35.645,-38.574,-41.992,0.000
1709374128.548,-22.949,-39.551,-37.109,-20.020,0.000
1709374128.552,-10.254,-40.039,-38.574,-14.648,0.000
1709374128.556,-43.457,-32.227,-34.180,-45.410,0.000
1709374128.560,-67.871,-28.320,-35.645,-60.059,0.000
1709374128.563,-59.082,-30.273,-40.039,-53.711,0.000
1709374128.567,-24.414,-33.203,-34.668,-24.414,0.000
1709374128.571,-11.230,-34.668,-36.133,-11.230,0.000
1709374128.575,-53.711,-36.133,-35.156,-50.781,0.000
1709374128.579,-69.824,-35.645,-39.062,-65.430,0.000
1709374128.583,-51.270,-30.762,-38.086,-48.828,0.000
1709374128.587,-23.438,-35.156,-37.598,-27.832,0.000
1709374128.591,-9.766,-39.062,-37.109,-10.742,0.000
1709374128.595,-42.480,-34.668,-29.785,-32.227,0.000
1709374128.599,-61.035,-28.809,-30.273,-53.223,0.000
1709374128.603,-50.293,-25.391,-31.738,-44.434,0.000
1709374128.606,-29.785,-29.297,-29.785,-23.926,0.000
1709374128.610,-2.441,-30.273,-28.809,-2.930,0.000
1709374128.614,-29.297,-26.367,-23.926,-10.742,0.000
1709374128.618,-67.383,-27.344,-27.832,-47.363,0.000
1709374128.622,-52.734,-28.809,-36.621,-52.246,0.000
1709374128.626,-23.926,-30.762,-39.062,-29.785,0.000
1709374128.630,0.488,-35.156,-38.086,-5.859,0.000
1709374128.634,-24.414,-36.133,-40.039,-25.879,0.000
1709374128.638,-60.547,-36.133,-42.969,-63.477,0.000
1709374128.642,-60.547,-35.156,-41.016,-57.617,0.000
1709374128.645,-42.969,-35.645,-41.016,-36.621,0.000
1709374128.649,-6.836,-38.574,-41.504,-12.695,0.000
1709374128.653,-20.508,-41.016,-44.434,-22.461,0.000
1709374128.657,-54.199,-37.598,-43.457,-41.504,0.000
1709374128.661,-61.523,-39.062,-41.992,-37.598,0.000
1709374128.665,-44.922,-45.410,-44.922,-37.598,0.000
1709374128.669,-2.930,-45.898,-47.852,-13.184,0.000
1709374128.673,-17.090,-39.551,-45.898,-22.461,0.000
1709374128.677,-66.406,-41.504,-43.945,-67.383,0.000
1709374128.681,-75.684,-41.016,-41.016,-72.754,0.000
1709374128.684,-55.176,-39.551,-45.898,-52.246,0.000
1709374128.688,-15.137,-42.480,-46.387,-27.832,0.000
1709374128.692,-13.672,-38.086,-39.551,-28.320,0.000
1709374128.696,-47.852,-35.156,-37.598,-50.781,0.000
1709374128.700,-60.059,-36.621,-41.504,-56.641,0.000
1709374128.704,-49.805,-40.527,-41.992,-41.992,0.000
1709374128.708,-17.578,-43.457,-35.645,-19.531,0.000
1709374128.712,-9.277,-41.016,-30.762,-19.043,0.000
1709374128.716,-46.875,-39.551,-31.250,-52.246,0.000
1709374128.720,-63.965,-41.016,-32.715,-65.430,0.000
1709374128.723,-51.758,-41.992,-31.250,-51.270,0.000
1709374128.727,-20.996,-41.016,-33.203,-25.391,0.000
1709374128.731,-12.207,-43.457,-39.062,-21.973,0.000
1709374128.735,-52.734,-41.016,-39.551,-53.223,0.000
1709374128.739,-77.148,-40.527,-40.039,-63.965,0.000
1709374128.743,-67.871,-41.016,-38.574,-57.617,0.000
1709374128.747,-41.504,-41.016,-35.645,-28.809,0.000
1709374128.751,-18.555,-42.480,-36.621,-8.301,0.000
1709374128.755,-40.039,-44.922,-36.133,-50.781,0.000
1709374128.759,-65.918,-36.133,-31.250,-69.336,0.000
1709374128.762,-66.895,-38.574,-30.762,-53.711,0.000
1709374128.766,-33.691,-36.621,-30.762,-27.832,0.000
1709374128.770,-9.277,-30.762,-35.156,-7.324,0.000
1709374128.774,-39.062,-28.320,-34.668,-31.250,0.000
1709374128.778,-64.941,-25.879,-35.156,-57.617,0.000
1709374128.782,-58.594,-30.762,-39.551,-56.152,0.000
1709374128.786,-34.668,-37.598,-44.434,-33.203,0.000
1709374128.790,-5.859,-39.551,-38.574,-4.395,0.000
1709374128.793,-26.367,-35.645,-33.203,-13.184,0.000
1709374128.797,-63.965,-40.527,-38.574,-46.875,0.000
1709374128.801,-59.082,-48.828,-37.109,-48.340,0.000
1709374128.805,-31.250,-49.805,-37.598,-27.832,0.000
1709374128.809,-2.930,-46.387,-38.574,-5.371,0.000
1709374128.813,-21.484,-42.480,-36.133,-21.484,0.000
1709374128.817,-58.105,-42.480,-36.621,-51.270,0.000
1709374128.821,-58.594,-40.039,-33.691,-49.805,0.000
1709374128.824,-39.551,-39.062,-40.527,-33.691,0.000
1709374128.828,-7.324,-37.598,-44.434,-7.812,0.000
1709374128.832,-11.230,-36.621,-35.645,-20.508,0.000
1709374128.836,-47.852,-34.668,-36.133,-48.828,0.000
1709374128.840,-60.059,-38.574,-39.551,-50.781,0.000
1709374128.844,-38.574,-38.574,-39.062,-40.527,0.000
1709374128.848,4.883,-30.762,-40.039,-11.230,0.000
1709374128.852,1.953,-27.832,-36.621,-6.348,0.000
1709374128.856,-41.504,-30.762,-36.133,-40.039,0.000
1709374128.860,-55.176,-29.785,-34.668,-49.316,0.000
1709374128.864,-33.203,-27.832,-33.203,-36.133,0.000
1709374128.868,1.953,-30.273,-40.527,-14.648,0.000
1709374128.872,-3.906,-33.203,-47.363,-15.137,0.000
1709374128.876,-42.480,-35.156,-48.340,-48.340,0.000
1709374128.880,-54.688,-31.250,-45.898,-54.199,0.000
1709374128.883,-49.805,-30.762,-50.781,-44.922,0.000
1709374128.887,-16.602,-31.738,-53.223,-18.066,0.000
1709374128.891,-7.812,-35.645,-47.363,-9.277,0.000
1709374128.895,-59.082,-36.621,-44.922,-49.316,0.000
1709374128.899,-75.684,-34.180,-41.504,-58.105,0.000
1709374128.903,-57.617,-34.180,-39.551,-54.199,0.000
1709374128.907,-22.949,-32.715,-41.016,-27.344,0.000
1709374128.911,-7.324,-35.645,-41.016,-5.859,0.000
1709374128.915,-46.875,-41.992,-36.621,-38.574,0.000
1709374128.919,-66.406,-46.387,-32.227,-53.711,0.000
1709374128.923,-49.805,-43.945,-32.715,-44.922,0.000
1709374128.927,-22.461,-39.551,-30.762,-24.414,0.000
1709374128.930,-1.953,-41.016,-32.715,-4.395,0.000
1709374128.934,-27.344,-41.016,-31.738,-27.832,0.000
1709374128.938,-54.688,-38.574,-31.738,-51.758,0.000
1709374128.942,-55.176,-41.504,-32.715,-47.363,0.000
1709374128.946,-33.203,-44.434,-33.691,-30.273,0.000
1709374128.950,-1.953,-38.574,-32.715,-12.695,0.000
1709374128.954,-27.832,-35.156,-28.809,-28.809,0.000
1709374128.958,-67.871,-38.574,-34.180,-54.688,0.000
1709374128.962,-68.359,-39.062,-38.574,-53.223,0.000
1709374128.966,-43.457,-44.434,-38.574,-35.645,0.000
1709374128.970,-12.695,-43.457,-41.992,-16.113,0.000
1709374128.973,-30.273,-32.715,-39.062,-31.738,0.000
1709374128.977,-61.035,-30.273,-32.227,-57.617,0.000
1709374128.981,-62.500,-36.621,-35.156,-59.570,0.000
1709374128.985,-41.992,-37.109,-37.598,-42.969,0.000
1709374128.989,-7.324,-38.574,-33.691,-10.254,0.000
1709374128.993,-18.555,-41.992,-36.133,-27.832,0.000
1709374128.997,-58.594,-42.480,-36.621,-66.406,0.000
1709374129.001,-62.988,-35.645,-35.645,-65.918,0.000
1709374129.005,-44.434,-30.273,-38.574,-45.898,0.000
1709374129.009,-6.836,-34.180,-37.598,-19.043,0.000
1709374129.013,-9.766,-36.621,-34.180,-23.438,0.000
1709374129.016,-51.758,-34.180,-35.645,-55.176,0.000
1709374129.020,-58.105,-37.109,-36.133,-68.359,0.000
1709374129.024,-47.852,-42.480,-38.086,-58.105,0.000
1709374129.028,-17.578,-40.527,-44.434,-28.809,0.000
1709374129.032,-12.695,-30.273,-40.527,-13.672,0.000
1709374129.036,-55.664,-27.832,-39.062,-41.992,0.000
1709374129.040,-68.359,-35.645,-42.969,-65.918,0.000
1709374129.044,-46.387,-33.691,-36.133,-52.246,0.000
1709374129.048,-5.859,-32.227,-35.645,-11.719,0.000
1709374129.051,-5.371,-34.668,-39.062,-17.578,0.000
1709374129.055,-54.199,-36.621,-35.645,-66.406,0.000
1709374129.059,-65.918,-36.133,-42.480,-74.707,0.000
1709374129.063,-50.781,-35.156,-43.945,-60.547,0.000
1709374129.067,-21.973,-44.434,-39.062,-29.785,0.000
1709374129.071,-9.277,-48.828,-33.691,-10.254,0.000
1709374129.075,-37.109,-42.480,-31.250,-29.785,0.000
1709374129.079,-51.270,-37.109,-32.715,-34.668,0.000
1709374129.083,-41.504,-33.691,-34.668,-31.738,0.000
1709374129.087,-9.277,-36.621,-31.250,-15.625,0.000
1709374129.091,10.254,-32.227,-30.273,3.418,0.000
1709374129.094,-22.461,-26.367,-30.762,-20.508,0.000
1709374129.098,-50.781,-28.320,-30.273,-42.480,0.000
1709374129.102,-51.758,-25.879,-33.691,-42.969,0.000
1709374129.106,-20.508,-27.832,-34.668,-21.484,0.000
1709374129.110,3.906,-33.203,-34.180,-4.883,0.000
1709374129.114,-31.250,-31.738,-31.738,-30.762,0.000
1709374129.118,-64.453,-33.203,-29.297,-51.270,0.000
1709374129.122,-62.500,-37.598,-29.785,-49.316,0.000
1709374129.126,-35.645,-33.691,-29.297,-24.414,0.000
1709374129.129,-8.789,-36.133,-27.832,-4.395,0.000
1709374129.133,-33.691,-44.434,-26.367,-30.762,0.000
1709374129.137,-71.777,-49.805,-33.691,-60.059,0.000
1709374129.141,-70.801,-51.758,-35.645,-58.105,0.000
1709374129.145,-40.527,-44.434,-29.297,-32.715,0.000
1709374129.149,0.977,-36.621,-22.949,0.488,0.000
1709374129.153,-13.184,-36.621,-24.902,-10.254,0.000
1709374129.157,-52.246,-40.527,-24.902,-45.410,0.000
1709374129.160,-51.758,-40.039,-22.949,-51.270,0.000
1709374129.164,-32.227,-41.992,-29.785,-36.621,0.000
1709374129.168,0.977,-42.969,-34.668,-2.441,0.000
1709374129.172,-8.789,-37.109,-34.668,-7.324,0.000
1709374129.176,-48.340,-32.715,-34.668,-43.457,0.000
1709374129.180,-54.199,-35.645,-34.180,-46.387,0.000
1709374129.184,-35.156,-42.969,-31.250,-30.273,0.000
1709374129.188,-1.953,-38.574,-29.785,-7.812,0.000
1709374129.191,-1.465,-36.621,-29.297,-8.789,0.000
1709374129.195,-39.062,-40.527,-30.762,-37.109,0.000
1709374129.199,-49.805,-40.527,-34.668,-49.805,0.000
1709374129.203,-35.645,-39.062,-34.180,-41.504,0.000
1709374129.207,-1.465,-38.086,-33.203,-18.066,0.000
1709374129.211,-0.977,-34.668,-32.227,-12.207,0.000
1709374129.215,-51.758,-32.227,-33.203,-42.969,0.000
1709374129.219,-70.312,-39.062,-34.668,-59.570,0.000
1709374129.223,-48.340,-41.992,-32.227,-51.270,0.000
1709374129.227,-9.766,-38.574,-35.645,-12.695,0.000
1709374129.231,-9.766,-41.992,-41.504,-1.953,0.000
1709374129.234,-53.223,-38.086,-38.086,-39.062,0.000
1709374129.239,-63.965,-35.156,-33.203,-53.711,0.000
1709374129.242,-52.734,-37.598,-32.227,-43.457,0.000
1709374129.246,-26.367,-41.504,-39.062,-26.367,0.000
1709374129.250,-10.742,-42.480,-40.527,-18.555,0.000
1709374129.254,-50.781,-37.109,-35.645,-41.504,0.000
1709374129.258,-78.613,-39.062,-35.645,-62.988,0.000
1709374129.262,-67.871,-41.504,-38.086,-57.129,0.000
1709374129.266,-35.645,-42.969,-34.668,-31.738,0.000
1709374129.270,-20.020,-45.410,-36.621,-19.531,0.000
1709374129.274,-50.293,-42.480,-30.273,-40.527,0.000
1709374129.278,-73.242,-42.969,-30.273,-62.988,0.000
1709374129.282,-64.941,-44.922,-36.133,-58.105,0.000
1709374129.286,-32.227,-46.875,-32.227,-29.297,0.000
1709374129.289,-10.742,-47.852,-34.668,-11.230,0.000
1709374129.293,-32.715,-40.039,-32.715,-36.133,0.000
1709374129.297,-56.152,-33.691,-30.762,-61.523,0.000
1709374129.301,-55.664,-34.668,-33.691,-52.246,0.000
1709374129.305,-33.203,-36.133,-34.668,-30.273,0.000
1709374129.309,-3.906,-34.668,-40.527,-15.625,0.000
1709374129.313,-20.020,-31.250,-37.598,-35.156,0.000
1709374129.317,-51.270,-27.832,-31.250,-48.340,0.000
1709374129.321,-49.805,-28.809,-40.039,-45.898,0.000
1709374129.325,-29.297,-32.227,-43.457,-46.387,0.000
1709374129.329,2.441,-33.691,-45.410,-22.461,0.000
1709374129.333,-2.930,-31.738,-43.945,-26.367,0.000
1709374129.336,-35.645,-30.273,-43.457,-57.129,0.000
1709374129.340,-47.363,-27.832,-45.898,-59.570,0.000
1709374129.344,-34.668,-31.738,-43.945,-37.598,0.000
1709374129.348,-0.977,-31.738,-37.598,-12.207,0.000
1709374129.352,-9.766,-26.855,-35.156,-18.555,0.000
1709374129.356,-58.594,-31.738,-35.156,-52.246,0.000
1709374129.360,-68.359,-34.668,-34.668,-54.688,0.000
1709374129.364,-40.527,-33.691,-35.156,-24.902,0.000
1709374129.368,-7.324,-36.621,-41.016,-7.324,0.000
1709374129.372,-8.301,-35.156,-39.551,-23.926,0.000
1709374129.375,-44.434,-30.762,-32.227,-53.711,0.000
1709374129.380,-69.336,-36.133,-35.645,-56.641,0.000
1709374129.384,-49.805,-36.133,-38.086,-45.898,0.000
1709374129.388,-8.301,-33.203,-38.086,-22.949,0.000
1709374129.392,-12.695,-36.621,-39.062,-9.766,0.000
1709374129.395,-45.410,-37.598,-38.086,-30.762,0.000
1709374129.399,-58.594,-39.062,-37.598,-42.480,0.000
1709374129.403,-50.781,-40.039,-41.016,-35.156,0.000
1709374129.407,-17.578,-37.598,-36.621,-6.348,0.000
1709374129.411,-1.465,-33.691,-37.109,8.301,0.000
1709374129.415,-42.480,-34.668,-41.992,-32.227,0.000
1709374129.419,-68.848,-40.039,-43.457,-55.664,0.000
1709374129.423,-59.082,-38.574,-41.016,-47.363,0.000
1709374129.427,-21.484,-37.109,-38.086,-25.391,0.000
1709374129.431,3.906,-40.527,-41.016,-13.184,0.000
1709374129.434,-38.574,-41.992,-42.480,-46.387,0.000
1709374129.438,-65.430,-37.109,-40.527,-58.594,0.000
1709374129.442,-43.457,-36.133,-40.527,-45.410,0.000
1709374129.446,-9.766,-38.086,-43.457,-31.250,0.000
1709374129.450,5.859,-33.203,-44.922,-12.695,0.000
1709374129.454,-24.902,-33.691,-41.016,-18.066,0.000
1709374129.458,-56.152,-35.156,-39.062,-50.293,0.000
1709374129.462,-50.293,-34.180,-42.480,-58.594,0.000
1709374129.466,-19.531,-34.668,-42.969,-31.738,0.000
1709374129.470,5.371,-36.621,-42.969,-12.207,0.000
1709374129.473,-19.531,-34.668,-39.062,-29.297,0.000
1709374129.477,-62.012,-31.738,-42.969,-49.805,0.000
1709374129.481,-65.430,-35.156,-48.828,-49.805,0.000
1709374129.485,-42.480,-37.598,-43.945,-31.738,0.000
1709374129.489,-4.883,-34.668,-37.598,-4.883,0.000
1709374129.493,-15.137,-37.598,-36.133,-19.043,0.000
1709374129.497,-55.664,-45.410,-39.062,-36.621,0.000
1709374129.501,-54.688,-42.480,-41.016,-34.668,0.000
1709374129.505,-26.855,-39.551,-40.527,-28.809,0.000
1709374129.509,3.418,-40.039,-44.434,-5.859,0.000
1709374129.512,-11.719,-39.551,-42.969,-14.160,0.000
1709374129.516,-48.340,-36.621,-41.504,-45.410,0.000
1709374129.520,0.000,-35.156,-43.945,-55.176,0.000
1709374129.524,0.000,-39.062,-45.410,-43.945,0.000
1709374129.528,0.000,-41.504,-44.434,-16.113,0.000
1709374129.532,0.000,-38.086,-41.016,-13.672,0.000
1709374129.536,0.000,-33.691,-35.156,-48.828,0.000
1709374129.540,0.000,-34.180,-33.691,-63.965,0.000
1709374129.543,0.000,-40.527,-41.016,-44.434,0.000
1709374129.547,0.000,-41.992,-40.039,-16.602,0.000
1709374129.551,0.000,-38.574,-34.180,-20.508,0.000
1709374129.555,0.000,-37.109,-35.645,-56.152,0.000
1709374129.559,0.000,-36.621,-37.109,-69.824,0.000
1709374129.563,0.000,-38.574,-37.598,-63.965,0.000
1709374129.567,-29.297,-37.109,-35.645,-30.273,0.000
1709374129.571,-6.836,-34.180,-31.738,-8.789,0.000
1709374129.575,-43.945,-34.180,-30.762,-37.109,0.000
1709374129.579,-66.895,-35.156,-29.785,-51.270,0.000
1709374129.583,-51.758,-33.203,-24.902,-41.504,0.000
1709374129.587,-22.461,-33.203,-25.391,-11.719,0.000
1709374129.591,-3.418,-35.645,-30.273,5.859,0.000
1709374129.594,-33.203,-32.227,-32.227,-30.273,0.000
1709374129.598,-62.500,-29.785,-35.156,-51.270,0.000
1709374129.602,-59.570,-32.227,-30.762,-38.574,0.000
1709374129.606,-33.203,-35.645,-29.785,-17.090,0.000
1709374129.610,-8.301,-35.156,-27.344,-0.488,0.000
1709374129.614,-33.203,-32.715,-20.020,-23.438,0.000
1709374129.618,-65.918,-29.785,-25.879,-46.875,0.000
1709374129.622,-65.430,-31.250,-32.227,-41.992,0.000
1709374129.626,-36.133,-32.227,-37.109,-20.996,0.000
1709374129.630,-6.348,-33.203,-38.574,2.441,0.000
1709374129.634,-31.738,-34.180,-32.715,-17.090,0.000
1709374129.638,-66.895,-33.691,-30.273,-48.828,0.000
1709374129.642,-72.266,-37.598,-36.133,-62.500,0.000
1709374129.645,-41.016,-40.527,-40.039,-46.387,0.000
1709374129.649,-4.883,-40.527,-36.621,-3.906,0.000
1709374129.653,-30.762,-42.480,-40.039,-26.367,0.000
1709374129.657,-65.918,-42.480,-41.992,-59.082,0.000
1709374129.661,-62.012,-42.480,-41.016,-50.781,0.000
1709374129.665,-36.133,-40.039,-39.551,-36.133,0.000
1709374129.669,-1.465,-35.645,-36.621,-10.742,0.000
1709374129.673,-14.160,-36.621,-35.156,-18.555,0.000
1709374129.677,-52.246,-35.645,-32.715,-48.340,0.000
1709374129.681,-55.176,-33.691,-32.227,-48.828,0.000
1709374129.685,-35.645,-36.621,-37.598,-31.738,0.000
1709374129.689,-0.977,-38.574,-43.945,-6.836,0.000
1709374129.692,-9.277,-36.133,-43.457,-11.719,0.000
1709374129.696,-53.223,-38.574,-41.016,-44.434,0.000
1709374129.700,-57.129,-37.109,-38.086,-49.805,0.000
1709374129.704,-41.016,-36.133,-36.621,-36.621,0.000
1709374129.708,-12.207,-38.574,-42.969,-17.578,0.000
1709374129.712,-10.254,-36.621,-43.945,-15.625,0.000
1709374129.716,-49.805,-39.062,-39.062,-47.852,0.000
1709374129.720,-67.383,-40.039,-43.945,-59.570,0.000
1709374129.724,-54.199,-40.039,-47.363,-54.688,0.000
1709374129.728,-16.602,-45.410,-43.945,-28.809,0.000
1709374129.732,-9.766,-42.480,-41.992,-16.113,0.000
1709374129.735,-51.758,-37.598,-38.574,-48.340,0.000
1709374129.739,-70.312,-38.086,-38.086,-51.758,0.000
1709374129.743,-58.105,-38.086,-39.062,-39.551,0.000
1709374129.747,-19.043,-37.109,-33.691,-13.672,0.000
1709374129.751,-2.930,-36.621,-32.715,-1.465,0.000
1709374129.755,-37.598,-32.715,-31.250,-32.715,0.000
1709374129.759,-57.617,-32.227,-24.902,-41.992,0.000
1709374129.763,-50.781,-38.086,-28.320,-30.762,0.000
1709374129.767,-14.648,-39.551,-35.645,-13.184,0.000
1709374129.771,8.789,-37.109,-36.133,2.441,0.000
1709374129.775,-33.691,-39.062,-33.203,-24.902,0.000
1709374129.778,-56.152,-40.527,-36.133,-50.781,0.000
1709374129.782,-44.922,-38.086,-34.668,-38.574,0.000
1709374129.786,-22.949,-36.621,-35.156,-11.719,0.000
1709374129.790,2.930,-38.086,-39.062,-8.301,0.000
1709374129.794,-25.391,-39.062,-33.691,-35.645,0.000
1709374129.798,-60.059,-41.016,-30.762,-53.711,0.000
1709374129.802,-55.664,-42.480,-35.645,-51.270,0.000
1709374129.806,-31.250,-36.621,-36.621,-34.668,0.000
1709374129.810,-3.906,-34.180,-33.691,-10.254,0.000
1709374129.813,-28.809,-36.621,-32.715,-18.066,0.000
1709374129.817,-64.453,-36.621,-32.715,-44.434,0.000
1709374129.821,-58.594,-37.109,-34.668,-56.152,0.000
1709374129.825,-33.203,-36.621,-34.180,-39.551,0.000
1709374129.829,-3.906,-35.645,-34.180,-4.395,0.000
1709374129.833,-22.461,-38.086,-38.574,-35.645,0.000
1709374129.837,-58.594,-37.109,-37.598,-64.453,0.000
1709374129.841,-65.430,-37.598,-34.668,-52.734,0.000
1709374129.845,-49.805,-38.086,-34.668,-45.410,0.000
1709374129.848,-12.207,-35.645,-35.645,-19.043,0.000
1709374129.852,-18.066,-34.668,-34.180,-23.926,0.000
1709374129.856,-56.641,-34.668,-31.250,-56.641,0.000
1709374129.860,-61.035,-34.180,-30.762,-60.059,0.000
1709374129.864,-41.992,-31.738,-32.715,-38.086,0.000
1709374129.868,-8.301,-31.738,-34.180,-11.230,0.000
1709374129.872,-7.324,-37.109,-34.668,-8.301,0.000
1709374129.876,-48.828,-34.668,-33.203,-32.227,0.000
1709374129.880,-62.500,-25.391,-34.180,-47.363,0.000
1709374129.884,-48.340,-25.391,-34.180,-41.016,0.000
1709374129.888,-15.137,-32.227,-29.785,-18.066,0.000
1709374129.891,-7.812,-34.180,-31.738,-16.602,0.000
1709374129.895,-50.293,-33.203,-31.738,-50.781,0.000
1709374129.899,-67.871,-34.180,-31.250,-59.082,0.000
1709374129.903,-50.781,-34.668,-32.715,-47.363,0.000
1709374129.907,-16.113,-36.621,-32.227,-29.297,0.000
1709374129.911,-7.324,-39.062,-31.250,-20.508,0.000
1709374129.915,-41.504,-38.086,-30.762,-35.156,0.000
1709374129.919,-57.129,-37.109,-31.738,-39.551,0.000
1709374129.922,-50.781,-39.551,-34.180,-46.875,0.000
1709374129.926,-22.949,-39.551,-36.621,-31.738,0.000
1709374129.930,-4.883,-34.668,-37.109,-11.719,0.000
1709374129.934,-46.875,-35.156,-34.180,-41.992,0.000
1709374129.938,-67.383,-34.668,-35.156,-61.523,0.000
1709374129.942,-49.316,-35.156,-33.691,-55.664,0.000
1709374129.946,-21.973,-37.109,-31.250,-32.715,0.000
1709374129.950,0.000,-33.203,-34.668,-11.230,0.000
1709374129.953,-34.180,-29.785,-36.621,-31.738,0.000
1709374129.957,-69.824,-35.156,-36.621,-59.082,0.000
1709374129.961,-64.941,-33.203,-37.109,-57.617,0.000
1709374129.965,-36.133,-26.367,-38.574,-38.086,0.000
1709374129.969,-6.348,-28.320,-39.551,-19.531,0.000
1709374129.973,-27.832,-28.809,-36.133,-38.574,0.000
1709374129.977,-61.523,-24.414,-29.785,-54.199,0.000
1709374129.981,-66.406,-27.344,-34.668,-52.246,0.000
1709374129.985,-44.922,-30.762,-37.109,-37.598,0.000
1709374129.989,-12.207,-29.297,-36.621,-12.695,0.000
1709374129.993,-27.832,-27.344,-40.039,-29.785,0.000
1709374129.997,-61.035,-26.855,-37.109,-57.129,0.000
1709374130.001,-54.199,-31.738,-37.598,-59.570,0.000
1709374130.004,-35.645,-35.156,-41.016,-41.504,0.000
1709374130.008,-10.254,-34.180,-38.574,-13.672,0.000
1709374130.012,-23.438,-35.645,-35.156,-27.832,0.000
1709374130.016,-56.641,-33.203,-35.156,-55.664,0.000
1709374130.020,-65.430,-35.645,-40.039,-57.617,0.000
1709374130.024,-51.270,-38.086,-40.039,-41.016,0.000
1709374130.028,-8.789,-34.668,-36.621,-17.090,0.000
1709374130.032,-7.324,-35.645,-35.645,-20.996,0.000
1709374130.036,-51.758,-40.527,-35.645,-53.223,0.000
1709374130.040,-59.570,-39.062,-36.133,-56.152,0.000
1709374130.044,-34.668,-38.086,-37.598,-40.527,0.000
1709374130.048,-8.301,-44.434,-38.086,-22.949,0.000
1709374130.051,-9.277,-39.551,-36.133,-24.414,0.000
1709374130.055,-42.969,-28.809,-37.109,-51.758,0.000
1709374130.059,-60.059,-30.762,-42.480,-64.941,0.000
1709374130.063,-42.969,-37.109,-42.480,-55.664,0.000
1709374130.067,-4.395,-36.621,-35.645,-15.137,0.000
1709374130.071,3.418,-28.809,-34.668,1.953,0.000
1709374130.075,-34.668,-28.320,-38.086,-34.180,0.000
1709374130.079,-46.387,-33.203,-33.203,-40.527,0.000
1709374130.083,-25.391,-30.273,-31.250,-24.414,0.000
1709374130.087,-9.766,-32.227,-41.016,-16.602,0.000
1709374130.091,-12.207,-32.715,-44.434,-12.695,0.000
1709374130.094,-40.527,-29.785,-40.527,-30.762,0.000
1709374130.098,-58.594,-27.344,-36.621,-46.387,0.000
1709374130.102,-55.176,-29.297,-36.133,-48.828,0.000
1709374130.106,-25.391,-32.227,-34.180,-34.180,0.000
1709374130.110,-3.418,-34.180,-38.574,-16.113,0.000
1709374130.114,-39.062,-34.668,-39.062,-31.250,0.000
1709374130.118,-59.082,-33.203,-36.133,-52.734,0.000
1709374130.122,-43.945,-34.180,-39.062,-52.246,0.000
1709374130.126,-10.742,-30.273,-39.551,-16.602,0.000
1709374130.130,14.648,-24.902,-36.621,13.184,0.000
1709374130.134,-20.996,-31.738,-35.156,-25.879,0.000
1709374130.137,-54.199,-36.133,-31.250,-52.734,0.000
1709374130.141,-57.617,-34.668,-36.133,-45.410,0.000
1709374130.145,-34.180,-37.598,-40.527,-27.344,0.000
1709374130.149,1.953,-36.133,-41.016,-6.348,0.000
1709374130.153,-20.020,-36.133,-44.434,-32.227,0.000
1709374130.157,-57.617,-37.109,-41.992,-54.199,0.000
1709374130.161,-59.082,-38.574,-43.457,-52.734,0.000
1709374130.165,-33.691,-34.668,-42.969,-46.875,0.000
1709374130.169,1.953,-35.645,-37.598,-19.531,0.000
1709374130.173,-13.184,-37.598,-40.527,-26.367,0.000
1709374130.176,-56.152,-28.320,-41.504,-58.105,0.000
1709374130.180,-58.594,-25.391,-40.527,-61.523,0.000
1709374130.184,-31.250,-32.227,-37.598,-41.504,0.000
1709374130.188,8.301,-34.668,-33.203,-12.207,0.000
1709374130.192,-2.441,-29.785,-32.227,-14.648,0.000
1709374130.196,-45.410,-29.785,-34.668,-44.434,0.000
1709374130.200,-48.828,-35.156,-33.203,-46.387,0.000
1709374130.204,-40.039,-37.598,-35.645,-28.320,0.000
1709374130.208,-5.859,-44.922,-39.551,-8.789,0.000
1709374130.212,-1.465,-45.898,-41.504,-10.254,0.000
1709374130.215,-39.551,-36.621,-41.992,-41.504,0.000
1709374130.219,-48.340,-35.645,-41.016,-55.664,0.000
1709374130.223,-27.832,-38.086,-42.969,-34.180,0.000
1709374130.227,6.348,-35.645,-44.434,-2.441,0.000
1709374130.231,11.230,-36.133,-46.387,-3.906,0.000
1709374130.235,-28.320,-40.039,-48.340,-40.527,0.000
1709374130.239,-42.969,-36.621,-42.969,-55.664,0.000
1709374130.243,-31.738,-33.691,-37.598,-47.363,0.000
1709374130.247,-3.418,-38.086,-37.598,-11.230,0.000
1709374130.250,3.418,-41.016,-34.180,2.930,0.000
1709374130.254,-45.410,-40.527,-32.227,-40.039,0.000
1709374130.258,-65.430,-40.039,-28.320,-56.641,0.000
1709374130.262,-57.617,-37.598,-25.391,-45.410,0.000
1709374130.266,-29.297,-37.109,-27.344,-18.555,0.000
1709374130.270,-13.184,-36.133,-28.809,-4.395,0.000
1709374130.274,-50.293,-30.762,-25.879,-32.715,0.000
1709374130.278,-75.195,-34.180,-26.855,-60.059,0.000
1709374130.281,-66.406,-35.156,-28.320,-58.594,0.000
1709374130.285,-31.738,-34.180,-30.762,-35.645,0.000
1709374130.289,-6.836,-37.598,-33.691,-17.090,0.000
1709374130.293,-40.527,-37.109,-35.156,-36.621,0.000
1709374130.297,-70.312,-38.574,-34.668,-60.547,0.000
1709374130.301,-67.871,-41.504,-37.109,-60.059,0.000
1709374130.305,-39.062,-41.992,-39.062,-40.527,0.000
1709374130.309,-6.348,-39.062,-37.598,-12.207,0.000
1709374130.313,-28.320,-33.691,-30.273,-26.367,0.000
1709374130.316,-63.477,-29.297,-29.785,-51.270,0.000
1709374130.320,-55.664,-29.785,-30.273,-46.387,0.000
1709374130.324,-34.180,-32.715,-34.668,-27.832,0.000
1709374130.328,-8.789,-35.645,-37.598,-7.324,0.000
1709374130.332,-23.926,-36.133,-33.691,-20.508,0.000
1709374130.336,-62.012,-27.344,-35.645,-49.316,0.000
1709374130.340,-64.453,-21.484,-39.062,-56.152,0.000
1709374130.344,-44.434,-28.320,-42.480,-48.340,0.000
1709374130.348,-13.672,-35.156,-43.945,-22.949,0.000
1709374130.352,-24.414,-35.156,-39.062,-24.902,0.000
1709374130.355,-57.617,-33.203,-38.086,-54.199,0.000
1709374130.359,-62.012,-31.738,-36.621,-61.035,0.000
1709374130.363,-42.969,-31.738,-35.645,-40.527,0.000
1709374130.367,-9.766,-36.621,-37.598,-13.672,0.000
1709374130.371,-27.832,-38.574,-37.109,-26.367,0.000
1709374130.375,-69.336,-37.109,-39.062,-60.059,0.000
1709374130.379,-74.707,-37.598,-42.480,-64.941,0.000
1709374130.383,-53.711,-33.691,-39.062,-46.875,0.000
1709374130.387,-15.137,-29.297,-38.086,-18.066,0.000
1709374130.391,-9.277,-29.785,-37.109,-15.625,0.000
1709374130.395,-46.875,-27.344,-30.273,-41.992,0.000
1709374130.399,-62.500,-29.785,-28.809,-45.410,0.000
1709374130.403,-41.992,-30.273,-29.297,-40.039,0.000
1709374130.406,-6.348,-31.250,-31.738,-18.555,0.000
1709374130.410,2.441,-31.738,-33.203,-10.254,0.000
1709374130.414,-29.785,-31.738,-32.227,-40.039,0.000
1709374130.418,-49.316,-34.668,-31.738,-53.711,0.000
1709374130.422,-39.551,-41.016,-36.621,-45.410,0.000
1709374130.426,1.465,-41.016,-38.086,-15.137,0.000
1709374130.430,2.930,-35.645,-34.668,0.488,0.000
1709374130.434,-45.410,-40.527,-38.574,-33.691,0.000
1709374130.438,-64.453,-46.875,-40.039,-56.152,0.000
1709374130.442,-59.082,-48.340,-38.086,-45.410,0.000
1709374130.446,-27.832,-46.387,-36.621,-17.578,0.000
1709374130.450,-0.488,-42.969,-35.156,-5.371,0.000
1709374130.453,-27.832,-39.062,-29.785,-37.109,0.000
1709374130.457,-53.711,-41.992,-29.785,-58.105,0.000
1709374130.461,-49.316,-44.434,-39.062,-58.105,0.000
1709374130.465,-22.949,-39.551,-39.062,-36.621,0.000
1709374130.469,-0.488,-39.062,-35.156,-6.348,0.000
1709374130.473,-36.133,-40.039,-36.621,-28.809,0.000
1709374130.477,-74.707,-45.898,-35.645,-58.594,0.000
1709374130.481,-65.430,-46.387,-33.203,-55.664,0.000
1709374130.485,-35.645,-43.457,-39.551,-34.668,0.000
1709374130.489,-19.043,-46.875,-43.945,-5.859,0.000
1709374130.493,-43.457,-49.805,-42.969,-28.809,0.000
1709374130.496,-66.895,-46.875,-39.062,-57.129,0.000
1709374130.500,-62.500,-43.457,-35.645,-54.199,0.000
1709374130.504,-44.434,-48.340,-33.691,-42.480,0.000
1709374130.508,-9.766,-43.945,-34.180,-13.672,0.000
1709374130.512,-24.902,-37.598,-37.109,-21.973,0.000
1709374130.516,-65.430,-41.016,-39.062,-55.176,0.000
1709374130.520,-69.336,-42.480,-42.480,-61.035,0.000
1709374130.524,-41.016,-40.527,-46.875,-41.992,0.000
1709374130.528,-1.465,-36.621,-43.457,-15.137,0.000
1709374130.532,-10.742,-36.133,-39.062,-14.648,0.000
1709374130.536,-53.711,-38.574,-37.598,-35.156,0.000
1709374130.539,-62.500,-36.621,-35.645,-42.480,0.000
1709374130.543,-42.969,-42.969,-37.109,-33.691,0.000
1709374130.547,-8.301,-49.805,-40.527,-2.930,0.000
1709374130.551,-9.766,-42.480,-37.598,-4.395,0.000
1709374130.555,-52.246,-36.133,-37.109,-44.434,0.000
1709374130.559,-66.895,-33.691,-39.551,-51.758,0.000
1709374130.563,-50.293,-36.621,-40.039,-44.434,0.000
1709374130.567,-11.719,-39.551,-41.016,-27.344,0.000
1709374130.571,-15.625,-40.527,-40.527,-27.344,0.000
1709374130.575,-59.082,-40.527,-41.992,-54.199,0.000
1709374130.578,-68.848,-41.504,-38.574,-57.129,0.000
1709374130.582,-54.199,-44.922,-37.598,-50.781,0.000
1709374130.586,-18.555,-40.527,-37.598,-19.531,0.000
1709374130.590,-11.719,-41.016,-37.109,-20.020,0.000
1709374130.594,-47.852,-37.109,-36.133,-49.805,0.000
1709374130.598,-64.941,-31.250,-37.109,-54.688,0.000
1709374130.602,-57.617,-34.668,-41.992,-56.641,0.000
1709374130.606,-27.832,-34.668,-35.645,-35.645,0.000
1709374130.610,-2.441,-33.691,-32.227,-20.996,0.000
1709374130.613,-34.180,-35.645,-38.086,-44.922,0.000
1709374130.617,-63.965,-37.109,-37.598,-66.406,0.000
1709374130.621,-48.340,-37.598,-33.691,-57.129,0.000
1709374130.625,-20.996,-38.086,-34.180,-25.391,0.000
1709374130.629,-6.836,-42.969,-42.480,-17.090,0.000
1709374130.633,-37.598,-41.016,-41.504,-41.016,0.000
1709374130.637,-66.895,-34.668,-33.691,-55.176,0.000
1709374130.641,-59.570,-35.645,-38.574,-53.223,0.000
1709374130.645,-27.832,-33.203,-39.062,-29.297,0.000
1709374130.648,1.953,-29.297,-37.598,-2.930,0.000
1709374130.652,-16.113,-28.320,-33.203,-18.066,0.000
1709374130.656,-48.828,-26.367,-30.762,-45.898,0.000
1709374130.660,-56.152,-27.832,-33.203,-55.176,0.000
1709374130.664,-30.273,-28.809,-36.621,-39.551,0.000
1709374130.668,4.395,-26.855,-39.062,-6.348,0.000
1709374130.672,-16.602,-25.391,-35.156,-23.438,0.000
1709374130.676,-57.617,-27.344,-39.062,-60.059,0.000
1709374130.680,-58.594,-26.855,-37.109,-60.547,0.000
1709374130.684,-32.227,-30.273,-28.320,-43.457,0.000
1709374130.687,-7.324,-39.551,-30.762,-20.996,0.000
1709374130.691,-17.578,-34.180,-32.227,-23.438,0.000
1709374130.695,-49.805,-31.250,-27.344,-50.781,0.000
1709374130.699,-62.500,-33.691,-27.344,-55.176,0.000
1709374130.703,-46.387,-39.551,-35.156,-42.969,0.000
1709374130.707,-8.301,-41.016,-37.598,-19.043,0.000
1709374130.711,-8.301,-30.273,-28.809,-13.672,0.000
1709374130.715,-58.105,-34.668,-34.180,-40.527,0.000
1709374130.718,-74.707,-39.062,-38.086,-51.270,0.000
1709374130.722,-50.781,-39.551,-40.527,-38.086,0.000
1709374130.726,-11.719,-39.062,-36.621,-11.230,0.000
1709374130.730,-15.625,-39.551,-30.273,-17.090,0.000
1709374130.734,-57.617,-39.551,-35.645,-50.293,0.000
1709374130.738,-65.918,-41.992,-34.668,-55.176,0.000
1709374130.742,-47.852,-41.016,-31.250,-41.992,0.000
1709374130.746,-12.695,-34.668,-30.273,-14.648,0.000
1709374130.750,-2.441,-33.691,-30.273,-6.836,0.000
1709374130.754,-33.203,-34.668,-35.156,-32.227,0.000
1709374130.758,-51.270,-35.645,-38.086,-44.434,0.000
1709374130.762,-45.410,-34.180,-38.574,-39.062,0.000
1709374130.766,-13.184,-32.227,-33.691,-8.789,0.000
1709374130.769,3.906,-34.180,-31.250,4.395,0.000
1709374130.773,-29.785,-30.762,-29.297,-22.949,0.000
1709374130.777,-57.129,-26.855,-29.297,-47.363,0.000
1709374130.781,-50.781,-29.297,-34.180,-41.504,0.000
1709374130.785,-19.531,-35.645,-30.762,-11.230,0.000
1709374130.789,-3.418,-41.992,-34.180,-0.488,0.000
1709374130.793,-27.344,-40.527,-39.551,-28.320,0.000
1709374130.797,-58.594,-40.527,-34.668,-48.340,0.000
1709374130.801,-63.477,-38.086,-29.297,-41.992,0.000
1709374130.805,-31.738,-34.668,-34.180,-19.531,0.000
1709374130.809,-0.977,-34.180,-35.645,-0.977,0.000
1709374130.813,-25.391,-34.180,-33.691,-25.391,0.000
1709374130.816,-58.594,-36.621,-37.109,-46.875,0.000
1709374130.820,-51.758,-36.133,-35.645,-40.527,0.000
1709374130.824,-16.113,-35.645,-35.156,-29.297,0.000
1709374130.828,8.301,-36.133,-38.086,-10.254,0.000
