timestamps,TP9,AF7,AF8,TP10,Right AUX
1709214658.518,-50.293,-53.711,-43.457,-53.711,0.000
1709214658.522,-46.387,-46.875,-40.039,-48.828,0.000
1709214658.526,-47.852,-46.387,-40.039,-41.992,0.000
1709214658.530,-43.945,-50.781,-41.992,-44.434,0.000
1709214658.534,-37.109,-53.223,-42.480,-47.363,0.000
1709214658.538,-39.062,-55.176,-45.410,-44.434,0.000
1709214658.542,-40.527,-55.176,-43.457,-44.922,0.000
1709214658.546,-43.457,-50.781,-42.480,-51.270,0.000
1709214658.549,-34.668,-48.340,-41.992,-41.504,0.000
1709214658.553,-30.762,-46.387,-36.621,-29.785,0.000
1709214658.557,-33.691,-39.551,-40.527,-42.969,0.000
1709214658.561,-32.715,-41.992,-49.316,-48.828,0.000
1709214658.565,-32.715,-54.688,-49.316,-37.109,0.000
1709214658.569,-36.621,-57.129,-46.387,-37.598,0.000
1709214658.573,-37.109,-47.363,-43.457,-41.016,0.000
1709214658.577,-42.480,-49.316,-40.527,-44.434,0.000
1709214658.581,-42.480,-51.270,-35.645,-41.504,0.000
1709214658.585,-32.227,-53.223,-33.691,-28.320,0.000
1709214658.588,-17.090,-52.734,-28.809,-18.066,0.000
1709214658.592,-8.789,-57.617,-29.297,-21.973,0.000
1709214658.596,-22.461,-50.781,-36.133,-19.531,0.000
1709214658.600,-29.785,-42.480,-37.598,-22.461,0.000
1709214658.604,-27.344,-52.246,-39.062,-32.227,0.000
1709214658.608,-27.832,-52.734,-40.039,-36.621,0.000
1709214658.612,-30.762,-46.387,-35.156,-45.410,0.000
1709214658.616,-27.344,-37.109,-33.691,-42.480,0.000
1709214658.620,-24.414,-32.227,-30.762,-34.668,0.000
1709214658.624,-31.738,-36.621,-29.297,-34.180,0.000
1709214658.628,-30.273,-48.828,-36.621,-41.016,0.000
1709214658.631,-32.227,-61.035,-37.598,-43.945,0.000
1709214658.635,-36.621,-48.828,-35.645,-46.875,0.000
1709214658.639,-38.574,-33.203,-50.293,-50.781,0.000
1709214658.643,-41.992,-52.734,-51.270,-47.363,0.000
1709214658.647,-37.109,-62.012,-41.016,-47.363,0.000
1709214658.651,-29.785,-42.969,-40.039,-44.922,0.000
1709214658.655,-31.250,-36.621,-40.039,-53.711,0.000
1709214658.659,-30.762,-36.133,-40.039,-54.199,0.000
1709214658.663,-30.273,-40.039,-38.574,-42.480,0.000
1709214658.667,-27.832,-39.551,-34.180,-38.574,0.000
1709214658.670,-27.832,-41.016,-46.875,-40.527,0.000
1709214658.674,-25.879,-48.340,-52.246,-43.457,0.000
1709214658.678,-28.320,-50.293,-43.457,-41.504,0.000
1709214658.682,-36.621,-35.156,-40.039,-38.574,0.000
1709214658.686,-34.180,-45.898,-40.039,-26.367,0.000
1709214658.690,-37.109,-56.152,-32.227,-30.273,0.000
1709214658.694,-43.457,-31.738,-35.156,-46.875,0.000
1709214658.698,-46.387,-34.180,-41.016,-40.527,0.000
1709214658.702,-50.781,-44.922,-36.133,-36.621,0.000
1709214658.706,-44.434,-42.969,-34.668,-36.133,0.000
1709214658.710,-36.133,-46.875,-37.109,-40.039,0.000
1709214658.713,-33.691,-41.504,-35.645,-40.039,0.000
1709214658.717,-44.434,-42.969,-39.551,-45.410,0.000
1709214658.721,-45.898,-45.898,-41.016,-41.504,0.000
1709214658.725,-36.621,-43.945,-26.367,-25.391,0.000
1709214658.729,-32.715,-41.992,-17.578,-30.762,0.000
1709214658.733,-30.273,-37.598,-24.902,-34.668,0.000
1709214658.737,-32.715,-40.527,-35.156,-40.039,0.000
1709214658.741,-34.180,-43.457,-35.156,-40.039,0.000
1709214658.745,-29.785,-44.922,-22.461,-37.598,0.000
1709214658.749,-29.297,-50.781,-24.414,-45.410,0.000
1709214658.752,-32.715,-52.734,-31.250,-53.223,0.000
1709214658.756,-35.156,-45.410,-29.297,-56.641,0.000
1709214658.760,-36.621,-41.992,-28.809,-47.363,0.000
1709214658.764,-32.715,-44.922,-28.809,-41.504,0.000
1709214658.768,-35.645,-47.852,-34.668,-53.223,0.000
1709214658.772,-37.598,-49.805,-42.969,-62.988,0.000
1709214658.776,-31.250,-41.992,-46.875,-51.270,0.000
1709214658.780,-37.598,-36.133,-48.828,-45.898,0.000
1709214658.784,-40.527,-49.316,-48.340,-55.176,0.000
1709214658.788,-40.527,-55.176,-49.805,-51.270,0.000
1709214658.791,-39.062,-49.316,-41.992,-43.457,0.000
1709214658.795,-41.504,-54.199,-41.504,-42.969,0.000
1709214658.799,-45.898,-45.410,-47.363,-43.945,0.000
1709214658.803,-41.504,-35.156,-39.062,-41.992,0.000
1709214658.807,-31.250,-35.156,-35.645,-39.062,0.000
1709214658.811,-32.715,-28.320,-39.551,-39.062,0.000
1709214658.815,-37.109,-40.039,-40.039,-45.898,0.000
1709214658.819,-33.203,-54.688,-38.086,-42.969,0.000
1709214658.823,-37.598,-41.016,-37.598,-35.156,0.000
1709214658.827,-38.574,-30.762,-35.156,-41.016,0.000
1709214658.830,-35.156,-34.668,-41.504,-49.316,0.000
1709214658.834,-33.203,-42.480,-40.527,-48.340,0.000
1709214658.838,-37.598,-46.387,-35.156,-43.457,0.000
1709214658.842,-39.062,-36.133,-35.645,-42.480,0.000
1709214658.846,-32.715,-41.992,-37.109,-39.551,0.000
1709214658.850,-34.180,-45.410,-41.992,-44.434,0.000
1709214658.854,-38.574,-45.410,-39.062,-57.129,0.000
1709214658.858,-38.574,-53.223,-34.668,-62.500,0.000
1709214658.862,-46.387,-47.852,-35.645,-59.570,0.000
1709214658.866,-48.340,-38.574,-38.086,-50.781,0.000
1709214658.870,-38.086,-42.969,-38.574,-42.969,0.000
1709214658.873,-40.039,-52.734,-35.645,-53.711,0.000
1709214658.877,-40.527,-46.387,-31.738,-56.152,0.000
1709214658.881,-35.645,-38.086,-32.227,-39.551,0.000
1709214658.885,-41.992,-44.922,-44.922,-41.992,0.000
1709214658.889,-37.109,-49.316,-42.480,-47.363,0.000
1709214658.893,-24.902,-36.133,-20.020,-33.203,0.000
1709214658.897,-32.227,-36.621,-20.508,-37.598,0.000
1709214658.901,-39.062,-51.270,-31.738,-41.992,0.000
1709214658.905,-38.086,-51.758,-32.715,-33.203,0.000
1709214658.909,-41.016,-48.340,-34.180,-36.621,0.000
1709214658.913,-40.039,-46.387,-31.738,-39.551,0.000
1709214658.917,-43.457,-48.828,-38.574,-39.062,0.000
1709214658.920,-47.363,-49.805,-41.504,-37.598,0.000
1709214658.924,-42.969,-48.340,-40.039,-38.086,0.000
1709214658.928,-34.180,-44.434,-40.039,-30.762,0.000
1709214658.932,-24.414,-40.527,-32.715,-32.715,0.000
1709214658.936,-27.832,-38.574,-31.738,-37.598,0.000
1709214658.940,-31.250,-45.410,-36.621,-32.227,0.000
1709214658.944,-36.621,-44.434,-35.156,-35.156,0.000
1709214658.948,-38.086,-40.527,-34.668,-38.574,0.000
1709214658.952,-36.133,-43.457,-40.527,-34.180,0.000
1709214658.956,-42.480,-39.551,-41.504,-47.363,0.000
1709214658.960,-54.199,-23.926,-41.016,-56.152,0.000
1709214658.963,-60.547,-29.297,-39.062,-50.293,0.000
1709214658.967,-51.758,-40.039,-37.598,-54.199,0.000
1709214658.971,-47.852,-38.574,-42.480,-55.664,0.000
1709214658.975,-44.922,-36.621,-38.574,-57.129,0.000
1709214658.979,-46.387,-46.387,-41.016,-61.035,0.000
1709214658.983,-51.270,-56.641,-44.434,-55.664,0.000
1709214658.987,-56.641,-43.457,-38.574,-54.199,0.000
1709214658.991,-59.082,-36.621,-38.574,-55.176,0.000
1709214658.995,-49.805,-37.598,-36.133,-53.711,0.000
1709214658.999,-47.852,-42.969,-36.133,-48.340,0.000
1709214659.002,-46.875,-60.547,-35.645,-42.969,0.000
1709214659.006,-40.039,-59.082,-36.621,-36.621,0.000
1709214659.010,-31.250,-44.434,-34.180,-28.320,0.000
1709214659.014,-29.297,-46.387,-36.621,-25.879,0.000
1709214659.018,-31.738,-58.105,-43.457,-23.926,0.000
1709214659.022,-29.785,-60.059,-41.016,-26.367,0.000
1709214659.026,-27.832,-38.574,-39.551,-22.949,0.000
1709214659.030,-15.625,-24.902,-37.109,-22.461,0.000
1709214659.034,-23.926,-41.016,-39.551,-41.504,0.000
1709214659.038,-37.109,-52.246,-38.574,-49.805,0.000
1709214659.042,-40.039,-54.688,-42.969,-39.551,0.000
1709214659.045,-36.133,-59.570,-49.316,-35.156,0.000
1709214659.049,-27.832,-62.988,-45.410,-35.156,0.000
1709214659.053,-27.344,-49.805,-34.180,-36.133,0.000
1709214659.057,-31.250,-33.203,-33.691,-37.109,0.000
1709214659.061,-38.574,-35.156,-44.434,-26.367,0.000
1709214659.065,-42.969,-38.574,-41.016,-27.832,0.000
1709214659.069,-36.621,-37.598,-33.691,-27.832,0.000
1709214659.073,-31.738,-41.992,-30.273,-29.297,0.000
1709214659.077,-42.480,-47.363,-36.621,-40.039,0.000
1709214659.081,-46.387,-47.363,-43.457,-34.668,0.000
1709214659.084,-43.945,-52.246,-36.133,-33.203,0.000
1709214659.088,-42.480,-51.270,-35.645,-34.668,0.000
1709214659.092,-45.898,-42.969,-38.086,-41.992,0.000
1709214659.096,-60.059,-47.852,-41.016,-54.199,0.000
1709214659.100,-66.406,-42.969,-43.457,-48.340,0.000
1709214659.104,-60.059,-46.387,-43.457,-42.480,0.000
1709214659.108,-52.734,-55.176,-44.434,-36.621,0.000
1709214659.112,-50.293,-49.805,-40.527,-44.434,0.000
1709214659.116,-49.316,-47.363,-40.527,-58.594,0.000
1709214659.120,-45.898,-47.852,-37.598,-42.480,0.000
1709214659.124,-40.527,-43.457,-32.715,-32.715,0.000
1709214659.127,-31.738,-39.551,-32.227,-33.203,0.000
1709214659.131,-26.855,-36.133,-32.715,-35.645,0.000
1709214659.135,-36.621,-39.062,-36.133,-48.828,0.000
1709214659.139,-39.551,-54.688,-41.016,-44.922,0.000
1709214659.143,-35.156,-55.664,-35.156,-38.086,0.000
1709214659.147,-30.762,-49.316,-25.879,-35.156,0.000
1709214659.151,-22.949,-39.062,-26.367,-20.508,0.000
1709214659.155,-25.879,-41.992,-33.203,-24.414,0.000
1709214659.159,-29.785,-57.129,-38.086,-38.574,0.000
1709214659.162,-27.344,-55.664,-35.156,-31.738,0.000
1709214659.166,-23.926,-41.016,-32.227,-25.879,0.000
1709214659.170,-26.367,-30.273,-35.156,-25.879,0.000
1709214659.174,-31.250,-33.203,-36.621,-31.738,0.000
1709214659.178,-33.203,-36.621,-29.785,-32.715,0.000
1709214659.182,-41.016,-47.852,-31.738,-35.156,0.000
1709214659.186,-45.898,-57.617,-34.668,-38.574,0.000
1709214659.190,-41.504,-55.664,-37.598,-43.945,0.000
1709214659.194,-46.387,-53.711,-41.992,-53.223,0.000
1709214659.198,-54.688,-52.246,-39.551,-48.340,0.000
1709214659.201,-53.223,-44.922,-35.645,-51.270,0.000
1709214659.205,-46.875,-47.852,-33.691,-50.781,0.000
1709214659.209,-49.805,-43.945,-41.504,-51.758,0.000
1709214659.213,-54.688,-36.621,-41.992,-57.129,0.000
1709214659.217,-55.176,-41.016,-38.574,-58.105,0.000
1709214659.221,-59.570,-44.434,-40.527,-56.152,0.000
1709214659.225,-48.340,-47.852,-46.387,-46.387,0.000
1709214659.229,-37.598,-47.363,-44.922,-43.945,0.000
1709214659.233,-45.410,-41.016,-36.133,-43.457,0.000
1709214659.237,-56.152,-41.992,-40.527,-45.410,0.000
1709214659.241,-53.223,-56.152,-37.109,-39.551,0.000
1709214659.245,-42.480,-55.176,-30.762,-26.855,0.000
1709214659.248,-40.039,-36.621,-37.598,-35.645,0.000
1709214659.252,-35.156,-36.621,-37.598,-45.410,0.000
1709214659.256,-30.762,-41.504,-37.598,-36.133,0.000
1709214659.260,-27.344,-36.621,-33.203,-25.391,0.000
1709214659.264,-33.203,-49.805,-39.062,-32.227,0.000
1709214659.268,-36.621,-55.664,-42.969,-34.668,0.000
1709214659.272,-35.156,-45.898,-35.156,-30.762,0.000
1709214659.276,-36.133,-57.617,-34.668,-34.180,0.000
1709214659.280,-35.645,-74.707,-37.109,-40.527,0.000
1709214659.284,-31.250,-45.410,-33.691,-40.527,0.000
1709214659.288,-24.414,-24.902,-33.203,-31.738,0.000
1709214659.291,-23.438,-37.598,-42.480,-44.434,0.000
1709214659.295,-23.438,-39.551,-41.016,-56.152,0.000
1709214659.299,-22.461,-37.598,-33.691,-42.969,0.000
1709214659.303,-27.832,-36.621,-35.645,-35.156,0.000
1709214659.307,-26.367,-37.598,-41.504,-45.898,0.000
1709214659.311,-21.973,-41.016,-28.809,-45.898,0.000
1709214659.315,-27.344,-53.711,-14.648,-37.109,0.000
1709214659.319,-25.391,-58.594,-22.461,-43.945,0.000
1709214659.323,-19.531,-34.668,-30.762,-41.504,0.000
1709214659.327,-21.973,-27.344,-34.180,-39.062,0.000
1709214659.331,-22.949,-40.527,-39.062,-42.480,0.000
1709214659.334,-25.879,-41.992,-35.156,-45.410,0.000
1709214659.338,-33.691,-34.668,-35.156,-50.293,0.000
1709214659.342,-31.250,-33.203,-38.574,-49.805,0.000
1709214659.346,-27.832,-34.668,-42.969,-41.504,0.000
1709214659.350,-25.879,-40.527,-41.016,-35.156,0.000
1709214659.354,-19.531,-53.711,-35.156,-43.457,0.000
1709214659.358,-31.250,-56.641,-42.480,-48.828,0.000
1709214659.362,-44.434,-41.504,0.000,-44.434,0.000
1709214659.366,-30.273,-33.203,0.000,-39.062,0.000
1709214659.370,-25.391,-37.109,0.000,-34.668,0.000
1709214659.374,-32.227,-39.062,0.000,-34.180,0.000
1709214659.378,-27.832,-41.016,0.000,-29.297,0.000
1709214659.381,-22.461,-41.992,0.000,-21.484,0.000
1709214659.385,-21.973,-39.062,0.000,-28.809,0.000
1709214659.389,-23.926,-49.805,0.000,-31.250,0.000
1709214659.393,-24.414,-56.641,0.000,-27.344,0.000
1709214659.397,-32.227,-53.223,0.000,-36.621,0.000
1709214659.401,-36.133,-48.828,0.000,-38.086,0.000
1709214659.405,-36.133,-36.621,0.000,-30.762,0.000
1709214659.409,-44.922,-35.156,-35.645,-27.832,0.000
1709214659.413,-45.898,-41.504,-35.645,-30.762,0.000
1709214659.417,-43.457,-40.039,-37.598,-31.738,0.000
1709214659.420,-52.246,-48.340,-41.992,-33.203,0.000
1709214659.424,-51.270,-48.828,-42.969,-29.297,0.000
1709214659.428,-40.039,-43.457,-41.016,-25.879,0.000
1709214659.432,-29.785,-53.711,-38.086,-32.715,0.000
1709214659.436,-36.621,-45.898,-36.621,-23.926,0.000
1709214659.440,-54.688,-42.480,-41.504,-24.414,0.000
1709214659.444,-59.082,-45.898,-47.363,-44.434,0.000
1709214659.448,-55.176,-41.016,-44.922,-41.504,0.000
1709214659.452,-47.852,-37.598,-40.039,-41.016,0.000
1709214659.456,-49.316,-42.480,-46.387,-55.664,0.000
1709214659.459,-52.734,-42.480,-42.969,-51.270,0.000
1709214659.463,-43.945,-31.250,-26.855,-30.762,0.000
1709214659.467,-35.156,-50.293,-20.020,-20.020,0.000
1709214659.471,-31.250,-55.176,-36.133,-25.879,0.000
1709214659.475,-40.527,-32.715,-46.387,-32.715,0.000
1709214659.479,-43.457,-35.645,-38.574,-23.926,0.000
1709214659.483,-41.504,-39.551,-41.016,-18.066,0.000
1709214659.487,-41.016,-37.109,-45.410,-35.156,0.000
1709214659.491,-38.086,-39.062,-41.504,-44.434,0.000
1709214659.495,-38.574,-40.527,-39.551,-40.039,0.000
1709214659.498,-47.852,-39.551,-34.180,-39.062,0.000
1709214659.502,-55.176,-45.410,-30.273,-33.203,0.000
1709214659.506,-46.387,-53.223,-35.645,-35.645,0.000
1709214659.510,-40.527,-46.387,-40.039,-42.969,0.000
1709214659.514,-46.387,-40.039,-38.574,-43.945,0.000
1709214659.518,-45.410,-48.340,-40.527,-47.363,0.000
1709214659.522,-40.039,-58.594,-45.410,-45.898,0.000
1709214659.526,-43.945,-52.246,-44.434,-34.668,0.000
1709214659.530,-45.898,-47.852,-37.109,-28.320,0.000
1709214659.534,-42.480,-52.246,-38.574,-40.527,0.000
1709214659.537,-40.527,-41.992,-37.109,-38.086,0.000
1709214659.541,-40.039,-30.273,-39.551,-24.414,0.000
1709214659.545,-35.156,-39.062,-43.945,-20.020,0.000
1709214659.549,-30.762,-60.059,-38.574,-20.996,0.000
1709214659.553,-32.715,-52.734,-41.016,-26.855,0.000
1709214659.557,-45.410,-42.480,-49.805,-36.621,0.000
1709214659.561,-48.340,-54.688,-48.828,-38.086,0.000
1709214659.565,-43.945,-53.223,-38.574,-38.086,0.000
1709214659.569,-47.363,-40.527,-37.598,-31.250,0.000
1709214659.573,-50.781,-36.621,-42.480,-33.203,0.000
1709214659.576,-51.270,-34.668,-41.504,-49.316,0.000
1709214659.580,-49.805,-36.621,-43.457,-47.363,0.000
1709214659.584,-45.898,-42.969,-46.387,-34.668,0.000
1709214659.588,-43.945,-46.875,-47.363,-42.480,0.000
1709214659.592,-40.527,-41.992,-47.363,-49.316,0.000
1709214659.596,-41.992,-38.086,-38.574,-45.898,0.000
1709214659.600,-54.688,-43.945,-34.668,-45.898,0.000
1709214659.604,-43.945,-44.922,-31.738,-41.504,0.000
1709214659.608,-26.855,-36.621,-23.438,-39.062,0.000
1709214659.612,-32.227,-41.016,-28.809,-41.016,0.000
1709214659.616,-34.668,-40.039,-31.738,-40.039,0.000
1709214659.619,-32.715,-43.457,-36.133,-35.645,0.000
1709214659.623,-41.992,-62.012,-38.574,-36.133,0.000
1709214659.627,-45.898,-53.223,-27.832,-38.086,0.000
1709214659.631,-40.527,-37.109,-34.180,-39.551,0.000
1709214659.635,-38.574,-36.621,-43.945,-37.109,0.000
1709214659.639,-32.715,-33.691,-34.668,-40.039,0.000
1709214659.643,-27.344,-41.016,-26.855,-38.574,0.000
1709214659.647,-30.273,-50.781,-30.762,-38.086,0.000
1709214659.651,-29.785,-57.129,-36.621,-42.480,0.000
1709214659.655,-28.320,-53.711,-36.133,-49.805,0.000
1709214659.659,-40.527,-48.828,-37.598,-49.316,0.000
1709214659.663,-41.016,-49.805,-37.598,-36.133,0.000
1709214659.666,-31.738,-52.246,-33.691,-27.832,0.000
1709214659.670,-33.691,-45.898,-30.762,-33.203,0.000
1709214659.674,-27.832,-30.273,-25.879,-31.738,0.000
1709214659.678,-34.668,-29.785,-30.762,-35.645,0.000
1709214659.682,-43.945,-40.039,-45.410,-47.363,0.000
1709214659.686,-31.738,-41.016,-46.875,-41.016,0.000
1709214659.690,-28.809,-44.922,-41.504,-33.691,0.000
1709214659.694,-35.645,-55.176,-38.086,-32.227,0.000
1709214659.698,-29.297,-48.340,-32.227,-31.738,0.000
1709214659.702,-27.832,-30.762,-39.062,-27.832,0.000
1709214659.706,-35.645,-36.133,-32.715,-28.320,0.000
1709214659.709,-34.668,-40.039,-17.578,-26.855,0.000
1709214659.713,-33.203,-50.293,-28.809,-28.320,0.000
1709214659.717,-40.527,-56.152,-31.738,-35.156,0.000
1709214659.721,-47.852,-49.316,-29.785,-29.785,0.000
1709214659.725,-40.039,-45.410,-31.738,-22.461,0.000
1709214659.729,-37.109,-40.039,-29.297,-32.227,0.000
1709214659.733,-34.180,-48.828,-28.809,-37.598,0.000
1709214659.737,-33.203,-47.852,-31.250,-39.062,0.000
1709214659.741,-36.621,-34.180,-28.809,-34.668,0.000
1709214659.745,-38.574,-39.062,-29.297,-29.297,0.000
1709214659.749,-38.086,-49.805,-34.668,-33.691,0.000
1709214659.752,-38.574,-45.898,-40.039,-38.574,0.000
1709214659.756,-44.434,-49.316,-45.898,-44.434,0.000
1709214659.760,-44.434,-56.641,-41.504,-44.434,0.000
1709214659.764,-37.109,-48.340,-42.969,-35.156,0.000
1709214659.768,-22.949,-42.969,-41.992,-25.391,0.000
1709214659.772,-27.344,-43.457,-36.621,-35.156,0.000
1709214659.776,-38.574,-45.898,-37.109,-45.410,0.000
1709214659.780,-44.922,-52.246,-42.969,-52.246,0.000
1709214659.784,-42.480,-49.316,-41.504,-51.758,0.000
1709214659.788,-41.016,-48.340,-42.480,-48.340,0.000
1709214659.791,-40.039,-42.480,-43.457,-51.270,0.000
1709214659.795,-37.109,-37.598,-38.574,-41.992,0.000
1709214659.799,-29.785,-38.086,-33.203,-37.109,0.000
1709214659.803,-27.344,-40.527,-29.297,-34.180,0.000
1709214659.807,-32.715,-49.805,-33.203,-28.320,0.000
1709214659.811,-30.273,-59.082,-33.691,-28.809,0.000
1709214659.815,-29.785,-52.246,-34.180,-37.598,0.000
1709214659.819,-38.574,-36.621,-35.645,-44.434,0.000
1709214659.823,-44.922,-44.434,-35.156,-47.852,0.000
1709214659.827,-45.898,-42.480,-39.551,-54.688,0.000
1709214659.830,-40.527,-26.367,-40.527,-52.246,0.000
1709214659.834,-37.598,-27.344,-45.410,-53.223,0.000
1709214659.838,-44.922,-32.227,-49.805,-53.711,0.000
1709214659.842,-46.387,-35.645,-46.387,-45.898,0.000
1709214659.846,-42.969,-41.992,-38.086,-43.945,0.000
1709214659.850,-43.945,-49.805,-43.945,-45.410,0.000
1709214659.854,-41.992,-48.340,-50.293,-41.016,0.000
1709214659.858,-44.434,-34.180,-39.062,-35.645,0.000
1709214659.862,-58.594,-39.062,-41.016,-48.828,0.000
1709214659.866,-59.082,-47.363,-44.434,-51.270,0.000
1709214659.870,-45.898,-41.992,-41.016,-38.574,0.000
1709214659.873,-42.969,-39.551,-41.992,-41.992,0.000
1709214659.877,-44.922,-48.340,-37.109,-48.828,0.000
1709214659.881,-35.156,-53.223,-30.762,-43.457,0.000
1709214659.885,-33.691,-46.875,-31.738,-38.086,0.000
1709214659.889,-37.109,-53.711,-32.715,-43.457,0.000
1709214659.893,-34.180,-56.641,-34.668,-47.363,0.000
1709214659.897,-39.062,-42.480,-33.203,-43.945,0.000
1709214659.901,-43.945,-48.828,-32.715,-35.645,0.000
1709214659.905,-49.316,-53.223,-41.992,-39.062,0.000
1709214659.909,-48.340,-42.480,-39.551,-41.016,0.000
1709214659.912,-41.016,-45.898,-32.715,-34.180,0.000
1709214659.916,-37.109,-50.293,-32.715,-25.879,0.000
1709214659.920,-34.668,-42.969,-36.133,-16.602,0.000
1709214659.924,-31.738,-43.457,-35.645,-16.602,0.000
1709214659.928,-27.344,-63.965,-38.574,-15.625,0.000
1709214659.932,-25.391,-60.059,-41.992,-28.809,0.000
1709214659.936,-26.855,-40.039,-47.363,-38.574,0.000
1709214659.940,-30.273,-45.898,-46.387,-37.109,0.000
1709214659.944,-24.902,-47.852,-35.645,-23.926,0.000
1709214659.947,-20.508,-40.527,-30.762,-14.648,0.000
1709214659.951,-26.367,-44.434,-38.574,-36.621,0.000
1709214659.955,-24.414,-46.387,-41.992,-39.062,0.000
1709214659.959,-14.648,-41.016,-33.203,-19.531,0.000
1709214659.963,-14.160,-43.945,-36.133,-22.949,0.000
1709214659.967,-14.648,-55.176,-41.504,-31.250,0.000
1709214659.971,-15.625,-54.199,-41.504,-31.738,0.000
1709214659.975,-21.973,-56.641,-41.504,-36.621,0.000
1709214659.979,-30.762,-65.918,-40.039,-34.180,0.000
1709214659.983,-28.320,-53.223,-36.133,-27.344,0.000
1709214659.987,-27.344,-42.480,-36.621,-32.715,0.000
1709214659.991,-34.668,-43.457,-41.016,-42.969,0.000
1709214659.994,-38.574,-47.363,-41.016,-47.363,0.000
1709214659.998,-41.992,-53.711,-42.969,-46.875,0.000
1709214660.002,-36.133,-51.270,-44.922,-40.527,0.000
1709214660.006,-28.809,-55.176,-41.504,-32.227,0.000
1709214660.010,-24.414,-59.570,-39.062,-25.879,0.000
1709214660.014,-21.484,-47.852,-35.645,-28.320,0.000
1709214660.018,-28.809,-47.852,-40.039,-40.039,0.000
1709214660.022,-26.855,-52.734,-51.270,-40.527,0.000
1709214660.026,-27.344,-51.758,-50.293,-33.691,0.000
1709214660.030,-32.227,-44.434,-41.016,-39.551,0.000
1709214660.034,-28.809,-44.434,-37.598,-40.039,0.000
1709214660.037,-30.273,-49.805,-42.480,-36.133,0.000
1709214660.041,-28.809,-50.293,-42.480,-37.109,0.000
1709214660.045,-21.973,-43.457,-39.551,-32.715,0.000
1709214660.049,-24.414,-36.621,-46.387,-34.668,0.000
1709214660.053,-20.996,-37.598,-47.852,-39.062,0.000
1709214660.057,-22.949,-37.598,-46.387,-42.969,0.000
1709214660.061,-24.902,-41.992,-34.668,-28.809,0.000
1709214660.065,-17.578,-37.598,-27.344,-13.672,0.000
1709214660.069,-18.066,-34.180,-40.039,-19.043,0.000
1709214660.073,-15.625,-44.922,-42.480,-21.973,0.000
1709214660.077,-17.090,-48.828,-32.715,-17.090,0.000
1709214660.080,-24.902,-48.340,-37.109,-21.973,0.000
1709214660.084,-22.461,-46.875,-37.598,-20.020,0.000
1709214660.088,-26.855,-43.457,-37.598,-20.508,0.000
1709214660.092,-26.855,-41.504,-33.691,-25.879,0.000
1709214660.096,-30.273,-43.945,-31.250,-15.625,0.000
1709214660.100,-41.504,-47.852,-34.180,-20.996,0.000
1709214660.104,-42.969,-58.105,-41.992,-35.645,0.000
1709214660.108,-41.504,-51.270,-47.852,-34.180,0.000
1709214660.112,-36.621,-31.738,-39.551,-41.504,0.000
1709214660.116,-44.922,-34.180,-41.504,-48.828,0.000
1709214660.120,-46.387,-29.785,-36.133,-42.480,0.000
1709214660.123,-38.086,-23.926,-30.273,-37.598,0.000
1709214660.127,-31.738,-27.344,-33.203,-31.738,0.000
1709214660.131,-29.785,-35.156,-31.250,-33.691,0.000
1709214660.135,-39.551,-43.457,-35.645,-47.363,0.000
1709214660.139,-42.969,-45.410,-39.551,-44.434,0.000
1709214660.143,-37.598,-37.109,-31.738,-31.250,0.000
1709214660.147,-32.715,-44.922,-33.203,-34.668,0.000
1709214660.151,-24.414,-59.082,-38.086,-39.062,0.000
1709214660.155,-20.020,-40.527,-33.203,-38.086,0.000
1709214660.159,-24.902,-23.926,-30.762,-41.504,0.000
1709214660.163,-23.926,-29.785,-33.691,-39.551,0.000
1709214660.166,-22.461,-37.598,-37.598,-33.691,0.000
1709214660.170,-20.020,-34.180,-39.062,-28.809,0.000
1709214660.174,-19.531,-32.227,-41.016,-35.645,0.000
1709214660.178,-18.555,-37.109,-37.598,-35.645,0.000
1709214660.182,-18.066,-38.574,-28.809,-25.879,0.000
1709214660.186,-24.414,-38.086,-30.273,-21.484,0.000
1709214660.190,-33.203,-36.621,-37.109,-24.902,0.000
1709214660.194,-38.086,-38.086,-36.621,-36.133,0.000
1709214660.198,-34.668,-42.480,-24.902,-36.621,0.000
1709214660.202,-44.434,-45.410,-20.508,-42.969,0.000
1709214660.205,-51.270,-50.293,-29.297,-44.922,0.000
1709214660.209,-44.434,-53.223,-36.133,-38.086,0.000
1709214660.213,-51.758,-59.570,-47.363,-55.176,0.000
1709214660.217,-59.570,-60.059,-52.734,-64.453,0.000
1709214660.221,-60.547,-50.293,-43.945,-51.758,0.000
1709214660.225,-60.059,-49.805,-41.504,-47.852,0.000
1709214660.229,-53.223,-53.223,-40.039,-43.457,0.000
1709214660.233,-42.969,-49.805,-33.691,-31.250,0.000
1709214660.237,-49.805,-46.387,-44.434,-47.852,0.000
1709214660.241,-54.688,-46.875,-48.828,-57.617,0.000
1709214660.244,-51.270,-49.805,-41.992,-41.504,0.000
1709214660.248,-49.316,-53.711,-45.898,-38.086,0.000
1709214660.252,-36.133,-46.387,-42.480,-41.992,0.000
1709214660.256,-33.691,-44.922,-35.645,-41.504,0.000
1709214660.260,-33.691,-41.016,-34.668,-33.203,0.000
1709214660.264,-29.297,-33.691,-35.645,-22.461,0.000
1709214660.268,-34.668,-44.434,-41.016,-30.273,0.000
1709214660.272,-32.715,-52.734,-46.387,-41.016,0.000
1709214660.276,-30.762,-53.223,-47.852,-39.551,0.000
1709214660.280,-38.574,-48.340,-46.875,-41.504,0.000
1709214660.283,-39.062,-34.668,-36.133,-45.410,0.000
1709214660.287,-37.109,-33.691,-29.297,-45.898,0.000
1709214660.291,-31.738,-37.109,-29.297,-46.387,0.000
1709214660.295,-31.250,-32.715,-30.273,-46.387,0.000
1709214660.299,-42.480,-40.039,-39.551,-52.246,0.000
1709214660.303,-42.969,-37.598,-41.992,-46.875,0.000
1709214660.307,-39.062,-38.574,-38.574,-38.086,0.000
1709214660.311,-37.109,-46.387,-39.062,-35.645,0.000
1709214660.315,-35.645,-37.598,-38.086,-40.039,0.000
1709214660.319,-37.598,-30.762,-33.691,-41.504,0.000
1709214660.322,-35.156,-32.715,-30.273,-26.855,0.000
1709214660.326,-29.297,-30.762,-24.414,-28.809,0.000
1709214660.330,-28.320,-34.668,-26.855,-36.133,0.000
1709214660.334,-35.645,-35.156,-40.527,-34.180,0.000
1709214660.338,-45.898,-39.551,-43.457,-28.809,0.000
1709214660.342,-49.805,-38.086,-36.133,-18.555,0.000
1709214660.346,-45.410,-41.016,-34.180,-16.113,0.000
1709214660.350,-37.598,-53.223,-30.273,-14.648,0.000
1709214660.354,-42.480,-39.551,-35.156,-25.879,0.000
1709214660.358,-44.434,-30.762,-30.762,-38.574,0.000
1709214660.362,-43.945,-36.133,-21.973,-32.715,0.000
1709214660.365,-51.758,-46.875,-33.691,-30.273,0.000
1709214660.369,-46.387,-62.500,-36.133,-34.180,0.000
1709214660.373,-41.016,-55.176,-38.086,-41.016,0.000
1709214660.377,-47.363,-44.434,-39.551,-48.828,0.000
1709214660.381,-51.758,-45.410,-39.551,-39.551,0.000
1709214660.385,-52.734,-47.852,-44.434,-41.016,0.000
1709214660.389,-38.574,-40.527,-33.203,-44.922,0.000
1709214660.393,-32.227,-36.621,-32.227,-45.898,0.000
1709214660.397,-36.621,-46.387,-39.062,-55.664,0.000
1709214660.401,-41.016,-51.758,-41.504,-50.293,0.000
1709214660.405,-40.039,-44.434,-45.898,-42.480,0.000
1709214660.409,-32.715,-41.992,-39.062,-32.715,0.000
1709214660.412,-30.273,-58.105,-41.016,-38.574,0.000
1709214660.416,-28.320,-41.504,-39.062,-43.945,0.000
1709214660.420,-28.320,-23.438,-32.715,-37.598,0.000
1709214660.424,-23.926,-34.180,-37.598,-37.598,0.000
1709214660.428,-24.902,-47.363,-43.945,-39.062,0.000
1709214660.432,-22.461,-48.340,-51.270,-49.805,0.000
1709214660.436,-16.113,-48.340,-46.875,-40.527,0.000
1709214660.440,-28.809,-52.734,-38.086,-39.062,0.000
1709214660.444,-34.180,-37.598,-31.738,-38.574,0.000
1709214660.448,-28.809,-34.668,-30.762,-32.227,0.000
1709214660.452,-33.203,-33.691,-34.180,-36.621,0.000
1709214660.455,-40.527,-29.297,-39.062,-37.109,0.000
1709214660.459,-39.062,-42.969,-40.039,-34.180,0.000
1709214660.463,-30.762,-39.551,-35.645,-33.691,0.000
1709214660.467,-33.203,-34.668,-34.668,-42.480,0.000
1709214660.471,-43.945,-47.363,-43.945,-40.527,0.000
1709214660.475,-49.316,-51.270,-48.340,-42.969,0.000
1709214660.479,-54.688,-39.062,-44.922,-57.129,0.000
1709214660.483,-51.758,-35.156,-43.945,-60.059,0.000
1709214660.487,-43.457,-42.969,-42.480,-56.641,0.000
1709214660.491,-42.969,-41.504,-43.945,-53.223,0.000
1709214660.494,-35.645,-36.133,-36.621,-42.969,0.000
1709214660.498,-39.062,-37.598,-36.621,-33.203,0.000
1709214660.502,-40.527,-38.086,-37.109,-33.203,0.000
1709214660.506,-33.691,-51.270,-37.109,-40.527,0.000
1709214660.510,-30.273,-53.711,-47.852,-38.574,0.000
1709214660.514,-28.320,-37.598,-41.992,-26.367,0.000
1709214660.518,-32.715,-34.668,-31.250,-23.438,0.000
1709214660.522,-33.691,-38.086,-34.180,-27.832,0.000
1709214660.526,-33.203,-45.410,-35.645,-32.227,0.000
1709214660.530,-40.527,-43.457,-30.273,-36.621,0.000
1709214660.534,-43.457,-50.781,-29.785,-39.551,0.000
1709214660.538,-44.434,-63.477,-38.086,-45.410,0.000
1709214660.542,-50.293,-54.199,-45.898,-49.805,0.000
1709214660.545,-46.875,-43.457,-43.457,-49.316,0.000
1709214660.549,-45.410,-52.734,-47.852,-53.223,0.000
1709214660.553,-42.969,-57.617,-50.293,-54.199,0.000
1709214660.557,-36.133,-48.828,-45.410,-45.410,0.000
1709214660.561,-32.715,-44.434,-40.039,-30.762,0.000
1709214660.565,-27.832,-38.086,-32.227,-25.879,0.000
1709214660.569,-17.090,-45.898,-35.645,-26.855,0.000
1709214660.573,-7.812,-55.176,-41.992,-23.926,0.000
1709214660.577,-12.695,-32.715,-38.086,-30.273,0.000
1709214660.581,-18.555,-24.414,-36.133,-34.180,0.000
1709214660.584,-15.137,-29.297,-35.156,-28.809,0.000
1709214660.588,-10.742,-28.809,-33.691,-29.297,0.000
1709214660.592,-19.531,-35.645,-30.762,-25.391,0.000
1709214660.596,-32.227,-37.109,-32.227,-30.273,0.000
1709214660.600,-29.785,-30.273,-24.902,-35.645,0.000
1709214660.604,-32.715,-32.715,-29.785,-32.715,0.000
1709214660.608,-38.086,-41.504,-41.504,-40.527,0.000
1709214660.612,-40.527,-55.664,-42.480,-42.480,0.000
1709214660.616,-47.852,-60.547,-42.480,-40.039,0.000
1709214660.620,-60.059,-47.852,-38.086,-45.410,0.000
1709214660.624,-69.336,-41.504,-41.504,-48.340,0.000
1709214660.627,-62.012,-44.922,-45.898,-49.316,0.000
1709214660.631,-57.617,-39.062,-42.969,-49.316,0.000
1709214660.635,-58.105,-45.410,-39.551,-54.688,0.000
1709214660.639,-62.012,-56.641,-48.340,-60.059,0.000
1709214660.643,-58.105,-50.781,-55.176,-55.664,0.000
1709214660.647,-54.688,-41.992,-44.922,-44.922,0.000
1709214660.651,-55.176,-37.598,-38.574,-36.621,0.000
1709214660.655,-47.852,-46.875,-37.109,-39.551,0.000
1709214660.659,-45.410,-56.152,-41.016,-47.363,0.000
1709214660.663,-41.016,-48.828,-42.480,-43.945,0.000
1709214660.666,-40.527,-39.551,-37.109,-46.387,0.000
1709214660.670,-43.457,-38.086,-42.480,-51.758,0.000
1709214660.674,-35.156,-40.039,-40.039,-55.176,0.000
1709214660.678,-24.902,-36.133,-26.855,-44.434,0.000
1709214660.682,-28.320,-32.715,-31.738,-33.691,0.000
1709214660.686,-23.926,-33.691,-33.203,-29.297,0.000
1709214660.690,-5.859,-28.809,-29.297,-23.438,0.000
1709214660.694,-6.836,-34.180,-35.156,-23.438,0.000
1709214660.698,-17.578,-51.270,-32.227,-21.973,0.000
1709214660.701,-26.367,-50.293,-27.832,-22.949,0.000
1709214660.705,-28.320,-35.645,-28.320,-29.785,0.000
1709214660.709,-32.227,-30.762,-33.203,-32.715,0.000
1709214660.713,-30.762,-34.668,-42.480,-32.715,0.000
1709214660.717,-29.785,-35.645,-38.086,-36.621,0.000
1709214660.721,-37.109,-33.691,-34.180,-37.109,0.000
1709214660.725,-27.344,-30.273,-32.715,-28.809,0.000
1709214660.729,-24.414,-36.133,-30.273,-27.832,0.000
1709214660.733,-34.668,-47.363,-27.832,-41.016,0.000
1709214660.737,-38.574,-56.152,-24.902,-44.434,0.000
1709214660.740,-40.527,-59.082,-27.832,-41.016,0.000
1709214660.744,-35.645,-56.152,-33.691,-45.898,0.000
1709214660.748,-25.879,-45.898,-41.504,-47.852,0.000
1709214660.752,-36.133,-40.527,-41.504,-51.270,0.000
1709214660.756,-48.340,-42.969,-42.480,-52.734,0.000
1709214660.760,-48.340,-40.527,-40.527,-50.781,0.000
1709214660.764,-40.527,-43.457,-33.203,-44.434,0.000
1709214660.768,-35.645,-45.410,-33.691,-40.039,0.000
1709214660.772,-29.785,-43.945,-43.457,-41.504,0.000
1709214660.776,-22.949,-47.852,-42.969,-39.062,0.000
1709214660.780,-34.668,-48.828,-39.062,-42.969,0.000
1709214660.783,-40.527,-46.875,-38.574,-48.340,0.000
1709214660.787,-39.062,-42.969,-41.504,-41.992,0.000
1709214660.791,-40.527,-45.410,-48.828,-34.668,0.000
1709214660.795,-35.645,-49.316,-46.875,-40.527,0.000
1709214660.799,-32.715,-47.363,-39.551,-33.203,0.000
1709214660.803,-38.574,-52.246,-39.551,-27.832,0.000
1709214660.807,-35.156,-46.875,-43.945,-34.180,0.000
1709214660.811,-31.738,-46.875,-37.598,-37.598,0.000
1709214660.815,-32.227,-57.129,-36.621,0.000,0.000
1709214660.819,-34.668,-54.199,-41.016,0.000,0.000
1709214660.823,-39.551,-49.316,-38.086,0.000,0.000
1709214660.826,-39.062,-44.922,-33.691,0.000,0.000
1709214660.830,-38.574,-41.992,-35.156,0.000,0.000
1709214660.834,-37.109,-38.086,-35.645,0.000,0.000
1709214660.838,-46.875,-30.762,-31.738,0.000,0.000
1709214660.842,-53.711,-42.969,-35.156,0.000,0.000
1709214660.846,-47.852,-60.059,-45.410,0.000,0.000
1709214660.850,-47.852,-48.340,-46.387,0.000,0.000
1709214660.854,-47.363,-34.668,-43.457,0.000,0.000
1709214660.858,-54.688,-44.922,-46.387,0.000,0.000
1709214660.862,-48.340,-53.223,-45.898,-34.668,0.000
1709214660.866,-35.645,-40.527,-39.062,-21.973,0.000
1709214660.869,-27.344,-33.203,-35.645,-11.719,0.000
1709214660.873,-27.344,-37.109,-36.621,-21.484,0.000
1709214660.877,-38.086,-43.457,-36.133,-30.273,0.000
1709214660.881,-36.621,-48.340,-35.156,-27.344,0.000
1709214660.885,-34.180,-45.898,-39.062,-23.438,0.000
1709214660.889,-28.320,-43.945,-39.551,-20.508,0.000
1709214660.893,-25.391,-50.293,-39.551,-23.438,0.000
1709214660.897,-23.926,-47.363,-35.156,-23.926,0.000
1709214660.901,-26.367,-27.832,-34.180,-24.414,0.000
1709214660.905,-40.039,-29.297,-47.363,-37.598,0.000
1709214660.908,-41.016,-38.086,-54.199,-44.434,0.000
1709214660.912,-30.762,-30.762,-42.969,-47.852,0.000
1709214660.916,-38.574,-33.691,-40.039,-49.316,0.000
1709214660.920,-48.340,-50.781,-46.387,-45.898,0.000
1709214660.924,-44.434,-57.617,-50.781,-38.574,0.000
1709214660.928,-46.875,-41.992,-47.363,-44.434,0.000
1709214660.932,-41.992,-37.598,-37.109,-49.316,0.000
1709214660.936,-39.551,-42.480,-40.039,-44.922,0.000
1709214660.940,-44.434,-41.992,-45.898,-45.898,0.000
1709214660.944,-43.457,-48.340,-46.875,-46.387,0.000
1709214660.948,-43.945,-49.805,-42.969,-42.480,0.000
1709214660.951,-43.457,-41.504,-38.574,-45.898,0.000
1709214660.955,-41.992,-42.969,-38.086,-49.805,0.000
1709214660.959,-40.527,-47.363,-38.574,-42.969,0.000
1709214660.963,-36.621,-45.410,-33.691,-33.691,0.000
1709214660.967,-28.320,-41.504,-29.297,-36.621,0.000
1709214660.971,-21.973,-41.504,-27.832,-32.715,0.000
1709214660.975,-33.203,-47.852,-32.715,-34.180,0.000
1709214660.979,-44.922,-59.570,-37.109,-38.574,0.000
1709214660.983,-47.363,-60.059,-37.109,-30.273,0.000
1709214660.987,-47.852,-44.922,-46.875,-34.668,0.000
1709214660.990,-36.621,-32.227,-39.551,-25.391,0.000
1709214660.994,-33.203,-35.645,-30.273,-34.668,0.000
1709214660.998,-39.062,-47.363,-33.691,-47.363,0.000
1709214661.002,0.000,-47.852,-44.922,-49.805,0.000
1709214661.006,0.000,-52.246,-47.363,-47.852,0.000
1709214661.010,0.000,-59.570,-44.434,-36.133,0.000
1709214661.014,0.000,-57.617,-44.922,-43.945,0.000
1709214661.018,0.000,-56.641,-43.457,-49.805,0.000
1709214661.022,0.000,-62.988,-42.480,-40.527,0.000
1709214661.026,0.000,-64.941,-42.969,-32.715,0.000
1709214661.029,0.000,-48.340,-46.387,-39.062,0.000
1709214661.033,0.000,-38.086,-41.016,-45.410,0.000
1709214661.037,0.000,-36.621,-38.574,-43.457,0.000
1709214661.041,0.000,-33.203,-39.551,-49.316,0.000
1709214661.045,0.000,-30.762,-38.574,-41.992,0.000
1709214661.049,-35.156,-37.109,-39.062,-41.992,0.000
1709214661.053,-34.180,-46.387,-42.480,-54.199,0.000
1709214661.057,-31.250,-41.504,-47.852,-57.129,0.000
1709214661.061,-33.203,-34.180,-46.875,-43.945,0.000
1709214661.065,-40.039,-39.062,-52.246,-38.086,0.000
1709214661.068,-39.551,-49.805,-50.293,-35.156,0.000
1709214661.072,-34.668,-53.223,-39.551,-34.180,0.000
1709214661.076,-33.691,-37.109,-38.086,-40.039,0.000
1709214661.080,-38.574,-27.344,-43.945,-36.621,0.000
1709214661.084,-36.133,-35.156,-44.922,-33.691,0.000
1709214661.088,-32.715,-43.457,-42.969,-38.086,0.000
1709214661.092,-39.062,-46.387,-44.434,-41.016,0.000
1709214661.096,-50.293,-47.363,-46.875,-48.340,0.000
1709214661.100,-53.223,-55.176,-47.363,-46.875,0.000
1709214661.103,-47.852,-54.688,-42.969,-39.062,0.000
1709214661.107,-41.992,-46.387,-44.434,-41.504,0.000
1709214661.111,-39.551,-46.875,-48.828,-47.852,0.000
1709214661.115,-44.434,-51.270,-43.457,-54.688,0.000
1709214661.119,-44.922,-45.898,-40.039,-53.223,0.000
1709214661.123,-35.645,-47.852,-39.062,-41.016,0.000
1709214661.127,-22.949,-55.176,-35.156,-28.320,0.000
1709214661.131,-15.625,-51.270,-35.156,-22.949,0.000
1709214661.135,-14.648,-45.898,-37.598,-28.809,0.000
1709214661.139,-13.672,-43.457,-38.574,-28.809,0.000
1709214661.143,-19.043,-57.617,-40.039,-23.926,0.000
1709214661.146,-20.020,-54.199,-37.598,-16.113,0.000
1709214661.150,-23.438,-39.062,-43.945,-20.996,0.000
1709214661.154,-31.250,-37.598,-44.434,-39.551,0.000
1709214661.158,-38.086,-47.852,-46.875,-45.898,0.000
1709214661.162,-42.969,-49.805,-46.387,-44.434,0.000
1709214661.166,-39.551,-49.805,-40.527,-47.363,0.000
1709214661.170,-44.922,-54.199,-48.828,-54.688,0.000
1709214661.174,-50.293,-44.434,-48.340,-57.617,0.000
1709214661.178,-47.363,-47.852,-39.551,-48.340,0.000
1709214661.182,-49.316,-52.734,-37.598,-44.434,0.000
1709214661.186,-46.387,-49.805,-38.574,-46.387,0.000
1709214661.189,-33.691,-55.176,-35.156,-40.527,0.000
1709214661.193,-33.691,-50.293,-37.109,-41.016,0.000
1709214661.197,-45.410,-43.457,-41.016,-44.434,0.000
1709214661.201,-47.852,-44.922,-36.133,-40.039,0.000
1709214661.205,-35.645,-44.434,-38.086,-32.715,0.000
1709214661.209,-29.785,-39.551,-32.227,-28.320,0.000
1709214661.213,-37.109,-40.039,-31.738,-37.598,0.000
1709214661.217,-42.480,-45.410,-38.086,-41.504,0.000
1709214661.221,-47.363,-51.758,-33.691,-24.902,0.000
1709214661.225,-41.016,-45.410,-35.156,-23.926,0.000
1709214661.229,-37.109,-46.387,-39.551,-32.715,0.000
1709214661.232,-41.504,-52.246,-37.109,-36.133,0.000
1709214661.236,-44.922,-40.527,-35.156,-42.969,0.000
1709214661.240,-44.434,-29.297,-40.039,-43.457,0.000
1709214661.244,-44.922,-30.762,-46.387,-49.805,0.000
1709214661.248,-37.109,-46.875,-39.551,-47.363,0.000
1709214661.252,-31.250,-59.570,-35.645,-42.480,0.000
1709214661.256,-40.039,-53.223,-38.574,-46.387,0.000
1709214661.260,-36.133,-41.992,-36.133,-45.410,0.000
1709214661.264,-32.227,-40.039,-32.715,-41.992,0.000
1709214661.268,-32.715,-44.434,-36.621,-37.598,0.000
1709214661.272,-29.297,-38.574,-40.039,-46.387,0.000
1709214661.275,-33.203,-39.062,-38.086,-49.316,0.000
1709214661.279,-32.227,-47.852,-35.156,-41.016,0.000
1709214661.283,-32.715,-38.086,-31.738,-38.574,0.000
1709214661.287,-34.180,-31.738,-34.668,-36.621,0.000
1709214661.291,-31.738,-33.203,-44.922,-41.992,0.000
1709214661.295,-30.762,-33.203,-41.016,-50.781,0.000
1709214661.299,-34.180,-40.527,-42.480,-55.664,0.000
1709214661.303,-39.062,-41.992,-51.758,-53.223,0.000
1709214661.307,-39.551,-35.645,-45.410,-53.223,0.000
1709214661.311,-33.691,-47.363,-43.457,-42.480,0.000
1709214661.314,-23.926,-44.434,-47.852,-35.156,0.000
1709214661.318,-23.438,-37.598,-41.016,-49.316,0.000
1709214661.322,-29.785,-56.641,-34.668,-46.875,0.000
1709214661.326,-29.297,-44.434,-38.086,-38.574,0.000
1709214661.330,-30.762,-30.762,-37.598,-41.016,0.000
1709214661.334,-36.133,-35.645,-32.715,-39.551,0.000
1709214661.338,-46.387,-36.133,-39.062,-42.480,0.000
1709214661.342,-47.852,-41.992,-40.039,-43.457,0.000
1709214661.346,-44.434,-44.434,-33.203,-35.156,0.000
1709214661.350,-47.852,-43.945,-36.621,-37.109,0.000
1709214661.353,-48.828,-49.316,-39.551,-39.062,0.000
1709214661.357,-50.293,-49.316,-36.133,-33.203,0.000
1709214661.361,-50.781,-46.875,-32.715,-35.156,0.000
1709214661.365,-56.641,-46.387,-37.109,-38.086,0.000
1709214661.369,-49.316,-35.156,-40.527,-35.645,0.000
1709214661.373,-40.527,-32.227,-43.945,-40.527,0.000
1709214661.377,-56.152,-40.039,-43.945,-58.105,0.000
1709214661.381,-62.500,-44.434,-34.180,-61.035,0.000
1709214661.385,-55.664,-48.340,-34.180,-54.688,0.000
1709214661.389,-48.340,-52.246,-32.227,-54.199,0.000
1709214661.392,-46.387,-53.711,-32.715,-55.664,0.000
1709214661.396,-46.875,-46.387,-37.109,-62.012,0.000
1709214661.400,-44.922,-47.363,-32.227,-52.734,0.000
1709214661.404,-44.434,-54.688,-38.086,-44.434,0.000
1709214661.408,-46.387,-47.852,-44.434,-49.316,0.000
1709214661.412,-43.945,-41.016,-35.645,-43.945,0.000
1709214661.416,-39.062,-47.363,-33.691,-39.551,0.000
1709214661.420,-36.621,-51.758,-33.203,-34.668,0.000
1709214661.424,-35.156,-50.781,-32.715,-32.227,0.000
1709214661.428,-30.273,-47.363,-33.203,-29.297,0.000
1709214661.431,-23.438,-39.551,-35.645,-31.738,0.000
1709214661.435,-25.879,-44.922,-44.922,-42.480,0.000
1709214661.439,-30.762,-49.805,-52.246,-43.945,0.000
1709214661.443,-34.180,-48.340,-56.152,-36.621,0.000
1709214661.447,-21.484,-54.199,-48.828,-20.996,0.000
1709214661.451,-18.066,-40.527,-30.273,-25.391,0.000
1709214661.455,-25.879,-32.715,-34.668,-38.086,0.000
1709214661.459,-23.926,-43.457,-42.969,-33.691,0.000
1709214661.463,-13.672,-36.133,-26.367,-27.344,0.000
1709214661.467,-10.254,-31.250,-30.762,-33.691,0.000
1709214661.470,-15.625,-39.062,-41.992,-37.109,0.000
1709214661.474,-21.973,-47.363,-47.852,-31.250,0.000
1709214661.478,-20.996,-41.016,-46.387,-35.156,0.000
1709214661.482,-21.484,-30.273,-45.898,-32.715,0.000
1709214661.486,-16.113,-37.598,-41.992,-25.879,0.000
1709214661.490,-17.090,-53.223,-31.250,-36.621,0.000
1709214661.494,-29.785,-44.922,-38.574,-49.316,0.000
1709214661.498,-32.227,-22.949,-45.898,-43.945,0.000
1709214661.502,-27.832,-19.531,-40.039,-43.457,0.000
1709214661.506,-23.926,-31.250,-41.992,-38.574,0.000
1709214661.509,-23.438,-41.016,-44.434,-33.203,0.000
1709214661.513,-31.250,-37.109,-45.410,-41.016,0.000
1709214661.517,-35.645,-34.180,-44.434,-37.598,0.000
1709214661.521,-39.551,-35.645,-31.250,-27.832,0.000
1709214661.525,-46.387,-48.340,-33.203,-27.344,0.000
1709214661.529,-38.574,-56.641,-33.203,-29.297,0.000
1709214661.533,-26.855,-41.504,-27.344,-28.320,0.000
1709214661.537,-29.785,-29.297,-34.668,-35.645,0.000
1709214661.541,-37.598,-35.156,-42.969,-36.621,0.000
1709214661.545,-37.598,-42.480,-45.898,-29.785,0.000
1709214661.549,-28.320,-43.945,-41.504,-20.020,0.000
1709214661.552,-32.715,-41.504,-36.133,-26.855,0.000
1709214661.556,-39.062,-36.133,-33.203,-41.016,0.000
1709214661.560,-27.832,-42.969,-30.762,-29.297,0.000
1709214661.564,0.000,-50.293,-30.762,-4.883,0.000
1709214661.568,0.000,-42.969,-38.086,-9.766,0.000
1709214661.572,0.000,-46.875,-43.457,-28.809,0.000
1709214661.576,0.000,-47.852,-41.504,-25.391,0.000
1709214661.580,0.000,-40.527,-44.922,-23.926,0.000
1709214661.584,0.000,-50.293,-42.480,-28.320,0.000
1709214661.588,0.000,-49.805,-32.715,-22.949,0.000
1709214661.592,0.000,-36.133,-33.691,-21.484,0.000
1709214661.596,0.000,-38.574,-35.645,-17.578,0.000
1709214661.599,0.000,-39.551,-28.320,-14.648,0.000
1709214661.603,0.000,-46.875,-37.109,-23.926,0.000
1709214661.607,0.000,-59.082,-48.340,-28.320,0.000
1709214661.611,-31.738,-50.293,-43.457,-35.645,0.000
1709214661.615,-33.691,-43.457,-46.387,-45.898,0.000
1709214661.619,-44.434,-51.270,-51.270,-44.922,0.000
1709214661.623,-44.434,-51.758,-44.922,-38.086,0.000
1709214661.627,-41.016,-43.457,-40.527,-41.992,0.000
1709214661.631,-39.551,-40.039,-40.527,-45.898,0.000
1709214661.635,-30.273,-34.180,-37.109,-40.527,0.000
1709214661.639,-31.738,-49.805,-35.156,-37.109,0.000
1709214661.642,-42.969,-61.035,-33.691,-32.715,0.000
1709214661.646,-40.527,-47.363,-34.180,-33.203,0.000
1709214661.650,-38.086,-41.992,-35.645,-33.691,0.000
1709214661.654,-41.504,-32.227,-37.109,-26.855,0.000
1709214661.658,-39.062,-38.086,-35.156,-34.668,0.000
1709214661.662,-37.598,-48.340,-36.621,-35.156,0.000
1709214661.666,-38.574,-41.504,-43.457,-32.715,0.000
1709214661.670,-26.855,-28.809,-34.180,-26.855,0.000
1709214661.674,-24.902,-30.762,-28.320,-26.367,0.000
1709214661.678,-41.016,-57.617,-39.551,-38.086,0.000
1709214661.681,-38.086,-65.918,-36.621,-37.109,0.000
1709214661.685,-33.203,-41.504,-29.785,-20.508,0.000
1709214661.689,-40.527,-35.156,-31.250,-26.855,0.000
1709214661.693,-40.039,-36.621,-33.203,-50.781,0.000
1709214661.697,-45.410,-44.434,-37.598,-54.688,0.000
1709214661.701,-50.781,-51.758,-37.598,-44.922,0.000
1709214661.705,-42.480,-42.969,-33.203,-36.133,0.000
1709214661.709,-44.922,-47.363,-41.504,-41.504,0.000
1709214661.713,-51.270,-57.129,-49.316,-44.434,0.000
1709214661.717,-48.340,-53.223,-54.199,-49.805,0.000
1709214661.720,-43.457,-45.898,-43.457,-49.805,0.000
1709214661.724,-44.434,-48.828,-35.156,-42.480,0.000
1709214661.728,-43.457,-45.898,-42.480,-31.738,0.000
1709214661.732,-43.945,-48.828,-40.039,-29.297,0.000
1709214661.736,-44.434,-41.992,-38.574,-43.457,0.000
1709214661.740,-35.156,-25.879,-35.645,-41.016,0.000
1709214661.744,-35.645,-35.645,-38.086,-39.551,0.000
1709214661.748,-38.086,-52.246,-47.852,-42.969,0.000
1709214661.752,-41.504,-52.246,-44.434,-44.434,0.000
1709214661.756,-44.434,-55.176,-42.480,-41.504,0.000
1709214661.759,-44.922,-52.246,-40.527,-35.645,0.000
1709214661.763,-49.805,-47.852,-42.969,-33.203,0.000
1709214661.767,-41.016,-42.969,-45.410,-27.832,0.000
1709214661.771,-36.621,-41.992,-41.504,-37.109,0.000
1709214661.775,-41.504,-42.969,-39.551,-39.551,0.000
1709214661.779,-41.992,-36.133,-41.992,-38.086,0.000
1709214661.783,-34.180,-38.574,-43.945,-39.551,0.000
1709214661.787,-28.320,-40.527,-38.574,-36.133,0.000
1709214661.791,-35.645,-38.086,-45.898,-44.922,0.000
1709214661.795,-36.133,-37.598,-42.480,-47.363,0.000
1709214661.798,-43.945,-45.898,-35.156,-52.734,0.000
1709214661.802,-36.133,-40.527,-34.180,-46.387,0.000
1709214661.806,-31.738,-36.133,-31.250,-36.621,0.000
1709214661.810,-33.691,-41.016,-36.133,-41.992,0.000
1709214661.814,-29.785,-40.039,-43.945,-54.688,0.000
1709214661.818,-38.574,-43.457,-50.293,-61.035,0.000
1709214661.822,-43.945,-41.016,-49.316,-49.316,0.000
1709214661.826,-41.992,-31.250,-44.922,-41.504,0.000
1709214661.830,-31.738,-42.969,-40.039,-41.016,0.000
1709214661.834,-31.738,-53.711,-43.457,-42.969,0.000
1709214661.838,-43.945,-40.039,-43.945,-50.293,0.000
1709214661.841,-46.387,-39.062,-38.574,-55.664,0.000
1709214661.845,-46.387,-36.621,-39.062,-53.223,0.000
1709214661.849,-46.875,-32.715,-42.480,-52.734,0.000
1709214661.853,-44.434,-46.875,-41.504,-56.152,0.000
1709214661.857,-55.664,-49.316,-41.992,-56.152,0.000
1709214661.861,-61.035,-41.016,-35.645,-46.387,0.000
1709214661.865,-49.316,-47.852,-32.715,-40.039,0.000
1709214661.869,-49.316,-58.594,-40.039,-46.875,0.000
1709214661.873,-50.781,-57.617,-35.156,-53.223,0.000
1709214661.876,-36.621,-39.062,-22.949,-47.363,0.000
1709214661.880,-43.457,-36.133,-23.438,-33.691,0.000
1709214661.884,-51.270,-48.340,-32.227,-29.297,0.000
1709214661.888,-40.527,-50.293,-36.133,-33.691,0.000
1709214661.892,0.000,-45.898,-37.109,-30.273,0.000
1709214661.896,0.000,-36.621,-34.668,-21.484,0.000
1709214661.900,0.000,-37.109,-30.762,-20.996,0.000
1709214661.904,0.000,-55.176,-35.156,-28.809,0.000
1709214661.908,0.000,-46.387,-38.574,-25.879,0.000
1709214661.912,0.000,-35.645,-35.645,-31.738,0.000
1709214661.916,0.000,-41.016,-42.969,-48.828,0.000
1709214661.920,0.000,-38.086,-49.316,-50.781,0.000
1709214661.923,0.000,-37.598,-47.363,-46.387,0.000
1709214661.927,0.000,-38.086,-42.480,-42.480,0.000
1709214661.931,0.000,-43.457,-45.898,-50.293,0.000
1709214661.935,0.000,-44.434,-43.945,-51.270,0.000
1709214661.939,-47.363,-45.898,-39.551,-40.039,0.000
1709214661.943,-42.480,-56.152,-31.738,-35.156,0.000
1709214661.947,-37.598,-55.664,-36.133,-43.945,0.000
1709214661.951,-37.598,-45.410,-46.387,-49.316,0.000
1709214661.955,-37.598,-40.039,-40.527,-49.805,0.000
1709214661.959,-37.109,-39.551,-38.574,-46.387,0.000
1709214661.963,-34.668,-35.156,-37.109,-45.898,0.000
1709214661.966,-35.156,-34.668,-39.062,-51.270,0.000
1709214661.970,-41.016,-44.434,-42.969,-44.434,0.000
1709214661.974,-40.527,-41.504,-43.945,-44.922,0.000
1709214661.978,-38.086,-45.898,-40.039,-54.688,0.000
1709214661.982,-35.645,-60.547,-36.621,-42.969,0.000
1709214661.986,-34.668,-45.410,-30.762,-29.785,0.000
1709214661.990,-36.621,-42.480,-31.738,-31.250,0.000
1709214661.994,-36.621,-46.387,-35.645,-32.715,0.000
1709214661.998,-44.922,-37.598,-32.227,-33.203,0.000
1709214662.002,-49.316,-40.039,-40.527,-39.062,0.000
1709214662.006,-39.062,-42.969,-43.945,-41.016,0.000
1709214662.009,-32.227,-42.969,-39.062,-40.039,0.000
1709214662.013,-34.180,-45.898,-40.527,-41.016,0.000
1709214662.017,-35.645,-60.547,-41.016,-29.785,0.000
1709214662.021,-39.551,-56.152,-48.340,-33.691,0.000
1709214662.025,-41.504,-25.879,-37.598,-36.133,0.000
1709214662.029,-40.039,-28.809,-29.785,-36.133,0.000
1709214662.033,-47.363,-41.504,-42.480,-41.992,0.000
1709214662.037,-50.293,-29.785,-42.480,-47.363,0.000
1709214662.041,-48.828,-31.250,-44.434,-53.223,0.000
1709214662.045,-34.180,-35.156,-46.875,-42.480,0.000
1709214662.048,-27.344,-34.668,-42.480,-38.086,0.000
1709214662.052,-32.715,-47.363,-39.062,-40.039,0.000
1709214662.056,-32.715,-42.969,-40.527,-45.898,0.000
1709214662.060,-22.461,-26.855,-41.016,-33.203,0.000
1709214662.064,-15.625,-25.391,-46.875,-23.438,0.000
1709214662.068,-14.648,-36.621,-45.898,-35.645,0.000
1709214662.072,-10.742,-37.598,-39.551,-34.180,0.000
1709214662.076,-16.113,-37.109,-44.434,-43.457,0.000
1709214662.080,-29.785,-39.062,-50.293,-44.434,0.000
1709214662.084,-31.738,-41.016,-46.387,-32.227,0.000
1709214662.087,-24.414,-40.039,-36.621,-28.320,0.000
1709214662.091,-27.344,-35.156,-35.156,-40.527,0.000
1709214662.095,-36.621,-42.480,-38.574,-49.805,0.000
1709214662.099,-37.598,-49.805,-32.715,-47.852,0.000
1709214662.103,-39.551,-44.922,-29.785,-46.387,0.000
1709214662.107,-40.527,-47.363,-32.227,-30.762,0.000
1709214662.111,-39.551,-45.410,-32.227,-35.645,0.000
1709214662.115,-41.504,-43.457,-42.969,-51.270,0.000
1709214662.119,-46.387,-51.270,-45.410,-40.527,0.000
1709214662.123,-44.922,-45.410,-30.762,-30.762,0.000
1709214662.126,-43.457,-39.062,-27.344,-27.832,0.000
1709214662.130,-43.457,-41.016,-34.180,-28.809,0.000
1709214662.134,-48.828,-53.711,-44.434,-36.133,0.000
1709214662.138,-58.105,-54.199,-44.434,-39.062,0.000
1709214662.142,-62.012,-48.828,-43.457,-47.363,0.000
1709214662.146,-59.082,-47.363,-44.434,-49.805,0.000
1709214662.150,-53.223,-43.945,-43.457,-49.316,0.000
1709214662.154,-51.270,-43.945,-42.480,-49.316,0.000
1709214662.158,-49.805,-47.852,-41.992,-56.152,0.000
1709214662.162,-48.340,-57.617,-41.016,-54.688,0.000
1709214662.166,-43.945,-58.105,-41.504,-44.434,0.000
1709214662.169,-40.039,-50.293,-41.504,-41.016,0.000
1709214662.173,-36.133,-50.781,-39.551,-41.992,0.000
1709214662.177,-38.086,-44.922,-43.457,-52.246,0.000
1709214662.181,-35.156,-29.297,-38.086,-51.758,0.000
1709214662.185,-27.832,-39.062,-39.551,-42.969,0.000
1709214662.189,-17.090,-49.316,-38.574,-34.180,0.000
1709214662.193,-13.184,-49.805,-30.273,-27.344,0.000
1709214662.197,-26.855,-43.457,-38.086,-29.785,0.000
1709214662.201,-32.227,-31.738,-43.945,-36.621,0.000
1709214662.205,-28.809,-34.668,-35.156,-36.133,0.000
1709214662.208,-29.785,-40.527,-35.645,-36.133,0.000
1709214662.212,-26.855,-40.527,-38.574,-37.598,0.000
1709214662.216,-29.785,-39.551,-37.109,-35.156,0.000
1709214662.220,0.000,-41.992,-40.527,-33.203,0.000
1709214662.224,0.000,-32.715,-31.250,-22.949,0.000
1709214662.228,0.000,-36.133,-15.625,-16.602,0.000
1709214662.232,0.000,-57.129,-25.879,-21.484,0.000
1709214662.236,0.000,-41.504,-40.039,-32.227,0.000
1709214662.240,0.000,-26.855,-34.180,-34.180,0.000
1709214662.244,0.000,-41.016,-33.691,-37.598,0.000
1709214662.247,0.000,-53.223,-40.039,-39.551,0.000
1709214662.251,0.000,-49.805,-44.434,-36.133,0.000
1709214662.255,0.000,-51.270,-34.668,-31.738,0.000
1709214662.259,0.000,-50.293,-28.809,-25.879,0.000
1709214662.263,0.000,-55.176,-35.645,-27.344,0.000
1709214662.267,-28.320,-59.570,-28.320,-28.320,0.000
1709214662.271,-21.973,-40.527,-31.250,-37.598,0.000
1709214662.275,-24.902,-38.574,-41.016,-43.457,0.000
1709214662.279,-18.066,-45.898,-26.855,-36.133,0.000
1709214662.283,-20.020,-48.828,-29.785,-32.227,0.000
1709214662.287,-20.020,-49.805,-36.621,-35.156,0.000
1709214662.290,-22.461,-51.758,-36.133,-39.062,0.000
1709214662.294,-19.043,-50.781,-34.668,-38.574,0.000
1709214662.298,-21.484,-49.316,-30.273,-31.738,0.000
1709214662.302,-25.391,-49.805,-27.344,-21.973,0.000
1709214662.306,-25.879,-47.363,-31.250,-31.250,0.000
1709214662.310,-25.879,-39.062,-36.133,-37.109,0.000
1709214662.314,-26.367,-41.992,-25.391,-27.832,0.000
1709214662.318,-30.273,-53.711,-21.484,-24.902,0.000
1709214662.322,-35.645,-54.688,-39.062,-28.809,0.000
1709214662.326,-38.574,-53.711,-36.133,-23.926,0.000
1709214662.330,-25.391,-52.734,-22.949,-23.926,0.000
1709214662.333,-20.020,-48.340,-27.832,-30.762,0.000
1709214662.337,-35.156,-49.805,-36.133,-38.574,0.000
1709214662.341,-37.109,-49.316,-40.527,-42.480,0.000
1709214662.345,-27.832,-48.828,-35.645,-18.066,0.000
1709214662.349,-27.832,-41.504,-34.180,-10.254,0.000
1709214662.353,-31.738,-37.598,-39.062,-33.691,0.000
1709214662.357,-37.598,-47.852,-35.645,-37.109,0.000
1709214662.361,-44.922,-40.039,-32.715,-31.738,0.000
1709214662.365,-47.852,-29.785,-32.227,-29.297,0.000
1709214662.369,-42.969,-39.551,-32.227,-24.902,0.000
1709214662.373,-37.598,-47.852,-31.738,-31.250,0.000
1709214662.376,-49.805,-44.434,-32.715,-35.156,0.000
1709214662.380,-60.547,-42.480,-43.945,-35.156,0.000
1709214662.384,-62.500,-45.898,-49.805,-36.133,0.000
1709214662.388,-57.617,-41.016,-41.016,-37.109,0.000
1709214662.392,-42.969,-34.180,-35.156,-30.273,0.000
1709214662.396,-44.922,-32.227,-35.645,-29.297,0.000
1709214662.400,-50.781,-39.062,-35.156,-40.527,0.000
1709214662.404,-38.086,-42.480,-37.598,-37.598,0.000
1709214662.408,-34.180,-43.945,-32.227,-27.344,0.000
1709214662.412,-36.621,-52.734,-26.367,-29.785,0.000
1709214662.415,-37.598,-41.504,-29.297,-32.715,0.000
1709214662.419,-45.410,-32.227,-33.203,-37.598,0.000
1709214662.423,-52.734,-37.109,-41.992,-41.016,0.000
1709214662.427,-49.805,-41.504,-41.992,-37.109,0.000
1709214662.431,-41.992,-42.969,-36.621,-40.039,0.000
1709214662.435,-46.387,-46.387,-39.551,-34.180,0.000
1709214662.439,-52.734,-44.434,-39.062,-27.832,0.000
1709214662.443,-48.340,-42.480,-31.250,-37.109,0.000
1709214662.447,-45.898,-57.617,-36.133,-42.969,0.000
1709214662.451,-42.969,-50.293,-41.992,-43.945,0.000
1709214662.455,-38.574,-38.086,-34.180,-42.969,0.000
1709214662.458,-46.875,-38.086,-41.016,-48.340,0.000
1709214662.462,-52.246,-36.133,-48.828,-50.781,0.000
1709214662.466,-42.969,-50.293,-43.945,-45.410,0.000
1709214662.470,-35.156,-53.223,-41.504,-37.109,0.000
1709214662.474,-33.691,-38.086,-38.574,-34.668,0.000
1709214662.478,-32.715,-32.715,-37.109,-40.039,0.000
1709214662.482,-28.320,-39.551,-42.480,-22.949,0.000
1709214662.486,-22.949,-48.340,-37.109,-15.137,0.000
1709214662.490,-31.250,-47.852,-35.645,-38.086,0.000
1709214662.494,-43.457,-48.828,-45.898,-47.852,0.000
1709214662.497,-48.828,-48.828,-40.527,-44.434,0.000
1709214662.501,-46.387,-45.898,-40.039,-48.828,0.000
1709214662.505,-49.805,-39.551,-47.363,-51.270,0.000
1709214662.509,-50.293,-34.668,-46.387,-47.852,0.000
1709214662.513,-45.410,-42.969,-46.387,-51.270,0.000
1709214662.517,-51.758,-48.340,-50.781,-45.410,0.000
1709214662.521,-47.852,-50.293,-46.875,-40.039,0.000
1709214662.525,-37.109,-57.129,-36.133,-28.809,0.000
1709214662.529,-38.574,-55.664,-39.062,-26.855,0.000
1709214662.533,-43.457,-50.781,-41.992,-41.504,0.000
1709214662.536,-43.457,-53.223,-36.133,-46.387,0.000
1709214662.540,-42.480,-49.805,-30.273,-37.109,0.000
1709214662.544,-37.109,-32.227,-34.180,-35.645,0.000
1709214662.548,-29.297,-29.297,-41.992,-38.574,0.000
1709214662.552,-30.273,-42.969,-35.156,-40.039,0.000
1709214662.556,-35.156,-43.457,-41.016,-48.828,0.000
1709214662.560,-31.250,-41.016,-39.062,-42.969,0.000
1709214662.564,-35.156,-43.945,-25.879,-33.691,0.000
1709214662.568,-38.574,-42.969,-31.250,-38.086,0.000
1709214662.572,-32.227,-42.969,-35.645,-35.156,0.000
1709214662.575,-34.668,-34.668,-37.109,-36.133,0.000
1709214662.579,-33.691,-31.738,-40.527,-36.621,0.000
1709214662.583,-31.738,-42.480,-41.992,-30.273,0.000
1709214662.587,-28.320,-39.551,-34.180,-29.297,0.000
1709214662.591,-24.902,-31.738,-36.133,-24.414,0.000
1709214662.595,-26.855,-31.250,-38.086,-23.926,0.000
1709214662.599,-27.832,-27.344,-28.320,-22.949,0.000
1709214662.603,-29.785,-30.762,-28.809,-24.414,0.000
1709214662.607,-27.832,-39.062,-29.785,-32.227,0.000
1709214662.611,-24.902,-37.598,-25.879,-31.250,0.000
1709214662.615,-30.273,-36.133,-29.297,-35.645,0.000
1709214662.619,-33.203,-35.645,-32.227,-37.109,0.000
1709214662.622,-40.527,-42.480,-31.738,-35.645,0.000
1709214662.626,-43.945,-44.434,-33.203,-42.969,0.000
1709214662.630,-34.668,-39.551,-32.715,-41.016,0.000
1709214662.634,-37.109,-32.227,-31.250,-37.109,0.000
1709214662.638,-40.527,-24.902,-33.691,-39.551,0.000
1709214662.642,-50.293,-40.039,-44.922,-42.480,0.000
1709214662.646,-49.316,-43.457,-47.363,-39.551,0.000
1709214662.650,-41.016,-37.598,-41.016,-41.504,0.000
1709214662.654,-42.480,-42.480,-43.945,-49.316,0.000
1709214662.658,-38.574,-48.828,-47.363,-48.340,0.000
1709214662.662,-35.156,-43.945,-44.434,-40.039,0.000
1709214662.665,-39.551,-45.410,-38.086,-39.551,0.000
1709214662.669,-35.156,-53.711,-37.109,-37.109,0.000
1709214662.673,-33.203,-53.711,-46.387,-40.527,0.000
1709214662.677,-33.691,-50.293,-47.852,-39.062,0.000
1709214662.681,-30.762,-39.062,-41.992,-37.598,0.000
1709214662.685,-30.273,-39.551,-40.527,-37.109,0.000
1709214662.689,-27.344,-45.410,-39.062,-32.227,0.000
1709214662.693,-27.832,-36.133,-40.039,-36.621,0.000
1709214662.697,-30.762,-31.250,-39.062,-38.574,0.000
1709214662.701,-34.668,-45.410,-36.621,-31.738,0.000
1709214662.705,-29.297,-50.293,-32.715,-22.461,0.000
1709214662.708,-22.461,-38.086,-27.832,-20.996,0.000
1709214662.712,-33.691,-42.969,-35.156,-33.203,0.000
1709214662.716,-40.527,-52.246,-41.016,-47.363,0.000
1709214662.720,-41.992,-45.898,-41.016,-38.086,0.000
1709214662.724,-43.457,-42.480,-47.363,-32.715,0.000
1709214662.728,-39.551,-41.504,-47.363,-41.016,0.000
1709214662.732,-37.109,-38.574,-33.691,-39.062,0.000
1709214662.736,-39.551,-48.340,-31.250,-41.016,0.000
1709214662.740,-46.875,-50.781,-25.879,-37.598,0.000
1709214662.744,-44.922,-47.363,-26.855,-45.410,0.000
1709214662.748,-45.898,-41.504,-40.527,-49.805,0.000
1709214662.751,-52.246,-43.457,-44.434,-44.922,0.000
1709214662.755,-48.828,-51.758,-37.109,-47.852,0.000
1709214662.759,-44.434,-54.688,-38.574,-55.176,0.000
1709214662.763,-43.945,-59.082,-39.062,-43.457,0.000
1709214662.767,-40.527,-48.340,-31.738,-27.832,0.000
1709214662.771,-25.879,-29.297,-32.715,-30.273,0.000
1709214662.775,-17.578,-27.344,-29.785,-36.133,0.000
1709214662.779,-25.879,-48.340,-30.762,-37.109,0.000
1709214662.783,-29.785,-43.457,-41.992,-35.645,0.000
1709214662.787,-25.879,-27.344,-43.457,-40.527,0.000
1709214662.791,-21.484,-24.902,-40.527,-40.527,0.000
1709214662.794,-25.391,-29.785,-42.480,-39.062,0.000
1709214662.798,-27.344,-40.527,-37.598,-36.621,0.000
1709214662.802,-29.785,-40.527,-34.668,-34.668,0.000
1709214662.806,-34.668,-40.527,-41.504,-36.133,0.000
1709214662.810,-32.715,-40.039,-42.480,-29.785,0.000
1709214662.814,-43.945,-45.898,-41.992,-40.039,0.000
1709214662.818,-43.945,-53.223,-46.387,-52.734,0.000
1709214662.822,-41.504,-47.363,-50.781,-47.363,0.000
1709214662.826,-39.062,-52.246,-43.457,-45.410,0.000
1709214662.830,-31.250,-62.988,-29.297,-37.598,0.000
1709214662.833,-35.645,-57.617,-28.809,-40.527,0.000
1709214662.837,-44.434,-53.711,-28.320,-47.852,0.000
1709214662.841,-48.340,-54.688,-31.250,-39.551,0.000
1709214662.845,-44.434,-57.617,-33.691,-30.762,0.000
1709214662.849,-40.527,-51.758,-29.297,-37.109,0.000
1709214662.853,-39.062,-46.387,-29.785,-43.457,0.000
1709214662.857,-46.387,-48.340,-38.574,-40.527,0.000
1709214662.861,-46.875,-46.387,-44.922,-48.828,0.000
1709214662.865,-40.527,-47.852,-45.898,-49.316,0.000
1709214662.869,-39.551,-51.758,-40.527,-45.410,0.000
1709214662.873,-36.133,-51.758,-31.250,-40.527,0.000
1709214662.876,-43.457,-51.758,-30.762,-36.621,0.000
1709214662.880,-55.176,-56.641,-33.203,-43.945,0.000
1709214662.884,-55.176,-53.223,-39.062,-44.922,0.000
1709214662.888,-51.270,-50.781,-41.504,-35.645,0.000
1709214662.892,-44.434,-56.152,-39.551,-40.527,0.000
1709214662.896,-41.992,-53.223,-38.086,-50.293,0.000
1709214662.900,-41.016,-55.176,-35.645,-33.691,0.000
1709214662.904,-31.250,-64.453,-34.668,-18.066,0.000
1709214662.908,-33.203,-54.199,-43.457,-28.320,0.000
1709214662.912,-37.109,-41.504,-35.645,-36.621,0.000
1709214662.915,-38.086,-39.062,-31.738,-46.387,0.000
1709214662.919,-42.480,-42.480,-41.016,-50.781,0.000
1709214662.923,-37.598,-46.387,-41.504,-41.504,0.000
1709214662.927,-24.414,-41.992,-36.621,-34.180,0.000
1709214662.931,-29.785,-41.504,-35.156,-39.551,0.000
1709214662.935,-40.527,-50.781,-34.668,-40.527,0.000
1709214662.939,-37.598,-44.434,-35.645,-39.062,0.000
1709214662.943,-36.133,-38.574,-40.039,-41.016,0.000
1709214662.947,-36.621,-39.551,-39.551,-37.109,0.000
1709214662.950,-36.621,-42.480,-40.527,-41.992,0.000
1709214662.954,-36.133,-54.199,-40.527,-48.828,0.000
1709214662.958,-44.434,-50.781,-42.969,-60.059,0.000
1709214662.962,-45.898,-38.574,-45.410,-63.477,0.000
1709214662.966,-36.133,-37.598,-41.504,-60.059,0.000
1709214662.970,-30.273,-45.410,-41.504,-58.594,0.000
1709214662.974,-32.227,-50.293,-40.527,-54.199,0.000
1709214662.978,-36.133,-45.410,-39.551,-44.434,0.000
1709214662.982,-38.086,-45.898,-41.992,-38.574,0.000
1709214662.986,-46.875,-46.875,-44.922,-44.922,0.000
1709214662.990,-47.363,-46.875,-42.480,-41.504,0.000
1709214662.994,-46.875,-55.176,-41.016,-45.410,0.000
1709214662.997,-49.316,-54.688,-41.992,-60.059,0.000
1709214663.001,-45.898,-44.922,-42.969,-58.594,0.000
1709214663.005,-40.039,-37.598,-39.062,-42.969,0.000
1709214663.009,-36.133,-42.969,-36.133,-36.621,0.000
1709214663.013,-33.691,-47.363,-34.668,-42.969,0.000
1709214663.017,-38.574,-50.781,-38.574,-53.711,0.000
1709214663.021,-43.945,-49.805,-45.898,-52.246,0.000
1709214663.025,-31.738,-49.805,-32.227,-34.668,0.000
1709214663.029,-23.438,-56.152,-27.344,-31.738,0.000
1709214663.033,-27.832,-47.852,-37.109,-39.062,0.000
1709214663.037,-34.668,-48.828,-38.574,-41.016,0.000
1709214663.040,-36.621,-49.316,-36.133,-34.668,0.000
1709214663.044,-27.344,-39.062,-32.715,-30.273,0.000
1709214663.048,-21.484,-43.457,-30.762,-32.227,0.000
1709214663.052,-27.832,-47.363,-29.297,-32.715,0.000
1709214663.056,-30.762,-42.969,-31.250,-31.738,0.000
1709214663.060,-27.832,-41.504,-31.250,-33.691,0.000
1709214663.064,-24.414,-48.828,-23.926,-22.949,0.000
1709214663.068,-14.160,-53.711,-20.996,-21.973,0.000
1709214663.072,-17.578,-45.410,-20.996,-35.156,0.000
1709214663.076,-31.738,-36.621,-29.297,-43.945,0.000
1709214663.080,-41.992,-40.039,-32.227,-40.039,0.000
1709214663.084,-46.387,-40.039,-34.668,-31.738,0.000
1709214663.087,-42.969,-37.598,-43.945,-28.809,0.000
1709214663.091,-43.945,-46.387,-38.574,-37.109,0.000
1709214663.095,-46.387,-49.805,-39.062,-34.180,0.000
1709214663.099,-37.598,-42.480,-43.457,-26.367,0.000
1709214663.103,-31.738,-41.016,-41.016,-32.227,0.000
1709214663.107,-34.180,-39.062,-46.387,-28.320,0.000
1709214663.111,-32.715,-33.691,-45.410,-26.855,0.000
1709214663.115,-33.691,-32.227,-37.598,-32.227,0.000
1709214663.119,-39.062,-37.109,-45.898,-40.039,0.000
1709214663.123,-43.457,-36.133,-49.805,-38.574,0.000
1709214663.126,-37.109,-29.785,-43.945,-39.062,0.000
1709214663.130,-33.691,-29.785,-42.480,-38.574,0.000
1709214663.134,-41.504,-37.109,-41.016,-39.062,0.000
1709214663.138,-39.551,-36.133,-32.715,-39.551,0.000
1709214663.142,-33.691,-31.738,-34.180,-31.250,0.000
1709214663.146,-38.574,-36.621,-49.316,-38.086,0.000
1709214663.150,-42.969,-44.434,-55.664,-45.410,0.000
1709214663.154,-42.480,-49.805,-56.152,-46.387,0.000
1709214663.158,-39.062,-40.039,-43.457,-43.945,0.000
1709214663.162,-36.621,-39.062,-38.086,-37.598,0.000
1709214663.166,-35.645,-48.340,-33.203,-30.273,0.000
1709214663.169,-48.340,-41.016,-36.133,-26.367,0.000
1709214663.173,-43.457,-29.785,-38.574,-31.250,0.000
1709214663.177,-34.180,-36.621,-27.344,-37.109,0.000
1709214663.181,-47.852,-46.875,-30.762,-46.875,0.000
1709214663.185,-47.852,-47.852,-38.574,-43.945,0.000
1709214663.189,-37.598,-50.781,-40.527,-35.156,0.000
1709214663.193,-39.551,-48.828,-38.574,-48.828,0.000
1709214663.197,-38.086,-47.363,-33.203,-45.898,0.000
1709214663.201,-40.039,-40.039,-33.203,-39.551,0.000
1709214663.205,-38.086,-40.527,-32.227,-36.133,0.000
1709214663.208,-22.949,-40.039,-22.461,-21.484,0.000
1709214663.212,-20.508,-43.457,-25.879,-24.414,0.000
1709214663.216,-30.762,-59.082,-34.180,-40.039,0.000
1709214663.220,-38.574,-53.711,-38.086,-42.969,0.000
1709214663.224,-30.273,-37.109,-34.180,-43.457,0.000
1709214663.228,-24.902,-41.504,-32.715,-42.480,0.000
1709214663.232,-23.926,-43.457,-36.621,-29.785,0.000
1709214663.236,-23.926,-32.227,-31.738,-37.598,0.000
1709214663.240,-36.621,-38.086,-31.250,-49.805,0.000
1709214663.244,-38.086,-38.086,-39.062,-33.203,0.000
1709214663.248,-30.762,-31.738,-34.668,-22.461,0.000
1709214663.251,-33.203,-42.480,-36.621,-32.715,0.000
1709214663.255,-37.598,-59.570,-42.480,-39.551,0.000
1709214663.259,-40.527,-52.246,-47.852,-32.715,0.000
1709214663.263,-40.039,-44.922,-48.340,-24.902,0.000
1709214663.267,-37.598,-41.016,-32.715,-28.320,0.000
1709214663.271,-41.016,-39.062,-29.785,-39.062,0.000
1709214663.275,-41.016,-45.898,-37.598,-41.016,0.000
1709214663.279,-41.504,-37.109,-39.062,-36.621,0.000
1709214663.283,-38.574,-27.344,-33.691,-42.480,0.000
1709214663.287,-40.039,-37.598,-35.156,-45.410,0.000
1709214663.290,-40.039,-45.410,-39.062,-51.270,0.000
1709214663.294,-34.668,-46.875,-40.039,-57.617,0.000
1709214663.298,-37.598,-48.340,-42.480,-55.664,0.000
1709214663.302,-41.016,-48.340,-38.086,-36.133,0.000
1709214663.306,-36.133,-59.570,-37.598,-30.762,0.000
1709214663.310,-33.203,-50.293,-40.527,-40.039,0.000
1709214663.314,-36.133,-43.457,-42.480,-41.504,0.000
1709214663.318,-34.180,-46.387,-34.668,-41.504,0.000
1709214663.322,-33.203,-42.969,-32.715,-39.062,0.000
1709214663.325,-33.203,-41.016,-38.574,-36.621,0.000
1709214663.329,-30.273,-31.250,-37.109,-41.992,0.000
1709214663.333,-30.762,-40.527,-37.598,-44.434,0.000
1709214663.337,-40.039,-52.734,-39.551,-47.363,0.000
1709214663.341,-43.457,-41.016,-35.156,-42.480,0.000
1709214663.345,-36.621,-35.645,-32.715,-33.691,0.000
1709214663.349,-35.156,-50.781,-31.250,-33.691,0.000
1709214663.353,-32.227,-62.500,-33.203,-35.645,0.000
1709214663.357,-34.180,-54.199,-34.668,-35.645,0.000
1709214663.361,-38.574,-39.551,-32.715,-35.645,0.000
1709214663.365,-36.133,-39.062,-27.344,-26.367,0.000
1709214663.369,-38.086,-42.969,-32.715,-24.414,0.000
1709214663.372,-36.621,-43.945,-38.086,-32.715,0.000
1709214663.376,-35.156,-41.016,-35.156,-39.551,0.000
1709214663.380,-41.504,-38.574,-40.527,-37.598,0.000
1709214663.384,-44.922,-42.480,-43.457,-31.738,0.000
1709214663.388,-40.527,-50.293,-41.016,-36.621,0.000
1709214663.392,-41.016,-57.129,-39.062,-38.086,0.000
1709214663.396,-38.086,-44.922,-28.809,-37.598,0.000
1709214663.400,-41.504,-41.016,-30.762,-40.527,0.000
1709214663.404,-42.969,-42.480,-35.645,-33.691,0.000
1709214663.408,-30.762,-41.504,-25.879,-23.438,0.000
1709214663.412,-29.297,-48.340,-24.902,-35.156,0.000
1709214663.416,-37.598,-47.363,-28.809,-49.316,0.000
1709214663.420,-38.086,-40.527,-38.574,-50.293,0.000
1709214663.424,-33.691,-37.598,-43.945,-47.852,0.000
1709214663.427,-40.527,-47.852,-39.551,-44.922,0.000
1709214663.431,-45.898,-55.176,-42.480,-54.688,0.000
1709214663.435,-50.781,-48.340,-42.480,-56.641,0.000
1709214663.439,-54.199,-44.922,-38.086,-44.922,0.000
1709214663.443,-58.105,-44.434,-42.480,-52.734,0.000
1709214663.447,-53.223,-39.551,-38.574,-52.246,0.000
1709214663.451,-48.828,-41.504,-38.086,-44.922,0.000
1709214663.455,-48.340,-49.805,-43.945,-49.805,0.000
1709214663.459,-42.969,-42.480,-36.133,-48.340,0.000
1709214663.463,-45.410,-48.340,-36.621,-44.922,0.000
1709214663.467,-41.016,-52.734,-37.598,-40.527,0.000
1709214663.470,-33.203,-42.480,-37.598,-39.062,0.000
1709214663.474,-35.645,-41.504,-43.945,-44.922,0.000
1709214663.478,-37.598,-41.016,-40.527,-41.992,0.000
1709214663.482,-36.621,-39.062,-37.109,-33.203,0.000
1709214663.486,-34.668,-40.527,-40.039,-25.879,0.000
1709214663.490,-30.273,-38.086,-44.922,-26.367,0.000
1709214663.494,-30.762,-36.621,-42.480,-39.062,0.000
1709214663.498,-38.574,-43.457,-38.086,-41.992,0.000
1709214663.502,-44.434,-48.340,-40.527,-41.504,0.000
1709214663.506,-32.227,-46.387,-35.645,-32.715,0.000
1709214663.510,-26.855,-49.316,-32.227,-33.691,0.000
1709214663.513,-32.715,-43.457,-35.645,-39.551,0.000
1709214663.517,-37.598,-46.875,-38.574,-32.715,0.000
1709214663.521,-49.805,-48.340,-34.668,-30.762,0.000
1709214663.525,-48.340,-41.016,-41.504,-27.344,0.000
1709214663.529,-39.551,-40.527,-48.340,-27.832,0.000
1709214663.533,-46.875,-41.992,-52.734,-43.457,0.000
1709214663.537,-55.664,-50.781,-51.758,-52.734,0.000
1709214663.541,-53.711,-47.363,-48.828,-44.922,0.000
1709214663.545,-54.688,-46.387,-52.246,-36.621,0.000
1709214663.549,-50.781,-52.734,-45.410,-32.715,0.000
1709214663.552,-43.457,-48.340,-37.598,-31.250,0.000
1709214663.556,-51.270,-51.270,-45.898,-33.203,0.000
1709214663.560,-50.293,-48.828,-45.898,-22.949,0.000
1709214663.564,-46.387,-40.039,-41.992,-20.508,0.000
1709214663.568,-43.945,-37.109,-41.016,-36.621,0.000
1709214663.572,-34.668,-36.133,-41.992,-45.410,0.000
1709214663.576,-41.504,-41.016,-52.246,-55.176,0.000
