timestamps,TP9,AF7,AF8,TP10,Right AUX
1709373897.561,-71.289,-31.250,-31.250,-53.711,0.000
1709373897.565,-46.387,-34.180,-31.738,-31.250,0.000
1709373897.569,-2.930,-37.598,-31.250,3.418,0.000
1709373897.573,-9.277,-40.039,-31.250,-12.207,0.000
1709373897.577,-55.176,-37.598,-32.227,-47.852,0.000
1709373897.581,-68.848,-37.109,-38.574,-47.852,0.000
1709373897.584,-51.270,-40.527,-42.969,-38.574,0.000
1709373897.588,-8.789,-41.992,-36.621,-8.789,0.000
1709373897.592,-6.348,-38.086,-31.738,-7.324,0.000
1709373897.596,-53.711,-30.273,-28.809,-35.645,0.000
1709373897.600,-68.359,-32.715,-26.367,-41.016,0.000
1709373897.604,-49.805,-41.504,-27.344,-31.738,0.000
1709373897.608,-3.906,-41.016,-27.832,4.883,0.000
1709373897.612,5.371,-38.574,-31.250,14.160,0.000
1709373897.616,-42.480,-36.621,-31.250,-29.297,0.000
1709373897.620,-66.406,-34.668,-31.738,-46.387,0.000
1709373897.624,-56.152,-31.250,-33.691,-35.156,0.000
1709373897.628,-12.207,-33.203,-40.039,-11.719,0.000
1709373897.631,8.301,-34.180,-42.480,-7.324,0.000
1709373897.635,-39.551,-28.320,-33.691,-42.480,0.000
1709373897.639,-61.035,-24.414,-28.320,-47.363,0.000
1709373897.643,-55.664,-32.715,-35.156,-34.668,0.000
1709373897.647,-19.043,-35.645,-36.621,-14.648,0.000
1709373897.651,16.113,-36.621,-33.203,9.277,0.000
1709373897.655,-37.598,-43.945,-30.762,-33.203,0.000
1709373897.659,-89.844,-49.805,-37.109,-74.707,0.000
1709373897.663,-75.684,-51.270,-37.598,-64.941,0.000
1709373897.667,-29.297,-51.758,-29.785,-32.715,0.000
1709373897.671,5.859,-49.316,-27.832,-0.488,0.000
1709373897.675,-35.156,-52.246,-32.227,-28.320,0.000
1709373897.678,-82.520,-53.223,-36.133,-66.406,0.000
1709373897.682,-82.031,-50.781,-38.574,-68.359,0.000
1709373897.686,-44.434,-47.852,-41.016,-36.621,0.000
1709373897.690,-7.812,-42.480,-44.922,-4.395,0.000
1709373897.694,-32.227,-34.668,-38.086,-25.879,0.000
1709373897.698,-66.406,-27.832,-35.156,-50.781,0.000
1709373897.702,-73.242,-30.273,-35.645,-54.199,0.000
1709373897.706,-43.945,-34.180,-33.203,-37.109,0.000
1709373897.710,0.488,-34.668,-34.668,-3.906,0.000
1709373897.714,-14.160,-36.133,-33.203,-9.766,0.000
1709373897.717,-56.152,-40.527,-36.621,-35.156,0.000
1709373897.721,-51.270,-36.621,-29.297,-40.039,0.000
1709373897.725,-28.809,-32.227,-31.738,-34.668,0.000
1709373897.729,6.836,-32.715,-38.086,0.977,0.000
1709373897.733,-2.930,-30.762,-34.668,5.859,0.000
1709373897.737,-54.199,-32.715,-35.645,-44.922,0.000
1709373897.741,-66.895,-35.645,-35.645,-60.059,0.000
1709373897.745,-44.922,-34.668,-35.156,-37.109,0.000
1709373897.749,5.371,-34.180,-33.203,-7.812,0.000
1709373897.753,8.789,-33.691,-37.598,-14.160,0.000
1709373897.757,-49.805,-34.180,-42.480,-49.805,0.000
1709373897.760,-67.871,-35.645,-40.039,-58.594,0.000
1709373897.764,-45.410,-34.180,-38.086,-49.316,0.000
1709373897.768,-3.906,-37.109,-34.180,-17.578,0.000
1709373897.772,2.441,-41.016,-36.621,-6.836,0.000
1709373897.776,-47.852,-32.227,-36.621,-31.250,0.000
1709373897.780,-76.660,-31.738,-36.621,-44.922,0.000
1709373897.784,-61.523,-38.086,-41.016,-38.574,0.000
1709373897.788,-13.672,-40.527,-38.574,-9.277,0.000
1709373897.792,3.906,-41.016,-31.738,6.348,0.000
1709373897.796,-42.480,-35.156,-30.762,-20.996,0.000
1709373897.799,-66.895,-32.715,-31.738,-36.133,0.000
1709373897.803,-51.758,-38.086,-33.691,-28.320,0.000
1709373897.807,-4.395,-39.551,-35.645,1.465,0.000
1709373897.811,19.043,-36.621,-34.180,27.344,0.000
1709373897.815,-29.297,-34.180,-33.691,-4.883,0.000
1709373897.819,-60.059,-34.668,-35.645,-37.598,0.000
1709373897.823,-59.082,-40.527,-36.621,-38.574,0.000
1709373897.827,-26.855,-44.434,-36.133,-27.344,0.000
1709373897.831,6.348,-41.016,-32.715,-8.301,0.000
1709373897.835,-31.738,-36.133,-31.738,-39.062,0.000
1709373897.839,-67.383,-36.133,-32.227,-68.848,0.000
1709373897.842,-59.570,-36.621,-31.250,-66.406,0.000
1709373897.846,-28.809,-35.645,-31.250,-40.527,0.000
1709373897.850,4.883,-37.109,-31.738,-16.602,0.000
1709373897.854,-22.461,-37.109,-35.156,-43.945,0.000
1709373897.858,-65.918,-35.156,-37.109,-66.406,0.000
1709373897.862,-62.988,-39.551,-32.227,-62.988,0.000
1709373897.866,-27.344,-37.109,-31.250,-37.109,0.000
1709373897.870,13.184,-31.738,-41.016,-9.766,0.000
1709373897.874,-10.254,-37.598,-40.527,-29.785,0.000
1709373897.877,-58.105,-40.039,-35.645,-60.547,0.000
1709373897.881,-60.547,-34.180,-36.133,-56.152,0.000
1709373897.885,-37.598,-41.992,-37.598,-42.969,0.000
1709373897.889,3.418,-48.340,-40.527,-16.113,0.000
1709373897.893,-3.418,-38.574,-38.086,-20.020,0.000
1709373897.897,-57.617,-34.668,-35.645,-58.105,0.000
1709373897.901,-72.266,-37.109,-34.668,-61.035,0.000
1709373897.905,-42.969,-37.598,-33.203,-45.898,0.000
1709373897.909,6.348,-36.621,-37.109,-13.184,0.000
1709373897.913,1.465,-39.551,-37.109,-11.719,0.000
1709373897.916,-56.152,-34.180,-37.598,-53.711,0.000
1709373897.920,-64.941,-27.832,-33.203,-58.594,0.000
1709373897.924,-41.992,-30.273,-29.785,-40.527,0.000
1709373897.928,-5.859,-32.715,-36.133,-14.648,0.000
1709373897.932,-2.441,-36.133,-37.598,-13.672,0.000
1709373897.936,-53.711,-37.598,-29.785,-54.199,0.000
1709373897.940,-65.918,-34.180,-26.855,-62.988,0.000
1709373897.944,-47.852,-31.738,-33.203,-49.316,0.000
1709373897.948,-8.789,-31.738,-35.156,-25.879,0.000
1709373897.952,12.207,-30.273,-28.809,-12.695,0.000
1709373897.956,-40.039,-32.715,-34.668,-44.434,0.000
1709373897.960,-76.172,-37.109,-41.016,-64.941,0.000
1709373897.963,-56.152,-38.574,-36.133,-51.758,0.000
1709373897.967,-13.672,-37.109,-34.180,-18.066,0.000
1709373897.971,3.906,-35.156,-35.156,7.324,0.000
1709373897.975,-37.598,-37.109,-34.668,-27.344,0.000
1709373897.979,-68.848,-40.527,-39.551,-61.035,0.000
1709373897.983,-59.570,-41.504,-41.016,-47.363,0.000
1709373897.987,-21.973,-39.062,-39.062,-15.625,0.000
1709373897.991,10.254,-32.715,-36.133,3.418,0.000
1709373897.995,-24.902,-33.203,-31.250,-20.508,0.000
1709373897.999,-68.848,-40.039,-39.062,-45.410,0.000
1709373898.003,-62.012,-40.039,-41.016,-49.805,0.000
1709373898.006,-21.973,-37.598,-38.574,-28.809,0.000
1709373898.010,10.254,-38.086,-44.922,0.488,0.000
1709373898.014,-20.996,-32.715,-40.527,-20.996,0.000
1709373898.018,-59.082,-27.832,-36.133,-41.016,0.000
1709373898.022,-63.965,-28.809,-35.645,-42.969,0.000
1709373898.026,-36.133,-32.715,-31.250,-28.809,0.000
1709373898.030,8.789,-30.762,-36.621,-2.930,0.000
1709373898.034,-14.648,-27.832,-38.086,-18.555,0.000
1709373898.038,-59.082,-31.250,-29.785,-49.805,0.000
1709373898.042,-63.965,-30.273,-24.902,-53.223,0.000
1709373898.046,-34.668,-26.367,-27.344,-27.344,0.000
1709373898.049,7.324,-28.809,-32.227,-0.488,0.000
1709373898.053,-6.348,-30.762,-27.832,-15.137,0.000
1709373898.057,-51.270,-31.738,-27.832,-55.176,0.000
1709373898.061,-55.176,-32.227,-37.109,-61.523,0.000
1709373898.065,-32.715,-30.762,-39.551,-51.758,0.000
1709373898.069,8.301,-32.227,-39.551,-35.645,0.000
1709373898.073,4.883,-31.250,-38.574,-27.344,0.000
1709373898.077,-43.457,-29.785,-38.574,-54.688,0.000
1709373898.081,-62.988,-34.668,-37.598,-65.430,0.000
1709373898.085,-54.199,-35.156,-36.621,-43.457,0.000
1709373898.089,-6.836,-35.156,-36.621,-7.812,0.000
1709373898.092,3.906,-36.621,-36.133,4.395,0.000
1709373898.096,-41.504,-34.180,-31.738,-30.273,0.000
1709373898.100,-59.570,-26.367,-29.297,-53.223,0.000
1709373898.104,-52.246,-32.227,-36.621,-42.480,0.000
1709373898.108,-7.812,-38.086,-40.527,-2.441,0.000
1709373898.112,5.371,-36.621,-39.062,5.371,0.000
1709373898.116,-48.340,-36.621,-39.551,-32.715,0.000
1709373898.120,-68.848,-33.203,-36.621,-45.898,0.000
1709373898.124,-57.617,-35.156,-38.086,-47.852,0.000
1709373898.128,-22.461,-41.992,-41.504,-27.832,0.000
1709373898.132,-4.395,-42.969,-43.945,-9.277,0.000
1709373898.135,-62.012,-42.480,-44.434,-44.434,0.000
1709373898.139,-91.797,-43.945,-40.039,-64.941,0.000
1709373898.143,-67.383,-40.527,-33.203,-51.758,0.000
1709373898.147,-32.227,-38.574,-31.738,-23.438,0.000
1709373898.151,-1.465,-34.668,-31.250,7.812,0.000
1709373898.155,-33.691,-35.156,-33.203,-22.949,0.000
1709373898.159,-75.684,-36.133,-30.762,-49.805,0.000
1709373898.163,-72.754,-34.180,-35.645,-50.293,0.000
1709373898.167,-28.320,-32.227,-37.598,-38.574,0.000
1709373898.171,14.648,-32.227,-31.738,-4.395,0.000
1709373898.174,-16.113,-35.156,-32.227,-25.391,0.000
1709373898.178,-58.105,-35.156,-33.203,-56.152,0.000
1709373898.182,-57.617,-37.598,-34.668,-54.199,0.000
1709373898.186,-26.367,-39.062,-31.250,-32.715,0.000
1709373898.190,13.184,-38.086,-28.320,0.488,0.000
1709373898.194,-0.488,-37.109,-31.738,-8.789,0.000
1709373898.198,-52.246,-37.598,-33.203,-35.156,0.000
1709373898.202,-58.594,-32.227,-36.621,-45.410,0.000
1709373898.206,-22.461,-28.320,-39.062,-28.320,0.000
1709373898.210,21.484,-27.832,-34.668,5.859,0.000
1709373898.214,0.488,-34.668,-37.109,-15.137,0.000
1709373898.217,-54.688,-37.598,-37.598,-49.316,0.000
1709373898.221,-60.059,-36.133,-35.645,-50.293,0.000
1709373898.225,-35.156,-38.574,-30.762,-39.062,0.000
1709373898.229,4.883,-36.621,-25.391,-4.883,0.000
1709373898.233,2.930,-31.738,-27.344,-5.859,0.000
1709373898.237,-55.664,-35.156,-30.273,-52.246,0.000
1709373898.241,-79.590,-35.645,-30.273,-60.547,0.000
1709373898.245,-61.035,-35.156,-34.180,-44.434,0.000
1709373898.249,-14.648,-34.180,-36.133,-14.648,0.000
1709373898.252,-3.418,-34.668,-36.621,-7.324,0.000
1709373898.256,-54.688,-37.109,-38.574,-45.410,0.000
1709373898.260,-80.078,-37.109,-37.109,-66.406,0.000
1709373898.264,-56.152,-39.062,-30.273,-52.246,0.000
1709373898.268,-2.441,-40.039,-31.250,-18.555,0.000
1709373898.272,12.695,-39.551,-38.086,-8.301,0.000
1709373898.276,-39.551,-41.016,-37.598,-44.922,0.000
1709373898.280,-65.918,-40.039,-33.203,-63.965,0.000
1709373898.284,-50.781,-40.039,-33.691,-53.711,0.000
1709373898.288,-10.254,-42.480,-41.016,-22.949,0.000
1709373898.291,13.672,-40.527,-39.062,-4.883,0.000
1709373898.295,-36.133,-41.016,-36.133,-33.691,0.000
1709373898.299,-69.824,-39.551,-35.645,-50.293,0.000
1709373898.303,-58.594,-34.180,-33.203,-41.016,0.000
1709373898.307,-16.113,-32.227,-35.645,-18.555,0.000
1709373898.311,17.090,-35.645,-37.109,0.000,0.000
1709373898.315,-30.273,-41.992,-32.715,-30.762,0.000
1709373898.319,-72.754,-40.527,-31.250,-52.734,0.000
1709373898.323,-67.871,-35.645,-31.738,-49.316,0.000
1709373898.327,-31.738,-37.598,-34.180,-31.250,0.000
1709373898.331,12.695,-37.109,-29.297,2.441,0.000
1709373898.335,-16.602,-33.691,-24.414,-17.578,0.000
1709373898.338,-66.895,-32.227,-33.691,-44.922,0.000
1709373898.342,-67.871,-32.715,-37.109,-40.039,0.000
1709373898.346,-34.668,-39.062,-32.715,-26.367,0.000
1709373898.350,2.930,-40.527,-37.109,-6.348,0.000
1709373898.354,-20.508,-37.598,-37.109,-24.902,0.000
1709373898.358,-66.406,-35.645,-31.250,-57.617,0.000
1709373898.362,-69.336,-31.250,-29.785,-51.758,0.000
1709373898.366,-43.457,-31.250,-32.227,-34.668,0.000
1709373898.370,-4.395,-31.738,-32.715,-6.348,0.000
1709373898.374,-20.996,-28.809,-26.855,-9.766,0.000
1709373898.378,-71.777,-31.738,-30.273,-49.316,0.000
1709373898.381,-79.590,-36.621,-36.133,-60.059,0.000
1709373898.385,-54.688,-35.156,-34.180,-42.969,0.000
1709373898.389,-2.930,-34.180,-33.691,-9.766,0.000
1709373898.393,-4.883,-37.109,-35.156,-2.441,0.000
1709373898.397,-59.082,-42.969,-38.574,-46.875,0.000
1709373898.401,-69.336,-40.039,-33.203,-52.734,0.000
1709373898.405,-43.945,-35.645,-26.367,-31.250,0.000
1709373898.409,5.859,-32.227,-27.832,0.000,0.000
1709373898.413,11.230,-30.762,-32.715,7.812,0.000
1709373898.417,-40.527,-30.273,-37.109,-30.273,0.000
1709373898.421,-64.941,-33.203,-36.621,-54.199,0.000
1709373898.425,-59.570,-36.133,-40.527,-52.734,0.000
1709373898.428,-13.672,-37.109,-41.016,-27.832,0.000
1709373898.432,4.883,-31.738,-33.691,-5.859,0.000
1709373898.436,-47.852,-31.250,-26.855,-23.438,0.000
1709373898.440,-76.172,-38.574,-31.738,-50.293,0.000
1709373898.444,-59.570,-40.039,-37.598,-47.852,0.000
1709373898.448,-13.184,-40.039,-34.668,-17.090,0.000
1709373898.452,8.301,-37.598,-32.227,-4.395,0.000
1709373898.456,-39.062,-32.715,-36.133,-37.598,0.000
1709373898.460,-70.312,-37.598,-43.457,-66.406,0.000
1709373898.464,-64.941,-40.527,-43.457,-61.523,0.000
1709373898.467,-31.250,-35.156,-44.434,-33.203,0.000
1709373898.471,3.418,-29.785,-43.945,-2.930,0.000
1709373898.475,-33.691,-30.273,-44.922,-34.180,0.000
1709373898.479,-68.848,-33.691,-45.898,-61.035,0.000
1709373898.483,-61.523,-30.762,-41.992,-46.387,0.000
1709373898.487,-23.926,-31.738,-38.574,-26.367,0.000
1709373898.491,17.090,-33.691,-38.086,0.488,0.000
1709373898.495,-19.043,-33.203,-43.457,-23.438,0.000
1709373898.499,-63.965,-30.762,-39.551,-58.105,0.000
1709373898.503,-60.547,-34.180,-37.598,-57.617,0.000
1709373898.507,-26.367,-36.621,-40.039,-39.062,0.000
1709373898.510,22.461,-36.621,-38.086,-6.836,0.000
1709373898.514,-7.324,-39.551,-39.062,-25.879,0.000
1709373898.518,-64.941,-39.551,-39.062,-59.570,0.000
1709373898.522,-67.383,-38.086,-36.621,-58.594,0.000
1709373898.526,-39.551,-42.480,-39.062,-42.480,0.000
1709373898.530,-4.883,-45.898,-45.898,-17.578,0.000
1709373898.534,-18.066,-38.574,-43.457,-25.879,0.000
1709373898.538,-69.336,-38.086,-44.434,-61.035,0.000
1709373898.542,-77.637,-43.945,-42.969,-71.777,0.000
1709373898.546,-46.387,-39.062,-36.621,-57.129,0.000
1709373898.549,2.441,-36.133,-35.156,-19.531,0.000
1709373898.553,3.418,-36.133,-33.691,-9.766,0.000
1709373898.557,-41.992,-34.668,-26.367,-40.527,0.000
1709373898.561,-64.453,-33.691,-25.391,-58.594,0.000
1709373898.565,-45.410,-34.668,-28.809,-48.340,0.000
1709373898.569,4.395,-33.691,-31.738,-5.859,0.000
1709373898.573,3.418,-30.273,-33.203,6.348,0.000
1709373898.577,-48.828,-35.156,-30.762,-43.457,0.000
1709373898.581,-70.801,-35.645,-30.273,-67.383,0.000
1709373898.585,-51.758,-30.762,-33.691,-55.176,0.000
1709373898.589,-11.230,-31.738,-35.156,-24.902,0.000
1709373898.592,-4.395,-32.715,-38.574,-11.230,0.000
1709373898.596,-50.781,-31.738,-39.551,-41.992,0.000
1709373898.600,-69.336,-32.715,-37.109,-61.035,0.000
1709373898.604,-51.270,-32.227,-34.668,-48.340,0.000
1709373898.608,-10.254,-30.273,-30.762,-16.113,0.000
1709373898.612,18.066,-28.320,-29.785,-2.930,0.000
1709373898.616,-22.949,-26.367,-25.391,-27.344,0.000
1709373898.620,-62.500,-26.855,-25.879,-42.480,0.000
1709373898.624,-49.805,-26.367,-27.832,-39.062,0.000
1709373898.627,-2.930,-26.855,-29.297,-15.137,0.000
1709373898.631,19.043,-32.227,-32.715,1.953,0.000
1709373898.635,-34.180,-33.691,-34.668,-29.785,0.000
1709373898.639,-77.148,-35.156,-37.598,-61.035,0.000
1709373898.643,-74.219,-38.574,-37.109,-59.082,0.000
1709373898.647,-38.086,-39.062,-35.156,-32.715,0.000
1709373898.651,-7.324,-41.016,-39.551,-15.137,0.000
1709373898.655,-44.922,-37.109,-40.039,-33.691,0.000
1709373898.659,-85.938,-36.133,-34.668,-53.223,0.000
1709373898.663,-83.984,-41.992,-38.086,-56.152,0.000
1709373898.666,-47.852,-49.316,-36.133,-43.457,0.000
1709373898.670,-3.906,-46.875,-28.809,-14.648,0.000
1709373898.674,-29.297,-39.062,-27.344,-23.926,0.000
1709373898.678,-77.637,-38.574,-28.320,-53.223,0.000
1709373898.682,-73.730,-40.039,-27.344,-57.617,0.000
1709373898.686,-46.387,-40.527,-31.738,-40.039,0.000
1709373898.690,-6.348,-40.039,-34.180,-11.230,0.000
1709373898.694,-20.020,-41.016,-36.133,-20.020,0.000
1709373898.698,-70.801,-38.574,-38.086,-51.758,0.000
1709373898.702,-77.637,-34.668,-38.086,-58.594,0.000
1709373898.706,-46.875,-37.109,-43.457,-38.574,0.000
1709373898.710,-3.418,-41.016,-36.621,-8.789,0.000
1709373898.713,-10.254,-41.016,-34.180,-12.207,0.000
1709373898.717,-59.082,-37.109,-38.574,-44.434,0.000
1709373898.721,-71.289,-33.203,-31.738,-43.457,0.000
1709373898.725,-48.828,-30.273,-29.785,-28.320,0.000
1709373898.729,1.953,-26.855,-34.180,-3.906,0.000
1709373898.733,6.348,-25.391,-38.574,1.465,0.000
1709373898.737,-49.316,-22.949,-38.086,-37.598,0.000
1709373898.741,-62.500,-23.926,-33.203,-47.363,0.000
1709373898.745,-39.062,-22.949,-31.250,-28.320,0.000
1709373898.749,1.953,-22.949,-31.738,0.977,0.000
1709373898.753,11.230,-28.320,-30.273,1.953,0.000
1709373898.756,-33.203,-27.344,-25.879,-31.738,0.000
1709373898.760,-59.082,-30.762,-27.344,-50.293,0.000
1709373898.764,-51.758,-34.180,-31.738,-50.293,0.000
1709373898.768,-8.789,-29.297,-30.273,-19.043,0.000
1709373898.772,3.418,-29.785,-33.203,-15.137,0.000
1709373898.776,-43.457,-35.156,-36.133,-41.016,0.000
1709373898.780,-61.035,-34.180,-37.109,-49.316,0.000
1709373898.784,-55.664,-31.738,-42.480,-45.410,0.000
1709373898.788,-21.973,-30.273,-39.551,-18.555,0.000
1709373898.792,18.066,-34.668,-30.273,8.301,0.000
1709373898.796,-23.438,-32.227,-30.762,-16.602,0.000
1709373898.800,-70.312,-23.926,-36.133,-52.734,0.000
1709373898.803,-66.406,-25.391,-33.691,-52.246,0.000
1709373898.807,-29.785,-28.320,-35.156,-27.832,0.000
1709373898.811,12.695,-35.645,-33.203,3.906,0.000
1709373898.815,-19.531,-39.551,-35.645,-20.508,0.000
1709373898.819,-64.941,-33.203,-35.645,-52.734,0.000
1709373898.823,-57.129,-32.715,-28.809,-48.828,0.000
1709373898.827,-28.320,-36.621,-33.691,-29.785,0.000
1709373898.831,0.488,-39.062,-33.203,-7.812,0.000
1709373898.835,-23.926,-35.645,-30.762,-33.691,0.000
1709373898.839,-65.918,-34.668,-31.738,-65.430,0.000
1709373898.843,-60.059,-35.645,-28.320,-56.641,0.000
1709373898.846,-18.555,-36.621,-26.855,-30.762,0.000
1709373898.850,20.996,-41.504,-31.738,-4.883,0.000
1709373898.854,0.000,-38.086,-31.250,-13.672,0.000
1709373898.858,-48.340,-32.715,-24.902,-34.180,0.000
1709373898.862,-61.523,-32.715,-25.879,-44.922,0.000
1709373898.866,-35.156,-30.762,-28.320,-36.621,0.000
1709373898.870,9.766,-32.227,-30.273,-4.883,0.000
1709373898.874,0.977,-32.715,-29.785,-5.371,0.000
1709373898.878,-50.293,-25.879,-26.367,-38.086,0.000
1709373898.882,-68.359,-25.391,-29.785,-46.387,0.000
1709373898.885,-47.363,-32.227,-31.738,-36.621,0.000
1709373898.889,1.465,-34.180,-30.762,-8.789,0.000
1709373898.893,0.488,-37.598,-34.180,-12.207,0.000
1709373898.897,-45.410,-35.156,-32.227,-49.805,0.000
1709373898.901,-61.523,-27.832,-29.785,-50.781,0.000
1709373898.905,-52.734,-32.227,-39.062,-44.922,0.000
1709373898.909,-6.348,-37.598,-42.969,-19.043,0.000
1709373898.913,13.672,-31.250,-37.109,-2.930,0.000
1709373898.917,-38.086,-30.273,-35.156,-41.016,0.000
1709373898.921,-65.430,-35.156,-36.133,-62.500,0.000
1709373898.924,-51.758,-34.668,-42.480,-52.734,0.000
1709373898.928,-14.648,-38.086,-45.898,-23.438,0.000
1709373898.932,7.324,-38.574,-38.086,-8.789,0.000
1709373898.936,-33.691,-34.668,-30.273,-35.645,0.000
1709373898.940,-68.359,-34.668,-34.180,-52.246,0.000
1709373898.944,-59.570,-37.598,-39.062,-43.945,0.000
1709373898.948,-20.996,-38.086,-33.691,-12.695,0.000
1709373898.952,3.418,-34.668,-30.762,3.418,0.000
1709373898.956,-34.180,-30.762,-30.762,-33.691,0.000
1709373898.960,-69.336,-35.645,-33.691,-64.941,0.000
1709373898.964,-64.453,-40.527,-38.086,-63.965,0.000
1709373898.967,-29.297,-36.133,-36.133,-42.480,0.000
1709373898.971,7.324,-32.227,-27.832,-9.277,0.000
1709373898.975,-26.367,-31.738,-34.668,-30.762,0.000
1709373898.979,-72.266,-36.621,-39.551,-67.383,0.000
1709373898.983,-71.289,-43.457,-36.133,-65.430,0.000
1709373898.987,-39.062,-41.016,-39.062,-44.434,0.000
1709373898.991,3.418,-33.691,-35.645,-5.371,0.000
1709373898.995,-24.414,-30.273,-31.738,-17.578,0.000
1709373898.999,-65.430,-32.227,-31.250,-59.082,0.000
1709373899.002,-63.965,-27.832,-27.832,-60.059,0.000
1709373899.006,-37.109,-26.855,-30.762,-38.574,0.000
1709373899.010,5.859,-34.668,-35.156,-9.277,0.000
1709373899.014,-10.742,-35.645,-36.621,-20.508,0.000
1709373899.018,-59.570,-35.156,-41.016,-50.781,0.000
1709373899.022,-65.918,-32.227,-41.016,-49.805,0.000
1709373899.026,-40.527,-30.273,-42.969,-36.133,0.000
1709373899.030,3.418,-35.645,-45.410,-12.695,0.000
1709373899.034,-1.465,-28.320,-36.621,-12.695,0.000
1709373899.038,-48.828,-24.902,-29.297,-38.574,0.000
1709373899.041,-58.594,-32.227,-36.621,-57.129,0.000
1709373899.045,-39.551,-34.668,-39.062,-52.246,0.000
1709373899.049,1.953,-34.180,-35.645,-13.672,0.000
1709373899.053,6.348,-33.203,-34.180,-3.906,0.000
1709373899.057,-44.922,-28.320,-33.203,-42.480,0.000
1709373899.061,-66.406,-26.855,-35.156,-57.129,0.000
1709373899.065,-48.828,-26.855,-38.086,-36.133,0.000
1709373899.069,-6.348,-29.297,-40.527,-4.883,0.000
1709373899.073,8.301,-30.762,-35.645,-0.977,0.000
1709373899.077,-42.969,-32.227,-38.086,-42.480,0.000
1709373899.081,-63.965,-31.250,-41.504,-51.270,0.000
1709373899.085,-41.016,-27.832,-35.156,-42.480,0.000
1709373899.088,-2.441,-32.715,-37.109,-26.855,0.000
1709373899.092,20.996,-30.762,-36.133,-5.859,0.000
1709373899.096,-25.879,-30.762,-27.344,-29.297,0.000
1709373899.100,-60.547,-36.621,-28.320,-58.594,0.000
1709373899.104,-51.270,-36.621,-29.297,-51.758,0.000
1709373899.108,-20.508,-36.621,-24.414,-17.090,0.000
1709373899.112,7.324,-42.480,-25.391,3.418,0.000
1709373899.116,-39.551,-44.434,-25.879,-29.297,0.000
1709373899.120,-80.566,-41.504,-20.996,-50.781,0.000
1709373899.124,-69.336,-40.527,-20.996,-41.504,0.000
1709373899.128,-37.109,-42.969,-26.855,-16.602,0.000
1709373899.131,-5.371,-43.945,-31.250,6.836,0.000
1709373899.135,-41.504,-41.992,-30.762,-20.020,0.000
1709373899.139,-84.961,-43.457,-29.297,-52.734,0.000
1709373899.143,-77.637,-38.574,-26.855,-47.363,0.000
1709373899.147,-40.039,-41.016,-31.738,-32.227,0.000
1709373899.151,1.953,-39.551,-37.109,-9.277,0.000
1709373899.155,-23.438,-36.133,-34.180,-23.438,0.000
1709373899.159,-67.383,-39.551,-28.809,-53.223,0.000
1709373899.163,-66.895,-37.109,-28.320,-51.758,0.000
1709373899.167,-36.621,-38.574,-35.156,-28.809,0.000
1709373899.171,1.465,-39.062,-38.086,-3.418,0.000
1709373899.175,-27.832,-31.738,-33.203,-26.367,0.000
1709373899.178,-70.801,-28.320,-33.691,-56.152,0.000
1709373899.182,-75.684,-34.180,-36.621,-58.105,0.000
1709373899.186,-48.340,-39.062,-37.109,-27.344,0.000
1709373899.190,2.930,-38.574,-36.133,5.859,0.000
1709373899.194,-3.906,-39.062,-34.180,-10.254,0.000
1709373899.198,-52.246,-39.062,-33.203,-39.062,0.000
1709373899.202,-69.336,-37.598,-29.785,-50.293,0.000
1709373899.206,-41.992,-39.062,-27.832,-40.039,0.000
1709373899.210,8.789,-41.016,-36.133,-8.301,0.000
1709373899.214,2.441,-36.621,-38.574,-12.207,0.000
1709373899.217,-52.734,-37.598,-31.250,-48.828,0.000
1709373899.221,-71.777,-37.598,-31.250,-58.594,0.000
1709373899.225,-50.293,-37.109,-30.273,-51.758,0.000
1709373899.229,-2.930,-37.598,-27.344,-16.602,0.000
1709373899.233,5.859,-37.598,-25.879,-0.488,0.000
1709373899.237,-48.340,-40.039,-29.297,-43.945,0.000
1709373899.241,-71.777,-39.062,-33.203,-59.570,0.000
1709373899.245,-52.246,-37.109,-29.297,-41.992,0.000
1709373899.249,-11.230,-44.922,-26.367,-13.672,0.000
1709373899.253,4.395,-43.457,-27.832,-6.348,0.000
1709373899.257,-44.434,-35.156,-34.668,-49.316,0.000
1709373899.260,-71.777,-34.668,-32.227,-65.918,0.000
1709373899.264,-55.176,-39.062,-33.203,-53.223,0.000
1709373899.268,-14.648,-45.898,-38.574,-32.227,0.000
1709373899.272,5.859,-47.363,-37.109,-21.973,0.000
1709373899.276,-37.109,-48.828,-34.668,-43.457,0.000
1709373899.280,-71.777,-43.945,-34.668,-61.523,0.000
1709373899.284,-62.012,-38.086,-33.203,-62.988,0.000
1709373899.288,-20.508,-39.551,-34.180,-37.109,0.000
1709373899.292,12.207,-37.598,-38.086,-5.371,0.000
1709373899.296,-25.391,-35.156,-35.156,-27.344,0.000
1709373899.299,-62.988,-35.645,-35.645,-57.617,0.000
1709373899.303,-62.988,-39.062,-39.062,-55.176,0.000
1709373899.307,-34.180,-43.457,-38.574,-27.832,0.000
1709373899.311,-0.488,-46.875,-37.109,-6.348,0.000
1709373899.315,-26.855,-44.922,-39.551,-30.762,0.000
1709373899.319,-59.570,-38.574,-37.598,-51.758,0.000
1709373899.323,-58.105,-39.062,-31.250,-47.363,0.000
1709373899.327,-35.645,-41.016,-36.621,-39.551,0.000
1709373899.331,6.348,-36.133,-39.551,-9.277,0.000
1709373899.335,-10.254,-36.133,-39.551,-24.902,0.000
1709373899.339,-62.012,-39.551,-42.480,-61.523,0.000
1709373899.342,-71.777,-39.062,-42.480,-61.523,0.000
1709373899.346,-43.945,-43.457,-47.852,-48.828,0.000
1709373899.350,-1.953,-46.875,-46.387,-17.090,0.000
1709373899.354,-13.672,-42.480,-38.574,-20.996,0.000
1709373899.358,-64.941,-39.062,-41.016,-53.711,0.000
1709373899.362,-70.312,-41.016,-33.691,-60.547,0.000
1709373899.366,-43.457,-43.457,-31.250,-43.457,0.000
1709373899.370,-2.930,-41.992,-40.527,-15.625,0.000
1709373899.374,-4.883,-40.039,-43.945,-17.578,0.000
1709373899.377,-58.594,-43.945,-41.504,-51.270,0.000
1709373899.381,-78.613,-45.898,-40.527,-62.012,0.000
1709373899.385,-60.059,-44.434,-40.039,-44.922,0.000
1709373899.389,-12.207,-39.551,-37.598,-10.254,0.000
1709373899.393,0.977,-32.227,-33.691,-2.441,0.000
1709373899.397,-42.480,-35.156,-27.344,-36.621,0.000
1709373899.401,-70.312,-36.621,-25.879,-45.898,0.000
1709373899.405,-62.012,-26.855,-28.320,-31.738,0.000
1709373899.409,-13.672,-28.809,-30.273,7.812,0.000
1709373899.413,0.488,-34.180,-32.715,23.438,0.000
1709373899.417,-47.363,-28.809,-36.133,-24.902,0.000
1709373899.420,-69.824,-25.879,-34.180,-45.898,0.000
1709373899.424,-56.152,-27.832,-30.273,-34.180,0.000
1709373899.428,-13.672,-29.785,-34.668,-6.836,0.000
1709373899.432,9.766,-26.855,-36.133,10.254,0.000
1709373899.436,-36.133,-28.809,-34.180,-25.879,0.000
1709373899.440,-66.895,-33.203,-34.668,-46.387,0.000
1709373899.444,-49.805,-31.738,-32.715,-35.156,0.000
1709373899.448,-8.301,-32.715,-36.621,-13.184,0.000
1709373899.452,19.043,-33.691,-33.203,11.719,0.000
1709373899.456,-20.996,-29.785,-27.344,-12.695,0.000
1709373899.460,-61.035,-29.785,-30.762,-43.945,0.000
1709373899.464,-58.594,-31.250,-29.297,-39.062,0.000
1709373899.467,-20.020,-28.320,-30.762,-16.113,0.000
1709373899.471,17.578,-28.320,-33.691,4.395,0.000
1709373899.475,-20.020,-33.691,-36.133,-23.926,0.000
1709373899.479,-64.453,-32.715,-38.086,-58.105,0.000
1709373899.483,-62.012,-29.297,-38.574,-56.641,0.000
1709373899.487,-34.668,-34.668,-45.410,-43.945,0.000
1709373899.491,6.348,-39.551,-45.410,-17.578,0.000
1709373899.495,-12.207,-37.598,-39.062,-29.785,0.000
1709373899.499,-57.617,-36.133,-37.598,-58.105,0.000
1709373899.503,-65.918,-32.715,-39.062,-62.012,0.000
1709373899.507,-34.668,-30.273,-37.598,-46.387,0.000
1709373899.511,7.812,-34.180,-39.551,-21.484,0.000
1709373899.514,-15.625,-33.203,-38.086,-26.855,0.000
1709373899.518,-62.500,-32.715,-35.645,-51.758,0.000
1709373899.522,-67.383,-34.180,-37.109,-56.641,0.000
1709373899.526,-42.969,-38.086,-37.598,-39.551,0.000
1709373899.530,6.836,-38.086,-40.527,-7.812,0.000
1709373899.534,5.859,-32.227,-35.156,-13.672,0.000
1709373899.538,-46.387,-32.715,-34.180,-48.340,0.000
1709373899.542,-61.523,-33.203,-38.574,-56.641,0.000
1709373899.546,-41.016,-35.156,-36.133,-44.922,0.000
1709373899.550,2.441,-35.156,-36.621,-12.695,0.000
1709373899.554,7.324,-32.715,-37.598,-7.812,0.000
1709373899.557,-45.898,-34.668,-38.086,-49.316,0.000
1709373899.561,-64.941,-34.180,-38.086,-58.105,0.000
1709373899.565,-48.828,-31.250,-40.039,-46.875,0.000
1709373899.569,-0.488,-34.180,-40.039,-20.996,0.000
1709373899.573,21.484,-32.715,-35.156,0.977,0.000
1709373899.577,-38.574,-25.879,-35.645,-32.715,0.000
1709373899.581,-76.172,-27.832,-38.574,-59.570,0.000
1709373899.585,-55.176,-33.691,-37.109,-51.758,0.000
1709373899.589,-8.789,-33.203,-37.109,-19.043,0.000
1709373899.593,13.672,-29.297,-36.133,0.488,0.000
1709373899.596,-31.738,-32.715,-34.180,-32.227,0.000
1709373899.600,-64.941,-34.668,-32.227,-57.129,0.000
1709373899.604,-52.246,-35.645,-31.250,-46.387,0.000
1709373899.608,-10.742,-33.691,-32.227,-12.695,0.000
1709373899.612,11.719,-32.227,-33.203,0.000,0.000
1709373899.616,-30.762,-35.645,-35.645,-29.785,0.000
1709373899.620,-62.988,-36.133,-34.668,-50.293,0.000
1709373899.624,-52.734,-34.180,-34.668,-46.387,0.000
1709373899.628,-25.879,-34.668,-35.645,-23.438,0.000
1709373899.632,8.301,-32.227,-36.133,4.883,0.000
1709373899.636,-23.926,-34.668,-34.180,-23.438,0.000
1709373899.639,-68.848,-33.691,-31.738,-48.340,0.000
1709373899.643,-66.895,-31.738,-32.715,-45.410,0.000
1709373899.647,-33.691,-34.180,-33.203,-30.762,0.000
1709373899.651,9.766,-36.133,-32.227,11.719,0.000
1709373899.655,-13.672,-32.715,-26.855,-6.836,0.000
1709373899.659,-56.641,-30.762,-25.391,-53.711,0.000
1709373899.663,-64.453,-27.832,-31.250,-49.316,0.000
1709373899.667,-32.715,-28.320,-32.715,-30.273,0.000
1709373899.671,16.113,-28.809,-30.273,-5.859,0.000
1709373899.675,-0.488,-22.461,-27.344,-8.789,0.000
1709373899.678,-50.293,-22.949,-27.344,-37.598,0.000
1709373899.682,-64.941,-25.879,-33.691,-47.852,0.000
1709373899.686,-41.504,-24.902,-36.133,-36.133,0.000
1709373899.690,3.418,-24.902,-36.133,-6.836,0.000
1709373899.694,-2.930,-25.879,-34.668,-7.324,0.000
1709373899.698,-55.176,-27.344,-29.785,-32.715,0.000
1709373899.702,-69.824,-31.738,-30.273,-54.688,0.000
1709373899.706,-44.922,-30.273,-33.203,-46.387,0.000
1709373899.710,-1.465,-30.762,-35.645,-12.207,0.000
1709373899.714,-1.465,-33.203,-31.738,-12.695,0.000
1709373899.717,-50.293,-37.109,-31.250,-45.898,0.000
1709373899.721,-68.848,-36.621,-34.180,-58.105,0.000
1709373899.725,-57.129,-30.273,-31.738,-49.316,0.000
1709373899.729,-13.672,-34.180,-36.133,-21.973,0.000
1709373899.733,4.883,-32.715,-33.691,-11.719,0.000
1709373899.737,-41.992,-26.367,-26.855,-41.504,0.000
1709373899.741,-70.801,-31.738,-30.273,-50.293,0.000
1709373899.745,-58.105,-35.156,-31.250,-41.504,0.000
1709373899.749,-11.230,-33.691,-26.855,-23.438,0.000
1709373899.753,9.766,-36.621,-32.227,-9.766,0.000
1709373899.757,-47.852,-40.039,-36.133,-43.945,0.000
1709373899.760,-81.055,-34.180,-35.156,-65.918,0.000
1709373899.764,-66.406,-35.645,-35.645,-57.129,0.000
1709373899.768,-29.297,-40.527,-37.598,-28.320,0.000
1709373899.772,12.207,-39.062,-33.691,-0.488,0.000
1709373899.776,-32.227,-37.598,-33.691,-29.297,0.000
1709373899.780,-76.660,-41.504,-38.086,-65.430,0.000
1709373899.784,-65.430,-48.828,-35.156,-64.453,0.000
1709373899.788,-30.273,-45.898,-34.180,-24.414,0.000
1709373899.792,2.930,-43.945,-38.574,0.488,0.000
1709373899.796,-31.738,-45.898,-39.062,-26.855,0.000
1709373899.799,-71.777,-40.527,-41.016,-55.664,0.000
1709373899.803,-62.988,-32.227,-37.109,-51.270,0.000
1709373899.807,-32.715,-37.109,-37.598,-28.809,0.000
1709373899.811,5.371,-41.992,-38.574,-8.789,0.000
1709373899.815,-17.578,-40.039,-34.668,-26.855,0.000
1709373899.819,-67.383,-40.527,-40.039,-59.570,0.000
1709373899.823,-73.730,-41.992,-35.156,-61.035,0.000
1709373899.827,-42.969,-41.016,-27.832,-38.086,0.000
1709373899.831,1.953,-36.133,-29.297,-2.930,0.000
1709373899.835,-18.066,-38.574,-29.297,-16.113,0.000
1709373899.839,-60.547,-37.598,-28.809,-51.758,0.000
1709373899.843,-65.430,-35.156,-28.809,-56.152,0.000
1709373899.846,-41.992,-36.621,-28.809,-38.086,0.000
1709373899.850,-0.977,-37.598,-32.715,-12.207,0.000
1709373899.854,-9.766,-38.086,-39.062,-15.625,0.000
1709373899.858,-55.176,-36.133,-37.109,-41.504,0.000
1709373899.862,-65.430,-35.156,-28.320,-50.781,0.000
1709373899.866,-39.551,-35.156,-28.809,-50.293,0.000
1709373899.870,5.371,-33.203,-34.668,-23.926,0.000
1709373899.874,10.742,-28.320,-31.738,-12.207,0.000
1709373899.878,-38.086,-27.344,-26.855,-39.551,0.000
1709373899.882,-65.430,-27.832,-25.879,-53.711,0.000
1709373899.886,-47.852,-28.809,-27.344,-49.805,0.000
1709373899.890,1.953,-28.809,-34.180,-18.555,0.000
1709373899.893,9.766,-27.344,-38.574,-1.465,0.000
1709373899.897,-47.363,-29.785,-39.551,-47.363,0.000
1709373899.901,-73.242,-31.250,-38.086,-67.383,0.000
1709373899.905,-57.129,-30.273,-34.180,-52.734,0.000
1709373899.909,-16.602,-37.598,-39.062,-27.832,0.000
1709373899.913,4.883,-41.992,-43.945,-14.648,0.000
1709373899.917,-43.945,-36.133,-38.086,-44.922,0.000
1709373899.921,-72.754,-32.715,-29.785,-59.570,0.000
1709373899.925,-55.176,-30.273,-33.203,-52.246,0.000
1709373899.929,-22.461,-33.691,-36.621,-35.645,0.000
1709373899.933,7.324,-33.203,-34.668,-15.625,0.000
1709373899.936,-30.762,-32.227,-31.738,-32.227,0.000
1709373899.940,-74.707,-42.969,-32.715,-58.594,0.000
1709373899.944,-65.430,-42.969,-36.621,-61.523,0.000
1709373899.948,-27.344,-40.039,-36.133,-34.668,0.000
1709373899.952,5.859,-37.598,-33.203,-1.953,0.000
1709373899.956,-28.320,-40.039,-37.109,-29.785,0.000
1709373899.960,-69.824,-44.922,-45.410,-64.941,0.000
1709373899.964,-67.871,-43.945,-41.016,-56.641,0.000
1709373899.968,-35.645,-48.828,-40.039,-41.992,0.000
1709373899.972,4.883,-47.363,-40.527,-15.137,0.000
1709373899.976,-28.809,-42.969,-37.598,-20.508,0.000
1709373899.979,-78.613,-44.434,-37.598,-51.270,0.000
1709373899.983,-80.566,-41.992,-39.551,-54.199,0.000
1709373899.987,-57.617,-44.922,-46.875,-41.016,0.000
1709373899.991,-15.625,-53.711,-47.363,-14.648,0.000
1709373899.995,-27.832,-50.293,-40.039,-20.996,0.000
1709373899.999,-65.918,-45.898,-37.109,-51.758,0.000
1709373900.003,-72.754,-42.480,-42.480,-58.594,0.000
1709373900.007,-51.270,-34.668,-37.109,-38.574,0.000
1709373900.011,1.465,-31.250,-35.156,-1.953,0.000
1709373900.015,-5.859,-34.668,-41.992,-7.812,0.000
1709373900.018,-62.012,-41.504,-41.016,-42.480,0.000
1709373900.022,-70.801,-40.039,-33.691,-46.387,0.000
1709373900.026,-45.410,-37.598,-32.227,-27.832,0.000
1709373900.030,0.000,-43.457,-34.180,-4.395,0.000
1709373900.034,6.348,-41.504,-34.668,-6.836,0.000
1709373900.038,-45.410,-34.180,-35.645,-39.062,0.000
1709373900.042,-62.500,-35.156,-34.668,-48.340,0.000
1709373900.046,-40.527,-40.039,-39.062,-33.203,0.000
1709373900.050,5.859,-40.527,-37.109,-12.207,0.000
1709373900.054,19.531,-38.086,-32.227,-6.348,0.000
1709373900.057,-39.551,-35.156,-34.668,-41.016,0.000
1709373900.061,-68.848,-35.645,-37.109,-55.664,0.000
1709373900.065,-41.992,-37.598,-32.715,-46.875,0.000
1709373900.069,7.812,-38.574,-28.320,-19.531,0.000
1709373900.073,27.344,-38.574,-31.250,4.883,0.000
1709373900.077,-25.879,-31.250,-33.691,-37.109,0.000
1709373900.081,-60.547,-24.902,-33.691,-73.242,0.000
1709373900.085,-55.176,-28.809,-35.156,-61.035,0.000
1709373900.089,-20.020,-30.273,-34.180,-23.926,0.000
1709373900.093,5.371,-32.715,-40.527,-8.301,0.000
1709373900.096,-41.504,-32.227,-37.109,-38.086,0.000
1709373900.100,-79.102,-30.762,-25.879,-53.711,0.000
1709373900.104,-70.312,-35.645,-29.785,-47.363,0.000
1709373900.108,-31.250,-35.156,-28.320,-21.484,0.000
1709373900.112,0.000,-30.273,-31.250,2.441,0.000
1709373900.116,-31.250,-31.250,-36.621,-17.090,0.000
1709373900.120,-67.871,-31.250,-36.621,-41.016,0.000
1709373900.124,-64.941,-31.250,-36.621,-44.922,0.000
1709373900.128,-27.832,-36.133,-37.598,-26.367,0.000
1709373900.132,5.859,-43.457,-43.457,-0.488,0.000
1709373900.135,-26.855,-49.316,-46.387,-21.484,0.000
1709373900.139,-65.918,-40.527,-45.898,-54.199,0.000
1709373900.143,-64.453,-33.203,-44.922,-56.641,0.000
1709373900.147,-33.691,-37.109,-41.504,-31.738,0.000
1709373900.151,10.254,-37.598,-40.039,0.977,0.000
1709373900.155,-1.953,-39.062,-40.039,-11.719,0.000
1709373900.159,-50.781,-39.551,-40.039,-35.156,0.000
1709373900.163,-64.453,-35.156,-37.109,-33.691,0.000
1709373900.167,-43.945,-37.109,-39.062,-24.414,0.000
1709373900.171,0.488,-36.133,-38.574,3.906,0.000
1709373900.174,-7.812,-32.715,-34.180,-2.930,0.000
1709373900.178,-62.500,-34.180,-36.133,-42.480,0.000
1709373900.182,-68.848,-32.715,-33.203,-44.922,0.000
1709373900.186,-41.992,-27.832,-27.832,-27.832,0.000
1709373900.190,-0.488,-34.668,-30.762,-7.324,0.000
1709373900.194,2.930,-41.016,-30.762,-6.348,0.000
1709373900.198,-50.781,-34.668,-30.762,-37.109,0.000
1709373900.202,-77.148,-29.297,-32.715,-50.781,0.000
1709373900.206,-57.617,-30.273,-31.738,-36.133,0.000
1709373900.210,0.977,-31.250,-32.715,-5.371,0.000
1709373900.214,9.766,-30.762,-34.668,-7.324,0.000
1709373900.218,-53.223,-32.227,-36.621,-40.527,0.000
1709373900.221,-80.078,-36.621,-34.668,-54.199,0.000
1709373900.225,-65.430,-41.992,-36.621,-50.781,0.000
1709373900.229,-17.578,-37.109,-36.133,-22.949,0.000
1709373900.233,9.766,-33.203,-32.715,-6.348,0.000
1709373900.237,-41.016,-36.133,-33.203,-41.504,0.000
1709373900.241,-67.871,-34.180,-34.668,-62.012,0.000
1709373900.245,-51.270,-33.691,-38.574,-47.852,0.000
1709373900.249,-12.207,-39.062,-39.062,-23.438,0.000
1709373900.253,13.672,-41.992,-37.598,-10.254,0.000
1709373900.257,-27.832,-36.621,-33.203,-35.645,0.000
1709373900.261,-59.570,-29.785,-30.273,-59.082,0.000
1709373900.264,-51.270,-31.250,-31.738,-52.734,0.000
1709373900.268,-13.184,-34.668,-35.645,-19.531,0.000
1709373900.272,8.301,-38.086,-41.016,-7.812,0.000
1709373900.276,-37.109,-34.668,-40.039,-40.527,0.000
1709373900.280,-74.219,-29.785,-40.039,-67.871,0.000
1709373900.284,-67.871,-26.855,-39.551,-67.383,0.000
1709373900.288,-37.598,-29.297,-42.480,-47.363,0.000
1709373900.292,2.930,-32.715,-42.480,-20.996,0.000
1709373900.296,-27.344,-32.227,-37.109,-41.992,0.000
1709373900.300,-66.895,-33.691,-37.598,-63.477,0.000
1709373900.304,-62.012,-30.762,-33.691,-56.152,0.000
1709373900.308,-34.668,-27.344,-32.715,-45.410,0.000
1709373900.311,14.160,-32.715,-32.715,-3.418,0.000
1709373900.315,-5.371,-41.992,-33.691,-10.742,0.000
1709373900.319,-61.523,-43.945,-37.598,-58.105,0.000
1709373900.323,-71.777,-41.016,-36.621,-58.105,0.000
1709373900.327,-44.434,-38.574,-35.645,-40.527,0.000
1709373900.331,0.488,-41.504,-39.062,-13.672,0.000
1709373900.335,-8.789,-44.434,-41.016,-14.648,0.000
1709373900.339,-57.129,-46.875,-32.715,-46.387,0.000
1709373900.343,-66.406,-45.898,-34.668,-58.594,0.000
1709373900.347,-42.480,-42.969,-38.086,-40.527,0.000
1709373900.350,6.348,-41.992,-35.156,-11.230,0.000
1709373900.354,11.719,-40.039,-36.133,-7.812,0.000
1709373900.358,-40.527,-35.645,-34.180,-35.645,0.000
1709373900.362,-63.477,-34.180,-31.250,-59.082,0.000
1709373900.366,-48.828,-32.227,-26.367,-43.945,0.000
1709373900.370,-5.371,-33.691,-26.367,-4.883,0.000
1709373900.374,4.395,-34.180,-31.250,-9.766,0.000
1709373900.378,-48.340,-28.320,-34.180,-48.340,0.000
1709373900.382,-75.684,-27.344,-39.062,-59.570,0.000
1709373900.386,-49.805,-33.691,-40.527,-54.199,0.000
1709373900.390,-3.906,-32.715,-39.551,-23.438,0.000
1709373900.393,-2.930,-30.762,-37.109,-9.766,0.000
1709373900.397,-46.387,-33.691,-37.109,-41.504,0.000
1709373900.401,-66.895,-35.645,-36.621,-54.688,0.000
1709373900.405,-58.594,-33.203,-40.039,-49.316,0.000
1709373900.409,-14.648,-34.668,-45.410,-29.297,0.000
1709373900.413,20.508,-39.551,-41.504,-11.719,0.000
1709373900.417,-26.855,-37.598,-37.598,-37.598,0.000
1709373900.421,-69.336,-28.809,-37.109,-53.711,0.000
1709373900.425,-56.641,-28.320,-34.180,-49.805,0.000
1709373900.429,-18.555,-34.668,-34.668,-27.344,0.000
1709373900.432,14.160,-35.156,-33.203,-0.488,0.000
1709373900.436,-23.926,-35.156,-30.273,-21.484,0.000
1709373900.440,-65.430,-38.574,-29.785,-51.758,0.000
1709373900.444,-66.406,-40.527,-33.691,-47.852,0.000
1709373900.448,-32.227,-38.574,-33.691,-10.254,0.000
1709373900.452,2.441,-44.434,-33.203,9.277,0.000
1709373900.456,-24.414,-40.527,-32.227,-11.719,0.000
1709373900.460,-60.059,-34.668,-27.344,-32.715,0.000
1709373900.464,-58.594,-39.062,-27.344,-35.645,0.000
1709373900.468,-33.203,-42.480,-30.273,-22.949,0.000
1709373900.471,4.883,-39.551,-35.156,2.441,0.000
1709373900.475,-16.602,-39.551,-36.621,-15.625,0.000
1709373900.479,-63.965,-38.574,-33.203,-53.223,0.000
1709373900.483,-74.219,-33.691,-30.762,-56.152,0.000
1709373900.487,-49.805,-30.762,-34.180,-44.434,0.000
1709373900.491,-0.977,-32.227,-39.062,-9.766,0.000
1709373900.495,-9.766,-32.715,-37.109,-6.348,0.000
1709373900.499,-56.641,-37.109,-36.133,-44.434,0.000
1709373900.503,-58.594,-34.180,-38.086,-45.410,0.000
1709373900.507,-32.227,-27.832,-36.621,-24.414,0.000
1709373900.510,16.113,-26.367,-33.691,4.883,0.000
1709373900.514,18.066,-27.832,-28.320,1.465,0.000
1709373900.518,-27.344,-28.320,-26.367,-34.180,0.000
1709373900.522,-47.852,-28.809,-33.691,-48.828,0.000
1709373900.526,-41.016,-28.809,-33.203,-37.598,0.000
1709373900.530,5.371,-28.809,-30.762,-7.324,0.000
1709373900.534,8.301,-30.762,-35.156,0.000,0.000
1709373900.538,-49.316,-29.297,-33.203,-20.996,0.000
1709373900.542,-68.359,-29.785,-34.180,-38.574,0.000
1709373900.546,-47.852,-35.156,-34.180,-43.457,0.000
1709373900.549,-3.418,-38.086,-33.691,-12.695,0.000
1709373900.553,9.766,-38.086,-37.109,-1.465,0.000
1709373900.557,-45.410,-37.109,-34.180,-41.992,0.000
1709373900.561,-71.289,-33.691,-31.738,-55.664,0.000
1709373900.565,-52.246,-34.668,-37.109,-41.016,0.000
1709373900.569,-6.836,-37.598,-36.133,-18.555,0.000
1709373900.573,18.066,-37.598,-31.250,-2.441,0.000
1709373900.577,-31.250,-40.527,-31.738,-33.203,0.000
1709373900.581,-63.965,-38.574,-32.715,-53.223,0.000
1709373900.585,-60.547,-37.109,-35.645,-49.316,0.000
1709373900.589,-23.926,-39.062,-34.180,-33.203,0.000
1709373900.593,18.066,-38.086,-32.227,-6.836,0.000
1709373900.596,-17.090,-33.691,-35.645,-21.484,0.000
1709373900.600,-65.430,-34.180,-36.621,-57.617,0.000
1709373900.604,-67.871,-43.945,-39.551,-61.035,0.000
1709373900.608,-28.809,-41.992,-37.598,-33.203,0.000
1709373900.612,7.324,-35.645,-31.250,-6.348,0.000
1709373900.616,-15.625,-38.086,-27.832,-25.879,0.000
1709373900.620,-57.129,-33.691,-22.949,-50.293,0.000
1709373900.624,-66.895,-36.621,-25.391,-54.688,0.000
1709373900.628,-37.109,-40.527,-31.738,-37.598,0.000
1709373900.632,3.418,-39.062,-38.086,-10.742,0.000
1709373900.636,-15.137,-38.574,-40.039,-21.973,0.000
1709373900.639,-60.059,-34.668,-32.227,-42.480,0.000
1709373900.643,-68.359,-28.809,-28.320,-36.621,0.000
1709373900.647,-42.969,-30.762,-29.297,-28.809,0.000
1709373900.651,1.465,-37.598,-31.738,-7.324,0.000
1709373900.655,-8.301,-36.621,-31.738,-11.230,0.000
1709373900.659,-58.105,-29.785,-27.832,-41.992,0.000
1709373900.663,-76.660,-35.645,-27.832,-48.340,0.000
1709373900.667,-62.012,-40.527,-31.738,-36.133,0.000
1709373900.671,-19.531,-38.086,-28.320,-1.465,0.000
1709373900.675,-12.207,-34.180,-24.902,1.465,0.000
1709373900.679,-58.594,-32.715,-23.926,-41.504,0.000
1709373900.682,-69.336,-31.738,-23.926,-53.223,0.000
1709373900.686,-41.016,-37.598,-24.902,-36.621,0.000
1709373900.690,-3.418,-45.410,-31.250,-15.137,0.000
1709373900.694,-6.348,-42.969,-35.156,-13.184,0.000
1709373900.698,-55.176,-40.527,-33.203,-47.363,0.000
1709373900.702,-66.895,-40.039,-30.273,-66.406,0.000
1709373900.706,-43.945,-39.551,-28.320,-55.176,0.000
1709373900.710,-3.418,-39.551,-32.715,-28.320,0.000
1709373900.714,12.207,-38.086,-33.203,-13.184,0.000
1709373900.718,-43.457,-39.062,-32.715,-43.945,0.000
1709373900.722,-74.707,-40.039,-40.039,-66.895,0.000
1709373900.725,-52.734,-36.133,-39.062,-55.664,0.000
1709373900.729,-5.859,-37.598,-32.227,-22.949,0.000
1709373900.733,18.066,-37.598,-34.180,3.418,0.000
1709373900.737,-33.203,-35.645,-39.551,-31.738,0.000
1709373900.741,-71.289,-33.203,-33.691,-57.617,0.000
1709373900.745,-61.035,-32.715,-29.785,-47.852,0.000
1709373900.749,0.000,-36.133,-33.691,-20.020,0.000
1709373900.753,0.000,-40.039,-39.062,0.977,0.000
1709373900.757,0.000,-39.551,-40.527,-29.785,0.000
1709373900.761,0.000,-35.645,-38.086,-57.129,0.000
1709373900.765,0.000,-32.715,-30.762,-52.246,0.000
1709373900.768,0.000,-31.250,-24.902,-26.367,0.000
1709373900.772,0.000,-35.156,-32.715,-5.859,0.000
1709373900.776,0.000,-36.133,-32.715,-27.344,0.000
1709373900.780,0.000,-33.203,-30.273,-58.594,0.000
1709373900.784,0.000,-32.715,-35.645,-64.453,0.000
1709373900.788,0.000,-31.738,-35.156,-41.016,0.000
1709373900.792,0.000,-36.133,-38.086,-12.695,0.000
1709373900.796,-25.391,-39.551,-40.039,-29.297,0.000
1709373900.800,-66.406,-36.621,-38.086,-67.383,0.000
1709373900.804,-71.777,-33.203,-36.621,-69.336,0.000
1709373900.807,-47.363,-33.203,-36.621,-41.992,0.000
1709373900.811,-10.742,-39.551,-41.016,-14.160,0.000
1709373900.815,-31.738,-44.434,-41.504,-29.785,0.000
1709373900.819,-71.289,-41.504,-39.062,-50.781,0.000
1709373900.823,-71.777,-35.156,-32.227,-34.668,0.000
1709373900.827,-51.758,-38.574,-31.250,-30.273,0.000
1709373900.831,-3.418,-38.574,-30.762,-0.977,0.000
1709373900.835,-6.836,-32.715,-25.879,1.953,0.000
1709373900.839,-59.570,-33.203,-32.227,-38.086,0.000
1709373900.843,-67.871,-34.180,-34.180,-45.898,0.000
1709373900.846,-48.828,-33.203,-27.832,-36.621,0.000
1709373900.850,-8.301,-35.645,-33.203,-12.695,0.000
1709373900.854,-3.418,-36.621,-40.039,-12.695,0.000
1709373900.858,-41.992,-34.180,-36.133,-42.480,0.000
1709373900.862,-57.617,-33.203,-36.133,-55.664,0.000
1709373900.866,-49.805,-33.203,-35.645,-44.922,0.000
1709373900.870,-11.230,-32.227,-32.227,-14.648,0.000
1709373900.874,9.766,-31.738,-38.574,-8.301,0.000
1709373900.878,-38.574,-32.715,-41.992,-47.852,0.000
1709373900.882,-70.312,-34.668,-41.016,-63.965,0.000
1709373900.885,-54.199,-35.156,-40.527,-48.340,0.000
1709373900.889,-11.230,-32.227,-37.598,-24.414,0.000
1709373900.893,12.207,-27.832,-33.203,-6.836,0.000
1709373900.897,-32.227,-27.832,-36.621,-40.527,0.000
1709373900.901,-70.801,-27.832,-37.598,-62.012,0.000
1709373900.905,-62.500,-31.250,-37.598,-53.223,0.000
1709373900.909,-14.648,-34.180,-41.992,-24.414,0.000
1709373900.913,20.508,-31.250,-39.062,8.301,0.000
1709373900.917,-28.320,-29.297,-30.762,-19.043,0.000
1709373900.920,-70.801,-32.715,-29.297,-48.828,0.000
1709373900.924,-65.918,-34.180,-31.250,-46.875,0.000
1709373900.928,-31.250,-34.180,-30.762,-24.902,0.000
1709373900.932,6.348,-33.203,-33.691,0.000,0.000
1709373900.936,-31.250,-33.691,-37.598,-26.367,0.000
1709373900.940,-72.754,-33.691,-36.133,-59.082,0.000
1709373900.944,-65.430,-34.180,-36.621,-57.129,0.000
1709373900.948,-28.809,-35.645,-39.062,-39.062,0.000
1709373900.952,9.766,-34.180,-39.062,-14.160,0.000
1709373900.956,-12.207,-35.645,-40.527,-28.809,0.000
1709373900.960,-50.781,-35.156,-40.527,-61.035,0.000
1709373900.964,-53.223,-33.691,-40.039,-65.918,0.000
1709373900.967,-24.902,-32.715,-39.551,-42.480,0.000
1709373900.971,21.973,-34.668,-42.480,-3.906,0.000
1709373900.975,-1.953,-36.133,-41.992,-8.789,0.000
1709373900.979,-57.129,-34.668,-39.551,-47.363,0.000
1709373900.983,-63.477,-32.227,-39.062,-50.781,0.000
1709373900.987,-41.504,-32.715,-37.598,-33.691,0.000
1709373900.991,3.418,-32.227,-38.086,-0.977,0.000
1709373900.995,0.488,-31.738,-40.527,-4.883,0.000
1709373900.999,-47.852,-27.344,-34.668,-39.551,0.000
1709373901.003,-58.594,-23.926,-30.273,-41.016,0.000
1709373901.007,-36.621,-26.855,-33.203,-29.785,0.000
1709373901.011,4.883,-28.320,-37.109,-6.348,0.000
1709373901.014,8.789,-28.320,-38.086,5.859,0.000
1709373901.018,-46.387,-29.297,-38.574,-25.391,0.000
1709373901.022,-71.777,-31.738,-42.480,-54.199,0.000
1709373901.026,-57.617,-34.180,-44.434,-51.270,0.000
1709373901.030,-17.578,-33.203,-45.410,-30.762,0.000
1709373901.034,0.977,-28.320,-44.922,-19.043,0.000
1709373901.038,-44.434,-22.461,-33.691,-43.945,0.000
1709373901.042,-67.871,-21.973,-30.762,-56.641,0.000
1709373901.046,-51.270,-29.785,-33.691,-49.316,0.000
1709373901.050,-6.348,-34.180,-37.598,-20.020,0.000
1709373901.054,11.719,-35.156,-36.621,-1.953,0.000
1709373901.057,-41.504,-36.133,-36.621,-38.574,0.000
1709373901.061,-70.312,-33.691,-33.691,-56.641,0.000
1709373901.065,-58.105,-34.668,-31.250,-41.992,0.000
1709373901.069,-15.137,-38.086,-35.156,-20.996,0.000
1709373901.073,21.484,-35.156,-30.762,1.465,0.000
1709373901.077,-21.484,-35.645,-31.250,-25.391,0.000
1709373901.081,-67.871,-41.992,-34.180,-54.199,0.000
1709373901.085,-58.105,-40.039,-32.715,-45.898,0.000
1709373901.089,-20.996,-39.062,-33.691,-21.484,0.000
1709373901.093,8.789,-39.551,-35.156,-1.953,0.000
1709373901.097,-22.461,-35.645,-37.598,-25.391,0.000
1709373901.100,-62.988,-35.156,-36.621,-59.082,0.000
1709373901.104,-64.453,-38.574,-34.668,-53.711,0.000
1709373901.108,-28.809,-39.551,-37.598,-20.508,0.000
1709373901.112,12.207,-41.992,-41.504,-3.906,0.000
1709373901.116,-12.695,-40.527,-41.016,-31.250,0.000
1709373901.120,-62.988,-37.109,-41.992,-57.617,0.000
1709373901.124,-63.965,-39.551,-37.598,-60.059,0.000
1709373901.128,-34.668,-45.410,-39.062,-47.852,0.000
1709373901.132,3.906,-45.410,-45.410,-12.207,0.000
1709373901.136,-2.441,-41.504,-39.062,-13.672,0.000
1709373901.140,-39.062,-35.156,-36.133,-39.551,0.000
1709373901.143,-58.594,-31.250,-40.527,-57.617,0.000
1709373901.147,-49.805,-38.086,-43.945,-58.594,0.000
1709373901.151,4.395,-40.527,-43.457,-13.672,0.000
1709373901.155,8.301,-34.180,-40.039,0.000,0.000
1709373901.159,-48.828,-36.133,-37.109,-36.133,0.000
1709373901.163,-69.336,-45.898,-43.945,-57.129,0.000
1709373901.167,-50.781,-44.434,-40.527,-45.898,0.000
1709373901.171,-2.930,-39.551,-36.133,-5.371,0.000
1709373901.175,6.836,-37.109,-35.156,3.906,0.000
1709373901.179,-46.387,-35.156,-34.668,-31.738,0.000
1709373901.182,-67.871,-36.133,-34.180,-48.340,0.000
1709373901.186,-44.922,-35.156,-35.156,-38.574,0.000
1709373901.190,-7.812,-36.133,-41.504,-16.113,0.000
1709373901.194,-2.441,-34.668,-43.457,-10.254,0.000
1709373901.198,-45.410,-34.180,-41.016,-40.527,0.000
1709373901.202,-76.172,-40.527,-41.992,-70.312,0.000
1709373901.206,-61.035,-39.062,-38.086,-63.477,0.000
1709373901.210,-15.625,-34.668,-37.109,-29.297,0.000
1709373901.214,7.812,-42.969,-42.969,-11.230,0.000
1709373901.217,-37.109,-43.457,-47.363,-40.527,0.000
1709373901.221,-75.195,-42.480,-44.434,-58.105,0.000
1709373901.225,-62.988,-43.457,-36.133,-42.480,0.000
1709373901.229,-22.461,-35.156,-34.668,-9.277,0.000
1709373901.233,6.836,-27.832,-38.086,8.301,0.000
1709373901.237,-25.391,-27.344,-35.156,-24.902,0.000
1709373901.241,-54.688,-32.227,-36.621,-45.898,0.000
1709373901.245,-49.805,-31.738,-40.527,-43.945,0.000
1709373901.249,-21.973,-28.809,-40.527,-28.320,0.000
1709373901.253,5.859,-32.227,-44.922,-2.930,0.000
1709373901.257,-36.133,-34.180,-41.016,-28.320,0.000
1709373901.260,-84.961,-32.227,-37.109,-62.988,0.000
1709373901.264,-77.637,-35.645,-40.527,-62.500,0.000
1709373901.268,-42.969,-35.645,-43.457,-50.293,0.000
1709373901.272,-2.930,-27.832,-44.922,-24.902,0.000
1709373901.276,-25.879,-26.367,-41.016,-33.691,0.000
1709373901.280,-73.242,-28.809,-36.621,-64.453,0.000
1709373901.284,-71.289,-32.227,-35.156,-68.848,0.000
1709373901.288,-33.691,-29.785,-34.180,-35.645,0.000
1709373901.292,8.789,-26.855,-33.691,-14.648,0.000
1709373901.295,-7.812,-29.297,-36.133,-34.180,0.000
1709373901.299,-55.176,-22.949,-35.156,-61.523,0.000
1709373901.303,-66.895,-25.391,-33.691,-69.336,0.000
1709373901.307,-44.434,-30.762,-38.086,-57.617,0.000
1709373901.311,0.488,-32.227,-36.621,-20.020,0.000
1709373901.315,-6.348,-34.180,-28.809,-20.020,0.000
1709373901.319,-57.129,-29.785,-23.926,-58.105,0.000
1709373901.323,-69.336,-23.926,-24.414,-61.035,0.000
1709373901.327,-51.758,-27.344,-27.832,-46.875,0.000
1709373901.331,-0.488,-30.273,-21.973,-11.230,0.000
1709373901.335,0.000,-33.203,-22.949,-6.836,0.000
1709373901.339,-66.406,-34.668,-29.297,-47.852,0.000
1709373901.342,-84.473,-30.273,-29.785,-58.105,0.000
1709373901.346,-57.617,-25.391,-28.320,-38.574,0.000
1709373901.350,-9.766,-24.902,-31.250,-6.836,0.000
1709373901.354,1.465,-27.832,-27.344,-6.348,0.000
1709373901.358,-47.363,-26.855,-23.926,-44.922,0.000
1709373901.362,-69.824,-25.879,-28.809,-62.012,0.000
1709373901.366,-53.711,-25.879,-30.273,-50.293,0.000
1709373901.370,-13.672,-25.391,-25.879,-17.090,0.000
1709373901.374,7.324,-25.391,-28.809,2.441,0.000
1709373901.378,-38.086,-24.414,-33.203,-30.273,0.000
1709373901.382,-70.801,-24.414,-31.738,-56.641,0.000
1709373901.386,-56.152,-25.391,-37.598,-53.223,0.000
1709373901.389,-15.137,-30.273,-40.039,-23.438,0.000
1709373901.393,13.184,-31.250,-37.598,8.301,0.000
1709373901.397,-32.715,-30.762,-39.551,-23.926,0.000
1709373901.401,-67.871,-31.250,-38.086,-53.711,0.000
1709373901.405,-52.734,-30.273,-36.621,-44.434,0.000
1709373901.409,-20.996,-35.645,-40.527,-20.996,0.000
1709373901.413,7.324,-37.109,-38.086,6.348,0.000
1709373901.417,-20.508,-32.227,-36.133,-9.277,0.000
1709373901.421,-62.012,-31.250,-33.691,-41.504,0.000
1709373901.425,-63.965,-36.133,-32.715,-45.898,0.000
1709373901.429,-34.668,-39.551,-36.133,-31.250,0.000
1709373901.432,-1.953,-42.480,-40.527,-13.184,0.000
1709373901.436,-32.227,-42.480,-37.598,-20.508,0.000
1709373901.440,-81.543,-45.410,-35.156,-44.922,0.000
1709373901.444,-82.520,-47.852,-46.387,-64.453,0.000
1709373901.448,-44.922,-43.457,-41.504,-41.992,0.000
1709373901.452,3.418,-41.016,-30.273,6.836,0.000
1709373901.456,-12.207,-41.504,-30.762,-6.836,0.000
1709373901.460,-64.941,-44.434,-35.156,-49.805,0.000
1709373901.464,-74.707,-37.598,-31.738,-49.805,0.000
1709373901.468,-46.387,-37.598,-27.832,-29.785,0.000
1709373901.472,-2.930,-42.969,-28.320,2.441,0.000
1709373901.475,-1.465,-41.016,-27.832,4.883,0.000
1709373901.479,-52.734,-45.410,-29.785,-23.438,0.000
1709373901.483,-75.684,-44.922,-29.785,-36.133,0.000
1709373901.487,-60.547,-41.992,-33.203,-41.016,0.000
1709373901.491,-15.137,-44.434,-38.574,-10.742,0.000
1709373901.495,-4.395,-39.551,-33.203,-5.859,0.000
1709373901.499,-58.105,-36.133,-30.273,-47.852,0.000
1709373901.503,-82.520,-40.527,-31.738,-68.359,0.000
1709373901.507,-60.059,-40.039,-32.227,-58.594,0.000
1709373901.511,-9.766,-38.086,-31.738,-20.508,0.000
1709373901.515,-0.977,-42.969,-35.645,-8.789,0.000
1709373901.519,-45.410,-40.527,-40.039,-47.363,0.000
1709373901.523,-63.477,-37.109,-39.062,-64.453,0.000
1709373901.527,-50.781,-38.574,-39.062,-44.922,0.000
1709373901.531,-3.906,-37.109,-39.551,-9.277,0.000
1709373901.535,26.855,-34.180,-34.180,8.789,0.000
1709373901.539,-22.461,-33.691,-32.715,-20.996,0.000
1709373901.542,-56.641,-34.668,-36.621,-41.992,0.000
1709373901.547,-44.922,-37.109,-38.574,-39.062,0.000
1709373901.550,-9.766,-37.598,-40.527,-19.043,0.000
1709373901.554,14.648,-35.156,-39.551,3.418,0.000
1709373901.558,-32.227,-33.691,-40.039,-28.809,0.000
1709373901.562,-65.430,-29.785,-36.621,-51.758,0.000
1709373901.566,-61.523,-31.738,-38.086,-45.410,0.000
1709373901.570,-22.949,-37.109,-42.969,-25.391,0.000
1709373901.574,18.066,-34.668,-36.133,10.254,0.000
1709373901.578,-34.668,-37.109,-31.250,-20.996,0.000
1709373901.582,-79.590,-39.551,-29.785,-54.688,0.000
1709373901.586,-66.406,-38.574,-26.855,-50.293,0.000
1709373901.590,-46.387,-40.527,-28.809,-41.016,0.000
1709373901.593,-11.230,-45.410,-35.645,-18.555,0.000
1709373901.597,-27.832,-43.457,-32.715,-32.227,0.000
1709373901.601,-63.477,-34.668,-29.785,-58.594,0.000
1709373901.605,-54.688,-31.250,-32.227,-58.594,0.000
1709373901.609,-32.227,-32.715,-32.227,-41.992,0.000
1709373901.613,3.906,-35.645,-33.691,-6.348,0.000
1709373901.617,-12.207,-37.109,-39.551,-17.090,0.000
1709373901.621,-59.570,-38.574,-44.922,-54.688,0.000
1709373901.625,-65.430,-41.504,-42.480,-57.129,0.000
1709373901.628,-36.621,-41.992,-37.109,-42.969,0.000
1709373901.632,9.766,-41.016,-34.668,-4.395,0.000
1709373901.636,0.488,-38.086,-36.133,-0.977,0.000
1709373901.640,-49.805,-35.645,-33.691,-40.527,0.000
1709373901.644,-64.453,-38.086,-32.715,-46.875,0.000
1709373901.648,-41.992,-38.086,-35.156,-28.320,0.000
1709373901.652,0.977,-39.062,-41.992,-1.953,0.000
1709373901.656,-2.441,-39.551,-41.992,-4.395,0.000
1709373901.660,-56.641,-37.598,-33.203,-37.598,0.000
1709373901.663,-78.125,-37.598,-33.691,-48.340,0.000
1709373901.667,-56.641,-43.457,-30.762,-43.457,0.000
1709373901.671,-9.766,-46.875,-28.320,-18.555,0.000
1709373901.675,-3.418,-42.480,-29.785,-9.766,0.000
1709373901.679,-53.711,-37.109,-29.785,-41.504,0.000
1709373901.683,-74.219,-33.691,-29.785,-54.199,0.000
1709373901.687,-57.617,-35.645,-32.227,-42.480,0.000
1709373901.691,-1.953,-34.668,-29.297,-5.859,0.000
1709373901.695,24.902,-30.762,-28.320,8.789,0.000
1709373901.699,-24.902,-27.832,-30.273,-22.461,0.000
1709373901.703,-58.105,-31.250,-28.320,-36.621,0.000
1709373901.707,-43.945,-35.156,-27.832,-31.738,0.000
1709373901.710,-1.953,-34.180,-31.250,-8.301,0.000
1709373901.714,19.043,-35.156,-34.668,4.883,0.000
1709373901.718,-25.879,-37.598,-34.668,-30.762,0.000
1709373901.722,-61.035,-35.156,-28.320,-45.410,0.000
1709373901.726,-55.664,-34.180,-35.156,-46.387,0.000
1709373901.730,-16.113,-32.715,-38.574,-37.109,0.000
1709373901.734,18.066,-33.691,-34.180,-10.742,0.000
1709373901.738,-18.555,-34.668,-34.180,-26.855,0.000
1709373901.742,-62.012,-30.273,-36.133,-51.270,0.000
1709373901.746,-65.430,-34.180,-36.621,-52.734,0.000
1709373901.750,-39.551,-36.621,-38.574,-32.715,0.000
1709373901.754,-3.906,-32.715,-41.016,-10.742,0.000
1709373901.757,-29.785,-30.273,-38.574,-34.180,0.000
1709373901.761,-70.312,-28.809,-40.039,-65.430,0.000
1709373901.765,-70.801,-29.785,-41.016,-63.965,0.000
1709373901.769,-50.781,-31.738,-43.945,-46.387,0.000
1709373901.773,-12.695,-30.762,-42.969,-20.508,0.000
1709373901.777,-21.973,-30.273,-40.527,-39.062,0.000
1709373901.781,-62.500,-31.738,-33.691,-65.430,0.000
1709373901.785,-77.148,-32.715,-35.156,-62.500,0.000
1709373901.789,-50.293,-31.738,-37.598,-54.199,0.000
1709373901.793,11.230,-26.367,-27.344,-17.090,0.000
1709373901.797,3.418,-28.809,-26.367,-17.090,0.000
1709373901.800,-50.293,-34.668,-31.250,-54.688,0.000
1709373901.804,-61.523,-38.086,-30.273,-52.734,0.000
1709373901.808,-40.527,-40.527,-27.832,-32.715,0.000
1709373901.812,8.301,-40.527,-27.832,4.883,0.000
1709373901.816,2.441,-40.039,-28.809,10.254,0.000
1709373901.820,-54.199,-40.039,-30.762,-35.156,0.000
1709373901.824,-68.848,-39.551,-30.273,-53.711,0.000
1709373901.828,-53.223,-38.574,-31.250,-42.969,0.000
1709373901.832,-11.719,-37.109,-35.645,-13.672,0.000
1709373901.836,-7.812,-41.992,-38.086,-10.254,0.000
1709373901.840,-61.035,-44.922,-40.527,-44.434,0.000
1709373901.844,-80.078,-42.480,-41.992,-55.664,0.000
1709373901.847,-57.617,-38.574,-38.086,-44.922,0.000
1709373901.851,-12.695,-38.086,-39.551,-20.508,0.000
1709373901.855,0.488,-39.551,-40.039,-16.113,0.000
1709373901.859,-43.945,-37.598,-31.738,-37.598,0.000
1709373901.863,-61.523,-32.715,-33.691,-50.293,0.000
1709373901.867,-45.898,-32.715,-36.621,-49.805,0.000
1709373901.871,-17.578,-34.180,-32.715,-31.250,0.000
1709373901.875,14.648,-29.785,-36.133,-9.766,0.000
1709373901.879,-18.555,-21.973,-33.691,-34.668,0.000
1709373901.883,-64.453,-24.414,-32.227,-66.406,0.000
1709373901.886,-58.105,-30.762,-32.227,-67.871,0.000
1709373901.890,-14.160,-27.832,-27.832,-37.598,0.000
1709373901.894,11.230,-23.926,-28.809,-9.766,0.000
1709373901.898,-37.598,-31.738,-36.621,-36.621,0.000
1709373901.902,-76.172,-33.203,-34.668,-59.082,0.000
1709373901.906,-68.359,-32.715,-37.598,-56.152,0.000
1709373901.910,-34.668,-32.715,-43.945,-42.969,0.000
1709373901.914,3.418,-33.203,-41.992,-14.160,0.000
1709373901.918,-21.484,-34.180,-38.574,-29.785,0.000
1709373901.922,-59.082,-32.227,-33.203,-57.617,0.000
1709373901.925,-61.035,-30.762,-32.715,-56.152,0.000
1709373901.929,-33.691,-32.715,-33.203,-31.738,0.000
1709373901.933,7.812,-40.527,-30.273,2.441,0.000
1709373901.937,-9.766,-40.039,-35.645,-11.719,0.000
1709373901.941,-56.152,-35.645,-36.621,-47.363,0.000
1709373901.945,-58.594,-35.645,-35.645,-51.270,0.000
1709373901.949,-32.715,-32.715,-31.738,-24.902,0.000
1709373901.953,6.348,-29.785,-30.273,-3.418,0.000
1709373901.957,-5.859,-33.203,-38.086,-16.602,0.000
1709373901.961,-53.223,-40.039,-39.062,-45.410,0.000
1709373901.964,-61.035,-38.086,-40.527,-53.223,0.000
1709373901.968,-33.691,-39.062,-40.527,-43.945,0.000
1709373901.972,16.113,-41.504,-35.156,-5.371,0.000
1709373901.976,12.695,-38.086,-28.320,2.441,0.000
1709373901.980,-47.363,-32.715,-24.902,-38.574,0.000
1709373901.984,-75.195,-33.691,-26.855,-51.758,0.000
1709373901.988,-55.176,-40.039,-32.227,-43.945,0.000
1709373901.992,-8.301,-40.039,-32.227,-12.695,0.000
1709373901.996,-1.953,-39.062,-28.320,-2.930,0.000
1709373902.000,-55.176,-41.016,-31.738,-45.898,0.000
1709373902.003,-76.172,-39.062,-34.180,-62.988,0.000
1709373902.007,-60.059,-37.109,-34.668,-53.223,0.000
1709373902.011,-17.578,-34.180,-35.645,-29.785,0.000
1709373902.015,2.930,-34.668,-34.668,-17.090,0.000
1709373902.019,-41.992,-36.621,-36.621,-43.457,0.000
1709373902.023,-73.242,-35.645,-35.156,-60.059,0.000
1709373902.027,-61.035,-33.691,-35.156,-54.199,0.000
1709373902.031,-17.090,-39.062,-41.504,-28.320,0.000
1709373902.035,8.789,-41.504,-42.480,-8.789,0.000
1709373902.038,-38.574,-37.598,-40.039,-33.691,0.000
1709373902.042,-74.707,-37.109,-32.715,-54.199,0.000
1709373902.046,-62.012,-34.668,-31.738,-48.828,0.000
1709373902.050,-19.531,-36.133,-39.062,-30.273,0.000
1709373902.054,7.324,-40.039,-39.551,-8.301,0.000
1709373902.058,-33.203,-36.133,-35.645,-32.715,0.000
1709373902.062,-70.801,-32.227,-32.715,-57.617,0.000
1709373902.066,-68.359,-33.203,-38.086,-52.734,0.000
1709373902.070,-36.133,-35.645,-41.016,-38.086,0.000
1709373902.073,1.953,-34.668,-41.992,-9.766,0.000
1709373902.077,-21.973,-33.203,-40.039,-13.672,0.000
1709373902.081,-63.477,-32.227,-35.645,-36.621,0.000
1709373902.085,-66.406,-36.133,-38.574,-43.457,0.000
1709373902.089,-41.504,-41.992,-40.527,-25.879,0.000
1709373902.093,-0.977,-41.992,-39.062,2.441,0.000
1709373902.097,-20.508,-41.504,-37.598,-9.766,0.000
1709373902.101,-68.359,-34.180,-31.738,-46.387,0.000
1709373902.105,-72.754,-34.668,-33.691,-57.617,0.000
1709373902.109,-42.969,-38.086,-40.039,-42.969,0.000
1709373902.113,10.254,-34.180,-41.992,-16.602,0.000
1709373902.117,-4.883,-33.691,-37.598,-20.996,0.000
1709373902.121,-57.129,-31.250,-34.180,-44.434,0.000
1709373902.125,-65.430,-31.738,-36.621,-55.664,0.000
1709373902.128,-35.156,-32.715,-32.227,-36.621,0.000
1709373902.132,10.742,-30.762,-29.297,-2.441,0.000
1709373902.136,5.859,-33.691,-31.738,-19.043,0.000
1709373902.140,-41.504,-32.227,-31.250,-53.223,0.000
1709373902.144,-60.547,-31.738,-30.762,-51.758,0.000
1709373902.148,-40.039,-35.156,-36.621,-44.434,0.000
1709373902.152,2.930,-32.715,-36.133,-16.113,0.000
1709373902.156,12.207,-32.227,-32.227,-2.930,0.000
1709373902.160,-47.363,-37.109,-34.180,-37.598,0.000
1709373902.164,-79.590,-38.086,-30.762,-51.758,0.000
1709373902.168,-59.082,-42.969,-31.250,-38.574,0.000
1709373902.172,-7.812,-46.875,-37.598,-11.719,0.000
1709373902.175,8.301,-43.457,-41.016,-4.883,0.000
1709373902.179,-43.945,-41.016,-38.086,-35.156,0.000
1709373902.183,-67.383,-34.668,-32.715,-52.246,0.000
1709373902.187,-49.316,-32.715,-30.762,-45.898,0.000
1709373902.191,-4.395,-35.645,-37.109,-16.602,0.000
1709373902.195,24.414,-40.039,-37.598,-1.953,0.000
1709373902.199,-20.020,-39.062,-38.574,-37.598,0.000
1709373902.203,-53.223,-31.738,-39.551,-47.852,0.000
1709373902.207,-45.410,-28.320,-35.156,-37.109,0.000
1709373902.211,-6.348,-30.762,-37.598,-24.414,0.000
1709373902.214,23.926,-38.574,-30.762,-1.465,0.000
1709373902.218,-25.879,-38.574,-29.297,-21.484,0.000
1709373902.222,-70.312,-37.109,-35.645,-50.293,0.000
1709373902.226,-61.035,-40.527,-39.551,-51.270,0.000
1709373902.230,-20.508,-41.992,-41.016,-25.391,0.000
1709373902.234,23.438,-39.551,-34.668,17.578,0.000
1709373902.238,-8.789,-35.645,-29.785,-1.465,0.000
1709373902.242,-63.477,-33.203,-24.414,-34.668,0.000
1709373902.246,-58.594,-35.156,-27.344,-33.203,0.000
1709373902.250,-23.926,-35.156,-35.156,-17.578,0.000
1709373902.254,8.301,-37.598,-34.180,11.230,0.000
1709373902.257,-14.160,-40.039,-30.762,-2.441,0.000
1709373902.261,-62.012,-35.645,-29.297,-35.156,0.000
1709373902.265,-72.754,-34.180,-30.762,-41.504,0.000
1709373902.269,-45.410,-35.156,-31.250,-28.320,0.000
1709373902.273,-4.883,-33.203,-31.250,-3.418,0.000
1709373902.277,-19.531,-36.621,-31.738,-13.184,0.000
1709373902.281,-69.336,-34.180,-31.738,-43.945,0.000
1709373902.285,-83.008,-30.762,-35.156,-56.152,0.000
1709373902.289,-61.523,-33.691,-39.062,-43.945,0.000
1709373902.293,-15.625,-40.039,-37.109,-16.602,0.000
1709373902.296,-18.066,-42.480,-35.645,-20.996,0.000
1709373902.300,-60.059,-38.086,-36.621,-52.734,0.000
1709373902.304,-68.848,-38.574,-34.180,-60.547,0.000
1709373902.308,-56.641,-44.434,-38.086,-54.199,0.000
1709373902.312,-9.766,-42.480,-44.922,-19.531,0.000
1709373902.316,7.324,-34.668,-41.504,-6.348,0.000
1709373902.320,-43.945,-32.715,-35.645,-35.156,0.000
1709373902.324,-63.477,-31.738,-37.598,-40.039,0.000
1709373902.328,-43.945,-35.156,-39.062,-38.574,0.000
1709373902.332,7.324,-37.109,-40.039,-5.859,0.000
1709373902.335,16.113,-36.133,-41.504,15.625,0.000
1709373902.339,-37.109,-35.645,-50.781,-21.973,0.000
1709373902.343,-64.453,-37.598,-56.641,-46.387,0.000
1709373902.347,-57.129,-41.992,-51.270,-40.527,0.000
1709373902.351,-9.277,-41.992,-44.434,-8.789,0.000
1709373902.355,13.184,-41.992,-40.039,8.301,0.000
1709373902.359,-37.598,-42.969,-40.039,-24.414,0.000
1709373902.363,-71.777,-34.668,-34.668,-44.434,0.000
1709373902.367,-55.664,-30.762,-30.762,-29.297,0.000
1709373902.370,-20.996,-33.203,-35.156,-9.766,0.000
1709373902.374,10.742,-30.273,-36.621,-1.465,0.000
1709373902.378,-22.949,-30.762,-40.039,-30.762,0.000
1709373902.382,-68.848,-33.691,-41.504,-56.152,0.000
1709373902.386,-71.777,-34.180,-42.480,-60.059,0.000
1709373902.390,-36.133,-33.203,-38.574,-42.480,0.000
1709373902.394,10.254,-33.203,-35.645,-10.742,0.000
1709373902.398,-16.602,-27.344,-35.156,-24.902,0.000
1709373902.402,-59.570,-29.785,-35.156,-53.223,0.000
1709373902.406,-47.852,-33.691,-34.180,-56.152,0.000
1709373902.409,-5.859,-27.832,-30.762,-22.949,0.000
1709373902.413,35.645,-26.367,-30.273,25.879,0.000
1709373902.417,14.648,-26.855,-29.297,1.465,0.000
1709373902.421,-35.156,-25.879,-28.320,-41.992,0.000
1709373902.425,-43.945,-21.484,-25.879,-40.527,0.000
1709373902.429,-25.879,-21.973,-26.367,-30.273,0.000
1709373902.433,9.277,-22.461,-32.715,-5.371,0.000
1709373902.437,-1.953,-18.066,-31.738,-8.301,0.000
1709373902.440,-53.711,-22.461,-34.668,-47.363,0.000
1709373902.444,-61.035,-27.344,-36.133,-62.500,0.000
1709373902.448,-34.668,-28.320,-36.133,-41.016,0.000
1709373902.452,7.812,-28.809,-34.180,-2.930,0.000
1709373902.456,-2.930,-32.227,-29.785,-8.789,0.000
1709373902.460,-56.152,-34.668,-32.715,-45.410,0.000
1709373902.464,-70.801,-34.668,-36.133,-56.152,0.000
1709373902.468,-52.734,-33.203,-33.691,-47.363,0.000
1709373902.472,-0.488,-28.320,-32.715,-12.695,0.000
1709373902.476,2.441,-26.855,-34.180,-8.789,0.000
1709373902.480,-56.641,-25.879,-32.715,-59.082,0.000
1709373902.484,-77.148,-29.785,-38.574,-77.637,0.000
1709373902.487,-58.105,-32.227,-38.574,-57.617,0.000
1709373902.491,-13.672,-31.250,-34.180,-21.484,0.000
1709373902.495,0.977,-34.668,-36.133,-9.766,0.000
1709373902.499,-47.852,-37.598,-37.109,-42.969,0.000
1709373902.503,-80.078,-37.598,-33.691,-58.594,0.000
1709373902.507,-65.918,-39.551,-32.715,-44.922,0.000
1709373902.511,-17.090,-38.086,-34.668,-11.719,0.000
1709373902.515,5.859,-39.062,-40.039,0.488,0.000
1709373902.519,-41.504,-39.551,-40.039,-36.621,0.000
1709373902.523,-80.078,-34.668,-41.504,-58.105,0.000
1709373902.527,-67.383,-27.344,-42.480,-52.734,0.000
1709373902.530,-21.484,-27.832,-39.551,-31.738,0.000
1709373902.534,3.418,-31.738,-37.109,-9.766,0.000
1709373902.538,-40.039,-33.203,-37.109,-41.992,0.000
1709373902.542,-74.707,-39.062,-36.133,-67.383,0.000
1709373902.546,-69.336,-38.574,-32.715,-59.082,0.000
1709373902.550,-37.109,-36.621,-38.086,-39.551,0.000
1709373902.554,0.000,-38.086,-41.992,-11.719,0.000
1709373902.558,-28.320,-36.133,-40.039,-35.645,0.000
1709373902.562,-68.848,-35.645,-39.551,-61.035,0.000
1709373902.566,-63.477,-34.668,-43.457,-56.641,0.000
1709373902.570,-36.133,-38.574,-46.875,-50.293,0.000
1709373902.573,0.977,-38.574,-43.457,-16.602,0.000
1709373902.577,-17.578,-36.621,-40.527,-26.367,0.000
1709373902.581,-57.617,-36.621,-39.062,-61.035,0.000
1709373902.585,-54.199,-31.250,-36.621,-53.711,0.000
1709373902.589,-23.926,-28.809,-34.180,-38.086,0.000
1709373902.593,7.324,-34.180,-38.086,-17.578,0.000
1709373902.597,-16.113,-34.668,-38.574,-28.320,0.000
1709373902.601,-55.176,-30.762,-37.109,-59.082,0.000
1709373902.605,-60.059,-30.762,-34.180,-53.223,0.000
1709373902.609,-38.086,-31.738,-31.250,-24.414,0.000
1709373902.612,8.789,-34.180,-32.227,0.977,0.000
1709373902.616,4.395,-34.180,-31.250,-9.766,0.000
1709373902.620,-50.293,-31.738,-35.156,-41.992,0.000
