timestamps,TP9,AF7,AF8,TP10,Right AUX
1709298456.212,0.000,-38.574,-20.508,2.930,0.000
1709298456.216,0.000,-35.645,-18.066,11.719,0.000
1709298456.220,0.000,-33.691,-22.949,19.531,0.000
1709298456.224,0.000,-28.320,-22.949,16.113,0.000
1709298456.228,0.000,-31.250,-23.438,-2.441,0.000
1709298456.232,0.000,-45.410,-20.020,-8.301,0.000
1709298456.236,0.000,-40.527,-20.508,9.766,0.000
1709298456.239,0.000,-28.809,-22.461,24.414,0.000
1709298456.243,0.000,-27.832,-22.461,7.812,0.000
1709298456.247,0.000,-30.273,-25.391,-8.301,0.000
1709298456.251,0.000,-31.738,-23.438,-5.859,0.000
1709298456.255,0.000,-38.086,-26.855,8.789,0.000
1709298456.259,4.883,-28.809,-28.809,18.066,0.000
1709298456.263,7.812,-23.438,-19.531,8.301,0.000
1709298456.266,-5.371,-32.227,-20.020,-9.766,0.000
1709298456.270,-16.113,-31.738,-23.926,-13.672,0.000
1709298456.274,-15.625,-30.762,-22.461,-1.953,0.000
1709298456.278,-7.812,-41.504,-22.461,11.230,0.000
1709298456.282,-4.395,-39.062,-18.555,12.207,0.000
1709298456.286,-12.207,-35.156,-16.113,-2.930,0.000
1709298456.290,-20.508,-40.527,-20.020,-12.207,0.000
1709298456.294,-10.742,-33.691,-17.090,2.930,0.000
1709298456.298,-1.953,-40.039,-23.926,15.137,0.000
1709298456.302,-2.441,-41.504,-30.273,5.859,0.000
1709298456.305,-4.883,-39.551,-17.578,-2.930,0.000
1709298456.309,-9.277,-41.992,-16.602,-8.789,0.000
1709298456.313,-12.207,-30.273,-28.320,-7.812,0.000
1709298456.317,-1.465,-33.203,-23.438,6.836,0.000
1709298456.321,7.324,-37.598,-21.973,11.719,0.000
1709298456.325,1.465,-24.902,-25.391,-0.977,0.000
1709298456.328,-7.812,-18.066,-24.902,-3.906,0.000
1709298456.332,-8.789,-17.090,-20.996,6.836,0.000
1709298456.336,-1.465,-24.902,-20.996,17.090,0.000
1709298456.340,4.883,-40.527,-27.832,20.020,0.000
1709298456.344,3.906,-28.320,-23.926,8.789,0.000
1709298456.348,-13.184,-16.602,-24.902,-19.043,0.000
1709298456.352,-23.926,-31.738,-31.738,-17.578,0.000
1709298456.356,-11.719,-42.480,-30.273,5.371,0.000
1709298456.360,-4.883,-34.180,-26.855,10.742,0.000
1709298456.364,-2.930,-26.367,-26.855,-4.395,0.000
1709298456.368,-10.742,-37.109,-27.832,-11.719,0.000
1709298456.372,-20.020,-41.992,-26.367,-2.930,0.000
1709298456.375,-7.812,-47.852,-23.926,3.906,0.000
1709298456.379,1.465,-45.898,-25.879,3.906,0.000
1709298456.383,0.488,-41.992,-25.879,-2.930,0.000
1709298456.387,-8.789,-43.945,-21.484,-5.371,0.000
1709298456.391,-10.254,-38.574,-19.531,-1.953,0.000
1709298456.395,-4.883,-39.551,-24.902,2.441,0.000
1709298456.400,-1.953,-34.668,-24.414,7.812,0.000
1709298456.403,-3.418,-32.227,-18.555,6.836,0.000
1709298456.407,-14.160,-35.645,-24.902,-8.301,0.000
1709298456.411,-15.137,-40.527,-24.414,-7.324,0.000
1709298456.415,-8.301,-37.109,-22.461,9.277,0.000
1709298456.419,-7.324,-41.992,-29.785,10.742,0.000
1709298456.423,-9.766,-42.969,-27.832,2.930,0.000
1709298456.427,-18.066,-41.016,-22.461,-7.812,0.000
1709298456.431,-21.484,-48.340,-18.555,0.000,0.000
1709298456.435,-5.859,-43.945,-18.066,18.555,0.000
1709298456.439,2.930,-46.387,-22.461,15.625,0.000
1709298456.443,-2.441,-43.945,-24.414,5.859,0.000
1709298456.446,-10.254,-38.574,-22.949,-1.953,0.000
1709298456.450,-11.230,-43.457,-22.461,2.441,0.000
1709298456.454,-2.930,-39.551,-25.391,6.348,0.000
1709298456.458,2.441,-30.273,-27.344,10.742,0.000
1709298456.462,0.977,-39.062,-28.320,4.395,0.000
1709298456.466,-5.859,-45.898,-24.414,-14.160,0.000
1709298456.470,-7.812,-40.039,-20.020,-15.137,0.000
1709298456.474,-3.418,-41.016,-21.973,-2.441,0.000
1709298456.478,-3.418,-41.504,-24.902,10.254,0.000
1709298456.482,0.000,-38.086,-22.461,8.301,0.000
1709298456.485,0.000,-32.227,-18.555,-1.465,0.000
1709298456.489,-14.648,-38.574,-22.949,-2.930,0.000
1709298456.493,-20.020,-40.039,-22.461,6.348,0.000
1709298456.497,-5.859,-34.668,-16.602,14.648,0.000
1709298456.501,3.906,-37.109,-21.973,16.113,0.000
1709298456.505,3.418,-33.691,-26.367,6.348,0.000
1709298456.509,-8.789,-35.645,-21.484,-6.348,0.000
1709298456.513,-17.090,-42.480,-19.043,-5.859,0.000
1709298456.517,-6.836,-47.363,-15.137,5.859,0.000
1709298456.521,5.371,-36.621,-15.137,15.137,0.000
1709298456.524,-7.812,-28.809,-24.414,1.953,0.000
1709298456.528,-21.484,-31.738,-20.996,-18.066,0.000
1709298456.532,-13.672,-28.809,-13.184,-6.348,0.000
1709298456.536,-13.672,-35.645,-20.996,4.883,0.000
1709298456.540,-13.184,-42.480,-30.273,7.324,0.000
1709298456.544,-1.465,-38.086,-21.484,7.812,0.000
1709298456.548,-3.906,-39.062,-11.719,5.371,0.000
1709298456.552,-18.066,-44.922,-22.461,3.906,0.000
1709298456.555,-0.977,-32.227,-20.508,17.578,0.000
1709298456.559,16.113,-27.344,-17.090,20.996,0.000
1709298456.563,6.836,-32.715,-23.926,15.625,0.000
1709298456.567,-3.906,-32.227,-26.367,11.719,0.000
1709298456.571,-14.648,-30.273,-30.273,-0.977,0.000
1709298456.575,-10.742,-30.762,-23.926,6.348,0.000
1709298456.579,-0.977,-34.668,-20.508,19.043,0.000
1709298456.583,-1.465,-40.527,-20.996,13.184,0.000
1709298456.586,0.977,-42.969,-16.113,5.859,0.000
1709298456.590,-4.883,-37.598,-16.602,2.930,0.000
1709298456.594,-7.324,-31.738,-19.531,17.578,0.000
1709298456.598,-0.488,-18.066,-22.461,21.973,0.000
1709298456.602,-3.906,-16.113,-26.367,4.883,0.000
1709298456.606,-10.254,-24.414,-21.484,-8.789,0.000
1709298456.610,-15.137,-38.574,-23.926,-1.953,0.000
1709298456.614,-16.602,-40.039,-28.320,8.301,0.000
1709298456.618,-15.137,-36.133,-29.785,-1.465,0.000
1709298456.622,-8.301,-32.227,-24.902,3.906,0.000
1709298456.625,-3.906,-25.391,-11.719,5.371,0.000
1709298456.629,-15.625,-29.785,-14.648,-4.395,0.000
1709298456.634,-22.949,-30.762,-21.484,4.883,0.000
1709298456.638,-7.812,-32.227,-22.461,18.555,0.000
1709298456.641,3.906,-33.691,-19.043,17.090,0.000
1709298456.645,2.441,-21.973,-16.602,13.672,0.000
1709298456.649,-1.953,-18.555,-18.066,5.859,0.000
1709298456.653,2.930,-20.996,-14.648,9.277,0.000
1709298456.657,15.625,-19.043,-15.625,29.785,0.000
1709298456.661,22.949,-20.996,-12.695,30.762,0.000
1709298456.665,24.414,-25.391,-11.719,13.184,0.000
1709298456.669,8.301,-28.809,-23.926,-3.418,0.000
1709298456.673,-3.418,-29.297,-27.832,2.441,0.000
1709298456.677,-4.883,-27.344,-25.391,20.996,0.000
1709298456.681,-3.418,-25.391,-28.320,13.184,0.000
1709298456.685,-0.977,-20.996,-31.738,-0.488,0.000
1709298456.688,-5.859,-15.625,-31.738,-5.371,0.000
1709298456.692,-10.254,-20.020,-31.250,-1.465,0.000
1709298456.696,0.488,-24.902,-30.762,12.695,0.000
1709298456.700,16.113,-21.973,-20.508,29.297,0.000
1709298456.704,4.395,-17.578,-28.320,16.113,0.000
1709298456.708,-19.043,-23.926,-38.086,-5.859,0.000
1709298456.712,-18.555,-22.461,-30.273,0.977,0.000
1709298456.716,-7.324,-16.113,-27.344,28.809,0.000
1709298456.720,-3.906,-27.344,-34.180,31.250,0.000
1709298456.724,-4.883,-30.762,-32.227,4.883,0.000
1709298456.728,-15.137,-31.250,-26.367,-3.418,0.000
1709298456.732,-21.973,-37.109,-30.273,-7.812,0.000
1709298456.735,-21.973,-31.738,-32.715,-0.977,0.000
1709298456.739,-12.207,-36.133,-30.762,8.301,0.000
1709298456.743,-1.953,-41.992,-27.832,5.859,0.000
1709298456.747,-11.230,-34.668,-28.809,-5.371,0.000
1709298456.751,-26.367,-36.621,-35.156,-14.160,0.000
1709298456.755,-23.926,-30.762,-34.180,-1.465,0.000
1709298456.759,-15.625,-26.855,-24.902,11.719,0.000
1709298456.763,-13.184,-27.832,-21.973,21.484,0.000
1709298456.767,-20.020,-30.762,-24.902,5.859,0.000
1709298456.771,-29.297,-32.715,-28.809,-13.672,0.000
1709298456.775,-25.879,-29.297,-29.785,-9.277,0.000
1709298456.778,-14.648,-33.203,-34.668,3.906,0.000
1709298456.782,-20.020,-38.086,-35.645,6.348,0.000
1709298456.786,-25.879,-39.062,-28.809,-1.953,0.000
1709298456.790,-23.438,-24.902,-22.461,-3.418,0.000
1709298456.794,-20.508,-15.137,-20.996,0.000,0.000
1709298456.798,-5.371,-20.020,-27.344,8.301,0.000
1709298456.802,4.395,-26.367,-23.926,5.859,0.000
1709298456.806,3.906,-24.902,-11.719,10.254,0.000
1709298456.810,-5.859,-25.391,-13.672,4.395,0.000
1709298456.814,-3.418,-23.438,-16.113,3.418,0.000
1709298456.818,7.812,-24.902,-20.020,14.648,0.000
1709298456.821,-2.930,-23.926,-25.391,6.348,0.000
1709298456.825,-10.254,-20.996,-28.320,-4.883,0.000
1709298456.829,-3.418,-30.273,-22.949,-2.930,0.000
1709298456.833,1.953,-31.250,-13.184,11.230,0.000
1709298456.837,9.766,-27.344,-9.277,17.090,0.000
1709298456.841,12.695,-35.645,-6.836,13.672,0.000
1709298456.845,5.371,-31.738,-19.043,1.465,0.000
1709298456.849,2.930,-20.020,-19.531,0.977,0.000
1709298456.853,3.418,-27.832,-8.789,18.555,0.000
1709298456.856,5.859,-33.203,-19.043,16.113,0.000
1709298456.860,10.742,-32.227,-24.414,13.672,0.000
1709298456.864,8.789,-40.527,-21.484,3.906,0.000
1709298456.868,0.488,-41.504,-26.367,-11.230,0.000
1709298456.872,-12.207,-41.016,-27.832,-10.254,0.000
1709298456.876,-8.789,-36.621,-19.531,-0.488,0.000
1709298456.880,8.301,-32.715,-16.113,8.301,0.000
1709298456.884,12.695,-34.668,-25.391,-4.883,0.000
1709298456.888,2.930,-38.574,-28.809,-15.625,0.000
1709298456.891,-7.812,-51.270,-23.926,-14.160,0.000
1709298456.895,2.441,-49.316,-25.879,7.324,0.000
1709298456.899,17.090,-35.645,-23.438,20.508,0.000
1709298456.903,20.020,-30.762,-20.996,6.836,0.000
1709298456.907,12.695,-25.879,-23.438,0.977,0.000
1709298456.911,3.906,-22.949,-27.832,2.930,0.000
1709298456.915,8.789,-28.320,-24.414,12.695,0.000
1709298456.919,12.207,-31.738,-22.949,16.602,0.000
1709298456.923,13.184,-32.715,-27.344,9.766,0.000
1709298456.926,5.371,-31.250,-20.020,2.930,0.000
1709298456.930,-8.789,-43.945,-25.391,-1.465,0.000
1709298456.934,-13.184,-40.527,-36.133,-0.977,0.000
1709298456.938,-6.836,-24.902,-31.250,6.836,0.000
1709298456.942,-2.930,-29.785,-28.320,12.207,0.000
1709298456.946,-4.395,-25.391,-23.926,0.488,0.000
1709298456.950,-10.254,-23.438,-18.066,-5.859,0.000
1709298456.954,-13.184,-34.180,-18.066,15.137,0.000
1709298456.958,4.883,-36.133,-19.531,31.250,0.000
1709298456.961,18.066,-25.879,-23.438,26.367,0.000
1709298456.965,16.602,-22.461,-26.367,19.531,0.000
1709298456.969,17.090,-23.438,-15.137,28.320,0.000
1709298456.973,17.090,-23.438,-13.184,34.668,0.000
1709298456.977,22.949,-29.785,-22.949,46.875,0.000
1709298456.981,36.133,-24.902,-24.414,50.293,0.000
1709298456.985,33.691,-26.855,-25.879,37.598,0.000
1709298456.989,12.695,-32.715,-33.203,23.926,0.000
1709298456.993,8.789,-21.484,-30.762,20.020,0.000
1709298456.996,17.090,-18.066,-27.344,30.762,0.000
1709298457.000,19.531,-24.902,-32.715,21.484,0.000
1709298457.004,18.066,-31.738,-33.691,11.719,0.000
1709298457.008,6.836,-39.551,-33.691,7.812,0.000
1709298457.012,3.906,-35.156,-34.668,11.719,0.000
1709298457.016,11.719,-33.203,-33.691,18.066,0.000
1709298457.020,8.789,-41.992,-30.273,6.836,0.000
1709298457.023,-3.418,-34.668,-27.344,-2.930,0.000
1709298457.027,-14.648,-31.250,-30.273,-9.277,0.000
1709298457.031,-13.184,-28.320,-30.273,0.977,0.000
1709298457.035,-1.953,-21.484,-29.297,14.648,0.000
1709298457.039,8.301,-25.391,-27.832,14.648,0.000
1709298457.043,4.883,-39.551,-25.391,5.859,0.000
1709298457.047,-5.859,-40.039,-21.484,2.930,0.000
1709298457.051,-7.324,-33.203,-15.625,10.742,0.000
1709298457.055,1.953,-38.574,-16.113,19.043,0.000
1709298457.059,17.578,-42.480,-26.855,30.273,0.000
1709298457.063,20.020,-40.039,-32.227,33.203,0.000
1709298457.067,9.277,-33.691,-28.320,21.484,0.000
1709298457.071,7.324,-39.551,-26.367,20.996,0.000
1709298457.074,9.277,-45.898,-28.809,41.992,0.000
1709298457.078,13.184,-43.945,-37.109,45.410,0.000
1709298457.082,14.648,-44.434,-35.156,35.156,0.000
1709298457.086,9.766,-40.527,-20.508,28.320,0.000
1709298457.090,7.812,-37.598,-17.578,40.527,0.000
1709298457.094,9.766,-47.852,-17.578,60.547,0.000
1709298457.098,22.461,-45.410,-18.066,62.500,0.000
1709298457.102,26.367,-40.039,-22.949,50.781,0.000
1709298457.106,14.160,-41.504,-23.926,28.320,0.000
1709298457.110,4.883,-46.875,-24.414,20.996,0.000
1709298457.114,6.836,-44.434,-24.414,30.273,0.000
1709298457.118,8.789,-34.180,-19.043,39.551,0.000
1709298457.121,6.348,-35.645,-11.719,30.762,0.000
1709298457.125,5.859,-35.156,-10.254,15.625,0.000
1709298457.129,-2.930,-29.297,-13.184,6.836,0.000
1709298457.133,-15.625,-31.738,-16.113,8.301,0.000
1709298457.137,-10.254,-42.969,-16.602,20.508,0.000
1709298457.141,-12.207,-44.922,-20.508,-1.465,0.000
1709298457.145,-24.902,-49.316,-20.996,-25.879,0.000
1709298457.149,-34.668,-51.758,-22.949,-22.949,0.000
1709298457.153,-37.109,-43.945,-25.879,-23.438,0.000
1709298457.157,-25.391,-38.086,-20.020,-15.137,0.000
1709298457.161,-10.254,-30.762,-11.719,-6.348,0.000
1709298457.164,-10.254,-34.668,-19.531,-13.184,0.000
1709298457.168,-11.230,-37.598,-25.391,-17.090,0.000
1709298457.172,-7.812,-35.156,-18.555,-2.441,0.000
1709298457.176,5.859,-35.156,-21.484,11.719,0.000
1709298457.180,22.461,-36.133,-18.066,32.715,0.000
1709298457.184,24.414,-40.527,-18.555,35.156,0.000
1709298457.188,20.508,-43.945,-17.578,16.113,0.000
1709298457.192,16.113,-38.086,-17.090,20.996,0.000
1709298457.196,20.508,-35.645,-18.555,39.062,0.000
1709298457.200,36.133,-31.738,-12.207,53.711,0.000
1709298457.203,33.691,-27.344,-15.625,45.410,0.000
1709298457.207,22.949,-29.297,-15.137,28.809,0.000
1709298457.211,20.020,-29.297,-8.789,33.203,0.000
1709298457.215,22.461,-41.016,-8.301,46.387,0.000
1709298457.219,30.762,-48.340,-6.348,49.316,0.000
1709298457.223,23.926,-36.133,-3.418,33.203,0.000
1709298457.227,13.184,-33.691,-0.977,19.531,0.000
1709298457.231,8.789,-32.227,-4.395,19.531,0.000
1709298457.235,-0.977,-35.645,-16.602,19.043,0.000
1709298457.239,8.301,-38.574,-16.602,30.762,0.000
1709298457.243,13.184,-36.133,-9.766,33.203,0.000
1709298457.247,-12.207,-42.969,-19.043,5.859,0.000
1709298457.251,-31.250,-52.246,-20.508,-6.836,0.000
1709298457.255,-32.227,-50.293,-13.672,-2.441,0.000
1709298457.259,-29.785,-35.156,-20.508,-1.465,0.000
1709298457.263,-29.785,-39.062,-28.320,-9.766,0.000
1709298457.267,-31.738,-47.852,-27.344,-20.508,0.000
1709298457.270,-42.480,-52.734,-26.367,-20.020,0.000
1709298457.274,-50.781,-59.082,-28.320,-12.695,0.000
1709298457.278,-42.969,-57.617,-34.668,-20.020,0.000
1709298457.282,-30.273,-62.500,-42.480,-30.273,0.000
1709298457.286,-33.691,-59.082,-43.457,-41.016,0.000
1709298457.290,-43.457,-48.340,-39.551,-47.852,0.000
1709298457.294,-42.480,-44.922,-29.297,-34.180,0.000
1709298457.297,-22.461,-39.062,-28.320,-13.672,0.000
1709298457.301,-3.906,-37.598,-33.203,-11.719,0.000
1709298457.305,-6.836,-40.039,-29.785,-24.902,0.000
1709298457.309,-10.254,-38.086,-28.320,-26.855,0.000
1709298457.313,-12.695,-36.621,-28.809,-15.625,0.000
1709298457.317,-3.418,-33.203,-25.391,9.277,0.000
1709298457.321,10.254,-32.715,-18.555,20.996,0.000
1709298457.325,8.301,-39.062,-12.695,9.766,0.000
1709298457.329,-1.953,-42.480,-11.719,5.371,0.000
1709298457.333,-11.230,-35.156,-8.789,22.461,0.000
1709298457.336,-1.953,-29.785,-5.859,32.227,0.000
1709298457.340,10.254,-27.832,-9.277,27.344,0.000
1709298457.344,7.812,-28.809,-13.672,18.066,0.000
1709298457.348,-3.418,-32.715,-17.578,6.836,0.000
1709298457.352,-15.625,-29.785,-17.090,7.812,0.000
1709298457.356,-10.742,-20.508,-19.531,23.438,0.000
1709298457.360,3.906,-19.043,-20.508,42.480,0.000
1709298457.364,9.766,-16.113,-10.742,38.086,0.000
1709298457.368,-0.977,-10.254,-9.277,17.578,0.000
1709298457.371,-5.371,-16.602,-14.648,28.809,0.000
1709298457.375,8.301,-22.949,-15.137,42.480,0.000
1709298457.379,8.789,-22.461,-21.484,31.738,0.000
1709298457.383,-0.488,-17.090,-24.902,16.113,0.000
1709298457.387,-16.113,-26.855,-25.391,-4.883,0.000
1709298457.391,-34.180,-42.969,-29.297,-20.996,0.000
1709298457.395,-29.297,-40.527,-24.414,-15.137,0.000
1709298457.398,-21.973,-37.598,-24.414,-15.137,0.000
1709298457.402,-30.273,-35.156,-31.738,-28.320,0.000
1709298457.406,-37.109,-41.016,-26.855,-26.367,0.000
1709298457.410,-42.969,-48.340,-33.691,-32.227,0.000
1709298457.414,-38.574,-42.969,-38.086,-34.180,0.000
1709298457.418,-20.508,-39.551,-33.203,-14.160,0.000
1709298457.422,-9.277,-37.598,-31.738,-6.348,0.000
1709298457.426,-9.277,-26.855,-26.855,-9.766,0.000
1709298457.429,-10.742,-20.508,-24.902,-9.766,0.000
1709298457.433,-6.836,-26.855,-24.902,2.930,0.000
1709298457.437,8.301,-22.461,-21.484,17.578,0.000
1709298457.441,11.230,-22.461,-18.066,16.113,0.000
1709298457.445,6.348,-25.879,-19.531,11.230,0.000
1709298457.449,4.883,-29.297,-18.555,18.555,0.000
1709298457.453,-0.977,-29.785,-16.113,23.926,0.000
1709298457.457,-1.465,-24.414,-26.855,12.695,0.000
1709298457.460,7.812,-32.715,-21.973,10.742,0.000
1709298457.464,2.930,-35.645,-5.859,0.977,0.000
1709298457.468,-8.301,-15.625,-16.113,-8.789,0.000
1709298457.472,-8.301,-7.324,-30.762,0.000,0.000
1709298457.476,-3.906,-17.578,-27.344,4.883,0.000
1709298457.480,3.906,-24.902,-18.555,5.371,0.000
1709298457.484,-0.977,-33.203,-16.602,-3.418,0.000
1709298457.488,-12.695,-31.738,-20.996,-10.254,0.000
1709298457.492,-20.020,-33.691,-18.555,-7.812,0.000
1709298457.496,-24.414,-43.945,-21.484,1.953,0.000
1709298457.500,-22.461,-49.805,-18.555,4.395,0.000
1709298457.504,-29.297,-48.340,-14.648,-11.719,0.000
1709298457.508,-44.434,-44.922,-20.508,-25.391,0.000
1709298457.511,-48.828,-42.480,-19.531,-24.414,0.000
1709298457.515,-47.852,-47.852,-27.344,-21.973,0.000
1709298457.519,-39.551,-50.781,-35.156,-23.926,0.000
1709298457.523,-32.227,-34.180,-40.527,-28.320,0.000
1709298457.527,-34.668,-32.715,-34.180,-28.809,0.000
1709298457.531,-39.062,-40.527,-33.691,-20.996,0.000
1709298457.535,-31.738,-41.992,-32.715,-8.301,0.000
1709298457.539,-15.625,-37.598,-24.902,1.465,0.000
1709298457.543,-19.043,-39.551,-28.809,-6.348,0.000
1709298457.547,-28.809,-48.828,-30.273,-16.113,0.000
1709298457.551,-27.832,-49.316,-26.367,-7.324,0.000
1709298457.554,-21.484,-47.852,-18.066,17.090,0.000
1709298457.558,-15.137,-50.781,-15.625,24.902,0.000
1709298457.562,-23.926,-45.898,-22.949,-0.488,0.000
1709298457.566,-27.344,-43.457,-21.484,-10.254,0.000
1709298457.570,-31.738,-52.246,-24.414,-7.812,0.000
1709298457.574,-33.203,-44.922,-31.738,-6.836,0.000
1709298457.578,-25.879,-39.062,-26.367,6.348,0.000
1709298457.582,-14.160,-41.504,-22.461,12.695,0.000
1709298457.586,-13.672,-34.180,-22.949,2.441,0.000
1709298457.590,-27.344,-37.109,-29.785,-8.301,0.000
1709298457.594,-17.090,-41.992,-31.738,1.953,0.000
1709298457.597,8.301,-36.621,-22.949,19.531,0.000
1709298457.601,12.207,-33.203,-24.414,21.484,0.000
1709298457.605,-4.883,-32.227,-28.320,4.883,0.000
1709298457.609,-13.672,-38.086,-26.367,-7.812,0.000
1709298457.613,-7.324,-31.738,-20.020,3.906,0.000
1709298457.617,6.836,-22.949,-20.996,11.719,0.000
1709298457.621,15.137,-28.809,-25.879,12.207,0.000
1709298457.625,15.137,-27.832,-17.090,4.883,0.000
1709298457.629,8.789,-20.020,-14.160,0.977,0.000
1709298457.633,1.953,-21.484,-20.996,6.348,0.000
1709298457.636,10.254,-33.691,-26.367,20.508,0.000
1709298457.640,21.484,-27.832,-26.855,20.996,0.000
1709298457.644,20.020,-16.602,-21.484,13.184,0.000
1709298457.648,8.301,-13.184,-27.832,2.441,0.000
1709298457.652,0.977,-11.230,-39.062,-9.277,0.000
1709298457.656,3.418,-16.602,-38.574,-2.441,0.000
1709298457.660,0.977,-24.414,-34.180,-6.348,0.000
1709298457.664,-4.883,-32.227,-30.273,-23.926,0.000
1709298457.667,-17.578,-32.227,-31.250,-38.574,0.000
1709298457.671,-21.973,-37.598,-38.086,-32.227,0.000
1709298457.675,-5.859,-35.156,-37.598,-8.789,0.000
1709298457.679,2.441,-25.879,-38.086,-10.742,0.000
1709298457.683,0.977,-26.855,-39.551,-22.461,0.000
1709298457.687,-2.441,-30.273,-37.598,-30.762,0.000
1709298457.691,-8.789,-29.785,-36.621,-19.043,0.000
1709298457.695,-1.465,-26.367,-37.598,-1.953,0.000
1709298457.699,22.949,-27.344,-27.344,7.324,0.000
1709298457.703,30.762,-33.691,-16.113,8.789,0.000
1709298457.707,13.672,-27.832,-26.855,-7.812,0.000
1709298457.710,4.395,-18.066,-33.203,-22.461,0.000
1709298457.714,15.625,-18.555,-32.715,-8.789,0.000
1709298457.718,20.020,-20.508,-34.668,13.672,0.000
1709298457.722,17.578,-29.785,-39.062,4.883,0.000
1709298457.726,11.719,-34.668,-37.109,-11.230,0.000
1709298457.730,2.930,-28.320,-33.203,-6.348,0.000
1709298457.734,8.301,-31.738,-28.320,17.090,0.000
1709298457.738,21.973,-30.273,-21.484,36.133,0.000
1709298457.741,19.043,-32.227,-28.809,20.508,0.000
1709298457.745,9.766,-41.992,-34.180,2.930,0.000
1709298457.749,13.184,-41.016,-23.438,1.465,0.000
1709298457.753,16.602,-38.574,-22.949,6.348,0.000
1709298457.758,19.531,-38.574,-23.438,17.090,0.000
1709298457.762,21.484,-42.969,-15.625,17.090,0.000
1709298457.766,8.789,-39.062,-21.484,-2.441,0.000
1709298457.770,-7.324,-30.273,-21.484,-8.789,0.000
1709298457.774,-7.812,-35.156,-18.555,2.441,0.000
1709298457.778,1.953,-42.969,-23.438,12.207,0.000
1709298457.782,8.789,-46.875,-26.367,16.113,0.000
1709298457.785,0.488,-39.062,-28.320,0.000,0.000
1709298457.789,-14.160,-37.598,-32.715,-14.648,0.000
1709298457.793,-10.742,-43.457,-35.156,3.418,0.000
1709298457.797,7.812,-42.480,-29.785,19.531,0.000
1709298457.801,11.719,-43.945,-24.414,18.066,0.000
1709298457.805,2.441,-46.875,-20.996,7.812,0.000
1709298457.809,-3.418,-39.062,-16.113,0.977,0.000
1709298457.813,-10.742,-39.062,-22.461,6.836,0.000
1709298457.817,-11.719,-48.828,-27.344,16.602,0.000
1709298457.821,-2.930,-55.176,-20.020,24.414,0.000
1709298457.825,-3.418,-52.246,-22.461,19.531,0.000
1709298457.829,-20.996,-50.781,-27.832,-1.465,0.000
1709298457.833,-33.691,-51.270,-28.320,-5.859,0.000
1709298457.836,-26.367,-36.621,-28.809,12.695,0.000
1709298457.840,-12.207,-39.062,-24.902,15.137,0.000
1709298457.844,-4.395,-53.223,-21.973,6.836,0.000
1709298457.848,-7.812,-48.340,-17.578,0.977,0.000
1709298457.852,-20.996,-42.969,-20.996,-8.301,0.000
1709298457.856,-19.043,-41.992,-26.367,8.789,0.000
1709298457.860,-10.742,-46.875,-25.391,17.578,0.000
1709298457.864,-7.812,-47.852,-23.438,-3.418,0.000
1709298457.868,-13.672,-40.527,-16.602,-8.789,0.000
1709298457.872,-22.949,-40.039,-25.879,-6.348,0.000
1709298457.876,-21.484,-38.086,-35.156,-7.812,0.000
1709298457.880,-16.602,-42.969,-31.738,1.953,0.000
1709298457.883,-14.160,-49.316,-30.273,6.348,0.000
1709298457.887,-24.414,-44.434,-35.156,-8.301,0.000
1709298457.891,-30.273,-41.504,-41.504,-6.348,0.000
1709298457.895,-15.625,-53.711,-31.250,11.719,0.000
1709298457.899,-8.301,-58.105,-33.691,10.254,0.000
1709298457.903,-6.836,-48.828,-44.922,-3.906,0.000
1709298457.907,-8.789,-41.992,-41.992,-16.602,0.000
1709298457.911,-21.484,-42.480,-33.691,-20.508,0.000
1709298457.915,-19.043,-48.340,-34.668,-0.488,0.000
1709298457.919,-11.230,-49.316,-35.645,16.113,0.000
1709298457.923,-10.742,-48.340,-33.203,-0.488,0.000
1709298457.926,-14.648,-50.781,-36.621,-16.602,0.000
1709298457.930,-26.855,-52.246,-34.180,-11.719,0.000
1709298457.934,-37.109,-56.152,-38.574,-2.441,0.000
1709298457.938,-28.809,-56.641,-40.039,-4.395,0.000
1709298457.942,-17.578,-51.758,-29.297,3.418,0.000
1709298457.946,-25.879,-53.223,-30.273,-5.371,0.000
1709298457.950,-39.551,-59.082,-35.156,-22.949,0.000
1709298457.954,-36.621,-58.105,-33.203,-14.160,0.000
1709298457.958,-20.508,-49.805,-33.691,5.859,0.000
1709298457.962,-8.789,-45.410,-25.391,9.766,0.000
1709298457.965,-12.207,-52.734,-20.508,-7.324,0.000
1709298457.969,-24.902,-54.688,-28.809,-23.926,0.000
1709298457.973,-27.344,-45.898,-34.180,-16.602,0.000
1709298457.977,-23.926,-45.410,-31.250,4.883,0.000
1709298457.981,-19.043,-49.805,-29.785,1.953,0.000
1709298457.985,-11.230,-43.945,-30.762,-10.742,0.000
1709298457.989,-13.184,-43.457,-26.855,-18.555,0.000
1709298457.993,-19.043,-41.992,-26.367,-11.719,0.000
1709298457.997,-10.742,-31.250,-29.785,2.930,0.000
1709298458.000,4.395,-32.227,-28.809,14.160,0.000
1709298458.004,2.441,-36.621,-30.762,11.230,0.000
1709298458.008,-8.301,-41.992,-33.203,-7.812,0.000
1709298458.012,-5.859,-39.062,-29.297,-7.812,0.000
1709298458.016,1.953,-31.738,-26.855,12.207,0.000
1709298458.020,13.672,-36.621,-26.367,25.879,0.000
1709298458.024,12.207,-39.062,-26.367,15.625,0.000
1709298458.028,1.953,-30.762,-24.414,-1.465,0.000
1709298458.032,-1.465,-31.250,-18.555,1.953,0.000
1709298458.036,6.348,-32.715,-21.484,12.207,0.000
1709298458.039,16.602,-28.809,-25.879,12.207,0.000
1709298458.043,9.766,-29.785,-24.414,3.906,0.000
1709298458.047,0.000,-32.227,-18.066,0.488,0.000
1709298458.051,-7.812,-29.785,-22.461,-1.465,0.000
1709298458.055,-6.836,-34.180,-29.297,7.812,0.000
1709298458.059,1.465,-43.457,-25.879,26.367,0.000
1709298458.063,2.930,-38.574,-23.926,22.949,0.000
1709298458.067,-5.371,-40.527,-21.973,16.602,0.000
1709298458.071,-14.160,-42.480,-28.809,8.789,0.000
1709298458.074,-14.648,-33.203,-30.273,2.441,0.000
1709298458.078,-3.418,-31.250,-19.043,15.625,0.000
1709298458.082,8.789,-43.945,-16.113,10.254,0.000
1709298458.086,-1.953,-46.387,-20.996,-7.812,0.000
1709298458.090,-10.742,-26.367,-23.438,-6.836,0.000
1709298458.094,-11.230,-27.344,-23.438,7.324,0.000
1709298458.098,0.488,-38.574,-21.973,23.438,0.000
1709298458.102,5.371,-36.133,-28.809,12.695,0.000
1709298458.105,-0.977,-32.227,-31.738,-7.324,0.000
1709298458.109,-4.395,-40.039,-23.926,-6.348,0.000
1709298458.113,-4.395,-42.480,-19.531,1.465,0.000
1709298458.117,2.930,-26.855,-31.250,10.254,0.000
1709298458.121,7.812,-28.809,-38.086,9.277,0.000
1709298458.125,2.441,-39.551,-23.926,-4.395,0.000
1709298458.129,-8.301,-28.809,-25.391,-10.742,0.000
1709298458.132,-15.137,-25.391,-33.691,-5.859,0.000
1709298458.136,-9.277,-43.457,-28.809,7.324,0.000
1709298458.140,-4.395,-48.340,-25.391,8.301,0.000
1709298458.144,-11.230,-34.668,-19.531,-2.930,0.000
1709298458.148,-20.996,-34.668,-16.602,-9.766,0.000
1709298458.152,-30.762,-44.434,-20.020,-6.348,0.000
1709298458.156,-31.738,-42.969,-30.762,9.277,0.000
1709298458.160,-26.855,-40.527,-36.133,2.930,0.000
1709298458.164,-20.996,-45.410,-29.297,-15.625,0.000
1709298458.168,-24.902,-37.598,-21.973,-12.695,0.000
1709298458.171,-25.391,-36.133,-20.020,-2.441,0.000
1709298458.175,-12.207,-42.969,-21.484,7.812,0.000
1709298458.179,3.906,-35.156,-19.531,14.648,0.000
1709298458.183,1.953,-35.156,-23.926,7.324,0.000
1709298458.187,-16.113,-39.062,-29.297,-11.719,0.000
1709298458.191,-20.020,-38.086,-31.250,-8.789,0.000
1709298458.194,-21.973,-33.691,-30.762,0.488,0.000
1709298458.198,-20.020,-34.668,-30.273,3.418,0.000
1709298458.202,-10.254,-32.227,-30.762,2.441,0.000
1709298458.206,-10.254,-33.203,-24.902,-12.695,0.000
1709298458.210,-19.531,-38.574,-20.996,-9.766,0.000
1709298458.214,-22.461,-38.086,-28.320,2.930,0.000
1709298458.218,-15.625,-33.203,-32.715,1.465,0.000
1709298458.222,-10.742,-35.645,-31.738,-9.766,0.000
1709298458.226,0.000,-50.781,-30.273,-23.438,0.000
1709298458.230,0.000,-41.504,-26.367,-24.414,0.000
1709298458.234,0.000,-22.949,-30.762,-10.254,0.000
1709298458.238,0.000,-26.855,-38.086,0.000,0.000
1709298458.242,0.000,-33.203,-31.250,-3.418,0.000
1709298458.245,0.000,-33.691,-27.832,-10.254,0.000
1709298458.249,0.000,-38.574,-33.203,-16.113,0.000
1709298458.253,0.000,-36.621,-36.621,-11.230,0.000
1709298458.257,0.000,-37.109,-39.062,-4.395,0.000
1709298458.261,0.000,-41.016,-40.527,-1.465,0.000
1709298458.265,0.000,-36.133,-35.645,-7.812,0.000
1709298458.269,0.000,-37.109,-30.762,-8.301,0.000
1709298458.273,-21.484,-39.551,-34.668,4.883,0.000
1709298458.277,-10.254,-26.855,-32.715,10.742,0.000
1709298458.281,-3.418,-25.391,-28.809,6.348,0.000
1709298458.285,-6.348,-32.715,-32.715,3.418,0.000
1709298458.289,-13.672,-29.297,-26.855,3.906,0.000
1709298458.292,-20.020,-41.016,-24.902,9.277,0.000
1709298458.296,-13.672,-45.898,-22.461,18.555,0.000
1709298458.300,-10.254,-40.039,-19.531,15.137,0.000
1709298458.304,-8.301,-34.668,-20.996,15.625,0.000
1709298458.308,-1.953,-33.203,-20.996,11.719,0.000
1709298458.312,1.465,-43.457,-27.832,2.441,0.000
1709298458.316,11.230,-36.133,-30.273,18.066,0.000
1709298458.320,22.949,-28.809,-29.785,26.367,0.000
1709298458.324,20.508,-33.691,-26.855,25.391,0.000
1709298458.328,6.836,-33.691,-20.508,23.926,0.000
1709298458.331,-3.418,-37.598,-21.484,16.602,0.000
1709298458.335,0.000,-40.527,-28.320,19.531,0.000
1709298458.339,1.953,-36.133,-23.926,23.438,0.000
1709298458.343,-1.953,-34.180,-20.996,10.254,0.000
1709298458.347,-3.418,-31.738,-22.461,0.000,0.000
1709298458.351,-4.395,-35.645,-22.949,7.812,0.000
1709298458.355,0.977,-32.227,-25.879,9.277,0.000
1709298458.359,6.836,-22.949,-30.762,9.277,0.000
1709298458.363,6.836,-19.043,-33.203,5.371,0.000
1709298458.367,9.766,-20.996,-27.832,-2.930,0.000
1709298458.370,0.977,-22.461,-26.367,-4.883,0.000
1709298458.374,6.836,-11.719,-23.438,12.695,0.000
1709298458.378,17.578,-13.672,-25.879,21.484,0.000
1709298458.382,9.277,-18.066,-33.691,-7.324,0.000
1709298458.386,-1.465,-22.949,-30.273,-20.508,0.000
1709298458.390,-12.207,-27.832,-28.320,-15.625,0.000
1709298458.394,-13.672,-31.250,-25.391,-2.441,0.000
1709298458.398,-5.371,-31.738,-22.461,11.230,0.000
1709298458.402,-5.371,-32.227,-22.949,-0.488,0.000
1709298458.406,-11.230,-31.738,-25.391,-9.277,0.000
1709298458.410,-14.648,-24.414,-23.926,-4.883,0.000
1709298458.413,-11.719,-20.020,-22.461,2.930,0.000
1709298458.417,0.977,-27.344,-22.461,9.766,0.000
1709298458.421,5.859,-33.203,-22.461,7.812,0.000
1709298458.425,-3.906,-25.879,-25.879,-10.254,0.000
1709298458.429,-21.973,-26.855,-22.949,-19.531,0.000
1709298458.433,-20.508,-33.203,-29.785,-11.230,0.000
1709298458.437,0.488,-42.480,-27.344,-1.465,0.000
1709298458.441,-1.953,-43.457,-18.555,12.207,0.000
1709298458.445,-21.484,-30.762,-20.996,0.488,0.000
1709298458.448,-27.832,-28.809,-29.785,-17.090,0.000
1709298458.452,-25.879,-38.086,-38.574,-5.859,0.000
1709298458.456,-16.113,-40.527,-35.645,-0.977,0.000
1709298458.460,0.000,-41.504,-30.273,0.000,0.000
1709298458.464,0.000,-43.457,-22.949,4.395,0.000
1709298458.468,0.000,-46.387,-19.043,7.324,0.000
1709298458.472,0.000,-34.180,-19.043,10.254,0.000
1709298458.476,0.000,-23.438,-14.648,18.066,0.000
1709298458.479,0.000,-29.785,-18.555,23.438,0.000
1709298458.483,0.000,-23.438,-22.949,21.484,0.000
1709298458.487,0.000,-23.438,-19.531,11.230,0.000
1709298458.491,0.000,-27.344,-27.344,0.000,0.000
1709298458.495,0.000,-25.879,-26.367,13.184,0.000
1709298458.499,0.000,-29.785,-21.484,25.879,0.000
1709298458.503,0.000,-39.551,-25.391,9.277,0.000
1709298458.505,-8.301,-36.621,-25.391,-7.812,0.000
1709298458.509,-1.465,-28.809,-23.438,-0.488,0.000
1709298458.513,0.000,-26.367,-27.832,14.648,0.000
1709298458.517,0.000,-28.809,-32.227,19.043,0.000
1709298458.521,9.766,-27.344,-34.180,12.695,0.000
1709298458.525,19.043,-32.227,-32.715,0.000,0.000
1709298458.529,9.766,-40.527,-30.762,-1.953,0.000
1709298458.533,-3.418,-28.320,-36.621,3.418,0.000
1709298458.537,-5.371,-28.809,-37.598,4.883,0.000
1709298458.541,8.789,-37.109,-32.227,0.488,0.000
1709298458.544,24.414,-42.480,-31.738,-9.277,0.000
1709298458.548,20.020,-45.898,-29.297,-11.230,0.000
1709298458.552,-5.371,-37.598,-21.484,0.977,0.000
1709298458.556,-1.953,-35.645,-23.926,7.812,0.000
1709298458.560,2.930,-42.480,-27.344,3.906,0.000
1709298458.564,-4.883,-40.039,-29.297,-7.812,0.000
1709298458.568,-19.043,-29.297,-31.250,-18.066,0.000
1709298458.571,-18.066,-27.344,-24.902,-0.977,0.000
1709298458.575,-3.906,-33.203,-20.996,15.625,0.000
1709298458.579,4.395,-29.297,-23.438,6.836,0.000
1709298458.583,0.000,-33.203,-18.066,-4.883,0.000
1709298458.587,-9.766,-41.504,-18.066,2.930,0.000
1709298458.591,-14.160,-39.062,-26.855,14.648,0.000
1709298458.595,-5.371,-41.504,-29.785,17.578,0.000
1709298458.599,0.000,-41.016,-21.484,15.137,0.000
1709298458.603,0.000,-34.668,-21.484,0.977,0.000
1709298458.607,0.000,-40.039,-23.926,-3.418,0.000
1709298458.611,0.000,-47.852,-20.508,6.836,0.000
1709298458.615,0.000,-48.828,-21.973,11.719,0.000
1709298458.619,0.000,-50.781,-23.438,12.207,0.000
1709298458.623,0.000,-41.016,-20.508,9.766,0.000
1709298458.627,0.000,-44.922,-23.926,2.930,0.000
1709298458.630,0.000,-59.082,-31.738,0.977,0.000
1709298458.634,0.000,-40.527,-31.250,14.160,0.000
1709298458.638,0.000,-28.809,-32.227,13.184,0.000
1709298458.642,0.000,-31.250,-39.062,-5.371,0.000
1709298458.646,-5.371,-31.250,-37.598,-6.348,0.000
1709298458.650,-7.324,-36.133,-29.785,-4.883,0.000
1709298458.654,-2.930,-36.621,-31.250,-8.301,0.000
1709298458.658,0.488,-37.598,-27.344,-3.418,0.000
1709298458.662,-2.441,-37.598,-23.926,-1.465,0.000
1709298458.666,0.977,-44.434,-20.996,-7.324,0.000
1709298458.670,-10.254,-42.969,-23.926,-11.719,0.000
1709298458.674,-15.137,-26.855,-34.668,-4.883,0.000
1709298458.677,0.000,-24.414,-29.785,14.648,0.000
1709298458.681,2.930,-27.344,-22.949,16.602,0.000
1709298458.685,-17.578,-31.250,-29.297,-9.766,0.000
1709298458.689,-24.414,-36.133,-28.320,-11.719,0.000
1709298458.693,-12.695,-34.668,-26.367,5.371,0.000
1709298458.697,-3.906,-38.086,-25.879,13.672,0.000
1709298458.701,-3.418,-33.203,-23.438,9.277,0.000
1709298458.705,-13.672,-28.320,-30.273,-6.836,0.000
1709298458.709,-22.949,-31.738,-36.621,-11.719,0.000
1709298458.713,-23.438,-34.668,-33.691,-1.465,0.000
1709298458.717,-23.926,-43.945,-33.203,0.977,0.000
1709298458.721,-20.020,-28.320,-29.297,-2.441,0.000
1709298458.724,-24.414,-27.344,-23.438,-3.906,0.000
1709298458.728,-38.086,-41.016,-27.344,-11.719,0.000
1709298458.732,-29.785,-35.645,-24.414,-8.789,0.000
1709298458.736,-15.625,-41.992,-25.391,2.930,0.000
1709298458.740,-15.137,-55.176,-39.551,0.488,0.000
1709298458.744,-21.973,-48.828,-38.574,-20.508,0.000
1709298458.748,-25.391,-43.457,-33.203,-17.090,0.000
1709298458.752,-19.043,-48.828,-28.809,0.000,0.000
1709298458.756,-0.977,-40.527,-28.320,14.160,0.000
1709298458.760,7.812,-30.762,-33.691,20.996,0.000
1709298458.763,5.859,-24.902,-23.438,-0.977,0.000
1709298458.767,-3.906,-37.109,-17.578,-2.441,0.000
1709298458.771,-7.324,-47.852,-32.227,8.301,0.000
1709298458.775,1.953,-33.691,-33.691,2.930,0.000
1709298458.779,4.883,-29.785,-24.414,-2.930,0.000
1709298458.783,2.441,-36.621,-23.926,-12.695,0.000
1709298458.787,-14.160,-41.016,-22.461,-20.508,0.000
1709298458.791,-21.484,-34.180,-16.113,-8.301,0.000
1709298458.795,0.000,-26.367,-14.160,8.301,0.000
1709298458.799,13.672,-27.832,-16.602,12.207,0.000
1709298458.802,5.859,-21.484,-18.555,7.812,0.000
1709298458.806,-5.371,-16.602,-20.508,-3.906,0.000
1709298458.810,-8.301,-25.879,-31.738,-9.277,0.000
1709298458.814,-1.953,-31.738,-32.715,6.836,0.000
1709298458.818,5.371,-33.691,-31.250,1.465,0.000
1709298458.822,-1.953,-37.598,-40.039,-20.508,0.000
1709298458.826,-11.230,-30.762,-33.203,-19.531,0.000
1709298458.830,-15.137,-32.227,-26.367,-16.113,0.000
1709298458.834,-12.207,-30.273,-29.785,-7.812,0.000
1709298458.838,3.418,-25.391,-28.809,4.883,0.000
1709298458.842,9.277,-33.203,-22.949,0.000,0.000
1709298458.846,-2.441,-41.992,-20.996,-8.789,0.000
1709298458.850,-7.324,-43.945,-11.719,5.859,0.000
1709298458.854,-6.348,-40.039,-9.277,18.555,0.000
1709298458.858,-4.395,-38.086,-18.555,22.949,0.000
1709298458.861,-3.418,-36.133,-21.484,15.137,0.000
1709298458.865,-13.672,-40.527,-19.043,-5.371,0.000
1709298458.869,-27.832,-52.734,-28.809,-9.766,0.000
1709298458.873,-20.996,-39.551,-36.133,6.836,0.000
1709298458.877,-9.277,-27.832,-29.297,16.602,0.000
1709298458.881,-15.625,-39.551,-33.691,2.441,0.000
1709298458.885,-20.508,-39.551,-27.344,-0.488,0.000
1709298458.888,-20.508,-40.527,-18.555,1.465,0.000
1709298458.892,-9.766,-41.504,-15.625,11.230,0.000
1709298458.896,-3.906,-51.758,-16.113,22.949,0.000
1709298458.900,-5.859,-53.711,-21.973,16.113,0.000
1709298458.904,-12.207,-33.203,-23.438,11.230,0.000
1709298458.908,-23.438,-36.133,-26.367,4.883,0.000
1709298458.912,-23.438,-38.086,-29.785,3.906,0.000
1709298458.916,-14.160,-40.527,-34.668,8.789,0.000
1709298458.920,-4.883,-48.340,-31.738,-0.977,0.000
1709298458.924,1.953,-38.086,-25.879,-4.395,0.000
1709298458.927,0.977,-39.062,-21.484,0.488,0.000
1709298458.931,-4.395,-47.363,-30.762,7.324,0.000
1709298458.935,4.883,-41.992,-28.809,16.113,0.000
1709298458.939,14.648,-32.227,-20.996,20.996,0.000
1709298458.943,12.695,-34.668,-21.484,9.277,0.000
1709298458.947,10.742,-42.480,-15.625,6.348,0.000
1709298458.951,2.930,-36.133,-19.531,12.207,0.000
1709298458.955,7.324,-29.785,-26.367,12.695,0.000
1709298458.958,13.184,-32.715,-31.738,12.207,0.000
1709298458.962,3.906,-40.039,-32.227,15.625,0.000
1709298458.966,-3.418,-36.621,-27.832,10.742,0.000
1709298458.970,-6.348,-31.250,-27.344,2.930,0.000
1709298458.974,4.883,-37.109,-29.785,16.602,0.000
1709298458.978,11.719,-44.922,-33.691,25.879,0.000
1709298458.982,5.859,-39.551,-34.180,16.113,0.000
1709298458.986,-8.301,-34.180,-31.738,-0.488,0.000
1709298458.990,-12.207,-32.715,-27.832,1.953,0.000
1709298458.994,-5.371,-35.645,-30.273,20.996,0.000
1709298458.998,3.418,-37.109,-35.645,24.414,0.000
1709298459.002,1.465,-43.945,-37.109,6.348,0.000
1709298459.006,-9.277,-48.828,-27.344,-5.371,0.000
1709298459.009,-11.230,-33.691,-23.438,3.418,0.000
1709298459.013,-3.418,-26.367,-30.273,13.184,0.000
1709298459.017,7.812,-27.832,-24.414,17.090,0.000
1709298459.021,8.301,-29.297,-20.996,11.230,0.000
1709298459.025,2.930,-30.273,-21.973,-4.395,0.000
1709298459.029,-10.254,-32.715,-26.367,-17.578,0.000
1709298459.033,-16.113,-32.227,-32.227,-3.906,0.000
1709298459.037,-4.395,-33.691,-31.738,13.184,0.000
1709298459.041,2.930,-32.715,-31.250,6.836,0.000
1709298459.045,-0.488,-21.484,-26.367,-3.418,0.000
1709298459.049,-14.648,-25.879,-23.438,-8.301,0.000
1709298459.053,-17.578,-33.691,-29.785,8.789,0.000
1709298459.057,-6.836,-38.086,-30.762,20.996,0.000
1709298459.060,-7.324,-36.621,-29.297,0.000,0.000
1709298459.064,-14.160,-36.133,-23.438,-17.090,0.000
1709298459.068,-21.973,-37.109,-26.367,-18.555,0.000
1709298459.072,-19.043,-28.320,-30.273,-8.301,0.000
1709298459.076,-3.418,-21.484,-22.949,0.000,0.000
1709298459.080,-2.930,-25.391,-28.809,-3.418,0.000
1709298459.084,-3.418,-35.156,-35.156,-13.184,0.000
1709298459.088,-4.395,-39.551,-31.738,-13.672,0.000
1709298459.092,-8.301,-41.016,-30.762,-5.371,0.000
1709298459.096,0.000,-29.297,-29.297,6.836,0.000
1709298459.100,6.836,-34.668,-23.926,16.113,0.000
1709298459.103,7.812,-47.852,-20.508,2.930,0.000
1709298459.107,0.000,-41.016,-26.855,-8.301,0.000
1709298459.111,-6.348,-22.461,-24.902,3.418,0.000
1709298459.115,6.348,-10.742,-18.555,16.113,0.000
1709298459.119,9.277,-28.809,-26.855,15.625,0.000
1709298459.123,4.883,-41.992,-26.367,10.742,0.000
1709298459.127,1.465,-36.621,-21.973,1.953,0.000
1709298459.131,-7.324,-40.527,-24.902,-2.930,0.000
1709298459.135,-8.301,-43.457,-23.926,3.418,0.000
1709298459.139,-6.348,-41.504,-25.879,7.324,0.000
1709298459.143,-12.695,-43.457,-26.855,8.789,0.000
1709298459.146,-20.020,-48.340,-27.832,-4.395,0.000
1709298459.150,-28.320,-49.805,-31.738,-20.508,0.000
1709298459.154,-26.855,-40.527,-28.320,-3.418,0.000
1709298459.158,-16.113,-29.785,-27.832,4.395,0.000
1709298459.162,-18.066,-36.133,-35.645,-16.602,0.000
1709298459.166,-24.902,-41.992,-30.762,-25.879,0.000
1709298459.170,-16.602,-35.645,-25.879,-13.184,0.000
1709298459.174,-7.812,-37.109,-28.320,1.465,0.000
1709298459.178,-4.883,-46.875,-30.762,2.441,0.000
1709298459.181,-6.348,-53.711,-28.809,-0.488,0.000
1709298459.185,-11.230,-55.176,-26.367,-3.418,0.000
1709298459.189,-13.672,-46.387,-27.344,1.465,0.000
1709298459.193,-14.648,-46.875,-27.832,1.953,0.000
1709298459.197,-5.859,-41.992,-26.367,3.418,0.000
1709298459.201,-8.789,-34.180,-27.832,-0.488,0.000
1709298459.205,-20.020,-37.109,-35.156,-17.578,0.000
1709298459.209,-25.879,-37.598,-33.203,-14.648,0.000
1709298459.213,-27.344,-42.480,-26.855,-8.301,0.000
1709298459.216,-25.391,-41.504,-28.809,-6.836,0.000
1709298459.220,-25.879,-42.480,-29.785,-11.230,0.000
1709298459.224,-29.785,-45.898,-28.320,-22.949,0.000
1709298459.228,-27.832,-52.734,-27.832,-18.066,0.000
1709298459.232,-27.344,-56.152,-25.879,0.488,0.000
1709298459.236,-24.414,-47.363,-29.785,3.906,0.000
1709298459.240,-15.137,-32.227,-33.203,-7.812,0.000
1709298459.244,-11.719,-28.320,-25.879,-14.160,0.000
1709298459.248,-16.113,-33.203,-24.414,-23.438,0.000
1709298459.252,-13.672,-38.086,-29.297,-13.184,0.000
1709298459.255,-0.977,-46.387,-31.250,6.836,0.000
1709298459.259,6.836,-39.062,-28.809,12.695,0.000
1709298459.263,2.930,-33.691,-27.344,-0.488,0.000
1709298459.267,-3.906,-41.504,-25.879,-2.930,0.000
1709298459.271,-2.930,-43.945,-29.785,16.602,0.000
1709298459.275,12.695,-42.480,-26.855,25.879,0.000
1709298459.279,23.926,-27.832,-21.973,27.344,0.000
1709298459.283,17.090,-25.391,-24.902,15.137,0.000
1709298459.286,10.254,-29.785,-24.414,-2.930,0.000
1709298459.290,2.441,-29.297,-24.902,-3.906,0.000
1709298459.294,-1.953,-31.738,-22.949,14.160,0.000
1709298459.298,1.465,-34.180,-21.973,16.602,0.000
1709298459.302,0.977,-32.715,-31.250,-0.977,0.000
1709298459.306,-8.301,-29.785,-30.273,-3.906,0.000
1709298459.310,-12.207,-46.387,-21.484,-3.418,0.000
1709298459.314,-8.789,-53.223,-21.973,-2.441,0.000
1709298459.317,-7.812,-36.133,-27.344,1.953,0.000
1709298459.321,-7.324,-25.879,-23.438,7.324,0.000
1709298459.325,-13.184,-21.973,-21.484,-4.883,0.000
1709298459.329,-24.902,-27.344,-20.020,-16.602,0.000
1709298459.333,-22.949,-34.180,-19.043,-4.883,0.000
1709298459.337,-14.648,-40.039,-27.344,0.977,0.000
1709298459.341,-17.090,-47.852,-27.832,-8.789,0.000
1709298459.345,-21.973,-46.387,-27.832,-14.648,0.000
1709298459.349,-14.648,-38.086,-30.273,-5.371,0.000
1709298459.353,-3.906,-40.527,-27.344,5.859,0.000
1709298459.357,0.000,-49.316,-30.762,7.324,0.000
1709298459.361,6.348,-42.969,-33.203,-1.465,0.000
1709298459.365,5.371,-31.738,-27.832,-0.488,0.000
1709298459.368,-1.465,-38.574,-25.391,-4.395,0.000
1709298459.372,-1.465,-38.574,-31.738,0.488,0.000
1709298459.376,13.184,-26.855,-29.297,20.020,0.000
1709298459.380,23.926,-32.715,-23.926,17.090,0.000
1709298459.384,14.160,-41.504,-24.902,4.395,0.000
1709298459.388,8.789,-43.945,-26.855,0.977,0.000
1709298459.392,10.254,-41.504,-33.691,4.883,0.000
1709298459.396,18.555,-39.551,-30.762,15.625,0.000
1709298459.400,25.879,-41.504,-28.320,19.531,0.000
1709298459.404,17.578,-35.645,-31.738,12.207,0.000
1709298459.408,5.859,-26.367,-22.461,0.000,0.000
1709298459.412,2.441,-32.715,-20.996,4.883,0.000
1709298459.416,2.930,-41.016,-26.367,16.113,0.000
1709298459.419,2.930,-38.574,-19.531,1.953,0.000
1709298459.423,-3.418,-41.992,-20.996,-12.695,0.000
1709298459.427,-14.160,-54.199,-23.438,-10.254,0.000
1709298459.431,-13.184,-51.758,-23.926,-1.953,0.000
1709298459.435,-6.348,-35.645,-31.250,1.953,0.000
1709298459.439,3.906,-29.297,-25.391,4.883,0.000
1709298459.443,-0.488,-31.250,-16.113,-3.418,0.000
1709298459.447,-19.043,-38.086,-20.508,-16.602,0.000
1709298459.451,-26.855,-43.457,-33.203,-21.484,0.000
1709298459.455,-21.973,-40.039,-32.227,-13.184,0.000
1709298459.459,-15.625,-44.434,-27.344,-9.766,0.000
1709298459.463,-17.578,-46.387,-29.785,-20.508,0.000
1709298459.466,-27.832,-39.551,-33.691,-31.738,0.000
1709298459.470,-34.668,-46.387,-34.180,-28.320,0.000
1709298459.474,-25.879,-46.875,-22.949,-4.395,0.000
1709298459.478,-17.578,-44.434,-24.902,-2.930,0.000
1709298459.482,-17.578,-51.758,-34.180,-15.625,0.000
1709298459.486,-20.996,-50.781,-24.902,-15.137,0.000
1709298459.490,-25.391,-45.898,-21.973,-13.184,0.000
1709298459.494,-23.438,-36.621,-30.273,-3.906,0.000
1709298459.498,-15.625,-30.762,-30.762,3.418,0.000
1709298459.502,-12.695,-28.320,-26.855,1.465,0.000
1709298459.505,-16.602,-30.273,-29.785,-2.441,0.000
1709298459.509,-26.855,-38.574,-37.598,-7.324,0.000
1709298459.513,-23.926,-39.551,-35.156,0.000,0.000
1709298459.517,-1.465,-41.992,-24.414,25.879,0.000
1709298459.521,4.395,-38.086,-19.531,20.020,0.000
1709298459.525,-0.488,-26.855,-21.484,-6.836,0.000
1709298459.529,-5.371,-24.414,-30.762,-8.301,0.000
1709298459.533,-0.488,-29.785,-30.762,6.836,0.000
1709298459.537,11.230,-36.621,-26.367,20.508,0.000
1709298459.541,12.695,-33.691,-30.273,8.789,0.000
1709298459.544,0.977,-25.879,-30.273,-6.836,0.000
1709298459.548,-12.207,-29.785,-31.250,-10.742,0.000
1709298459.552,-1.953,-34.180,-31.738,4.395,0.000
1709298459.556,13.672,-26.367,-27.344,20.996,0.000
1709298459.560,15.137,-27.832,-26.367,18.066,0.000
1709298459.564,12.695,-31.738,-24.902,10.254,0.000
1709298459.568,2.441,-32.715,-21.973,-0.488,0.000
1709298459.572,-2.441,-39.551,-24.414,-1.465,0.000
1709298459.576,3.418,-36.621,-25.879,9.277,0.000
1709298459.580,10.254,-29.785,-21.484,9.766,0.000
1709298459.583,13.184,-30.273,-16.113,-1.465,0.000
1709298459.587,5.371,-34.180,-18.066,-9.277,0.000
1709298459.591,-7.324,-35.156,-25.879,-4.883,0.000
1709298459.595,-3.418,-33.691,-27.344,2.441,0.000
1709298459.599,-2.441,-37.109,-27.344,2.441,0.000
1709298459.603,-8.789,-31.738,-34.668,-4.395,0.000
1709298459.607,-8.301,-28.809,-22.949,0.977,0.000
1709298459.611,-6.348,-38.086,-17.090,13.672,0.000
1709298459.615,2.930,-42.480,-24.902,17.090,0.000
1709298459.618,8.789,-41.016,-21.973,18.555,0.000
1709298459.622,8.789,-37.109,-23.926,10.254,0.000
1709298459.626,-2.441,-43.945,-27.344,0.977,0.000
1709298459.630,-16.602,-54.199,-25.879,0.000,0.000
1709298459.634,-4.395,-50.781,-17.090,11.230,0.000
1709298459.638,4.395,-42.480,-24.902,8.301,0.000
1709298459.642,0.977,-32.715,-31.250,0.977,0.000
1709298459.646,-0.488,-40.527,-24.902,-1.465,0.000
1709298459.650,-7.812,-46.387,-26.855,3.906,0.000
1709298459.653,-3.418,-34.668,-23.438,32.227,0.000
1709298459.657,10.254,-37.109,-23.438,35.645,0.000
1709298459.661,7.324,-43.457,-24.414,9.766,0.000
1709298459.665,-0.977,-42.480,-21.484,1.465,0.000
1709298459.669,1.465,-34.668,-17.090,4.395,0.000
1709298459.673,2.930,-29.785,-21.973,13.672,0.000
1709298459.677,14.648,-30.762,-22.461,25.391,0.000
1709298459.681,13.184,-28.320,-21.973,17.578,0.000
1709298459.685,-0.488,-33.691,-32.715,2.441,0.000
1709298459.688,-6.836,-35.645,-31.250,1.465,0.000
1709298459.692,0.977,-38.086,-24.902,17.578,0.000
1709298459.696,9.766,-39.062,-18.555,33.691,0.000
1709298459.700,2.930,-29.785,-16.113,26.855,0.000
1709298459.704,-5.859,-26.367,-13.184,11.719,0.000
1709298459.708,-14.160,-26.367,-13.184,3.418,0.000
1709298459.712,-14.160,-23.438,-27.832,4.883,0.000
1709298459.716,-9.277,-37.598,-32.227,6.836,0.000
1709298459.720,-4.395,-36.133,-23.438,3.906,0.000
1709298459.724,-6.836,-33.691,-23.438,-1.953,0.000
1709298459.728,-14.160,-41.016,-26.855,-13.672,0.000
1709298459.732,-8.789,-30.762,-26.367,-5.371,0.000
1709298459.736,-1.465,-31.738,-25.391,10.742,0.000
1709298459.739,8.301,-35.645,-28.320,14.160,0.000
1709298459.743,7.324,-44.922,-35.156,1.465,0.000
1709298459.747,-5.371,-52.246,-31.250,-12.695,0.000
1709298459.751,-13.184,-36.621,-26.855,-4.883,0.000
1709298459.755,-10.254,-23.438,-29.785,9.277,0.000
1709298459.759,-4.883,-36.621,-34.180,16.113,0.000
1709298459.763,-7.324,-43.945,-34.668,5.371,0.000
1709298459.767,-19.043,-37.109,-30.762,-14.160,0.000
1709298459.771,-21.484,-32.715,-26.367,-10.254,0.000
1709298459.775,-8.301,-30.762,-22.949,4.883,0.000
1709298459.779,2.930,-36.621,-25.391,6.836,0.000
1709298459.783,4.883,-34.180,-27.344,0.488,0.000
1709298459.787,-1.953,-34.180,-35.156,-4.395,0.000
1709298459.790,-2.441,-36.133,-37.598,-5.371,0.000
1709298459.794,-4.395,-41.016,-39.062,-0.977,0.000
1709298459.798,0.977,-35.156,-36.133,8.789,0.000
1709298459.802,10.254,-20.508,-26.855,15.137,0.000
1709298459.806,-6.836,-27.832,-30.273,6.348,0.000
1709298459.810,-17.578,-26.855,-35.156,-7.324,0.000
1709298459.814,-19.043,-27.344,-30.762,-1.465,0.000
1709298459.818,-19.531,-28.809,-20.996,7.324,0.000
1709298459.822,-17.090,-30.273,-21.484,-6.836,0.000
1709298459.826,-27.832,-40.527,-25.391,-21.973,0.000
1709298459.830,-34.180,-49.316,-23.438,-19.531,0.000
1709298459.834,-25.391,-42.480,-26.855,-7.324,0.000
1709298459.837,-10.742,-30.273,-24.902,7.324,0.000
1709298459.841,-11.230,-26.855,-19.043,-0.488,0.000
1709298459.845,-23.438,-31.250,-23.926,-13.184,0.000
1709298459.849,-29.785,-37.109,-22.949,0.977,0.000
1709298459.853,-22.949,-40.527,-22.949,3.418,0.000
1709298459.857,-10.742,-38.086,-21.484,-3.906,0.000
1709298459.861,-7.324,-30.273,-17.578,-13.672,0.000
1709298459.865,-19.043,-24.902,-21.973,-26.367,0.000
1709298459.869,-24.414,-30.762,-23.438,-24.414,0.000
1709298459.873,-16.113,-33.691,-13.672,-10.742,0.000
1709298459.876,-11.230,-35.645,-17.090,0.488,0.000
1709298459.880,-4.395,-40.527,-26.367,-3.418,0.000
1709298459.884,-2.441,-44.922,-19.043,-14.160,0.000
1709298459.888,-10.254,-45.898,-17.090,-19.043,0.000
1709298459.892,-5.371,-37.598,-17.578,3.418,0.000
1709298459.896,7.812,-35.156,-18.555,26.367,0.000
1709298459.900,7.324,-35.645,-23.438,11.719,0.000
1709298459.904,-5.859,-36.621,-23.926,-6.836,0.000
1709298459.908,-17.090,-38.574,-28.320,-16.602,0.000
1709298459.912,-10.742,-32.715,-27.344,-9.277,0.000
1709298459.915,1.465,-31.738,-26.367,9.277,0.000
1709298459.919,13.184,-31.250,-24.414,16.602,0.000
1709298459.923,12.695,-26.855,-29.297,5.859,0.000
1709298459.927,2.930,-33.691,-31.250,-0.488,0.000
1709298459.931,4.395,-33.691,-24.902,12.207,0.000
1709298459.935,7.812,-30.273,-24.414,18.555,0.000
1709298459.939,6.836,-43.945,-28.320,24.414,0.000
1709298459.943,3.418,-37.109,-34.180,12.695,0.000
1709298459.947,-3.906,-24.902,-37.598,-2.441,0.000
1709298459.951,-1.953,-23.926,-29.785,9.277,0.000
1709298459.954,2.441,-23.926,-25.391,18.066,0.000
1709298459.958,10.254,-26.855,-24.414,18.555,0.000
1709298459.962,14.160,-28.809,-23.926,12.207,0.000
1709298459.966,1.953,-37.598,-23.926,3.418,0.000
1709298459.970,-3.418,-45.410,-16.113,11.230,0.000
1709298459.974,-0.977,-39.551,-20.508,22.461,0.000
1709298459.978,7.812,-35.156,-18.066,23.926,0.000
1709298459.982,13.672,-31.738,-11.719,29.785,0.000
1709298459.986,0.977,-23.438,-18.066,19.531,0.000
1709298459.989,-8.789,-17.578,-25.879,5.371,0.000
1709298459.993,-3.418,-30.273,-22.949,20.508,0.000
1709298459.997,9.277,-35.156,-21.484,28.809,0.000
1709298460.001,11.719,-23.926,-26.367,21.973,0.000
1709298460.005,0.488,-35.156,-30.273,5.371,0.000
1709298460.009,-4.883,-44.922,-26.855,-0.488,0.000
1709298460.013,-3.418,-37.109,-20.508,14.648,0.000
1709298460.017,2.441,-33.203,-21.973,22.461,0.000
1709298460.020,4.883,-34.668,-24.902,9.277,0.000
1709298460.024,-9.277,-39.551,-25.879,-3.418,0.000
1709298460.028,-16.113,-34.668,-20.508,10.254,0.000
1709298460.032,-3.418,-27.344,-26.855,22.949,0.000
1709298460.036,12.695,-31.738,-33.203,24.414,0.000
1709298460.040,17.090,-33.203,-23.926,23.438,0.000
1709298460.044,8.301,-35.645,-20.996,16.602,0.000
1709298460.048,4.395,-43.457,-27.344,9.766,0.000
1709298460.051,10.254,-32.227,-24.902,12.695,0.000
1709298460.055,23.438,-18.555,-21.973,28.809,0.000
1709298460.059,30.273,-21.484,-26.855,27.832,0.000
1709298460.063,28.809,-25.879,-26.367,11.719,0.000
1709298460.067,24.902,-28.320,-26.855,5.371,0.000
1709298460.071,30.762,-29.785,-28.320,21.973,0.000
1709298460.075,35.645,-29.297,-29.785,29.785,0.000
1709298460.079,36.133,-21.973,-36.133,14.160,0.000
1709298460.083,33.691,-31.738,-28.809,11.719,0.000
1709298460.087,19.043,-33.203,-22.949,14.160,0.000
1709298460.090,18.555,-20.508,-30.762,15.625,0.000
1709298460.094,24.414,-26.367,-34.180,16.113,0.000
1709298460.099,28.809,-40.527,-38.086,13.184,0.000
1709298460.103,25.879,-48.340,-37.598,10.254,0.000
1709298460.106,14.648,-37.109,-31.738,3.418,0.000
1709298460.110,10.254,-28.809,-23.438,3.418,0.000
1709298460.114,15.625,-26.367,-23.926,19.531,0.000
1709298460.118,31.250,-28.320,-26.855,22.461,0.000
1709298460.122,35.645,-27.344,-17.578,8.301,0.000
1709298460.126,13.672,-38.086,-25.391,0.488,0.000
1709298460.130,5.371,-43.945,-27.344,5.859,0.000
1709298460.134,8.301,-36.133,-15.625,20.996,0.000
1709298460.138,13.184,-32.227,-18.555,22.461,0.000
1709298460.142,17.090,-32.227,-18.555,8.789,0.000
1709298460.146,0.000,-47.852,-13.184,2.930,0.000
1709298460.150,0.000,-48.340,-20.996,6.348,0.000
1709298460.153,0.000,-40.527,-27.344,19.531,0.000
1709298460.157,0.000,-39.062,-22.949,24.902,0.000
1709298460.161,0.000,-33.203,-20.020,15.137,0.000
1709298460.165,0.000,-37.109,-18.066,9.766,0.000
1709298460.169,0.000,-40.527,-18.066,12.207,0.000
1709298460.173,0.000,-36.621,-18.555,15.625,0.000
1709298460.177,0.000,-49.805,-21.484,26.367,0.000
1709298460.181,0.000,-46.387,-18.555,25.879,0.000
1709298460.185,0.000,-37.598,-16.113,3.906,0.000
1709298460.189,0.000,-44.434,-31.250,-3.418,0.000
1709298460.193,-14.160,-33.691,-29.297,-0.488,0.000
1709298460.197,-7.324,-29.297,-22.461,4.395,0.000
1709298460.200,-0.488,-28.809,-16.602,-2.441,0.000
1709298460.204,-4.883,-29.785,-12.207,-2.441,0.000
1709298460.208,-18.555,-32.227,-22.949,-1.953,0.000
1709298460.212,-24.902,-35.645,-28.320,-1.953,0.000
1709298460.216,-14.160,-39.551,-17.090,9.277,0.000
1709298460.220,2.441,-29.785,-12.695,10.254,0.000
1709298460.224,-0.488,-22.461,-20.996,7.324,0.000
1709298460.228,-1.465,-26.855,-25.879,5.859,0.000
1709298460.232,5.859,-33.203,-18.066,15.625,0.000
1709298460.236,5.859,-31.250,-15.137,34.668,0.000
1709298460.240,4.395,-25.391,-19.531,31.738,0.000
1709298460.243,-4.883,-28.320,-20.996,14.160,0.000
1709298460.247,-8.301,-30.273,-16.113,6.348,0.000
1709298460.251,-8.789,-28.809,-20.508,5.859,0.000
1709298460.255,-5.371,-33.691,-28.320,18.066,0.000
1709298460.259,-1.953,-40.039,-23.438,21.973,0.000
1709298460.263,-7.324,-50.781,-21.484,-0.977,0.000
1709298460.267,-9.277,-57.617,-21.484,-8.301,0.000
1709298460.271,-12.695,-44.434,-28.320,2.441,0.000
1709298460.275,-15.137,-33.691,-38.086,-0.977,0.000
1709298460.279,-11.230,-49.316,-36.133,0.488,0.000
1709298460.283,-10.254,-56.152,-31.738,-7.324,0.000
1709298460.286,-17.090,-37.598,-33.203,-11.230,0.000
1709298460.290,-17.578,-27.832,-29.785,2.441,0.000
1709298460.294,-2.441,-25.879,-25.391,11.230,0.000
1709298460.298,7.812,-28.320,-26.367,14.648,0.000
1709298460.302,4.883,-41.016,-20.508,7.324,0.000
1709298460.306,0.977,-46.387,-20.020,6.348,0.000
1709298460.310,-2.930,-32.227,-23.438,9.766,0.000
1709298460.314,9.277,-18.066,-20.020,27.344,0.000
1709298460.318,11.719,-24.414,-23.926,22.461,0.000
1709298460.322,9.277,-38.086,-29.785,-7.812,0.000
1709298460.325,5.371,-35.156,-29.785,-10.742,0.000
1709298460.329,-9.277,-27.344,-27.832,-7.812,0.000
1709298460.333,0.000,-31.250,-30.273,0.488,0.000
1709298460.337,0.000,-26.367,-30.273,13.184,0.000
1709298460.341,0.000,-23.438,-26.855,11.719,0.000
1709298460.345,0.000,-24.902,-33.203,3.418,0.000
1709298460.349,0.000,-25.879,-35.645,-0.977,0.000
1709298460.353,0.000,-28.809,-33.691,5.859,0.000
1709298460.357,0.000,-28.809,-28.809,16.602,0.000
1709298460.361,0.000,-20.020,-23.438,20.508,0.000
1709298460.365,0.000,-21.973,-24.414,-3.906,0.000
1709298460.368,0.000,-39.062,-25.391,-11.719,0.000
1709298460.372,0.000,-42.480,-23.926,0.000,0.000
1709298460.376,0.000,-34.668,-24.902,12.207,0.000
1709298460.380,5.371,-28.809,-24.414,11.230,0.000
1709298460.384,-9.766,-31.250,-27.832,-2.930,0.000
1709298460.388,-21.973,-42.969,-32.227,-9.766,0.000
1709298460.392,-14.648,-45.898,-25.391,0.000,0.000
1709298460.396,-4.395,-41.992,-20.020,11.719,0.000
1709298460.399,-5.859,-38.574,-21.484,6.836,0.000
1709298460.403,-5.859,-31.250,-24.414,0.488,0.000
1709298460.407,-13.672,-38.086,-30.273,-9.766,0.000
1709298460.411,-18.555,-44.434,-32.715,-7.324,0.000
1709298460.415,-9.277,-37.109,-27.832,6.836,0.000
1709298460.419,-0.977,-35.645,-23.438,10.254,0.000
1709298460.423,-6.836,-39.551,-24.902,3.906,0.000
1709298460.427,-13.672,-39.062,-23.926,2.930,0.000
1709298460.430,-11.230,-46.875,-15.625,15.137,0.000
1709298460.434,-8.301,-44.922,-18.555,20.508,0.000
1709298460.438,3.418,-31.250,-23.438,20.508,0.000
1709298460.442,-0.488,-32.715,-25.391,8.301,0.000
1709298460.446,-21.484,-40.039,-31.250,-2.930,0.000
1709298460.450,-28.809,-44.922,-31.250,4.883,0.000
1709298460.454,-18.555,-47.852,-28.809,12.207,0.000
1709298460.458,-5.859,-44.922,-32.715,15.625,0.000
1709298460.462,-0.488,-32.715,-37.109,6.348,0.000
1709298460.466,0.977,-25.391,-24.414,-1.953,0.000
1709298460.469,1.953,-21.484,-11.230,-0.977,0.000
1709298460.475,4.395,-20.020,-18.066,8.301,0.000
1709298460.478,9.766,-24.414,-18.066,14.160,0.000
1709298460.482,5.371,-29.297,-15.625,-0.977,0.000
1709298460.486,-14.160,-28.809,-24.414,-22.949,0.000
1709298460.490,-23.438,-31.250,-24.414,-20.020,0.000
1709298460.494,-14.648,-29.297,-18.555,0.000,0.000
1709298460.498,0.977,-23.438,-23.926,7.324,0.000
1709298460.502,7.324,-26.367,-23.438,7.324,0.000
1709298460.506,0.000,-34.668,-21.484,0.977,0.000
1709298460.510,-2.930,-37.109,-23.926,3.906,0.000
1709298460.514,-1.953,-26.855,-22.949,9.766,0.000
1709298460.518,15.625,-16.602,-25.879,20.508,0.000
1709298460.522,26.855,-23.926,-20.508,21.484,0.000
1709298460.525,14.648,-39.062,-16.113,8.789,0.000
1709298460.529,8.789,-33.691,-16.602,15.137,0.000
1709298460.533,11.719,-20.996,-14.648,35.645,0.000
1709298460.537,20.020,-23.926,-13.672,48.828,0.000
1709298460.541,21.484,-29.785,-15.137,34.180,0.000
1709298460.545,5.859,-30.273,-19.531,4.883,0.000
1709298460.549,-1.465,-26.367,-25.879,-3.418,0.000
1709298460.553,-0.488,-21.973,-21.484,9.766,0.000
1709298460.557,0.000,-22.949,-10.254,14.160,0.000
1709298460.561,0.977,-25.879,-18.066,0.000,0.000
1709298460.565,-6.836,-28.809,-22.461,-14.160,0.000
1709298460.569,-23.926,-35.645,-16.113,-5.371,0.000
1709298460.573,-20.508,-36.133,-13.672,11.230,0.000
1709298460.577,-7.812,-29.297,-18.066,10.742,0.000
1709298460.580,-4.883,-35.156,-23.926,3.418,0.000
1709298460.584,-6.836,-35.156,-24.414,-2.441,0.000
1709298460.588,-21.484,-35.156,-26.855,-10.254,0.000
1709298460.592,-27.344,-30.273,-23.438,-8.301,0.000
1709298460.596,-17.578,-33.203,-18.066,7.812,0.000
1709298460.600,-9.766,-41.504,-23.926,21.973,0.000
1709298460.604,-14.648,-30.762,-27.344,4.395,0.000
1709298460.608,-26.855,-31.250,-25.391,-16.602,0.000
1709298460.612,-24.414,-41.016,-21.484,-4.883,0.000
1709298460.616,-10.742,-40.527,-27.344,4.883,0.000
1709298460.619,-6.348,-36.621,-29.297,7.324,0.000
1709298460.623,-1.953,-35.645,-26.855,3.906,0.000
1709298460.627,-3.906,-36.133,-22.461,-0.488,0.000
1709298460.631,-6.348,-32.227,-21.484,4.395,0.000
1709298460.635,2.441,-34.180,-28.320,6.836,0.000
1709298460.639,9.766,-32.715,-27.832,9.766,0.000
1709298460.643,9.766,-28.809,-15.137,9.277,0.000
1709298460.647,0.000,-28.809,-20.020,-2.930,0.000
1709298460.651,-5.371,-32.227,-38.574,-12.207,0.000
1709298460.655,7.324,-36.621,-29.785,-3.906,0.000
1709298460.659,17.090,-32.715,-18.555,11.719,0.000
1709298460.662,12.695,-24.902,-26.367,7.324,0.000
1709298460.666,-0.488,-22.461,-29.785,-14.648,0.000
1709298460.670,-9.277,-27.344,-27.344,-15.137,0.000
1709298460.674,1.953,-25.391,-26.855,-3.906,0.000
1709298460.678,11.719,-18.555,-23.438,8.789,0.000
1709298460.682,5.371,-25.879,-30.273,4.395,0.000
1709298460.686,-2.441,-25.391,-25.879,-7.324,0.000
1709298460.690,-10.254,-24.414,-15.625,1.465,0.000
1709298460.694,-15.625,-40.039,-29.785,2.441,0.000
1709298460.698,-13.672,-46.387,-28.809,4.883,0.000
1709298460.701,-10.254,-36.133,-18.066,9.277,0.000
1709298460.705,-10.742,-21.484,-20.508,0.000,0.000
1709298460.709,-21.973,-21.973,-17.578,-3.906,0.000
1709298460.713,-20.996,-29.785,-14.160,2.441,0.000
1709298460.717,-9.766,-24.414,-15.137,9.766,0.000
1709298460.721,1.465,-19.043,-15.625,11.230,0.000
1709298460.725,1.953,-21.484,-18.066,3.906,0.000
1709298460.729,-9.766,-15.625,-25.879,2.441,0.000
1709298460.733,-13.184,-18.066,-28.320,10.254,0.000
1709298460.736,-2.930,-32.715,-27.344,13.672,0.000
1709298460.740,1.465,-32.715,-30.762,10.742,0.000
1709298460.744,-3.418,-29.297,-27.832,1.465,0.000
1709298460.748,0.000,-39.062,-22.461,2.441,0.000
1709298460.752,-3.906,-45.410,-30.762,2.441,0.000
1709298460.756,-0.977,-41.016,-30.273,0.977,0.000
1709298460.760,6.836,-36.133,-20.508,8.789,0.000
1709298460.763,4.395,-32.227,-24.902,0.000,0.000
1709298460.767,-1.465,-28.809,-32.227,-17.578,0.000
1709298460.771,-9.277,-30.762,-35.645,-18.066,0.000
1709298460.775,-5.371,-41.504,-35.645,-0.977,0.000
1709298460.779,8.789,-34.668,-26.367,12.695,0.000
1709298460.783,3.906,-30.762,-26.367,0.977,0.000
1709298460.787,-15.137,-42.480,-26.367,-22.461,0.000
1709298460.791,-23.438,-47.852,-32.715,-31.250,0.000
1709298460.795,-21.973,-45.410,-36.621,-19.531,0.000
1709298460.799,-21.484,-52.246,-38.574,-13.184,0.000
1709298460.802,-18.066,-51.758,-35.645,-23.926,0.000
1709298460.806,-20.508,-36.133,-24.902,-25.391,0.000
1709298460.810,-26.367,-42.969,-22.461,-17.578,0.000
1709298460.814,-15.625,-56.152,-19.531,-10.254,0.000
1709298460.818,-3.418,-48.828,-19.043,2.930,0.000
1709298460.822,-1.953,-34.180,-18.066,4.395,0.000
1709298460.826,-11.719,-43.457,-26.855,-9.277,0.000
1709298460.830,-16.602,-48.340,-36.133,-18.555,0.000
1709298460.833,-13.184,-37.109,-38.574,-6.836,0.000
1709298460.837,0.488,-31.738,-37.109,4.395,0.000
1709298460.841,11.230,-31.738,-35.156,1.953,0.000
1709298460.845,5.371,-36.133,-33.691,-10.254,0.000
1709298460.849,0.000,-38.086,-29.297,-9.277,0.000
1709298460.853,7.324,-37.109,-19.043,7.812,0.000
1709298460.857,13.184,-31.738,-9.277,17.090,0.000
1709298460.861,12.695,-30.273,-16.602,13.184,0.000
1709298460.865,12.207,-32.227,-27.344,1.953,0.000
1709298460.869,16.113,-33.691,-22.461,9.277,0.000
1709298460.873,24.902,-29.297,-21.484,25.391,0.000
1709298460.877,32.715,-26.855,-24.902,29.785,0.000
1709298460.881,32.715,-35.156,-25.391,25.391,0.000
1709298460.884,19.043,-33.691,-27.832,14.160,0.000
1709298460.888,13.184,-31.738,-27.832,8.301,0.000
1709298460.892,12.207,-35.645,-23.926,9.766,0.000
1709298460.896,12.695,-39.062,-22.949,12.695,0.000
1709298460.900,19.531,-36.621,-25.879,9.766,0.000
1709298460.904,22.461,-27.344,-20.996,-1.465,0.000
1709298460.908,14.160,-29.297,-20.996,-6.348,0.000
1709298460.912,7.324,-35.156,-22.949,0.000,0.000
1709298460.916,12.695,-35.645,-21.973,7.324,0.000
1709298460.920,12.207,-35.645,-23.438,4.883,0.000
1709298460.924,1.953,-42.969,-28.320,-14.160,0.000
1709298460.928,-11.719,-55.176,-32.227,-20.508,0.000
1709298460.931,-22.949,-57.129,-28.320,-10.254,0.000
1709298460.935,-20.508,-52.734,-30.273,-14.160,0.000
1709298460.939,-17.090,-53.223,-31.738,-9.766,0.000
1709298460.943,-19.043,-59.082,-35.645,-7.324,0.000
1709298460.947,-20.020,-66.406,-38.574,-13.672,0.000
1709298460.951,-24.414,-67.383,-40.039,-15.625,0.000
1709298460.955,-23.926,-62.012,-42.480,1.465,0.000
1709298460.959,-15.137,-59.082,-38.574,8.301,0.000
1709298460.963,-7.812,-45.410,-33.691,0.977,0.000
1709298460.967,-14.160,-42.969,-36.133,-13.184,0.000
1709298460.971,-15.625,-49.805,-37.598,-18.066,0.000
1709298460.975,-5.371,-37.598,-32.715,8.301,0.000
1709298460.978,0.977,-41.992,-32.227,9.766,0.000
1709298460.982,3.906,-46.875,-37.598,-1.465,0.000
1709298460.986,-5.859,-40.527,-39.551,-5.371,0.000
1709298460.990,0.000,-52.246,0.000,-9.766,0.000
1709298460.994,0.000,-61.035,0.000,0.000,0.000
1709298460.998,0.000,-52.246,0.000,1.953,0.000
1709298461.002,0.000,-43.945,0.000,-2.441,0.000
1709298461.006,0.000,-41.992,0.000,-4.395,0.000
1709298461.010,0.000,-47.363,0.000,-5.371,0.000
1709298461.014,0.000,-42.969,0.000,-0.488,0.000
1709298461.018,0.000,-37.109,0.000,5.859,0.000
1709298461.021,0.000,-41.016,0.000,1.953,0.000
1709298461.025,0.000,-38.086,0.000,-18.066,0.000
1709298461.029,0.000,-41.992,0.000,-28.320,0.000
1709298461.033,0.000,-57.617,0.000,-13.184,0.000
1709298461.037,-9.766,-56.641,-39.062,7.812,0.000
1709298461.041,-5.859,-46.387,-35.645,7.812,0.000
1709298461.045,-16.602,-49.805,-36.133,-5.371,0.000
1709298461.049,-26.367,-47.363,-33.691,-11.230,0.000
1709298461.053,-25.391,-36.133,-30.762,-3.418,0.000
1709298461.056,-19.043,-36.621,-26.367,8.301,0.000
1709298461.060,-11.230,-42.480,-31.738,5.859,0.000
1709298461.064,-6.836,-44.922,-31.250,7.324,0.000
1709298461.068,-17.090,-43.457,-33.691,-1.465,0.000
1709298461.072,-20.996,-41.016,-38.574,-4.883,0.000
1709298461.076,-7.812,-48.340,-36.133,4.395,0.000
1709298461.080,9.766,-38.086,-28.809,5.371,0.000
1709298461.084,7.324,-27.344,-26.367,-1.953,0.000
1709298461.088,-6.836,-31.250,-35.156,-5.371,0.000
1709298461.091,-7.324,-35.156,-28.320,5.859,0.000
1709298461.095,9.766,-41.992,-18.555,23.438,0.000
1709298461.099,12.207,-37.109,-22.949,20.996,0.000
1709298461.103,5.859,-29.297,-25.391,8.301,0.000
1709298461.107,1.465,-35.156,-23.926,11.719,0.000
1709298461.111,-16.602,-37.109,-21.484,15.625,0.000
1709298461.115,-7.324,-44.922,-19.043,12.695,0.000
1709298461.119,9.766,-48.828,-24.414,11.719,0.000
1709298461.123,4.883,-36.621,-26.367,9.277,0.000
1709298461.127,-5.371,-27.344,-20.508,13.184,0.000
1709298461.130,-9.766,-25.879,-23.438,12.207,0.000
1709298461.134,-9.277,-29.297,-25.879,12.207,0.000
1709298461.138,-0.488,-26.367,-25.391,20.508,0.000
1709298461.142,1.465,-22.949,-26.855,21.973,0.000
1709298461.146,-7.324,-29.785,-25.391,7.812,0.000
1709298461.150,-9.766,-35.645,-22.461,4.883,0.000
1709298461.154,-12.207,-42.969,-22.949,17.090,0.000
1709298461.158,-5.859,-39.062,-24.902,18.066,0.000
1709298461.161,3.906,-38.086,-25.879,9.277,0.000
1709298461.165,0.977,-39.551,-20.996,-0.488,0.000
1709298461.169,-4.395,-26.367,-25.391,-4.883,0.000
1709298461.173,-5.371,-28.809,-34.180,2.930,0.000
1709298461.177,3.906,-35.156,-30.762,12.207,0.000
1709298461.181,12.207,-30.273,-25.879,10.742,0.000
1709298461.185,3.906,-33.203,-26.367,0.000,0.000
1709298461.189,-4.395,-32.715,-26.855,-6.836,0.000
1709298461.192,0.488,-31.738,-20.020,4.395,0.000
1709298461.196,8.789,-33.203,-20.508,22.461,0.000
1709298461.200,9.277,-32.227,-22.949,18.555,0.000
1709298461.204,0.000,-36.133,-20.020,-1.953,0.000
1709298461.208,-13.184,-37.598,-20.508,-11.719,0.000
1709298461.212,-21.484,-38.574,-22.461,0.000,0.000
1709298461.216,-11.719,-39.062,-27.832,12.207,0.000
1709298461.220,-4.883,-39.062,-31.250,8.789,0.000
1709298461.224,-6.348,-38.574,-20.020,1.465,0.000
1709298461.228,-15.625,-47.363,-20.996,-3.418,0.000
1709298461.232,-23.438,-49.316,-34.668,-0.977,0.000
1709298461.236,-18.555,-37.109,-28.320,5.371,0.000
1709298461.240,-13.184,-29.297,-17.090,5.859,0.000
1709298461.243,-13.184,-33.203,-27.344,-1.465,0.000
1709298461.247,-20.508,-38.086,-33.691,-14.648,0.000
1709298461.251,-17.090,-36.133,-25.879,-10.254,0.000
1709298461.255,-10.742,-29.785,-23.438,8.789,0.000
1709298461.259,-9.766,-27.832,-19.043,24.414,0.000
1709298461.263,-9.277,-26.367,-21.484,12.695,0.000
1709298461.267,-10.742,-33.691,-20.996,0.977,0.000
