timestamps,TP9,AF7,AF8,TP10,Right AUX
1709214674.548,-34.668,-41.992,-45.410,-36.133,0.000
1709214674.552,-30.273,-35.156,-42.480,-36.621,0.000
1709214674.556,-28.809,-41.992,-44.922,-41.016,0.000
1709214674.560,-34.668,-49.316,-47.852,-46.387,0.000
1709214674.564,-41.992,-41.504,-40.527,-38.574,0.000
1709214674.568,-42.480,-41.016,-38.086,-34.668,0.000
1709214674.572,-39.551,-49.316,-38.086,-34.180,0.000
1709214674.576,-38.574,-52.734,-39.551,-35.156,0.000
1709214674.579,-39.062,-54.688,-42.969,-38.574,0.000
1709214674.583,-41.992,-44.434,-36.621,-34.180,0.000
1709214674.587,-34.180,-40.039,-27.344,-29.297,0.000
1709214674.591,-24.414,-37.598,-30.762,-27.344,0.000
1709214674.595,-33.203,-37.109,-34.668,-34.668,0.000
1709214674.599,-39.551,-39.062,-26.855,-32.715,0.000
1709214674.603,-32.227,-41.016,-26.367,-26.855,0.000
1709214674.607,-25.879,-41.992,-32.715,-28.809,0.000
1709214674.611,-25.391,-41.016,-36.133,-30.273,0.000
1709214674.614,-28.809,-40.039,-35.645,-26.367,0.000
1709214674.618,-35.156,-46.875,-34.180,-21.484,0.000
1709214674.622,-26.367,-49.805,-32.227,-16.113,0.000
1709214674.626,-22.949,-34.668,-34.668,-21.973,0.000
1709214674.630,-27.344,-27.832,-48.340,-21.973,0.000
1709214674.634,-22.949,-39.062,-49.805,-15.625,0.000
1709214674.638,-33.203,-41.992,-39.062,-33.203,0.000
1709214674.642,0.000,-42.480,0.000,-43.457,0.000
1709214674.646,0.000,-48.340,0.000,-40.527,0.000
1709214674.650,0.000,-54.688,0.000,-37.109,0.000
1709214674.654,0.000,-61.035,0.000,-32.715,0.000
1709214674.658,0.000,-60.059,0.000,-27.344,0.000
1709214674.661,0.000,-59.082,0.000,-30.273,0.000
1709214674.665,0.000,-42.480,0.000,-38.574,0.000
1709214674.669,0.000,-36.621,0.000,-40.527,0.000
1709214674.673,0.000,-50.781,0.000,-44.434,0.000
1709214674.677,0.000,-51.270,0.000,-43.457,0.000
1709214674.681,0.000,-49.316,0.000,-45.898,0.000
1709214674.685,0.000,-49.316,0.000,-49.805,0.000
1709214674.689,-29.297,-50.781,-32.227,-42.969,0.000
1709214674.693,-32.715,-42.480,-29.297,-38.574,0.000
1709214674.697,-39.551,-42.480,-33.691,-47.363,0.000
1709214674.701,-46.387,-47.363,-39.551,-44.434,0.000
1709214674.704,-49.805,-49.316,-36.621,-35.156,0.000
1709214674.708,-45.410,-55.176,-41.992,-41.992,0.000
1709214674.712,-41.504,-50.781,-44.922,-45.410,0.000
1709214674.716,-36.621,-44.434,-33.691,-32.715,0.000
1709214674.720,-35.156,-42.969,-32.227,-23.438,0.000
1709214674.724,-30.762,-41.016,-25.879,-16.602,0.000
1709214674.728,-24.414,-40.527,-21.973,-17.578,0.000
1709214674.732,-17.090,-51.270,-34.668,-16.113,0.000
1709214674.736,-18.555,-57.129,-41.016,-22.949,0.000
1709214674.740,-27.832,-45.410,-31.738,-18.555,0.000
1709214674.744,-27.832,-37.109,-20.996,-6.836,0.000
1709214674.747,-35.156,-36.133,-22.461,-17.090,0.000
1709214674.751,-39.551,-40.527,-28.809,-26.367,0.000
1709214674.755,-39.062,-44.922,-33.691,-28.809,0.000
1709214674.759,-52.246,-53.223,-37.598,-38.574,0.000
1709214674.763,-55.176,-55.176,-37.109,-44.922,0.000
1709214674.767,-42.480,-51.758,-38.574,-31.250,0.000
1709214674.771,-36.621,-52.246,-38.574,-23.438,0.000
1709214674.775,-40.527,-55.664,-34.180,-34.668,0.000
1709214674.779,-36.621,-46.875,-27.832,-29.785,0.000
1709214674.783,-27.832,-42.969,-26.855,-26.855,0.000
1709214674.787,-27.344,-51.270,-33.691,-32.715,0.000
1709214674.790,-25.879,-43.457,-31.738,-27.344,0.000
1709214674.794,-26.367,-41.992,-31.250,-29.785,0.000
1709214674.798,-28.320,-56.152,-35.645,-36.133,0.000
1709214674.802,-30.762,-60.547,-40.039,-38.086,0.000
1709214674.806,-32.227,-56.641,-42.969,-34.668,0.000
1709214674.810,-29.785,-50.293,-37.598,-29.297,0.000
1709214674.814,-27.832,-53.223,-32.227,-31.738,0.000
1709214674.818,-22.949,-53.711,-33.691,-32.227,0.000
1709214674.822,-14.160,-41.016,-39.551,-28.320,0.000
1709214674.826,-15.625,-44.434,-45.898,-31.250,0.000
1709214674.829,-11.230,-48.828,-41.992,-25.391,0.000
1709214674.833,-8.301,-38.086,-43.945,-25.879,0.000
1709214674.837,-12.695,-33.203,-48.828,-29.297,0.000
1709214674.841,-12.207,-41.992,-45.898,-23.438,0.000
1709214674.845,-12.695,-36.621,-36.621,-20.508,0.000
1709214674.849,-10.254,-30.273,-33.203,-21.484,0.000
1709214674.853,-6.836,-32.227,-35.645,-20.508,0.000
1709214674.857,-20.996,-42.969,-40.527,-10.742,0.000
1709214674.861,-35.156,-50.781,-45.410,-15.137,0.000
1709214674.865,-30.762,-42.480,-38.574,-26.855,0.000
1709214674.869,-28.320,-44.922,-39.062,-22.461,0.000
1709214674.872,-38.574,-46.875,-44.922,-25.879,0.000
1709214674.876,-41.992,-44.922,-43.945,-37.598,0.000
1709214674.880,-42.969,-53.711,-41.992,-37.109,0.000
1709214674.884,-48.340,-60.059,-42.480,-38.086,0.000
1709214674.888,-48.828,-54.688,-46.875,-43.457,0.000
1709214674.892,-38.086,-44.922,-41.016,-44.922,0.000
1709214674.896,-37.598,-42.969,-35.156,-50.293,0.000
1709214674.900,-48.340,-46.387,-39.551,-46.387,0.000
1709214674.904,-49.316,-43.457,-32.715,-34.668,0.000
1709214674.908,-44.434,-40.039,-37.109,-39.551,0.000
1709214674.911,-32.227,-51.270,-42.480,-44.922,0.000
1709214674.915,-32.227,-55.176,-33.691,-43.457,0.000
1709214674.919,-39.551,-50.293,-39.551,-48.340,0.000
1709214674.923,-33.203,-43.945,-37.109,-35.156,0.000
1709214674.927,-27.832,-40.527,-35.156,-22.949,0.000
1709214674.931,-32.227,-40.527,-41.504,-35.645,0.000
1709214674.935,-35.645,-37.109,-37.598,-48.828,0.000
1709214674.939,-36.133,-41.016,-34.668,-49.805,0.000
1709214674.943,-41.992,-41.992,-38.086,-42.969,0.000
1709214674.947,-47.363,-41.992,-41.016,-32.715,0.000
1709214674.950,-49.316,-44.434,-47.852,-35.156,0.000
1709214674.954,-47.852,-52.734,-51.270,-40.039,0.000
1709214674.958,-57.617,-68.359,-42.969,-37.109,0.000
1709214674.962,-57.129,-61.523,-41.016,-29.785,0.000
1709214674.966,-42.480,-47.852,-46.387,-26.367,0.000
1709214674.970,-40.039,-55.664,-48.828,-32.715,0.000
1709214674.974,-43.945,-54.688,-48.340,-35.645,0.000
1709214674.978,-40.039,-47.363,-46.387,-28.809,0.000
1709214674.982,-44.922,-43.945,-37.598,-15.137,0.000
1709214674.985,-48.828,-43.457,-33.203,-14.648,0.000
1709214674.989,-39.551,-54.199,-39.551,-21.484,0.000
1709214674.993,-32.227,-51.270,-36.621,-20.996,0.000
1709214674.997,-28.320,-39.062,-28.809,-21.973,0.000
1709214675.001,-30.762,-47.363,-30.273,-20.020,0.000
1709214675.005,-34.668,-55.664,-39.062,-13.672,0.000
1709214675.009,-32.715,-50.293,-35.645,-13.672,0.000
1709214675.013,-27.832,-33.691,-28.809,-18.555,0.000
1709214675.017,-33.691,-22.949,-35.156,-25.391,0.000
1709214675.021,-44.434,-41.504,-41.016,-32.715,0.000
1709214675.025,-46.387,-50.293,-41.504,-31.250,0.000
1709214675.028,-41.504,-41.504,-39.062,-29.297,0.000
1709214675.032,-38.086,-43.945,-36.133,-33.203,0.000
1709214675.036,-40.527,-50.293,-41.016,-36.621,0.000
1709214675.040,-43.945,-41.992,-39.062,-48.340,0.000
1709214675.044,-43.945,-45.898,-37.598,-52.246,0.000
1709214675.048,-45.898,-57.129,-45.410,-45.898,0.000
1709214675.052,-36.133,-52.734,-43.945,-39.062,0.000
1709214675.056,-31.250,-46.875,-34.668,-39.062,0.000
1709214675.060,-34.180,-39.062,-32.715,-45.410,0.000
1709214675.064,-33.203,-33.691,-34.180,-35.645,0.000
1709214675.068,-26.855,-28.320,-33.691,-32.227,0.000
1709214675.072,-15.625,-23.926,-36.621,-33.691,0.000
1709214675.075,-21.973,-30.273,-40.527,-37.109,0.000
1709214675.079,-32.715,-38.086,-44.434,-39.062,0.000
1709214675.083,-30.762,-42.480,-41.504,-38.574,0.000
1709214675.087,-29.785,-42.969,-41.504,-42.969,0.000
1709214675.091,-29.785,-49.805,-42.969,-49.316,0.000
1709214675.095,-34.668,-51.270,-42.480,-55.664,0.000
1709214675.099,-46.387,-44.922,-41.992,-50.293,0.000
1709214675.103,-42.969,-46.875,-38.086,-47.852,0.000
1709214675.107,-41.016,-44.922,-36.133,-53.223,0.000
1709214675.111,-45.898,-43.945,-40.527,-54.199,0.000
1709214675.114,-38.574,-43.945,-36.133,-43.945,0.000
1709214675.118,-37.598,-39.551,-34.180,-44.922,0.000
1709214675.122,-43.945,-44.922,-41.504,-41.016,0.000
1709214675.126,-39.551,-56.152,-45.898,-39.551,0.000
1709214675.130,-31.250,-50.781,-44.922,-48.340,0.000
1709214675.134,-24.902,-44.922,-38.574,-43.457,0.000
1709214675.138,-25.879,-52.734,-33.691,-41.992,0.000
1709214675.142,-27.832,-46.387,-35.645,-28.320,0.000
1709214675.146,-29.297,-34.180,-35.645,-21.484,0.000
1709214675.150,-35.156,-45.410,-40.527,-32.715,0.000
1709214675.154,-33.203,-51.758,-42.969,-31.738,0.000
1709214675.157,-36.621,-40.527,-43.945,-36.621,0.000
1709214675.161,-42.969,-37.598,-47.852,-32.227,0.000
1709214675.165,-39.062,-44.434,-41.992,-28.809,0.000
1709214675.169,-41.016,-41.992,-42.969,-40.527,0.000
1709214675.173,-46.875,-39.551,-41.992,-39.062,0.000
1709214675.177,-40.039,-36.621,-33.691,-31.250,0.000
1709214675.181,-42.480,-41.992,-37.598,-38.086,0.000
1709214675.185,-45.410,-54.688,-39.062,-33.203,0.000
1709214675.189,-44.434,-51.270,-39.551,-23.926,0.000
1709214675.193,-45.898,-48.340,-39.062,-35.645,0.000
1709214675.197,-46.875,-53.711,-34.180,-44.434,0.000
1709214675.200,-42.480,-52.734,-37.598,-41.016,0.000
1709214675.204,-37.109,-46.387,-37.598,-28.320,0.000
1709214675.208,-30.273,-50.781,-31.250,-20.508,0.000
1709214675.212,-21.484,-42.480,-32.227,-25.391,0.000
1709214675.216,-32.227,-35.156,-34.180,-37.598,0.000
1709214675.220,-40.527,-43.945,-36.133,-46.387,0.000
1709214675.224,-32.715,-41.992,-38.574,-44.434,0.000
1709214675.228,-24.902,-37.598,-37.109,-34.668,0.000
1709214675.232,-30.273,-40.039,-35.156,-33.203,0.000
1709214675.236,-34.668,-38.574,-38.574,-36.133,0.000
1709214675.239,-41.016,-39.062,-46.387,-47.852,0.000
1709214675.243,-40.039,-34.180,-45.410,-49.316,0.000
1709214675.247,-36.621,-38.086,-42.480,-35.645,0.000
1709214675.251,-45.898,-50.781,-46.387,-42.969,0.000
1709214675.255,-45.410,-48.340,-38.086,-49.316,0.000
1709214675.259,-53.223,-45.410,-51.270,-41.992,0.000
1709214675.263,-54.199,-32.227,-61.035,-42.480,0.000
1709214675.267,-41.504,-32.715,-43.945,-48.828,0.000
1709214675.271,-35.156,-36.133,-40.527,-48.340,0.000
1709214675.275,-37.109,-37.109,-41.992,-39.062,0.000
1709214675.278,-40.527,-42.480,-32.227,-32.715,0.000
1709214675.282,-44.922,-36.621,-39.551,-34.668,0.000
1709214675.286,-48.828,-37.598,-47.363,-37.109,0.000
1709214675.290,-44.922,-46.875,-38.086,-37.109,0.000
1709214675.294,-36.621,-40.527,-39.062,-36.133,0.000
1709214675.298,-34.180,-34.668,-41.992,-32.227,0.000
1709214675.302,-41.992,-45.898,-41.016,-32.227,0.000
1709214675.306,-38.574,-41.016,-39.062,-32.227,0.000
1709214675.310,-26.367,-44.922,-39.551,-28.809,0.000
1709214675.314,-25.879,-53.711,-48.340,-36.621,0.000
1709214675.317,-27.344,-44.434,-48.340,-41.016,0.000
1709214675.321,-28.809,-43.945,-44.922,-23.438,0.000
1709214675.325,-20.996,-37.598,-44.922,-7.324,0.000
1709214675.329,-17.090,-37.598,-48.340,-16.602,0.000
1709214675.333,-13.672,-48.340,-47.852,-23.926,0.000
1709214675.337,-12.695,-38.574,-39.062,-20.996,0.000
1709214675.341,-20.508,-29.297,-41.016,-20.996,0.000
1709214675.345,-20.508,-40.039,-42.969,-26.367,0.000
1709214675.349,-20.996,-49.316,-38.086,-33.203,0.000
1709214675.353,-28.320,-48.340,-34.180,-44.434,0.000
1709214675.356,-33.691,-40.039,-35.156,-38.574,0.000
1709214675.360,-41.504,-34.180,-41.016,-37.109,0.000
1709214675.364,-44.922,-46.387,-38.574,-39.551,0.000
1709214675.368,-41.016,-57.129,-28.320,-20.020,0.000
1709214675.372,-34.668,-45.898,-29.297,-25.879,0.000
1709214675.376,-28.320,-40.039,-30.762,-40.039,0.000
1709214675.380,-39.062,-59.082,-34.668,-37.598,0.000
1709214675.384,-41.992,-60.059,-39.062,-41.504,0.000
1709214675.388,-38.574,-45.898,-35.156,-45.410,0.000
1709214675.392,-43.457,-50.293,-37.598,-48.828,0.000
1709214675.396,-46.875,-54.199,-41.992,-44.922,0.000
1709214675.399,-55.176,-52.734,-48.828,-39.551,0.000
1709214675.403,-59.082,-46.875,-47.363,-41.016,0.000
1709214675.407,-48.828,-50.781,-44.922,-42.480,0.000
1709214675.411,-38.086,-49.805,-42.969,-48.340,0.000
1709214675.415,-41.992,-46.875,-33.691,-48.340,0.000
1709214675.419,-51.270,-63.965,-38.086,-44.922,0.000
1709214675.423,-48.340,-58.594,-44.434,-41.504,0.000
1709214675.427,-47.852,-40.039,-43.945,-36.133,0.000
1709214675.431,-49.805,-42.480,-37.109,-38.574,0.000
1709214675.435,-45.898,-41.016,-35.645,-49.316,0.000
1709214675.439,-41.992,-34.668,0.000,-45.898,0.000
1709214675.442,-43.945,-40.527,0.000,-37.598,0.000
1709214675.446,-40.527,-39.062,0.000,-34.180,0.000
1709214675.450,-28.809,-48.340,0.000,-27.832,0.000
1709214675.454,-20.020,-60.547,0.000,-23.438,0.000
1709214675.458,-22.461,-48.340,0.000,-24.902,0.000
1709214675.462,-26.855,-40.039,0.000,-24.902,0.000
1709214675.466,-19.531,-34.668,0.000,-25.879,0.000
1709214675.470,-24.414,-36.621,0.000,-27.832,0.000
1709214675.474,-29.785,-41.016,0.000,-23.926,0.000
1709214675.478,-32.227,-34.180,0.000,-32.227,0.000
1709214675.482,-44.434,-39.062,0.000,-45.898,0.000
1709214675.485,-44.922,-46.387,-50.781,-50.293,0.000
1709214675.489,-41.504,-43.945,-41.016,-51.270,0.000
1709214675.493,-43.457,-47.363,-36.133,-50.781,0.000
1709214675.497,-46.875,-58.594,-40.527,-47.363,0.000
1709214675.501,-51.758,-44.434,-51.270,-47.852,0.000
1709214675.505,-47.852,-32.227,-45.410,-39.062,0.000
1709214675.509,-42.480,-34.668,-31.738,-32.715,0.000
1709214675.513,-45.898,-32.715,-31.738,-48.340,0.000
1709214675.517,-41.992,-33.203,-35.645,-44.434,0.000
1709214675.521,-38.574,-38.086,-35.156,-35.156,0.000
1709214675.525,-38.574,-42.480,-38.574,-30.762,0.000
1709214675.528,-35.645,-52.246,-45.410,-35.156,0.000
1709214675.532,-26.367,-52.246,-40.527,-35.156,0.000
1709214675.536,-29.297,-39.062,-34.180,-31.738,0.000
1709214675.540,-30.762,-35.156,-39.551,-32.227,0.000
1709214675.544,-25.879,-33.203,-41.992,-23.438,0.000
1709214675.548,-27.344,-36.621,-42.480,-31.738,0.000
1709214675.552,-26.367,-40.039,-39.551,-39.062,0.000
1709214675.556,-34.180,-40.527,-45.410,-40.527,0.000
1709214675.560,-32.227,-43.457,-51.758,-38.574,0.000
1709214675.564,-27.344,-45.410,-41.016,-25.879,0.000
1709214675.567,-35.645,-46.875,-39.062,-29.785,0.000
1709214675.571,-33.203,-55.664,-45.410,-38.086,0.000
1709214675.575,-34.180,-58.105,-44.434,-36.133,0.000
1709214675.579,-40.039,-42.480,-44.922,-24.414,0.000
1709214675.583,-39.062,-36.621,-47.363,-26.367,0.000
1709214675.587,-33.691,-44.434,-41.504,-30.762,0.000
1709214675.591,-33.691,-50.293,-37.109,-30.273,0.000
1709214675.595,-40.527,-51.758,-34.180,-34.668,0.000
1709214675.599,-49.316,-45.898,-34.180,-33.691,0.000
1709214675.603,-43.457,-50.293,-35.645,-30.762,0.000
1709214675.607,-34.180,-59.570,-35.156,-20.508,0.000
1709214675.611,-35.645,-41.016,-36.621,-23.438,0.000
1709214675.615,-40.527,-32.227,-36.133,-39.551,0.000
1709214675.618,-48.828,-49.316,-33.203,-48.828,0.000
1709214675.622,-51.270,-52.734,-42.480,-50.293,0.000
1709214675.626,-46.875,-47.852,-48.828,-50.293,0.000
1709214675.630,-35.156,-43.457,-45.410,-43.457,0.000
1709214675.634,-31.250,-49.805,-44.922,-40.527,0.000
1709214675.638,-28.809,-49.805,-41.504,-40.039,0.000
1709214675.642,-23.438,-42.969,-33.203,-39.551,0.000
1709214675.646,-24.414,-51.270,-38.086,-47.852,0.000
1709214675.650,-21.484,-47.363,-41.016,-49.805,0.000
1709214675.654,-23.926,-36.621,-43.457,-47.363,0.000
1709214675.657,-29.297,-36.133,-51.270,-43.945,0.000
1709214675.661,-32.715,-44.434,-42.480,-43.457,0.000
1709214675.665,-26.855,-43.945,-29.297,-28.809,0.000
1709214675.669,-17.578,-36.621,-28.320,-20.508,0.000
1709214675.673,-18.066,-36.133,-33.203,-34.668,0.000
1709214675.677,-28.809,-50.293,-41.016,-43.945,0.000
1709214675.681,-33.691,-54.688,-41.016,-41.504,0.000
1709214675.685,-35.645,-44.434,-40.527,-38.574,0.000
1709214675.689,-36.621,-43.945,-43.457,-35.645,0.000
1709214675.693,-31.738,-51.270,-43.457,-33.691,0.000
1709214675.696,-40.039,-52.734,-46.387,-29.785,0.000
1709214675.700,-51.270,-51.270,-48.340,-32.715,0.000
1709214675.704,-39.551,-44.434,-40.527,-29.297,0.000
1709214675.708,-30.762,-51.270,-34.180,-24.414,0.000
1709214675.712,-41.016,-62.988,-39.551,-34.180,0.000
1709214675.716,-45.410,-63.477,-42.969,-36.133,0.000
1709214675.720,-43.457,-62.012,-34.180,-30.273,0.000
1709214675.724,-53.223,-54.688,-34.668,-26.367,0.000
1709214675.728,-52.246,-51.270,-39.551,-27.344,0.000
1709214675.732,-46.875,-58.594,-43.457,-31.738,0.000
1709214675.736,-53.711,-55.176,-43.945,-38.086,0.000
1709214675.739,-54.688,-42.969,-40.527,-39.062,0.000
1709214675.743,-48.828,-41.992,-41.992,-29.297,0.000
1709214675.747,-41.992,-37.109,-44.434,-27.344,0.000
1709214675.751,-38.574,-41.992,-40.527,-32.715,0.000
1709214675.755,-40.527,-49.805,-36.133,-29.785,0.000
1709214675.759,-45.898,-53.711,-35.156,-28.320,0.000
1709214675.763,-41.016,-55.176,-32.715,-33.691,0.000
1709214675.767,-39.062,-52.246,-34.180,-42.480,0.000
1709214675.771,-43.945,-55.176,-39.062,-41.504,0.000
1709214675.775,-36.133,-52.246,-35.645,-35.645,0.000
1709214675.779,-41.504,-57.617,-33.691,-41.016,0.000
1709214675.783,-47.852,-54.688,-32.715,-34.668,0.000
1709214675.786,-44.434,-39.551,-29.785,-20.996,0.000
1709214675.790,-43.945,-42.480,-30.762,-22.949,0.000
1709214675.794,-43.945,-50.781,-36.133,-32.715,0.000
1709214675.798,-44.922,-55.176,-43.457,-29.785,0.000
1709214675.802,-47.363,-55.176,-40.039,-19.043,0.000
1709214675.806,-45.898,-45.898,-40.527,-25.391,0.000
1709214675.810,-50.293,-41.016,-42.480,-32.715,0.000
1709214675.814,-45.898,-42.969,-45.898,-30.273,0.000
1709214675.818,-35.156,-41.992,-43.945,-33.203,0.000
1709214675.822,-33.691,-51.270,-41.016,-37.598,0.000
1709214675.826,-34.180,-56.641,-45.410,-39.062,0.000
1709214675.829,-37.598,-45.898,-51.758,-39.062,0.000
1709214675.833,-36.133,-42.480,-49.805,-35.156,0.000
1709214675.837,-33.203,-44.922,-47.852,-30.273,0.000
1709214675.841,-33.691,-38.086,-48.340,-32.715,0.000
1709214675.845,-33.691,-39.551,-42.480,-41.992,0.000
1709214675.849,-34.180,-51.758,-40.039,-39.062,0.000
1709214675.853,-35.156,-48.828,-39.551,-45.410,0.000
1709214675.857,-32.227,-41.992,-35.645,-53.711,0.000
1709214675.861,-29.297,-39.551,-39.551,-41.992,0.000
1709214675.865,-32.715,-52.246,-41.992,-45.898,0.000
1709214675.869,-35.156,-62.500,-48.340,-53.223,0.000
1709214675.872,-29.297,-60.059,-51.270,-52.246,0.000
1709214675.876,-33.691,-55.664,-47.363,-52.246,0.000
1709214675.880,-49.805,-41.992,-47.852,-41.992,0.000
1709214675.884,-51.270,-36.133,-49.316,-32.227,0.000
1709214675.888,-41.992,-40.527,-48.828,-28.320,0.000
1709214675.892,-37.109,-46.387,-43.457,-17.578,0.000
1709214675.896,-40.039,-45.898,-41.504,-25.879,0.000
1709214675.900,-43.457,-48.828,-41.016,-45.898,0.000
1709214675.904,-42.969,-54.688,-41.016,-42.480,0.000
1709214675.908,-38.574,-55.664,-40.527,-36.133,0.000
1709214675.911,-40.039,-51.270,-39.062,-39.551,0.000
1709214675.915,-44.922,-43.945,-38.574,-43.457,0.000
1709214675.919,-53.223,-39.062,-38.086,-46.875,0.000
1709214675.923,-53.711,-39.551,-39.551,-44.922,0.000
1709214675.927,-43.945,-38.574,-33.691,-34.180,0.000
1709214675.931,-45.410,-37.598,-27.344,-34.180,0.000
1709214675.935,-51.270,-41.992,-29.785,-44.434,0.000
1709214675.939,-53.711,-50.293,-36.621,-43.457,0.000
1709214675.943,-50.781,-45.898,-35.645,-42.480,0.000
1709214675.947,-43.457,-42.480,-27.832,-39.551,0.000
1709214675.951,-35.156,-51.758,-26.367,-31.250,0.000
1709214675.954,-38.086,-53.223,-35.645,-37.598,0.000
1709214675.958,-42.969,-45.410,-35.645,-40.527,0.000
1709214675.962,-41.504,-37.598,-34.180,-39.062,0.000
1709214675.966,-39.551,-37.598,-43.457,-41.992,0.000
1709214675.970,-40.527,-34.180,-46.387,-35.156,0.000
1709214675.974,-48.340,-37.598,-51.758,-53.711,0.000
1709214675.978,-46.875,-41.992,-55.664,-60.547,0.000
1709214675.982,-42.969,-46.387,-48.828,-38.086,0.000
1709214675.986,-30.273,-54.199,-43.457,-29.297,0.000
1709214675.990,-24.902,-51.758,-49.316,-38.086,0.000
1709214675.993,-26.855,-35.645,-43.457,-41.504,0.000
1709214675.997,-32.227,-27.344,-41.504,-44.434,0.000
1709214676.001,-40.039,-30.762,-49.805,-51.270,0.000
1709214676.005,-36.621,-35.156,-48.340,-54.688,0.000
1709214676.009,-31.738,-40.039,-53.711,-48.828,0.000
1709214676.013,-23.926,-34.668,-56.152,-43.945,0.000
1709214676.017,-30.273,-37.598,-45.410,-48.828,0.000
1709214676.021,-35.156,-43.457,-38.574,-41.016,0.000
1709214676.025,-37.109,-45.898,-43.457,-32.227,0.000
1709214676.029,-38.086,-48.340,-48.340,-29.297,0.000
1709214676.032,-30.273,-43.945,-43.457,-37.109,0.000
1709214676.036,-45.410,-38.574,-45.410,-54.688,0.000
1709214676.040,-61.035,-34.180,-44.434,-49.805,0.000
1709214676.044,-58.594,-44.434,-44.922,-43.945,0.000
1709214676.048,-51.270,-41.504,-42.480,-44.434,0.000
1709214676.052,-44.922,-40.039,-39.551,-44.434,0.000
1709214676.056,-48.828,-53.223,-34.180,-43.457,0.000
1709214676.060,-53.223,-48.340,-31.738,-37.598,0.000
1709214676.064,-47.852,-40.039,-40.527,-30.273,0.000
1709214676.068,-36.621,-50.781,-41.992,-34.668,0.000
1709214676.071,-31.250,-51.270,-35.645,-35.645,0.000
1709214676.075,-33.691,-42.969,-29.297,-24.414,0.000
1709214676.079,-37.109,-46.875,-30.273,-25.391,0.000
1709214676.083,-35.156,-43.457,-38.574,-27.832,0.000
1709214676.087,-29.297,-42.969,-39.062,-20.020,0.000
1709214676.091,-28.320,-43.945,-44.434,-34.180,0.000
1709214676.095,-29.785,-40.527,-51.270,-45.898,0.000
1709214676.099,-34.180,-44.434,-38.086,-43.945,0.000
1709214676.103,-36.621,-47.852,-29.785,-42.480,0.000
1709214676.107,-32.715,-40.039,-35.156,-39.062,0.000
1709214676.111,-28.809,-39.062,-41.504,-36.621,0.000
1709214676.115,-29.785,-45.410,-37.598,-35.156,0.000
1709214676.118,-33.203,-51.758,-37.109,-30.273,0.000
1709214676.122,-37.598,-45.898,-42.480,-34.180,0.000
1709214676.126,-41.504,-29.297,-41.504,-37.109,0.000
1709214676.130,-30.762,-30.273,-37.109,-32.715,0.000
1709214676.134,-21.484,-36.621,-34.180,-40.039,0.000
1709214676.138,-26.367,-35.156,-35.156,-40.039,0.000
1709214676.142,-30.273,-43.457,-34.180,-39.551,0.000
1709214676.146,-36.621,-51.270,-38.086,-37.598,0.000
1709214676.150,-38.574,-49.805,-42.480,-32.227,0.000
1709214676.154,-34.180,-44.922,-36.133,-37.598,0.000
1709214676.158,-38.086,-36.621,-33.203,-40.527,0.000
1709214676.161,-44.434,-41.504,-38.086,-36.133,0.000
1709214676.165,-45.898,-44.434,-41.992,-35.156,0.000
1709214676.169,-45.410,-41.016,-43.945,-39.062,0.000
1709214676.173,-41.504,-43.457,-37.598,-38.574,0.000
1709214676.177,-41.504,-41.992,-30.273,-27.832,0.000
1709214676.181,-46.875,-42.480,-34.180,-29.297,0.000
1709214676.185,-41.504,-41.992,-35.156,-30.273,0.000
1709214676.189,-35.156,-43.457,-31.250,-27.344,0.000
1709214676.193,-34.180,-50.293,-32.227,-30.273,0.000
1709214676.197,-33.691,-56.641,-39.551,-29.297,0.000
1709214676.201,-27.344,-46.387,-40.039,-30.273,0.000
1709214676.204,-20.508,-37.598,-34.180,-26.855,0.000
1709214676.208,-30.273,-45.898,-36.133,-24.902,0.000
1709214676.212,-36.133,-46.387,-36.133,-25.391,0.000
1709214676.216,-38.574,-36.621,-37.109,-38.574,0.000
1709214676.220,-46.387,-41.504,-37.598,-41.504,0.000
1709214676.224,-54.199,-51.270,-37.109,-25.879,0.000
1709214676.228,-57.129,-46.875,-44.434,-29.785,0.000
1709214676.232,-54.688,-42.480,-42.969,-38.574,0.000
1709214676.236,-60.547,-43.457,-38.086,-44.922,0.000
1709214676.240,-62.500,-51.758,-42.969,-56.641,0.000
1709214676.244,-61.523,-48.828,-41.504,-59.570,0.000
1709214676.247,-52.734,-42.480,-40.039,-51.270,0.000
1709214676.251,-53.223,-58.594,-49.805,-52.246,0.000
1709214676.255,-50.293,-53.223,-45.410,-53.223,0.000
1709214676.259,-37.598,-35.645,-36.621,-46.387,0.000
1709214676.263,-41.992,-39.551,-48.340,-47.852,0.000
1709214676.267,-49.805,-48.340,-43.945,-46.387,0.000
1709214676.271,-38.574,-40.039,-35.645,-36.133,0.000
1709214676.275,-32.715,-33.691,-36.133,-41.992,0.000
1709214676.279,-38.086,-43.945,-34.668,-49.316,0.000
1709214676.283,-41.992,-48.828,-37.109,-46.875,0.000
1709214676.287,-31.250,-45.898,-37.109,-35.156,0.000
1709214676.290,-23.438,-43.457,-33.691,-33.203,0.000
1709214676.294,-32.715,-45.410,-39.551,-44.434,0.000
1709214676.298,-35.645,-43.945,-36.621,-43.945,0.000
1709214676.302,-39.551,-38.086,-28.320,-31.738,0.000
1709214676.306,-41.504,-41.016,-30.762,-26.855,0.000
1709214676.310,-33.691,-45.410,-34.668,-25.879,0.000
1709214676.314,-25.391,-41.504,-35.645,-20.996,0.000
1709214676.318,-27.344,-29.297,-31.250,-17.578,0.000
1709214676.322,-28.809,-29.297,-30.762,-18.555,0.000
1709214676.326,-19.043,-44.434,-35.156,-22.461,0.000
1709214676.329,-18.066,-40.039,-37.109,-21.973,0.000
1709214676.333,-24.902,-34.180,-32.715,-26.367,0.000
1709214676.337,-35.156,-38.086,-39.062,-36.621,0.000
1709214676.341,-43.945,-42.480,-39.551,-34.180,0.000
1709214676.345,-45.410,-44.922,-34.180,-26.855,0.000
1709214676.349,-43.457,-43.945,-40.527,-27.344,0.000
1709214676.353,-46.387,-42.969,-45.410,-38.086,0.000
1709214676.357,-53.711,-47.852,-42.480,-42.969,0.000
1709214676.361,-55.176,-48.340,-41.016,-42.480,0.000
1709214676.365,-45.410,-39.062,-40.527,-47.852,0.000
1709214676.369,-38.574,-42.969,-40.039,-52.246,0.000
1709214676.372,-35.156,-56.641,-44.434,-58.105,0.000
1709214676.376,-38.086,-56.641,-46.875,-63.477,0.000
1709214676.380,-39.551,-39.551,-47.363,-56.641,0.000
1709214676.384,-26.855,-24.414,-45.410,-38.574,0.000
1709214676.388,-14.160,-30.273,-42.480,-29.785,0.000
1709214676.392,-8.301,-36.621,-39.062,-25.879,0.000
1709214676.396,-15.625,-39.551,-43.945,-34.668,0.000
1709214676.400,-32.227,-38.086,-47.363,-46.387,0.000
1709214676.404,-38.574,-37.109,-41.504,-38.086,0.000
1709214676.408,-34.668,-52.246,-53.711,-46.875,0.000
1709214676.411,-31.738,-60.547,-56.152,-55.664,0.000
1709214676.415,-33.691,-49.805,-37.598,-41.504,0.000
1709214676.419,-33.691,-34.180,-36.621,-38.574,0.000
1709214676.423,-31.250,-35.645,-35.156,-39.062,0.000
1709214676.427,-28.809,-41.016,-24.414,-26.367,0.000
1709214676.431,-22.461,-34.180,-29.785,-20.508,0.000
1709214676.435,-28.809,-42.480,-35.645,-26.367,0.000
1709214676.439,-42.969,-51.758,-38.574,-29.785,0.000
1709214676.443,-49.316,-51.758,-36.621,-28.809,0.000
1709214676.447,-44.434,-53.711,-28.320,-20.020,0.000
1709214676.451,-44.434,-53.711,-24.902,-22.461,0.000
1709214676.455,-47.363,-62.012,-29.785,-30.762,0.000
1709214676.459,-49.805,-54.688,-31.738,-30.762,0.000
1709214676.462,-53.711,-43.457,-32.227,-33.691,0.000
1709214676.466,-53.223,-42.969,-37.109,-36.621,0.000
1709214676.470,-42.969,-44.434,-34.668,-35.645,0.000
1709214676.474,-38.086,-51.270,-28.809,-35.645,0.000
1709214676.478,-44.434,-55.176,-32.227,-36.621,0.000
1709214676.482,-44.922,-59.570,-34.668,-34.180,0.000
1709214676.486,-41.016,-61.523,-32.227,-36.133,0.000
1709214676.490,-35.645,-55.664,-29.785,-31.738,0.000
1709214676.494,-35.156,-56.152,-25.879,-20.508,0.000
1709214676.498,-38.086,-56.641,-28.320,-24.902,0.000
1709214676.502,-41.016,-45.898,-32.715,-37.109,0.000
1709214676.505,-38.086,-36.621,-33.203,-41.504,0.000
1709214676.509,-34.180,-39.062,-37.109,-50.293,0.000
1709214676.513,-36.621,-47.852,-44.922,-56.152,0.000
1709214676.517,-33.691,-46.387,-47.363,-54.199,0.000
1709214676.521,-30.273,-43.457,-50.781,-46.875,0.000
1709214676.525,-33.203,-43.457,-46.387,-42.480,0.000
1709214676.529,-31.738,-35.645,-38.574,-38.086,0.000
1709214676.533,-22.949,-44.922,-40.039,-30.273,0.000
1709214676.537,-23.926,-57.129,-41.504,-32.227,0.000
1709214676.541,-31.250,-41.504,-35.156,-34.668,0.000
1709214676.545,-24.902,-22.461,-30.273,-28.320,0.000
1709214676.548,-25.391,-33.691,-40.039,-28.809,0.000
1709214676.552,-30.762,-47.852,-41.016,-25.879,0.000
1709214676.556,-38.574,-35.645,-36.133,-33.203,0.000
1709214676.560,-42.480,-29.297,-44.434,-38.574,0.000
1709214676.564,-38.574,-38.086,-44.434,-26.855,0.000
1709214676.568,-37.598,-43.457,-36.133,-21.973,0.000
1709214676.572,-38.574,-50.293,-39.551,-27.832,0.000
1709214676.576,-42.969,-61.523,-42.480,-34.180,0.000
1709214676.580,-53.711,-51.758,-39.062,-36.621,0.000
1709214676.584,-50.293,-36.621,-39.551,-27.832,0.000
1709214676.588,-44.922,-37.598,-39.551,-26.367,0.000
1709214676.591,-46.387,-38.086,-40.039,-35.645,0.000
1709214676.595,-47.852,-41.016,-41.992,-42.969,0.000
1709214676.599,-61.523,-45.410,-42.480,-49.316,0.000
1709214676.603,-62.012,-45.898,-46.387,-50.781,0.000
1709214676.607,-47.363,-44.434,-47.363,-40.527,0.000
1709214676.611,-38.574,-46.875,-41.992,-38.086,0.000
1709214676.615,-34.668,-46.875,-40.039,-42.969,0.000
1709214676.619,-31.250,-42.969,-38.574,-43.945,0.000
1709214676.623,-31.250,-50.781,-36.133,-40.527,0.000
1709214676.627,-33.203,-37.598,-40.527,-36.133,0.000
1709214676.631,-30.273,-26.367,-51.270,-40.527,0.000
1709214676.634,-27.344,-32.715,-47.363,-42.969,0.000
1709214676.638,-29.785,-32.715,-46.875,-49.316,0.000
1709214676.642,-29.785,-37.109,-51.270,-41.504,0.000
1709214676.646,-29.297,-41.504,-50.781,-33.691,0.000
1709214676.650,-31.738,-40.039,-45.410,-44.922,0.000
1709214676.654,-28.320,-37.598,-36.621,-41.504,0.000
1709214676.658,0.000,-34.180,-39.062,-41.992,0.000
1709214676.662,0.000,-42.969,-44.922,-44.922,0.000
1709214676.666,0.000,-56.641,-46.387,-37.109,0.000
1709214676.670,0.000,-46.387,-47.363,-39.551,0.000
1709214676.673,0.000,-34.180,-52.246,-49.805,0.000
1709214676.677,0.000,-32.227,-54.688,-51.270,0.000
1709214676.681,0.000,-36.133,-47.363,-43.457,0.000
1709214676.685,0.000,-38.086,-42.480,-33.203,0.000
1709214676.689,0.000,-36.621,-43.457,-24.902,0.000
1709214676.693,0.000,-41.016,-40.039,-38.574,0.000
1709214676.697,0.000,-40.039,-41.504,-41.992,0.000
1709214676.701,0.000,-34.180,-48.828,-40.039,0.000
1709214676.705,-35.645,-28.809,-41.016,-35.645,0.000
1709214676.709,-37.109,-34.180,-33.691,-35.156,0.000
1709214676.713,-43.457,-40.527,-37.598,-42.480,0.000
1709214676.716,-40.039,-46.875,-33.691,-38.086,0.000
1709214676.720,-43.945,-48.828,-32.227,-38.574,0.000
1709214676.724,-44.434,-39.062,-35.645,-40.039,0.000
1709214676.728,-40.527,-34.668,-31.250,-40.527,0.000
1709214676.732,-42.480,-38.086,-34.668,-37.109,0.000
1709214676.736,-47.852,-41.016,-44.434,-41.016,0.000
1709214676.740,-45.410,-41.992,-45.410,-42.480,0.000
1709214676.744,-45.410,-44.922,-42.480,-35.156,0.000
1709214676.748,-53.223,-51.270,-39.551,-29.785,0.000
1709214676.752,0.000,-58.594,-32.715,0.000,0.000
1709214676.755,0.000,-54.199,-30.273,0.000,0.000
1709214676.759,0.000,-42.480,-27.344,0.000,0.000
1709214676.763,0.000,-39.062,-30.273,0.000,0.000
1709214676.767,0.000,-42.480,-31.738,0.000,0.000
1709214676.771,0.000,-45.898,-29.785,0.000,0.000
1709214676.775,0.000,-41.016,-36.133,0.000,0.000
1709214676.779,0.000,-39.551,-34.180,0.000,0.000
1709214676.783,0.000,-42.480,-26.855,0.000,0.000
1709214676.787,0.000,-39.062,-34.180,0.000,0.000
1709214676.791,0.000,-44.922,-31.250,0.000,0.000
1709214676.794,0.000,-53.223,-22.949,0.000,0.000
1709214676.798,-39.551,-43.945,-28.320,-40.527,0.000
1709214676.802,-51.270,-40.039,-39.062,-47.363,0.000
1709214676.806,-41.504,-41.992,-39.551,-42.480,0.000
1709214676.810,-34.668,-46.875,-35.156,-41.016,0.000
1709214676.814,-41.504,-55.176,-37.109,-38.574,0.000
1709214676.818,-44.434,-52.734,-37.598,-40.527,0.000
1709214676.822,-52.246,-53.223,-35.156,-37.109,0.000
1709214676.826,-57.129,-56.152,-40.039,-37.598,0.000
1709214676.830,-53.223,-45.898,-47.363,-52.734,0.000
1709214676.833,-48.828,-41.992,-48.828,-49.805,0.000
1709214676.837,-51.270,-48.340,-51.270,-49.805,0.000
1709214676.841,-52.734,-40.039,-43.457,-45.898,0.000
1709214676.845,-54.688,-27.832,-39.551,-49.316,0.000
1709214676.849,-48.340,-41.016,-39.062,-46.875,0.000
1709214676.853,-40.527,-43.457,-35.156,-41.992,0.000
1709214676.857,-47.363,-36.133,-37.109,-48.828,0.000
1709214676.861,-52.734,-48.340,-35.645,-50.293,0.000
1709214676.865,-50.293,-58.594,-46.387,-40.039,0.000
1709214676.869,-50.293,-61.035,-52.734,-32.715,0.000
1709214676.872,-53.223,-59.570,-42.969,-35.645,0.000
1709214676.876,-55.664,-57.617,-37.109,-39.062,0.000
1709214676.880,-53.223,-47.363,-34.668,-37.109,0.000
1709214676.884,-51.758,-43.945,-39.062,-32.227,0.000
1709214676.888,-41.504,-43.457,-41.016,-27.344,0.000
1709214676.892,-35.645,-33.691,-34.180,-29.297,0.000
1709214676.896,-38.086,-37.598,-38.086,-41.504,0.000
1709214676.900,-38.086,-44.922,-43.457,-38.574,0.000
1709214676.904,-34.180,-41.992,-37.109,-30.273,0.000
1709214676.908,-26.367,-40.527,-41.504,-29.785,0.000
1709214676.912,-17.090,-47.363,-43.457,-24.414,0.000
1709214676.915,-16.602,-42.480,-38.086,-20.508,0.000
1709214676.919,-28.809,-37.598,-42.480,-22.461,0.000
1709214676.923,-28.320,-40.527,-41.992,-21.973,0.000
1709214676.927,-24.902,-34.668,-36.621,-14.648,0.000
1709214676.931,-37.598,-33.203,-36.621,-22.461,0.000
1709214676.935,-38.574,-38.574,-36.621,-31.738,0.000
1709214676.939,-41.016,-40.527,-38.086,-30.762,0.000
1709214676.943,-50.293,-38.574,-41.016,-33.203,0.000
1709214676.947,-47.852,-33.691,-39.062,-41.992,0.000
1709214676.951,-41.016,-40.527,-41.992,-47.363,0.000
1709214676.955,-40.527,-55.176,-48.828,-48.828,0.000
1709214676.958,-45.410,-54.688,-45.410,-47.363,0.000
1709214676.962,-44.434,-50.781,-30.762,-37.109,0.000
1709214676.966,-43.457,-46.875,-27.344,-43.457,0.000
1709214676.970,-37.109,-44.922,-29.785,-46.875,0.000
1709214676.974,-37.598,-49.805,-31.738,-31.738,0.000
1709214676.978,-46.387,-46.387,-38.086,-37.598,0.000
1709214676.982,-43.457,-42.480,-35.645,-41.504,0.000
1709214676.986,-44.434,-44.434,-35.645,-30.762,0.000
1709214676.990,-41.504,-51.270,-33.691,-27.832,0.000
1709214676.994,-35.645,-50.781,-29.785,-39.551,0.000
1709214676.998,-42.969,-47.852,-36.133,-43.945,0.000
1709214677.001,-47.363,-54.199,-36.133,-36.133,0.000
1709214677.005,-46.875,-50.781,-33.203,-29.785,0.000
1709214677.009,-45.410,-51.270,-36.621,-30.762,0.000
1709214677.013,-35.156,-48.828,-36.621,-33.203,0.000
1709214677.017,-40.039,-43.945,-37.109,-30.273,0.000
1709214677.021,-50.293,-48.340,-40.039,-31.738,0.000
1709214677.025,-46.875,-51.758,-42.969,-39.062,0.000
1709214677.029,-43.457,-50.293,-44.434,-40.039,0.000
1709214677.033,-41.992,-62.012,-43.945,-38.086,0.000
1709214677.037,-38.086,-62.500,-42.480,-36.621,0.000
1709214677.041,-37.109,-45.410,-38.574,-32.227,0.000
1709214677.044,-35.156,-43.457,-38.086,-29.785,0.000
1709214677.048,-32.227,-50.781,-43.457,-34.180,0.000
1709214677.052,-25.391,-49.805,-37.598,-31.250,0.000
1709214677.056,-22.461,-49.805,-28.809,-25.391,0.000
1709214677.060,-37.109,-49.316,-32.715,-25.879,0.000
1709214677.064,-41.992,-37.598,-33.691,-19.531,0.000
1709214677.068,-36.621,-38.574,-41.016,-16.602,0.000
1709214677.072,-30.273,-37.598,-44.922,-22.949,0.000
1709214677.076,-27.344,-33.691,-41.504,-28.320,0.000
1709214677.080,-26.367,-44.434,-39.062,-36.133,0.000
1709214677.083,-20.996,-37.109,-42.969,-36.133,0.000
1709214677.087,-15.137,-26.367,-44.922,-27.344,0.000
1709214677.091,-14.648,-37.109,-43.457,-28.320,0.000
1709214677.095,-19.043,-41.504,-42.480,-32.715,0.000
1709214677.099,-26.855,-41.992,-41.504,-32.715,0.000
1709214677.103,-24.414,-38.574,-42.480,-36.133,0.000
1709214677.107,-14.648,-35.645,-43.945,-32.227,0.000
1709214677.111,-12.207,-42.969,-39.062,-29.785,0.000
1709214677.115,-27.832,-40.039,-42.969,-36.133,0.000
1709214677.119,-32.715,-35.645,-40.039,-34.180,0.000
1709214677.123,-35.156,-37.109,-37.109,-30.273,0.000
1709214677.126,-36.621,-42.480,-45.410,-34.180,0.000
1709214677.130,-28.320,-45.898,-48.340,-42.480,0.000
1709214677.134,-27.832,-37.109,-42.480,-37.109,0.000
1709214677.138,-38.574,-33.691,-35.645,-41.504,0.000
1709214677.142,-42.969,-41.016,-33.203,-53.223,0.000
1709214677.146,-35.645,-47.363,-33.691,-49.805,0.000
1709214677.150,-35.645,-49.316,-32.715,-47.852,0.000
1709214677.154,-42.480,-47.363,-30.273,-45.410,0.000
1709214677.158,-38.574,-50.293,-32.227,-47.852,0.000
1709214677.162,-36.621,-51.270,-36.133,-49.316,0.000
1709214677.165,-41.992,-39.062,-37.109,-44.922,0.000
1709214677.169,-41.016,-41.992,-34.180,-51.270,0.000
1709214677.173,-48.340,-52.246,-35.645,-56.641,0.000
1709214677.177,-58.105,-55.664,-45.898,-57.129,0.000
1709214677.181,-52.246,-57.129,-46.875,-52.246,0.000
1709214677.185,-40.039,-54.688,-43.945,-42.969,0.000
1709214677.189,-27.832,-48.828,-41.992,-38.574,0.000
1709214677.193,-31.250,-50.293,-41.016,-43.457,0.000
1709214677.197,-36.621,-54.688,-42.969,-39.551,0.000
1709214677.201,-29.785,-43.945,-42.969,-25.391,0.000
1709214677.204,-33.691,-42.480,-47.852,-33.203,0.000
1709214677.208,-33.691,-54.199,-48.828,-37.598,0.000
1709214677.212,-25.391,-56.641,-44.434,-31.250,0.000
1709214677.216,-31.250,-43.945,-50.293,-39.062,0.000
1709214677.220,-43.457,-36.621,-52.246,-42.969,0.000
1709214677.224,-44.434,-42.969,-41.504,-41.504,0.000
1709214677.228,-45.898,-50.781,-42.480,-46.875,0.000
1709214677.232,-38.086,-46.875,-39.551,-43.457,0.000
1709214677.236,-43.457,-49.805,-31.250,-41.992,0.000
1709214677.240,-50.781,-56.641,-33.203,-43.457,0.000
1709214677.244,-44.922,-45.410,-35.156,-28.320,0.000
1709214677.247,-45.898,-38.086,-43.457,-34.180,0.000
1709214677.251,-42.480,-47.852,-47.852,-47.363,0.000
1709214677.255,-41.992,-48.828,-42.969,-44.434,0.000
1709214677.259,-46.875,-43.457,-33.691,-43.457,0.000
1709214677.263,-54.199,-52.246,-37.109,-49.805,0.000
1709214677.267,-46.875,-45.898,-44.434,-50.293,0.000
1709214677.271,-40.527,-33.203,-37.109,-48.828,0.000
1709214677.275,-46.387,-42.480,-40.527,-57.617,0.000
1709214677.279,-57.617,-54.688,-49.805,-59.570,0.000
1709214677.283,-57.617,-48.828,-44.922,-52.246,0.000
1709214677.286,-45.410,-42.969,-43.945,-48.340,0.000
1709214677.290,-40.039,-36.621,-43.457,-41.016,0.000
1709214677.294,-46.387,-45.898,-41.504,-41.504,0.000
1709214677.298,-54.688,-66.895,-38.086,-42.969,0.000
1709214677.302,-46.387,-67.871,-29.785,-23.926,0.000
1709214677.306,-32.715,-49.316,-36.133,-17.578,0.000
1709214677.310,-37.109,-33.203,-45.410,-36.621,0.000
1709214677.314,-40.527,-36.133,-40.039,-40.527,0.000
1709214677.318,-34.180,-40.039,-37.109,-34.180,0.000
1709214677.322,-32.227,-33.203,-36.621,-36.133,0.000
1709214677.326,-33.691,-40.039,-41.992,-34.668,0.000
1709214677.329,-29.785,-41.504,-42.480,-26.855,0.000
1709214677.333,-36.621,-35.156,-40.527,-31.250,0.000
1709214677.337,-51.758,-41.992,-42.480,-49.316,0.000
1709214677.341,-41.016,-48.828,-39.551,-41.504,0.000
1709214677.345,-32.227,-48.828,-39.551,-23.926,0.000
1709214677.349,-43.457,-41.504,-47.363,-30.762,0.000
1709214677.353,-56.641,-41.016,-50.781,-43.457,0.000
1709214677.357,-55.176,-51.270,-38.086,-40.039,0.000
1709214677.361,-49.805,-52.246,-37.598,-33.691,0.000
1709214677.365,-51.758,-45.898,-45.410,-33.203,0.000
1709214677.369,-43.457,-41.016,-37.109,-25.391,0.000
1709214677.372,-39.551,-44.922,-34.180,-25.879,0.000
1709214677.376,-39.551,-36.133,-39.062,-32.715,0.000
1709214677.380,-52.246,-33.691,-39.062,-36.621,0.000
1709214677.384,-59.570,-47.363,-34.180,-41.016,0.000
1709214677.388,-52.734,-48.340,-34.668,-44.922,0.000
1709214677.392,-51.758,-41.504,-45.898,-39.062,0.000
1709214677.396,-45.410,-34.180,-49.316,-35.156,0.000
1709214677.400,-50.781,-39.062,-40.039,-43.945,0.000
1709214677.404,-59.082,-41.504,-37.598,-45.898,0.000
1709214677.408,-47.363,-36.621,-34.180,-41.016,0.000
1709214677.411,-41.992,-38.086,-38.574,-41.016,0.000
1709214677.415,-45.410,-34.180,-45.410,-41.504,0.000
1709214677.419,-41.016,-34.668,-37.109,-37.109,0.000
1709214677.423,-33.203,-46.875,-37.109,-33.203,0.000
1709214677.427,-28.809,-44.434,-41.992,-32.227,0.000
1709214677.431,-28.320,-34.668,-43.457,-32.227,0.000
1709214677.435,-28.809,-36.621,-46.875,-29.297,0.000
1709214677.439,-27.344,-29.785,-38.086,-22.949,0.000
1709214677.443,-28.809,-24.414,-33.203,-26.367,0.000
1709214677.447,-35.156,-35.645,-43.457,-26.855,0.000
1709214677.451,-35.645,-36.621,-42.969,-27.344,0.000
1709214677.454,-31.738,-40.527,-36.621,-26.855,0.000
1709214677.458,-35.156,-44.434,-35.645,-25.391,0.000
1709214677.462,-39.551,-37.598,-41.504,-27.344,0.000
1709214677.466,-36.621,-37.598,-38.574,-28.320,0.000
1709214677.470,-31.250,-35.156,-34.180,-29.785,0.000
1709214677.474,-27.344,-31.250,-33.691,-31.738,0.000
1709214677.478,-28.320,-39.551,-31.738,-33.203,0.000
1709214677.482,-35.156,-46.387,-45.898,-20.996,0.000
1709214677.486,-36.621,-40.039,-50.781,-18.066,0.000
1709214677.490,-30.762,-37.109,-37.598,-27.344,0.000
1709214677.493,-35.645,-50.293,-35.645,-36.621,0.000
1709214677.497,-45.410,-53.223,-41.992,-44.434,0.000
1709214677.501,-50.293,-39.062,-47.363,-42.480,0.000
1709214677.505,-45.410,-34.668,-44.922,-36.621,0.000
1709214677.509,-32.227,-38.086,-39.551,-29.785,0.000
1709214677.513,-28.809,-39.062,-36.133,-37.598,0.000
1709214677.517,-33.691,-38.574,-43.945,-49.316,0.000
1709214677.521,-30.273,-41.992,-51.270,-46.875,0.000
1709214677.525,-23.438,-39.551,-44.434,-36.133,0.000
1709214677.529,-24.414,-41.504,-43.457,-37.109,0.000
1709214677.532,-24.414,-48.340,-43.457,-46.875,0.000
1709214677.536,-23.926,-43.945,-38.086,-50.293,0.000
1709214677.540,-27.832,-46.387,-43.457,-49.805,0.000
1709214677.544,-27.344,-45.898,-49.805,-39.062,0.000
1709214677.548,-20.996,-42.969,-46.387,-36.621,0.000
1709214677.552,-17.578,-46.875,-41.504,-40.039,0.000
1709214677.556,-18.555,-40.039,-42.480,-39.551,0.000
1709214677.560,-27.344,-25.391,-40.527,-37.598,0.000
1709214677.564,-23.926,-26.367,-39.062,-33.691,0.000
1709214677.568,-25.391,-34.668,-38.574,-29.297,0.000
1709214677.571,-36.133,-44.434,-40.039,-23.926,0.000
1709214677.575,-38.574,-50.781,-46.875,-23.926,0.000
1709214677.579,-41.992,-51.270,-47.363,-30.273,0.000
1709214677.583,-45.410,-44.434,-35.156,-27.344,0.000
1709214677.587,-39.062,-31.250,-32.227,-27.344,0.000
1709214677.591,-37.109,-32.715,-40.039,-43.945,0.000
1709214677.595,-42.480,-40.039,-42.480,-47.363,0.000
1709214677.599,-48.340,-34.668,-34.668,-38.574,0.000
1709214677.603,-55.176,-37.109,-39.551,-40.039,0.000
1709214677.607,-53.711,-44.434,-47.363,-44.922,0.000
1709214677.610,-49.805,-41.016,-48.340,-49.316,0.000
1709214677.614,-40.039,-49.805,-42.969,-49.316,0.000
1709214677.618,-40.527,-45.410,-39.062,-37.109,0.000
1709214677.622,-44.434,-33.203,-41.016,-32.715,0.000
1709214677.626,-35.645,-35.645,-39.062,-39.551,0.000
1709214677.630,-26.855,-42.480,-38.086,-39.062,0.000
1709214677.634,-23.926,-42.969,-36.133,-37.598,0.000
1709214677.638,-35.645,-40.527,-37.598,-33.203,0.000
1709214677.642,-45.898,-51.270,-44.922,-32.715,0.000
1709214677.646,-42.969,-54.688,-45.898,-33.691,0.000
1709214677.650,-40.527,-47.363,-42.480,-40.527,0.000
1709214677.653,-39.062,-46.875,-41.992,-44.434,0.000
1709214677.657,-43.945,-49.805,-44.922,-43.945,0.000
1709214677.661,-44.922,-55.664,-32.227,-35.645,0.000
1709214677.665,-39.551,-54.688,-41.992,-28.320,0.000
1709214677.669,-34.180,-46.875,-53.711,-30.273,0.000
1709214677.673,-35.156,-41.504,-39.062,-30.762,0.000
1709214677.677,-37.109,-47.852,-39.551,-28.809,0.000
1709214677.681,-36.133,-54.199,-38.086,-22.461,0.000
1709214677.685,-35.156,-49.316,-36.133,-26.855,0.000
1709214677.689,-37.598,-49.805,-32.715,-30.762,0.000
1709214677.693,-41.992,-55.664,-31.738,-30.273,0.000
1709214677.696,-47.363,-57.617,-34.180,-35.645,0.000
1709214677.700,-47.363,-42.969,-31.738,-34.180,0.000
1709214677.704,-41.016,-45.410,-35.645,-26.855,0.000
1709214677.708,-41.504,-64.453,-41.992,-29.785,0.000
1709214677.712,-47.363,-55.664,-41.016,-28.809,0.000
1709214677.716,-57.129,-41.016,-42.969,-38.574,0.000
1709214677.720,-63.965,-46.875,-45.410,-46.875,0.000
1709214677.724,-58.594,-54.199,-49.316,-38.574,0.000
1709214677.728,-53.711,-47.852,-53.711,-39.062,0.000
1709214677.732,-54.199,-42.480,-52.734,-47.363,0.000
1709214677.736,-49.316,-45.898,-49.805,-52.734,0.000
1709214677.739,-54.199,-53.223,-44.434,-48.828,0.000
1709214677.743,-60.547,-54.199,-44.922,-51.270,0.000
1709214677.747,-42.969,-53.223,-44.434,-47.852,0.000
1709214677.751,-27.344,-51.758,-43.457,-36.133,0.000
1709214677.755,-31.250,-59.570,-49.316,-40.039,0.000
1709214677.759,-38.574,-57.617,-46.875,-47.363,0.000
1709214677.763,-38.086,-45.410,-42.480,-45.898,0.000
1709214677.767,-31.738,-53.223,-39.062,-35.156,0.000
1709214677.771,-32.715,-51.270,-39.551,-35.645,0.000
1709214677.775,-36.621,-41.992,-40.039,-40.527,0.000
1709214677.778,-39.551,-44.922,-38.086,-37.109,0.000
1709214677.782,-39.062,-55.664,-36.133,-27.832,0.000
1709214677.786,-37.598,-67.383,-32.715,-21.973,0.000
1709214677.790,-34.668,-67.871,-36.133,-31.738,0.000
1709214677.794,-36.133,-54.688,-33.691,-31.250,0.000
1709214677.798,-53.223,-47.852,-33.691,-32.715,0.000
1709214677.802,-50.293,-49.316,-37.598,-36.621,0.000
1709214677.806,-42.480,-47.363,-37.598,-33.691,0.000
1709214677.810,-40.527,-44.922,-34.668,-35.645,0.000
1709214677.814,-45.898,-47.363,-39.551,-42.969,0.000
1709214677.818,-41.504,-44.922,-37.109,-41.504,0.000
1709214677.821,-35.645,-39.551,-32.227,-38.574,0.000
1709214677.825,-37.109,-37.598,-40.039,-41.992,0.000
1709214677.829,-29.785,-45.898,-48.828,-45.898,0.000
1709214677.833,-27.832,-49.316,-53.223,-41.992,0.000
1709214677.837,-30.762,-49.316,-49.316,-41.992,0.000
1709214677.841,-32.715,-50.781,-36.621,-43.457,0.000
1709214677.845,-32.715,-45.898,-29.297,-34.668,0.000
1709214677.849,-35.156,-43.945,-40.527,-39.551,0.000
1709214677.853,-28.809,-43.457,-41.504,-41.992,0.000
1709214677.857,-22.461,-42.969,-33.691,-24.902,0.000
1709214677.860,-35.156,-43.945,-43.945,-28.320,0.000
1709214677.864,-35.645,-51.758,-50.293,-40.527,0.000
1709214677.868,-28.320,-56.152,-48.340,-40.527,0.000
1709214677.872,-22.461,-51.270,-41.504,-40.527,0.000
1709214677.876,-24.414,-55.664,-36.621,-34.180,0.000
1709214677.880,-35.645,-54.688,-43.457,-28.809,0.000
1709214677.884,-30.273,-43.945,-36.133,-20.020,0.000
1709214677.888,-18.066,-44.434,-31.250,-8.789,0.000
1709214677.892,-19.043,-52.246,-41.016,-7.812,0.000
1709214677.896,-26.855,-50.293,-43.945,-17.578,0.000
1709214677.900,-29.297,-49.316,-43.457,-14.160,0.000
1709214677.903,-30.273,-44.922,-41.016,-3.418,0.000
1709214677.907,-26.367,-41.992,-38.574,-8.789,0.000
1709214677.911,-20.020,-40.527,-38.574,-13.672,0.000
1709214677.915,-25.879,-41.504,-42.480,-24.902,0.000
1709214677.919,-35.156,-43.945,-33.691,-25.879,0.000
1709214677.923,-33.691,-39.551,-25.391,-15.137,0.000
1709214677.927,-28.809,-37.598,-26.367,-13.184,0.000
1709214677.931,-39.062,-35.156,-37.109,-28.320,0.000
1709214677.935,-44.922,-28.809,-49.805,-41.504,0.000
1709214677.939,-44.922,-33.203,-38.574,-43.945,0.000
1709214677.943,-52.734,-35.645,-34.668,-47.363,0.000
1709214677.946,-49.316,-35.156,-41.016,-40.039,0.000
1709214677.950,-41.504,-39.551,-38.574,-31.250,0.000
1709214677.954,-49.805,-44.434,-37.109,-34.180,0.000
1709214677.958,-48.340,-45.898,-40.039,-30.273,0.000
1709214677.962,-44.434,-42.969,-41.016,-32.227,0.000
1709214677.966,-46.875,-41.992,-47.852,-32.227,0.000
1709214677.970,-48.828,-45.410,-51.758,-32.227,0.000
1709214677.974,-41.016,-54.199,-47.363,-35.645,0.000
1709214677.978,-31.250,-56.641,-44.922,-37.109,0.000
1709214677.982,-36.133,-39.551,-46.387,-32.715,0.000
1709214677.985,-43.945,-38.086,-51.270,-26.367,0.000
1709214677.989,-38.574,-42.480,-46.875,-24.902,0.000
1709214677.993,-29.297,-43.945,-32.715,-27.832,0.000
1709214677.997,-36.621,-52.734,-36.621,-28.809,0.000
1709214678.001,-38.574,-57.617,-43.945,-24.414,0.000
1709214678.005,-24.902,-51.758,-32.715,-16.113,0.000
1709214678.009,-20.020,-49.316,-25.391,-15.137,0.000
1709214678.013,-26.367,-51.758,-36.621,-31.250,0.000
1709214678.017,-32.227,-48.340,-44.922,-35.156,0.000
1709214678.021,-38.574,-56.152,-47.852,-29.785,0.000
1709214678.024,-37.109,-51.270,-44.434,-33.203,0.000
1709214678.028,-37.598,-42.969,-46.387,-43.457,0.000
1709214678.032,-36.133,-40.527,-54.199,-46.387,0.000
1709214678.036,-28.809,-41.504,-53.711,-42.480,0.000
1709214678.040,-32.227,-44.922,-50.293,-40.039,0.000
1709214678.044,-40.039,-47.363,-50.293,-30.762,0.000
1709214678.048,-39.062,-51.758,-54.199,-25.391,0.000
1709214678.052,-32.715,-43.945,-55.176,-27.344,0.000
1709214678.056,-35.645,-28.809,-55.176,-32.227,0.000
1709214678.060,-40.039,-25.391,-54.688,-32.715,0.000
1709214678.064,-41.016,-31.738,-54.199,-25.879,0.000
1709214678.067,-31.738,-31.738,-47.852,-23.926,0.000
1709214678.071,-22.461,-33.203,-55.664,-28.320,0.000
1709214678.075,-24.414,-31.738,-61.035,-34.180,0.000
1709214678.079,-29.297,-34.668,-57.129,-31.250,0.000
1709214678.083,-21.484,-32.227,-57.617,-26.367,0.000
1709214678.087,-14.648,-28.320,-54.199,-25.879,0.000
1709214678.091,-22.461,-38.574,-58.105,-36.621,0.000
1709214678.095,-27.832,-36.133,-54.199,-41.504,0.000
1709214678.099,-33.691,-36.621,-49.805,-38.086,0.000
1709214678.103,-38.086,-42.480,-54.688,-40.039,0.000
1709214678.106,-47.363,-42.969,-62.500,-44.922,0.000
1709214678.110,-51.758,-43.457,-62.988,-44.434,0.000
1709214678.114,-45.898,-39.062,-57.129,-41.992,0.000
1709214678.118,-51.758,-37.598,-58.594,-49.805,0.000
1709214678.122,-54.688,-42.969,-54.688,-49.805,0.000
1709214678.126,-41.016,-41.016,-45.898,-44.922,0.000
1709214678.130,-47.852,-41.504,-41.992,-47.852,0.000
1709214678.134,-55.664,-41.016,-33.203,-52.246,0.000
1709214678.138,-58.105,-36.621,-30.273,-56.152,0.000
1709214678.142,-68.359,-44.434,-32.715,-44.922,0.000
1709214678.146,-65.430,-35.645,-31.738,-39.062,0.000
1709214678.149,-55.664,-27.832,-28.809,-44.434,0.000
1709214678.153,-54.199,-41.504,-20.996,-40.039,0.000
1709214678.157,-49.805,-44.922,-24.902,-37.109,0.000
1709214678.161,-53.711,-44.922,-36.621,-35.156,0.000
1709214678.165,-52.734,-41.504,-29.785,-36.133,0.000
1709214678.169,-45.410,-45.410,-26.367,-42.480,0.000
1709214678.173,-36.621,-42.969,-36.133,-41.504,0.000
1709214678.177,-30.273,-38.574,-41.504,-38.086,0.000
1709214678.181,-31.250,-44.922,-46.875,-40.527,0.000
1709214678.185,-32.715,-35.645,-52.734,-39.062,0.000
1709214678.189,-33.203,-30.762,-58.105,-33.203,0.000
1709214678.192,-24.414,-36.133,-56.152,-32.227,0.000
1709214678.196,-17.090,-43.457,-45.898,-37.598,0.000
1709214678.200,-25.391,-46.875,-41.504,-33.203,0.000
1709214678.204,-25.391,-40.527,-41.992,-21.484,0.000
1709214678.208,-26.855,-36.133,-46.387,-24.414,0.000
1709214678.212,-29.297,-31.738,-44.434,-36.133,0.000
1709214678.216,-32.227,-36.621,-41.016,-47.363,0.000
1709214678.220,-41.504,-45.410,-44.922,-49.316,0.000
1709214678.224,-38.086,-53.223,-41.992,-37.598,0.000
1709214678.228,-37.109,-58.594,-30.273,-38.574,0.000
1709214678.231,-42.969,-41.504,-20.508,-40.039,0.000
1709214678.235,-45.898,-36.133,-22.949,-42.480,0.000
1709214678.239,-48.828,-36.133,-26.855,-49.316,0.000
1709214678.243,-44.434,-36.133,-15.625,-42.969,0.000
1709214678.247,-54.199,-62.500,-17.090,-48.340,0.000
1709214678.251,-55.176,-62.500,-26.855,-52.734,0.000
1709214678.255,-50.781,-46.387,-33.691,-56.641,0.000
1709214678.259,-52.734,-42.969,-25.391,-55.664,0.000
1709214678.263,-51.758,-38.574,-20.996,-51.758,0.000
1709214678.267,-48.828,-32.715,-22.461,-47.363,0.000
1709214678.270,-50.293,-40.527,-22.949,-53.223,0.000
1709214678.274,-50.293,-44.434,-29.785,-51.758,0.000
1709214678.278,-46.875,-37.109,-27.344,-39.551,0.000
1709214678.282,-47.363,-45.410,-25.391,-45.410,0.000
1709214678.286,-42.480,-51.270,-29.297,-47.852,0.000
1709214678.290,-39.551,-43.457,-26.367,-37.109,0.000
1709214678.294,-44.922,-41.016,-22.461,-38.574,0.000
1709214678.298,-51.758,-43.945,-25.391,-44.922,0.000
1709214678.302,-50.781,-39.551,-25.391,-41.016,0.000
1709214678.306,-40.527,-36.133,-26.367,-33.691,0.000
1709214678.309,-42.480,-39.551,-34.180,-32.227,0.000
1709214678.313,-40.039,-47.363,-33.203,-39.062,0.000
1709214678.317,-40.527,-52.734,-37.109,-40.039,0.000
1709214678.321,-41.016,-46.875,-34.668,-25.391,0.000
1709214678.325,-36.133,-46.387,-25.879,-25.879,0.000
1709214678.329,-37.598,-55.664,-29.785,-40.527,0.000
1709214678.333,-33.203,-57.129,-29.297,-44.434,0.000
1709214678.337,-37.598,-48.340,-33.691,-44.922,0.000
1709214678.341,-44.922,-53.223,-32.715,-43.457,0.000
1709214678.345,-43.457,-57.129,-29.297,-44.922,0.000
1709214678.348,-41.016,-42.480,-33.691,-42.969,0.000
1709214678.352,-37.598,-32.227,-33.203,-35.156,0.000
1709214678.356,-45.410,-44.434,-25.391,-33.691,0.000
1709214678.360,-52.734,-57.617,-30.273,-41.992,0.000
1709214678.364,-50.781,-47.852,-44.434,-49.316,0.000
1709214678.368,-48.340,-46.875,-38.086,-40.039,0.000
1709214678.372,-52.246,-46.875,-35.645,-41.016,0.000
1709214678.376,-56.641,-40.527,-47.852,-48.340,0.000
1709214678.380,-53.711,-35.156,-45.898,-48.828,0.000
1709214678.384,-52.246,-40.039,-41.016,-53.223,0.000
1709214678.387,-47.363,-56.152,-37.598,-51.270,0.000
1709214678.391,-49.805,-66.895,-39.062,-56.152,0.000
1709214678.395,-49.316,-52.246,-32.715,-60.547,0.000
1709214678.399,-38.574,-37.598,-25.879,-45.410,0.000
1709214678.403,-46.875,-43.457,-39.551,-40.039,0.000
1709214678.407,-50.293,-45.410,-42.480,-44.922,0.000
1709214678.411,-40.527,-44.434,-40.527,-37.598,0.000
1709214678.415,-38.086,-46.387,-34.668,-38.086,0.000
1709214678.419,-43.457,-50.293,-28.809,-39.062,0.000
1709214678.423,-44.922,-51.758,-34.180,-31.738,0.000
1709214678.426,-35.156,-45.410,-36.621,-24.902,0.000
1709214678.430,-30.762,-45.410,-36.621,-22.461,0.000
1709214678.434,-40.039,-55.664,-31.738,-30.273,0.000
1709214678.438,-38.574,-52.734,-30.273,-26.367,0.000
1709214678.442,-39.551,-44.922,-35.156,-17.578,0.000
1709214678.446,-39.062,-49.316,-39.062,-19.531,0.000
1709214678.450,-25.391,-45.898,-40.039,-24.902,0.000
1709214678.454,-30.273,-39.062,-45.898,-28.320,0.000
1709214678.458,-38.574,-37.598,-46.875,-23.438,0.000
1709214678.462,-35.645,-38.574,-41.016,-17.578,0.000
1709214678.466,-38.574,-38.086,-43.457,-24.414,0.000
1709214678.469,-36.133,-41.992,-44.922,-32.715,0.000
1709214678.473,-42.480,-45.410,-46.387,-41.504,0.000
1709214678.477,-51.758,-39.062,-52.246,-53.711,0.000
1709214678.481,-40.039,-37.598,-45.898,-47.363,0.000
1709214678.485,-34.668,-40.527,-38.086,-40.039,0.000
1709214678.489,-39.062,-40.039,-42.969,-52.246,0.000
1709214678.493,-38.086,-40.039,-40.039,-48.340,0.000
1709214678.497,-42.480,-37.109,-27.344,-40.039,0.000
1709214678.501,-47.852,-37.598,-28.809,-48.340,0.000
1709214678.505,-44.922,-36.621,-31.738,-50.781,0.000
1709214678.509,-39.551,-42.480,-34.180,-46.387,0.000
1709214678.513,-29.297,-47.852,-39.551,-44.922,0.000
1709214678.516,-29.785,-46.875,-42.480,-37.109,0.000
1709214678.520,-35.645,-47.363,-38.574,-30.273,0.000
1709214678.524,-31.250,-45.410,-27.832,-33.691,0.000
1709214678.528,-32.227,-54.199,-27.344,-36.621,0.000
1709214678.532,-29.297,-52.246,-28.320,-36.133,0.000
1709214678.536,-26.367,-43.945,-32.715,-41.504,0.000
1709214678.540,-25.879,-42.969,-31.738,-37.598,0.000
1709214678.544,-22.949,-38.086,-30.273,-25.879,0.000
1709214678.548,-18.066,-35.645,-36.621,-16.602,0.000
1709214678.552,-17.578,-37.109,-38.086,-23.438,0.000
1709214678.555,-20.996,-34.668,-41.992,-37.109,0.000
1709214678.559,-16.602,-39.062,-36.621,-28.809,0.000
1709214678.563,-11.230,-48.828,-30.273,-9.277,0.000
1709214678.567,-16.113,-47.363,-41.016,-27.344,0.000
1709214678.571,-28.809,-44.434,-42.969,-46.875,0.000
1709214678.575,-37.109,-46.875,-39.551,-49.805,0.000
1709214678.579,-42.969,-46.387,-44.922,-48.828,0.000
1709214678.583,-44.922,-46.875,-44.922,-39.551,0.000
1709214678.587,-38.574,-45.898,-39.062,-33.203,0.000
1709214678.591,-35.645,-42.969,-39.062,-25.879,0.000
1709214678.595,-38.086,-37.109,-49.316,-33.203,0.000
1709214678.598,-38.086,-29.297,-48.340,-36.133,0.000
1709214678.602,-39.062,-35.156,-38.086,-32.227,0.000
1709214678.606,-32.227,-44.922,-38.574,-20.508,0.000
1709214678.610,-25.879,-43.457,-42.480,-30.273,0.000
1709214678.614,-26.855,-39.551,-42.969,-42.480,0.000
1709214678.618,-29.297,-45.898,-44.434,-36.621,0.000
1709214678.622,-30.762,-41.016,-40.527,-32.715,0.000
1709214678.626,-30.273,-25.391,-42.480,-29.297,0.000
1709214678.630,-30.273,-28.809,-52.734,-36.133,0.000
1709214678.634,-29.297,-40.527,-47.363,-39.062,0.000
1709214678.637,-43.457,-43.457,-39.062,-49.316,0.000
1709214678.641,-50.293,-45.410,-34.180,-52.734,0.000
1709214678.645,-48.340,-46.875,-31.738,-42.969,0.000
1709214678.649,-48.340,-48.828,-37.109,-40.039,0.000
1709214678.653,-42.480,-55.664,-38.574,-43.457,0.000
1709214678.657,-53.223,-50.781,-40.039,-53.223,0.000
1709214678.661,-56.641,-49.316,-41.504,-47.852,0.000
1709214678.665,-48.340,-51.270,-41.016,-33.203,0.000
1709214678.669,-45.898,-54.688,-35.156,-44.434,0.000
1709214678.673,-38.086,-55.176,-31.738,-51.758,0.000
1709214678.676,-32.227,-44.434,-39.551,-41.992,0.000
1709214678.680,-31.738,-41.992,-39.551,-30.762,0.000
1709214678.684,-31.738,-46.387,-32.715,-24.902,0.000
1709214678.688,-30.762,-51.270,-36.133,-25.879,0.000
1709214678.692,-30.762,-50.781,-36.621,-32.227,0.000
1709214678.696,-36.133,-50.781,-31.738,-30.762,0.000
1709214678.700,-37.598,-52.734,-28.809,-24.902,0.000
1709214678.704,-36.621,-46.875,-31.250,-29.297,0.000
1709214678.708,-40.527,-43.945,-40.039,-33.203,0.000
1709214678.712,-33.203,-40.039,-37.598,-30.762,0.000
1709214678.715,-35.645,-42.969,-34.668,-29.297,0.000
1709214678.719,-42.480,-35.156,-39.551,-34.668,0.000
1709214678.723,-29.297,-26.367,-32.715,-30.273,0.000
1709214678.727,-32.227,-38.574,-34.668,-36.621,0.000
1709214678.731,-41.016,-43.457,-43.945,-42.969,0.000
1709214678.735,-41.016,-43.457,-45.898,-38.086,0.000
1709214678.739,-39.551,-43.457,-41.504,-36.621,0.000
1709214678.743,-30.273,-33.691,-37.598,-28.320,0.000
1709214678.747,-29.785,-30.273,-41.016,-28.320,0.000
1709214678.751,-33.203,-38.574,-42.969,-32.227,0.000
1709214678.754,-29.297,-35.156,-30.762,-24.902,0.000
1709214678.758,-38.574,-41.016,-38.574,-34.180,0.000
1709214678.762,-45.898,-54.199,-41.504,-41.992,0.000
1709214678.766,-37.598,-55.664,-28.809,-37.109,0.000
1709214678.770,-33.203,-46.875,-27.832,-33.691,0.000
1709214678.774,-32.715,-37.598,-29.297,-35.645,0.000
1709214678.778,-41.504,-37.598,-32.227,-46.875,0.000
1709214678.782,-50.781,-35.645,-32.715,-42.480,0.000
1709214678.786,-46.387,-41.504,-30.273,-32.715,0.000
1709214678.790,-44.922,-46.875,-28.809,-35.156,0.000
1709214678.794,-47.852,-46.387,-28.809,-41.016,0.000
1709214678.797,-40.039,-47.363,-23.926,-35.645,0.000
1709214678.801,-41.016,-57.617,-27.832,-24.414,0.000
1709214678.805,-47.852,-54.688,-38.086,-31.738,0.000
1709214678.809,-45.410,-45.898,-36.133,-41.992,0.000
1709214678.813,-43.945,-51.270,-31.250,-42.480,0.000
1709214678.817,-51.758,-51.758,-30.762,-48.828,0.000
1709214678.821,-53.223,-39.062,-35.645,-49.316,0.000
1709214678.825,-50.293,-38.086,-38.086,-50.781,0.000
1709214678.829,-49.805,-47.852,-38.086,-58.105,0.000
1709214678.833,-52.246,-46.875,-43.457,-56.152,0.000
1709214678.837,-52.246,-38.086,-38.574,-45.410,0.000
1709214678.841,-45.898,-35.156,-41.992,-34.668,0.000
1709214678.844,-43.457,-50.781,-50.293,-32.715,0.000
1709214678.848,-29.297,-57.129,-31.250,-22.949,0.000
1709214678.852,-27.344,-45.410,-29.785,-37.109,0.000
1709214678.856,-36.621,-39.551,-35.645,-51.758,0.000
1709214678.860,-39.062,-31.738,-33.691,-42.480,0.000
1709214678.864,-33.691,-28.320,-38.086,-31.738,0.000
1709214678.868,-34.668,-42.480,-40.527,-32.227,0.000
1709214678.872,-37.109,-45.410,-38.574,-38.574,0.000
1709214678.876,-30.762,-32.715,-34.180,-29.785,0.000
1709214678.880,-34.180,-31.250,-35.156,-23.438,0.000
1709214678.884,-41.016,-47.363,-36.621,-38.574,0.000
1709214678.887,-35.645,-48.828,-32.715,-39.551,0.000
1709214678.891,-34.668,-38.574,-36.621,-24.902,0.000
1709214678.895,-44.922,-38.086,-41.504,-23.926,0.000
1709214678.899,-46.875,-37.109,-41.016,-32.227,0.000
1709214678.903,-43.945,-36.621,-42.480,-35.645,0.000
1709214678.907,-34.668,-38.086,-35.645,-28.320,0.000
1709214678.911,-29.785,-40.527,-32.715,-35.645,0.000
1709214678.915,-37.109,-40.039,-35.645,-43.945,0.000
1709214678.919,-41.504,-50.293,-30.762,-40.039,0.000
1709214678.923,-36.133,-48.828,-37.598,-41.504,0.000
1709214678.926,-33.691,-41.992,-41.992,-45.410,0.000
1709214678.930,-41.504,-49.805,-39.551,-52.734,0.000
1709214678.934,-47.363,-52.734,-37.109,-59.082,0.000
1709214678.938,-49.316,-53.711,-38.574,-48.828,0.000
1709214678.942,-51.758,-50.293,-41.992,-43.945,0.000
1709214678.946,-52.734,-46.875,-39.551,-58.105,0.000
1709214678.950,-45.410,-43.945,-32.715,-59.082,0.000
1709214678.954,-45.410,-51.270,-29.297,-53.711,0.000
1709214678.958,-55.176,-59.082,-41.992,-56.641,0.000
1709214678.962,-58.105,-49.805,-46.875,-58.594,0.000
1709214678.966,-47.852,-37.109,-35.645,-47.852,0.000
1709214678.969,-52.246,-38.574,-33.691,-49.316,0.000
1709214678.973,-62.012,-43.457,-43.457,-64.453,0.000
1709214678.977,-64.453,-41.504,-42.969,-66.895,0.000
1709214678.981,-61.035,-44.434,-35.156,-52.734,0.000
1709214678.985,-46.387,-45.898,-37.109,-37.109,0.000
1709214678.989,-39.062,-40.039,-44.434,-32.715,0.000
1709214678.993,-37.109,-41.992,-50.293,-36.133,0.000
1709214678.997,-38.086,-47.852,-52.246,-36.621,0.000
1709214679.001,-41.016,-42.969,-47.363,-32.715,0.000
1709214679.005,-35.156,-36.133,-47.363,-30.273,0.000
1709214679.008,-25.879,-24.414,-43.457,-25.879,0.000
1709214679.012,-28.320,-34.668,-41.992,-33.203,0.000
1709214679.016,-28.320,-45.410,-34.668,-33.691,0.000
1709214679.020,-27.832,-42.969,-34.180,-28.320,0.000
1709214679.024,-30.273,-43.945,-40.039,-26.367,0.000
1709214679.028,-29.785,-43.945,-35.645,-16.602,0.000
1709214679.032,-28.320,-43.945,-37.598,-23.438,0.000
1709214679.036,-26.367,-41.504,-38.086,-31.738,0.000
1709214679.040,-25.391,-43.945,-34.180,-30.762,0.000
1709214679.044,-28.809,-50.781,-34.668,-35.156,0.000
1709214679.047,-30.273,-35.156,-32.715,-30.273,0.000
1709214679.051,-32.227,-29.297,-29.785,-30.273,0.000
1709214679.055,-42.969,-43.457,-37.598,-40.527,0.000
1709214679.059,-42.969,-45.410,-41.016,-39.062,0.000
1709214679.063,-42.480,-43.457,-34.668,-37.109,0.000
1709214679.067,-42.969,-43.945,-31.250,-42.480,0.000
1709214679.071,-40.039,-53.711,-39.062,-34.668,0.000
1709214679.075,-43.945,-61.035,-42.969,-30.762,0.000
1709214679.079,-49.316,-55.664,-40.527,-48.340,0.000
1709214679.083,-51.270,-46.875,-37.109,-47.363,0.000
1709214679.086,-52.734,-47.363,-38.086,-38.086,0.000
1709214679.090,-46.387,-42.969,-42.480,-39.551,0.000
1709214679.094,-35.156,-39.062,-38.574,-32.715,0.000
1709214679.098,-38.086,-46.875,-37.109,-23.438,0.000
1709214679.102,-45.898,-47.852,-36.133,-27.832,0.000
1709214679.106,-36.133,-35.645,-35.156,-36.621,0.000
1709214679.110,-29.297,-30.273,-37.109,-44.434,0.000
1709214679.114,-26.855,-40.039,-38.574,-45.898,0.000
1709214679.118,-27.344,-37.598,-31.250,-24.902,0.000
1709214679.122,-35.645,-30.762,-34.668,-22.461,0.000
1709214679.125,-33.203,-36.621,-41.992,-31.250,0.000
1709214679.129,-29.297,-42.969,-47.852,-29.785,0.000
1709214679.133,-30.273,-50.293,-47.363,-31.738,0.000
1709214679.137,-31.250,-51.758,-33.203,-27.344,0.000
1709214679.141,-34.180,-59.570,-33.691,-27.832,0.000
1709214679.145,-26.855,-64.941,-40.527,-26.855,0.000
1709214679.149,-19.531,-52.734,-44.922,-25.391,0.000
1709214679.153,-27.832,-50.293,-41.504,-28.809,0.000
1709214679.157,-37.598,-56.641,-31.250,-27.832,0.000
1709214679.161,-41.016,-50.781,-32.715,-23.438,0.000
1709214679.164,-40.039,-48.340,-35.156,-28.809,0.000
1709214679.168,-38.574,-55.664,-40.527,-37.109,0.000
1709214679.172,-38.086,-51.270,-46.387,-43.457,0.000
1709214679.176,-44.922,-43.457,-44.434,-43.945,0.000
1709214679.180,-41.992,-51.758,-40.527,-34.668,0.000
1709214679.184,-36.621,-53.711,-41.016,-39.551,0.000
1709214679.188,-39.062,-43.457,-45.410,-40.527,0.000
1709214679.192,-43.945,-43.945,-44.922,-43.945,0.000
1709214679.196,-49.805,-51.758,-42.480,-49.316,0.000
1709214679.200,-49.316,-55.176,-44.922,-41.016,0.000
1709214679.204,-47.363,-38.574,-42.480,-34.180,0.000
1709214679.207,-39.062,-33.691,-44.434,-34.180,0.000
1709214679.211,-32.715,-45.898,-45.898,-37.109,0.000
1709214679.215,-36.621,-40.527,-35.156,-38.086,0.000
1709214679.219,-35.156,-33.203,-32.227,-35.156,0.000
1709214679.223,-35.645,-35.156,-41.504,-32.715,0.000
1709214679.227,-33.691,-34.668,-44.434,-34.180,0.000
1709214679.231,-29.297,-40.039,-41.504,-43.945,0.000
1709214679.235,-32.715,-53.223,-41.992,-55.176,0.000
1709214679.239,-35.156,-41.992,-40.039,-54.688,0.000
1709214679.243,-39.062,-36.133,-41.504,-52.734,0.000
1709214679.247,-36.621,-33.691,-40.527,-43.945,0.000
1709214679.250,-26.367,-29.785,-35.156,-38.086,0.000
1709214679.254,-30.762,-42.969,-36.133,-46.387,0.000
1709214679.258,-41.504,-40.039,-39.551,-50.293,0.000
1709214679.262,-40.039,-43.457,-44.922,-47.852,0.000
1709214679.266,-35.156,-59.570,-44.922,-37.598,0.000
1709214679.270,-35.156,-56.641,-43.945,-45.898,0.000
1709214679.274,-39.551,-52.734,-45.898,-62.500,0.000
1709214679.278,-34.180,-53.223,-44.434,-54.688,0.000
1709214679.282,-33.691,-41.504,-41.992,-51.270,0.000
1709214679.286,-38.086,-37.598,-33.203,-55.664,0.000
1709214679.290,-36.133,-42.969,-39.062,-54.199,0.000
1709214679.293,-39.551,-41.504,-41.504,-45.898,0.000
1709214679.297,-43.457,-41.504,-30.273,-45.898,0.000
1709214679.301,-37.109,-42.969,-31.250,-42.480,0.000
1709214679.305,-36.133,-41.992,-35.645,-36.133,0.000
1709214679.309,-38.086,-45.410,-32.227,-36.621,0.000
1709214679.313,-35.156,-47.852,-36.133,-36.133,0.000
1709214679.317,-31.738,-49.316,-36.133,-33.691,0.000
1709214679.321,-36.133,-59.570,-35.645,-32.715,0.000
1709214679.325,-31.738,-55.664,-39.551,-33.691,0.000
1709214679.329,-21.484,-40.039,-38.086,-26.367,0.000
1709214679.332,-24.414,-34.668,-41.016,-21.973,0.000
1709214679.336,-34.668,-40.527,-44.922,-25.879,0.000
1709214679.340,-38.574,-42.480,-42.969,-31.250,0.000
1709214679.344,-34.180,-41.016,-39.551,-26.855,0.000
1709214679.348,-35.156,-44.434,-41.504,-22.461,0.000
1709214679.352,-29.297,-43.945,-40.527,-23.438,0.000
1709214679.356,-35.156,-41.016,-38.086,-20.020,0.000
1709214679.360,-33.203,-52.246,-34.180,-16.113,0.000
1709214679.364,-25.391,-51.758,-40.039,-26.855,0.000
1709214679.368,-31.738,-43.945,-43.457,-37.109,0.000
1709214679.372,-34.668,-41.016,-38.086,-34.180,0.000
1709214679.375,-27.832,-36.133,-31.250,-32.227,0.000
1709214679.379,-24.902,-35.645,-29.297,-37.598,0.000
1709214679.383,-31.738,-38.574,-35.645,-34.668,0.000
1709214679.387,-31.250,-45.410,-36.621,-32.715,0.000
1709214679.391,-24.414,-47.363,-32.715,-36.621,0.000
1709214679.395,-27.344,-39.062,-29.785,-34.668,0.000
1709214679.399,-39.551,-43.945,-32.227,-38.086,0.000
1709214679.403,-39.062,-53.711,-33.203,-22.461,0.000
1709214679.407,-41.992,-42.480,-35.645,-23.926,0.000
1709214679.411,-37.598,-25.391,-29.297,-33.203,0.000
1709214679.414,-36.621,-22.949,-25.391,-31.738,0.000
1709214679.418,-50.781,-33.203,-33.203,-41.504,0.000
1709214679.422,-54.199,-38.574,-36.621,-46.387,0.000
1709214679.426,-45.410,-34.668,-38.574,-45.898,0.000
1709214679.430,-38.086,-34.180,-36.133,-39.062,0.000
1709214679.434,-41.992,-40.039,-30.762,-33.691,0.000
1709214679.438,-46.387,-48.828,-33.203,-33.691,0.000
1709214679.442,-44.922,-46.387,-34.180,-39.551,0.000
1709214679.446,-35.156,-34.180,-34.668,-30.273,0.000
1709214679.450,-27.344,-25.391,-37.109,-21.484,0.000
1709214679.453,-29.785,-28.809,-40.039,-35.156,0.000
1709214679.457,-25.391,-40.527,-37.598,-32.715,0.000
1709214679.461,-19.531,-39.062,-37.109,-24.414,0.000
1709214679.465,-16.602,-39.551,-39.551,-23.926,0.000
1709214679.469,-24.902,-41.016,-43.457,-29.297,0.000
1709214679.473,-26.855,-40.527,-38.574,-28.320,0.000
1709214679.477,-20.020,-44.922,-30.273,-22.949,0.000
1709214679.481,-21.973,-46.875,-28.809,-17.578,0.000
1709214679.485,-24.414,-50.293,-34.668,-30.762,0.000
1709214679.489,-25.879,-44.922,-34.180,-34.180,0.000
1709214679.492,-27.344,-37.109,-33.203,-22.461,0.000
1709214679.496,-37.109,-35.156,-36.621,-30.273,0.000
1709214679.500,-41.016,-39.551,-39.062,-33.691,0.000
1709214679.504,-35.645,-47.852,-42.969,-31.250,0.000
1709214679.508,-29.785,-45.410,-41.992,-39.062,0.000
1709214679.512,-24.414,-35.156,-32.715,-33.203,0.000
1709214679.516,-31.250,-38.574,-28.320,-28.320,0.000
1709214679.520,-34.668,-43.457,-23.926,-38.086,0.000
1709214679.524,-40.527,-49.316,-32.227,-45.410,0.000
1709214679.528,-44.922,-43.945,-40.527,-50.293,0.000
1709214679.532,-51.758,-28.320,-38.086,-61.523,0.000
1709214679.535,-60.547,-39.062,-41.992,-65.918,0.000
1709214679.539,-58.594,-45.898,-45.410,-60.059,0.000
1709214679.543,-61.035,-47.363,-50.293,-58.105,0.000
1709214679.547,-52.734,-55.176,-46.875,-63.477,0.000
1709214679.551,-39.062,-51.758,-36.621,-49.805,0.000
1709214679.555,-38.086,-42.969,-28.809,-36.621,0.000
1709214679.559,-43.945,-44.922,-32.715,-40.039,0.000
1709214679.563,-42.969,-51.758,-41.016,-35.156,0.000
1709214679.567,-38.574,-43.945,-50.293,-32.227,0.000
1709214679.571,-33.203,-39.062,-47.363,-26.367,0.000
1709214679.575,-32.715,-39.062,-41.504,-23.438,0.000
1709214679.578,-45.410,-37.598,-46.387,-28.809,0.000
1709214679.582,-44.922,-40.039,-45.410,-29.785,0.000
1709214679.586,-35.156,-40.527,-40.039,-25.879,0.000
1709214679.590,-26.855,-40.039,-34.668,-22.461,0.000
1709214679.594,-25.391,-43.457,-33.691,-18.555,0.000
1709214679.598,-31.738,-47.363,-36.133,-18.066,0.000
1709214679.602,-33.203,-54.688,-37.109,-24.902,0.000
1709214679.606,-34.180,-53.223,-43.457,-33.691,0.000
