timestamps,TP9,AF7,AF8,TP10,Right AUX
1709214933.903,-39.551,-39.062,0.000,-48.340,0.000
1709214933.907,-56.641,-33.691,0.000,-65.918,0.000
1709214933.911,-57.129,-42.480,0.000,-56.641,0.000
1709214933.914,-35.156,-48.828,0.000,-31.738,0.000
1709214933.918,-30.273,-41.504,0.000,-24.414,0.000
1709214933.922,-43.945,-36.621,0.000,-35.156,0.000
1709214933.926,-52.734,-38.574,0.000,-49.805,0.000
1709214933.930,-50.293,-34.668,0.000,-53.223,0.000
1709214933.934,-40.039,-38.574,0.000,-39.551,0.000
1709214933.938,-27.344,-50.781,0.000,-25.879,0.000
1709214933.942,-29.785,-55.176,0.000,-27.832,0.000
1709214933.946,-44.434,-50.781,0.000,-46.387,0.000
1709214933.949,-51.270,-51.758,-34.180,-50.781,0.000
1709214933.953,-37.598,-48.828,-39.062,-25.391,0.000
1709214933.957,-20.996,-45.898,-46.875,-7.812,0.000
1709214933.961,-22.949,-48.340,-43.945,-14.160,0.000
1709214933.965,-50.293,-45.410,-43.945,-39.551,0.000
1709214933.969,-55.664,-44.922,-45.410,-42.480,0.000
1709214933.973,-31.738,-41.992,-32.715,-12.207,0.000
1709214933.977,-26.855,-43.945,-31.738,-8.301,0.000
1709214933.981,-29.785,-46.387,-36.621,-20.996,0.000
1709214933.985,-37.598,-56.641,-35.156,-39.551,0.000
1709214933.988,-60.547,-69.824,-33.691,-62.500,0.000
1709214933.992,-53.711,-54.688,-32.227,-50.293,0.000
1709214933.996,-30.273,-37.598,-30.273,-28.809,0.000
1709214934.000,-28.320,-44.434,-37.109,-27.344,0.000
1709214934.004,-46.875,-39.062,-49.805,-47.852,0.000
1709214934.008,-67.383,-31.250,-40.039,-64.941,0.000
1709214934.012,-57.129,-37.598,-33.203,-57.129,0.000
1709214934.016,-35.645,-46.387,-37.598,-37.598,0.000
1709214934.019,-32.227,-48.828,-37.109,-31.738,0.000
1709214934.023,-46.387,-45.898,-40.039,-44.434,0.000
1709214934.027,-54.688,-49.805,-42.969,-58.105,0.000
1709214934.031,-43.457,-42.969,-41.016,-41.992,0.000
1709214934.035,-30.762,-54.688,-41.016,-25.391,0.000
1709214934.039,-21.484,-53.711,-52.246,-29.297,0.000
1709214934.043,-33.691,-30.762,-50.781,-42.969,0.000
1709214934.047,-50.781,-33.691,-32.227,-61.523,0.000
1709214934.051,-45.898,-44.434,-39.062,-54.688,0.000
1709214934.055,-29.297,-38.574,-48.828,-32.227,0.000
1709214934.059,-20.508,-35.645,-35.645,-25.879,0.000
1709214934.062,-33.203,-39.551,-36.133,-35.645,0.000
1709214934.066,-48.828,-41.016,-42.480,-53.711,0.000
1709214934.070,-43.457,-40.039,-41.504,-46.875,0.000
1709214934.074,-24.902,-37.109,-38.574,-21.973,0.000
1709214934.078,-13.672,-41.504,-31.250,-15.137,0.000
1709214934.082,-28.809,-52.734,-32.715,-34.180,0.000
1709214934.086,-52.246,-60.059,-37.598,-53.711,0.000
1709214934.090,-52.734,-48.340,-34.668,-50.781,0.000
1709214934.094,-38.574,-38.086,-32.715,-38.086,0.000
1709214934.098,-29.785,-39.062,-38.574,-37.109,0.000
1709214934.102,-37.109,-44.922,-42.969,-54.199,0.000
1709214934.105,-55.176,-50.781,-48.340,-74.707,0.000
1709214934.109,-60.547,-53.223,-37.598,-69.336,0.000
1709214934.113,-47.852,-45.898,-32.227,-54.688,0.000
1709214934.117,-36.133,-44.922,-46.387,-50.293,0.000
1709214934.121,-38.086,-51.758,-41.016,-50.781,0.000
1709214934.125,-48.828,-52.734,-32.715,-64.453,0.000
1709214934.129,-54.199,-52.246,-38.574,-79.590,0.000
1709214934.133,-38.574,-46.875,-35.645,-58.594,0.000
1709214934.137,-26.855,-35.645,-34.668,-33.691,0.000
1709214934.141,-28.809,-28.809,-35.645,-36.621,0.000
1709214934.145,-38.574,-32.227,-27.344,-48.828,0.000
1709214934.149,-46.875,-41.992,-33.203,-46.387,0.000
1709214934.153,-41.016,-42.480,-42.969,-29.297,0.000
1709214934.157,-26.855,-31.250,-35.156,-11.230,0.000
1709214934.160,-17.578,-30.273,-38.086,-10.254,0.000
1709214934.164,-30.273,-38.574,-44.922,-33.691,0.000
1709214934.168,-43.945,-55.176,-34.180,-40.527,0.000
1709214934.172,-31.250,-54.199,-27.344,-20.996,0.000
1709214934.176,-11.719,-38.086,-31.738,-9.766,0.000
1709214934.180,-11.719,-30.273,-29.785,-13.184,0.000
1709214934.184,-32.227,-26.367,-31.738,-27.344,0.000
1709214934.188,-51.270,-32.715,-41.992,-48.828,0.000
1709214934.192,-41.992,-42.480,-35.645,-46.875,0.000
1709214934.196,-22.949,-39.551,-31.250,-25.391,0.000
1709214934.200,-24.414,-42.969,-34.180,-29.297,0.000
1709214934.203,-38.574,-40.527,-37.598,-52.246,0.000
1709214934.207,-45.410,-41.016,-40.527,-63.965,0.000
1709214934.211,-35.645,-45.410,-30.273,-57.129,0.000
1709214934.215,-18.555,-39.062,-33.203,-42.480,0.000
1709214934.219,-25.391,-53.223,-42.969,-41.016,0.000
1709214934.223,-49.805,-48.340,-45.898,-55.664,0.000
1709214934.227,-62.500,-39.062,-41.504,-59.082,0.000
1709214934.231,-56.152,-51.270,-39.062,-48.340,0.000
1709214934.235,-36.621,-48.340,-36.621,-27.832,0.000
1709214934.238,-22.461,-36.133,-34.180,-12.695,0.000
1709214934.242,-36.133,-35.645,-39.062,-28.320,0.000
1709214934.246,-52.734,-33.203,-38.086,-43.945,0.000
1709214934.250,-52.246,-30.762,-40.527,-41.016,0.000
1709214934.254,-30.762,-32.227,-44.434,-16.113,0.000
1709214934.258,-27.344,-52.734,-42.480,-6.836,0.000
1709214934.262,-43.457,-50.781,-45.898,-27.832,0.000
1709214934.266,-55.176,-31.738,-44.434,-49.805,0.000
1709214934.270,-53.223,-39.551,-38.574,-43.945,0.000
1709214934.274,-34.668,-40.039,-37.109,-22.949,0.000
1709214934.278,-25.879,-36.621,-40.527,-20.020,0.000
1709214934.282,-35.645,-46.875,-38.574,-32.715,0.000
1709214934.286,-56.152,-45.898,-40.527,-54.199,0.000
1709214934.289,-57.129,-39.062,-40.527,-61.035,0.000
1709214934.293,-40.527,-40.039,-30.762,-42.480,0.000
1709214934.297,-34.180,-48.828,-32.227,-30.762,0.000
1709214934.301,-38.086,-61.035,-40.527,-25.879,0.000
1709214934.305,-54.199,-52.246,-36.133,-37.598,0.000
1709214934.309,-65.430,-36.621,-33.203,-53.223,0.000
1709214934.313,-49.805,-40.039,-38.086,-42.480,0.000
1709214934.317,-30.273,-37.598,-36.621,-12.695,0.000
1709214934.321,-32.227,-43.945,-43.945,-21.973,0.000
1709214934.325,-40.527,-58.105,-47.363,-54.199,0.000
1709214934.329,-50.781,-58.105,-39.062,-51.270,0.000
1709214934.333,-50.781,-50.293,-37.109,-39.062,0.000
1709214934.336,-32.227,-43.457,-34.180,-22.949,0.000
1709214934.340,-23.438,-47.852,-32.227,-5.859,0.000
1709214934.344,-41.016,-47.852,-44.434,-27.832,0.000
1709214934.348,-57.617,-37.598,-56.152,-51.758,0.000
1709214934.352,-51.270,-29.785,-46.387,-39.062,0.000
1709214934.356,-34.668,-30.762,-36.133,-17.090,0.000
1709214934.360,-30.273,-39.062,-39.551,-21.484,0.000
1709214934.364,-42.969,-48.828,-34.668,-34.668,0.000
1709214934.368,-66.895,-55.176,-36.133,-60.059,0.000
1709214934.371,-59.570,-46.387,-35.645,-59.570,0.000
1709214934.375,-31.250,-53.223,-33.203,-31.738,0.000
1709214934.379,-25.879,-54.199,-32.227,-25.879,0.000
1709214934.383,-38.574,-40.527,-31.250,-38.574,0.000
1709214934.387,-54.688,-39.551,-35.156,-51.758,0.000
1709214934.391,-51.758,-47.363,-35.156,-40.527,0.000
1709214934.395,-33.203,-45.898,-35.156,-17.090,0.000
1709214934.399,-23.926,-37.598,-39.062,-12.695,0.000
1709214934.403,-40.039,-44.922,-36.133,-28.320,0.000
1709214934.407,-51.758,-51.758,-27.832,-34.180,0.000
1709214934.410,-46.875,-49.805,-29.785,-27.344,0.000
1709214934.414,-27.344,-51.270,-32.715,-20.020,0.000
1709214934.419,0.000,-41.992,0.000,0.000,0.000
1709214934.423,0.000,-41.016,0.000,0.000,0.000
1709214934.427,0.000,-51.270,0.000,0.000,0.000
1709214934.430,0.000,-57.617,0.000,0.000,0.000
1709214934.434,0.000,-57.617,0.000,0.000,0.000
1709214934.438,0.000,-53.711,0.000,0.000,0.000
1709214934.442,0.000,-46.875,0.000,0.000,0.000
1709214934.446,0.000,-44.434,0.000,0.000,0.000
1709214934.450,0.000,-44.922,0.000,0.000,0.000
1709214934.454,0.000,-49.805,0.000,0.000,0.000
1709214934.458,0.000,-44.434,0.000,0.000,0.000
1709214934.462,0.000,-32.715,0.000,0.000,0.000
1709214934.466,-36.133,-42.969,-41.016,-43.457,0.000
1709214934.470,-45.898,-58.594,-41.992,-52.246,0.000
1709214934.473,-32.227,-62.988,-32.227,-33.691,0.000
1709214934.477,-14.648,-49.805,-33.203,-20.996,0.000
1709214934.481,-19.531,-35.645,-42.480,-20.508,0.000
1709214934.485,-38.574,-42.480,-34.180,-41.504,0.000
1709214934.489,-60.059,-50.293,-31.250,-62.012,0.000
1709214934.493,-50.781,-47.852,-35.645,-50.781,0.000
1709214934.497,-26.855,-45.410,-32.715,-28.320,0.000
1709214934.501,-31.738,-42.480,-26.367,-28.320,0.000
1709214934.505,-53.711,-40.527,-30.762,-51.758,0.000
1709214934.509,-66.895,-39.551,-37.109,-70.312,0.000
1709214934.512,-61.035,-48.340,-36.621,-56.152,0.000
1709214934.516,-39.551,-50.293,-32.715,-31.250,0.000
1709214934.520,-34.180,-47.852,-35.156,-31.738,0.000
1709214934.524,-45.898,-40.527,-42.969,-44.434,0.000
1709214934.528,-54.688,-42.969,-42.480,-62.012,0.000
1709214934.532,-54.199,-58.594,-42.480,-59.570,0.000
1709214934.536,-40.039,-51.270,-37.109,-37.109,0.000
1709214934.540,-30.762,-42.480,-30.762,-29.297,0.000
1709214934.544,-41.504,-36.621,-33.203,-31.250,0.000
1709214934.548,-60.547,-30.273,-26.855,-43.457,0.000
1709214934.552,-64.453,-45.410,-28.320,-46.875,0.000
1709214934.555,-45.410,-53.223,-32.715,-26.855,0.000
1709214934.559,0.000,-53.223,0.000,-26.367,0.000
1709214934.563,0.000,-51.270,0.000,-47.363,0.000
1709214934.567,0.000,-41.016,0.000,-55.664,0.000
1709214934.571,0.000,-41.504,0.000,-41.016,0.000
1709214934.575,0.000,-30.273,0.000,-19.043,0.000
1709214934.579,0.000,-26.855,0.000,-15.625,0.000
1709214934.583,0.000,-45.410,0.000,-35.645,0.000
1709214934.587,0.000,-55.664,0.000,-51.270,0.000
1709214934.591,0.000,-53.711,0.000,-35.156,0.000
1709214934.594,0.000,-48.340,0.000,-16.113,0.000
1709214934.598,0.000,-51.758,0.000,-15.625,0.000
1709214934.602,0.000,-51.758,0.000,-28.809,0.000
1709214934.606,-54.199,-39.062,-33.691,-40.527,0.000
1709214934.610,-58.105,-43.945,-26.367,-41.016,0.000
1709214934.614,-39.062,-45.410,-20.508,-20.020,0.000
1709214934.618,-26.367,-45.410,-24.902,-4.395,0.000
1709214934.622,-33.203,-52.734,-36.133,-21.973,0.000
1709214934.626,-51.758,-47.363,-38.574,-45.898,0.000
1709214934.630,-58.594,-45.410,-38.574,-49.805,0.000
1709214934.633,-44.922,-50.781,-33.203,-26.855,0.000
1709214934.637,-25.391,-47.363,-40.039,-13.184,0.000
1709214934.641,-20.508,-41.504,-43.457,-20.020,0.000
1709214934.645,-42.480,-44.922,-39.551,-48.828,0.000
1709214934.649,-52.246,-41.504,-40.527,-61.035,0.000
1709214934.653,-31.738,-26.367,-40.527,-39.062,0.000
1709214934.657,-15.137,-28.809,-40.039,-26.367,0.000
1709214934.661,-14.648,-36.133,-40.039,-35.645,0.000
1709214934.665,-37.598,-38.086,-47.363,-57.129,0.000
1709214934.668,-49.316,-38.086,-47.363,-60.059,0.000
1709214934.672,-40.527,-43.945,-34.668,-51.270,0.000
1709214934.676,-20.020,-51.270,-22.461,-23.926,0.000
1709214934.680,-19.531,-56.152,-23.926,-12.207,0.000
1709214934.684,-36.621,-50.781,-28.809,-36.621,0.000
1709214934.688,-41.992,-43.945,-24.414,-45.410,0.000
1709214934.692,-37.598,-44.434,-31.250,-37.109,0.000
1709214934.696,-33.691,-41.992,-41.992,-26.367,0.000
1709214934.700,-38.086,-50.781,-40.527,-23.438,0.000
1709214934.704,-44.434,-52.246,-41.504,-33.691,0.000
1709214934.708,-57.617,-45.410,-42.480,-48.828,0.000
1709214934.712,-51.270,-39.551,-44.922,-42.480,0.000
1709214934.716,-30.273,-45.410,-46.387,-19.531,0.000
1709214934.719,-22.949,-55.176,-35.156,-10.742,0.000
1709214934.723,-28.320,-53.223,-22.949,-10.254,0.000
1709214934.727,-47.852,-52.246,-32.227,-30.273,0.000
1709214934.731,-50.781,-42.480,-33.203,-42.969,0.000
1709214934.735,-36.621,-37.598,-30.762,-16.602,0.000
1709214934.739,-29.785,-41.992,-39.551,-11.719,0.000
1709214934.743,-39.062,-48.828,-39.551,-30.273,0.000
1709214934.746,-52.734,-55.664,-37.598,-44.434,0.000
1709214934.750,-43.457,-48.340,-33.691,-45.898,0.000
1709214934.754,-21.973,-40.039,-31.250,-22.949,0.000
1709214934.758,-12.695,-37.598,-36.133,-12.695,0.000
1709214934.762,-19.043,-41.504,-46.387,-31.250,0.000
1709214934.766,-36.133,-59.082,-43.457,-50.293,0.000
1709214934.770,-47.852,-60.059,-35.645,-54.688,0.000
1709214934.774,-39.551,-41.504,-34.668,-37.109,0.000
1709214934.778,-17.090,-26.367,-30.762,-17.578,0.000
1709214934.782,-18.066,-32.227,-32.227,-19.531,0.000
1709214934.786,-46.387,-43.457,-33.691,-38.574,0.000
1709214934.789,-36.133,-41.016,-27.344,-41.992,0.000
1709214934.793,-17.578,-36.621,-35.645,-29.785,0.000
1709214934.797,-23.926,-34.180,-42.480,-27.344,0.000
1709214934.801,-30.762,-39.551,-38.086,-37.598,0.000
1709214934.805,-43.457,-38.086,-33.691,-49.805,0.000
1709214934.809,-59.082,-38.086,-33.691,-55.664,0.000
1709214934.813,-57.129,-56.152,-33.691,-42.480,0.000
1709214934.817,-44.434,-63.477,-43.457,-30.762,0.000
1709214934.821,-42.969,-53.223,-45.898,-38.086,0.000
1709214934.825,-59.570,-51.270,-35.156,-52.246,0.000
1709214934.829,-71.777,-45.898,-37.598,-52.734,0.000
1709214934.832,-65.918,-46.387,-42.480,-52.734,0.000
1709214934.836,-46.387,-48.340,-42.480,-37.109,0.000
1709214934.840,0.000,-44.922,-43.457,-26.855,0.000
1709214934.844,0.000,-50.293,-46.875,-50.293,0.000
1709214934.848,0.000,-52.246,-40.039,-56.152,0.000
1709214934.852,0.000,-58.594,-33.203,-35.645,0.000
1709214934.856,0.000,-56.152,-38.574,-18.066,0.000
1709214934.860,0.000,-48.828,-48.340,-20.020,0.000
1709214934.864,0.000,-50.293,-45.410,-42.480,0.000
1709214934.868,0.000,-46.387,-35.645,-55.176,0.000
1709214934.872,0.000,-40.527,-32.227,-41.992,0.000
1709214934.875,0.000,-36.133,-40.039,-21.973,0.000
1709214934.879,0.000,-42.480,-48.340,-27.832,0.000
1709214934.883,0.000,-50.781,-47.363,-44.434,0.000
1709214934.887,-46.875,-58.594,-43.945,-54.199,0.000
1709214934.891,-43.945,-54.199,-42.969,-49.316,0.000
1709214934.895,-25.391,-40.039,-42.480,-32.715,0.000
1709214934.899,-13.672,-38.574,-40.527,-25.391,0.000
1709214934.903,-22.949,-48.828,-36.621,-38.574,0.000
1709214934.907,-42.480,-48.340,-31.250,-55.664,0.000
1709214934.911,-44.922,-41.016,-33.203,-45.410,0.000
1709214934.914,-21.484,-38.086,-32.715,-28.320,0.000
1709214934.918,-13.184,-40.039,-31.250,-20.020,0.000
1709214934.922,-29.785,-42.969,-34.180,-36.133,0.000
1709214934.926,-42.480,-51.758,-38.086,-56.152,0.000
1709214934.930,-38.574,-59.082,-45.410,-40.527,0.000
1709214934.934,-21.973,-44.922,-42.969,-12.695,0.000
1709214934.938,-13.184,-38.086,-38.574,-15.625,0.000
1709214934.942,-21.484,-41.016,-33.203,-24.902,0.000
1709214934.946,-38.086,-46.875,-32.227,-37.109,0.000
1709214934.950,-46.875,-54.688,-33.691,-42.969,0.000
1709214934.953,-41.016,-45.898,-41.992,-29.297,0.000
1709214934.957,-34.180,-41.992,-60.059,-23.438,0.000
1709214934.961,-49.316,-44.434,-53.711,-27.344,0.000
1709214934.965,-62.500,-50.293,-39.062,-42.969,0.000
1709214934.969,-59.082,-56.152,-33.691,-56.152,0.000
1709214934.973,-51.270,-61.035,-40.039,-45.898,0.000
1709214934.977,-30.273,-55.176,-36.621,-20.508,0.000
1709214934.981,-20.996,-30.273,-22.949,-8.789,0.000
1709214934.985,-41.504,-35.645,-37.109,-35.645,0.000
1709214934.989,-47.363,-50.781,-46.875,-45.410,0.000
1709214934.993,-29.785,-41.504,-31.738,-27.832,0.000
1709214934.997,-15.137,-45.410,-33.203,-15.137,0.000
1709214935.001,-15.137,-49.805,-43.945,-15.137,0.000
1709214935.004,-33.691,-50.781,-38.574,-35.645,0.000
1709214935.008,-53.711,-46.875,-39.062,-46.875,0.000
1709214935.012,-45.898,-28.809,-32.715,-37.598,0.000
1709214935.016,-26.367,-26.855,-28.809,-19.531,0.000
1709214935.020,-20.020,-33.691,-39.062,-21.484,0.000
1709214935.024,-23.926,-26.855,-32.227,-37.598,0.000
1709214935.028,-42.969,-34.180,-33.691,-50.781,0.000
1709214935.032,-51.270,-49.805,-40.039,-45.898,0.000
1709214935.036,-29.297,-45.410,-32.227,-22.461,0.000
1709214935.039,-21.484,-36.621,-32.227,-21.973,0.000
1709214935.043,-41.992,-41.504,-38.574,-50.293,0.000
1709214935.047,-60.059,-46.875,-44.434,-66.406,0.000
1709214935.051,-57.617,-38.574,-36.133,-48.828,0.000
1709214935.055,-36.621,-32.715,-22.949,-22.461,0.000
1709214935.059,-28.320,-35.156,-26.855,-17.578,0.000
1709214935.063,-39.551,-41.992,-43.457,-38.574,0.000
1709214935.067,-43.945,-53.223,-38.086,-45.898,0.000
1709214935.071,-52.246,-49.805,-31.738,-38.574,0.000
1709214935.075,-38.574,-46.875,-36.621,-26.367,0.000
1709214935.079,-23.926,-51.758,-35.156,-14.160,0.000
1709214935.083,-40.039,-36.133,-38.574,-36.621,0.000
1709214935.087,-51.758,-29.785,-38.574,-62.500,0.000
1709214935.090,-49.316,-37.598,-37.598,-63.965,0.000
1709214935.094,-31.250,-40.039,-43.945,-40.527,0.000
1709214935.098,-21.973,-41.016,-40.039,-23.438,0.000
1709214935.102,-26.367,-42.480,-37.109,-36.621,0.000
1709214935.106,-33.203,-57.617,-37.109,-53.711,0.000
1709214935.110,-32.715,-52.246,-33.203,-55.176,0.000
1709214935.114,-14.160,-28.809,-29.785,-29.297,0.000
1709214935.118,-8.789,-32.715,-37.109,-15.625,0.000
1709214935.121,-20.508,-35.645,-36.621,-28.320,0.000
1709214935.125,-31.738,-32.715,-31.738,-39.062,0.000
1709214935.129,-39.551,-31.738,-38.086,-42.969,0.000
1709214935.133,-29.785,-31.250,-41.016,-29.297,0.000
1709214935.137,-12.695,-31.250,-34.668,-11.230,0.000
1709214935.141,-19.531,-38.086,-25.879,-18.555,0.000
1709214935.145,-36.133,-47.363,-33.691,-44.434,0.000
1709214935.149,-41.992,-51.758,-33.691,-49.316,0.000
1709214935.153,-30.273,-54.688,-26.855,-32.227,0.000
1709214935.157,-19.531,-53.711,-26.367,-13.672,0.000
1709214935.160,-28.809,-49.805,-32.715,-19.043,0.000
1709214935.164,-41.504,-33.691,-32.227,-46.875,0.000
1709214935.168,-47.363,-25.391,-26.367,-55.176,0.000
1709214935.172,-37.598,-34.668,-27.344,-41.016,0.000
1709214935.176,-20.020,-43.945,-27.832,-26.367,0.000
1709214935.180,-19.043,-52.734,-27.344,-26.367,0.000
1709214935.184,-37.109,-54.199,-39.551,-41.016,0.000
1709214935.188,-50.293,-52.734,-40.527,-47.363,0.000
1709214935.192,-47.852,-57.617,-27.344,-42.480,0.000
1709214935.196,-33.203,-58.594,-31.738,-23.926,0.000
1709214935.200,-18.555,-45.410,-34.668,-8.789,0.000
1709214935.203,-37.109,-36.621,-33.203,-21.973,0.000
1709214935.207,-55.176,-41.016,-36.621,-43.945,0.000
1709214935.211,-43.457,-38.574,-32.715,-39.062,0.000
1709214935.215,-28.320,-40.039,-30.273,-14.160,0.000
1709214935.219,-18.066,-38.086,-28.320,-1.465,0.000
1709214935.223,-34.180,-32.227,-32.715,-26.855,0.000
1709214935.227,-51.758,-34.668,-41.016,-53.711,0.000
1709214935.231,-48.340,-40.527,-39.062,-45.410,0.000
1709214935.235,-33.691,-44.434,-31.738,-26.367,0.000
1709214935.239,-22.949,-43.945,-34.668,-20.508,0.000
1709214935.243,-33.203,-45.898,-38.574,-31.738,0.000
1709214935.246,-53.711,-43.945,-35.645,-42.969,0.000
1709214935.250,-56.641,-34.668,-36.621,-37.109,0.000
1709214935.254,-45.410,-36.133,-36.133,-29.785,0.000
1709214935.258,-34.180,-42.480,-31.738,-18.555,0.000
1709214935.262,-32.227,-43.457,-31.250,-26.855,0.000
1709214935.266,-51.758,-40.039,-36.621,-51.758,0.000
1709214935.270,-58.594,-38.086,-35.156,-51.758,0.000
1709214935.274,-37.109,-36.621,-33.203,-26.855,0.000
1709214935.278,-31.738,-46.875,-46.387,-16.602,0.000
1709214935.282,-44.922,-60.059,-44.434,-28.809,0.000
1709214935.286,-64.453,-61.523,-36.133,-53.711,0.000
1709214935.289,-74.219,-49.805,-32.715,-56.641,0.000
1709214935.293,-61.523,-50.293,-35.645,-19.531,0.000
1709214935.297,-35.156,-49.316,-35.156,-0.977,0.000
1709214935.301,-32.227,-48.828,-33.203,-18.066,0.000
1709214935.305,-51.758,-60.547,-48.340,-50.781,0.000
1709214935.309,-62.012,-52.734,-46.875,-56.641,0.000
1709214935.313,-49.316,-44.922,-41.504,-35.645,0.000
1709214935.317,-26.855,-46.387,-38.574,-18.555,0.000
1709214935.321,-28.809,-49.805,-36.621,-23.926,0.000
1709214935.325,-45.410,-63.965,-41.016,-44.922,0.000
1709214935.328,-51.270,-51.270,-35.156,-53.223,0.000
1709214935.332,-34.180,-30.273,-25.879,-38.574,0.000
1709214935.336,-18.555,-35.156,-27.832,-22.949,0.000
1709214935.340,-19.531,-46.387,-35.156,-19.531,0.000
1709214935.344,-27.832,-34.668,-40.527,-42.969,0.000
1709214935.348,-45.410,-41.504,-39.551,-73.730,0.000
1709214935.352,-50.781,-50.781,-46.387,-65.918,0.000
1709214935.356,-32.227,-40.039,-57.129,-37.598,0.000
1709214935.360,-19.043,-28.809,-42.480,-21.484,0.000
1709214935.363,-36.621,-43.457,-33.691,-29.785,0.000
1709214935.367,-56.641,-62.500,-40.039,-43.457,0.000
1709214935.371,-54.199,-48.828,-42.480,-40.039,0.000
1709214935.375,-42.480,-35.645,-46.875,-21.973,0.000
1709214935.379,-41.992,-48.340,-44.434,-19.043,0.000
1709214935.383,-48.340,-57.129,-39.062,-38.574,0.000
1709214935.387,-62.012,-43.457,-39.062,-62.500,0.000
1709214935.391,-56.641,-24.414,-37.109,-55.664,0.000
1709214935.395,-41.016,-28.809,-41.504,-33.203,0.000
1709214935.399,-38.574,-46.875,-46.387,-31.250,0.000
1709214935.402,-51.270,-55.664,-46.387,-43.457,0.000
1709214935.406,-67.383,-56.152,-47.852,-52.246,0.000
1709214935.410,-63.965,-48.340,-46.875,-48.828,0.000
1709214935.414,-46.387,-49.805,-36.133,-34.180,0.000
1709214935.418,-32.715,-62.500,-39.551,-18.555,0.000
1709214935.422,-39.551,-55.176,-51.270,-32.227,0.000
1709214935.426,-60.059,-40.039,-41.504,-51.270,0.000
1709214935.430,-59.570,-30.762,-30.273,-43.457,0.000
1709214935.434,-41.992,-30.273,-32.715,-26.367,0.000
1709214935.438,-27.344,-47.852,-26.855,-11.719,0.000
1709214935.441,-31.250,-59.570,-29.785,-23.926,0.000
1709214935.445,-50.781,-55.176,-43.457,-44.434,0.000
1709214935.450,-52.246,-45.898,-37.598,-43.945,0.000
1709214935.453,-34.668,-47.852,-31.250,-26.367,0.000
1709214935.457,-18.555,-54.688,-31.250,-10.254,0.000
1709214935.461,-23.926,-42.480,-30.273,-18.555,0.000
1709214935.465,-39.062,-33.203,-27.832,-34.668,0.000
1709214935.469,-45.898,-41.016,-28.809,-40.039,0.000
1709214935.473,-42.480,-43.457,-32.227,-27.344,0.000
1709214935.477,-22.461,-34.668,-28.320,-14.160,0.000
1709214935.481,-20.020,-49.316,-34.180,-27.344,0.000
1709214935.485,-42.480,-62.988,-40.527,-41.992,0.000
1709214935.489,-52.246,-52.246,-37.598,-56.152,0.000
1709214935.493,-44.434,-49.805,-41.504,-50.781,0.000
1709214935.497,-25.879,-42.480,-41.992,-21.973,0.000
1709214935.500,-19.531,-31.250,-36.621,-22.461,0.000
1709214935.504,-38.086,-39.551,-41.992,-46.387,0.000
1709214935.508,-51.758,-42.969,-50.781,-59.082,0.000
1709214935.512,-47.363,-42.969,-56.152,-48.828,0.000
1709214935.516,-31.250,-45.410,-42.969,-29.785,0.000
1709214935.520,-28.809,-51.270,-36.133,-30.273,0.000
1709214935.524,-44.922,-55.176,-44.434,-48.340,0.000
1709214935.528,-62.012,-57.617,-43.945,-68.848,0.000
1709214935.532,-56.152,-59.082,-39.551,-55.664,0.000
1709214935.536,-41.992,-50.781,-37.598,-26.367,0.000
1709214935.539,-44.434,-50.293,-41.016,-36.133,0.000
1709214935.543,-54.688,-50.293,-43.945,-52.734,0.000
1709214935.547,-61.523,-47.852,-42.969,-62.988,0.000
1709214935.551,-62.988,-47.852,-43.457,-60.059,0.000
1709214935.555,-44.922,-42.969,-49.316,-39.062,0.000
1709214935.559,-28.809,-47.852,-45.898,-28.320,0.000
1709214935.563,-34.668,-47.852,-30.273,-34.180,0.000
1709214935.567,-42.969,-48.340,-23.926,-46.875,0.000
1709214935.571,-43.457,-56.641,-26.855,-42.969,0.000
1709214935.575,-31.250,-47.852,-34.180,-27.832,0.000
1709214935.579,-16.602,-32.227,-37.109,-9.277,0.000
1709214935.583,-25.391,-36.621,-42.969,-30.762,0.000
1709214935.586,-38.086,-38.574,-43.945,-57.617,0.000
1709214935.590,-43.945,-40.039,-48.340,-50.781,0.000
1709214935.594,-33.691,-43.945,-46.387,-36.621,0.000
1709214935.598,-20.020,-38.086,-41.992,-26.367,0.000
1709214935.602,-27.832,-37.598,-42.969,-36.133,0.000
1709214935.606,-44.434,-47.363,-39.062,-51.758,0.000
1709214935.610,-48.828,-58.105,-32.227,-51.758,0.000
1709214935.614,-38.086,-53.223,-36.621,-35.156,0.000
1709214935.618,-22.949,-42.480,-46.387,-20.996,0.000
1709214935.622,-24.902,-40.527,-43.457,-22.461,0.000
1709214935.626,-43.945,-41.992,-38.574,-39.551,0.000
1709214935.629,-49.805,-46.387,-38.086,-55.176,0.000
1709214935.633,-35.156,-40.039,-40.039,-48.340,0.000
1709214935.638,-22.461,-33.691,-38.086,-31.250,0.000
1709214935.642,-28.809,-35.645,-42.480,-40.039,0.000
1709214935.646,-48.340,-39.062,-52.734,-58.105,0.000
1709214935.649,-53.223,-50.293,-48.828,-60.547,0.000
1709214935.653,-45.410,-55.664,-38.086,-47.852,0.000
1709214935.657,-21.973,-38.086,-27.832,-26.367,0.000
1709214935.661,-21.973,-35.156,-36.621,-37.598,0.000
1709214935.665,-47.852,-40.039,-44.922,-61.523,0.000
1709214935.669,-58.594,-40.527,-44.434,-54.688,0.000
1709214935.673,-46.875,-36.133,-39.062,-37.598,0.000
1709214935.677,-24.414,-28.809,-29.785,-19.043,0.000
1709214935.681,-26.367,-42.480,-29.785,-23.438,0.000
1709214935.684,-41.992,-59.570,-36.133,-50.293,0.000
1709214935.688,-43.457,-55.176,-33.691,-53.223,0.000
1709214935.692,-37.109,-47.852,-34.180,-32.227,0.000
1709214935.696,-22.461,-47.852,-31.738,-13.184,0.000
1709214935.700,-16.602,-42.969,-29.785,-14.160,0.000
1709214935.704,-39.551,-31.738,-40.527,-38.086,0.000
1709214935.708,-57.617,-27.832,-42.969,-52.734,0.000
1709214935.712,-47.363,-34.668,-34.668,-50.293,0.000
1709214935.716,-28.809,-46.875,-34.180,-29.785,0.000
1709214935.720,-19.531,-42.969,-35.156,-13.672,0.000
1709214935.724,-26.855,-40.039,-27.832,-28.320,0.000
1709214935.727,-39.062,-49.805,-23.926,-38.086,0.000
1709214935.731,-47.852,-60.547,-36.621,-30.762,0.000
1709214935.735,-38.086,-48.828,-44.922,-21.484,0.000
1709214935.739,-22.949,-31.738,-44.434,-12.207,0.000
1709214935.743,-28.320,-37.598,-26.855,-20.508,0.000
1709214935.747,-44.434,-42.480,-21.484,-40.527,0.000
1709214935.751,-46.875,-42.480,-35.156,-45.898,0.000
1709214935.755,-43.945,-43.457,-35.156,-35.156,0.000
1709214935.759,-38.574,-47.852,-34.668,-15.625,0.000
1709214935.762,-42.969,-56.152,-40.527,-30.273,0.000
1709214935.766,-48.340,-58.105,-43.457,-56.641,0.000
1709214935.770,-45.410,-45.898,-40.527,-50.293,0.000
1709214935.774,-32.715,-41.504,-45.898,-32.715,0.000
1709214935.778,-19.043,-42.969,-51.758,-20.020,0.000
1709214935.782,-19.043,-35.645,-40.527,-20.020,0.000
1709214935.786,-37.109,-35.156,-38.086,-40.039,0.000
1709214935.790,-50.293,-46.387,-44.922,-50.781,0.000
1709214935.794,-34.180,-49.805,-39.062,-37.598,0.000
1709214935.797,-21.484,-48.828,-41.016,-18.066,0.000
1709214935.801,-27.832,-55.664,-41.016,-16.113,0.000
1709214935.805,-41.504,-55.176,-41.016,-38.574,0.000
1709214935.809,-51.270,-37.109,-34.668,-56.152,0.000
1709214935.813,-39.551,-36.133,-34.668,-46.875,0.000
1709214935.817,-22.461,-58.105,-45.410,-26.367,0.000
1709214935.821,-20.996,-54.688,-38.574,-25.879,0.000
1709214935.825,-36.133,-39.551,-37.598,-44.922,0.000
1709214935.829,-49.316,-42.480,-39.551,-58.594,0.000
1709214935.833,-35.645,-41.016,-28.320,-43.945,0.000
1709214935.837,-20.020,-51.270,-36.133,-28.320,0.000
1709214935.841,-26.855,-55.176,-48.828,-35.645,0.000
1709214935.845,-47.852,-45.410,-35.156,-52.246,0.000
1709214935.848,-64.453,-50.293,-36.133,-61.035,0.000
1709214935.852,-53.223,-49.316,-42.480,-51.270,0.000
1709214935.856,-28.809,-46.387,-35.156,-34.668,0.000
1709214935.860,-20.508,-44.434,-40.527,-35.156,0.000
1709214935.864,-37.598,-44.434,-52.246,-57.129,0.000
1709214935.868,-57.617,-41.992,-50.781,-77.637,0.000
1709214935.872,-52.246,-43.457,-48.340,-71.777,0.000
1709214935.875,-34.180,-44.922,-32.227,-41.992,0.000
1709214935.879,-27.832,-45.898,-24.902,-23.438,0.000
1709214935.883,-33.203,-48.828,-36.621,-40.527,0.000
1709214935.887,-47.852,-41.992,-30.762,-56.152,0.000
1709214935.891,-49.316,-50.293,-27.832,-51.270,0.000
1709214935.895,-32.715,-59.082,-42.480,-43.457,0.000
1709214935.899,-29.297,-55.176,-41.016,-32.715,0.000
1709214935.903,-46.387,-59.082,-39.551,-41.992,0.000
1709214935.907,-61.035,-64.941,-48.828,-59.570,0.000
1709214935.911,-59.570,-57.617,-44.922,-54.199,0.000
1709214935.915,-45.410,-39.062,-40.527,-40.039,0.000
1709214935.919,0.000,-27.344,-38.574,-36.133,0.000
1709214935.922,0.000,-38.086,-30.273,-37.598,0.000
1709214935.926,0.000,-58.594,-35.645,-50.781,0.000
1709214935.930,0.000,-62.500,-42.480,-57.129,0.000
1709214935.934,0.000,-59.570,-39.062,-37.109,0.000
1709214935.938,0.000,-52.734,-39.062,-18.066,0.000
1709214935.942,0.000,-41.992,-37.598,-31.738,0.000
1709214935.946,0.000,-44.434,-34.668,-57.129,0.000
1709214935.950,0.000,-55.664,-42.480,-61.523,0.000
1709214935.954,0.000,-48.828,-37.598,-40.527,0.000
1709214935.958,0.000,-32.227,-27.344,-19.043,0.000
1709214935.961,0.000,-39.062,-41.016,-20.508,0.000
1709214935.965,-46.875,-46.387,-41.504,-43.457,0.000
1709214935.969,-50.293,-43.457,-31.250,-50.293,0.000
1709214935.973,-36.133,-44.434,-32.227,-31.250,0.000
1709214935.977,-17.578,-33.203,-35.645,-20.508,0.000
1709214935.981,-19.043,-38.086,-35.156,-32.227,0.000
1709214935.985,-48.340,-50.781,-36.133,-52.246,0.000
1709214935.989,-56.152,-41.016,-32.227,-55.664,0.000
1709214935.993,-35.156,-39.062,-26.367,-34.668,0.000
1709214935.997,-18.555,-36.621,-36.133,-12.695,0.000
1709214936.001,-20.508,-28.320,-45.898,-9.766,0.000
1709214936.004,-38.086,-40.039,-40.039,-34.180,0.000
1709214936.008,-42.480,-44.922,-29.785,-43.457,0.000
1709214936.012,-35.645,-42.480,-35.645,-31.738,0.000
1709214936.016,-23.926,-44.922,-45.898,-11.719,0.000
1709214936.020,-18.555,-56.152,-41.504,-11.719,0.000
1709214936.024,-31.250,-62.988,-33.691,-32.715,0.000
1709214936.028,-45.898,-46.387,-28.809,-41.016,0.000
1709214936.032,-53.223,-38.574,-37.598,-42.480,0.000
1709214936.036,-41.504,-45.410,-43.457,-34.180,0.000
1709214936.040,-27.344,-38.086,-43.457,-21.973,0.000
1709214936.043,-37.598,-35.645,-48.340,-21.973,0.000
1709214936.047,-59.570,-40.527,-42.969,-47.363,0.000
1709214936.051,-58.105,-43.457,-29.297,-50.293,0.000
1709214936.055,-39.551,-51.270,-29.785,-27.832,0.000
1709214936.060,-24.414,-57.617,-30.762,-23.926,0.000
1709214936.064,-31.738,-46.875,-24.902,-37.598,0.000
1709214936.068,-50.293,-47.852,-27.344,-52.246,0.000
1709214936.072,-49.316,-45.410,-31.738,-53.711,0.000
1709214936.076,-25.391,-27.344,-33.203,-36.621,0.000
1709214936.080,-12.207,-27.344,-25.879,-18.555,0.000
1709214936.084,-27.344,-38.574,-30.273,-30.762,0.000
1709214936.088,-43.945,-37.109,-31.738,-39.551,0.000
1709214936.091,-48.828,-36.621,-39.062,-35.645,0.000
1709214936.095,-35.156,-41.016,-37.109,-31.250,0.000
1709214936.099,-21.484,-35.156,-30.273,-17.090,0.000
1709214936.103,-21.973,-42.969,-28.320,-18.066,0.000
1709214936.107,-35.645,-56.641,-22.949,-33.691,0.000
1709214936.111,-46.875,-42.969,-18.066,-37.598,0.000
1709214936.115,-39.062,-23.926,-20.020,-18.555,0.000
1709214936.119,-27.344,-25.879,-33.691,2.441,0.000
1709214936.123,-27.344,-30.762,-35.645,-6.348,0.000
1709214936.127,-39.062,-38.086,-27.832,-29.785,0.000
1709214936.130,-43.457,-47.363,-31.738,-32.715,0.000
1709214936.134,-33.203,-43.457,-39.062,-20.996,0.000
1709214936.138,-20.020,-36.621,-30.762,-6.836,0.000
1709214936.142,-22.949,-41.992,-23.438,-11.719,0.000
1709214936.146,-44.922,-53.223,-23.438,-33.691,0.000
1709214936.150,-60.547,-71.777,-25.879,-45.898,0.000
1709214936.154,-46.875,-54.688,-28.320,-34.180,0.000
1709214936.158,-23.438,-22.461,-25.879,-13.672,0.000
1709214936.161,-21.484,-26.367,-33.203,-10.742,0.000
1709214936.165,-43.457,-43.457,-45.898,-33.691,0.000
1709214936.169,-60.547,-61.523,-45.898,-53.711,0.000
1709214936.173,-57.129,-63.965,-40.527,-50.781,0.000
1709214936.177,-40.039,-48.340,-36.133,-34.180,0.000
1709214936.181,-28.320,-43.457,-45.410,-17.578,0.000
1709214936.185,-40.039,-48.828,-38.574,-35.156,0.000
1709214936.189,-50.781,-50.781,-21.484,-52.246,0.000
1709214936.193,-45.898,-60.059,-32.227,-43.945,0.000
1709214936.197,-37.109,-56.152,-42.969,-33.203,0.000
1709214936.201,0.000,-42.969,-41.992,-35.156,0.000
1709214936.205,0.000,-47.852,-40.039,-44.434,0.000
1709214936.208,0.000,-55.664,-36.621,-58.105,0.000
1709214936.212,0.000,-52.246,-29.785,-54.688,0.000
1709214936.216,0.000,-45.898,-35.645,-37.109,0.000
1709214936.220,0.000,-44.434,-46.387,-31.250,0.000
1709214936.224,0.000,-39.062,-30.762,-27.344,0.000
1709214936.228,0.000,-43.457,-31.250,-41.016,0.000
1709214936.232,0.000,-43.457,-35.645,-46.875,0.000
1709214936.236,0.000,-52.734,-34.180,-35.645,0.000
1709214936.240,0.000,-65.918,-39.062,-20.996,0.000
1709214936.244,0.000,-54.199,-38.086,-22.461,0.000
1709214936.247,-49.316,-43.945,-36.621,-39.551,0.000
1709214936.251,-61.523,-36.621,-42.969,-47.363,0.000
1709214936.255,-45.410,-37.598,-50.293,-29.785,0.000
1709214936.259,-25.391,-44.434,-45.898,-12.207,0.000
1709214936.263,-37.598,-51.270,-46.875,-31.250,0.000
1709214936.267,-58.105,-54.688,-46.387,-54.688,0.000
1709214936.271,-55.664,-44.434,-45.410,-57.129,0.000
1709214936.275,-42.969,-40.039,-50.293,-43.457,0.000
1709214936.278,-32.227,-50.293,-39.551,-21.973,0.000
1709214936.282,-31.250,-63.477,-32.227,-18.066,0.000
1709214936.286,-56.152,-58.105,-45.410,-45.898,0.000
1709214936.290,-70.801,-39.551,-47.363,-58.105,0.000
1709214936.294,-54.199,-42.969,-43.457,-44.922,0.000
1709214936.298,-35.156,-56.641,-48.828,-26.855,0.000
1709214936.302,-34.180,-52.734,-43.457,-32.227,0.000
1709214936.306,-46.875,-42.969,-43.945,-56.152,0.000
1709214936.310,-49.805,-44.434,-53.223,-55.176,0.000
1709214936.314,-35.156,-50.293,-52.734,-37.598,0.000
1709214936.318,-17.090,-40.039,-34.668,-19.531,0.000
1709214936.322,-17.578,-31.250,-34.668,-29.785,0.000
1709214936.325,-38.574,-35.645,-51.758,-60.547,0.000
1709214936.329,-49.805,-38.086,-46.387,-62.500,0.000
1709214936.333,-40.039,-46.875,-41.016,-41.992,0.000
1709214936.337,-19.531,-50.293,-41.992,-28.320,0.000
1709214936.341,-15.625,-38.086,-41.016,-34.668,0.000
1709214936.345,-32.227,-31.250,-37.109,-49.316,0.000
1709214936.349,-41.992,-41.992,-35.645,-61.035,0.000
1709214936.353,-37.109,-50.293,-39.062,-49.316,0.000
1709214936.357,-19.531,-43.457,-41.992,-29.785,0.000
1709214936.361,-15.625,-32.227,-39.551,-25.879,0.000
1709214936.364,-40.527,-38.574,-31.250,-37.598,0.000
1709214936.368,-49.316,-48.828,-28.320,-51.270,0.000
1709214936.372,-40.527,-45.898,-22.949,-47.363,0.000
1709214936.376,-26.367,-42.969,-22.949,-16.113,0.000
1709214936.380,-25.879,-40.039,-31.738,-8.789,0.000
1709214936.384,-47.363,-39.551,-36.621,-38.574,0.000
1709214936.388,-64.941,-36.621,-32.715,-57.129,0.000
1709214936.392,-59.570,-30.273,-30.762,-46.875,0.000
1709214936.396,-41.504,-44.434,-36.133,-39.062,0.000
1709214936.400,-39.551,-54.199,-43.945,-36.133,0.000
1709214936.403,-58.105,-50.781,-38.574,-51.758,0.000
1709214936.407,-76.172,-48.340,-42.480,-73.242,0.000
1709214936.411,-74.219,-43.457,-48.828,-68.359,0.000
1709214936.415,-53.223,-47.363,-39.062,-48.340,0.000
1709214936.419,-38.574,-62.500,-33.691,-20.996,0.000
1709214936.423,-44.434,-59.570,-24.902,-24.902,0.000
1709214936.427,-56.641,-50.293,-25.391,-54.688,0.000
1709214936.431,-60.547,-49.805,-32.715,-62.012,0.000
1709214936.435,-35.156,-41.016,-28.320,-38.574,0.000
1709214936.439,-20.020,-36.133,-32.715,-19.531,0.000
1709214936.442,-28.809,-47.363,-40.039,-33.203,0.000
1709214936.446,-37.109,-52.734,-35.645,-49.805,0.000
1709214936.450,-44.434,-45.898,-46.875,-57.617,0.000
1709214936.454,-34.180,-44.434,-49.805,-40.039,0.000
1709214936.458,-14.648,-41.016,-36.621,-22.461,0.000
1709214936.462,-17.090,-50.293,-31.738,-34.180,0.000
1709214936.466,-33.691,-57.617,-34.668,-41.016,0.000
1709214936.470,-36.621,-47.363,-35.645,-47.363,0.000
1709214936.474,-28.320,-34.180,-34.180,-36.133,0.000
1709214936.478,-17.578,-33.691,-28.320,-13.184,0.000
1709214936.481,-9.766,-38.086,-32.715,-16.602,0.000
1709214936.485,-24.414,-47.852,-42.969,-41.016,0.000
1709214936.489,-48.340,-50.781,-48.828,-55.176,0.000
1709214936.493,-39.551,-45.410,-48.828,-44.922,0.000
1709214936.497,-18.066,-51.270,-41.992,-16.602,0.000
1709214936.501,-15.625,-47.363,-39.062,-1.953,0.000
1709214936.505,-34.180,-49.316,-35.645,-24.902,0.000
1709214936.509,-44.922,-52.734,-24.902,-35.645,0.000
1709214936.513,-35.156,-43.457,-28.809,-25.391,0.000
1709214936.517,-13.672,-47.363,-30.273,-10.254,0.000
1709214936.520,-7.812,-43.457,-40.527,-10.254,0.000
1709214936.524,-30.762,-30.273,-43.945,-38.574,0.000
1709214936.528,-51.270,-47.363,-37.598,-55.664,0.000
1709214936.532,-38.574,-58.105,-47.363,-45.898,0.000
1709214936.536,-25.879,-41.504,-43.457,-26.855,0.000
1709214936.540,-23.926,-32.715,-28.809,-21.484,0.000
1709214936.544,-41.992,-43.945,-31.250,-44.434,0.000
1709214936.548,-69.336,-49.316,-46.387,-69.824,0.000
1709214936.552,-59.082,-43.945,-48.340,-52.734,0.000
1709214936.555,-43.457,-53.711,-40.527,-30.762,0.000
1709214936.559,-38.086,-58.594,-43.457,-34.668,0.000
1709214936.563,-34.668,-53.223,-34.668,-44.922,0.000
1709214936.567,-43.945,-51.270,-26.855,-55.664,0.000
1709214936.571,-45.410,-50.781,-33.203,-48.828,0.000
1709214936.575,0.000,-59.082,-37.598,-28.809,0.000
1709214936.579,0.000,-52.246,-31.250,-14.160,0.000
1709214936.583,0.000,-42.480,-29.785,-19.531,0.000
1709214936.587,0.000,-48.828,-37.109,-41.016,0.000
1709214936.591,0.000,-49.805,-38.574,-44.922,0.000
1709214936.595,0.000,-45.898,-37.598,-25.391,0.000
1709214936.599,0.000,-46.875,-28.809,-8.301,0.000
1709214936.603,0.000,-47.363,-29.785,-16.113,0.000
1709214936.607,0.000,-49.316,-28.809,-34.668,0.000
1709214936.611,0.000,-43.945,-30.273,-34.180,0.000
1709214936.614,0.000,-42.480,-45.898,-27.344,0.000
1709214936.618,0.000,-42.480,-46.875,-21.484,0.000
1709214936.622,-18.066,-40.527,-43.457,-25.391,0.000
1709214936.626,-38.574,-49.316,-48.828,-48.828,0.000
1709214936.630,-55.664,-41.992,-55.176,-69.824,0.000
1709214936.634,-42.480,-40.527,-50.781,-57.129,0.000
1709214936.638,-14.160,-32.227,-37.598,-23.926,0.000
1709214936.642,-13.184,-27.344,-44.922,-25.879,0.000
1709214936.645,-32.715,-38.086,-41.504,-45.898,0.000
1709214936.649,-51.758,-40.527,-32.227,-56.152,0.000
1709214936.653,-45.410,-38.574,-30.273,-42.969,0.000
1709214936.657,-27.344,-47.852,-27.344,-18.555,0.000
1709214936.661,-30.273,-51.270,-31.738,-20.508,0.000
1709214936.665,-47.363,-37.109,-27.832,-42.480,0.000
1709214936.669,-51.758,-33.691,-19.043,-56.641,0.000
1709214936.673,-44.922,-37.109,-28.320,-49.316,0.000
1709214936.677,-32.227,-37.109,-35.645,-27.344,0.000
1709214936.681,-27.832,-39.062,-28.320,-27.344,0.000
1709214936.685,-47.363,-35.645,-33.203,-52.246,0.000
1709214936.688,-61.035,-52.734,-38.086,-56.641,0.000
1709214936.692,-52.246,-62.012,-36.621,-40.527,0.000
1709214936.696,-31.738,-49.316,-35.156,-24.902,0.000
1709214936.700,-20.020,-53.223,-32.715,-15.137,0.000
1709214936.704,-48.828,-56.641,-41.992,-27.344,0.000
1709214936.708,-75.684,-45.898,-41.992,-55.664,0.000
1709214936.712,-64.941,-38.086,-35.645,-52.246,0.000
1709214936.716,-49.805,-41.992,-37.109,-30.762,0.000
1709214936.720,-43.457,-34.668,-37.109,-26.855,0.000
1709214936.724,-53.223,-35.156,-45.410,-47.852,0.000
1709214936.728,-66.895,-46.387,-47.852,-68.848,0.000
1709214936.731,-59.082,-44.434,-41.016,-59.082,0.000
1709214936.735,-36.133,-46.875,-34.668,-35.645,0.000
1709214936.739,-28.320,-46.387,-33.691,-26.367,0.000
1709214936.743,-36.621,-42.480,-36.133,-43.945,0.000
1709214936.747,-47.363,-49.316,-26.367,-60.059,0.000
1709214936.751,-53.223,-47.363,-16.113,-49.805,0.000
1709214936.755,-41.016,-39.551,-23.926,-33.203,0.000
1709214936.759,-18.066,-40.039,-37.109,-17.578,0.000
1709214936.763,-20.996,-50.293,-48.340,-16.602,0.000
1709214936.767,-43.457,-50.781,-41.016,-43.945,0.000
1709214936.770,-45.898,-41.504,-31.250,-58.594,0.000
1709214936.774,-30.762,-44.922,-31.738,-41.992,0.000
1709214936.778,-19.531,-55.664,-35.645,-22.461,0.000
1709214936.782,-23.926,-56.641,-34.668,-26.855,0.000
1709214936.786,-45.898,-55.176,-31.738,-59.082,0.000
1709214936.790,-61.523,-56.152,-34.668,-78.125,0.000
1709214936.794,-50.781,-52.734,-27.832,-53.711,0.000
1709214936.798,-41.992,-50.293,-24.902,-41.504,0.000
1709214936.802,-50.781,-51.758,-38.086,-57.129,0.000
1709214936.806,-67.871,-61.035,-46.387,-75.195,0.000
1709214936.809,-72.754,-59.570,-39.551,-79.590,0.000
1709214936.813,-57.617,-51.758,-40.527,-57.129,0.000
1709214936.817,-36.133,-46.875,-40.039,-32.715,0.000
1709214936.821,-32.227,-38.086,-35.645,-29.785,0.000
1709214936.825,-56.152,-43.945,-44.922,-49.316,0.000
1709214936.829,-64.453,-48.340,-44.434,-62.988,0.000
1709214936.833,-45.410,-47.363,-33.203,-49.316,0.000
1709214936.837,-32.715,-43.945,-34.668,-33.203,0.000
1709214936.841,-36.133,-36.133,-36.621,-35.156,0.000
1709214936.845,-40.039,-35.645,-33.691,-45.898,0.000
1709214936.848,-42.969,-29.785,-34.668,-54.688,0.000
1709214936.852,-36.621,-41.016,-43.457,-35.645,0.000
1709214936.856,-19.043,-43.945,-41.504,-13.672,0.000
1709214936.860,-13.672,-32.227,-35.645,-15.137,0.000
1709214936.864,-29.785,-37.598,-45.410,-39.062,0.000
1709214936.868,-43.457,-47.363,-43.945,-57.617,0.000
1709214936.872,-40.527,-47.363,-37.598,-47.363,0.000
1709214936.876,-31.250,-50.781,-44.922,-33.691,0.000
1709214936.880,-22.949,-51.758,-55.176,-27.832,0.000
1709214936.884,-25.391,-47.852,-45.898,-31.738,0.000
1709214936.887,-35.156,-52.246,-30.273,-50.781,0.000
1709214936.891,-32.227,-43.457,-35.156,-42.969,0.000
1709214936.895,-20.020,-38.086,-43.457,-19.043,0.000
1709214936.899,-16.602,-50.293,-44.434,-15.625,0.000
1709214936.903,-24.414,-46.875,-40.039,-21.973,0.000
1709214936.907,-42.969,-36.133,-30.273,-40.039,0.000
1709214936.911,-48.828,-40.039,-24.902,-42.969,0.000
1709214936.915,-30.273,-45.898,-32.715,-19.531,0.000
1709214936.918,-21.484,-54.199,-44.922,-11.719,0.000
1709214936.922,-32.227,-62.012,-29.785,-30.273,0.000
1709214936.926,-48.340,-60.547,-18.066,-49.316,0.000
1709214936.930,-52.734,-46.387,-27.344,-39.551,0.000
1709214936.934,-44.922,-43.945,-35.645,-26.367,0.000
1709214936.938,-34.180,-52.734,-39.551,-14.160,0.000
1709214936.942,-30.762,-51.270,-34.668,-21.484,0.000
1709214936.946,-38.574,-35.156,-31.250,-47.363,0.000
1709214936.950,-48.828,-41.016,-34.668,-51.270,0.000
1709214936.954,-47.852,-62.012,-41.016,-41.992,0.000
1709214936.958,-36.133,-60.059,-44.434,-29.297,0.000
1709214936.962,-30.273,-47.363,-41.016,-27.344,0.000
1709214936.966,-45.410,-38.574,-45.410,-52.246,0.000
1709214936.969,-58.105,-40.527,-39.551,-60.059,0.000
1709214936.973,-44.922,-45.410,-31.250,-32.227,0.000
1709214936.977,-24.414,-38.574,-26.367,-9.277,0.000
1709214936.981,-24.414,-41.992,-32.715,-18.555,0.000
1709214936.985,-50.293,-51.270,-47.852,-54.199,0.000
1709214936.989,-58.105,-45.898,-45.898,-69.824,0.000
1709214936.993,-48.828,-40.527,-46.875,-55.176,0.000
1709214936.996,-34.668,-48.340,-50.293,-32.227,0.000
1709214937.000,-26.367,-48.828,-44.434,-30.762,0.000
1709214937.004,-41.016,-36.621,-40.039,-47.363,0.000
1709214937.008,-57.129,-41.016,-39.062,-57.617,0.000
1709214937.012,-42.969,-45.410,-45.410,-43.945,0.000
1709214937.016,-19.531,-44.434,-48.828,-24.414,0.000
1709214937.020,-17.578,-50.293,-39.062,-17.090,0.000
1709214937.024,-25.391,-47.363,-29.297,-36.621,0.000
1709214937.028,-45.410,-46.387,-39.062,-62.988,0.000
1709214937.032,-49.316,-42.969,-43.457,-49.805,0.000
1709214937.036,-32.227,-41.016,-41.504,-22.949,0.000
1709214937.039,-41.992,-54.199,-47.852,-33.691,0.000
1709214937.043,-56.152,-59.570,-45.898,-47.363,0.000
1709214937.047,-65.430,-65.430,-44.434,-55.664,0.000
1709214937.051,-62.012,-49.805,-43.945,-48.340,0.000
1709214937.055,-37.109,-34.668,-39.551,-23.926,0.000
1709214937.059,-21.973,-34.180,-44.922,-11.230,0.000
1709214937.063,-38.574,-42.969,-46.387,-41.504,0.000
1709214937.067,-53.711,-46.387,-34.180,-64.941,0.000
1709214937.071,-53.711,-45.898,-34.180,-57.129,0.000
1709214937.075,-38.086,-46.387,-39.551,-40.527,0.000
1709214937.079,-23.438,-44.922,-39.062,-13.184,0.000
1709214937.082,-32.715,-46.875,-41.016,-24.902,0.000
1709214937.086,-49.805,-49.316,-37.109,-47.363,0.000
1709214937.090,-56.152,-47.363,-33.203,-45.410,0.000
1709214937.094,-46.387,-56.152,-39.551,-31.250,0.000
1709214937.098,-26.855,-68.359,-43.457,-17.578,0.000
1709214937.102,-30.273,-48.828,-43.457,-28.809,0.000
1709214937.106,-50.781,-41.504,-46.387,-51.270,0.000
1709214937.110,-52.246,-51.270,-40.527,-53.223,0.000
1709214937.114,-28.809,-39.551,-26.367,-34.180,0.000
1709214937.118,-20.508,-36.133,-28.320,-27.344,0.000
1709214937.122,-26.367,-55.664,-37.598,-19.043,0.000
1709214937.126,-37.598,-53.711,-30.273,-31.250,0.000
1709214937.129,-47.363,-50.293,-35.645,-60.059,0.000
1709214937.133,-32.715,-57.617,-41.016,-43.457,0.000
1709214937.137,-25.879,-45.898,-37.109,-24.902,0.000
1709214937.141,-32.715,-42.969,-41.016,-34.668,0.000
1709214937.145,-48.340,-47.852,-42.969,-48.340,0.000
1709214937.149,-56.152,-41.504,-38.574,-46.387,0.000
1709214937.153,-47.852,-44.434,-44.434,-38.086,0.000
1709214937.157,-38.574,-51.758,-43.457,-38.574,0.000
1709214937.161,-30.273,-45.898,-37.598,-36.621,0.000
1709214937.165,-41.992,-57.617,-39.062,-44.434,0.000
1709214937.168,-53.223,-66.406,-29.785,-41.016,0.000
1709214937.172,-48.828,-45.410,-31.250,-35.156,0.000
1709214937.176,-32.227,-37.109,-30.273,-27.832,0.000
1709214937.180,-25.391,-40.527,-26.855,-20.996,0.000
1709214937.184,-48.340,-44.434,-39.062,-41.992,0.000
1709214937.188,-65.430,-37.109,-37.598,-54.199,0.000
1709214937.192,-52.734,-35.156,-26.855,-34.668,0.000
1709214937.196,-31.250,-41.992,-30.762,-13.672,0.000
1709214937.200,-27.344,-43.457,-42.969,-19.531,0.000
1709214937.204,-43.457,-50.293,-42.480,-43.945,0.000
1709214937.207,-63.477,-55.176,-39.551,-57.129,0.000
1709214937.211,-54.199,-44.434,-29.297,-41.016,0.000
1709214937.215,-30.762,-43.457,-28.809,-11.230,0.000
1709214937.219,-20.996,-40.039,-33.203,-5.859,0.000
1709214937.223,-25.879,-37.109,-30.273,-18.555,0.000
1709214937.227,-35.645,-41.992,-22.949,-31.738,0.000
1709214937.231,-37.109,-45.898,-32.715,-32.715,0.000
1709214937.235,-20.020,-46.387,-35.156,-13.672,0.000
1709214937.239,-5.371,-49.805,-28.809,-0.488,0.000
1709214937.242,-7.812,-64.941,-32.715,-4.395,0.000
1709214937.246,-21.973,-50.293,-31.250,-21.484,0.000
1709214937.250,-41.016,-39.062,-27.344,-28.320,0.000
1709214937.254,-31.250,-46.387,-29.785,-13.184,0.000
1709214937.258,-10.742,-40.527,-28.320,8.789,0.000
1709214937.262,-22.461,-33.691,-32.227,-0.488,0.000
1709214937.266,-40.527,-30.273,-38.086,-28.809,0.000
1709214937.270,-44.434,-38.574,-35.156,-39.062,0.000
1709214937.274,-28.809,-40.039,-36.133,-29.297,0.000
1709214937.277,-18.066,-37.598,-38.574,-19.531,0.000
1709214937.281,-31.738,-41.016,-39.551,-22.949,0.000
1709214937.285,-46.875,-37.109,-39.551,-42.480,0.000
1709214937.289,-51.758,-37.109,-48.828,-60.059,0.000
1709214937.293,-40.039,-55.664,-41.504,-44.922,0.000
1709214937.297,-23.438,-62.012,-32.227,-31.738,0.000
1709214937.301,-27.832,-45.410,-43.457,-35.645,0.000
1709214937.305,-45.410,-37.598,-45.410,-43.457,0.000
1709214937.309,-48.340,-38.086,-30.762,-47.852,0.000
1709214937.313,-35.156,-40.039,-35.156,-37.109,0.000
1709214937.316,-20.508,-32.715,-39.062,-14.648,0.000
1709214937.320,-20.996,-42.480,-32.227,-13.184,0.000
1709214937.324,-43.945,-65.918,-38.086,-48.828,0.000
1709214937.328,-58.594,-50.293,-39.551,-61.523,0.000
1709214937.332,-40.039,-38.086,-38.086,-41.016,0.000
1709214937.336,-21.484,-47.852,-49.316,-21.973,0.000
1709214937.340,-24.414,-53.223,-49.316,-25.879,0.000
1709214937.344,-40.527,-57.129,-33.203,-39.551,0.000
1709214937.348,-52.734,-54.688,-30.762,-49.805,0.000
1709214937.352,-46.875,-43.945,-41.016,-46.387,0.000
1709214937.356,-22.949,-28.809,-39.551,-18.555,0.000
1709214937.360,-20.020,-46.875,-46.387,-16.602,0.000
1709214937.364,-39.062,-72.266,-48.828,-37.109,0.000
1709214937.367,-47.852,-61.523,-41.504,-48.340,0.000
1709214937.371,-43.457,-45.898,-41.504,-43.945,0.000
1709214937.375,-34.180,-44.434,-50.293,-33.691,0.000
1709214937.379,-26.367,-46.875,-40.527,-25.391,0.000
1709214937.383,-28.320,-40.039,-27.832,-37.109,0.000
1709214937.387,-52.734,-46.387,-36.133,-69.336,0.000
1709214937.391,-58.105,-50.293,-39.062,-69.336,0.000
1709214937.394,-45.898,-39.062,-39.062,-46.875,0.000
1709214937.398,-27.832,-35.156,-37.598,-30.762,0.000
1709214937.402,-33.203,-35.645,-36.133,-40.039,0.000
1709214937.406,-54.199,-43.457,-34.180,-56.641,0.000
1709214937.410,-47.852,-54.688,-32.227,-50.293,0.000
1709214937.414,-31.738,-47.363,-33.691,-35.645,0.000
1709214937.418,-27.832,-37.109,-28.320,-21.484,0.000
1709214937.422,-34.668,-34.668,-34.668,-28.320,0.000
1709214937.426,-55.176,-33.203,-42.480,-46.387,0.000
1709214937.430,-68.359,-45.898,-51.270,-61.523,0.000
1709214937.434,-53.711,-46.387,-49.316,-42.969,0.000
1709214937.438,-35.156,-36.621,-37.598,-14.160,0.000
1709214937.441,-43.457,-34.180,-35.156,-23.438,0.000
1709214937.445,-51.758,-45.898,-33.691,-44.922,0.000
1709214937.449,-51.270,-57.617,-31.738,-55.664,0.000
1709214937.453,-43.457,-51.270,-34.180,-34.668,0.000
1709214937.457,-26.855,-47.363,-36.133,-19.043,0.000
1709214937.461,-17.090,-48.828,-33.691,-21.973,0.000
1709214937.465,-34.668,-41.992,-45.898,-40.039,0.000
1709214937.469,-53.223,-40.039,-49.805,-62.012,0.000
1709214937.473,-43.945,-49.316,-46.387,-47.852,0.000
1709214937.477,-19.043,-51.270,-48.828,-20.508,0.000
1709214937.481,-8.789,-37.109,-44.434,-19.043,0.000
1709214937.484,-29.297,-32.715,-38.574,-41.016,0.000
1709214937.488,-40.527,-38.574,-38.574,-49.316,0.000
1709214937.492,-28.809,-45.410,-39.551,-34.180,0.000
1709214937.496,-24.902,-43.457,-47.852,-22.461,0.000
1709214937.500,-25.391,-38.574,-49.316,-25.879,0.000
1709214937.504,-40.527,-51.758,-41.016,-49.805,0.000
1709214937.508,-48.340,-53.711,-36.621,-57.129,0.000
1709214937.512,-39.062,-51.758,-43.945,-48.340,0.000
1709214937.516,-32.227,-45.410,-53.223,-39.062,0.000
1709214937.520,-25.879,-40.527,-39.551,-33.203,0.000
1709214937.523,-41.504,-37.109,-24.414,-47.852,0.000
1709214937.527,-62.988,-38.574,-30.273,-66.895,0.000
1709214937.531,-58.594,-44.434,-41.504,-62.500,0.000
1709214937.535,-39.551,-45.410,-32.715,-41.992,0.000
1709214937.539,-29.297,-51.270,-27.344,-38.086,0.000
1709214937.543,-45.410,-57.129,-34.668,-43.457,0.000
1709214937.547,-54.688,-38.574,-33.691,-52.246,0.000
1709214937.551,-40.039,-28.809,-28.809,-43.945,0.000
1709214937.555,-26.367,-43.945,-34.668,-21.484,0.000
1709214937.559,-27.344,-48.828,-45.410,-20.996,0.000
1709214937.562,-32.227,-34.668,-41.992,-34.180,0.000
1709214937.566,-43.457,-26.855,-28.809,-43.945,0.000
1709214937.570,-51.758,-33.691,-33.203,-47.363,0.000
1709214937.574,-36.133,-40.039,-33.691,-34.180,0.000
1709214937.578,-21.973,-40.039,-32.715,-22.949,0.000
1709214937.582,-27.832,-45.410,-42.480,-36.133,0.000
1709214937.586,-45.410,-54.688,-41.016,-54.688,0.000
1709214937.590,-50.781,-54.199,-34.180,-43.457,0.000
1709214937.594,-35.645,-43.945,-26.367,-31.738,0.000
1709214937.598,-21.973,-40.527,-30.273,-16.602,0.000
1709214937.602,-31.738,-49.316,-38.574,-18.555,0.000
1709214937.605,-46.387,-45.898,-31.738,-35.156,0.000
1709214937.609,-40.527,-31.250,-21.973,-35.156,0.000
1709214937.613,-32.715,-39.551,-27.344,-26.855,0.000
1709214937.617,-26.855,-45.898,-28.320,-13.672,0.000
1709214937.621,-31.738,-43.457,-32.227,-19.043,0.000
1709214937.625,-41.504,-43.457,-38.086,-40.039,0.000
1709214937.629,-45.898,-38.574,-36.133,-45.410,0.000
1709214937.633,-40.527,-33.691,-36.621,-26.367,0.000
1709214937.637,-20.020,-30.762,-38.574,-9.277,0.000
1709214937.640,-20.996,-33.691,-39.062,-14.648,0.000
1709214937.644,-43.457,-41.504,-34.180,-42.480,0.000
1709214937.648,-49.316,-41.992,-32.715,-53.223,0.000
1709214937.652,-42.969,-30.762,-31.250,-41.016,0.000
1709214937.656,-36.621,-35.156,-30.762,-30.762,0.000
1709214937.660,-29.785,-39.551,-30.762,-25.879,0.000
1709214937.664,-35.156,-38.574,-27.344,-40.527,0.000
1709214937.668,-46.387,-45.898,-31.250,-56.152,0.000
1709214937.672,-39.551,-49.805,-28.809,-44.922,0.000
1709214937.675,-20.508,-47.852,-28.809,-19.043,0.000
1709214937.679,-22.461,-41.992,-38.086,-11.230,0.000
1709214937.683,-35.645,-43.457,-32.715,-27.832,0.000
1709214937.687,-50.293,-49.316,-27.344,-48.340,0.000
1709214937.691,-49.316,-46.875,-27.344,-35.156,0.000
1709214937.695,-31.738,-48.828,-33.203,-7.812,0.000
1709214937.699,-21.484,-43.945,-38.086,-6.348,0.000
1709214937.703,-36.133,-38.574,-33.691,-31.250,0.000
1709214937.707,-54.688,-46.875,-34.180,-54.688,0.000
1709214937.711,-46.875,-57.129,-32.227,-41.992,0.000
1709214937.715,-32.715,-50.781,-32.227,-18.066,0.000
1709214937.719,-27.832,-49.316,-37.598,-13.184,0.000
1709214937.722,-38.574,-52.734,-39.551,-22.461,0.000
1709214937.726,-51.758,-45.410,-36.133,-37.598,0.000
1709214937.730,-53.711,-45.898,-36.621,-37.109,0.000
1709214937.734,-37.598,-47.852,-40.039,-15.137,0.000
1709214937.738,-25.879,-44.434,-38.574,-9.277,0.000
1709214937.742,-42.480,-49.805,-35.645,-31.250,0.000
1709214937.746,-59.570,-52.734,-31.250,-45.410,0.000
1709214937.750,-58.105,-46.875,-35.156,-47.363,0.000
1709214937.754,-37.109,-41.504,-35.645,-37.598,0.000
1709214937.757,-21.973,-43.457,-39.551,-27.344,0.000
1709214937.761,-30.273,-41.504,-46.387,-40.039,0.000
1709214937.765,-40.039,-41.016,-38.086,-56.152,0.000
1709214937.769,-42.480,-40.039,-35.156,-55.664,0.000
1709214937.773,-30.762,-43.945,-48.828,-43.457,0.000
1709214937.777,-18.066,-52.246,-49.805,-22.949,0.000
1709214937.781,-25.879,-56.641,-42.969,-20.020,0.000
1709214937.785,-46.875,-50.781,-39.551,-37.598,0.000
1709214937.789,-52.246,-46.875,-32.715,-49.316,0.000
1709214937.793,-41.016,-46.387,-29.785,-39.551,0.000
1709214937.797,-25.879,-35.645,-38.086,-22.949,0.000
1709214937.801,-30.273,-31.250,-47.363,-30.273,0.000
1709214937.804,-42.969,-38.086,-43.945,-54.688,0.000
1709214937.808,-45.898,-41.016,-37.109,-56.152,0.000
1709214937.812,-39.062,-48.340,-37.598,-44.434,0.000
1709214937.816,-17.090,-43.945,-33.203,-24.902,0.000
1709214937.820,-19.531,-42.969,-41.992,-20.996,0.000
1709214937.824,-37.109,-45.898,-36.621,-38.574,0.000
1709214937.828,-44.922,-35.645,-21.973,-42.480,0.000
1709214937.832,-39.062,-45.898,-27.832,-35.156,0.000
1709214937.836,-21.484,-46.875,-27.832,-12.695,0.000
1709214937.840,-10.742,-34.668,-22.461,0.000,0.000
1709214937.844,-31.738,-40.039,-34.668,-26.855,0.000
1709214937.847,-52.246,-39.551,-42.969,-46.387,0.000
1709214937.851,-41.016,-38.086,-37.598,-40.527,0.000
1709214937.855,-27.832,-45.898,-29.297,-24.902,0.000
1709214937.859,-27.344,-48.828,-34.180,-17.090,0.000
1709214937.863,-40.039,-37.109,-40.527,-44.434,0.000
1709214937.867,-61.523,-39.551,-37.109,-66.406,0.000
1709214937.871,-60.547,-51.758,-31.738,-42.969,0.000
1709214937.875,-31.738,-38.086,-24.902,-10.742,0.000
1709214937.879,-24.902,-31.738,-33.203,-25.391,0.000
1709214937.883,-40.527,-38.086,-48.340,-48.828,0.000
1709214937.886,-52.734,-45.898,-46.387,-56.641,0.000
1709214937.890,-45.898,-47.363,-32.227,-43.945,0.000
1709214937.894,-24.414,-30.762,-39.062,-22.461,0.000
1709214937.898,-19.531,-28.809,-45.410,-21.484,0.000
1709214937.902,-31.738,-42.969,-28.809,-33.691,0.000
1709214937.906,-44.434,-46.387,-23.438,-41.016,0.000
1709214937.910,-43.945,-34.180,-33.691,-42.969,0.000
1709214937.914,-23.438,-35.645,-32.227,-27.344,0.000
1709214937.918,-10.742,-47.852,-32.227,-6.836,0.000
1709214937.922,-17.578,-46.875,-37.109,-18.066,0.000
1709214937.926,-38.574,-40.039,-40.527,-45.898,0.000
1709214937.929,-45.898,-44.434,-46.875,-48.828,0.000
1709214937.933,-33.203,-44.434,-40.039,-33.203,0.000
1709214937.937,-24.902,-33.203,-40.527,-26.367,0.000
1709214937.941,-25.391,-44.922,-52.246,-32.715,0.000
1709214937.945,-36.133,-59.082,-53.711,-52.246,0.000
1709214937.949,-46.387,-47.852,-46.387,-65.918,0.000
1709214937.953,-28.809,-39.062,-37.109,-44.922,0.000
1709214937.957,-14.160,-33.691,-33.203,-23.438,0.000
1709214937.961,-19.531,-37.598,-35.645,-26.367,0.000
1709214937.965,-39.062,-44.434,-36.621,-42.480,0.000
1709214937.968,-48.828,-42.480,-37.109,-57.617,0.000
1709214937.972,-40.039,-46.875,-35.156,-46.875,0.000
1709214937.976,-27.344,-50.293,-30.762,-30.762,0.000
1709214937.980,-24.414,-42.969,-28.809,-32.227,0.000
1709214937.984,-44.434,-45.898,-38.086,-55.664,0.000
1709214937.988,-58.594,-52.734,-45.410,-67.871,0.000
1709214937.992,-57.129,-57.129,-34.668,-56.152,0.000
1709214937.996,-40.039,-55.664,-38.086,-40.039,0.000
1709214938.000,-28.809,-46.875,-36.133,-33.203,0.000
1709214938.003,-43.457,-48.828,-23.438,-44.434,0.000
1709214938.007,-57.617,-52.734,-29.785,-50.293,0.000
1709214938.011,-49.805,-44.922,-39.062,-39.062,0.000
1709214938.015,-27.832,-40.039,-38.574,-29.785,0.000
1709214938.019,-18.066,-37.598,-31.250,-25.391,0.000
1709214938.023,-36.621,-34.668,-25.879,-30.762,0.000
1709214938.027,-49.805,-39.062,-35.156,-43.945,0.000
1709214938.031,-42.480,-48.340,-43.945,-45.410,0.000
1709214938.035,-25.879,-45.410,-37.109,-25.391,0.000
1709214938.038,-18.066,-42.480,-28.320,-17.090,0.000
1709214938.042,-26.367,-43.457,-29.297,-30.762,0.000
1709214938.046,-39.062,-50.781,-35.156,-50.781,0.000
1709214938.050,-39.062,-65.918,-38.086,-43.457,0.000
1709214938.054,-21.973,-67.383,-44.434,-13.184,0.000
1709214938.058,-10.742,-50.781,-43.457,-2.930,0.000
1709214938.062,-22.461,-39.551,-28.320,-17.090,0.000
1709214938.066,-37.109,-41.992,-32.227,-31.738,0.000
1709214938.070,-36.621,-50.781,-48.340,-34.668,0.000
1709214938.074,-24.902,-50.293,-42.480,-23.438,0.000
1709214938.078,-13.184,-41.504,-27.344,-11.230,0.000
1709214938.082,-18.555,-39.551,-25.391,-20.996,0.000
1709214938.086,-43.457,-41.992,-36.621,-49.805,0.000
1709214938.089,-46.875,-48.340,-34.668,-46.875,0.000
1709214938.093,-22.461,-41.992,-27.832,-11.230,0.000
1709214938.097,-16.602,-35.645,-34.668,4.395,0.000
1709214938.101,-28.809,-47.363,-39.551,-12.695,0.000
1709214938.105,-43.457,-47.852,-31.738,-34.668,0.000
1709214938.109,-59.570,-49.316,-29.297,-35.156,0.000
1709214938.113,-52.246,-58.594,-44.434,-19.043,0.000
1709214938.117,-32.227,-46.875,-49.316,-11.719,0.000
1709214938.120,-33.203,-33.203,-40.039,-19.043,0.000
1709214938.124,-51.270,-41.992,-31.250,-41.504,0.000
1709214938.128,-59.570,-41.504,-34.180,-50.781,0.000
1709214938.132,-50.781,-43.945,-39.551,-34.180,0.000
1709214938.136,-36.621,-51.758,-28.320,-19.043,0.000
1709214938.140,-43.945,-41.504,-29.785,-34.180,0.000
1709214938.144,-61.523,-35.156,-34.668,-58.105,0.000
1709214938.148,-65.430,-37.598,-36.621,-63.477,0.000
1709214938.152,-52.246,-38.574,-43.457,-41.992,0.000
1709214938.156,-32.227,-42.480,-44.922,-18.555,0.000
1709214938.159,-22.461,-52.734,-44.434,-8.301,0.000
1709214938.163,-27.832,-53.223,-39.062,-28.809,0.000
1709214938.167,-43.457,-43.457,-26.367,-42.969,0.000
1709214938.171,-49.805,-41.016,-30.762,-37.598,0.000
1709214938.175,-37.598,-37.109,-35.645,-29.297,0.000
1709214938.179,-27.344,-33.691,-31.738,-13.184,0.000
1709214938.183,-43.945,-52.246,-30.273,-34.180,0.000
1709214938.187,-64.941,-62.500,-36.133,-63.965,0.000
1709214938.191,-56.152,-55.176,-43.457,-54.688,0.000
1709214938.195,-31.250,-56.641,-44.434,-30.762,0.000
1709214938.199,-30.762,-49.316,-40.527,-23.926,0.000
1709214938.203,-44.434,-40.527,-43.457,-30.273,0.000
1709214938.206,-52.246,-53.711,-45.898,-44.922,0.000
1709214938.210,-43.945,-49.805,-34.668,-49.805,0.000
1709214938.214,-34.180,-33.203,-33.691,-45.898,0.000
1709214938.218,-35.156,-43.945,-39.062,-44.434,0.000
1709214938.222,-47.363,-50.781,-35.156,-55.176,0.000
1709214938.226,-61.523,-50.293,-34.668,-71.289,0.000
1709214938.230,-55.664,-46.875,-40.039,-64.453,0.000
1709214938.234,-34.668,-41.016,-42.969,-40.039,0.000
1709214938.238,-26.367,-47.852,-35.645,-31.250,0.000
1709214938.242,-37.109,-64.941,-38.574,-46.387,0.000
1709214938.246,-53.223,-47.852,-42.969,-64.941,0.000
1709214938.249,-53.711,-39.062,-29.785,-56.152,0.000
1709214938.253,-41.992,-49.316,-29.297,-33.691,0.000
1709214938.257,-32.227,-40.527,-25.879,-22.949,0.000
1709214938.261,-31.738,-36.133,-25.879,-31.250,0.000
1709214938.265,-53.711,-48.828,-39.062,-54.688,0.000
1709214938.269,-63.965,-50.781,-41.992,-56.641,0.000
1709214938.273,-41.504,-46.387,-39.551,-34.668,0.000
1709214938.277,-25.879,-51.270,-38.086,-24.414,0.000
1709214938.281,-26.855,-47.363,-31.250,-28.809,0.000
1709214938.285,-43.945,-39.551,-28.809,-48.340,0.000
1709214938.289,-58.105,-45.410,-41.016,-58.105,0.000
1709214938.292,-42.969,-54.688,-42.480,-31.250,0.000
1709214938.296,-19.531,-44.434,-24.414,-15.625,0.000
1709214938.300,-18.555,-39.551,-23.438,-27.832,0.000
1709214938.304,-42.480,-41.016,-43.945,-50.781,0.000
1709214938.308,0.000,-39.551,0.000,0.000,0.000
1709214938.312,0.000,-41.504,0.000,0.000,0.000
1709214938.316,0.000,-43.457,0.000,0.000,0.000
1709214938.320,0.000,-34.668,0.000,0.000,0.000
1709214938.324,0.000,-35.645,0.000,0.000,0.000
1709214938.328,0.000,-38.574,0.000,0.000,0.000
1709214938.332,0.000,-41.016,0.000,0.000,0.000
1709214938.335,0.000,-39.551,0.000,0.000,0.000
1709214938.339,0.000,-36.133,0.000,0.000,0.000
1709214938.343,0.000,-40.039,0.000,0.000,0.000
1709214938.347,0.000,-38.574,0.000,0.000,0.000
1709214938.351,0.000,-34.668,0.000,0.000,0.000
1709214938.355,-32.227,-33.691,-29.297,-21.973,0.000
1709214938.359,-18.555,-53.711,-31.738,-24.414,0.000
1709214938.363,-34.180,-54.688,-32.227,-38.574,0.000
1709214938.367,-57.617,-36.133,-35.156,-61.523,0.000
1709214938.370,-58.105,-34.180,-37.109,-61.035,0.000
1709214938.374,-42.480,-45.410,-38.574,-34.180,0.000
1709214938.378,-32.715,-49.316,-46.875,-23.926,0.000
1709214938.382,-39.062,-41.504,-41.992,-36.133,0.000
1709214938.386,-48.340,-39.062,-27.344,-51.270,0.000
1709214938.390,-35.156,-33.203,-17.090,-44.434,0.000
1709214938.394,-19.043,-37.109,-26.855,-27.344,0.000
1709214938.398,-15.137,-45.410,-31.250,-20.996,0.000
1709214938.402,-22.949,-37.109,-32.715,-26.855,0.000
1709214938.405,-42.969,-35.645,-41.504,-47.363,0.000
1709214938.409,-53.711,-41.992,-48.828,-57.617,0.000
1709214938.413,-40.039,-39.062,-48.340,-38.086,0.000
1709214938.417,-27.832,-41.504,-46.875,-27.832,0.000
1709214938.421,-32.715,-45.410,-49.316,-35.156,0.000
1709214938.425,-47.363,-41.016,-44.434,-48.828,0.000
1709214938.429,-53.711,-37.598,-39.062,-55.176,0.000
1709214938.433,-46.875,-38.574,-44.922,-42.480,0.000
1709214938.437,-32.227,-43.457,-36.133,-26.855,0.000
1709214938.441,-26.855,-51.270,-34.668,-23.438,0.000
1709214938.445,-36.133,-36.133,-42.969,-36.621,0.000
1709214938.449,-44.922,-30.762,-44.922,-54.199,0.000
1709214938.453,-33.203,-32.227,-38.086,-46.387,0.000
1709214938.456,-14.648,-27.344,-38.574,-25.391,0.000
1709214938.460,-15.137,-38.086,-46.387,-27.832,0.000
1709214938.464,-37.598,-46.875,-40.527,-48.340,0.000
1709214938.468,-47.363,-37.109,-30.762,-58.594,0.000
1709214938.472,-38.086,-42.969,-30.762,-39.062,0.000
1709214938.476,-31.738,-53.711,-35.645,-25.879,0.000
1709214938.480,-38.574,-41.504,-36.133,-33.691,0.000
1709214938.484,-57.617,-42.969,-39.062,-49.316,0.000
1709214938.488,-63.965,-42.969,-41.504,-60.547,0.000
1709214938.492,-46.387,-35.156,-36.621,-45.410,0.000
1709214938.495,-25.391,-41.016,-35.645,-22.461,0.000
1709214938.499,-23.438,-50.781,-42.480,-21.973,0.000
1709214938.503,-44.434,-46.875,-53.711,-45.410,0.000
1709214938.507,-51.270,-39.551,-45.898,-52.246,0.000
1709214938.511,-32.715,-40.527,-30.273,-31.250,0.000
1709214938.515,-14.648,-43.457,-19.531,-10.254,0.000
1709214938.519,-12.695,-41.016,-31.250,-12.207,0.000
1709214938.523,-28.809,-39.062,-48.828,-35.645,0.000
1709214938.526,-52.734,-42.480,-41.992,-54.688,0.000
1709214938.530,-42.480,-43.457,-31.738,-41.504,0.000
1709214938.534,-16.113,-43.945,-31.250,-7.812,0.000
1709214938.538,-15.625,-54.688,-36.133,-5.371,0.000
1709214938.542,-31.250,-54.688,-43.945,-25.879,0.000
1709214938.546,-47.852,-39.062,-50.781,-40.039,0.000
1709214938.550,-49.316,-46.387,-38.574,-34.668,0.000
1709214938.554,-35.645,-52.246,-31.250,-13.672,0.000
1709214938.558,-24.414,-45.410,-38.574,-8.301,0.000
1709214938.562,-34.180,-44.434,-35.645,-28.320,0.000
1709214938.566,-50.293,-39.551,-29.785,-46.387,0.000
1709214938.570,-50.293,-38.086,-38.574,-42.969,0.000
1709214938.573,-35.156,-41.504,-41.992,-29.297,0.000
1709214938.577,-21.484,-39.551,-29.785,-4.883,0.000
1709214938.581,-33.203,-61.035,-34.668,-19.531,0.000
1709214938.585,-53.711,-62.012,-47.363,-51.758,0.000
1709214938.589,-55.664,-52.246,-55.176,-52.734,0.000
1709214938.593,-40.527,-56.152,-39.062,-30.273,0.000
1709214938.597,-31.738,-47.852,-27.832,-20.996,0.000
1709214938.601,-33.691,-45.410,-34.668,-31.250,0.000
1709214938.605,-50.781,-51.758,-31.250,-48.828,0.000
1709214938.609,-62.500,-54.199,-27.832,-63.965,0.000
1709214938.613,-41.016,-52.246,-20.508,-40.039,0.000
1709214938.616,-24.902,-51.758,-35.156,-29.785,0.000
1709214938.620,-30.273,-56.641,-43.945,-41.504,0.000
1709214938.624,-51.270,-63.477,-34.180,-46.387,0.000
1709214938.628,-56.152,-50.293,-39.062,-61.523,0.000
1709214938.632,-43.457,-44.434,-41.016,-48.340,0.000
1709214938.636,-33.691,-49.805,-35.645,-26.367,0.000
1709214938.640,-33.691,-47.363,-34.668,-31.250,0.000
1709214938.644,-47.363,-45.898,-36.621,-50.293,0.000
1709214938.648,-56.641,-47.852,-35.645,-58.105,0.000
1709214938.652,-50.293,-54.688,-33.691,-46.387,0.000
1709214938.656,-33.203,-54.688,-37.109,-26.855,0.000
1709214938.659,-25.391,-52.246,-34.668,-20.996,0.000
1709214938.663,-37.109,-52.246,-29.785,-36.133,0.000
1709214938.667,-46.875,-52.734,-32.715,-41.016,0.000
1709214938.671,-47.363,-55.664,-46.875,-47.363,0.000
1709214938.675,-36.133,-42.969,-42.969,-34.668,0.000
1709214938.679,-23.438,-39.062,-30.762,-17.578,0.000
1709214938.684,-38.574,-43.945,-30.762,-39.062,0.000
1709214938.688,-54.199,-46.875,-36.133,-59.082,0.000
1709214938.692,-40.527,-38.086,-36.133,-41.992,0.000
1709214938.696,-24.414,-42.969,-34.180,-20.996,0.000
1709214938.700,-20.020,-47.852,-36.133,-20.020,0.000
1709214938.703,-28.320,-41.504,-39.062,-38.086,0.000
1709214938.707,-39.062,-42.969,-39.551,-52.246,0.000
1709214938.711,-41.016,-43.457,-31.738,-40.039,0.000
1709214938.715,-29.785,-46.875,-34.180,-15.625,0.000
1709214938.719,-20.020,-39.551,-44.434,-15.137,0.000
1709214938.723,-23.926,-30.273,-35.645,-30.273,0.000
1709214938.727,-37.598,-36.621,-26.367,-44.922,0.000
1709214938.731,-46.875,-43.457,-38.086,-51.758,0.000
1709214938.735,-35.645,-40.039,-46.387,-38.086,0.000
1709214938.738,-22.949,-40.527,-36.133,-26.367,0.000
1709214938.742,-31.250,-33.691,-27.344,-34.668,0.000
1709214938.746,-51.758,-42.969,-32.227,-52.734,0.000
1709214938.750,-59.082,-59.570,-41.504,-57.129,0.000
1709214938.754,-39.062,-39.551,-40.039,-34.668,0.000
1709214938.758,-17.090,-26.855,-36.621,-12.695,0.000
1709214938.762,-21.973,-34.180,-40.527,-26.367,0.000
1709214938.766,-35.645,-32.227,-45.410,-55.664,0.000
1709214938.770,-41.016,-41.992,-42.969,-56.152,0.000
1709214938.774,-32.227,-56.152,-41.504,-34.668,0.000
1709214938.777,-18.066,-54.688,-44.922,-22.949,0.000
1709214938.781,-27.832,-47.363,-44.434,-33.203,0.000
1709214938.785,-37.109,-41.016,-39.062,-49.805,0.000
1709214938.789,-39.551,-45.410,-31.250,-54.199,0.000
1709214938.793,-34.180,-44.922,-31.250,-42.969,0.000
1709214938.797,-24.414,-40.039,-34.668,-22.949,0.000
1709214938.801,-24.902,-39.551,-36.621,-21.973,0.000
1709214938.805,-41.504,-38.086,-36.621,-46.387,0.000
1709214938.809,-55.176,-42.480,-35.645,-63.477,0.000
1709214938.813,-49.805,-52.734,-40.039,-45.410,0.000
1709214938.816,-33.691,-48.828,-40.527,-27.832,0.000
1709214938.820,-26.855,-43.457,-38.086,-31.738,0.000
1709214938.824,0.000,-41.992,-36.133,0.000,0.000
1709214938.828,0.000,-46.875,-37.109,0.000,0.000
1709214938.832,0.000,-54.199,-34.180,0.000,0.000
1709214938.836,0.000,-49.316,-34.668,0.000,0.000
1709214938.840,0.000,-36.133,-29.785,0.000,0.000
1709214938.844,0.000,-36.133,-23.926,0.000,0.000
1709214938.848,0.000,-41.016,-29.785,0.000,0.000
1709214938.852,0.000,-33.691,-38.086,0.000,0.000
1709214938.856,0.000,-28.809,-31.738,0.000,0.000
1709214938.860,0.000,-38.086,-25.391,0.000,0.000
1709214938.864,0.000,-42.969,-25.879,0.000,0.000
1709214938.867,0.000,-36.621,-32.715,0.000,0.000
1709214938.871,-48.828,-38.086,-41.016,-47.363,0.000
1709214938.875,-24.902,-37.598,-32.227,-24.414,0.000
1709214938.879,-17.578,-39.551,-31.738,-16.602,0.000
1709214938.883,-31.738,-46.387,-34.668,-36.621,0.000
1709214938.887,-51.758,-48.340,-35.645,-53.711,0.000
1709214938.891,-52.246,-43.457,-39.062,-56.641,0.000
1709214938.895,-33.691,-46.387,-44.922,-46.875,0.000
1709214938.899,-29.785,-40.527,-44.922,-39.551,0.000
1709214938.902,-39.062,-33.691,-32.227,-51.758,0.000
1709214938.906,-64.453,-49.316,-30.273,-71.777,0.000
1709214938.910,-75.195,-48.828,-35.156,-67.383,0.000
1709214938.914,-50.293,-38.574,-32.227,-46.387,0.000
1709214938.919,-31.250,-46.875,-34.180,-33.691,0.000
1709214938.922,-34.668,-50.781,-36.133,-39.551,0.000
1709214938.926,-41.016,-41.992,-40.527,-57.129,0.000
1709214938.930,-39.062,-43.945,-35.156,-50.781,0.000
1709214938.934,-31.738,-54.199,-35.645,-36.133,0.000
1709214938.938,-25.391,-45.410,-42.969,-22.949,0.000
1709214938.942,-25.391,-36.133,-44.922,-25.879,0.000
1709214938.946,-47.363,-45.898,-44.434,-52.734,0.000
1709214938.950,-58.105,-48.828,-39.062,-59.082,0.000
1709214938.954,-38.086,-40.527,-33.691,-30.762,0.000
1709214938.958,-20.508,-42.969,-43.457,-17.090,0.000
1709214938.962,-24.902,-42.480,-41.992,-31.738,0.000
