timestamps,TP9,AF7,AF8,TP10,Right AUX
1709298508.907,-14.160,-26.367,-37.598,9.277,0.000
1709298508.911,-2.441,-21.484,-35.156,6.836,0.000
1709298508.915,-12.207,-39.062,-33.203,-7.324,0.000
1709298508.919,-23.926,-54.688,-35.645,-16.113,0.000
1709298508.923,-23.926,-37.598,-38.574,-15.137,0.000
1709298508.927,-13.672,-28.320,-38.574,-7.324,0.000
1709298508.931,-9.766,-39.551,-41.016,-4.883,0.000
1709298508.935,-18.555,-29.785,-39.551,-11.230,0.000
1709298508.939,-22.949,-20.020,-43.457,-15.137,0.000
1709298508.943,-13.672,-22.461,-39.551,-6.836,0.000
1709298508.946,-3.906,-22.461,-30.762,2.930,0.000
1709298508.950,-7.812,-23.438,-40.039,-6.836,0.000
1709298508.955,-15.137,-33.203,-44.922,-18.066,0.000
1709298508.958,-20.996,-39.062,-39.551,-17.090,0.000
1709298508.962,-25.879,-44.434,-44.922,-16.113,0.000
1709298508.966,-20.508,-40.039,-41.016,-10.742,0.000
1709298508.970,-17.090,-29.297,-35.645,-7.812,0.000
1709298508.974,-23.438,-33.691,-38.574,-17.090,0.000
1709298508.978,-31.738,-38.086,-40.039,-31.738,0.000
1709298508.982,-40.039,-44.434,-43.457,-26.855,0.000
1709298508.986,-37.109,-50.293,-36.133,-12.695,0.000
1709298508.990,-29.297,-53.711,-27.832,-6.836,0.000
1709298508.994,-23.438,-47.852,-39.551,-8.789,0.000
1709298508.998,-28.809,-33.203,-46.875,-15.625,0.000
1709298509.002,-35.645,-35.645,-31.738,-8.789,0.000
1709298509.006,-32.227,-38.574,-30.762,6.836,0.000
1709298509.009,-19.043,-40.527,-34.180,3.906,0.000
1709298509.013,-12.207,-39.551,-33.203,-6.348,0.000
1709298509.017,-20.020,-34.668,-36.133,-18.066,0.000
1709298509.021,-21.973,-41.992,-39.062,-17.090,0.000
1709298509.025,-16.602,-47.852,-38.574,-1.465,0.000
1709298509.029,-8.301,-48.340,-40.527,-4.883,0.000
1709298509.033,-1.465,-38.086,-34.180,-3.906,0.000
1709298509.037,-9.766,-30.273,-28.809,-10.254,0.000
1709298509.041,-15.137,-34.668,-36.133,-24.414,0.000
1709298509.045,-17.578,-44.434,-44.434,-16.113,0.000
1709298509.049,-13.672,-41.016,-41.504,-5.859,0.000
1709298509.052,-7.324,-36.621,-37.598,-13.184,0.000
1709298509.056,-9.766,-39.062,-33.691,-23.438,0.000
1709298509.060,-16.602,-30.762,-27.344,-22.461,0.000
1709298509.064,-19.043,-25.879,-39.551,-16.113,0.000
1709298509.068,-15.137,-38.574,-45.410,-17.578,0.000
1709298509.072,-19.531,-40.527,-40.039,-28.809,0.000
1709298509.076,-25.879,-38.574,-42.480,-36.133,0.000
1709298509.080,-32.227,-49.805,-45.410,-21.973,0.000
1709298509.084,-35.156,-57.617,-42.480,-21.484,0.000
1709298509.088,-29.785,-46.387,-39.062,-24.414,0.000
1709298509.092,-21.484,-39.062,-39.062,-17.578,0.000
1709298509.095,-24.414,-39.062,-44.922,-36.133,0.000
1709298509.099,-31.250,-33.691,-41.504,-40.527,0.000
1709298509.103,-29.297,-37.109,-38.574,-23.438,0.000
1709298509.107,-20.508,-41.992,-42.480,-18.066,0.000
1709298509.111,-9.766,-42.480,-40.527,-22.461,0.000
1709298509.115,-10.742,-44.434,-33.203,-21.973,0.000
1709298509.119,-15.137,-39.062,-38.574,-14.648,0.000
1709298509.123,-24.414,-39.551,-38.574,-1.953,0.000
1709298509.127,-29.297,-42.969,-29.297,7.812,0.000
1709298509.131,-23.438,-38.086,-32.715,-1.953,0.000
1709298509.134,-17.578,-35.645,-34.180,-9.277,0.000
1709298509.138,-17.578,-33.691,-28.809,-12.207,0.000
1709298509.142,-23.926,-36.133,-33.691,-7.812,0.000
1709298509.146,-22.461,-48.828,-37.598,2.930,0.000
1709298509.150,-10.742,-47.363,-35.156,6.348,0.000
1709298509.154,-10.742,-40.039,-37.109,-2.441,0.000
1709298509.158,-17.090,-38.086,-39.062,-10.254,0.000
1709298509.162,-15.625,-37.598,-38.574,-5.859,0.000
1709298509.166,-14.160,-42.480,-36.133,-1.465,0.000
1709298509.170,-17.578,-50.781,-42.480,0.977,0.000
1709298509.173,-14.160,-50.293,-47.852,-6.836,0.000
1709298509.177,-13.184,-40.527,-43.945,-12.695,0.000
1709298509.181,-23.438,-50.293,-43.457,-19.531,0.000
1709298509.185,-25.879,-62.500,-44.922,-18.066,0.000
1709298509.189,-19.531,-56.641,-46.387,-11.230,0.000
1709298509.193,-12.207,-43.457,-44.922,-10.254,0.000
1709298509.197,-18.066,-36.133,-38.086,-18.066,0.000
1709298509.201,-21.973,-42.480,-36.133,-22.461,0.000
1709298509.205,-13.672,-52.734,-38.574,-3.418,0.000
1709298509.208,-8.789,-44.434,-29.785,6.836,0.000
1709298509.212,-4.395,-30.273,-20.020,4.395,0.000
1709298509.216,-14.648,-35.156,-20.508,-7.812,0.000
1709298509.220,-32.715,-38.086,-36.133,-28.809,0.000
1709298509.224,-35.156,-37.598,-39.551,-28.320,0.000
1709298509.228,-26.367,-46.387,-34.668,-17.578,0.000
1709298509.232,-22.949,-37.598,-40.039,-24.414,0.000
1709298509.236,-29.785,-35.156,-41.504,-39.551,0.000
1709298509.239,-30.762,-46.387,-38.574,-35.645,0.000
1709298509.243,-26.855,-43.457,-37.598,-26.367,0.000
1709298509.247,-14.160,-36.621,-43.945,-19.043,0.000
1709298509.251,-2.441,-32.715,-41.992,-13.184,0.000
1709298509.255,-4.883,-39.551,-46.387,-19.531,0.000
1709298509.259,-14.648,-52.734,-50.781,-20.508,0.000
1709298509.263,-18.066,-42.480,-45.410,-7.812,0.000
1709298509.267,-15.137,-30.273,-47.363,-3.906,0.000
1709298509.271,-8.789,-28.809,-50.781,-10.254,0.000
1709298509.275,-9.766,-30.273,-47.852,-18.555,0.000
1709298509.279,-17.578,-34.180,-40.527,-19.531,0.000
1709298509.282,-23.438,-41.016,-39.062,-15.137,0.000
1709298509.286,-19.043,-40.527,-41.504,0.488,0.000
1709298509.290,-9.277,-39.551,-36.133,10.254,0.000
1709298509.294,-14.160,-48.828,-36.133,-5.859,0.000
1709298509.298,-21.973,-40.527,-37.598,-18.066,0.000
1709298509.302,-20.996,-36.133,-38.574,-9.766,0.000
1709298509.306,-17.578,-46.387,-49.805,-0.488,0.000
1709298509.309,-8.789,-27.832,-41.016,1.465,0.000
1709298509.313,-12.695,-21.973,-41.016,-7.812,0.000
1709298509.317,-19.043,-31.738,-48.828,-12.695,0.000
1709298509.321,-18.066,-29.785,-36.133,-4.883,0.000
1709298509.325,-17.090,-36.621,-33.203,-1.953,0.000
1709298509.329,-10.742,-35.645,-43.457,-3.906,0.000
1709298509.333,-8.301,-33.203,-40.039,-1.953,0.000
1709298509.337,-21.973,-37.598,-36.133,-13.184,0.000
1709298509.341,-26.855,-36.133,-38.574,-16.113,0.000
1709298509.345,-14.648,-40.039,-44.922,-1.953,0.000
1709298509.349,-1.953,-45.410,-42.480,4.883,0.000
1709298509.353,-6.836,-37.109,-41.992,-13.672,0.000
1709298509.357,-16.113,-38.086,-52.246,-37.598,0.000
1709298509.361,-18.555,-45.410,-43.945,-24.902,0.000
1709298509.364,-16.113,-36.621,-35.645,1.465,0.000
1709298509.368,-11.719,-25.391,-40.527,-0.488,0.000
1709298509.372,-18.066,-33.691,-41.992,-9.766,0.000
1709298509.376,-27.344,-47.852,-38.086,-17.578,0.000
1709298509.380,-36.621,-43.457,-45.898,-16.602,0.000
1709298509.384,-35.645,-33.691,-50.781,-10.742,0.000
1709298509.388,-23.438,-36.621,-41.504,-1.953,0.000
1709298509.392,-12.207,-38.574,-34.180,0.488,0.000
1709298509.396,-8.789,-41.016,-34.668,-15.625,0.000
1709298509.400,-9.277,-44.434,-33.203,-16.602,0.000
1709298509.404,-7.324,-36.133,-25.879,-7.812,0.000
1709298509.408,0.977,-31.250,-30.273,-0.488,0.000
1709298509.411,-2.930,-45.898,-43.945,-3.906,0.000
1709298509.415,-8.301,-48.828,-43.457,-20.508,0.000
1709298509.419,-16.602,-36.621,-36.133,-20.996,0.000
1709298509.423,-23.438,-39.551,-40.039,-9.766,0.000
1709298509.427,-16.602,-56.641,-40.039,-3.418,0.000
1709298509.431,-10.254,-56.152,-32.715,-14.160,0.000
1709298509.435,-15.137,-38.574,-40.527,-29.297,0.000
1709298509.439,-26.367,-36.621,-50.293,-29.297,0.000
1709298509.443,-21.973,-41.992,-42.480,-15.625,0.000
1709298509.447,-17.090,-41.504,-40.527,-12.207,0.000
1709298509.451,-13.672,-41.016,-42.480,-18.555,0.000
1709298509.455,-5.859,-41.992,-37.598,-10.742,0.000
1709298509.458,-14.160,-34.668,-35.156,-18.066,0.000
1709298509.462,-10.742,-40.527,-33.691,-13.672,0.000
1709298509.466,1.953,-52.246,-35.156,0.977,0.000
1709298509.470,8.789,-42.969,-35.645,1.953,0.000
1709298509.474,10.742,-38.574,-36.621,-8.789,0.000
1709298509.478,5.371,-29.785,-34.180,-20.508,0.000
1709298509.482,-0.488,-20.508,-33.203,-19.043,0.000
1709298509.486,1.953,-28.809,-30.762,-4.395,0.000
1709298509.490,5.859,-39.062,-34.180,-1.465,0.000
1709298509.494,2.930,-43.945,-41.992,-13.184,0.000
1709298509.498,-3.418,-35.156,-39.062,-13.672,0.000
1709298509.501,-10.254,-27.832,-46.387,-6.348,0.000
1709298509.505,-4.883,-26.367,-44.434,0.000,0.000
1709298509.509,-1.465,-31.738,-37.598,0.488,0.000
1709298509.513,-7.324,-46.875,-42.480,-4.883,0.000
1709298509.517,-10.742,-50.781,-37.598,-20.020,0.000
1709298509.521,-11.719,-38.574,-36.621,-27.344,0.000
1709298509.525,-18.555,-31.738,-41.016,-16.602,0.000
1709298509.529,-17.090,-31.738,-38.574,-6.348,0.000
1709298509.533,-17.578,-35.645,-38.086,-19.531,0.000
1709298509.537,-27.832,-32.715,-44.922,-38.086,0.000
1709298509.540,-36.133,-30.762,-53.711,-34.668,0.000
1709298509.544,-35.156,-34.668,-44.922,-14.160,0.000
1709298509.548,-28.320,-37.598,-40.039,-9.766,0.000
1709298509.552,-27.344,-44.922,-37.598,-20.996,0.000
1709298509.556,-39.551,-48.828,-34.668,-33.691,0.000
1709298509.560,-49.316,-45.410,-41.504,-33.691,0.000
1709298509.564,-41.504,-47.363,-44.434,-17.578,0.000
1709298509.568,-32.715,-53.711,-43.457,-2.930,0.000
1709298509.572,-32.227,-55.664,-48.340,-8.301,0.000
1709298509.575,-41.992,-53.223,-48.828,-24.414,0.000
1709298509.579,-54.199,-48.828,-48.828,-26.855,0.000
1709298509.583,-47.852,-46.387,-42.969,-11.719,0.000
1709298509.587,-36.133,-54.199,-36.621,5.859,0.000
1709298509.591,-28.320,-60.547,-38.086,13.672,0.000
1709298509.595,-20.508,-51.270,-36.621,-0.977,0.000
1709298509.599,-19.531,-36.133,-32.715,-12.695,0.000
1709298509.603,-21.973,-36.621,-44.434,-5.371,0.000
1709298509.607,-18.555,-39.062,-43.457,3.418,0.000
1709298509.610,-4.883,-42.480,-34.668,-0.977,0.000
1709298509.614,-2.441,-48.340,-40.039,-8.789,0.000
1709298509.618,-10.254,-53.711,-45.410,-3.418,0.000
1709298509.622,-10.742,-56.641,-44.434,9.766,0.000
1709298509.626,-5.371,-50.293,-31.250,10.254,0.000
1709298509.630,-4.395,-37.598,-28.809,8.301,0.000
1709298509.634,-9.766,-36.621,-31.738,14.648,0.000
1709298509.638,-20.508,-53.223,-32.227,-7.812,0.000
1709298509.642,-20.508,-50.293,-40.039,-20.996,0.000
1709298509.646,-21.484,-40.527,-44.922,-13.672,0.000
1709298509.649,-23.926,-48.828,-38.086,-17.578,0.000
1709298509.653,-25.879,-53.223,-38.086,-27.832,0.000
1709298509.658,-27.344,-51.758,-35.645,-29.785,0.000
1709298509.662,-30.762,-49.316,-35.645,-24.414,0.000
1709298509.665,-30.273,-49.805,-41.992,-15.137,0.000
1709298509.669,-27.832,-54.688,-44.922,-7.324,0.000
1709298509.673,-25.879,-41.504,-52.246,-9.277,0.000
1709298509.677,-20.020,-31.250,-42.480,-12.207,0.000
1709298509.681,-22.461,-42.480,-32.715,-8.789,0.000
1709298509.685,-20.508,-40.039,-33.203,4.395,0.000
1709298509.689,-10.742,-32.715,-37.109,3.906,0.000
1709298509.693,-2.441,-28.320,-31.738,-1.465,0.000
1709298509.697,-9.766,-30.762,-31.738,-7.812,0.000
1709298509.701,-15.625,-32.715,-39.062,-19.043,0.000
1709298509.705,-11.719,-33.691,-36.621,-8.789,0.000
1709298509.709,-8.789,-45.410,-42.480,-7.812,0.000
1709298509.713,-6.348,-42.480,-44.434,-14.160,0.000
1709298509.717,-13.184,-28.809,-37.109,-12.207,0.000
1709298509.720,-23.438,-30.762,-43.945,-20.996,0.000
1709298509.724,-20.508,-34.180,-49.805,-14.160,0.000
1709298509.728,-15.137,-28.809,-45.410,-2.930,0.000
1709298509.732,-17.090,-28.809,-53.711,-20.996,0.000
1709298509.736,-16.602,-35.156,-53.223,-28.809,0.000
1709298509.740,-11.230,-42.480,-40.039,-9.766,0.000
1709298509.744,-10.254,-35.645,-39.062,-5.371,0.000
1709298509.748,-16.602,-31.738,-42.969,-11.230,0.000
1709298509.752,-16.602,-39.551,-46.875,-18.555,0.000
1709298509.756,-16.113,-44.922,-45.898,-25.879,0.000
1709298509.760,-18.555,-49.316,-43.945,-22.949,0.000
1709298509.764,-19.043,-45.898,-48.828,-20.020,0.000
1709298509.767,-15.625,-42.969,-48.340,-7.324,0.000
1709298509.771,-20.020,-47.363,-52.734,-9.277,0.000
1709298509.775,-28.809,-46.875,-55.664,-26.367,0.000
1709298509.779,-33.691,-47.852,-52.246,-31.738,0.000
1709298509.783,-37.109,-51.758,-55.176,-24.902,0.000
1709298509.787,-34.180,-48.340,-52.734,-13.672,0.000
1709298509.791,-27.344,-44.434,-54.199,-21.484,0.000
1709298509.795,-27.832,-46.387,-57.129,-38.086,0.000
1709298509.799,-33.691,-42.480,-52.734,-42.969,0.000
1709298509.803,-37.109,-35.156,-56.641,-38.086,0.000
1709298509.807,-29.785,-29.785,-55.664,-25.879,0.000
1709298509.810,-18.066,-28.320,-51.758,-21.973,0.000
1709298509.814,-12.207,-33.203,-44.434,-30.273,0.000
1709298509.818,-10.742,-31.250,-35.645,-31.738,0.000
1709298509.822,-20.020,-25.879,-43.457,-38.086,0.000
1709298509.826,-22.461,-29.785,-48.828,-27.832,0.000
1709298509.830,-8.789,-31.250,-43.457,2.930,0.000
1709298509.834,-4.883,-30.273,-40.039,-4.883,0.000
1709298509.838,-4.883,-29.785,-39.551,-20.508,0.000
1709298509.842,-8.301,-34.668,-41.016,-14.648,0.000
1709298509.846,-11.719,-41.016,-48.340,-4.883,0.000
1709298509.850,-3.418,-43.945,-38.086,7.324,0.000
1709298509.853,-2.930,-45.898,-41.016,3.906,0.000
1709298509.857,-8.301,-41.016,-49.316,-7.324,0.000
1709298509.861,-19.531,-39.062,-47.852,-15.137,0.000
1709298509.865,-23.438,-38.574,-46.387,-13.672,0.000
1709298509.869,-14.160,-34.180,-47.852,-6.836,0.000
1709298509.873,-3.418,-28.809,-52.734,1.465,0.000
1709298509.877,-8.789,-28.320,-53.223,-8.301,0.000
1709298509.881,-18.555,-35.156,-45.898,-26.855,0.000
1709298509.885,-8.301,-34.180,-34.180,-15.625,0.000
1709298509.889,4.395,-28.809,-30.273,-6.348,0.000
1709298509.892,-2.441,-30.762,-41.992,-19.043,0.000
1709298509.896,-6.836,-24.902,-46.387,-27.832,0.000
1709298509.900,-8.301,-19.531,-42.969,-30.273,0.000
1709298509.904,-4.883,-20.996,-44.434,-20.020,0.000
1709298509.908,0.000,-26.855,-45.898,-10.254,0.000
1709298509.912,-8.301,-33.691,-46.875,-17.578,0.000
1709298509.916,-18.066,-38.574,-56.152,-25.879,0.000
1709298509.920,-28.320,-45.410,-58.105,-22.949,0.000
1709298509.924,-32.227,-49.316,-54.688,-27.832,0.000
1709298509.928,-23.926,-46.387,-53.711,-27.832,0.000
1709298509.931,-22.949,-45.410,-57.129,-23.926,0.000
1709298509.935,-31.738,-50.781,-51.270,-35.156,0.000
1709298509.939,-44.922,-52.734,-49.316,-40.039,0.000
1709298509.943,-46.387,-47.852,-58.594,-30.762,0.000
1709298509.947,-32.227,-36.133,-47.363,-17.090,0.000
1709298509.951,-32.715,-39.062,-50.293,-22.461,0.000
1709298509.955,-42.969,-52.246,-55.176,-33.203,0.000
1709298509.959,-46.875,-53.711,-53.223,-33.203,0.000
1709298509.963,-47.363,-47.363,-52.246,-22.461,0.000
1709298509.966,-41.016,-45.898,-40.039,-4.395,0.000
1709298509.970,-34.180,-43.945,-41.504,-7.812,0.000
1709298509.974,-42.969,-53.223,-45.898,-25.391,0.000
1709298509.978,-53.711,-55.176,-38.574,-34.668,0.000
1709298509.982,-50.293,-41.016,-31.250,-33.691,0.000
1709298509.986,-41.504,-44.922,-35.645,-28.320,0.000
1709298509.990,-32.715,-48.828,-41.016,-21.484,0.000
1709298509.994,-29.297,-45.898,-40.039,-21.973,0.000
1709298509.998,-37.109,-44.922,-39.551,-34.668,0.000
1709298510.001,-42.969,-42.969,-44.434,-36.133,0.000
1709298510.005,-27.832,-49.805,-41.992,-20.996,0.000
1709298510.009,-9.766,-50.781,-38.086,-2.441,0.000
1709298510.013,-13.184,-33.203,-37.598,-10.254,0.000
1709298510.017,-21.484,-25.879,-41.504,-27.344,0.000
1709298510.021,-21.484,-38.574,-41.992,-26.367,0.000
1709298510.025,-22.949,-44.434,-38.086,-19.043,0.000
1709298510.029,-14.160,-40.039,-37.598,-7.812,0.000
1709298510.032,-7.324,-35.156,-34.180,-3.418,0.000
1709298510.036,-10.742,-34.668,-35.645,-14.648,0.000
1709298510.040,-11.230,-33.203,-37.109,-14.648,0.000
1709298510.044,-6.836,-34.668,-33.203,0.000,0.000
1709298510.048,-3.418,-35.156,-38.574,-1.953,0.000
1709298510.052,-5.859,-31.738,-42.969,-2.930,0.000
1709298510.056,-12.207,-41.992,-36.621,-6.836,0.000
1709298510.060,-13.672,-52.734,-33.203,-18.555,0.000
1709298510.064,-14.160,-58.105,-35.645,-12.695,0.000
1709298510.068,-16.113,-53.223,-42.969,-6.836,0.000
1709298510.071,-12.695,-43.945,-47.363,-10.742,0.000
1709298510.075,-6.348,-33.691,-47.852,-21.484,0.000
1709298510.080,0.000,-26.855,-41.992,-17.578,0.000
1709298510.083,0.000,-36.621,-40.527,-6.836,0.000
1709298510.087,0.000,-37.109,-39.551,-0.488,0.000
1709298510.091,0.000,-31.250,-35.156,-6.348,0.000
1709298510.095,0.000,-42.969,-36.621,-19.043,0.000
1709298510.099,0.000,-55.664,-40.527,-20.020,0.000
1709298510.103,0.000,-52.734,-41.016,-16.602,0.000
1709298510.107,0.000,-52.246,-38.086,-16.602,0.000
1709298510.111,0.000,-53.711,-35.156,-14.160,0.000
1709298510.115,0.000,-48.340,-37.109,-8.789,0.000
1709298510.119,0.000,-37.109,-36.133,-20.020,0.000
1709298510.123,0.000,-40.039,-43.945,-24.414,0.000
1709298510.127,-22.949,-38.086,-51.758,-14.648,0.000
1709298510.130,-5.859,-23.438,-42.969,-2.930,0.000
1709298510.134,-6.836,-28.809,-45.410,-8.301,0.000
1709298510.138,-14.648,-42.480,-61.523,-20.508,0.000
1709298510.142,-9.766,-37.598,-50.781,-17.578,0.000
1709298510.146,-2.930,-39.551,-34.668,-6.348,0.000
1709298510.150,-3.906,-44.922,-42.480,-11.719,0.000
1709298510.154,1.953,-33.203,-35.156,-13.672,0.000
1709298510.158,-3.906,-32.227,-31.738,-13.672,0.000
1709298510.162,-15.137,-48.828,-43.457,-23.438,0.000
1709298510.166,-22.461,-51.270,-42.480,-21.973,0.000
1709298510.170,-20.020,-51.270,-36.133,-9.277,0.000
1709298510.174,-17.090,-47.852,-37.598,-8.301,0.000
1709298510.177,-24.414,-37.598,-41.016,-22.949,0.000
1709298510.181,-34.668,-40.527,-44.922,-28.809,0.000
1709298510.185,-32.227,-32.227,-43.945,-14.160,0.000
1709298510.189,-24.414,-26.855,-38.574,-11.230,0.000
1709298510.193,-31.738,-46.387,-44.434,-23.438,0.000
1709298510.197,-41.504,-45.410,-57.617,-42.969,0.000
1709298510.201,-41.504,-33.203,-57.129,-43.457,0.000
1709298510.205,-35.156,-40.527,-45.898,-12.207,0.000
1709298510.209,-29.297,-38.574,-39.062,-6.836,0.000
1709298510.213,-27.344,-28.809,-42.969,-20.020,0.000
1709298510.216,-26.367,-32.227,-46.387,-22.461,0.000
1709298510.220,-32.715,-46.875,-52.734,-30.762,0.000
1709298510.224,-32.227,-46.387,-47.852,-25.391,0.000
1709298510.228,-23.926,-41.992,-45.410,-12.695,0.000
1709298510.232,-18.555,-42.480,-47.852,-12.695,0.000
1709298510.236,-21.973,-41.992,-45.898,-21.973,0.000
1709298510.240,-31.250,-39.551,-43.457,-28.320,0.000
1709298510.244,-30.762,-37.598,-43.945,-24.902,0.000
1709298510.248,-10.742,-36.621,-40.527,-1.953,0.000
1709298510.252,-0.488,-43.457,-41.504,14.648,0.000
1709298510.256,-7.324,-44.434,-46.875,-0.488,0.000
1709298510.259,-1.953,-29.297,-41.504,-2.441,0.000
1709298510.263,11.719,-20.996,-26.855,14.648,0.000
1709298510.267,10.742,-30.273,-27.832,13.184,0.000
1709298510.271,12.207,-35.156,-26.367,8.301,0.000
1709298510.275,12.207,-36.133,-29.297,0.000,0.000
1709298510.279,0.977,-40.039,-39.551,-13.672,0.000
1709298510.283,-4.883,-38.574,-28.809,-14.160,0.000
1709298510.287,-4.395,-38.086,-32.715,-6.348,0.000
1709298510.291,-4.883,-33.691,-46.875,-3.418,0.000
1709298510.295,-3.418,-32.715,-38.574,0.000,0.000
1709298510.298,-10.742,-40.527,-35.156,-13.184,0.000
1709298510.302,-14.648,-44.922,-34.180,-17.578,0.000
1709298510.306,-11.719,-32.227,-29.785,-7.324,0.000
1709298510.310,-11.230,-26.367,-32.227,-5.371,0.000
1709298510.315,-10.254,-30.762,-27.832,-17.090,0.000
1709298510.318,-20.996,-35.156,-34.668,-33.691,0.000
1709298510.322,-21.484,-41.016,-39.551,-28.809,0.000
1709298510.326,-20.020,-48.340,-35.645,-15.625,0.000
1709298510.330,-12.695,-47.852,-38.086,-12.695,0.000
1709298510.334,-7.812,-37.109,-36.621,-17.578,0.000
1709298510.338,-11.230,-34.668,-34.180,-16.602,0.000
1709298510.342,-15.625,-38.574,-33.691,-11.230,0.000
1709298510.346,-16.113,-29.785,-28.320,-8.789,0.000
1709298510.350,-10.254,-32.715,-29.785,-2.441,0.000
1709298510.354,-13.672,-41.504,-32.227,-9.277,0.000
1709298510.358,-21.973,-35.156,-34.668,-21.484,0.000
1709298510.362,-22.949,-34.180,-34.668,-19.043,0.000
1709298510.365,-20.996,-36.621,-38.086,-9.277,0.000
1709298510.369,-14.160,-36.133,-37.598,3.418,0.000
1709298510.373,-14.648,-33.691,-31.738,-0.977,0.000
1709298510.377,-17.578,-36.621,-34.180,-13.672,0.000
1709298510.381,-18.066,-38.574,-29.785,-5.859,0.000
1709298510.385,-20.020,-40.527,-27.344,2.930,0.000
1709298510.389,-10.742,-45.410,-31.738,8.301,0.000
1709298510.393,-1.953,-42.969,-31.250,13.184,0.000
1709298510.397,-3.418,-49.805,-31.738,2.930,0.000
1709298510.401,-9.766,-56.641,-33.203,3.418,0.000
1709298510.405,-18.555,-49.805,-44.434,-1.465,0.000
1709298510.408,-5.859,-41.992,-48.828,-5.371,0.000
1709298510.412,0.977,-39.551,-47.852,-5.859,0.000
1709298510.416,-13.184,-41.992,-49.316,-18.555,0.000
1709298510.420,-12.207,-32.715,-45.410,-19.531,0.000
1709298510.424,-14.648,-40.039,-45.898,-17.578,0.000
1709298510.428,-18.066,-53.711,-43.945,-10.742,0.000
1709298510.432,-2.930,-45.898,-34.180,1.465,0.000
1709298510.435,-1.465,-46.387,-36.621,-5.859,0.000
1709298510.439,-16.113,-40.039,-38.574,-25.879,0.000
1709298510.443,-15.625,-27.344,-43.457,-23.926,0.000
1709298510.447,-1.953,-29.297,-48.828,-3.418,0.000
1709298510.451,2.930,-32.715,-34.180,1.953,0.000
1709298510.455,-3.906,-33.691,-28.809,-11.230,0.000
1709298510.459,-19.531,-41.992,-34.668,-31.250,0.000
1709298510.463,-24.902,-41.504,-31.250,-33.203,0.000
1709298510.467,-18.555,-35.156,-30.762,-20.020,0.000
1709298510.471,-15.137,-36.133,-41.992,-18.555,0.000
1709298510.475,-21.973,-40.527,-41.016,-27.344,0.000
1709298510.479,-31.738,-50.293,-41.016,-34.180,0.000
1709298510.483,-31.738,-53.711,-46.875,-28.320,0.000
1709298510.486,-27.344,-44.434,-42.480,-10.742,0.000
1709298510.490,-15.137,-38.574,-35.645,10.254,0.000
1709298510.494,-7.812,-37.598,-27.832,8.789,0.000
1709298510.498,-13.184,-40.527,-31.250,-5.371,0.000
1709298510.502,-20.508,-41.992,-31.250,-8.301,0.000
1709298510.506,-13.184,-39.551,-32.715,-0.977,0.000
1709298510.510,-3.906,-40.039,-36.133,5.859,0.000
1709298510.514,-5.371,-36.133,-31.250,-4.395,0.000
1709298510.518,-15.625,-38.574,-36.621,-20.996,0.000
1709298510.522,-17.578,-46.875,-41.504,-22.949,0.000
1709298510.526,-11.230,-53.223,-38.086,-5.371,0.000
1709298510.530,-11.230,-44.434,-34.180,-3.418,0.000
1709298510.533,-15.137,-32.227,-42.480,-13.184,0.000
1709298510.537,-22.461,-28.809,-53.711,-17.090,0.000
1709298510.541,-31.250,-31.250,-51.758,-28.320,0.000
1709298510.545,-32.227,-42.969,-43.945,-25.879,0.000
1709298510.549,-19.531,-42.480,-39.551,-10.254,0.000
1709298510.553,-19.043,-39.062,-45.410,-12.695,0.000
1709298510.557,-27.344,-44.922,-45.898,-30.273,0.000
1709298510.561,-26.367,-36.621,-40.039,-32.227,0.000
1709298510.565,-28.320,-31.250,-40.527,-20.020,0.000
1709298510.569,-21.973,-35.156,-38.086,-7.812,0.000
1709298510.573,-17.578,-44.922,-39.062,-6.836,0.000
1709298510.576,-23.438,-41.992,-39.062,-13.672,0.000
1709298510.580,-28.320,-37.598,-46.387,-6.348,0.000
1709298510.584,-25.391,-44.434,-49.805,-4.395,0.000
1709298510.588,-23.926,-53.223,-40.039,-2.441,0.000
1709298510.592,-14.648,-47.852,-35.156,13.184,0.000
1709298510.596,-19.043,-39.062,-37.598,1.465,0.000
1709298510.600,-31.738,-36.621,-41.016,-13.672,0.000
1709298510.604,-30.273,-41.016,-43.457,-8.789,0.000
1709298510.608,-20.508,-45.410,-34.668,3.906,0.000
1709298510.612,-12.207,-42.969,-27.344,-1.465,0.000
1709298510.615,-12.695,-46.387,-32.227,-12.695,0.000
1709298510.619,-28.320,-59.082,-38.574,-20.996,0.000
1709298510.623,-33.691,-57.617,-41.504,-15.625,0.000
1709298510.627,-22.949,-46.387,-48.340,-1.465,0.000
1709298510.631,-14.648,-43.945,-49.316,-4.395,0.000
1709298510.635,-4.883,-47.852,-47.363,-10.254,0.000
1709298510.639,-6.836,-53.223,-41.016,-10.742,0.000
1709298510.643,-13.184,-47.363,-37.598,-2.930,0.000
1709298510.647,-4.395,-34.668,-39.062,7.324,0.000
1709298510.651,3.906,-30.273,-38.574,10.254,0.000
1709298510.654,-3.418,-35.156,-41.016,-0.488,0.000
1709298510.658,-7.324,-41.016,-39.062,-10.254,0.000
1709298510.662,-18.066,-40.039,-39.062,-17.090,0.000
1709298510.666,-20.996,-39.062,-47.852,-13.672,0.000
1709298510.670,-9.277,-41.992,-49.316,0.977,0.000
1709298510.674,-9.766,-41.504,-43.457,-10.742,0.000
1709298510.678,-18.555,-40.527,-44.434,-26.855,0.000
1709298510.682,-28.320,-41.016,-39.551,-25.391,0.000
1709298510.686,-32.715,-37.598,-39.551,-18.066,0.000
1709298510.690,0.000,-33.203,-45.410,-13.672,0.000
1709298510.694,0.000,-31.250,-41.992,-20.508,0.000
1709298510.697,0.000,-39.551,-43.457,-37.598,0.000
1709298510.701,0.000,-38.574,-40.039,-32.715,0.000
1709298510.705,0.000,-37.109,-41.016,-17.090,0.000
1709298510.709,0.000,-41.016,-37.598,-16.113,0.000
1709298510.713,0.000,-50.293,-32.715,-20.020,0.000
1709298510.717,0.000,-50.781,-40.039,-18.555,0.000
1709298510.721,0.000,-34.180,-39.551,-22.949,0.000
1709298510.725,0.000,-26.855,-29.297,-18.555,0.000
1709298510.729,0.000,-32.715,-30.273,-3.906,0.000
1709298510.733,0.000,-35.156,-42.480,-9.277,0.000
1709298510.736,-20.996,-37.109,-42.480,-18.066,0.000
1709298510.740,-28.809,-38.574,-45.410,-24.414,0.000
1709298510.744,-24.414,-30.273,-42.480,-11.230,0.000
1709298510.748,-17.090,-33.691,-37.109,-0.977,0.000
1709298510.752,-19.531,-41.016,-43.457,-8.789,0.000
1709298510.756,-19.531,-37.109,-38.086,-15.625,0.000
1709298510.760,-23.926,-34.180,-33.203,-10.742,0.000
1709298510.764,-27.832,-39.062,-35.156,-3.906,0.000
1709298510.768,-20.996,-34.180,-34.180,0.000,0.000
1709298510.771,-18.066,-36.621,-39.062,-8.789,0.000
1709298510.775,-18.066,-45.898,-36.133,-15.137,0.000
1709298510.779,-20.020,-40.527,-27.344,-10.742,0.000
1709298510.783,-23.438,-42.969,-27.344,-4.395,0.000
1709298510.787,-11.719,-39.062,-27.344,9.277,0.000
1709298510.791,-4.883,-30.273,-28.809,12.695,0.000
1709298510.795,-6.836,-29.785,-26.367,7.812,0.000
1709298510.798,-7.812,-42.969,-25.879,-4.883,0.000
1709298510.802,-6.348,-46.387,-33.203,-0.977,0.000
1709298510.806,-1.953,-43.945,-35.156,19.043,0.000
1709298510.810,-1.953,-47.852,-40.527,12.207,0.000
1709298510.814,5.371,-35.156,-33.691,1.465,0.000
1709298510.818,-1.953,-35.156,-27.832,-6.836,0.000
1709298510.822,-13.184,-43.457,-34.180,-9.766,0.000
1709298510.826,-8.789,-36.133,-32.715,2.441,0.000
1709298510.831,-8.789,-36.133,-42.969,5.371,0.000
1709298510.834,-9.277,-42.480,-48.340,-2.441,0.000
1709298510.838,-9.766,-46.387,-40.527,-10.254,0.000
1709298510.842,-12.695,-42.969,-38.574,-12.207,0.000
1709298510.846,-10.254,-37.598,-38.574,-4.395,0.000
1709298510.850,-7.812,-41.504,-40.039,0.488,0.000
1709298510.854,-7.324,-40.039,-38.086,-16.113,0.000
1709298510.858,-6.836,-36.133,-44.922,-25.391,0.000
1709298510.862,-19.043,-39.551,-49.805,-25.879,0.000
1709298510.866,-26.855,-35.156,-37.598,-7.812,0.000
1709298510.870,-20.508,-34.668,-36.133,-8.301,0.000
1709298510.874,-16.602,-43.945,-40.527,-27.344,0.000
1709298510.878,-17.090,-40.527,-35.156,-28.809,0.000
1709298510.881,-25.879,-37.598,-31.738,-27.344,0.000
1709298510.885,-35.156,-48.828,-43.945,-30.273,0.000
1709298510.889,-27.344,-47.852,-47.363,-21.973,0.000
1709298510.893,-22.949,-43.457,-44.922,-23.438,0.000
1709298510.897,-25.879,-42.969,-37.598,-31.738,0.000
1709298510.901,-27.832,-34.668,-36.133,-30.762,0.000
1709298510.905,-26.367,-31.250,-39.062,-28.809,0.000
1709298510.909,-16.602,-38.574,-33.691,-21.484,0.000
1709298510.913,-11.719,-40.039,-38.574,-21.973,0.000
1709298510.917,-11.230,-38.086,-40.527,-27.832,0.000
1709298510.921,-14.160,-39.062,-35.645,-27.344,0.000
1709298510.924,-18.066,-41.504,-30.273,-10.254,0.000
1709298510.928,-11.230,-42.480,-33.203,0.977,0.000
1709298510.932,-5.859,-48.828,-37.598,-13.184,0.000
1709298510.936,-13.672,-45.898,-41.504,-24.414,0.000
1709298510.940,-22.461,-36.133,-40.527,-22.949,0.000
1709298510.944,-31.250,-26.855,-39.062,-16.602,0.000
1709298510.948,-28.809,-30.762,-42.969,-12.207,0.000
1709298510.952,-17.578,-38.574,-38.574,-7.812,0.000
1709298510.956,-22.461,-36.133,-33.691,-6.836,0.000
1709298510.960,-33.691,-41.504,-39.551,-21.484,0.000
1709298510.964,-34.668,-41.504,-38.086,-20.996,0.000
1709298510.967,-29.785,-37.598,-42.480,-8.301,0.000
1709298510.971,-20.508,-41.504,-42.480,-7.324,0.000
1709298510.975,-14.648,-41.992,-33.691,-8.301,0.000
1709298510.979,-20.996,-38.086,-41.504,-17.090,0.000
1709298510.983,-20.508,-34.668,-43.457,-16.602,0.000
1709298510.987,-15.137,-39.062,-34.668,-6.836,0.000
1709298510.991,-10.254,-38.086,-34.668,-3.906,0.000
1709298510.995,-13.672,-27.344,-36.133,-15.625,0.000
1709298510.999,-20.996,-31.250,-34.180,-22.949,0.000
1709298511.003,-24.902,-39.551,-38.574,-20.508,0.000
1709298511.006,-21.973,-27.832,-36.621,-19.043,0.000
1709298511.010,-14.648,-22.461,-36.133,-17.090,0.000
1709298511.014,-16.113,-32.715,-44.434,-22.949,0.000
1709298511.018,0.000,-41.504,-43.457,-40.039,0.000
1709298511.022,0.000,-41.016,-34.180,-46.387,0.000
1709298511.026,0.000,-35.645,-28.809,-20.996,0.000
1709298511.030,0.000,-41.016,-33.691,-8.301,0.000
1709298511.034,0.000,-47.363,-37.598,-19.043,0.000
1709298511.038,0.000,-42.480,-36.621,-21.973,0.000
1709298511.041,0.000,-29.785,-33.691,-16.602,0.000
1709298511.045,0.000,-29.785,-34.180,1.953,0.000
1709298511.049,0.000,-46.875,-43.945,0.488,0.000
1709298511.053,0.000,-42.480,-39.062,-2.930,0.000
1709298511.057,0.000,-40.527,-34.668,-4.883,0.000
1709298511.061,0.000,-45.898,-33.203,-11.230,0.000
1709298511.065,-19.531,-43.945,-41.504,-6.348,0.000
1709298511.069,-12.695,-40.527,-43.945,4.395,0.000
1709298511.073,-3.906,-31.738,-42.969,2.441,0.000
1709298511.076,-4.395,-32.715,-44.922,-11.230,0.000
1709298511.080,-6.836,-39.551,-40.039,-11.719,0.000
1709298511.084,-6.836,-37.109,-42.480,-4.395,0.000
1709298511.088,3.906,-28.809,-41.016,4.883,0.000
1709298511.092,11.719,-33.691,-34.180,13.184,0.000
1709298511.096,10.254,-44.922,-38.086,-0.977,0.000
1709298511.100,1.953,-36.621,-35.156,-10.742,0.000
1709298511.104,-10.254,-30.273,-32.227,-6.348,0.000
1709298511.108,-10.254,-28.809,-43.457,-3.418,0.000
1709298511.111,-0.488,-24.414,-40.039,-4.883,0.000
1709298511.115,9.766,-26.367,-34.180,-10.254,0.000
1709298511.119,4.883,-33.203,-35.645,-18.066,0.000
1709298511.123,-8.789,-32.227,-36.621,-18.555,0.000
1709298511.127,-10.742,-30.762,-39.551,-8.301,0.000
1709298511.131,0.000,-37.598,-38.574,-1.465,0.000
1709298511.135,3.906,-39.551,-31.250,-5.371,0.000
1709298511.139,-8.301,-38.574,-37.598,-21.484,0.000
1709298511.143,-16.602,-37.598,-44.922,-23.926,0.000
1709298511.146,-12.695,-37.598,-41.992,-14.648,0.000
1709298511.150,-2.441,-34.180,-37.109,0.977,0.000
1709298511.154,0.000,-21.484,-34.180,-8.301,0.000
1709298511.159,-11.719,-26.855,-38.086,-22.949,0.000
1709298511.162,-18.555,-41.016,-40.527,-14.160,0.000
1709298511.166,-17.090,-45.898,-37.109,-6.836,0.000
1709298511.170,-14.160,-42.969,-36.133,-1.465,0.000
1709298511.174,-2.441,-35.156,-33.691,6.348,0.000
1709298511.178,-12.695,-44.434,-30.762,-3.418,0.000
1709298511.182,-26.855,-45.898,-30.273,-8.789,0.000
1709298511.186,-24.902,-29.785,-34.180,-3.418,0.000
1709298511.190,-22.949,-29.785,-40.527,-5.859,0.000
1709298511.194,-21.973,-37.598,-45.410,-13.672,0.000
1709298511.198,-23.926,-40.039,-41.504,-20.020,0.000
1709298511.201,-23.926,-43.945,-33.691,-19.043,0.000
1709298511.206,-18.066,-39.551,-36.621,-2.930,0.000
1709298511.209,-6.836,-31.250,-35.156,10.742,0.000
1709298511.213,-3.906,-38.086,-35.156,0.488,0.000
1709298511.217,-6.836,-44.922,-37.109,-13.672,0.000
1709298511.221,-13.672,-35.645,-37.109,-17.578,0.000
1709298511.225,-19.531,-29.785,-38.574,-13.184,0.000
1709298511.229,-14.648,-32.227,-40.527,-7.812,0.000
1709298511.233,-9.277,-32.227,-37.598,-8.789,0.000
1709298511.237,-8.789,-23.926,-32.715,-10.254,0.000
1709298511.241,-17.090,-22.949,-40.527,-8.301,0.000
1709298511.245,-23.438,-24.902,-46.875,-8.789,0.000
1709298511.249,-14.160,-29.785,-46.387,-9.766,0.000
1709298511.253,-4.883,-28.809,-39.551,-9.277,0.000
1709298511.257,-7.324,-24.414,-32.715,-20.508,0.000
1709298511.260,-26.367,-36.621,-44.922,-43.457,0.000
1709298511.264,-24.902,-33.691,-44.922,-27.344,0.000
1709298511.268,-12.695,-35.645,-37.109,-4.395,0.000
1709298511.272,-4.395,-38.086,-35.156,2.930,0.000
1709298511.276,-5.371,-25.391,-38.086,-9.277,0.000
1709298511.280,-18.555,-20.508,-40.039,-22.461,0.000
1709298511.284,-18.555,-23.438,-32.715,-5.371,0.000
1709298511.288,-15.625,-26.367,-31.738,9.277,0.000
1709298511.292,-19.531,-28.320,-34.668,5.859,0.000
1709298511.296,-10.254,-33.691,-38.086,0.488,0.000
1709298511.300,-14.160,-40.527,-41.016,-9.277,0.000
1709298511.303,-23.926,-35.645,-46.387,-13.184,0.000
1709298511.307,-13.672,-28.809,-43.457,-1.465,0.000
1709298511.311,-4.395,-28.809,-39.062,5.371,0.000
1709298511.315,-2.441,-25.391,-44.434,-0.977,0.000
1709298511.319,-8.301,-38.086,-48.340,-10.742,0.000
1709298511.323,-17.090,-54.199,-43.945,-14.160,0.000
1709298511.327,-12.695,-38.574,-41.016,-1.465,0.000
1709298511.331,-7.324,-24.902,-38.086,12.695,0.000
1709298511.335,-7.812,-27.344,-36.621,-6.836,0.000
1709298511.339,-20.996,-30.762,-48.340,-34.668,0.000
1709298511.342,-27.832,-31.738,-42.480,-33.691,0.000
1709298511.346,-20.996,-35.645,-39.551,-18.066,0.000
1709298511.350,-20.020,-33.203,-42.480,-5.371,0.000
1709298511.354,-24.414,-29.297,-43.945,-17.090,0.000
1709298511.358,-31.738,-34.180,-44.434,-30.762,0.000
1709298511.362,-42.480,-38.574,-49.805,-33.203,0.000
1709298511.366,-37.109,-43.457,-37.598,-20.508,0.000
1709298511.370,-23.438,-38.086,-26.855,-9.277,0.000
1709298511.374,-24.414,-42.480,-41.016,-20.020,0.000
1709298511.378,-35.645,-54.199,-46.875,-26.367,0.000
1709298511.382,-37.109,-54.199,-38.086,-23.926,0.000
1709298511.385,-30.273,-40.527,-37.598,-17.090,0.000
1709298511.389,-20.020,-34.180,-39.062,-11.719,0.000
1709298511.393,-7.812,-39.062,-34.180,-10.742,0.000
1709298511.397,-13.672,-35.156,-34.180,-20.508,0.000
1709298511.401,-22.461,-31.250,-32.715,-26.855,0.000
1709298511.405,-16.113,-29.297,-34.180,-13.672,0.000
1709298511.409,-16.113,-30.762,-46.387,-11.230,0.000
1709298511.413,-13.184,-40.039,-49.316,-14.648,0.000
1709298511.417,-12.695,-40.527,-47.363,-20.508,0.000
1709298511.420,-13.184,-35.645,-35.156,-10.254,0.000
1709298511.424,-9.277,-37.598,-31.250,-3.418,0.000
1709298511.428,-7.324,-33.203,-32.227,-0.488,0.000
1709298511.432,-3.906,-33.203,-27.832,4.883,0.000
1709298511.436,-12.695,-37.598,-31.738,-11.719,0.000
1709298511.440,-22.461,-37.109,-33.203,-18.555,0.000
1709298511.444,-21.484,-33.691,-30.273,-9.277,0.000
1709298511.448,-22.461,-32.227,-36.133,-4.395,0.000
1709298511.452,-20.996,-33.203,-40.039,-4.883,0.000
1709298511.455,-25.391,-37.109,-44.922,-16.602,0.000
1709298511.459,-25.879,-45.898,-46.387,-29.785,0.000
1709298511.463,-27.344,-44.922,-45.410,-24.414,0.000
1709298511.467,-28.809,-32.715,-40.527,-4.395,0.000
1709298511.471,-21.484,-24.414,-42.969,-8.301,0.000
1709298511.475,-17.578,-25.879,-48.828,-20.508,0.000
1709298511.479,-22.949,-27.344,-45.410,-20.996,0.000
1709298511.483,-20.020,-20.020,-38.086,-16.113,0.000
1709298511.487,-17.578,-23.438,-34.180,-11.719,0.000
1709298511.491,-20.508,-37.598,-41.992,-12.207,0.000
1709298511.495,-14.160,-47.852,-37.109,-17.578,0.000
1709298511.499,-16.113,-41.992,-32.715,-30.273,0.000
1709298511.503,-27.344,-29.785,-35.645,-37.109,0.000
1709298511.507,-35.645,-35.156,-39.062,-33.203,0.000
1709298511.510,-32.715,-40.527,-44.434,-14.648,0.000
1709298511.514,-20.020,-42.480,-45.898,-16.113,0.000
1709298511.518,-16.113,-41.992,-45.410,-28.809,0.000
1709298511.522,-23.926,-37.598,-46.875,-25.391,0.000
1709298511.526,-22.461,-39.062,-47.852,-16.113,0.000
1709298511.530,-9.766,-39.062,-43.945,-3.906,0.000
1709298511.534,-10.254,-41.016,-50.293,-13.672,0.000
1709298511.538,-17.090,-54.688,-42.480,-25.391,0.000
1709298511.541,-29.785,-64.453,-30.273,-31.738,0.000
1709298511.545,-36.621,-45.898,-39.551,-32.227,0.000
1709298511.549,-28.320,-37.109,-37.598,-23.926,0.000
1709298511.553,-25.391,-48.340,-28.320,-20.020,0.000
1709298511.557,-31.738,-45.898,-37.598,-26.367,0.000
1709298511.561,-42.969,-40.039,-43.457,-27.832,0.000
1709298511.565,-41.992,-42.480,-36.621,-19.531,0.000
1709298511.569,-28.320,-46.875,-30.273,-0.977,0.000
1709298511.573,-20.996,-41.016,-24.902,10.742,0.000
1709298511.577,-19.043,-43.945,-40.039,-10.254,0.000
1709298511.581,-19.531,-48.828,-45.410,-19.043,0.000
1709298511.585,-15.137,-40.527,-36.133,-7.812,0.000
1709298511.589,-10.254,-30.762,-37.109,2.441,0.000
1709298511.592,-10.742,-31.738,-35.645,-3.418,0.000
1709298511.596,-12.695,-35.156,-42.969,-18.066,0.000
1709298511.600,-24.902,-46.387,-58.594,-29.297,0.000
1709298511.604,-23.438,-42.480,-51.270,-26.855,0.000
1709298511.608,-14.160,-35.645,-34.180,-17.090,0.000
1709298511.612,-10.254,-47.363,-30.273,-7.812,0.000
1709298511.616,-9.277,-48.340,-32.227,-9.766,0.000
1709298511.620,-18.066,-34.668,-31.738,-25.391,0.000
1709298511.624,-23.438,-28.809,-32.715,-28.320,0.000
1709298511.628,-21.484,-25.879,-37.598,-16.113,0.000
1709298511.632,-22.461,-26.367,-39.551,-12.695,0.000
1709298511.636,-22.461,-38.574,-44.922,-15.625,0.000
1709298511.639,-25.391,-39.062,-42.969,-22.461,0.000
1709298511.643,-31.250,-34.180,-39.062,-26.367,0.000
1709298511.647,-24.414,-25.879,-38.574,-15.137,0.000
1709298511.651,-17.090,-27.344,-38.574,-11.230,0.000
1709298511.655,-17.090,-34.668,-37.109,-21.484,0.000
1709298511.659,-24.902,-39.062,-37.598,-26.367,0.000
1709298511.663,-30.762,-41.504,-40.527,-14.648,0.000
1709298511.667,-30.273,-32.227,-46.387,-15.625,0.000
1709298511.671,-15.625,-29.785,-41.016,-8.789,0.000
1709298511.675,-7.812,-29.297,-31.738,-1.953,0.000
1709298511.679,-19.531,-22.461,-33.203,-8.301,0.000
1709298511.682,-29.297,-27.832,-36.621,-9.766,0.000
1709298511.686,-27.344,-34.668,-40.527,0.977,0.000
1709298511.690,-19.531,-29.297,-41.016,4.883,0.000
1709298511.694,-19.531,-36.621,-34.668,-5.371,0.000
1709298511.698,-20.996,-42.480,-37.109,-8.789,0.000
1709298511.702,-20.020,-39.551,-48.828,-11.719,0.000
1709298511.706,-17.090,-47.363,-36.133,-1.465,0.000
1709298511.710,-18.066,-47.852,-32.715,5.371,0.000
1709298511.714,-15.137,-39.551,-41.016,-3.418,0.000
1709298511.718,-7.812,-35.645,-36.621,-11.719,0.000
1709298511.721,-6.836,-34.180,-32.715,-15.625,0.000
1709298511.725,-15.625,-27.832,-37.109,-10.254,0.000
1709298511.729,-10.254,-27.832,-36.621,0.488,0.000
1709298511.733,0.977,-42.969,-35.156,0.000,0.000
1709298511.737,-0.488,-29.297,-34.668,-2.441,0.000
1709298511.741,-13.672,-26.367,-41.504,-13.184,0.000
1709298511.745,-15.625,-41.992,-43.457,-13.672,0.000
1709298511.749,-1.953,-37.598,-35.156,7.812,0.000
1709298511.753,3.906,-31.250,-38.086,18.066,0.000
1709298511.757,-0.488,-32.227,-41.016,-5.859,0.000
1709298511.761,-10.254,-35.645,-38.086,-19.043,0.000
1709298511.764,-15.625,-34.668,-32.715,-5.371,0.000
1709298511.768,-17.090,-35.645,-31.250,4.395,0.000
1709298511.772,-17.090,-41.016,-33.691,3.418,0.000
1709298511.776,-9.277,-39.062,-28.809,3.418,0.000
1709298511.780,-18.555,-42.969,-30.273,-3.418,0.000
1709298511.784,-32.227,-49.316,-38.574,-7.324,0.000
1709298511.788,-24.414,-52.246,-39.551,0.000,0.000
1709298511.792,-16.602,-41.016,-37.109,-2.930,0.000
1709298511.796,-16.602,-38.086,-46.875,-6.348,0.000
1709298511.799,-28.320,-35.645,-44.434,-16.113,0.000
1709298511.803,-39.551,-36.133,-38.086,-34.668,0.000
1709298511.807,-35.156,-41.504,-37.598,-27.344,0.000
1709298511.811,-31.738,-35.645,-37.109,-18.555,0.000
1709298511.815,-31.738,-37.109,-44.434,-29.785,0.000
1709298511.819,-31.250,-44.434,-47.852,-39.062,0.000
1709298511.823,-31.738,-51.758,-44.434,-39.551,0.000
1709298511.827,-22.949,-48.340,-44.434,-26.855,0.000
1709298511.831,-17.090,-36.133,-46.387,-17.090,0.000
1709298511.834,-14.160,-30.762,-39.062,-24.414,0.000
1709298511.838,-15.625,-34.180,-31.250,-23.926,0.000
1709298511.842,-26.855,-41.992,-44.922,-23.926,0.000
1709298511.846,-22.949,-48.340,-50.781,-29.297,0.000
1709298511.850,-8.789,-43.457,-39.062,-11.230,0.000
1709298511.854,-9.766,-35.156,-35.645,-5.859,0.000
1709298511.858,-10.742,-38.574,-39.062,-18.066,0.000
1709298511.862,-15.137,-44.922,-43.945,-20.508,0.000
1709298511.865,-17.578,-49.316,-41.504,-9.766,0.000
1709298511.869,-9.277,-54.688,-33.691,-0.488,0.000
1709298511.873,-14.648,-53.223,-32.227,-7.812,0.000
1709298511.877,-21.973,-42.480,-38.086,-15.625,0.000
1709298511.881,-29.297,-39.551,-37.109,-16.113,0.000
1709298511.885,-31.250,-35.156,-41.016,0.977,0.000
1709298511.889,-22.461,-30.762,-40.527,5.859,0.000
1709298511.893,-10.254,-35.156,-27.344,0.000,0.000
1709298511.897,-14.160,-35.645,-28.320,-10.254,0.000
1709298511.901,-19.531,-41.992,-33.203,-18.555,0.000
1709298511.905,-19.043,-50.293,-30.273,-18.066,0.000
1709298511.909,-11.719,-51.270,-32.715,-11.719,0.000
1709298511.913,-1.953,-47.363,-30.273,-6.348,0.000
1709298511.917,-9.277,-36.621,-31.738,-19.043,0.000
1709298511.920,-18.555,-39.551,-43.945,-28.320,0.000
1709298511.924,-15.625,-38.574,-42.480,-19.531,0.000
1709298511.928,-3.906,-37.109,-37.598,-1.953,0.000
1709298511.932,7.812,-34.180,-29.785,13.672,0.000
1709298511.936,5.371,-37.598,-31.250,-0.488,0.000
1709298511.940,-8.301,-43.457,-29.785,-13.184,0.000
1709298511.944,-12.695,-36.621,-20.996,-8.789,0.000
1709298511.948,-0.977,-25.879,-20.020,0.977,0.000
1709298511.952,12.207,-21.973,-20.508,8.789,0.000
1709298511.956,10.254,-30.762,-19.043,-5.859,0.000
1709298511.960,-11.230,-41.016,-27.832,-23.926,0.000
1709298511.964,-18.555,-37.598,-37.598,-19.531,0.000
1709298511.967,-14.160,-28.320,-39.062,-8.789,0.000
1709298511.971,-7.812,-29.785,-35.645,-5.859,0.000
1709298511.975,-4.395,-37.598,-37.109,-13.672,0.000
1709298511.979,-7.812,-35.645,-33.691,-23.926,0.000
1709298511.983,-14.160,-30.273,-27.832,-15.625,0.000
1709298511.987,-12.695,-31.738,-29.297,0.000,0.000
1709298511.991,-3.906,-37.598,-38.574,-0.977,0.000
1709298511.995,-9.766,-47.363,-38.574,-16.113,0.000
1709298511.999,-14.160,-43.457,-33.203,-19.531,0.000
1709298512.003,-19.043,-40.527,-38.574,-12.695,0.000
1709298512.007,-24.414,-44.922,-39.551,0.000,0.000
1709298512.011,-23.438,-38.574,-39.551,-0.488,0.000
1709298512.014,-15.625,-31.250,-41.504,-2.441,0.000
1709298512.018,-14.160,-32.227,-42.480,-7.324,0.000
1709298512.022,-18.066,-37.109,-39.551,-11.230,0.000
1709298512.026,-14.160,-36.621,-38.086,3.418,0.000
1709298512.030,-9.766,-32.227,-37.109,5.859,0.000
1709298512.034,-2.930,-39.062,-34.180,9.277,0.000
1709298512.038,-7.812,-51.270,-38.086,1.953,0.000
1709298512.042,-19.043,-45.898,-40.527,-17.578,0.000
1709298512.046,-16.113,-37.109,-41.992,-9.766,0.000
1709298512.050,-8.789,-36.621,-39.551,5.859,0.000
1709298512.054,-9.766,-41.992,-36.133,-4.395,0.000
1709298512.057,-13.184,-37.598,-33.691,-17.578,0.000
1709298512.061,-23.438,-37.598,-36.621,-15.625,0.000
1709298512.065,-30.762,-45.410,-41.504,-19.043,0.000
1709298512.069,-28.320,-41.016,-42.969,-20.996,0.000
1709298512.073,-22.949,-41.992,-34.668,-21.973,0.000
1709298512.077,-26.367,-52.734,-30.762,-23.926,0.000
1709298512.081,-32.715,-50.293,-39.551,-18.555,0.000
1709298512.085,-32.227,-45.410,-43.945,-21.484,0.000
1709298512.089,-31.250,-46.387,-41.992,-17.578,0.000
1709298512.093,-25.391,-37.109,-41.016,-13.672,0.000
1709298512.097,-15.625,-40.039,-38.574,-13.184,0.000
1709298512.101,-15.137,-42.969,-42.480,-8.301,0.000
1709298512.105,-19.531,-31.738,-41.016,-8.301,0.000
1709298512.109,-21.973,-27.832,-36.133,-2.930,0.000
1709298512.113,-15.137,-27.832,-38.574,6.348,0.000
1709298512.117,-11.719,-40.527,-40.039,0.000,0.000
1709298512.121,-20.996,-46.875,-34.668,-8.789,0.000
1709298512.124,-26.367,-45.898,-33.691,-1.953,0.000
1709298512.128,-22.461,-41.992,-41.992,3.906,0.000
1709298512.132,-14.648,-41.504,-44.922,-4.395,0.000
1709298512.136,-16.602,-41.992,-41.504,-10.742,0.000
1709298512.140,-20.508,-31.250,-33.203,-12.207,0.000
1709298512.144,-22.461,-35.156,-39.062,-14.648,0.000
1709298512.148,-17.090,-44.434,-50.781,-4.883,0.000
1709298512.152,-18.555,-47.363,-57.129,-0.977,0.000
1709298512.156,-21.973,-46.875,-60.059,-5.859,0.000
1709298512.159,-21.973,-45.410,-47.363,-13.672,0.000
1709298512.163,-28.320,-45.410,-35.645,-26.855,0.000
1709298512.167,-30.273,-46.387,-40.527,-26.367,0.000
1709298512.171,-23.926,-46.387,-41.016,-19.043,0.000
1709298512.175,-17.090,-43.945,-41.504,-19.043,0.000
1709298512.179,-28.809,-43.945,-47.363,-32.227,0.000
1709298512.183,-35.156,-40.039,-39.551,-32.715,0.000
1709298512.187,-32.227,-48.340,-41.992,-15.137,0.000
1709298512.190,-30.762,-50.293,-44.434,-18.555,0.000
1709298512.194,-28.809,-44.922,-40.527,-28.320,0.000
1709298512.198,-32.227,-46.875,-41.504,-34.668,0.000
1709298512.202,-36.133,-43.945,-40.039,-28.320,0.000
1709298512.206,-34.180,-39.551,-40.527,-18.066,0.000
1709298512.210,-26.367,-45.898,-40.527,-13.672,0.000
1709298512.214,-21.973,-45.410,-45.898,-8.789,0.000
1709298512.218,-21.484,-38.086,-46.875,-4.395,0.000
1709298512.222,-25.391,-35.645,-40.527,-11.719,0.000
1709298512.226,-22.461,-40.527,-36.621,-6.836,0.000
1709298512.230,-14.160,-54.199,-37.109,0.977,0.000
1709298512.233,-10.742,-54.199,-36.621,-6.836,0.000
1709298512.237,-10.742,-47.852,-31.738,-18.555,0.000
1709298512.241,-16.113,-47.852,-39.551,-18.066,0.000
1709298512.245,-7.812,-47.363,-38.086,-3.418,0.000
1709298512.249,-4.395,-46.387,-35.156,-2.441,0.000
1709298512.253,-7.324,-31.250,-44.434,-4.395,0.000
1709298512.257,-4.395,-27.344,-52.246,-12.207,0.000
1709298512.261,-8.789,-40.039,-48.828,-16.602,0.000
1709298512.264,-14.160,-47.363,-35.645,-15.625,0.000
1709298512.268,-6.348,-45.410,-34.180,-11.230,0.000
1709298512.272,-1.953,-39.062,-35.156,-6.836,0.000
1709298512.276,-8.789,-41.016,-35.645,-17.578,0.000
1709298512.280,-15.137,-45.410,-28.809,-21.973,0.000
1709298512.284,-23.438,-43.457,-26.367,-22.461,0.000
1709298512.288,-23.926,-41.016,-35.156,-15.625,0.000
1709298512.291,-17.090,-38.574,-40.527,-11.230,0.000
1709298512.295,-19.043,-35.645,-43.945,-23.438,0.000
1709298512.299,-29.297,-38.086,-45.410,-37.109,0.000
1709298512.303,-26.367,-38.086,-42.480,-30.762,0.000
1709298512.307,-20.508,-42.480,-36.133,-13.672,0.000
1709298512.311,-20.020,-42.969,-39.062,-12.695,0.000
1709298512.315,-16.602,-48.340,-43.945,-18.555,0.000
1709298512.319,-22.461,-51.270,-38.574,-28.809,0.000
1709298512.323,-29.785,-45.410,-39.551,-28.320,0.000
1709298512.327,-25.391,-49.316,-40.527,-14.648,0.000
1709298512.331,-21.973,-44.922,-38.086,-8.301,0.000
1709298512.335,-21.973,-36.621,-30.273,-16.602,0.000
1709298512.339,-24.414,-36.133,-21.484,-17.090,0.000
1709298512.342,-37.598,-44.922,-27.344,-11.719,0.000
1709298512.346,-37.109,-44.922,-42.480,-5.859,0.000
1709298512.350,-20.020,-43.945,-34.668,1.465,0.000
1709298512.354,-12.207,-51.270,-31.250,-5.371,0.000
1709298512.358,-15.137,-49.316,-35.645,-12.695,0.000
1709298512.362,-15.137,-45.410,-32.715,-12.207,0.000
1709298512.366,-12.695,-55.176,-29.297,4.883,0.000
1709298512.370,-5.371,-55.176,-32.227,5.859,0.000
1709298512.374,-1.465,-40.039,-36.133,-9.277,0.000
1709298512.378,-3.418,-26.855,-31.250,-14.160,0.000
1709298512.382,-10.742,-34.668,-34.180,-19.043,0.000
1709298512.385,-16.602,-41.504,-39.062,-13.184,0.000
1709298512.389,-1.465,-37.598,-34.668,0.488,0.000
1709298512.393,5.371,-41.504,-33.203,4.883,0.000
1709298512.397,-2.441,-48.828,-33.691,-2.441,0.000
1709298512.401,-11.230,-43.945,-33.691,-8.301,0.000
1709298512.405,-10.742,-38.086,-36.621,-0.488,0.000
1709298512.409,1.465,-43.457,-34.180,15.625,0.000
1709298512.413,5.371,-34.180,-35.156,18.555,0.000
1709298512.417,0.000,-25.879,-41.504,-3.418,0.000
1709298512.421,-10.254,-42.969,-40.039,-14.648,0.000
1709298512.425,-15.137,-57.129,-40.039,-11.719,0.000
1709298512.429,-18.555,-46.387,-41.504,-1.953,0.000
1709298512.432,-20.508,-40.527,-40.039,-2.930,0.000
1709298512.436,-19.043,-41.016,-28.809,-8.301,0.000
1709298512.440,-23.926,-35.156,-27.344,-10.254,0.000
1709298512.444,-32.227,-41.016,-41.992,-13.672,0.000
1709298512.448,-28.809,-44.434,-40.527,-9.277,0.000
1709298512.452,-24.902,-40.039,-38.086,-7.812,0.000
1709298512.456,-27.344,-54.199,-43.457,-17.578,0.000
1709298512.460,-36.133,-56.152,-38.086,-29.785,0.000
1709298512.464,-36.621,-42.480,-37.598,-28.320,0.000
1709298512.468,-25.879,-39.551,-41.016,-17.090,0.000
1709298512.472,-20.508,-41.504,-36.133,-16.113,0.000
1709298512.476,-23.926,-47.363,-40.039,-24.902,0.000
1709298512.480,-28.809,-36.621,-37.109,-31.738,0.000
1709298512.484,-28.320,-34.180,-30.762,-26.367,0.000
1709298512.488,-24.902,-47.852,-41.016,-19.531,0.000
1709298512.492,-18.066,-40.039,-41.992,-12.207,0.000
1709298512.495,-16.113,-37.598,-40.527,-23.438,0.000
1709298512.499,-26.855,-44.922,-43.457,-35.645,0.000
1709298512.503,-36.133,-46.875,-39.551,-20.996,0.000
1709298512.507,-31.738,-41.992,-41.016,-20.996,0.000
1709298512.511,-16.113,-36.133,-44.434,-15.625,0.000
1709298512.515,-16.602,-46.387,-41.992,-6.836,0.000
1709298512.519,-25.879,-48.828,-40.039,-21.484,0.000
1709298512.523,-30.762,-41.504,-42.969,-29.785,0.000
1709298512.527,-23.926,-34.180,-39.062,-14.160,0.000
1709298512.530,-10.254,-38.574,-33.691,-1.465,0.000
1709298512.534,-11.719,-46.875,-37.598,-11.719,0.000
1709298512.538,-15.625,-46.875,-35.645,-25.391,0.000
1709298512.542,-9.277,-42.969,-37.109,-24.414,0.000
1709298512.546,-7.812,-36.621,-48.340,-12.695,0.000
1709298512.550,-7.812,-27.344,-44.922,-1.465,0.000
1709298512.554,-8.789,-24.414,-43.457,-13.184,0.000
1709298512.558,-20.020,-33.203,-52.246,-32.227,0.000
1709298512.562,-23.926,-32.227,-55.664,-30.762,0.000
1709298512.565,-22.949,-32.227,-43.945,-31.250,0.000
1709298512.569,-23.926,-53.223,-38.574,-32.227,0.000
1709298512.573,-19.043,-55.176,-40.039,-28.809,0.000
1709298512.577,-15.137,-40.527,-37.109,-32.715,0.000
1709298512.581,-17.090,-47.363,-34.668,-33.691,0.000
1709298512.585,-21.484,-41.992,-33.203,-22.461,0.000
1709298512.589,-20.020,-35.156,-39.062,-10.254,0.000
1709298512.593,-18.555,-41.016,-40.527,-0.977,0.000
1709298512.597,-20.996,-48.828,-46.387,-17.578,0.000
1709298512.601,-22.949,-50.293,-47.852,-29.785,0.000
1709298512.604,-22.949,-50.781,-34.180,-7.812,0.000
1709298512.608,-15.625,-48.828,-29.297,8.789,0.000
1709298512.612,-11.230,-50.781,-37.109,5.859,0.000
1709298512.616,-12.695,-54.199,-41.504,0.000,0.000
1709298512.620,-17.578,-43.945,-37.109,-8.789,0.000
1709298512.624,-28.809,-41.016,-37.109,-12.695,0.000
1709298512.628,-31.738,-45.898,-38.086,-10.254,0.000
1709298512.632,-32.227,-47.363,-43.945,-13.672,0.000
1709298512.636,-28.320,-49.316,-45.410,-12.695,0.000
1709298512.640,-28.320,-50.781,-41.016,-20.020,0.000
1709298512.644,-31.250,-42.480,-40.039,-26.367,0.000
1709298512.648,-26.367,-42.969,-40.039,-16.113,0.000
1709298512.651,-23.438,-52.246,-41.016,-8.301,0.000
1709298512.655,-15.137,-45.410,-33.203,-10.742,0.000
1709298512.659,-13.184,-44.434,-37.109,-21.973,0.000
1709298512.663,-23.438,-42.969,-43.945,-25.391,0.000
1709298512.667,-25.879,-32.715,-37.598,-23.438,0.000
1709298512.671,-15.137,-32.715,-38.574,-15.625,0.000
1709298512.675,-4.395,-38.086,-30.762,-15.625,0.000
1709298512.678,-12.207,-41.016,-34.180,-27.832,0.000
1709298512.682,-19.043,-36.133,-49.805,-19.043,0.000
1709298512.686,-15.137,-35.156,-40.527,-10.742,0.000
1709298512.690,-15.137,-39.062,-33.691,-13.184,0.000
1709298512.694,-10.254,-40.527,-31.738,-8.301,0.000
1709298512.698,-6.836,-39.062,-28.320,-10.254,0.000
1709298512.702,-17.578,-34.180,-31.250,-26.367,0.000
1709298512.706,-20.020,-29.297,-31.738,-31.738,0.000
1709298512.710,-6.348,-28.320,-29.785,-19.531,0.000
1709298512.714,9.766,-31.250,-20.996,-12.207,0.000
1709298512.718,3.906,-35.156,-32.715,-22.949,0.000
1709298512.722,-1.465,-27.344,-41.016,-23.438,0.000
1709298512.726,1.465,-29.785,-30.273,-14.648,0.000
1709298512.729,8.301,-31.738,-26.367,0.977,0.000
1709298512.733,16.602,-33.691,-27.344,4.395,0.000
1709298512.737,6.348,-39.551,-28.320,-7.812,0.000
1709298512.741,-2.441,-42.480,-24.902,0.000,0.000
1709298512.745,-6.348,-43.945,-29.297,1.953,0.000
1709298512.749,0.000,-41.992,-34.668,10.742,0.000
1709298512.753,3.418,-36.133,-40.039,14.648,0.000
1709298512.757,-0.488,-35.645,-45.410,-4.883,0.000
1709298512.761,-6.836,-40.527,-38.574,-14.160,0.000
1709298512.765,-6.348,-40.039,-36.621,-3.418,0.000
1709298512.769,1.953,-40.039,-37.109,11.230,0.000
1709298512.773,5.371,-48.828,-28.809,15.625,0.000
1709298512.776,2.930,-42.969,-27.344,6.348,0.000
1709298512.780,-2.930,-29.297,-28.809,-7.812,0.000
1709298512.784,-11.230,-27.344,-28.809,-7.812,0.000
1709298512.788,-10.742,-31.738,-31.738,7.324,0.000
1709298512.792,-7.812,-28.809,-35.156,3.418,0.000
1709298512.796,-9.766,-35.156,-36.621,-4.395,0.000
1709298512.800,0.000,-34.668,-35.156,-12.207,0.000
1709298512.804,0.000,-29.297,-35.645,-14.648,0.000
1709298512.808,0.000,-38.086,-33.691,-8.301,0.000
1709298512.812,0.000,-37.109,-29.785,-4.395,0.000
1709298512.816,0.000,-38.574,-37.598,-8.301,0.000
1709298512.820,0.000,-34.180,-30.762,-11.230,0.000
1709298512.824,0.000,-28.320,-27.344,-18.555,0.000
1709298512.828,0.000,-36.133,-39.551,-14.648,0.000
1709298512.832,0.000,-43.945,-39.551,-3.906,0.000
1709298512.835,0.000,-41.992,-36.133,-9.277,0.000
1709298512.839,0.000,-35.156,-30.762,-21.484,0.000
1709298512.843,0.000,-37.598,-37.598,-29.785,0.000
1709298512.847,-21.973,-41.016,-42.969,-19.531,0.000
1709298512.851,-17.578,-37.109,-41.016,-19.043,0.000
1709298512.855,-26.367,-39.062,-40.527,-26.855,0.000
1709298512.859,-32.715,-39.062,-41.504,-31.738,0.000
1709298512.863,-39.551,-39.551,-44.922,-34.180,0.000
1709298512.867,-41.016,-44.922,-37.598,-22.461,0.000
1709298512.871,-33.203,-40.527,-36.133,-9.277,0.000
1709298512.874,-32.715,-41.016,-35.645,-7.324,0.000
1709298512.878,-33.691,-56.152,-32.227,-4.395,0.000
1709298512.882,-40.039,-57.617,-35.156,-19.531,0.000
1709298512.886,-41.992,-39.551,-36.133,-22.461,0.000
1709298512.890,-32.227,-40.039,-43.457,-12.695,0.000
1709298512.894,-20.996,-51.270,-45.410,-14.648,0.000
1709298512.898,-20.996,-41.504,-42.480,-17.578,0.000
1709298512.902,-23.926,-34.180,-34.180,-15.137,0.000
1709298512.906,-25.391,-38.086,-34.180,-6.348,0.000
1709298512.909,-20.020,-44.434,-40.039,3.906,0.000
1709298512.913,-11.719,-55.176,-42.480,0.488,0.000
1709298512.917,-16.602,-55.176,-46.875,-16.113,0.000
1709298512.921,-26.367,-54.199,-45.410,-13.672,0.000
1709298512.925,-23.926,-52.734,-46.875,-8.789,0.000
1709298512.929,-20.508,-42.480,-42.480,-14.160,0.000
1709298512.933,-9.766,-33.203,-36.133,-11.230,0.000
1709298512.937,-8.789,-41.016,-38.574,-17.578,0.000
1709298512.941,-25.391,-41.016,-38.086,-26.855,0.000
1709298512.944,-32.227,-36.621,-38.086,-23.926,0.000
1709298512.948,-20.996,-41.016,-37.598,-12.207,0.000
1709298512.952,-10.742,-36.621,-36.621,-5.859,0.000
1709298512.956,-16.602,-39.551,-35.645,-19.043,0.000
1709298512.960,-22.461,-41.016,-25.879,-37.109,0.000
1709298512.964,-21.484,-35.645,-19.531,-27.832,0.000
1709298512.968,-21.973,-44.434,-26.855,-4.883,0.000
1709298512.972,-15.625,-36.621,-32.227,-10.254,0.000
1709298512.976,-15.625,-36.133,-33.691,-23.926,0.000
1709298512.980,-27.832,-49.316,-41.016,-26.367,0.000
1709298512.983,-28.320,-44.434,-40.527,-24.414,0.000
1709298512.987,-29.785,-44.434,-40.527,-22.461,0.000
1709298512.991,-23.438,-47.363,-33.691,-6.348,0.000
1709298512.995,-14.648,-43.945,-28.320,-4.883,0.000
1709298512.999,-18.555,-40.039,-29.785,-14.160,0.000
1709298513.003,-28.809,-41.016,-34.180,-16.602,0.000
1709298513.007,-21.973,-38.086,-33.691,-6.348,0.000
1709298513.011,-5.371,-36.133,-28.809,20.508,0.000
1709298513.014,-7.324,-40.039,-38.574,14.648,0.000
1709298513.018,-12.695,-39.062,-32.715,-5.371,0.000
1709298513.022,-9.766,-41.016,-20.020,-1.953,0.000
1709298513.026,-11.719,-43.945,-28.320,8.301,0.000
1709298513.030,-11.230,-44.922,-30.762,12.695,0.000
1709298513.034,-3.906,-37.598,-23.926,9.277,0.000
1709298513.038,-3.906,-31.250,-26.855,0.977,0.000
1709298513.041,-7.812,-37.109,-35.156,-2.930,0.000
1709298513.045,-14.648,-43.945,-35.156,4.395,0.000
1709298513.049,-13.672,-43.457,-39.062,-0.977,0.000
1709298513.053,-1.953,-34.180,-40.039,3.418,0.000
1709298513.057,-5.371,-34.668,-41.504,3.906,0.000
1709298513.061,-12.695,-41.992,-47.852,-15.137,0.000
1709298513.065,-4.883,-37.598,-44.434,-14.648,0.000
1709298513.069,2.441,-38.574,-34.668,0.488,0.000
1709298513.073,-1.953,-48.828,-39.062,-0.488,0.000
1709298513.077,-8.301,-44.922,-40.039,-20.020,0.000
1709298513.081,-13.184,-41.016,-39.062,-31.250,0.000
1709298513.085,-15.625,-36.621,-42.480,-21.973,0.000
1709298513.089,-11.719,-30.273,-42.969,-13.672,0.000
1709298513.092,-1.953,-40.527,-41.016,-18.555,0.000
1709298513.096,-4.395,-41.504,-41.504,-20.996,0.000
1709298513.100,-8.301,-43.945,-39.062,-15.625,0.000
1709298513.104,-2.441,-38.574,-38.086,-4.883,0.000
1709298513.108,-4.883,-34.668,-38.574,-3.418,0.000
1709298513.112,-12.695,-35.156,-44.434,-18.066,0.000
1709298513.116,-23.438,-34.668,-48.340,-24.902,0.000
1709298513.120,-21.484,-32.715,-51.270,-11.719,0.000
1709298513.124,-11.230,-28.809,-48.340,-3.418,0.000
1709298513.128,-7.324,-33.203,-39.062,-8.301,0.000
1709298513.132,-20.020,-38.574,-38.086,-16.113,0.000
1709298513.136,-29.297,-36.133,-35.645,-10.254,0.000
1709298513.139,-27.344,-32.715,-41.016,-8.301,0.000
1709298513.143,-18.066,-37.598,-43.945,-6.348,0.000
1709298513.147,-12.695,-45.898,-43.945,-12.207,0.000
1709298513.151,-25.391,-51.758,-45.410,-29.297,0.000
1709298513.155,-30.273,-50.293,-43.457,-20.020,0.000
1709298513.159,-26.367,-40.527,-39.551,-13.184,0.000
1709298513.163,-24.414,-36.621,-40.527,-20.020,0.000
1709298513.167,-16.602,-38.086,-39.062,-22.461,0.000
1709298513.171,-20.508,-36.133,-38.574,-21.973,0.000
1709298513.175,-29.297,-34.180,-38.574,-17.090,0.000
1709298513.179,-24.902,-40.039,-38.574,-7.324,0.000
1709298513.183,-8.789,-38.086,-36.621,3.906,0.000
1709298513.186,-3.418,-37.598,-36.621,-0.488,0.000
1709298513.190,-6.348,-46.387,-34.668,-12.695,0.000
1709298513.194,-9.766,-48.828,-31.738,-10.742,0.000
1709298513.198,-16.113,-43.457,-37.598,-3.418,0.000
1709298513.202,-19.043,-34.180,-48.828,-8.789,0.000
1709298513.206,-18.555,-26.367,-52.246,-21.484,0.000
1709298513.210,-19.531,-28.809,-41.016,-25.879,0.000
1709298513.214,-24.414,-26.367,-35.645,-27.344,0.000
1709298513.218,-28.809,-27.832,-40.039,-21.484,0.000
1709298513.222,-20.020,-36.621,-44.434,-4.883,0.000
1709298513.225,-15.625,-41.504,-44.434,-11.719,0.000
1709298513.229,-20.996,-42.480,-49.316,-26.367,0.000
1709298513.233,-21.973,-40.039,-42.969,-19.531,0.000
1709298513.237,-26.367,-44.922,-41.016,-13.184,0.000
1709298513.241,-26.855,-46.387,-39.551,-6.348,0.000
1709298513.245,-21.484,-45.410,-40.039,-2.930,0.000
1709298513.249,-20.508,-36.133,-44.434,-15.625,0.000
1709298513.253,-20.508,-18.555,-39.551,-20.508,0.000
1709298513.257,-24.902,-26.855,-41.504,-10.742,0.000
1709298513.261,-22.461,-41.504,-39.551,-2.930,0.000
1709298513.264,-15.625,-33.203,-37.109,-9.277,0.000
1709298513.269,-12.695,-26.855,-35.645,-12.695,0.000
1709298513.273,-22.461,-42.480,-38.574,-21.484,0.000
1709298513.277,-23.438,-53.223,-41.016,-23.926,0.000
1709298513.281,-16.602,-49.805,-36.133,-7.812,0.000
1709298513.285,-20.508,-41.504,-39.062,-2.441,0.000
1709298513.288,-18.555,-38.574,-43.457,-7.812,0.000
1709298513.292,-23.438,-34.668,-41.992,-23.438,0.000
1709298513.296,-32.227,-36.621,-34.180,-32.227,0.000
1709298513.300,-24.902,-49.805,-31.250,-20.508,0.000
1709298513.304,-10.742,-46.875,-31.738,-5.371,0.000
1709298513.308,-4.883,-41.504,-34.668,-11.719,0.000
1709298513.312,-5.859,-41.016,-35.645,-22.949,0.000
1709298513.317,-9.277,-44.434,-31.738,-13.672,0.000
1709298513.321,-11.230,-46.875,-25.879,-5.859,0.000
1709298513.325,-1.953,-42.480,-27.344,0.977,0.000
1709298513.328,-2.441,-46.387,-32.227,0.488,0.000
1709298513.332,-16.113,-53.223,-36.621,-14.160,0.000
1709298513.336,-24.902,-48.340,-35.156,-16.113,0.000
1709298513.340,-25.391,-47.363,-35.156,-12.207,0.000
1709298513.344,-23.926,-44.922,-46.875,-19.043,0.000
1709298513.348,-27.344,-38.574,-46.387,-21.973,0.000
1709298513.352,-23.926,-40.527,-35.645,-16.113,0.000
1709298513.356,-29.785,-40.527,-34.180,-22.461,0.000
1709298513.360,-24.902,-40.039,-40.527,-15.137,0.000
1709298513.364,-10.742,-46.875,-42.969,7.324,0.000
1709298513.368,-7.324,-51.270,-37.109,1.953,0.000
1709298513.372,-12.695,-42.969,-36.621,-15.137,0.000
1709298513.376,-20.020,-36.133,-36.133,-10.254,0.000
1709298513.380,-20.020,-37.598,-38.086,2.930,0.000
1709298513.383,-10.742,-34.668,-38.086,11.230,0.000
1709298513.387,-8.301,-36.621,-38.574,0.977,0.000
1709298513.391,-8.789,-40.527,-38.574,-5.859,0.000
1709298513.395,-16.602,-42.969,-40.039,-11.230,0.000
1709298513.399,-27.344,-41.992,-41.992,-14.160,0.000
1709298513.403,-25.391,-34.668,-43.945,-12.207,0.000
1709298513.407,-23.926,-33.203,-37.598,-8.301,0.000
1709298513.411,-27.832,-46.875,-43.945,-11.719,0.000
1709298513.415,-31.738,-44.922,-50.293,-31.250,0.000
1709298513.419,-36.621,-43.457,-49.316,-32.715,0.000
1709298513.423,-40.039,-43.945,-49.316,-25.879,0.000
1709298513.427,-33.691,-38.574,-45.410,-23.438,0.000
1709298513.431,-24.902,-46.387,-46.387,-29.297,0.000
1709298513.434,-28.320,-49.805,-44.922,-42.969,0.000
1709298513.438,-29.785,-35.645,-41.504,-36.621,0.000
1709298513.442,-26.367,-29.297,-43.945,-26.367,0.000
1709298513.446,-19.531,-27.344,-49.805,-32.715,0.000
1709298513.450,-18.066,-38.086,-49.805,-40.527,0.000
1709298513.454,-16.113,-50.293,-41.504,-39.551,0.000
1709298513.458,-17.578,-42.480,-36.133,-38.574,0.000
1709298513.462,-22.461,-38.086,-38.574,-41.992,0.000
1709298513.466,-19.043,-37.598,-43.945,-37.598,0.000
1709298513.470,-12.207,-41.504,-38.086,-29.297,0.000
1709298513.474,-8.789,-36.133,-29.297,-26.367,0.000
1709298513.478,-11.230,-29.785,-36.621,-24.414,0.000
1709298513.481,-14.648,-33.691,-36.621,-8.789,0.000
1709298513.485,-13.672,-31.738,-34.180,2.930,0.000
1709298513.489,-3.418,-31.250,-39.551,-2.930,0.000
1709298513.493,-4.395,-42.480,-34.180,-16.113,0.000
1709298513.497,-10.254,-50.781,-36.621,-15.625,0.000
1709298513.501,-5.371,-35.156,-41.992,3.418,0.000
1709298513.505,-1.465,-27.344,-38.086,15.137,0.000
1709298513.509,-2.441,-36.133,-26.855,12.695,0.000
1709298513.513,-6.836,-42.480,-27.832,4.395,0.000
1709298513.517,-17.090,-47.363,-40.527,-5.859,0.000
1709298513.521,-13.672,-42.969,-41.504,-4.395,0.000
1709298513.524,-0.488,-35.645,-47.852,1.953,0.000
1709298513.528,0.488,-31.250,-53.223,5.371,0.000
1709298513.532,-7.812,-41.504,-51.270,0.000,0.000
1709298513.536,-10.254,-50.293,-53.711,-17.090,0.000
1709298513.540,-13.184,-34.668,-57.129,-9.766,0.000
1709298513.544,-3.906,-23.438,-46.875,7.812,0.000
1709298513.548,10.742,-23.926,-42.480,-0.977,0.000
1709298513.552,1.465,-30.273,-46.875,-21.484,0.000
1709298513.556,-10.254,-34.668,-44.434,-26.367,0.000
1709298513.559,-9.766,-35.156,-42.969,-17.578,0.000
1709298513.563,-4.883,-34.668,-48.340,-16.602,0.000
1709298513.567,4.395,-29.785,-50.293,-14.160,0.000
1709298513.571,0.000,-32.227,-41.016,-20.020,0.000
1709298513.575,-9.766,-38.574,-37.598,-19.043,0.000
1709298513.579,-9.766,-32.227,-39.551,-12.695,0.000
1709298513.583,-4.395,-26.855,-42.480,-8.301,0.000
1709298513.587,0.000,-26.367,-42.969,-6.348,0.000
1709298513.591,-7.812,-22.949,-44.922,-17.090,0.000
1709298513.595,-19.531,-25.879,-43.457,-28.320,0.000
1709298513.599,-16.602,-26.855,-38.574,-27.832,0.000
1709298513.603,-11.719,-25.391,-31.738,-16.113,0.000
1709298513.607,-18.555,-32.715,-38.086,-13.672,0.000
1709298513.611,-29.785,-32.715,-40.039,-22.461,0.000
1709298513.615,-37.109,-30.273,-38.574,-31.250,0.000
1709298513.619,-43.945,-41.016,-42.480,-32.715,0.000
1709298513.622,-38.086,-51.270,-33.203,-18.555,0.000
1709298513.626,-28.809,-51.758,-30.762,-14.160,0.000
1709298513.630,-32.227,-43.457,-31.738,-20.996,0.000
1709298513.634,-40.039,-40.039,-33.203,-27.344,0.000
1709298513.638,-40.039,-35.645,-39.551,-23.926,0.000
1709298513.642,-32.715,-35.645,-40.527,-18.066,0.000
1709298513.647,-23.926,-36.621,-34.180,-8.789,0.000
1709298513.651,-20.996,-36.133,-39.551,-8.301,0.000
1709298513.655,-27.344,-37.598,-47.363,-17.090,0.000
1709298513.659,-28.320,-32.227,-42.480,-15.137,0.000
1709298513.663,-29.297,-40.527,-43.457,-8.789,0.000
1709298513.666,-18.066,-50.781,-36.621,4.395,0.000
1709298513.670,-8.301,-43.457,-34.668,3.906,0.000
1709298513.674,-14.648,-24.414,-42.969,-9.277,0.000
1709298513.678,-17.090,-20.020,-36.621,0.000,0.000
1709298513.682,-14.648,-29.785,-32.715,20.996,0.000
1709298513.686,-13.672,-30.273,-42.969,14.160,0.000
1709298513.690,-6.836,-25.879,-41.992,0.000,0.000
1709298513.694,-4.883,-31.250,-38.574,-9.277,0.000
1709298513.698,-16.602,-34.180,-42.969,-22.461,0.000
1709298513.702,-13.184,-31.250,-40.039,-12.695,0.000
1709298513.706,0.000,-36.621,-31.738,4.883,0.000
1709298513.710,-1.465,-41.016,-31.250,1.465,0.000
1709298513.714,-9.277,-40.039,-35.156,-15.137,0.000
1709298513.718,-17.578,-37.598,-41.504,-26.855,0.000
1709298513.721,-23.926,-30.273,-44.434,-19.531,0.000
1709298513.725,-13.672,-29.785,-42.480,-13.672,0.000
1709298513.729,-9.766,-39.062,-47.363,-21.973,0.000
1709298513.733,-8.301,-26.367,-46.387,-24.414,0.000
1709298513.737,-8.301,-23.438,-38.086,-24.902,0.000
1709298513.741,-12.695,-40.527,-38.086,-13.672,0.000
1709298513.745,-10.742,-40.039,-35.645,0.488,0.000
1709298513.749,-8.301,-36.621,-41.504,-8.789,0.000
1709298513.753,-11.230,-38.086,-40.039,-20.996,0.000
1709298513.757,-20.020,-38.574,-30.273,-20.020,0.000
1709298513.761,-22.949,-40.039,-31.738,-11.719,0.000
1709298513.765,-19.043,-39.551,-38.086,-8.301,0.000
1709298513.769,-15.625,-39.062,-39.551,-7.812,0.000
1709298513.772,-15.137,-33.691,-31.250,0.488,0.000
1709298513.776,-24.902,-38.086,-31.250,-15.625,0.000
1709298513.780,-30.762,-41.504,-38.086,-22.461,0.000
1709298513.784,-20.020,-40.039,-37.598,-6.348,0.000
1709298513.788,-9.277,-45.898,-44.922,-2.930,0.000
1709298513.792,-13.184,-47.852,-41.504,-9.277,0.000
1709298513.796,-24.902,-41.504,-38.574,-26.855,0.000
1709298513.800,-28.320,-41.992,-41.016,-27.344,0.000
1709298513.804,-25.879,-52.734,-33.691,-13.184,0.000
1709298513.808,-20.996,-47.852,-35.156,-9.277,0.000
1709298513.812,-17.090,-40.039,-39.062,-15.625,0.000
1709298513.815,-27.344,-43.457,-45.410,-26.367,0.000
1709298513.819,-36.621,-50.293,-45.410,-27.344,0.000
1709298513.823,-31.738,-48.828,-32.715,-19.531,0.000
1709298513.827,-20.508,-46.387,-36.621,-17.090,0.000
1709298513.831,-15.625,-48.340,-35.645,-6.836,0.000
1709298513.835,-18.555,-33.691,-31.738,-15.137,0.000
1709298513.839,-25.879,-32.715,-41.016,-27.832,0.000
1709298513.843,-26.367,-39.551,-41.992,-12.695,0.000
1709298513.847,-18.555,-38.574,-40.039,-3.418,0.000
1709298513.851,-18.066,-33.203,-38.086,-16.113,0.000
1709298513.855,-21.973,-27.832,-35.156,-27.832,0.000
1709298513.858,-24.414,-40.039,-32.227,-26.367,0.000
1709298513.862,-18.555,-43.457,-26.367,-11.719,0.000
1709298513.866,-8.301,-37.598,-34.668,-8.301,0.000
1709298513.870,-3.418,-37.109,-40.527,-15.625,0.000
1709298513.874,-11.230,-34.180,-38.574,-26.367,0.000
1709298513.878,-20.996,-33.203,-40.527,-29.297,0.000
1709298513.882,-23.926,-35.156,-40.039,-18.555,0.000
1709298513.886,-20.020,-44.434,-42.969,-9.766,0.000
1709298513.890,-10.742,-52.734,-39.062,-9.277,0.000
1709298513.894,-10.742,-51.758,-37.109,-21.973,0.000
1709298513.897,-21.973,-46.387,-41.504,-31.250,0.000
1709298513.901,-20.996,-38.574,-38.086,-22.949,0.000
1709298513.905,-14.648,-38.574,-43.457,-4.883,0.000
1709298513.909,-11.230,-44.922,-44.434,-0.488,0.000
1709298513.913,-9.277,-39.062,-37.598,-19.531,0.000
1709298513.917,-18.555,-37.598,-50.293,-27.832,0.000
1709298513.921,-28.809,-43.945,-55.176,-25.879,0.000
1709298513.925,-26.855,-45.410,-44.434,-19.531,0.000
1709298513.929,-22.461,-44.922,-41.016,-24.414,0.000
1709298513.932,-23.926,-43.457,-44.434,-31.738,0.000
1709298513.936,-22.461,-40.039,-41.504,-27.832,0.000
1709298513.940,-21.973,-38.086,-41.504,-30.762,0.000
1709298513.944,-20.508,-39.062,-45.898,-26.367,0.000
1709298513.948,-13.184,-40.527,-35.156,-7.812,0.000
1709298513.952,-12.695,-31.250,-23.926,-0.977,0.000
1709298513.956,-24.902,-31.250,-36.621,-23.926,0.000
1709298513.960,-37.109,-41.016,-50.781,-45.410,0.000
1709298513.964,-34.668,-37.109,-44.922,-32.715,0.000
1709298513.968,-26.855,-40.527,-41.504,-24.414,0.000
1709298513.972,-28.320,-46.387,-45.898,-39.551,0.000
